DTS Sentinel unit serial number:	SN413079Multiplexer serial number:	ORYXHardware model number:	OX4-SRSoftware version number:	ORYX F/W v4.00 Oryx Data Collector v3.7.2.0data status	okinstallation	princeton_trtdifferential loss correction	single-endedforward channel	channel 4reverse channel	N/Adate	2019/09/18time	21:37:35forward acquisition time	60.00reverse acquisition time	0.00gamma	496.2192k internal	0.2331k external	0.2331temperature offset calibration	1.0029default loss term (dB/km)	0.3790temperature slope calibration	1.0000multiplexer offset coefficient	1.0000multiplexer slope coefficient	1.0000fibre end	0.00T internal ref (°C)	25.06T ext. ref 1 (°C)	0.82T ext. ref 2 (°C)	18.30length (m)	temperature (°C)	Stokes	anti-Stokes-747.200	47.190	0.059	0.055
-746.185	-39.083	-0.301	0.159
-745.171	329.721	-0.035	0.067
-744.156	117.021	-0.198	-0.245
-743.142	-96.300	0.205	-0.055
-742.127	-200.000	-0.025	0.130
-741.112	-200.000	0.042	0.346
-740.098	800.000	0.034	-0.121
-739.083	65.129	0.142	0.144
-738.069	-200.000	-0.042	0.209
-737.054	269.711	-0.105	-0.186
-736.039	-200.000	0.023	-0.185
-735.025	250.185	-0.056	0.095
-734.010	-200.000	0.019	-0.382
-732.996	-104.956	-0.324	-0.075
-731.981	141.846	0.035	0.047
-730.966	-200.000	-0.005	-0.126
-729.952	-103.834	0.113	0.027
-728.937	14.251	-0.083	0.065
-727.923	-200.000	0.058	-0.368
-726.908	800.000	0.035	-0.120
-725.894	19.022	-0.227	-0.183
-724.879	210.019	-0.092	-0.145
-723.864	-41.597	-0.092	0.047
-722.850	-200.000	-0.044	-0.703
-721.835	800.000	-0.160	-0.507
-720.821	48.904	0.164	-0.155
-719.806	241.326	-0.171	0.288
-718.791	-200.000	-0.011	-0.127
-717.777	-111.666	-0.344	-0.070
-716.762	232.304	0.152	-0.251
-715.748	14.620	0.117	-0.092
-714.733	-188.496	-0.536	-0.007
-713.718	34.203	-0.205	-0.179
-712.704	-22.040	0.061	-0.037
-711.689	-80.731	-0.255	0.085
-710.675	-84.426	-0.310	-0.098
-709.660	439.952	0.135	0.296
-708.645	-130.573	-0.378	-0.051
-707.631	312.799	0.214	-0.403
-706.616	-200.000	0.042	0.201
-705.602	19.100	0.194	-0.156
-704.587	-6.925	0.320	-0.218
-703.572	-44.528	0.436	-0.219
-702.558	-72.150	-0.140	0.052
-701.543	113.621	-0.057	0.070
-700.529	-18.795	0.264	0.165
-699.514	-193.116	0.131	-0.001
-698.499	59.435	-0.217	0.215
-697.485	-89.462	0.426	-0.126
-696.470	-70.658	-0.144	0.055
-695.456	-200.000	-0.028	-0.188
-694.441	-200.000	-0.054	-0.255
-693.426	-200.000	-0.040	-0.349
-692.412	-200.000	0.029	0.161
-691.397	-75.800	-0.189	0.067
-690.383	-200.000	-0.050	0.275
-689.368	87.291	-0.269	0.299
-688.354	800.000	0.037	0.154
-687.339	-200.000	-0.021	-0.134
-686.324	800.000	0.047	-0.141
-685.310	-59.846	-0.292	-0.125
-684.295	-114.098	-0.217	-0.042
-683.281	4.577	-0.191	-0.141
-682.266	453.619	-0.157	-0.348
-681.251	-31.853	0.017	-0.009
-680.237	404.703	-0.090	0.191
-679.222	11.333	-0.130	-0.100
-678.208	-48.021	-0.054	-0.026
-677.193	-37.207	0.058	0.031
-676.178	168.146	-0.088	-0.125
-675.164	-14.846	0.271	0.174
-674.149	-68.308	-0.254	0.099
-673.135	185.189	-0.037	-0.056
-672.120	-133.795	0.342	0.043
-671.105	800.000	0.103	-0.394
-670.091	190.852	-0.103	0.155
-669.076	11.172	0.086	-0.066
-668.062	800.000	-0.127	0.394
-667.047	-200.000	-0.006	0.031
-666.032	-99.656	-0.278	-0.070
-665.018	-16.284	-0.161	-0.103
-664.003	-39.598	-0.411	-0.216
-662.989	11.426	-0.265	0.204
-661.974	-171.939	0.183	-0.006
-660.959	-114.420	0.363	0.070
-659.945	800.000	0.056	0.228
-658.930	-112.714	0.098	-0.020
-657.916	745.618	0.113	-0.306
-656.901	-80.153	-0.271	-0.091
-655.886	727.459	0.118	-0.315
-654.872	51.756	-0.380	-0.362
-653.857	240.832	-0.116	0.194
-652.843	218.439	0.142	-0.227
-651.828	-200.000	-0.092	0.000
-650.814	-164.054	-0.243	0.011
-649.799	55.408	0.060	0.058
-648.784	67.962	0.159	0.163
-647.770	7.163	0.266	-0.199
-646.755	-58.649	-0.202	-0.088
-645.741	256.750	-0.031	-0.053
-644.726	327.923	-0.154	-0.296
-643.711	67.595	0.218	0.223
-642.697	17.260	-0.214	-0.170
-641.682	-200.000	-0.037	-0.488
-640.668	88.894	0.098	0.110
-639.653	68.739	-0.126	0.130
-638.638	233.936	0.089	-0.147
-637.624	-91.027	0.274	0.079
-636.609	16.640	-0.213	-0.168
-635.595	-135.690	-0.263	-0.031
-634.580	-59.318	0.109	-0.047
-633.565	572.654	0.052	0.127
-632.551	-3.428	-0.137	-0.095
-631.536	-9.273	0.353	-0.236
-630.522	60.457	0.211	0.209
-629.507	190.820	-0.271	-0.409
-628.492	-91.668	-0.341	-0.097
-627.478	217.783	0.057	-0.091
-626.463	800.000	-0.111	-0.330
-625.449	-12.970	-0.211	-0.138
-624.434	40.737	-0.156	-0.141
-623.419	800.000	-0.108	-0.339
-622.405	-141.786	-0.161	0.016
-621.390	-107.041	-0.197	0.044
-620.376	2.967	-0.146	0.106
-619.361	52.413	0.074	0.070
-618.346	5.216	0.175	0.129
-617.332	-144.566	0.432	-0.040
-616.317	128.712	0.249	-0.318
-615.303	-59.382	-0.219	0.094
-614.288	665.044	0.052	-0.135
-613.273	-200.000	-0.004	0.111
-612.259	-105.147	0.158	0.036
-611.244	122.525	0.057	0.071
-610.230	54.228	0.234	-0.226
-609.215	-20.368	0.055	0.034
-608.201	-200.000	-0.034	0.236
-607.186	-200.000	-0.321	-0.001
-606.171	800.000	-0.095	0.274
-605.157	-81.221	-0.043	-0.014
-604.142	-0.466	-0.265	-0.188
-603.128	800.000	0.044	-0.152
-602.113	323.904	0.069	0.133
-601.098	800.000	-0.088	-0.318
-600.084	-35.273	-0.353	-0.192
-599.069	219.809	-0.367	0.588
-598.055	421.514	0.080	0.172
-597.040	513.762	0.045	-0.105
-596.025	-54.324	0.240	-0.109
-595.011	3.463	-0.163	-0.119
-593.996	351.154	-0.138	0.273
-592.982	62.261	-0.337	0.336
-591.967	403.947	-0.077	-0.162
-590.952	-117.185	-0.049	-0.009
-589.938	800.000	-0.039	-0.163
-588.923	-200.000	0.007	0.204
-587.909	50.177	0.194	0.183
-586.894	-94.914	0.192	-0.052
-585.879	-174.401	0.274	0.008
-584.865	800.000	-0.091	0.321
-583.850	-129.617	0.290	0.040
-582.836	-91.408	-0.295	-0.084
-581.821	485.337	-0.016	-0.037
-580.806	789.382	-0.070	-0.191
-579.792	-83.568	0.311	0.100
-578.777	-100.741	0.046	-0.011
-577.763	-110.999	0.210	-0.043
-576.748	-98.826	0.236	0.060
-575.733	15.380	-0.376	-0.295
-574.719	12.608	-0.069	0.053
-573.704	-142.604	-0.228	0.022
-572.690	-0.683	-0.262	0.186
-571.675	205.208	0.162	-0.252
-570.661	162.435	-0.134	-0.188
-569.646	82.706	0.225	-0.244
-568.631	-39.877	-0.038	-0.020
-567.617	30.485	-0.281	-0.240
-566.602	-81.956	0.094	0.031
-565.588	-200.000	-0.008	0.117
-564.573	800.000	-0.025	-0.070
-563.558	107.231	-0.125	0.148
-562.544	311.704	-0.110	-0.206
-561.529	-200.000	-0.003	0.068
-560.515	290.444	0.080	0.145
-559.500	-25.882	-0.192	0.113
-558.485	-200.000	0.006	0.255
-557.471	141.936	0.223	0.295
-556.456	643.742	-0.165	-0.419
-555.442	-21.234	-0.331	-0.202
-554.427	-36.999	-0.268	-0.143
-553.412	556.218	-0.038	-0.092
-552.398	800.000	-0.084	0.243
-551.383	-120.269	0.337	0.057
-550.369	-95.443	-0.147	-0.039
-549.354	90.373	-0.069	0.077
-548.339	87.690	0.208	0.230
-547.325	-3.994	0.251	-0.174
-546.310	-4.494	0.185	-0.128
-545.296	6.696	0.106	0.079
-544.281	-200.000	-0.024	0.366
-543.266	-26.918	-0.282	-0.165
-542.252	154.089	0.179	0.245
-541.237	-36.561	-0.117	-0.063
-540.223	628.566	-0.022	-0.056
-539.208	395.400	0.112	0.232
-538.193	99.386	0.065	-0.075
-537.179	629.142	0.059	-0.149
-536.164	100.601	-0.086	0.100
-535.150	73.636	-0.022	0.023
-534.135	159.414	-0.076	0.105
-533.121	200.765	-0.035	-0.054
-532.106	-157.745	-0.177	0.010
-531.091	262.602	-0.174	-0.302
-530.077	116.411	-0.099	0.121
-529.062	800.000	-0.086	-0.354
-528.048	-142.625	-0.279	0.027
-527.033	-158.414	0.174	-0.010
-526.018	-200.000	0.026	-0.153
-525.004	-183.077	-0.269	0.005
-523.989	-200.000	0.040	-0.231
-522.975	14.864	0.175	-0.137
-521.960	282.558	0.095	-0.169
-520.945	-64.005	-0.156	0.064
-519.931	-30.614	-0.313	0.177
-518.916	-105.794	-0.042	0.010
-517.902	-200.000	0.013	-0.060
-516.887	132.638	-0.215	0.277
-515.872	-200.000	-0.080	0.401
-514.858	-137.602	-0.164	0.018
-513.843	-80.141	0.214	0.071
-512.829	-54.441	0.261	-0.118
-511.814	679.672	-0.159	0.412
-510.799	800.000	0.005	-0.017
-509.785	-94.571	-0.115	0.031
-508.770	246.696	-0.041	-0.069
-507.756	-32.142	0.389	0.217
-506.741	32.236	0.060	0.052
-505.726	-28.313	0.255	-0.147
-504.712	800.000	0.066	0.254
-503.697	-200.000	-0.002	-0.082
-502.683	-12.221	-0.053	0.035
-501.668	-6.558	-0.149	-0.101
-500.653	-200.000	-0.047	-0.319
-499.639	-67.358	-0.011	-0.004
-498.624	262.879	-0.094	-0.162
-497.610	174.682	-0.182	-0.263
-496.595	711.936	-0.057	0.150
-495.581	151.274	-0.153	-0.208
-494.566	-200.000	0.033	0.208
-493.551	800.000	-0.065	0.217
-492.537	-200.000	0.031	0.216
-491.522	-200.000	-0.002	0.129
-490.508	800.000	-0.037	0.118
-489.493	427.793	0.128	-0.275
-488.478	90.579	-0.158	-0.177
-487.464	20.439	-0.140	-0.112
-486.449	-9.980	0.110	-0.073
-485.435	-66.798	0.126	-0.049
-484.420	800.000	0.057	-0.178
-483.405	800.000	-0.032	0.132
-482.391	-49.578	-0.191	0.091
-481.376	-112.423	-0.096	-0.019
-480.362	-117.365	-0.145	0.026
-479.347	13.966	-0.107	0.083
-478.332	83.131	-0.083	0.090
-477.318	-200.000	-0.017	0.224
-476.303	-103.250	-0.170	-0.040
-475.289	-62.071	0.108	0.045
-474.274	-200.000	-0.022	0.334
-473.259	-1.712	-0.095	0.067
-472.245	379.588	-0.016	0.033
-471.230	179.276	0.080	-0.116
-470.216	-200.000	-0.179	0.001
-469.201	56.232	0.243	0.235
-468.186	191.707	0.081	-0.122
-467.172	190.763	0.059	0.088
-466.157	185.159	-0.109	-0.161
-465.143	98.332	0.199	-0.228
-464.128	161.626	0.143	-0.199
-463.113	-133.063	0.384	0.048
-462.099	800.000	-0.099	-0.274
-461.084	-200.000	0.005	-0.184
-460.070	-129.442	-0.166	0.023
-459.055	280.668	0.136	-0.241
-458.040	246.875	-0.070	-0.117
-457.026	800.000	-0.060	-0.227
-456.011	443.496	0.021	0.046
-454.997	-200.000	-0.009	0.194
-453.982	-11.030	0.105	-0.069
-452.968	-35.800	-0.132	-0.071
-451.953	-200.000	0.096	-0.691
-450.938	-102.541	0.105	-0.025
-449.924	-155.497	0.178	-0.011
-448.909	800.000	0.025	-0.080
-447.895	13.347	0.035	-0.027
-446.880	35.171	0.165	-0.144
-445.865	-200.000	0.006	-0.122
-444.851	-200.000	-0.001	0.032
-443.836	28.742	0.132	0.111
-442.822	-133.801	-0.186	-0.023
-441.807	-45.831	-0.080	-0.039
-440.792	-139.943	-0.298	-0.031
-439.778	78.179	0.195	-0.207
-438.763	-1.882	-0.495	-0.346
-437.749	-83.968	0.120	0.038
-436.734	395.447	0.073	0.151
-435.719	-18.908	0.042	0.026
-434.705	-34.308	-0.038	-0.021
-433.690	-87.956	-0.234	0.070
-432.676	800.000	0.090	-0.274
-431.661	-96.373	-0.155	-0.041
-430.646	-200.000	-0.065	-0.363
-429.632	-9.667	-0.425	0.281
-428.617	-37.804	-0.093	0.049
-427.603	-200.000	0.047	0.212
-426.588	71.215	0.048	0.050
-425.573	-200.000	-0.019	-0.151
-424.559	217.562	0.125	0.198
-423.544	800.000	-0.078	-0.282
-422.530	-151.301	0.135	0.010
-421.515	-200.000	-0.012	-0.092
-420.500	-7.371	0.144	-0.097
-419.486	233.861	0.043	0.071
-418.471	18.847	0.129	0.102
-417.457	211.374	-0.116	-0.181
-416.442	71.923	0.127	-0.131
-415.428	-68.861	0.032	0.012
-414.413	753.353	-0.021	0.056
-413.398	-53.064	-0.251	-0.115
-412.384	-88.350	-0.133	0.040
-411.369	-161.808	0.200	0.010
-410.355	96.268	0.138	-0.157
-409.340	-129.725	0.124	-0.017
-408.325	-200.000	0.253	0.000
-407.311	199.121	0.034	-0.052
-406.296	72.889	0.076	0.079
-405.282	800.000	-0.041	-0.143
-404.267	-5.193	0.054	-0.037
-403.252	800.000	0.044	0.186
-402.238	589.170	-0.100	-0.244
-401.223	-200.000	0.008	-0.208
-400.209	-15.578	-0.235	-0.149
-399.194	-132.689	0.158	0.020
-398.179	-200.000	0.077	-0.338
-397.165	317.403	-0.043	0.081
-396.150	-119.588	0.068	-0.012
-395.136	237.832	0.115	0.190
-394.121	-81.237	-0.092	-0.030
-393.106	-113.806	-0.113	0.022
-392.092	117.132	-0.185	0.226
-391.077	-200.000	0.001	-0.151
-390.063	-147.681	0.147	-0.012
-389.048	-74.902	-0.098	0.035
-388.033	-25.909	0.189	-0.110
-387.019	-200.000	-0.046	-0.284
-386.004	800.000	0.071	0.225
-384.990	-26.001	-0.145	0.085
-383.975	800.000	0.034	-0.101
-382.960	800.000	-0.083	0.352
-381.946	-117.917	0.196	-0.035
-380.931	800.000	0.065	0.243
-379.917	-61.262	-0.201	-0.084
-378.902	24.493	0.131	0.108
-377.888	82.502	-0.029	-0.031
-376.873	59.791	-0.139	-0.136
-375.858	676.262	-0.082	0.210
-374.844	-200.000	-0.053	-0.446
-373.829	-200.000	-0.021	0.214
-372.815	-200.000	-0.000	-0.030
-371.800	-90.890	-0.199	0.057
-370.785	-200.000	0.000	-0.031
-369.771	-144.420	0.212	-0.019
-368.756	782.902	-0.096	0.261
-367.742	-200.000	0.017	0.103
-366.727	-108.269	-0.369	0.079
-365.712	-62.392	0.252	0.104
-364.698	-182.747	-0.240	0.004
-363.683	142.435	-0.105	0.139
-362.669	234.946	0.139	0.228
-361.654	-200.000	0.004	-0.022
-360.639	173.360	0.089	-0.127
-359.625	-7.489	-0.085	-0.057
-358.610	-61.714	-0.365	-0.152
-357.596	-167.649	-0.299	-0.012
-356.581	617.895	0.096	0.238
-355.566	-65.252	-0.264	0.105
-354.552	-109.630	-0.128	-0.027
-353.537	-200.000	0.016	-0.087
-352.523	37.215	-0.287	-0.252
-351.508	37.723	-0.282	-0.248
-350.493	-164.586	0.231	-0.010
-349.479	-200.000	-0.011	-0.076
-348.464	-200.000	0.014	0.141
-347.450	50.673	0.225	-0.211
-346.435	102.800	-0.103	-0.119
-345.420	-23.263	-0.266	-0.159
-344.406	140.614	0.187	0.245
-343.391	266.670	0.225	0.390
-342.377	647.972	0.106	-0.269
-341.362	-22.863	-0.268	0.160
-340.348	800.000	-0.068	-0.294
-339.333	380.699	-0.047	0.095
-338.318	-136.741	-0.114	0.013
-337.304	20.180	0.062	-0.050
-336.289	-87.690	-0.184	0.055
-335.275	-34.569	-0.173	-0.094
-334.260	55.165	-0.282	0.270
-333.245	33.170	0.264	-0.227
-332.231	-117.417	0.172	0.031
-331.216	-103.974	-0.183	-0.042
-330.202	74.588	-0.289	0.301
-329.187	-200.000	-0.028	0.224
-328.172	-200.000	-0.002	0.096
-327.158	800.000	-0.014	0.049
-326.143	800.000	-0.084	-0.262
-325.129	60.348	0.170	-0.167
-324.114	-46.909	0.163	0.079
-323.099	-200.000	0.040	-0.354
-322.085	156.683	0.087	-0.118
-321.070	-200.000	-0.006	-0.152
-320.056	624.511	0.074	0.185
-319.041	800.000	0.051	0.180
-318.026	5.992	0.029	-0.021
-317.012	-11.240	-0.294	-0.192
-315.997	-200.000	-0.072	-0.504
-314.983	139.627	0.310	-0.404
-313.968	107.946	-0.181	0.214
-312.953	800.000	0.094	0.320
-311.939	246.821	0.154	-0.257
-310.924	153.961	-0.129	0.175
-309.910	-70.109	0.291	-0.110
-308.895	45.991	0.213	0.195
-307.880	121.088	0.094	0.116
-306.866	-35.741	0.288	0.154
-305.851	179.716	-0.025	-0.037
-304.837	184.883	-0.078	0.114
-303.822	-200.000	-0.025	0.182
-302.807	149.380	0.054	0.073
-301.793	-149.260	0.369	0.029
-300.778	-14.293	-0.141	0.090
-299.764	-78.660	0.305	-0.103
-298.749	-200.000	-0.002	-0.064
-297.735	13.170	0.305	-0.233
-296.720	-200.000	0.007	0.043
-295.705	480.072	0.042	0.095
-294.691	-98.378	0.236	0.060
-293.676	-22.574	-0.085	0.051
-292.662	-167.493	-0.100	0.004
-291.647	155.282	0.394	0.536
-290.632	347.177	0.032	0.063
-289.618	280.344	0.033	0.058
-288.603	-188.007	0.241	0.003
-287.589	-200.000	0.008	-0.131
-286.574	-200.000	-0.007	0.185
-285.559	-200.000	0.025	0.356
-284.545	24.538	0.113	0.093
-283.530	-200.000	-0.048	-0.345
-282.516	146.621	0.133	-0.177
-281.501	33.621	-0.044	-0.038
-280.486	-55.872	-0.159	0.070
-279.472	75.893	0.187	0.195
-278.457	800.000	0.020	0.081
-277.443	800.000	0.035	-0.120
-276.428	-65.778	0.079	0.031
-275.413	-200.000	-0.031	0.363
-274.399	-200.000	0.015	0.225
-273.384	-158.036	-0.110	-0.006
-272.370	-143.487	-0.425	0.040
-271.355	800.000	0.102	0.393
-270.340	-109.120	0.327	-0.069
-269.326	-37.099	0.079	0.042
-268.311	800.000	0.076	0.223
-267.297	-33.302	0.058	-0.031
-266.282	60.326	0.100	-0.098
-265.267	800.000	-0.076	0.286
-264.253	-93.608	-0.196	0.053
-263.238	-28.416	0.132	0.075
-262.224	25.043	0.070	-0.057
-261.209	319.132	0.027	0.050
-260.195	-82.499	0.376	-0.121
-259.180	112.860	-0.081	0.096
-258.165	44.227	-0.294	0.267
-257.151	-200.000	0.472	-0.002
-256.136	-200.000	0.010	-0.093
-255.122	800.000	-0.094	0.276
-254.107	-7.563	-0.055	-0.037
-253.092	33.062	0.246	-0.211
-252.078	139.720	0.200	0.260
-251.063	132.269	0.100	-0.127
-250.049	-200.000	0.032	-0.304
-249.034	-129.305	0.223	0.031
-248.019	800.000	0.073	-0.287
-247.005	378.709	-0.038	-0.077
-245.990	-123.066	0.060	-0.010
-244.976	63.335	-0.135	-0.133
-243.961	92.218	0.197	-0.219
-242.946	-57.124	-0.063	0.027
-241.932	-20.392	-0.090	-0.055
-240.917	57.858	0.119	-0.115
-239.903	-9.414	0.237	0.156
-238.888	442.944	-0.104	0.224
-237.873	-73.268	0.198	-0.072
-236.859	219.203	-0.033	-0.052
-235.844	396.750	0.072	0.148
-234.830	43.096	0.145	-0.131
-233.815	368.074	0.152	0.304
-232.800	-200.000	-0.091	0.421
-231.786	153.963	-0.027	-0.037
-230.771	-70.312	0.196	-0.073
-229.757	164.319	0.063	-0.088
-228.742	800.000	-0.038	0.113
-227.727	69.762	0.233	0.237
-226.713	46.724	0.234	-0.215
-225.698	-130.396	0.200	0.027
-224.684	28.269	0.029	-0.024
-223.669	-200.000	0.042	-0.190
-222.655	422.042	-0.087	0.185
-221.640	800.000	-0.093	0.307
-220.625	138.591	0.168	0.218
-219.611	21.672	-0.241	-0.194
-218.596	800.000	0.027	0.112
-217.582	30.594	-0.256	-0.216
-216.567	29.579	0.082	-0.069
-215.552	-200.000	-0.047	-0.338
-214.538	-200.000	-0.003	0.205
-213.523	-200.000	-0.013	-0.132
-212.509	184.341	0.179	-0.261
-211.494	-103.655	-0.282	0.065
-210.479	-30.036	-0.265	0.149
-209.465	-200.000	-0.099	-0.437
-208.450	-161.702	0.236	-0.012
-207.436	325.578	-0.092	0.173
-206.421	633.948	-0.039	0.098
-205.406	296.468	0.042	0.076
-204.392	-200.000	-0.002	0.373
-203.377	-16.131	0.236	0.148
-202.363	-24.974	0.356	0.208
-201.348	203.044	-0.060	0.092
-200.333	4.410	-0.139	-0.100
-199.319	-200.000	0.012	-0.064
-198.304	44.199	0.090	0.081
-197.290	42.880	-0.148	0.132
-196.275	-105.355	0.138	-0.031
-195.260	-60.730	-0.102	-0.043
-194.246	-36.485	-0.394	-0.209
-193.231	103.075	-0.060	-0.069
-192.217	-200.000	0.000	0.202
-191.202	133.991	0.307	0.391
-190.187	201.246	-0.189	-0.286
-189.173	-6.142	-0.239	-0.160
-188.158	54.508	0.179	0.169
-187.144	-79.959	-0.377	0.125
-186.129	-200.000	-0.029	0.295
-185.114	22.806	-0.085	0.069
-184.100	255.305	-0.190	0.320
-183.085	-82.383	0.040	-0.013
-182.071	249.437	0.123	-0.206
-181.056	-60.952	0.205	0.085
-180.042	800.000	-0.049	-0.179
-179.027	306.726	-0.050	-0.092
-178.012	50.287	-0.088	-0.082
-176.998	434.909	0.049	-0.104
-175.983	800.000	-0.056	0.177
-174.969	211.120	0.150	0.232
-173.954	-7.582	-0.299	0.199
-172.939	800.000	-0.086	0.257
-171.925	-43.248	-0.199	0.099
-170.910	-63.344	-0.177	0.071
-169.896	-169.611	-0.017	0.001
-168.881	69.221	0.058	-0.058
-167.866	-15.842	0.135	-0.085
-166.852	-62.108	0.087	-0.036
-165.837	1.411	0.167	0.118
-164.823	201.224	0.115	0.175
-163.808	29.115	0.097	0.081
-162.793	70.176	0.066	0.067
-161.779	-200.000	-0.009	-0.075
-160.764	-124.494	0.353	0.054
-159.750	-32.213	0.176	0.097
-158.735	-107.179	-0.223	-0.048
-157.720	-200.000	0.002	-0.339
-156.706	140.912	-0.146	0.189
-155.691	177.650	-0.057	0.081
-154.677	-189.701	0.404	0.005
-153.662	-15.869	0.149	0.093
-152.647	225.236	0.187	-0.298
-151.633	800.000	0.125	0.453
-150.618	800.000	-0.053	-0.155
-149.604	-54.144	0.137	-0.061
-148.589	-158.125	-0.076	0.004
-147.574	800.000	0.184	-0.508
-146.560	116.602	-0.109	-0.131
-145.545	-200.000	0.027	-0.158
-144.531	800.000	-0.024	-0.087
-143.516	-84.844	-0.072	-0.022
-142.502	-200.000	-0.028	0.150
-141.487	212.744	0.104	0.161
-140.472	154.044	-0.046	-0.062
-139.458	693.597	0.119	-0.306
-138.443	27.477	-0.110	0.091
-137.429	238.556	-0.259	-0.422
-136.414	-138.972	0.226	0.024
-135.399	-200.000	0.010	0.217
-134.385	170.302	-0.140	0.196
-133.370	-200.000	-0.081	0.467
-132.356	-200.000	0.001	0.042
-131.341	117.337	-0.037	-0.045
-130.326	148.296	-0.114	-0.151
-129.312	6.194	0.034	0.025
-128.297	800.000	0.031	0.086
-127.283	-4.320	0.411	-0.279
-126.268	-200.000	0.041	0.208
-125.253	-200.000	0.037	-0.290
-124.239	-78.124	0.045	-0.015
-123.224	379.659	0.047	0.094
-122.210	-24.696	-0.166	-0.097
-121.195	5.139	0.228	-0.165
