DTS Sentinel unit serial number:	SN413079Multiplexer serial number:	ORYXHardware model number:	OX4-SRSoftware version number:	ORYX F/W v4.00 Oryx Data Collector v3.7.2.0data status	okinstallation	princeton_trtdifferential loss correction	single-endedforward channel	channel 4reverse channel	N/Adate	2019/09/19time	07:57:34forward acquisition time	60.00reverse acquisition time	0.00gamma	496.2192k internal	0.2339k external	0.2339temperature offset calibration	1.0022default loss term (dB/km)	0.3790temperature slope calibration	1.0000multiplexer offset coefficient	1.0000multiplexer slope coefficient	1.0000fibre end	0.00T internal ref (°C)	19.77T ext. ref 1 (°C)	0.56T ext. ref 2 (°C)	15.22length (m)	temperature (°C)	Stokes	anti-Stokes-747.200	330.400	0.141	0.273
-746.185	433.342	-0.095	-0.206
-745.171	-82.277	0.196	0.064
-744.156	-166.721	-0.134	-0.006
-743.142	800.000	0.084	-0.238
-742.127	-69.004	-0.154	-0.060
-741.112	800.000	0.069	0.297
-740.098	198.411	-0.468	0.718
-739.083	-44.172	0.192	-0.097
-738.069	59.174	-0.286	-0.282
-737.054	73.138	0.191	-0.200
-736.039	-66.270	-0.061	0.024
-735.025	-103.025	0.362	-0.086
-734.010	-51.118	-0.106	-0.050
-732.996	800.000	0.089	-0.306
-731.981	426.088	0.040	-0.086
-730.966	382.738	-0.147	-0.303
-729.952	653.497	-0.136	-0.349
-728.937	-23.714	-0.111	-0.067
-727.923	-75.937	-0.101	0.036
-726.908	800.000	0.057	0.195
-725.894	-200.000	0.018	0.218
-724.879	800.000	-0.054	0.155
-723.864	-87.437	-0.445	-0.135
-722.850	39.463	0.113	-0.101
-721.835	70.038	-0.182	0.188
-720.821	-26.627	-0.118	-0.069
-719.806	-23.036	0.141	-0.085
-718.791	-56.976	-0.524	-0.232
-717.777	-200.000	-0.015	-0.296
-716.762	-82.562	-0.260	0.085
-715.748	-28.018	-0.190	0.110
-714.733	-92.630	-0.205	-0.058
-713.718	800.000	0.013	0.044
-712.704	2.081	-0.135	-0.098
-711.689	19.881	-0.125	-0.101
-710.675	-200.000	0.030	-0.267
-709.660	-101.540	0.190	0.046
-708.645	246.384	0.111	0.187
-707.631	800.000	0.058	0.163
-706.616	312.196	-0.043	0.082
-705.602	3.990	-0.112	0.082
-704.587	-67.553	-0.251	-0.099
-703.572	-126.329	-0.151	0.023
-702.558	-98.776	0.152	0.039
-701.543	-55.271	0.145	-0.065
-700.529	11.515	-0.232	-0.178
-699.514	-81.112	-0.287	-0.095
-698.499	89.926	-0.086	-0.096
-697.485	800.000	0.057	-0.180
-696.470	126.161	-0.057	0.073
-695.456	-176.163	-0.256	0.007
-694.441	-8.888	-0.086	0.058
-693.426	800.000	0.107	0.330
-692.412	28.776	-0.164	0.139
-691.397	-43.724	0.117	0.059
-690.383	-60.051	-0.359	-0.153
-689.368	308.095	0.125	-0.233
-688.354	188.102	-0.124	-0.185
-687.339	312.339	-0.090	-0.170
-686.324	800.000	0.067	0.269
-685.310	49.488	-0.034	0.032
-684.295	181.816	-0.286	0.421
-683.281	-200.000	-0.070	0.382
-682.266	-52.765	0.324	-0.149
-681.251	429.381	0.136	-0.295
-680.237	-200.000	-0.011	0.135
-679.222	274.810	-0.118	-0.209
-678.208	41.516	-0.188	0.171
-677.193	60.172	0.132	0.130
-676.178	-65.232	-0.156	0.063
-675.164	-134.524	-0.151	-0.018
-674.149	55.946	-0.229	0.222
-673.135	-114.863	-0.080	0.015
-672.120	189.750	-0.094	-0.140
-671.105	48.314	-0.209	0.195
-670.091	343.565	-0.138	-0.271
-669.076	-200.000	-0.034	0.355
-668.062	188.399	0.114	-0.170
-667.047	800.000	-0.048	-0.173
-666.032	138.017	0.193	-0.253
-665.018	-200.000	0.037	0.234
-664.003	800.000	-0.087	-0.268
-662.989	-112.015	-0.376	-0.076
-661.974	68.316	-0.071	-0.073
-660.959	87.486	0.063	-0.070
-659.945	-200.000	-0.081	-0.417
-658.930	-200.000	-0.007	0.073
-657.916	-107.251	-0.235	0.052
-656.901	69.133	-0.236	0.243
-655.886	-104.309	0.365	0.085
-654.872	-200.000	-0.052	0.417
-653.857	524.018	-0.106	0.249
-652.843	470.510	-0.037	-0.084
-651.828	-11.575	-0.280	-0.184
-650.814	-155.772	0.215	0.014
-649.799	53.206	0.164	0.157
-648.784	20.455	0.287	-0.231
-647.770	800.000	0.060	0.220
-646.755	800.000	-0.022	0.088
-645.741	800.000	-0.079	-0.294
-644.726	57.493	-0.143	0.139
-643.711	-91.044	0.218	-0.063
-642.697	7.931	0.133	-0.099
-641.682	800.000	0.017	-0.054
-640.668	-194.391	-0.138	0.001
-639.653	33.038	-0.352	-0.305
-638.638	800.000	0.044	0.149
-637.624	560.071	0.048	0.115
-636.609	-134.968	-0.181	0.022
-635.595	733.288	0.099	-0.265
-634.580	-200.000	0.010	0.165
-633.565	-76.686	0.497	0.174
-632.551	800.000	-0.027	-0.105
-631.536	648.356	-0.027	-0.069
-630.522	-200.000	-0.003	0.053
-629.507	-180.915	-0.205	-0.004
-628.492	124.831	0.322	-0.405
-627.478	-84.861	-0.107	0.034
-626.463	-148.199	-0.107	0.009
-625.449	6.844	0.081	0.060
-624.434	504.738	0.105	0.242
-623.419	-157.878	-0.301	-0.018
-622.405	118.899	0.247	0.304
-621.390	-200.000	-0.030	0.402
-620.376	761.653	-0.047	-0.128
-619.361	277.864	0.130	0.232
-618.346	-73.285	-0.299	-0.109
-617.332	-70.827	0.281	0.106
-616.317	-106.127	-0.213	0.048
-615.303	-200.000	0.031	0.271
-614.288	31.729	-0.161	-0.138
-613.273	-200.000	0.019	0.090
-612.259	-200.000	-0.011	0.153
-611.244	-41.778	-0.200	0.102
-610.230	-4.660	0.221	0.152
-609.215	17.915	0.040	0.032
-608.201	-76.525	0.317	-0.111
-607.186	82.517	0.104	0.113
-606.171	-125.600	0.155	-0.023
-605.157	-96.044	0.097	0.026
-604.142	-200.000	0.025	0.254
-603.128	800.000	-0.079	0.248
-602.113	29.621	-0.261	0.221
-601.098	507.312	-0.099	0.228
-600.084	-12.324	0.040	-0.026
-599.069	-146.492	0.269	-0.023
-598.055	-200.000	-0.010	0.248
-597.040	471.377	0.127	-0.285
-596.025	-76.190	-0.190	0.067
-595.011	431.341	-0.080	0.174
-593.996	611.936	0.098	-0.243
-592.982	-58.719	-0.355	-0.153
-591.967	-118.020	-0.205	-0.037
-590.952	800.000	-0.049	-0.163
-589.938	-96.673	0.171	-0.045
-588.923	-175.926	-0.033	-0.001
-587.909	313.446	0.153	-0.287
-586.894	-91.137	-0.210	0.060
-585.879	-93.895	-0.274	0.075
-584.865	187.333	0.099	0.146
-583.850	-181.812	0.183	0.003
-582.836	-22.151	0.126	-0.076
-581.821	26.715	0.328	0.273
-580.806	243.661	-0.189	-0.316
-579.792	800.000	-0.035	-0.107
-578.777	-119.657	-0.088	0.015
-577.763	-70.844	-0.390	-0.146
-576.748	327.332	-0.078	0.150
-575.733	-63.596	-0.147	0.060
-574.719	191.423	0.036	0.054
-573.704	282.904	0.060	0.108
-572.690	-34.392	0.280	0.153
-571.675	-40.203	-0.053	-0.027
-570.661	139.570	0.103	0.135
-569.646	-98.179	-0.144	-0.037
-568.631	-200.000	-0.049	0.252
-567.617	126.858	-0.315	-0.398
-566.602	-200.000	0.029	-0.228
-565.588	168.166	-0.125	-0.177
-564.573	51.337	-0.170	-0.161
-563.558	-200.000	0.016	-0.134
-562.544	-19.573	0.166	0.103
-561.529	-200.000	0.013	-0.072
-560.515	-27.859	-0.338	-0.195
-559.500	-200.000	0.046	0.209
-558.485	-180.176	0.183	-0.004
-557.471	-13.944	-0.107	-0.069
-556.456	-177.155	-0.497	0.012
-555.442	329.020	0.086	0.164
-554.427	800.000	0.047	-0.132
-553.412	177.029	0.240	0.348
-552.398	207.376	0.129	0.200
-551.383	103.692	0.227	-0.265
-550.369	-200.000	-0.033	0.356
-549.354	800.000	0.054	-0.205
-548.339	-35.252	-0.159	0.086
-547.325	-55.167	0.310	0.139
-546.310	177.523	-0.200	0.290
-545.296	-38.387	0.230	0.121
-544.281	-86.929	0.063	-0.019
-543.266	800.000	0.049	-0.185
-542.252	-200.000	0.004	0.159
-541.237	-17.622	-0.192	-0.120
-540.223	-58.348	0.228	0.099
-539.208	800.000	0.029	-0.115
-538.193	800.000	0.071	0.311
-537.179	-20.571	-0.110	0.067
-536.164	123.240	0.025	-0.032
-535.150	-200.000	-0.047	-0.217
-534.135	-81.154	-0.416	-0.137
-533.121	-4.238	0.134	0.092
-532.106	-60.081	0.227	0.096
-531.091	61.833	0.139	0.138
-530.077	-99.104	0.081	0.020
-529.062	25.575	-0.199	-0.164
-528.048	30.989	0.130	0.111
-527.033	-101.145	-0.155	0.038
-526.018	50.574	0.137	0.128
-525.004	-145.145	-0.239	0.022
-523.989	-43.151	-0.164	0.082
-522.975	-62.948	-0.304	-0.125
-521.960	-200.000	0.020	-0.283
-520.945	-31.693	-0.176	0.098
-519.931	293.152	-0.154	0.279
-518.916	109.170	-0.109	0.130
-517.902	9.918	0.187	-0.141
-516.887	-95.704	-0.226	-0.060
-515.872	-12.952	0.142	0.092
-514.858	-200.000	0.019	-0.282
-513.843	-200.000	0.017	-0.128
-512.829	-57.354	0.342	-0.149
-511.814	-153.683	-0.178	0.012
-510.799	134.755	0.129	0.167
-509.785	-200.000	-0.005	0.162
-508.770	-48.181	0.311	-0.149
-507.756	27.540	0.060	-0.051
-506.741	220.165	-0.039	-0.061
-505.726	-49.000	-0.075	-0.036
-504.712	-136.394	0.324	0.037
-503.697	800.000	-0.059	-0.241
-502.683	108.003	0.152	-0.180
-501.668	-200.000	-0.022	0.096
-500.653	-28.684	-0.396	0.226
-499.639	-200.000	-0.014	-0.343
-498.624	-200.000	0.019	-0.231
-497.610	241.594	-0.215	0.357
-496.595	319.660	0.106	-0.200
-495.581	-108.096	0.341	-0.073
-494.566	21.832	-0.312	0.252
-493.551	-200.000	0.064	-0.303
-492.537	16.931	0.170	-0.134
-491.522	-200.000	-0.035	-0.231
-490.508	-200.000	0.034	-0.447
-489.493	4.672	0.219	-0.160
-488.478	571.967	0.028	-0.067
-487.464	-41.694	-0.162	-0.083
-486.449	-7.428	0.216	-0.145
-485.435	290.044	0.051	0.092
-484.420	9.869	-0.220	-0.165
-483.405	-200.000	0.067	-0.363
-482.391	66.982	0.322	-0.325
-481.376	800.000	-0.150	0.423
-480.362	185.403	0.163	0.240
-479.347	-200.000	0.004	0.027
-478.332	222.728	0.105	0.167
-477.318	52.110	-0.129	-0.122
-476.303	-2.551	-0.350	0.243
-475.289	93.231	-0.124	-0.140
-474.274	-99.442	0.292	-0.073
-473.259	213.332	-0.077	0.121
-472.245	-135.470	0.106	0.013
-471.230	800.000	0.073	0.229
-470.216	-200.000	0.076	-0.390
-469.201	800.000	-0.076	-0.273
-468.186	67.796	-0.092	0.093
-467.172	-69.590	0.137	0.052
-466.157	355.301	0.118	-0.232
-465.143	458.168	0.048	0.106
-464.128	442.681	0.131	0.285
-463.113	368.533	-0.089	-0.179
-462.099	800.000	0.081	0.252
-461.084	-1.586	-0.153	-0.107
-460.070	517.281	-0.023	0.054
-459.055	-200.000	-0.021	-0.150
-458.040	-149.259	-0.375	-0.030
-457.026	506.623	-0.045	0.104
-456.011	612.018	-0.062	-0.155
-454.997	-19.789	0.051	-0.031
-453.982	-147.859	0.205	0.017
-452.968	-36.790	-0.107	-0.057
-451.953	800.000	0.058	0.191
-450.938	-54.886	-0.235	-0.105
-449.924	-84.495	0.104	0.033
-448.909	-131.506	-0.338	-0.044
-447.895	-200.000	0.003	-0.223
-446.880	-139.231	0.296	0.032
-445.865	43.827	0.162	0.147
-444.851	386.881	-0.015	0.030
-443.836	-80.277	-0.635	-0.211
-442.822	-200.000	0.019	0.175
-441.807	2.269	0.195	0.140
-440.792	27.624	-0.262	-0.219
-439.778	-200.000	-0.036	0.381
-438.763	22.969	0.386	0.314
-437.749	106.283	-0.144	-0.169
-436.734	-58.538	0.053	-0.023
-435.719	800.000	-0.015	-0.057
-434.705	15.743	0.215	-0.167
-433.690	-149.639	-0.227	-0.018
-432.676	219.929	-0.024	-0.038
-431.661	-115.735	0.168	0.031
-430.646	-54.871	-0.063	0.028
-429.632	308.432	0.098	-0.182
-428.617	800.000	0.055	0.201
-427.603	-200.000	-0.013	0.088
-426.588	314.505	0.099	-0.184
-425.573	561.860	0.075	-0.180
-424.559	-71.938	0.115	-0.042
-423.544	65.547	0.125	0.126
-422.530	-200.000	-0.034	0.189
-421.515	-38.377	0.134	-0.070
-420.500	-87.470	0.205	0.061
-419.486	69.776	-0.263	0.268
-418.471	-200.000	0.043	0.277
-417.457	-200.000	-0.012	0.064
-416.442	65.490	0.147	-0.147
-415.428	-119.428	-0.236	0.041
-414.413	-132.334	0.160	-0.020
-413.398	11.780	0.044	-0.034
-412.384	7.861	-0.124	0.092
-411.369	-200.000	0.000	-0.097
-410.355	800.000	0.043	-0.154
-409.340	800.000	-0.042	0.174
-408.325	-200.000	-0.025	-0.483
-407.311	528.989	-0.138	-0.323
-406.296	38.295	-0.029	-0.026
-405.282	-133.446	-0.073	0.009
-404.267	-66.965	-0.247	-0.097
-403.252	-110.608	0.239	0.049
-402.238	92.210	0.075	-0.084
-401.223	800.000	-0.097	-0.348
-400.209	136.864	-0.138	0.179
-399.194	800.000	0.018	-0.079
-398.179	800.000	-0.082	-0.275
-397.165	800.000	-0.066	0.190
-396.150	-43.766	-0.321	-0.160
-395.136	397.532	-0.137	0.283
-394.121	-200.000	0.034	-0.163
-393.106	53.053	0.075	0.071
-392.092	218.159	-0.315	-0.498
-391.077	13.060	-0.161	-0.123
-390.063	-59.702	-0.182	0.077
-389.048	-34.856	-0.025	0.013
-388.033	182.273	0.052	0.076
-387.019	-200.000	-0.040	-0.183
-386.004	-54.603	-0.249	-0.111
-384.990	93.404	0.153	0.172
-383.975	-61.533	-0.266	0.110
-382.960	20.617	0.141	-0.113
-381.946	333.764	0.014	0.027
-380.931	-165.916	0.068	0.003
-379.917	800.000	-0.108	-0.408
-378.902	-188.611	-0.164	0.002
-377.888	-31.542	-0.184	0.102
-376.873	144.395	0.148	0.195
-375.858	-133.419	0.211	0.026
-374.844	-42.865	-0.046	-0.023
-373.829	800.000	0.027	0.105
-372.815	800.000	0.102	0.283
-371.800	-37.502	-0.257	-0.135
-370.785	-138.573	0.214	0.023
-369.771	104.577	0.032	0.037
-368.756	-107.075	-0.216	-0.047
-367.742	-111.671	0.076	0.015
-366.727	-200.000	-0.006	0.152
-365.712	-87.776	0.071	0.021
-364.698	-114.397	0.170	0.032
-363.683	112.052	0.229	0.273
-362.669	-132.564	-0.324	-0.041
-361.654	-167.740	-0.284	-0.011
-360.639	193.576	-0.118	0.176
-359.625	-155.324	-0.335	-0.021
-358.610	39.296	-0.054	0.048
-357.596	-112.043	0.404	0.080
-356.581	-200.000	-0.017	-0.165
-355.566	-144.288	-0.176	0.016
-354.552	-157.019	0.181	0.011
-353.537	398.943	0.088	-0.181
-352.523	800.000	0.053	-0.147
-351.508	800.000	-0.052	-0.186
-350.493	-3.955	0.032	0.022
-349.479	-57.234	0.208	0.090
-348.464	-200.000	-0.006	-0.121
-347.450	-86.790	0.231	-0.070
-346.435	345.246	-0.139	-0.269
-345.420	-200.000	0.048	-0.232
-344.406	160.203	-0.089	-0.122
-343.391	251.226	0.186	-0.312
-342.377	-200.000	-0.023	0.125
-341.362	-200.000	-0.026	0.149
-340.348	-200.000	0.011	0.188
-339.333	56.377	-0.066	0.063
-338.318	-80.479	0.188	0.062
-337.304	172.481	-0.031	0.044
-336.289	-104.697	-0.289	-0.066
-335.275	-148.156	-0.038	0.003
-334.260	-200.000	0.065	0.332
-333.245	141.274	-0.107	0.139
-332.231	-187.744	0.189	0.002
-331.216	-200.000	0.010	0.221
-330.202	84.938	0.221	0.239
-329.187	-71.850	-0.148	-0.054
-328.172	-200.000	-0.008	-0.402
-327.158	800.000	0.033	0.091
-326.143	-129.917	0.097	0.013
-325.129	800.000	-0.030	-0.114
-324.114	-134.811	-0.401	-0.048
-323.099	61.159	-0.331	-0.324
-322.085	-200.000	0.125	-0.564
-321.070	-26.945	-0.185	0.106
-320.056	-69.252	0.146	0.055
-319.041	55.582	-0.117	-0.112
-318.026	195.629	0.213	0.320
-317.012	-70.771	0.026	0.010
-315.997	54.555	0.161	-0.153
-314.983	356.054	0.129	-0.254
-313.968	-188.019	0.157	-0.002
-312.953	-99.675	0.181	0.045
-311.939	-97.901	0.176	-0.045
-310.924	-81.227	-0.195	0.064
-309.910	10.037	-0.154	0.115
-308.895	94.125	-0.016	-0.018
-307.880	335.504	-0.136	-0.259
-306.866	-186.384	-0.187	-0.003
-305.851	171.998	-0.127	-0.179
-304.837	-26.813	-0.264	0.152
-303.822	211.550	-0.047	-0.073
-302.807	-148.117	0.343	-0.028
-301.793	320.073	0.061	0.114
-300.778	84.111	-0.079	0.085
-299.764	42.932	-0.209	0.188
-298.749	121.242	-0.061	-0.075
-297.735	-31.875	-0.157	0.087
-296.720	-17.959	0.133	0.082
-295.705	-105.155	-0.131	0.029
-294.691	800.000	0.022	0.075
-293.676	-123.723	0.162	0.025
-292.662	14.760	0.150	0.116
-291.647	800.000	0.088	0.240
-290.632	83.482	0.063	-0.067
-289.618	-126.734	0.093	0.014
-288.603	164.571	0.234	0.325
-287.589	344.873	-0.087	0.168
-286.574	800.000	-0.028	0.080
-285.559	-48.786	0.161	-0.076
-284.545	800.000	0.090	-0.355
-283.530	-38.280	0.190	-0.099
-282.516	228.938	-0.140	-0.225
-281.501	-58.614	-0.121	-0.052
-280.486	-200.000	-0.036	-0.399
-279.472	-91.879	0.163	0.045
-278.457	-99.795	-0.186	0.046
-277.443	-200.000	0.000	-0.228
-276.428	-67.066	-0.187	0.073
-275.413	196.679	-0.158	0.237
-274.399	-200.000	0.007	-0.071
-273.384	61.080	-0.303	0.297
-272.370	800.000	-0.050	-0.202
-271.355	-59.442	0.375	0.159
-270.340	245.482	0.042	-0.069
-269.326	-200.000	-0.046	0.295
-268.311	-47.749	0.309	-0.147
-267.297	-20.112	0.258	-0.156
-266.282	120.803	-0.292	0.357
-265.267	-68.437	0.136	0.052
-264.253	-1.979	-0.185	0.128
-263.238	-122.818	-0.362	0.058
-262.224	-82.703	0.177	-0.056
-261.209	-200.000	0.043	-0.225
-260.195	124.129	-0.180	-0.223
-259.180	253.952	-0.104	0.175
-258.165	-200.000	0.007	-0.057
-257.151	-200.000	-0.008	-0.159
-256.136	-126.204	0.335	0.049
-255.122	-76.706	0.109	-0.038
-254.107	-200.000	0.020	0.109
-253.092	-93.811	0.175	0.047
-252.078	38.013	-0.142	0.124
-251.063	-200.000	-0.026	0.253
-250.049	50.977	-0.316	0.294
-249.034	-147.751	-0.233	-0.019
-248.019	-163.721	0.160	-0.007
-247.005	-200.000	0.001	0.240
-245.990	22.801	0.185	-0.149
-244.976	800.000	0.042	0.124
-243.961	-78.178	-0.127	0.043
-242.946	269.487	-0.149	0.257
-241.932	-117.929	0.209	-0.037
-240.917	-146.230	0.154	0.013
-239.903	800.000	-0.024	0.076
-238.888	-110.242	0.167	-0.034
-237.873	-10.770	0.148	-0.096
-236.859	-200.000	0.004	-0.354
-235.844	-200.000	0.060	0.324
-234.830	132.705	0.105	-0.133
-233.815	32.540	0.201	-0.171
-232.800	-5.110	-0.016	0.011
-231.786	-124.707	-0.224	-0.034
-230.771	-89.668	-0.149	-0.043
-229.757	-73.247	0.337	-0.121
-228.742	-152.931	-0.336	-0.023
-227.727	68.568	0.207	-0.209
-226.713	800.000	-0.016	0.044
-225.698	800.000	0.036	-0.132
-224.684	-151.065	-0.230	-0.017
-223.669	-22.214	-0.260	-0.155
-222.655	-44.748	-0.181	0.089
-221.640	-200.000	-0.001	0.039
-220.625	-174.592	-0.040	0.001
-219.611	386.008	0.142	0.289
-218.596	85.465	0.134	-0.144
-217.582	-200.000	0.020	0.196
-216.567	-163.043	-0.070	-0.003
-215.552	70.931	0.172	0.175
-214.538	800.000	0.040	0.154
-213.523	-200.000	-0.010	0.455
-212.509	-200.000	-0.031	0.343
-211.494	297.539	-0.037	0.066
-210.479	78.017	-0.193	0.202
-209.465	-200.000	-0.016	0.177
-208.450	-200.000	0.001	0.474
-207.436	-200.000	0.019	-0.106
-206.421	8.251	0.084	0.062
-205.406	-130.659	-0.169	0.022
-204.392	148.166	0.080	-0.106
-203.377	-200.000	0.028	0.199
-202.363	69.018	-0.314	-0.317
-201.348	-200.000	0.003	0.162
-200.333	800.000	0.044	-0.180
-199.319	-129.227	0.324	-0.044
-198.304	800.000	0.033	0.117
-197.290	206.694	-0.154	0.236
-196.275	800.000	0.054	0.152
-195.260	-129.754	0.207	-0.028
-194.246	800.000	-0.107	-0.330
-193.231	117.899	0.185	-0.223
-192.217	-25.963	-0.228	-0.131
-191.202	166.434	-0.126	0.176
-190.187	12.048	0.118	0.089
-189.173	66.529	-0.217	-0.216
-188.158	-149.745	-0.236	-0.018
-187.144	-64.600	0.069	-0.028
-186.129	38.004	0.337	0.294
-185.114	800.000	-0.099	0.379
-184.100	312.297	0.061	-0.112
-183.085	-200.000	-0.020	0.085
-182.071	270.370	0.061	-0.105
-181.056	66.803	-0.040	-0.040
-180.042	157.483	0.122	-0.166
-179.027	411.627	-0.083	-0.174
-178.012	-52.185	0.176	-0.080
-176.998	-54.978	0.283	0.125
-175.983	224.569	0.066	-0.104
-174.969	-200.000	-0.007	-0.060
-173.954	-130.134	0.139	0.019
-172.939	-1.771	-0.109	0.075
-171.925	-60.394	-0.073	-0.030
-170.910	215.370	0.187	-0.292
-169.896	-28.686	-0.112	0.063
-168.881	-92.590	0.053	0.015
-167.866	350.141	-0.110	-0.212
-166.852	32.769	0.232	-0.197
-165.837	59.588	0.178	-0.172
-164.823	800.000	-0.088	-0.355
-163.808	325.424	0.034	-0.065
-162.793	-88.270	0.255	-0.075
-161.779	800.000	0.063	0.249
-160.764	72.994	-0.120	-0.123
-159.750	78.235	-0.083	-0.087
-158.735	-200.000	-0.031	0.458
-157.720	115.784	0.119	0.143
-156.706	-22.036	0.199	-0.119
-155.691	-117.613	-0.079	0.014
-154.677	-115.587	0.189	0.035
-153.662	251.449	-0.067	0.111
-152.647	132.557	0.235	-0.297
-151.633	31.496	-0.138	0.116
-150.618	-200.000	-0.010	0.385
-149.604	181.846	0.069	0.100
-148.589	-62.452	0.039	-0.016
-147.574	26.167	0.189	0.154
-146.560	254.619	0.008	0.014
-145.545	-91.166	-0.362	-0.102
-144.531	-51.743	-0.173	0.079
-143.516	-123.449	0.165	0.026
-142.502	-200.000	-0.020	0.121
-141.487	-86.086	-0.154	0.046
-140.472	-59.063	0.352	-0.149
-139.458	110.459	0.114	0.134
-138.443	372.388	-0.061	0.120
-137.429	-71.200	0.216	0.080
-136.414	-99.448	-0.169	-0.042
-135.399	-200.000	0.064	0.384
-134.385	-121.786	-0.201	0.032
-133.370	354.577	-0.044	-0.085
-132.356	225.944	-0.079	-0.125
-131.341	230.947	0.081	0.129
-130.326	-86.144	0.090	0.027
-129.312	800.000	-0.075	0.230
-128.297	157.382	0.070	0.095
-127.283	-10.756	-0.074	0.048
-126.268	-64.383	0.234	-0.093
-125.253	-64.933	0.165	-0.065
-124.239	-200.000	-0.012	-0.086
-123.224	-49.368	0.176	0.082
-122.210	800.000	0.090	0.360
-121.195	-81.832	-0.147	-0.047
