DTS Sentinel unit serial number:	SN413079Multiplexer serial number:	ORYXHardware model number:	OX4-SRSoftware version number:	ORYX F/W v4.00 Oryx Data Collector v3.7.2.0data status	okinstallation	princeton_trtdifferential loss correction	single-endedforward channel	channel 4reverse channel	N/Adate	2019/09/14time	04:05:34forward acquisition time	60.00reverse acquisition time	0.00gamma	496.2192k internal	0.2322k external	0.2322temperature offset calibration	1.0135default loss term (dB/km)	0.3790temperature slope calibration	1.0000multiplexer offset coefficient	1.0000multiplexer slope coefficient	1.0000fibre end	0.00T internal ref (°C)	26.69T ext. ref 1 (°C)	3.33T ext. ref 2 (°C)	21.81length (m)	temperature (°C)	Stokes	anti-Stokes-747.200	-56.694	0.325	0.146
-746.185	-7.684	0.207	-0.141
-745.171	-200.000	-0.025	-0.166
-744.156	205.843	0.064	-0.100
-743.142	-75.416	0.214	0.077
-742.127	-22.597	-0.103	-0.063
-741.112	-182.674	-0.231	0.004
-740.098	800.000	0.075	0.240
-739.083	-99.644	-0.186	0.047
-738.069	476.462	0.125	0.284
-737.054	85.295	-0.198	0.219
-736.039	-11.435	-0.079	0.053
-735.025	800.000	0.041	0.176
-734.010	-59.621	-0.370	0.160
-732.996	-124.072	0.304	-0.048
-731.981	95.701	0.250	0.288
-730.966	800.000	-0.099	-0.302
-729.952	-63.680	-0.304	-0.126
-728.937	-102.225	-0.368	0.089
-727.923	-3.041	0.246	0.174
-726.908	800.000	-0.082	-0.256
-725.894	-161.281	-0.098	0.005
-724.879	-51.985	-0.485	-0.227
-723.864	-126.117	-0.485	-0.073
-722.850	-126.201	-0.237	-0.036
-721.835	-200.000	0.020	-0.121
-720.821	90.585	0.200	-0.226
-719.806	-118.214	0.173	-0.031
-718.791	-200.000	0.030	0.423
-717.777	272.740	0.110	0.196
-716.762	800.000	-0.017	0.063
-715.748	630.269	-0.072	0.183
-714.733	800.000	-0.090	-0.334
-713.718	-38.706	-0.386	-0.206
-712.704	-200.000	0.010	0.080
-711.689	-46.659	0.337	0.167
-710.675	-200.000	-0.040	-0.199
-709.660	-200.000	0.015	0.275
-708.645	82.458	-0.160	-0.175
-707.631	97.632	-0.183	0.213
-706.616	-200.000	-0.023	0.108
-705.602	785.926	0.093	-0.257
-704.587	-135.537	-0.318	-0.038
-703.572	-200.000	0.011	-0.325
-702.558	410.943	-0.273	0.585
-701.543	-130.011	0.226	0.031
-700.529	215.375	0.096	0.153
-699.514	-200.000	-0.028	-0.191
-698.499	265.840	0.055	-0.097
-697.485	277.773	-0.168	-0.301
-696.470	547.925	0.077	0.186
-695.456	320.523	0.054	-0.104
-694.441	-200.000	0.018	0.305
-693.426	283.213	-0.087	0.158
-692.412	26.128	-0.149	-0.126
-691.397	-200.000	0.032	0.000
-690.383	800.000	-0.036	-0.108
-689.368	-123.743	-0.117	-0.019
-688.354	58.253	0.332	-0.329
-687.339	11.857	-0.364	0.282
-686.324	-200.000	0.008	0.113
-685.310	72.000	-0.202	-0.211
-684.295	286.370	0.086	-0.156
-683.281	234.568	-0.162	0.270
-682.266	-200.000	-0.018	-0.131
-681.251	-106.585	-0.029	-0.006
-680.237	800.000	0.082	0.288
-679.222	123.317	-0.125	0.158
-678.208	241.082	-0.105	-0.177
-677.193	-125.459	0.256	-0.039
-676.178	-157.210	-0.311	-0.019
-675.164	-161.766	-0.276	0.014
-674.149	-200.000	-0.021	0.314
-673.135	-163.516	0.250	0.012
-672.120	307.330	0.074	-0.140
-671.105	59.524	-0.007	-0.007
-670.091	6.717	0.088	0.066
-669.076	-95.642	0.195	0.053
-668.062	-133.010	-0.231	0.030
-667.047	2.640	0.020	-0.014
-666.032	-200.000	0.000	0.134
-665.018	-173.885	0.271	-0.008
-664.003	-200.000	-0.022	-0.381
-662.989	-4.250	0.149	-0.104
-661.974	800.000	-0.070	-0.276
-660.959	-135.511	0.224	-0.027
-659.945	132.088	0.236	-0.306
-658.930	47.539	-0.252	-0.236
-657.916	70.444	0.098	0.102
-656.901	-74.003	0.230	-0.084
-655.886	-30.487	0.187	0.107
-654.872	92.982	-0.071	-0.080
-653.857	535.816	-0.041	0.098
-652.843	-57.986	-0.142	0.062
-651.828	-81.583	0.292	0.097
-650.814	-106.498	-0.177	0.040
-649.799	-200.000	-0.009	-0.174
-648.784	-154.715	-0.210	0.014
-647.770	461.127	-0.079	0.178
-646.755	-35.507	-0.336	-0.184
-645.741	72.530	0.072	0.076
-644.726	298.421	0.057	0.105
-643.711	-200.000	-0.002	0.186
-642.697	179.869	-0.175	-0.258
-641.682	-130.160	-0.182	-0.025
-640.668	186.087	-0.057	0.086
-639.653	564.055	0.067	0.164
-638.638	-200.000	-0.025	-0.143
-637.624	-200.000	0.022	-0.117
-636.609	562.467	-0.116	-0.282
-635.595	-50.526	-0.131	-0.062
-634.580	183.773	0.148	-0.220
-633.565	-200.000	0.003	0.180
-632.551	-104.670	-0.207	-0.048
-631.536	76.739	0.139	-0.148
-630.522	23.610	-0.351	0.291
-629.507	27.690	0.142	-0.121
-628.492	-106.763	0.497	-0.111
-627.478	800.000	-0.028	-0.123
-626.463	148.926	-0.107	-0.146
-625.449	-126.431	0.236	0.035
-624.434	800.000	-0.073	-0.223
-623.419	-200.000	-0.121	-0.593
-622.405	-90.587	0.322	0.094
-621.390	-42.799	0.305	0.156
-620.376	-58.227	-0.416	-0.182
-619.361	-200.000	-0.014	-0.174
-618.346	258.942	-0.207	0.358
-617.332	76.341	0.126	0.134
-616.317	800.000	0.019	-0.053
-615.303	-200.000	-0.029	-0.166
-614.288	32.856	-0.229	0.199
-613.273	157.222	-0.299	-0.416
-612.259	142.068	0.126	-0.169
-611.244	800.000	0.039	0.142
-610.230	77.965	-0.036	0.039
-609.215	-122.006	-0.139	0.023
-608.201	-200.000	-0.010	-0.151
-607.186	502.958	-0.012	-0.028
-606.171	800.000	-0.057	0.210
-605.157	-200.000	-0.027	0.263
-604.142	191.582	0.184	0.279
-603.128	800.000	-0.121	0.468
-602.113	-3.998	0.146	-0.102
-601.098	-32.041	0.248	-0.140
-600.084	-111.859	-0.307	0.062
-599.069	438.803	-0.084	-0.184
-598.055	-6.025	0.231	0.159
-597.040	-92.721	0.398	-0.112
-596.025	142.933	0.077	0.102
-595.011	146.862	0.088	-0.119
-593.996	-67.530	0.229	0.090
-592.982	171.279	-0.116	0.167
-591.967	86.639	0.121	0.134
-590.952	252.608	-0.092	-0.158
-589.938	-72.792	-0.086	-0.032
-588.923	800.000	-0.080	-0.271
-587.909	-127.000	-0.097	0.014
-586.894	302.147	-0.032	-0.060
-585.879	-15.364	0.174	0.112
-584.865	-17.415	-0.243	-0.154
-583.850	-107.816	-0.158	-0.034
-582.836	405.764	0.017	0.037
-581.821	-98.475	0.307	0.079
-580.806	-32.634	0.157	0.088
-579.792	16.088	0.055	0.044
-578.777	800.000	-0.068	0.272
-577.763	332.255	-0.108	0.210
-576.748	91.854	-0.115	-0.130
-575.733	800.000	0.048	0.185
-574.719	79.952	-0.077	-0.083
-573.704	75.439	0.333	0.352
-572.690	285.481	0.077	-0.140
-571.675	-2.703	0.155	-0.109
-570.661	-200.000	0.029	0.233
-569.646	32.712	-0.226	0.197
-568.631	-125.948	-0.390	-0.059
-567.617	-119.671	0.084	-0.015
-566.602	-47.210	-0.443	0.217
-565.588	99.140	0.077	-0.089
-564.573	800.000	0.106	0.403
-563.558	-123.294	-0.350	-0.056
-562.544	800.000	0.012	0.049
-561.529	-90.986	0.164	0.047
-560.515	224.906	-0.164	-0.266
-559.500	-129.473	0.276	0.038
-558.485	550.430	-0.094	0.227
-557.471	328.905	0.139	-0.268
-556.456	-200.000	-0.074	0.438
-555.442	-3.270	0.043	-0.030
-554.427	81.168	0.071	-0.077
-553.412	251.501	-0.052	0.089
-552.398	421.819	0.065	0.140
-551.383	37.572	-0.084	-0.075
-550.369	357.209	0.144	0.289
-549.354	-200.000	-0.055	-0.260
-548.339	-67.953	0.105	-0.041
-547.325	223.594	0.030	-0.048
-546.310	-161.568	0.327	0.017
-545.296	31.235	-0.140	-0.120
-544.281	-21.745	-0.126	-0.077
-543.266	10.420	0.158	-0.121
-542.252	24.086	-0.074	0.061
-541.237	-31.054	-0.162	0.091
-540.223	7.557	0.110	-0.082
-539.208	-37.742	-0.307	-0.164
-538.193	-200.000	0.033	-0.172
-537.179	-5.655	-0.031	0.021
-536.164	153.937	-0.219	0.301
-535.150	-174.836	0.365	-0.010
-534.135	-165.414	0.194	-0.009
-533.121	81.788	-0.120	0.130
-532.106	-75.330	0.158	-0.056
-531.091	800.000	0.032	-0.112
-530.077	255.702	0.060	-0.103
-529.062	-81.217	0.033	-0.011
-528.048	-140.945	-0.318	0.033
-527.033	800.000	-0.030	-0.106
-526.018	-200.000	-0.002	-0.422
-525.004	-45.900	0.016	0.008
-523.989	-200.000	-0.067	0.311
-522.975	142.949	-0.068	0.090
-521.960	-120.895	0.401	0.068
-520.945	-145.005	-0.374	-0.034
-519.931	800.000	-0.014	0.050
-518.916	-200.000	-0.019	-0.152
-517.902	-200.000	-0.065	0.000
-516.887	300.357	-0.125	-0.232
-515.872	66.560	0.105	-0.107
-514.858	-200.000	0.024	0.470
-513.843	-111.350	-0.153	-0.031
-512.829	186.585	0.111	-0.166
-511.814	25.285	-0.232	-0.193
-510.799	30.302	-0.216	0.185
-509.785	800.000	-0.109	-0.331
-508.770	305.213	-0.131	-0.243
-507.756	-44.827	0.209	0.104
-506.741	375.587	0.047	0.096
-505.726	115.756	-0.115	-0.140
-504.712	-200.000	-0.107	0.001
-503.697	-200.000	0.000	-0.143
-502.683	-45.919	-0.230	-0.113
-501.668	78.788	-0.087	-0.094
-500.653	800.000	0.130	-0.369
-499.639	41.726	0.103	0.094
-498.624	-64.994	0.250	-0.101
-497.610	-149.528	0.141	0.011
-496.595	-152.669	0.406	-0.029
-495.581	800.000	-0.141	-0.409
-494.566	772.371	-0.130	-0.355
-493.551	84.213	0.076	-0.083
-492.537	14.394	-0.166	0.130
-491.522	800.000	-0.073	-0.275
-490.508	-120.821	-0.182	0.031
-489.493	177.301	0.086	-0.126
-488.478	-112.106	-0.161	0.032
-487.464	48.852	-0.073	-0.069
-486.449	-138.285	0.187	-0.021
-485.435	-200.000	0.014	0.196
-484.420	800.000	-0.064	0.268
-483.405	-200.000	-0.016	0.303
-482.391	-149.091	-0.241	-0.019
-481.376	-169.376	-0.087	0.003
-480.362	-57.972	-0.073	-0.032
-479.347	800.000	0.079	0.254
-478.332	-36.795	-0.129	-0.069
-477.318	59.608	0.302	-0.298
-476.303	-142.729	0.218	-0.021
-475.289	23.846	0.239	-0.197
-474.274	601.657	-0.063	0.156
-473.259	558.474	0.091	0.219
-472.245	29.779	0.079	-0.068
-471.230	-117.064	-0.375	-0.068
-470.216	570.589	-0.077	0.188
-469.201	800.000	0.045	0.132
-468.186	-84.105	-0.050	-0.016
-467.172	-120.266	0.280	-0.048
-466.157	-8.385	0.126	0.084
-465.143	327.723	0.108	0.208
-464.128	87.071	-0.251	0.277
-463.113	235.305	-0.072	-0.120
-462.099	-22.304	-0.224	-0.136
-461.084	800.000	-0.063	0.247
-460.070	800.000	0.040	-0.162
-459.055	-153.253	0.177	0.012
-458.040	160.766	0.056	0.078
-457.026	112.141	0.180	0.217
-456.011	-200.000	0.001	-0.151
-454.997	237.893	0.121	-0.201
-453.982	62.716	-0.049	-0.049
-452.968	-200.000	0.000	0.480
-451.953	-47.731	0.048	0.023
-450.938	196.361	-0.080	-0.121
-449.924	800.000	-0.122	-0.448
-448.909	363.859	-0.072	-0.145
-447.895	-167.683	0.230	0.009
-446.880	156.081	-0.040	-0.055
-445.865	-36.303	0.153	0.083
-444.851	105.783	0.249	-0.295
-443.836	372.535	0.057	-0.115
-442.822	469.801	-0.055	-0.124
-441.807	-200.000	0.010	0.104
-440.792	565.119	0.037	0.089
-439.778	-129.352	0.242	-0.034
-438.763	-200.000	0.006	-0.152
-437.749	-53.361	0.329	-0.150
-436.734	-43.717	0.163	0.082
-435.719	-200.000	-0.064	0.399
-434.705	-138.051	0.478	0.053
-433.690	-200.000	0.005	0.122
-432.676	-200.000	0.035	-0.203
-431.661	706.005	-0.115	-0.304
-430.646	-134.928	0.104	-0.013
-429.632	-15.073	-0.084	-0.053
-428.617	-172.536	-0.025	-0.001
-427.603	-200.000	-0.003	0.031
-426.588	-89.240	-0.325	0.096
-425.573	-25.081	0.215	-0.127
-424.559	-62.180	-0.339	0.141
-423.544	-99.004	-0.255	0.065
-422.530	212.520	0.035	-0.055
-421.515	-10.180	0.342	-0.226
-420.500	-126.228	-0.250	-0.037
-419.486	800.000	-0.111	-0.439
-418.471	52.601	-0.237	-0.226
-417.457	-200.000	-0.017	-0.290
-416.442	-39.837	-0.260	-0.136
-415.428	-200.000	0.040	-0.196
-414.413	-178.619	-0.165	0.004
-413.398	-88.113	-0.204	0.061
-412.384	-96.094	-0.084	-0.022
-411.369	-103.147	-0.113	0.027
-410.355	-14.366	0.141	-0.090
-409.340	145.800	-0.213	-0.285
-408.325	-41.733	-0.084	0.043
-407.311	-64.491	0.093	-0.038
-406.296	800.000	0.031	0.097
-405.282	92.361	-0.261	-0.294
-404.267	-189.804	0.149	-0.002
-403.252	-45.358	-0.374	0.185
-402.238	-44.136	-0.255	0.128
-401.223	-71.155	-0.099	0.037
-400.209	-200.000	0.019	-0.290
-399.194	72.575	-0.092	0.095
-398.179	55.161	0.113	0.109
-397.165	294.579	0.071	-0.129
-396.150	-200.000	0.013	0.195
-395.136	58.815	0.340	0.333
-394.121	-74.356	0.183	0.066
-393.106	800.000	0.043	0.160
-392.092	-193.297	0.194	-0.002
-391.077	800.000	-0.059	-0.184
-390.063	800.000	0.088	-0.261
-389.048	109.436	-0.178	0.213
-388.033	-95.283	-0.256	-0.069
-387.019	-59.841	-0.234	0.100
-386.004	166.954	0.313	-0.442
-384.990	-200.000	0.021	0.432
-383.975	-162.474	-0.191	0.009
-382.960	718.078	0.164	0.435
-381.946	-200.000	0.034	-0.155
-380.931	21.229	-0.063	0.051
-379.917	-121.686	0.260	0.043
-378.902	-200.000	0.033	0.157
-377.888	-200.000	0.007	0.229
-376.873	-200.000	0.017	-0.096
-375.858	-200.000	0.001	-0.451
-374.844	-200.000	0.005	0.324
-373.829	-200.000	-0.008	0.230
-372.815	-200.000	0.006	0.098
-371.800	315.621	0.126	-0.237
-370.785	231.296	0.108	0.176
-369.771	-92.213	0.234	-0.066
-368.756	443.652	-0.127	0.277
-367.742	202.406	0.165	0.254
-366.727	-60.257	-0.253	0.107
-365.712	-80.450	0.287	0.095
-364.698	98.155	-0.113	0.130
-363.683	336.306	-0.113	0.219
-362.669	317.740	0.109	-0.206
-361.654	264.917	-0.074	-0.128
-360.639	-200.000	0.001	-0.265
-359.625	681.144	-0.028	-0.071
-358.610	-157.878	-0.125	-0.007
-357.596	35.800	-0.117	-0.102
-356.581	143.567	0.317	-0.421
-355.566	509.672	-0.089	0.207
-354.552	800.000	-0.038	-0.135
-353.537	-200.000	0.017	-0.090
-352.523	-164.451	-0.139	-0.006
-351.508	-200.000	-0.015	-0.084
-350.493	-118.501	-0.223	0.039
-349.479	0.274	-0.121	0.086
-348.464	43.065	0.269	-0.244
-347.450	156.069	-0.132	0.181
-346.435	-101.219	-0.300	0.073
-345.420	529.412	-0.130	0.306
-344.406	-41.349	0.094	-0.048
-343.391	37.613	0.238	-0.210
-342.377	800.000	-0.114	-0.335
-341.362	27.253	-0.151	0.127
-340.348	-131.209	0.228	-0.030
-339.333	-115.698	0.211	0.039
-338.318	184.969	-0.130	0.192
-337.304	-200.000	-0.035	0.226
-336.289	-91.423	-0.114	-0.032
-335.275	-160.530	0.269	-0.014
-334.260	173.334	0.062	-0.089
-333.245	-56.979	0.186	-0.082
-332.231	191.188	-0.178	0.266
-331.216	-57.839	0.321	-0.140
-330.202	173.522	-0.139	-0.200
-329.187	-200.000	-0.001	0.247
-328.172	-98.649	0.090	0.023
-327.158	800.000	0.057	0.222
-326.143	15.715	0.322	-0.252
-325.129	191.943	-0.097	0.146
-324.114	-200.000	0.046	0.420
-323.099	31.659	-0.092	-0.079
-322.085	-107.889	-0.166	-0.036
-321.070	115.228	0.104	-0.126
-320.056	80.635	0.232	-0.249
-319.041	95.506	0.058	-0.066
-318.026	507.330	0.057	-0.131
-317.012	310.296	-0.081	0.151
-315.997	-82.424	0.211	0.068
-314.983	-15.379	0.181	-0.115
-313.968	-94.896	-0.245	0.066
-312.953	645.950	-0.020	0.050
-311.939	701.333	-0.069	0.180
-310.924	-11.596	0.129	0.084
-309.910	77.019	-0.230	0.242
-308.895	131.472	-0.113	-0.145
-307.880	800.000	0.026	-0.084
-306.866	-53.994	-0.034	-0.015
-305.851	112.098	0.179	-0.215
-304.837	-90.704	-0.219	0.063
-303.822	154.272	0.083	-0.113
-302.807	800.000	0.024	0.083
-301.793	726.244	-0.055	-0.145
-300.778	-40.832	0.161	-0.083
-299.764	184.061	-0.208	0.305
-298.749	-146.136	-0.064	0.006
-297.735	-118.817	0.163	-0.029
-296.720	800.000	0.047	-0.144
-295.705	-30.101	0.240	0.136
-294.691	-200.000	-0.014	-0.211
-293.676	-200.000	-0.010	0.255
-292.662	-146.874	0.285	-0.024
-291.647	-200.000	-0.014	0.100
-290.632	729.736	-0.025	0.067
-289.618	29.986	0.164	0.139
-288.603	-35.007	0.071	0.039
-287.589	800.000	-0.065	0.254
-286.574	524.918	-0.087	-0.202
-285.559	-200.000	0.042	-0.268
-284.545	-85.292	-0.515	-0.160
-283.530	71.555	0.088	-0.091
-282.516	7.600	-0.282	0.209
-281.501	58.690	0.039	0.038
-280.486	14.301	-0.127	0.098
-279.472	-200.000	0.037	-0.227
-278.457	-176.487	-0.251	-0.006
-277.443	292.840	-0.114	-0.205
-276.428	-131.806	-0.110	0.014
-275.413	-68.023	-0.227	-0.088
-274.399	-131.034	-0.118	0.016
-273.384	-5.772	0.312	0.212
-272.370	-70.808	0.449	0.168
-271.355	-152.397	0.229	0.016
-270.340	199.753	-0.183	0.278
-269.326	-49.044	0.074	-0.035
-268.311	53.676	-0.226	0.215
-267.297	-62.575	-0.138	-0.057
-266.282	-125.175	-0.192	-0.029
-265.267	-145.169	-0.248	-0.022
-264.253	-184.358	0.115	0.002
-263.238	-66.698	0.176	0.069
-262.224	-78.396	-0.150	0.051
-261.209	269.460	-0.086	0.150
-260.195	125.909	0.089	-0.111
-259.180	-196.189	0.485	-0.003
-258.165	-156.027	0.282	0.018
-257.151	385.344	-0.155	-0.318
-256.136	-160.838	-0.075	0.004
-255.122	-45.045	0.068	-0.033
-254.107	-74.987	0.097	-0.035
-253.092	33.734	-0.069	0.060
-252.078	241.663	-0.103	-0.170
-251.063	-41.362	-0.205	-0.105
-250.049	-60.858	-0.192	-0.081
-249.034	800.000	0.183	0.500
-248.019	-30.483	-0.168	0.095
-247.005	-56.559	-0.239	0.105
-245.990	-106.105	-0.155	0.034
-244.976	311.314	0.241	0.449
-243.961	541.543	0.124	0.293
-242.946	-31.944	-0.292	0.162
-241.932	-71.414	0.101	-0.037
-240.917	800.000	-0.068	-0.242
-239.903	-15.631	-0.397	-0.251
-238.888	268.887	0.104	-0.181
-237.873	74.637	0.268	0.280
-236.859	-65.575	-0.227	-0.090
-235.844	-185.168	-0.273	-0.004
-234.830	-70.830	-0.145	-0.054
-233.815	-79.701	0.256	0.085
-232.800	-200.000	-0.006	0.075
-231.786	146.822	0.148	0.197
-230.771	-112.655	0.039	0.008
-229.757	67.080	0.240	-0.242
-228.742	162.722	-0.025	0.034
-227.727	36.265	-0.019	-0.017
-226.713	124.925	0.057	0.071
-225.698	-200.000	-0.006	0.214
-224.684	800.000	0.055	0.163
-223.669	800.000	-0.036	-0.100
-222.655	181.810	0.170	0.249
-221.640	-200.000	0.050	0.367
-220.625	114.150	0.164	-0.198
-219.611	212.478	-0.022	-0.034
-218.596	800.000	-0.038	-0.163
-217.582	-200.000	0.065	0.495
-216.567	800.000	0.064	-0.258
-215.552	-62.393	0.378	-0.156
-214.538	-27.074	-0.371	0.214
-213.523	-200.000	-0.030	-0.192
-212.509	-152.032	0.283	0.020
-211.494	-200.000	-0.002	-0.232
-210.479	-172.752	0.252	-0.008
-209.465	800.000	-0.105	-0.341
-208.450	37.450	-0.242	-0.213
-207.436	-135.375	0.033	-0.004
-206.421	-200.000	-0.047	-0.236
-205.406	-83.073	0.044	-0.014
-204.392	800.000	0.076	0.294
-203.377	-120.038	-0.266	-0.045
-202.363	51.101	0.184	0.173
-201.348	-200.000	0.003	-0.131
-200.333	-200.000	-0.013	0.102
-199.319	-152.401	0.157	0.011
-198.304	800.000	0.097	0.304
-197.290	676.233	0.076	0.195
-196.275	5.571	0.119	-0.087
-195.260	165.317	-0.043	0.060
-194.246	800.000	-0.054	-0.222
-193.231	-103.702	0.227	-0.053
-192.217	800.000	0.066	0.269
-191.202	-8.882	0.049	0.032
-190.187	-8.413	-0.087	0.058
-189.173	-75.619	-0.099	0.035
-188.158	467.306	-0.078	-0.173
-187.144	-200.000	0.030	0.355
-186.129	128.692	0.213	0.269
-185.114	232.480	-0.087	0.140
-184.100	-7.046	0.091	-0.061
-183.085	52.703	0.128	-0.121
-182.071	-200.000	-0.008	-0.041
-181.056	26.364	0.476	0.393
-180.042	-200.000	0.017	0.174
-179.027	139.935	-0.083	-0.108
-178.012	-200.000	-0.054	-0.264
-176.998	60.185	-0.131	0.128
-175.983	800.000	0.065	0.180
-174.969	-200.000	0.066	0.363
-173.954	-200.000	-0.008	0.125
-172.939	4.924	-0.352	-0.256
-171.925	-167.126	0.356	-0.014
-170.910	301.632	-0.198	-0.361
-169.896	-200.000	0.015	-0.133
-168.881	-200.000	-0.020	0.123
-167.866	-101.290	0.072	-0.017
-166.852	649.041	0.082	0.208
-165.837	-200.000	0.037	0.315
-164.823	-3.034	0.123	-0.085
-163.808	-16.222	0.142	-0.089
-162.793	0.475	-0.301	-0.213
-161.779	-70.258	0.082	0.031
-160.764	-9.773	-0.097	0.064
-159.750	-89.641	-0.247	-0.072
-158.735	-123.591	-0.455	-0.071
-157.720	-45.572	0.282	-0.138
-156.706	800.000	-0.031	-0.116
-155.691	-116.000	0.350	0.064
-154.677	800.000	-0.032	-0.123
-153.662	-200.000	0.008	-0.348
-152.647	45.495	-0.037	0.034
-151.633	41.580	0.035	0.031
-150.618	-67.237	0.371	-0.144
-149.604	-84.684	-0.234	-0.073
-148.589	-66.195	-0.063	-0.025
-147.574	800.000	-0.095	-0.277
-146.560	-200.000	-0.010	0.063
-145.545	95.263	0.119	0.134
-144.531	-200.000	0.068	-0.364
-143.516	-115.098	-0.350	0.066
-142.502	-200.000	0.001	0.090
-141.487	402.518	-0.124	0.258
-140.472	-149.615	-0.330	-0.026
-139.458	-105.047	-0.229	-0.052
-138.443	-200.000	-0.009	-0.105
-137.429	-54.524	-0.037	-0.017
-136.414	-139.790	-0.261	-0.027
-135.399	-80.172	-0.211	0.070
-134.385	103.791	0.232	0.269
-133.370	-200.000	-0.012	-0.070
-132.356	-57.955	0.112	0.048
-131.341	-19.177	0.431	-0.264
-130.326	-7.171	0.112	-0.075
-129.312	-31.166	-0.159	0.088
-128.297	-200.000	0.003	-0.082
-127.283	111.319	-0.132	-0.157
-126.268	29.598	0.173	0.145
-125.253	-200.000	-0.068	-0.333
-124.239	-129.067	0.211	0.029
-123.224	1.766	-0.123	-0.088
-122.210	-200.000	0.041	-0.239
