DTS Sentinel unit serial number:	SN413079Multiplexer serial number:	ORYXHardware model number:	OX4-SRSoftware version number:	ORYX F/W v4.00 Oryx Data Collector v3.7.2.0data status	okinstallation	princeton_trtdifferential loss correction	single-endedforward channel	channel 4reverse channel	N/Adate	2019/09/12time	09:59:10forward acquisition time	60.00reverse acquisition time	0.00gamma	496.2192k internal	0.2296k external	0.2296temperature offset calibration	1.0069default loss term (dB/km)	0.3790temperature slope calibration	1.0000multiplexer offset coefficient	1.0000multiplexer slope coefficient	1.0000fibre end	0.00T internal ref (°C)	36.19T ext. ref 1 (°C)	1.85T ext. ref 2 (°C)	32.66length (m)	temperature (°C)	Stokes	anti-Stokes-747.200	-165.149	-0.160	0.007
-746.185	-71.562	0.269	0.103
-745.171	233.408	-0.115	0.194
-744.156	800.000	0.029	-0.087
-743.142	113.055	-0.104	0.129
-742.127	-27.036	-0.211	0.126
-741.112	240.595	0.122	-0.208
-740.098	121.802	0.343	0.437
-739.083	-59.458	-0.262	-0.115
-738.069	-200.000	-0.017	0.120
-737.054	284.979	-0.097	0.178
-736.039	-144.218	-0.406	0.039
-735.025	-84.431	0.240	0.077
-734.010	58.423	0.080	-0.080
-732.996	-61.806	-0.229	-0.098
-731.981	-77.619	0.292	-0.103
-730.966	117.698	-0.190	0.238
-729.952	-200.000	0.047	0.310
-728.937	-200.000	0.046	0.315
-727.923	-70.405	-0.354	-0.137
-726.908	-61.466	-0.462	0.198
-725.894	-9.188	-0.176	0.120
-724.879	224.000	-0.121	0.199
-723.864	800.000	-0.054	-0.212
-722.850	25.548	-0.151	0.128
-721.835	-29.832	-0.268	-0.156
-720.821	-9.698	-0.245	-0.167
-719.806	38.032	-0.130	-0.118
-718.791	-87.306	0.148	-0.046
-717.777	19.653	0.314	-0.257
-716.762	-200.000	-0.037	-0.180
-715.748	67.136	-0.209	0.218
-714.733	-200.000	-0.083	0.544
-713.718	123.541	0.065	-0.083
-712.704	-7.234	-0.173	0.119
-711.689	800.000	-0.091	0.302
-710.675	-200.000	-0.024	-0.328
-709.660	-21.270	0.186	0.116
-708.645	-64.680	0.281	-0.116
-707.631	17.598	-0.130	-0.105
-706.616	-18.439	-0.096	-0.061
-705.602	176.777	-0.077	-0.115
-704.587	129.184	-0.127	-0.166
-703.572	-70.732	-0.176	-0.068
-702.558	-200.000	-0.002	0.066
-701.543	-95.141	0.034	-0.009
-700.529	448.811	0.098	-0.219
-699.514	-157.713	-0.281	-0.017
-698.499	-104.715	0.179	0.042
-697.485	-200.000	-0.022	-0.189
-696.470	-79.975	0.210	0.072
-695.456	800.000	-0.073	-0.261
-694.441	-1.399	-0.139	0.100
-693.426	92.757	-0.112	0.129
-692.412	-200.000	-0.020	-0.174
-691.397	800.000	-0.041	-0.131
-690.383	800.000	-0.031	-0.093
-689.368	96.616	0.218	0.254
-688.354	-87.361	-0.308	0.095
-687.339	800.000	0.044	0.188
-686.324	-7.431	0.030	-0.020
-685.310	-159.686	0.153	-0.009
-684.295	255.856	0.139	-0.243
-683.281	-200.000	-0.045	0.263
-682.266	641.507	0.047	0.123
-681.251	-12.988	0.108	-0.071
-680.237	-50.155	0.194	-0.094
-679.222	-136.189	-0.099	-0.012
-678.208	15.487	-0.257	-0.206
-677.193	800.000	-0.095	0.301
-676.178	56.546	0.020	0.020
-675.164	800.000	-0.084	0.268
-674.149	22.219	0.152	-0.126
-673.135	-200.000	-0.037	0.255
-672.120	-200.000	0.029	0.217
-671.105	46.319	-0.152	0.143
-670.091	12.440	0.182	0.143
-669.076	163.627	-0.046	-0.065
-668.062	-42.668	0.241	0.125
-667.047	-40.742	0.230	-0.122
-666.032	800.000	-0.049	-0.181
-665.018	121.296	0.167	0.212
-664.003	42.865	-0.280	-0.260
-662.989	242.233	0.091	0.154
-661.974	-155.947	-0.138	-0.009
-660.959	-200.000	-0.008	0.273
-659.945	115.607	-0.061	-0.076
-658.930	-200.000	0.010	-0.197
-657.916	492.527	-0.056	0.132
-656.901	10.406	-0.173	-0.134
-655.886	-88.640	-0.036	0.011
-654.872	-41.054	-0.200	-0.105
-653.857	-200.000	-0.017	0.237
-652.843	128.078	0.257	0.332
-651.828	-125.487	0.112	-0.017
-650.814	800.000	-0.103	0.346
-649.799	800.000	-0.073	0.296
-648.784	-127.715	-0.196	0.029
-647.770	-61.537	-0.197	-0.084
-646.755	-26.272	0.047	-0.028
-645.741	169.111	-0.092	-0.134
-644.726	-200.000	-0.004	0.047
-643.711	-39.622	-0.223	-0.119
-642.697	252.830	-0.139	0.242
-641.682	-200.000	0.005	-0.198
-640.668	-78.315	0.131	-0.046
-639.653	-14.798	-0.288	-0.188
-638.638	95.148	0.097	-0.113
-637.624	800.000	-0.084	0.359
-636.609	38.567	0.200	0.181
-635.595	411.269	0.078	-0.169
-634.580	559.675	-0.089	-0.218
-633.565	306.337	-0.165	0.312
-632.551	-149.767	-0.490	0.039
-631.536	103.562	-0.321	-0.383
-630.522	98.428	0.053	-0.063
-629.507	-85.456	-0.387	0.123
-628.492	77.737	0.039	-0.042
-627.478	-30.016	-0.300	0.173
-626.463	-38.640	-0.144	-0.077
-625.449	36.375	-0.255	-0.229
-624.434	-124.745	-0.272	0.043
-623.419	313.228	0.067	0.129
-622.405	-200.000	-0.003	0.139
-621.390	800.000	0.089	0.346
-620.376	-200.000	-0.056	-0.361
-619.361	800.000	0.074	0.256
-618.346	60.962	-0.134	-0.135
-617.332	-27.296	0.116	-0.069
-616.317	350.775	0.083	-0.167
-615.303	-200.000	0.092	-0.556
-614.288	226.125	-0.162	0.266
-613.273	-162.986	-0.142	-0.007
-612.259	-200.000	-0.000	-0.040
-611.244	311.751	0.031	0.058
-610.230	470.096	-0.210	0.480
-609.215	800.000	-0.082	0.311
-608.201	-10.657	-0.085	0.057
-607.186	-95.731	-0.155	-0.042
-606.171	278.730	0.056	-0.101
-605.157	-77.294	0.248	0.088
-604.142	412.773	-0.012	0.026
-603.128	-15.723	0.096	-0.062
-602.113	-200.000	0.033	-0.157
-601.098	-9.085	0.090	-0.061
-600.084	-112.902	0.098	-0.020
-599.069	800.000	-0.045	0.185
-598.055	-200.000	0.022	0.155
-597.040	-69.001	-0.269	0.105
-596.025	800.000	-0.040	-0.162
-595.011	-157.246	-0.099	0.006
-593.996	-186.949	0.284	-0.004
-592.982	530.138	0.074	0.178
-591.967	18.332	0.103	-0.083
-590.952	343.473	0.179	-0.357
-589.938	96.125	0.271	0.315
-588.923	103.013	-0.114	0.136
-587.909	81.135	0.207	0.227
-586.894	229.723	0.111	-0.184
-585.879	-200.000	-0.038	-0.269
-584.865	-60.898	-0.189	-0.081
-583.850	-13.746	0.130	0.086
-582.836	115.821	-0.152	-0.189
-581.821	-34.108	-0.172	-0.096
-580.806	-26.285	-0.346	-0.206
-579.792	-200.000	0.019	-0.133
-578.777	116.954	0.237	-0.296
-577.763	-142.568	0.143	-0.014
-576.748	49.986	-0.259	0.248
-575.733	-173.949	0.278	-0.008
-574.719	-60.630	0.100	-0.043
-573.704	53.034	0.134	-0.130
-572.690	168.246	0.082	-0.118
-571.675	-200.000	0.023	0.237
-570.661	-130.283	0.463	-0.064
-569.646	239.599	0.009	0.015
-568.631	261.423	-0.071	-0.125
-567.617	-47.665	0.144	-0.071
-566.602	17.360	-0.264	-0.212
-565.588	-200.000	0.037	0.284
-564.573	-116.102	0.145	-0.027
-563.558	93.677	0.097	0.112
-562.544	307.887	-0.098	0.185
-561.529	-57.787	0.306	0.136
-560.515	800.000	-0.161	-0.610
-559.500	-16.062	-0.132	-0.085
-558.485	237.215	0.154	0.259
-557.471	40.404	-0.228	0.209
-556.456	-120.138	0.380	0.066
-555.442	-63.482	-0.208	-0.087
-554.427	-32.060	-0.161	-0.091
-553.412	-200.000	-0.050	-0.334
-552.398	504.362	0.046	-0.107
-551.383	448.473	-0.115	0.256
-550.369	555.306	-0.045	0.109
-549.354	151.070	0.120	-0.165
-548.339	800.000	0.100	-0.331
-547.325	2.321	-0.153	-0.113
-546.310	-200.000	-0.073	-0.333
-545.296	-117.568	0.092	0.017
-544.281	-68.879	-0.135	-0.053
-543.266	-200.000	-0.021	0.155
-542.252	197.632	0.094	-0.146
-541.237	42.430	-0.150	-0.138
-540.223	-68.151	-0.130	0.051
-539.208	185.257	-0.151	0.228
-538.193	-200.000	-0.049	-0.345
-537.179	305.495	-0.134	-0.252
-536.164	-120.128	0.108	-0.019
-535.150	98.838	0.215	-0.251
-534.135	79.127	-0.160	-0.173
-533.121	123.883	0.163	0.208
-532.106	-200.000	0.008	0.117
-531.091	-200.000	0.043	-0.276
-530.077	-105.905	0.143	0.033
-529.062	-121.428	0.089	0.015
-528.048	-2.144	0.367	0.261
-527.033	-200.000	-0.004	-0.283
-526.018	1.473	0.210	-0.153
-525.004	-200.000	0.012	-0.207
-523.989	-175.839	-0.110	-0.003
-522.975	101.468	0.243	-0.287
-521.960	800.000	-0.056	-0.203
-520.945	-107.757	-0.162	0.036
-519.931	722.773	-0.038	-0.103
-518.916	32.033	0.087	0.076
-517.902	-200.000	-0.022	0.275
-516.887	736.181	-0.068	0.184
-515.872	-143.916	-0.106	0.010
-514.858	22.055	0.126	0.104
-513.843	84.034	0.074	0.082
-512.829	-88.163	0.083	0.025
-511.814	-26.426	0.335	0.199
-510.799	800.000	-0.056	-0.202
-509.785	-186.191	0.051	-0.001
-508.770	44.260	0.140	0.130
-507.756	230.205	0.102	-0.169
-506.741	77.788	0.244	-0.263
-505.726	-76.503	0.152	0.054
-504.712	-79.743	-0.372	-0.127
-503.697	20.998	-0.150	0.123
-502.683	130.376	-0.183	0.237
-501.668	-31.856	-0.374	0.212
-500.653	-200.000	-0.012	-0.084
-499.639	383.520	0.059	0.122
-498.624	450.206	-0.039	0.088
-497.610	-56.524	0.196	-0.088
-496.595	-88.856	0.089	-0.027
-495.581	97.297	0.028	-0.033
-494.566	-80.456	-0.293	-0.099
-493.551	-33.669	0.150	-0.084
-492.537	800.000	-0.035	0.149
-491.522	-200.000	0.004	0.077
-490.508	132.931	0.065	0.085
-489.493	-200.000	0.025	-0.154
-488.478	-200.000	-0.022	-0.280
-487.464	-140.919	0.288	-0.030
-486.449	31.728	-0.057	0.050
-485.435	414.131	0.054	-0.117
-484.420	-131.852	0.161	-0.021
-483.405	731.616	-0.086	-0.231
-482.391	-178.374	-0.220	-0.005
-481.376	-20.826	-0.306	0.190
-480.362	-200.000	-0.032	0.190
-479.347	-152.426	0.057	0.004
-478.332	539.825	0.077	0.184
-477.318	-46.386	-0.150	-0.074
-476.303	49.141	-0.205	-0.194
-475.289	800.000	-0.018	0.050
-474.274	-200.000	0.005	-0.156
-473.259	134.106	-0.180	0.236
-472.245	52.007	0.263	0.253
-471.230	68.274	0.238	0.246
-470.216	-200.000	0.004	-0.376
-469.201	125.049	0.064	-0.081
-468.186	-95.870	0.216	0.058
-467.172	60.145	0.186	-0.186
-466.157	800.000	0.066	-0.247
-465.143	-128.837	0.271	-0.039
-464.128	-33.461	0.376	0.210
-463.113	550.138	0.129	-0.312
-462.099	103.769	0.126	0.150
-461.084	452.806	-0.175	-0.392
-460.070	6.942	0.040	-0.030
-459.055	14.999	-0.064	-0.050
-458.040	-59.409	-0.330	0.143
-457.026	57.356	-0.139	-0.137
-456.011	-22.255	-0.092	0.056
-454.997	-89.431	0.228	-0.068
-453.982	-81.280	-0.027	-0.009
-452.968	-73.464	-0.090	-0.033
-451.953	35.524	-0.182	-0.161
-450.938	-200.000	0.061	0.311
-449.924	-145.246	0.107	-0.010
-448.909	-200.000	-0.034	0.370
-447.895	-24.810	-0.143	0.086
-446.880	359.912	-0.131	-0.265
-445.865	363.991	0.092	-0.187
-444.851	-29.969	-0.211	0.122
-443.836	-166.746	-0.078	0.003
-442.822	-21.743	-0.149	0.092
-441.807	-200.000	-0.022	-0.159
-440.792	-200.000	0.058	0.432
-439.778	738.997	-0.101	0.272
-438.763	339.235	-0.140	0.275
-437.749	-143.767	-0.394	0.038
-436.734	557.081	-0.046	0.112
-435.719	42.794	0.114	-0.105
-434.705	-29.941	-0.278	0.160
-433.690	-7.944	0.157	-0.107
-432.676	256.756	-0.152	-0.264
-431.661	-200.000	0.010	0.522
-430.646	527.361	0.089	0.211
-429.632	-200.000	0.056	-0.256
-428.617	-200.000	0.051	0.341
-427.603	-69.289	-0.202	-0.078
-426.588	-200.000	-0.065	0.327
-425.573	-63.540	0.222	0.092
-424.559	251.055	0.071	0.122
-423.544	508.140	-0.086	-0.201
-422.530	113.094	-0.215	0.263
-421.515	188.962	-0.141	0.212
-420.500	-52.835	0.123	0.057
-419.486	-14.028	-0.045	-0.029
-418.471	6.126	-0.381	0.285
-417.457	-58.083	0.163	-0.072
-416.442	158.084	-0.075	-0.105
-415.428	-126.176	-0.394	-0.059
-414.413	800.000	-0.024	-0.069
-413.398	129.266	-0.084	-0.109
-412.384	800.000	-0.015	-0.051
-411.369	-54.456	0.381	-0.174
-410.355	-200.000	0.046	-0.344
-409.340	208.576	0.143	-0.226
-408.325	-50.304	-0.044	-0.021
-407.311	123.497	0.182	-0.230
-406.296	572.050	-0.102	0.252
-405.282	-41.905	-0.221	0.114
-404.267	-112.544	0.259	-0.052
-403.252	-40.733	0.176	-0.092
-402.238	-95.455	-0.152	-0.041
-401.223	187.669	-0.248	0.373
-400.209	728.624	0.132	0.355
-399.194	-119.532	0.401	-0.070
-398.179	-32.190	-0.233	-0.131
-397.165	-41.618	0.211	-0.109
-396.150	-183.564	0.180	-0.003
-395.136	93.627	-0.109	0.124
-394.121	115.148	0.082	0.101
-393.106	-72.984	-0.027	-0.010
-392.092	277.267	0.059	0.107
-391.077	636.819	-0.050	-0.127
-390.063	-38.632	0.073	0.039
-389.048	34.013	-0.265	-0.233
-388.033	5.800	-0.167	0.125
-387.019	-200.000	-0.014	-0.265
-386.004	154.003	0.096	-0.133
-384.990	-52.274	-0.335	0.157
-383.975	128.776	-0.211	-0.271
-382.960	-102.848	0.294	-0.070
-381.946	-37.636	0.095	-0.051
-380.931	-101.976	0.317	0.077
-379.917	800.000	0.054	-0.219
-378.902	-54.879	0.231	0.105
-377.888	368.160	0.132	0.269
-376.873	-139.533	0.070	-0.008
-375.858	800.000	-0.065	0.256
-374.844	472.345	-0.143	0.325
-373.829	446.892	-0.031	-0.068
-372.815	299.845	0.075	0.139
-371.800	279.513	0.136	0.245
-370.785	9.827	0.029	0.023
-369.771	-54.173	0.056	0.026
-368.756	800.000	-0.072	0.298
-367.742	-200.000	0.041	-0.205
-366.727	800.000	0.131	-0.365
-365.712	59.670	0.133	0.132
-364.698	-104.699	-0.310	0.072
-363.683	-55.194	-0.088	0.040
-362.669	81.132	-0.222	-0.241
-361.654	-200.000	-0.053	-0.404
-360.639	71.361	0.083	-0.087
-359.625	-200.000	0.055	-0.280
-358.610	121.105	-0.086	-0.108
-357.596	800.000	0.094	0.284
-356.581	575.754	-0.028	-0.069
-355.566	-200.000	-0.022	0.256
-354.552	800.000	-0.074	0.265
-353.537	70.680	0.190	0.198
-352.523	-72.028	0.136	0.051
-351.508	-136.056	0.375	-0.044
-350.493	106.463	-0.050	-0.060
-349.479	-128.816	-0.057	-0.008
-348.464	155.046	-0.106	-0.146
-347.450	-51.727	0.129	0.060
-346.435	229.894	-0.197	-0.324
-345.420	-125.333	0.233	-0.036
-344.406	-21.081	0.284	-0.175
-343.391	-145.432	-0.245	0.022
-342.377	72.285	0.146	-0.153
-341.362	219.186	-0.058	0.092
-340.348	313.399	0.230	-0.434
-339.333	-56.494	0.224	0.100
-338.318	-200.000	0.022	0.224
-337.304	-62.146	-0.275	-0.115
-336.289	166.272	-0.100	0.142
-335.275	73.042	-0.193	-0.203
-334.260	74.251	0.233	-0.246
-333.245	531.421	0.090	-0.215
-332.231	-141.256	0.458	-0.047
-331.216	-56.221	0.358	0.160
-330.202	-55.426	-0.079	-0.035
-329.187	329.234	-0.094	0.182
-328.172	800.000	-0.111	0.360
-327.158	-129.634	-0.389	-0.054
-326.143	220.015	-0.169	0.272
-325.129	-200.000	-0.025	0.109
-324.114	-200.000	0.059	-0.394
-323.099	18.818	-0.320	-0.258
-322.085	70.718	0.115	0.119
-321.070	123.269	0.192	0.242
-320.056	-126.651	0.127	0.019
-319.041	248.123	0.115	0.196
-318.026	-200.000	-0.028	0.190
-317.012	418.926	0.021	-0.045
-315.997	163.055	-0.075	0.106
-314.983	-200.000	-0.021	0.232
-313.968	-105.355	0.256	0.059
-312.953	239.798	-0.091	-0.153
-311.939	-151.417	0.046	-0.003
-310.924	-57.050	0.290	-0.128
-309.910	441.809	0.079	0.174
-308.895	-15.881	0.077	0.049
-307.880	-134.563	-0.248	-0.030
-306.866	39.461	0.370	-0.333
-305.851	104.754	0.074	0.088
-304.837	-50.570	0.280	0.133
-303.822	-93.760	0.232	0.064
-302.807	455.844	-0.074	0.164
-301.793	-200.000	-0.003	0.249
-300.778	-200.000	-0.002	0.031
-299.764	501.904	0.073	-0.169
-298.749	-200.000	-0.018	-0.226
-297.735	-200.000	-0.009	-0.129
-296.720	-200.000	-0.056	0.284
-295.705	800.000	-0.072	-0.247
-294.691	-160.146	-0.158	0.009
-293.676	268.250	-0.149	0.262
-292.662	193.547	-0.173	0.263
-291.647	-36.718	0.017	0.009
-290.632	-8.039	0.362	-0.245
-289.618	-137.188	0.184	-0.021
-288.603	-200.000	-0.009	-0.233
-287.589	-200.000	0.006	0.098
-286.574	-200.000	0.003	0.021
-285.559	-200.000	-0.051	0.247
-284.545	-57.644	-0.234	0.103
-283.530	-29.136	0.247	0.142
-282.516	115.870	-0.139	0.170
-281.501	-0.310	0.278	0.198
-280.486	628.454	0.043	-0.110
-279.472	248.313	-0.128	0.218
-278.457	-97.646	0.432	0.112
-277.443	-30.784	-0.239	-0.135
-276.428	800.000	-0.025	0.089
-275.413	166.122	0.197	0.280
-274.399	-90.284	-0.208	-0.061
-273.384	800.000	-0.069	0.240
-272.370	-200.000	-0.020	0.342
-271.355	55.829	-0.210	0.204
-270.340	-34.983	0.112	-0.061
-269.326	36.272	-0.183	0.161
-268.311	182.747	-0.228	-0.337
-267.297	-109.033	-0.291	0.062
-266.282	88.822	0.122	0.136
-265.267	-85.778	-0.249	0.078
-264.253	-200.000	-0.006	-0.208
-263.238	-18.175	-0.090	0.056
-262.224	341.998	0.182	-0.356
-261.209	251.140	0.243	-0.414
-260.195	-200.000	0.024	-0.199
-259.180	800.000	0.096	-0.349
-258.165	-200.000	-0.005	-0.243
-257.151	-16.138	-0.332	-0.212
-256.136	33.687	0.322	0.281
-255.122	465.988	0.160	-0.360
-254.107	-12.808	-0.146	-0.095
-253.092	-13.384	-0.299	-0.194
-252.078	-200.000	0.009	-0.224
-251.063	800.000	0.038	0.134
-250.049	502.688	-0.123	0.286
-249.034	-30.211	-0.184	-0.105
-248.019	127.403	0.140	0.178
-247.005	100.609	-0.162	-0.188
-245.990	-117.750	-0.303	0.055
-244.976	800.000	-0.061	-0.216
-243.961	-154.988	0.354	-0.023
-242.946	98.968	-0.221	0.256
-241.932	256.917	0.152	0.262
-240.917	232.509	0.135	0.223
-239.903	800.000	-0.026	-0.072
-238.888	-200.000	0.064	0.326
-237.873	-200.000	0.051	-0.395
-236.859	-200.000	0.011	-0.138
-235.844	-175.532	-0.196	0.005
-234.830	-200.000	0.001	0.047
-233.815	12.781	-0.147	0.114
-232.800	-146.515	-0.160	0.014
-231.786	-76.465	0.113	0.040
-230.771	-141.166	-0.223	-0.023
-229.757	-200.000	0.038	-0.227
-228.742	-128.782	0.119	0.017
-227.727	-200.000	-0.023	0.103
-226.713	-88.440	0.113	-0.034
-225.698	351.327	-0.129	0.256
-224.684	-200.000	-0.001	0.044
-223.669	800.000	-0.023	-0.098
-222.655	-12.772	0.309	-0.201
-221.640	-137.111	-0.396	-0.045
-220.625	-200.000	0.014	0.212
-219.611	80.717	-0.092	0.099
-218.596	-200.000	-0.012	0.250
-217.582	436.992	0.123	-0.269
-216.567	-200.000	0.090	-0.453
-215.552	19.447	0.138	0.111
-214.538	-102.184	-0.402	0.097
-213.523	-166.752	0.251	-0.010
-212.509	-24.129	-0.276	0.165
-211.494	277.055	-0.078	0.138
-210.479	-98.574	-0.215	-0.055
-209.465	-200.000	0.003	-0.026
-208.450	-32.950	0.163	0.091
-207.436	-6.562	0.082	0.056
-206.421	-75.279	0.077	0.028
-205.406	516.815	-0.112	0.261
-204.392	-200.000	-0.027	0.122
-203.377	714.253	-0.151	-0.400
-202.363	-50.739	0.230	-0.109
-201.348	-0.033	0.086	0.061
-200.333	-80.161	-0.088	0.029
-199.319	448.391	-0.015	0.032
-198.304	800.000	0.082	-0.325
-197.290	274.825	0.123	-0.217
-196.275	-5.739	-0.051	-0.035
-195.260	172.392	0.092	0.133
-194.246	410.765	0.086	-0.182
-193.231	-72.795	0.171	-0.063
-192.217	246.813	0.093	0.157
-191.202	-200.000	0.011	-0.049
-190.187	800.000	-0.075	-0.270
-189.173	-200.000	0.020	0.214
-188.158	182.637	0.114	0.168
-187.144	800.000	0.012	-0.054
-186.129	342.126	0.056	0.110
-185.114	-26.910	0.166	0.097
-184.100	-55.459	0.102	-0.046
-183.085	191.142	0.127	-0.192
-182.071	517.660	0.043	-0.099
-181.056	-115.194	0.128	0.024
-180.042	-171.519	-0.103	0.003
-179.027	-200.000	0.001	0.216
-178.012	-200.000	-0.004	0.238
-176.998	283.371	-0.142	0.254
-175.983	237.402	0.189	0.313
-174.969	604.013	0.045	-0.113
-173.954	-116.425	0.200	-0.037
-172.939	123.844	-0.110	-0.138
-171.925	-69.331	0.224	-0.086
-170.910	-163.918	0.290	-0.014
-169.896	332.389	-0.079	0.153
-168.881	-3.414	-0.133	-0.093
-167.866	-166.964	0.272	0.011
-166.852	22.926	-0.133	-0.109
-165.837	-3.547	-0.076	0.053
-164.823	-85.340	-0.160	0.050
-163.808	70.241	-0.202	0.208
-162.793	800.000	-0.079	0.295
-161.779	-93.114	0.008	-0.002
-160.764	159.222	0.113	-0.157
-159.750	99.992	-0.269	0.312
-158.735	-200.000	-0.020	-0.117
-157.720	800.000	-0.059	-0.201
-156.706	-113.991	-0.295	-0.057
-155.691	-55.357	0.199	0.089
-154.677	-64.915	0.423	-0.171
-153.662	-195.320	-0.319	-0.002
-152.647	-75.870	0.211	0.075
-151.633	-48.551	-0.190	0.091
-150.618	-100.085	-0.148	0.037
-149.604	199.851	0.121	0.185
-148.589	800.000	-0.099	-0.369
-147.574	-200.000	-0.003	-0.218
-146.560	-26.429	0.082	-0.048
-145.545	-174.056	0.340	0.010
-144.531	171.770	0.068	-0.098
-143.516	103.743	0.230	0.270
-142.502	10.427	0.198	-0.151
-141.487	109.201	0.234	0.280
-140.472	-58.287	-0.070	0.030
-139.458	288.734	0.066	-0.120
-138.443	189.404	-0.234	-0.350
-137.429	24.650	-0.189	-0.156
-136.414	288.068	-0.149	0.270
-135.399	800.000	0.095	0.384
-134.385	-70.283	0.228	-0.086
-133.370	-74.014	0.364	-0.132
-132.356	19.029	0.124	-0.099
-131.341	95.091	0.054	0.061
-130.326	-108.534	0.193	0.041
-129.312	34.228	0.094	-0.082
-128.297	-200.000	-0.032	0.226
-127.283	-102.928	-0.169	0.040
-126.268	155.443	-0.068	0.093
-125.253	-161.356	-0.198	-0.010
-124.239	284.778	-0.177	0.319
-123.224	800.000	-0.074	0.276
-122.210	87.042	0.137	-0.151
