DTS Sentinel unit serial number:	SN413079Multiplexer serial number:	ORYXHardware model number:	OX4-SRSoftware version number:	ORYX F/W v4.00 Oryx Data Collector v3.7.2.0data status	okinstallation	princeton_trtdifferential loss correction	single-endedforward channel	channel 4reverse channel	N/Adate	2019/09/18time	18:33:35forward acquisition time	60.00reverse acquisition time	0.00gamma	496.2192k internal	0.2294k external	0.2294temperature offset calibration	1.0021default loss term (dB/km)	0.3790temperature slope calibration	1.0000multiplexer offset coefficient	1.0000multiplexer slope coefficient	1.0000fibre end	0.00T internal ref (°C)	38.19T ext. ref 1 (°C)	0.94T ext. ref 2 (°C)	30.51length (m)	temperature (°C)	Stokes	anti-Stokes-747.200	-13.762	0.132	0.087
-746.185	46.970	-0.335	0.319
-745.171	29.664	0.266	0.231
-744.156	-200.000	-0.063	0.370
-743.142	-66.967	-0.153	0.062
-742.127	-200.000	0.005	0.209
-741.112	59.579	-0.054	-0.054
-740.098	-200.000	0.009	0.346
-739.083	51.066	0.070	-0.068
-738.069	-127.181	0.313	-0.047
-737.054	-200.000	0.033	-0.348
-736.039	-142.883	-0.464	-0.046
-735.025	-200.000	-0.008	0.092
-734.010	-81.226	-0.057	0.019
-732.996	-141.595	-0.224	0.023
-731.981	296.482	0.040	0.075
-730.966	277.646	-0.022	0.040
-729.952	-200.000	-0.032	-0.199
-728.937	-107.653	0.249	-0.056
-727.923	800.000	0.049	0.141
-726.908	355.118	-0.035	-0.071
-725.894	234.655	0.088	0.148
-724.879	800.000	0.025	-0.080
-723.864	24.448	-0.255	0.216
-722.850	-49.570	-0.160	0.078
-721.835	19.549	-0.162	0.133
-720.821	-56.095	-0.316	0.144
-719.806	70.792	-0.294	0.311
-718.791	-200.000	-0.002	0.266
-717.777	-200.000	0.008	0.356
-716.762	-200.000	-0.135	0.631
-715.748	-200.000	0.026	0.332
-714.733	74.614	-0.307	-0.330
-713.718	-200.000	0.024	-0.322
-712.704	-57.210	0.191	0.086
-711.689	176.989	-0.145	-0.216
-710.675	221.883	-0.170	-0.280
-709.660	384.400	-0.094	-0.198
-708.645	-200.000	-0.016	0.145
-707.631	-86.562	0.110	-0.034
-706.616	-122.014	-0.054	0.009
-705.602	525.104	-0.147	0.352
-704.587	-200.000	0.022	-0.262
-703.572	133.852	-0.077	-0.102
-702.558	348.424	-0.139	-0.280
-701.543	-200.000	-0.023	0.400
-700.529	123.716	0.117	0.149
-699.514	800.000	0.008	0.027
-698.499	11.973	0.055	-0.043
-697.485	-116.015	-0.277	0.053
-696.470	-116.479	-0.155	-0.029
-695.456	-101.872	0.267	0.066
-694.441	223.869	-0.158	0.260
-693.426	39.971	0.188	-0.172
-692.412	63.243	0.282	-0.288
-691.397	-200.000	-0.009	0.060
-690.383	-70.440	0.184	-0.071
-689.368	-53.742	-0.301	0.140
-688.354	800.000	0.016	-0.064
-687.339	-200.000	0.015	0.110
-686.324	-200.000	0.010	-0.119
-685.310	48.303	0.027	0.025
-684.295	800.000	0.036	-0.145
-683.281	-120.724	0.209	0.036
-682.266	81.955	0.065	0.072
-681.251	-156.226	-0.235	0.015
-680.237	178.133	0.112	-0.167
-679.222	26.351	-0.042	-0.036
-678.208	170.186	-0.254	-0.371
-677.193	-200.000	-0.008	-0.309
-676.178	800.000	0.041	0.137
-675.164	-34.002	-0.204	0.114
-674.149	-11.177	0.241	0.162
-673.135	-48.698	0.264	-0.129
-672.120	-106.767	-0.346	0.078
-671.105	800.000	0.028	0.083
-670.091	-62.106	-0.117	0.050
-669.076	4.876	-0.233	0.175
-668.062	77.373	-0.326	-0.354
-667.047	592.447	-0.087	0.218
-666.032	221.233	-0.258	0.422
-665.018	195.262	-0.071	0.110
-664.003	-75.725	-0.118	0.043
-662.989	800.000	-0.039	-0.124
-661.974	117.502	-0.172	0.215
-660.959	199.498	0.237	0.370
-659.945	-200.000	-0.073	0.484
-658.930	-54.726	0.151	-0.069
-657.916	-73.121	-0.364	-0.136
-656.901	-47.656	-0.619	-0.306
-655.886	-11.048	-0.140	-0.094
-654.872	-174.224	-0.007	-0.000
-653.857	-119.878	-0.053	0.009
-652.843	137.236	-0.131	-0.174
-651.828	800.000	0.072	0.206
-650.814	173.489	-0.104	-0.152
-649.799	3.013	-0.075	-0.055
-648.784	-131.580	-0.224	0.030
-647.770	-200.000	0.010	-0.459
-646.755	35.998	-0.311	-0.279
-645.741	55.053	0.182	-0.179
-644.726	66.238	0.174	-0.180
-643.711	-200.000	-0.007	-0.375
-642.697	-180.446	0.096	0.002
-641.682	-27.599	-0.062	0.037
-640.668	127.988	-0.127	0.165
-639.653	-102.287	-0.249	0.061
-638.638	39.748	-0.030	0.028
-637.624	-33.646	-0.239	0.134
-636.609	-108.218	0.405	0.089
-635.595	-114.389	-0.347	-0.068
-634.580	35.912	0.215	0.193
-633.565	-125.413	0.167	-0.026
-632.551	800.000	0.092	0.384
-631.536	96.200	0.065	-0.075
-630.522	-80.987	-0.335	-0.113
-629.507	-162.327	-0.270	-0.014
-628.492	-135.646	0.330	0.040
-627.478	-144.756	-0.508	-0.048
-626.463	-200.000	0.002	-0.439
-625.449	69.703	-0.130	-0.137
-624.434	-139.578	0.057	0.006
-623.419	103.770	-0.078	0.094
-622.405	165.887	-0.119	-0.172
-621.390	-88.587	-0.466	-0.141
-620.376	127.379	0.127	-0.164
-619.361	796.164	-0.071	0.200
-618.346	96.271	0.076	-0.088
-617.332	458.491	-0.027	-0.062
-616.317	39.292	0.467	-0.425
-615.303	800.000	0.103	-0.397
-614.288	-60.570	0.074	-0.032
-613.273	345.428	-0.034	-0.067
-612.259	-78.957	0.383	-0.133
-611.244	-120.646	-0.114	0.020
-610.230	430.238	0.035	-0.077
-609.215	-84.738	0.137	-0.044
-608.201	-200.000	0.044	-0.213
-607.186	412.409	-0.010	0.022
-606.171	64.945	0.087	0.089
-605.157	34.837	0.112	0.099
-604.142	-20.011	-0.046	-0.029
-603.128	316.411	0.097	-0.187
-602.113	800.000	-0.056	0.187
-601.098	-42.853	-0.085	0.044
-600.084	-69.684	-0.149	0.058
-599.069	-126.921	-0.025	0.004
-598.055	155.602	0.060	0.083
-597.040	-66.581	0.161	0.065
-596.025	-10.558	-0.169	-0.114
-595.011	181.417	-0.011	0.016
-593.996	266.501	0.172	0.305
-592.982	800.000	0.065	0.207
-591.967	138.517	-0.048	-0.065
-590.952	-25.056	-0.240	0.145
-589.938	800.000	-0.030	0.107
-588.923	-53.046	-0.298	0.139
-587.909	800.000	0.075	0.280
-586.894	60.547	0.043	0.044
-585.879	-9.716	0.249	0.169
-584.865	20.024	-0.296	-0.243
-583.850	83.453	-0.182	-0.202
-582.836	-5.176	-0.093	-0.065
-581.821	265.656	-0.184	-0.325
-580.806	119.888	-0.159	0.200
-579.792	110.613	0.174	0.213
-578.777	-130.554	0.057	-0.008
-577.763	54.280	-0.213	0.209
-576.748	461.274	-0.034	0.076
-575.733	-73.117	0.331	0.123
-574.719	-200.000	-0.017	0.256
-573.704	-200.000	-0.022	-0.125
-572.690	116.075	-0.079	0.099
-571.675	-200.000	-0.031	-0.183
-570.661	-200.000	0.039	-0.283
-569.646	426.336	0.146	-0.320
-568.631	40.505	0.121	-0.110
-567.617	382.430	0.074	-0.154
-566.602	-18.992	0.229	0.145
-565.588	-14.165	-0.082	0.054
-564.573	800.000	-0.083	0.260
-563.558	-60.040	0.096	-0.042
-562.544	46.126	-0.046	0.044
-561.529	-200.000	0.007	-0.379
-560.515	800.000	0.138	-0.590
-559.500	-124.965	0.090	-0.014
-558.485	-87.259	0.078	-0.024
-557.471	-7.072	0.072	0.049
-556.456	-71.091	0.114	-0.044
-555.442	42.299	-0.175	0.162
-554.427	-200.000	0.020	0.094
-553.412	-200.000	0.009	0.179
-552.398	-114.549	-0.232	-0.045
-551.383	-175.792	-0.329	-0.009
-550.369	246.126	-0.055	-0.094
-549.354	-23.809	-0.079	-0.048
-548.339	427.208	-0.095	-0.209
-547.325	-200.000	0.053	-0.249
-546.310	-200.000	0.003	-0.151
-545.296	510.242	-0.114	0.270
-544.281	186.731	-0.057	-0.086
-543.266	-174.686	-0.400	0.012
-542.252	299.280	0.185	-0.346
-541.237	391.479	-0.091	-0.192
-540.223	170.096	0.064	-0.093
-539.208	-200.000	0.004	0.066
-538.193	-200.000	-0.008	-0.079
-537.179	-157.078	-0.141	0.009
-536.164	362.220	0.051	0.104
-535.150	800.000	0.103	-0.402
-534.135	128.534	0.212	-0.274
-533.121	-129.764	0.192	-0.027
-532.106	-19.554	-0.254	0.160
-531.091	242.935	0.049	-0.083
-530.077	-60.827	0.101	-0.043
-529.062	-200.000	0.048	-0.233
-528.048	37.418	0.078	0.070
-527.033	11.642	-0.199	0.155
-526.018	13.035	-0.185	0.145
-525.004	-200.000	0.008	-0.138
-523.989	-200.000	0.005	0.193
-522.975	-169.995	-0.288	-0.010
-521.960	406.972	-0.021	-0.044
-520.945	415.069	-0.039	0.085
-519.931	31.789	-0.104	0.091
-518.916	545.444	-0.084	-0.203
-517.902	8.716	0.103	-0.079
-516.887	-167.517	0.192	-0.008
-515.872	135.891	-0.016	-0.021
-514.858	-37.986	0.067	-0.036
-513.843	-50.017	0.152	-0.073
-512.829	98.129	-0.097	0.114
-511.814	143.631	-0.132	-0.178
-510.799	800.000	0.069	-0.253
-509.785	-200.000	0.010	0.118
-508.770	243.949	0.138	0.235
-507.756	-200.000	0.020	-0.196
-506.741	91.100	0.121	-0.137
-505.726	57.811	0.073	-0.073
-504.712	-132.622	-0.076	0.010
-503.697	-69.694	-0.236	-0.091
-502.683	-200.000	0.029	-0.219
-501.668	-97.152	-0.268	0.071
-500.653	69.820	0.092	-0.096
-499.639	63.752	-0.062	0.063
-498.624	-13.822	-0.234	-0.153
-497.610	212.561	0.153	-0.244
-496.595	273.424	-0.170	0.305
-495.581	-52.318	-0.199	0.094
-494.566	-110.309	-0.086	0.018
-493.551	388.386	0.061	0.127
-492.537	420.116	0.092	-0.199
-491.522	-74.628	-0.234	-0.085
-490.508	341.017	0.073	0.144
-489.493	-146.187	-0.076	-0.007
-488.478	-61.748	0.209	0.089
-487.464	70.477	0.050	-0.052
-486.449	-200.000	0.044	-0.303
-485.435	-117.205	-0.245	0.045
-484.420	45.702	-0.182	-0.170
-483.405	-33.295	0.054	-0.030
-482.391	-134.309	0.399	0.050
-481.376	-65.072	0.328	-0.134
-480.362	-88.763	0.079	-0.024
-479.347	374.186	-0.063	-0.130
-478.332	-111.729	-0.296	0.061
-477.318	80.718	-0.027	0.029
-476.303	-149.913	0.064	-0.005
-475.289	-7.798	0.158	0.108
-474.274	-59.180	-0.118	0.052
-473.259	286.045	-0.065	0.120
-472.245	-91.775	-0.299	-0.086
-471.230	687.595	0.195	-0.517
-470.216	-99.398	0.473	0.121
-469.201	107.144	0.077	0.093
-468.186	-200.000	0.022	-0.381
-467.172	-56.778	0.221	-0.099
-466.157	136.171	-0.115	-0.152
-465.143	-95.361	0.248	-0.067
-464.128	-200.000	-0.011	-0.068
-463.113	800.000	-0.110	-0.428
-462.099	-20.920	-0.072	-0.045
-461.084	-5.262	0.025	-0.018
-460.070	275.840	0.055	0.098
-459.055	-81.373	-0.227	-0.076
-458.040	800.000	-0.082	0.265
-457.026	-200.000	0.009	0.082
-456.011	65.764	0.237	-0.243
-454.997	78.820	0.114	0.123
-453.982	60.789	-0.238	-0.239
-452.968	-200.000	-0.002	-0.038
-451.953	-65.910	0.414	0.167
-450.938	800.000	0.103	0.421
-449.924	392.504	0.068	0.144
-448.909	-16.466	-0.086	0.055
-447.895	-80.624	-0.434	0.146
-446.880	-134.919	-0.191	0.023
-445.865	352.359	-0.081	-0.161
-444.851	487.742	0.045	0.104
-443.836	15.715	-0.121	-0.096
-442.822	577.208	0.094	0.233
-441.807	11.878	-0.056	0.044
-440.792	-47.124	0.276	0.136
-439.778	191.505	0.183	-0.278
-438.763	-176.197	-0.187	-0.005
-437.749	-7.025	-0.167	0.115
-436.734	57.441	-0.223	0.220
-435.719	-119.910	-0.375	0.065
-434.705	-32.948	0.106	-0.059
-433.690	800.000	0.037	0.159
-432.676	800.000	0.077	0.301
-431.661	-200.000	0.015	0.523
-430.646	-158.685	-0.130	0.008
-429.632	-200.000	-0.076	-0.371
-428.617	313.608	0.120	-0.228
-427.603	800.000	-0.078	-0.263
-426.588	-200.000	-0.032	-0.268
-425.573	-102.514	-0.305	0.074
-424.559	98.676	-0.080	-0.093
-423.544	-129.591	0.171	-0.024
-422.530	-200.000	0.042	-0.236
-421.515	-31.569	0.124	-0.071
-420.500	-84.917	-0.260	-0.083
-419.486	-105.993	-0.124	-0.028
-418.471	-155.693	0.215	0.014
-417.457	800.000	0.042	-0.173
-416.442	218.008	0.147	0.237
-415.428	3.748	-0.074	0.055
-414.413	258.599	-0.119	-0.208
-413.398	-200.000	-0.001	0.211
-412.384	190.939	0.122	0.185
-411.369	176.614	-0.084	-0.124
-410.355	-108.972	-0.226	0.049
-409.340	119.074	0.179	0.224
-408.325	133.404	-0.061	-0.080
-407.311	511.783	-0.086	-0.203
-406.296	710.133	0.039	0.104
-405.282	63.920	0.172	0.175
-404.267	67.954	-0.005	-0.005
-403.252	450.652	0.110	0.245
-402.238	-1.749	0.220	0.156
-401.223	419.032	-0.134	0.289
-400.209	-111.750	0.422	0.086
-399.194	31.064	0.142	0.123
-398.179	88.380	0.140	0.157
-397.165	-134.447	0.130	-0.016
-396.150	417.564	-0.216	0.466
-395.136	-99.436	0.363	-0.092
-394.121	421.838	0.035	0.075
-393.106	800.000	-0.139	0.446
-392.092	-147.814	-0.203	0.017
-391.077	-115.675	-0.013	-0.002
-390.063	2.945	-0.192	0.140
-389.048	-3.835	0.236	0.165
-388.033	20.750	0.094	-0.077
-387.019	-200.000	0.043	0.209
-386.004	138.801	-0.100	-0.133
-384.990	800.000	0.024	0.077
-383.975	-200.000	-0.034	0.198
-382.960	143.540	-0.284	0.381
-381.946	-200.000	0.020	0.226
-380.931	-106.339	0.150	0.034
-379.917	467.532	-0.068	-0.154
-378.902	-25.206	-0.312	-0.186
-377.888	116.558	-0.151	-0.186
-376.873	-72.811	-0.203	-0.075
-375.858	130.599	0.188	-0.242
-374.844	-109.055	-0.308	-0.066
-373.829	-7.294	0.490	-0.335
-372.815	-200.000	0.039	0.187
-371.800	-140.728	0.225	0.023
-370.785	-200.000	0.035	0.429
-369.771	800.000	0.025	-0.106
-368.756	-144.634	0.226	0.021
-367.742	230.787	0.122	0.202
-366.727	-72.851	-0.304	0.113
-365.712	57.718	0.173	0.171
-364.698	800.000	-0.085	0.268
-363.683	-200.000	0.022	0.202
-362.669	-60.439	-0.038	-0.016
-361.654	-200.000	-0.012	0.250
-360.639	-139.954	0.191	0.020
-359.625	-200.000	-0.034	-0.187
-358.610	-180.590	-0.274	-0.006
-357.596	334.145	0.120	0.234
-356.581	49.467	0.070	-0.066
-355.566	-57.023	0.295	0.131
-354.552	-200.000	0.027	-0.149
-353.537	258.951	0.121	0.210
-352.523	53.474	0.198	-0.191
-351.508	26.717	0.320	-0.270
-350.493	-134.539	0.255	-0.031
-349.479	74.107	0.307	0.324
-348.464	-200.000	-0.043	-0.225
-347.450	800.000	0.074	-0.241
-346.435	800.000	0.038	-0.151
-345.420	50.113	0.211	-0.200
-344.406	-100.152	-0.207	-0.052
-343.391	800.000	-0.056	-0.167
-342.377	-52.271	-0.082	0.038
-341.362	-120.886	-0.120	-0.020
-340.348	150.163	-0.096	-0.131
-339.333	-43.453	0.315	-0.160
-338.318	-110.290	-0.169	0.035
-337.304	-40.794	-0.261	-0.136
-336.289	115.234	0.118	-0.145
-335.275	174.981	-0.129	-0.188
-334.260	800.000	-0.161	0.552
-333.245	800.000	-0.097	0.271
-332.231	-189.460	0.080	-0.001
-331.216	-168.279	0.185	-0.007
-330.202	137.295	0.095	-0.126
-329.187	-65.224	-0.221	-0.089
-328.172	800.000	-0.071	-0.271
-327.158	44.308	-0.217	0.200
-326.143	800.000	-0.027	-0.111
-325.129	-125.423	0.232	-0.036
-324.114	81.194	0.190	0.206
-323.099	-132.978	-0.345	-0.044
-322.085	-1.878	-0.152	-0.107
-321.070	-70.638	0.192	0.073
-320.056	-200.000	0.054	0.275
-319.041	-137.687	-0.305	-0.034
-318.026	-176.814	0.205	-0.005
-317.012	-17.388	0.135	-0.085
-315.997	-10.811	0.114	0.076
-314.983	259.736	0.058	0.101
-313.968	262.266	-0.237	0.413
-312.953	-22.397	0.106	0.064
-311.939	52.597	0.128	0.123
-310.924	507.351	-0.172	0.401
-309.910	-200.000	-0.036	-0.377
-308.895	-123.259	-0.082	0.013
-307.880	443.639	0.051	-0.113
-306.866	-68.533	-0.204	-0.080
-305.851	218.072	-0.094	-0.151
-304.837	18.401	0.227	0.183
-303.822	-151.297	0.078	-0.006
-302.807	-87.338	0.044	-0.014
-301.793	-92.145	0.251	0.071
-300.778	81.410	-0.208	0.226
-299.764	800.000	0.015	0.058
-298.749	-106.064	-0.060	-0.014
-297.735	-200.000	0.014	0.377
-296.720	800.000	-0.123	0.379
-295.705	-200.000	0.001	0.092
-294.691	39.882	0.145	-0.130
-293.676	-16.857	-0.288	-0.183
-292.662	75.644	-0.175	0.186
-291.647	267.767	0.185	0.325
-290.632	-200.000	-0.004	0.313
-289.618	31.224	-0.198	0.170
-288.603	51.825	0.108	0.103
-287.589	79.425	-0.135	0.145
-286.574	-200.000	-0.032	-0.224
-285.559	-63.224	0.012	0.005
-284.545	-184.860	-0.357	-0.006
-283.530	800.000	-0.118	0.368
-282.516	-141.781	0.203	0.020
-281.501	-12.785	-0.094	-0.062
-280.486	800.000	-0.087	0.321
-279.472	152.798	0.109	0.150
-278.457	3.877	0.090	-0.066
-277.443	-41.893	-0.199	-0.102
-276.428	-151.132	-0.310	0.023
-275.413	-102.984	0.087	-0.021
-274.399	369.838	0.066	-0.135
-273.384	-141.919	0.284	-0.029
-272.370	475.446	-0.077	0.175
-271.355	-159.026	0.270	0.015
-270.340	312.957	0.160	0.302
-269.326	-165.592	-0.130	-0.006
-268.311	-92.023	0.395	-0.112
-267.297	-22.529	0.371	-0.225
-266.282	-5.110	0.102	0.071
-265.267	-149.657	0.284	0.023
-264.253	88.230	-0.040	-0.045
-263.238	-85.119	0.218	0.068
-262.224	-200.000	-0.019	0.152
-261.209	601.677	0.132	-0.330
-260.195	-200.000	-0.020	-0.192
-259.180	0.351	0.158	-0.113
-258.165	-50.366	-0.103	0.049
-257.151	-172.616	0.415	-0.013
-256.136	-200.000	-0.033	0.146
-255.122	325.641	0.121	0.233
-254.107	-200.000	-0.023	0.287
-253.092	55.187	-0.024	-0.023
-252.078	373.909	0.233	0.475
-251.063	-39.492	0.222	-0.117
-250.049	800.000	-0.071	0.287
-249.034	-98.621	0.224	0.057
-248.019	-91.066	-0.304	0.087
-247.005	-200.000	-0.008	0.396
-245.990	-200.000	0.029	0.159
-244.976	111.977	0.133	0.161
-243.961	800.000	0.112	-0.344
-242.946	-119.140	-0.332	0.058
-241.932	-104.697	0.384	0.089
-240.917	51.832	0.078	0.075
-239.903	62.706	-0.242	0.242
-238.888	429.051	-0.116	0.252
-237.873	-200.000	-0.018	-0.094
-236.859	-154.006	0.206	0.014
-235.844	460.950	-0.044	0.098
-234.830	-92.572	-0.168	-0.047
-233.815	47.282	0.099	-0.092
-232.800	-121.168	0.253	0.043
-231.786	-185.192	-0.063	0.001
-230.771	-57.203	-0.343	-0.151
-229.757	298.812	-0.091	-0.168
-228.742	249.420	0.181	0.308
-227.727	-24.783	-0.058	0.035
-226.713	-134.662	-0.110	0.013
-225.698	-15.563	-0.069	-0.044
-224.684	-192.307	-0.183	0.002
-223.669	-36.470	0.139	-0.075
-222.655	-55.973	0.278	-0.124
-221.640	800.000	-0.123	-0.514
-220.625	68.326	-0.081	0.083
-219.611	748.282	0.040	-0.108
-218.596	-200.000	0.009	-0.186
-217.582	800.000	0.034	-0.113
-216.567	-200.000	-0.051	-0.265
-215.552	18.752	-0.227	-0.182
-214.538	-67.917	-0.261	-0.102
-213.523	-15.194	-0.053	-0.034
-212.509	127.143	0.187	-0.237
-211.494	-190.366	-0.239	0.003
-210.479	47.609	0.127	-0.119
-209.465	260.676	0.227	0.394
-208.450	422.635	0.160	0.343
-207.436	132.964	-0.135	-0.175
-206.421	293.742	0.147	-0.269
-205.406	33.529	0.081	-0.071
-204.392	85.474	-0.011	-0.012
-203.377	-65.893	0.231	-0.093
-202.363	24.896	-0.363	0.301
-201.348	47.672	-0.058	-0.055
-200.333	75.210	-0.174	-0.183
-199.319	-136.990	-0.200	-0.023
-198.304	15.089	-0.271	-0.213
-197.290	-115.226	0.254	0.048
-196.275	403.333	0.058	-0.123
-195.260	-200.000	0.029	0.304
-194.246	-200.000	0.001	-0.072
-193.231	53.967	0.134	-0.129
-192.217	344.826	-0.166	0.327
-191.202	-186.145	0.196	-0.003
-190.187	536.610	0.049	0.117
-189.173	-161.164	-0.587	-0.031
-188.158	-43.978	-0.158	-0.080
-187.144	94.857	-0.091	0.104
-186.129	406.356	-0.118	0.249
-185.114	-56.244	0.185	0.082
-184.100	-157.710	-0.181	0.011
-183.085	-200.000	0.028	-0.316
-182.071	-71.587	-0.426	-0.159
-181.056	-85.835	0.310	-0.096
-180.042	68.897	-0.068	0.069
-179.027	27.714	0.168	0.142
-178.012	-96.265	-0.104	0.028
-176.998	-11.852	0.157	0.103
-175.983	90.784	-0.097	-0.109
-174.969	510.581	0.066	0.153
-173.954	-88.218	-0.301	-0.090
-172.939	-200.000	-0.025	-0.135
-171.925	-57.521	-0.173	0.076
-170.910	-96.112	-0.069	-0.018
-169.896	186.050	-0.120	-0.178
-168.881	800.000	-0.031	-0.116
-167.866	-26.678	0.251	0.147
-166.852	3.193	0.130	-0.095
-165.837	-28.197	0.067	-0.038
-164.823	-25.279	0.085	0.051
-163.808	-95.134	-0.145	-0.039
-162.793	730.982	0.119	-0.319
-161.779	-20.544	0.167	-0.102
-160.764	-200.000	0.012	0.131
-159.750	-38.776	-0.227	0.120
-158.735	-13.542	0.258	0.167
-157.720	541.428	0.035	0.084
-156.706	-200.000	0.032	-0.307
-155.691	-200.000	0.033	0.146
-154.677	8.356	-0.074	0.056
-153.662	67.755	-0.216	-0.220
-152.647	-119.352	0.250	-0.044
-151.633	-99.086	0.344	-0.087
-150.618	403.503	-0.177	-0.372
-149.604	800.000	-0.095	-0.353
-148.589	461.860	-0.076	-0.169
-147.574	132.919	-0.232	0.299
-146.560	800.000	-0.014	-0.053
-145.545	136.634	0.017	-0.023
-144.531	-15.299	0.211	0.135
-143.516	93.376	0.098	-0.111
-142.502	-96.158	0.397	-0.105
-141.487	251.873	-0.108	0.184
-140.472	-66.497	-0.102	-0.040
-139.458	-200.000	-0.046	-0.301
-138.443	-200.000	-0.037	0.400
-137.429	-200.000	-0.056	0.284
-136.414	-178.323	-0.205	-0.005
-135.399	12.201	-0.132	0.102
-134.385	-200.000	0.373	-0.001
-133.370	800.000	-0.081	0.255
-132.356	216.115	0.087	-0.138
-131.341	-121.908	0.235	-0.039
-130.326	589.792	0.070	0.172
-129.312	205.833	0.178	0.277
-128.297	-16.171	-0.133	0.084
-127.283	-87.518	-0.251	-0.076
-126.268	34.881	0.058	0.050
-125.253	180.995	-0.073	-0.108
-124.239	-19.238	0.163	-0.101
-123.224	-18.640	-0.270	0.168
-122.210	-200.000	-0.040	-0.298
-121.195	61.619	0.186	-0.185
