DTS Sentinel unit serial number:	SN413079Multiplexer serial number:	ORYXHardware model number:	OX4-SRSoftware version number:	ORYX F/W v4.00 Oryx Data Collector v3.7.2.0data status	okinstallation	princeton_trtdifferential loss correction	single-endedforward channel	channel 4reverse channel	N/Adate	2019/09/15time	05:05:34forward acquisition time	60.00reverse acquisition time	0.00gamma	496.2192k internal	0.2311k external	0.2311temperature offset calibration	1.0041default loss term (dB/km)	0.3790temperature slope calibration	1.0000multiplexer offset coefficient	1.0000multiplexer slope coefficient	1.0000fibre end	0.00T internal ref (°C)	30.66T ext. ref 1 (°C)	4.82T ext. ref 2 (°C)	25.20length (m)	temperature (°C)	Stokes	anti-Stokes-747.200	257.744	-0.089	-0.155
-746.185	381.344	-0.134	0.280
-745.171	800.000	0.084	-0.254
-744.156	-95.648	-0.308	0.084
-743.142	-200.000	-0.023	0.365
-742.127	274.006	0.088	0.157
-741.112	-115.818	0.128	-0.024
-740.098	800.000	-0.052	-0.150
-739.083	226.182	0.190	-0.313
-738.069	-157.598	-0.492	0.030
-737.054	414.880	0.170	0.367
-736.039	-56.644	-0.411	-0.185
-735.025	-48.971	0.169	-0.082
-734.010	19.512	-0.093	-0.076
-732.996	-156.922	0.058	-0.004
-731.981	666.570	-0.012	0.033
-730.966	-107.225	0.416	-0.093
-729.952	533.789	-0.027	0.066
-728.937	800.000	0.117	0.445
-727.923	-40.373	-0.235	0.124
-726.908	-153.754	0.259	0.018
-725.894	-57.606	0.214	-0.095
-724.879	-87.764	-0.350	-0.107
-723.864	-200.000	-0.006	-0.077
-722.850	196.597	-0.167	0.258
-721.835	-66.657	-0.130	0.052
-720.821	209.022	0.041	-0.066
-719.806	-21.430	0.008	0.005
-718.791	-200.000	0.021	-0.219
-717.777	-167.180	0.208	-0.009
-716.762	-200.000	0.020	-0.099
-715.748	-140.777	0.075	-0.008
-714.733	295.793	-0.060	-0.111
-713.718	60.350	0.192	0.192
-712.704	-51.292	0.065	0.031
-711.689	-129.701	0.243	-0.034
-710.675	-48.663	0.208	0.101
-709.660	47.424	0.347	-0.328
-708.645	39.052	0.029	-0.026
-707.631	72.358	-0.061	0.065
-706.616	-3.683	0.101	0.071
-705.602	-86.615	-0.108	-0.034
-704.587	-160.423	0.211	-0.011
-703.572	-2.962	0.003	0.002
-702.558	800.000	-0.081	-0.247
-701.543	-200.000	-0.016	-0.424
-700.529	36.997	0.225	0.202
-699.514	37.191	-0.228	0.204
-698.499	-67.580	0.239	-0.095
-697.485	56.162	0.126	0.124
-696.470	0.893	0.158	-0.115
-695.456	-17.975	0.178	0.113
-694.441	10.000	0.121	-0.093
-693.426	800.000	0.159	0.510
-692.412	-17.972	-0.303	-0.193
-691.397	800.000	-0.122	0.396
-690.383	800.000	0.050	0.141
-689.368	800.000	0.035	-0.101
-688.354	-200.000	-0.035	0.159
-687.339	800.000	-0.036	-0.108
-686.324	800.000	-0.112	0.470
-685.310	-68.980	-0.249	0.097
-684.295	-176.040	-0.380	0.010
-683.281	800.000	0.015	0.049
-682.266	-150.339	0.242	0.019
-681.251	-167.896	0.165	0.007
-680.237	-191.751	0.188	0.002
-679.222	-26.379	-0.349	-0.207
-678.208	-200.000	-0.046	-0.297
-677.193	162.065	0.080	-0.113
-676.178	-10.154	-0.072	-0.049
-675.164	-155.275	-0.374	0.025
-674.149	-85.107	0.068	0.022
-673.135	-200.000	-0.093	0.522
-672.120	-160.574	0.361	0.020
-671.105	26.486	0.271	-0.229
-670.091	283.871	0.117	-0.212
-669.076	-124.164	-0.263	-0.042
-668.062	800.000	-0.046	-0.156
-667.047	67.587	-0.094	0.097
-666.032	-200.000	0.001	0.189
-665.018	-50.373	0.369	-0.177
-664.003	16.473	-0.075	-0.060
-662.989	-49.922	-0.271	-0.130
-661.974	-200.000	0.002	0.069
-660.959	-39.431	0.145	-0.077
-659.945	-200.000	0.002	0.223
-658.930	-5.602	0.325	-0.225
-657.916	-163.648	0.524	0.025
-656.901	-98.713	-0.119	-0.031
-655.886	800.000	-0.068	-0.204
-654.872	800.000	-0.072	0.254
-653.857	227.183	0.130	-0.214
-652.843	-40.178	0.226	0.119
-651.828	8.020	-0.170	-0.129
-650.814	800.000	0.080	0.268
-649.799	-121.488	0.348	0.058
-648.784	-55.133	0.166	0.075
-647.770	-70.358	-0.455	0.175
-646.755	-191.969	-0.049	0.000
-645.741	-80.621	0.246	0.083
-644.726	20.554	-0.102	-0.083
-643.711	-86.559	-0.156	0.048
-642.697	-200.000	-0.026	0.179
-641.682	55.779	-0.275	-0.269
-640.668	-170.172	-0.272	-0.010
-639.653	-160.962	-0.440	0.023
-638.638	-200.000	0.033	0.244
-637.624	-54.475	-0.067	0.031
-636.609	162.381	0.047	-0.067
-635.595	-30.900	0.178	0.102
-634.580	-37.929	0.178	-0.096
-633.565	59.867	0.018	-0.018
-632.551	188.834	0.177	-0.268
-631.536	-143.273	0.355	-0.034
-630.522	336.909	0.047	0.093
-629.507	-141.186	-0.474	-0.049
-628.492	263.708	-0.186	0.328
-627.478	-100.190	-0.091	0.023
-626.463	375.449	0.154	0.317
-625.449	-200.000	0.020	0.223
-624.434	-43.639	0.152	-0.077
-623.419	-135.041	0.219	-0.027
-622.405	107.555	-0.124	-0.150
-621.390	-27.464	0.157	-0.092
-620.376	-92.554	-0.354	-0.100
-619.361	2.048	-0.206	-0.150
-618.346	142.163	0.058	0.078
-617.332	-200.000	-0.018	0.165
-616.317	-196.361	-0.080	-0.001
-615.303	-99.134	0.252	0.064
-614.288	-40.531	0.445	-0.233
-613.273	-157.378	-0.172	0.010
-612.259	-55.339	0.367	-0.166
-611.244	800.000	-0.116	-0.445
-610.230	106.283	0.170	-0.204
-609.215	-100.426	-0.291	-0.073
-608.201	291.290	0.035	0.065
-607.186	-5.551	0.087	-0.061
-606.171	-38.134	0.163	-0.088
-605.157	800.000	0.048	-0.207
-604.142	-59.411	0.293	-0.127
-603.128	493.697	-0.130	-0.301
-602.113	226.848	-0.199	0.326
-601.098	319.741	-0.018	-0.035
-600.084	-166.369	0.343	0.015
-599.069	-174.963	-0.138	-0.004
-598.055	84.284	0.134	0.148
-597.040	-200.000	-0.017	-0.215
-596.025	-78.865	-0.341	0.117
-595.011	27.647	0.269	0.228
-593.996	800.000	0.097	-0.273
-592.982	-200.000	-0.038	-0.564
-591.967	1.867	-0.184	0.134
-590.952	307.631	0.192	0.361
-589.938	46.958	-0.099	-0.093
-588.923	31.761	0.068	0.059
-587.909	62.647	0.074	0.074
-586.894	-169.774	0.124	-0.004
-585.879	70.594	0.253	0.264
-584.865	248.404	-0.100	0.171
-583.850	-113.984	-0.181	0.035
-582.836	-125.707	0.103	-0.016
-581.821	23.365	-0.211	0.175
-580.806	90.739	-0.113	0.128
-579.792	-200.000	-0.004	-0.176
-578.777	97.993	-0.033	0.038
-577.763	219.393	-0.098	-0.157
-576.748	154.316	-0.040	0.056
-575.733	66.952	-0.151	-0.155
-574.719	-200.000	0.061	-0.291
-573.704	-200.000	0.017	-0.201
-572.690	-23.363	0.135	0.082
-571.675	-135.847	-0.261	-0.031
-570.661	71.477	0.127	0.133
-569.646	387.295	-0.064	0.133
-568.631	800.000	0.069	-0.285
-567.617	213.933	-0.186	0.297
-566.602	-158.087	-0.186	-0.011
-565.588	-200.000	0.025	0.425
-564.573	-65.024	0.211	0.086
-563.558	432.561	0.089	-0.194
-562.544	-24.618	-0.314	0.188
-561.529	-91.179	-0.172	0.050
-560.515	-22.908	-0.097	0.059
-559.500	-200.000	0.021	-0.095
-558.485	800.000	-0.019	-0.076
-557.471	800.000	-0.028	0.081
-556.456	-79.819	0.124	0.042
-555.442	109.678	-0.024	0.029
-554.427	23.351	0.100	0.083
-553.412	18.293	-0.228	-0.183
-552.398	507.084	0.064	-0.150
-551.383	63.501	0.438	0.442
-550.369	-82.315	0.387	-0.127
-549.354	-200.000	0.020	0.195
-548.339	15.039	0.330	-0.260
-547.325	800.000	0.041	0.138
-546.310	-126.279	0.389	0.058
-545.296	63.785	0.208	-0.210
-544.281	-200.000	-0.036	-0.169
-543.266	56.222	-0.165	-0.162
-542.252	198.627	-0.039	0.061
-541.237	-179.394	0.199	-0.004
-540.223	-69.648	-0.166	-0.064
-539.208	-155.438	-0.162	0.011
-538.193	-200.000	-0.035	-0.182
-537.179	-200.000	-0.015	0.144
-536.164	-187.267	-0.254	-0.003
-535.150	-200.000	-0.007	-0.127
-534.135	449.678	-0.099	-0.220
-533.121	-200.000	-0.046	-0.257
-532.106	-200.000	0.005	0.084
-531.091	-112.499	0.210	-0.042
-530.077	800.000	0.068	-0.253
-529.062	55.187	0.078	-0.076
-528.048	-200.000	-0.053	0.298
-527.033	198.560	-0.084	0.129
-526.018	-52.358	-0.331	-0.154
-525.004	-40.323	0.189	-0.099
-523.989	146.230	-0.092	0.125
-522.975	382.060	-0.087	-0.180
-521.960	800.000	-0.088	-0.243
-520.945	36.466	0.142	0.126
-519.931	-80.924	-0.096	0.032
-518.916	800.000	-0.031	-0.088
-517.902	-9.974	0.184	0.123
-516.887	-200.000	-0.074	0.355
-515.872	36.949	-0.191	-0.170
-514.858	800.000	0.032	0.138
-513.843	-105.114	0.363	0.084
-512.829	-14.869	-0.088	-0.057
-511.814	-95.177	-0.163	-0.044
-510.799	800.000	0.012	0.047
-509.785	35.143	0.058	-0.051
-508.770	39.060	-0.270	0.243
-507.756	800.000	0.048	-0.150
-506.741	-200.000	-0.050	0.316
-505.726	-123.038	0.331	0.053
-504.712	-13.929	0.012	0.008
-503.697	51.273	-0.123	0.117
-502.683	463.068	-0.068	-0.153
-501.668	-200.000	-0.035	-0.228
-500.653	-200.000	0.020	-0.323
-499.639	-200.000	-0.029	-0.190
-498.624	-104.342	-0.320	-0.075
-497.610	-200.000	0.006	0.076
-496.595	24.149	0.142	0.118
-495.581	800.000	0.074	-0.220
-494.566	14.897	-0.289	0.227
-493.551	109.579	0.153	-0.184
-492.537	-83.186	-0.118	0.038
-491.522	-159.064	0.275	-0.016
-490.508	145.929	0.104	-0.140
-489.493	-54.131	-0.208	-0.095
-488.478	-138.479	-0.307	-0.034
-487.464	800.000	0.047	0.176
-486.449	38.242	-0.181	0.162
-485.435	-29.566	-0.241	0.138
-484.420	519.844	-0.050	0.117
-483.405	215.722	-0.040	0.063
-482.391	800.000	0.063	-0.237
-481.376	61.437	0.191	-0.191
-480.362	800.000	0.061	0.260
-479.347	-11.340	-0.226	-0.149
-478.332	32.266	-0.210	0.182
-477.318	47.184	-0.283	-0.265
-476.303	273.582	-0.103	-0.182
-475.289	12.017	0.095	-0.074
-474.274	-135.604	-0.167	-0.020
-473.259	495.325	-0.057	0.131
-472.245	-67.879	-0.420	-0.165
-471.230	156.560	-0.086	0.120
-470.216	171.355	0.174	-0.251
-469.201	-99.095	-0.088	0.022
-468.186	-28.962	0.313	-0.180
-467.172	69.478	0.117	-0.121
-466.157	-200.000	0.025	-0.305
-465.143	14.215	-0.187	-0.147
-464.128	-200.000	0.010	0.081
-463.113	-200.000	-0.030	0.348
-462.099	-200.000	0.003	-0.268
-461.084	800.000	-0.072	-0.287
-460.070	-67.681	0.040	-0.016
-459.055	56.339	0.092	-0.090
-458.040	-200.000	0.002	-0.019
-457.026	2.774	0.123	-0.089
-456.011	800.000	0.104	-0.413
-454.997	41.158	0.162	0.147
-453.982	800.000	0.013	-0.042
-452.968	116.133	0.202	-0.248
-451.953	-113.653	-0.135	0.026
-450.938	-106.308	-0.258	0.058
-449.924	237.182	-0.024	-0.040
-448.909	-12.537	-0.143	0.094
-447.895	-63.390	-0.080	-0.033
-446.880	800.000	-0.052	-0.148
-445.865	-200.000	-0.017	-0.191
-444.851	148.853	-0.095	0.129
-443.836	-66.481	0.430	0.171
-442.822	-26.693	0.261	0.153
-441.807	32.967	-0.166	0.144
-440.792	10.131	0.082	0.063
-439.778	-200.000	0.005	-0.056
-438.763	-51.619	0.084	0.039
-437.749	521.883	-0.105	0.247
-436.734	132.387	0.172	0.223
-435.719	-200.000	-0.034	-0.241
-434.705	-62.229	-0.091	0.038
-433.690	-120.603	0.379	-0.064
-432.676	151.512	0.146	-0.199
-431.661	347.864	-0.079	0.156
-430.646	-200.000	-0.034	0.233
-429.632	800.000	0.062	0.213
-428.617	-200.000	0.048	0.221
-427.603	-108.461	0.391	0.084
-426.588	-200.000	0.001	-0.139
-425.573	-95.838	0.284	0.076
-424.559	-200.000	-0.058	0.274
-423.544	31.870	0.056	-0.048
-422.530	-200.000	0.039	0.180
-421.515	-107.122	-0.236	0.052
-420.500	-95.146	0.182	0.049
-419.486	1.326	-0.366	0.264
-418.471	8.588	-0.149	0.112
-417.457	316.512	0.107	-0.202
-416.442	451.142	0.046	0.102
-415.428	219.535	-0.130	-0.208
-414.413	423.445	-0.142	-0.307
-413.398	482.583	-0.081	0.184
-412.384	800.000	0.059	0.215
-411.369	-157.258	-0.585	0.035
-410.355	-98.508	0.084	0.022
-409.340	118.502	0.385	0.476
-408.325	584.284	-0.044	-0.109
-407.311	-15.167	-0.095	-0.061
-406.296	-200.000	0.184	0.000
-405.282	340.661	-0.064	-0.126
-404.267	-18.304	-0.286	0.179
-403.252	-200.000	-0.023	0.110
-402.238	15.655	-0.098	-0.077
-401.223	1.389	0.451	-0.325
-400.209	110.225	-0.393	-0.473
-399.194	-98.393	-0.165	-0.042
-398.179	-66.835	-0.254	-0.100
-397.165	800.000	-0.056	0.227
-396.150	-53.650	-0.279	-0.128
-395.136	222.032	0.262	0.422
-394.121	33.515	0.153	-0.133
-393.106	47.848	-0.058	-0.054
-392.092	48.619	0.229	0.215
-391.077	202.986	-0.182	0.281
-390.063	93.376	0.199	0.225
-389.048	219.011	0.196	-0.314
-388.033	800.000	0.070	-0.273
-387.019	397.952	0.150	0.315
-386.004	231.732	0.121	-0.199
-384.990	-102.902	0.221	0.053
-383.975	77.414	-0.156	0.166
-382.960	-200.000	-0.023	-0.341
-381.946	-123.969	0.177	-0.028
-380.931	540.189	0.071	0.170
-379.917	59.977	-0.483	-0.478
-378.902	3.155	-0.253	-0.184
-377.888	193.816	-0.242	0.367
-376.873	-6.803	0.388	-0.264
-375.858	796.368	-0.039	0.108
-374.844	-39.529	0.168	0.088
-373.829	739.435	-0.070	0.188
-372.815	-169.456	0.258	-0.009
-371.800	115.733	-0.039	0.047
-370.785	-5.472	-0.329	0.226
-369.771	-200.000	-0.015	0.282
-368.756	673.407	0.065	0.168
-367.742	122.907	0.153	-0.192
-366.727	800.000	-0.013	0.046
-365.712	-77.951	-0.024	-0.008
-364.698	-9.347	-0.154	-0.103
-363.683	138.159	0.233	0.305
-362.669	800.000	0.095	-0.354
-361.654	-200.000	-0.014	-0.153
-360.639	248.724	-0.047	-0.080
-359.625	-23.656	-0.167	-0.100
-358.610	-200.000	-0.004	-0.205
-357.596	-200.000	-0.000	-0.158
-356.581	186.379	0.298	-0.444
-355.566	-25.831	-0.083	-0.049
-354.552	-200.000	0.028	0.191
-353.537	800.000	-0.055	0.155
-352.523	-154.670	-0.385	-0.026
-351.508	41.447	0.113	0.103
-350.493	-184.338	0.102	0.002
-349.479	-200.000	-0.025	0.237
-348.464	20.387	0.113	0.091
-347.450	622.775	-0.071	0.180
-346.435	-174.035	0.231	-0.007
-345.420	282.235	0.108	0.194
-344.406	-109.396	-0.094	-0.020
-343.391	23.202	-0.184	-0.151
-342.377	44.094	-0.273	-0.250
-341.362	-200.000	-0.010	-0.144
-340.348	800.000	0.060	0.204
-339.333	338.352	0.181	0.352
-338.318	-200.000	-0.037	0.181
-337.304	800.000	0.079	0.247
-336.289	-129.441	0.458	0.063
-335.275	661.217	-0.068	-0.175
-334.260	-38.824	0.185	0.098
-333.245	-200.000	0.014	0.081
-332.231	132.826	0.080	0.103
-331.216	-70.807	-0.206	-0.077
-330.202	-64.608	0.149	0.060
-329.187	-42.770	-0.219	0.111
-328.172	84.954	0.123	0.134
-327.158	-130.749	-0.337	0.045
-326.143	-200.000	0.005	-0.060
-325.129	723.120	-0.079	0.210
-324.114	-97.590	0.094	0.024
-323.099	-2.760	0.235	0.164
-322.085	-102.937	0.066	-0.016
-321.070	800.000	0.050	-0.142
-320.056	230.057	-0.119	0.195
-319.041	91.117	0.090	0.101
-318.026	-174.798	-0.078	-0.002
-317.012	-200.000	-0.011	-0.129
-315.997	-200.000	0.102	0.468
-314.983	472.783	-0.092	0.207
-313.968	57.044	-0.065	0.063
-312.953	-3.177	-0.154	-0.107
-311.939	-200.000	-0.039	-0.331
-310.924	-200.000	-0.009	-0.039
-309.910	166.646	0.110	-0.156
-308.895	-200.000	0.041	0.211
-307.880	800.000	-0.040	-0.146
-306.866	267.142	-0.018	0.031
-305.851	-44.638	-0.308	0.154
-304.837	-200.000	-0.000	-0.045
-303.822	-173.856	0.069	-0.002
-302.807	779.328	-0.179	0.487
-301.793	143.632	-0.108	0.143
-300.778	-90.967	-0.158	-0.045
-299.764	-200.000	-0.005	-0.036
-298.749	800.000	-0.058	-0.211
-297.735	64.762	0.269	-0.271
-296.720	-28.339	-0.190	0.109
-295.705	-69.088	0.297	-0.114
-294.691	-85.433	0.254	0.079
-293.676	-200.000	-0.051	0.232
-292.662	-200.000	0.071	-0.388
-291.647	83.161	0.241	0.262
-290.632	800.000	0.064	0.180
-289.618	-200.000	0.019	-0.149
-288.603	800.000	0.053	-0.206
-287.589	-92.104	-0.512	-0.144
-286.574	138.065	0.063	-0.082
-285.559	-80.657	0.118	-0.039
-284.545	-200.000	0.029	0.419
-283.530	-104.624	-0.417	0.096
-282.516	5.367	-0.157	0.115
-281.501	68.213	-0.254	-0.259
-280.486	73.276	0.208	0.217
-279.472	-54.403	-0.375	-0.170
-278.457	177.855	-0.151	0.220
-277.443	9.719	-0.098	0.074
-276.428	-124.581	-0.086	-0.013
-275.413	46.098	0.285	-0.263
-274.399	800.000	-0.066	0.260
-273.384	-75.983	-0.295	-0.104
-272.370	-40.000	0.168	0.087
-271.355	-30.753	-0.159	-0.089
-270.340	344.944	0.076	0.150
-269.326	-133.955	-0.203	0.025
-268.311	-91.700	0.224	-0.063
-267.297	61.101	-0.203	0.201
-266.282	19.492	0.168	-0.134
-265.267	-200.000	-0.036	0.209
-264.253	37.476	0.115	-0.101
-263.238	96.024	0.236	-0.268
-262.224	355.359	-0.099	0.197
-261.209	530.542	0.044	-0.103
-260.195	800.000	0.054	-0.161
-259.180	-104.160	0.169	-0.039
-258.165	-75.162	0.198	-0.070
-257.151	-0.922	-0.115	-0.081
-256.136	-29.056	0.246	0.140
-255.122	800.000	-0.048	0.186
-254.107	-200.000	0.019	-0.093
-253.092	-78.056	0.216	0.074
-252.078	12.790	0.339	-0.261
-251.063	-200.000	0.099	-0.513
-250.049	-9.115	0.200	0.133
-249.034	-114.705	-0.230	0.044
-248.019	-200.000	-0.027	-0.359
-247.005	-110.026	0.240	-0.050
-245.990	-200.000	0.016	0.123
-244.976	-10.741	-0.248	0.164
-243.961	310.467	-0.014	-0.025
-242.946	-200.000	0.036	0.242
-241.932	-154.145	0.157	-0.011
-240.917	-200.000	0.020	0.129
-239.903	437.694	0.074	0.160
-238.888	506.364	0.081	-0.187
-237.873	207.138	0.277	-0.431
-236.859	-200.000	0.025	-0.125
-235.844	287.279	-0.138	-0.248
-234.830	-85.607	-0.257	0.080
-233.815	15.336	0.237	-0.185
-232.800	-137.344	-0.136	-0.015
-231.786	-5.754	-0.154	-0.105
-230.771	-166.177	0.208	0.009
-229.757	676.434	0.083	-0.214
-228.742	-200.000	0.004	-0.143
-227.727	-200.000	0.019	-0.117
-226.713	48.751	-0.341	-0.318
-225.698	800.000	-0.087	-0.281
-224.684	205.141	0.081	-0.125
-223.669	457.736	-0.112	0.247
-222.655	800.000	0.058	0.231
-221.640	-147.566	0.215	0.018
-220.625	-200.000	-0.029	0.247
-219.611	2.223	-0.207	0.148
-218.596	-200.000	-0.004	-0.045
-217.582	45.754	0.052	-0.048
-216.567	-96.579	-0.160	-0.042
-215.552	0.172	-0.096	0.068
-214.538	-200.000	-0.009	-0.245
-213.523	-200.000	-0.014	-0.140
-212.509	-200.000	-0.055	-0.347
-211.494	-116.532	-0.242	-0.044
-210.479	-63.810	0.159	-0.065
-209.465	-21.050	-0.283	-0.172
-208.450	-154.661	0.284	-0.019
-207.436	-70.533	-0.092	0.034
-206.421	800.000	0.066	0.278
-205.406	-200.000	-0.019	0.149
-204.392	-104.704	-0.328	0.075
-203.377	-200.000	0.001	-0.014
-202.363	800.000	0.081	-0.289
-201.348	634.126	0.109	0.275
-200.333	184.962	-0.169	-0.250
-199.319	49.285	-0.038	0.035
-198.304	-105.471	-0.320	-0.072
-197.290	800.000	0.042	0.124
-196.275	-153.042	-0.198	0.014
-195.260	-53.176	0.083	-0.038
-194.246	800.000	0.022	0.084
-193.231	-166.071	-0.090	0.004
-192.217	-76.859	0.067	-0.023
-191.202	-116.373	0.368	0.068
-190.187	28.264	0.121	0.102
-189.173	-64.254	-0.236	-0.096
-188.158	-35.047	0.317	-0.172
-187.144	-92.189	0.070	-0.020
-186.129	-200.000	-0.019	0.121
-185.114	649.317	0.129	-0.329
-184.100	367.689	0.117	-0.234
-183.085	-200.000	0.003	0.318
-182.071	97.389	0.040	0.046
-181.056	-200.000	0.020	0.192
-180.042	-124.509	0.070	-0.011
-179.027	-79.931	0.097	-0.033
-178.012	-49.427	0.152	-0.072
-176.998	-200.000	-0.019	0.165
-175.983	-200.000	-0.018	0.144
-174.969	-5.323	-0.244	0.167
-173.954	94.292	0.154	0.174
-172.939	720.091	-0.040	0.106
-171.925	19.276	-0.093	-0.074
-170.910	-200.000	-0.006	-0.116
-169.896	442.815	0.071	0.154
-168.881	-135.583	0.179	-0.021
-167.866	-152.003	0.328	0.024
-166.852	188.978	-0.066	-0.098
-165.837	430.688	0.068	0.146
-164.823	67.125	-0.038	-0.038
-163.808	15.991	0.156	-0.122
-162.793	294.030	0.094	0.170
-161.779	800.000	-0.072	-0.263
-160.764	-200.000	0.002	0.153
-159.750	-200.000	-0.028	0.197
-158.735	-102.233	0.103	-0.025
-157.720	-81.949	-0.192	-0.062
-156.706	80.921	0.028	0.029
-155.691	-200.000	0.002	0.366
-154.677	-200.000	0.006	-0.052
-153.662	800.000	-0.102	0.294
-152.647	376.890	0.084	0.169
-151.633	-36.142	-0.147	0.079
-150.618	-200.000	0.078	0.407
-149.604	281.261	-0.013	0.023
-148.589	317.246	-0.101	0.189
-147.574	-27.620	-0.317	0.183
-146.560	-103.500	0.258	0.060
-145.545	800.000	0.073	-0.242
-144.531	-12.523	-0.104	0.067
-143.516	-200.000	0.019	-0.112
-142.502	29.354	0.063	-0.053
-141.487	800.000	0.029	0.117
-140.472	-54.533	-0.226	-0.101
-139.458	-18.954	-0.264	-0.163
-138.443	276.499	0.045	0.079
-137.429	-111.552	-0.293	-0.059
-136.414	-26.622	0.105	-0.061
-135.399	800.000	0.039	-0.163
-134.385	206.156	0.199	0.307
-133.370	-170.797	0.203	-0.007
-132.356	-41.050	0.209	0.107
-131.341	800.000	-0.045	-0.154
-130.326	-134.799	0.208	0.025
-129.312	47.985	0.092	0.085
-128.297	-200.000	0.041	-0.342
-127.283	671.369	0.019	-0.049
-126.268	-166.408	-0.177	0.007
-125.253	800.000	0.059	-0.179
-124.239	151.134	-0.160	-0.216
-123.224	-82.123	0.210	0.068
-122.210	496.826	-0.151	0.344
-121.195	-200.000	0.003	0.049
