DTS Sentinel unit serial number:	SN413079Multiplexer serial number:	ORYXHardware model number:	OX4-SRSoftware version number:	ORYX F/W v4.00 Oryx Data Collector v3.7.2.0data status	okinstallation	princeton_trtdifferential loss correction	single-endedforward channel	channel 4reverse channel	N/Adate	2019/09/10time	17:39:11forward acquisition time	60.00reverse acquisition time	0.00gamma	496.2192k internal	0.2296k external	0.2296temperature offset calibration	0.9940default loss term (dB/km)	0.3790temperature slope calibration	1.0000multiplexer offset coefficient	1.0000multiplexer slope coefficient	1.0000fibre end	0.00T internal ref (°C)	37.62T ext. ref 1 (°C)	-0.35T ext. ref 2 (°C)	31.33length (m)	temperature (°C)	Stokes	anti-Stokes-747.200	589.288	0.096	0.241
-746.185	-40.522	-0.179	0.095
-745.171	-200.000	0.015	0.187
-744.156	119.514	0.172	-0.218
-743.142	-200.000	-0.053	-0.267
-742.127	19.851	0.191	0.158
-741.112	-23.035	0.322	-0.199
-740.098	34.485	-0.129	0.115
-739.083	-34.401	0.125	-0.070
-738.069	-86.595	-0.232	0.073
-737.054	-28.724	-0.134	0.079
-736.039	613.307	-0.146	-0.375
-735.025	616.430	-0.107	-0.274
-734.010	-165.308	0.219	-0.010
-732.996	16.636	-0.358	0.289
-731.981	-133.326	-0.267	-0.034
-730.966	-44.283	-0.385	0.197
-729.952	-5.016	-0.037	-0.026
-728.937	-117.206	-0.194	0.036
-727.923	33.939	-0.141	-0.125
-726.908	-110.101	-0.327	0.070
-725.894	241.334	0.194	-0.330
-724.879	-29.116	0.183	-0.107
-723.864	127.254	-0.174	-0.225
-722.850	617.433	-0.102	0.260
-721.835	-13.294	0.175	-0.116
-720.821	-87.099	-0.072	0.022
-719.806	129.395	-0.200	0.260
-718.791	16.791	-0.276	-0.223
-717.777	-41.769	0.126	-0.066
-716.762	-108.719	-0.135	0.030
-715.748	276.962	0.202	0.366
-714.733	88.599	0.221	-0.251
-713.718	-200.000	-0.043	-0.264
-712.704	-200.000	0.009	-0.221
-711.689	-9.998	-0.021	-0.014
-710.675	-200.000	0.029	-0.158
-709.660	23.131	-0.152	0.128
-708.645	-39.974	0.095	-0.050
-707.631	800.000	-0.026	0.075
-706.616	126.501	0.108	-0.139
-705.602	-34.496	0.384	-0.214
-704.587	-200.000	-0.001	0.024
-703.572	504.537	0.065	-0.154
-702.558	-4.976	-0.153	0.108
-701.543	-200.000	-0.019	-0.242
-700.529	768.973	0.173	-0.481
-699.514	52.395	-0.120	0.116
-698.499	124.897	-0.198	0.255
-697.485	-139.992	-0.173	-0.019
-696.470	-200.000	0.005	-0.185
-695.456	306.311	-0.180	-0.341
-694.441	-200.000	0.021	-0.164
-693.426	601.536	-0.064	-0.161
-692.412	800.000	-0.039	0.117
-691.397	-155.134	-0.104	0.007
-690.383	-149.240	0.194	0.016
-689.368	198.673	-0.154	0.240
-688.354	-109.052	0.103	-0.022
-687.339	-67.582	-0.162	-0.065
-686.324	453.502	-0.089	0.201
-685.310	49.703	-0.228	0.219
-684.295	372.620	0.056	0.115
-683.281	57.765	-0.057	-0.057
-682.266	-59.442	-0.335	0.147
-681.251	-75.285	-0.253	0.092
-680.237	80.661	-0.276	-0.303
-679.222	15.239	-0.155	-0.124
-678.208	-39.463	0.267	0.143
-677.193	-28.039	-0.118	0.069
-676.178	-58.312	-0.368	0.163
-675.164	45.037	-0.063	-0.059
-674.149	0.824	0.117	-0.086
-673.135	135.582	-0.079	-0.104
-672.120	316.392	0.092	-0.176
-671.105	800.000	-0.056	-0.232
-670.091	248.886	0.207	-0.357
-669.076	-137.622	-0.184	-0.021
-668.062	-200.000	0.003	-0.247
-667.047	-200.000	0.055	-0.276
-666.032	-142.546	-0.370	-0.037
-665.018	-200.000	0.066	0.303
-664.003	-45.995	-0.187	-0.094
-662.989	2.863	-0.044	0.032
-661.974	110.355	0.166	-0.203
-660.959	800.000	0.088	-0.294
-659.945	63.568	0.073	0.075
-658.930	-200.000	0.038	-0.393
-657.916	800.000	-0.055	-0.231
-656.901	162.769	-0.178	-0.255
-655.886	114.756	0.041	0.050
-654.872	410.841	0.046	-0.100
-653.857	-153.281	-0.117	-0.008
-652.843	-79.660	-0.199	-0.068
-651.828	5.672	-0.272	-0.205
-650.814	232.595	0.112	0.187
-649.799	-200.000	0.037	-0.253
-648.784	-143.745	0.202	-0.019
-647.770	-87.164	-0.264	0.082
-646.755	313.397	0.009	-0.018
-645.741	-200.000	0.008	0.128
-644.726	800.000	-0.068	0.220
-643.711	98.582	0.219	-0.257
-642.697	103.056	0.236	-0.282
-641.682	-172.444	0.054	-0.002
-640.668	-200.000	-0.007	-0.162
-639.653	800.000	-0.051	-0.199
-638.638	259.124	-0.034	-0.059
-637.624	-67.483	-0.176	-0.070
-636.609	-63.611	0.101	0.042
-635.595	-107.825	0.244	-0.054
-634.580	415.382	-0.060	-0.129
-633.565	-19.625	0.115	-0.073
-632.551	-38.952	-0.126	0.067
-631.536	800.000	0.058	-0.179
-630.522	800.000	0.082	0.311
-629.507	25.608	-0.232	0.196
-628.492	-200.000	-0.043	0.334
-627.478	-103.548	0.173	-0.041
-626.463	424.739	-0.140	-0.306
-625.449	-200.000	0.002	-0.257
-624.434	153.397	0.079	-0.110
-623.419	-53.030	-0.090	-0.042
-622.405	-73.738	0.317	0.117
-621.390	-140.469	0.396	0.042
-620.376	-78.201	0.210	0.073
-619.361	178.920	-0.038	-0.056
-618.346	-132.443	-0.375	0.049
-617.332	704.480	-0.118	-0.316
-616.317	-28.551	0.234	-0.137
-615.303	11.815	-0.238	0.186
-614.288	800.000	0.061	0.209
-613.273	210.170	-0.161	0.257
-612.259	-52.457	-0.161	0.076
-611.244	-74.684	0.283	-0.103
-610.230	-35.929	-0.385	-0.212
-609.215	448.019	0.063	-0.141
-608.201	12.828	-0.202	0.159
-607.186	1.959	-0.231	0.170
-606.171	-200.000	0.065	-0.310
-605.157	21.876	-0.214	-0.177
-604.142	-81.937	-0.089	-0.030
-603.128	-200.000	0.143	-0.000
-602.113	-54.915	0.106	-0.048
-601.098	-32.966	-0.207	-0.117
-600.084	165.631	-0.118	-0.170
-599.069	-180.234	-0.263	-0.006
-598.055	608.885	0.105	-0.267
-597.040	88.170	-0.117	-0.131
-596.025	80.531	-0.110	-0.120
-595.011	44.767	0.135	-0.126
-593.996	-81.207	-0.367	0.123
-592.982	-177.423	0.219	-0.005
-591.967	265.248	-0.125	-0.221
-590.952	144.750	-0.066	-0.090
-589.938	-146.038	-0.306	-0.027
-588.923	-200.000	0.014	-0.401
-587.909	-200.000	-0.047	-0.244
-586.894	-92.101	0.289	-0.083
-585.879	-200.000	-0.028	0.280
-584.865	800.000	-0.062	0.215
-583.850	36.317	-0.077	-0.069
-582.836	800.000	-0.078	0.307
-581.821	-61.528	0.226	-0.096
-580.806	-200.000	0.001	0.160
-579.792	-200.000	-0.040	-0.447
-578.777	79.540	0.126	0.138
-577.763	-200.000	0.028	-0.196
-576.748	-162.316	0.165	0.008
-575.733	-105.629	-0.306	-0.070
-574.719	34.224	0.129	-0.114
-573.704	800.000	0.041	-0.136
-572.690	-200.000	0.019	0.176
-571.675	-12.646	0.284	-0.188
-570.661	-35.756	-0.130	0.072
-569.646	-200.000	0.002	0.031
-568.631	-143.970	-0.284	-0.027
-567.617	157.754	-0.228	-0.320
-566.602	-125.362	-0.088	-0.014
-565.588	449.083	0.045	0.102
-564.573	-140.766	-0.207	-0.022
-563.558	293.662	0.149	0.275
-562.544	-200.000	0.013	0.097
-561.529	-200.000	-0.033	-0.221
-560.515	171.360	-0.058	0.085
-559.500	-63.692	0.162	0.067
-558.485	407.541	0.045	-0.096
-557.471	-5.885	-0.210	-0.146
-556.456	25.020	0.115	0.097
-555.442	-114.430	-0.310	0.060
-554.427	-164.138	-0.302	0.014
-553.412	-148.307	0.361	0.030
-552.398	-115.630	-0.104	0.020
-551.383	-171.423	0.192	0.007
-550.369	800.000	0.044	-0.164
-549.354	-200.000	-0.056	-0.268
-548.339	-102.892	0.120	0.029
-547.325	-174.862	-0.110	-0.003
-546.310	-1.725	0.330	-0.236
-545.296	-99.512	-0.129	-0.033
-544.281	132.708	0.333	-0.435
-543.266	6.325	-0.058	-0.043
-542.252	800.000	0.017	0.071
-541.237	-145.045	-0.075	0.007
-540.223	-200.000	-0.015	-0.096
-539.208	800.000	-0.056	0.170
-538.193	70.457	-0.255	0.268
-537.179	800.000	-0.095	-0.342
-536.164	-200.000	-0.016	-0.087
-535.150	-56.836	0.126	0.056
-534.135	-97.783	0.186	-0.049
-533.121	97.162	0.070	0.082
-532.106	-153.587	0.455	0.032
-531.091	-48.133	-0.406	-0.199
-530.077	29.564	-0.238	-0.205
-529.062	-32.294	-0.321	-0.181
-528.048	-200.000	-0.012	-0.166
-527.033	2.862	0.385	0.283
-526.018	37.681	-0.135	0.122
-525.004	-22.148	0.051	-0.032
-523.989	171.923	-0.139	0.202
-522.975	800.000	-0.050	-0.153
-521.960	-200.000	0.037	-0.236
-520.945	566.595	0.011	-0.028
-519.931	-200.000	0.066	-0.359
-518.916	226.950	-0.065	0.107
-517.902	522.126	-0.135	0.320
-516.887	141.198	0.019	-0.026
-515.872	191.367	-0.076	-0.115
-514.858	800.000	-0.100	0.295
-513.843	-200.000	0.036	0.200
-512.829	86.666	0.043	0.048
-511.814	-129.534	-0.120	-0.017
-510.799	-6.994	0.078	0.054
-509.785	-17.564	-0.063	-0.040
-508.770	61.820	-0.033	-0.034
-507.756	40.532	-0.260	-0.237
-506.741	68.526	-0.138	0.144
-505.726	-200.000	0.055	-0.374
-504.712	-85.512	0.163	0.052
-503.697	-200.000	-0.015	0.148
-502.683	348.534	0.113	0.225
-501.668	800.000	-0.118	0.388
-500.653	38.001	-0.175	0.157
-499.639	-200.000	0.035	-0.202
-498.624	-38.883	0.323	-0.172
-497.610	800.000	-0.078	-0.253
-496.595	-117.518	-0.165	0.030
-495.581	-200.000	-0.018	-0.100
-494.566	398.140	0.272	0.575
-493.551	109.218	-0.071	0.086
-492.537	201.928	0.053	0.082
-491.522	27.601	0.097	-0.083
-490.508	-200.000	-0.009	-0.273
-489.493	116.656	-0.088	0.110
-488.478	108.410	0.039	0.047
-487.464	109.752	0.029	0.036
-486.449	322.207	0.051	0.099
-485.435	-144.647	-0.144	0.013
-484.420	-200.000	0.013	0.102
-483.405	410.196	-0.016	-0.034
-482.391	800.000	0.092	-0.270
-481.376	-29.735	0.153	0.089
-480.362	754.219	-0.049	-0.134
-479.347	210.940	0.219	-0.348
-478.332	123.185	-0.151	0.191
-477.318	-200.000	0.001	0.315
-476.303	22.325	-0.099	-0.082
-475.289	-200.000	0.005	-0.103
-474.274	166.070	-0.089	0.127
-473.259	246.994	0.034	-0.058
-472.245	262.013	-0.107	-0.187
-471.230	41.229	-0.050	-0.046
-470.216	800.000	0.095	0.270
-469.201	130.640	-0.166	-0.215
-468.186	-107.617	-0.083	0.018
-467.172	-200.000	0.000	0.143
-466.157	90.575	-0.165	0.187
-465.143	-161.594	-0.253	0.013
-464.128	33.671	0.300	-0.263
-463.113	-79.770	0.124	0.042
-462.099	20.673	0.181	-0.148
-461.084	452.469	-0.078	0.173
-460.070	263.687	-0.131	0.229
-459.055	77.595	0.046	-0.050
-458.040	-107.110	0.331	-0.074
-457.026	-87.923	-0.117	-0.035
-456.011	464.580	-0.059	0.132
-454.997	-200.000	-0.005	0.178
-453.982	-187.079	-0.045	-0.001
-452.968	253.069	0.078	0.135
-451.953	-9.615	0.124	0.084
-450.938	800.000	-0.068	-0.198
-449.924	166.201	0.256	0.367
-448.909	46.228	0.066	-0.062
-447.895	52.631	-0.140	-0.135
-446.880	-86.706	-0.048	-0.015
-445.865	69.303	-0.238	0.247
-444.851	-200.000	-0.108	-0.504
-443.836	-88.997	-0.135	-0.040
-442.822	108.403	0.182	-0.219
-441.807	-133.870	0.174	-0.022
-440.792	-127.060	0.334	0.049
-439.778	489.163	-0.097	0.223
-438.763	63.682	0.165	-0.167
-437.749	185.529	-0.280	-0.420
-436.734	-190.747	-0.211	0.002
-435.719	-200.000	0.027	0.343
-434.705	-59.975	-0.353	0.152
-433.690	632.412	0.016	0.040
-432.676	178.243	0.123	0.182
-431.661	782.660	0.107	-0.296
-430.646	59.462	0.058	0.058
-429.632	-25.440	0.056	-0.033
-428.617	-54.857	0.126	0.058
-427.603	305.548	-0.041	-0.077
-426.588	-27.172	-0.102	-0.060
-425.573	397.041	0.055	-0.117
-424.559	-86.006	-0.137	-0.043
-423.544	86.238	-0.330	0.366
-422.530	800.000	-0.064	0.201
-421.515	20.910	0.062	0.051
-420.500	170.653	-0.040	-0.058
-419.486	-153.246	-0.148	-0.010
-418.471	191.134	0.183	0.278
-417.457	-121.371	-0.098	0.016
-416.442	107.115	0.197	0.236
-415.428	-118.518	-0.226	-0.040
-414.413	141.604	0.116	-0.155
-413.398	-168.186	-0.274	-0.011
-412.384	352.839	0.106	-0.211
-411.369	-26.990	-0.231	0.136
-410.355	326.912	-0.115	-0.222
-409.340	-200.000	-0.442	0.002
-408.325	384.922	-0.076	-0.157
-407.311	800.000	0.034	0.140
-406.296	800.000	-0.107	0.337
-405.282	60.945	-0.258	-0.258
-404.267	248.585	0.212	-0.362
-403.252	59.966	-0.281	0.280
-402.238	800.000	0.103	-0.310
-401.223	-38.974	0.083	-0.044
-400.209	138.843	-0.036	0.048
-399.194	24.765	0.444	0.371
-398.179	61.166	0.065	-0.065
-397.165	800.000	-0.061	-0.172
-396.150	-141.654	-0.235	-0.024
-395.136	268.913	0.111	0.196
-394.121	10.778	-0.295	-0.227
-393.106	61.876	0.039	0.039
-392.092	398.571	0.096	0.202
-391.077	-135.561	0.160	0.019
-390.063	800.000	-0.046	0.168
-389.048	-200.000	-0.046	-0.272
-388.033	-17.248	0.033	0.021
-387.019	-119.716	-0.156	-0.027
-386.004	-134.296	-0.269	-0.033
-384.990	-121.532	-0.066	0.011
-383.975	-21.811	-0.271	0.166
-382.960	-82.697	0.091	0.030
-381.946	4.556	-0.242	0.179
-380.931	800.000	0.023	-0.064
-379.917	92.151	0.102	0.116
-378.902	647.938	-0.082	-0.210
-377.888	41.303	0.151	-0.137
-376.873	-134.957	0.294	0.036
-375.858	800.000	0.066	0.215
-374.844	221.359	0.083	0.135
-373.829	-200.000	-0.040	0.388
-372.815	-200.000	0.021	-0.399
-371.800	261.154	0.152	0.265
-370.785	800.000	0.058	0.161
-369.771	800.000	0.037	-0.149
-368.756	-4.102	0.125	-0.087
-367.742	45.654	0.079	0.073
-366.727	4.503	-0.087	0.064
-365.712	81.427	-0.086	0.094
-364.698	-200.000	0.026	0.299
-363.683	800.000	-0.089	0.300
-362.669	-104.756	0.067	-0.015
-361.654	245.847	0.169	0.287
-360.639	16.175	-0.131	0.104
-359.625	-35.524	0.341	-0.186
-358.610	-33.370	-0.186	0.104
-357.596	-107.073	-0.267	-0.059
-356.581	-194.291	0.403	-0.003
-355.566	-107.432	-0.446	-0.098
-354.552	-78.979	0.190	0.065
-353.537	525.476	-0.014	0.034
-352.523	83.787	0.167	-0.184
-351.508	494.253	-0.024	0.056
-350.493	13.429	-0.140	-0.109
-349.479	80.357	0.171	0.186
-348.464	-130.953	0.185	0.025
-347.450	-38.537	-0.252	0.134
-346.435	124.450	-0.103	0.131
-345.420	-200.000	-0.002	0.149
-344.406	-40.963	-0.185	-0.096
-343.391	-20.698	-0.266	0.164
-342.377	93.835	-0.049	0.056
-341.362	281.480	-0.046	0.083
-340.348	129.254	-0.098	-0.126
-339.333	-89.181	0.152	-0.045
-338.318	-106.988	0.088	-0.019
-337.304	-19.886	0.127	0.079
-336.289	160.964	-0.157	0.221
-335.275	118.299	0.170	-0.210
-334.260	-38.776	0.224	-0.119
-333.245	29.544	0.153	0.131
-332.231	479.394	-0.045	0.104
-331.216	800.000	-0.030	-0.098
-330.202	-200.000	-0.003	0.114
-329.187	-200.000	-0.030	0.235
-328.172	800.000	-0.056	-0.186
-327.158	-70.265	0.347	-0.132
-326.143	800.000	-0.031	-0.119
-325.129	71.043	-0.197	0.205
-324.114	174.080	0.311	0.452
-323.099	160.517	0.143	0.201
-322.085	509.820	-0.024	0.056
-321.070	-19.475	0.123	-0.077
-320.056	-56.499	-0.380	0.169
-319.041	464.412	-0.038	0.085
-318.026	-148.023	0.315	0.026
-317.012	-200.000	0.075	0.370
-315.997	116.877	-0.084	0.104
-314.983	1.509	-0.117	0.085
-313.968	191.821	-0.184	-0.278
-312.953	-5.982	0.065	-0.045
-311.939	-167.813	-0.184	-0.007
-310.924	-87.979	-0.095	0.029
-309.910	-20.090	-0.108	-0.067
-308.895	-200.000	-0.016	-0.166
-307.880	800.000	0.076	0.252
-306.866	173.307	-0.054	0.079
-305.851	-135.376	0.282	0.034
-304.837	-111.938	-0.135	-0.027
-303.822	-4.464	-0.414	-0.287
-302.807	-200.000	-0.036	0.286
-301.793	71.792	-0.170	0.178
-300.778	-82.324	-0.322	0.105
-299.764	21.129	0.218	0.178
-298.749	59.893	-0.197	-0.195
-297.735	18.716	0.178	-0.143
-296.720	-200.000	-0.038	-0.176
-295.705	800.000	-0.097	-0.277
-294.691	647.111	0.113	0.291
-293.676	-144.114	0.338	-0.032
-292.662	127.382	0.132	0.168
-291.647	-125.938	0.290	-0.044
-290.632	-85.131	-0.158	0.049
-289.618	-121.388	-0.214	0.036
-288.603	-135.980	0.288	0.034
-287.589	625.690	0.041	-0.103
-286.574	199.209	0.122	-0.188
-285.559	-68.375	-0.147	-0.057
-284.545	-200.000	0.009	0.096
-283.530	-200.000	0.001	-0.241
-282.516	13.880	0.131	0.102
-281.501	81.061	0.318	-0.345
-280.486	-70.403	-0.078	0.030
-279.472	38.622	-0.322	0.288
-278.457	800.000	0.056	-0.198
-277.443	265.039	0.037	-0.064
-276.428	-38.358	-0.176	0.093
-275.413	-81.525	0.076	0.025
-274.399	12.937	-0.153	0.119
-273.384	-200.000	-0.032	0.197
-272.370	-90.556	0.079	-0.023
-271.355	-200.000	-0.008	-0.404
-270.340	-1.899	-0.242	-0.171
-269.326	-91.160	-0.074	-0.021
-268.311	-200.000	-0.005	0.159
-267.297	333.524	-0.052	-0.102
-266.282	-200.000	-0.074	-0.396
-265.267	-193.992	-0.360	-0.003
-264.253	-19.277	-0.172	0.107
-263.238	-113.626	-0.103	-0.020
-262.224	603.855	0.041	-0.101
-261.209	137.396	0.116	-0.153
-260.195	456.652	0.105	0.234
-259.180	-35.487	-0.194	0.106
-258.165	162.010	0.187	0.262
-257.151	-200.000	-0.021	0.208
-256.136	12.788	-0.084	-0.065
-255.122	37.907	0.043	-0.038
-254.107	-12.788	-0.207	0.135
-253.092	-20.088	0.227	0.141
-252.078	-200.000	0.022	-0.273
-251.063	-71.705	0.143	-0.054
-250.049	-134.194	0.026	-0.003
-249.034	93.546	-0.034	-0.039
-248.019	-143.464	0.153	-0.015
-247.005	-200.000	0.072	-0.379
-245.990	800.000	-0.030	-0.106
-244.976	64.555	0.371	-0.375
-243.961	-75.842	-0.191	0.068
-242.946	-200.000	0.046	0.630
-241.932	800.000	0.076	0.258
-240.917	195.435	0.033	-0.051
-239.903	7.256	-0.135	-0.101
-238.888	-200.000	-0.017	0.527
-237.873	109.425	0.039	0.047
-236.859	313.876	-0.054	0.101
-235.844	129.456	0.165	-0.211
-234.830	-92.705	0.142	-0.040
-233.815	-200.000	0.045	-0.384
-232.800	-4.915	-0.205	0.141
-231.786	-81.860	-0.059	-0.019
-230.771	-200.000	0.021	-0.244
-229.757	-57.170	-0.078	-0.035
-228.742	-171.863	0.194	0.006
-227.727	618.279	0.123	-0.309
-226.713	45.160	0.099	-0.092
-225.698	-173.885	0.302	0.009
-224.684	-200.000	0.011	0.086
-223.669	-133.438	-0.055	-0.007
-222.655	800.000	0.068	0.206
-221.640	381.192	0.032	0.065
-220.625	-120.655	-0.115	-0.019
-219.611	-136.307	0.356	-0.042
-218.596	153.757	-0.252	-0.345
-217.582	420.262	0.090	0.194
-216.567	-200.000	-0.019	-0.206
-215.552	-86.164	0.242	0.075
-214.538	246.320	-0.140	-0.237
-213.523	-55.222	-0.350	0.158
-212.509	-49.032	-0.251	0.120
-211.494	800.000	0.050	-0.187
-210.479	-112.727	0.264	-0.052
-209.465	-15.336	-0.342	0.219
-208.450	174.580	0.083	-0.120
-207.436	-200.000	-0.018	0.122
-206.421	-118.330	0.143	-0.025
-205.406	-115.456	-0.180	-0.034
-204.392	-95.869	0.212	-0.056
-203.377	-9.390	-0.190	0.127
-202.363	33.546	0.309	0.268
-201.348	-200.000	-0.018	-0.226
-200.333	-109.272	-0.036	0.008
-199.319	-152.109	0.210	-0.015
-198.304	429.065	0.072	0.155
-197.290	-28.057	-0.088	-0.051
-196.275	52.108	0.171	0.163
-195.260	115.548	0.219	-0.268
-194.246	-65.934	0.110	0.044
-193.231	160.318	-0.133	-0.186
-192.217	-39.980	-0.217	0.113
-191.202	-176.189	-0.052	0.001
-190.187	-85.278	0.210	0.065
-189.173	171.404	0.085	0.122
-188.158	212.656	0.168	-0.265
-187.144	-176.573	0.311	-0.008
-186.129	-200.000	-0.028	0.168
-185.114	299.885	0.185	0.341
-184.100	-141.368	0.285	0.029
-183.085	-148.393	0.371	0.030
-182.071	-101.548	-0.423	-0.103
-181.056	-67.672	-0.294	-0.115
-180.042	222.607	0.105	0.169
-179.027	208.861	0.212	-0.332
-178.012	800.000	-0.015	-0.045
-176.998	4.565	0.125	0.092
-175.983	316.312	-0.105	0.198
-174.969	-148.304	-0.426	0.035
-173.954	197.317	-0.168	-0.256
-172.939	25.420	0.255	-0.212
-171.925	800.000	0.073	0.217
-170.910	-67.912	0.466	0.182
-169.896	216.074	0.166	0.263
-168.881	-4.012	0.351	0.243
-167.866	-111.188	0.160	-0.033
-166.852	415.867	-0.111	0.237
-165.837	-65.479	0.397	-0.159
-164.823	-145.763	-0.201	-0.018
-163.808	-123.740	-0.259	0.041
-162.793	5.486	0.167	-0.123
-161.779	800.000	-0.029	0.112
-160.764	-95.176	0.296	-0.080
-159.750	-200.000	0.027	-0.216
-158.735	316.035	0.151	0.285
-157.720	-87.252	-0.144	0.044
-156.706	-51.720	-0.213	0.099
-155.691	-21.762	0.167	0.102
-154.677	418.855	0.027	0.058
-153.662	-106.946	0.120	0.026
-152.647	-10.679	-0.140	-0.092
-151.633	-108.373	0.392	0.084
-150.618	-61.351	-0.105	0.044
-149.604	-36.266	-0.199	-0.107
-148.589	-22.447	0.562	0.339
-147.574	210.079	0.081	-0.126
-146.560	-113.483	-0.165	-0.032
-145.545	800.000	0.095	0.329
-144.531	9.527	0.209	0.158
-143.516	632.436	-0.095	0.240
-142.502	82.334	0.046	-0.050
-141.487	45.367	0.127	-0.117
-140.472	-46.794	0.411	-0.201
-139.458	-117.612	0.294	0.053
-138.443	-30.398	-0.225	0.127
-137.429	127.703	0.215	-0.273
-136.414	17.983	-0.137	-0.109
-135.399	-139.639	0.289	0.031
-134.385	-71.212	0.380	0.142
-133.370	67.825	0.082	0.084
-132.356	122.459	-0.263	0.328
-131.341	-21.572	-0.260	-0.158
-130.326	274.315	0.132	-0.234
-129.312	-106.256	0.230	0.052
-128.297	-200.000	-0.023	-0.120
-127.283	315.118	-0.106	0.200
-126.268	-62.299	0.235	0.098
-125.253	-118.860	-0.140	-0.025
-124.239	-91.141	-0.300	-0.086
-123.224	-113.256	-0.261	-0.051
-122.210	-79.932	-0.304	-0.102
