DTS Sentinel unit serial number:	SN413079Multiplexer serial number:	ORYXHardware model number:	OX4-SRSoftware version number:	ORYX F/W v4.00 Oryx Data Collector v3.7.2.0data status	okinstallation	princeton_trtdifferential loss correction	single-endedforward channel	channel 4reverse channel	N/Adate	2019/09/12time	03:27:11forward acquisition time	60.00reverse acquisition time	0.00gamma	496.2192k internal	0.2309k external	0.2309temperature offset calibration	1.0097default loss term (dB/km)	0.3790temperature slope calibration	1.0000multiplexer offset coefficient	1.0000multiplexer slope coefficient	1.0000fibre end	0.00T internal ref (°C)	32.19T ext. ref 1 (°C)	2.15T ext. ref 2 (°C)	27.14length (m)	temperature (°C)	Stokes	anti-Stokes-747.200	-95.112	-0.287	0.079
-746.185	609.007	-0.100	0.254
-745.171	800.000	0.011	-0.048
-744.156	800.000	0.025	0.098
-743.142	-111.274	0.133	-0.028
-742.127	44.724	-0.022	-0.021
-741.112	4.414	-0.153	-0.114
-740.098	-84.161	-0.135	-0.043
-739.083	173.187	0.053	-0.077
-738.069	506.051	-0.167	0.392
-737.054	-85.272	0.106	0.034
-736.039	98.519	-0.168	-0.196
-735.025	145.743	-0.076	0.103
-734.010	628.808	-0.126	-0.323
-732.996	13.887	-0.158	-0.125
-731.981	-200.000	-0.454	0.002
-730.966	22.090	0.294	0.244
-729.952	326.881	0.129	-0.252
-728.937	5.777	-0.226	0.170
-727.923	-55.925	0.061	-0.028
-726.908	-67.434	-0.279	0.111
-725.894	38.921	-0.220	-0.200
-724.879	223.276	-0.128	0.210
-723.864	21.831	0.512	0.423
-722.850	8.616	0.259	-0.198
-721.835	-200.000	-0.042	-0.000
-720.821	-200.000	-0.065	-0.309
-719.806	-200.000	-0.003	-0.068
-718.791	301.002	0.034	-0.064
-717.777	-122.497	-0.079	0.013
-716.762	800.000	0.045	0.173
-715.748	-11.015	-0.199	0.133
-714.733	-200.000	-0.032	0.336
-713.718	218.341	0.157	-0.254
-712.704	-96.187	-0.154	-0.041
-711.689	-11.285	-0.178	-0.119
-710.675	408.920	-0.022	-0.048
-709.660	88.444	-0.191	0.215
-708.645	-77.176	-0.046	-0.016
-707.631	-199.613	0.107	-0.001
-706.616	81.768	0.072	-0.079
-705.602	142.543	-0.050	-0.067
-704.587	143.220	0.159	0.214
-703.572	248.239	0.128	-0.219
-702.558	-123.991	-0.068	0.011
-701.543	-18.342	-0.176	0.112
-700.529	47.459	-0.154	-0.145
-699.514	-121.871	0.373	0.062
-698.499	115.637	0.075	-0.093
-697.485	622.260	0.165	-0.423
-696.470	-137.968	0.174	-0.020
-695.456	24.524	0.172	0.145
-694.441	800.000	0.028	-0.083
-693.426	56.886	0.216	-0.213
-692.412	138.474	-0.162	0.216
-691.397	-200.000	-0.021	-0.252
-690.383	-73.853	-0.143	0.053
-689.368	482.520	-0.095	-0.218
-688.354	130.136	-0.216	-0.280
-687.339	-149.012	-0.104	0.008
-686.324	-113.554	-0.136	0.027
-685.310	-134.274	-0.135	-0.017
-684.295	282.228	0.072	-0.130
-683.281	380.586	-0.080	-0.166
-682.266	800.000	-0.106	0.331
-681.251	-102.696	-0.224	-0.054
-680.237	800.000	-0.063	0.209
-679.222	200.173	0.132	-0.205
-678.208	-25.809	0.290	0.173
-677.193	-128.947	0.290	0.041
-676.178	-155.630	0.503	-0.033
-675.164	-50.945	0.203	0.097
-674.149	-6.977	0.328	0.226
-673.135	-43.637	-0.251	-0.128
-672.120	472.307	-0.150	-0.343
-671.105	-200.000	0.009	0.215
-670.091	-200.000	-0.019	0.504
-669.076	-83.071	0.244	-0.079
-668.062	636.530	0.023	-0.058
-667.047	-134.014	-0.206	-0.026
-666.032	80.095	0.369	-0.401
-665.018	85.546	-0.034	0.038
-664.003	-38.005	-0.200	-0.107
-662.989	800.000	-0.105	0.432
-661.974	-18.134	0.028	0.018
-660.959	506.444	-0.060	0.140
-659.945	2.399	-0.086	0.063
-658.930	-0.768	-0.251	-0.180
-657.916	32.035	0.112	0.098
-656.901	-81.320	0.023	0.008
-655.886	-85.923	-0.347	-0.109
-654.872	60.763	0.230	0.231
-653.857	104.457	-0.245	0.292
-652.843	-173.134	-0.400	-0.012
-651.828	313.031	0.029	-0.055
-650.814	353.029	0.135	0.271
-649.799	-158.043	-0.166	0.010
-648.784	-24.991	0.241	0.145
-647.770	-200.000	-0.000	-0.018
-646.755	800.000	-0.113	-0.336
-645.741	-200.000	0.056	0.327
-644.726	-122.158	-0.262	0.044
-643.711	526.484	0.018	0.043
-642.697	-92.707	0.257	0.073
-641.682	29.005	-0.126	0.108
-640.668	-13.187	-0.167	0.110
-639.653	800.000	-0.009	-0.033
-638.638	217.423	-0.119	0.192
-637.624	-140.557	-0.294	0.031
-636.609	748.516	-0.055	-0.150
-635.595	-68.455	0.475	0.186
-634.580	-35.497	-0.213	-0.117
-633.565	800.000	-0.039	0.156
-632.551	525.612	0.126	0.300
-631.536	-6.212	0.080	-0.055
-630.522	136.375	0.065	-0.086
-629.507	800.000	0.033	-0.109
-628.492	-200.000	-0.011	-0.404
-627.478	-21.879	-0.335	0.206
-626.463	-77.384	-0.142	-0.050
-625.449	-4.968	-0.384	0.268
-624.434	381.299	0.095	0.196
-623.419	244.123	0.283	-0.480
-622.405	3.875	-0.198	0.147
-621.390	800.000	-0.057	-0.170
-620.376	0.337	0.231	-0.167
-619.361	36.500	-0.068	-0.061
-618.346	800.000	-0.058	0.164
-617.332	-200.000	-0.002	-0.133
-616.317	-33.968	0.223	-0.124
-615.303	-148.182	0.299	-0.025
-614.288	800.000	0.030	0.125
-613.273	-45.070	-0.128	-0.064
-612.259	-52.061	-0.153	0.072
-611.244	20.609	-0.219	0.179
-610.230	-200.000	-0.037	-0.313
-609.215	84.006	0.118	-0.131
-608.201	-103.825	-0.305	-0.072
-607.186	4.239	0.084	-0.062
-606.171	129.082	0.161	-0.207
-605.157	632.174	0.017	-0.045
-604.142	308.694	-0.226	-0.427
-603.128	-94.800	0.148	0.041
-602.113	45.488	0.175	0.163
-601.098	-137.845	-0.032	-0.004
-600.084	-200.000	-0.022	-0.440
-599.069	-143.968	-0.255	-0.024
-598.055	-200.000	-0.031	0.311
-597.040	-130.776	0.243	-0.033
-596.025	800.000	0.094	0.399
-595.011	-127.760	0.166	-0.024
-593.996	35.842	0.190	0.169
-592.982	-15.136	0.224	0.145
-591.967	-56.474	-0.107	-0.048
-590.952	800.000	-0.085	0.249
-589.938	-200.000	0.026	-0.145
-588.923	-47.193	-0.153	-0.075
-587.909	-135.828	-0.359	0.043
-586.894	-97.918	-0.218	0.057
-585.879	-40.961	0.253	-0.132
-584.865	479.898	0.049	-0.113
-583.850	-200.000	0.009	0.223
-582.836	-18.042	-0.049	-0.031
-581.821	-58.870	-0.114	0.050
-580.806	-200.000	-0.043	-0.261
-579.792	-84.150	0.178	-0.057
-578.777	23.918	-0.078	0.065
-577.763	-82.829	-0.178	0.058
-576.748	567.953	0.063	-0.155
-575.733	43.155	-0.218	-0.201
-574.719	800.000	-0.099	-0.293
-573.704	224.583	0.121	0.198
-572.690	-200.000	0.034	0.217
-571.675	-127.013	-0.315	-0.047
-570.661	-86.380	0.213	-0.066
-569.646	307.757	-0.082	0.153
-568.631	-200.000	0.013	-0.376
-567.617	-73.794	0.236	0.087
-566.602	-7.544	-0.208	0.142
-565.588	61.601	0.162	-0.163
-564.573	157.135	-0.186	0.259
-563.558	124.836	0.063	0.080
-562.544	-200.000	0.007	0.132
-561.529	800.000	-0.059	-0.252
-560.515	-113.858	-0.214	0.042
-559.500	38.316	-0.271	-0.244
-558.485	-120.488	0.136	-0.023
-557.471	-115.011	0.270	-0.052
-556.456	-200.000	-0.011	0.087
-555.442	16.347	-0.219	-0.174
-554.427	-89.375	0.125	-0.037
-553.412	-200.000	-0.015	-0.309
-552.398	-97.947	-0.139	-0.036
-551.383	-153.149	-0.272	-0.019
-550.369	218.403	0.051	-0.082
-549.354	171.106	0.074	-0.106
-548.339	-5.052	0.155	0.107
-547.325	-128.746	-0.223	-0.032
-546.310	-19.415	-0.108	0.067
-545.296	-200.000	-0.003	-0.262
-544.281	800.000	-0.057	-0.195
-543.266	-74.079	-0.314	-0.115
-542.252	209.822	0.080	-0.127
-541.237	-48.934	-0.328	0.158
-540.223	-147.257	-0.103	0.009
-539.208	-200.000	0.028	-0.164
-538.193	-97.760	0.218	-0.057
-537.179	55.745	-0.107	-0.105
-536.164	110.954	0.222	-0.269
-535.150	-200.000	-0.035	-0.159
-534.135	15.076	0.113	-0.089
-533.121	-50.833	0.274	-0.130
-532.106	-111.987	-0.358	-0.073
-531.091	-200.000	-0.011	0.113
-530.077	-9.808	0.264	0.177
-529.062	800.000	-0.067	-0.263
-528.048	-110.437	-0.191	-0.040
-527.033	-16.645	0.080	-0.051
-526.018	-200.000	0.028	-0.273
-525.004	113.738	-0.115	-0.141
-523.989	167.947	0.421	-0.603
-522.975	105.984	0.087	-0.103
-521.960	-36.171	0.078	0.042
-520.945	94.451	0.116	0.133
-519.931	-125.964	0.203	0.031
-518.916	-73.359	0.240	0.088
-517.902	-24.649	-0.276	-0.165
-516.887	-124.502	-0.163	-0.025
-515.872	146.134	-0.178	0.240
-514.858	-10.352	0.087	0.058
-513.843	-116.384	0.116	-0.022
-512.829	14.984	-0.110	-0.087
-511.814	-55.274	0.296	0.134
-510.799	78.922	-0.131	0.141
-509.785	-102.791	-0.048	0.011
-508.770	709.131	-0.048	0.128
-507.756	588.211	0.068	-0.169
-506.741	-117.319	0.044	-0.008
-505.726	-150.804	-0.234	-0.018
-504.712	-19.014	-0.346	0.217
-503.697	489.447	-0.119	0.275
-502.683	-129.975	0.192	0.026
-501.668	-67.100	0.233	0.092
-500.653	-100.143	0.131	-0.033
-499.639	-101.485	-0.381	0.093
-498.624	-31.306	-0.315	-0.179
-497.610	-170.920	0.132	-0.005
-496.595	-200.000	-0.002	0.276
-495.581	800.000	-0.169	-0.483
-494.566	772.064	0.041	-0.113
-493.551	261.133	0.090	-0.156
-492.537	534.794	-0.080	0.190
-491.522	-200.000	-0.086	-0.382
-490.508	-139.606	0.462	-0.050
-489.493	-27.109	-0.085	0.050
-488.478	800.000	0.039	-0.157
-487.464	-86.702	0.450	-0.139
-486.449	-160.682	-0.085	-0.005
-485.435	800.000	-0.124	0.396
-484.420	-200.000	-0.054	0.351
-483.405	-122.784	-0.230	0.037
-482.391	-81.780	0.265	-0.088
-481.376	-200.000	0.006	0.056
-480.362	6.428	0.145	0.108
-479.347	-200.000	0.047	-0.309
-478.332	800.000	0.052	0.209
-477.318	-200.000	-0.002	0.035
-476.303	-200.000	-0.021	-0.162
-475.289	-200.000	-0.027	-0.297
-474.274	800.000	-0.049	-0.189
-473.259	-83.291	0.138	0.044
-472.245	5.665	-0.136	0.101
-471.230	-28.043	0.217	0.126
-470.216	69.495	0.092	0.096
-469.201	-200.000	0.049	0.345
-468.186	-23.009	-0.175	-0.106
-467.172	800.000	0.050	0.200
-466.157	102.664	0.148	0.174
-465.143	-41.676	-0.087	-0.045
-464.128	204.501	-0.076	-0.119
-463.113	109.287	-0.292	0.351
-462.099	285.739	0.117	-0.212
-461.084	268.110	-0.191	0.335
-460.070	-31.211	0.243	0.138
-459.055	800.000	-0.075	-0.308
-458.040	265.018	-0.235	0.411
-457.026	800.000	-0.109	-0.387
-456.011	-113.238	0.286	0.057
-454.997	211.412	-0.081	-0.129
-453.982	-200.000	-0.024	0.192
-452.968	651.966	-0.083	-0.214
-451.953	-149.922	-0.033	0.003
-450.938	75.524	-0.062	0.066
-449.924	-56.565	-0.290	-0.129
-448.909	-36.801	-0.291	0.157
-447.895	161.970	0.131	-0.184
-446.880	260.486	-0.167	0.290
-445.865	-90.565	0.201	-0.058
-444.851	-200.000	0.005	0.414
-443.836	-135.419	-0.175	-0.021
-442.822	-45.132	0.162	-0.081
-441.807	604.170	0.040	-0.101
-440.792	-200.000	0.004	-0.021
-439.778	139.721	0.119	0.157
-438.763	-17.746	-0.127	-0.080
-437.749	626.286	-0.128	-0.323
-436.734	-29.987	-0.215	-0.123
-435.719	800.000	-0.041	-0.117
-434.705	-200.000	0.035	-0.191
-433.690	163.853	0.076	-0.107
-432.676	800.000	0.032	0.109
-431.661	11.128	-0.154	0.118
-430.646	-71.081	-0.232	0.087
-429.632	110.953	-0.165	-0.199
-428.617	-200.000	0.101	0.455
-427.603	-176.998	-0.372	0.009
-426.588	-87.746	0.245	0.074
-425.573	-37.076	-0.234	-0.126
-424.559	89.031	-0.089	-0.100
-423.544	-106.594	0.041	-0.009
-422.530	733.575	-0.011	-0.030
-421.515	195.614	-0.064	0.098
-420.500	-125.539	0.286	-0.044
-419.486	569.828	0.051	0.125
-418.471	71.459	0.253	0.263
-417.457	-200.000	0.000	0.570
-416.442	392.929	-0.120	0.251
-415.428	33.839	0.027	0.024
-414.413	83.516	-0.099	-0.109
-413.398	117.541	-0.155	-0.191
-412.384	123.991	0.081	-0.102
-411.369	-200.000	0.015	0.111
-410.355	-200.000	0.264	0.000
-409.340	1.678	-0.119	0.086
-408.325	-4.292	0.209	0.145
-407.311	-200.000	0.048	0.264
-406.296	91.103	0.055	-0.062
-405.282	-200.000	0.066	0.310
-404.267	-200.000	0.014	0.328
-403.252	-40.951	-0.190	-0.098
-402.238	40.266	0.034	-0.030
-401.223	11.261	0.241	0.185
-400.209	-85.650	0.129	-0.040
-399.194	89.595	-0.224	0.250
-398.179	29.470	-0.316	-0.269
-397.165	22.415	-0.298	0.244
-396.150	800.000	0.039	-0.136
-395.136	-70.098	0.035	-0.013
-394.121	211.727	0.140	0.221
-393.106	-76.779	0.308	0.108
-392.092	800.000	0.044	-0.133
-391.077	-41.526	-0.356	0.184
-390.063	-27.356	-0.189	-0.110
-389.048	-81.850	0.283	-0.093
-388.033	-200.000	-0.045	-0.230
-387.019	-200.000	-0.001	0.107
-386.004	2.464	0.130	0.095
-384.990	-146.942	0.092	0.008
-383.975	36.966	-0.176	0.156
-382.960	110.541	0.191	0.230
-381.946	-0.177	-0.157	0.112
-380.931	468.577	0.037	0.083
-379.917	145.929	0.117	0.157
-378.902	-142.476	0.219	0.022
-377.888	98.324	0.139	-0.160
-376.873	-62.412	0.146	0.061
-375.858	-167.821	0.276	0.011
-374.844	-113.538	-0.231	-0.045
-373.829	362.231	-0.161	-0.324
-372.815	-125.131	0.115	0.018
-371.800	141.008	-0.217	0.288
-370.785	436.436	0.118	-0.257
-369.771	402.150	-0.121	0.255
-368.756	61.623	-0.155	-0.155
-367.742	-118.100	-0.234	0.042
-366.727	238.798	-0.098	0.164
-365.712	800.000	0.102	0.370
-364.698	32.457	0.169	0.146
-363.683	138.416	0.060	0.079
-362.669	48.839	0.272	-0.256
-361.654	58.332	0.219	-0.215
-360.639	322.162	-0.244	-0.465
-359.625	-200.000	0.003	0.166
-358.610	800.000	0.084	0.305
-357.596	-200.000	0.067	-0.325
-356.581	-200.000	-0.021	0.281
-355.566	-200.000	0.030	-0.221
-354.552	-127.411	0.115	-0.017
-353.537	66.645	-0.070	-0.071
-352.523	254.272	-0.029	0.049
-351.508	-119.018	0.043	0.007
-350.493	288.862	-0.168	-0.305
-349.479	-26.401	0.104	0.061
-348.464	157.638	-0.042	0.058
-347.450	-200.000	0.016	0.094
-346.435	66.614	-0.159	0.162
-345.420	-200.000	-0.109	0.000
-344.406	25.047	0.346	-0.287
-343.391	80.517	0.136	-0.146
-342.377	-115.506	0.288	0.054
-341.362	152.768	0.160	-0.219
-340.348	10.688	-0.233	-0.177
-339.333	-56.549	0.546	0.242
-338.318	501.251	0.017	0.038
-337.304	-200.000	0.011	0.279
-336.289	-0.470	-0.122	-0.087
-335.275	800.000	-0.034	0.150
-334.260	522.748	0.113	0.265
-333.245	27.028	-0.223	0.187
-332.231	-200.000	-0.037	0.227
-331.216	417.568	0.141	-0.301
-330.202	-83.432	0.130	-0.042
-329.187	109.463	0.054	0.064
-328.172	-6.441	-0.054	-0.037
-327.158	535.693	0.016	0.039
-326.143	82.115	-0.135	-0.147
-325.129	295.877	0.047	0.086
-324.114	84.761	-0.186	0.204
-323.099	95.601	-0.151	0.172
-322.085	37.282	-0.316	0.280
-321.070	-120.018	0.291	0.050
-320.056	-26.274	0.230	-0.135
-319.041	800.000	0.066	0.190
-318.026	14.552	0.107	0.084
-317.012	672.735	-0.164	-0.424
-315.997	-14.792	0.380	0.244
-314.983	-113.123	-0.295	-0.058
-313.968	-60.010	-0.220	-0.094
-312.953	800.000	-0.069	-0.199
-311.939	-98.257	0.118	0.030
-310.924	116.501	-0.260	-0.318
-309.910	183.692	0.064	0.095
-308.895	-65.027	-0.137	-0.055
-307.880	-200.000	-0.017	0.090
-306.866	12.089	0.014	-0.010
-305.851	-139.905	-0.143	-0.015
-304.837	45.571	-0.129	-0.119
-303.822	31.356	-0.201	0.172
-302.807	-106.279	0.107	0.024
-301.793	-21.272	0.281	0.171
-300.778	-157.854	0.132	0.008
-299.764	-109.513	-0.236	-0.050
-298.749	-200.000	-0.027	-0.231
-297.735	25.457	-0.193	0.160
-296.720	123.834	-0.187	0.234
-295.705	-133.355	-0.068	-0.009
-294.691	-56.826	-0.205	-0.090
-293.676	-72.121	0.140	0.052
-292.662	-20.144	0.045	-0.028
-291.647	-106.665	-0.352	-0.078
-290.632	800.000	-0.110	0.432
-289.618	171.006	-0.060	-0.086
-288.603	800.000	0.084	-0.272
-287.589	800.000	-0.067	-0.284
-286.574	71.812	0.247	0.256
-285.559	-36.120	0.094	-0.050
-284.545	509.683	-0.046	-0.106
-283.530	5.383	-0.389	-0.286
-282.516	-110.672	0.264	0.055
-281.501	-200.000	0.014	0.113
-280.486	429.621	-0.102	0.219
-279.472	-185.930	0.093	0.001
-278.457	-117.649	-0.222	0.040
-277.443	539.504	-0.025	-0.059
-276.428	-200.000	-0.070	0.371
-275.413	-200.000	-0.009	-0.108
-274.399	8.512	0.219	-0.164
-273.384	-50.834	0.249	-0.117
-272.370	-9.248	-0.162	0.108
-271.355	-3.687	-0.176	0.122
-270.340	551.832	-0.078	0.187
-269.326	42.943	0.181	-0.165
-268.311	800.000	0.020	0.082
-267.297	50.935	-0.044	0.042
-266.282	-137.452	-0.214	-0.024
-265.267	-107.740	0.239	-0.052
-264.253	363.490	-0.194	0.389
-263.238	29.186	0.177	0.150
-262.224	120.633	0.308	0.382
-261.209	-200.000	0.015	-0.102
-260.195	-94.476	0.074	-0.020
-259.180	87.217	0.177	0.195
-258.165	652.188	-0.108	0.276
-257.151	-200.000	0.009	0.132
-256.136	67.932	-0.215	-0.220
-255.122	-200.000	0.003	0.565
-254.107	-200.000	0.010	0.152
-253.092	-47.956	0.041	-0.020
-252.078	114.982	-0.079	-0.096
-251.063	-158.784	0.159	0.009
-250.049	-200.000	-0.073	0.324
-249.034	-93.555	0.155	-0.043
-248.019	53.478	0.169	0.161
-247.005	54.536	-0.188	0.181
-245.990	9.056	-0.279	-0.210
-244.976	-200.000	0.017	-0.290
-243.961	-93.504	0.285	-0.079
-242.946	-36.254	0.131	-0.070
-241.932	-154.930	0.220	0.014
-240.917	231.436	-0.108	0.176
-239.903	30.981	0.133	0.114
-238.888	103.101	-0.223	-0.260
-237.873	64.952	-0.210	0.211
-236.859	227.867	0.043	-0.070
-235.844	-183.790	-0.163	-0.003
-234.830	44.087	0.083	-0.076
-233.815	-99.205	-0.258	-0.065
-232.800	-35.468	0.161	-0.087
-231.786	354.429	-0.069	-0.137
-230.771	-200.000	0.051	-0.266
-229.757	-142.379	0.361	-0.035
-228.742	-200.000	0.007	-0.418
-227.727	32.716	-0.195	-0.168
-226.713	19.220	0.174	-0.139
-225.698	50.715	0.192	-0.181
-224.684	229.488	-0.079	-0.128
-223.669	16.114	-0.206	0.161
-222.655	800.000	0.147	0.589
-221.640	-200.000	-0.041	0.336
-220.625	-200.000	-0.014	-0.108
-219.611	382.901	0.141	0.289
-218.596	-154.962	0.176	-0.012
-217.582	405.155	0.184	-0.386
-216.567	-43.932	0.017	-0.009
-215.552	-200.000	-0.049	-0.314
-214.538	-200.000	0.011	0.219
-213.523	-131.861	-0.136	0.018
-212.509	31.447	0.143	-0.122
-211.494	-69.722	0.046	0.017
-210.479	5.712	-0.126	-0.092
-209.465	-200.000	-0.049	-0.215
-208.450	153.426	0.257	-0.350
-207.436	143.079	0.020	0.026
-206.421	-200.000	-0.032	-0.156
-205.406	121.086	-0.123	-0.152
-204.392	64.301	0.118	-0.118
-203.377	21.482	0.159	0.129
-202.363	-112.392	0.074	-0.015
-201.348	101.825	0.186	-0.216
-200.333	-200.000	-0.009	0.151
-199.319	-200.000	0.021	0.292
-198.304	393.979	0.071	-0.146
-197.290	126.957	0.094	-0.118
-196.275	-24.071	-0.088	-0.052
-195.260	800.000	0.092	-0.258
-194.246	-200.000	-0.028	0.183
-193.231	310.723	-0.112	0.209
-192.217	439.923	-0.069	0.150
-191.202	-115.564	0.067	0.013
-190.187	-10.489	0.108	-0.071
-189.173	340.750	-0.088	-0.170
-188.158	-59.463	0.400	-0.171
-187.144	-80.932	0.198	-0.065
-186.129	312.668	0.074	0.139
-185.114	0.485	0.087	-0.062
-184.100	-33.537	-0.183	-0.100
-183.085	359.789	0.194	-0.386
-182.071	-117.302	0.453	0.082
-181.056	289.503	0.019	0.034
-180.042	232.615	0.039	-0.063
-179.027	259.060	0.203	-0.349
-178.012	487.512	0.082	-0.186
-176.998	154.535	0.163	-0.223
-175.983	114.997	0.080	0.097
-174.969	134.551	0.175	0.226
-173.954	-159.702	-0.210	-0.012
-172.939	50.075	-0.195	0.183
-171.925	-53.704	-0.055	-0.025
-170.910	-9.784	-0.267	0.177
-169.896	-163.905	-0.399	-0.019
-168.881	122.835	-0.134	-0.166
-167.866	-200.000	0.030	0.160
-166.852	381.540	0.082	-0.167
-165.837	-63.845	0.170	0.069
-164.823	-117.035	0.199	-0.036
-163.808	210.396	0.054	-0.084
-162.793	72.629	-0.207	-0.214
-161.779	443.798	0.037	0.081
-160.764	678.471	0.024	0.062
-159.750	800.000	0.024	-0.078
-158.735	444.072	0.087	0.190
-157.720	-52.460	0.113	0.052
-156.706	-200.000	0.023	-0.169
-155.691	-36.441	-0.252	0.135
-154.677	-134.893	0.159	-0.019
-153.662	-15.833	0.053	-0.033
-152.647	-127.995	-0.184	0.026
-151.633	62.046	0.163	0.161
-150.618	3.617	0.164	0.119
-149.604	-45.666	-0.347	0.171
-148.589	22.552	-0.130	-0.106
-147.574	54.989	0.413	0.396
-146.560	43.462	0.148	0.134
-145.545	329.239	-0.249	-0.476
-144.531	31.328	0.116	0.099
-143.516	-50.699	0.229	0.107
-142.502	65.227	-0.102	0.102
-141.487	389.871	0.131	0.269
-140.472	72.912	-0.152	0.157
-139.458	6.616	0.172	0.127
-138.443	-200.000	0.039	-0.318
-137.429	-76.126	0.176	0.062
-136.414	-41.465	0.023	-0.012
-135.399	-200.000	-0.056	-0.370
-134.385	-200.000	0.002	-0.016
-133.370	800.000	0.041	0.121
-132.356	-72.085	0.121	0.044
-131.341	94.821	0.149	-0.169
-130.326	-200.000	0.011	0.284
-129.312	800.000	-0.053	-0.216
-128.297	61.727	-0.044	0.044
-127.283	-0.087	-0.209	0.148
-126.268	-200.000	-0.012	0.199
-125.253	-200.000	0.011	-0.066
-124.239	800.000	0.036	0.123
-123.224	10.714	-0.082	-0.062
-122.210	-200.000	0.028	0.177
-121.195	27.846	0.318	-0.266
-120.180	-169.715	0.225	0.008
