DTS Sentinel unit serial number:	SN413079Multiplexer serial number:	ORYXHardware model number:	OX4-SRSoftware version number:	ORYX F/W v4.00 Oryx Data Collector v3.7.2.0data status	okinstallation	princeton_trtdifferential loss correction	single-endedforward channel	channel 4reverse channel	N/Adate	2019/09/14time	07:41:34forward acquisition time	60.00reverse acquisition time	0.00gamma	496.2192k internal	0.2323k external	0.2323temperature offset calibration	1.0133default loss term (dB/km)	0.3790temperature slope calibration	1.0000multiplexer offset coefficient	1.0000multiplexer slope coefficient	1.0000fibre end	0.00T internal ref (°C)	26.31T ext. ref 1 (°C)	3.48T ext. ref 2 (°C)	22.06length (m)	temperature (°C)	Stokes	anti-Stokes-747.200	-28.295	-0.233	0.136
-746.185	695.046	0.126	0.335
-745.171	352.110	-0.113	0.226
-744.156	230.138	-0.085	0.141
-743.142	800.000	0.040	-0.170
-742.127	-200.000	-0.066	0.339
-741.112	-89.347	-0.085	0.025
-740.098	-171.936	-0.281	-0.009
-739.083	379.086	-0.179	-0.370
-738.069	-200.000	-0.013	0.109
-737.054	800.000	-0.076	0.230
-736.039	1.552	-0.330	-0.240
-735.025	-145.178	0.123	-0.011
-734.010	-78.937	-0.218	-0.075
-732.996	-12.386	0.046	0.030
-731.981	74.983	0.065	0.069
-730.966	-155.786	-0.098	-0.006
-729.952	-11.803	-0.205	-0.136
-728.937	-71.830	-0.177	0.067
-727.923	-64.478	-0.184	-0.076
-726.908	-200.000	0.016	-0.330
-725.894	-144.558	0.103	0.010
-724.879	83.783	-0.150	-0.166
-723.864	-97.742	-0.122	0.032
-722.850	-132.183	-0.276	-0.036
-721.835	-200.000	0.048	0.248
-720.821	-200.000	-0.042	0.201
-719.806	395.103	0.099	0.207
-718.791	800.000	0.054	-0.170
-717.777	-200.000	-0.070	-0.413
-716.762	-125.476	0.205	0.031
-715.748	-200.000	0.018	0.177
-714.733	-200.000	-0.051	0.427
-713.718	800.000	0.028	-0.119
-712.704	-200.000	0.015	0.065
-711.689	-43.207	-0.447	0.228
-710.675	54.271	-0.298	-0.289
-709.660	-54.594	-0.156	-0.071
-708.645	-22.491	0.210	0.128
-707.631	-155.281	0.315	0.021
-706.616	-58.517	0.118	0.051
-705.602	130.285	-0.171	0.221
-704.587	-88.191	-0.240	-0.072
-703.572	-43.968	0.214	-0.108
-702.558	278.091	0.037	0.066
-701.543	535.277	-0.070	0.167
-700.529	-99.811	-0.232	0.058
-699.514	342.750	0.165	-0.325
-698.499	527.737	-0.159	-0.378
-697.485	-200.000	-0.043	-0.236
-696.470	45.872	-0.305	0.285
-695.456	-200.000	-0.005	0.051
-694.441	-200.000	-0.043	-0.233
-693.426	-21.724	-0.235	-0.144
-692.412	-71.375	-0.399	-0.151
-691.397	101.169	0.146	-0.171
-690.383	-200.000	-0.034	-0.186
-689.368	78.809	0.261	0.281
-688.354	366.175	0.126	0.255
-687.339	-36.516	-0.214	-0.116
-686.324	179.415	-0.101	0.148
-685.310	-36.582	0.110	-0.059
-684.295	76.723	-0.142	0.152
-683.281	-0.425	-0.088	-0.063
-682.266	-83.189	0.208	-0.067
-681.251	-76.509	-0.155	-0.055
-680.237	222.043	-0.178	0.289
-679.222	3.391	-0.072	0.053
-678.208	-107.110	0.115	0.026
-677.193	-8.137	0.238	-0.161
-676.178	-161.074	-0.326	-0.017
-675.164	-26.800	-0.195	-0.115
-674.149	95.906	-0.080	-0.092
-673.135	-137.578	-0.137	0.016
-672.120	26.844	0.108	0.091
-671.105	99.640	-0.082	0.096
-670.091	36.083	-0.061	0.054
-669.076	-125.932	0.169	-0.026
-668.062	-200.000	-0.007	-0.240
-667.047	15.014	-0.101	0.080
-666.032	-22.842	-0.273	-0.166
-665.018	313.160	-0.065	0.123
-664.003	-107.729	-0.299	0.066
-662.989	-200.000	-0.003	0.233
-661.974	368.285	-0.091	-0.186
-660.959	427.621	0.175	-0.380
-659.945	-71.997	-0.091	-0.034
-658.930	-160.829	0.096	0.005
-657.916	-50.716	-0.152	0.072
-656.901	-200.000	0.008	0.242
-655.886	-8.543	-0.247	0.167
-654.872	-200.000	-0.036	0.376
-653.857	-51.423	-0.330	-0.155
-652.843	-115.722	-0.349	-0.066
-651.828	800.000	0.011	0.035
-650.814	-89.785	0.195	-0.058
-649.799	325.555	-0.082	-0.157
-648.784	-67.875	-0.301	-0.118
-647.770	-127.456	0.162	0.024
-646.755	-35.828	0.323	-0.176
-645.741	450.636	-0.092	0.204
-644.726	-200.000	-0.004	0.038
-643.711	-2.960	-0.148	0.104
-642.697	-105.732	-0.102	-0.023
-641.682	34.164	-0.169	0.148
-640.668	-52.085	-0.293	0.137
-639.653	27.482	-0.126	-0.107
-638.638	267.762	-0.051	-0.090
-637.624	-32.093	0.211	-0.118
-636.609	-43.163	0.184	0.094
-635.595	-200.000	0.003	-0.137
-634.580	153.480	-0.198	0.272
-633.565	-200.000	0.009	0.119
-632.551	-45.354	0.204	-0.102
-631.536	-96.524	-0.093	0.025
-630.522	486.244	-0.174	0.399
-629.507	-6.032	-0.067	-0.046
-628.492	-177.466	-0.365	0.009
-627.478	-91.402	-0.271	-0.078
-626.463	-198.644	0.299	-0.002
-625.449	156.185	-0.163	0.226
-624.434	2.046	0.319	-0.231
-623.419	-200.000	0.003	-0.079
-622.405	-200.000	0.000	0.110
-621.390	-138.773	-0.204	-0.022
-620.376	-200.000	-0.038	0.345
-619.361	-95.587	0.124	-0.033
-618.346	3.350	0.016	0.011
-617.332	160.269	0.121	-0.170
-616.317	-200.000	-0.017	-0.193
-615.303	425.609	-0.042	0.092
-614.288	-81.943	-0.058	0.019
-613.273	-126.727	-0.208	0.031
-612.259	90.946	-0.246	-0.277
-611.244	660.291	-0.106	-0.275
-610.230	394.401	-0.139	0.292
-609.215	-0.079	-0.183	0.131
-608.201	0.215	-0.492	-0.353
-607.186	-55.266	0.167	-0.075
-606.171	-103.455	-0.234	-0.055
-605.157	-91.094	0.261	0.075
-604.142	747.504	0.073	0.198
-603.128	-200.000	0.014	-0.139
-602.113	74.057	0.265	-0.279
-601.098	800.000	-0.086	0.332
-600.084	-140.529	0.538	0.056
-599.069	-53.795	-0.249	-0.114
-598.055	-7.302	-0.196	0.134
-597.040	-161.839	-0.591	0.030
-596.025	800.000	-0.084	-0.302
-595.011	513.731	-0.053	-0.124
-593.996	9.520	0.226	0.172
-592.982	-21.555	-0.232	-0.142
-591.967	-200.000	0.140	0.000
-590.952	0.656	-0.395	0.283
-589.938	-122.482	-0.465	-0.076
-588.923	-90.657	0.367	-0.106
-587.909	489.732	0.100	0.230
-586.894	275.498	-0.211	-0.375
-585.879	90.880	-0.105	-0.119
-584.865	800.000	0.162	-0.488
-583.850	-2.461	0.240	-0.169
-582.836	-9.441	-0.037	0.025
-581.821	-32.816	0.128	-0.072
-580.806	-200.000	-0.001	0.009
-579.792	-103.021	-0.215	-0.051
-578.777	-53.696	0.415	-0.190
-577.763	-112.598	0.273	0.055
-576.748	-92.181	-0.453	0.128
-575.733	-117.761	-0.318	-0.057
-574.719	284.930	-0.139	-0.252
-573.704	386.018	-0.117	-0.241
-572.690	224.812	-0.178	-0.289
-571.675	-200.000	-0.004	0.069
-570.661	800.000	0.032	-0.110
-569.646	-50.439	0.050	-0.024
-568.631	219.876	0.038	-0.061
-567.617	54.914	0.108	0.105
-566.602	-200.000	0.010	-0.234
-565.588	800.000	-0.007	-0.026
-564.573	-40.288	-0.155	-0.081
-563.558	295.600	0.083	-0.152
-562.544	-152.168	-0.127	0.009
-561.529	112.269	-0.131	-0.159
-560.515	-118.546	-0.235	-0.042
-559.500	449.245	-0.051	0.113
-558.485	175.914	-0.160	0.233
-557.471	-200.000	-0.039	-0.303
-556.456	-200.000	-0.026	-0.209
-555.442	-200.000	0.025	0.119
-554.427	147.353	0.209	-0.282
-553.412	-136.022	-0.414	0.049
-552.398	46.956	-0.094	0.087
-551.383	53.645	-0.200	-0.192
-550.369	-33.852	0.086	0.047
-549.354	-102.932	0.152	0.036
-548.339	678.225	-0.112	0.291
-547.325	199.951	-0.201	-0.310
-546.310	800.000	-0.071	-0.204
-545.296	-200.000	0.049	0.218
-544.281	-200.000	0.025	0.148
-543.266	-200.000	0.003	-0.052
-542.252	-98.834	0.228	0.058
-541.237	-86.852	0.335	0.102
-540.223	426.539	-0.162	0.350
-539.208	-106.419	-0.492	0.110
-538.193	360.598	-0.108	-0.217
-537.179	800.000	0.068	0.208
-536.164	-101.445	-0.072	-0.018
-535.150	115.020	-0.055	0.068
-534.135	-200.000	-0.045	0.251
-533.121	-45.329	0.229	-0.114
-532.106	-145.173	0.331	-0.030
-531.091	72.327	-0.061	-0.064
-530.077	-31.427	-0.362	-0.204
-529.062	-41.010	0.124	0.064
-528.048	-111.359	-0.255	-0.052
-527.033	-200.000	0.006	0.162
-526.018	545.082	-0.048	0.114
-525.004	-21.662	-0.148	-0.090
-523.989	-200.000	-0.013	0.150
-522.975	230.419	0.195	0.319
-521.960	-86.007	-0.351	-0.109
-520.945	418.845	0.067	-0.143
-519.931	237.287	0.168	0.279
-518.916	-200.000	0.029	0.145
-517.902	-146.705	0.108	0.009
-516.887	171.641	-0.123	0.177
-515.872	800.000	-0.048	0.197
-514.858	-19.655	0.176	-0.109
-513.843	737.081	0.057	0.153
-512.829	533.945	0.026	-0.062
-511.814	72.291	-0.169	-0.176
-510.799	5.343	-0.178	-0.131
-509.785	685.888	0.139	0.363
-508.770	800.000	0.099	-0.372
-507.756	619.364	-0.147	-0.370
-506.741	318.398	-0.165	0.314
-505.726	-48.504	0.194	-0.093
-504.712	-200.000	0.009	-0.213
-503.697	-200.000	0.001	-0.260
-502.683	800.000	0.095	0.292
-501.668	106.683	-0.189	-0.225
-500.653	-50.430	-0.170	-0.080
-499.639	5.563	-0.056	-0.042
-498.624	-99.416	-0.209	-0.053
-497.610	35.470	0.182	-0.160
-496.595	22.342	0.073	-0.060
-495.581	-200.000	0.042	0.226
-494.566	245.362	-0.104	-0.174
-493.551	241.765	-0.032	0.053
-492.537	-14.197	0.328	0.212
-491.522	-60.985	-0.025	0.010
-490.508	281.756	-0.102	0.183
-489.493	-73.820	0.392	-0.143
-488.478	56.649	0.179	-0.174
-487.464	-71.827	0.146	-0.054
-486.449	-162.868	0.093	0.005
-485.435	12.073	-0.118	-0.091
-484.420	-117.544	-0.123	-0.022
-483.405	190.377	0.216	0.324
-482.391	-200.000	-0.073	-0.405
-481.376	-4.997	0.047	-0.032
-480.362	62.985	0.159	0.159
-479.347	-129.692	-0.253	-0.035
-478.332	-161.473	-0.062	-0.003
-477.318	48.377	-0.146	-0.137
-476.303	383.412	0.139	0.286
-475.289	-14.889	0.259	0.166
-474.274	72.527	-0.145	0.151
-473.259	384.864	0.081	-0.167
-472.245	-131.166	0.073	0.010
-471.230	-92.719	-0.137	0.038
-470.216	-84.614	-0.364	-0.115
-469.201	800.000	-0.083	0.261
-468.186	-200.000	-0.002	-0.218
-467.172	-105.791	0.233	0.053
-466.157	598.668	-0.053	-0.131
-465.143	757.819	-0.099	-0.267
-464.128	-10.300	-0.309	-0.205
-463.113	-91.775	0.332	0.094
-462.099	-82.135	-0.172	-0.056
-461.084	-119.547	-0.143	-0.025
-460.070	-55.247	0.283	-0.127
-459.055	-200.000	-0.055	0.271
-458.040	342.609	0.035	0.069
-457.026	800.000	-0.071	0.222
-456.011	44.043	-0.112	0.102
-454.997	-125.681	0.305	-0.046
-453.982	683.327	-0.095	0.248
-452.968	57.132	0.181	0.176
-451.953	-200.000	0.036	-0.327
-450.938	128.012	0.214	-0.272
-449.924	800.000	0.037	-0.126
-448.909	-58.732	-0.271	0.117
-447.895	-73.088	0.047	0.017
-446.880	-200.000	0.002	-0.024
-445.865	85.756	-0.118	-0.130
-444.851	115.818	-0.119	-0.145
-443.836	156.768	-0.069	0.095
-442.822	213.144	0.110	0.173
-441.807	339.841	-0.089	0.173
-440.792	-126.025	0.201	-0.030
-439.778	800.000	0.072	-0.251
-438.763	19.542	-0.302	0.242
-437.749	339.326	-0.068	-0.132
-436.734	-63.181	-0.378	0.155
-435.719	-107.141	-0.333	-0.073
-434.705	217.546	0.196	-0.312
-433.690	0.163	0.063	0.045
-432.676	-200.000	0.046	-0.226
-431.661	220.240	-0.124	0.199
-430.646	-116.357	0.142	-0.026
-429.632	-200.000	0.048	-0.319
-428.617	77.583	-0.153	0.163
-427.603	-200.000	-0.006	0.059
-426.588	-200.000	-0.017	-0.119
-425.573	113.232	0.147	0.178
-424.559	39.503	-0.348	0.311
-423.544	487.552	-0.030	-0.069
-422.530	-200.000	-0.007	-0.226
-421.515	-96.732	0.119	0.031
-420.500	-200.000	-0.003	0.183
-419.486	110.423	-0.135	0.161
-418.471	-84.906	0.113	0.035
-417.457	-92.319	-0.045	-0.013
-416.442	256.129	0.186	-0.318
-415.428	-142.395	0.250	-0.025
-414.413	44.390	0.290	-0.266
-413.398	800.000	0.037	0.108
-412.384	535.666	0.100	-0.236
-411.369	90.276	0.168	-0.188
-410.355	-133.849	0.188	0.023
-409.340	-28.339	0.248	-0.143
-408.325	131.680	-0.272	-0.349
-407.311	-71.653	-0.156	-0.058
-406.296	-65.565	-0.076	-0.030
-405.282	-170.141	0.547	-0.019
-404.267	-115.531	-0.180	0.034
-403.252	117.344	0.141	0.172
-402.238	264.590	0.123	0.213
-401.223	159.692	-0.099	0.137
-400.209	-152.045	-0.194	-0.014
-399.194	-165.328	-0.011	-0.001
-398.179	779.422	0.106	-0.288
-397.165	425.096	0.169	0.362
-396.150	46.378	0.175	0.162
-395.136	800.000	-0.037	0.120
-394.121	-53.591	-0.204	0.093
-393.106	-24.446	0.302	0.179
-392.092	-64.144	-0.262	-0.106
-391.077	86.927	0.264	-0.291
-390.063	52.193	-0.186	-0.177
-389.048	69.455	0.184	-0.189
-388.033	248.728	0.156	0.263
-387.019	171.059	0.076	0.109
-386.004	-4.662	-0.298	0.205
-384.990	-85.250	0.235	-0.073
-383.975	-93.415	0.512	0.141
-382.960	93.209	-0.049	-0.056
-381.946	-7.948	0.286	-0.192
-380.931	-200.000	0.002	-0.110
-379.917	459.659	-0.139	-0.309
-378.902	-149.630	-0.216	0.017
-377.888	-91.536	0.101	0.029
-376.873	-41.433	-0.082	0.042
-375.858	-41.434	0.289	-0.148
-374.844	-200.000	-0.044	0.343
-373.829	47.597	-0.072	0.067
-372.815	362.813	0.111	0.221
-371.800	-139.702	0.372	-0.039
-370.785	-112.336	0.120	-0.024
-369.771	-200.000	-0.007	-0.234
-368.756	-58.088	0.462	-0.200
-367.742	-143.378	-0.532	-0.051
-366.727	-52.094	0.401	0.185
-365.712	-112.817	0.091	-0.018
-364.698	-200.000	0.004	-0.055
-363.683	162.215	0.172	0.239
-362.669	800.000	-0.106	-0.300
-361.654	-200.000	-0.003	-0.126
-360.639	-112.829	0.108	0.021
-359.625	-200.000	-0.001	0.125
-358.610	-53.517	0.096	-0.044
-357.596	-77.026	0.219	0.076
-356.581	-16.106	-0.241	0.152
-355.566	-173.752	-0.189	-0.006
-354.552	-200.000	0.018	-0.127
-353.537	800.000	0.162	-0.470
-352.523	-134.243	-0.313	0.038
-351.508	-110.271	0.167	-0.035
-350.493	74.134	-0.111	-0.116
-349.479	43.096	0.173	0.157
-348.464	-200.000	0.124	0.000
-347.450	530.772	-0.072	-0.170
-346.435	-96.597	-0.338	-0.089
-345.420	283.846	0.075	0.133
-344.406	-124.519	-0.020	0.003
-343.391	-89.986	0.420	-0.122
-342.377	-76.210	-0.262	-0.092
-341.362	538.205	0.110	0.260
-340.348	-38.424	0.389	0.205
-339.333	800.000	-0.073	-0.220
-338.318	-200.000	0.023	0.409
-337.304	-72.743	0.115	0.042
-336.289	443.863	0.092	-0.201
-335.275	7.690	0.182	-0.135
-334.260	119.496	-0.085	0.105
-333.245	800.000	-0.071	0.212
-332.231	800.000	0.024	-0.070
-331.216	-200.000	-0.024	0.171
-330.202	-195.411	-0.229	-0.002
-329.187	-26.746	0.219	0.128
-328.172	-33.897	-0.327	-0.179
-327.158	246.974	-0.143	0.240
-326.143	21.100	-0.310	0.250
-325.129	49.563	0.327	-0.306
-324.114	1.212	0.121	-0.086
-323.099	-24.864	-0.092	-0.054
-322.085	-160.331	0.239	-0.013
-321.070	71.857	0.095	0.098
-320.056	-109.883	0.557	-0.116
-319.041	-111.684	0.313	0.063
-318.026	-118.610	-0.298	0.052
-317.012	-200.000	-0.011	0.126
-315.997	-200.000	-0.036	0.349
-314.983	-200.000	-0.013	-0.058
-313.968	85.615	-0.329	-0.359
-312.953	75.189	-0.101	0.106
-311.939	-171.992	0.274	0.009
-310.924	-200.000	-0.018	0.317
-309.910	-15.087	0.175	-0.111
-308.895	1.473	0.012	-0.009
-307.880	-200.000	-0.008	0.124
-306.866	-148.502	0.053	-0.004
-305.851	239.778	0.192	-0.317
-304.837	-80.473	-0.172	0.057
-303.822	29.922	0.217	0.183
-302.807	193.302	-0.179	0.269
-301.793	-58.433	0.148	0.064
-300.778	800.000	-0.027	0.112
-299.764	-200.000	-0.035	-0.252
-298.749	-167.802	0.401	-0.016
-297.735	-73.809	0.166	-0.060
-296.720	-23.766	0.109	-0.065
-295.705	-131.723	0.129	0.017
-294.691	323.625	0.071	0.134
-293.676	-28.022	0.195	-0.112
-292.662	-45.097	0.249	0.123
-291.647	-112.922	-0.172	-0.034
-290.632	-71.727	-0.113	0.042
-289.618	-20.087	-0.289	-0.177
-288.603	37.793	-0.244	-0.215
-287.589	11.994	0.088	0.067
-286.574	-1.673	-0.051	-0.036
-285.559	-15.050	-0.393	0.250
-284.545	55.633	-0.341	0.328
-283.530	-51.268	0.350	-0.162
-282.516	-75.883	-0.109	0.038
-281.501	182.997	0.071	0.103
-280.486	-200.000	0.007	0.128
-279.472	-200.000	0.043	0.268
-278.457	375.034	0.086	0.173
-277.443	-128.205	0.202	0.029
-276.428	172.081	0.162	0.231
-275.413	-33.023	0.248	-0.136
-274.399	-33.871	0.180	0.098
-273.384	800.000	-0.028	0.102
-272.370	41.255	0.454	-0.407
-271.355	53.442	0.196	0.186
-270.340	140.730	-0.145	-0.190
-269.326	-44.592	-0.173	-0.086
-268.311	-49.515	0.449	0.212
-267.297	306.040	0.135	0.249
-266.282	36.347	-0.177	-0.155
-265.267	-115.447	-0.155	0.029
-264.253	231.922	0.181	0.294
-263.238	346.534	0.094	0.184
-262.224	394.216	0.044	0.091
-261.209	-68.719	0.313	-0.120
-260.195	-200.000	0.036	-0.159
-259.180	-65.666	-0.093	0.037
-258.165	765.440	0.182	0.490
-257.151	20.050	-0.091	0.073
-256.136	350.614	-0.062	0.122
-255.122	263.652	0.064	-0.110
-254.107	608.078	0.082	0.202
-253.092	30.596	-0.045	0.038
-252.078	-124.523	-0.210	-0.032
-251.063	-200.000	0.029	-0.183
-250.049	800.000	-0.034	-0.120
-249.034	50.209	0.178	0.166
-248.019	-200.000	0.010	-0.374
-247.005	-70.687	-0.308	0.115
-245.990	800.000	-0.081	-0.295
-244.976	-95.276	-0.664	0.177
-243.961	-125.084	-0.127	0.019
-242.946	-200.000	0.030	-0.250
-241.932	11.909	-0.181	-0.138
-240.917	800.000	0.097	-0.355
-239.903	253.685	-0.075	-0.127
-238.888	-115.969	-0.163	0.030
-237.873	-66.259	-0.314	0.124
-236.859	-200.000	0.003	0.339
-235.844	-21.257	-0.110	0.066
-234.830	31.543	0.318	0.271
-233.815	-75.668	0.110	0.039
-232.800	-200.000	-0.012	-0.123
-231.786	-196.334	-0.069	0.000
-230.771	800.000	-0.106	-0.318
-229.757	7.902	0.101	-0.075
-228.742	-117.176	-0.197	0.036
-227.727	312.520	0.144	0.267
-226.713	-67.156	-0.274	-0.107
-225.698	-4.251	0.114	0.078
-224.684	800.000	0.083	0.242
-223.669	-101.957	0.130	-0.031
-222.655	173.235	0.087	0.124
-221.640	-64.301	0.120	0.049
-220.625	295.303	-0.116	0.211
-219.611	-45.666	0.242	-0.118
-218.596	271.847	-0.228	0.398
-217.582	800.000	-0.010	-0.040
-216.567	61.181	0.215	0.211
-215.552	573.344	0.139	0.335
-214.538	-2.024	-0.253	-0.176
-213.523	45.689	0.095	0.087
-212.509	-29.844	0.203	-0.115
-211.494	589.104	0.076	-0.186
-210.479	-151.541	0.173	-0.013
-209.465	-61.152	-0.179	0.075
-208.450	328.758	0.144	-0.274
-207.436	-69.264	0.189	-0.072
-206.421	506.382	-0.104	-0.239
-205.406	358.568	0.150	0.297
-204.392	-200.000	-0.041	-0.246
-203.377	-23.023	-0.286	-0.170
-202.363	-10.385	-0.142	0.093
-201.348	-132.113	0.325	-0.042
-200.333	-200.000	0.049	0.258
-199.319	-200.000	0.017	-0.197
-198.304	-200.000	0.007	-0.334
-197.290	489.078	0.056	0.127
-196.275	-20.535	0.161	-0.098
-195.260	270.732	-0.046	-0.079
-194.246	-115.299	-0.358	-0.067
-193.231	113.840	0.271	-0.326
-192.217	128.237	-0.233	0.294
-191.202	43.375	-0.233	-0.210
-190.187	-165.218	0.127	-0.006
-189.173	397.130	0.193	0.398
-188.158	31.935	-0.177	0.151
-187.144	-24.059	0.083	0.049
-186.129	12.889	0.065	-0.050
-185.114	-48.371	-0.512	0.244
-184.100	-200.000	0.029	-0.139
-183.085	298.715	-0.062	-0.113
-182.071	-68.343	0.223	-0.086
-181.056	192.612	0.096	0.143
-180.042	-67.410	-0.231	-0.090
-179.027	-188.724	-0.137	0.002
-178.012	-200.000	0.010	-0.056
-176.998	317.286	-0.115	-0.214
-175.983	508.148	-0.030	0.069
-174.969	201.510	0.111	0.170
-173.954	9.711	-0.182	-0.136
-172.939	48.401	0.203	0.188
-171.925	357.971	0.036	-0.072
-170.910	800.000	0.019	0.062
-169.896	19.117	-0.120	0.095
-168.881	-184.246	0.271	-0.004
-167.866	-57.271	0.124	0.054
-166.852	-56.095	-0.416	-0.183
-165.837	-200.000	0.013	-0.216
-164.823	-136.219	-0.448	-0.052
-163.808	800.000	0.073	0.315
-162.793	-196.697	0.222	-0.001
-161.779	202.321	-0.032	0.049
-160.764	-153.702	0.308	0.021
-159.750	-15.189	-0.343	-0.217
-158.735	800.000	0.034	0.111
-157.720	-129.395	-0.073	0.010
-156.706	-24.792	-0.232	0.136
-155.691	138.050	0.252	0.326
-154.677	38.909	-0.186	-0.164
-153.662	106.005	0.117	0.137
-152.647	230.459	-0.135	0.218
-151.633	11.977	0.320	0.242
-150.618	-96.167	-0.531	-0.139
-149.604	-134.404	-0.226	-0.027
-148.589	7.147	0.152	-0.112
-147.574	800.000	-0.101	-0.382
-146.560	800.000	0.079	-0.310
-145.545	-107.675	-0.366	-0.079
-144.531	-34.147	0.214	-0.116
-143.516	180.337	0.044	-0.064
-142.502	-12.102	0.257	-0.166
-141.487	-198.113	-0.067	0.000
-140.472	211.655	-0.034	0.053
-139.458	39.629	0.219	-0.193
-138.443	-7.854	-0.276	-0.184
-137.429	-47.459	-0.105	0.050
-136.414	-200.000	-0.019	0.164
-135.399	-82.061	-0.312	0.100
-134.385	-200.000	0.018	0.083
-133.370	-15.632	0.343	-0.216
-132.356	129.086	0.099	-0.125
-131.341	-117.257	-0.077	-0.014
-130.326	-131.026	-0.077	0.010
-129.312	-145.794	0.241	0.021
-128.297	129.686	-0.058	0.073
-127.283	27.037	0.077	-0.063
-126.268	800.000	0.098	0.285
-125.253	93.267	-0.304	-0.339
-124.239	800.000	0.126	0.372
-123.224	-21.375	-0.145	0.088
-122.210	-23.934	-0.360	0.212
-121.195	-200.000	-0.010	0.088
