DTS Sentinel unit serial number:	SN413079Multiplexer serial number:	ORYXHardware model number:	OX4-SRSoftware version number:	ORYX F/W v4.00 Oryx Data Collector v3.7.2.0data status	okinstallation	princeton_trtdifferential loss correction	single-endedforward channel	channel 4reverse channel	N/Adate	2019/09/13time	23:13:34forward acquisition time	60.00reverse acquisition time	0.00gamma	496.2192k internal	0.2323k external	0.2323temperature offset calibration	1.0133default loss term (dB/km)	0.3790temperature slope calibration	1.0000multiplexer offset coefficient	1.0000multiplexer slope coefficient	1.0000fibre end	0.00T internal ref (°C)	27.12T ext. ref 1 (°C)	3.20T ext. ref 2 (°C)	21.02length (m)	temperature (°C)	Stokes	anti-Stokes-747.200	212.345	0.219	-0.349
-746.185	-101.699	0.146	0.036
-745.171	-200.000	-0.014	-0.310
-744.156	800.000	-0.052	-0.203
-743.142	-200.000	-0.008	0.049
-742.127	-102.645	-0.328	-0.079
-741.112	-48.410	0.088	-0.043
-740.098	-200.000	-0.002	0.062
-739.083	-147.385	0.287	0.025
-738.069	-200.000	-0.016	0.301
-737.054	259.149	-0.190	0.331
-736.039	-170.251	-0.079	0.003
-735.025	112.545	0.232	-0.283
-734.010	-74.982	-0.241	-0.087
-732.996	-54.801	-0.199	0.091
-731.981	-200.000	0.048	-0.323
-730.966	-77.555	-0.260	0.091
-729.952	-200.000	-0.070	-0.378
-728.937	-72.179	-0.082	-0.031
-727.923	-200.000	-0.023	-0.137
-726.908	-50.021	-0.439	-0.210
-725.894	57.386	0.171	-0.169
-724.879	130.539	-0.227	0.294
-723.864	-200.000	0.022	-0.314
-722.850	-42.731	-0.292	-0.150
-721.835	-52.217	-0.185	0.087
-720.821	-48.830	-0.176	-0.085
-719.806	-70.980	-0.294	0.112
-718.791	49.423	-0.188	-0.178
-717.777	-50.065	-0.334	-0.160
-716.762	-66.007	-0.129	-0.052
-715.748	-200.000	-0.021	-0.095
-714.733	-79.227	-0.323	-0.110
-713.718	-104.871	0.433	-0.100
-712.704	81.276	0.085	0.092
-711.689	-76.628	-0.332	0.118
-710.675	86.713	-0.245	-0.273
-709.660	-12.799	0.326	-0.214
-708.645	-200.000	-0.012	-0.171
-707.631	-101.019	-0.195	-0.048
-706.616	139.814	0.188	-0.250
-705.602	247.276	0.134	-0.227
-704.587	39.179	-0.033	0.030
-703.572	800.000	0.080	-0.309
-702.558	-3.024	-0.233	-0.164
-701.543	-156.438	0.342	0.021
-700.529	-90.414	-0.114	-0.033
-699.514	-103.157	0.232	0.055
-698.499	-200.000	-0.004	-0.020
-697.485	-95.657	-0.213	0.058
-696.470	-74.248	0.106	0.039
-695.456	23.711	0.147	-0.122
-694.441	-200.000	-0.010	-0.212
-693.426	303.320	-0.064	-0.119
-692.412	-13.291	0.182	0.119
-691.397	103.292	0.131	0.155
-690.383	97.435	-0.426	-0.494
-689.368	-87.496	-0.193	-0.059
-688.354	800.000	0.034	-0.101
-687.339	-200.000	0.001	0.133
-686.324	-200.000	-0.024	0.202
-685.310	-120.408	0.374	0.064
-684.295	-59.216	-0.243	0.105
-683.281	-127.340	-0.230	0.034
-682.266	256.726	-0.084	0.145
-681.251	9.862	-0.252	-0.193
-680.237	-127.869	-0.312	0.045
-679.222	-200.000	0.016	-0.236
-678.208	800.000	-0.082	-0.310
-677.193	95.477	0.197	-0.226
-676.178	-125.998	-0.365	0.055
-675.164	-136.663	-0.083	0.010
-674.149	133.857	0.061	-0.080
-673.135	-4.521	0.031	0.021
-672.120	426.055	-0.084	0.181
-671.105	-200.000	-0.043	0.209
-670.091	-136.923	-0.281	-0.032
-669.076	435.312	0.058	-0.127
-668.062	13.155	-0.102	0.080
-667.047	-72.319	0.123	-0.046
-666.032	-54.457	-0.218	-0.100
-665.018	-1.764	-0.054	0.038
-664.003	201.765	0.049	-0.075
-662.989	-75.572	-0.246	0.088
-661.974	-143.179	-0.078	-0.008
-660.959	-127.263	-0.243	0.036
-659.945	120.710	-0.140	-0.175
-658.930	520.385	-0.162	-0.383
-657.916	800.000	0.058	0.201
-656.901	-144.538	-0.220	0.020
-655.886	-60.961	-0.180	0.076
-654.872	55.475	-0.259	0.252
-653.857	800.000	0.029	0.082
-652.843	-21.837	0.138	-0.085
-651.828	-200.000	-0.044	0.381
-650.814	245.668	-0.134	-0.227
-649.799	140.276	0.135	0.180
-648.784	800.000	-0.128	-0.482
-647.770	55.620	0.217	-0.212
-646.755	-200.000	-0.063	-0.404
-645.741	-57.570	-0.109	0.048
-644.726	225.450	-0.114	-0.187
-643.711	10.160	0.202	0.154
-642.697	-200.000	0.023	-0.285
-641.682	-133.399	-0.458	-0.058
-640.668	-51.613	0.142	0.067
-639.653	-200.000	-0.053	-0.258
-638.638	18.771	0.062	-0.050
-637.624	-129.596	0.174	-0.024
-636.609	13.443	0.160	-0.125
-635.595	800.000	-0.070	-0.279
-634.580	39.319	-0.239	-0.216
-633.565	-13.495	0.240	-0.156
-632.551	-44.549	-0.048	0.024
-631.536	274.015	0.019	-0.034
-630.522	-50.973	0.087	-0.041
-629.507	-144.018	0.180	0.017
-628.492	-137.355	-0.274	0.031
-627.478	-52.637	-0.325	-0.151
-626.463	-100.874	0.231	-0.057
-625.449	-24.809	0.314	-0.188
-624.434	-200.000	-0.001	-0.174
-623.419	800.000	0.037	-0.161
-622.405	384.876	-0.072	0.148
-621.390	-35.925	0.186	0.101
-620.376	-152.069	-0.397	0.029
-619.361	188.722	-0.154	-0.232
-618.346	592.623	0.077	-0.191
-617.332	94.375	-0.043	-0.049
-616.317	76.486	-0.100	-0.107
-615.303	340.819	-0.144	-0.282
-614.288	800.000	-0.096	-0.294
-613.273	47.190	-0.193	-0.181
-612.259	535.026	0.037	0.088
-611.244	-7.492	0.114	-0.078
-610.230	273.533	-0.032	-0.057
-609.215	-25.199	-0.097	0.058
-608.201	460.477	0.082	-0.184
-607.186	225.771	-0.159	-0.259
-606.171	-27.571	0.311	0.181
-605.157	-83.656	-0.202	0.065
-604.142	-178.714	0.329	-0.008
-603.128	-200.000	-0.007	-0.232
-602.113	57.296	0.067	0.066
-601.098	-200.000	-0.047	0.284
-600.084	-48.087	-0.035	-0.017
-599.069	-71.003	0.132	0.050
-598.055	-2.340	-0.078	-0.055
-597.040	-48.562	-0.304	-0.147
-596.025	800.000	0.035	0.106
-595.011	78.205	0.108	0.116
-593.996	37.337	0.230	0.205
-592.982	-200.000	-0.474	0.002
-591.967	91.795	-0.109	0.123
-590.952	-200.000	0.066	-0.304
-589.938	800.000	0.067	-0.247
-588.923	69.367	-0.102	-0.106
-587.909	84.737	-0.267	0.294
-586.894	-46.436	-0.216	0.106
-585.879	-171.134	0.354	-0.012
-584.865	-67.932	-0.435	0.170
-583.850	-200.000	0.020	-0.401
-582.836	800.000	0.072	0.211
-581.821	800.000	0.035	-0.143
-580.806	-200.000	0.023	-0.103
-579.792	-88.366	0.195	0.058
-578.777	-31.746	-0.218	-0.123
-577.763	233.541	-0.158	0.261
-576.748	441.448	0.101	-0.222
-575.733	434.851	0.008	-0.018
-574.719	-66.180	-0.380	0.152
-573.704	-100.595	0.222	0.055
-572.690	-200.000	0.022	-0.371
-571.675	-200.000	-0.034	-0.274
-570.661	-3.949	-0.142	-0.099
-569.646	-193.879	0.089	-0.001
-568.631	188.020	0.193	0.289
-567.617	-200.000	0.026	-0.139
-566.602	-85.906	-0.183	-0.057
-565.588	-73.484	-0.166	0.061
-564.573	371.193	-0.069	0.139
-563.558	33.834	-0.337	-0.294
-562.544	93.382	0.163	0.185
-561.529	19.159	-0.150	0.121
-560.515	-54.415	0.510	-0.232
-559.500	-116.323	-0.149	0.028
-558.485	92.570	0.066	-0.075
-557.471	244.603	0.049	-0.082
-556.456	524.507	0.092	-0.216
-555.442	157.083	-0.082	0.113
-554.427	303.154	0.031	0.058
-553.412	137.789	-0.139	-0.183
-552.398	-200.000	-0.032	0.198
-551.383	38.731	0.098	-0.088
-550.369	50.736	-0.284	0.269
-549.354	49.964	-0.071	0.067
-548.339	5.318	0.042	0.031
-547.325	800.000	-0.077	-0.237
-546.310	28.898	-0.207	-0.176
-545.296	112.084	-0.148	-0.179
-544.281	609.664	0.023	0.058
-543.266	100.094	-0.139	-0.162
-542.252	359.588	0.116	-0.232
-541.237	-200.000	0.015	0.291
-540.223	-200.000	-0.002	-0.101
-539.208	292.350	-0.077	0.140
-538.193	-56.223	-0.127	-0.057
-537.179	-162.875	-0.213	0.010
-536.164	30.212	-0.247	-0.211
-535.150	-147.444	-0.156	-0.013
-534.135	-200.000	-0.013	0.352
-533.121	-200.000	0.026	-0.221
-532.106	121.070	0.060	-0.075
-531.091	-200.000	-0.026	0.160
-530.077	79.464	0.315	-0.338
-529.062	-200.000	-0.008	0.113
-528.048	-200.000	-0.006	0.631
-527.033	25.410	-0.289	0.240
-526.018	800.000	0.071	0.209
-525.004	86.089	-0.123	-0.136
-523.989	-200.000	-0.032	-0.377
-522.975	-11.218	-0.190	0.125
-521.960	177.559	0.107	-0.155
-520.945	15.381	0.281	-0.221
-519.931	-92.993	0.171	0.048
-518.916	524.526	0.009	-0.022
-517.902	215.410	-0.151	0.240
-516.887	250.188	0.115	-0.195
-515.872	135.696	0.090	-0.118
-514.858	800.000	-0.066	-0.218
-513.843	33.458	0.237	0.206
-512.829	-56.153	0.214	0.095
-511.814	-200.000	0.019	0.231
-510.799	-200.000	-0.010	-0.075
-509.785	301.626	-0.182	-0.336
-508.770	437.200	-0.113	0.247
-507.756	125.509	-0.187	-0.236
-506.741	-200.000	-0.055	-0.443
-505.726	800.000	-0.012	0.042
-504.712	794.306	-0.032	0.087
-503.697	-25.520	-0.096	-0.057
-502.683	-133.578	0.198	0.025
-501.668	-182.895	-0.518	0.009
-500.653	230.694	-0.081	0.133
-499.639	-115.765	0.087	-0.016
-498.624	-3.523	0.104	-0.073
-497.610	-37.678	0.147	0.078
-496.595	-97.264	0.122	0.032
-495.581	48.742	0.247	-0.232
-494.566	-15.465	0.062	0.040
-493.551	208.456	0.124	0.194
-492.537	-134.521	0.069	-0.008
-491.522	-200.000	-0.035	-0.372
-490.508	-123.338	-0.205	0.033
-489.493	-22.714	-0.077	0.047
-488.478	-18.607	0.191	-0.119
-487.464	294.671	0.103	0.188
-486.449	221.219	0.153	0.246
-485.435	300.548	-0.041	0.076
-484.420	348.142	0.085	0.168
-483.405	800.000	-0.035	0.145
-482.391	-200.000	-0.029	0.325
-481.376	-174.208	-0.162	0.005
-480.362	-62.370	-0.369	-0.153
-479.347	403.026	0.102	0.215
-478.332	200.869	-0.176	0.270
-477.318	157.981	-0.046	-0.064
-476.303	745.866	-0.047	0.126
-475.289	-68.516	0.397	-0.154
-474.274	56.207	0.216	-0.209
-473.259	-200.000	0.003	0.097
-472.245	-200.000	0.042	0.225
-471.230	-200.000	0.079	-0.460
-470.216	120.283	0.147	0.182
-469.201	-200.000	0.012	-0.209
-468.186	-167.238	0.330	0.013
-467.172	-15.998	-0.217	0.138
-466.157	54.796	0.119	-0.114
-465.143	-136.903	0.035	0.004
-464.128	272.068	-0.057	0.101
-463.113	-122.134	-0.149	0.024
-462.099	-118.360	0.274	0.049
-461.084	-38.449	-0.099	-0.053
-460.070	31.967	0.180	-0.154
-459.055	-85.349	-0.098	0.031
-458.040	206.938	-0.108	0.168
-457.026	-122.870	0.085	-0.014
-456.011	-110.255	0.202	-0.042
-454.997	310.454	-0.108	0.202
-453.982	-200.000	0.055	0.384
-452.968	513.626	0.025	0.057
-451.953	110.084	0.146	0.175
-450.938	290.116	0.205	0.371
-449.924	-40.134	0.225	0.117
-448.909	-16.020	-0.137	0.087
-447.895	37.710	-0.349	-0.309
-446.880	-41.519	-0.298	-0.153
-445.865	61.005	-0.098	0.097
-444.851	429.398	0.081	-0.174
-443.836	800.000	0.017	0.075
-442.822	57.669	0.204	-0.199
-441.807	-200.000	0.009	-0.409
-440.792	-94.946	0.267	0.072
-439.778	-38.777	0.310	-0.163
-438.763	25.269	0.167	0.139
-437.749	800.000	0.037	0.104
-436.734	-61.551	-0.463	-0.194
-435.719	-64.501	-0.180	0.073
-434.705	-24.407	-0.209	0.124
-433.690	-50.311	0.192	-0.091
-432.676	270.472	-0.029	-0.051
-431.661	560.614	-0.105	-0.253
-430.646	-200.000	-0.057	-0.393
-429.632	-10.026	0.186	-0.123
-428.617	102.528	0.143	-0.167
-427.603	-200.000	-0.023	0.108
-426.588	-38.673	-0.254	-0.134
-425.573	88.987	-0.089	-0.098
-424.559	-18.732	0.143	-0.089
-423.544	-34.692	-0.135	0.074
-422.530	94.893	0.078	0.089
-421.515	-118.596	-0.086	-0.015
-420.500	-200.000	0.026	0.123
-419.486	-200.000	0.057	0.263
-418.471	-6.703	-0.156	0.106
-417.457	478.849	-0.074	0.167
-416.442	-109.268	-0.097	-0.020
-415.428	-12.142	0.077	0.050
-414.413	-87.485	-0.093	-0.028
-413.398	-110.715	0.277	0.057
-412.384	-101.884	0.299	-0.072
-411.369	800.000	0.071	0.271
-410.355	347.798	0.266	0.523
-409.340	-89.163	-0.521	0.153
-408.325	183.014	0.141	-0.208
-407.311	478.807	0.115	0.259
-406.296	33.550	0.065	0.056
-405.282	-200.000	0.025	-0.190
-404.267	62.115	0.092	0.091
-403.252	93.800	0.150	-0.170
-402.238	-124.507	0.270	0.042
-401.223	770.513	0.074	0.201
-400.209	248.158	-0.064	0.107
-399.194	-120.988	-0.241	-0.040
-398.179	225.706	-0.086	0.139
-397.165	68.691	-0.152	-0.156
-396.150	90.474	-0.264	0.295
-395.136	-47.143	-0.095	0.046
-394.121	-83.607	0.198	-0.063
-393.106	-46.967	-0.111	-0.054
-392.092	-50.570	-0.017	-0.008
-391.077	-76.849	0.239	0.083
-390.063	-200.000	0.028	0.238
-389.048	-24.580	-0.225	0.133
-388.033	125.709	-0.033	0.041
-387.019	110.925	0.089	0.106
-386.004	-104.483	0.140	-0.032
-384.990	524.073	-0.054	0.127
-383.975	97.459	-0.097	-0.111
-382.960	284.343	0.062	-0.110
-381.946	289.714	0.150	0.271
-380.931	800.000	0.015	0.059
-379.917	-108.261	-0.154	-0.033
-378.902	-90.255	-0.339	-0.098
-377.888	-183.124	0.036	-0.001
-376.873	119.651	0.057	0.070
-375.858	147.711	0.141	-0.190
-374.844	310.702	0.158	0.295
-373.829	-123.283	-0.107	0.017
-372.815	66.591	0.111	-0.112
-371.800	359.657	-0.100	0.198
-370.785	95.653	-0.300	0.341
-369.771	-175.214	0.091	0.002
-368.756	320.428	-0.061	-0.115
-367.742	24.539	-0.297	0.244
-366.727	-160.616	0.159	0.008
-365.712	-98.594	0.379	-0.096
-364.698	-20.585	-0.182	-0.111
-363.683	397.375	-0.115	0.238
-362.669	-200.000	-0.285	0.000
-361.654	-200.000	0.052	-0.294
-360.639	-57.959	-0.228	0.099
-359.625	184.332	0.053	-0.079
-358.610	217.624	0.133	-0.212
-357.596	197.615	-0.082	0.125
-356.581	-200.000	-0.002	0.157
-355.566	-150.293	0.128	-0.010
-354.552	-80.872	-0.256	0.084
-353.537	160.786	-0.109	-0.152
-352.523	-76.687	-0.112	0.039
-351.508	75.336	0.044	-0.046
-350.493	-104.310	0.383	-0.088
-349.479	58.555	-0.210	0.205
-348.464	-55.453	-0.166	0.074
-347.450	-200.000	0.003	0.071
-346.435	-200.000	0.032	-0.284
-345.420	121.756	0.132	0.164
-344.406	-25.103	0.052	0.031
-343.391	-84.407	0.337	-0.106
-342.377	-45.531	-0.127	-0.062
-341.362	47.560	-0.127	-0.117
-340.348	111.987	-0.198	0.237
-339.333	-200.000	-0.031	-0.196
-338.318	33.560	0.090	-0.078
-337.304	-127.577	0.154	0.022
-336.289	37.664	0.077	0.068
-335.275	8.225	-0.176	0.131
-334.260	-72.292	0.149	-0.055
-333.245	800.000	0.077	-0.255
-332.231	-21.918	-0.182	0.110
-331.216	-146.568	-0.369	0.032
-330.202	-98.310	-0.184	-0.047
-329.187	229.409	0.169	-0.275
-328.172	18.653	0.410	-0.326
-327.158	-85.861	0.177	-0.055
-326.143	-137.253	-0.135	0.015
-325.129	-35.586	-0.273	0.147
-324.114	800.000	-0.056	0.193
-323.099	170.354	0.091	0.130
-322.085	3.697	0.161	-0.116
-321.070	175.787	0.203	0.292
-320.056	146.732	-0.133	0.178
-319.041	-44.264	0.111	-0.055
-318.026	11.652	-0.052	-0.039
-317.012	373.166	0.039	-0.079
-315.997	-108.813	-0.131	-0.028
-314.983	37.374	0.095	-0.083
-313.968	12.918	-0.020	-0.016
-312.953	-38.638	0.030	0.016
-311.939	-200.000	0.008	0.082
-310.924	344.621	0.070	0.137
-309.910	118.577	0.093	0.114
-308.895	116.471	-0.219	-0.267
-307.880	-140.349	-0.175	-0.018
-306.866	-23.949	-0.278	-0.165
-305.851	800.000	-0.047	0.186
-304.837	-101.433	0.083	0.020
-303.822	229.307	-0.144	-0.233
-302.807	316.041	-0.070	0.132
-301.793	-93.856	0.210	-0.057
-300.778	121.399	-0.023	-0.028
-299.764	524.918	0.128	-0.300
-298.749	20.711	-0.152	0.122
-297.735	-147.290	-0.234	0.020
-296.720	-145.426	0.078	-0.007
-295.705	625.505	0.035	0.087
-294.691	-200.000	0.021	-0.101
-293.676	-35.944	-0.076	0.041
-292.662	56.728	0.071	-0.069
-291.647	-200.000	-0.000	0.295
-290.632	-39.589	0.416	-0.216
-289.618	-10.740	-0.058	0.038
-288.603	800.000	0.055	0.156
-287.589	-79.289	-0.301	-0.101
-286.574	102.078	0.059	0.069
-285.559	-64.322	-0.231	0.093
-284.545	67.304	-0.122	-0.124
-283.530	-82.938	0.133	0.043
-282.516	-31.366	-0.313	-0.175
-281.501	800.000	-0.028	-0.084
-280.486	-200.000	0.015	0.428
-279.472	-150.913	0.154	-0.012
-278.457	413.990	-0.071	0.150
-277.443	20.873	-0.180	-0.144
-276.428	-200.000	0.078	0.344
-275.413	-71.629	-0.153	0.057
-274.399	-200.000	-0.013	-0.123
-273.384	-20.188	-0.017	0.011
-272.370	-200.000	-0.012	-0.195
-271.355	45.731	-0.069	-0.063
-270.340	-36.260	0.312	0.167
-269.326	41.324	-0.130	-0.117
-268.311	-149.494	-0.095	-0.007
-267.297	-200.000	0.000	-0.071
-266.282	23.253	-0.046	-0.038
-265.267	356.558	-0.143	-0.283
-264.253	-59.800	-0.158	-0.067
-263.238	34.210	0.323	-0.279
-262.224	-106.350	0.307	0.068
-261.209	199.053	0.099	0.150
-260.195	-85.844	-0.327	0.100
-259.180	399.550	0.132	0.275
-258.165	-48.162	0.161	0.077
-257.151	118.321	0.181	0.221
-256.136	-200.000	-0.039	0.194
-255.122	-200.000	-0.109	0.637
-254.107	186.187	0.161	0.238
-253.092	247.205	0.137	-0.229
-252.078	293.348	0.169	-0.305
-251.063	296.291	0.184	0.335
-250.049	591.519	0.030	0.073
-249.034	166.897	-0.108	-0.152
-248.019	-200.000	0.017	0.139
-247.005	-200.000	0.041	-0.321
-245.990	20.071	-0.020	-0.016
-244.976	-27.616	0.342	0.196
-243.961	256.424	-0.117	0.198
-242.946	-40.739	0.199	0.102
-241.932	-25.385	-0.149	0.087
-240.917	800.000	-0.043	-0.146
-239.903	-34.375	-0.140	-0.076
-238.888	-10.984	0.324	-0.212
-237.873	56.938	-0.334	-0.322
-236.859	-61.681	-0.273	0.113
-235.844	-200.000	0.019	-0.104
-234.830	409.113	-0.101	0.213
-233.815	-189.865	0.354	0.004
-232.800	-200.000	0.034	-0.424
-231.786	800.000	-0.035	0.096
-230.771	-42.220	0.268	0.135
-229.757	5.141	0.024	0.017
-228.742	-92.449	0.144	-0.040
-227.727	800.000	0.108	0.387
-226.713	-82.207	0.155	0.050
-225.698	17.696	-0.026	0.020
-224.684	23.867	0.274	0.224
-223.669	80.204	0.067	0.071
-222.655	-200.000	0.006	0.072
-221.640	-200.000	0.006	0.205
-220.625	-200.000	-0.019	0.128
-219.611	-172.239	0.452	0.014
-218.596	-200.000	0.037	0.236
-217.582	-152.411	0.166	0.012
-216.567	-200.000	-0.006	0.207
-215.552	377.938	0.096	0.194
-214.538	-117.513	-0.201	-0.036
-213.523	-200.000	0.005	0.332
-212.509	143.288	-0.200	0.264
-211.494	-95.501	0.146	-0.039
-210.479	213.059	0.176	0.274
-209.465	-200.000	0.005	0.116
-208.450	800.000	-0.117	-0.392
-207.436	81.070	0.224	0.239
-206.421	-200.000	0.008	-0.035
-205.406	-169.913	-0.206	-0.007
-204.392	-200.000	-0.005	0.299
-203.377	-59.160	0.264	0.113
-202.363	-135.192	-0.141	-0.017
-201.348	157.663	-0.099	0.135
-200.333	-81.868	0.326	0.106
-199.319	-83.871	-0.304	-0.096
-198.304	-135.140	-0.344	0.041
-197.290	47.915	0.169	-0.156
-196.275	-34.082	-0.333	-0.181
-195.260	429.973	-0.012	0.025
-194.246	-200.000	0.065	0.351
-193.231	324.155	-0.093	-0.175
-192.217	55.239	0.073	-0.070
-191.202	205.342	-0.078	0.120
-190.187	273.851	0.144	-0.252
-189.173	-5.920	0.154	-0.104
-188.158	-27.338	-0.360	-0.207
-187.144	140.483	-0.157	0.205
-186.129	136.357	0.156	0.201
-185.114	800.000	0.080	-0.224
-184.100	233.389	0.049	-0.080
-183.085	229.535	-0.143	-0.230
-182.071	800.000	-0.016	0.068
-181.056	-3.986	0.267	0.183
-180.042	-63.596	0.261	0.106
-179.027	781.197	0.105	-0.284
-178.012	52.190	0.140	0.131
-176.998	426.315	0.113	-0.240
-175.983	800.000	-0.036	-0.107
-174.969	-60.389	-0.317	0.133
-173.954	-200.000	-0.091	-0.407
-172.939	1.188	0.150	-0.106
-171.925	-122.679	-0.112	0.018
-170.910	-23.788	-0.333	0.197
-169.896	-200.000	0.031	-0.347
-168.881	-200.000	-0.033	-0.237
-167.866	-111.334	-0.216	-0.044
-166.852	-90.266	0.327	0.094
-165.837	-127.011	0.320	0.046
-164.823	-27.347	0.137	0.079
-163.808	148.902	0.021	-0.028
-162.793	-80.848	-0.347	0.114
-161.779	-52.176	0.278	-0.127
-160.764	-200.000	0.016	0.159
-159.750	800.000	0.031	-0.087
-158.735	-85.610	0.119	-0.037
-157.720	-200.000	0.006	0.055
-156.706	417.034	-0.032	-0.068
-155.691	52.446	0.130	0.123
-154.677	800.000	0.045	0.137
-153.662	146.576	-0.015	-0.020
-152.647	-6.076	-0.163	-0.110
-151.633	-39.372	0.202	0.105
-150.618	-27.971	-0.228	0.130
-149.604	-42.021	0.191	-0.096
-148.589	-186.751	-0.259	-0.004
-147.574	800.000	-0.100	0.283
-146.560	800.000	-0.065	-0.239
-145.545	-102.173	0.292	0.069
-144.531	-139.848	-0.108	-0.011
-143.516	76.454	-0.088	-0.092
-142.502	-31.821	-0.123	-0.068
-141.487	-200.000	-0.035	-0.183
-140.472	-200.000	-0.025	0.390
-139.458	-200.000	0.008	0.314
-138.443	-64.599	0.412	0.165
-137.429	-39.911	0.221	-0.114
-136.414	-79.530	0.178	-0.059
-135.399	23.965	0.159	0.129
-134.385	70.043	-0.254	0.259
-133.370	59.132	0.180	-0.174
-132.356	141.764	0.131	0.171
-131.341	-105.545	0.271	0.061
-130.326	-200.000	-0.006	-0.158
-129.312	800.000	0.066	0.236
-128.297	91.657	-0.047	0.052
-127.283	800.000	0.090	0.310
-126.268	113.561	-0.247	0.296
-125.253	-70.154	-0.243	0.091
-124.239	237.328	-0.125	-0.204
-123.224	-33.887	-0.366	0.199
-122.210	400.341	-0.073	0.150
-121.195	19.898	-0.027	-0.021
