DTS Sentinel unit serial number:	SN413079Multiplexer serial number:	ORYXHardware model number:	OX4-SRSoftware version number:	ORYX F/W v4.00 Oryx Data Collector v3.7.2.0data status	okinstallation	princeton_trtdifferential loss correction	single-endedforward channel	channel 4reverse channel	N/Adate	2019/09/12time	15:35:10forward acquisition time	60.00reverse acquisition time	0.00gamma	496.2192k internal	0.2291k external	0.2291temperature offset calibration	1.0101default loss term (dB/km)	0.3790temperature slope calibration	1.0000multiplexer offset coefficient	1.0000multiplexer slope coefficient	1.0000fibre end	0.00T internal ref (°C)	40.39T ext. ref 1 (°C)	2.43T ext. ref 2 (°C)	33.37length (m)	temperature (°C)	Stokes	anti-Stokes-747.200	190.702	-0.136	0.209
-746.185	800.000	0.126	0.360
-745.171	-200.000	-0.046	0.232
-744.156	-200.000	0.021	0.471
-743.142	-17.394	0.166	-0.107
-742.127	-200.000	0.028	0.357
-741.112	296.248	0.197	-0.371
-740.098	99.661	0.146	0.173
-739.083	7.804	-0.049	-0.037
-738.069	-28.553	-0.144	0.085
-737.054	168.378	0.072	0.105
-736.039	-89.494	0.156	0.047
-735.025	-85.017	-0.044	0.014
-734.010	37.917	-0.331	-0.301
-732.996	-56.937	0.019	0.009
-731.981	37.335	-0.114	-0.103
-730.966	-1.632	0.136	0.098
-729.952	800.000	0.061	0.272
-728.937	159.372	0.070	-0.100
-727.923	42.900	-0.177	-0.165
-726.908	-17.354	0.175	-0.113
-725.894	-200.000	0.028	0.375
-724.879	73.658	0.142	-0.152
-723.864	-122.081	0.265	0.044
-722.850	800.000	0.115	-0.340
-721.835	-200.000	-0.008	-0.112
-720.821	-57.870	0.105	-0.047
-719.806	28.803	0.112	-0.097
-718.791	146.906	0.007	0.009
-717.777	-18.284	0.256	0.164
-716.762	81.898	-0.171	0.189
-715.748	53.704	-0.027	-0.026
-714.733	26.189	-0.072	-0.061
-713.718	800.000	0.077	0.293
-712.704	458.405	0.049	-0.110
-711.689	-127.856	0.093	0.014
-710.675	-123.459	0.156	-0.025
-709.660	201.763	-0.083	0.131
-708.645	491.938	-0.073	-0.170
-707.631	-200.000	0.021	0.208
-706.616	63.391	-0.165	-0.169
-705.602	800.000	-0.113	-0.320
-704.587	-47.331	-0.234	-0.117
-703.572	-119.108	0.284	-0.051
-702.558	-108.531	0.215	-0.047
-701.543	-125.679	-0.238	-0.037
-700.529	-200.000	-0.000	-0.048
-699.514	97.403	-0.141	-0.166
-698.499	404.906	0.150	-0.324
-697.485	-102.360	-0.348	0.085
-696.470	-200.000	0.045	0.403
-695.456	26.314	0.358	0.306
-694.441	-49.656	0.150	-0.073
-693.426	-19.228	0.148	-0.094
-692.412	-200.000	0.027	-0.172
-691.397	23.922	0.167	-0.140
-690.383	800.000	0.092	-0.263
-689.368	454.999	-0.024	0.053
-688.354	-70.447	-0.176	-0.068
-687.339	316.789	-0.216	-0.416
-686.324	341.528	-0.110	-0.219
-685.310	-127.848	0.076	0.011
-684.295	222.607	0.105	0.172
-683.281	-37.114	0.177	-0.097
-682.266	262.156	0.167	0.296
-681.251	302.267	0.044	0.083
-680.237	100.135	0.127	-0.150
-679.222	586.731	0.129	0.324
-678.208	179.823	-0.073	0.109
-677.193	-200.000	-0.035	0.248
-676.178	-200.000	0.018	0.083
-675.164	-157.982	-0.225	0.014
-674.149	800.000	0.139	0.466
-673.135	14.723	-0.293	-0.234
-672.120	214.676	0.109	0.176
-671.105	-56.066	-0.448	-0.204
-670.091	800.000	-0.073	-0.277
-669.076	-200.000	0.013	0.212
-668.062	17.787	-0.180	-0.146
-667.047	-80.312	-0.047	0.016
-666.032	558.220	0.153	0.377
-665.018	-200.000	0.026	-0.261
-664.003	17.967	-0.146	-0.119
-662.989	411.887	0.142	-0.309
-661.974	800.000	0.066	0.208
-660.959	-75.777	0.039	-0.014
-659.945	-89.572	-0.223	-0.067
-658.930	-200.000	-0.004	-0.051
-657.916	-200.000	0.007	-0.048
-656.901	-103.701	-0.047	-0.011
-655.886	-90.813	-0.188	-0.055
-654.872	21.057	0.074	0.061
-653.857	366.357	-0.091	0.187
-652.843	800.000	-0.057	-0.227
-651.828	-200.000	0.017	-0.114
-650.814	-200.000	0.038	0.254
-649.799	800.000	-0.065	0.219
-648.784	-40.692	-0.231	-0.122
-647.770	218.989	-0.178	0.290
-646.755	-200.000	-0.035	0.208
-645.741	-48.353	-0.220	0.108
-644.726	233.287	0.057	-0.096
-643.711	744.021	-0.023	0.064
-642.697	-81.057	-0.548	0.185
-641.682	145.922	0.145	0.199
-640.668	-73.785	-0.110	-0.041
-639.653	176.685	0.112	0.166
-638.638	-200.000	-0.025	-0.289
-637.624	85.100	-0.192	-0.215
-636.609	-90.028	0.039	0.012
-635.595	-141.354	-0.219	-0.023
-634.580	-200.000	-0.024	-0.128
-633.565	21.874	0.189	-0.157
-632.551	-200.000	-0.038	-0.270
-631.536	38.689	0.081	0.074
-630.522	-26.126	-0.114	-0.068
-629.507	-113.850	-0.067	-0.013
-628.492	260.636	-0.130	-0.228
-627.478	-96.324	0.114	-0.031
-626.463	60.780	0.125	-0.126
-625.449	800.000	0.067	-0.224
-624.434	-93.132	0.256	-0.073
-623.419	2.377	-0.211	-0.156
-622.405	452.770	-0.135	-0.303
-621.390	243.731	0.180	-0.307
-620.376	-101.904	0.238	0.059
-619.361	22.712	0.243	0.203
-618.346	36.450	0.063	0.056
-617.332	-200.000	-0.011	-0.117
-616.317	-51.635	0.175	0.083
-615.303	186.312	0.079	0.120
-614.288	46.084	-0.277	0.261
-613.273	341.955	-0.026	-0.052
-612.259	52.522	0.169	-0.164
-611.244	-150.763	-0.215	-0.017
-610.230	248.445	0.161	0.277
-609.215	145.199	-0.164	0.224
-608.201	-154.104	0.299	0.021
-607.186	-94.482	0.220	0.061
-606.171	-40.506	-0.136	-0.072
-605.157	-151.737	0.166	0.012
-604.142	-33.481	0.257	0.144
-603.128	20.704	-0.226	0.186
-602.113	132.372	0.133	-0.175
-601.098	-90.024	-0.043	-0.013
-600.084	-200.000	-0.743	-0.004
-599.069	720.646	0.085	-0.230
-598.055	-120.451	-0.291	0.050
-597.040	230.119	-0.186	-0.310
-596.025	133.608	0.146	0.192
-595.011	-200.000	0.016	0.110
-593.996	165.210	-0.104	0.149
-592.982	19.337	-0.266	0.218
-591.967	20.536	0.176	-0.145
-590.952	800.000	0.039	-0.150
-589.938	24.800	0.255	0.215
-588.923	-141.634	0.145	-0.015
-587.909	41.174	0.209	-0.192
-586.894	-200.000	0.081	0.366
-585.879	-98.864	0.442	-0.114
-584.865	-129.938	0.076	-0.011
-583.850	87.103	0.218	0.245
-582.836	-200.000	-0.053	-0.382
-581.821	-200.000	-0.038	-0.383
-580.806	323.766	-0.256	-0.497
-579.792	101.475	0.164	0.195
-578.777	-200.000	0.001	0.458
-577.763	367.527	-0.147	0.302
-576.748	-200.000	0.031	-0.203
-575.733	-40.852	-0.077	0.040
-574.719	457.971	-0.057	-0.129
-573.704	63.496	-0.099	-0.101
-572.690	-110.944	0.110	0.023
-571.675	13.096	0.228	0.179
-570.661	-200.000	-0.017	0.224
-569.646	108.204	0.079	-0.095
-568.631	465.943	-0.073	-0.165
-567.617	92.901	-0.278	0.320
-566.602	800.000	-0.076	0.308
-565.588	610.392	-0.147	0.375
-564.573	15.490	0.099	-0.079
-563.558	11.458	-0.175	-0.137
-562.544	-200.000	0.004	-0.086
-561.529	265.162	0.062	0.110
-560.515	242.501	-0.087	0.149
-559.500	82.305	-0.172	0.189
-558.485	-156.295	0.355	0.023
-557.471	324.324	-0.056	-0.109
-556.456	7.161	-0.089	-0.068
-555.442	-200.000	0.010	0.221
-554.427	-200.000	-0.025	-0.162
-553.412	-116.657	-0.138	-0.026
-552.398	235.703	0.067	-0.113
-551.383	279.234	0.052	-0.094
-550.369	56.196	0.307	-0.303
-549.354	-63.845	0.168	0.070
-548.339	-200.000	0.000	-0.060
-547.325	-200.000	0.021	-0.252
-546.310	146.484	-0.115	0.157
-545.296	56.265	-0.044	0.043
-544.281	-85.830	-0.091	0.029
-543.266	237.975	-0.179	0.302
-542.252	-45.634	-0.015	-0.008
-541.237	800.000	-0.055	0.205
-540.223	-200.000	-0.038	0.177
-539.208	302.346	-0.169	0.318
-538.193	800.000	-0.175	0.536
-537.179	30.728	0.139	0.121
-536.164	-69.686	0.122	0.048
-535.150	247.503	-0.106	-0.182
-534.135	-20.726	0.135	0.084
-533.121	612.097	-0.118	0.300
-532.106	177.340	-0.060	-0.088
-531.091	-23.680	0.255	-0.155
-530.077	-33.921	0.210	0.118
-529.062	-23.269	0.375	-0.229
-528.048	78.741	-0.095	0.103
-527.033	75.963	0.040	-0.043
-526.018	14.442	-0.097	-0.077
-525.004	-22.788	0.154	-0.094
-523.989	800.000	0.089	0.285
-522.975	77.682	0.162	-0.175
-521.960	202.338	-0.221	-0.346
-520.945	5.392	0.089	-0.067
-519.931	52.905	-0.045	0.044
-518.916	-200.000	0.099	0.527
-517.902	-26.096	0.338	0.202
-516.887	-76.763	0.093	-0.033
-515.872	-37.206	-0.088	0.048
-514.858	-200.000	-0.055	0.263
-513.843	194.752	0.050	0.078
-512.829	251.335	0.167	0.288
-511.814	-200.000	0.036	0.270
-510.799	304.575	-0.131	-0.247
-509.785	768.758	0.026	-0.073
-508.770	524.177	0.068	-0.161
-507.756	39.129	0.095	0.086
-506.741	-48.368	-0.155	-0.076
-505.726	-43.652	-0.200	0.102
-504.712	-4.328	0.163	0.114
-503.697	-4.211	-0.183	0.129
-502.683	-29.674	-0.123	0.071
-501.668	553.414	-0.104	-0.253
-500.653	-40.577	-0.222	-0.117
-499.639	-200.000	0.023	-0.218
-498.624	800.000	-0.037	-0.163
-497.610	0.831	0.112	0.081
-496.595	77.263	0.160	0.172
-495.581	89.112	0.238	-0.269
-494.566	-110.595	0.169	-0.035
-493.551	58.271	0.159	0.158
-492.537	-1.282	-0.084	0.061
-491.522	257.136	-0.076	0.132
-490.508	-114.849	-0.067	0.013
-489.493	-129.667	-0.272	0.038
-488.478	-42.447	-0.138	-0.071
-487.464	-157.919	0.273	-0.016
-486.449	-117.275	-0.311	0.057
-485.435	-134.612	-0.425	-0.052
-484.420	-80.068	-0.079	0.027
-483.405	-53.153	0.199	0.092
-482.391	800.000	0.040	0.117
-481.376	94.383	-0.075	0.086
-480.362	-100.199	0.192	-0.048
-479.347	800.000	0.065	-0.248
-478.332	-200.000	-0.012	-0.283
-477.318	-19.167	-0.267	-0.168
-476.303	-1.545	0.169	0.120
-475.289	21.914	-0.336	-0.278
-474.274	-38.694	0.373	-0.199
-473.259	-200.000	0.000	0.204
-472.245	800.000	-0.113	-0.322
-471.230	340.891	-0.092	-0.181
-470.216	39.436	-0.102	0.093
-469.201	82.372	-0.163	0.179
-468.186	553.603	-0.075	-0.183
-467.172	-92.105	0.365	-0.104
-466.157	800.000	0.023	0.067
-465.143	264.998	0.064	0.113
-464.128	800.000	0.079	0.231
-463.113	-13.548	0.183	-0.120
-462.099	781.656	-0.114	0.317
-461.084	174.131	0.045	-0.066
-460.070	148.893	-0.035	-0.048
-459.055	800.000	0.081	0.312
-458.040	79.878	-0.070	-0.077
-457.026	-36.257	-0.174	-0.095
-456.011	800.000	0.051	0.144
-454.997	61.751	-0.221	0.223
-453.982	88.531	0.064	-0.072
-452.968	110.352	0.069	0.084
-451.953	800.000	0.056	0.198
-450.938	1.825	-0.055	0.040
-449.924	-104.530	0.059	-0.014
-448.909	-122.531	0.184	-0.030
-447.895	-25.542	0.264	0.158
-446.880	-200.000	0.003	0.190
-445.865	-7.443	-0.218	-0.149
-444.851	19.484	-0.135	-0.110
-443.836	800.000	0.069	0.298
-442.822	223.667	-0.018	0.029
-441.807	800.000	-0.050	-0.203
-440.792	-157.166	-0.137	0.008
-439.778	230.852	0.054	-0.090
-438.763	-62.032	0.166	0.070
-437.749	103.661	-0.248	-0.295
-436.734	-117.919	-0.213	0.039
-435.719	271.222	-0.095	-0.170
-434.705	220.491	0.259	-0.421
-433.690	-200.000	-0.005	0.226
-432.676	-94.164	-0.227	0.063
-431.661	192.546	0.186	-0.284
-430.646	7.249	-0.066	0.050
-429.632	452.199	0.089	0.200
-428.617	553.626	-0.106	-0.257
-427.603	313.976	0.105	0.200
-426.588	-140.625	-0.209	0.022
-425.573	-185.538	-0.156	0.002
-424.559	192.306	-0.067	0.103
-423.544	-45.894	-0.195	-0.097
-422.530	30.159	0.351	-0.303
-421.515	-93.327	0.324	-0.091
-420.500	-200.000	0.023	0.222
-419.486	509.666	0.070	0.164
-418.471	-33.818	0.143	0.080
-417.457	-30.220	-0.246	0.141
-416.442	-96.675	0.147	0.039
-415.428	-200.000	-0.092	0.550
-414.413	-200.000	-0.000	-0.149
-413.398	-91.832	-0.135	-0.039
-412.384	-200.000	0.000	0.154
-411.369	800.000	0.052	0.183
-410.355	-119.501	-0.234	-0.041
-409.340	-200.000	-0.158	0.000
-408.325	-200.000	-0.014	0.293
-407.311	-110.531	-0.205	0.043
-406.296	-200.000	-0.015	0.163
-405.282	19.313	0.292	-0.237
-404.267	800.000	0.048	0.144
-403.252	305.283	0.141	0.265
-402.238	-200.000	-0.017	0.153
-401.223	102.960	-0.130	-0.154
-400.209	68.549	0.266	0.275
-399.194	-133.763	0.348	0.044
-398.179	252.946	-0.028	-0.047
-397.165	95.064	0.321	-0.369
-396.150	278.412	0.081	0.146
-395.136	404.794	-0.101	-0.215
-394.121	-68.552	-0.191	0.075
-393.106	-81.331	-0.229	0.076
-392.092	-35.354	0.056	-0.031
-391.077	56.160	0.299	-0.293
-390.063	-145.510	0.111	0.010
-389.048	-200.000	0.011	-0.159
-388.033	679.901	-0.029	0.077
-387.019	800.000	0.078	-0.233
-386.004	547.309	-0.075	0.180
-384.990	-101.270	-0.069	0.017
-383.975	70.866	-0.167	-0.175
-382.960	-161.761	-0.240	0.012
-381.946	-200.000	0.012	-0.083
-380.931	654.340	-0.089	0.232
-379.917	-110.617	0.324	-0.068
-378.902	-200.000	0.053	-0.358
-377.888	62.645	-0.056	-0.056
-376.873	-64.514	0.319	-0.131
-375.858	-105.446	0.225	0.052
-374.844	-200.000	-0.111	0.517
-373.829	-122.509	0.298	-0.049
-372.815	-69.648	0.135	-0.052
-371.800	108.428	0.101	-0.121
-370.785	-96.744	-0.271	0.072
-369.771	-102.612	0.092	-0.022
-368.756	-188.711	0.217	0.003
-367.742	-200.000	-0.008	-0.077
-366.727	-33.168	0.100	-0.056
-365.712	-18.490	-0.231	-0.145
-364.698	800.000	-0.089	-0.278
-363.683	-200.000	0.009	-0.054
-362.669	-66.343	0.053	-0.021
-361.654	510.259	0.093	-0.218
-360.639	-85.274	0.144	-0.045
-359.625	-62.807	-0.370	-0.154
-358.610	-113.012	-0.181	-0.036
-357.596	-95.844	0.115	-0.031
-356.581	-158.746	-0.113	0.007
-355.566	205.004	0.217	-0.340
-354.552	-189.505	0.040	0.000
-353.537	96.779	0.102	0.118
-352.523	27.829	0.257	-0.219
-351.508	-15.013	0.500	0.323
-350.493	800.000	-0.089	0.293
-349.479	-200.000	-0.005	0.134
-348.464	12.827	-0.175	0.136
-347.450	-132.446	0.201	-0.026
-346.435	507.864	-0.067	-0.158
-345.420	-24.438	0.324	0.195
-344.406	-52.241	-0.330	0.154
-343.391	-76.081	0.153	0.054
-342.377	327.222	0.084	-0.162
-341.362	-103.290	-0.398	-0.095
-340.348	-178.569	0.094	-0.002
-339.333	800.000	0.058	0.223
-338.318	800.000	0.010	0.030
-337.304	-127.572	0.201	-0.029
-336.289	-50.484	0.229	0.109
-335.275	-101.197	0.071	0.017
-334.260	349.806	-0.148	-0.294
-333.245	800.000	-0.033	0.125
-332.231	8.316	-0.120	0.091
-331.216	-10.797	-0.070	0.047
-330.202	193.421	0.082	0.125
-329.187	362.713	-0.106	0.215
-328.172	-103.764	-0.279	-0.066
-327.158	-200.000	-0.023	-0.130
-326.143	-200.000	0.047	0.350
-325.129	-85.282	-0.203	0.064
-324.114	-200.000	-0.020	-0.229
-323.099	55.363	0.035	-0.034
-322.085	-136.124	-0.174	-0.021
-321.070	18.027	0.035	0.028
-320.056	-173.565	-0.176	-0.005
-319.041	800.000	-0.090	-0.325
-318.026	-200.000	0.010	-0.125
-317.012	-58.244	0.548	0.240
-315.997	800.000	-0.029	0.093
-314.983	-123.449	0.083	-0.013
-313.968	21.667	-0.191	0.157
-312.953	45.463	0.477	-0.443
-311.939	196.135	0.070	0.107
-310.924	16.875	0.138	0.110
-309.910	-119.030	0.395	-0.070
-308.895	169.284	-0.077	-0.111
-307.880	150.359	0.130	0.178
-306.866	-200.000	-0.011	-0.188
-305.851	192.721	0.191	-0.290
-304.837	-157.348	0.561	0.034
-303.822	39.513	-0.221	-0.199
-302.807	-91.193	-0.019	0.005
-301.793	-13.725	0.196	-0.128
-300.778	-200.000	-0.052	0.339
-299.764	-170.192	-0.192	0.007
-298.749	-137.918	-0.281	0.032
-297.735	-142.618	-0.067	-0.007
-296.720	23.229	-0.152	-0.126
-295.705	-148.710	0.162	0.013
-294.691	-69.833	-0.069	0.027
-293.676	553.022	-0.163	0.394
-292.662	-200.000	-0.057	-0.259
-291.647	-135.645	-0.326	0.039
-290.632	-77.719	-0.287	0.100
-289.618	22.174	-0.215	-0.177
-288.603	171.268	0.153	-0.220
-287.589	297.602	-0.094	-0.173
-286.574	-31.607	0.222	-0.125
-285.559	-200.000	-0.009	0.332
-284.545	369.230	-0.090	0.182
-283.530	301.990	0.094	-0.175
-282.516	-150.304	0.202	0.016
-281.501	180.672	0.114	0.169
-280.486	-166.005	-0.073	-0.003
-279.472	156.871	-0.100	-0.138
-278.457	-103.884	0.273	-0.064
-277.443	-122.637	0.324	-0.053
-276.428	94.335	-0.228	-0.260
-275.413	-200.000	0.050	-0.382
-274.399	800.000	-0.022	-0.074
-273.384	800.000	-0.019	-0.054
-272.370	-200.000	0.018	-0.487
-271.355	-150.113	-0.035	0.003
-270.340	-16.117	-0.306	-0.196
-269.326	10.811	0.086	0.066
-268.311	-200.000	-0.007	-0.349
-267.297	-52.286	0.088	0.041
-266.282	-172.710	-0.221	0.007
-265.267	599.802	-0.219	-0.545
-264.253	-91.665	-0.124	0.036
-263.238	-108.287	0.324	-0.070
-262.224	-200.000	-0.073	0.359
-261.209	-55.522	0.307	-0.138
-260.195	-23.808	-0.155	0.093
-259.180	-200.000	0.025	0.156
-258.165	41.466	0.123	-0.111
-257.151	800.000	-0.066	0.225
-256.136	315.835	0.076	0.144
-255.122	537.752	0.126	0.301
-254.107	-109.710	0.046	-0.010
-253.092	800.000	-0.065	0.283
-252.078	-200.000	0.028	0.221
-251.063	37.852	0.017	-0.015
-250.049	90.454	-0.174	0.196
-249.034	78.244	0.142	0.153
-248.019	-28.353	-0.256	0.148
-247.005	-139.134	-0.411	0.045
-245.990	-8.608	-0.065	0.044
-244.976	83.326	-0.081	0.089
-243.961	-46.421	0.263	0.130
-242.946	-200.000	0.013	-0.061
-241.932	-21.011	-0.034	0.021
-240.917	185.392	0.066	-0.098
-239.903	753.199	0.066	0.180
-238.888	800.000	-0.059	-0.208
-237.873	18.003	0.338	-0.271
-236.859	-57.143	-0.230	0.102
-235.844	800.000	-0.068	-0.265
-234.830	-200.000	0.010	0.116
-233.815	25.457	0.195	0.163
-232.800	137.207	-0.133	0.175
-231.786	143.847	-0.037	-0.050
-230.771	-166.131	-0.042	0.002
-229.757	-31.686	-0.152	0.086
-228.742	-72.798	-0.228	-0.084
-227.727	-41.499	0.235	0.121
-226.713	-22.238	-0.242	-0.147
-225.698	22.031	-0.146	0.120
-224.684	492.297	0.138	0.318
-223.669	800.000	0.072	-0.259
-222.655	27.655	0.100	0.084
-221.640	-149.210	-0.521	0.042
-220.625	662.006	0.013	0.035
-219.611	-133.574	0.110	0.014
-218.596	-71.482	-0.283	-0.106
-217.582	-200.000	0.008	-0.143
-216.567	-200.000	0.052	0.312
-215.552	519.860	0.023	0.053
-214.538	-82.027	0.323	-0.106
-213.523	-128.613	0.157	0.022
-212.509	-200.000	-0.073	0.445
-211.494	87.322	-0.113	0.125
-210.479	-34.449	0.368	0.203
-209.465	49.373	-0.213	-0.201
-208.450	-91.917	-0.006	-0.002
-207.436	-46.714	0.087	0.043
-206.421	-87.206	0.121	0.037
-205.406	255.099	-0.045	-0.077
-204.392	-25.077	0.120	0.071
-203.377	40.333	-0.165	0.149
-202.363	-57.689	-0.197	-0.087
-201.348	-143.303	0.204	-0.020
-200.333	-4.544	-0.024	-0.016
-199.319	-44.248	0.060	-0.030
-198.304	-54.395	0.265	0.120
-197.290	660.451	0.077	-0.199
-196.275	-58.109	-0.107	-0.047
-195.260	206.585	0.218	0.340
-194.246	97.547	-0.083	-0.096
-193.231	725.944	0.051	0.138
-192.217	800.000	-0.051	-0.190
-191.202	-200.000	-0.033	-0.235
-190.187	800.000	0.048	-0.164
-189.173	301.631	-0.209	-0.387
-188.158	-200.000	-0.044	-0.204
-187.144	-120.395	-0.385	0.066
-186.129	-200.000	-0.003	0.134
-185.114	180.496	-0.128	0.188
-184.100	38.337	-0.086	-0.076
-183.085	-200.000	-0.002	-0.217
-182.071	-72.150	-0.155	0.058
-181.056	-195.104	-0.276	-0.002
-180.042	501.607	-0.072	-0.167
-179.027	8.164	-0.220	0.165
-178.012	694.117	-0.022	-0.059
-176.998	-200.000	-0.059	-0.349
-175.983	-26.039	-0.252	0.149
-174.969	800.000	-0.162	0.501
-173.954	-84.391	-0.250	0.079
-172.939	499.281	-0.083	-0.192
-171.925	82.588	-0.171	-0.186
-170.910	-9.068	-0.117	0.078
-169.896	542.079	-0.023	-0.056
-168.881	-200.000	-0.024	-0.216
-167.866	-104.789	0.145	-0.033
-166.852	-31.976	-0.222	0.124
-165.837	800.000	0.066	-0.216
-164.823	-22.429	0.474	-0.287
-163.808	217.767	0.302	-0.482
-162.793	-37.003	0.149	-0.080
-161.779	-200.000	-0.010	-0.140
-160.764	-200.000	0.008	0.036
-159.750	-129.471	0.503	0.070
-158.735	71.759	0.157	0.163
-157.720	-54.202	-0.381	-0.173
-156.706	-200.000	-0.051	-0.233
-155.691	-63.204	-0.218	-0.090
-154.677	-85.637	-0.360	-0.112
-153.662	-104.050	0.128	-0.030
-152.647	-200.000	-0.001	-0.188
-151.633	110.693	0.178	-0.215
-150.618	800.000	-0.077	-0.217
-149.604	-200.000	0.048	0.286
-148.589	-56.793	-0.368	-0.163
-147.574	-119.454	-0.110	0.019
-146.560	213.765	-0.076	0.121
-145.545	22.676	-0.028	-0.023
-144.531	800.000	0.038	-0.154
-143.516	800.000	-0.118	-0.347
-142.502	-200.000	0.018	-0.206
-141.487	-200.000	0.023	0.466
-140.472	416.288	0.178	0.380
-139.458	72.426	0.048	-0.051
-138.443	-7.396	-0.146	0.099
-137.429	-33.672	-0.226	-0.125
-136.414	159.044	0.151	-0.210
-135.399	-50.338	0.292	0.138
-134.385	-161.688	0.249	0.013
-133.370	-38.619	-0.366	0.193
-132.356	-111.707	0.251	0.051
-131.341	-200.000	-0.081	-0.422
-130.326	96.762	0.089	0.102
-129.312	-113.152	-0.449	-0.088
-128.297	-200.000	-0.064	0.428
-127.283	250.600	0.213	0.362
-126.268	-121.977	0.209	-0.034
-125.253	-70.272	0.511	0.194
-124.239	-72.485	0.224	-0.083
-123.224	188.063	-0.016	-0.024
-122.210	-34.830	0.237	0.129
-121.195	345.848	0.127	0.250
