DTS Sentinel unit serial number:	SN413079Multiplexer serial number:	ORYXHardware model number:	OX4-SRSoftware version number:	ORYX F/W v4.00 Oryx Data Collector v3.7.2.0data status	okinstallation	princeton_trtdifferential loss correction	single-endedforward channel	channel 4reverse channel	N/Adate	2019/09/13time	01:25:35forward acquisition time	60.00reverse acquisition time	0.00gamma	496.2192k internal	0.2318k external	0.2318temperature offset calibration	1.0173default loss term (dB/km)	0.3790temperature slope calibration	1.0000multiplexer offset coefficient	1.0000multiplexer slope coefficient	1.0000fibre end	0.00T internal ref (°C)	27.81T ext. ref 1 (°C)	3.71T ext. ref 2 (°C)	22.42length (m)	temperature (°C)	Stokes	anti-Stokes-747.200	800.000	0.046	-0.166
-746.185	58.443	0.159	-0.158
-745.171	-89.160	-0.410	0.123
-744.156	315.127	0.147	0.281
-743.142	-200.000	-0.028	0.152
-742.127	111.428	-0.034	-0.041
-741.112	65.853	0.098	-0.101
-740.098	2.516	-0.161	0.118
-739.083	23.747	0.300	0.250
-738.069	233.953	-0.087	0.145
-737.054	-108.655	-0.289	-0.063
-736.039	-98.587	0.282	-0.073
-735.025	232.584	0.110	-0.182
-734.010	-31.630	-0.150	-0.085
-732.996	-32.326	-0.068	-0.038
-731.981	-140.015	0.261	0.028
-730.966	7.319	-0.120	-0.090
-729.952	-200.000	-0.009	0.068
-728.937	62.451	0.251	0.254
-727.923	0.984	-0.218	-0.158
-726.908	370.517	-0.099	0.203
-725.894	53.603	-0.243	0.236
-724.879	189.441	0.122	-0.186
-723.864	185.657	0.136	0.204
-722.850	70.550	-0.187	-0.196
-721.835	-58.227	0.185	-0.082
-720.821	-89.800	0.114	0.034
-719.806	-127.218	0.299	0.044
-718.791	264.788	0.049	-0.086
-717.777	-64.871	-0.097	0.040
-716.762	66.880	0.066	-0.068
-715.748	-200.000	-0.068	-0.315
-714.733	-76.801	0.220	-0.078
-713.718	72.270	-0.058	0.061
-712.704	740.255	0.153	-0.416
-711.689	-24.895	-0.151	0.090
-710.675	-107.816	-0.336	-0.074
-709.660	69.725	0.239	0.249
-708.645	270.837	0.203	0.362
-707.631	274.587	0.135	-0.242
-706.616	-43.893	0.221	0.112
-705.602	388.479	-0.069	0.144
-704.587	-8.098	-0.080	-0.054
-703.572	800.000	0.069	-0.226
-702.558	355.615	-0.099	0.199
-701.543	250.271	-0.079	-0.135
-700.529	-12.746	0.474	-0.312
-699.514	48.538	0.197	0.186
-698.499	800.000	0.033	0.122
-697.485	-200.000	-0.039	-0.250
-696.470	-122.459	0.150	0.025
-695.456	-81.067	-0.193	-0.065
-694.441	800.000	-0.113	-0.324
-693.426	-29.065	-0.136	0.079
-692.412	-33.215	0.050	0.028
-691.397	800.000	0.073	-0.278
-690.383	-30.068	-0.144	0.083
-689.368	-21.193	0.342	0.211
-688.354	-27.289	0.363	-0.213
-687.339	-13.052	0.087	-0.057
-686.324	162.564	-0.146	-0.207
-685.310	-128.077	0.318	-0.046
-684.295	708.213	-0.041	0.110
-683.281	800.000	0.077	-0.260
-682.266	800.000	0.079	-0.246
-681.251	-167.065	0.213	-0.009
-680.237	400.126	0.074	0.156
-679.222	412.361	0.110	0.236
-678.208	800.000	-0.038	0.152
-677.193	445.563	-0.200	-0.444
-676.178	-200.000	0.045	0.202
-675.164	58.505	0.164	-0.163
-674.149	100.964	0.225	0.264
-673.135	800.000	0.021	0.060
-672.120	589.523	-0.091	0.227
-671.105	272.992	-0.116	0.206
-670.091	-17.196	0.106	-0.067
-669.076	537.147	-0.113	-0.270
-668.062	-37.317	0.057	0.030
-667.047	-126.577	-0.215	-0.032
-666.032	-200.000	-0.009	-0.169
-665.018	-74.685	0.283	0.103
-664.003	-200.000	-0.027	0.201
-662.989	400.409	-0.109	-0.230
-661.974	-200.000	0.038	0.200
-660.959	246.667	0.136	-0.232
-659.945	116.089	0.064	-0.080
-658.930	800.000	-0.023	0.087
-657.916	202.696	0.114	0.177
-656.901	800.000	-0.102	0.350
-655.886	51.580	0.433	-0.415
-654.872	-64.551	0.035	0.014
-653.857	-200.000	0.016	0.138
-652.843	-59.182	0.075	-0.033
-651.828	497.376	-0.122	0.284
-650.814	501.529	0.095	-0.222
-649.799	-8.634	0.127	0.086
-648.784	190.756	0.033	-0.051
-647.770	385.797	-0.151	-0.315
-646.755	-2.119	-0.314	-0.222
-645.741	-200.000	0.003	0.143
-644.726	-76.550	0.217	0.077
-643.711	-126.455	0.148	-0.022
-642.697	800.000	0.076	-0.332
-641.682	506.126	-0.082	0.192
-640.668	105.189	-0.068	0.080
-639.653	-87.741	-0.600	-0.182
-638.638	4.733	0.184	-0.136
-637.624	-200.000	0.035	0.243
-636.609	-200.000	-0.003	-0.116
-635.595	24.956	0.104	0.087
-634.580	-187.455	0.129	0.002
-633.565	-200.000	-0.025	0.136
-632.551	402.426	0.145	-0.308
-631.536	-110.336	0.198	-0.042
-630.522	-200.000	0.026	0.349
-629.507	-173.402	0.104	-0.003
-628.492	-4.257	-0.044	-0.031
-627.478	354.378	-0.175	-0.350
-626.463	155.809	0.145	-0.201
-625.449	105.234	0.279	0.332
-624.434	-69.748	-0.206	0.079
-623.419	27.970	0.195	-0.165
-622.405	-110.999	0.153	-0.032
-621.390	-40.208	0.301	-0.158
-620.376	-164.318	-0.174	-0.008
-619.361	-10.196	-0.339	-0.227
-618.346	800.000	0.053	-0.209
-617.332	310.635	0.130	-0.245
-616.317	398.842	0.110	-0.233
-615.303	85.357	-0.035	-0.038
-614.288	-104.154	-0.101	-0.024
-613.273	-200.000	-0.039	-0.173
-612.259	81.903	0.111	0.122
-611.244	-200.000	-0.010	0.080
-610.230	-109.434	-0.585	0.124
-609.215	443.928	0.130	0.286
-608.201	-113.511	0.220	0.043
-607.186	544.894	0.049	-0.117
-606.171	703.206	-0.134	-0.355
-605.157	-70.605	-0.130	-0.050
-604.142	16.675	-0.145	0.115
-603.128	-103.953	0.115	0.027
-602.113	-176.358	-0.061	0.002
-601.098	800.000	0.080	0.230
-600.084	-105.908	-0.154	0.035
-599.069	15.735	0.121	0.095
-598.055	-130.181	-0.351	0.048
-597.040	162.208	0.237	-0.334
-596.025	-200.000	0.029	-0.151
-595.011	58.588	0.204	-0.202
-593.996	48.531	0.332	-0.313
-592.982	-3.532	-0.065	0.045
-591.967	-145.860	-0.243	0.022
-590.952	42.678	-0.159	0.146
-589.938	800.000	-0.115	-0.353
-588.923	-200.000	0.032	-0.158
-587.909	412.888	0.152	0.324
-586.894	53.907	0.035	-0.034
-585.879	-200.000	0.042	0.439
-584.865	-200.000	0.016	-0.256
-583.850	652.756	-0.178	-0.460
-582.836	48.939	0.148	0.139
-581.821	-109.718	0.116	-0.025
-580.806	67.217	-0.099	0.101
-579.792	-117.221	0.179	0.033
-578.777	-128.706	-0.174	-0.025
-577.763	128.576	0.157	-0.201
-576.748	-97.448	0.021	-0.005
-575.733	-140.820	-0.292	-0.030
-574.719	131.291	-0.110	0.142
-573.704	118.516	-0.089	-0.110
-572.690	68.325	-0.084	0.086
-571.675	-106.547	0.435	0.098
-570.661	199.995	0.083	0.128
-569.646	77.850	0.131	0.140
-568.631	85.052	0.102	-0.112
-567.617	430.545	-0.072	0.157
-566.602	167.774	-0.154	0.221
-565.588	187.864	0.116	0.174
-564.573	-200.000	-0.248	-0.001
-563.558	-62.970	0.224	-0.093
-562.544	56.421	-0.219	-0.214
-561.529	-137.202	-0.139	-0.016
-560.515	-87.443	0.218	-0.066
-559.500	-200.000	0.009	0.100
-558.485	-170.565	0.036	-0.001
-557.471	-55.328	-0.327	0.147
-556.456	-76.846	0.060	-0.021
-555.442	72.119	-0.238	0.249
-554.427	-59.384	0.163	-0.070
-553.412	440.173	-0.080	-0.175
-552.398	-200.000	0.026	-0.375
-551.383	735.144	0.019	0.051
-550.369	800.000	0.064	0.230
-549.354	-181.424	-0.428	0.008
-548.339	-200.000	-0.012	-0.078
-547.325	669.582	0.015	0.038
-546.310	-172.088	-0.226	-0.007
-545.296	-200.000	-0.012	0.104
-544.281	-95.069	-0.091	-0.025
-543.266	484.879	-0.103	0.235
-542.252	-23.678	0.128	-0.077
-541.237	800.000	-0.092	0.338
-540.223	-72.729	-0.154	0.057
-539.208	-200.000	0.001	0.252
-538.193	-82.012	-0.133	-0.043
-537.179	404.320	0.147	-0.311
-536.164	6.976	-0.074	0.055
-535.150	37.482	-0.202	0.180
-534.135	82.044	-0.209	-0.227
-533.121	117.389	-0.231	0.285
-532.106	-176.306	-0.190	0.005
-531.091	-37.152	-0.159	0.085
-530.077	-56.906	-0.261	-0.116
-529.062	-82.359	0.155	-0.051
-528.048	500.122	-0.055	0.128
-527.033	51.147	-0.120	-0.114
-526.018	2.966	0.240	-0.175
-525.004	131.106	0.265	0.341
-523.989	689.563	0.049	0.128
-522.975	74.394	0.126	0.132
-521.960	-79.854	0.170	-0.057
-520.945	-200.000	-0.003	-0.073
-519.931	-108.539	-0.129	0.028
-518.916	90.973	0.288	0.324
-517.902	-200.000	-0.023	0.166
-516.887	108.002	-0.125	-0.150
-515.872	-183.400	0.250	-0.004
-514.858	23.710	0.122	-0.101
-513.843	259.744	0.084	-0.146
-512.829	150.721	-0.082	-0.111
-511.814	-3.493	0.213	-0.148
-510.799	800.000	0.113	-0.353
-509.785	-4.437	0.038	0.026
-508.770	-61.320	0.174	0.074
-507.756	100.473	-0.215	-0.250
-506.741	110.544	0.097	-0.117
-505.726	440.961	0.127	0.278
-504.712	-71.604	-0.137	0.051
-503.697	800.000	-0.024	-0.090
-502.683	203.433	-0.275	-0.426
-501.668	-82.806	0.246	0.080
-500.653	800.000	0.067	0.293
-499.639	-48.145	0.174	-0.084
-498.624	-200.000	0.084	0.385
-497.610	800.000	0.037	0.114
-496.595	-58.498	-0.520	-0.226
-495.581	-10.919	0.332	-0.220
-494.566	-200.000	-0.021	-0.091
-493.551	800.000	-0.055	-0.182
-492.537	11.602	0.165	0.127
-491.522	-23.119	-0.348	0.210
-490.508	215.838	-0.119	-0.189
-489.493	-113.617	0.444	-0.087
-488.478	-131.126	0.228	-0.030
-487.464	-189.167	0.503	-0.006
-486.449	-142.885	0.139	-0.014
-485.435	-180.214	0.166	0.003
-484.420	66.258	0.111	0.113
-483.405	23.635	0.294	-0.242
-482.391	-200.000	0.033	-0.306
-481.376	363.625	0.076	-0.153
-480.362	-200.000	0.066	-0.289
-479.347	154.495	-0.237	-0.325
-478.332	-94.531	0.109	-0.030
-477.318	-66.109	-0.073	0.029
-476.303	-26.147	-0.081	-0.048
-475.289	-69.091	-0.299	-0.115
-474.274	85.772	0.070	-0.077
-473.259	-87.145	-0.489	0.149
-472.245	-200.000	0.044	-0.402
-471.230	-123.023	-0.243	-0.039
-470.216	800.000	0.068	-0.265
-469.201	800.000	0.035	-0.113
-468.186	-124.240	-0.113	-0.018
-467.172	-94.791	-0.141	-0.038
-466.157	-68.687	0.198	0.077
-465.143	-91.024	-0.355	-0.102
-464.128	-160.513	-0.248	0.013
-463.113	800.000	-0.061	0.174
-462.099	167.391	0.103	-0.147
-461.084	-13.700	0.162	-0.105
-460.070	-139.593	-0.304	0.032
-459.055	-112.498	-0.073	-0.015
-458.040	-31.474	0.179	-0.101
-457.026	296.392	0.198	0.363
-456.011	49.446	0.070	-0.066
-454.997	-86.502	0.246	0.076
-453.982	-111.931	0.172	0.035
-452.968	-200.000	-0.014	0.275
-451.953	-200.000	-0.001	-0.071
-450.938	800.000	-0.073	0.236
-449.924	84.994	0.084	0.092
-448.909	-138.412	0.237	-0.026
-447.895	800.000	-0.083	0.363
-446.880	-49.192	0.207	0.099
-445.865	-200.000	-0.045	0.246
-444.851	-72.859	-0.077	0.028
-443.836	-200.000	0.015	-0.083
-442.822	-0.915	-0.396	-0.281
-441.807	153.241	-0.064	-0.088
-440.792	-26.636	0.126	0.074
-439.778	-78.200	-0.221	-0.076
-438.763	-106.181	-0.173	-0.039
-437.749	-76.525	-0.078	0.027
-436.734	146.391	0.200	-0.269
-435.719	-68.990	0.282	-0.109
-434.705	216.159	0.189	-0.300
-433.690	-58.077	0.364	-0.159
-432.676	-200.000	-0.056	-0.336
-431.661	-80.211	0.253	0.085
-430.646	47.742	-0.166	0.155
-429.632	-164.190	-0.324	0.015
-428.617	166.651	-0.162	-0.230
-427.603	-200.000	-0.017	0.114
-426.588	-200.000	-0.006	0.093
-425.573	800.000	-0.046	-0.191
-424.559	-200.000	-0.046	0.264
-423.544	-200.000	-0.023	0.301
-422.530	-54.863	0.236	-0.107
-421.515	120.646	-0.269	-0.334
-420.500	324.985	-0.168	-0.320
-419.486	-10.985	-0.354	-0.233
-418.471	-181.389	0.254	0.005
-417.457	116.644	-0.197	0.241
-416.442	274.638	0.110	-0.195
-415.428	-195.410	-0.116	0.001
-414.413	-33.309	0.008	0.005
-413.398	-45.684	0.215	0.106
-412.384	-196.916	-0.150	0.001
-411.369	800.000	-0.025	-0.109
-410.355	-83.777	0.389	0.124
-409.340	-132.133	0.265	-0.034
-408.325	-3.769	0.402	0.279
-407.311	129.215	0.065	-0.083
-406.296	-153.861	-0.118	-0.008
-405.282	-7.776	-0.185	-0.125
-404.267	362.694	-0.031	-0.062
-403.252	172.991	0.259	0.372
-402.238	-121.394	-0.218	-0.036
-401.223	800.000	0.032	-0.099
-400.209	-109.302	0.133	0.028
-399.194	304.239	0.141	-0.261
-398.179	-6.434	0.112	-0.076
-397.165	-200.000	0.042	-0.356
-396.150	-200.000	-0.011	-0.129
-395.136	91.512	-0.165	0.185
-394.121	-10.140	-0.168	0.111
-393.106	-88.587	-0.329	0.098
-392.092	35.081	-0.163	0.142
-391.077	-132.079	0.530	0.069
-390.063	74.102	-0.040	0.042
-389.048	-29.041	0.085	0.049
-388.033	-200.000	-0.015	0.165
-387.019	131.259	0.048	0.061
-386.004	112.202	-0.111	0.133
-384.990	-109.065	-0.170	0.036
-383.975	20.685	-0.063	-0.051
-382.960	122.825	-0.081	0.101
-381.946	-57.833	0.209	-0.091
-380.931	-75.453	0.215	0.076
-379.917	-15.286	-0.139	-0.088
-378.902	800.000	-0.031	-0.089
-377.888	-200.000	-0.051	0.230
-376.873	-200.000	0.022	0.189
-375.858	-200.000	-0.002	-0.045
-374.844	-200.000	-0.006	0.179
-373.829	27.743	0.059	-0.050
-372.815	-89.433	-0.355	0.104
-371.800	-34.955	0.211	-0.115
-370.785	-200.000	0.010	-0.160
-369.771	315.749	0.086	0.162
-368.756	500.515	-0.031	0.071
-367.742	800.000	-0.052	0.161
-366.727	-56.669	0.304	-0.134
-365.712	281.077	-0.125	-0.223
-364.698	-49.952	0.187	0.088
-363.683	-44.964	0.157	-0.078
-362.669	140.047	-0.134	-0.177
-361.654	478.532	0.164	0.369
-360.639	-49.350	0.071	0.034
-359.625	282.670	0.086	0.154
-358.610	-33.430	0.205	0.113
-357.596	21.051	-0.201	0.162
-356.581	800.000	0.034	0.145
-355.566	-100.722	0.180	0.044
-354.552	-200.000	0.008	0.136
-353.537	800.000	0.075	0.216
-352.523	-200.000	0.019	-0.327
-351.508	154.412	0.138	-0.189
-350.493	-12.100	-0.458	0.299
-349.479	-73.258	-0.116	0.042
-348.464	65.774	0.227	0.229
-347.450	292.413	-0.080	-0.144
-346.435	-34.982	0.098	0.053
-345.420	-5.870	-0.239	-0.163
-344.406	616.867	0.073	0.183
-343.391	-40.138	-0.110	-0.057
-342.377	67.740	-0.115	-0.117
-341.362	-170.813	-0.111	0.004
-340.348	-127.132	0.241	0.035
-339.333	-154.790	-0.478	0.032
-338.318	535.431	0.122	-0.289
-337.304	-200.000	-0.050	-0.335
-336.289	-0.325	-0.231	0.164
-335.275	-200.000	0.032	0.174
-334.260	-200.000	-0.010	-0.205
-333.245	-48.280	-0.193	0.093
-332.231	-16.237	0.196	-0.124
-331.216	137.209	0.271	-0.353
-330.202	339.487	0.055	0.106
-329.187	569.269	-0.043	-0.103
-328.172	800.000	-0.032	-0.093
-327.158	-200.000	0.071	-0.406
-326.143	-131.976	-0.158	-0.020
-325.129	478.067	0.076	0.170
-324.114	84.435	-0.177	-0.192
-323.099	-200.000	-0.015	0.300
-322.085	-200.000	0.009	0.359
-321.070	624.961	0.130	-0.325
-320.056	-200.000	-0.002	-0.076
-319.041	31.195	0.163	-0.140
-318.026	-200.000	-0.273	0.000
-317.012	-198.546	-0.199	0.001
-315.997	-200.000	-0.022	0.231
-314.983	-40.918	-0.132	-0.068
-313.968	-133.408	-0.137	0.017
-312.953	-70.742	-0.212	-0.080
-311.939	-85.711	-0.270	0.083
-310.924	-195.702	0.033	0.000
-309.910	-192.917	0.310	0.003
-308.895	-200.000	0.013	-0.263
-307.880	-200.000	0.054	-0.289
-306.866	-8.863	0.101	0.067
-305.851	-22.508	0.285	0.171
-304.837	72.514	0.308	0.319
-303.822	-97.987	0.409	-0.105
-302.807	-74.233	-0.412	-0.148
-301.793	-131.085	-0.048	-0.006
-300.778	67.539	0.203	0.206
-299.764	-45.191	-0.022	0.011
-298.749	63.278	-0.062	-0.061
-297.735	-99.852	0.219	0.055
-296.720	546.937	0.081	0.192
-295.705	97.619	0.149	0.170
-294.691	180.633	0.155	-0.226
-293.676	-200.000	-0.034	-0.159
-292.662	-88.221	0.137	0.041
-291.647	-200.000	0.024	0.299
-290.632	67.594	-0.132	-0.134
-289.618	133.496	-0.098	-0.125
-288.603	-71.261	-0.102	0.038
-287.589	-200.000	0.040	-0.278
-286.574	800.000	-0.012	0.043
-285.559	26.193	-0.293	0.244
-284.545	-200.000	0.018	0.237
-283.530	132.361	0.181	0.232
-282.516	45.202	-0.144	0.132
-281.501	562.576	0.017	-0.042
-280.486	-43.408	-0.249	0.125
-279.472	-63.346	-0.144	-0.059
-278.457	-14.974	0.045	0.029
-277.443	-200.000	-0.083	0.528
-276.428	533.619	0.023	0.055
-275.413	122.703	-0.120	0.149
-274.399	-95.951	0.378	-0.100
-273.384	-130.794	-0.159	-0.021
-272.370	-31.083	0.329	-0.185
-271.355	90.460	-0.215	-0.239
-270.340	267.443	-0.062	0.107
-269.326	139.525	-0.061	0.080
-268.311	34.309	-0.063	-0.054
-267.297	211.787	-0.191	0.299
-266.282	60.918	-0.183	0.181
-265.267	800.000	-0.183	0.553
-264.253	15.235	-0.096	0.075
-263.238	11.693	-0.427	-0.325
-262.224	-16.572	-0.293	0.184
-261.209	-165.200	-0.197	-0.009
-260.195	-200.000	-0.037	-0.356
-259.180	-200.000	0.038	-0.204
-258.165	211.466	-0.105	-0.164
-257.151	800.000	-0.055	0.218
-256.136	-105.431	0.205	0.046
-255.122	17.151	-0.139	-0.110
-254.107	-200.000	0.016	0.243
-253.092	-137.918	0.282	0.031
-252.078	70.000	0.203	0.208
-251.063	555.538	-0.160	0.382
-250.049	-85.357	-0.328	-0.102
-249.034	96.878	0.300	-0.341
-248.019	-55.735	-0.291	-0.129
-247.005	-80.456	0.335	-0.111
-245.990	-157.428	-0.103	-0.006
-244.976	-50.198	0.405	0.190
-243.961	800.000	-0.052	-0.155
-242.946	-149.132	0.070	0.006
-241.932	120.576	0.085	0.105
-240.917	-200.000	-0.042	0.231
-239.903	-200.000	0.008	0.200
-238.888	427.875	-0.149	-0.319
-237.873	376.897	-0.245	0.496
-236.859	104.944	-0.233	-0.272
-235.844	-200.000	0.029	0.205
-234.830	110.220	-0.048	-0.057
-233.815	800.000	-0.049	0.186
-232.800	-200.000	0.038	-0.169
-231.786	-37.449	-0.213	0.113
-230.771	-200.000	-0.009	-0.271
-229.757	51.322	0.258	0.243
-228.742	263.077	0.052	0.089
-227.727	139.645	-0.101	-0.131
-226.713	422.007	0.033	-0.071
-225.698	-200.000	0.007	0.261
-224.684	93.004	-0.153	-0.171
-223.669	800.000	-0.040	-0.127
-222.655	-137.296	0.352	-0.040
-221.640	33.521	0.081	0.070
-220.625	179.415	-0.056	0.082
-219.611	-17.771	0.076	0.047
-218.596	800.000	-0.051	0.188
-217.582	-97.625	-0.037	-0.009
-216.567	-120.129	-0.285	-0.048
-215.552	-96.583	-0.285	0.075
-214.538	-200.000	-0.060	0.414
-213.523	347.933	0.131	0.255
-212.509	165.656	0.188	-0.264
-211.494	-121.427	0.040	-0.007
-210.479	-16.195	-0.036	-0.022
-209.465	800.000	-0.090	0.278
-208.450	-158.627	0.229	-0.013
-207.436	-100.583	0.255	-0.062
-206.421	71.135	0.154	-0.159
-205.406	800.000	0.027	-0.102
-204.392	52.049	0.179	-0.169
-203.377	63.603	-0.035	-0.035
-202.363	-75.904	0.152	0.053
-201.348	-200.000	-0.003	0.066
-200.333	69.754	-0.361	0.369
-199.319	-175.637	-0.369	0.010
-198.304	5.169	0.138	0.101
-197.290	632.982	0.241	0.606
-196.275	-33.040	-0.054	-0.030
-195.260	-200.000	0.033	0.223
-194.246	587.282	0.058	0.140
-193.231	800.000	0.067	-0.217
-192.217	32.607	-0.323	-0.276
-191.202	-101.725	0.316	0.076
-190.187	-158.786	0.419	-0.024
-189.173	-144.969	0.206	0.019
-188.158	153.848	0.165	-0.223
-187.144	-200.000	-0.006	-0.274
-186.129	55.242	-0.259	0.248
-185.114	-17.611	0.175	0.109
-184.100	-50.773	-0.079	0.037
-183.085	-63.273	-0.288	-0.117
-182.071	-106.037	0.120	0.027
-181.056	-200.000	0.094	0.425
-180.042	248.511	0.079	-0.132
-179.027	12.424	-0.304	0.232
-178.012	207.576	0.198	-0.307
-176.998	-200.000	-0.019	-0.119
-175.983	303.857	-0.168	-0.309
-174.969	-108.897	-0.172	0.036
-173.954	-64.244	-0.183	-0.074
-172.939	-21.346	0.145	0.088
-171.925	-137.605	0.564	-0.063
-170.910	117.202	-0.138	-0.167
-169.896	-200.000	-0.032	0.377
-168.881	64.171	0.170	-0.170
-167.866	-182.758	0.180	0.003
-166.852	-58.913	0.132	0.057
-165.837	-200.000	-0.126	-0.000
-164.823	-118.465	0.038	0.007
-163.808	-200.000	-0.018	-0.124
-162.793	-70.706	0.047	-0.017
-161.779	9.277	-0.297	0.222
-160.764	206.463	0.092	-0.142
-159.750	-200.000	-0.021	0.248
-158.735	120.259	0.081	-0.099
-157.720	-86.474	0.162	-0.049
-156.706	42.697	-0.093	0.083
-155.691	-200.000	0.024	0.205
-154.677	-106.979	-0.398	-0.087
-153.662	166.623	-0.025	-0.035
-152.647	576.243	0.081	-0.195
-151.633	358.239	0.085	0.169
-150.618	-147.372	0.296	0.025
-149.604	800.000	-0.017	-0.058
-148.589	19.278	0.237	0.188
-147.574	-62.620	-0.225	-0.092
-146.560	-7.276	-0.072	-0.048
-145.545	800.000	-0.052	0.182
-144.531	-105.861	-0.048	-0.011
-143.516	-200.000	0.016	0.199
-142.502	74.035	-0.111	0.115
-141.487	-109.185	0.068	0.014
-140.472	-106.774	-0.194	0.043
-139.458	-160.547	0.078	0.004
-138.443	-56.051	0.236	0.104
-137.429	-137.604	-0.129	0.014
-136.414	-200.000	-0.001	0.455
-135.399	-117.242	0.268	-0.048
-134.385	323.243	0.068	0.128
-133.370	-200.000	-0.036	0.216
-132.356	540.641	-0.057	-0.133
-131.341	-110.842	-0.114	0.023
-130.326	-135.571	-0.272	-0.032
-129.312	56.826	0.190	-0.183
-128.297	789.142	0.086	-0.233
-127.283	219.048	0.080	-0.127
-126.268	551.298	0.036	0.086
-125.253	95.811	-0.204	-0.230
-124.239	-200.000	-0.014	0.201
-123.224	156.067	0.114	0.156
-122.210	90.548	-0.071	0.079
-121.195	292.474	-0.134	0.242
