DTS Sentinel unit serial number:	SN413079Multiplexer serial number:	ORYXHardware model number:	OX4-SRSoftware version number:	ORYX F/W v4.00 Oryx Data Collector v3.7.2.0data status	okinstallation	princeton_trtdifferential loss correction	single-endedforward channel	channel 4reverse channel	N/Adate	2019/09/18time	22:17:34forward acquisition time	60.00reverse acquisition time	0.00gamma	496.2192k internal	0.2333k external	0.2333temperature offset calibration	1.0027default loss term (dB/km)	0.3790temperature slope calibration	1.0000multiplexer offset coefficient	1.0000multiplexer slope coefficient	1.0000fibre end	0.00T internal ref (°C)	24.37T ext. ref 1 (°C)	0.79T ext. ref 2 (°C)	18.20length (m)	temperature (°C)	Stokes	anti-Stokes-747.200	239.999	-0.199	0.334
-746.185	800.000	-0.049	0.146
-745.171	-67.816	-0.363	-0.143
-744.156	800.000	0.023	0.068
-743.142	-200.000	-0.005	0.144
-742.127	-200.000	0.026	0.167
-741.112	-49.267	-0.124	0.059
-740.098	-107.004	-0.040	0.009
-739.083	-43.984	0.272	0.137
-738.069	800.000	-0.028	0.082
-737.054	5.381	0.068	-0.050
-736.039	430.674	-0.058	-0.126
-735.025	-26.410	0.356	0.210
-734.010	-200.000	0.007	0.070
-732.996	-71.532	0.061	-0.023
-731.981	800.000	-0.118	0.442
-730.966	-200.000	0.089	-0.404
-729.952	-200.000	-0.018	-0.181
-728.937	54.490	-0.137	0.133
-727.923	-66.635	-0.223	0.089
-726.908	-146.039	0.273	-0.024
-725.894	-200.000	0.061	-0.341
-724.879	-118.021	-0.127	0.023
-723.864	222.499	-0.179	-0.290
-722.850	47.580	-0.200	-0.187
-721.835	39.256	-0.154	-0.139
-720.821	519.123	-0.125	-0.295
-719.806	-11.405	-0.196	-0.129
-718.791	-166.604	-0.453	-0.019
-717.777	188.478	-0.132	0.199
-716.762	25.414	-0.323	-0.270
-715.748	93.863	-0.155	-0.177
-714.733	-33.925	0.177	-0.098
-713.718	-167.991	-0.294	0.012
-712.704	-26.398	0.058	-0.034
-711.689	-172.014	-0.199	0.006
-710.675	341.522	-0.081	-0.159
-709.660	-121.014	-0.357	0.060
-708.645	61.147	0.077	0.077
-707.631	65.251	0.097	-0.099
-706.616	-200.000	0.007	-0.068
-705.602	149.407	-0.085	-0.116
-704.587	38.709	0.191	-0.171
-703.572	-85.209	-0.345	0.108
-702.558	25.419	0.135	0.113
-701.543	-79.030	-0.291	0.099
-700.529	-73.316	-0.091	0.033
-699.514	800.000	-0.029	0.096
-698.499	731.980	0.041	-0.110
-697.485	266.592	0.008	0.014
-696.470	-200.000	0.011	0.158
-695.456	302.231	0.194	0.360
-694.441	-200.000	0.015	-0.073
-693.426	800.000	-0.122	0.465
-692.412	-170.475	-0.223	-0.008
-691.397	66.610	-0.155	0.159
-690.383	-200.000	-0.055	0.243
-689.368	641.792	-0.017	0.043
-688.354	-183.355	0.350	0.006
-687.339	-130.508	0.228	-0.031
-686.324	-136.999	-0.192	-0.022
-685.310	-132.562	-0.055	-0.007
-684.295	-12.839	-0.124	0.081
-683.281	-200.000	-0.031	-0.280
-682.266	53.004	-0.181	-0.174
-681.251	-137.710	0.458	0.052
-680.237	-200.000	-0.035	0.374
-679.222	-40.605	-0.599	0.312
-678.208	-16.923	0.243	0.154
-677.193	-105.921	-0.204	0.046
-676.178	168.289	0.134	0.191
-675.164	57.429	0.254	-0.248
-674.149	-68.433	-0.219	0.085
-673.135	618.964	0.106	-0.266
-672.120	-65.743	-0.086	-0.035
-671.105	11.349	-0.059	-0.046
-670.091	-31.686	-0.297	-0.167
-669.076	-103.843	-0.134	-0.031
-668.062	197.782	-0.068	0.105
-667.047	-200.000	0.035	-0.185
-666.032	19.826	-0.209	-0.169
-665.018	212.238	-0.093	-0.146
-664.003	-106.600	-0.261	-0.058
-662.989	800.000	-0.004	-0.017
-661.974	205.008	-0.030	0.046
-660.959	402.496	-0.047	-0.100
-659.945	145.487	0.152	0.204
-658.930	-98.942	0.167	0.043
-657.916	-104.215	-0.370	-0.086
-656.901	-39.505	0.187	-0.098
-655.886	385.814	0.062	-0.128
-654.872	-131.093	-0.348	0.047
-653.857	-12.948	-0.371	-0.242
-652.843	-79.266	-0.143	0.049
-651.828	23.999	-0.168	0.139
-650.814	500.677	-0.064	0.149
-649.799	-200.000	-0.002	0.043
-648.784	253.443	0.079	0.135
-647.770	-61.610	-0.102	-0.043
-646.755	255.589	0.210	0.361
-645.741	-74.708	-0.292	0.105
-644.726	-137.309	0.367	0.042
-643.711	-200.000	-0.011	0.192
-642.697	-112.949	0.136	0.027
-641.682	585.388	-0.112	-0.275
-640.668	-15.030	-0.132	-0.085
-639.653	-40.806	-0.128	0.066
-638.638	-141.498	0.047	-0.005
-637.624	278.799	-0.108	0.194
-636.609	-106.686	0.108	0.024
-635.595	-121.412	0.229	-0.038
-634.580	800.000	0.039	-0.113
-633.565	386.733	-0.080	-0.165
-632.551	-35.676	-0.225	0.122
-631.536	-145.643	-0.302	-0.027
-630.522	34.854	0.357	0.312
-629.507	238.821	0.092	0.154
-628.492	536.844	-0.031	0.074
-627.478	-151.159	0.126	-0.009
-626.463	-51.875	0.108	-0.050
-625.449	-200.000	-0.062	-0.299
-624.434	568.414	-0.052	0.126
-623.419	-120.636	-0.097	-0.016
-622.405	-34.250	-0.200	-0.110
-621.390	-200.000	0.007	0.202
-620.376	762.128	-0.129	0.350
-619.361	800.000	-0.030	-0.123
-618.346	152.251	0.085	0.117
-617.332	800.000	0.043	-0.176
-616.317	53.822	-0.076	-0.073
-615.303	48.476	0.035	-0.033
-614.288	-36.289	0.343	0.185
-613.273	800.000	0.050	0.167
-612.259	-95.340	0.231	0.062
-611.244	182.803	-0.138	-0.204
-610.230	25.273	0.063	0.053
-609.215	81.460	-0.052	0.057
-608.201	597.140	0.065	-0.161
-607.186	-90.243	-0.142	0.041
-606.171	-125.026	0.076	-0.012
-605.157	210.513	-0.093	0.146
-604.142	647.304	-0.079	0.201
-603.128	-55.069	0.315	-0.142
-602.113	-16.803	-0.436	-0.275
-601.098	2.545	0.048	0.034
-600.084	5.319	-0.134	-0.099
-599.069	-102.875	-0.293	0.070
-598.055	-19.479	-0.152	-0.094
-597.040	-200.000	0.071	0.514
-596.025	-200.000	-0.042	0.312
-595.011	484.778	0.091	-0.208
-593.996	21.902	-0.298	0.243
-592.982	-38.666	-0.200	0.106
-591.967	-60.937	0.172	-0.073
-590.952	800.000	0.131	0.525
-589.938	-107.410	0.289	-0.063
-588.923	-20.797	0.026	0.016
-587.909	800.000	0.030	0.104
-586.894	-126.072	0.452	0.068
-585.879	-145.483	0.041	0.004
-584.865	-96.313	-0.321	-0.085
-583.850	-144.746	-0.362	-0.033
-582.836	800.000	-0.088	0.274
-581.821	150.960	-0.211	-0.286
-580.806	-157.076	-0.293	0.018
-579.792	-110.532	0.348	0.072
-578.777	-85.407	0.060	-0.019
-577.763	347.974	-0.139	-0.275
-576.748	-43.357	-0.287	0.145
-575.733	-91.274	0.036	0.010
-574.719	3.053	0.177	-0.128
-573.704	4.937	-0.192	0.141
-572.690	-150.727	0.063	0.005
-571.675	800.000	0.097	0.269
-570.661	-100.429	0.533	-0.132
-569.646	-83.223	-0.138	0.044
-568.631	-122.410	-0.143	0.023
-567.617	-38.346	-0.171	0.091
-566.602	-200.000	0.016	-0.391
-565.588	800.000	-0.048	-0.177
-564.573	-200.000	-0.016	0.155
-563.558	4.742	-0.095	0.070
-562.544	-54.273	-0.114	0.052
-561.529	800.000	0.123	-0.387
-560.515	51.184	0.293	-0.278
-559.500	97.764	-0.071	-0.082
-558.485	183.242	-0.094	-0.139
-557.471	-14.160	-0.277	-0.179
-556.456	-57.398	0.141	0.062
-555.442	63.316	-0.036	-0.036
-554.427	42.452	-0.133	-0.121
-553.412	-7.941	-0.245	-0.165
-552.398	49.872	0.067	0.063
-551.383	-200.000	-0.046	0.217
-550.369	800.000	0.006	0.027
-549.354	800.000	0.043	-0.119
-548.339	-155.449	0.199	-0.013
-547.325	-200.000	-0.069	-0.323
-546.310	800.000	0.051	0.169
-545.296	102.551	0.042	-0.049
-544.281	402.758	-0.180	0.377
-543.266	71.504	-0.167	0.173
-542.252	-200.000	0.044	-0.255
-541.237	-52.531	-0.163	-0.075
-540.223	64.200	0.404	0.406
-539.208	-200.000	0.009	0.338
-538.193	35.727	-0.174	0.152
-537.179	-0.976	0.272	-0.192
-536.164	239.503	0.047	-0.078
-535.150	800.000	0.100	0.276
-534.135	-106.994	0.108	0.024
-533.121	-131.161	0.166	-0.022
-532.106	-152.898	-0.098	-0.007
-531.091	-172.084	-0.183	0.006
-530.077	-200.000	-0.118	-0.542
-529.062	-200.000	-0.012	0.094
-528.048	74.852	0.153	0.161
-527.033	800.000	0.127	0.363
-526.018	-200.000	-0.039	-0.184
-525.004	-200.000	-0.017	0.318
-523.989	-122.890	-0.229	0.037
-522.975	-4.664	-0.236	-0.162
-521.960	-180.845	0.049	-0.001
-520.945	47.934	-0.309	-0.288
-519.931	-2.700	0.029	-0.020
-518.916	-69.969	-0.427	-0.162
-517.902	-200.000	0.004	-0.263
-516.887	-57.220	-0.265	-0.116
-515.872	-200.000	0.004	-0.225
-514.858	326.018	0.079	-0.150
-513.843	-82.328	-0.384	0.124
-512.829	-200.000	0.000	0.183
-511.814	800.000	0.065	0.248
-510.799	205.077	-0.039	-0.060
-509.785	800.000	0.090	-0.280
-508.770	79.133	-0.190	0.203
-507.756	800.000	0.046	-0.193
-506.741	228.542	0.133	0.215
-505.726	-137.729	-0.285	-0.032
-504.712	-200.000	-0.006	0.120
-503.697	285.917	0.094	0.169
-502.683	-107.720	-0.121	-0.026
-501.668	800.000	0.088	-0.260
-500.653	300.016	0.074	-0.136
-499.639	-42.553	0.128	0.065
-498.624	585.885	0.114	-0.280
-497.610	-0.009	0.320	0.227
-496.595	162.848	0.237	-0.332
-495.581	69.693	0.152	-0.156
-494.566	-50.828	-0.055	-0.026
-493.551	-74.069	0.248	0.089
-492.537	-133.386	-0.398	0.050
-491.522	-32.411	0.317	0.176
-490.508	-153.245	-0.240	0.017
-489.493	-200.000	-0.042	0.262
-488.478	800.000	-0.201	0.567
-487.464	37.692	-0.173	0.153
-486.449	163.306	-0.194	0.272
-485.435	-18.641	-0.151	0.094
-484.420	304.673	0.045	0.084
-483.405	-200.000	0.026	-0.348
-482.391	-26.292	-0.150	-0.087
-481.376	81.967	-0.116	-0.125
-480.362	-200.000	0.013	0.134
-479.347	-94.894	-0.193	0.052
-478.332	-60.049	-0.183	0.078
-477.318	-200.000	0.007	-0.110
-476.303	588.832	-0.019	0.047
-475.289	38.637	0.177	-0.157
-474.274	-200.000	0.015	0.165
-473.259	102.885	-0.188	-0.219
-472.245	36.978	0.064	-0.057
-471.230	-179.946	0.288	0.006
-470.216	-200.000	-0.023	-0.130
-469.201	800.000	-0.098	-0.409
-468.186	-200.000	0.020	-0.254
-467.172	-99.432	-0.184	0.046
-466.157	-81.102	-0.166	-0.055
-465.143	206.656	-0.138	-0.213
-464.128	-51.780	0.157	-0.073
-463.113	800.000	-0.101	0.282
-462.099	-153.394	-0.135	-0.009
-461.084	94.809	-0.056	0.064
-460.070	-200.000	-0.071	-0.510
-459.055	-161.091	-0.199	-0.010
-458.040	12.521	0.137	-0.105
-457.026	-153.358	0.489	0.034
-456.011	355.137	-0.041	0.082
-454.997	82.828	-0.131	-0.141
-453.982	352.185	0.070	-0.138
-452.968	-79.007	0.338	0.114
-451.953	-200.000	-0.028	-0.131
-450.938	-52.847	0.175	-0.080
-449.924	308.917	0.099	0.184
-448.909	405.601	-0.120	0.251
-447.895	-98.304	0.287	-0.073
-446.880	77.482	-0.088	-0.093
-445.865	457.957	-0.036	-0.079
-444.851	-200.000	0.003	-0.344
-443.836	54.829	-0.167	-0.160
-442.822	253.351	0.079	0.135
-441.807	70.517	0.187	-0.192
-440.792	59.677	-0.173	-0.170
-439.778	-31.973	0.295	-0.164
-438.763	423.842	0.108	0.232
-437.749	380.518	-0.089	0.181
-436.734	287.797	-0.211	-0.380
-435.719	-170.206	-0.244	0.009
-434.705	49.047	-0.157	-0.147
-433.690	-168.289	-0.229	-0.009
-432.676	-200.000	-0.049	0.273
-431.661	-96.429	-0.177	0.046
-430.646	66.254	-0.105	-0.106
-429.632	-200.000	0.014	-0.101
-428.617	800.000	-0.081	-0.258
-427.603	-165.590	0.217	-0.009
-426.588	-33.493	-0.061	0.033
-425.573	285.452	-0.158	-0.283
-424.559	74.280	0.286	0.299
-423.544	-200.000	0.020	-0.182
-422.530	800.000	-0.030	-0.114
-421.515	-100.447	0.130	-0.032
-420.500	-120.362	0.193	0.033
-419.486	800.000	0.087	0.321
-418.471	-20.429	0.062	0.038
-417.457	-200.000	0.079	-0.414
-416.442	-200.000	-0.010	-0.208
-415.428	254.430	0.108	-0.183
-414.413	-134.228	-0.139	-0.017
-413.398	535.027	0.127	0.300
-412.384	337.255	0.176	-0.339
-411.369	202.967	0.181	0.278
-410.355	-122.111	-0.166	-0.027
-409.340	800.000	0.090	-0.275
-408.325	-86.164	-0.177	-0.054
-407.311	800.000	0.086	0.293
-406.296	286.186	0.049	-0.088
-405.282	-200.000	0.015	-0.146
-404.267	671.254	-0.102	0.263
-403.252	-200.000	-0.024	0.194
-402.238	-97.261	0.068	-0.018
-401.223	-17.865	0.182	-0.113
-400.209	-200.000	0.006	0.257
-399.194	800.000	0.041	-0.115
-398.179	800.000	0.069	-0.197
-397.165	795.438	-0.145	0.397
-396.150	-177.700	0.261	0.006
-395.136	261.790	-0.127	-0.218
-394.121	4.353	0.071	0.051
-393.106	-200.000	0.025	-0.199
-392.092	-137.558	-0.341	-0.038
-391.077	552.247	-0.147	0.351
-390.063	8.327	-0.370	0.276
-389.048	-142.482	0.316	0.031
-388.033	214.995	0.100	-0.157
-387.019	40.109	0.226	0.201
-386.004	85.415	-0.012	-0.013
-384.990	-28.473	-0.094	0.053
-383.975	9.827	0.097	0.073
-382.960	41.769	0.260	0.233
-381.946	-200.000	-0.024	0.207
-380.931	-200.000	0.012	0.230
-379.917	209.302	-0.155	0.240
-378.902	-54.721	-0.078	-0.035
-377.888	165.513	0.183	0.256
-376.873	453.553	-0.139	-0.305
-375.858	-57.977	0.139	0.060
-374.844	58.564	-0.059	-0.058
-373.829	-23.093	-0.086	-0.052
-372.815	-200.000	-0.033	0.281
-371.800	-56.144	-0.204	0.090
-370.785	10.122	-0.102	0.077
-369.771	-85.486	0.064	0.020
-368.756	49.943	0.093	-0.087
-367.742	800.000	0.144	-0.393
-366.727	-153.281	-0.210	0.014
-365.712	-90.121	-0.157	-0.045
-364.698	-200.000	-0.041	-0.248
-363.683	-31.905	-0.303	-0.168
-362.669	157.945	-0.173	0.237
-361.654	54.604	-0.294	-0.281
-360.639	28.752	-0.260	-0.219
-359.625	730.726	-0.035	0.094
-358.610	-131.038	0.316	0.042
-357.596	-95.579	0.378	-0.100
-356.581	-48.582	-0.058	0.027
-355.566	105.047	-0.043	-0.051
-354.552	195.481	-0.147	0.221
-353.537	-130.636	-0.195	0.026
-352.523	-69.923	-0.144	0.055
-351.508	-129.281	0.327	0.045
-350.493	-68.726	-0.334	-0.128
-349.479	-200.000	0.028	-0.362
-348.464	-39.449	-0.227	-0.118
-347.450	-99.262	0.254	0.063
-346.435	98.130	-0.109	-0.125
-345.420	-130.305	-0.148	0.020
-344.406	-103.505	0.252	0.059
-343.391	-25.959	0.158	0.092
-342.377	-200.000	0.275	-0.001
-341.362	-200.000	0.016	0.134
-340.348	-22.037	0.182	0.109
-339.333	-200.000	-0.021	0.386
-338.318	71.656	-0.196	0.202
-337.304	355.935	0.318	-0.627
-336.289	-31.388	-0.170	0.095
-335.275	-0.688	0.077	0.054
-334.260	117.055	0.095	-0.115
-333.245	776.969	-0.036	-0.098
-332.231	0.792	0.124	-0.088
-331.216	-21.457	-0.074	-0.044
-330.202	516.173	0.134	-0.311
-329.187	800.000	-0.082	0.280
-328.172	175.549	0.209	-0.299
-327.158	-117.527	0.247	0.044
-326.143	-52.202	0.053	-0.024
-325.129	-67.517	-0.031	0.012
-324.114	800.000	0.110	-0.349
-323.099	800.000	0.038	0.145
-322.085	-98.126	0.546	0.139
-321.070	13.856	-0.252	0.194
-320.056	-73.807	0.183	0.066
-319.041	454.450	-0.117	0.257
-318.026	240.754	0.053	-0.087
-317.012	276.986	0.112	0.198
-315.997	800.000	-0.032	0.105
-314.983	-200.000	0.015	0.191
-313.968	189.835	-0.221	-0.328
-312.953	800.000	0.051	-0.214
-311.939	-100.633	-0.045	-0.011
-310.924	457.225	0.152	0.333
-309.910	-138.750	-0.182	0.020
-308.895	33.205	0.147	0.126
-307.880	-200.000	0.083	0.463
-306.866	-94.394	-0.221	-0.060
-305.851	-103.914	-0.288	0.066
-304.837	-200.000	0.003	-0.070
-303.822	-200.000	-0.029	-0.515
-302.807	173.944	0.097	0.138
-301.793	26.300	0.339	0.280
-300.778	-74.571	-0.360	0.128
-299.764	-200.000	0.022	-0.119
-298.749	196.825	-0.248	0.374
-297.735	34.217	-0.333	-0.287
-296.720	219.536	-0.137	0.217
-295.705	368.656	-0.124	0.247
-294.691	-3.625	-0.298	-0.205
-293.676	800.000	0.027	-0.098
-292.662	-170.486	0.143	0.005
-291.647	67.263	0.299	0.302
-290.632	-152.412	-0.283	-0.020
-289.618	-9.663	-0.267	0.176
-288.603	248.250	0.127	-0.212
-287.589	800.000	0.122	-0.335
-286.574	553.572	0.028	-0.067
-285.559	4.557	-0.235	0.170
-284.545	40.042	-0.061	0.054
-283.530	-114.172	0.331	0.063
-282.516	-150.557	-0.203	-0.015
-281.501	212.782	0.032	-0.050
-280.486	-150.304	0.191	0.015
-279.472	-26.707	0.118	0.068
-278.457	-2.576	0.247	0.171
-277.443	379.895	-0.082	-0.166
-276.428	-200.000	-0.037	0.213
-275.413	222.014	-0.099	-0.157
-274.399	-125.612	-0.301	0.045
-273.384	-24.529	0.177	-0.104
-272.370	244.319	0.119	0.198
-271.355	-200.000	0.028	-0.292
-270.340	-68.884	-0.250	-0.095
-269.326	375.600	0.091	-0.184
-268.311	-91.370	-0.238	-0.067
-267.297	800.000	-0.106	-0.341
-266.282	-200.000	0.031	-0.140
-265.267	-136.625	0.336	0.038
-264.253	1.493	-0.035	0.025
-263.238	1.742	0.026	-0.019
-262.224	411.058	0.078	-0.163
-261.209	-77.048	-0.133	-0.046
-260.195	-156.030	0.246	-0.015
-259.180	162.549	-0.318	-0.440
-258.165	-157.397	0.310	0.018
-257.151	800.000	0.024	-0.074
-256.136	339.949	-0.116	-0.224
-255.122	-108.408	-0.220	0.047
-254.107	800.000	0.107	-0.300
-253.092	-54.737	0.150	0.067
-252.078	-200.000	-0.042	0.207
-251.063	109.305	0.215	0.254
-250.049	-200.000	-0.021	0.139
-249.034	-200.000	-0.001	-0.157
-248.019	27.882	-0.137	-0.114
-247.005	522.411	0.046	0.107
-245.990	-200.000	-0.039	-0.208
-244.976	-136.133	0.115	0.013
-243.961	-37.466	0.121	0.064
-242.946	127.297	-0.047	-0.059
-241.932	343.849	-0.110	0.213
-240.917	-81.907	0.228	-0.074
-239.903	800.000	-0.088	-0.306
-238.888	-200.000	-0.003	-0.047
-237.873	4.608	-0.290	-0.210
-236.859	-63.928	0.262	-0.105
-235.844	234.658	0.035	-0.057
-234.830	-53.671	-0.101	0.045
-233.815	150.590	-0.079	-0.106
-232.800	-200.000	-0.006	0.296
-231.786	294.065	-0.028	0.050
-230.771	800.000	-0.051	0.175
-229.757	-8.997	0.077	0.051
-228.742	29.131	-0.027	-0.023
-227.727	-25.542	0.417	0.243
-226.713	-132.684	0.328	-0.041
-225.698	254.943	-0.050	-0.085
-224.684	44.554	-0.201	-0.182
-223.669	-117.524	0.429	-0.076
-222.655	-41.951	0.128	-0.065
-221.640	-191.623	0.026	-0.000
-220.625	127.927	-0.094	0.117
-219.611	-41.357	-0.216	-0.110
-218.596	-200.000	-0.018	-0.120
-217.582	800.000	0.062	0.172
-216.567	6.700	0.155	-0.114
-215.552	-131.094	-0.161	-0.021
-214.538	-54.774	0.207	0.092
-213.523	-142.013	0.066	-0.006
-212.509	122.256	0.250	-0.307
-211.494	-96.423	-0.319	-0.083
-210.479	147.136	0.189	0.251
-209.465	-200.000	0.019	-0.194
-208.450	-120.136	-0.312	-0.053
-207.436	-62.773	0.046	-0.019
-206.421	-96.841	-0.081	-0.021
-205.406	624.490	0.139	-0.344
-204.392	88.167	-0.093	-0.102
-203.377	-55.448	0.267	-0.118
-202.363	-78.541	-0.201	-0.068
-201.348	570.834	0.023	-0.054
-200.333	90.498	-0.155	0.171
-199.319	328.417	-0.007	0.014
-198.304	42.797	0.231	0.207
-197.290	-146.872	0.126	0.011
-196.275	-200.000	-0.005	0.235
-195.260	57.430	0.245	-0.236
-194.246	90.366	-0.201	0.222
-193.231	-100.991	0.336	-0.081
-192.217	-68.493	0.247	-0.094
-191.202	-200.000	-0.013	-0.263
-190.187	-200.000	-0.024	-0.424
-189.173	494.145	-0.166	0.375
-188.158	-126.215	0.143	0.021
-187.144	542.580	-0.044	0.104
-186.129	165.629	0.166	0.232
-185.114	109.874	-0.152	0.179
-184.100	-22.641	0.126	0.075
-183.085	2.525	0.117	0.083
-182.071	-82.086	-0.192	0.062
-181.056	167.697	0.203	0.284
-180.042	355.434	-0.048	-0.094
-179.027	-123.117	0.257	0.041
-178.012	44.680	-0.287	-0.260
-176.998	800.000	0.148	-0.428
-175.983	-76.571	0.101	-0.035
-174.969	51.355	-0.062	-0.058
-173.954	760.684	0.086	-0.229
-172.939	-173.363	0.131	0.004
-171.925	-32.271	-0.234	-0.129
-170.910	-200.000	-0.012	-0.082
-169.896	-200.000	0.092	0.443
-168.881	-200.000	0.103	0.473
-167.866	48.981	-0.240	0.222
-166.852	-161.620	-0.169	0.008
-165.837	-53.157	0.261	-0.118
-164.823	15.292	0.054	-0.042
-163.808	477.180	0.239	0.532
-162.793	144.083	-0.085	0.112
-161.779	800.000	0.078	0.253
-160.764	208.886	0.070	0.108
-159.750	-70.688	0.247	0.092
-158.735	-14.635	-0.284	-0.179
-157.720	-200.000	-0.061	0.561
-156.706	-120.710	-0.141	-0.023
-155.691	-200.000	-0.022	-0.195
-154.677	127.060	0.101	0.126
-153.662	43.109	0.112	-0.100
-152.647	272.185	0.135	0.233
-151.633	-73.952	0.129	-0.046
-150.618	800.000	0.088	0.374
-149.604	-31.961	-0.092	-0.051
-148.589	-53.298	0.174	0.078
-147.574	609.342	-0.064	-0.158
-146.560	-124.609	0.155	-0.024
-145.545	91.722	-0.122	-0.135
-144.531	150.092	0.312	-0.416
-143.516	-125.255	0.337	0.051
-142.502	223.654	0.116	-0.184
-141.487	211.450	0.188	-0.290
-140.472	329.908	-0.141	0.267
-139.458	629.672	-0.067	-0.166
-138.443	15.400	-0.247	0.190
-137.429	800.000	0.058	-0.181
-136.414	500.904	0.072	0.164
-135.399	800.000	0.162	0.608
-134.385	-61.968	0.065	0.027
-133.370	-131.717	-0.182	-0.023
-132.356	-200.000	0.010	0.346
-131.341	-141.094	-0.251	0.025
-130.326	255.478	0.125	0.210
-129.312	-200.000	0.041	-0.223
-128.297	-200.000	-0.032	0.229
-127.283	244.237	-0.009	-0.014
-126.268	-15.155	-0.232	0.146
-125.253	147.284	0.202	0.267
-124.239	162.579	-0.184	-0.253
-123.224	43.950	0.062	-0.055
-122.210	-181.237	-0.265	-0.005
