DTS Sentinel unit serial number:	SN413079Multiplexer serial number:	ORYXHardware model number:	OX4-SRSoftware version number:	ORYX F/W v4.00 Oryx Data Collector v3.7.2.0data status	okinstallation	princeton_trtdifferential loss correction	single-endedforward channel	channel 4reverse channel	N/Adate	2019/09/13time	23:09:35forward acquisition time	60.00reverse acquisition time	0.00gamma	496.2192k internal	0.2322k external	0.2322temperature offset calibration	1.0136default loss term (dB/km)	0.3790temperature slope calibration	1.0000multiplexer offset coefficient	1.0000multiplexer slope coefficient	1.0000fibre end	0.00T internal ref (°C)	27.19T ext. ref 1 (°C)	3.20T ext. ref 2 (°C)	21.15length (m)	temperature (°C)	Stokes	anti-Stokes-747.200	800.000	0.043	0.168
-746.185	164.499	-0.219	0.312
-745.171	-89.829	0.267	0.079
-744.156	-126.897	-0.225	-0.033
-743.142	-128.194	0.254	-0.037
-742.127	-65.013	-0.080	0.033
-741.112	800.000	0.045	0.169
-740.098	186.570	-0.283	0.426
-739.083	173.210	0.127	0.185
-738.069	10.694	0.147	0.113
-737.054	-44.964	-0.205	0.103
-736.039	-38.876	-0.167	0.089
-735.025	800.000	0.078	0.288
-734.010	-162.446	-0.194	0.010
-732.996	-73.788	-0.299	0.110
-731.981	71.269	-0.071	0.075
-730.966	634.039	-0.049	0.125
-729.952	-135.283	-0.459	0.056
-728.937	-91.565	-0.322	0.093
-727.923	-52.783	-0.182	-0.085
-726.908	-158.503	-0.167	0.010
-725.894	800.000	-0.021	0.073
-724.879	13.522	-0.154	0.120
-723.864	800.000	-0.082	-0.314
-722.850	-200.000	-0.032	-0.170
-721.835	173.007	0.287	-0.417
-720.821	-140.329	0.315	0.033
-719.806	297.423	-0.114	-0.212
-718.791	-200.000	0.006	-0.334
-717.777	-116.008	0.380	-0.071
-716.762	64.733	0.045	0.045
-715.748	-97.550	-0.382	-0.100
-714.733	-200.000	0.005	0.209
-713.718	-200.000	0.025	0.304
-712.704	-200.000	-0.059	0.358
-711.689	-200.000	0.022	0.156
-710.675	-107.935	-0.068	-0.015
-709.660	298.864	0.042	-0.079
-708.645	-200.000	0.169	-0.001
-707.631	-176.810	-0.362	0.009
-706.616	259.353	-0.099	0.171
-705.602	711.766	-0.112	-0.298
-704.587	774.326	0.114	-0.313
-703.572	-200.000	0.065	-0.491
-702.558	-62.098	-0.189	-0.079
-701.543	-3.736	-0.238	0.167
-700.529	800.000	-0.062	-0.180
-699.514	-200.000	-0.035	-0.293
-698.499	-39.456	-0.199	-0.105
-697.485	30.596	0.122	0.106
-696.470	-20.446	0.263	-0.163
-695.456	635.897	0.036	-0.092
-694.441	-128.196	-0.417	0.060
-693.426	-85.113	-0.219	-0.069
-692.412	146.134	-0.077	-0.104
-691.397	-200.000	-0.040	0.317
-690.383	410.157	0.181	-0.387
-689.368	9.233	0.172	-0.131
-688.354	-200.000	0.025	0.389
-687.339	313.713	0.122	0.232
-686.324	41.967	-0.113	-0.104
-685.310	27.166	-0.153	0.130
-684.295	-12.274	0.114	-0.075
-683.281	-79.551	0.104	0.035
-682.266	29.894	0.113	-0.097
-681.251	800.000	-0.038	-0.110
-680.237	150.121	-0.018	-0.024
-679.222	77.989	-0.222	-0.238
-678.208	-0.712	0.297	0.212
-677.193	-98.586	0.144	-0.037
-676.178	-10.589	0.095	-0.063
-675.164	-139.044	-0.059	0.006
-674.149	-38.310	0.156	-0.083
-673.135	56.131	-0.206	-0.201
-672.120	-96.862	0.231	-0.061
-671.105	196.513	0.211	-0.323
-670.091	-57.046	-0.463	-0.205
-669.076	97.809	0.179	-0.207
-668.062	-53.341	-0.180	-0.083
-667.047	-109.294	0.124	-0.026
-666.032	-36.231	-0.217	0.118
-665.018	223.716	-0.061	-0.099
-664.003	107.511	-0.276	-0.330
-662.989	-200.000	-0.015	-0.252
-661.974	-80.614	-0.128	0.043
-660.959	44.191	-0.040	-0.037
-659.945	-73.257	-0.284	-0.105
-658.930	-82.886	-0.433	-0.141
-657.916	-41.997	0.085	-0.044
-656.901	800.000	-0.080	-0.228
-655.886	56.404	-0.211	-0.207
-654.872	18.620	-0.101	0.082
-653.857	800.000	0.033	0.096
-652.843	-115.004	-0.293	0.056
-651.828	588.372	-0.066	0.163
-650.814	-32.507	-0.254	-0.143
-649.799	-133.909	-0.289	0.036
-648.784	-106.272	-0.147	-0.033
-647.770	-77.043	0.250	-0.088
-646.755	800.000	-0.123	-0.342
-645.741	-200.000	-0.008	-0.250
-644.726	-113.264	-0.128	-0.025
-643.711	200.209	-0.164	0.254
-642.697	-61.130	0.089	-0.038
-641.682	-125.268	-0.205	-0.032
-640.668	-76.483	0.266	-0.094
-639.653	-103.930	-0.225	0.053
-638.638	-200.000	-0.035	0.285
-637.624	549.121	-0.110	0.265
-636.609	-200.000	0.003	0.206
-635.595	-6.235	0.247	-0.170
-634.580	-34.469	0.096	0.053
-633.565	-139.816	0.210	-0.022
-632.551	-50.113	0.175	0.084
-631.536	81.492	-0.183	0.199
-630.522	-104.516	0.350	-0.081
-629.507	-200.000	0.001	-0.011
-628.492	79.055	0.133	-0.143
-627.478	800.000	0.083	-0.257
-626.463	800.000	-0.062	-0.177
-625.449	-153.493	-0.154	-0.011
-624.434	-13.963	-0.082	-0.053
-623.419	-56.285	-0.202	-0.090
-622.405	-114.834	0.101	0.019
-621.390	-122.118	0.130	-0.021
-620.376	-59.735	-0.210	0.091
-619.361	-200.000	0.023	-0.103
-618.346	11.008	0.119	0.092
-617.332	358.137	0.050	-0.101
-616.317	-90.988	-0.065	-0.019
-615.303	800.000	-0.068	-0.197
-614.288	-73.464	0.195	-0.072
-613.273	557.187	-0.126	-0.306
-612.259	-75.438	-0.318	-0.114
-611.244	-124.464	-0.096	0.015
-610.230	800.000	-0.111	0.361
-609.215	31.629	-0.101	0.088
-608.201	268.270	0.086	0.151
-607.186	90.024	0.048	-0.054
-606.171	-200.000	-0.003	0.168
-605.157	349.395	-0.019	-0.038
-604.142	-82.418	-0.076	-0.025
-603.128	-200.000	0.014	-0.205
-602.113	5.959	0.135	-0.100
-601.098	265.070	-0.069	-0.121
-600.084	28.834	0.142	-0.121
-599.069	11.236	-0.027	-0.021
-598.055	21.281	-0.426	-0.348
-597.040	-200.000	-0.026	0.117
-596.025	188.476	0.040	-0.060
-595.011	-89.693	0.145	0.043
-593.996	390.827	-0.051	-0.106
-592.982	-63.310	0.038	0.016
-591.967	-200.000	0.046	-0.465
-590.952	176.840	-0.143	0.209
-589.938	800.000	-0.113	0.352
-588.923	120.864	-0.164	0.205
-587.909	-80.591	0.470	-0.157
-586.894	-43.442	-0.022	0.011
-585.879	526.072	0.079	0.186
-584.865	-52.601	-0.156	-0.072
-583.850	-27.085	0.394	0.230
-582.836	-153.398	-0.158	-0.011
-581.821	517.946	-0.121	0.283
-580.806	-200.000	-0.002	0.169
-579.792	-11.296	0.216	-0.143
-578.777	-22.713	0.257	0.156
-577.763	-102.063	0.332	0.080
-576.748	-200.000	-0.064	-0.284
-575.733	-44.271	0.074	0.037
-574.719	66.924	0.126	-0.129
-573.704	-200.000	0.014	-0.184
-572.690	800.000	-0.046	0.146
-571.675	98.269	0.078	-0.090
-570.661	-90.240	-0.163	-0.047
-569.646	-138.813	0.288	0.032
-568.631	-64.628	0.496	-0.202
-567.617	-12.207	-0.263	-0.173
-566.602	-104.019	-0.321	0.075
-565.588	19.624	0.030	0.025
-564.573	800.000	0.069	0.205
-563.558	-200.000	0.057	-0.335
-562.544	800.000	0.067	0.251
-561.529	-200.000	0.001	-0.080
-560.515	-200.000	0.028	-0.126
-559.500	222.913	-0.120	0.195
-558.485	-197.819	-0.248	-0.002
-557.471	-200.000	-0.020	0.136
-556.456	-200.000	-0.025	-0.165
-555.442	-51.819	0.326	0.152
-554.427	800.000	0.137	0.413
-553.412	109.134	-0.074	0.089
-552.398	-158.298	-0.187	0.011
-551.383	-14.338	0.091	-0.059
-550.369	-200.000	-0.048	0.246
-549.354	15.108	-0.160	-0.126
-548.339	-26.755	-0.290	0.170
-547.325	-129.849	0.171	0.024
-546.310	800.000	-0.101	-0.290
-545.296	-116.512	-0.466	-0.086
-544.281	-200.000	-0.001	0.223
-543.266	-109.068	0.441	0.094
-542.252	-78.445	-0.353	-0.121
-541.237	-128.065	-0.298	-0.043
-540.223	108.095	0.195	-0.233
-539.208	-187.418	0.337	0.005
-538.193	506.492	0.133	-0.308
-537.179	65.121	-0.182	-0.185
-536.164	-84.047	0.079	0.025
-535.150	288.602	-0.115	0.208
-534.135	-176.946	0.240	0.006
-533.121	-200.000	0.002	0.127
-532.106	-200.000	-0.011	-0.209
-531.091	-116.828	-0.017	0.003
-530.077	-174.250	-0.045	0.001
-529.062	-47.856	-0.242	0.117
-528.048	450.950	0.199	0.439
-527.033	-63.572	-0.213	0.087
-526.018	-73.123	-0.124	-0.045
-525.004	79.725	-0.090	0.097
-523.989	-107.227	0.377	-0.083
-522.975	23.989	-0.231	-0.191
-521.960	-200.000	0.013	0.109
-520.945	-179.188	-0.210	0.005
-519.931	-148.033	0.236	-0.020
-518.916	-108.658	0.388	0.083
-517.902	290.638	0.161	-0.292
-516.887	-200.000	0.001	0.089
-515.872	-102.951	-0.370	0.088
-514.858	-104.647	0.123	-0.028
-513.843	-200.000	0.015	-0.105
-512.829	18.363	0.067	-0.054
-511.814	128.993	-0.099	0.127
-510.799	79.954	-0.214	0.231
-509.785	-200.000	0.012	0.158
-508.770	-164.073	0.171	0.008
-507.756	219.849	0.076	-0.122
-506.741	70.308	-0.194	-0.200
-505.726	163.477	-0.123	0.174
-504.712	-48.028	0.300	-0.145
-503.697	-44.696	0.224	-0.112
-502.683	122.872	-0.155	-0.195
-501.668	-4.927	0.475	0.328
-500.653	676.160	-0.037	-0.096
-499.639	48.662	-0.102	-0.095
-498.624	150.439	-0.126	0.171
-497.610	605.068	-0.047	0.116
-496.595	182.190	-0.054	-0.079
-495.581	113.762	0.102	-0.124
-494.566	-200.000	0.059	0.280
-493.551	-135.687	-0.279	-0.033
-492.537	-94.807	0.164	0.045
-491.522	-123.721	-0.185	0.029
-490.508	-113.668	-0.066	0.013
-489.493	270.198	0.101	-0.178
-488.478	-200.000	0.030	0.287
-487.464	59.126	0.361	-0.355
-486.449	287.180	-0.115	0.207
-485.435	-148.117	-0.173	0.014
-484.420	192.338	-0.057	0.086
-483.405	-26.913	0.320	-0.187
-482.391	-52.153	0.246	-0.114
-481.376	9.738	0.150	0.114
-480.362	198.990	0.061	-0.094
-479.347	-200.000	-0.034	-0.186
-478.332	-31.202	-0.129	0.073
-477.318	73.081	-0.248	0.259
-476.303	-1.823	-0.116	-0.082
-475.289	-95.394	0.458	0.123
-474.274	-81.966	0.265	-0.086
-473.259	48.309	-0.130	-0.121
-472.245	29.320	-0.179	-0.152
-471.230	687.285	-0.036	-0.094
-470.216	-87.976	0.451	-0.135
-469.201	247.239	-0.068	0.114
-468.186	20.161	0.196	0.158
-467.172	-49.445	0.314	0.149
-466.157	313.966	-0.171	-0.322
-465.143	800.000	0.025	-0.094
-464.128	179.160	0.098	-0.144
-463.113	345.366	0.078	-0.153
-462.099	353.422	0.122	-0.243
-461.084	-79.412	0.234	-0.079
-460.070	63.883	0.148	-0.148
-459.055	-145.403	0.086	-0.008
-458.040	453.249	0.099	-0.219
-457.026	151.519	-0.077	0.104
-456.011	-200.000	0.025	0.122
-454.997	-200.000	-0.026	-0.142
-453.982	800.000	0.077	-0.239
-452.968	-176.412	-0.096	0.002
-451.953	90.763	-0.425	-0.475
-450.938	298.773	-0.049	0.090
-449.924	149.338	0.049	-0.066
-448.909	3.586	-0.104	-0.076
-447.895	800.000	0.044	-0.191
-446.880	42.692	0.290	-0.263
-445.865	800.000	-0.059	0.189
-444.851	-101.804	0.124	-0.030
-443.836	-38.625	0.071	0.037
-442.822	-62.667	-0.292	-0.121
-441.807	56.086	0.223	0.216
-440.792	-75.942	-0.354	-0.125
-439.778	-151.311	-0.098	-0.007
-438.763	-200.000	-0.004	-0.297
-437.749	204.934	-0.161	-0.249
-436.734	140.879	-0.098	0.129
-435.719	-103.681	0.272	0.064
-434.705	-3.616	0.340	-0.236
-433.690	436.091	0.072	-0.157
-432.676	-200.000	-0.006	-0.040
-431.661	-104.728	0.189	0.044
-430.646	-200.000	-0.020	-0.383
-429.632	413.673	0.086	0.182
-428.617	-99.381	-0.120	0.030
-427.603	800.000	0.080	-0.231
-426.588	235.024	0.088	-0.144
-425.573	-98.366	-0.175	-0.045
-424.559	-180.635	0.081	-0.002
-423.544	-91.399	0.063	0.018
-422.530	-200.000	0.034	0.161
-421.515	-12.962	-0.015	-0.010
-420.500	-66.935	0.104	-0.041
-419.486	800.000	-0.025	-0.084
-418.471	79.762	-0.188	-0.202
-417.457	-60.352	0.148	-0.063
-416.442	105.736	-0.194	-0.228
-415.428	-200.000	-0.018	-0.089
-414.413	800.000	-0.075	-0.209
-413.398	-134.066	-0.063	0.008
-412.384	222.770	-0.173	0.277
-411.369	800.000	0.074	-0.261
-410.355	638.596	-0.062	0.158
-409.340	292.986	-0.043	0.079
-408.325	262.527	0.039	-0.068
-407.311	800.000	0.070	-0.230
-406.296	800.000	0.039	0.139
-405.282	-191.448	-0.064	-0.001
-404.267	221.002	0.081	-0.129
-403.252	-200.000	0.037	0.184
-402.238	-65.363	-0.280	0.112
-401.223	244.339	0.065	0.109
-400.209	-60.236	-0.188	-0.080
-399.194	-108.667	0.299	0.064
-398.179	-133.710	-0.128	-0.016
-397.165	-79.152	-0.150	0.051
-396.150	-200.000	0.009	-0.048
-395.136	119.876	0.192	-0.237
-394.121	-158.453	0.046	0.003
-393.106	-181.871	-0.338	-0.006
-392.092	-200.000	0.026	-0.170
-391.077	800.000	0.021	0.075
-390.063	-139.522	0.149	0.016
-389.048	-200.000	-0.023	0.260
-388.033	114.003	0.082	-0.100
-387.019	-142.988	-0.176	-0.017
-386.004	29.755	-0.101	-0.086
-384.990	-200.000	-0.004	0.164
-383.975	-7.695	0.119	-0.080
-382.960	39.216	0.312	0.278
-381.946	181.383	-0.108	0.158
-380.931	12.938	0.187	-0.144
-379.917	-81.778	-0.371	0.121
-378.902	800.000	-0.076	0.259
-377.888	800.000	0.057	-0.181
-376.873	-87.261	-0.167	-0.050
-375.858	22.744	0.315	0.257
-374.844	21.603	-0.216	0.175
-373.829	506.977	-0.045	0.104
-372.815	0.430	-0.249	0.177
-371.800	59.799	0.194	0.191
-370.785	800.000	-0.040	0.115
-369.771	-200.000	0.001	0.432
-368.756	324.729	-0.068	-0.130
-367.742	137.658	-0.095	0.124
-366.727	800.000	-0.101	-0.299
-365.712	-137.370	-0.163	0.018
-364.698	77.697	-0.250	-0.265
-363.683	72.941	0.181	0.188
-362.669	800.000	0.079	0.223
-361.654	508.215	0.029	-0.068
-360.639	800.000	-0.108	0.390
-359.625	-200.000	-0.024	0.126
-358.610	27.016	-0.206	0.172
-357.596	-198.244	0.234	-0.001
-356.581	160.878	-0.233	0.324
-355.566	-115.284	-0.266	-0.050
-354.552	-78.324	-0.342	0.117
-353.537	800.000	-0.075	0.295
-352.523	800.000	0.144	0.448
-351.508	306.098	0.011	-0.020
-350.493	-42.349	0.460	0.234
-349.479	96.421	0.069	-0.079
-348.464	-55.340	0.173	-0.077
-347.450	-110.781	0.117	-0.024
-346.435	171.350	-0.159	0.227
-345.420	153.951	0.409	-0.557
-344.406	351.472	-0.068	-0.134
-343.391	-29.157	0.213	0.121
-342.377	-200.000	0.057	-0.260
-341.362	800.000	0.112	-0.436
-340.348	130.124	-0.127	-0.161
-339.333	-200.000	-0.028	0.216
-338.318	-30.376	-0.120	-0.068
-337.304	-60.748	0.105	-0.044
-336.289	159.606	-0.120	0.166
-335.275	128.275	-0.085	-0.108
-334.260	-79.262	-0.164	0.055
-333.245	800.000	-0.038	0.109
-332.231	-62.782	-0.147	-0.061
-331.216	219.355	0.273	-0.434
-330.202	-12.665	0.156	-0.101
-329.187	366.300	-0.123	0.246
-328.172	613.336	0.058	-0.145
-327.158	-200.000	-0.003	0.028
-326.143	-111.823	-0.347	0.070
-325.129	34.173	-0.132	0.114
-324.114	41.228	-0.082	-0.074
-323.099	8.154	-0.128	0.095
-322.085	-134.607	-0.144	0.017
-321.070	-76.844	0.132	-0.046
-320.056	-82.351	0.174	-0.056
-319.041	800.000	0.033	0.118
-318.026	27.964	0.141	-0.118
-317.012	26.996	-0.069	-0.057
-315.997	-61.559	0.091	-0.038
-314.983	-32.273	0.190	0.105
-313.968	-5.191	-0.154	0.105
-312.953	-15.134	-0.280	-0.178
-311.939	199.077	-0.071	0.108
-310.924	100.592	-0.132	-0.152
-309.910	402.586	0.076	-0.158
-308.895	800.000	0.088	0.336
-307.880	115.863	-0.140	-0.170
-306.866	800.000	0.093	-0.259
-305.851	-169.897	-0.385	-0.014
-304.837	784.809	0.089	-0.241
-303.822	56.747	-0.077	0.074
-302.807	326.391	-0.059	0.113
-301.793	148.667	0.101	0.136
-300.778	345.128	0.090	-0.176
-299.764	800.000	0.056	-0.172
-298.749	235.731	-0.200	0.328
-297.735	-200.000	-0.017	-0.100
-296.720	-200.000	-0.034	0.162
-295.705	10.500	-0.054	-0.041
-294.691	-11.467	-0.269	0.176
-293.676	339.479	-0.057	0.110
-292.662	-94.707	-0.229	0.062
-291.647	-117.260	-0.129	0.023
-290.632	64.539	0.167	0.167
-289.618	266.687	-0.099	-0.172
-288.603	384.004	0.116	0.237
-287.589	-200.000	-0.006	0.208
-286.574	-79.287	-0.235	-0.079
-285.559	-172.630	-0.111	-0.003
-284.545	-200.000	-0.033	-0.255
-283.530	-41.724	0.099	-0.051
-282.516	-200.000	-0.020	-0.101
-281.501	24.803	-0.100	-0.082
-280.486	-108.214	-0.340	-0.073
-279.472	-200.000	-0.016	-0.193
-278.457	-129.046	0.402	0.056
-277.443	-57.250	-0.158	0.069
-276.428	43.481	-0.031	-0.028
-275.413	133.127	-0.113	-0.145
-274.399	76.296	-0.075	-0.079
-273.384	446.219	-0.105	0.230
-272.370	-200.000	0.033	-0.186
-271.355	14.390	-0.367	0.284
-270.340	-82.336	0.096	-0.031
-269.326	55.452	0.179	0.172
-268.311	661.602	0.042	-0.107
-267.297	153.757	0.084	0.114
-266.282	-0.599	-0.186	0.131
-265.267	-200.000	-0.008	-0.090
-264.253	229.298	-0.045	0.073
-263.238	92.098	-0.103	0.115
-262.224	53.953	0.055	0.053
-261.209	-200.000	0.025	0.215
-260.195	94.147	0.109	0.122
-259.180	564.327	-0.045	-0.107
-258.165	-36.103	0.084	0.045
-257.151	455.652	0.161	-0.355
-256.136	141.548	0.119	-0.156
-255.122	800.000	0.105	-0.300
-254.107	287.957	-0.182	0.327
-253.092	-140.399	-0.236	0.024
-252.078	128.604	0.183	-0.231
-251.063	-200.000	-0.002	0.043
-250.049	361.009	-0.165	0.328
-249.034	78.094	-0.152	-0.161
-248.019	-108.330	-0.139	-0.030
-247.005	-31.053	0.262	0.147
-245.990	-76.516	0.067	-0.023
-244.976	167.592	0.134	-0.189
-243.961	36.052	-0.149	-0.130
-242.946	-134.860	-0.329	-0.039
-241.932	-200.000	0.004	-0.116
-240.917	126.290	0.018	-0.022
-239.903	671.860	0.133	0.342
-238.888	-137.660	0.233	-0.026
-237.873	-193.512	0.240	0.002
-236.859	-85.520	-0.169	0.052
-235.844	-49.776	0.396	-0.186
-234.830	800.000	-0.140	-0.391
-233.815	-68.605	-0.190	-0.073
-232.800	-86.408	0.257	-0.078
-231.786	-118.797	-0.193	-0.034
-230.771	-200.000	0.014	0.218
-229.757	-68.974	0.368	-0.141
-228.742	-98.788	0.176	-0.044
-227.727	-157.529	-0.199	0.012
-226.713	-14.055	0.136	-0.087
-225.698	-200.000	0.010	0.166
-224.684	24.244	0.457	0.373
-223.669	800.000	-0.097	0.329
-222.655	-130.713	0.310	0.041
-221.640	800.000	0.062	0.185
-220.625	-162.157	0.089	0.004
-219.611	-101.310	-0.110	-0.027
-218.596	800.000	0.047	0.128
-217.582	-49.287	-0.213	0.101
-216.567	800.000	-0.072	0.222
-215.552	800.000	0.054	0.149
-214.538	472.268	0.140	0.312
-213.523	336.020	-0.102	0.197
-212.509	-14.080	0.059	0.038
-211.494	-150.730	-0.191	-0.014
-210.479	-5.635	0.185	0.125
-209.465	800.000	-0.036	0.116
-208.450	60.411	-0.229	0.225
-207.436	800.000	0.057	0.226
-206.421	-152.074	0.380	0.027
-205.406	203.619	-0.291	-0.445
-204.392	-43.820	0.302	-0.151
-203.377	299.909	-0.097	0.178
-202.363	-200.000	-0.013	-0.168
-201.348	291.124	0.088	0.157
-200.333	229.331	-0.086	0.138
-199.319	-70.288	0.079	0.030
-198.304	256.005	0.086	0.146
-197.290	-187.337	-0.179	-0.002
-196.275	-113.176	0.035	0.007
-195.260	-45.819	0.192	-0.094
-194.246	-161.887	-0.128	-0.006
-193.231	-69.070	0.212	0.081
-192.217	-20.911	0.150	-0.091
-191.202	-200.000	-0.067	-0.485
-190.187	-49.814	-0.258	-0.121
-189.173	-96.716	0.084	0.022
-188.158	1.221	0.184	0.130
-187.144	-99.218	0.143	-0.036
-186.129	51.076	-0.055	0.051
-185.114	-200.000	0.048	0.274
-184.100	547.927	-0.118	-0.278
-183.085	800.000	-0.019	-0.079
-182.071	327.383	-0.058	0.110
-181.056	-103.074	0.102	-0.024
-180.042	69.125	-0.145	-0.148
-179.027	-200.000	-0.021	0.167
-178.012	800.000	-0.080	0.287
-176.998	-25.551	0.338	0.197
-175.983	-83.560	-0.208	0.066
-174.969	-200.000	-0.006	0.079
-173.954	-66.177	-0.476	0.187
-172.939	-200.000	-0.099	0.460
-171.925	-200.000	-0.006	0.154
-170.910	-125.966	0.240	-0.036
-169.896	-131.371	0.282	0.037
-168.881	-26.266	0.402	0.233
-167.866	-200.000	-0.024	-0.140
-166.852	-200.000	0.013	-0.088
-165.837	115.124	-0.076	0.092
-164.823	-44.546	-0.122	-0.060
-163.808	800.000	-0.063	0.207
-162.793	157.015	0.135	-0.184
-161.779	170.199	-0.191	-0.270
-160.764	-21.172	-0.160	0.097
-159.750	-35.404	-0.067	-0.036
-158.735	4.269	0.130	0.094
-157.720	115.769	0.052	-0.063
-156.706	-88.084	0.194	0.057
-155.691	-57.942	-0.091	-0.039
-154.677	106.441	-0.241	-0.282
-153.662	405.504	0.150	-0.312
-152.647	-99.160	-0.499	0.124
-151.633	-91.240	-0.035	-0.010
-150.618	240.327	0.099	-0.163
-149.604	-33.564	-0.421	-0.229
-148.589	-21.466	0.287	-0.173
-147.574	-173.485	0.057	-0.002
-146.560	-16.691	0.259	-0.162
-145.545	-156.429	-0.059	0.004
-144.531	274.639	-0.186	0.326
-143.516	-200.000	-0.204	-0.000
-142.502	384.585	0.130	0.264
-141.487	-99.744	0.234	0.058
-140.472	-5.137	0.334	-0.227
-139.458	-21.202	-0.259	-0.156
-138.443	-162.837	0.170	-0.008
-137.429	-76.504	-0.127	0.044
-136.414	22.250	-0.289	0.233
-135.399	-200.000	-0.026	-0.129
-134.385	23.368	-0.066	0.053
-133.370	800.000	-0.054	-0.229
-132.356	-88.062	-0.135	-0.040
-131.341	-200.000	0.032	-0.151
-130.326	800.000	-0.082	0.317
-129.312	128.173	0.094	-0.118
-128.297	-145.663	-0.131	-0.012
-127.283	-200.000	-0.053	0.409
-126.268	-15.119	0.177	-0.112
-125.253	717.581	0.059	-0.154
-124.239	32.476	-0.209	-0.178
-123.224	119.974	-0.170	0.208
