DTS Sentinel unit serial number:	SN413079Multiplexer serial number:	ORYXHardware model number:	OX4-SRSoftware version number:	ORYX F/W v4.00 Oryx Data Collector v3.7.2.0data status	okinstallation	princeton_trtdifferential loss correction	single-endedforward channel	channel 4reverse channel	N/Adate	2019/09/19time	07:21:35forward acquisition time	60.00reverse acquisition time	0.00gamma	496.2192k internal	0.2340k external	0.2340temperature offset calibration	1.0029default loss term (dB/km)	0.3790temperature slope calibration	1.0000multiplexer offset coefficient	1.0000multiplexer slope coefficient	1.0000fibre end	0.00T internal ref (°C)	19.12T ext. ref 1 (°C)	0.56T ext. ref 2 (°C)	13.67length (m)	temperature (°C)	Stokes	anti-Stokes-747.200	-12.189	0.243	-0.160
-746.185	25.105	-0.113	0.094
-745.171	-200.000	-0.007	0.245
-744.156	800.000	0.103	0.296
-743.142	128.778	-0.063	0.080
-742.127	800.000	0.025	0.086
-741.112	-111.447	-0.068	-0.014
-740.098	-200.000	-0.064	0.483
-739.083	-200.000	0.027	0.210
-738.069	-180.859	0.203	0.004
-737.054	94.231	-0.149	0.170
-736.039	-160.110	-0.070	0.004
-735.025	800.000	-0.086	0.338
-734.010	106.320	0.097	-0.115
-732.996	186.035	-0.187	0.279
-731.981	217.463	-0.201	0.322
-730.966	-187.264	0.126	-0.002
-729.952	-41.100	-0.195	-0.101
-728.937	123.926	-0.203	-0.255
-727.923	-32.863	-0.336	0.187
-726.908	12.355	-0.221	-0.171
-725.894	133.332	-0.042	0.054
-724.879	22.852	-0.165	-0.135
-723.864	-200.000	-0.018	0.530
-722.850	-77.223	0.139	0.049
-721.835	217.087	0.109	0.174
-720.821	-127.685	0.295	-0.043
-719.806	-63.465	-0.101	-0.042
-718.791	156.055	0.175	0.242
-717.777	-173.340	-0.262	0.008
-716.762	-200.000	0.006	0.124
-715.748	-73.993	0.067	-0.024
-714.733	-134.456	-0.157	0.019
-713.718	-80.308	-0.191	0.064
-712.704	-111.638	-0.178	0.036
-711.689	-35.370	-0.190	0.104
-710.675	-74.052	0.098	-0.036
-709.660	4.982	-0.232	-0.171
-708.645	-17.360	-0.114	-0.072
-707.631	275.513	0.068	-0.121
-706.616	82.296	-0.032	0.035
-705.602	-56.853	-0.172	-0.076
-704.587	80.896	0.264	0.285
-703.572	74.905	-0.040	-0.042
-702.558	37.205	0.345	-0.306
-701.543	208.214	0.114	0.179
-700.529	60.569	-0.079	-0.078
-699.514	279.569	-0.053	0.094
-698.499	63.656	0.163	-0.164
-697.485	-78.882	-0.374	0.127
-696.470	173.226	0.023	0.034
-695.456	227.786	0.027	0.044
-694.441	-53.562	-0.102	-0.047
-693.426	-96.936	0.205	0.054
-692.412	-97.144	-0.212	0.055
-691.397	-93.205	0.204	0.057
-690.383	78.503	0.057	0.061
-689.368	-200.000	0.051	-0.255
-688.354	78.643	-0.088	-0.095
-687.339	-123.327	0.150	-0.024
-686.324	-200.000	-0.071	-0.356
-685.310	-15.935	0.210	-0.134
-684.295	8.863	-0.098	0.074
-683.281	-200.000	0.078	-0.344
-682.266	598.314	-0.101	-0.251
-681.251	-45.608	0.283	-0.140
-680.237	3.156	0.313	-0.228
-679.222	-57.294	-0.420	-0.185
-678.208	470.253	-0.084	0.189
-677.193	-131.587	0.119	0.016
-676.178	-64.143	0.149	-0.061
-675.164	66.927	-0.130	0.132
-674.149	-28.293	0.281	0.162
-673.135	3.499	-0.142	0.103
-672.120	93.932	-0.201	-0.228
-671.105	-33.172	-0.312	0.173
-670.091	-200.000	-0.005	-0.224
-669.076	-82.164	-0.378	0.123
-668.062	-118.645	0.075	0.013
-667.047	127.651	-0.255	-0.324
-666.032	-72.324	-0.254	0.094
-665.018	73.196	-0.174	0.182
-664.003	-159.747	-0.260	0.014
-662.989	-200.000	0.011	0.072
-661.974	-200.000	0.010	0.258
-660.959	-35.426	-0.122	0.066
-659.945	-176.690	-0.253	0.006
-658.930	-168.492	-0.213	0.008
-657.916	-70.331	-0.301	-0.114
-656.901	172.809	-0.010	0.015
-655.886	-107.455	0.041	0.009
-654.872	-51.973	-0.094	0.044
-653.857	-200.000	0.039	-0.218
-652.843	68.160	-0.289	-0.295
-651.828	81.405	0.153	-0.165
-650.814	-59.937	-0.106	0.045
-649.799	125.434	-0.064	-0.080
-648.784	-109.710	0.282	-0.059
-647.770	-200.000	-0.037	-0.216
-646.755	-200.000	-0.073	-0.333
-645.741	108.218	0.038	-0.046
-644.726	118.302	-0.109	-0.135
-643.711	38.123	0.154	0.137
-642.697	76.848	-0.303	-0.321
-641.682	-92.133	-0.294	0.083
-640.668	-200.000	0.038	-0.196
-639.653	-163.934	-0.078	-0.004
-638.638	-155.037	-0.234	-0.015
-637.624	65.375	0.109	0.111
-636.609	38.657	-0.280	-0.249
-635.595	75.043	-0.107	-0.112
-634.580	342.806	-0.170	-0.333
-633.565	65.649	0.338	-0.342
-632.551	98.705	-0.329	-0.379
-631.536	-48.383	-0.332	0.160
-630.522	201.991	-0.013	-0.019
-629.507	436.478	-0.135	-0.293
-628.492	101.174	-0.075	0.088
-627.478	23.828	0.222	-0.183
-626.463	295.056	-0.181	0.330
-625.449	52.472	0.259	-0.247
-624.434	321.586	-0.075	-0.142
-623.419	-200.000	-0.056	0.425
-622.405	122.573	0.119	-0.148
-621.390	-88.910	-0.035	-0.010
-620.376	-90.235	0.160	-0.046
-619.361	420.446	0.054	-0.116
-618.346	67.264	0.066	-0.067
-617.332	267.843	-0.090	-0.157
-616.317	-78.054	0.144	0.050
-615.303	175.637	-0.070	-0.101
-614.288	800.000	-0.040	-0.143
-613.273	-95.628	-0.118	-0.031
-612.259	478.038	-0.130	0.295
-611.244	387.654	0.151	0.311
-610.230	17.303	0.071	0.056
-609.215	-122.030	-0.213	0.035
-608.201	109.347	0.139	-0.166
-607.186	-26.142	-0.044	-0.026
-606.171	382.491	0.102	-0.210
-605.157	-162.662	-0.098	0.005
-604.142	-71.913	-0.119	-0.044
-603.128	-87.249	-0.101	-0.031
-602.113	403.346	0.077	0.162
-601.098	27.661	-0.135	-0.113
-600.084	-200.000	0.095	0.489
-599.069	143.415	0.120	-0.159
-598.055	232.464	-0.033	0.055
-597.040	-120.055	0.243	-0.042
-596.025	28.916	-0.234	-0.198
-595.011	-200.000	-0.037	-0.300
-593.996	97.020	-0.163	-0.186
-592.982	123.561	-0.087	0.109
-591.967	61.651	-0.166	0.165
-590.952	-43.433	-0.207	-0.104
-589.938	271.053	0.098	-0.173
-588.923	-66.767	0.364	-0.144
-587.909	356.725	-0.054	-0.106
-586.894	614.792	0.020	-0.049
-585.879	248.100	-0.084	-0.142
-584.865	-200.000	0.050	0.239
-583.850	2.743	-0.073	0.053
-582.836	147.570	-0.229	-0.308
-581.821	133.796	0.172	-0.222
-580.806	254.169	-0.090	-0.154
-579.792	13.811	0.219	-0.170
-578.777	285.383	0.151	0.270
-577.763	-91.112	0.230	0.066
-576.748	-200.000	0.039	-0.238
-575.733	-18.970	0.192	0.119
-574.719	-89.719	0.225	0.066
-573.704	220.584	-0.038	0.060
-572.690	114.766	0.117	-0.143
-571.675	800.000	-0.028	-0.109
-570.661	-200.000	-0.077	-0.439
-569.646	452.770	0.202	-0.444
-568.631	800.000	-0.070	-0.274
-567.617	192.251	-0.021	-0.031
-566.602	-200.000	-0.003	0.102
-565.588	-160.163	0.249	0.013
-564.573	800.000	-0.016	0.065
-563.558	461.062	-0.219	-0.485
-562.544	139.786	-0.230	-0.302
-561.529	-200.000	0.010	0.154
-560.515	9.896	-0.145	-0.109
-559.500	-200.000	0.043	-0.191
-558.485	28.562	-0.101	-0.085
-557.471	-104.755	-0.167	-0.038
-556.456	-57.780	0.183	-0.080
-555.442	-200.000	-0.007	-0.034
-554.427	92.484	-0.116	0.130
-553.412	-200.000	-0.048	-0.220
-552.398	-14.129	-0.268	-0.172
-551.383	196.001	0.190	-0.288
-550.369	-74.027	0.133	-0.048
-549.354	-45.188	-0.270	-0.134
-548.339	-21.098	0.370	-0.225
-547.325	-200.000	-0.058	-0.341
-546.310	-154.017	0.273	0.018
-545.296	-122.450	-0.206	-0.033
-544.281	-84.833	0.317	-0.099
-543.266	142.394	0.151	-0.200
-542.252	311.260	-0.126	-0.235
-541.237	-83.930	-0.194	-0.062
-540.223	800.000	-0.093	0.264
-539.208	-200.000	-0.002	0.399
-538.193	218.715	0.221	0.351
-537.179	-77.270	-0.182	0.063
-536.164	-200.000	-0.032	-0.189
-535.150	-68.240	-0.247	0.096
-534.135	-136.892	-0.170	-0.019
-533.121	217.644	-0.081	-0.128
-532.106	77.866	0.152	0.162
-531.091	272.456	0.230	-0.404
-530.077	-126.570	-0.087	0.013
-529.062	-7.568	0.380	-0.255
-528.048	-191.443	-0.125	0.001
-527.033	800.000	-0.042	0.127
-526.018	-131.078	-0.299	0.040
-525.004	-52.344	-0.169	-0.078
-523.989	-28.752	-0.075	-0.043
-522.975	-8.511	0.019	0.013
-521.960	4.718	0.143	0.104
-520.945	-200.000	0.000	0.028
-519.931	-56.981	-0.271	0.119
-518.916	-49.689	0.448	0.212
-517.902	-200.000	-0.013	0.062
-516.887	333.338	-0.059	0.114
-515.872	-98.571	-0.332	-0.084
-514.858	404.712	0.059	-0.124
-513.843	800.000	0.046	-0.190
-512.829	188.346	0.055	-0.082
-511.814	32.628	0.165	-0.142
-510.799	256.187	0.077	-0.132
-509.785	238.661	-0.050	0.083
-508.770	800.000	-0.046	0.139
-507.756	800.000	0.062	-0.249
-506.741	309.518	0.120	-0.223
-505.726	-28.238	-0.225	0.129
-504.712	169.284	-0.025	-0.035
-503.697	-144.242	-0.078	0.007
-502.683	-62.370	0.177	-0.073
-501.668	-200.000	0.032	-0.294
-500.653	638.625	0.072	0.182
-499.639	292.335	-0.107	-0.194
-498.624	-76.419	-0.239	-0.083
-497.610	-200.000	-0.035	0.205
-496.595	-123.443	0.209	0.033
-495.581	-32.666	-0.176	0.097
-494.566	-200.000	-0.027	0.209
-493.551	471.004	-0.123	-0.275
-492.537	67.109	0.190	0.192
-491.522	67.415	-0.173	-0.175
-490.508	-50.320	0.272	-0.128
-489.493	298.815	0.090	-0.164
-488.478	639.019	-0.082	-0.208
-487.464	-200.000	0.022	-0.266
-486.449	-200.000	-0.007	0.360
-485.435	188.250	0.109	0.162
-484.420	140.831	0.012	0.016
-483.405	-37.678	-0.212	0.112
-482.391	60.695	0.151	0.149
-481.376	-133.295	0.347	0.043
-480.362	-91.653	0.221	-0.063
-479.347	-89.130	-0.150	0.044
-478.332	800.000	-0.065	0.202
-477.318	-200.000	0.005	0.123
-476.303	-5.361	0.294	0.200
-475.289	36.342	-0.272	0.238
-474.274	-78.046	0.044	-0.015
-473.259	-99.795	0.452	0.112
-472.245	800.000	0.048	0.147
-471.230	800.000	-0.073	0.218
-470.216	-84.107	-0.331	0.104
-469.201	-200.000	0.014	0.233
-468.186	800.000	-0.042	0.146
-467.172	23.429	0.015	-0.012
-466.157	-200.000	-0.005	0.081
-465.143	-22.462	0.061	-0.036
-464.128	-18.002	0.179	-0.111
-463.113	32.402	0.187	0.160
-462.099	-200.000	-0.227	0.000
-461.084	-74.205	0.139	0.050
-460.070	800.000	0.062	0.221
-459.055	-59.624	0.412	0.175
-458.040	-173.680	-0.129	0.004
-457.026	800.000	0.053	0.219
-456.011	-103.932	-0.123	0.028
-454.997	-73.476	0.283	-0.103
-453.982	-25.500	0.080	0.047
-452.968	-8.253	-0.105	0.070
-451.953	749.152	0.084	0.224
-450.938	-109.695	-0.104	0.022
-449.924	111.300	-0.187	-0.224
-448.909	-118.972	0.247	-0.043
-447.895	455.254	0.104	-0.229
-446.880	-143.093	-0.232	-0.022
-445.865	693.692	-0.110	-0.285
-444.851	154.618	0.295	0.402
-443.836	-185.712	-0.406	0.006
-442.822	-38.761	-0.170	0.089
-441.807	-134.180	0.081	0.010
-440.792	-161.871	0.356	0.018
-439.778	404.121	0.107	-0.223
-438.763	-200.000	-0.009	0.074
-437.749	-200.000	0.029	0.220
-436.734	-36.512	0.199	0.106
-435.719	12.470	-0.155	-0.118
-434.705	800.000	0.049	0.161
-433.690	10.196	-0.272	-0.205
-432.676	44.357	-0.394	-0.359
-431.661	-9.091	-0.268	0.178
-430.646	-200.000	0.002	-0.205
-429.632	-126.564	-0.037	-0.005
-428.617	-29.607	-0.271	-0.153
-427.603	274.885	0.018	-0.032
-426.588	-79.434	-0.423	-0.142
-425.573	76.926	-0.065	-0.069
-424.559	125.384	-0.156	0.195
-423.544	-114.170	-0.425	0.081
-422.530	-200.000	-0.042	0.266
-421.515	-129.166	-0.313	0.043
-420.500	-19.571	0.214	-0.131
-419.486	-3.383	0.391	-0.269
-418.471	-39.257	-0.306	0.159
-417.457	438.586	-0.085	0.183
-416.442	187.781	-0.078	-0.115
-415.428	-200.000	-0.030	-0.155
-414.413	-200.000	0.118	0.613
-413.398	529.203	0.067	0.158
-412.384	-14.652	-0.176	0.112
-411.369	80.754	0.149	0.159
-410.355	-20.891	0.153	0.093
-409.340	275.239	0.177	-0.311
-408.325	-88.474	0.181	0.054
-407.311	800.000	0.149	0.581
-406.296	699.213	0.086	-0.224
-405.282	155.005	-0.213	-0.290
-404.267	-61.183	0.089	0.037
-403.252	132.584	0.222	0.284
-402.238	366.573	0.086	-0.172
-401.223	-200.000	-0.004	0.347
-400.209	373.095	-0.097	-0.196
-399.194	62.114	-0.060	-0.059
-398.179	425.119	-0.175	-0.372
-397.165	-15.888	-0.357	-0.225
-396.150	92.051	0.183	0.204
-395.136	-175.735	0.191	-0.005
-394.121	165.452	-0.104	0.146
-393.106	-200.000	-0.002	0.157
-392.092	430.962	-0.117	0.250
-391.077	-200.000	-0.005	0.399
-390.063	188.365	0.249	0.369
-389.048	85.111	0.215	0.233
-388.033	-200.000	-0.002	0.161
-387.019	-200.000	0.047	-0.300
-386.004	800.000	-0.076	0.237
-384.990	21.694	0.061	0.049
-383.975	395.050	-0.078	-0.162
-382.960	184.682	0.154	0.225
-381.946	-149.377	0.282	-0.022
-380.931	-158.500	-0.358	0.020
-379.917	-91.849	-0.091	-0.026
-378.902	27.483	-0.142	0.118
-377.888	192.807	-0.054	-0.081
-376.873	-200.000	-0.029	-0.214
-375.858	-103.764	-0.404	-0.093
-374.844	-68.538	-0.051	-0.019
-373.829	-68.299	0.173	-0.066
-372.815	212.783	0.069	-0.108
-371.800	-24.263	0.142	0.084
-370.785	-108.037	0.256	0.055
-369.771	-200.000	0.030	-0.337
-368.756	-23.670	-0.116	-0.068
-367.742	-29.810	-0.097	0.055
-366.727	103.439	-0.181	-0.209
-365.712	-44.241	0.175	-0.087
-364.698	135.312	-0.352	-0.452
-363.683	-200.000	-0.022	-0.305
-362.669	525.616	-0.106	-0.246
-361.654	-112.346	0.286	0.057
-360.639	79.895	-0.223	0.236
-359.625	-187.319	-0.195	-0.003
-358.610	25.422	-0.241	0.198
-357.596	73.148	0.135	-0.139
-356.581	166.316	-0.117	0.164
-355.566	719.318	0.100	-0.263
-354.552	800.000	-0.069	-0.232
-353.537	10.613	0.155	0.117
-352.523	351.309	0.041	-0.080
-351.508	8.860	0.270	-0.201
-350.493	118.378	-0.132	-0.161
-349.479	-200.000	0.005	0.145
-348.464	35.466	0.098	-0.085
-347.450	800.000	-0.015	-0.045
-346.435	-80.972	-0.177	0.058
-345.420	742.919	0.041	0.109
-344.406	639.219	-0.058	0.145
-343.391	54.916	-0.286	0.273
-342.377	230.662	0.099	0.160
-341.362	290.568	-0.121	0.217
-340.348	-200.000	0.060	0.300
-339.333	397.583	0.078	-0.162
-338.318	-155.314	-0.361	0.023
-337.304	57.899	0.319	-0.309
-336.289	25.567	0.268	0.220
-335.275	-30.314	-0.096	-0.054
-334.260	-200.000	0.008	0.320
-333.245	-47.328	-0.467	-0.224
-332.231	97.000	0.069	-0.078
-331.216	-72.278	0.211	-0.077
-330.202	-42.842	0.245	0.123
-329.187	121.971	0.035	-0.043
-328.172	25.887	0.128	0.105
-327.158	301.016	0.075	-0.137
-326.143	86.858	-0.110	0.120
-325.129	119.205	0.117	0.143
-324.114	36.005	0.075	0.065
-323.099	43.055	-0.269	0.242
-322.085	58.880	0.062	0.060
-321.070	380.426	0.129	-0.262
-320.056	94.692	-0.059	0.066
-319.041	115.198	0.014	-0.016
-318.026	-30.936	0.340	-0.189
-317.012	-80.062	-0.276	0.091
-315.997	-200.000	-0.029	0.210
-314.983	205.290	-0.274	0.419
-313.968	94.948	0.055	-0.061
-312.953	-200.000	-0.051	-0.591
-311.939	123.030	0.091	-0.112
-310.924	-200.000	-0.007	0.245
-309.910	800.000	-0.063	0.189
-308.895	30.237	0.206	-0.173
-307.880	22.464	0.349	-0.282
-306.866	-21.529	-0.071	-0.043
-305.851	-114.139	0.322	-0.061
-304.837	-200.000	-0.039	0.208
-303.822	213.863	0.095	0.148
-302.807	-160.219	0.444	-0.024
-301.793	800.000	0.028	0.117
-300.778	610.473	0.089	-0.219
-299.764	-200.000	0.076	-0.454
-298.749	80.642	0.157	-0.167
-297.735	-45.516	-0.163	0.080
-296.720	800.000	0.185	0.723
-295.705	195.509	0.107	0.160
-294.691	-39.401	0.147	-0.076
-293.676	521.642	0.101	0.234
-292.662	98.244	-0.082	-0.093
-291.647	6.264	-0.145	-0.106
-290.632	-200.000	0.015	-0.202
-289.618	800.000	0.115	0.454
-288.603	-92.346	-0.460	0.128
-287.589	-200.000	-0.025	0.166
-286.574	-36.913	0.105	0.056
-285.559	-1.950	-0.149	-0.103
-284.545	-200.000	0.017	0.282
-283.530	-200.000	-0.009	-0.049
-282.516	-72.046	-0.356	-0.130
-281.501	-41.687	0.210	-0.106
-280.486	-79.873	0.315	-0.104
-279.472	-197.093	-0.123	-0.001
-278.457	-35.560	-0.121	0.065
-277.443	32.977	0.098	-0.084
-276.428	-149.756	-0.245	-0.019
-275.413	-45.503	0.163	-0.079
-274.399	-200.000	-0.027	0.166
-273.384	151.741	0.049	-0.066
-272.370	618.556	0.153	0.378
-271.355	41.531	-0.179	-0.160
-270.340	171.414	-0.157	-0.222
-269.326	-160.484	0.218	-0.011
-268.311	-158.284	-0.286	0.016
-267.297	213.519	-0.068	0.105
-266.282	92.575	0.138	-0.153
-265.267	-200.000	-0.035	-0.286
-264.253	-57.664	0.349	0.150
-263.238	-9.134	-0.264	0.174
-262.224	-47.587	0.083	-0.040
-261.209	800.000	0.091	0.306
-260.195	168.469	0.051	0.072
-259.180	165.916	-0.103	0.143
-258.165	52.245	0.236	0.222
-257.151	217.179	-0.127	0.200
-256.136	-9.590	-0.288	0.189
-255.122	-200.000	-0.005	0.046
-254.107	0.169	-0.343	-0.241
-253.092	21.701	-0.093	-0.075
-252.078	454.200	-0.199	0.434
-251.063	-135.312	0.293	-0.034
-250.049	800.000	0.021	0.087
-249.034	-60.398	0.162	0.068
-248.019	-200.000	0.013	0.168
-247.005	26.421	0.137	0.112
-245.990	485.974	0.070	0.157
-244.976	38.300	-0.235	0.206
-243.961	-135.087	-0.091	0.011
-242.946	-159.949	0.314	0.017
-241.932	-200.000	0.001	-0.123
-240.917	-200.000	-0.005	-0.167
-239.903	309.668	-0.023	-0.042
-238.888	-12.760	-0.247	0.158
-237.873	-138.333	0.267	-0.029
-236.859	-200.000	-0.052	0.345
-235.844	109.245	-0.160	-0.188
-234.830	-94.646	0.299	0.080
-233.815	-46.218	-0.236	0.114
-232.800	800.000	0.062	0.189
-231.786	-200.000	0.045	0.432
-230.771	800.000	0.016	0.045
-229.757	-151.015	0.288	-0.021
-228.742	800.000	-0.045	0.186
-227.727	-59.850	-0.143	0.060
-226.713	-200.000	-0.008	-0.237
-225.698	-46.701	-0.083	-0.040
-224.684	-43.580	0.311	0.154
-223.669	-48.271	0.150	-0.071
-222.655	672.669	-0.127	-0.325
-221.640	-94.130	-0.146	0.039
-220.625	-62.945	-0.369	0.150
-219.611	114.586	-0.164	-0.196
-218.596	41.480	0.254	0.226
-217.582	-39.615	0.284	0.146
-216.567	-50.740	-0.189	0.087
-215.552	7.652	-0.317	-0.233
-214.538	552.508	0.018	0.043
-213.523	31.252	-0.125	-0.106
-212.509	-200.000	0.001	-0.072
-211.494	307.914	0.266	-0.487
-210.479	-98.478	0.241	-0.061
-209.465	107.440	0.138	0.161
-208.450	135.675	0.205	0.262
-207.436	-200.000	-0.010	0.352
-206.421	-200.000	-0.014	-0.067
-205.406	800.000	0.088	-0.269
-204.392	800.000	0.047	0.169
-203.377	-117.904	0.212	0.037
-202.363	800.000	0.106	-0.333
-201.348	93.481	0.130	0.145
-200.333	84.072	-0.241	0.258
-199.319	29.834	-0.327	-0.273
-198.304	800.000	-0.027	-0.109
-197.290	-56.870	0.208	0.090
-196.275	-65.893	-0.263	0.103
-195.260	-84.506	0.194	-0.060
-194.246	306.453	0.080	-0.146
-193.231	369.833	0.052	-0.103
-192.217	-22.494	-0.275	0.163
-191.202	800.000	0.047	0.193
-190.187	8.418	0.237	-0.175
-189.173	-200.000	-0.024	0.233
-188.158	-158.552	-0.220	0.012
-187.144	-149.235	0.338	0.026
-186.129	800.000	0.086	0.330
-185.114	-63.699	-0.182	0.073
-184.100	640.627	-0.016	-0.039
-183.085	-164.732	0.096	0.004
-182.071	-77.963	-0.501	-0.169
-181.056	791.761	0.040	0.109
-180.042	-200.000	0.039	0.231
-179.027	390.439	-0.140	0.284
-178.012	177.411	0.022	-0.032
-176.998	800.000	0.021	-0.069
-175.983	800.000	0.059	-0.217
-174.969	116.347	-0.115	0.138
-173.954	-200.000	-0.007	0.128
-172.939	105.930	0.087	0.100
-171.925	48.224	0.112	0.103
-170.910	-138.330	-0.397	0.043
-169.896	-51.421	0.115	-0.053
-168.881	-200.000	0.070	0.382
-167.866	-120.727	0.165	-0.027
-166.852	-55.713	-0.145	0.063
-165.837	87.412	0.291	-0.316
-164.823	575.388	-0.092	-0.220
-163.808	-200.000	0.004	0.133
-162.793	612.378	0.171	0.419
-161.779	715.096	-0.128	0.333
-160.764	279.722	-0.119	-0.208
-159.750	329.229	-0.036	-0.068
-158.735	-200.000	0.086	-0.475
-157.720	-200.000	0.007	0.422
-156.706	-200.000	-0.025	0.380
-155.691	5.352	-0.154	-0.111
-154.677	26.074	0.102	-0.084
-153.662	-188.347	0.562	0.007
-152.647	-61.793	0.163	-0.067
-151.633	-200.000	0.005	-0.259
-150.618	-200.000	0.058	-0.272
-149.604	-200.000	0.003	-0.177
-148.589	-124.988	-0.139	-0.021
-147.574	-77.687	-0.186	-0.063
-146.560	-200.000	0.006	-0.206
-145.545	-200.000	-0.003	0.108
-144.531	260.166	-0.211	-0.358
-143.516	-56.910	-0.220	-0.095
-142.502	-200.000	-0.129	0.000
-141.487	-165.126	-0.175	-0.008
-140.472	-200.000	0.064	-0.309
-139.458	173.715	0.155	0.219
-138.443	-151.298	0.029	0.002
-137.429	800.000	0.089	-0.308
-136.414	449.183	0.052	-0.112
-135.399	163.729	0.372	0.512
-134.385	-143.947	-0.172	-0.016
-133.370	-156.902	-0.280	-0.017
-132.356	-56.367	-0.089	0.039
-131.341	155.148	0.124	-0.167
-130.326	429.621	0.139	0.294
-129.312	-53.778	0.235	-0.105
-128.297	5.507	-0.132	-0.095
-127.283	-188.934	0.116	-0.001
-126.268	-7.894	0.245	0.162
-125.253	70.419	-0.154	0.156
-124.239	-175.490	0.309	0.008
-123.224	-200.000	0.013	-0.117
-122.210	64.816	-0.223	0.220
-121.195	118.683	0.093	0.112
