DTS Sentinel unit serial number:	SN413079Multiplexer serial number:	ORYXHardware model number:	OX4-SRSoftware version number:	ORYX F/W v4.00 Oryx Data Collector v3.7.2.0data status	okinstallation	princeton_trtdifferential loss correction	single-endedforward channel	channel 4reverse channel	N/Adate	2019/09/12time	08:07:11forward acquisition time	60.00reverse acquisition time	0.00gamma	496.2192k internal	0.2303k external	0.2303temperature offset calibration	1.0067default loss term (dB/km)	0.3790temperature slope calibration	1.0000multiplexer offset coefficient	1.0000multiplexer slope coefficient	1.0000fibre end	0.00T internal ref (°C)	33.19T ext. ref 1 (°C)	1.68T ext. ref 2 (°C)	29.66length (m)	temperature (°C)	Stokes	anti-Stokes-747.200	67.440	0.108	0.112
-746.185	-200.000	-0.037	0.632
-745.171	-19.617	-0.243	0.153
-744.156	-200.000	-0.066	0.390
-743.142	8.348	0.282	0.216
-742.127	216.174	0.170	0.276
-741.112	751.073	0.072	0.198
-740.098	615.150	-0.168	0.430
-739.083	228.017	0.146	-0.242
-738.069	52.927	0.335	-0.326
-737.054	-136.162	0.105	-0.012
-736.039	-68.477	-0.491	0.194
-735.025	-200.000	0.017	0.389
-734.010	-54.260	-0.025	0.012
-732.996	800.000	0.062	-0.252
-731.981	719.206	0.039	-0.105
-730.966	-200.000	-0.036	0.281
-729.952	-200.000	0.006	-0.055
-728.937	-200.000	-0.001	-0.138
-727.923	601.086	0.110	-0.279
-726.908	88.489	0.074	-0.084
-725.894	-62.512	-0.159	-0.067
-724.879	-59.802	-0.295	-0.129
-723.864	-200.000	0.000	-0.035
-722.850	-31.444	0.225	0.129
-721.835	265.988	0.111	0.198
-720.821	800.000	0.100	-0.364
-719.806	78.049	0.142	-0.154
-718.791	-8.675	0.248	-0.169
-717.777	152.860	0.134	0.186
-716.762	189.621	-0.171	0.261
-715.748	127.608	0.100	0.129
-714.733	-200.000	-0.052	-0.353
-713.718	525.533	0.092	0.219
-712.704	-68.704	0.083	-0.032
-711.689	-152.564	0.222	0.016
-710.675	-121.429	0.085	-0.014
-709.660	58.518	-0.120	-0.120
-708.645	800.000	0.052	-0.204
-707.631	-17.607	-0.102	-0.065
-706.616	800.000	-0.037	0.150
-705.602	-157.432	-0.017	0.001
-704.587	800.000	0.048	0.198
-703.572	-39.258	-0.132	-0.070
-702.558	-90.988	0.128	0.037
-701.543	-200.000	-0.020	0.120
-700.529	-92.581	-0.180	0.051
-699.514	-200.000	-0.008	-0.046
-698.499	-85.689	0.082	0.026
-697.485	270.843	0.056	0.101
-696.470	-200.000	0.036	-0.291
-695.456	-94.877	-0.110	-0.030
-694.441	-81.736	-0.178	0.059
-693.426	114.087	0.074	-0.092
-692.412	9.948	0.056	0.043
-691.397	214.803	-0.231	0.373
-690.383	1.246	0.214	-0.156
-689.368	-200.000	-0.013	-0.140
-688.354	-121.647	-0.214	0.036
-687.339	-96.880	0.250	-0.067
-686.324	36.743	0.186	0.167
-685.310	800.000	0.131	0.378
-684.295	106.391	0.222	-0.267
-683.281	-171.663	0.164	0.006
-682.266	404.066	-0.161	-0.344
-681.251	22.315	0.188	0.156
-680.237	299.555	-0.230	0.431
-679.222	-124.263	-0.300	0.048
-678.208	159.052	-0.167	0.235
-677.193	-200.000	0.060	0.371
-676.178	-53.027	0.147	0.069
-675.164	0.316	-0.034	-0.025
-674.149	-136.051	-0.063	0.008
-673.135	-200.000	0.003	-0.078
-672.120	105.531	0.139	0.167
-671.105	400.873	0.067	0.142
-670.091	332.359	-0.106	0.207
-669.076	197.788	0.141	0.219
-668.062	-163.861	0.182	-0.009
-667.047	-2.187	0.215	0.153
-666.032	-30.528	-0.076	0.044
-665.018	-126.991	0.295	-0.044
-664.003	-84.691	0.223	0.071
-662.989	-94.031	0.479	-0.134
-661.974	1.987	0.270	-0.198
-660.959	43.283	0.272	-0.252
-659.945	-77.138	0.173	-0.061
-658.930	-113.847	-0.490	0.097
-657.916	184.688	0.178	-0.268
-656.901	-71.423	0.237	0.090
-655.886	254.004	-0.139	-0.241
-654.872	-49.343	0.226	-0.109
-653.857	-78.271	-0.215	0.075
-652.843	-46.779	0.243	0.121
-651.828	-20.322	-0.134	0.084
-650.814	800.000	-0.149	-0.500
-649.799	-119.100	-0.109	0.019
-648.784	328.135	-0.245	-0.477
-647.770	-16.426	-0.173	-0.112
-646.755	238.429	-0.125	-0.211
-645.741	-47.915	0.113	-0.055
-644.726	241.195	-0.097	-0.164
-643.711	183.751	-0.059	-0.088
-642.697	-2.360	-0.090	0.064
-641.682	800.000	-0.030	-0.122
-640.668	-34.992	0.063	-0.035
-639.653	-143.138	0.487	-0.048
-638.638	792.922	-0.126	-0.353
-637.624	23.482	-0.225	-0.188
-636.609	-16.717	0.099	-0.063
-635.595	160.020	-0.179	0.254
-634.580	195.380	0.004	0.007
-633.565	258.229	0.154	0.270
-632.551	0.887	0.379	-0.275
-631.536	19.899	0.231	0.189
-630.522	-200.000	-0.029	0.355
-629.507	-200.000	0.028	-0.138
-628.492	406.460	-0.066	0.142
-627.478	-102.505	-0.232	-0.056
-626.463	403.757	0.053	-0.113
-625.449	-10.691	0.071	-0.048
-624.434	800.000	-0.073	0.314
-623.419	-92.034	0.495	0.142
-622.405	-79.004	0.410	-0.142
-621.390	449.875	0.062	0.138
-620.376	-3.218	-0.187	0.132
-619.361	24.937	0.099	0.083
-618.346	683.137	-0.060	0.158
-617.332	-21.254	0.263	-0.163
-616.317	566.160	-0.120	-0.296
-615.303	-107.580	0.329	0.073
-614.288	449.490	0.197	0.440
-613.273	-13.877	-0.268	0.175
-612.259	20.269	-0.117	0.095
-611.244	800.000	-0.055	-0.215
-610.230	800.000	-0.002	-0.006
-609.215	204.917	0.115	0.180
-608.201	316.297	-0.015	0.029
-607.186	15.343	0.207	0.164
-606.171	-56.076	0.254	0.115
-605.157	-112.173	-0.367	-0.075
-604.142	0.179	0.234	0.169
-603.128	383.173	-0.112	-0.234
-602.113	-43.379	0.316	-0.162
-601.098	-90.273	0.097	0.028
-600.084	-40.685	-0.226	0.118
-599.069	-99.041	0.341	-0.087
-598.055	-29.741	-0.257	-0.149
-597.040	462.157	0.123	0.279
-596.025	82.373	-0.158	-0.174
-595.011	-40.628	0.292	-0.154
-593.996	-99.425	0.532	0.136
-592.982	339.528	0.119	0.235
-591.967	51.272	-0.198	0.191
-590.952	322.259	-0.079	-0.152
-589.938	-85.888	-0.276	-0.086
-588.923	-195.587	-0.143	-0.001
-587.909	-96.246	0.210	0.056
-586.894	176.010	-0.110	0.162
-585.879	-49.766	-0.229	-0.110
-584.865	16.591	-0.186	0.149
-583.850	800.000	-0.078	-0.224
-582.836	-92.147	0.279	-0.080
-581.821	51.121	-0.183	-0.176
-580.806	-200.000	-0.059	-0.353
-579.792	-200.000	-0.003	0.064
-578.777	-200.000	-0.020	0.114
-577.763	-132.373	0.341	-0.045
-576.748	800.000	0.069	-0.226
-575.733	38.049	0.218	-0.197
-574.719	4.067	-0.180	-0.134
-573.704	-51.712	0.289	0.136
-572.690	-200.000	0.017	0.117
-571.675	237.746	-0.042	0.071
-570.661	-166.503	-0.313	-0.013
-569.646	800.000	-0.063	0.221
-568.631	5.824	-0.052	-0.039
-567.617	-200.000	0.008	-0.038
-566.602	-3.952	-0.150	0.105
-565.588	-97.424	0.195	-0.051
-564.573	-104.408	0.204	-0.048
-563.558	-77.616	-0.118	-0.041
-562.544	153.407	-0.115	-0.159
-561.529	-200.000	0.092	-0.440
-560.515	-200.000	-0.019	0.093
-559.500	-38.904	0.188	0.100
-558.485	-66.803	-0.103	-0.041
-557.471	-200.000	0.037	-0.308
-556.456	800.000	-0.051	-0.180
-555.442	-200.000	0.000	-0.125
-554.427	36.814	0.262	-0.234
-553.412	44.345	0.104	-0.096
-552.398	-119.609	-0.289	-0.051
-551.383	-2.999	0.198	-0.139
-550.369	800.000	-0.036	0.108
-549.354	-136.763	0.103	-0.012
-548.339	121.961	0.107	-0.135
-547.325	-200.000	-0.008	-0.319
-546.310	800.000	0.108	0.381
-545.296	42.113	0.137	0.125
-544.281	-200.000	0.021	-0.137
-543.266	66.955	-0.099	-0.102
-542.252	-187.079	-0.105	0.001
-541.237	-200.000	0.009	-0.109
-540.223	800.000	0.112	0.391
-539.208	800.000	0.035	-0.149
-538.193	-200.000	-0.002	-0.157
-537.179	-100.310	-0.060	-0.015
-536.164	-80.967	-0.077	0.026
-535.150	-105.966	0.199	0.045
-534.135	-134.058	0.223	-0.028
-533.121	800.000	0.128	0.374
-532.106	800.000	-0.032	-0.128
-531.091	-135.533	-0.303	0.036
-530.077	93.589	-0.133	-0.152
-529.062	-29.003	0.143	-0.083
-528.048	-200.000	-0.015	0.400
-527.033	800.000	-0.075	-0.220
-526.018	242.062	0.065	-0.109
-525.004	48.126	0.157	0.148
-523.989	800.000	-0.034	-0.110
-522.975	800.000	0.098	0.307
-521.960	-107.335	-0.288	0.064
-520.945	1.424	0.313	0.227
-519.931	-33.357	-0.169	-0.095
-518.916	-86.764	0.254	-0.079
-517.902	-150.007	0.217	-0.017
-516.887	57.759	-0.074	-0.073
-515.872	21.582	-0.204	-0.167
-514.858	25.693	-0.305	-0.257
-513.843	-126.665	0.336	-0.050
-512.829	800.000	0.013	-0.058
-511.814	-119.563	0.109	-0.019
-510.799	-200.000	-0.032	0.201
-509.785	-200.000	-0.056	-0.320
-508.770	-6.116	0.269	0.186
-507.756	800.000	0.010	0.030
-506.741	-166.460	-0.119	-0.005
-505.726	-129.953	0.022	-0.003
-504.712	-98.520	0.408	0.105
-503.697	184.230	0.138	0.207
-502.683	27.686	-0.128	-0.109
-501.668	701.552	0.091	-0.241
-500.653	-37.113	-0.136	-0.073
-499.639	186.627	-0.176	0.264
-498.624	-57.129	0.277	0.123
-497.610	-200.000	0.011	0.147
-496.595	-47.159	0.323	-0.159
-495.581	398.426	-0.109	-0.229
-494.566	-200.000	0.016	0.163
-493.551	-40.420	0.110	0.058
-492.537	-143.106	-0.308	0.030
-491.522	287.489	-0.078	-0.142
-490.508	-94.326	-0.448	-0.123
-489.493	-200.000	0.010	0.250
-488.478	-200.000	-0.002	0.251
-487.464	800.000	-0.033	0.106
-486.449	33.041	0.256	0.224
-485.435	-109.374	-0.021	-0.004
-484.420	-200.000	-0.049	-0.244
-483.405	-86.946	-0.519	-0.159
-482.391	-128.156	-0.219	-0.032
-481.376	-87.315	0.096	0.029
-480.362	8.586	-0.229	-0.174
-479.347	29.490	0.260	-0.223
-478.332	34.128	-0.152	-0.133
-477.318	251.216	-0.133	-0.228
-476.303	-186.079	0.372	0.006
-475.289	-200.000	-0.027	-0.263
-474.274	-165.705	-0.269	0.012
-473.259	-96.599	0.285	-0.076
-472.245	-30.698	-0.240	0.137
-471.230	800.000	0.137	-0.488
-470.216	-24.121	0.189	-0.114
-469.201	513.663	-0.169	0.396
-468.186	262.211	0.085	-0.149
-467.172	38.119	-0.061	0.055
-466.157	-83.798	0.215	0.069
-465.143	-136.587	-0.209	-0.024
-464.128	-140.658	-0.176	-0.018
-463.113	305.313	0.095	0.178
-462.099	-200.000	0.017	-0.106
-461.084	800.000	-0.051	0.155
-460.070	-41.359	-0.173	0.090
-459.055	25.213	-0.257	-0.215
-458.040	800.000	-0.119	0.423
-457.026	97.643	0.167	0.194
-456.011	64.760	-0.243	-0.247
-454.997	-200.000	-0.000	0.105
-453.982	385.434	0.048	0.100
-452.968	-79.827	0.240	0.081
-451.953	52.061	0.142	0.136
-450.938	-75.499	-0.357	0.128
-449.924	486.479	0.048	-0.110
-448.909	500.127	0.250	-0.581
-447.895	48.818	0.049	-0.046
-446.880	76.193	0.204	0.218
-445.865	-151.989	-0.397	-0.029
-444.851	-200.000	0.088	0.472
-443.836	-28.367	0.122	0.071
-442.822	-200.000	0.029	0.187
-441.807	161.668	-0.078	-0.110
-440.792	-147.747	0.197	-0.017
-439.778	419.288	0.152	0.328
-438.763	-51.426	0.269	0.127
-437.749	-200.000	0.009	0.078
-436.734	254.065	-0.086	0.148
-435.719	-200.000	0.015	-0.142
-434.705	-124.466	0.344	-0.054
-433.690	-60.460	0.223	0.095
-432.676	-64.088	0.188	-0.077
-431.661	-25.509	-0.048	-0.029
-430.646	800.000	-0.181	-0.510
-429.632	94.361	-0.066	0.075
-428.617	-37.339	0.096	0.052
-427.603	-87.918	0.264	-0.080
-426.588	-53.538	0.254	-0.117
-425.573	-40.811	0.098	-0.051
-424.559	-89.879	-0.137	-0.040
-423.544	13.212	-0.278	0.217
-422.530	542.490	-0.134	-0.321
-421.515	793.987	0.045	-0.126
-420.500	-125.756	0.347	-0.053
-419.486	-200.000	-0.024	0.146
-418.471	440.475	-0.111	-0.244
-417.457	800.000	-0.042	-0.146
-416.442	-41.384	0.258	-0.134
-415.428	11.639	-0.085	0.066
-414.413	377.787	0.120	0.246
-413.398	-122.954	-0.202	0.033
-412.384	361.616	0.078	-0.158
-411.369	-47.424	-0.140	0.068
-410.355	-200.000	0.065	0.403
-409.340	-70.316	-0.193	0.074
-408.325	-99.126	-0.119	-0.030
-407.311	12.716	0.124	-0.096
-406.296	-145.226	0.229	0.021
-405.282	-200.000	0.003	0.590
-404.267	-200.000	-0.074	0.403
-403.252	800.000	0.071	0.199
-402.238	-75.898	-0.114	0.041
-401.223	84.682	0.208	-0.229
-400.209	79.776	-0.281	-0.304
-399.194	-200.000	-0.025	0.178
-398.179	-154.414	0.216	-0.015
-397.165	252.353	0.122	-0.209
-396.150	-23.540	-0.105	-0.063
-395.136	-200.000	-0.024	-0.178
-394.121	565.822	-0.107	0.260
-393.106	376.217	-0.128	-0.263
-392.092	148.905	0.081	-0.110
-391.077	-55.494	0.238	-0.107
-390.063	-75.618	-0.193	0.069
-389.048	-139.629	0.287	0.031
-388.033	79.451	-0.251	0.271
-387.019	-1.517	-0.197	0.140
-386.004	-200.000	0.034	0.197
-384.990	-87.695	-0.381	-0.116
-383.975	-57.989	0.046	-0.020
-382.960	130.832	-0.092	-0.119
-381.946	25.718	-0.194	0.163
-380.931	31.455	-0.357	-0.308
-379.917	174.104	-0.138	0.200
-378.902	165.661	-0.086	-0.122
-377.888	254.054	0.206	-0.353
-376.873	-132.504	0.329	0.043
-375.858	-31.897	-0.262	-0.147
-374.844	800.000	-0.101	-0.433
-373.829	-155.756	-0.212	0.014
-372.815	176.012	-0.214	0.312
-371.800	123.716	0.132	0.167
-370.785	31.265	-0.302	0.261
-369.771	92.857	0.089	-0.101
-368.756	-92.917	-0.336	0.094
-367.742	133.264	-0.046	-0.059
-366.727	67.735	-0.075	0.077
-365.712	40.762	-0.087	0.078
-364.698	629.220	0.139	0.353
-363.683	800.000	0.038	-0.139
-362.669	800.000	0.125	-0.410
-361.654	-56.635	-0.185	-0.082
-360.639	239.435	-0.018	-0.030
-359.625	-18.249	0.163	-0.103
-358.610	61.117	0.156	0.155
-357.596	94.284	-0.087	0.099
-356.581	-5.445	-0.246	-0.170
-355.566	276.386	0.069	0.123
-354.552	800.000	-0.038	-0.124
-353.537	25.156	0.199	-0.166
-352.523	-87.940	0.105	-0.032
-351.508	-200.000	0.008	0.413
-350.493	-48.255	0.113	0.055
-349.479	314.298	-0.023	-0.043
-348.464	71.812	-0.166	0.173
-347.450	163.745	-0.110	0.155
-346.435	672.422	0.075	-0.196
-345.420	-200.000	-0.016	-0.211
-344.406	-200.000	0.053	0.237
-343.391	179.171	-0.275	-0.404
-342.377	-66.548	0.213	0.085
-341.362	-200.000	-0.083	0.363
-340.348	80.400	0.116	0.125
-339.333	-200.000	0.006	-0.190
-338.318	-200.000	0.031	-0.346
-337.304	337.907	0.038	0.074
-336.289	537.963	-0.076	-0.182
-335.275	-200.000	-0.022	0.213
-334.260	800.000	0.058	0.173
-333.245	-129.473	-0.034	0.005
-332.231	15.964	0.245	-0.193
-331.216	134.272	-0.101	-0.131
-330.202	-69.273	0.153	-0.059
-329.187	178.963	0.154	0.225
-328.172	32.580	0.123	-0.107
-327.158	-103.276	-0.416	-0.098
-326.143	-200.000	0.051	0.359
-325.129	-9.268	0.031	-0.021
-324.114	-119.286	0.210	0.037
-323.099	-119.205	-0.211	0.037
-322.085	-200.000	-0.020	-0.139
-321.070	-18.244	-0.211	0.132
-320.056	-200.000	-0.015	-0.228
-319.041	59.080	-0.137	-0.135
-318.026	-122.535	-0.248	-0.040
-317.012	-133.901	-0.123	-0.015
-315.997	800.000	0.016	-0.047
-314.983	-56.602	-0.174	-0.077
-313.968	62.298	0.132	-0.132
-312.953	6.118	-0.188	-0.139
-311.939	-11.552	-0.070	-0.046
-310.924	-200.000	-0.006	-0.052
-309.910	-66.314	-0.258	0.103
-308.895	-4.136	-0.316	-0.219
-307.880	-131.717	-0.186	0.024
-306.866	7.406	-0.255	-0.190
-305.851	-37.604	0.144	-0.077
-304.837	-114.015	0.093	0.018
-303.822	-200.000	-0.013	-0.138
-302.807	269.668	0.095	-0.167
-301.793	-200.000	0.007	-0.078
-300.778	25.630	-0.209	0.174
-299.764	11.572	0.315	-0.242
-298.749	1.993	-0.141	-0.102
-297.735	800.000	0.090	0.322
-296.720	-66.262	-0.193	-0.077
-295.705	71.242	-0.320	-0.333
-294.691	-3.837	0.074	-0.051
-293.676	675.262	-0.056	0.146
-292.662	467.980	-0.035	0.079
-291.647	298.363	-0.112	0.207
-290.632	-112.716	-0.140	0.028
-289.618	24.033	-0.082	0.067
-288.603	175.365	0.101	-0.147
-287.589	286.355	-0.109	-0.196
-286.574	110.728	0.176	-0.211
-285.559	27.155	0.216	0.181
-284.545	-15.129	0.232	0.149
-283.530	-200.000	-0.000	-0.021
-282.516	456.752	-0.117	0.259
-281.501	-156.356	0.218	0.014
-280.486	123.447	-0.131	-0.164
-279.472	567.339	0.148	-0.359
-278.457	-52.035	-0.249	-0.116
-277.443	-118.505	0.213	-0.038
-276.428	-130.622	-0.035	0.005
-275.413	-76.992	0.151	-0.053
-274.399	-73.419	0.172	0.063
-273.384	-49.091	0.178	0.085
-272.370	325.030	0.049	-0.094
-271.355	116.130	-0.122	-0.149
-270.340	800.000	0.048	0.206
-269.326	-70.758	-0.260	0.098
-268.311	-17.189	0.037	0.023
-267.297	-200.000	-0.021	-0.158
-266.282	-70.972	-0.139	-0.052
-265.267	-31.026	0.400	-0.226
-264.253	-200.000	0.074	0.437
-263.238	800.000	0.021	0.078
-262.224	-200.000	0.003	0.089
-261.209	663.995	0.053	0.136
-260.195	-179.367	0.418	-0.009
-259.180	800.000	-0.017	0.051
-258.165	27.537	0.191	0.160
-257.151	-47.272	0.170	-0.083
-256.136	-100.962	0.203	0.050
-255.122	751.358	-0.114	0.307
-254.107	-6.486	0.257	0.175
-253.092	148.620	0.154	-0.208
-252.078	268.852	-0.132	0.231
-251.063	-71.865	-0.486	0.181
-250.049	659.374	0.015	-0.038
-249.034	-189.161	-0.077	0.001
-248.019	77.731	0.132	-0.141
-247.005	72.283	-0.171	0.178
-245.990	-200.000	0.015	-0.253
-244.976	-117.222	0.261	0.047
-243.961	583.915	0.014	-0.033
-242.946	-101.486	-0.240	-0.058
-241.932	-55.488	0.037	0.017
-240.917	716.505	-0.084	0.223
-239.903	-200.000	-0.015	0.205
-238.888	-168.143	0.301	-0.012
-237.873	503.620	0.021	0.049
-236.859	-200.000	0.018	-0.085
-235.844	-69.888	-0.170	0.065
-234.830	-92.725	-0.122	0.034
-233.815	-200.000	-0.031	0.209
-232.800	-200.000	-0.008	0.096
-231.786	500.853	-0.068	0.158
-230.771	24.906	-0.319	0.264
-229.757	-200.000	-0.021	0.116
-228.742	-147.211	-0.285	-0.024
-227.727	590.255	0.038	-0.094
-226.713	-200.000	-0.053	0.275
-225.698	110.739	0.182	0.218
-224.684	-200.000	0.033	0.188
-223.669	96.751	-0.162	0.185
-222.655	101.274	0.124	0.145
-221.640	-148.800	-0.101	0.008
-220.625	-21.760	0.186	0.113
-219.611	-12.865	-0.206	-0.134
-218.596	-200.000	-0.010	0.107
-217.582	-189.583	0.208	-0.002
-216.567	-200.000	0.325	-0.001
-215.552	190.569	0.197	-0.296
-214.538	164.356	0.025	-0.036
-213.523	-200.000	0.000	-0.036
-212.509	-200.000	0.029	0.278
-211.494	81.090	0.053	-0.057
-210.479	800.000	0.049	-0.178
-209.465	-113.404	-0.089	0.017
-208.450	-18.326	-0.371	-0.231
-207.436	800.000	0.059	-0.208
-206.421	50.534	-0.212	0.200
-205.406	-21.207	-0.284	0.173
-204.392	-200.000	-0.056	-0.388
-203.377	59.026	0.099	-0.097
-202.363	14.815	0.218	-0.170
-201.348	-200.000	0.048	-0.650
-200.333	-3.097	-0.239	0.166
-199.319	800.000	0.018	0.066
-198.304	737.398	-0.115	-0.308
-197.290	-0.001	0.084	-0.059
-196.275	-200.000	-0.028	-0.139
-195.260	733.555	0.055	-0.147
-194.246	-118.102	0.113	0.020
-193.231	800.000	-0.058	0.227
-192.217	-139.165	0.064	0.007
-191.202	32.201	-0.085	-0.073
-190.187	-200.000	0.077	-0.434
-189.173	-2.198	0.184	0.129
-188.158	-200.000	-0.008	-0.157
-187.144	-11.880	0.191	-0.125
-186.129	-65.528	-0.300	0.120
-185.114	91.946	-0.130	0.146
-184.100	483.804	-0.059	0.133
-183.085	136.631	-0.229	0.298
-182.071	-200.000	0.007	0.144
-181.056	169.273	0.167	-0.238
-180.042	438.628	0.063	-0.137
-179.027	769.125	-0.076	0.205
-178.012	-73.214	0.146	0.053
-176.998	-200.000	0.018	-0.116
-175.983	-100.286	-0.189	0.047
-174.969	-161.798	-0.021	-0.001
-173.954	-200.000	0.036	0.187
-172.939	13.242	0.179	0.138
-171.925	-114.264	-0.035	0.007
-170.910	-16.704	-0.193	-0.122
-169.896	742.115	-0.137	0.367
-168.881	-200.000	0.016	0.227
-167.866	57.995	0.096	-0.094
-166.852	25.375	0.250	-0.207
-165.837	10.429	-0.037	0.028
-164.823	153.303	0.052	0.071
-163.808	-200.000	-0.056	0.459
-162.793	800.000	-0.103	0.348
-161.779	-104.285	-0.397	-0.092
-160.764	-87.396	-0.084	0.025
-159.750	-27.283	0.234	0.136
-158.735	117.544	-0.117	-0.143
-157.720	-135.515	-0.120	0.014
-156.706	273.703	-0.091	0.161
-155.691	-200.000	0.051	0.231
-154.677	-106.979	0.244	-0.054
-153.662	-21.290	-0.221	0.134
-152.647	14.429	-0.065	-0.051
-151.633	-200.000	-0.056	0.329
-150.618	-148.992	0.312	0.025
-149.604	113.160	0.140	-0.169
-148.589	800.000	0.151	0.421
-147.574	-32.501	0.116	-0.064
-146.560	193.313	0.192	-0.289
-145.545	164.767	0.259	0.364
-144.531	-200.000	-0.008	-0.150
-143.516	800.000	-0.081	0.293
-142.502	-94.469	-0.150	0.041
-141.487	287.627	-0.076	-0.137
-140.472	38.908	-0.242	0.215
-139.458	212.735	0.105	0.165
-138.443	108.096	0.138	0.163
-137.429	-103.697	0.318	-0.074
-136.414	-86.615	0.240	0.073
-135.399	89.990	0.088	0.098
-134.385	-23.515	0.354	-0.211
-133.370	478.140	0.077	0.174
-132.356	100.194	-0.179	-0.207
-131.341	-200.000	-0.016	0.272
-130.326	58.772	-0.235	-0.229
-129.312	-161.798	0.257	-0.013
-128.297	108.690	-0.280	-0.332
-127.283	-22.450	-0.336	0.202
-126.268	-64.795	-0.316	0.127
-125.253	-59.529	0.168	-0.072
-124.239	0.087	0.038	0.027
-123.224	800.000	0.097	-0.270
-122.210	5.415	0.152	0.111
-121.195	222.690	0.071	0.114
-120.180	18.700	0.113	0.090
