DTS Sentinel unit serial number:	SN413079Multiplexer serial number:	ORYXHardware model number:	OX4-SRSoftware version number:	ORYX F/W v4.00 Oryx Data Collector v3.7.2.0data status	okinstallation	princeton_trtdifferential loss correction	single-endedforward channel	channel 4reverse channel	N/Adate	2019/09/16time	23:05:34forward acquisition time	60.00reverse acquisition time	0.00gamma	496.2192k internal	0.2314k external	0.2314temperature offset calibration	0.9975default loss term (dB/km)	0.3790temperature slope calibration	1.0000multiplexer offset coefficient	1.0000multiplexer slope coefficient	1.0000fibre end	0.00T internal ref (°C)	30.25T ext. ref 1 (°C)	0.08T ext. ref 2 (°C)	23.95length (m)	temperature (°C)	Stokes	anti-Stokes-747.200	-118.239	0.533	-0.096
-746.185	-124.704	-0.191	-0.030
-745.171	223.871	0.102	-0.167
-744.156	187.702	-0.205	0.311
-743.142	-149.301	-0.118	0.010
-742.127	-38.160	-0.315	0.169
-741.112	141.923	-0.053	0.071
-740.098	800.000	0.126	0.447
-739.083	30.579	-0.136	-0.118
-738.069	120.522	-0.219	0.276
-737.054	76.719	-0.044	-0.048
-736.039	-97.236	-0.083	0.022
-735.025	-196.601	0.253	-0.002
-734.010	-179.038	-0.294	0.007
-732.996	201.061	0.145	-0.226
-731.981	34.496	0.089	0.079
-730.966	-121.781	-0.228	0.038
-729.952	692.272	0.088	-0.234
-728.937	-200.000	-0.020	-0.178
-727.923	46.587	-0.232	0.218
-726.908	800.000	0.065	0.233
-725.894	-102.062	-0.276	0.067
-724.879	-192.604	0.152	-0.001
-723.864	-41.720	-0.182	-0.095
-722.850	-23.708	0.161	-0.098
-721.835	54.972	0.238	-0.232
-720.821	13.184	-0.092	-0.072
-719.806	-200.000	0.004	0.052
-718.791	631.216	0.108	-0.277
-717.777	800.000	-0.061	0.215
-716.762	572.556	-0.057	-0.141
-715.748	-12.939	0.078	-0.051
-714.733	-52.180	0.132	-0.062
-713.718	-101.027	-0.182	-0.045
-712.704	-92.868	-0.069	0.020
-711.689	-200.000	0.011	0.099
-710.675	-200.000	0.029	0.232
-709.660	335.257	0.109	-0.214
-708.645	30.588	-0.204	0.177
-707.631	-200.000	0.029	0.161
-706.616	324.281	-0.108	0.208
-705.602	67.174	-0.168	-0.174
-704.587	-117.623	0.166	0.030
-703.572	-57.771	-0.393	-0.174
-702.558	-109.641	-0.492	-0.105
-701.543	205.116	-0.044	-0.069
-700.529	691.101	-0.066	-0.175
-699.514	561.137	-0.078	0.191
-698.499	-200.000	-0.009	0.337
-697.485	-100.115	-0.364	0.092
-696.470	-200.000	-0.032	0.226
-695.456	-114.218	0.202	0.039
-694.441	-200.000	-0.018	0.163
-693.426	721.868	-0.087	-0.235
-692.412	-143.886	0.074	0.007
-691.397	447.393	-0.094	-0.210
-690.383	-5.682	-0.240	-0.166
-689.368	682.629	0.037	-0.098
-688.354	-19.570	-0.143	0.090
-687.339	27.339	0.233	0.198
-686.324	-196.077	0.134	0.001
-685.310	-92.458	0.291	0.083
-684.295	163.949	-0.177	-0.252
-683.281	-44.090	-0.078	-0.040
-682.266	-33.573	-0.277	0.155
-681.251	193.600	0.050	-0.077
-680.237	-137.376	0.217	-0.025
-679.222	-95.665	-0.409	-0.111
-678.208	-200.000	-0.028	-0.294
-677.193	-27.590	0.143	-0.084
-676.178	177.312	0.134	-0.198
-675.164	3.293	-0.299	0.220
-674.149	155.602	0.201	-0.280
-673.135	77.882	0.096	0.104
-672.120	-37.832	-0.373	-0.201
-671.105	447.318	-0.064	0.143
-670.091	39.201	-0.136	0.123
-669.076	-200.000	-0.342	-0.001
-668.062	320.275	0.159	-0.305
-667.047	-200.000	-0.066	-0.418
-666.032	177.454	-0.127	0.186
-665.018	800.000	0.092	-0.381
-664.003	342.820	-0.086	-0.171
-662.989	225.594	0.101	0.165
-661.974	-109.041	0.103	0.022
-660.959	162.560	0.049	-0.069
-659.945	140.544	-0.169	0.226
-658.930	-178.487	0.147	0.003
-657.916	-1.280	0.157	-0.112
-656.901	326.272	0.160	-0.310
-655.886	156.120	-0.148	0.207
-654.872	143.997	-0.194	-0.262
-653.857	-6.006	0.104	-0.072
-652.843	-2.878	-0.198	0.140
-651.828	52.380	-0.269	0.259
-650.814	-200.000	-0.014	-0.087
-649.799	-127.030	-0.307	-0.046
-648.784	-200.000	-0.057	-0.457
-647.770	-191.505	0.155	-0.002
-646.755	11.760	-0.079	-0.061
-645.741	396.257	0.076	0.159
-644.726	-3.013	0.202	0.142
-643.711	-200.000	0.252	0.001
-642.697	66.999	0.253	-0.260
-641.682	800.000	-0.060	-0.204
-640.668	57.305	0.246	-0.242
-639.653	48.203	-0.060	-0.057
-638.638	-102.021	-0.086	-0.021
-637.624	-36.720	0.313	-0.170
-636.609	-81.817	-0.145	0.048
-635.595	-94.301	0.208	0.057
-634.580	32.516	0.116	-0.101
-633.565	-98.769	-0.248	0.064
-632.551	489.743	0.107	0.248
-631.536	-99.805	-0.122	0.031
-630.522	-23.892	0.145	-0.088
-629.507	160.774	-0.209	-0.295
-628.492	800.000	0.097	0.338
-627.478	-178.143	-0.270	0.006
-626.463	32.120	0.107	-0.093
-625.449	800.000	-0.059	-0.235
-624.434	-117.578	-0.073	0.013
-623.419	-200.000	-0.025	0.215
-622.405	43.446	-0.086	0.079
-621.390	-128.693	-0.324	0.046
-620.376	-180.482	-0.318	-0.007
-619.361	-71.612	0.136	-0.051
-618.346	800.000	0.081	0.273
-617.332	-61.687	-0.201	-0.085
-616.317	78.687	-0.256	0.276
-615.303	-200.000	-0.001	0.126
-614.288	25.274	-0.093	0.078
-613.273	181.058	0.212	-0.315
-612.259	800.000	-0.017	0.075
-611.244	95.161	-0.268	0.308
-610.230	706.255	-0.096	0.256
-609.215	-200.000	0.000	0.140
-608.201	-145.717	0.319	-0.029
-607.186	-41.249	0.163	0.085
-606.171	-200.000	0.026	0.262
-605.157	-90.355	0.058	0.017
-604.142	165.992	0.080	-0.114
-603.128	431.091	0.080	0.175
-602.113	-54.954	0.145	-0.066
-601.098	800.000	-0.046	-0.174
-600.084	800.000	-0.112	-0.344
-599.069	-171.056	-0.058	0.002
-598.055	7.756	-0.125	0.094
-597.040	-200.000	-0.003	0.224
-596.025	-84.327	-0.151	-0.048
-595.011	128.812	0.251	0.322
-593.996	-123.769	0.222	0.035
-592.982	-200.000	0.009	0.157
-591.967	800.000	0.036	0.103
-590.952	-87.742	0.020	0.006
-589.938	-35.110	0.218	0.120
-588.923	-130.808	0.232	-0.031
-587.909	122.012	0.150	0.189
-586.894	53.019	0.205	-0.198
-585.879	-200.000	0.029	-0.151
-584.865	-112.326	-0.479	-0.097
-583.850	122.486	0.171	0.215
-582.836	-5.359	-0.208	-0.144
-581.821	-120.914	0.143	0.024
-580.806	114.517	0.050	-0.061
-579.792	281.845	-0.052	0.094
-578.777	7.864	0.207	0.156
-577.763	-200.000	0.006	0.227
-576.748	329.869	0.018	-0.034
-575.733	800.000	0.138	0.472
-574.719	-200.000	-0.024	0.334
-573.704	54.658	0.146	0.142
-572.690	67.258	-0.140	-0.144
-571.675	-124.317	-0.257	-0.040
-570.661	-155.612	-0.283	-0.018
-569.646	514.422	-0.109	-0.256
-568.631	-187.060	0.208	0.003
-567.617	-67.485	-0.230	-0.091
-566.602	233.211	-0.187	-0.309
-565.588	688.409	0.079	-0.209
-564.573	-69.188	-0.453	-0.175
-563.558	-79.833	-0.168	-0.057
-562.544	-126.480	0.322	-0.048
-561.529	12.862	0.413	-0.322
-560.515	-105.358	0.243	-0.056
-559.500	342.372	0.071	-0.139
-558.485	-119.150	-0.093	0.016
-557.471	-200.000	-0.611	0.002
-556.456	64.555	0.281	-0.285
-555.442	800.000	-0.044	-0.157
-554.427	-11.657	0.236	0.156
-553.412	-200.000	-0.110	0.594
-552.398	-100.743	-0.133	0.033
-551.383	-130.095	0.386	-0.053
-550.369	131.975	-0.261	0.338
-549.354	211.711	0.180	0.285
-548.339	50.204	-0.299	-0.284
-547.325	72.684	-0.126	-0.133
-546.310	19.892	0.039	-0.031
-545.296	134.587	0.154	-0.200
-544.281	-114.301	-0.140	0.027
-543.266	-101.633	0.214	-0.052
-542.252	233.694	0.259	-0.428
-541.237	-200.000	-0.047	0.264
-540.223	-200.000	-0.015	-0.117
-539.208	-79.052	0.114	-0.039
-538.193	38.035	0.192	-0.171
-537.179	-103.615	0.277	-0.065
-536.164	-123.271	-0.233	0.037
-535.150	-200.000	-0.040	0.215
-534.135	228.455	0.172	0.282
-533.121	-105.634	-0.101	0.023
-532.106	-97.229	0.314	-0.083
-531.091	539.923	0.017	-0.041
-530.077	-0.812	-0.075	0.053
-529.062	59.364	-0.242	-0.240
-528.048	800.000	0.013	-0.036
-527.033	-113.974	-0.121	-0.024
-526.018	-59.240	-0.294	0.127
-525.004	149.010	-0.170	-0.231
-523.989	249.322	0.056	0.096
-522.975	-200.000	-0.008	-0.088
-521.960	-2.582	-0.189	0.133
-520.945	266.384	-0.122	-0.214
-519.931	-130.749	0.100	0.014
-518.916	-106.310	-0.166	-0.037
-517.902	110.624	-0.137	-0.166
-516.887	-29.417	0.140	0.081
-515.872	248.135	-0.080	0.136
-514.858	-13.085	-0.071	-0.046
-513.843	-200.000	0.063	0.382
-512.829	-105.182	0.194	-0.044
-511.814	594.809	0.044	-0.111
-510.799	800.000	-0.122	-0.379
-509.785	-15.610	0.320	-0.205
-508.770	-173.859	-0.091	0.003
-507.756	246.493	-0.087	-0.147
-506.741	28.556	0.127	-0.108
-505.726	92.083	-0.175	-0.198
-504.712	591.687	-0.069	-0.170
-503.697	800.000	0.099	-0.309
-502.683	-79.428	-0.049	0.017
-501.668	-74.919	0.226	0.081
-500.653	-85.310	-0.255	0.080
-499.639	-15.823	0.289	0.185
-498.624	128.360	-0.113	-0.144
-497.610	40.350	0.276	0.250
-496.595	44.960	0.095	0.088
-495.581	164.134	0.118	-0.166
-494.566	-162.440	-0.156	0.008
-493.551	-189.796	-0.174	0.002
-492.537	-89.220	0.115	0.034
-491.522	301.386	0.119	-0.220
-490.508	-200.000	-0.017	-0.414
-489.493	-103.815	0.344	-0.081
-488.478	-112.004	0.213	0.043
-487.464	-70.254	-0.330	-0.126
-486.449	22.766	0.045	0.037
-485.435	456.694	0.062	-0.138
-484.420	644.295	-0.067	-0.173
-483.405	800.000	-0.041	-0.156
-482.391	-200.000	0.004	-0.318
-481.376	82.615	0.114	0.125
-480.362	-200.000	-0.082	0.361
-479.347	-200.000	0.009	0.225
-478.332	-50.195	-0.056	0.026
-477.318	-200.000	0.003	-0.053
-476.303	113.912	-0.195	0.238
-475.289	-67.424	-0.178	0.070
-474.274	-200.000	0.001	0.132
-473.259	-70.112	-0.213	-0.081
-472.245	277.002	0.075	0.134
-471.230	-141.792	0.347	-0.035
-470.216	-57.357	0.130	-0.057
-469.201	292.703	-0.048	-0.088
-468.186	-156.225	0.180	-0.011
-467.172	298.970	0.089	-0.164
-466.157	-200.000	-0.007	0.157
-465.143	-80.332	0.365	0.122
-464.128	375.647	0.052	0.107
-463.113	10.463	0.192	-0.146
-462.099	34.581	-0.093	-0.081
-461.084	-120.780	0.344	-0.058
-460.070	137.111	0.168	-0.221
-459.055	-200.000	0.019	0.154
-458.040	-23.092	0.185	-0.112
-457.026	-48.049	0.273	-0.132
-456.011	58.898	0.128	0.126
-454.997	-110.158	-0.058	0.012
-453.982	25.034	0.106	0.088
-452.968	227.645	0.108	0.176
-451.953	-50.529	-0.228	0.108
-450.938	347.263	-0.120	-0.238
-449.924	-107.588	-0.249	0.055
-448.909	800.000	-0.038	0.149
-447.895	-96.244	-0.309	-0.082
-446.880	800.000	0.020	-0.074
-445.865	8.497	-0.297	-0.224
-444.851	-53.143	-0.295	0.136
-443.836	-128.383	0.078	0.011
-442.822	224.943	0.279	0.452
-441.807	394.599	0.015	0.031
-440.792	-138.918	-0.250	-0.027
-439.778	-200.000	0.048	0.298
-438.763	-200.000	-0.005	-0.416
-437.749	800.000	0.074	-0.253
-436.734	-45.748	-0.321	0.159
-435.719	262.574	0.097	0.168
-434.705	800.000	0.015	-0.046
-433.690	-69.251	0.178	0.069
-432.676	208.815	-0.046	-0.073
-431.661	257.176	-0.181	0.311
-430.646	800.000	-0.080	0.243
-429.632	235.669	-0.132	0.219
-428.617	286.659	-0.064	-0.115
-427.603	800.000	-0.099	0.273
-426.588	199.805	0.094	-0.144
-425.573	800.000	0.035	-0.111
-424.559	-120.057	0.243	-0.042
-423.544	-53.926	0.286	-0.130
-422.530	-200.000	0.004	0.077
-421.515	-200.000	0.021	0.197
-420.500	800.000	0.085	-0.276
-419.486	55.302	0.079	-0.076
-418.471	-24.764	0.105	0.062
-417.457	-59.629	-0.075	-0.032
-416.442	-138.686	0.185	0.020
-415.428	451.085	0.085	-0.188
-414.413	38.267	-0.280	0.250
-413.398	-70.678	-0.433	0.164
-412.384	-200.000	0.016	-0.108
-411.369	-0.777	0.132	0.093
-410.355	21.883	-0.144	0.118
-409.340	-165.823	0.171	-0.007
-408.325	-62.104	0.209	0.087
-407.311	-101.672	-0.225	-0.055
-406.296	210.812	-0.104	0.164
-405.282	-154.474	-0.118	0.008
-404.267	800.000	-0.027	0.103
-403.252	153.723	-0.085	-0.116
-402.238	146.456	-0.075	0.101
-401.223	-102.070	-0.068	0.016
-400.209	108.802	0.150	0.180
-399.194	221.814	0.114	0.183
-398.179	800.000	-0.076	-0.245
-397.165	-97.023	-0.065	-0.017
-396.150	-67.705	-0.122	0.048
-395.136	800.000	0.067	-0.270
-394.121	42.647	-0.077	0.070
-393.106	361.000	0.143	-0.286
-392.092	274.412	-0.047	0.083
-391.077	72.516	0.037	0.038
-390.063	800.000	-0.109	-0.436
-389.048	-82.298	0.375	-0.122
-388.033	800.000	-0.022	0.070
-387.019	-200.000	-0.043	-0.332
-386.004	-200.000	-0.002	0.018
-384.990	434.619	-0.058	-0.127
-383.975	800.000	-0.031	-0.126
-382.960	-200.000	0.007	0.166
-381.946	-200.000	-0.060	0.456
-380.931	-125.693	-0.232	0.035
-379.917	-15.722	0.284	-0.181
-378.902	-113.070	0.140	0.028
-377.888	255.436	-0.132	-0.226
-376.873	111.389	-0.110	-0.132
-375.858	162.491	-0.156	0.219
-374.844	-105.733	-0.127	0.029
-373.829	420.362	0.032	0.069
-372.815	-84.182	0.118	-0.037
-371.800	-200.000	-0.005	0.081
-370.785	800.000	0.050	-0.155
-369.771	155.587	-0.007	0.010
-368.756	113.876	0.155	0.188
-367.742	-200.000	0.009	0.397
-366.727	563.475	-0.109	-0.263
-365.712	72.383	-0.084	0.088
-364.698	27.247	-0.199	0.167
-363.683	800.000	-0.165	-0.498
-362.669	800.000	0.082	-0.305
-361.654	-200.000	-0.091	-0.436
-360.639	800.000	-0.063	-0.202
-359.625	-55.233	0.149	-0.067
-358.610	-200.000	-0.009	0.063
-357.596	7.908	-0.118	0.089
-356.581	800.000	-0.063	0.265
-355.566	-18.173	0.308	0.193
-354.552	62.322	0.205	0.204
-353.537	-46.880	-0.120	0.058
-352.523	-200.000	-0.002	-0.065
-351.508	-74.215	0.179	-0.065
-350.493	306.896	0.089	0.165
-349.479	-29.373	0.171	-0.097
-348.464	800.000	0.124	-0.497
-347.450	800.000	-0.068	0.203
-346.435	183.039	0.005	0.007
-345.420	-179.947	0.310	-0.007
-344.406	-150.585	0.042	-0.003
-343.391	-106.168	-0.096	-0.022
-342.377	136.733	-0.273	0.356
-341.362	340.503	0.107	-0.208
-340.348	-119.051	-0.183	-0.032
-339.333	-85.863	-0.104	-0.032
-338.318	-70.525	-0.259	0.098
-337.304	-73.998	-0.142	0.051
-336.289	-8.037	-0.262	-0.176
-335.275	73.846	0.198	-0.207
-334.260	-132.121	0.275	0.036
-333.245	56.429	0.121	0.118
-332.231	20.853	0.143	-0.116
-331.216	-200.000	-0.047	0.259
-330.202	-148.241	-0.116	0.010
-329.187	-19.401	-0.029	-0.018
-328.172	560.960	0.019	-0.046
-327.158	-54.895	-0.245	-0.110
-326.143	181.950	-0.063	0.093
-325.129	-59.942	-0.250	-0.107
-324.114	800.000	-0.043	-0.147
-323.099	218.543	-0.136	-0.217
-322.085	241.746	0.010	-0.017
-321.070	-139.920	-0.331	-0.035
-320.056	122.324	0.091	-0.114
-319.041	-25.452	-0.330	0.195
-318.026	481.731	0.127	-0.288
-317.012	800.000	-0.066	-0.195
-315.997	-27.189	-0.271	0.157
-314.983	-103.791	0.291	-0.068
-313.968	-112.362	-0.081	0.016
-312.953	-114.190	0.291	0.056
-311.939	-108.158	0.246	0.053
-310.924	644.542	0.082	-0.209
-309.910	-116.236	-0.136	0.025
-308.895	-200.000	-0.010	0.091
-307.880	18.998	-0.184	-0.147
-306.866	-161.367	0.306	0.016
-305.851	-200.000	0.048	-0.224
-304.837	82.387	0.183	0.198
-303.822	-78.894	0.292	0.099
-302.807	-162.907	0.142	0.007
-301.793	67.464	-0.332	-0.338
-300.778	18.585	-0.216	-0.172
-299.764	123.332	-0.156	0.195
-298.749	-200.000	-0.005	0.038
-297.735	-200.000	-0.023	-0.265
-296.720	3.664	0.247	-0.179
-295.705	800.000	0.063	0.241
-294.691	-118.816	-0.261	-0.046
-293.676	20.876	-0.187	0.151
-292.662	800.000	0.071	0.275
-291.647	31.714	-0.168	-0.144
-290.632	-200.000	0.037	-0.299
-289.618	272.442	-0.151	0.266
-288.603	-40.523	0.039	0.020
-287.589	-184.867	-0.279	-0.004
-286.574	-104.454	0.304	0.070
-285.559	800.000	-0.015	0.053
-284.545	-2.308	0.130	0.090
-283.530	585.931	0.118	0.290
-282.516	-141.076	0.175	0.018
-281.501	-54.703	-0.080	-0.036
-280.486	-143.607	0.397	-0.038
-279.472	268.201	0.071	0.124
-278.457	-109.737	0.089	0.019
-277.443	673.822	-0.097	-0.252
-276.428	-53.855	0.456	-0.207
-275.413	32.161	-0.199	-0.171
-274.399	786.241	-0.048	-0.131
-273.384	-72.946	0.506	-0.185
-272.370	89.361	-0.052	0.058
-271.355	-34.151	-0.065	-0.036
-270.340	800.000	-0.089	0.262
-269.326	800.000	-0.120	-0.336
-268.311	-63.041	-0.216	-0.089
-267.297	800.000	-0.046	-0.147
-266.282	-65.824	-0.174	0.069
-265.267	-77.758	0.365	-0.126
-264.253	-68.079	-0.209	-0.081
-263.238	800.000	0.048	-0.171
-262.224	93.423	-0.045	0.051
-261.209	-78.288	-0.338	0.116
-260.195	-200.000	-0.015	0.156
-259.180	-89.577	-0.221	-0.065
-258.165	-74.084	-0.164	-0.059
-257.151	-115.411	-0.139	-0.026
-256.136	-40.430	0.138	-0.071
-255.122	117.721	0.054	0.067
-254.107	108.329	-0.201	0.239
-253.092	4.872	-0.217	0.159
-252.078	-200.000	-0.046	-0.255
-251.063	-112.082	0.394	0.079
-250.049	-200.000	0.111	0.514
-249.034	-45.761	-0.578	0.284
-248.019	-39.800	-0.171	-0.089
-247.005	-200.000	-0.051	0.249
-245.990	-93.671	0.195	-0.053
-244.976	125.258	-0.174	-0.218
-243.961	30.626	-0.218	0.185
-242.946	106.824	0.188	0.222
-241.932	-200.000	-0.034	0.255
-240.917	-119.784	0.261	0.045
-239.903	146.653	0.209	-0.279
-238.888	12.048	-0.126	-0.096
-237.873	-160.114	-0.254	0.014
-236.859	-159.989	-0.070	-0.004
-235.844	39.924	0.271	0.242
-234.830	-79.452	0.289	-0.097
-233.815	-132.195	0.288	-0.037
-232.800	-200.000	0.026	-0.225
-231.786	-200.000	0.035	-0.198
-230.771	-22.591	-0.204	0.123
-229.757	107.685	0.164	0.194
-228.742	800.000	0.066	-0.182
-227.727	-176.073	-0.110	0.003
-226.713	569.173	0.045	0.108
-225.698	234.568	-0.185	0.302
-224.684	228.133	-0.198	-0.320
-223.669	-151.070	-0.334	-0.025
-222.655	322.182	-0.196	0.370
-221.640	-30.812	0.220	-0.124
-220.625	0.580	0.130	-0.093
-219.611	-200.000	-0.011	0.269
-218.596	149.648	0.150	-0.202
-217.582	-100.562	-0.370	0.091
-216.567	-47.922	0.123	0.059
-215.552	-116.373	-0.252	0.046
-214.538	-24.637	-0.415	-0.245
-213.523	175.893	0.196	-0.282
-212.509	-148.536	-0.201	0.016
-211.494	173.333	-0.172	-0.246
-210.479	-40.995	0.208	-0.107
-209.465	-200.000	-0.016	-0.346
-208.450	-14.212	0.152	-0.098
-207.436	-41.328	0.168	-0.086
-206.421	-23.483	0.008	0.004
-205.406	54.961	-0.174	0.167
-204.392	-23.067	0.193	-0.115
-203.377	435.924	0.162	0.351
-202.363	203.071	0.190	0.291
-201.348	673.624	-0.158	0.407
-200.333	800.000	-0.049	0.184
-199.319	800.000	0.016	0.056
-198.304	62.689	-0.060	0.060
-197.290	229.457	-0.159	-0.258
-196.275	125.712	-0.184	-0.231
-195.260	-37.626	-0.358	0.189
-194.246	-200.000	-0.018	0.100
-193.231	134.628	0.211	-0.271
-192.217	-47.167	0.179	0.086
-191.202	-43.039	0.327	0.165
-190.187	-105.711	0.203	0.046
-189.173	94.150	0.031	0.035
-188.158	-98.130	0.448	-0.114
-187.144	-103.589	-0.249	-0.058
-186.129	48.262	-0.196	0.182
-185.114	-48.130	-0.222	-0.107
-184.100	800.000	-0.063	0.235
-183.085	800.000	0.036	0.127
-182.071	74.442	0.211	0.220
-181.056	-200.000	-0.026	0.175
-180.042	-87.541	0.248	0.074
-179.027	-131.131	-0.179	-0.024
-178.012	120.640	0.160	0.198
-176.998	-84.522	0.339	0.106
-175.983	22.189	0.100	0.081
-174.969	-200.000	0.032	-0.310
-173.954	641.363	0.050	0.128
-172.939	-148.942	0.348	-0.028
-171.925	82.805	-0.189	0.204
-170.910	146.237	0.134	0.179
-169.896	800.000	0.029	0.117
-168.881	-133.673	-0.299	-0.037
-167.866	328.179	-0.279	0.530
-166.852	-179.728	-0.321	0.007
-165.837	-61.058	0.232	-0.097
-164.823	9.375	-0.164	-0.123
-163.808	-144.802	0.084	-0.008
-162.793	-136.142	-0.269	-0.031
-161.779	-99.811	0.219	0.054
-160.764	-200.000	0.017	0.179
-159.750	46.076	-0.137	0.125
-158.735	-162.308	-0.236	-0.012
-157.720	-32.191	0.099	-0.055
-156.706	-200.000	-0.022	0.265
-155.691	-10.042	-0.309	-0.203
-154.677	-123.875	0.175	0.027
-153.662	-86.860	0.443	0.134
-152.647	-66.150	-0.116	-0.046
-151.633	355.242	0.134	-0.263
-150.618	210.725	0.163	-0.254
-149.604	263.156	0.022	-0.038
-148.589	-90.264	-0.381	0.110
-147.574	-122.440	-0.394	0.063
-146.560	484.152	0.058	0.130
-145.545	-200.000	-0.112	-0.488
-144.531	-200.000	-0.013	0.400
-143.516	-200.000	-0.009	-0.090
-142.502	-200.000	0.053	-0.345
-141.487	85.331	-0.251	-0.273
-140.472	41.679	-0.146	0.131
-139.458	254.898	-0.229	0.388
-138.443	3.162	-0.136	-0.098
-137.429	800.000	0.054	0.153
-136.414	158.757	0.118	0.162
-135.399	1.150	0.209	-0.149
-134.385	-200.000	-0.048	-0.256
-133.370	-23.637	-0.289	0.172
-132.356	347.042	0.085	0.166
-131.341	410.253	0.059	0.123
-130.326	-83.527	0.251	-0.079
-129.312	-148.073	-0.185	0.015
-128.297	41.649	-0.141	-0.126
-127.283	800.000	0.029	0.123
-126.268	777.524	-0.012	0.033
-125.253	-44.173	0.197	0.098
-124.239	-180.078	0.201	0.004
-123.224	-139.123	-0.034	0.004
-122.210	-157.030	0.197	0.012
