DTS Sentinel unit serial number:	SN413079Multiplexer serial number:	ORYXHardware model number:	OX4-SRSoftware version number:	ORYX F/W v4.00 Oryx Data Collector v3.7.2.0data status	okinstallation	princeton_trtdifferential loss correction	single-endedforward channel	channel 4reverse channel	N/Adate	2019/09/13time	22:13:35forward acquisition time	60.00reverse acquisition time	0.00gamma	496.2192k internal	0.2320k external	0.2320temperature offset calibration	1.0137default loss term (dB/km)	0.3790temperature slope calibration	1.0000multiplexer offset coefficient	1.0000multiplexer slope coefficient	1.0000fibre end	0.00T internal ref (°C)	27.91T ext. ref 1 (°C)	3.24T ext. ref 2 (°C)	22.63length (m)	temperature (°C)	Stokes	anti-Stokes-747.200	339.409	0.064	0.126
-746.185	166.735	-0.212	0.304
-745.171	800.000	0.067	0.293
-744.156	-67.834	-0.129	0.051
-743.142	-81.716	0.154	0.051
-742.127	-125.224	-0.316	-0.049
-741.112	400.641	0.123	-0.261
-740.098	-54.203	-0.228	-0.105
-739.083	-95.193	0.191	-0.052
-738.069	-108.787	0.081	0.017
-737.054	-86.849	0.167	0.052
-736.039	452.154	-0.059	0.132
-735.025	-200.000	0.061	0.487
-734.010	100.519	0.044	-0.052
-732.996	181.751	0.047	0.070
-731.981	-10.445	0.088	-0.059
-730.966	43.684	-0.143	-0.132
-729.952	-155.027	-0.399	0.026
-728.937	-200.000	-0.030	0.203
-727.923	127.826	-0.327	-0.421
-726.908	800.000	-0.045	-0.166
-725.894	800.000	-0.042	-0.142
-724.879	35.575	-0.080	0.071
-723.864	-58.114	-0.146	-0.064
-722.850	-108.942	-0.177	-0.038
-721.835	-200.000	-0.032	-0.221
-720.821	59.148	-0.070	-0.069
-719.806	-200.000	-0.008	-0.110
-718.791	-131.556	-0.228	0.030
-717.777	-119.621	-0.110	0.019
-716.762	-120.912	0.192	0.033
-715.748	-88.714	0.122	-0.037
-714.733	391.608	0.095	-0.199
-713.718	-95.205	-0.087	-0.024
-712.704	680.177	-0.056	-0.148
-711.689	-146.013	-0.328	-0.029
-710.675	-15.988	-0.033	-0.021
-709.660	-57.993	0.175	-0.077
-708.645	28.466	-0.126	0.108
-707.631	184.374	0.132	0.198
-706.616	-104.695	0.429	0.100
-705.602	800.000	-0.062	-0.212
-704.587	399.028	-0.081	0.172
-703.572	285.651	-0.055	-0.100
-702.558	-56.408	-0.223	0.100
-701.543	800.000	-0.039	-0.131
-700.529	136.036	0.196	-0.258
-699.514	-200.000	-0.038	0.196
-698.499	757.820	-0.112	0.307
-697.485	-17.315	0.328	-0.209
-696.470	-92.311	0.181	-0.051
-695.456	342.378	-0.082	-0.161
-694.441	-152.655	-0.573	-0.041
-693.426	348.951	-0.119	-0.237
-692.412	555.216	0.110	-0.268
-691.397	-144.403	-0.164	-0.015
-690.383	289.207	0.084	-0.153
-689.368	796.425	-0.092	0.256
-688.354	-34.373	-0.147	-0.081
-687.339	-200.000	0.013	-0.355
-686.324	-200.000	0.062	-0.337
-685.310	99.481	-0.194	0.226
-684.295	-200.000	-0.038	-0.170
-683.281	800.000	-0.065	-0.272
-682.266	-139.433	-0.384	0.042
-681.251	-52.517	-0.160	0.075
-680.237	-200.000	-0.042	-0.256
-679.222	29.867	0.035	-0.030
-678.208	-200.000	-0.017	-0.345
-677.193	373.110	0.068	0.139
-676.178	6.303	0.152	0.113
-675.164	-157.044	-0.199	0.012
-674.149	26.114	-0.309	-0.260
-673.135	208.821	-0.084	-0.132
-672.120	405.079	0.064	0.137
-671.105	-22.093	-0.207	-0.127
-670.091	-130.518	0.244	0.033
-669.076	4.837	-0.238	0.176
-668.062	-46.257	-0.243	0.121
-667.047	15.426	-0.423	-0.335
-666.032	-54.395	-0.144	-0.066
-665.018	393.244	-0.164	-0.345
-664.003	170.793	-0.134	-0.194
-662.989	800.000	-0.048	0.154
-661.974	55.860	-0.265	0.259
-660.959	-200.000	0.010	0.087
-659.945	224.814	-0.089	0.145
-658.930	-200.000	0.016	0.093
-657.916	-109.110	0.094	0.020
-656.901	14.823	0.173	-0.136
-655.886	-200.000	-0.054	0.273
-654.872	-163.446	-0.264	-0.013
-653.857	-200.000	-0.006	0.399
-652.843	-103.146	-0.387	0.092
-651.828	538.126	-0.196	-0.468
-650.814	359.227	0.061	-0.122
-649.799	4.139	-0.213	0.157
-648.784	59.570	-0.144	0.143
-647.770	521.789	0.103	0.243
-646.755	22.322	0.137	0.112
-645.741	-143.073	-0.177	-0.017
-644.726	341.774	0.072	0.142
-643.711	-200.000	-0.043	0.247
-642.697	-19.483	0.186	0.116
-641.682	443.041	0.071	-0.156
-640.668	216.777	0.057	0.091
-639.653	-200.000	-0.019	0.271
-638.638	-200.000	-0.008	0.091
-637.624	-85.944	0.082	-0.025
-636.609	-200.000	0.038	0.227
-635.595	-46.259	-0.256	-0.127
-634.580	695.061	0.108	-0.286
-633.565	-200.000	-0.070	-0.359
-632.551	-100.625	-0.071	-0.018
-631.536	-136.676	-0.232	-0.027
-630.522	-200.000	0.002	-0.203
-629.507	19.101	0.270	0.218
-628.492	-117.452	-0.352	-0.064
-627.478	192.412	-0.199	-0.303
-626.463	-200.000	0.025	0.115
-625.449	800.000	0.082	-0.249
-624.434	-68.240	0.308	-0.121
-623.419	232.983	0.124	0.205
-622.405	46.875	-0.246	0.230
-621.390	10.556	-0.173	-0.133
-620.376	-26.596	-0.161	-0.095
-619.361	-111.274	-0.182	-0.038
-618.346	-200.000	0.054	-0.359
-617.332	-76.889	0.402	-0.142
-616.317	-83.783	-0.083	0.027
-615.303	-137.752	0.080	0.009
-614.288	80.554	-0.184	-0.200
-613.273	320.475	-0.214	-0.410
-612.259	-200.000	-0.075	-0.388
-611.244	-23.288	-0.298	-0.181
-610.230	119.160	0.115	-0.143
-609.215	-62.827	-0.162	0.067
-608.201	-114.641	-0.198	0.038
-607.186	-110.964	0.105	0.022
-606.171	-200.000	0.029	0.224
-605.157	-10.533	0.041	0.027
-604.142	110.162	-0.038	0.045
-603.128	494.725	0.180	-0.415
-602.113	-71.797	-0.284	0.106
-601.098	-108.196	0.055	0.012
-600.084	101.694	0.098	-0.114
-599.069	44.700	0.317	-0.293
-598.055	-137.345	-0.595	0.068
-597.040	278.618	0.117	0.209
-596.025	205.310	-0.232	0.362
-595.011	713.307	0.058	-0.156
-593.996	-200.000	0.057	-0.366
-592.982	771.257	-0.026	-0.070
-591.967	-17.985	0.130	0.082
-590.952	800.000	0.019	0.071
-589.938	-200.000	-0.006	-0.116
-588.923	-170.950	-0.216	0.007
-587.909	-100.567	-0.280	0.070
-586.894	47.664	-0.063	-0.059
-585.879	36.086	-0.121	-0.107
-584.865	-92.310	-0.217	-0.062
-583.850	162.864	-0.103	0.145
-582.836	92.949	0.154	-0.175
-581.821	-129.614	0.234	0.032
-580.806	-4.591	0.262	0.182
-579.792	-56.153	-0.067	0.030
-578.777	315.730	0.080	0.151
-577.763	-200.000	0.008	0.105
-576.748	-58.418	-0.152	-0.067
-575.733	800.000	-0.055	0.176
-574.719	-200.000	-0.010	-0.123
-573.704	-200.000	-0.012	0.110
-572.690	-200.000	0.002	0.306
-571.675	-64.383	0.277	0.113
-570.661	40.782	-0.204	-0.185
-569.646	573.483	0.056	0.137
-568.631	20.222	0.050	0.040
-567.617	348.206	0.007	0.014
-566.602	-100.566	-0.332	-0.082
-565.588	-65.300	0.072	-0.029
-564.573	-28.123	-0.133	-0.077
-563.558	76.990	-0.061	-0.065
-562.544	-34.757	0.200	0.110
-561.529	305.044	-0.151	-0.282
-560.515	-70.928	-0.183	0.069
-559.500	-200.000	-0.003	0.161
-558.485	-200.000	0.034	0.234
-557.471	-129.754	-0.232	0.032
-556.456	-131.213	0.189	-0.025
-555.442	75.351	-0.157	0.167
-554.427	89.846	-0.073	0.082
-553.412	-200.000	0.011	0.155
-552.398	4.973	-0.266	0.197
-551.383	81.981	-0.169	0.184
-550.369	-200.000	-0.070	0.406
-549.354	-200.000	0.035	0.340
-548.339	140.989	0.029	-0.038
-547.325	246.695	0.036	-0.061
-546.310	-109.635	-0.417	-0.088
-545.296	-127.079	0.272	0.040
-544.281	-200.000	-0.023	-0.117
-543.266	165.667	0.145	0.206
-542.252	-200.000	-0.026	-0.233
-541.237	-4.081	0.136	-0.095
-540.223	10.911	0.100	-0.076
-539.208	-187.083	-0.072	0.001
-538.193	-8.480	-0.239	0.161
-537.179	445.377	0.093	-0.206
-536.164	30.025	0.144	-0.123
-535.150	528.476	-0.063	-0.149
-534.135	75.042	0.193	0.204
-533.121	425.168	-0.054	-0.117
-532.106	-98.725	0.230	-0.059
-531.091	137.677	0.078	0.103
-530.077	-99.594	-0.397	-0.100
-529.062	6.259	-0.059	0.044
-528.048	432.609	-0.125	0.272
-527.033	-111.757	-0.141	0.029
-526.018	-126.145	0.094	0.014
-525.004	-34.366	-0.335	0.184
-523.989	-200.000	0.073	-0.359
-522.975	2.099	0.350	0.253
-521.960	-17.092	-0.321	-0.203
-520.945	-78.974	0.078	0.027
-519.931	-57.240	0.101	-0.044
-518.916	-200.000	-0.001	0.139
-517.902	-200.000	0.051	0.556
-516.887	-107.048	0.397	-0.088
-515.872	-40.898	0.184	0.096
-514.858	349.112	0.096	-0.189
-513.843	-99.506	-0.246	-0.062
-512.829	190.168	0.031	0.047
-511.814	79.545	0.132	-0.142
-510.799	601.861	-0.069	0.172
-509.785	231.495	0.250	0.410
-508.770	79.965	-0.059	0.063
-507.756	-200.000	-0.012	-0.095
-506.741	92.798	-0.070	0.079
-505.726	-115.030	-0.174	0.033
-504.712	-200.000	-0.089	-0.465
-503.697	-200.000	-0.026	-0.232
-502.683	19.140	-0.172	0.139
-501.668	800.000	0.120	0.511
-500.653	598.106	-0.035	-0.087
-499.639	-200.000	0.001	-0.298
-498.624	-74.836	0.247	0.089
-497.610	299.586	-0.107	0.198
-496.595	-200.000	-0.016	0.187
-495.581	-200.000	0.004	0.165
-494.566	525.149	-0.010	-0.025
-493.551	-107.057	0.247	-0.055
-492.537	6.477	0.232	0.172
-491.522	34.777	-0.210	0.184
-490.508	39.906	0.106	-0.096
-489.493	800.000	-0.056	-0.204
-488.478	309.164	0.091	-0.170
-487.464	202.838	-0.036	0.056
-486.449	800.000	0.033	0.121
-485.435	-85.866	-0.207	-0.064
-484.420	22.680	0.276	0.226
-483.405	-2.764	0.223	-0.156
-482.391	-129.478	0.199	-0.028
-481.376	517.840	-0.157	-0.367
-480.362	-163.689	0.140	0.007
-479.347	800.000	-0.109	-0.302
-478.332	211.701	-0.060	-0.095
-477.318	9.981	0.133	-0.101
-476.303	92.754	-0.136	-0.154
-475.289	483.435	-0.033	-0.075
-474.274	-120.802	0.133	-0.022
-473.259	-48.701	0.251	-0.121
-472.245	-200.000	0.040	0.345
-471.230	280.771	0.074	0.133
-470.216	766.117	-0.102	-0.277
-469.201	-30.952	0.055	-0.031
-468.186	-200.000	-0.037	-0.189
-467.172	-135.001	0.114	0.014
-466.157	-200.000	0.088	0.607
-465.143	183.287	-0.290	0.429
-464.128	-200.000	0.026	0.346
-463.113	-40.712	0.166	0.086
-462.099	-200.000	0.024	-0.265
-461.084	-169.354	0.193	0.007
-460.070	-38.934	-0.372	-0.196
-459.055	-24.621	0.046	0.027
-458.040	141.727	-0.197	-0.261
-457.026	-200.000	0.035	-0.290
-456.011	-200.000	0.002	0.166
-454.997	800.000	-0.058	-0.171
-453.982	392.978	0.178	-0.371
-452.968	800.000	-0.010	0.039
-451.953	6.976	-0.183	0.136
-450.938	31.369	0.209	0.179
-449.924	123.239	0.222	-0.278
-448.909	-10.305	-0.275	0.182
-447.895	-15.653	0.062	-0.039
-446.880	79.136	0.222	-0.238
-445.865	155.410	-0.109	0.150
-444.851	-33.425	0.180	-0.100
-443.836	-87.155	-0.205	0.062
-442.822	-112.219	-0.303	-0.061
-441.807	-44.657	0.234	-0.117
-440.792	800.000	0.033	0.118
-439.778	800.000	0.033	0.108
-438.763	-62.179	-0.186	0.078
-437.749	-44.962	-0.232	0.115
-436.734	-82.597	0.141	-0.046
-435.719	-51.914	0.260	-0.121
-434.705	246.447	-0.145	-0.244
-433.690	89.276	0.127	-0.141
-432.676	-47.744	0.199	0.096
-431.661	-44.937	-0.250	-0.124
-430.646	-200.000	0.007	0.053
-429.632	570.903	0.122	0.296
-428.617	-200.000	0.008	0.286
-427.603	347.925	0.144	0.283
-426.588	-90.895	0.235	0.068
-425.573	267.036	0.134	-0.234
-424.559	6.752	0.208	-0.154
-423.544	-200.000	-0.004	0.242
-422.530	-83.517	-0.181	-0.058
-421.515	800.000	0.030	0.111
-420.500	124.977	0.193	0.243
-419.486	81.187	0.071	-0.077
-418.471	-30.514	0.178	-0.101
-417.457	146.521	-0.002	-0.003
-416.442	-11.230	0.163	-0.107
-415.428	-83.676	-0.221	0.070
-414.413	177.664	-0.198	0.288
-413.398	258.038	-0.051	0.087
-412.384	-200.000	0.034	0.150
-411.369	-13.087	-0.277	0.180
-410.355	46.592	-0.098	-0.091
-409.340	28.729	0.159	0.134
-408.325	25.436	-0.323	0.268
-407.311	-200.000	-0.057	0.376
-406.296	-155.305	-0.295	0.019
-405.282	27.006	0.020	-0.017
-404.267	-200.000	-0.039	0.255
-403.252	-82.301	-0.251	-0.082
-402.238	-200.000	0.009	0.068
-401.223	-53.936	-0.268	0.122
-400.209	-200.000	-0.021	0.126
-399.194	-129.899	0.190	0.026
-398.179	-48.650	-0.235	-0.113
-397.165	-200.000	-0.007	0.141
-396.150	-200.000	0.002	-0.148
-395.136	478.878	0.058	-0.130
-394.121	105.315	0.057	-0.067
-393.106	161.167	-0.115	-0.161
-392.092	-29.743	-0.280	0.159
-391.077	292.157	0.084	-0.153
-390.063	-200.000	0.007	0.201
-389.048	77.176	0.128	-0.135
-388.033	-200.000	0.020	-0.174
-387.019	-175.154	-0.277	0.008
-386.004	67.903	0.285	-0.291
-384.990	-172.162	-0.220	0.007
-383.975	23.320	-0.150	0.123
-382.960	-75.222	0.140	0.050
-381.946	-89.400	-0.214	0.063
-380.931	9.455	-0.023	-0.018
-379.917	-151.373	-0.112	-0.008
-378.902	229.176	-0.245	-0.399
-377.888	62.856	0.284	-0.283
-376.873	-200.000	0.014	0.095
-375.858	32.075	0.106	0.091
-374.844	800.000	-0.014	-0.059
-373.829	800.000	-0.030	-0.120
-372.815	535.225	0.055	-0.130
-371.800	32.273	0.129	0.111
-370.785	37.666	-0.126	-0.111
-369.771	225.427	-0.096	0.154
-368.756	53.312	0.397	0.379
-367.742	800.000	0.047	0.181
-366.727	-120.806	0.348	-0.058
-365.712	-176.090	-0.056	0.001
-364.698	-37.321	-0.352	0.187
-363.683	280.455	0.146	0.260
-362.669	158.777	0.056	-0.077
-361.654	251.445	-0.129	0.218
-360.639	-200.000	-0.022	-0.400
-359.625	4.808	0.068	-0.050
-358.610	-85.918	-0.040	0.012
-357.596	23.010	-0.205	-0.168
-356.581	-68.650	0.412	-0.159
-355.566	153.142	-0.113	0.153
-354.552	109.307	-0.174	-0.207
-353.537	-54.219	0.401	-0.181
-352.523	-73.126	-0.224	0.082
-351.508	-200.000	0.012	0.139
-350.493	-94.622	-0.032	-0.009
-349.479	-58.670	0.268	-0.116
-348.464	800.000	-0.059	0.194
-347.450	253.025	-0.154	-0.261
-346.435	7.304	0.254	-0.189
-345.420	-140.707	-0.275	0.028
-344.406	183.426	-0.059	0.087
-343.391	676.774	-0.079	0.204
-342.377	30.284	0.182	0.155
-341.362	26.315	-0.287	0.238
-340.348	33.940	0.266	0.230
-339.333	800.000	-0.059	-0.187
-338.318	-114.663	-0.246	-0.047
-337.304	-119.598	-0.310	-0.053
-336.289	409.112	-0.083	-0.176
-335.275	12.305	0.205	-0.157
-334.260	-80.751	-0.168	0.056
-333.245	-150.593	0.244	-0.019
-332.231	-127.623	0.345	-0.050
-331.216	768.775	0.086	-0.233
-330.202	-3.468	0.188	-0.130
-329.187	-200.000	0.003	-0.068
-328.172	-89.593	0.081	-0.024
-327.158	-72.674	0.325	0.119
-326.143	-200.000	-0.001	-0.284
-325.129	-120.332	0.237	-0.040
-324.114	-6.977	0.259	0.175
-323.099	800.000	-0.023	0.071
-322.085	3.069	0.318	-0.230
-321.070	50.481	-0.246	-0.231
-320.056	30.092	0.251	0.213
-319.041	-110.706	-0.311	-0.064
-318.026	196.346	0.164	-0.249
-317.012	-200.000	-0.000	0.117
-315.997	-200.000	-0.031	0.388
-314.983	132.829	-0.162	-0.208
-313.968	800.000	-0.092	0.262
-312.953	-69.430	0.189	0.072
-311.939	-200.000	-0.022	-0.256
-310.924	192.019	-0.076	-0.114
-309.910	800.000	0.040	-0.123
-308.895	-200.000	-0.039	-0.233
-307.880	713.943	-0.079	0.207
-306.866	210.973	0.264	0.413
-305.851	-200.000	0.008	0.088
-304.837	166.058	-0.110	0.155
-303.822	-47.404	-0.276	0.133
-302.807	-41.853	-0.328	0.167
-301.793	-5.974	-0.193	-0.131
-300.778	392.428	-0.080	0.165
-299.764	800.000	-0.110	-0.358
-298.749	95.183	0.062	0.070
-297.735	-117.747	0.512	0.092
-296.720	28.046	-0.079	0.066
-295.705	205.482	0.147	-0.226
-294.691	-200.000	0.069	-0.314
-293.676	800.000	0.094	0.277
-292.662	-27.784	-0.337	0.194
-291.647	-33.540	-0.045	-0.025
-290.632	-179.731	0.290	0.006
-289.618	202.459	0.115	-0.176
-288.603	-49.466	0.165	-0.078
-287.589	-200.000	0.008	-0.087
-286.574	-134.521	0.108	-0.013
-285.559	593.080	0.118	0.290
-284.545	-166.865	-0.120	-0.005
-283.530	-140.612	-0.460	0.047
-282.516	800.000	-0.053	-0.147
-281.501	-64.823	0.168	0.068
-280.486	2.721	0.209	0.150
-279.472	-26.122	-0.180	-0.105
-278.457	-150.365	-0.167	0.013
-277.443	-45.633	-0.319	0.157
-276.428	193.088	0.024	0.037
-275.413	-200.000	0.013	-0.099
-274.399	-46.999	0.321	-0.156
-273.384	-136.400	0.092	-0.011
-272.370	356.981	0.094	0.187
-271.355	-7.207	-0.106	-0.072
-270.340	-129.089	-0.265	-0.037
-269.326	113.586	0.278	-0.335
-268.311	-200.000	-0.064	0.296
-267.297	-139.225	0.102	-0.011
-266.282	800.000	-0.119	-0.326
-265.267	-4.870	0.176	0.120
-264.253	436.275	0.115	0.249
-263.238	-170.036	0.275	0.010
-262.224	-200.000	0.014	-0.119
-261.209	-200.000	-0.002	0.038
-260.195	-35.668	0.109	0.059
-259.180	-18.849	-0.260	0.161
-258.165	-5.359	-0.102	0.070
-257.151	489.697	-0.054	0.122
-256.136	-173.312	0.098	0.003
-255.122	-83.928	-0.244	0.077
-254.107	-190.074	0.201	-0.002
-253.092	587.243	0.055	-0.133
-252.078	-137.358	0.631	-0.071
-251.063	-200.000	-0.045	-0.251
-250.049	-120.328	-0.215	0.036
-249.034	-16.950	0.272	0.170
-248.019	-181.757	-0.109	0.002
-247.005	-161.993	-0.236	0.012
-245.990	65.187	0.245	-0.245
-244.976	800.000	0.043	-0.149
-243.961	-200.000	-0.030	-0.338
-242.946	17.035	-0.259	-0.203
-241.932	-109.025	0.452	0.095
-240.917	800.000	0.068	-0.221
-239.903	-48.065	0.100	-0.048
-238.888	-157.235	-0.182	0.011
-237.873	-148.876	0.107	-0.009
-236.859	175.478	0.067	-0.096
-235.844	295.667	-0.103	-0.187
-234.830	-146.679	-0.260	-0.022
-233.815	134.934	0.150	0.193
-232.800	305.435	-0.128	0.236
-231.786	-200.000	-0.030	0.214
-230.771	-52.604	0.107	-0.049
-229.757	388.096	-0.108	-0.222
-228.742	66.173	0.147	0.148
-227.727	-137.416	0.408	0.046
-226.713	-129.358	-0.347	-0.048
-225.698	730.164	0.163	-0.433
-224.684	-140.720	0.171	-0.018
-223.669	786.736	0.058	0.157
-222.655	-69.453	0.080	0.030
-221.640	82.822	0.237	0.255
-220.625	293.091	-0.183	-0.330
-219.611	149.768	-0.011	-0.015
-218.596	-27.592	-0.026	-0.015
-217.582	-10.367	-0.215	-0.141
-216.567	-17.707	-0.285	-0.177
-215.552	185.496	-0.127	-0.187
-214.538	365.672	-0.056	0.112
-213.523	-55.742	0.195	0.086
-212.509	-38.656	-0.275	-0.144
-211.494	-114.125	0.277	0.053
-210.479	-36.707	0.243	-0.129
-209.465	1.766	0.121	-0.086
-208.450	-108.716	0.400	0.085
-207.436	19.705	-0.221	0.176
-206.421	345.639	0.035	0.069
-205.406	57.020	0.230	-0.222
-204.392	-200.000	-0.002	-0.025
-203.377	-200.000	0.005	0.088
-202.363	446.826	-0.146	-0.319
-201.348	-147.727	-0.329	-0.027
-200.333	76.955	-0.059	-0.062
-199.319	24.643	-0.162	0.133
-198.304	-200.000	0.029	0.151
-197.290	178.127	-0.237	-0.342
-196.275	413.209	-0.113	0.237
-195.260	42.444	0.060	-0.054
-194.246	42.586	0.163	0.147
-193.231	-45.792	-0.258	0.126
-192.217	256.146	0.227	-0.386
-191.202	-200.000	-0.001	-0.172
-190.187	-142.883	-0.120	0.012
-189.173	-140.158	0.069	-0.007
-188.158	800.000	0.040	0.158
-187.144	50.671	0.026	0.025
-186.129	198.474	0.078	-0.118
-185.114	169.096	-0.105	0.148
-184.100	-110.638	-0.137	0.028
-183.085	800.000	-0.027	0.078
-182.071	-96.485	0.280	0.073
-181.056	203.873	-0.234	-0.358
-180.042	-44.030	-0.272	-0.135
-179.027	262.319	0.284	0.487
-178.012	-200.000	-0.011	0.083
-176.998	77.349	-0.072	0.076
-175.983	-140.236	0.217	0.022
-174.969	-200.000	0.024	0.104
-173.954	39.679	-0.042	-0.037
-172.939	334.873	-0.017	-0.032
-171.925	-200.000	0.004	0.108
-170.910	-26.127	-0.168	0.098
-169.896	93.618	0.222	-0.249
-168.881	-200.000	0.022	-0.173
-167.866	204.532	0.143	-0.219
-166.852	-200.000	-0.036	-0.182
-165.837	-43.140	0.238	0.119
-164.823	-106.031	-0.230	-0.051
-163.808	-42.511	-0.103	0.052
-162.793	64.113	0.165	0.164
-161.779	-169.936	-0.416	-0.015
-160.764	-64.758	0.257	0.103
-159.750	444.945	0.089	-0.193
-158.735	157.425	0.030	0.041
-157.720	-200.000	0.005	-0.234
-156.706	-200.000	0.004	-0.259
-155.691	88.845	-0.156	0.172
-154.677	-200.000	-0.026	0.286
-153.662	291.273	0.102	0.182
-152.647	25.011	0.142	0.117
-151.633	800.000	0.049	-0.142
-150.618	140.784	0.183	-0.239
-149.604	-200.000	-0.028	-0.154
-148.589	-79.713	0.304	-0.101
-147.574	-200.000	-0.029	0.261
-146.560	-77.113	-0.173	-0.059
-145.545	-121.900	0.279	-0.045
-144.531	-109.135	0.121	-0.025
-143.516	800.000	0.056	0.211
-142.502	0.488	0.381	0.269
-141.487	162.683	-0.178	-0.247
-140.472	22.449	-0.191	0.155
-139.458	74.081	0.110	0.113
-138.443	189.516	0.078	0.115
-137.429	800.000	0.025	-0.096
-136.414	744.468	-0.126	0.334
-135.399	2.431	0.090	-0.064
-134.385	-19.663	-0.140	-0.086
-133.370	-200.000	0.019	0.366
-132.356	-200.000	0.035	0.217
-131.341	69.453	0.023	-0.023
-130.326	125.576	0.020	-0.025
-129.312	-167.535	0.159	-0.006
-128.297	-23.659	0.148	0.087
-127.283	-200.000	-0.048	-0.330
-126.268	113.706	0.146	0.176
-125.253	-200.000	-0.008	0.219
-124.239	800.000	0.023	-0.063
-123.224	106.825	0.064	-0.076
-122.210	197.716	-0.215	0.324
-121.195	-5.499	0.125	-0.085
