DTS Sentinel unit serial number:	SN413079Multiplexer serial number:	ORYXHardware model number:	OX4-SRSoftware version number:	ORYX F/W v4.00 Oryx Data Collector v3.7.2.0data status	okinstallation	princeton_trtdifferential loss correction	single-endedforward channel	channel 4reverse channel	N/Adate	2019/09/12time	20:41:34forward acquisition time	60.00reverse acquisition time	0.00gamma	496.2192k internal	0.2312k external	0.2312temperature offset calibration	1.0166default loss term (dB/km)	0.3790temperature slope calibration	1.0000multiplexer offset coefficient	1.0000multiplexer slope coefficient	1.0000fibre end	0.00T internal ref (°C)	31.12T ext. ref 1 (°C)	3.63T ext. ref 2 (°C)	25.65length (m)	temperature (°C)	Stokes	anti-Stokes-747.200	337.248	-0.151	-0.298
-746.185	281.373	0.148	0.269
-745.171	-120.347	-0.114	-0.020
-744.156	-98.999	-0.151	-0.039
-743.142	-148.219	-0.116	-0.010
-742.127	279.121	-0.018	0.033
-741.112	-140.668	0.538	0.057
-740.098	166.943	-0.044	0.063
-739.083	-200.000	-0.077	0.353
-738.069	-185.132	0.147	-0.002
-737.054	-26.771	-0.163	0.097
-736.039	-200.000	0.010	0.234
-735.025	-81.188	0.237	0.079
-734.010	-109.278	-0.332	0.071
-732.996	-111.564	-0.362	-0.075
-731.981	172.969	0.238	-0.348
-730.966	-72.348	0.372	-0.140
-729.952	134.907	-0.040	-0.052
-728.937	800.000	0.075	-0.276
-727.923	-200.000	-0.036	0.229
-726.908	-191.405	-0.112	-0.001
-725.894	-115.273	-0.180	-0.034
-724.879	-64.317	-0.152	0.063
-723.864	-13.102	0.199	-0.131
-722.850	-200.000	0.019	0.225
-721.835	-16.368	-0.408	-0.263
-720.821	-64.320	0.105	0.043
-719.806	252.878	-0.031	0.054
-718.791	518.427	0.088	-0.210
-717.777	-200.000	-0.016	-0.093
-716.762	-94.091	-0.167	0.046
-715.748	94.267	-0.015	0.018
-714.733	89.699	-0.096	-0.108
-713.718	-15.673	0.358	0.231
-712.704	-115.158	-0.066	0.013
-711.689	-101.276	0.200	-0.049
-710.675	-200.000	0.004	-0.300
-709.660	-105.714	0.390	-0.089
-708.645	249.589	-0.151	-0.260
-707.631	15.494	0.187	0.148
-706.616	-6.229	0.161	-0.111
-705.602	-53.451	0.133	-0.062
-704.587	-200.000	-0.005	-0.252
-703.572	124.935	0.084	-0.107
-702.558	63.500	-0.279	0.284
-701.543	2.249	-0.231	0.169
-700.529	161.813	-0.227	-0.321
-699.514	-22.095	0.211	0.130
-698.499	-147.763	0.279	-0.024
-697.485	-176.213	-0.244	-0.006
-696.470	-147.524	0.221	0.019
-695.456	181.868	-0.025	-0.037
-694.441	-91.405	-0.425	0.123
-693.426	274.126	-0.071	0.127
-692.412	-200.000	0.031	0.210
-691.397	301.737	0.191	-0.357
-690.383	24.052	-0.066	0.055
-689.368	-76.399	0.267	-0.095
-688.354	-28.337	0.116	-0.068
-687.339	-120.615	-0.187	-0.032
-686.324	71.959	0.314	0.331
-685.310	-135.867	0.097	0.012
-684.295	-200.000	0.000	0.165
-683.281	-10.013	0.245	0.165
-682.266	800.000	0.034	-0.130
-681.251	39.904	0.324	0.295
-680.237	-90.815	0.370	0.108
-679.222	109.959	-0.084	-0.101
-678.208	-64.500	-0.443	0.182
-677.193	-82.268	0.209	-0.069
-676.178	14.111	0.042	-0.033
-675.164	136.752	0.093	0.123
-674.149	-200.000	0.022	-0.102
-673.135	800.000	-0.043	0.136
-672.120	-200.000	0.036	0.466
-671.105	-200.000	-0.006	-0.224
-670.091	283.426	-0.096	0.175
-669.076	-149.977	0.232	0.018
-668.062	-81.810	0.130	-0.043
-667.047	-115.197	-0.134	-0.026
-666.032	-110.300	0.135	0.028
-665.018	-88.938	0.303	-0.091
-664.003	86.197	0.270	0.301
-662.989	-200.000	0.046	0.230
-661.974	-200.000	0.002	0.091
-660.959	98.480	-0.197	0.230
-659.945	-53.086	-0.300	-0.140
-658.930	800.000	0.014	0.061
-657.916	800.000	0.067	0.190
-656.901	800.000	-0.040	-0.122
-655.886	-144.961	-0.465	-0.043
-654.872	800.000	-0.028	-0.106
-653.857	-47.352	-0.286	-0.141
-652.843	330.978	0.150	-0.292
-651.828	800.000	-0.051	0.177
-650.814	-200.000	-0.036	-0.230
-649.799	-200.000	0.004	-0.083
-648.784	205.581	-0.077	0.121
-647.770	68.419	-0.048	-0.050
-646.755	-200.000	-0.009	0.189
-645.741	723.763	-0.100	0.269
-644.726	58.732	0.149	0.148
-643.711	-85.579	-0.185	0.058
-642.697	328.713	0.066	-0.128
-641.682	111.504	-0.341	-0.416
-640.668	800.000	0.113	-0.387
-639.653	2.152	0.093	-0.068
-638.638	-100.809	0.123	0.031
-637.624	14.056	-0.241	0.190
-636.609	-132.797	0.206	0.027
-635.595	-29.940	0.176	0.101
-634.580	-159.453	-0.322	0.018
-633.565	739.626	-0.059	0.160
-632.551	-128.471	-0.235	0.034
-631.536	680.646	-0.016	0.042
-630.522	-68.778	-0.182	0.071
-629.507	428.170	0.058	-0.126
-628.492	-173.889	0.311	-0.009
-627.478	-74.708	0.141	-0.051
-626.463	446.020	-0.054	0.121
-625.449	-200.000	-0.068	-0.316
-624.434	-200.000	0.034	0.271
-623.419	800.000	0.111	-0.335
-622.405	156.483	0.110	0.154
-621.390	-113.158	0.201	-0.040
-620.376	32.581	-0.244	-0.213
-619.361	-97.237	-0.405	-0.107
-618.346	-200.000	-0.065	-0.327
-617.332	-66.678	0.043	0.017
-616.317	-200.000	-0.075	-0.436
-615.303	155.770	0.146	-0.203
-614.288	800.000	0.041	0.125
-613.273	247.355	0.033	-0.056
-612.259	433.221	-0.109	-0.238
-611.244	-158.258	-0.221	-0.013
-610.230	750.407	-0.088	-0.239
-609.215	-200.000	0.049	0.235
-608.201	-6.129	-0.349	-0.241
-607.186	230.286	0.029	-0.047
-606.171	362.951	-0.026	0.052
-605.157	800.000	0.029	-0.112
-604.142	-200.000	-0.001	-0.213
-603.128	-77.982	-0.102	0.035
-602.113	-44.767	-0.078	-0.039
-601.098	30.574	-0.137	0.118
-600.084	1.191	0.228	0.165
-599.069	115.956	-0.071	0.087
-598.055	111.911	0.272	-0.332
-597.040	800.000	-0.083	-0.248
-596.025	573.653	0.102	0.252
-595.011	79.169	-0.088	-0.095
-593.996	-14.778	0.209	-0.136
-592.982	48.156	-0.286	-0.270
-591.967	679.799	-0.229	-0.600
-590.952	5.042	-0.159	-0.118
-589.938	-58.807	-0.138	-0.060
-588.923	-200.000	-0.051	-0.271
-587.909	-188.083	-0.306	-0.004
-586.894	284.181	0.135	-0.245
-585.879	561.878	0.109	0.267
-584.865	185.227	-0.051	-0.077
-583.850	155.990	0.200	-0.277
-582.836	-14.697	-0.553	0.358
-581.821	-200.000	0.013	0.133
-580.806	694.660	-0.013	0.034
-579.792	80.131	0.083	-0.090
-578.777	304.795	-0.137	0.257
-577.763	-42.496	0.422	-0.217
-576.748	124.360	0.124	-0.157
-575.733	-168.100	-0.318	0.012
-574.719	-87.926	0.155	-0.047
-573.704	800.000	-0.068	-0.253
-572.690	332.180	0.101	0.197
-571.675	79.867	-0.239	-0.259
-570.661	-4.123	-0.110	-0.077
-569.646	-78.180	-0.401	0.139
-568.631	7.134	-0.181	-0.136
-567.617	800.000	0.090	-0.340
-566.602	121.200	-0.195	0.245
-565.588	763.821	0.101	0.278
-564.573	642.311	-0.043	0.110
-563.558	113.984	-0.102	0.125
-562.544	-128.448	0.327	0.047
-561.529	800.000	-0.117	0.373
-560.515	800.000	0.017	0.066
-559.500	-68.258	-0.206	-0.081
-558.485	8.413	-0.098	-0.074
-557.471	53.100	-0.130	-0.125
-556.456	-64.438	0.314	0.129
-555.442	-116.090	0.079	-0.015
-554.427	800.000	0.095	-0.283
-553.412	-36.165	-0.311	0.169
-552.398	-12.423	0.139	0.091
-551.383	194.900	-0.132	-0.202
-550.369	-126.220	-0.435	-0.065
-549.354	800.000	-0.131	0.482
-548.339	-0.624	0.361	-0.258
-547.325	175.464	0.098	0.143
-546.310	330.176	-0.177	0.344
-545.296	-26.540	0.112	0.066
-544.281	800.000	0.041	-0.166
-543.266	87.327	-0.218	0.243
-542.252	-200.000	-0.001	0.351
-541.237	20.029	-0.075	0.061
-540.223	-200.000	0.021	-0.225
-539.208	-200.000	0.032	0.241
-538.193	-200.000	-0.005	0.070
-537.179	-93.205	0.092	0.026
-536.164	161.295	-0.326	-0.459
-535.150	27.795	-0.244	-0.207
-534.135	9.891	0.172	-0.131
-533.121	50.567	-0.366	-0.348
-532.106	800.000	-0.101	0.285
-531.091	-76.230	0.027	-0.010
-530.077	-102.365	-0.378	0.091
-529.062	-200.000	0.055	0.438
-528.048	320.030	0.134	-0.257
-527.033	-42.308	-0.197	-0.101
-526.018	-77.145	-0.187	-0.065
-525.004	48.604	-0.053	0.050
-523.989	106.504	-0.156	-0.186
-522.975	-200.000	-0.010	-0.343
-521.960	-147.884	0.079	-0.007
-520.945	348.068	-0.095	-0.187
-519.931	606.677	0.163	-0.408
-518.916	-154.048	0.080	-0.005
-517.902	122.548	0.085	0.106
-516.887	26.266	-0.155	-0.130
-515.872	-39.449	-0.246	-0.130
-514.858	-101.939	0.257	-0.063
-513.843	-200.000	0.033	0.380
-512.829	114.670	-0.352	0.431
-511.814	-200.000	-0.002	0.150
-510.799	-104.153	-0.533	-0.125
-509.785	-73.487	-0.220	0.081
-508.770	486.865	0.070	0.161
-507.756	-6.671	-0.338	0.231
-506.741	-21.082	0.185	-0.114
-505.726	800.000	-0.099	0.279
-504.712	-84.843	0.162	0.051
-503.697	-157.683	-0.243	0.015
-502.683	-200.000	-0.003	-0.188
-501.668	-33.574	-0.215	-0.119
-500.653	639.157	-0.070	0.180
-499.639	-23.563	0.367	0.221
-498.624	-79.818	-0.035	-0.012
-497.610	-23.407	0.272	-0.164
-496.595	800.000	0.074	0.278
-495.581	-68.277	0.224	0.088
-494.566	-96.306	0.302	-0.080
-493.551	-103.808	0.067	-0.016
-492.537	515.018	0.157	0.369
-491.522	-200.000	-0.022	0.256
-490.508	142.571	-0.030	0.040
-489.493	-150.150	-0.365	-0.028
-488.478	-3.442	-0.148	-0.103
-487.464	87.990	0.107	-0.120
-486.449	561.767	0.151	-0.367
-485.435	669.750	-0.103	-0.268
-484.420	-200.000	-0.001	0.020
-483.405	-6.377	-0.198	0.136
-482.391	271.789	-0.160	0.283
-481.376	-200.000	-0.074	0.432
-480.362	-200.000	0.010	-0.174
-479.347	-55.321	0.086	-0.039
-478.332	-40.195	0.160	0.083
-477.318	171.381	0.124	0.179
-476.303	-200.000	0.036	0.183
-475.289	51.563	-0.181	0.173
-474.274	-157.758	0.173	-0.010
-473.259	600.141	0.180	0.449
-472.245	198.284	0.091	0.140
-471.230	-131.369	0.153	0.020
-470.216	-89.533	-0.302	0.089
-469.201	41.659	0.060	0.055
-468.186	218.933	0.207	-0.333
-467.172	-102.059	-0.073	-0.018
-466.157	-60.605	-0.133	0.057
-465.143	733.571	-0.087	-0.233
-464.128	119.460	-0.121	0.150
-463.113	-65.739	0.313	0.126
-462.099	221.379	0.158	-0.255
-461.084	-74.523	-0.271	0.098
-460.070	198.330	-0.153	0.235
-459.055	7.842	-0.171	0.128
-458.040	-11.854	0.161	-0.106
-457.026	-77.409	-0.117	0.041
-456.011	237.803	-0.186	0.309
-454.997	-21.167	-0.182	0.112
-453.982	6.547	0.409	-0.305
-452.968	76.402	-0.028	-0.030
-451.953	-116.814	0.204	-0.037
-450.938	-139.270	0.066	-0.007
-449.924	103.103	-0.059	0.069
-448.909	317.017	-0.035	0.066
-447.895	-30.204	0.282	-0.160
-446.880	-17.072	-0.142	0.090
-445.865	-150.150	0.161	-0.013
-444.851	-200.000	0.009	0.060
-443.836	322.280	-0.105	-0.200
-442.822	-200.000	-0.018	0.182
-441.807	610.875	-0.138	-0.345
-440.792	-200.000	0.025	-0.250
-439.778	212.158	0.083	0.131
-438.763	-77.086	0.108	0.038
-437.749	0.800	-0.281	-0.202
-436.734	-35.760	0.241	-0.131
-435.719	-200.000	0.061	-0.461
-434.705	540.879	0.157	-0.375
-433.690	605.702	0.118	-0.295
-432.676	-200.000	-0.023	-0.139
-431.661	800.000	-0.091	0.339
-430.646	-38.702	-0.134	0.071
-429.632	-200.000	0.014	0.119
-428.617	-49.135	0.200	0.096
-427.603	16.782	-0.280	0.222
-426.588	266.496	-0.064	-0.113
-425.573	-54.860	0.322	-0.146
-424.559	-30.834	0.046	0.026
-423.544	95.786	0.092	-0.105
-422.530	44.312	0.045	-0.041
-421.515	-42.014	-0.067	0.034
-420.500	-106.659	-0.403	-0.090
-419.486	580.522	0.102	0.249
-418.471	-62.179	-0.071	0.030
-417.457	-43.874	0.525	-0.265
-416.442	-200.000	-0.028	-0.212
-415.428	-200.000	0.019	-0.102
-414.413	57.361	-0.170	-0.167
-413.398	48.784	-0.028	0.027
-412.384	-200.000	-0.024	-0.187
-411.369	-200.000	-0.007	0.157
-410.355	-49.778	-0.013	0.006
-409.340	669.877	-0.096	-0.249
-408.325	-200.000	-0.004	-0.198
-407.311	-133.185	0.197	-0.025
-406.296	-200.000	0.048	-0.217
-405.282	-130.564	-0.115	-0.016
-404.267	-200.000	0.026	0.316
-403.252	-61.005	-0.347	0.147
-402.238	68.213	0.272	-0.279
-401.223	15.743	0.051	0.040
-400.209	794.070	0.088	0.243
-399.194	80.800	-0.244	-0.263
-398.179	-200.000	0.041	0.431
-397.165	220.210	-0.102	0.163
-396.150	-200.000	-0.016	-0.388
-395.136	-11.576	0.163	0.107
-394.121	-40.703	0.057	0.030
-393.106	-154.907	-0.087	-0.006
-392.092	-49.069	-0.326	0.156
-391.077	800.000	-0.066	-0.230
-390.063	60.139	0.068	0.068
-389.048	31.190	0.291	0.250
-388.033	-200.000	-0.007	0.317
-387.019	53.980	0.031	0.030
-386.004	48.000	-0.078	-0.073
-384.990	245.576	0.175	-0.294
-383.975	656.719	-0.027	0.070
-382.960	-45.082	0.154	-0.077
-381.946	-44.210	0.138	0.069
-380.931	-200.000	-0.036	0.233
-379.917	-59.934	-0.230	0.098
-378.902	-200.000	-0.007	-0.167
-377.888	30.860	-0.215	0.184
-376.873	-98.065	-0.098	-0.025
-375.858	-200.000	0.003	0.236
-374.844	-0.454	-0.215	0.153
-373.829	-71.025	0.108	-0.041
-372.815	55.697	-0.108	0.105
-371.800	-26.129	-0.032	-0.019
-370.785	-12.822	0.077	0.050
-369.771	-16.026	-0.173	0.110
-368.756	-102.596	0.189	0.045
-367.742	-200.000	0.069	0.397
-366.727	193.661	0.159	-0.241
-365.712	-29.317	0.114	-0.065
-364.698	-157.416	0.167	-0.010
-363.683	58.841	0.106	-0.104
-362.669	-34.762	-0.336	0.184
-361.654	-181.029	-0.409	0.008
-360.639	88.649	0.142	-0.158
-359.625	-77.770	0.227	-0.079
-358.610	-200.000	-0.045	-0.214
-357.596	-93.251	-0.221	0.061
-356.581	-85.960	-0.261	0.081
-355.566	139.271	0.306	-0.402
-354.552	800.000	-0.024	-0.070
-353.537	-111.362	0.109	0.022
-352.523	-134.559	0.310	0.038
-351.508	750.056	-0.040	0.107
-350.493	-200.000	0.012	0.542
-349.479	562.889	0.139	0.337
-348.464	236.437	-0.168	-0.277
-347.450	-90.329	-0.209	0.061
-346.435	-139.779	-0.088	0.009
-345.420	622.882	-0.069	0.174
-344.406	-142.355	0.364	-0.036
-343.391	128.403	0.032	-0.041
-342.377	-116.107	0.043	-0.008
-341.362	-200.000	0.002	0.239
-340.348	-200.000	-0.025	-0.154
-339.333	-63.865	-0.386	0.158
-338.318	-200.000	-0.013	-0.158
-337.304	-200.000	-0.044	-0.352
-336.289	-104.813	0.472	0.108
-335.275	-200.000	-0.031	0.190
-334.260	-162.807	-0.258	-0.013
-333.245	45.115	-0.172	0.158
-332.231	95.031	-0.107	0.121
-331.216	113.867	-0.046	-0.055
-330.202	-90.832	-0.226	0.065
-329.187	348.820	-0.042	0.083
-328.172	124.521	-0.241	-0.303
-327.158	-131.274	-0.228	0.030
-326.143	92.291	-0.275	0.310
-325.129	-12.555	0.256	0.167
-324.114	798.791	0.062	-0.170
-323.099	-100.272	0.232	0.058
-322.085	-200.000	-0.054	0.318
-321.070	-49.578	0.199	0.095
-320.056	-81.881	0.371	-0.121
-319.041	-122.067	0.285	-0.047
-318.026	-200.000	0.077	-0.537
-317.012	-97.029	0.124	-0.032
-315.997	-200.000	0.008	-0.089
-314.983	-13.024	-0.083	-0.054
-313.968	-56.263	0.097	0.043
-312.953	418.396	0.064	0.138
-311.939	150.340	0.051	0.069
-310.924	800.000	0.057	-0.160
-309.910	321.652	-0.080	0.153
-308.895	32.574	0.149	0.128
-307.880	64.606	-0.124	-0.125
-306.866	-200.000	-0.028	-0.205
-305.851	-129.857	0.138	0.019
-304.837	426.664	0.052	-0.111
-303.822	-135.933	-0.159	0.019
-302.807	24.196	-0.217	0.179
-301.793	-148.317	0.067	0.006
-300.778	-52.227	-0.190	-0.088
-299.764	800.000	0.116	0.328
-298.749	312.616	0.236	0.442
-297.735	-200.000	0.007	0.105
-296.720	-169.511	0.359	0.013
-295.705	-200.000	0.101	0.463
-294.691	118.462	0.182	-0.224
-293.676	799.488	0.066	-0.182
-292.662	407.584	0.030	-0.063
-291.647	800.000	-0.057	0.169
-290.632	-43.192	-0.376	0.190
-289.618	-61.706	0.208	0.087
-288.603	-35.164	-0.120	0.065
-287.589	-13.570	0.147	-0.095
-286.574	634.689	-0.018	0.046
-285.559	761.916	-0.035	0.095
-284.545	56.672	0.277	0.269
-283.530	120.121	-0.085	0.105
-282.516	-200.000	0.021	-0.173
-281.501	-90.226	-0.211	0.061
-280.486	-142.732	-0.221	-0.021
-279.472	149.157	-0.199	0.268
-278.457	800.000	-0.088	-0.318
-277.443	370.706	0.068	-0.138
-276.428	-200.000	-0.031	-0.351
-275.413	-200.000	0.066	-0.301
-274.399	-76.988	-0.205	-0.071
-273.384	-192.100	0.104	-0.001
-272.370	-99.685	0.242	0.061
-271.355	66.188	-0.208	-0.210
-270.340	-71.692	0.099	-0.037
-269.326	47.836	0.158	-0.147
-268.311	-134.131	0.245	0.030
-267.297	15.101	-0.230	0.180
-266.282	143.640	-0.118	-0.157
-265.267	800.000	0.046	0.198
-264.253	94.815	0.068	-0.077
-263.238	29.805	-0.215	0.183
-262.224	-163.139	0.318	-0.015
-261.209	-112.523	-0.190	0.038
-260.195	-14.887	0.296	-0.189
-259.180	-158.909	-0.296	0.017
-258.165	158.756	-0.098	-0.136
-257.151	259.368	-0.141	-0.243
-256.136	-200.000	0.027	-0.478
-255.122	187.677	-0.149	-0.222
-254.107	-78.116	-0.165	0.057
-253.092	-164.458	0.032	-0.001
-252.078	-200.000	0.022	-0.187
-251.063	166.222	-0.112	0.157
-250.049	71.256	0.101	0.104
-249.034	302.122	0.184	0.338
-248.019	99.665	0.223	0.257
-247.005	-14.859	-0.227	0.145
-245.990	-85.026	-0.225	-0.070
-244.976	800.000	0.040	0.138
-243.961	-18.406	0.076	-0.047
-242.946	-27.577	0.231	0.134
-241.932	13.404	0.170	-0.131
-240.917	-34.796	-0.066	-0.036
-239.903	800.000	0.079	0.255
-238.888	-200.000	0.078	0.394
-237.873	-27.623	0.045	0.026
-236.859	225.692	0.136	0.219
-235.844	186.890	-0.261	-0.386
-234.830	266.884	0.130	0.226
-233.815	-15.331	-0.204	-0.130
-232.800	151.836	-0.114	-0.154
-231.786	16.798	-0.167	0.131
-230.771	-193.857	0.094	0.001
-229.757	800.000	-0.129	-0.360
-228.742	-200.000	-0.037	0.000
-227.727	-129.358	0.168	-0.023
-226.713	-50.602	0.243	0.114
-225.698	-2.496	0.366	0.255
-224.684	118.273	-0.154	-0.189
-223.669	119.085	0.248	-0.305
-222.655	-200.000	0.000	0.063
-221.640	-200.000	0.011	-0.256
-220.625	-72.838	0.123	-0.045
-219.611	85.681	-0.187	0.205
-218.596	387.304	0.148	0.304
-217.582	530.066	0.154	0.362
-216.567	4.458	0.189	-0.138
-215.552	-42.495	0.293	-0.148
-214.538	-200.000	0.014	-0.400
-213.523	144.008	0.125	0.166
-212.509	766.998	0.090	0.244
-211.494	179.303	0.063	0.092
-210.479	160.620	-0.104	0.145
-209.465	221.670	-0.101	0.161
-208.450	234.311	-0.271	-0.444
-207.436	42.784	0.100	0.090
-206.421	1.136	0.212	0.151
-205.406	58.612	0.191	-0.186
-204.392	-200.000	-0.024	0.197
-203.377	73.551	0.260	0.271
-202.363	125.529	0.113	0.142
-201.348	-14.635	0.113	0.072
-200.333	-200.000	0.011	0.175
-199.319	-133.901	-0.065	0.008
-198.304	669.834	-0.097	-0.249
-197.290	55.981	-0.223	0.215
-196.275	-200.000	0.031	0.213
-195.260	180.908	0.058	-0.084
-194.246	-134.846	0.253	-0.030
-193.231	-200.000	-0.010	0.049
-192.217	548.552	0.071	0.168
-191.202	-113.245	0.280	-0.055
-190.187	320.699	0.057	0.107
-189.173	-45.469	-0.201	-0.099
-188.158	27.795	0.275	0.230
-187.144	-52.930	0.137	-0.063
-186.129	27.856	0.096	-0.080
-185.114	463.276	0.118	0.261
-184.100	-200.000	0.017	0.125
-183.085	199.022	-0.135	0.205
-182.071	-69.667	0.273	0.104
-181.056	246.751	0.121	-0.202
-180.042	800.000	-0.040	-0.131
-179.027	86.970	0.057	0.063
-178.012	-131.179	0.197	0.026
-176.998	-6.363	-0.143	0.097
-175.983	428.757	0.081	0.173
-174.969	-169.534	0.239	0.009
-173.954	-200.000	0.056	-0.461
-172.939	800.000	-0.058	0.203
-171.925	-200.000	-0.004	-0.154
-170.910	-143.902	0.262	0.024
-169.896	-200.000	0.013	-0.177
-168.881	800.000	-0.089	0.253
-167.866	23.292	-0.049	0.040
-166.852	-67.190	0.133	-0.052
-165.837	-200.000	0.001	0.081
-164.823	24.754	0.275	-0.226
-163.808	-51.146	-0.115	-0.053
-162.793	-200.000	-0.021	-0.264
-161.779	-78.852	0.209	-0.071
-160.764	41.446	0.171	-0.154
-159.750	-54.575	-0.217	-0.097
-158.735	575.384	-0.058	-0.140
-157.720	-93.022	0.077	-0.021
-156.706	76.532	0.062	-0.066
-155.691	90.634	0.185	0.205
-154.677	109.757	0.222	-0.264
-153.662	507.839	-0.089	-0.206
-152.647	-67.869	0.241	-0.093
-151.633	-200.000	-0.040	0.179
-150.618	-200.000	-0.070	-0.398
-149.604	-200.000	-0.033	-0.327
-148.589	69.156	0.261	0.266
-147.574	-107.822	-0.224	0.048
-146.560	-200.000	-0.002	0.067
-145.545	-200.000	0.009	-0.244
-144.531	717.278	-0.059	0.154
-143.516	58.242	-0.089	-0.087
-142.502	-113.554	0.127	-0.025
-141.487	-200.000	-0.032	0.218
-140.472	-30.461	-0.286	0.161
-139.458	-96.925	-0.386	0.100
-138.443	12.379	-0.200	-0.152
-137.429	-77.186	-0.102	-0.035
-136.414	-122.264	-0.208	-0.034
-135.399	501.750	0.068	0.156
-134.385	161.008	-0.035	-0.049
-133.370	-2.834	-0.102	0.071
-132.356	149.352	0.082	0.110
-131.341	10.452	0.284	0.215
-130.326	658.413	-0.038	-0.098
-129.312	40.090	-0.544	0.485
-128.297	81.595	-0.165	-0.177
-127.283	-200.000	-0.023	-0.171
-126.268	-75.812	0.342	-0.120
-125.253	514.347	-0.189	-0.436
-124.239	-64.532	0.346	0.139
-123.224	84.886	0.282	-0.306
-122.210	-15.956	-0.358	-0.226
-121.195	264.774	0.089	-0.153
