DTS Sentinel unit serial number:	SN413079Multiplexer serial number:	ORYXHardware model number:	OX4-SRSoftware version number:	ORYX F/W v4.00 Oryx Data Collector v3.7.2.0data status	okinstallation	princeton_trtdifferential loss correction	single-endedforward channel	channel 4reverse channel	N/Adate	2019/09/15time	16:57:34forward acquisition time	60.00reverse acquisition time	0.00gamma	496.2192k internal	0.2275k external	0.2275temperature offset calibration	0.9929default loss term (dB/km)	0.3790temperature slope calibration	1.0000multiplexer offset coefficient	1.0000multiplexer slope coefficient	1.0000fibre end	0.00T internal ref (°C)	44.44T ext. ref 1 (°C)	5.82T ext. ref 2 (°C)	40.31length (m)	temperature (°C)	Stokes	anti-Stokes-747.200	151.163	0.083	0.116
-746.185	-200.000	-0.063	0.325
-745.171	800.000	0.069	-0.222
-744.156	-100.904	0.233	0.059
-743.142	12.215	0.259	0.206
-742.127	95.205	-0.071	0.083
-741.112	555.660	-0.205	0.508
-740.098	108.371	-0.239	0.294
-739.083	529.150	-0.098	-0.237
-738.069	151.260	0.193	0.271
-737.054	44.468	-0.275	-0.261
-736.039	26.768	-0.210	0.181
-735.025	282.523	-0.103	0.191
-734.010	602.482	-0.125	0.320
-732.996	-200.000	0.030	0.204
-731.981	144.158	-0.049	-0.068
-730.966	612.463	-0.052	0.133
-729.952	-200.000	-0.029	-0.150
-728.937	800.000	-0.048	0.164
-727.923	105.312	-0.292	-0.355
-726.908	800.000	-0.124	-0.389
-725.894	-127.986	0.319	-0.047
-724.879	-56.033	-0.098	-0.045
-723.864	196.231	0.176	-0.276
-722.850	-36.147	0.118	0.066
-721.835	-200.000	0.019	0.156
-720.821	-97.601	-0.257	0.069
-719.806	-142.698	0.134	0.014
-718.791	-200.000	-0.208	0.001
-717.777	-124.931	-0.428	-0.068
-716.762	156.161	0.160	-0.227
-715.748	47.649	-0.141	0.136
-714.733	36.448	0.136	-0.123
-713.718	-2.385	0.120	0.086
-712.704	6.493	-0.166	-0.127
-711.689	162.445	-0.078	-0.113
-710.675	251.967	-0.088	-0.154
-709.660	16.930	0.188	0.153
-708.645	276.443	0.108	0.198
-707.631	339.548	0.126	-0.252
-706.616	208.502	-0.030	0.048
-705.602	-91.138	-0.192	-0.057
-704.587	90.823	-0.056	-0.065
-703.572	-36.372	0.355	0.197
-702.558	438.752	0.113	-0.254
-701.543	800.000	0.052	0.214
-700.529	-65.932	-0.141	-0.058
-699.514	140.326	-0.126	-0.172
-698.499	105.760	0.149	0.181
-697.485	-200.000	0.007	-0.141
-696.470	222.414	-0.145	0.240
-695.456	67.380	0.088	0.092
-694.441	-74.826	-0.266	0.098
-693.426	509.673	-0.203	0.486
-692.412	43.619	-0.262	-0.246
-691.397	78.302	-0.144	0.158
-690.383	-115.747	0.153	0.029
-689.368	207.602	0.215	0.345
-688.354	56.584	-0.024	-0.024
-687.339	448.086	0.110	0.250
-686.324	50.494	-0.230	0.224
-685.310	-200.000	-0.246	-0.000
-684.295	160.226	0.174	-0.250
-683.281	-200.000	0.062	-0.353
-682.266	800.000	0.054	-0.240
-681.251	-67.150	0.181	0.074
-680.237	349.003	-0.129	0.262
-679.222	46.881	-0.127	-0.121
-678.208	-200.000	0.014	0.137
-677.193	-200.000	0.044	-0.391
-676.178	-200.000	0.042	0.240
-675.164	800.000	-0.074	-0.320
-674.149	800.000	0.056	0.199
-673.135	138.605	-0.076	-0.102
-672.120	-85.306	0.209	-0.067
-671.105	72.582	-0.194	0.208
-670.091	-71.089	-0.272	-0.105
-669.076	-200.000	-0.061	-0.289
-668.062	-79.267	-0.172	-0.060
-667.047	-89.262	0.236	-0.071
-666.032	-75.567	0.313	-0.114
-665.018	-200.000	-0.009	-0.175
-664.003	-71.085	-0.380	0.147
-662.989	800.000	0.041	-0.122
-661.974	280.133	-0.091	-0.168
-660.959	-111.707	-0.062	0.013
-659.945	-122.187	-0.064	0.011
-658.930	-110.544	0.150	0.032
-657.916	45.260	0.091	0.086
-656.901	50.830	-0.218	0.212
-655.886	737.440	-0.110	0.302
-654.872	-95.241	-0.335	-0.093
-653.857	800.000	0.038	-0.143
-652.843	-200.000	-0.022	0.330
-651.828	-113.450	-0.129	-0.026
-650.814	-102.606	-0.206	-0.051
-649.799	-100.197	0.064	0.016
-648.784	-200.000	0.007	-0.115
-647.770	-2.505	-0.288	-0.207
-646.755	-44.983	-0.209	-0.107
-645.741	42.484	-0.228	0.213
-644.726	168.804	0.206	-0.302
-643.711	663.569	-0.075	0.199
-642.697	-21.656	0.079	-0.049
-641.682	-73.270	-0.108	0.040
-640.668	-200.000	0.007	-0.242
-639.653	-58.194	0.435	-0.195
-638.638	-124.816	0.099	0.016
-637.624	118.283	-0.315	0.399
-636.609	252.042	-0.123	0.214
-635.595	-112.919	0.107	-0.022
-634.580	109.409	-0.277	0.341
-633.565	-200.000	0.009	-0.125
-632.551	7.429	-0.331	0.254
-631.536	-200.000	-0.008	0.077
-630.522	-92.277	0.082	0.024
-629.507	54.461	0.175	0.173
-628.492	56.352	0.153	-0.153
-627.478	-31.266	-0.313	0.181
-626.463	-131.277	0.233	0.032
-625.449	-200.000	-0.004	0.160
-624.434	175.952	0.061	-0.090
-623.419	-18.933	0.230	0.147
-622.405	-14.543	0.172	-0.113
-621.390	79.183	-0.213	0.234
-620.376	348.775	0.099	0.201
-619.361	77.940	-0.071	-0.078
-618.346	130.590	0.034	-0.044
-617.332	-4.094	-0.282	-0.201
-616.317	133.246	-0.198	0.262
-615.303	-138.083	-0.247	-0.028
-614.288	312.353	-0.034	-0.066
-613.273	-24.843	0.144	-0.088
-612.259	-200.000	0.008	-0.204
-611.244	47.874	-0.117	0.112
-610.230	-52.719	-0.254	0.120
-609.215	163.727	0.083	-0.120
-608.201	-32.005	-0.195	-0.112
-607.186	800.000	0.100	-0.296
-606.171	-200.000	0.022	-0.207
-605.157	-119.250	0.507	0.091
-604.142	352.844	0.119	-0.242
-603.128	-68.778	0.318	0.126
-602.113	188.580	0.180	0.276
-601.098	-53.266	-0.260	0.122
-600.084	-73.423	0.112	0.042
-599.069	-6.905	0.248	-0.173
-598.055	-200.000	0.031	0.164
-597.040	256.082	0.173	0.304
-596.025	-113.554	-0.144	0.029
-595.011	219.813	0.137	0.225
-593.996	-22.362	0.252	-0.156
-592.982	800.000	-0.156	0.453
-591.967	542.341	0.055	0.135
-590.952	-32.257	0.136	-0.078
-589.938	-96.565	-0.172	0.046
-588.923	-1.709	0.216	-0.156
-587.909	-5.385	-0.043	0.030
-586.894	-114.182	0.156	0.031
-585.879	34.388	-0.262	-0.234
-584.865	237.908	0.051	0.087
-583.850	-98.929	0.114	0.030
-582.836	-200.000	-0.028	-0.191
-581.821	-31.427	0.169	0.097
-580.806	-200.000	0.003	0.129
-579.792	-110.147	0.124	-0.026
-578.777	52.344	0.298	-0.291
-577.763	331.471	0.089	0.175
-576.748	-200.000	-0.036	-0.175
-575.733	56.959	-0.057	-0.057
-574.719	-200.000	-0.003	-0.101
-573.704	206.805	-0.065	-0.104
-572.690	-33.516	-0.125	0.071
-571.675	246.497	0.116	0.200
-570.661	522.857	0.109	0.263
-569.646	-109.463	0.386	0.084
-568.631	-200.000	0.022	-0.238
-567.617	49.783	0.056	0.054
-566.602	59.892	0.065	0.066
-565.588	98.182	0.114	0.134
-564.573	-91.874	0.194	-0.056
-563.558	82.560	0.172	0.191
-562.544	-165.345	0.198	-0.009
-561.529	-148.752	0.112	-0.009
-560.515	-200.000	0.000	0.077
-559.500	-15.142	-0.099	-0.065
-558.485	276.949	0.112	-0.203
-557.471	2.986	0.137	-0.102
-556.456	-96.713	0.192	0.052
-555.442	-173.376	-0.297	0.009
-554.427	82.674	0.161	-0.179
-553.412	4.879	0.208	0.157
-552.398	-200.000	-0.026	-0.267
-551.383	-154.062	-0.192	-0.013
-550.369	-25.256	-0.199	0.120
-549.354	10.630	0.260	0.203
-548.339	-110.223	0.411	-0.088
-547.325	9.828	-0.214	-0.166
-546.310	-17.344	0.277	-0.178
-545.296	112.301	0.120	0.148
-544.281	67.108	0.086	0.090
-543.266	52.765	0.242	0.237
-542.252	-53.312	0.057	-0.027
-541.237	-200.000	-0.003	-0.147
-540.223	47.858	0.228	-0.217
-539.208	50.176	0.149	0.143
-538.193	359.387	-0.013	0.026
-537.179	-176.656	-0.378	-0.010
-536.164	-54.962	-0.060	-0.028
-535.150	266.403	0.049	-0.088
-534.135	89.870	0.304	-0.347
-533.121	-152.117	-0.100	0.007
-532.106	-200.000	0.022	0.242
-531.091	186.999	-0.134	-0.204
-530.077	180.908	0.013	-0.020
-529.062	50.706	0.070	0.068
-528.048	5.578	-0.139	0.105
-527.033	-81.951	0.378	-0.126
-526.018	800.000	-0.051	0.198
-525.004	683.058	-0.038	0.101
-523.989	175.259	0.116	-0.171
-522.975	-107.683	0.109	0.024
-521.960	71.222	-0.060	-0.063
-520.945	104.840	0.201	-0.242
-519.931	-68.703	0.244	-0.096
-518.916	61.728	0.215	-0.219
-517.902	-94.069	-0.189	0.053
-516.887	4.065	-0.321	-0.240
-515.872	175.364	-0.005	0.008
-514.858	113.788	-0.144	0.179
-513.843	-138.668	-0.313	-0.035
-512.829	-3.459	-0.129	-0.091
-511.814	800.000	0.096	-0.354
-510.799	96.656	-0.346	0.405
-509.785	75.833	0.058	-0.062
-508.770	798.660	-0.096	-0.269
-507.756	800.000	0.050	-0.165
-506.741	59.278	-0.082	-0.082
-505.726	800.000	0.033	0.112
-504.712	63.739	-0.118	0.121
-503.697	-53.833	0.204	0.095
-502.683	-200.000	0.012	0.105
-501.668	-200.000	0.018	-0.390
-500.653	-57.913	0.244	0.109
-499.639	321.331	-0.133	0.258
-498.624	637.118	0.083	-0.215
-497.610	-94.439	-0.214	-0.060
-496.595	-58.132	-0.170	-0.076
-495.581	-200.000	-0.055	0.402
-494.566	-61.769	-0.165	-0.071
-493.551	-74.726	0.183	0.067
-492.537	102.494	0.199	0.238
-491.522	12.660	-0.034	0.027
-490.508	79.767	-0.200	-0.220
-489.493	-32.042	-0.162	0.093
-488.478	76.396	-0.147	0.159
-487.464	800.000	-0.067	-0.193
-486.449	49.825	-0.132	-0.127
-485.435	412.790	-0.157	-0.340
-484.420	800.000	-0.066	0.226
-483.405	53.219	0.437	0.427
-482.391	-136.809	0.588	0.069
-481.376	-126.958	0.106	-0.016
-480.362	161.670	0.101	-0.144
-479.347	224.698	-0.145	0.239
-478.332	800.000	0.081	0.298
-477.318	509.088	-0.027	0.064
-476.303	-158.354	-0.452	-0.027
-475.289	-91.476	0.191	-0.056
-474.274	-200.000	-0.022	0.421
-473.259	-79.851	-0.084	0.029
-472.245	102.409	0.195	-0.233
-471.230	-200.000	0.003	0.105
-470.216	-1.148	-0.205	-0.148
-469.201	444.003	0.071	-0.158
-468.186	42.794	-0.160	0.149
-467.172	800.000	-0.056	0.182
-466.157	18.903	-0.173	0.141
-465.143	800.000	0.056	-0.174
-464.128	25.481	0.259	0.220
-463.113	800.000	-0.025	-0.083
-462.099	800.000	-0.073	-0.218
-461.084	-200.000	-0.015	-0.184
-460.070	-118.554	-0.129	0.023
-459.055	421.280	-0.055	-0.120
-458.040	72.549	-0.140	0.149
-457.026	-34.775	-0.227	0.126
-456.011	-200.000	0.002	0.139
-454.997	553.910	-0.094	0.229
-453.982	91.474	0.116	0.133
-452.968	-32.231	0.337	0.192
-451.953	92.047	0.266	0.305
-450.938	-7.644	0.090	0.062
-449.924	791.394	-0.072	-0.201
-448.909	-66.681	-0.156	-0.063
-447.895	800.000	-0.053	0.184
-446.880	-95.296	-0.050	-0.014
-445.865	79.112	0.138	-0.151
-444.851	98.483	-0.246	-0.289
-443.836	-31.680	0.287	0.164
-442.822	102.692	0.143	-0.170
-441.807	256.423	-0.100	-0.175
-440.792	123.317	-0.193	-0.247
-439.778	-200.000	-0.004	-0.212
-438.763	-130.409	-0.206	0.028
-437.749	800.000	0.031	0.114
-436.734	603.267	-0.141	-0.357
-435.719	49.127	0.177	0.170
-434.705	-200.000	-0.019	-0.128
-433.690	-152.162	0.444	0.033
-432.676	-200.000	0.061	0.396
-431.661	-200.000	-0.046	0.260
-430.646	69.034	0.112	-0.117
-429.632	14.470	0.075	0.059
-428.617	6.279	-0.024	-0.018
-427.603	168.723	0.015	0.022
-426.588	-72.150	0.079	-0.030
-425.573	144.035	0.187	0.254
-424.559	-2.207	-0.064	-0.046
-423.544	-200.000	-0.003	0.035
-422.530	-160.816	0.130	-0.007
-421.515	-37.079	-0.187	-0.102
-420.500	643.783	-0.080	0.209
-419.486	-200.000	0.001	0.033
-418.471	-107.727	-0.116	-0.026
-417.457	15.346	0.065	0.052
-416.442	-82.139	-0.269	0.089
-415.428	-200.000	0.013	-0.333
-414.413	507.722	-0.187	-0.443
-413.398	800.000	0.056	-0.188
-412.384	800.000	0.047	0.147
-411.369	273.603	-0.114	0.204
-410.355	800.000	0.110	0.349
-409.340	-200.000	-0.010	-0.422
-408.325	12.061	-0.199	-0.156
-407.311	800.000	0.034	0.140
-406.296	637.641	0.100	-0.259
-405.282	148.755	-0.106	-0.145
-404.267	800.000	0.016	0.051
-403.252	-163.210	-0.234	0.011
-402.238	-57.806	-0.227	-0.101
-401.223	-200.000	0.021	-0.315
-400.209	144.054	0.018	-0.024
-399.194	171.323	0.110	0.160
-398.179	728.264	-0.061	-0.167
-397.165	14.713	-0.201	-0.160
-396.150	179.482	-0.085	-0.126
-395.136	123.160	0.210	0.268
-394.121	-61.257	-0.163	-0.070
-393.106	-123.728	-0.244	-0.039
-392.092	-14.593	0.190	-0.124
-391.077	-109.375	0.056	-0.012
-390.063	-105.587	0.104	-0.024
-389.048	-200.000	0.020	-0.209
-388.033	-97.787	0.139	-0.036
-387.019	-72.652	0.017	0.006
-386.004	800.000	-0.143	0.414
-384.990	-2.425	-0.449	-0.320
-383.975	-57.099	-0.393	-0.176
-382.960	-89.606	-0.025	0.008
-381.946	-42.172	0.303	-0.157
-380.931	-42.290	-0.217	0.112
-379.917	800.000	-0.101	-0.364
-378.902	-79.134	0.223	0.077
-377.888	34.216	0.163	-0.144
-376.873	343.808	-0.037	0.073
-375.858	800.000	0.061	0.217
-374.844	275.936	0.075	-0.135
-373.829	-200.000	0.040	0.206
-372.815	13.821	-0.166	-0.131
-371.800	-157.893	0.190	-0.011
-370.785	93.270	-0.095	-0.109
-369.771	-97.258	0.223	-0.059
-368.756	65.863	0.167	0.172
-367.742	692.347	-0.126	-0.335
-366.727	-200.000	0.013	-0.304
-365.712	57.764	0.166	0.165
-364.698	-86.756	-0.142	-0.044
-363.683	800.000	-0.053	0.225
-362.669	-58.781	-0.318	0.140
-361.654	-140.800	-0.120	-0.013
-360.639	-79.773	-0.310	0.106
-359.625	-75.360	-0.092	0.033
-358.610	114.709	-0.149	-0.184
-357.596	55.530	-0.107	0.106
-356.581	330.057	-0.137	0.267
-355.566	168.849	-0.148	0.215
-354.552	62.605	-0.036	0.037
-353.537	-200.000	0.014	0.071
-352.523	-35.516	0.662	-0.365
-351.508	-52.946	-0.127	0.060
-350.493	315.856	-0.030	-0.058
-349.479	599.737	-0.044	0.112
-348.464	-147.305	-0.134	-0.012
-347.450	800.000	-0.051	0.177
-346.435	173.243	0.168	0.246
-345.420	-156.052	0.378	0.024
-344.406	800.000	-0.026	0.075
-343.391	144.577	-0.208	0.282
-342.377	-200.000	-0.001	-0.129
-341.362	404.965	-0.053	0.113
-340.348	-30.550	0.182	0.105
-339.333	-0.214	-0.202	0.146
-338.318	444.565	-0.122	-0.271
-337.304	-130.632	-0.266	-0.036
-336.289	-93.573	0.504	0.141
-335.275	14.176	-0.106	0.083
-334.260	-42.222	-0.277	-0.144
-333.245	-49.751	0.247	0.119
-332.231	800.000	0.044	0.192
-331.216	-107.621	0.207	0.046
-330.202	-200.000	0.034	0.171
-329.187	-101.242	-0.338	-0.084
-328.172	268.392	-0.229	0.408
-327.158	362.247	-0.100	0.203
-326.143	165.939	-0.175	0.251
-325.129	800.000	0.031	-0.137
-324.114	-200.000	-0.001	0.180
-323.099	182.810	-0.050	0.075
-322.085	-86.247	-0.158	0.049
-321.070	137.408	-0.215	-0.285
-320.056	-19.601	-0.097	-0.061
-319.041	277.404	-0.098	0.176
-318.026	-89.328	0.305	-0.091
-317.012	-200.000	0.011	0.085
-315.997	-57.027	-0.388	-0.174
-314.983	800.000	0.027	-0.082
-313.968	83.837	-0.118	0.130
-312.953	-112.951	0.309	0.062
-311.939	-200.000	0.007	0.185
-310.924	37.475	-0.023	-0.021
-309.910	-5.879	-0.346	0.240
-308.895	90.497	-0.148	-0.167
-307.880	-114.729	0.124	-0.024
-306.866	557.304	0.106	0.259
-305.851	-51.188	-0.098	0.046
-304.837	38.917	0.207	-0.187
-303.822	-52.130	0.072	-0.034
-302.807	-40.032	-0.131	-0.069
-301.793	-110.957	0.380	0.079
-300.778	-200.000	0.049	-0.289
-299.764	315.414	0.044	0.085
-298.749	-200.000	0.033	-0.339
-297.735	-140.279	0.359	-0.038
-296.720	800.000	0.037	0.105
-295.705	126.162	-0.081	0.104
-294.691	-7.584	0.264	0.181
-293.676	800.000	-0.140	-0.418
-292.662	49.290	-0.038	0.036
-291.647	-76.768	-0.116	-0.041
-290.632	-139.267	-0.329	-0.036
-289.618	225.565	0.042	0.068
-288.603	472.835	0.020	0.047
-287.589	-89.855	-0.347	0.103
-286.574	100.153	-0.156	0.183
-285.559	175.037	-0.016	0.024
-284.545	17.368	0.200	0.161
-283.530	-58.340	-0.201	-0.089
-282.516	-57.482	0.572	-0.254
-281.501	-58.204	0.221	-0.097
-280.486	-163.246	-0.229	-0.011
-279.472	-200.000	-0.005	-0.078
-278.457	-200.000	-0.026	0.209
-277.443	351.541	-0.025	-0.051
-276.428	-120.490	-0.203	0.035
-275.413	37.790	0.105	-0.095
-274.399	-15.948	-0.188	-0.121
-273.384	-99.354	0.219	-0.056
-272.370	-58.602	0.074	-0.032
-271.355	-200.000	-0.028	-0.126
-270.340	-129.982	-0.206	0.029
-269.326	-7.710	0.223	-0.153
-268.311	158.532	-0.282	-0.396
-267.297	-82.458	-0.178	0.058
-266.282	-121.706	0.339	0.057
-265.267	356.795	-0.080	0.162
-264.253	-16.979	-0.106	-0.068
-263.238	-115.664	-0.165	0.031
-262.224	159.020	-0.051	-0.072
-261.209	427.103	-0.196	-0.429
-260.195	25.552	-0.395	0.333
-259.180	-70.760	0.179	0.068
-258.165	166.212	0.063	-0.091
-257.151	800.000	0.153	-0.471
-256.136	-85.724	0.189	-0.059
-255.122	-156.327	0.233	-0.015
-254.107	-200.000	0.012	-0.354
-253.092	-150.474	0.147	0.011
-252.078	-200.000	-0.036	-0.216
-251.063	-200.000	-0.013	0.217
-250.049	117.627	0.186	-0.232
-249.034	22.737	-0.182	-0.151
-248.019	-1.594	0.024	-0.017
-247.005	-78.795	0.232	-0.080
-245.990	-49.614	-0.305	0.147
-244.976	-22.688	0.249	-0.152
-243.961	-200.000	-0.029	0.131
-242.946	44.668	0.055	0.051
-241.932	-200.000	-0.052	0.266
-240.917	800.000	-0.024	-0.092
-239.903	193.216	-0.232	0.354
-238.888	310.918	0.036	0.068
-237.873	-200.000	-0.014	-0.083
-236.859	-94.447	0.174	0.048
-235.844	-199.049	-0.356	-0.002
-234.830	42.976	-0.096	-0.088
-233.815	107.782	0.154	-0.186
-232.800	225.870	-0.201	0.329
-231.786	-16.376	0.041	0.027
-230.771	718.206	-0.063	-0.170
-229.757	63.793	0.096	0.097
-228.742	-200.000	0.037	0.342
-227.727	580.219	0.027	0.068
-226.713	584.849	0.120	0.297
-225.698	793.238	0.058	-0.162
-224.684	-80.144	-0.154	0.052
-223.669	200.014	0.051	-0.080
-222.655	226.785	0.124	0.203
-221.640	650.032	0.064	-0.166
-220.625	-200.000	-0.031	-0.185
-219.611	160.986	-0.198	-0.280
-218.596	-81.479	-0.307	-0.102
-217.582	800.000	-0.072	0.235
-216.567	-200.000	-0.012	-0.095
-215.552	54.444	0.147	-0.143
-214.538	-27.388	-0.262	-0.154
-213.523	92.764	-0.121	-0.138
-212.509	-98.349	0.096	-0.025
-211.494	-28.007	-0.080	0.047
-210.479	-196.494	0.430	-0.003
-209.465	53.758	0.209	-0.202
-208.450	-37.469	0.231	0.124
-207.436	-200.000	0.006	0.304
-206.421	60.186	-0.145	-0.145
-205.406	800.000	0.095	0.317
-204.392	185.572	-0.037	0.055
-203.377	-39.934	-0.142	-0.075
-202.363	15.127	-0.170	0.135
-201.348	106.176	0.253	0.303
-200.333	-134.945	0.245	-0.030
-199.319	-150.993	0.196	0.015
-198.304	-61.868	0.109	0.046
-197.290	-200.000	0.016	0.078
-196.275	37.658	-0.103	0.092
-195.260	127.798	0.274	0.351
-194.246	-102.003	0.170	-0.041
-193.231	448.849	0.033	-0.072
-192.217	348.217	-0.081	0.162
-191.202	-185.927	-0.147	0.002
-190.187	657.896	-0.092	-0.239
-189.173	37.366	0.218	-0.195
-188.158	-94.214	-0.210	-0.058
-187.144	-116.694	-0.223	-0.041
-186.129	800.000	-0.067	-0.250
-185.114	108.585	0.291	0.351
-184.100	125.674	0.109	-0.138
-183.085	-187.481	-0.207	0.003
-182.071	800.000	0.020	-0.073
-181.056	-78.205	-0.180	-0.062
-180.042	-103.448	-0.393	-0.093
-179.027	-61.380	-0.241	-0.102
-178.012	111.334	0.090	0.109
-176.998	178.365	0.065	0.095
-175.983	-16.764	-0.331	-0.211
-174.969	-88.637	-0.242	-0.072
-173.954	-99.214	0.014	-0.004
-172.939	297.519	-0.012	-0.022
-171.925	-38.876	-0.117	-0.062
-170.910	99.299	-0.203	-0.237
-169.896	26.402	-0.263	-0.221
-168.881	-6.674	0.136	-0.093
-167.866	-182.910	-0.163	-0.003
-166.852	-200.000	-0.007	-0.225
-165.837	49.700	-0.119	0.113
-164.823	-167.573	-0.244	-0.010
-163.808	207.213	0.158	-0.249
-162.793	-200.000	0.070	-0.498
-161.779	-18.224	0.186	-0.117
-160.764	-168.527	-0.455	-0.018
-159.750	-151.142	0.038	0.003
-158.735	108.242	0.155	0.187
-157.720	131.307	0.111	0.144
-156.706	29.964	0.413	0.355
-155.691	-163.759	0.153	-0.007
-154.677	-200.000	0.004	0.179
-153.662	-2.117	0.036	-0.025
-152.647	-200.000	0.020	0.398
-151.633	-129.986	0.342	0.047
-150.618	800.000	-0.074	0.210
-149.604	57.971	-0.058	0.057
-148.589	16.628	-0.223	0.177
-147.574	-171.508	0.178	0.006
-146.560	18.009	0.025	0.020
-145.545	-107.484	0.093	0.021
-144.531	152.143	0.145	0.200
-143.516	-113.746	-0.128	-0.025
-142.502	-88.062	0.210	0.064
-141.487	-200.000	-0.044	0.204
-140.472	-171.122	0.304	0.010
-139.458	-166.098	0.089	-0.004
-138.443	-200.000	-0.005	-0.277
-137.429	636.293	0.085	-0.216
-136.414	-99.400	0.280	-0.071
-135.399	-42.674	0.442	-0.226
-134.385	538.748	-0.081	0.194
-133.370	143.596	-0.172	0.231
-132.356	-13.043	-0.084	0.055
-131.341	-200.000	0.052	0.368
-130.326	-45.240	0.223	0.112
-129.312	233.026	-0.062	0.103
-128.297	-154.721	0.178	-0.012
-127.283	109.925	0.195	-0.235
-126.268	-50.952	0.132	-0.062
-125.253	92.549	-0.223	-0.253
-124.239	313.809	-0.165	0.313
-123.224	-2.629	-0.227	-0.160
-122.210	-64.837	-0.030	0.012
-121.195	74.431	0.181	-0.192
-120.180	-200.000	-0.020	-0.436
