DTS Sentinel unit serial number:	SN413079Multiplexer serial number:	ORYXHardware model number:	OX4-SRSoftware version number:	ORYX F/W v4.00 Oryx Data Collector v3.7.2.0data status	okinstallation	princeton_trtdifferential loss correction	single-endedforward channel	channel 4reverse channel	N/Adate	2019/09/11time	18:31:10forward acquisition time	60.00reverse acquisition time	0.00gamma	496.2192k internal	0.2276k external	0.2276temperature offset calibration	1.0025default loss term (dB/km)	0.3790temperature slope calibration	1.0000multiplexer offset coefficient	1.0000multiplexer slope coefficient	1.0000fibre end	0.00T internal ref (°C)	43.81T ext. ref 1 (°C)	1.17T ext. ref 2 (°C)	37.44length (m)	temperature (°C)	Stokes	anti-Stokes-747.200	466.614	-0.044	0.103
-746.185	-120.284	-0.140	-0.025
-745.171	800.000	0.088	0.345
-744.156	54.221	0.188	0.187
-743.142	-200.000	0.031	0.188
-742.127	-163.525	-0.125	-0.006
-741.112	10.616	-0.316	-0.248
-740.098	55.519	0.213	0.213
-739.083	-200.000	-0.017	-0.301
-738.069	96.065	-0.190	-0.224
-737.054	-31.655	-0.220	0.127
-736.039	-123.188	0.105	0.017
-735.025	171.158	0.154	-0.228
-734.010	349.384	0.110	-0.224
-732.996	174.435	0.104	0.154
-731.981	-132.408	-0.396	0.053
-730.966	-200.000	-0.012	-0.074
-729.952	157.709	-0.054	0.076
-728.937	-200.000	0.050	-0.250
-727.923	-20.918	-0.441	0.278
-726.908	-51.236	-0.184	-0.089
-725.894	486.446	-0.096	-0.226
-724.879	57.503	-0.206	0.207
-723.864	-18.510	0.182	0.117
-722.850	34.131	0.153	-0.137
-721.835	371.225	-0.107	0.224
-720.821	165.313	-0.027	0.040
-719.806	64.761	-0.078	0.081
-718.791	-200.000	-0.047	0.295
-717.777	-162.144	-0.403	0.021
-716.762	-31.243	-0.119	0.069
-715.748	1.454	-0.152	-0.112
-714.733	58.995	-0.195	-0.197
-713.718	-95.404	-0.190	-0.052
-712.704	-135.711	-0.114	0.014
-711.689	800.000	0.021	-0.073
-710.675	601.279	-0.024	-0.062
-709.660	419.017	0.122	-0.269
-708.645	-200.000	-0.010	0.115
-707.631	-147.600	-0.258	0.022
-706.616	-35.569	-0.280	-0.156
-705.602	-200.000	-0.007	-0.115
-704.587	800.000	0.077	-0.339
-703.572	-15.915	-0.027	-0.017
-702.558	145.089	-0.032	0.044
-701.543	-135.763	0.240	-0.029
-700.529	-113.699	0.183	-0.037
-699.514	-25.263	-0.220	-0.134
-698.499	297.859	0.047	-0.089
-697.485	800.000	0.079	0.229
-696.470	-200.000	0.030	-0.180
-695.456	800.000	-0.043	0.191
-694.441	781.417	-0.075	0.210
-693.426	-56.924	-0.114	-0.052
-692.412	345.932	0.062	-0.125
-691.397	-200.000	0.011	0.130
-690.383	800.000	0.023	-0.079
-689.368	-6.935	0.216	-0.151
-688.354	-200.000	0.050	-0.450
-687.339	560.969	0.066	-0.165
-686.324	-48.384	0.148	0.073
-685.310	-200.000	0.024	-0.172
-684.295	-200.000	0.011	-0.139
-683.281	-90.884	-0.093	0.027
-682.266	-200.000	0.011	0.056
-681.251	-2.373	0.294	-0.212
-680.237	278.270	-0.214	0.392
-679.222	-183.232	-0.481	0.009
-678.208	-200.000	0.032	-0.174
-677.193	-137.796	0.145	0.017
-676.178	-28.714	-0.080	0.047
-675.164	19.707	0.127	-0.105
-674.149	-23.497	-0.268	0.165
-673.135	293.224	-0.037	0.070
-672.120	167.649	-0.030	-0.043
-671.105	393.933	0.107	0.230
-670.091	257.556	-0.066	0.117
-669.076	-116.075	-0.272	0.052
-668.062	-147.262	-0.292	-0.026
-667.047	-200.000	-0.046	-0.259
-666.032	186.498	-0.106	-0.161
-665.018	434.027	0.025	0.057
-664.003	68.430	-0.158	-0.166
-662.989	-35.593	-0.242	0.135
-661.974	25.560	-0.359	0.307
-660.959	-200.000	-0.003	0.307
-659.945	-96.899	-0.464	0.125
-658.930	-162.292	-0.178	0.009
-657.916	-200.000	-0.031	-0.183
-656.901	-43.435	0.159	-0.083
-655.886	89.638	0.162	0.186
-654.872	-200.000	-0.010	-0.081
-653.857	-47.301	-0.059	-0.030
-652.843	-200.000	-0.037	-0.302
-651.828	800.000	-0.061	0.237
-650.814	800.000	0.012	0.041
-649.799	-64.458	-0.212	-0.089
-648.784	390.658	0.152	-0.325
-647.770	-147.333	0.143	-0.013
-646.755	3.733	0.084	0.063
-645.741	32.970	-0.156	-0.139
-644.726	800.000	0.050	-0.146
-643.711	-76.370	0.108	-0.039
-642.697	84.360	-0.102	0.115
-641.682	800.000	0.031	0.106
-640.668	-43.597	0.231	-0.120
-639.653	-128.145	-0.332	-0.049
-638.638	417.509	-0.066	-0.145
-637.624	-122.113	-0.253	-0.043
-636.609	345.010	0.047	0.095
-635.595	57.921	-0.150	0.150
-634.580	800.000	-0.032	-0.126
-633.565	391.794	-0.141	-0.300
-632.551	482.460	0.008	0.018
-631.536	-200.000	-0.076	-0.403
-630.522	148.039	-0.251	-0.347
-629.507	170.664	0.138	-0.204
-628.492	-79.446	-0.137	0.048
-627.478	800.000	-0.052	0.213
-626.463	37.977	-0.121	-0.111
-625.449	624.074	0.017	-0.045
-624.434	-200.000	-0.028	-0.332
-623.419	-200.000	-0.064	-0.329
-622.405	-7.148	-0.103	-0.071
-621.390	-104.912	0.292	-0.069
-620.376	-65.559	-0.103	-0.042
-619.361	-200.000	-0.021	-0.213
-618.346	355.795	0.133	-0.272
-617.332	44.642	-0.323	-0.304
-616.317	86.884	0.134	0.152
-615.303	-1.801	0.272	0.196
-614.288	294.829	0.096	-0.180
-613.273	107.114	0.375	-0.457
-612.259	-200.000	0.008	0.045
-611.244	70.424	-0.145	-0.153
-610.230	-92.950	-0.452	-0.129
-609.215	800.000	-0.106	-0.306
-608.201	53.161	-0.240	0.236
-607.186	268.850	0.160	0.287
-606.171	234.795	-0.161	-0.271
-605.157	-10.808	-0.139	-0.094
-604.142	315.344	0.038	-0.074
-603.128	-137.345	0.161	0.019
-602.113	-93.739	-0.142	-0.040
-601.098	-61.345	-0.121	0.052
-600.084	-80.125	0.269	-0.092
-599.069	86.882	0.169	-0.191
-598.055	-118.939	0.111	0.020
-597.040	-117.473	-0.082	-0.015
-596.025	447.073	0.069	-0.156
-595.011	178.220	-0.075	0.112
-593.996	800.000	0.067	-0.238
-592.982	9.274	0.183	-0.142
-591.967	-110.459	-0.289	0.062
-590.952	-200.000	0.041	-0.203
-589.938	-200.000	-0.048	0.255
-588.923	-200.000	-0.056	-0.256
-587.909	-152.077	-0.073	0.005
-586.894	23.146	0.076	0.064
-585.879	-161.843	-0.522	-0.027
-584.865	-0.880	0.250	0.181
-583.850	-34.816	-0.068	-0.038
-582.836	-41.679	0.344	0.181
-581.821	-200.000	-0.059	-0.462
-580.806	-101.259	-0.194	-0.048
-579.792	800.000	0.103	0.359
-578.777	238.535	0.099	-0.169
-577.763	-53.681	0.079	0.037
-576.748	-13.594	-0.147	-0.098
-575.733	-29.509	-0.076	-0.044
-574.719	-65.328	-0.257	-0.106
-573.704	-2.365	-0.196	0.141
-572.690	68.537	-0.177	-0.186
-571.675	238.660	-0.053	0.091
-570.661	314.608	-0.033	0.064
-569.646	-153.997	0.278	0.019
-568.631	244.919	-0.210	0.362
-567.617	-71.860	-0.255	-0.097
-566.602	-126.239	0.089	-0.014
-565.588	-200.000	0.023	0.247
-564.573	10.436	-0.215	-0.168
-563.558	-133.048	0.165	0.021
-562.544	-27.674	-0.139	-0.083
-561.529	752.897	-0.131	-0.364
-560.515	-165.642	-0.305	0.014
-559.500	-63.427	0.082	-0.035
-558.485	-200.000	0.009	-0.102
-557.471	402.092	-0.081	-0.174
-556.456	272.961	0.122	-0.220
-555.442	-57.086	0.220	0.099
-554.427	800.000	-0.037	-0.161
-553.412	-200.000	-0.022	-0.307
-552.398	-200.000	-0.061	0.288
-551.383	-200.000	-0.023	-0.109
-550.369	-105.002	0.079	-0.018
-549.354	-9.211	0.138	0.095
-548.339	131.686	-0.192	0.252
-547.325	-155.297	-0.063	-0.004
-546.310	-75.432	0.114	-0.041
-545.296	-134.200	0.141	-0.018
-544.281	312.832	0.024	0.046
-543.266	800.000	0.037	-0.109
-542.252	-92.723	0.111	0.032
-541.237	4.114	0.088	0.066
-540.223	-75.999	-0.048	-0.017
-539.208	-129.909	-0.220	0.031
-538.193	-48.667	0.152	0.075
-537.179	-56.862	-0.193	0.087
-536.164	179.177	-0.279	-0.418
-535.150	800.000	0.139	-0.469
-534.135	-200.000	0.011	-0.122
-533.121	-98.548	0.208	0.054
-532.106	-11.530	0.200	-0.135
-531.091	-100.701	-0.077	-0.019
-530.077	487.582	0.121	-0.282
-529.062	-29.529	-0.227	-0.133
-528.048	132.813	-0.075	0.100
-527.033	-104.870	0.402	-0.094
-526.018	-42.039	-0.359	0.188
-525.004	-110.501	-0.035	0.008
-523.989	-88.008	-0.098	0.030
-522.975	-76.999	0.163	0.058
-521.960	58.223	0.135	0.135
-520.945	-61.626	0.248	-0.107
-519.931	-3.221	-0.081	-0.058
-518.916	-4.373	0.217	-0.153
-517.902	-200.000	-0.021	0.515
-516.887	800.000	-0.085	-0.245
-515.872	119.133	0.090	0.113
-514.858	-117.926	0.116	0.021
-513.843	-32.941	0.106	-0.060
-512.829	-146.234	-0.166	0.015
-511.814	-200.000	-0.008	0.129
-510.799	800.000	-0.065	0.248
-509.785	-60.164	-0.278	-0.121
-508.770	142.760	-0.215	0.291
-507.756	800.000	0.045	0.150
-506.741	69.298	0.178	0.187
-505.726	401.276	0.069	-0.148
-504.712	-173.153	-0.143	-0.004
-503.697	30.352	0.169	-0.147
-502.683	-138.316	-0.221	-0.025
-501.668	800.000	-0.068	0.200
-500.653	327.899	0.099	0.193
-499.639	184.826	-0.115	-0.173
-498.624	183.101	0.065	0.098
-497.610	8.552	-0.063	0.049
-496.595	-62.952	-0.248	-0.105
-495.581	-151.575	-0.079	0.006
-494.566	-176.292	0.380	-0.010
-493.551	-200.000	-0.013	0.067
-492.537	10.697	-0.071	-0.056
-491.522	800.000	0.054	-0.176
-490.508	36.110	-0.112	-0.101
-489.493	36.575	0.138	0.125
-488.478	26.431	-0.251	0.214
-487.464	92.374	-0.246	-0.283
-486.449	-65.482	0.250	0.103
-485.435	14.395	-0.214	0.170
-484.420	145.143	0.182	0.249
-483.405	-170.406	-0.446	0.016
-482.391	800.000	-0.017	0.058
-481.376	-200.000	-0.004	-0.025
-480.362	-200.000	0.032	-0.192
-479.347	-200.000	0.041	0.320
-478.332	44.313	-0.182	0.171
-477.318	419.068	-0.064	-0.140
-476.303	6.145	0.010	-0.008
-475.289	-110.978	-0.315	0.066
-474.274	12.660	0.300	-0.236
-473.259	-76.035	0.117	-0.042
-472.245	142.829	0.320	-0.433
-471.230	159.246	0.113	-0.160
-470.216	96.458	-0.179	-0.209
-469.201	-122.087	-0.243	0.041
-468.186	-50.879	0.175	-0.084
-467.172	-74.862	0.089	0.033
-466.157	39.756	-0.081	-0.074
-465.143	-200.000	-0.034	0.214
-464.128	-200.000	-0.017	0.089
-463.113	145.230	0.116	0.159
-462.099	-0.208	0.296	0.215
-461.084	-127.433	0.084	0.013
-460.070	-200.000	0.021	0.110
-459.055	264.998	-0.081	0.144
-458.040	-134.540	0.205	0.026
-457.026	-168.220	0.096	0.004
-456.011	800.000	0.099	0.285
-454.997	-200.000	0.057	-0.454
-453.982	-200.000	0.084	-0.381
-452.968	800.000	-0.144	-0.486
-451.953	-31.898	0.262	0.149
-450.938	164.332	-0.104	0.149
-449.924	-14.722	-0.259	0.170
-448.909	-102.975	0.431	0.104
-447.895	17.404	0.167	0.135
-446.880	-34.301	0.080	0.045
-445.865	-200.000	-0.013	0.137
-444.851	-61.629	-0.301	-0.129
-443.836	87.478	-0.058	-0.066
-442.822	800.000	0.024	-0.105
-441.807	308.580	-0.137	0.260
-440.792	-26.963	-0.149	0.088
-439.778	140.775	-0.054	0.072
-438.763	-139.777	0.283	-0.031
-437.749	-175.634	-0.305	0.008
-436.734	22.125	-0.087	-0.072
-435.719	-200.000	0.055	0.272
-434.705	303.279	0.087	0.164
-433.690	614.179	-0.048	0.122
-432.676	-200.000	-0.061	-0.369
-431.661	-72.202	-0.067	-0.025
-430.646	-52.698	0.194	0.091
-429.632	-200.000	0.032	-0.234
-428.617	184.033	0.029	0.044
-427.603	152.933	-0.074	-0.103
-426.588	-200.000	-0.060	-0.422
-425.573	-59.596	0.022	-0.010
-424.559	-150.628	-0.264	0.021
-423.544	800.000	0.085	-0.265
-422.530	-23.079	0.135	-0.083
-421.515	259.431	0.059	0.104
-420.500	-38.922	0.137	-0.074
-419.486	31.386	0.138	0.121
-418.471	-77.879	0.345	0.121
-417.457	800.000	-0.089	0.319
-416.442	-41.171	0.286	0.150
-415.428	136.260	0.088	-0.116
-414.413	-187.783	-0.273	0.004
-413.398	-12.914	0.054	-0.036
-412.384	800.000	0.050	-0.144
-411.369	414.072	-0.105	-0.227
-410.355	-200.000	0.052	-0.274
-409.340	-134.080	-0.440	-0.055
-408.325	-96.622	0.233	-0.062
-407.311	-78.158	-0.131	-0.046
-406.296	18.017	0.044	0.036
-405.282	245.530	0.098	0.168
-404.267	250.351	-0.047	-0.082
-403.252	-200.000	-0.003	0.155
-402.238	-40.917	0.039	-0.021
-401.223	-200.000	0.011	0.134
-400.209	-51.008	0.105	0.050
-399.194	296.775	-0.117	0.219
-398.179	-96.358	-0.241	0.065
-397.165	166.925	0.149	-0.214
-396.150	800.000	-0.028	-0.110
-395.136	367.029	0.058	-0.120
-394.121	-200.000	-0.012	0.208
-393.106	130.850	-0.164	-0.214
-392.092	-69.481	0.154	-0.060
-391.077	-137.070	0.361	-0.042
-390.063	166.540	0.156	-0.225
-389.048	-35.663	-0.300	-0.165
-388.033	-43.899	0.143	-0.073
-387.019	-106.940	-0.483	-0.109
-386.004	253.935	0.123	0.214
-384.990	-41.201	-0.249	-0.130
-383.975	-200.000	-0.014	0.066
-382.960	59.175	0.173	-0.173
-381.946	-103.356	-0.332	0.080
-380.931	14.907	0.026	0.021
-379.917	49.397	0.291	0.279
-378.902	-179.263	-0.179	-0.004
-377.888	-147.789	0.149	0.013
-376.873	383.705	0.124	-0.259
-375.858	-48.984	0.156	-0.076
-374.844	-105.012	0.165	0.038
-373.829	-73.756	-0.178	0.066
-372.815	-2.351	-0.161	-0.115
-371.800	-96.738	-0.138	-0.037
-370.785	438.047	-0.116	-0.256
-369.771	-180.641	-0.394	-0.008
-368.756	231.051	0.170	-0.283
-367.742	14.389	0.208	0.165
-366.727	132.430	0.026	0.034
-365.712	-62.732	0.259	-0.109
-364.698	45.683	0.136	-0.128
-363.683	-24.952	0.128	0.077
-362.669	-162.025	0.120	-0.006
-361.654	-109.469	0.258	0.055
-360.639	43.946	0.282	-0.262
-359.625	10.719	0.275	0.213
-358.610	-96.868	0.309	0.082
-357.596	-200.000	-0.014	0.456
-356.581	-200.000	-0.012	0.095
-355.566	-51.588	-0.326	-0.155
-354.552	-91.382	-0.272	0.079
-353.537	-112.930	0.235	0.047
-352.523	-76.298	0.118	0.042
-351.508	-171.653	-0.104	-0.003
-350.493	-5.874	-0.104	0.072
-349.479	-155.022	0.055	0.004
-348.464	-115.984	-0.344	0.065
-347.450	-200.000	-0.021	0.274
-346.435	-141.509	0.165	-0.017
-345.420	74.455	-0.195	0.208
-344.406	-94.366	0.228	0.063
-343.391	265.573	-0.127	0.225
-342.377	52.204	0.111	-0.108
-341.362	-50.540	-0.134	-0.064
-340.348	221.693	-0.032	-0.053
-339.333	-9.670	-0.209	-0.141
-338.318	-17.588	-0.099	-0.063
-337.304	660.166	0.039	-0.101
-336.289	-116.817	-0.216	0.040
-335.275	222.713	0.046	-0.075
-334.260	131.197	0.181	0.236
-333.245	5.815	-0.151	0.113
-332.231	-200.000	0.022	0.122
-331.216	-71.086	0.166	-0.063
-330.202	484.098	-0.168	0.388
-329.187	20.952	0.215	-0.176
-328.172	35.080	-0.127	-0.113
-327.158	-79.952	0.228	0.078
-326.143	277.483	0.016	0.029
-325.129	-113.097	0.077	-0.015
-324.114	43.756	-0.140	-0.130
-323.099	-27.113	0.321	0.190
-322.085	-200.000	-0.035	0.368
-321.070	-71.922	-0.145	0.055
-320.056	-26.034	-0.329	-0.196
-319.041	-200.000	-0.001	0.207
-318.026	-7.372	0.276	-0.189
-317.012	-9.245	-0.268	0.181
-315.997	-53.161	-0.171	0.080
-314.983	-124.904	0.227	0.035
-313.968	-96.056	-0.234	0.063
-312.953	-100.542	-0.147	0.037
-311.939	-125.199	0.152	0.024
-310.924	-95.972	-0.105	-0.028
-309.910	373.999	0.065	-0.135
-308.895	-155.350	-0.533	0.035
-307.880	-122.059	-0.170	0.028
-306.866	425.775	0.109	-0.237
-305.851	85.592	-0.226	0.251
-304.837	103.575	0.021	-0.024
-303.822	-83.347	-0.321	0.104
-302.807	800.000	0.074	0.252
-301.793	39.101	0.096	0.087
-300.778	-121.138	0.298	0.051
-299.764	250.749	-0.084	0.145
-298.749	501.477	0.175	0.409
-297.735	67.868	-0.102	0.105
-296.720	620.073	0.095	0.242
-295.705	188.123	0.171	-0.259
-294.691	800.000	0.015	-0.053
-293.676	101.157	-0.143	-0.168
-292.662	136.324	0.278	0.367
-291.647	800.000	-0.063	0.221
-290.632	239.563	0.122	-0.205
-289.618	-94.409	0.214	0.059
-288.603	572.236	-0.023	-0.057
-287.589	-59.225	-0.366	-0.160
-286.574	-60.587	-0.144	-0.062
-285.559	-52.123	0.191	0.090
-284.545	36.697	0.207	-0.185
-283.530	800.000	-0.030	-0.099
-282.516	92.115	-0.215	0.245
-281.501	-78.719	0.041	-0.014
-280.486	154.779	0.086	0.119
-279.472	-31.484	-0.362	-0.206
-278.457	604.101	-0.061	-0.154
-277.443	-200.000	-0.042	0.232
-276.428	-200.000	-0.012	0.183
-275.413	-2.405	-0.257	-0.182
-274.399	-200.000	0.083	-0.374
-273.384	-132.659	0.239	0.031
-272.370	455.733	-0.063	0.143
-271.355	171.837	0.130	0.189
-270.340	758.888	0.065	-0.177
-269.326	6.769	0.157	0.118
-268.311	-193.524	0.077	0.001
-267.297	-5.664	-0.296	-0.206
-266.282	-150.055	-0.174	0.014
-265.267	800.000	0.015	0.055
-264.253	-200.000	-0.021	0.189
-263.238	-197.341	0.264	-0.002
-262.224	35.249	-0.129	-0.114
-261.209	-21.773	0.094	0.058
-260.195	739.883	-0.047	0.129
-259.180	-91.805	0.266	-0.076
-258.165	-26.586	-0.171	0.101
-257.151	133.667	-0.140	0.183
-256.136	31.778	0.308	0.268
-255.122	601.817	0.137	0.345
-254.107	800.000	-0.061	0.245
-253.092	-49.469	0.165	-0.079
-252.078	124.564	0.054	0.069
-251.063	-40.326	0.145	0.076
-250.049	278.240	-0.068	-0.122
-249.034	114.642	0.115	0.142
-248.019	203.767	0.106	0.165
-247.005	386.090	-0.150	0.312
-245.990	-200.000	0.005	0.214
-244.976	346.173	0.065	-0.129
-243.961	-137.439	-0.111	0.013
-242.946	800.000	0.033	-0.133
-241.932	-18.736	-0.196	-0.123
-240.917	-65.234	-0.025	0.010
-239.903	-200.000	0.040	-0.267
-238.888	49.113	0.189	-0.180
-237.873	-43.625	-0.477	-0.243
-236.859	-42.973	-0.164	0.084
-235.844	-73.319	-0.196	0.072
-234.830	-15.138	0.207	0.134
-233.815	759.444	-0.074	0.203
-232.800	306.020	0.242	-0.455
-231.786	145.121	0.040	-0.054
-230.771	-13.725	-0.081	0.053
-229.757	-200.000	-0.038	-0.221
-228.742	433.102	0.089	0.196
-227.727	226.345	0.134	0.219
-226.713	800.000	-0.097	-0.346
-225.698	88.358	-0.164	-0.184
-224.684	327.955	0.106	0.205
-223.669	800.000	-0.054	0.201
-222.655	336.042	0.085	0.166
-221.640	-200.000	0.102	0.477
-220.625	-129.509	-0.129	0.018
-219.611	40.234	0.227	0.206
-218.596	48.269	-0.083	-0.078
-217.582	23.269	0.095	-0.079
-216.567	549.702	-0.085	0.206
-215.552	-200.000	-0.014	-0.177
-214.538	-200.000	-0.047	0.254
-213.523	-93.057	0.155	0.044
-212.509	-154.906	-0.457	-0.030
-211.494	-40.533	-0.137	0.072
-210.479	141.436	-0.060	-0.080
-209.465	-117.693	0.175	-0.032
-208.450	183.063	0.049	0.073
-207.436	-128.125	0.316	0.046
-206.421	-101.405	0.115	-0.028
-205.406	17.194	-0.066	0.053
-204.392	-14.525	-0.321	-0.209
-203.377	-56.458	0.243	0.109
-202.363	242.283	-0.156	0.263
-201.348	-62.905	-0.108	-0.045
-200.333	-18.214	0.390	0.246
-199.319	800.000	-0.032	0.132
-198.304	31.572	0.347	0.301
-197.290	-172.259	-0.204	-0.007
-196.275	180.235	0.142	-0.209
-195.260	-200.000	-0.007	0.206
-194.246	3.201	0.157	-0.115
-193.231	126.212	-0.247	-0.315
-192.217	-200.000	-0.040	0.189
-191.202	251.958	0.170	-0.293
-190.187	-101.574	-0.064	0.016
-189.173	108.341	-0.097	0.117
-188.158	-110.295	-0.290	0.061
-187.144	-71.092	0.301	0.114
-186.129	800.000	0.072	0.235
-185.114	-119.537	0.072	-0.013
-184.100	250.685	0.147	0.252
-183.085	326.343	-0.135	0.262
-182.071	-200.000	0.021	0.443
-181.056	800.000	0.090	0.275
-180.042	113.413	0.098	-0.119
-179.027	-104.924	-0.101	-0.023
-178.012	-100.175	-0.217	0.054
-176.998	428.901	-0.074	0.162
-175.983	18.148	0.073	-0.059
-174.969	358.990	0.083	-0.167
-173.954	275.106	0.151	0.270
-172.939	-126.697	-0.079	-0.012
-171.925	-109.348	0.222	0.047
-170.910	800.000	-0.060	0.173
-169.896	436.784	0.086	-0.189
-168.881	12.762	0.120	-0.093
-167.866	-77.591	-0.021	0.008
-166.852	4.723	-0.139	0.103
-165.837	-127.700	0.435	-0.063
-164.823	800.000	-0.016	-0.053
-163.808	800.000	-0.134	0.383
-162.793	32.849	-0.069	-0.060
-161.779	-102.496	0.232	0.056
-160.764	324.271	0.172	-0.332
-159.750	-119.728	0.210	-0.036
-158.735	800.000	-0.063	-0.214
-157.720	-57.672	-0.105	-0.046
-156.706	-54.047	0.388	0.178
-155.691	-143.894	-0.175	-0.017
-154.677	31.065	0.066	-0.057
-153.662	-95.025	0.215	0.058
-152.647	28.735	0.120	-0.103
-151.633	-8.659	-0.126	0.085
-150.618	-200.000	-0.027	-0.143
-149.604	-200.000	0.003	0.133
-148.589	-1.990	0.029	0.021
-147.574	49.749	0.122	0.116
-146.560	564.105	0.064	-0.156
-145.545	-67.332	0.354	0.140
-144.531	93.097	-0.136	-0.155
-143.516	800.000	-0.087	-0.282
-142.502	-149.831	0.110	-0.009
-141.487	800.000	0.030	-0.109
-140.472	-4.801	0.267	0.185
-139.458	800.000	0.070	0.244
-138.443	0.231	0.138	0.099
-137.429	-200.000	-0.014	0.143
-136.414	-26.467	0.088	0.052
-135.399	-60.496	-0.080	0.034
-134.385	-59.434	0.381	-0.165
-133.370	800.000	0.101	-0.309
-132.356	253.731	0.105	0.180
-131.341	-65.185	-0.154	0.062
-130.326	429.028	-0.171	0.372
-129.312	-197.974	0.255	-0.002
-128.297	194.378	0.063	0.096
-127.283	-111.768	-0.231	-0.047
-126.268	-39.110	0.071	0.038
-125.253	392.746	-0.096	-0.202
-124.239	-200.000	0.054	0.379
-123.224	-71.105	-0.101	0.038
-122.210	319.461	0.080	0.153
-121.195	508.684	-0.115	0.269
