DTS Sentinel unit serial number:	SN413079Multiplexer serial number:	ORYXHardware model number:	OX4-SRSoftware version number:	ORYX F/W v4.00 Oryx Data Collector v3.7.2.0data status	okinstallation	princeton_trtdifferential loss correction	single-endedforward channel	channel 4reverse channel	N/Adate	2019/09/19time	02:21:34forward acquisition time	60.00reverse acquisition time	0.00gamma	496.2192k internal	0.2340k external	0.2340temperature offset calibration	1.0027default loss term (dB/km)	0.3790temperature slope calibration	1.0000multiplexer offset coefficient	1.0000multiplexer slope coefficient	1.0000fibre end	0.00T internal ref (°C)	21.06T ext. ref 1 (°C)	0.67T ext. ref 2 (°C)	14.69length (m)	temperature (°C)	Stokes	anti-Stokes-747.200	64.048	0.281	-0.283
-746.185	316.882	0.074	0.140
-745.171	466.423	0.100	0.226
-744.156	663.011	-0.051	0.131
-743.142	86.485	-0.040	0.044
-742.127	-200.000	-0.013	0.318
-741.112	-200.000	-0.008	0.277
-740.098	84.806	-0.267	0.293
-739.083	-200.000	0.026	0.197
-738.069	-50.812	-0.388	-0.183
-737.054	-43.148	-0.167	-0.085
-736.039	110.556	-0.177	0.213
-735.025	42.196	-0.120	0.109
-734.010	1.386	0.065	-0.047
-732.996	-200.000	-0.158	-0.000
-731.981	304.264	0.105	0.195
-730.966	140.159	0.104	-0.137
-729.952	-69.166	0.260	0.100
-728.937	-9.241	-0.078	0.052
-727.923	723.261	-0.111	-0.296
-726.908	62.752	-0.043	-0.043
-725.894	-126.365	0.191	-0.029
-724.879	-154.216	-0.105	0.007
-723.864	-44.397	-0.260	-0.131
-722.850	186.074	0.101	-0.150
-721.835	-122.808	-0.290	0.047
-720.821	-123.199	0.292	0.047
-719.806	-79.301	-0.187	0.063
-718.791	-131.784	-0.392	0.051
-717.777	235.450	-0.110	-0.182
-716.762	-150.878	-0.342	-0.026
-715.748	-51.203	-0.292	0.137
-714.733	444.399	-0.156	0.343
-713.718	-200.000	-0.011	-0.125
-712.704	-66.344	0.147	0.059
-711.689	-33.422	0.072	-0.040
-710.675	258.502	-0.054	-0.093
-709.660	33.882	-0.071	-0.062
-708.645	-22.820	-0.125	0.075
-707.631	25.837	0.156	-0.130
-706.616	-8.118	0.118	-0.080
-705.602	-138.159	-0.099	0.011
-704.587	-135.287	0.091	0.011
-703.572	215.712	0.135	-0.214
-702.558	-200.000	0.009	0.206
-701.543	451.464	-0.117	-0.258
-700.529	-113.188	0.129	-0.026
-699.514	-111.557	0.096	-0.020
-698.499	-110.178	0.114	-0.024
-697.485	41.093	-0.302	0.273
-696.470	-82.961	0.222	-0.072
-695.456	533.520	0.087	-0.207
-694.441	-69.887	-0.265	-0.101
-693.426	-200.000	-0.030	-0.165
-692.412	-200.000	-0.006	-0.039
-691.397	-200.000	-0.034	-0.245
-690.383	-90.624	0.124	0.036
-689.368	-50.210	-0.299	0.141
-688.354	-70.907	0.349	0.132
-687.339	189.325	0.115	0.173
-686.324	-41.256	0.138	-0.071
-685.310	-200.000	-0.025	-0.186
-684.295	31.419	0.035	-0.030
-683.281	-178.106	-0.244	-0.006
-682.266	196.600	-0.175	-0.267
-681.251	23.768	0.445	0.366
-680.237	-200.000	0.002	-0.024
-679.222	-82.094	0.155	-0.051
-678.208	-110.640	-0.384	0.079
-677.193	-30.805	-0.053	0.030
-676.178	75.245	0.289	-0.305
-675.164	116.697	-0.057	0.070
-674.149	-88.012	-0.279	-0.084
-673.135	56.746	-0.214	-0.209
-672.120	434.286	0.056	0.121
-671.105	-171.527	0.438	0.015
-670.091	30.360	0.266	-0.227
-669.076	-99.834	-0.309	0.077
-668.062	7.175	0.247	-0.184
-667.047	-66.488	-0.266	-0.106
-666.032	5.092	0.112	0.083
-665.018	-200.000	-0.005	0.167
-664.003	-18.247	0.265	0.166
-662.989	-52.608	-0.136	0.063
-661.974	800.000	0.034	-0.147
-660.959	197.724	0.094	0.144
-659.945	445.658	-0.033	0.073
-658.930	-200.000	-0.033	-0.376
-657.916	-9.085	0.186	0.124
-656.901	9.327	0.195	-0.148
-655.886	-68.786	-0.606	-0.234
-654.872	-64.753	0.215	-0.087
-653.857	-200.000	0.029	-0.298
-652.843	-200.000	-0.036	-0.255
-651.828	-165.788	-0.324	0.014
-650.814	7.754	0.239	-0.179
-649.799	-117.009	-0.226	-0.041
-648.784	-31.570	-0.270	-0.151
-647.770	265.852	-0.055	0.096
-646.755	-151.441	0.345	-0.026
-645.741	515.165	0.084	-0.196
-644.726	-44.703	0.092	0.046
-643.711	338.770	0.025	0.048
-642.697	-200.000	0.006	0.095
-641.682	-65.766	-0.339	-0.136
-640.668	-107.224	0.209	0.046
-639.653	-200.000	0.019	-0.085
-638.638	-200.000	-0.008	-0.106
-637.624	643.249	-0.058	-0.148
-636.609	-200.000	0.056	0.265
-635.595	-185.942	0.021	-0.000
-634.580	200.916	-0.114	0.175
-633.565	-19.882	-0.192	-0.119
-632.551	40.611	-0.269	-0.242
-631.536	69.526	-0.210	-0.215
-630.522	683.717	-0.078	0.204
-629.507	3.064	-0.463	0.336
-628.492	221.061	0.239	-0.383
-627.478	-6.697	-0.267	0.181
-626.463	-200.000	0.201	0.001
-625.449	-133.279	0.082	0.010
-624.434	-185.919	0.250	-0.004
-623.419	84.943	-0.178	0.194
-622.405	185.695	0.083	0.123
-621.390	-115.872	0.246	0.046
-620.376	59.457	0.132	0.130
-619.361	-6.693	-0.177	-0.120
-618.346	17.797	0.176	0.139
-617.332	-172.314	-0.200	0.006
-616.317	-15.999	0.199	0.126
-615.303	-200.000	0.001	-0.115
-614.288	-200.000	0.007	-0.108
-613.273	-100.299	-0.239	-0.059
-612.259	-127.863	0.166	-0.024
-611.244	-121.156	0.161	0.027
-610.230	-38.718	-0.314	-0.165
-609.215	79.425	-0.093	-0.099
-608.201	93.900	0.037	0.041
-607.186	-14.592	0.138	-0.088
-606.171	-115.039	-0.186	-0.035
-605.157	-200.000	0.000	0.008
-604.142	318.306	-0.028	0.054
-603.128	-12.541	0.194	-0.126
-602.113	256.757	0.100	0.171
-601.098	134.796	0.198	0.256
-600.084	41.004	0.055	-0.049
-599.069	-4.934	-0.108	0.074
-598.055	800.000	-0.082	-0.327
-597.040	53.221	0.338	-0.323
-596.025	-59.652	-0.106	0.046
-595.011	-200.000	0.005	-0.194
-593.996	-126.709	-0.201	-0.030
-592.982	547.017	0.103	0.246
-591.967	110.715	-0.041	0.049
-590.952	356.714	0.154	-0.305
-589.938	322.324	-0.101	-0.192
-588.923	-200.000	0.020	-0.284
-587.909	-200.000	0.015	-0.188
-586.894	627.195	0.037	-0.093
-585.879	-123.390	-0.137	0.022
-584.865	-33.390	-0.125	0.069
-583.850	4.254	-0.172	-0.126
-582.836	-141.938	-0.520	0.052
-581.821	-135.657	-0.110	-0.013
-580.806	-83.466	0.178	-0.057
-579.792	-79.845	0.149	0.050
-578.777	-200.000	0.010	0.061
-577.763	-200.000	-0.061	0.269
-576.748	14.633	-0.091	0.071
-575.733	-200.000	-0.026	-0.167
-574.719	-200.000	0.008	0.069
-573.704	-200.000	-0.003	0.101
-572.690	-200.000	-0.015	-0.179
-571.675	-130.200	0.342	-0.046
-570.661	190.530	-0.089	-0.134
-569.646	-129.800	0.182	-0.025
-568.631	-200.000	0.024	-0.120
-567.617	399.569	0.120	-0.251
-566.602	175.094	0.175	-0.253
-565.588	-62.724	0.309	-0.127
-564.573	-200.000	0.006	-0.219
-563.558	-132.814	-0.053	0.007
-562.544	-77.590	0.220	-0.076
-561.529	82.218	0.295	-0.318
-560.515	324.457	-0.173	-0.328
-559.500	144.339	0.012	-0.016
-558.485	-132.449	0.281	0.036
-557.471	176.343	0.090	-0.130
-556.456	181.348	0.081	-0.119
-555.442	-200.000	-0.011	0.179
-554.427	40.565	0.169	0.151
-553.412	43.748	-0.314	0.286
-552.398	35.266	-0.140	0.122
-551.383	800.000	-0.179	-0.501
-550.369	-200.000	0.041	-0.357
-549.354	-10.520	0.244	0.161
-548.339	572.849	0.079	-0.192
-547.325	48.114	-0.111	0.103
-546.310	8.585	0.143	-0.107
-545.296	399.242	-0.115	-0.240
-544.281	114.871	-0.207	-0.251
-543.266	273.841	-0.036	0.063
-542.252	800.000	-0.059	0.177
-541.237	175.741	0.153	-0.220
-540.223	352.414	-0.047	0.092
-539.208	800.000	-0.045	-0.146
-538.193	-57.636	0.115	-0.050
-537.179	-93.814	0.085	-0.023
-536.164	-152.871	-0.152	-0.011
-535.150	-11.235	-0.133	0.087
-534.135	3.230	-0.135	0.098
-533.121	90.766	0.072	-0.080
-532.106	-200.000	-0.015	0.296
-531.091	-24.189	0.529	0.314
-530.077	-78.361	-0.227	0.077
-529.062	744.677	-0.116	-0.309
-528.048	800.000	-0.116	0.340
-527.033	-111.656	-0.156	0.031
-526.018	-184.209	0.244	-0.004
-525.004	189.165	0.125	-0.186
-523.989	-200.000	0.003	-0.241
-522.975	-119.406	-0.073	0.013
-521.960	43.170	-0.455	0.413
-520.945	26.666	0.085	-0.070
-519.931	-154.786	0.200	0.013
-518.916	375.144	-0.182	-0.369
-517.902	222.415	0.157	-0.251
-516.887	-200.000	0.072	-0.478
-515.872	-143.907	0.103	0.010
-514.858	-126.051	0.310	0.046
-513.843	109.450	0.133	0.158
-512.829	800.000	-0.041	-0.137
-511.814	-108.786	0.141	0.030
-510.799	-112.381	-0.150	0.030
-509.785	169.578	0.107	0.152
-508.770	-200.000	0.020	0.134
-507.756	-125.143	0.250	-0.038
-506.741	59.705	0.088	0.086
-505.726	-76.690	0.275	-0.096
-504.712	349.340	0.021	-0.042
-503.697	-101.621	-0.480	-0.116
-502.683	390.893	0.107	-0.221
-501.668	290.168	-0.054	-0.098
-500.653	-89.958	0.268	-0.078
-499.639	-70.899	0.310	0.116
-498.624	-81.832	-0.203	0.066
-497.610	800.000	-0.041	-0.131
-496.595	-108.223	-0.514	0.110
-495.581	41.298	-0.181	0.162
-494.566	-132.295	-0.150	-0.019
-493.551	12.272	-0.103	-0.079
-492.537	79.089	0.141	0.150
-491.522	-99.285	0.251	0.063
-490.508	-23.306	0.052	-0.031
-489.493	-163.814	-0.198	-0.009
-488.478	-148.795	-0.241	-0.019
-487.464	-200.000	-0.011	-0.070
-486.449	318.912	-0.183	0.344
-485.435	-17.174	0.150	-0.094
-484.420	103.446	-0.126	-0.147
-483.405	-90.850	0.159	0.046
-482.391	-166.563	-0.172	0.007
-481.376	-39.883	0.075	0.039
-480.362	800.000	0.104	-0.305
-479.347	-200.000	-0.012	-0.098
-478.332	-105.420	-0.171	0.039
-477.318	-173.256	-0.235	0.007
-476.303	-200.000	-0.016	-0.150
-475.289	-167.854	0.114	-0.004
-474.274	88.336	0.215	-0.236
-473.259	190.371	-0.093	-0.139
-472.245	-123.132	-0.194	-0.031
-471.230	-46.494	-0.245	0.119
-470.216	664.239	0.141	0.361
-469.201	-99.538	0.394	0.098
-468.186	-200.000	0.061	-0.354
-467.172	-200.000	-0.007	-0.246
-466.157	-174.231	0.324	0.009
-465.143	800.000	0.065	0.190
-464.128	-200.000	-0.052	0.372
-463.113	147.115	0.130	0.174
-462.099	-200.000	0.018	-0.207
-461.084	-200.000	-0.047	0.467
-460.070	32.290	-0.246	0.211
-459.055	-111.280	0.151	0.031
-458.040	-28.809	-0.099	-0.056
-457.026	800.000	0.128	0.406
-456.011	120.475	-0.246	0.303
-454.997	800.000	0.070	-0.202
-453.982	-200.000	-0.010	0.086
-452.968	50.033	-0.141	-0.132
-451.953	449.673	0.067	0.147
-450.938	-200.000	-0.008	-0.116
-449.924	-154.981	-0.318	0.021
-448.909	-71.699	-0.143	0.053
-447.895	-200.000	0.025	-0.152
-446.880	34.406	-0.144	0.125
-445.865	61.661	0.030	0.030
-444.851	-114.364	-0.150	0.029
-443.836	169.209	-0.046	0.066
-442.822	170.163	-0.181	0.257
-441.807	-27.445	0.063	0.036
-440.792	-200.000	0.028	0.205
-439.778	171.958	0.146	0.208
-438.763	208.345	-0.124	-0.192
-437.749	33.988	-0.268	0.232
-436.734	-200.000	0.035	0.337
-435.719	473.930	0.121	0.269
-434.705	383.772	0.169	-0.345
-433.690	46.306	-0.211	-0.193
-432.676	-200.000	0.007	-0.135
-431.661	637.565	0.067	0.169
-430.646	211.364	-0.157	0.244
-429.632	-54.590	0.114	-0.051
-428.617	-159.997	0.014	0.001
-427.603	118.530	-0.241	-0.295
-426.588	-200.000	0.047	0.248
-425.573	120.703	-0.144	-0.178
-424.559	-34.064	0.144	0.078
-423.544	-200.000	0.008	-0.054
-422.530	-49.166	-0.070	-0.033
-421.515	-80.841	-0.128	0.042
-420.500	63.813	-0.155	-0.154
-419.486	227.703	-0.161	0.259
-418.471	98.390	-0.158	0.181
-417.457	-200.000	0.122	-0.000
-416.442	114.885	0.123	-0.148
-415.428	44.582	-0.150	-0.137
-414.413	-97.918	0.132	-0.034
-413.398	-15.231	0.087	-0.055
-412.384	-3.583	-0.255	0.175
-411.369	800.000	-0.013	0.043
-410.355	-158.725	-0.243	-0.014
-409.340	800.000	-0.083	0.229
-408.325	-55.868	-0.077	0.034
-407.311	800.000	-0.152	-0.433
-406.296	800.000	-0.063	0.184
-405.282	-137.511	0.467	-0.052
-404.267	-120.852	-0.114	0.019
-403.252	-200.000	0.076	-0.441
-402.238	-64.980	0.154	0.062
-401.223	-119.437	-0.259	-0.044
-400.209	-5.466	-0.073	-0.050
-399.194	72.869	0.154	0.159
-398.179	-48.662	0.215	0.102
-397.165	-84.762	0.202	0.063
-396.150	-129.260	-0.380	-0.052
-395.136	161.747	0.138	0.191
-394.121	108.569	0.198	0.233
-393.106	800.000	0.068	0.214
-392.092	800.000	-0.121	0.378
-391.077	-65.627	0.221	0.088
-390.063	-85.644	-0.250	-0.077
-389.048	23.875	0.252	-0.206
-388.033	-77.267	-0.271	-0.093
-387.019	-200.000	-0.009	0.104
-386.004	469.864	-0.148	0.328
-384.990	-141.014	-0.372	-0.038
-383.975	-90.154	-0.369	0.106
-382.960	-22.315	0.073	0.044
-381.946	3.593	0.286	0.206
-380.931	-39.010	-0.072	-0.037
-379.917	-46.011	0.155	-0.076
-378.902	355.114	0.089	0.176
-377.888	-131.671	-0.180	-0.023
-376.873	-40.636	-0.253	0.130
-375.858	-200.000	-0.041	0.229
-374.844	-200.000	-0.002	0.349
-373.829	-46.555	0.463	0.224
-372.815	490.200	-0.089	0.200
-371.800	800.000	-0.043	0.119
-370.785	-130.871	0.280	0.037
-369.771	105.586	-0.213	-0.249
-368.756	-30.061	0.398	-0.224
-367.742	-200.000	-0.065	-0.374
-366.727	-200.000	0.036	-0.158
-365.712	-200.000	0.037	0.221
-364.698	-200.000	0.000	-0.044
-363.683	301.861	0.097	0.176
-362.669	-128.712	-0.074	0.010
-361.654	-200.000	0.038	-0.404
-360.639	-139.861	0.312	0.033
-359.625	542.576	-0.069	0.162
-358.610	96.436	0.146	-0.165
-357.596	-94.592	-0.249	-0.067
-356.581	-200.000	0.005	0.492
-355.566	-2.146	-0.224	-0.155
-354.552	297.870	0.209	-0.379
-353.537	230.454	0.271	-0.438
-352.523	7.761	0.193	-0.143
-351.508	-22.585	-0.268	-0.160
-350.493	544.418	-0.194	0.457
-349.479	-29.905	-0.162	0.091
-348.464	-6.964	0.156	0.105
-347.450	0.498	-0.233	-0.164
-346.435	444.418	0.066	-0.144
-345.420	-73.866	-0.183	-0.066
-344.406	-105.400	0.237	0.053
-343.391	251.487	0.217	-0.365
-342.377	-153.578	-0.202	0.014
-341.362	-200.000	-0.022	-0.147
-340.348	-65.817	0.354	0.140
-339.333	150.636	0.075	0.100
-338.318	-43.996	0.013	0.007
-337.304	800.000	-0.045	0.190
-336.289	-44.566	0.416	0.205
-335.275	-166.171	-0.149	-0.006
-334.260	-155.467	0.223	0.014
-333.245	-186.245	0.113	0.002
-332.231	247.589	0.033	0.055
-331.216	395.750	0.075	0.155
-330.202	-115.037	0.096	0.018
-329.187	-78.732	0.211	-0.071
-328.172	31.987	-0.428	-0.363
-327.158	86.207	0.121	0.131
-326.143	-117.625	-0.340	0.060
-325.129	-54.812	0.138	0.061
-324.114	85.480	0.077	-0.083
-323.099	-127.651	0.202	-0.029
-322.085	25.028	0.149	-0.122
-321.070	560.348	-0.143	-0.342
-320.056	177.441	-0.237	0.340
-319.041	14.375	-0.229	-0.176
-318.026	-200.000	-0.056	-0.417
-317.012	191.480	0.212	0.315
-315.997	-122.192	-0.228	-0.037
-314.983	-4.222	-0.075	-0.051
-313.968	-20.602	-0.330	-0.200
-312.953	86.410	-0.098	-0.107
-311.939	60.920	-0.076	0.074
-310.924	184.032	0.228	0.332
-309.910	-41.752	-0.108	-0.055
-308.895	139.352	0.083	0.107
-307.880	-108.740	0.359	0.076
-306.866	147.953	0.140	0.186
-305.851	-200.000	-0.030	-0.242
-304.837	-200.000	-0.014	0.182
-303.822	-200.000	0.008	0.332
-302.807	33.641	0.157	0.134
-301.793	268.946	-0.143	0.247
-300.778	165.205	-0.032	-0.045
-299.764	-28.336	0.318	-0.181
-298.749	-200.000	-0.026	-0.204
-297.735	107.636	-0.253	-0.296
-296.720	-143.137	0.307	0.029
-295.705	485.289	0.011	0.024
-294.691	-53.595	-0.162	-0.073
-293.676	800.000	0.105	0.433
-292.662	21.299	-0.164	-0.131
-291.647	-200.000	0.030	-0.222
-290.632	172.520	0.171	-0.242
-289.618	-119.710	0.083	0.014
-288.603	-180.465	0.014	0.000
-287.589	407.228	-0.246	0.511
-286.574	-131.117	0.247	0.032
-285.559	-89.793	-0.296	0.085
-284.545	800.000	0.060	0.181
-283.530	-87.649	0.130	-0.039
-282.516	363.624	0.123	-0.244
-281.501	800.000	-0.043	0.136
-280.486	59.494	0.261	-0.253
-279.472	43.528	-0.093	0.083
-278.457	-200.000	0.010	-0.070
-277.443	-30.884	-0.222	-0.123
-276.428	273.113	0.065	-0.113
-275.413	254.163	-0.166	0.279
-274.399	-30.175	0.104	-0.058
-273.384	198.148	-0.107	0.161
-272.370	-200.000	0.281	-0.000
-271.355	224.908	0.059	0.094
-270.340	223.436	-0.113	0.179
-269.326	-13.668	-0.151	0.096
-268.311	-57.466	-0.328	-0.142
-267.297	-200.000	0.000	0.062
-266.282	-200.000	0.023	-0.123
-265.267	-179.471	0.185	-0.004
-264.253	719.983	-0.082	-0.215
-263.238	47.822	-0.283	-0.260
-262.224	16.846	0.196	0.153
-261.209	-110.529	0.252	-0.051
-260.195	-84.132	0.187	0.058
-259.180	-24.722	0.203	0.119
-258.165	-200.000	0.014	0.366
-257.151	800.000	0.039	0.107
-256.136	-136.611	-0.080	-0.009
-255.122	-131.924	-0.222	-0.028
-254.107	-126.896	0.358	0.052
-253.092	382.459	0.118	-0.239
-252.078	-133.832	0.092	-0.011
-251.063	34.084	0.068	0.058
-250.049	-51.713	-0.154	-0.070
-249.034	-121.488	0.206	0.034
-248.019	572.116	0.128	-0.306
-247.005	800.000	0.109	0.432
-245.990	-125.308	0.268	0.040
-244.976	800.000	-0.067	0.196
-243.961	-200.000	-0.007	-0.106
-242.946	84.747	0.103	-0.111
-241.932	-107.082	0.191	-0.041
-240.917	275.283	-0.164	0.285
-239.903	485.808	0.032	0.072
-238.888	-64.463	-0.215	0.086
-237.873	-200.000	-0.008	0.072
-236.859	-200.000	0.028	0.126
-235.844	14.183	0.110	0.084
-234.830	800.000	-0.044	-0.127
-233.815	-70.157	0.258	-0.096
-232.800	-200.000	0.005	-0.303
-231.786	-145.932	0.146	0.013
-230.771	125.044	-0.081	-0.101
-229.757	223.409	-0.208	-0.330
-228.742	350.819	0.059	0.115
-227.727	140.671	-0.087	-0.113
-226.713	87.065	0.163	0.177
-225.698	-200.000	-0.011	0.197
-224.684	123.693	0.097	0.119
-223.669	800.000	-0.100	0.420
-222.655	14.731	-0.242	0.186
-221.640	800.000	0.057	-0.179
-220.625	-200.000	0.015	-0.324
-219.611	-36.141	0.171	0.091
-218.596	42.194	0.183	0.163
-217.582	37.030	0.277	-0.241
-216.567	-200.000	0.025	-0.193
-215.552	-172.962	0.147	-0.004
-214.538	220.873	0.162	0.256
-213.523	-132.078	-0.172	-0.022
-212.509	92.877	-0.243	0.269
-211.494	-11.114	0.027	0.017
-210.479	-200.000	0.026	-0.172
-209.465	283.362	0.085	-0.151
-208.450	-143.236	-0.196	-0.019
-207.436	-98.319	-0.099	-0.025
-206.421	-200.000	0.005	0.054
-205.406	-200.000	-0.027	0.199
-204.392	81.030	-0.131	0.139
-203.377	-200.000	-0.034	0.198
-202.363	36.791	0.168	-0.145
-201.348	-21.124	-0.218	0.131
-200.333	142.221	-0.099	0.129
-199.319	-135.708	0.209	-0.024
-198.304	478.573	0.106	0.236
-197.290	-118.658	-0.118	0.020
-196.275	-200.000	-0.031	-0.326
-195.260	60.211	0.068	-0.066
-194.246	19.303	-0.187	-0.147
-193.231	279.909	-0.182	0.320
-192.217	-35.714	-0.116	-0.062
-191.202	142.156	-0.115	-0.149
-190.187	173.481	-0.073	-0.104
-189.173	-125.171	0.249	-0.037
-188.158	636.476	-0.123	-0.307
-187.144	-77.059	0.120	-0.041
-186.129	38.871	-0.144	-0.126
-185.114	9.073	-0.432	-0.320
-184.100	30.665	0.119	-0.100
-183.085	-53.886	-0.400	-0.179
-182.071	35.978	-0.179	-0.155
-181.056	200.420	-0.130	0.196
-180.042	592.811	-0.024	-0.059
-179.027	-135.608	0.207	0.024
-178.012	-97.381	-0.012	-0.003
-176.998	-200.000	-0.014	0.064
-175.983	568.762	-0.074	0.177
-174.969	65.489	-0.208	0.207
-173.954	-200.000	-0.006	0.192
-172.939	800.000	0.066	0.225
-171.925	800.000	-0.073	-0.205
-170.910	143.296	0.187	0.244
-169.896	-200.000	0.022	-0.166
-168.881	-114.660	-0.039	-0.007
-167.866	-88.263	0.226	0.066
-166.852	78.074	-0.164	-0.172
-165.837	-65.814	0.052	-0.020
-164.823	-193.520	0.211	-0.002
-163.808	-41.682	-0.059	-0.030
-162.793	800.000	0.057	0.159
-161.779	339.675	-0.129	0.247
-160.764	-160.927	0.356	0.018
-159.750	-29.732	-0.094	-0.052
-158.735	77.558	-0.222	-0.231
-157.720	800.000	0.055	0.229
-156.706	-200.000	-0.028	-0.158
-155.691	281.074	0.057	0.101
-154.677	-200.000	-0.038	0.269
-153.662	-79.109	-0.296	-0.099
-152.647	377.015	0.096	0.191
-151.633	233.762	0.197	-0.318
-150.618	-136.413	-0.490	0.056
-149.604	800.000	0.025	0.101
-148.589	800.000	0.088	0.260
-147.574	-65.437	0.515	-0.203
-146.560	58.568	-0.090	-0.087
-145.545	602.322	-0.228	0.555
-144.531	-187.986	0.493	-0.006
-143.516	-174.485	-0.280	0.008
-142.502	98.747	0.238	-0.268
-141.487	-53.199	-0.277	-0.124
-140.472	-95.729	0.172	-0.045
-139.458	1.117	-0.264	0.185
-138.443	243.767	-0.167	0.274
-137.429	357.820	-0.082	-0.161
-136.414	-166.308	0.392	-0.016
-135.399	800.000	0.051	0.141
-134.385	-65.849	0.154	0.060
-133.370	-200.000	0.010	0.071
-132.356	-5.844	0.238	-0.160
-131.341	72.720	-0.087	0.089
-130.326	-95.017	0.174	-0.046
-129.312	-15.512	0.333	0.208
-128.297	279.469	-0.140	0.245
-127.283	-62.117	0.138	-0.056
-126.268	427.628	0.080	0.169
-125.253	-200.000	0.059	0.334
-124.239	-165.283	0.179	0.008
-123.224	74.486	-0.215	0.221
-122.210	330.321	-0.097	0.183
-121.195	-148.803	-0.204	0.016
