DTS Sentinel unit serial number:	SN413079Multiplexer serial number:	ORYXHardware model number:	OX4-SRSoftware version number:	ORYX F/W v4.00 Oryx Data Collector v3.7.2.0data status	okinstallation	princeton_trtdifferential loss correction	single-endedforward channel	channel 4reverse channel	N/Adate	2019/09/15time	06:09:34forward acquisition time	60.00reverse acquisition time	0.00gamma	496.2192k internal	0.2311k external	0.2311temperature offset calibration	1.0033default loss term (dB/km)	0.3790temperature slope calibration	1.0000multiplexer offset coefficient	1.0000multiplexer slope coefficient	1.0000fibre end	0.00T internal ref (°C)	30.56T ext. ref 1 (°C)	4.82T ext. ref 2 (°C)	25.08length (m)	temperature (°C)	Stokes	anti-Stokes-747.200	-163.719	0.136	0.006
-746.185	80.794	-0.146	-0.160
-745.171	311.689	0.084	0.160
-744.156	20.882	-0.142	0.117
-743.142	-79.390	-0.214	0.073
-742.127	206.872	-0.169	0.267
-741.112	-200.000	0.005	0.061
-740.098	-200.000	0.047	0.304
-739.083	204.968	-0.260	0.409
-738.069	24.696	-0.018	-0.015
-737.054	512.841	0.035	0.082
-736.039	7.344	0.230	0.174
-735.025	464.123	0.140	0.318
-734.010	-90.652	-0.406	-0.119
-732.996	-73.888	-0.061	-0.022
-731.981	-126.006	-0.392	0.060
-730.966	172.449	-0.094	0.137
-729.952	-83.491	-0.334	0.108
-728.937	-200.000	-0.006	0.032
-727.923	52.635	-0.381	-0.369
-726.908	800.000	-0.077	0.331
-725.894	28.298	-0.136	0.116
-724.879	-99.571	-0.157	-0.040
-723.864	800.000	-0.113	0.373
-722.850	529.177	-0.057	-0.137
-721.835	64.867	0.252	0.258
-720.821	-200.000	-0.039	-0.374
-719.806	124.380	-0.111	0.142
-718.791	-153.591	0.052	0.004
-717.777	800.000	0.065	-0.268
-716.762	-83.302	-0.200	-0.065
-715.748	14.382	0.113	-0.090
-714.733	126.558	0.085	0.109
-713.718	146.194	0.038	-0.051
-712.704	-58.984	0.247	0.108
-711.689	194.193	-0.060	-0.092
-710.675	-194.546	-0.115	-0.001
-709.660	-180.117	-0.178	0.004
-708.645	-154.111	0.111	-0.008
-707.631	-55.874	0.074	-0.034
-706.616	2.373	0.075	-0.055
-705.602	54.180	0.111	0.108
-704.587	-200.000	0.002	-0.096
-703.572	-139.246	-0.219	-0.024
-702.558	-155.459	-0.104	0.007
-701.543	730.150	0.075	-0.204
-700.529	-2.228	0.145	0.103
-699.514	-200.000	0.035	-0.192
-698.499	130.272	-0.142	0.184
-697.485	29.312	0.111	-0.095
-696.470	800.000	0.090	-0.303
-695.456	-64.277	0.134	-0.055
-694.441	44.236	0.126	0.117
-693.426	-27.883	0.212	-0.125
-692.412	-200.000	-0.029	-0.149
-691.397	294.958	-0.118	-0.219
-690.383	-5.933	-0.195	-0.135
-689.368	800.000	0.012	-0.041
-688.354	52.739	0.108	-0.105
-687.339	-148.184	-0.056	0.005
-686.324	40.346	-0.196	-0.179
-685.310	-82.723	-0.154	0.051
-684.295	64.328	-0.181	0.185
-683.281	-162.446	0.292	0.015
-682.266	159.098	-0.114	0.160
-681.251	-200.000	0.055	0.497
-680.237	18.714	-0.090	-0.073
-679.222	161.021	0.259	0.366
-678.208	-70.378	-0.257	-0.099
-677.193	800.000	0.083	-0.294
-676.178	-200.000	0.007	0.095
-675.164	-200.000	-0.028	-0.358
-674.149	-95.283	0.245	0.067
-673.135	736.326	0.033	-0.089
-672.120	96.107	0.133	-0.154
-671.105	153.636	0.271	-0.375
-670.091	19.255	-0.218	-0.177
-669.076	-45.752	-0.215	0.108
-668.062	681.843	0.101	-0.267
-667.047	24.597	-0.151	-0.126
-666.032	440.917	0.037	0.083
-665.018	-200.000	-0.018	0.100
-664.003	-110.391	0.024	0.005
-662.989	-44.655	0.156	-0.079
-661.974	-37.738	-0.190	-0.102
-660.959	-149.657	0.182	0.014
-659.945	-200.000	-0.003	0.067
-658.930	-148.513	-0.211	0.017
-657.916	-200.000	0.030	-0.321
-656.901	97.300	0.105	-0.122
-655.886	98.857	-0.033	-0.039
-654.872	-79.556	-0.200	-0.068
-653.857	-94.219	0.321	0.089
-652.843	162.710	-0.055	0.078
-651.828	-200.000	-0.018	-0.128
-650.814	-200.000	0.020	-0.158
-649.799	-57.327	-0.420	0.187
-648.784	10.104	-0.222	0.171
-647.770	-62.429	0.378	0.159
-646.755	6.758	0.247	-0.186
-645.741	58.503	-0.218	-0.216
-644.726	209.413	0.087	-0.137
-643.711	-200.000	-0.087	-0.393
-642.697	102.062	0.295	-0.348
-641.682	-77.273	-0.167	-0.059
-640.668	-146.737	-0.035	0.003
-639.653	800.000	-0.041	-0.169
-638.638	239.126	-0.230	0.386
-637.624	-31.961	0.246	0.139
-636.609	-75.698	-0.268	-0.096
-635.595	-20.429	0.277	0.172
-634.580	-200.000	0.004	-0.339
-633.565	-200.000	-0.004	0.051
-632.551	-200.000	0.015	-0.245
-631.536	-76.299	0.416	-0.148
-630.522	698.858	0.028	0.074
-629.507	-61.731	-0.209	0.089
-628.492	-156.608	0.263	-0.016
-627.478	-163.219	0.305	0.015
-626.463	-200.000	-0.016	-0.373
-625.449	9.238	-0.131	0.100
-624.434	352.697	0.209	-0.418
-623.419	-129.105	0.175	0.025
-622.405	-200.000	-0.032	-0.179
-621.390	-99.003	0.158	-0.041
-620.376	-34.130	-0.247	-0.137
-619.361	156.784	0.157	0.219
-618.346	-107.816	-0.078	0.017
-617.332	-125.592	-0.096	-0.015
-616.317	42.066	-0.044	-0.040
-615.303	800.000	-0.071	-0.266
-614.288	71.989	0.120	-0.126
-613.273	-200.000	-0.029	0.205
-612.259	-200.000	0.013	0.246
-611.244	800.000	-0.082	0.248
-610.230	-72.578	-0.187	-0.070
-609.215	-138.868	0.051	0.006
-608.201	39.433	0.313	-0.283
-607.186	800.000	0.042	0.158
-606.171	-71.065	0.122	0.046
-605.157	-200.000	0.002	-0.149
-604.142	-200.000	0.065	-0.298
-603.128	75.741	-0.228	-0.244
-602.113	-30.609	-0.014	-0.008
-601.098	-149.341	0.161	-0.013
-600.084	162.531	0.127	0.180
-599.069	-171.395	-0.168	-0.006
-598.055	-3.866	-0.333	0.233
-597.040	-50.372	-0.264	-0.126
-596.025	-39.486	-0.069	-0.037
-595.011	557.460	-0.037	0.091
-593.996	150.992	0.061	0.083
-592.982	315.802	-0.038	-0.072
-591.967	-200.000	0.002	0.286
-590.952	313.210	0.051	0.096
-589.938	-200.000	-0.014	0.192
-588.923	-48.776	-0.516	-0.250
-587.909	-84.392	-0.220	-0.070
-586.894	27.697	0.297	-0.252
-585.879	-200.000	0.010	0.119
-584.865	690.547	-0.044	-0.117
-583.850	-138.922	0.128	-0.014
-582.836	-200.000	0.010	0.063
-581.821	321.036	0.067	-0.128
-580.806	524.361	-0.119	0.281
-579.792	262.988	-0.174	0.305
-578.777	-200.000	-0.052	-0.359
-577.763	-93.438	-0.377	-0.105
-576.748	-48.191	0.213	-0.104
-575.733	-15.984	-0.362	-0.232
-574.719	-42.395	0.184	-0.095
-573.704	-155.017	-0.269	-0.018
-572.690	-93.408	-0.308	0.086
-571.675	-88.268	-0.251	0.076
-570.661	-135.708	-0.202	0.024
-569.646	177.831	-0.111	0.163
-568.631	-78.768	0.166	0.057
-567.617	87.117	-0.096	0.107
-566.602	-132.551	-0.269	0.035
-565.588	-29.676	0.185	0.106
-564.573	170.277	-0.134	-0.193
-563.558	-200.000	0.018	0.097
-562.544	-171.669	-0.396	0.013
-561.529	117.106	-0.122	-0.151
-560.515	-15.244	0.182	-0.117
-559.500	760.354	-0.110	0.300
-558.485	63.675	0.058	-0.059
-557.471	-85.964	-0.204	0.064
-556.456	800.000	-0.075	-0.322
-555.442	55.977	0.182	0.178
-554.427	247.917	-0.146	-0.248
-553.412	1.858	-0.141	-0.102
-552.398	-25.767	-0.169	0.100
-551.383	239.066	0.099	-0.165
-550.369	-122.335	0.198	-0.032
-549.354	-79.788	0.016	0.005
-548.339	-26.513	0.161	0.095
-547.325	-66.916	0.233	-0.093
-546.310	191.548	0.151	0.228
-545.296	60.257	-0.162	0.161
-544.281	9.536	0.245	-0.187
-543.266	-120.562	0.180	0.031
-542.252	118.047	-0.126	0.157
-541.237	395.738	0.036	-0.076
-540.223	-124.824	-0.290	-0.045
-539.208	-45.760	0.217	0.108
-538.193	-159.694	0.257	-0.014
-537.179	-64.063	-0.305	-0.125
-536.164	-121.360	-0.109	0.018
-535.150	359.450	0.090	0.182
-534.135	-136.899	-0.241	0.028
-533.121	-6.683	0.231	0.158
-532.106	381.924	0.028	0.057
-531.091	98.043	-0.181	0.210
-530.077	-15.872	-0.135	-0.087
-529.062	103.051	0.224	-0.264
-528.048	-30.922	-0.182	0.103
-527.033	-87.504	-0.377	0.115
-526.018	-98.529	-0.142	0.036
-525.004	281.156	-0.157	0.282
-523.989	539.528	-0.119	-0.286
-522.975	30.203	0.368	-0.316
-521.960	656.009	0.045	-0.117
-520.945	-14.848	0.046	0.030
-519.931	20.748	-0.009	-0.007
-518.916	42.183	-0.082	-0.075
-517.902	20.993	0.105	0.086
-516.887	-98.777	-0.112	-0.029
-515.872	-200.000	-0.027	-0.146
-514.858	800.000	0.044	-0.135
-513.843	-200.000	0.002	-0.017
-512.829	-200.000	-0.030	0.182
-511.814	48.805	0.250	0.236
-510.799	-78.087	-0.288	-0.100
-509.785	-185.107	0.167	0.003
-508.770	60.346	0.093	-0.092
-507.756	-200.000	-0.041	0.242
-506.741	-107.902	0.304	-0.066
-505.726	10.323	0.175	-0.134
-504.712	70.335	-0.038	0.039
-503.697	-171.319	-0.340	-0.011
-502.683	-200.000	-0.007	-0.111
-501.668	-67.794	-0.129	-0.051
-500.653	-173.197	-0.122	-0.004
-499.639	-200.000	0.076	0.396
-498.624	800.000	-0.076	0.289
-497.610	246.780	0.031	0.052
-496.595	-16.723	-0.170	0.108
-495.581	714.251	0.007	0.018
-494.566	-180.330	0.097	0.002
-493.551	-114.583	-0.120	0.023
-492.537	108.222	0.247	-0.296
-491.522	-120.380	-0.135	-0.023
-490.508	800.000	-0.053	0.192
-489.493	-113.145	0.402	-0.080
-488.478	642.065	0.028	-0.073
-487.464	-82.153	-0.264	0.087
-486.449	-99.934	-0.057	-0.014
-485.435	-41.793	0.319	0.165
-484.420	70.518	-0.076	0.079
-483.405	108.259	-0.126	0.151
-482.391	-52.690	-0.392	0.182
-481.376	-87.027	0.472	0.144
-480.362	82.337	-0.183	0.199
-479.347	-12.955	0.091	0.060
-478.332	115.571	-0.262	0.322
-477.318	284.851	0.105	-0.189
-476.303	450.619	-0.050	-0.112
-475.289	495.878	0.143	0.330
-474.274	-200.000	0.008	-0.243
-473.259	272.988	-0.159	0.283
-472.245	20.444	-0.051	0.042
-471.230	160.021	0.082	0.115
-470.216	-183.016	0.425	-0.008
-469.201	40.528	-0.158	0.143
-468.186	-116.518	-0.546	0.101
-467.172	55.537	0.058	0.056
-466.157	-200.000	-0.000	0.462
-465.143	-200.000	-0.002	0.314
-464.128	58.537	-0.199	-0.196
-463.113	125.497	0.181	-0.230
-462.099	-200.000	-0.019	-0.193
-461.084	-200.000	0.028	-0.155
-460.070	-121.002	-0.132	0.022
-459.055	-88.949	-0.227	0.068
-458.040	-200.000	-0.008	0.143
-457.026	355.916	-0.058	-0.116
-456.011	172.183	0.267	0.385
-454.997	128.924	0.233	0.298
-453.982	132.020	0.090	0.116
-452.968	-54.580	-0.089	-0.040
-451.953	-200.000	0.006	0.112
-450.938	36.349	0.066	-0.058
-449.924	800.000	-0.038	0.159
-448.909	-184.113	0.153	-0.003
-447.895	215.016	-0.112	-0.178
-446.880	-92.150	0.119	0.034
-445.865	-72.261	-0.103	-0.038
-444.851	120.209	0.149	0.185
-443.836	99.100	0.052	-0.061
-442.822	-200.000	-0.047	-0.278
-441.807	-40.579	0.317	-0.165
-440.792	-99.865	-0.439	-0.110
-439.778	482.448	0.202	0.460
-438.763	-150.232	0.432	-0.034
-437.749	800.000	-0.063	-0.183
-436.734	12.771	0.359	-0.278
-435.719	-200.000	0.009	-0.052
-434.705	-128.591	0.122	0.017
-433.690	-200.000	-0.039	0.214
-432.676	290.322	0.086	0.156
-431.661	15.714	0.053	0.042
-430.646	122.853	0.183	0.229
-429.632	-61.257	-0.245	-0.103
-428.617	-90.924	0.270	-0.078
-427.603	104.832	0.167	0.197
-426.588	205.279	-0.052	0.081
-425.573	-21.895	0.409	0.249
-424.559	-110.526	-0.116	0.024
-423.544	160.611	-0.159	-0.223
-422.530	-200.000	0.049	-0.357
-421.515	800.000	0.014	-0.045
-420.500	-114.023	0.076	0.015
-419.486	137.050	0.123	-0.161
-418.471	-52.056	0.161	0.075
-417.457	800.000	-0.036	-0.158
-416.442	-200.000	-0.018	-0.272
-415.428	171.845	0.080	0.116
-414.413	-120.616	-0.244	-0.041
-413.398	78.480	-0.211	-0.226
-412.384	-200.000	-0.040	-0.246
-411.369	66.158	0.038	0.039
-410.355	800.000	0.104	0.439
-409.340	76.753	0.335	0.356
-408.325	-200.000	0.012	0.141
-407.311	290.158	-0.062	0.113
-406.296	-117.229	-0.199	-0.036
-405.282	275.085	0.055	0.098
-404.267	-7.469	-0.163	0.111
-403.252	-147.373	0.134	0.011
-402.238	-12.656	0.148	-0.097
-401.223	-200.000	0.009	-0.184
-400.209	-30.423	-0.330	0.187
-399.194	-200.000	0.023	-0.112
-398.179	-66.673	-0.258	0.102
-397.165	56.579	-0.169	-0.165
-396.150	-106.149	0.096	-0.022
-395.136	800.000	0.063	-0.186
-394.121	-68.690	-0.280	0.109
-393.106	-200.000	0.004	-0.052
-392.092	-123.694	0.034	-0.005
-391.077	5.601	-0.191	0.142
-390.063	-200.000	0.022	-0.313
-389.048	540.660	-0.096	-0.230
-388.033	-96.837	-0.294	-0.077
-387.019	-200.000	-0.002	0.517
-386.004	800.000	-0.031	-0.095
-384.990	-200.000	0.010	0.151
-383.975	-137.567	0.109	-0.012
-382.960	-80.542	-0.048	-0.016
-381.946	-195.791	-0.294	-0.002
-380.931	-2.191	0.181	-0.127
-379.917	228.397	-0.085	-0.138
-378.902	-200.000	-0.032	0.299
-377.888	-200.000	0.049	0.278
-376.873	800.000	0.124	0.388
-375.858	-200.000	0.000	-0.260
-374.844	-152.695	-0.321	-0.023
-373.829	102.091	-0.100	-0.117
-372.815	42.626	-0.198	0.180
-371.800	237.864	0.188	0.311
-370.785	-54.943	-0.099	0.045
-369.771	-200.000	0.018	-0.118
-368.756	-51.640	0.349	-0.163
-367.742	-150.551	-0.110	0.008
-366.727	-200.000	0.010	-0.424
-365.712	800.000	0.084	-0.301
-364.698	-13.965	0.298	-0.192
-363.683	-200.000	-0.077	0.356
-362.669	99.599	0.246	0.285
-361.654	-81.841	0.305	0.100
-360.639	443.201	-0.113	0.248
-359.625	38.475	-0.085	-0.076
-358.610	800.000	-0.082	-0.275
-357.596	74.629	-0.088	-0.093
-356.581	112.954	-0.081	0.098
-355.566	800.000	-0.043	0.162
-354.552	-177.959	0.269	-0.006
-353.537	-200.000	-0.010	-0.243
-352.523	110.366	0.136	0.163
-351.508	-19.609	-0.157	-0.097
-350.493	134.957	0.067	-0.086
-349.479	-17.852	0.092	-0.057
-348.464	78.721	0.095	0.102
-347.450	71.203	-0.111	0.115
-346.435	1.594	0.225	-0.162
-345.420	-200.000	0.046	-0.250
-344.406	-78.551	0.443	0.151
-343.391	-55.335	0.212	0.095
-342.377	244.206	0.161	-0.270
-341.362	-200.000	0.117	-0.677
-340.348	-200.000	0.025	-0.306
-339.333	276.364	-0.062	0.110
-338.318	134.299	0.131	0.169
-337.304	-173.960	-0.276	0.008
-336.289	76.244	-0.220	0.233
-335.275	-52.619	0.151	-0.070
-334.260	143.969	-0.033	0.043
-333.245	-19.559	0.162	0.100
-332.231	92.377	-0.084	-0.095
-331.216	-10.675	-0.308	0.204
-330.202	-30.999	0.187	0.105
-329.187	800.000	-0.103	-0.329
-328.172	-200.000	0.002	0.190
-327.158	42.821	0.048	-0.044
-326.143	36.020	0.109	-0.096
-325.129	-63.056	0.342	0.141
-324.114	234.966	-0.202	-0.334
-323.099	-200.000	0.091	0.419
-322.085	654.808	-0.067	-0.172
-321.070	709.321	0.046	-0.121
-320.056	-103.168	0.224	-0.053
-319.041	-138.308	0.250	0.028
-318.026	-200.000	-0.017	-0.367
-317.012	285.129	-0.107	0.193
-315.997	240.891	-0.217	-0.361
-314.983	800.000	0.056	-0.230
-313.968	-200.000	0.022	0.131
-312.953	-141.850	-0.497	0.050
-311.939	327.388	-0.107	-0.205
-310.924	-21.410	0.216	-0.132
-309.910	-89.674	-0.243	0.071
-308.895	800.000	0.091	0.348
-307.880	-48.360	0.151	0.072
-306.866	-27.467	-0.004	0.002
-305.851	-200.000	-0.002	-0.116
-304.837	-145.674	0.160	-0.014
-303.822	-106.496	-0.099	-0.022
-302.807	-89.952	-0.232	-0.068
-301.793	101.445	-0.090	0.105
-300.778	561.845	-0.062	0.149
-299.764	800.000	0.043	0.136
-298.749	215.531	0.161	-0.255
-297.735	-106.073	-0.199	-0.045
-296.720	-200.000	-0.033	-0.336
-295.705	147.013	0.179	-0.240
-294.691	277.576	-0.177	0.313
-293.676	-48.493	0.165	-0.079
-292.662	88.921	-0.120	-0.133
-291.647	710.298	0.075	-0.198
-290.632	-40.431	0.155	-0.081
-289.618	-200.000	0.005	0.073
-288.603	-153.896	-0.314	-0.021
-287.589	477.592	-0.129	-0.291
-286.574	50.419	-0.248	-0.234
-285.559	-70.811	0.237	0.089
-284.545	-200.000	-0.015	-0.104
-283.530	-200.000	0.040	-0.195
-282.516	-42.725	0.136	-0.069
-281.501	568.514	-0.090	0.218
-280.486	220.039	-0.061	-0.098
-279.472	-51.653	0.282	-0.131
-278.457	800.000	-0.052	-0.167
-277.443	259.700	-0.105	0.181
-276.428	-200.000	0.024	-0.130
-275.413	-87.111	-0.141	0.043
-274.399	28.494	0.174	0.147
-273.384	800.000	-0.165	0.522
-272.370	622.024	0.167	0.418
-271.355	118.342	-0.117	-0.144
-270.340	-59.092	0.059	0.025
-269.326	393.050	-0.088	0.182
-268.311	-21.171	0.154	0.094
-267.297	-200.000	-0.014	0.083
-266.282	-79.496	0.196	-0.066
-265.267	409.285	0.027	-0.056
-264.253	212.804	-0.119	0.187
-263.238	800.000	-0.084	-0.294
-262.224	8.910	0.285	-0.214
-261.209	800.000	-0.107	-0.357
-260.195	-85.936	-0.318	-0.098
-259.180	50.505	-0.101	-0.095
-258.165	-8.259	-0.152	0.102
-257.151	-82.112	0.036	0.012
-256.136	280.681	-0.122	0.217
-255.122	144.920	-0.110	-0.147
-254.107	-114.168	0.501	0.096
-253.092	-200.000	-0.013	0.293
-252.078	26.891	-0.080	0.066
-251.063	190.520	0.081	-0.121
-250.049	-181.693	-0.079	-0.002
-249.034	800.000	0.037	-0.122
-248.019	417.993	0.158	0.335
-247.005	172.493	-0.104	0.149
-245.990	80.183	-0.288	-0.309
-244.976	221.900	-0.135	0.216
-243.961	-200.000	-0.062	-0.348
-242.946	-41.948	-0.236	0.120
-241.932	217.399	-0.042	0.066
-240.917	-156.706	0.390	0.024
-239.903	-200.000	0.021	-0.124
-238.888	-103.316	0.186	0.044
-237.873	399.456	0.027	0.057
-236.859	-200.000	0.004	0.140
-235.844	800.000	0.033	-0.106
-234.830	362.257	-0.007	-0.014
-233.815	-139.695	-0.155	0.016
-232.800	190.139	0.062	-0.092
-231.786	228.096	0.129	-0.209
-230.771	615.326	-0.132	-0.329
-229.757	-200.000	0.006	-0.036
-228.742	-149.897	0.340	-0.026
-227.727	800.000	0.064	-0.197
-226.713	213.073	-0.133	-0.209
-225.698	-44.910	-0.184	0.091
-224.684	-129.759	0.214	-0.029
-223.669	91.356	0.242	0.270
-222.655	800.000	0.033	0.110
-221.640	-87.844	0.288	0.086
-220.625	-1.481	-0.156	-0.109
-219.611	-1.551	-0.174	0.122
-218.596	138.775	0.152	-0.199
-217.582	168.130	-0.090	-0.127
-216.567	79.233	-0.309	0.330
-215.552	63.516	0.054	0.054
-214.538	82.749	0.129	-0.139
-213.523	19.606	-0.088	-0.071
-212.509	179.849	0.033	0.048
-211.494	-70.020	-0.153	-0.058
-210.479	-141.037	-0.458	-0.047
-209.465	-14.534	-0.187	-0.119
-208.450	-130.325	0.086	-0.012
-207.436	-200.000	-0.010	-0.160
-206.421	-100.570	0.356	-0.088
-205.406	-200.000	0.023	0.389
-204.392	6.546	-0.126	0.093
-203.377	-162.816	0.131	0.006
-202.363	-71.160	-0.019	-0.007
-201.348	-46.930	0.222	-0.108
-200.333	-69.395	0.229	-0.088
-199.319	-200.000	-0.001	0.088
-198.304	65.576	0.108	0.108
-197.290	-200.000	0.003	0.035
-196.275	-200.000	0.125	-0.708
-195.260	577.120	0.074	-0.180
-194.246	-49.637	0.299	0.141
-193.231	-71.653	-0.281	0.104
-192.217	-41.933	0.116	0.059
-191.202	-36.467	-0.106	-0.057
-190.187	800.000	-0.067	0.221
-189.173	-29.330	0.311	0.177
-188.158	-200.000	0.105	-0.000
-187.144	800.000	0.146	0.408
-186.129	-19.959	-0.116	0.071
-185.114	800.000	-0.018	0.066
-184.100	263.996	-0.045	0.078
-183.085	-20.382	0.278	0.170
-182.071	-200.000	0.009	0.152
-181.056	782.903	-0.024	0.065
-180.042	117.733	0.104	0.127
-179.027	-142.031	-0.178	0.018
-178.012	-200.000	0.139	-0.000
-176.998	145.905	-0.183	-0.244
-175.983	-58.585	-0.213	0.092
-174.969	800.000	0.066	0.281
-173.954	-33.486	0.205	-0.112
-172.939	-52.999	-0.213	-0.097
-171.925	-200.000	-0.040	0.333
-170.910	-103.047	0.270	-0.063
-169.896	-200.000	0.010	-0.305
-168.881	-22.351	0.172	-0.103
-167.866	-31.673	0.246	-0.137
-166.852	-99.227	0.217	-0.054
-165.837	800.000	-0.069	-0.286
-164.823	-9.176	-0.067	-0.044
-163.808	-51.885	0.261	0.120
-162.793	-200.000	0.006	0.170
-161.779	-117.712	-0.133	-0.024
-160.764	-2.017	-0.062	0.043
-159.750	169.248	-0.115	-0.163
-158.735	437.636	-0.039	-0.083
-157.720	-200.000	0.031	0.301
-156.706	-200.000	-0.007	0.110
-155.691	181.284	-0.207	0.302
-154.677	-200.000	0.048	0.228
-153.662	343.094	-0.116	0.225
-152.647	-90.097	-0.236	-0.068
-151.633	-200.000	0.006	-0.094
-150.618	-122.752	0.107	-0.017
-149.604	621.389	-0.052	0.129
-148.589	257.342	-0.103	0.175
-147.574	508.989	0.094	0.216
-146.560	-200.000	-0.027	-0.332
-145.545	-144.955	-0.342	0.031
-144.531	-27.021	-0.177	-0.103
-143.516	470.073	0.063	-0.141
-142.502	79.144	0.210	0.223
-141.487	55.467	-0.222	-0.213
-140.472	800.000	0.047	-0.138
-139.458	-200.000	0.008	0.203
-138.443	311.867	0.121	-0.226
-137.429	-114.221	-0.166	0.032
-136.414	800.000	0.073	0.308
-135.399	-82.710	0.331	0.106
-134.385	-200.000	0.057	-0.387
-133.370	132.144	-0.228	0.291
-132.356	567.176	-0.068	0.162
-131.341	35.082	0.028	0.024
-130.326	224.319	-0.216	0.345
-129.312	26.436	0.269	-0.223
-128.297	-46.593	-0.167	-0.081
-127.283	-6.268	0.146	0.099
-126.268	-200.000	0.054	0.344
-125.253	-37.603	-0.266	-0.141
-124.239	-40.364	0.221	-0.114
-123.224	441.196	0.147	-0.318
-122.210	-27.612	0.101	-0.058
