DTS Sentinel unit serial number:	SN413079Multiplexer serial number:	ORYXHardware model number:	OX4-SRSoftware version number:	ORYX F/W v4.00 Oryx Data Collector v3.7.2.0data status	okinstallation	princeton_trtdifferential loss correction	single-endedforward channel	channel 4reverse channel	N/Adate	2019/09/18time	09:01:35forward acquisition time	60.00reverse acquisition time	0.00gamma	496.2192k internal	0.2324k external	0.2324temperature offset calibration	0.9985default loss term (dB/km)	0.3790temperature slope calibration	1.0000multiplexer offset coefficient	1.0000multiplexer slope coefficient	1.0000fibre end	0.00T internal ref (°C)	25.12T ext. ref 1 (°C)	0.24T ext. ref 2 (°C)	21.89length (m)	temperature (°C)	Stokes	anti-Stokes-747.200	262.779	0.053	-0.092
-746.185	-152.735	-0.552	-0.040
-745.171	-11.564	0.077	0.051
-744.156	368.867	0.166	0.339
-743.142	276.015	-0.145	-0.260
-742.127	-193.297	-0.158	0.001
-741.112	-165.365	0.085	-0.004
-740.098	-26.443	-0.181	-0.107
-739.083	-120.168	0.340	0.059
-738.069	800.000	0.049	-0.140
-737.054	114.941	0.167	-0.206
-736.039	440.513	-0.138	0.303
-735.025	23.272	-0.123	0.102
-734.010	-200.000	0.010	-0.309
-732.996	147.243	0.216	-0.294
-731.981	711.619	0.132	-0.353
-730.966	-183.649	-0.135	0.002
-729.952	108.321	0.107	0.128
-728.937	70.336	0.097	-0.101
-727.923	23.235	-0.198	-0.164
-726.908	-22.662	-0.164	0.100
-725.894	105.818	-0.368	-0.439
-724.879	-42.322	-0.045	-0.023
-723.864	128.017	0.226	-0.290
-722.850	89.428	0.170	-0.191
-721.835	-199.073	0.121	0.001
-720.821	155.276	-0.079	-0.110
-719.806	208.684	0.184	0.290
-718.791	800.000	0.035	0.135
-717.777	-25.448	0.097	0.058
-716.762	59.249	0.089	-0.088
-715.748	125.429	-0.094	-0.120
-714.733	75.637	-0.184	-0.196
-713.718	171.429	0.063	-0.092
-712.704	-200.000	0.021	-0.403
-711.689	141.278	-0.164	-0.219
-710.675	-200.000	0.005	0.193
-709.660	461.935	-0.024	0.054
-708.645	-153.326	0.118	0.008
-707.631	275.298	-0.059	-0.105
-706.616	143.064	0.296	0.397
-705.602	-5.336	0.257	-0.178
-704.587	12.169	-0.223	-0.173
-703.572	61.363	0.305	0.306
-702.558	-5.919	-0.101	-0.070
-701.543	-200.000	-0.007	0.235
-700.529	-200.000	-0.025	0.307
-699.514	7.664	-0.208	-0.157
-698.499	-70.774	-0.399	0.152
-697.485	251.442	0.037	-0.063
-696.470	-150.886	0.104	-0.008
-695.456	-58.554	-0.112	-0.049
-694.441	-111.816	0.374	0.076
-693.426	7.938	-0.126	0.096
-692.412	290.201	-0.046	-0.084
-691.397	-68.192	0.126	-0.049
-690.383	-117.640	0.244	0.044
-689.368	200.956	-0.040	-0.062
-688.354	-200.000	-0.063	-0.329
-687.339	-39.207	-0.199	-0.105
-686.324	800.000	0.096	-0.284
-685.310	-200.000	-0.021	0.172
-684.295	110.644	-0.154	-0.187
-683.281	-200.000	-0.006	0.070
-682.266	-109.820	-0.402	0.085
-681.251	-31.716	0.342	-0.193
-680.237	-137.849	-0.318	0.036
-679.222	112.859	0.247	-0.301
-678.208	11.142	-0.284	-0.219
-677.193	-119.608	0.354	-0.062
-676.178	-74.781	0.085	-0.031
-675.164	109.009	0.289	0.348
-674.149	-200.000	-0.018	-0.455
-673.135	-148.525	0.111	0.009
-672.120	46.744	0.242	-0.226
-671.105	-84.438	0.044	0.014
-670.091	-92.660	0.111	0.031
-669.076	-90.994	0.061	-0.018
-668.062	-82.686	-0.263	0.086
-667.047	195.717	0.090	-0.138
-666.032	698.550	0.111	-0.293
-665.018	-200.000	-0.030	0.216
-664.003	256.294	0.051	-0.088
-662.989	-156.238	-0.072	-0.005
-661.974	-200.000	0.001	-0.399
-660.959	800.000	-0.035	-0.097
-659.945	-186.523	-0.121	0.002
-658.930	-200.000	-0.066	-0.325
-657.916	800.000	-0.039	-0.126
-656.901	485.809	-0.039	-0.090
-655.886	800.000	-0.065	-0.198
-654.872	-109.121	-0.210	0.045
-653.857	102.412	0.389	-0.458
-652.843	25.485	0.165	0.138
-651.828	-93.287	-0.349	-0.098
-650.814	589.109	0.066	0.163
-649.799	-109.722	-0.228	-0.048
-648.784	582.055	-0.110	-0.271
-647.770	-3.017	0.195	-0.137
-646.755	63.241	-0.062	0.062
-645.741	3.300	-0.065	0.047
-644.726	-183.962	0.575	-0.010
-643.711	-200.000	0.029	-0.345
-642.697	-125.505	0.347	-0.053
-641.682	440.156	-0.057	-0.126
-640.668	-71.183	0.224	-0.084
-639.653	-52.564	-0.225	-0.105
-638.638	84.944	0.080	0.088
-637.624	57.462	0.121	0.119
-636.609	126.714	-0.326	-0.415
-635.595	-19.552	-0.185	-0.115
-634.580	-200.000	0.003	-0.100
-633.565	-50.380	-0.091	-0.043
-632.551	-28.499	-0.216	0.125
-631.536	-44.285	0.059	0.030
-630.522	-200.000	0.015	-0.070
-629.507	74.338	0.162	-0.171
-628.492	-176.776	-0.403	-0.010
-627.478	13.491	-0.136	-0.106
-626.463	96.372	-0.057	0.065
-625.449	-200.000	-0.055	0.284
-624.434	-36.185	0.181	-0.098
-623.419	-105.973	-0.299	0.068
-622.405	149.524	-0.200	0.272
-621.390	-101.655	-0.288	-0.070
-620.376	189.212	0.240	-0.361
-619.361	247.718	0.154	-0.261
-618.346	155.220	-0.039	0.054
-617.332	-46.492	0.157	0.077
-616.317	347.514	-0.054	0.107
-615.303	-200.000	0.032	-0.166
-614.288	-132.482	-0.167	0.022
-613.273	-200.000	-0.017	-0.111
-612.259	800.000	0.080	-0.249
-611.244	800.000	0.036	-0.119
-610.230	69.555	-0.193	-0.199
-609.215	19.980	-0.255	-0.206
-608.201	89.145	0.154	-0.172
-607.186	75.516	0.127	0.134
-606.171	-40.358	-0.061	-0.032
-605.157	-200.000	-0.004	-0.159
-604.142	-200.000	-0.062	-0.360
-603.128	-20.026	-0.171	0.106
-602.113	10.325	0.135	-0.103
-601.098	-55.796	0.079	0.036
-600.084	134.205	-0.081	-0.105
-599.069	-37.547	-0.343	0.184
-598.055	-140.055	0.257	-0.027
-597.040	-13.317	-0.218	0.142
-596.025	-37.129	0.204	-0.110
-595.011	-5.057	-0.200	0.138
-593.996	-46.902	0.241	0.118
-592.982	456.829	-0.128	0.285
-591.967	162.523	-0.117	-0.164
-590.952	558.820	-0.150	-0.362
-589.938	366.341	-0.084	-0.170
-588.923	-49.783	-0.273	-0.130
-587.909	800.000	-0.003	-0.014
-586.894	-104.823	0.292	0.067
-585.879	-60.218	-0.225	-0.096
-584.865	-122.447	0.272	0.044
-583.850	-103.666	0.153	0.036
-582.836	157.647	0.167	0.232
-581.821	-200.000	-0.013	-0.208
-580.806	605.445	-0.037	0.091
-579.792	20.291	-0.224	0.181
-578.777	800.000	0.061	-0.241
-577.763	-48.518	-0.183	0.088
-576.748	-88.094	0.218	-0.066
-575.733	-66.505	0.266	0.106
-574.719	120.277	0.156	-0.194
-573.704	54.814	-0.158	-0.153
-572.690	-200.000	-0.013	-0.254
-571.675	99.602	0.104	-0.121
-570.661	-200.000	0.007	-0.307
-569.646	-12.231	0.147	0.096
-568.631	-76.763	0.278	0.098
-567.617	800.000	-0.050	-0.176
-566.602	800.000	0.087	-0.241
-565.588	-129.354	-0.120	0.017
-564.573	101.150	0.016	-0.018
-563.558	63.720	-0.139	0.140
-562.544	16.060	0.117	-0.093
-561.529	-200.000	0.008	-0.195
-560.515	159.216	-0.081	0.114
-559.500	-200.000	0.002	0.084
-558.485	100.488	0.287	-0.334
-557.471	647.804	-0.046	-0.118
-556.456	-27.731	0.088	-0.051
-555.442	800.000	0.103	-0.315
-554.427	-133.169	-0.187	-0.024
-553.412	215.516	-0.071	-0.113
-552.398	800.000	0.057	-0.234
-551.383	-200.000	0.072	0.376
-550.369	179.144	-0.074	-0.109
-549.354	306.465	-0.105	-0.195
-548.339	-119.298	-0.149	0.026
-547.325	47.542	-0.168	0.157
-546.310	-107.317	-0.490	-0.108
-545.296	549.188	-0.105	-0.253
-544.281	-119.817	-0.050	0.009
-543.266	-118.918	-0.321	0.056
-542.252	-200.000	-0.025	-0.115
-541.237	-47.125	-0.237	-0.116
-540.223	117.609	0.112	0.139
-539.208	163.783	-0.130	-0.183
-538.193	800.000	-0.076	-0.254
-537.179	602.996	0.059	-0.148
-536.164	7.910	0.088	0.066
-535.150	-48.879	0.226	0.108
-534.135	-119.199	0.172	-0.030
-533.121	87.727	-0.325	0.361
-532.106	-49.096	0.390	0.187
-531.091	157.525	-0.129	0.179
-530.077	-62.010	0.107	0.045
-529.062	-77.120	-0.363	0.127
-528.048	-130.180	0.298	0.041
-527.033	-200.000	0.013	0.341
-526.018	163.648	0.126	0.177
-525.004	-41.386	0.156	-0.080
-523.989	-98.485	-0.247	0.063
-522.975	-200.000	-0.009	0.183
-521.960	-92.209	0.194	-0.055
-520.945	239.865	-0.094	-0.157
-519.931	-120.927	-0.044	0.007
-518.916	-28.052	-0.081	0.047
-517.902	-200.000	0.070	0.431
-516.887	-59.929	0.320	-0.137
-515.872	277.226	0.165	0.293
-514.858	700.632	0.200	0.526
-513.843	69.314	-0.029	-0.030
-512.829	-157.398	-0.215	-0.013
-511.814	97.152	-0.070	0.080
-510.799	177.008	-0.066	-0.095
-509.785	-31.859	-0.157	-0.088
-508.770	211.899	-0.037	-0.058
-507.756	203.563	0.137	-0.213
-506.741	376.965	-0.151	-0.308
-505.726	-108.186	-0.132	-0.028
-504.712	-56.271	-0.276	0.123
-503.697	128.471	-0.171	-0.218
-502.683	-29.889	0.118	-0.067
-501.668	-110.019	-0.265	-0.055
-500.653	-71.611	-0.146	-0.054
-499.639	-83.117	-0.129	0.041
-498.624	63.906	-0.101	-0.102
-497.610	-200.000	-0.035	0.187
-496.595	216.718	-0.092	0.146
-495.581	125.523	0.120	-0.151
-494.566	145.709	-0.152	-0.204
-493.551	106.652	0.179	-0.213
-492.537	-200.000	0.018	0.113
-491.522	49.990	-0.168	0.159
-490.508	68.509	0.178	-0.183
-489.493	-76.040	-0.054	0.019
-488.478	-200.000	0.003	0.020
-487.464	-200.000	0.021	0.112
-486.449	317.350	0.181	-0.342
-485.435	800.000	0.075	-0.278
-484.420	100.386	-0.194	-0.225
-483.405	89.375	0.179	-0.200
-482.391	131.931	0.203	-0.261
-481.376	-19.391	0.134	-0.083
-480.362	-200.000	-0.005	0.059
-479.347	352.435	0.100	0.197
-478.332	-200.000	-0.039	0.192
-477.318	93.245	0.189	-0.214
-476.303	800.000	-0.090	0.374
-475.289	285.970	-0.095	0.171
-474.274	-34.749	0.055	0.030
-473.259	27.026	-0.138	0.115
-472.245	-200.000	0.012	0.200
-471.230	84.121	0.150	0.164
-470.216	509.656	0.088	0.204
-469.201	-150.235	0.040	0.003
-468.186	341.694	0.065	-0.127
-467.172	800.000	-0.058	0.232
-466.157	-200.000	0.078	-0.504
-465.143	8.647	0.123	-0.092
-464.128	135.823	0.208	0.271
-463.113	-98.320	0.138	0.035
-462.099	-200.000	0.014	0.213
-461.084	-41.847	-0.268	0.137
-460.070	85.181	0.026	0.028
-459.055	-195.790	0.077	0.001
-458.040	36.122	-0.148	0.130
-457.026	-105.541	-0.088	0.020
-456.011	-200.000	0.060	-0.285
-454.997	89.069	-0.329	0.366
-453.982	-128.489	0.296	0.042
-452.968	163.120	0.225	-0.315
-451.953	800.000	0.028	-0.100
-450.938	201.635	0.091	0.140
-449.924	485.816	-0.125	0.285
-448.909	-39.170	0.021	0.011
-447.895	237.657	-0.157	0.260
-446.880	-117.574	0.461	0.083
-445.865	272.047	0.160	0.281
-444.851	-112.458	-0.411	0.082
-443.836	-123.283	0.323	-0.052
-442.822	-200.000	-0.026	0.274
-441.807	-200.000	-0.079	0.533
-440.792	40.014	0.105	0.094
-439.778	740.866	-0.144	-0.386
-438.763	-42.740	-0.607	0.308
-437.749	-15.409	-0.169	-0.108
-436.734	-102.443	-0.141	0.034
-435.719	800.000	-0.036	-0.156
-434.705	-200.000	0.019	-0.177
-433.690	11.291	-0.141	0.108
-432.676	-8.041	0.144	0.097
-431.661	350.828	-0.198	-0.390
-430.646	609.576	-0.066	-0.165
-429.632	-157.868	-0.107	0.006
-428.617	-21.662	0.283	-0.172
-427.603	-173.548	0.126	-0.004
-426.588	-113.147	-0.399	0.078
-425.573	-96.717	0.421	0.110
-424.559	-153.951	-0.201	-0.014
-423.544	20.337	-0.135	-0.109
-422.530	-200.000	0.011	0.169
-421.515	-98.181	0.438	0.112
-420.500	-200.000	0.026	-0.145
-419.486	-67.885	-0.277	0.108
-418.471	-91.608	0.236	0.067
-417.457	-200.000	-0.026	-0.269
-416.442	139.594	0.177	0.233
-415.428	-97.949	0.110	0.028
-414.413	64.383	-0.170	0.171
-413.398	-33.175	0.164	0.090
-412.384	-101.090	0.166	-0.041
-411.369	-42.962	-0.485	0.245
-410.355	-143.171	0.154	0.015
-409.340	-126.448	-0.066	0.010
-408.325	-72.695	0.049	0.018
-407.311	163.825	0.126	-0.177
-406.296	-136.717	0.311	-0.036
-405.282	185.492	0.185	0.273
-404.267	-79.727	-0.330	0.111
-403.252	-200.000	0.012	-0.092
-402.238	-125.961	-0.191	-0.029
-401.223	47.260	0.266	0.247
-400.209	9.372	0.079	0.060
-399.194	-171.475	-0.186	-0.006
-398.179	-44.594	0.094	-0.047
-397.165	71.726	0.029	-0.030
-396.150	113.916	0.161	0.194
-395.136	16.060	0.025	0.020
-394.121	244.983	0.080	-0.133
-393.106	170.518	-0.096	0.137
-392.092	108.295	0.143	-0.169
-391.077	520.697	0.112	-0.262
-390.063	183.594	-0.168	-0.247
-389.048	-69.353	0.164	-0.063
-388.033	-24.986	0.237	0.140
-387.019	136.963	0.095	0.124
-386.004	-145.864	0.132	0.012
-384.990	-117.394	0.139	0.025
-383.975	75.786	0.076	-0.080
-382.960	-117.655	-0.254	-0.046
-381.946	-93.352	0.280	-0.077
-380.931	25.425	0.165	0.137
-379.917	-185.655	0.225	0.003
-378.902	-200.000	-0.010	-0.133
-377.888	-124.006	0.166	0.026
-376.873	-85.474	-0.203	-0.063
-375.858	-65.848	-0.150	0.060
-374.844	500.964	-0.019	0.043
-373.829	227.203	-0.065	0.105
-372.815	-200.000	0.021	0.317
-371.800	-70.147	0.242	0.091
-370.785	171.976	0.080	-0.115
-369.771	112.103	0.192	0.230
-368.756	-149.465	0.298	0.023
-367.742	42.096	-0.145	0.131
-366.727	269.597	0.122	0.213
-365.712	-84.531	0.297	0.093
-364.698	800.000	-0.053	0.185
-363.683	-110.684	-0.270	-0.055
-362.669	10.451	0.190	-0.144
-361.654	163.249	0.168	0.235
-360.639	-61.312	-0.471	-0.197
-359.625	-74.705	0.078	-0.028
-358.610	120.192	-0.078	0.096
-357.596	115.063	-0.085	-0.104
-356.581	22.797	-0.216	-0.176
-355.566	-32.990	0.355	0.196
-354.552	3.699	-0.262	-0.190
-353.537	-90.802	-0.098	-0.028
-352.523	53.056	0.166	-0.158
-351.508	33.502	0.170	-0.146
-350.493	583.480	0.058	-0.142
-349.479	2.786	0.166	-0.120
-348.464	-200.000	0.021	-0.146
-347.450	80.134	-0.024	0.026
-346.435	-127.368	-0.055	0.008
-345.420	493.502	-0.039	-0.089
-344.406	597.247	-0.066	0.164
-343.391	327.444	0.041	-0.077
-342.377	-200.000	0.036	0.405
-341.362	4.264	-0.082	-0.060
-340.348	800.000	0.060	-0.176
-339.333	-97.225	0.261	-0.068
-338.318	63.878	0.027	-0.027
-337.304	800.000	-0.026	0.075
-336.289	697.306	0.076	0.200
-335.275	663.005	-0.117	0.299
-334.260	97.616	-0.114	0.131
-333.245	-80.212	0.469	0.156
-332.231	800.000	-0.099	0.302
-331.216	360.382	0.170	0.339
-330.202	1.420	0.127	0.090
-329.187	89.660	0.039	0.043
-328.172	-115.836	-0.350	-0.065
-327.158	-95.900	0.248	-0.066
-326.143	-146.078	0.480	-0.042
-325.129	301.225	0.036	-0.067
-324.114	123.875	0.165	-0.206
-323.099	-200.000	0.007	0.053
-322.085	-200.000	-0.044	-0.203
-321.070	56.990	0.107	-0.103
-320.056	152.635	-0.151	-0.204
-319.041	800.000	-0.053	0.151
-318.026	-97.339	-0.028	0.007
-317.012	253.235	0.280	-0.474
-315.997	244.353	-0.144	0.240
-314.983	108.012	0.187	-0.221
-313.968	91.699	-0.192	0.214
-312.953	-200.000	0.007	0.283
-311.939	-162.134	0.305	-0.015
-310.924	-200.000	-0.015	0.234
-309.910	-86.353	0.372	0.113
-308.895	-200.000	0.011	-0.347
-307.880	-200.000	-0.010	0.187
-306.866	108.522	0.264	-0.313
-305.851	-200.000	-0.006	0.399
-304.837	126.058	-0.163	-0.204
-303.822	800.000	0.020	-0.072
-302.807	-41.699	0.086	0.044
-301.793	-72.056	-0.363	-0.134
-300.778	657.259	0.064	-0.162
-299.764	-200.000	0.012	0.092
-298.749	-200.000	0.011	0.225
-297.735	231.751	-0.298	0.484
-296.720	469.335	-0.111	0.248
-295.705	800.000	-0.133	-0.377
-294.691	-53.198	-0.123	-0.056
-293.676	-200.000	0.037	0.288
-292.662	-106.664	-0.023	0.005
-291.647	-115.957	-0.335	-0.062
-290.632	-136.347	0.224	0.026
-289.618	732.720	-0.097	0.257
-288.603	434.871	-0.113	0.244
-287.589	-128.874	-0.281	0.039
-286.574	-6.081	-0.096	0.065
-285.559	59.839	-0.284	-0.278
-284.545	800.000	-0.070	0.297
-283.530	-200.000	-0.029	-0.338
-282.516	-152.025	0.077	0.006
-281.501	-97.613	0.317	0.082
-280.486	-119.752	-0.419	0.072
-279.472	587.172	-0.089	-0.217
-278.457	-159.027	0.242	0.014
-277.443	417.598	0.041	0.088
-276.428	800.000	0.083	-0.231
-275.413	-71.802	-0.235	0.087
-274.399	53.277	-0.067	0.063
-273.384	-89.155	0.398	0.117
-272.370	153.214	-0.219	-0.297
-271.355	-154.496	0.218	-0.014
-270.340	114.125	-0.164	-0.198
-269.326	-73.152	-0.133	0.048
-268.311	-200.000	-0.047	0.544
-267.297	-200.000	0.011	-0.191
-266.282	279.643	0.071	-0.126
-265.267	271.899	0.047	-0.083
-264.253	800.000	-0.083	0.273
-263.238	33.641	-0.260	-0.224
-262.224	10.244	-0.264	0.199
-261.209	23.150	-0.101	0.082
-260.195	800.000	-0.046	0.153
-259.180	800.000	0.047	0.191
-258.165	-59.822	-0.151	-0.064
-257.151	-69.174	-0.130	-0.050
-256.136	116.486	-0.053	-0.065
-255.122	-106.737	0.100	0.022
-254.107	-113.724	0.220	0.043
-253.092	289.593	0.026	0.046
-252.078	-160.865	0.133	0.007
-251.063	-200.000	-0.060	-0.293
-250.049	-3.384	0.035	0.024
-249.034	-200.000	0.002	0.114
-248.019	-12.019	0.038	0.025
-247.005	-23.802	0.055	0.033
-245.990	-56.500	-0.325	-0.142
-244.976	-66.781	-0.164	0.064
-243.961	103.188	-0.092	0.107
-242.946	-139.307	0.140	0.015
-241.932	-132.329	-0.395	0.051
-240.917	-200.000	-0.058	0.300
-239.903	-48.638	0.255	-0.121
-238.888	21.876	0.120	-0.097
-237.873	-200.000	0.003	-0.282
-236.859	130.944	-0.130	0.165
-235.844	-107.197	-0.463	-0.101
-234.830	-115.037	0.030	-0.006
-233.815	313.296	-0.057	0.107
-232.800	-200.000	-0.035	-0.205
-231.786	-99.014	0.067	-0.017
-230.771	-2.720	0.080	0.055
-229.757	-88.524	-0.210	0.062
-228.742	58.008	-0.060	0.058
-227.727	3.658	0.144	0.104
-226.713	-200.000	0.051	0.239
-225.698	-37.432	0.363	-0.192
-224.684	224.219	-0.076	0.121
-223.669	13.207	-0.170	0.130
-222.655	680.338	-0.118	0.305
-221.640	49.253	0.079	-0.073
-220.625	100.051	0.014	-0.016
-219.611	53.638	-0.143	-0.136
-218.596	-75.047	0.369	-0.131
-217.582	-93.246	-0.094	0.026
-216.567	15.119	0.267	-0.207
-215.552	142.221	-0.070	0.092
-214.538	-54.012	0.070	0.031
-213.523	-57.964	0.184	-0.080
-212.509	123.492	0.095	0.118
-211.494	180.230	0.021	0.030
-210.479	152.901	-0.125	-0.170
-209.465	99.733	-0.089	0.102
-208.450	298.701	0.235	0.427
-207.436	-17.223	-0.302	-0.188
-206.421	22.837	0.256	0.207
-205.406	105.423	0.223	-0.260
-204.392	-170.073	0.158	-0.006
-203.377	800.000	0.060	0.200
-202.363	132.377	0.222	-0.283
-201.348	76.526	-0.063	0.066
-200.333	-104.984	0.091	0.021
-199.319	-49.671	-0.321	-0.151
-198.304	-200.000	-0.013	0.144
-197.290	214.181	0.149	0.232
-196.275	-200.000	0.001	-0.056
-195.260	-101.714	-0.404	-0.097
-194.246	-46.646	0.226	-0.110
-193.231	208.667	-0.043	-0.066
-192.217	451.840	0.139	0.304
-191.202	-67.080	-0.196	-0.077
-190.187	800.000	0.063	0.194
-189.173	-200.000	-0.002	0.288
-188.158	407.973	-0.126	0.263
-187.144	669.535	-0.173	0.441
-186.129	-17.922	0.027	0.017
-185.114	115.973	-0.114	0.138
-184.100	-12.686	-0.153	-0.099
-183.085	-41.162	-0.070	-0.036
-182.071	800.000	0.091	-0.323
-181.056	-9.524	0.098	0.064
-180.042	-69.464	-0.090	0.034
-179.027	800.000	0.066	-0.237
-178.012	-55.549	-0.401	-0.177
-176.998	800.000	-0.010	0.034
-175.983	800.000	-0.088	-0.255
-174.969	794.497	0.112	-0.306
-173.954	538.259	0.174	-0.408
-172.939	-200.000	-0.032	-0.693
-171.925	-112.496	0.330	-0.065
-170.910	-21.580	-0.154	0.093
-169.896	80.514	0.030	-0.032
-168.881	49.596	0.078	-0.073
-167.866	373.067	0.068	-0.137
-166.852	307.836	0.112	0.206
-165.837	-200.000	-0.021	0.245
-164.823	22.679	-0.238	-0.192
-163.808	-200.000	0.006	0.203
-162.793	-52.197	-0.386	0.177
-161.779	485.159	-0.090	-0.203
-160.764	-108.259	0.121	0.026
-159.750	759.403	0.088	0.235
-158.735	-200.000	0.036	-0.189
-157.720	30.560	0.234	0.198
-156.706	800.000	-0.058	0.194
-155.691	15.186	-0.087	0.067
-154.677	206.806	-0.096	0.148
-153.662	-57.848	0.189	0.081
-152.647	-93.289	-0.130	-0.036
-151.633	305.873	0.104	-0.190
-150.618	-89.036	0.371	-0.108
-149.604	6.718	0.030	-0.022
-148.589	264.809	0.102	0.175
-147.574	-117.145	0.276	0.050
-146.560	-11.547	0.159	-0.103
-145.545	40.429	-0.159	0.141
-144.531	236.143	-0.053	-0.086
-143.516	800.000	-0.032	-0.093
-142.502	-69.956	-0.171	-0.064
-141.487	467.278	0.056	-0.123
-140.472	322.228	0.046	0.087
-139.458	800.000	-0.074	-0.210
-138.443	800.000	-0.048	0.191
-137.429	-162.483	0.123	-0.006
-136.414	-5.941	0.225	-0.152
-135.399	-200.000	-0.011	-0.086
-134.385	349.482	0.040	0.077
-133.370	69.768	0.313	0.318
-132.356	-200.000	-0.009	-0.202
-131.341	55.111	0.259	-0.246
-130.326	-200.000	0.013	0.102
-129.312	-101.855	0.171	0.041
-128.297	47.749	-0.112	0.103
-127.283	-56.568	-0.176	-0.077
-126.268	-157.438	0.239	0.014
-125.253	214.847	0.084	-0.131
-124.239	526.615	0.026	0.061
-123.224	34.914	-0.219	-0.189
-122.210	800.000	-0.032	-0.094
-121.195	82.084	0.229	0.245
-120.180	-27.758	-0.189	-0.108
