DTS Sentinel unit serial number:	SN413079Multiplexer serial number:	ORYXHardware model number:	OX4-SRSoftware version number:	ORYX F/W v4.00 Oryx Data Collector v3.7.2.0data status	okinstallation	princeton_trtdifferential loss correction	single-endedforward channel	channel 4reverse channel	N/Adate	2019/09/12time	19:23:19forward acquisition time	15.00reverse acquisition time	0.00gamma	496.2192k internal	0.2309k external	0.2309temperature offset calibration	1.0148default loss term (dB/km)	0.3790temperature slope calibration	1.0000multiplexer offset coefficient	1.0000multiplexer slope coefficient	1.0000fibre end	0.00T internal ref (°C)	32.37T ext. ref 1 (°C)	3.22T ext. ref 2 (°C)	26.93length (m)	temperature (°C)	Stokes	anti-Stokes-747.200	-32.991	-0.384	0.217
-746.185	-3.901	-0.069	-0.048
-745.171	800.000	-0.077	-0.315
-744.156	-167.352	0.581	-0.024
-743.142	-200.000	0.024	-0.198
-742.127	654.791	0.274	-0.714
-741.112	125.855	0.402	-0.516
-740.098	261.787	0.375	0.660
-739.083	-86.812	-0.426	-0.132
-738.069	-200.000	-0.049	0.417
-737.054	-121.049	0.790	0.135
-736.039	-181.004	-1.018	-0.021
-735.025	-32.239	0.684	0.388
-734.010	94.107	-0.740	-0.853
-732.996	35.108	0.271	0.241
-731.981	113.855	0.037	-0.046
-730.966	-200.000	0.122	0.998
-729.952	375.689	0.141	-0.292
-728.937	-98.626	-0.568	0.147
-727.923	20.688	-0.438	0.360
-726.908	-32.557	0.424	0.240
-725.894	18.430	0.469	-0.381
-724.879	-167.570	0.082	-0.003
-723.864	177.737	0.329	0.487
-722.850	-165.770	-0.971	0.043
-721.835	46.544	0.186	0.176
-720.821	-45.806	-0.677	0.340
-719.806	-47.368	0.768	0.379
-718.791	-123.812	0.732	-0.117
-717.777	-20.993	-0.090	-0.056
-716.762	-123.088	0.298	0.049
-715.748	-38.336	-0.333	-0.179
-714.733	-131.603	-0.465	0.062
-713.718	-62.898	-0.309	0.130
-712.704	-185.236	0.098	-0.002
-711.689	-69.990	0.265	0.102
-710.675	-181.953	-0.988	0.019
-709.660	800.000	0.161	-0.670
-708.645	-41.550	0.420	0.219
-707.631	-65.761	0.025	0.010
-706.616	-118.604	0.896	-0.161
-705.602	340.206	-0.147	0.290
-704.587	-95.596	-0.554	-0.151
-703.572	171.141	0.531	0.773
-702.558	800.000	-0.396	1.138
-701.543	-79.419	-0.711	0.244
-700.529	-152.328	-0.725	-0.053
-699.514	800.000	-0.156	0.489
-698.499	-41.385	0.484	-0.253
-697.485	-61.806	-0.350	-0.149
-696.470	350.695	-0.233	-0.468
-695.456	-168.990	-0.565	-0.021
-694.441	188.741	0.218	-0.331
-693.426	-135.905	-0.906	-0.108
-692.412	130.772	0.253	-0.330
-691.397	-200.000	-0.229	-1.209
-690.383	-28.855	0.102	-0.059
-689.368	-16.856	-0.503	0.322
-688.354	-86.653	-0.535	-0.166
-687.339	222.342	0.622	1.016
-686.324	800.000	-0.210	0.766
-685.310	189.262	0.460	0.699
-684.295	-158.517	-0.511	-0.030
-683.281	392.516	0.215	-0.453
-682.266	149.958	-0.254	0.349
-681.251	-200.000	0.066	-0.888
-680.237	800.000	0.087	-0.341
-679.222	-131.737	-1.094	-0.145
-678.208	-200.000	-0.017	-0.653
-677.193	-200.000	-0.008	0.421
-676.178	8.039	0.408	-0.310
-675.164	800.000	-0.180	-0.510
-674.149	800.000	0.068	-0.233
-673.135	44.292	0.417	0.388
-672.120	97.320	0.198	0.230
-671.105	-35.668	-0.771	-0.424
-670.091	-103.939	0.210	-0.050
-669.076	99.649	-0.235	-0.275
-668.062	7.021	-0.018	0.013
-667.047	3.858	0.134	0.099
-666.032	17.222	0.365	0.294
-665.018	278.367	-0.392	0.707
-664.003	-86.001	-0.906	0.284
-662.989	141.600	-0.288	0.387
-661.974	94.993	-0.221	0.255
-660.959	37.612	0.541	-0.486
-659.945	-57.215	0.243	0.108
-658.930	21.067	0.528	-0.434
-657.916	36.732	0.326	0.292
-656.901	800.000	0.126	-0.406
-655.886	263.734	0.145	-0.256
-654.872	-65.811	0.691	-0.280
-653.857	-165.406	-1.197	0.053
-652.843	-38.555	-0.650	-0.348
-651.828	-114.649	-0.141	-0.027
-650.814	146.458	0.262	-0.356
-649.799	-95.404	0.678	-0.184
-648.784	-16.575	-0.637	0.408
-647.770	-48.977	0.492	0.238
-646.755	-200.000	-0.056	1.117
-645.741	390.584	-0.130	-0.273
-644.726	-200.000	-0.019	-0.770
-643.711	-200.000	-0.066	0.460
-642.697	29.114	0.266	0.228
-641.682	48.666	-0.378	-0.359
-640.668	-200.000	0.123	-0.977
-639.653	-56.841	0.367	-0.164
-638.638	-35.370	0.593	-0.326
-637.624	-200.000	0.021	-0.551
-636.609	-47.191	0.417	0.206
-635.595	-147.218	0.752	-0.065
-634.580	-200.000	0.018	-0.857
-633.565	-139.601	-0.579	-0.062
-632.551	-200.000	0.144	-0.843
-631.536	61.401	-0.685	-0.689
-630.522	-62.673	-0.843	-0.354
-629.507	329.168	-0.044	0.085
-628.492	309.818	-0.248	0.469
-627.478	114.329	-0.343	-0.423
-626.463	-103.883	-0.511	0.121
-625.449	39.419	-0.846	0.766
-624.434	-200.000	0.026	-0.822
-623.419	-67.355	-0.898	-0.357
-622.405	-200.000	0.022	0.342
-621.390	-66.653	-0.735	-0.295
-620.376	698.006	0.219	-0.581
-619.361	800.000	-0.253	-0.781
-618.346	-43.468	0.947	-0.484
-617.332	-200.000	0.067	0.516
-616.317	800.000	0.063	0.209
-615.303	538.434	-0.090	-0.216
-614.288	-68.053	1.160	0.457
-613.273	-200.000	-0.020	0.494
-612.259	-165.854	0.657	-0.029
-611.244	-167.003	-0.608	-0.025
-610.230	50.975	-0.104	-0.100
-609.215	75.180	0.400	-0.426
-608.201	-10.355	-1.047	0.702
-607.186	-200.000	-0.023	-0.275
-606.171	800.000	-0.133	-0.379
-605.157	437.073	-0.354	-0.780
-604.142	-200.000	0.159	-0.820
-603.128	-200.000	0.066	0.645
-602.113	-97.492	-0.622	-0.163
-601.098	-200.000	0.058	-0.713
-600.084	-200.000	-0.018	0.400
-599.069	-127.369	0.580	0.085
-598.055	41.706	-0.417	-0.381
-597.040	602.627	-0.058	-0.146
-596.025	-200.000	0.006	-0.486
-595.011	219.012	-0.261	0.422
-593.996	359.619	-0.310	-0.627
-592.982	162.810	0.306	-0.434
-591.967	132.887	-0.168	0.220
-590.952	-74.129	-0.156	-0.057
-589.938	-200.000	-0.025	-0.250
-588.923	-74.634	0.486	0.177
-587.909	24.087	0.581	0.484
-586.894	633.494	-0.148	0.379
-585.879	3.582	-0.549	0.404
-584.865	436.587	-0.116	0.256
-583.850	109.495	0.208	0.252
-582.836	-200.000	0.075	0.461
-581.821	-200.000	-0.014	0.109
-580.806	171.573	0.306	0.443
-579.792	16.886	-0.576	-0.460
-578.777	-90.451	0.321	0.094
-577.763	-81.010	0.500	0.167
-576.748	-200.000	0.154	-0.900
-575.733	-156.844	0.439	-0.027
-574.719	757.755	-0.264	-0.721
-573.704	-200.000	-0.090	-0.720
-572.690	71.821	0.315	0.331
-571.675	-44.331	0.355	-0.180
-570.661	708.453	-0.085	-0.226
-569.646	390.399	-0.201	-0.420
-568.631	1.736	0.427	-0.310
-567.617	-80.481	-0.464	0.156
-566.602	42.538	-0.304	0.279
-565.588	-200.000	0.007	-0.214
-564.573	-21.019	0.671	0.414
-563.558	-141.770	-0.388	-0.039
-562.544	223.805	-0.439	-0.714
-561.529	314.486	0.167	0.317
-560.515	400.780	-0.225	-0.477
-559.500	-200.000	0.052	0.342
-558.485	248.049	-0.436	-0.744
-557.471	29.231	0.649	0.556
-556.456	59.575	-0.184	-0.183
-555.442	-2.376	-0.269	0.190
-554.427	248.720	-0.448	0.765
-553.412	-22.778	-0.203	0.123
-552.398	-200.000	0.036	-0.557
-551.383	-20.861	0.686	0.424
-550.369	131.741	-0.220	-0.286
-549.354	-200.000	0.010	-0.448
-548.339	-200.000	-0.095	0.497
-547.325	92.723	0.379	-0.432
-546.310	-15.623	0.213	-0.137
-545.296	498.893	0.066	0.154
-544.281	-30.641	-0.249	-0.142
-543.266	-58.595	-0.930	0.407
-542.252	729.905	-0.385	1.037
-541.237	24.085	0.581	0.483
-540.223	535.104	0.256	0.611
-539.208	-106.856	-1.243	-0.278
-538.193	4.222	0.704	-0.520
-537.179	39.408	0.153	-0.138
-536.164	-7.956	0.526	0.357
-535.150	129.240	0.229	0.295
-534.135	-38.337	0.247	0.132
-533.121	-39.755	0.237	0.125
-532.106	200.688	0.363	-0.562
-531.091	51.462	0.412	-0.394
-530.077	68.735	-0.275	0.284
-529.062	117.057	0.485	0.600
-528.048	696.187	0.183	0.485
-527.033	-51.155	-0.235	0.111
-526.018	660.138	-0.024	0.063
-525.004	-43.502	-0.207	-0.105
-523.989	-95.190	-0.185	-0.050
-522.975	143.633	-0.274	-0.368
-521.960	-200.000	-0.101	0.461
-520.945	239.023	-0.024	-0.040
-519.931	288.540	-0.081	0.148
-518.916	107.565	-0.270	0.324
-517.902	-72.772	0.499	0.185
-516.887	-200.000	0.034	0.195
-515.872	113.877	0.365	0.447
-514.858	-171.522	-0.473	0.016
-513.843	33.356	-0.626	-0.547
-512.829	-200.000	0.040	-0.351
-511.814	280.220	-0.268	-0.482
-510.799	800.000	-0.128	0.389
-509.785	479.688	-0.141	-0.323
-508.770	112.348	-0.245	0.298
-507.756	-200.000	0.020	0.341
-506.741	-200.000	0.040	0.329
-505.726	-200.000	0.886	-0.001
-504.712	205.816	-0.270	-0.423
-503.697	57.627	0.747	-0.735
-502.683	-110.233	1.064	0.223
-501.668	-104.903	-0.698	0.161
-500.653	-0.473	-0.732	-0.523
-499.639	800.000	0.195	0.563
-498.624	-200.000	-0.040	0.498
-497.610	-149.621	-0.717	0.057
-496.595	8.808	0.747	0.567
-495.581	-200.000	-0.031	-0.147
-494.566	-101.966	0.673	-0.164
-493.551	-128.296	-0.545	0.078
-492.537	15.637	-0.230	-0.182
-491.522	-27.026	0.849	0.498
-490.508	264.357	-0.186	0.326
-489.493	361.708	-0.166	0.334
-488.478	-200.000	-0.071	-0.482
-487.464	246.002	0.499	-0.846
-486.449	-200.000	0.056	-0.848
-485.435	61.423	0.486	-0.486
-484.420	382.004	-0.116	-0.241
-483.405	-144.650	0.746	-0.069
-482.391	182.930	0.417	-0.619
-481.376	-200.000	-0.082	0.367
-480.362	-90.379	0.159	0.046
-479.347	-148.936	1.083	-0.088
-478.332	242.712	0.152	0.256
-477.318	-44.042	0.502	-0.254
-476.303	182.115	-0.348	0.515
-475.289	237.875	0.331	-0.552
-474.274	-200.000	-0.009	0.146
-473.259	688.563	-0.216	0.568
-472.245	-136.557	0.231	-0.027
-471.230	-126.289	-0.922	0.138
-470.216	-123.988	-0.347	-0.055
-469.201	-141.553	-0.619	0.063
-468.186	-67.443	0.359	0.142
-467.172	624.961	0.043	0.110
-466.157	-200.000	0.028	-0.518
-465.143	-152.717	-1.001	-0.072
-464.128	223.650	-0.109	-0.176
-463.113	32.323	0.523	-0.454
-462.099	116.444	0.587	0.724
-461.084	800.000	0.044	-0.122
-460.070	512.515	0.055	0.129
-459.055	-200.000	0.048	0.584
-458.040	3.457	-0.092	0.067
-457.026	-70.304	0.629	0.240
-456.011	-80.185	-0.402	0.135
-454.997	800.000	-0.087	-0.280
-453.982	800.000	0.211	-0.642
-452.968	18.617	0.567	0.456
-451.953	187.037	-0.455	0.681
-450.938	12.507	-0.360	0.279
-449.924	19.395	0.248	-0.200
-448.909	40.210	0.194	0.175
-447.895	-94.598	0.700	-0.191
-446.880	800.000	0.062	-0.256
-445.865	-127.064	-0.791	0.116
-444.851	149.852	0.094	-0.128
-443.836	800.000	-0.242	0.892
-442.822	251.822	-0.412	-0.704
-441.807	35.117	0.141	-0.124
-440.792	-200.000	-0.087	-0.496
-439.778	-156.650	-0.457	-0.028
-438.763	800.000	-0.087	0.321
-437.749	-142.630	0.908	0.089
-436.734	-60.660	0.317	0.135
-435.719	246.939	-0.182	-0.309
-434.705	-187.839	0.372	-0.005
-433.690	-86.549	0.559	-0.172
-432.676	89.413	-0.554	-0.620
-431.661	66.187	-0.353	-0.359
-430.646	343.439	-0.154	0.302
-429.632	-200.000	-0.022	-0.695
-428.617	800.000	-0.050	-0.158
-427.603	-116.596	-0.733	0.135
-426.588	122.221	0.316	-0.397
-425.573	-55.016	0.742	0.336
-424.559	-124.459	0.456	0.071
-423.544	-61.308	0.268	0.113
-422.530	-63.913	-0.068	0.028
-421.515	-44.284	-0.369	0.185
-420.500	-26.570	0.219	0.129
-419.486	374.266	0.248	-0.506
-418.471	-91.743	-0.267	0.076
-417.457	87.784	0.035	-0.039
-416.442	-170.960	-0.351	-0.012
-415.428	-117.500	0.469	-0.085
-414.413	-200.000	-0.019	-0.813
-413.398	-59.850	-0.768	-0.330
-412.384	290.506	0.307	-0.560
-411.369	-42.617	0.444	-0.227
-410.355	-2.980	0.484	0.339
-409.340	-200.000	-0.086	0.763
-408.325	-200.000	0.042	-0.282
-407.311	60.951	0.168	-0.167
-406.296	21.879	-0.410	-0.335
-405.282	-200.000	-0.150	0.849
-404.267	179.960	0.558	-0.820
-403.252	58.174	0.439	-0.431
-402.238	559.397	0.302	0.730
-401.223	24.771	-0.346	0.287
-400.209	168.432	0.075	0.108
-399.194	-126.969	0.690	0.102
-398.179	-136.724	-0.571	-0.066
-397.165	-155.425	0.858	-0.056
-396.150	0.455	-0.723	0.518
-395.136	-16.698	0.630	0.400
-394.121	708.558	-0.181	-0.479
-393.106	-156.245	-0.669	-0.042
-392.092	-34.449	-0.363	-0.200
-391.077	126.501	0.101	0.129
-390.063	-200.000	-0.160	0.862
-389.048	-83.544	0.591	0.189
-388.033	604.650	-0.063	0.158
-387.019	-26.781	-0.546	0.320
-386.004	-72.776	-0.878	-0.324
-384.990	-37.178	-0.198	0.106
-383.975	-44.010	-0.478	-0.241
-382.960	-80.127	0.782	-0.263
-381.946	-18.282	-0.261	0.163
-380.931	91.419	-0.333	0.374
-379.917	-200.000	-0.005	-0.539
-378.902	198.860	0.245	-0.376
-377.888	126.126	-0.121	-0.153
-376.873	-144.641	0.337	-0.031
-375.858	-106.952	0.399	0.088
-374.844	-142.129	0.560	0.056
-373.829	25.339	0.572	0.476
-372.815	122.102	-0.174	-0.217
-371.800	-2.532	-0.403	0.283
-370.785	333.310	-0.068	-0.132
-369.771	-200.000	-0.049	0.659
-368.756	-200.000	-0.159	-0.785
-367.742	-48.406	-0.896	-0.432
-366.727	393.280	-0.366	-0.763
-365.712	224.302	-0.042	0.067
-364.698	-41.043	-0.449	-0.232
-363.683	800.000	0.094	0.361
-362.669	379.730	-0.135	0.277
-361.654	-51.823	-0.072	-0.033
-360.639	-71.555	0.856	-0.320
-359.625	38.934	-0.207	-0.185
-358.610	155.108	-0.461	0.635
-357.596	-140.696	0.457	0.047
-356.581	37.047	0.458	0.406
-355.566	-200.000	-0.046	-0.386
-354.552	2.682	-0.046	0.034
-353.537	36.651	-0.516	0.456
-352.523	-16.892	-0.796	0.503
-351.508	77.313	-0.260	-0.277
-350.493	338.904	-0.091	0.177
-349.479	11.109	0.406	-0.311
-348.464	515.201	0.044	-0.103
-347.450	800.000	0.114	0.421
-346.435	-54.584	-0.375	0.170
-345.420	134.833	0.401	0.521
-344.406	-12.306	-0.685	-0.448
-343.391	800.000	-0.203	-0.804
-342.377	-113.398	-0.793	0.156
-341.362	-156.294	-0.092	-0.006
-340.348	-102.698	0.491	-0.117
-339.333	590.206	-0.062	-0.154
-338.318	-200.000	0.078	-0.549
-337.304	69.401	0.281	0.290
-336.289	-33.204	0.315	-0.175
-335.275	-136.184	0.814	-0.095
-334.260	42.740	-0.680	0.619
-333.245	720.713	-0.181	-0.483
-332.231	-0.013	0.271	0.193
-331.216	-39.005	0.258	-0.136
-330.202	-200.000	0.053	-0.619
-329.187	-34.167	0.489	0.269
-328.172	-168.323	-0.538	0.021
-327.158	772.499	0.265	-0.724
-326.143	-165.583	0.710	0.031
-325.129	157.199	-0.350	-0.484
-324.114	-137.346	-0.424	-0.048
-323.099	404.986	0.258	-0.544
-322.085	-200.000	-0.056	0.689
-321.070	-28.332	0.594	-0.343
-320.056	294.110	0.239	-0.437
-319.041	-19.794	-0.195	0.120
-318.026	-161.026	-0.535	0.028
-317.012	-12.943	0.719	-0.468
-315.997	39.129	-0.168	-0.150
-314.983	-52.495	-0.500	0.231
-313.968	152.561	0.175	-0.239
-312.953	458.542	-0.110	0.244
-311.939	-178.338	-0.554	0.013
-310.924	-121.209	0.156	-0.026
-309.910	455.622	-0.314	-0.696
-308.895	137.250	0.111	0.145
-307.880	498.893	0.233	0.537
-306.866	-200.000	0.040	0.268
-305.851	-113.643	-0.491	0.096
-304.837	-200.000	-0.004	-0.101
-303.822	-131.048	0.731	-0.097
-302.807	-82.668	-0.565	0.183
-301.793	-6.446	-0.294	0.200
-300.778	-51.123	0.365	0.171
-299.764	168.030	0.196	0.279
-298.749	-200.000	0.084	0.464
-297.735	144.254	0.877	1.169
-296.720	-200.000	0.125	0.920
-295.705	-200.000	0.124	-0.834
-294.691	-16.849	-0.304	-0.192
-293.676	-200.000	0.032	-0.501
-292.662	800.000	0.237	0.795
-291.647	-139.539	0.805	-0.086
-290.632	382.568	0.241	-0.494
-289.618	800.000	0.010	0.035
-288.603	-200.000	0.050	-0.251
-287.589	-92.030	0.922	-0.260
-286.574	28.014	0.452	-0.380
-285.559	302.491	-0.301	-0.556
-284.545	11.754	-0.067	-0.051
-283.530	-200.000	-0.062	0.737
-282.516	-137.607	-1.172	-0.132
-281.501	-63.258	0.538	-0.221
-280.486	-200.000	-0.011	0.434
-279.472	800.000	-0.102	0.328
-278.457	-60.470	-0.050	0.021
-277.443	-72.005	0.221	-0.082
-276.428	48.265	-0.434	-0.405
-275.413	800.000	-0.053	-0.216
-274.399	575.014	-0.273	0.666
-273.384	56.553	-0.210	0.204
-272.370	649.563	0.488	1.247
-271.355	-112.451	-0.499	-0.100
-270.340	373.683	-0.286	-0.580
-269.326	13.194	0.801	0.619
-268.311	-17.850	0.443	0.277
-267.297	181.845	-0.218	0.320
-266.282	-23.890	0.074	0.044
-265.267	-200.000	-0.028	-0.227
-264.253	394.062	-0.151	-0.314
-263.238	-200.000	-0.024	-0.304
-262.224	800.000	-0.199	0.824
-261.209	62.391	-0.507	-0.505
-260.195	322.444	-0.320	-0.608
-259.180	17.989	-0.571	-0.454
-258.165	-200.000	-0.003	-0.277
-257.151	-200.000	-0.014	0.288
-256.136	-156.630	0.549	-0.034
-255.122	9.285	0.507	-0.382
-254.107	429.067	-0.359	0.775
-253.092	-66.378	-0.258	0.102
-252.078	-53.553	0.366	0.167
-251.063	-200.000	-0.081	0.863
-250.049	139.424	-0.448	-0.587
-249.034	-59.319	0.471	-0.202
-248.019	769.998	0.045	0.122
-247.005	785.940	-0.314	0.858
-245.990	800.000	0.146	-0.434
-244.976	428.151	-0.251	0.541
-243.961	-53.553	-0.386	0.176
-242.946	798.727	-0.120	-0.329
-241.932	-113.764	0.625	0.121
-240.917	800.000	-0.105	-0.327
-239.903	800.000	0.131	0.412
-238.888	-27.173	-0.362	-0.210
-237.873	-154.820	-0.702	-0.046
-236.859	-80.961	0.189	0.062
-235.844	141.252	-0.785	-1.035
-234.830	-49.816	0.736	-0.348
-233.815	800.000	0.118	-0.503
-232.800	47.207	-0.207	-0.192
-231.786	800.000	0.078	0.312
-230.771	-34.139	0.683	0.374
-229.757	27.716	0.447	0.375
-228.742	-11.296	0.497	0.326
-227.727	-188.321	-0.913	0.011
-226.713	-150.625	-0.673	0.051
-225.698	800.000	-0.213	0.849
-224.684	-25.951	-0.639	-0.374
-223.669	-21.771	-0.373	-0.226
-222.655	-88.866	0.753	-0.222
-221.640	233.282	0.247	0.405
-220.625	-193.777	-0.268	0.002
-219.611	-200.000	-0.070	-0.319
-218.596	12.715	-0.653	-0.502
-217.582	74.042	-0.387	-0.404
-216.567	-60.758	-0.076	-0.032
-215.552	-200.000	-0.042	0.730
-214.538	-110.598	-0.339	0.070
-213.523	800.000	0.129	-0.487
-212.509	227.381	-0.461	-0.746
-211.494	128.567	-0.351	0.446
-210.479	-200.000	0.015	0.106
-209.465	-20.409	-0.465	0.285
-208.450	-49.723	-0.819	-0.387
-207.436	51.019	-0.394	0.372
-206.421	172.476	-0.217	-0.311
-205.406	460.013	0.145	-0.322
-204.392	-130.490	1.177	0.158
-203.377	-79.020	0.288	0.097
-202.363	-50.822	0.896	-0.419
-201.348	54.306	0.290	-0.277
-200.333	-55.695	-0.082	0.037
-199.319	-200.000	0.006	-0.089
-198.304	-200.000	-0.225	1.120
-197.290	90.682	0.241	0.268
-196.275	638.461	-0.148	0.375
-195.260	-15.279	-0.262	0.167
-194.246	-200.000	-0.178	0.909
-193.231	237.228	0.082	0.135
-192.217	449.890	-0.186	-0.408
-191.202	-191.692	0.698	-0.007
-190.187	61.490	-0.532	-0.526
-189.173	-200.000	0.194	1.206
-188.158	800.000	0.038	0.110
-187.144	-200.000	-0.006	0.492
-186.129	-122.341	0.567	0.092
-185.114	-61.540	0.084	-0.035
-184.100	-177.279	-0.514	-0.013
-183.085	155.967	0.456	-0.625
-182.071	104.799	-0.486	0.570
-181.056	800.000	-0.349	0.965
-180.042	-200.000	0.125	0.905
-179.027	-58.569	0.785	-0.338
-178.012	-200.000	0.124	-1.230
-176.998	65.644	-0.261	0.263
-175.983	41.743	0.133	0.120
-174.969	104.223	-0.322	-0.377
-173.954	44.989	-0.364	-0.333
-172.939	-18.516	0.298	0.185
-171.925	-138.953	-0.360	0.039
-170.910	-200.000	0.032	0.740
-169.896	-100.238	-0.071	0.017
-168.881	800.000	-0.250	0.699
-167.866	43.484	0.497	0.452
-166.852	179.964	-0.285	-0.415
-165.837	-200.000	-0.016	0.143
-164.823	221.715	-0.159	0.254
-163.808	800.000	0.092	0.373
-162.793	800.000	0.029	-0.097
-161.779	800.000	-0.197	0.825
-160.764	-104.776	0.602	-0.137
-159.750	-67.316	0.687	-0.268
-158.735	-200.000	-0.068	-0.580
-157.720	97.352	-0.626	-0.714
-156.706	-45.547	0.893	0.439
-155.691	800.000	-0.464	1.322
-154.677	-29.025	0.278	-0.159
-153.662	131.388	0.234	0.299
-152.647	800.000	0.217	0.625
-151.633	-10.390	-0.513	0.338
-150.618	-93.973	0.405	0.111
-149.604	-77.696	0.327	0.112
-148.589	-200.000	0.039	0.355
-147.574	-129.854	0.309	0.042
-146.560	-200.000	0.009	0.068
-145.545	-200.000	-0.098	-0.807
-144.531	41.775	-0.422	0.380
-143.516	-40.508	0.955	0.492
-142.502	-70.165	-0.226	0.085
-141.487	-196.864	-0.850	-0.006
-140.472	2.027	0.042	-0.030
-139.458	800.000	0.035	-0.129
-138.443	-23.865	-0.421	-0.250
-137.429	800.000	-0.016	-0.048
-136.414	-200.000	-0.048	0.358
-135.399	-87.672	0.356	-0.107
-134.385	-200.000	0.053	0.570
-133.370	337.068	-0.125	-0.241
-132.356	295.431	-0.398	-0.723
-131.341	800.000	-0.091	-0.265
-130.326	346.262	0.260	-0.508
-129.312	-143.066	0.542	-0.052
-128.297	21.341	0.235	0.189
-127.283	56.083	0.577	-0.555
-126.268	-121.438	0.179	-0.030
-125.253	-121.535	1.010	0.166
-124.239	-15.567	-0.511	0.324
-123.224	648.245	-0.063	-0.159
-122.210	319.388	-0.144	0.272
