DTS Sentinel unit serial number:	SN413079Multiplexer serial number:	ORYXHardware model number:	OX4-SRSoftware version number:	ORYX F/W v4.00 Oryx Data Collector v3.7.2.0data status	okinstallation	princeton_trtdifferential loss correction	single-endedforward channel	channel 4reverse channel	N/Adate	2019/09/13time	20:53:34forward acquisition time	60.00reverse acquisition time	0.00gamma	496.2192k internal	0.2319k external	0.2319temperature offset calibration	1.0125default loss term (dB/km)	0.3790temperature slope calibration	1.0000multiplexer offset coefficient	1.0000multiplexer slope coefficient	1.0000fibre end	0.00T internal ref (°C)	28.75T ext. ref 1 (°C)	3.06T ext. ref 2 (°C)	23.30length (m)	temperature (°C)	Stokes	anti-Stokes-747.200	-51.555	0.169	0.080
-746.185	64.374	-0.284	-0.290
-745.171	97.805	0.302	-0.351
-744.156	800.000	0.076	-0.222
-743.142	-62.812	0.093	-0.039
-742.127	-110.211	-0.403	-0.085
-741.112	800.000	0.020	-0.061
-740.098	-96.555	-0.357	-0.095
-739.083	-61.712	-0.177	0.075
-738.069	341.009	0.016	-0.031
-737.054	-26.963	-0.208	0.123
-736.039	-69.499	-0.377	-0.146
-735.025	-128.217	0.494	-0.071
-734.010	800.000	0.070	-0.276
-732.996	-200.000	0.008	0.139
-731.981	797.799	-0.078	-0.218
-730.966	620.783	-0.069	-0.176
-729.952	-183.693	0.053	0.001
-728.937	366.555	-0.185	-0.377
-727.923	800.000	0.050	-0.145
-726.908	237.393	-0.122	-0.205
-725.894	800.000	-0.011	-0.033
-724.879	-92.396	-0.160	0.046
-723.864	225.626	-0.138	-0.226
-722.850	108.582	0.012	-0.015
-721.835	8.433	0.193	-0.147
-720.821	-70.772	0.489	0.187
-719.806	525.384	-0.136	-0.324
-718.791	280.034	0.019	-0.034
-717.777	-200.000	-0.030	-0.162
-716.762	129.532	-0.195	0.252
-715.748	-150.546	-0.433	0.034
-714.733	517.764	0.051	0.120
-713.718	110.301	-0.195	-0.237
-712.704	-26.170	-0.199	-0.118
-711.689	43.242	-0.220	0.203
-710.675	323.311	-0.187	-0.361
-709.660	-85.341	-0.109	-0.034
-708.645	-168.099	0.372	-0.015
-707.631	200.649	-0.077	-0.119
-706.616	-200.000	-0.007	0.111
-705.602	-29.308	-0.075	-0.043
-704.587	64.217	-0.066	-0.067
-703.572	800.000	-0.124	0.363
-702.558	-28.825	0.124	-0.072
-701.543	44.531	-0.254	-0.236
-700.529	34.046	-0.288	0.254
-699.514	800.000	-0.092	0.278
-698.499	-200.000	0.021	0.095
-697.485	-200.000	0.013	-0.229
-696.470	174.392	0.042	0.061
-695.456	-23.179	0.230	0.140
-694.441	-57.892	-0.239	-0.106
-693.426	-48.675	0.134	-0.065
-692.412	800.000	0.043	0.168
-691.397	-114.472	-0.138	0.027
-690.383	800.000	0.053	-0.226
-689.368	11.643	-0.127	0.098
-688.354	47.755	0.039	-0.036
-687.339	800.000	0.053	-0.229
-686.324	-200.000	-0.010	-0.487
-685.310	800.000	0.087	0.284
-684.295	-168.681	0.057	-0.002
-683.281	-98.429	-0.282	0.073
-682.266	614.970	-0.164	-0.415
-681.251	-29.417	-0.370	-0.214
-680.237	-9.893	0.121	0.081
-679.222	-119.725	0.364	0.063
-678.208	-139.059	0.386	0.042
-677.193	-129.576	0.251	-0.035
-676.178	336.396	-0.064	-0.125
-675.164	115.141	-0.208	-0.256
-674.149	800.000	-0.107	-0.399
-673.135	624.991	-0.086	-0.220
-672.120	101.253	0.251	-0.294
-671.105	-200.000	-0.065	0.329
-670.091	15.368	-0.162	-0.129
-669.076	-81.033	-0.192	0.064
-668.062	17.118	0.137	0.110
-667.047	-111.180	0.139	0.029
-666.032	127.746	0.109	-0.140
-665.018	73.405	0.178	0.187
-664.003	-200.000	-0.030	-0.134
-662.989	4.645	-0.195	0.144
-661.974	-191.480	-0.034	0.000
-660.959	273.228	-0.082	0.146
-659.945	800.000	-0.041	0.173
-658.930	220.818	-0.106	-0.172
-657.916	1.091	-0.122	-0.089
-656.901	800.000	0.085	0.333
-655.886	-126.855	-0.077	0.011
-654.872	-57.321	-0.133	-0.059
-653.857	800.000	-0.057	0.197
-652.843	-91.755	0.352	-0.101
-651.828	-31.796	-0.131	0.074
-650.814	-200.000	0.020	-0.265
-649.799	481.121	-0.075	-0.171
-648.784	-63.353	0.173	0.072
-647.770	-200.000	0.003	-0.353
-646.755	779.286	-0.118	-0.326
-645.741	200.722	-0.146	-0.226
-644.726	40.635	-0.115	-0.105
-643.711	-200.000	0.016	0.217
-642.697	-72.328	0.335	-0.125
-641.682	-68.073	0.268	-0.105
-640.668	800.000	-0.050	-0.215
-639.653	60.263	-0.084	0.083
-638.638	43.092	-0.088	0.081
-637.624	800.000	-0.054	0.186
-636.609	-200.000	0.024	-0.208
-635.595	-200.000	0.035	0.179
-634.580	800.000	0.025	-0.069
-633.565	583.902	-0.042	-0.103
-632.551	431.398	0.041	0.090
-631.536	-87.857	0.227	-0.069
-630.522	-29.354	0.339	0.195
-629.507	-31.879	-0.196	-0.111
-628.492	-200.000	0.054	-0.286
-627.478	172.585	-0.236	-0.343
-626.463	72.101	0.089	-0.094
-625.449	169.180	-0.104	0.149
-624.434	-200.000	0.045	0.242
-623.419	-148.101	0.482	0.040
-622.405	80.095	0.099	0.108
-621.390	-42.621	-0.131	-0.067
-620.376	-200.000	0.064	0.303
-619.361	-1.264	-0.137	0.098
-618.346	800.000	0.016	-0.058
-617.332	13.767	-0.063	-0.049
-616.317	800.000	-0.103	0.288
-615.303	-20.246	0.136	0.084
-614.288	622.355	-0.183	0.465
-613.273	-90.811	-0.413	-0.120
-612.259	-200.000	-0.016	0.218
-611.244	-94.647	0.286	-0.078
-610.230	800.000	0.096	-0.377
-609.215	-200.000	0.018	-0.179
-608.201	-43.608	0.127	-0.064
-607.186	259.826	-0.060	-0.105
-606.171	94.248	0.061	-0.069
-605.157	800.000	0.133	-0.434
-604.142	-200.000	-0.035	-0.279
-603.128	76.103	0.151	-0.161
-602.113	126.378	0.226	0.287
-601.098	358.123	0.110	-0.221
-600.084	47.571	0.032	0.030
-599.069	24.100	-0.224	0.186
-598.055	800.000	-0.017	0.067
-597.040	-2.328	-0.203	-0.143
-596.025	-169.164	0.389	-0.014
-595.011	-185.791	-0.263	-0.004
-593.996	268.705	-0.020	-0.035
-592.982	-200.000	0.019	-0.238
-591.967	-110.755	0.140	-0.029
-590.952	-128.559	-0.171	-0.024
-589.938	-163.297	0.158	0.008
-588.923	-200.000	-0.020	-0.281
-587.909	-12.671	-0.197	-0.129
-586.894	-33.007	0.170	-0.095
-585.879	103.755	0.206	-0.243
-584.865	444.332	-0.160	-0.353
-583.850	135.640	0.066	0.086
-582.836	-181.638	-0.287	-0.006
-581.821	-171.073	0.244	0.008
-580.806	-175.445	-0.175	0.005
-579.792	-63.641	0.329	-0.136
-578.777	270.025	-0.104	-0.184
-577.763	584.734	0.032	0.079
-576.748	-104.214	-0.263	-0.061
-575.733	800.000	-0.034	-0.114
-574.719	800.000	0.030	0.111
-573.704	-55.965	-0.254	-0.114
-572.690	78.270	-0.167	0.179
-571.675	-3.140	-0.243	0.170
-570.661	198.754	-0.119	-0.184
-569.646	219.708	0.122	0.197
-568.631	300.931	-0.052	0.097
-567.617	344.709	0.101	0.199
-566.602	489.376	0.004	0.010
-565.588	-69.360	-0.162	0.062
-564.573	-200.000	0.025	0.197
-563.558	303.239	0.111	0.207
-562.544	626.646	0.072	-0.183
-561.529	70.103	0.203	0.211
-560.515	199.235	0.202	-0.311
-559.500	-200.000	0.022	-0.228
-558.485	-13.904	-0.292	0.189
-557.471	19.959	-0.158	-0.128
-556.456	-200.000	-0.046	-0.206
-555.442	-200.000	0.025	-0.162
-554.427	-124.801	0.100	-0.016
-553.412	-132.392	0.486	-0.063
-552.398	386.989	-0.037	0.078
-551.383	-200.000	0.030	-0.151
-550.369	-200.000	-0.033	-0.183
-549.354	800.000	0.001	-0.004
-548.339	-165.682	-0.139	-0.006
-547.325	488.940	-0.113	-0.258
-546.310	69.984	-0.077	-0.079
-545.296	-139.534	0.043	0.005
-544.281	377.750	0.083	-0.171
-543.266	194.232	-0.076	0.115
-542.252	-200.000	0.030	0.202
-541.237	695.382	-0.038	-0.100
-540.223	-200.000	0.017	-0.116
-539.208	800.000	-0.108	-0.338
-538.193	-72.338	-0.086	0.032
-537.179	25.124	0.174	-0.145
-536.164	-91.889	0.210	0.060
-535.150	-27.873	-0.392	-0.228
-534.135	321.065	0.024	0.046
-533.121	-60.617	-0.301	-0.128
-532.106	-92.396	-0.058	0.017
-531.091	24.855	0.224	0.186
-530.077	-200.000	-0.049	0.305
-529.062	-75.153	0.148	-0.053
-528.048	56.644	-0.130	0.127
-527.033	156.998	0.102	-0.141
-526.018	-56.374	-0.231	-0.103
-525.004	270.723	-0.070	0.123
-523.989	-91.150	-0.159	-0.046
-522.975	-81.292	-0.196	-0.065
-521.960	0.353	-0.238	-0.170
-520.945	-26.094	0.203	-0.119
-519.931	124.635	0.205	0.258
-518.916	-29.777	-0.180	0.103
-517.902	149.404	-0.191	0.259
-516.887	-22.222	-0.195	0.118
-515.872	-180.698	0.255	0.005
-514.858	800.000	-0.158	0.553
-513.843	-200.000	-0.038	0.223
-512.829	-200.000	0.011	-0.262
-511.814	800.000	0.127	0.412
-510.799	-93.627	0.395	0.109
-509.785	43.714	0.224	-0.206
-508.770	91.245	-0.076	-0.086
-507.756	800.000	0.064	-0.250
-506.741	-144.984	0.159	-0.014
-505.726	-200.000	-0.018	0.155
-504.712	58.643	-0.188	0.185
-503.697	-15.590	-0.385	0.246
-502.683	-25.995	0.109	-0.064
-501.668	431.229	-0.131	-0.285
-500.653	177.216	0.267	-0.390
-499.639	-73.372	-0.132	0.048
-498.624	189.487	0.019	-0.029
-497.610	-109.900	-0.445	-0.093
-496.595	-200.000	0.037	-0.290
-495.581	-137.250	-0.122	-0.014
-494.566	356.485	0.226	0.450
-493.551	-31.210	-0.289	0.163
-492.537	71.281	-0.166	0.173
-491.522	-48.680	0.056	0.027
-490.508	72.040	-0.206	0.215
-489.493	38.668	0.219	-0.196
-488.478	35.472	-0.107	-0.094
-487.464	703.060	0.049	0.130
-486.449	-104.593	-0.108	-0.025
-485.435	800.000	0.032	0.134
-484.420	574.863	-0.029	0.071
-483.405	338.202	-0.097	-0.190
-482.391	78.032	0.085	-0.091
-481.376	-128.559	0.163	-0.023
-480.362	82.262	-0.151	-0.164
-479.347	-200.000	-0.053	-0.286
-478.332	-190.172	0.136	0.002
-477.318	312.818	0.036	-0.067
-476.303	56.395	-0.116	0.113
-475.289	-5.129	-0.230	0.158
-474.274	167.028	-0.075	-0.106
-473.259	-34.138	-0.171	-0.094
-472.245	-72.881	0.037	0.014
-471.230	-36.802	0.117	0.063
-470.216	-77.086	-0.243	-0.085
-469.201	729.976	-0.123	0.329
-468.186	800.000	-0.010	0.039
-467.172	-70.256	-0.225	0.086
-466.157	311.529	-0.090	0.170
-465.143	-107.336	0.187	-0.041
-464.128	133.630	0.181	-0.235
-463.113	-11.088	-0.189	0.125
-462.099	113.059	-0.133	-0.162
-461.084	-179.690	-0.449	-0.010
-460.070	-47.246	0.213	0.104
-459.055	-72.411	-0.247	0.092
-458.040	800.000	0.053	0.231
-457.026	-17.754	0.288	-0.181
-456.011	-14.835	-0.284	0.182
-454.997	47.338	-0.008	-0.007
-453.982	16.015	-0.115	-0.091
-452.968	-174.024	-0.183	0.005
-451.953	-200.000	-0.013	0.059
-450.938	103.966	-0.125	-0.146
-449.924	800.000	0.026	-0.106
-448.909	-171.786	-0.211	-0.007
-447.895	1.930	-0.390	-0.281
-446.880	131.732	0.132	0.170
-445.865	-129.015	0.260	-0.036
-444.851	-200.000	-0.047	-0.421
-443.836	320.436	-0.150	0.285
-442.822	-51.368	-0.045	0.021
-441.807	-200.000	-0.006	-0.237
-440.792	127.780	-0.042	-0.054
-439.778	800.000	-0.067	-0.240
-438.763	29.591	-0.179	0.152
-437.749	-31.614	0.325	-0.182
-436.734	58.469	-0.313	-0.307
-435.719	272.107	-0.230	0.406
-434.705	-200.000	-0.001	0.192
-433.690	-200.000	-0.026	0.153
-432.676	-200.000	-0.047	-0.413
-431.661	358.564	-0.145	-0.289
-430.646	-59.050	0.239	-0.103
-429.632	-200.000	0.015	-0.231
-428.617	98.685	-0.145	0.167
-427.603	20.256	-0.109	-0.088
-426.588	-142.550	-0.052	0.005
-425.573	89.109	-0.349	0.388
-424.559	30.370	-0.100	0.085
-423.544	800.000	0.052	0.150
-422.530	-16.294	0.329	0.208
-421.515	368.716	-0.104	-0.210
-420.500	-117.967	-0.324	0.058
-419.486	-21.898	-0.135	-0.082
-418.471	-127.390	-0.190	0.028
-417.457	-11.254	0.394	-0.259
-416.442	-200.000	-0.020	0.213
-415.428	361.253	-0.058	0.115
-414.413	-121.125	0.211	-0.035
-413.398	-57.325	-0.277	-0.122
-412.384	-177.226	0.154	-0.004
-411.369	-142.165	0.286	0.028
-410.355	-127.133	0.172	0.025
-409.340	23.940	-0.174	0.143
-408.325	-110.555	0.253	0.052
-407.311	55.467	0.136	-0.131
-406.296	166.334	-0.258	-0.365
-405.282	196.237	0.103	-0.157
-404.267	-132.253	-0.168	0.022
-403.252	-200.000	0.071	0.419
-402.238	-86.467	-0.231	0.071
-401.223	129.549	-0.089	-0.113
-400.209	-200.000	-0.062	0.290
-399.194	131.023	0.014	0.019
-398.179	-49.258	0.360	0.171
-397.165	173.208	-0.154	-0.221
-396.150	-176.029	-0.150	-0.004
-395.136	-49.079	-0.035	-0.017
-394.121	85.041	0.049	-0.053
-393.106	65.868	0.078	-0.079
-392.092	-200.000	-0.003	0.154
-391.077	140.553	-0.266	-0.351
-390.063	-27.093	0.086	0.050
-389.048	-200.000	-0.037	-0.217
-388.033	102.841	0.054	-0.063
-387.019	206.709	0.086	-0.133
-386.004	-140.905	0.221	-0.023
-384.990	800.000	-0.047	-0.142
-383.975	29.813	-0.204	-0.173
-382.960	354.743	0.074	-0.147
-381.946	800.000	0.042	0.116
-380.931	-163.518	-0.172	-0.008
-379.917	-33.124	-0.131	0.072
-378.902	-96.867	-0.050	-0.013
-377.888	-149.044	-0.052	0.004
-376.873	-82.923	0.010	-0.003
-375.858	-23.402	0.127	-0.076
-374.844	225.203	0.187	0.302
-373.829	-101.919	0.193	0.046
-372.815	-200.000	-0.391	-0.002
-371.800	-59.081	0.256	0.110
-370.785	-140.297	-0.347	-0.036
-369.771	-100.552	-0.155	0.038
-368.756	112.497	0.197	-0.238
-367.742	60.858	0.092	-0.091
-366.727	-61.296	0.098	0.041
-365.712	-89.286	-0.087	-0.025
-364.698	-20.621	0.211	-0.129
-363.683	46.140	0.139	-0.128
-362.669	800.000	0.117	-0.365
-361.654	288.297	-0.084	-0.151
-360.639	-53.378	-0.114	0.052
-359.625	-21.345	0.116	0.071
-358.610	800.000	0.096	0.393
-357.596	-83.732	0.096	0.030
-356.581	62.237	0.178	-0.177
-355.566	-200.000	-0.082	0.368
-354.552	26.480	-0.170	0.142
-353.537	-78.300	-0.358	0.122
-352.523	-95.961	0.251	-0.067
-351.508	-137.775	-0.184	0.021
-350.493	465.359	-0.063	-0.140
-349.479	81.507	-0.350	0.377
-348.464	-99.695	0.144	0.036
-347.450	407.288	0.155	0.327
-346.435	-63.866	0.175	0.071
-345.420	-122.770	-0.119	0.019
-344.406	800.000	0.062	-0.213
-343.391	-200.000	0.059	-0.264
-342.377	-200.000	0.025	0.287
-341.362	35.505	0.105	0.092
-340.348	-168.514	0.112	-0.004
-339.333	-73.684	0.290	0.105
-338.318	44.355	0.227	0.208
-337.304	-9.116	-0.124	-0.082
-336.289	187.956	0.120	0.178
-335.275	-119.985	0.313	-0.053
-334.260	-26.659	-0.213	-0.124
-333.245	82.307	-0.184	-0.199
-332.231	-135.066	-0.233	-0.028
-331.216	-200.000	0.005	-0.136
-330.202	-54.165	-0.345	0.156
-329.187	-111.445	-0.113	0.023
-328.172	-14.681	-0.310	0.199
-327.158	146.016	0.128	0.171
-326.143	347.016	0.205	-0.402
-325.129	-200.000	0.019	-0.117
-324.114	474.859	0.148	-0.333
-323.099	-125.963	-0.154	0.023
-322.085	198.849	-0.086	0.131
-321.070	68.275	-0.258	-0.263
-320.056	-0.165	-0.074	0.052
-319.041	-200.000	0.081	-0.372
-318.026	-142.987	0.317	-0.031
-317.012	247.249	-0.059	-0.099
-315.997	-36.939	0.160	-0.085
-314.983	-200.000	0.126	-0.000
-313.968	-36.472	0.083	-0.045
-312.953	800.000	0.081	-0.237
-311.939	-100.559	-0.089	-0.022
-310.924	-121.186	0.336	-0.056
-309.910	541.381	0.112	0.266
-308.895	170.235	-0.157	0.223
-307.880	-140.953	0.405	-0.041
-306.866	-69.308	0.059	-0.023
-305.851	-197.245	-0.325	-0.002
-304.837	178.784	-0.127	0.184
-303.822	-72.503	0.451	-0.166
-302.807	-200.000	0.016	-0.194
-301.793	-200.000	0.014	0.333
-300.778	81.778	-0.080	0.086
-299.764	547.196	-0.070	-0.166
-298.749	268.223	-0.204	-0.356
-297.735	-2.300	0.310	0.216
-296.720	138.506	-0.118	0.154
-295.705	800.000	-0.020	0.057
-294.691	-200.000	-0.021	0.153
-293.676	41.850	0.122	0.110
-292.662	13.582	0.123	-0.095
-291.647	61.137	-0.017	-0.016
-290.632	68.260	-0.265	0.270
-289.618	111.014	0.239	0.286
-288.603	-87.116	0.277	-0.084
-287.589	-32.615	0.340	0.188
-286.574	-42.205	0.150	0.076
-285.559	-183.256	0.112	0.002
-284.545	493.367	-0.125	-0.284
-283.530	-106.068	-0.273	-0.061
-282.516	800.000	0.010	0.039
-281.501	-65.728	-0.053	0.021
-280.486	-80.599	0.191	0.063
-279.472	103.331	0.088	0.103
-278.457	-200.000	-0.013	0.092
-277.443	-117.697	0.267	0.048
-276.428	-200.000	0.034	-0.321
-275.413	33.994	0.079	-0.068
-274.399	-111.452	0.116	0.023
-273.384	-14.948	-0.181	-0.115
-272.370	-117.030	0.372	-0.067
-271.355	413.164	0.106	0.224
-270.340	36.749	0.126	0.111
-269.326	-151.353	-0.232	-0.017
-268.311	-114.392	0.484	-0.092
-267.297	-200.000	0.208	-0.001
-266.282	117.270	0.127	-0.155
-265.267	-200.000	-0.015	0.198
-264.253	17.985	-0.162	0.129
-263.238	-1.272	-0.188	0.132
-262.224	-68.336	0.137	-0.053
-261.209	800.000	-0.087	0.241
-260.195	-107.184	0.276	-0.060
-259.180	630.939	0.133	0.335
-258.165	-42.761	-0.161	-0.081
-257.151	800.000	0.037	0.112
-256.136	-200.000	0.005	0.129
-255.122	800.000	-0.110	0.304
-254.107	-200.000	0.070	0.311
-253.092	-200.000	-0.050	0.263
-252.078	-200.000	-0.053	-0.432
-251.063	130.263	0.164	0.209
-250.049	29.150	0.088	0.074
-249.034	-38.486	-0.350	-0.183
-248.019	143.797	0.045	0.060
-247.005	800.000	-0.027	-0.077
-245.990	-114.303	0.385	0.074
-244.976	423.368	-0.085	0.181
-243.961	21.188	-0.125	-0.100
-242.946	-89.792	-0.300	0.087
-241.932	-200.000	0.038	0.165
-240.917	201.231	0.040	-0.061
-239.903	-200.000	-0.002	-0.088
-238.888	-151.008	-0.042	0.003
-237.873	-101.143	-0.199	0.048
-236.859	570.884	-0.040	0.096
-235.844	69.024	0.168	0.171
-234.830	214.382	-0.095	-0.149
-233.815	43.995	-0.129	-0.117
-232.800	-200.000	-0.075	-0.506
-231.786	-200.000	0.013	0.125
-230.771	-200.000	-0.067	-0.318
-229.757	800.000	-0.043	0.130
-228.742	57.426	-0.047	0.046
-227.727	-75.158	0.250	-0.089
-226.713	-71.647	-0.207	-0.077
-225.698	256.404	0.044	-0.075
-224.684	800.000	-0.096	0.367
-223.669	-125.301	0.111	-0.017
-222.655	166.278	0.157	-0.221
-221.640	121.160	0.008	0.010
-220.625	106.757	-0.067	-0.079
-219.611	-200.000	0.000	-0.168
-218.596	68.592	0.040	0.041
-217.582	206.074	0.109	0.168
-216.567	26.089	0.174	0.144
-215.552	-200.000	-0.024	0.405
-214.538	67.629	-0.169	0.171
-213.523	800.000	0.038	0.129
-212.509	-162.604	-0.077	0.004
-211.494	48.936	0.026	0.025
-210.479	-109.373	0.238	-0.050
-209.465	-151.337	0.203	0.015
-208.450	-200.000	0.019	-0.131
-207.436	-200.000	0.031	0.170
-206.421	-185.572	0.097	-0.001
-205.406	-200.000	-0.002	0.020
-204.392	-146.384	0.149	-0.013
-203.377	-52.069	-0.124	-0.057
-202.363	621.238	-0.096	-0.239
-201.348	-200.000	-0.032	0.575
-200.333	14.033	0.317	0.244
-199.319	284.124	0.201	0.357
-198.304	-139.792	-0.429	-0.045
-197.290	-166.944	0.323	0.013
-196.275	79.671	0.170	-0.180
-195.260	-15.312	0.125	0.079
-194.246	-92.463	-0.323	0.090
-193.231	19.171	0.125	0.099
-192.217	37.377	-0.142	-0.125
-191.202	-104.868	0.190	-0.043
-190.187	204.512	-0.089	-0.136
-189.173	-179.827	0.339	-0.007
-188.158	133.337	-0.124	0.158
-187.144	-200.000	-0.028	-0.287
-186.129	540.018	-0.122	0.287
-185.114	-200.000	-0.018	0.172
-184.100	-3.467	-0.101	-0.069
-183.085	-60.460	0.124	-0.052
-182.071	-189.260	-0.192	0.002
-181.056	130.616	0.162	0.205
-180.042	-42.732	-0.031	-0.016
-179.027	-78.717	0.267	0.090
-178.012	664.341	-0.076	0.194
-176.998	-103.148	0.202	-0.047
-175.983	-200.000	0.037	-0.236
-174.969	325.908	0.137	-0.260
-173.954	54.224	0.128	0.122
-172.939	800.000	-0.075	0.226
-171.925	-9.447	-0.277	0.183
-170.910	159.108	-0.102	0.140
-169.896	-178.748	-0.314	-0.007
-168.881	21.608	0.155	0.124
-167.866	-101.979	0.195	-0.047
-166.852	-200.000	-0.011	0.106
-165.837	128.960	0.078	0.098
-164.823	-5.142	-0.230	0.156
-163.808	-120.190	-0.409	-0.069
-162.793	120.461	0.342	0.420
-161.779	-200.000	0.013	0.303
-160.764	55.084	0.156	-0.149
-159.750	-167.554	-0.207	0.008
-158.735	-87.647	0.081	0.024
-157.720	-149.082	0.246	-0.020
-156.706	-81.395	0.367	-0.119
-155.691	-175.788	-0.105	-0.003
-154.677	28.933	0.114	-0.095
-153.662	114.608	0.031	-0.038
-152.647	-4.696	-0.140	-0.095
-151.633	36.313	-0.059	0.051
-150.618	800.000	0.076	0.276
-149.604	800.000	-0.041	-0.151
-148.589	800.000	-0.062	-0.177
-147.574	800.000	-0.015	0.066
-146.560	-121.657	0.171	0.028
-145.545	115.946	0.193	-0.233
-144.531	91.126	0.110	-0.122
-143.516	-200.000	-0.027	0.167
-142.502	20.528	0.148	0.118
-141.487	36.574	0.260	0.227
-140.472	-46.106	0.146	-0.071
-139.458	-75.082	0.149	0.053
-138.443	58.845	0.493	0.479
-137.429	-200.000	-0.023	0.130
-136.414	-33.227	0.265	-0.145
-135.399	-96.713	0.453	-0.118
-134.385	155.875	-0.125	-0.171
-133.370	-107.808	0.118	-0.025
-132.356	41.181	0.072	-0.064
-131.341	-200.000	-0.053	-0.285
-130.326	-171.514	-0.182	0.006
-129.312	-160.157	-0.094	-0.005
-128.297	158.903	-0.168	-0.231
-127.283	-200.000	-0.004	-0.142
-126.268	26.196	-0.085	-0.070
-125.253	68.866	-0.048	-0.049
-124.239	-200.000	0.001	-0.368
-123.224	-200.000	0.047	0.302
-122.210	124.996	-0.206	-0.256
