DTS Sentinel unit serial number:	SN413079Multiplexer serial number:	ORYXHardware model number:	OX4-SRSoftware version number:	ORYX F/W v4.00 Oryx Data Collector v3.7.2.0data status	okinstallation	princeton_trtdifferential loss correction	single-endedforward channel	channel 4reverse channel	N/Adate	2019/09/11time	23:03:11forward acquisition time	60.00reverse acquisition time	0.00gamma	496.2192k internal	0.2308k external	0.2308temperature offset calibration	1.0078default loss term (dB/km)	0.3790temperature slope calibration	1.0000multiplexer offset coefficient	1.0000multiplexer slope coefficient	1.0000fibre end	0.00T internal ref (°C)	34.56T ext. ref 1 (°C)	1.83T ext. ref 2 (°C)	29.22length (m)	temperature (°C)	Stokes	anti-Stokes-747.200	800.000	-0.062	0.232
-746.185	162.878	-0.103	-0.147
-745.171	800.000	0.033	0.098
-744.156	559.770	-0.224	0.550
-743.142	-45.080	0.213	-0.108
-742.127	244.397	0.112	-0.191
-741.112	-38.357	0.117	0.063
-740.098	46.138	-0.079	0.075
-739.083	-200.000	-0.012	0.232
-738.069	-67.897	-0.216	-0.086
-737.054	800.000	0.091	0.277
-736.039	800.000	-0.055	0.191
-735.025	800.000	-0.062	0.224
-734.010	800.000	-0.055	0.197
-732.996	-61.983	-0.386	-0.164
-731.981	-200.000	-0.013	-0.206
-730.966	-26.302	-0.338	-0.202
-729.952	219.754	-0.118	-0.193
-728.937	-200.000	-0.031	-0.248
-727.923	-200.000	-0.011	0.173
-726.908	9.393	-0.037	-0.028
-725.894	800.000	0.117	-0.391
-724.879	800.000	-0.047	-0.210
-723.864	389.675	0.183	-0.386
-722.850	-170.548	-0.172	-0.006
-721.835	14.108	0.285	0.225
-720.821	189.456	-0.008	0.012
-719.806	300.120	-0.069	-0.129
-718.791	-49.025	-0.296	-0.144
-717.777	100.955	0.060	0.071
-716.762	800.000	0.013	-0.046
-715.748	-170.354	0.079	0.003
-714.733	309.080	0.178	-0.338
-713.718	-75.070	0.207	0.075
-712.704	396.978	0.109	0.231
-711.689	177.352	-0.082	-0.121
-710.675	-94.055	0.170	0.047
-709.660	800.000	0.092	0.278
-708.645	800.000	0.051	0.180
-707.631	-200.000	-0.070	0.564
-706.616	-31.884	0.142	-0.080
-705.602	-151.940	-0.184	-0.014
-704.587	-200.000	0.000	-0.091
-703.572	-72.421	0.294	-0.110
-702.558	-200.000	-0.027	-0.287
-701.543	-200.000	0.069	-0.421
-700.529	-60.003	0.340	0.147
-699.514	-200.000	-0.054	-0.239
-698.499	-99.503	-0.134	-0.034
-697.485	-179.923	-0.199	0.004
-696.470	800.000	0.014	-0.060
-695.456	228.719	0.079	0.130
-694.441	-200.000	-0.001	-0.265
-693.426	-54.452	-0.321	-0.148
-692.412	-101.609	-0.185	-0.046
-691.397	-200.000	-0.001	-0.170
-690.383	-170.977	-0.407	0.014
-689.368	73.377	0.153	0.163
-688.354	90.352	0.084	0.095
-687.339	-200.000	0.061	-0.000
-686.324	52.958	-0.126	-0.122
-685.310	53.336	-0.083	-0.080
-684.295	-28.225	-0.263	-0.154
-683.281	279.217	0.105	0.190
-682.266	91.040	-0.138	-0.157
-681.251	-18.830	-0.401	-0.253
-680.237	-37.863	-0.022	0.012
-679.222	509.856	-0.110	0.260
-678.208	-31.827	-0.219	-0.124
-677.193	-200.000	-0.030	-0.156
-676.178	393.639	0.109	0.230
-675.164	240.061	0.113	-0.190
-674.149	90.889	0.229	-0.261
-673.135	-148.304	0.279	0.023
-672.120	-64.517	-0.280	0.115
-671.105	287.873	-0.115	0.211
-670.091	141.281	0.274	0.368
-669.076	144.092	0.190	-0.256
-668.062	205.447	-0.084	0.132
-667.047	-38.267	-0.081	-0.043
-666.032	135.052	0.164	0.216
-665.018	166.536	-0.033	-0.048
-664.003	-37.682	-0.111	0.060
-662.989	141.026	0.135	-0.180
-661.974	-104.207	-0.155	-0.036
-660.959	-72.712	-0.304	-0.113
-659.945	-33.166	0.073	-0.041
-658.930	-200.000	0.419	0.001
-657.916	9.654	-0.123	0.095
-656.901	-28.957	-0.044	0.026
-655.886	449.696	-0.112	0.251
-654.872	-200.000	-0.001	-0.101
-653.857	-200.000	-0.030	0.217
-652.843	-200.000	0.038	0.202
-651.828	178.793	0.099	0.147
-650.814	30.990	-0.133	-0.116
-649.799	-120.208	-0.166	0.029
-648.784	800.000	-0.082	0.336
-647.770	27.536	-0.245	0.209
-646.755	-38.864	-0.336	0.179
-645.741	274.199	-0.157	0.282
-644.726	407.360	-0.250	-0.535
-643.711	294.044	-0.107	-0.198
-642.697	43.876	0.048	0.044
-641.682	248.280	-0.049	-0.084
-640.668	-78.371	0.207	-0.072
-639.653	52.844	-0.131	-0.127
-638.638	800.000	0.076	-0.260
-637.624	297.942	0.163	-0.303
-636.609	-3.988	-0.370	-0.260
-635.595	-61.625	0.381	-0.162
-634.580	188.988	-0.097	-0.147
-633.565	-103.009	0.464	0.111
-632.551	-137.602	0.253	-0.029
-631.536	-63.031	-0.327	-0.137
-630.522	-73.380	-0.155	0.057
-629.507	369.061	0.067	-0.137
-628.492	-200.000	-0.006	-0.043
-627.478	800.000	0.104	0.318
-626.463	71.269	0.109	0.115
-625.449	118.035	0.025	0.031
-624.434	-200.000	0.101	-0.451
-623.419	66.870	0.060	-0.062
-622.405	-122.786	-0.155	-0.025
-621.390	778.207	-0.098	0.271
-620.376	-6.904	-0.130	-0.090
-619.361	549.853	-0.123	-0.299
-618.346	-22.622	-0.136	0.083
-617.332	800.000	0.078	-0.335
-616.317	228.483	-0.120	0.198
-615.303	-190.451	-0.067	0.001
-614.288	416.349	0.047	-0.101
-613.273	144.877	-0.035	-0.047
-612.259	-200.000	0.010	-0.367
-611.244	-140.563	-0.282	-0.030
-610.230	-13.221	0.180	-0.118
-609.215	-64.296	0.428	-0.176
-608.201	-30.798	0.097	0.055
-607.186	14.604	-0.119	0.094
-606.171	326.990	-0.217	0.420
-605.157	-27.370	-0.191	0.113
-604.142	267.895	-0.033	-0.058
-603.128	348.767	0.126	0.251
-602.113	-161.206	0.265	-0.014
-601.098	44.289	0.180	0.167
-600.084	-131.916	0.138	-0.018
-599.069	301.796	0.048	0.090
-598.055	787.359	0.124	-0.343
-597.040	-2.012	-0.404	-0.287
-596.025	19.858	0.111	0.091
-595.011	-192.134	-0.030	0.000
-593.996	-55.237	-0.260	-0.118
-592.982	-200.000	-0.047	-0.213
-591.967	-48.830	-0.191	0.092
-590.952	163.601	-0.048	0.068
-589.938	-24.285	0.178	0.107
-588.923	123.937	0.250	-0.317
-587.909	-65.981	0.342	-0.138
-586.894	121.879	0.151	0.191
-585.879	99.676	0.143	0.167
-584.865	307.206	-0.042	0.079
-583.850	89.897	-0.144	-0.162
-582.836	54.781	-0.188	-0.184
-581.821	-24.814	-0.031	-0.019
-580.806	-200.000	-0.061	0.292
-579.792	147.310	-0.116	-0.158
-578.777	-122.674	-0.098	-0.016
-577.763	-13.715	0.151	-0.099
-576.748	-138.999	0.257	0.028
-575.733	-63.999	0.126	0.052
-574.719	38.936	0.258	-0.232
-573.704	131.357	0.193	0.250
-572.690	148.916	0.115	0.157
-571.675	121.266	-0.026	-0.033
-570.661	590.697	0.113	-0.281
-569.646	-63.461	-0.078	-0.032
-568.631	-155.826	0.087	0.006
-567.617	18.069	-0.268	0.216
-566.602	297.092	0.084	-0.156
-565.588	-200.000	-0.003	-0.260
-564.573	-11.543	0.059	0.039
-563.558	-67.042	0.171	-0.068
-562.544	-76.518	-0.151	-0.054
-561.529	-88.814	0.258	0.077
-560.515	256.467	0.192	-0.333
-559.500	735.799	0.121	-0.327
-558.485	-122.679	0.083	-0.013
-557.471	-133.732	-0.091	0.011
-556.456	282.879	0.047	-0.085
-555.442	-84.877	-0.307	0.097
-554.427	-200.000	0.003	-0.126
-553.412	53.780	-0.060	-0.058
-552.398	14.090	0.145	-0.114
-551.383	-135.151	-0.286	-0.035
-550.369	-65.251	0.171	-0.069
-549.354	-79.894	0.251	-0.085
-548.339	-36.798	0.086	0.047
-547.325	202.007	-0.100	0.155
-546.310	367.363	-0.067	0.136
-545.296	-163.541	0.053	0.003
-544.281	-65.092	0.180	0.073
-543.266	300.867	0.093	0.173
-542.252	-200.000	0.041	0.304
-541.237	568.498	-0.110	0.269
-540.223	-60.640	-0.223	-0.095
-539.208	-200.000	0.044	0.243
-538.193	-200.000	-0.063	0.280
-537.179	-200.000	0.020	0.443
-536.164	-200.000	-0.007	-0.209
-535.150	298.645	0.103	-0.192
-534.135	-108.573	0.385	-0.083
-533.121	-48.221	0.179	-0.087
-532.106	-78.585	0.152	-0.052
-531.091	-65.770	-0.128	-0.052
-530.077	-42.313	0.309	0.159
-529.062	-200.000	0.022	-0.241
-528.048	137.334	-0.193	-0.254
-527.033	120.772	-0.175	0.220
-526.018	212.999	0.073	0.117
-525.004	285.216	0.058	0.105
-523.989	-156.188	-0.112	0.007
-522.975	-57.302	0.161	0.071
-521.960	-26.510	-0.080	0.047
-520.945	86.511	-0.227	0.253
-519.931	-24.681	-0.388	0.233
-518.916	-200.000	-0.036	0.293
-517.902	0.330	-0.170	-0.122
-516.887	-53.012	0.272	0.126
-515.872	-200.000	-0.005	0.241
-514.858	-22.196	0.181	0.111
-513.843	-157.595	0.111	0.007
-512.829	153.139	-0.308	0.424
-511.814	76.881	0.270	-0.288
-510.799	58.491	0.199	0.197
-509.785	38.737	0.120	0.108
-508.770	-200.000	0.026	-0.334
-507.756	800.000	-0.013	-0.038
-506.741	-33.269	0.337	0.188
-505.726	347.925	0.055	0.109
-504.712	800.000	-0.103	-0.290
-503.697	-16.097	-0.101	-0.065
-502.683	-193.351	0.187	0.002
-501.668	1.581	-0.242	-0.175
-500.653	-88.270	-0.027	0.008
-499.639	-141.418	0.179	-0.018
-498.624	394.902	-0.123	0.258
-497.610	-131.794	0.242	0.032
-496.595	-200.000	-0.045	0.397
-495.581	-156.462	-0.177	-0.011
-494.566	91.652	0.047	0.053
-493.551	800.000	-0.086	-0.289
-492.537	549.704	-0.023	0.056
-491.522	74.834	-0.243	-0.257
-490.508	-90.149	0.205	-0.060
-489.493	-200.000	0.028	-0.297
-488.478	160.089	-0.031	0.043
-487.464	-127.677	-0.085	0.012
-486.449	-63.573	0.344	-0.142
-485.435	580.678	0.117	0.289
-484.420	-200.000	0.000	-0.004
-483.405	-71.301	-0.350	0.132
-482.391	-68.955	-0.153	-0.059
-481.376	-86.660	-0.228	-0.070
-480.362	-150.186	-0.074	0.006
-479.347	-31.416	-0.315	-0.178
-478.332	-169.452	0.355	0.013
-477.318	19.646	0.109	0.088
-476.303	484.148	0.062	-0.142
-475.289	96.009	0.052	-0.060
-474.274	-200.000	-0.063	0.302
-473.259	800.000	-0.063	-0.192
-472.245	-200.000	0.015	-0.110
-471.230	660.447	0.051	-0.132
-470.216	-200.000	-0.015	-0.170
-469.201	348.812	-0.098	-0.194
-468.186	-200.000	0.030	0.183
-467.172	-200.000	0.140	0.755
-466.157	-112.517	0.324	-0.065
-465.143	207.813	0.134	0.210
-464.128	-82.207	-0.184	0.060
-463.113	-200.000	0.117	0.000
-462.099	-200.000	0.014	0.183
-461.084	-95.386	0.177	0.048
-460.070	-135.610	0.352	-0.042
-459.055	105.355	0.088	-0.105
-458.040	124.082	0.190	-0.240
-457.026	-200.000	-0.007	0.195
-456.011	-18.223	-0.074	0.047
-454.997	800.000	-0.021	-0.091
-453.982	-26.232	0.049	0.029
-452.968	71.278	-0.038	0.039
-451.953	-200.000	0.006	-0.047
-450.938	-40.003	0.096	-0.050
-449.924	-118.095	-0.112	-0.020
-448.909	800.000	0.089	-0.385
-447.895	-200.000	-0.083	0.444
-446.880	-45.400	-0.182	0.091
-445.865	-22.040	0.119	0.072
-444.851	-28.217	-0.287	-0.167
-443.836	-129.816	-0.156	-0.021
-442.822	-116.306	0.135	-0.025
-441.807	328.139	-0.093	-0.180
-440.792	-64.610	0.029	0.012
-439.778	-129.692	-0.034	-0.005
-438.763	-200.000	0.023	-0.157
-437.749	800.000	-0.054	-0.168
-436.734	-5.372	-0.183	-0.126
-435.719	395.485	0.107	-0.225
-434.705	-200.000	-0.007	0.212
-433.690	-87.549	0.372	0.113
-432.676	-98.503	0.138	0.035
-431.661	172.872	-0.263	-0.381
-430.646	584.239	-0.133	-0.327
-429.632	138.165	-0.232	-0.305
-428.617	-119.957	-0.064	-0.011
-427.603	-200.000	-0.007	0.168
-426.588	-148.849	0.184	-0.015
-425.573	-93.807	-0.098	0.027
-424.559	-66.326	0.168	0.067
-423.544	131.971	-0.213	0.275
-422.530	-52.409	0.332	0.154
-421.515	-36.945	-0.131	0.071
-420.500	292.080	-0.142	0.259
-419.486	-80.168	0.171	0.058
-418.471	-89.616	0.071	0.021
-417.457	29.816	-0.078	0.067
-416.442	-39.409	0.206	0.109
-415.428	140.405	0.187	-0.248
-414.413	323.557	0.027	-0.052
-413.398	205.683	0.183	-0.285
-412.384	553.641	-0.101	0.243
-411.369	324.228	-0.067	0.128
-410.355	91.556	-0.320	-0.361
-409.340	177.965	-0.227	0.333
-408.325	251.978	0.132	0.225
-407.311	126.148	-0.134	-0.170
-406.296	-154.919	0.213	0.014
-405.282	773.688	-0.041	0.111
-404.267	-200.000	-0.002	0.137
-403.252	-0.555	0.034	0.024
-402.238	-49.220	-0.129	-0.062
-401.223	-139.952	-0.253	0.027
-400.209	-162.146	-0.421	0.021
-399.194	61.973	0.162	0.162
-398.179	118.586	0.065	0.081
-397.165	-191.020	-0.342	0.004
-396.150	-123.682	0.272	-0.043
-395.136	-3.750	-0.261	0.182
-394.121	-16.315	-0.174	0.111
-393.106	-100.433	0.153	-0.038
-392.092	-91.811	-0.237	0.067
-391.077	-4.295	0.165	0.114
-390.063	11.258	0.272	0.209
-389.048	-112.650	-0.324	0.065
-388.033	588.917	-0.166	0.411
-387.019	-75.083	0.218	0.078
-386.004	196.254	0.207	-0.315
-384.990	17.541	-0.078	0.062
-383.975	-7.703	-0.226	0.153
-382.960	-35.701	0.225	0.122
-381.946	29.609	0.070	-0.060
-380.931	-39.226	0.047	0.025
-379.917	800.000	0.102	-0.316
-378.902	-200.000	-0.003	-0.276
-377.888	-200.000	0.016	0.213
-376.873	-106.761	-0.221	0.049
-375.858	-41.235	0.214	-0.110
-374.844	-200.000	-0.037	-0.451
-373.829	-0.443	0.055	0.039
-372.815	47.435	-0.151	0.141
-371.800	509.831	0.055	0.127
-370.785	-56.313	-0.298	0.133
-369.771	299.062	-0.135	-0.250
-368.756	-117.524	-0.178	0.032
-367.742	-178.553	-0.353	-0.008
-366.727	140.130	0.089	-0.117
-365.712	-61.434	0.069	-0.029
-364.698	732.762	-0.152	-0.406
-363.683	800.000	-0.088	0.364
-362.669	605.017	0.064	0.160
-361.654	-200.000	0.027	0.144
-360.639	521.730	0.120	-0.282
-359.625	6.731	-0.080	-0.060
-358.610	-130.833	-0.162	0.022
-357.596	-24.492	0.248	-0.148
-356.581	800.000	0.058	-0.188
-355.566	-200.000	0.056	-0.292
-354.552	800.000	0.072	0.275
-353.537	-96.215	0.299	-0.079
-352.523	15.806	0.070	-0.055
-351.508	-66.700	0.157	0.062
-350.493	-17.448	-0.230	-0.145
-349.479	141.256	-0.037	-0.050
-348.464	127.652	0.189	-0.240
-347.450	170.833	-0.134	0.192
-346.435	800.000	-0.153	0.547
-345.420	667.952	0.051	0.133
-344.406	20.917	0.161	-0.130
-343.391	-147.525	-0.112	-0.009
-342.377	-200.000	-0.016	0.169
-341.362	-11.479	0.021	0.014
-340.348	115.403	0.224	0.274
-339.333	-200.000	0.029	0.322
-338.318	9.021	-0.050	-0.038
-337.304	4.810	0.194	0.143
-336.289	-200.000	0.000	-0.268
-335.275	-64.547	-0.224	-0.091
-334.260	32.290	0.130	0.112
-333.245	67.970	-0.157	0.161
-332.231	657.669	-0.085	0.219
-331.216	-37.973	0.168	0.089
-330.202	42.277	0.055	-0.050
-329.187	-19.026	-0.112	0.070
-328.172	48.270	0.367	-0.343
-327.158	-200.000	-0.022	-0.117
-326.143	-100.934	-0.197	0.048
-325.129	178.325	0.121	-0.176
-324.114	5.117	0.189	-0.139
-323.099	-163.485	-0.443	-0.021
-322.085	-100.312	-0.017	-0.004
-321.070	-86.184	-0.186	-0.057
-320.056	25.253	-0.159	-0.132
-319.041	-151.069	-0.193	-0.015
-318.026	-200.000	0.011	0.068
-317.012	-5.496	-0.247	0.169
-315.997	157.974	-0.086	-0.119
-314.983	0.769	0.199	-0.142
-313.968	71.141	-0.088	0.091
-312.953	183.448	-0.051	0.075
-311.939	-54.673	-0.209	-0.094
-310.924	-158.480	0.320	0.019
-309.910	-200.000	0.039	-0.300
-308.895	-123.704	0.196	-0.031
-307.880	-200.000	-0.016	0.271
-306.866	21.257	0.217	0.176
-305.851	-63.739	-0.635	-0.260
-304.837	-119.179	0.252	0.044
-303.822	-200.000	0.005	-0.072
-302.807	-200.000	0.004	0.203
-301.793	800.000	-0.027	-0.090
-300.778	173.555	0.143	-0.207
-299.764	403.011	0.107	0.225
-298.749	-94.624	-0.224	-0.061
-297.735	24.634	0.116	0.096
-296.720	-200.000	0.072	-0.431
-295.705	-48.676	-0.289	-0.139
-294.691	-126.301	-0.093	0.014
-293.676	-200.000	0.040	-0.325
-292.662	22.527	0.259	0.212
-291.647	-200.000	0.026	0.199
-290.632	265.413	-0.196	0.342
-289.618	-71.183	-0.123	-0.046
-288.603	230.211	-0.120	-0.197
-287.589	42.616	-0.208	-0.189
-286.574	800.000	0.029	-0.120
-285.559	-132.414	0.153	-0.020
-284.545	-149.524	0.268	-0.021
-283.530	-172.579	-0.316	0.010
-282.516	-200.000	-0.022	0.257
-281.501	-17.991	0.208	-0.130
-280.486	-30.451	-0.244	0.138
-279.472	37.956	0.119	0.106
-278.457	11.379	-0.234	0.179
-277.443	-28.239	-0.047	0.027
-276.428	208.047	-0.104	-0.162
-275.413	-56.345	-0.020	0.009
-274.399	-167.164	0.362	-0.015
-273.384	-71.705	0.279	0.104
-272.370	-123.150	-0.096	-0.015
-271.355	138.133	-0.184	0.241
-270.340	-200.000	0.084	0.486
-269.326	-200.000	-0.006	-0.035
-268.311	42.203	-0.271	0.246
-267.297	800.000	-0.015	-0.062
-266.282	-65.671	-0.140	0.056
-265.267	-65.563	0.200	-0.080
-264.253	-200.000	-0.027	0.376
-263.238	-200.000	0.028	-0.216
-262.224	-191.291	0.349	-0.004
-261.209	-74.124	0.111	0.040
-260.195	-200.000	0.040	0.206
-259.180	-200.000	-0.015	0.152
-258.165	-5.786	0.107	0.073
-257.151	-121.661	0.131	0.022
-256.136	254.073	0.172	0.293
-255.122	3.762	0.317	0.231
-254.107	555.303	0.086	-0.207
-253.092	-119.838	-0.098	-0.017
-252.078	-200.000	0.066	0.297
-251.063	38.696	0.160	-0.142
-250.049	-1.690	0.325	0.229
-249.034	8.145	0.201	-0.151
-248.019	397.318	0.020	-0.042
-247.005	-76.761	-0.259	0.090
-245.990	-200.000	-0.002	0.163
-244.976	537.712	0.072	0.172
-243.961	46.004	-0.186	0.172
-242.946	-200.000	0.003	0.173
-241.932	352.853	0.106	-0.210
-240.917	166.105	-0.105	0.149
-239.903	-52.929	0.124	0.057
-238.888	-91.423	-0.130	-0.037
-237.873	800.000	0.069	0.227
-236.859	292.312	0.116	0.210
-235.844	102.945	-0.093	-0.109
-234.830	452.124	-0.065	-0.143
-233.815	-103.011	-0.214	-0.051
-232.800	-200.000	-0.002	0.142
-231.786	800.000	-0.054	-0.151
-230.771	-200.000	-0.015	-0.122
-229.757	-164.869	-0.216	-0.010
-228.742	104.410	-0.186	0.218
-227.727	800.000	-0.075	-0.267
-226.713	194.011	-0.178	-0.268
-225.698	286.041	0.062	-0.111
-224.684	16.121	-0.025	0.020
-223.669	7.881	0.177	-0.132
-222.655	800.000	-0.107	-0.301
-221.640	-31.008	-0.107	-0.060
-220.625	263.018	-0.063	-0.109
-219.611	44.371	-0.127	0.116
-218.596	-52.567	0.212	0.098
-217.582	800.000	0.098	-0.314
-216.567	95.849	0.201	0.228
-215.552	344.269	0.018	0.035
-214.538	800.000	-0.032	-0.126
-213.523	110.986	-0.169	-0.203
-212.509	-61.883	0.248	-0.103
-211.494	409.279	-0.180	-0.380
-210.479	15.418	-0.173	0.135
-209.465	-152.778	-0.015	-0.001
-208.450	-200.000	0.013	-0.128
-207.436	-92.880	0.127	0.035
-206.421	-200.000	0.008	0.110
-205.406	271.303	-0.144	-0.252
-204.392	-105.812	0.028	-0.006
-203.377	262.056	-0.052	0.090
-202.363	100.754	0.081	0.094
-201.348	405.372	-0.066	0.138
-200.333	283.237	0.065	-0.116
-199.319	-33.612	-0.142	-0.078
-198.304	71.376	0.184	0.190
-197.290	-200.000	0.023	0.126
-196.275	-200.000	0.035	-0.284
-195.260	-181.913	-0.133	-0.003
-194.246	-94.582	0.337	0.091
-193.231	-70.541	0.059	-0.022
-192.217	85.571	-0.272	-0.297
-191.202	403.050	0.238	-0.498
-190.187	-200.000	-0.014	0.157
-189.173	-186.617	0.032	-0.000
-188.158	220.302	0.143	-0.228
-187.144	127.122	0.083	0.105
-186.129	98.568	0.245	0.281
-185.114	369.365	-0.053	-0.106
-184.100	800.000	0.015	0.063
-183.085	33.350	0.158	0.136
-182.071	227.836	-0.197	0.319
-181.056	-37.888	-0.160	0.084
-180.042	150.536	-0.071	-0.096
-179.027	-86.631	0.172	0.052
-178.012	-5.002	0.093	-0.064
-176.998	48.315	-0.207	-0.193
-175.983	1.420	-0.144	-0.103
-174.969	-131.747	-0.257	-0.034
-173.954	-200.000	0.023	-0.113
-172.939	-14.682	-0.279	-0.178
-171.925	1.701	0.179	0.128
-170.910	-200.000	-0.052	0.244
-169.896	-200.000	0.013	-0.104
-168.881	71.256	0.211	-0.218
-167.866	7.196	-0.225	0.167
-166.852	174.864	-0.055	0.079
-165.837	-66.617	0.274	0.108
-164.823	-43.046	0.268	0.135
-163.808	800.000	0.029	0.089
-162.793	-139.158	-0.104	-0.011
-161.779	-200.000	0.022	-0.254
-160.764	168.278	-0.238	-0.337
-159.750	-98.565	-0.277	-0.070
-158.735	-200.000	-0.037	0.266
-157.720	-64.925	-0.171	0.068
-156.706	800.000	-0.028	-0.096
-155.691	-200.000	0.033	-0.330
-154.677	27.133	-0.412	0.344
-153.662	380.171	-0.082	0.166
-152.647	-200.000	-0.043	-0.374
-151.633	42.864	0.031	-0.028
-150.618	-200.000	-0.008	-0.181
-149.604	-114.416	-0.217	0.042
-148.589	-52.509	0.183	0.084
-147.574	-135.170	0.138	-0.016
-146.560	-76.409	-0.138	0.048
-145.545	14.844	-0.280	-0.217
-144.531	401.501	-0.165	-0.343
-143.516	-93.263	-0.037	0.010
-142.502	359.934	0.073	-0.146
-141.487	-45.678	0.218	0.107
-140.472	-54.480	0.163	0.074
-139.458	-200.000	-0.001	-0.190
-138.443	800.000	0.077	-0.245
-137.429	161.327	0.223	0.309
-136.414	-200.000	-0.015	0.086
-135.399	-200.000	0.018	-0.086
-134.385	555.013	-0.057	0.135
-133.370	-90.346	0.256	-0.074
-132.356	616.687	0.029	0.073
-131.341	800.000	0.041	0.137
-130.326	-200.000	0.046	0.256
-129.312	-20.246	0.346	0.212
-128.297	91.482	-0.136	-0.152
-127.283	-50.218	0.271	-0.127
-126.268	-31.052	-0.216	0.121
-125.253	-200.000	0.071	0.325
-124.239	-92.050	0.201	-0.056
-123.224	147.081	0.028	-0.037
-122.210	539.835	-0.160	0.377
-121.195	-107.874	-0.192	-0.041
