DTS Sentinel unit serial number:	SN413079Multiplexer serial number:	ORYXHardware model number:	OX4-SRSoftware version number:	ORYX F/W v4.00 Oryx Data Collector v3.7.2.0data status	okinstallation	princeton_trtdifferential loss correction	single-endedforward channel	channel 4reverse channel	N/Adate	2019/09/11time	07:31:10forward acquisition time	60.00reverse acquisition time	0.00gamma	496.2192k internal	0.2309k external	0.2309temperature offset calibration	0.9941default loss term (dB/km)	0.3790temperature slope calibration	1.0000multiplexer offset coefficient	1.0000multiplexer slope coefficient	1.0000fibre end	0.00T internal ref (°C)	31.11T ext. ref 1 (°C)	-0.06T ext. ref 2 (°C)	27.56length (m)	temperature (°C)	Stokes	anti-Stokes-747.200	800.000	0.089	0.345
-746.185	157.941	0.163	0.229
-745.171	649.001	-0.041	-0.108
-744.156	413.689	-0.149	0.323
-743.142	79.157	-0.151	0.164
-742.127	-170.451	-0.196	-0.007
-741.112	800.000	-0.101	-0.338
-740.098	-200.000	0.017	-0.080
-739.083	275.090	0.205	0.369
-738.069	-200.000	-0.044	0.203
-737.054	-161.955	-0.354	-0.018
-736.039	-200.000	-0.055	-0.387
-735.025	-139.171	0.247	-0.027
-734.010	-48.009	0.166	0.081
-732.996	-200.000	-0.026	0.140
-731.981	800.000	0.057	-0.208
-730.966	800.000	0.084	-0.317
-729.952	-29.877	-0.196	0.114
-728.937	40.898	0.056	-0.051
-727.923	-108.522	0.112	-0.024
-726.908	800.000	-0.042	-0.137
-725.894	-114.300	-0.514	-0.101
-724.879	-85.501	0.125	0.039
-723.864	54.813	-0.223	-0.219
-722.850	800.000	-0.098	-0.369
-721.835	257.829	-0.067	0.118
-720.821	-186.382	-0.390	0.006
-719.806	-77.265	-0.347	0.122
-718.791	-82.485	0.251	-0.083
-717.777	115.866	0.309	-0.383
-716.762	462.691	-0.137	-0.310
-715.748	-71.951	-0.358	-0.135
-714.733	-28.215	-0.156	0.091
-713.718	-200.000	-0.017	0.150
-712.704	-200.000	-0.048	-0.221
-711.689	-200.000	-0.007	-0.199
-710.675	365.409	-0.098	-0.201
-709.660	-127.925	0.097	0.014
-708.645	-118.156	-0.273	-0.049
-707.631	240.094	-0.063	0.107
-706.616	542.389	0.042	-0.101
-705.602	-54.045	0.051	-0.024
-704.587	525.410	-0.090	0.215
-703.572	-200.000	-0.031	-0.445
-702.558	-82.785	-0.309	-0.101
-701.543	800.000	0.067	-0.229
-700.529	-149.602	-0.090	0.007
-699.514	-84.196	-0.120	0.039
-698.499	-34.415	0.502	-0.279
-697.485	-80.394	-0.274	-0.093
-696.470	-200.000	-0.009	0.068
-695.456	-190.164	-0.144	0.002
-694.441	22.250	-0.123	0.102
-693.426	137.879	0.296	-0.393
-692.412	197.785	0.181	-0.280
-691.397	-48.923	-0.033	-0.016
-690.383	263.352	-0.038	0.067
-689.368	-109.131	-0.078	0.017
-688.354	260.479	0.043	-0.076
-687.339	-176.781	-0.322	-0.008
-686.324	-200.000	0.001	-0.140
-685.310	202.846	-0.230	-0.361
-684.295	-189.030	0.176	0.002
-683.281	-165.016	-0.535	0.024
-682.266	277.048	-0.130	-0.234
-681.251	-200.000	0.351	-0.000
-680.237	547.113	-0.056	0.136
-679.222	-200.000	0.031	0.272
-678.208	-200.000	-0.075	0.431
-677.193	-7.253	0.426	-0.293
-676.178	800.000	-0.027	-0.083
-675.164	23.243	0.133	-0.111
-674.149	-123.037	-0.372	0.061
-673.135	5.356	-0.184	0.138
-672.120	-70.685	0.231	-0.089
-671.105	16.668	0.099	0.079
-670.091	325.931	-0.033	-0.064
-669.076	-200.000	0.025	0.128
-668.062	-19.661	-0.328	-0.206
-667.047	-123.895	-0.243	-0.039
-666.032	-68.794	-0.129	0.050
-665.018	43.949	-0.238	0.221
-664.003	-87.970	-0.229	0.070
-662.989	-26.307	0.126	0.075
-661.974	-200.000	-0.062	-0.382
-660.959	-200.000	-0.017	-0.174
-659.945	9.133	-0.100	-0.077
-658.930	-42.292	0.307	0.159
-657.916	162.489	0.151	0.215
-656.901	68.097	-0.209	-0.217
-655.886	179.001	0.219	-0.324
-654.872	-200.000	0.022	0.194
-653.857	-200.000	0.026	-0.183
-652.843	-122.862	0.189	-0.031
-651.828	-200.000	0.062	-0.288
-650.814	-14.563	-0.465	-0.303
-649.799	5.487	-0.118	-0.088
-648.784	-200.000	-0.026	-0.204
-647.770	441.049	-0.157	-0.348
-646.755	769.106	0.057	-0.157
-645.741	-28.544	-0.151	0.088
-644.726	800.000	-0.034	0.105
-643.711	-94.088	0.056	0.016
-642.697	351.281	0.078	-0.157
-641.682	-176.879	-0.344	0.009
-640.668	59.583	-0.105	-0.104
-639.653	-200.000	0.043	-0.418
-638.638	482.104	0.111	0.254
-637.624	119.890	-0.157	0.197
-636.609	800.000	0.098	-0.359
-635.595	-136.010	-0.161	-0.019
-634.580	109.371	0.180	-0.218
-633.565	-125.923	0.038	0.006
-632.551	22.924	0.136	-0.113
-631.536	-80.944	-0.155	0.052
-630.522	83.033	0.130	-0.143
-629.507	59.842	0.059	0.059
-628.492	-8.348	-0.226	0.154
-627.478	-172.778	-0.261	-0.008
-626.463	-133.865	-0.187	0.024
-625.449	-50.992	0.114	-0.054
-624.434	-100.182	-0.232	-0.058
-623.419	65.306	-0.139	-0.142
-622.405	432.245	-0.110	-0.241
-621.390	434.823	-0.064	-0.140
-620.376	-108.770	0.296	0.064
-619.361	-104.519	0.396	-0.092
-618.346	-200.000	-0.055	0.324
-617.332	-200.000	-0.311	0.001
-616.317	-114.085	-0.136	0.027
-615.303	800.000	-0.038	0.165
-614.288	9.892	0.122	-0.094
-613.273	800.000	-0.057	-0.180
-612.259	-58.714	-0.268	-0.117
-611.244	502.808	-0.082	0.192
-610.230	-86.319	-0.374	0.116
-609.215	237.628	0.070	-0.118
-608.201	-159.362	0.338	0.019
-607.186	-118.170	-0.093	-0.017
-606.171	-121.651	0.136	0.023
-605.157	-32.632	-0.279	-0.157
-604.142	-200.000	-0.035	-0.159
-603.128	-68.012	0.160	0.063
-602.113	-109.648	-0.029	0.006
-601.098	155.266	0.092	-0.129
-600.084	-50.621	-0.231	0.110
-599.069	800.000	-0.034	-0.110
-598.055	61.813	-0.201	-0.202
-597.040	-200.000	-0.009	-0.321
-596.025	29.164	0.198	-0.170
-595.011	-35.567	0.144	-0.079
-593.996	-46.185	-0.249	-0.124
-592.982	-136.248	0.155	-0.018
-591.967	294.698	-0.141	0.261
-590.952	-13.664	-0.095	-0.062
-589.938	23.530	0.328	-0.272
-588.923	37.840	0.134	-0.120
-587.909	61.708	-0.071	-0.072
-586.894	150.545	-0.127	-0.175
-585.879	-108.579	-0.111	0.024
-584.865	382.894	-0.062	-0.130
-583.850	-200.000	-0.003	-0.305
-582.836	656.190	-0.107	-0.277
-581.821	20.225	0.110	-0.090
-580.806	-121.658	0.350	0.058
-579.792	26.301	0.047	0.040
-578.777	-25.955	-0.211	-0.125
-577.763	-100.491	0.168	0.042
-576.748	-1.455	0.214	0.153
-575.733	-200.000	-0.052	-0.285
-574.719	244.317	0.120	0.203
-573.704	-200.000	0.020	0.091
-572.690	17.142	0.336	-0.269
-571.675	83.996	0.276	0.304
-570.661	311.117	-0.226	0.428
-569.646	-200.000	0.030	0.000
-568.631	173.050	0.095	0.139
-567.617	61.466	-0.108	-0.109
-566.602	-200.000	0.004	-0.066
-565.588	-136.693	-0.230	0.027
-564.573	800.000	0.085	-0.281
-563.558	-200.000	-0.045	-0.204
-562.544	-200.000	-0.031	-0.180
-561.529	285.689	-0.011	0.021
-560.515	800.000	-0.051	-0.223
-559.500	-90.502	-0.282	-0.082
-558.485	-200.000	0.008	-0.135
-557.471	121.085	0.032	0.040
-556.456	-184.883	0.339	-0.005
-555.442	308.694	0.077	0.145
-554.427	6.251	-0.184	0.138
-553.412	473.941	-0.104	0.237
-552.398	-90.073	0.259	0.076
-551.383	-124.843	-0.272	-0.042
-550.369	405.160	0.128	-0.271
-549.354	800.000	0.087	-0.330
-548.339	496.195	-0.149	0.345
-547.325	729.961	0.070	0.188
-546.310	-64.984	0.142	0.058
-545.296	160.672	0.281	-0.395
-544.281	21.993	0.035	-0.028
-543.266	-200.000	-0.004	0.042
-542.252	800.000	0.023	-0.070
-541.237	90.973	-0.197	-0.223
-540.223	-200.000	0.020	0.205
-539.208	-96.497	-0.144	-0.038
-538.193	148.395	0.217	0.295
-537.179	-43.936	0.156	-0.079
-536.164	9.856	-0.285	0.218
-535.150	-34.046	-0.218	0.121
-534.135	594.494	0.068	0.169
-533.121	-155.426	0.029	0.002
-532.106	683.225	0.033	-0.087
-531.091	115.878	0.133	0.164
-530.077	800.000	0.079	0.281
-529.062	214.345	-0.186	0.297
-528.048	-145.471	0.416	0.038
-527.033	-61.333	0.240	0.102
-526.018	35.302	0.286	0.252
-525.004	-149.331	0.356	0.029
-523.989	-13.412	-0.129	0.085
-522.975	-77.965	-0.331	-0.115
-521.960	-90.912	-0.176	0.051
-520.945	-111.821	0.277	-0.056
-519.931	730.312	-0.086	0.231
-518.916	-105.323	-0.170	-0.039
-517.902	78.455	-0.071	0.076
-516.887	75.717	0.246	-0.261
-515.872	800.000	-0.055	0.216
-514.858	8.482	-0.082	-0.062
-513.843	-200.000	-0.020	0.172
-512.829	613.697	-0.079	-0.200
-511.814	-129.572	-0.013	-0.002
-510.799	120.059	-0.082	0.103
-509.785	145.439	0.125	-0.168
-508.770	-86.229	-0.085	0.026
-507.756	9.153	-0.152	-0.116
-506.741	87.163	0.075	0.084
-505.726	279.355	-0.189	-0.339
-504.712	8.619	-0.131	0.100
-503.697	-39.151	-0.140	-0.074
-502.683	334.133	-0.068	-0.132
-501.668	187.082	-0.239	0.359
-500.653	800.000	-0.107	0.343
-499.639	800.000	-0.064	0.181
-498.624	800.000	0.126	0.428
-497.610	-65.533	-0.077	-0.031
-496.595	-71.846	0.064	-0.024
-495.581	116.413	-0.066	-0.082
-494.566	-157.517	0.206	-0.012
-493.551	-115.300	-0.102	0.019
-492.537	-29.057	0.174	-0.100
-491.522	-46.480	0.120	0.059
-490.508	-118.465	-0.096	0.017
-489.493	-128.945	0.181	-0.026
-488.478	57.967	-0.103	0.101
-487.464	-35.465	0.270	-0.147
-486.449	-32.156	-0.161	-0.091
-485.435	603.017	0.100	-0.251
-484.420	800.000	-0.073	-0.263
-483.405	-51.033	-0.228	0.108
-482.391	286.359	-0.152	-0.277
-481.376	-114.384	-0.141	0.027
-480.362	-2.330	0.148	-0.104
-479.347	173.939	-0.123	-0.179
-478.332	-72.200	-0.098	-0.037
-477.318	355.689	-0.212	0.425
-476.303	-200.000	0.062	0.383
-475.289	-37.432	-0.296	0.159
-474.274	83.901	-0.118	-0.129
-473.259	345.452	0.062	0.123
-472.245	453.956	-0.141	0.314
-471.230	77.727	-0.064	-0.068
-470.216	108.002	-0.104	-0.125
-469.201	-174.014	-0.143	0.004
-468.186	-123.015	0.318	0.051
-467.172	-67.902	0.142	0.056
-466.157	209.889	0.088	0.139
-465.143	-98.479	-0.335	-0.086
-464.128	-32.488	0.260	-0.146
-463.113	99.496	0.213	0.247
-462.099	-200.000	0.014	0.167
-461.084	321.938	0.075	0.144
-460.070	9.389	0.239	0.181
-459.055	148.513	-0.270	0.366
-458.040	13.419	0.178	-0.139
-457.026	-172.268	0.329	0.011
-456.011	237.761	0.206	-0.343
-454.997	-62.462	-0.320	-0.133
-453.982	407.128	0.187	0.397
-452.968	-65.881	-0.216	-0.087
-451.953	-200.000	-0.074	-0.421
-450.938	-52.683	0.086	0.040
-449.924	-200.000	-0.017	0.175
-448.909	800.000	-0.045	0.190
-447.895	32.001	0.367	0.318
-446.880	-107.461	0.325	-0.072
-445.865	-200.000	-0.018	0.182
-444.851	-105.682	0.139	0.032
-443.836	13.369	-0.266	-0.207
-442.822	-91.841	0.081	0.023
-441.807	-200.000	0.011	0.427
-440.792	-137.674	-0.293	0.033
-439.778	-200.000	0.054	0.240
-438.763	167.613	-0.015	-0.022
-437.749	14.044	-0.290	-0.227
-436.734	191.886	-0.148	-0.223
-435.719	312.122	-0.105	0.198
-434.705	335.061	0.120	-0.234
-433.690	76.083	0.203	-0.216
-432.676	-143.766	-0.283	-0.027
-431.661	-71.000	0.345	0.130
-430.646	182.166	-0.082	0.122
-429.632	2.533	-0.261	-0.190
-428.617	11.598	0.065	0.050
-427.603	-200.000	0.035	0.199
-426.588	-108.143	-0.396	0.086
-425.573	-123.147	-0.242	0.039
-424.559	224.757	0.108	-0.175
-423.544	-118.635	-0.411	0.073
-422.530	83.509	0.194	-0.212
-421.515	-89.141	-0.329	0.098
-420.500	-200.000	0.097	-0.434
-419.486	102.796	-0.278	-0.327
-418.471	500.323	-0.121	0.281
-417.457	2.518	0.113	0.082
-416.442	128.958	0.060	0.077
-415.428	-29.227	-0.157	0.090
-414.413	715.028	0.114	-0.304
-413.398	167.164	-0.140	0.199
-412.384	25.147	-0.050	-0.042
-411.369	-200.000	-0.006	0.093
-410.355	800.000	-0.057	-0.236
-409.340	153.178	-0.222	-0.304
-408.325	63.636	0.351	0.354
-407.311	-110.795	-0.216	0.045
-406.296	800.000	0.096	-0.284
-405.282	-200.000	0.010	-0.121
-404.267	-167.355	-0.263	-0.011
-403.252	-148.647	0.147	0.012
-402.238	520.552	0.103	-0.242
-401.223	-52.440	0.009	-0.004
-400.209	94.983	-0.174	0.198
-399.194	211.937	-0.144	-0.227
-398.179	59.782	-0.151	0.149
-397.165	66.296	-0.175	0.179
-396.150	-44.244	-0.085	-0.043
-395.136	337.959	-0.079	0.155
-394.121	94.370	0.036	-0.041
-393.106	-153.568	-0.137	0.009
-392.092	-200.000	0.042	-0.374
-391.077	4.905	0.285	-0.210
-390.063	-108.606	0.256	0.055
-389.048	-66.236	0.097	-0.039
-388.033	800.000	0.010	0.037
-387.019	145.806	-0.037	0.049
-386.004	-183.249	-0.139	-0.002
-384.990	38.157	-0.162	-0.145
-383.975	202.784	0.252	-0.390
-382.960	-200.000	-0.112	0.000
-381.946	800.000	-0.002	-0.006
-380.931	-149.950	-0.313	0.024
-379.917	36.825	-0.111	-0.098
-378.902	-153.640	-0.174	0.012
-377.888	81.781	-0.180	0.195
-376.873	-198.788	0.106	0.001
-375.858	-119.432	0.203	0.035
-374.844	-200.000	0.006	0.301
-373.829	49.993	0.125	-0.118
-372.815	76.939	0.139	0.147
-371.800	141.024	-0.156	-0.206
-370.785	178.252	0.060	-0.087
-369.771	21.230	0.235	0.191
-368.756	36.169	-0.169	0.149
-367.742	-200.000	0.058	0.268
-366.727	114.540	-0.192	-0.234
-365.712	113.720	-0.108	-0.131
-364.698	133.166	0.178	-0.230
-363.683	-200.000	0.059	0.512
-362.669	15.052	0.042	0.033
-361.654	649.247	0.107	0.273
-360.639	-157.465	-0.170	0.010
-359.625	-85.136	-0.368	0.115
-358.610	-7.031	0.220	0.150
-357.596	-200.000	0.008	0.144
-356.581	182.938	-0.198	-0.292
-355.566	-89.531	0.191	-0.056
-354.552	381.705	0.157	-0.323
-353.537	-128.007	-0.356	-0.051
-352.523	-53.341	0.215	0.099
-351.508	-184.507	0.032	0.001
-350.493	81.057	-0.077	-0.083
-349.479	-101.387	-0.288	0.070
-348.464	-117.834	0.219	0.039
-347.450	-173.435	0.375	0.011
-346.435	800.000	0.076	0.251
-345.420	195.239	-0.123	0.187
-344.406	19.393	-0.327	0.263
-343.391	-200.000	0.042	0.213
-342.377	-162.493	-0.186	-0.009
-341.362	611.207	0.116	0.289
-340.348	-105.314	0.097	0.022
-339.333	193.396	-0.078	0.119
-338.318	-16.316	0.377	0.240
-337.304	-200.000	0.011	0.174
-336.289	190.824	-0.072	0.109
-335.275	-200.000	0.012	0.098
-334.260	800.000	0.046	0.175
-333.245	168.424	0.104	0.148
-332.231	-200.000	-0.008	0.197
-331.216	-200.000	0.020	0.169
-330.202	225.257	-0.055	0.089
-329.187	-112.143	-0.258	0.052
-328.172	-76.225	0.169	-0.059
-327.158	255.105	-0.039	0.067
-326.143	219.712	-0.157	0.251
-325.129	-200.000	-0.005	-0.153
-324.114	-200.000	0.015	-0.222
-323.099	-122.750	0.254	-0.041
-322.085	800.000	0.050	-0.154
-321.070	-200.000	0.030	-0.260
-320.056	-200.000	-0.083	-0.394
-319.041	-62.188	0.368	-0.153
-318.026	-51.368	-0.160	0.075
-317.012	42.249	0.112	0.102
-315.997	531.851	0.021	-0.049
-314.983	26.937	0.139	-0.117
-313.968	44.014	-0.011	0.010
-312.953	-0.432	0.413	0.293
-311.939	-130.616	0.352	0.047
-310.924	-200.000	0.003	-0.088
-309.910	-96.633	-0.110	0.029
-308.895	-154.074	-0.228	0.015
-307.880	-200.000	0.004	0.104
-306.866	99.464	-0.050	-0.058
-305.851	20.682	-0.020	-0.016
-304.837	-200.000	-0.021	-0.160
-303.822	-190.786	-0.351	-0.004
-302.807	-135.481	0.108	-0.013
-301.793	-23.416	-0.249	-0.149
-300.778	-110.521	0.118	-0.024
-299.764	-36.950	-0.221	0.118
-298.749	-151.649	0.369	0.027
-297.735	800.000	0.070	-0.241
-296.720	-95.697	-0.465	0.124
-295.705	800.000	0.022	-0.078
-294.691	-200.000	0.054	-0.304
-293.676	352.109	-0.074	0.146
-292.662	-200.000	-0.021	-0.335
-291.647	-200.000	0.028	-0.388
-290.632	-200.000	0.016	-0.367
-289.618	-34.386	0.054	-0.030
-288.603	-6.982	0.252	-0.171
-287.589	-48.671	-0.350	0.168
-286.574	800.000	0.052	0.162
-285.559	673.305	-0.023	-0.061
-284.545	-152.847	-0.083	0.006
-283.530	199.612	-0.081	-0.125
-282.516	-48.922	0.392	0.188
-281.501	1.089	0.203	0.145
-280.486	97.246	0.060	0.068
-279.472	-44.021	-0.081	0.041
-278.457	-132.370	-0.338	-0.044
-277.443	33.465	-0.159	0.138
-276.428	-85.159	-0.446	-0.139
-275.413	31.055	0.292	-0.250
-274.399	208.871	0.072	0.113
-273.384	794.635	0.061	-0.167
-272.370	-17.335	-0.058	0.036
-271.355	800.000	-0.010	0.042
-270.340	-49.004	-0.461	-0.220
-269.326	-16.816	0.085	-0.054
-268.311	-72.061	0.043	-0.016
-267.297	-109.334	0.206	-0.043
-266.282	-200.000	-0.001	-0.171
-265.267	-200.000	-0.011	0.249
-264.253	166.680	-0.096	0.136
-263.238	-200.000	-0.012	0.258
-262.224	231.425	0.159	-0.259
-261.209	-180.724	0.270	-0.005
-260.195	638.429	-0.141	-0.358
-259.180	-18.288	0.164	-0.102
-258.165	-200.000	-0.043	-0.474
-257.151	-200.000	-0.011	-0.318
-256.136	44.063	-0.406	-0.371
-255.122	10.003	-0.170	-0.129
-254.107	800.000	-0.066	0.252
-253.092	607.533	-0.135	-0.336
-252.078	65.741	0.201	-0.203
-251.063	98.258	-0.183	0.210
-250.049	99.322	-0.397	0.457
-249.034	-170.707	0.203	-0.007
-248.019	-200.000	0.000	-0.013
-247.005	-143.168	0.215	-0.021
-245.990	-11.031	0.128	0.084
-244.976	-167.206	0.250	0.010
-243.961	-187.011	0.307	0.004
-242.946	-73.665	0.385	0.140
-241.932	208.380	-0.125	-0.195
-240.917	-21.899	0.173	0.105
-239.903	-200.000	-0.018	-0.269
-238.888	-155.088	0.084	-0.005
-237.873	731.363	-0.085	0.227
-236.859	-144.495	0.161	0.015
-235.844	354.746	-0.217	-0.429
-234.830	-113.482	0.253	0.049
-233.815	-176.634	0.241	-0.006
-232.800	-10.486	-0.145	0.096
-231.786	-123.788	0.339	-0.053
-230.771	24.102	-0.216	-0.178
-229.757	-82.574	-0.272	-0.088
-228.742	-200.000	0.034	0.277
-227.727	-169.040	0.501	0.019
-226.713	317.514	-0.082	0.155
-225.698	-24.963	0.277	0.164
-224.684	427.402	0.146	-0.315
-223.669	102.882	0.040	-0.046
-222.655	52.081	-0.253	0.240
-221.640	800.000	0.043	0.122
-220.625	6.788	0.196	0.145
-219.611	-200.000	-0.047	0.224
-218.596	533.436	0.155	-0.366
-217.582	-60.623	-0.159	0.067
-216.567	251.492	-0.094	0.160
-215.552	-200.000	-0.060	0.512
-214.538	40.330	0.137	0.123
-213.523	-89.909	-0.267	-0.078
-212.509	-111.279	0.289	-0.059
-211.494	-109.948	-0.142	-0.030
-210.479	-200.000	-0.049	0.265
-209.465	40.063	-0.099	0.089
-208.450	84.571	0.232	0.252
-207.436	800.000	-0.059	0.185
-206.421	-200.000	0.005	0.250
-205.406	675.546	0.085	0.219
-204.392	262.398	0.204	-0.352
-203.377	112.150	0.187	-0.225
-202.363	-74.857	-0.137	0.049
-201.348	36.588	0.331	0.290
-200.333	683.690	0.089	-0.231
-199.319	79.124	0.279	-0.298
-198.304	208.572	-0.054	-0.084
-197.290	-113.177	-0.165	-0.032
-196.275	-18.105	-0.096	-0.060
-195.260	43.654	0.310	0.282
-194.246	796.766	-0.130	-0.357
-193.231	800.000	-0.016	-0.052
-192.217	-172.792	-0.172	-0.005
-191.202	800.000	0.038	-0.110
-190.187	-45.889	-0.392	0.192
-189.173	-30.227	-0.078	-0.044
-188.158	779.917	0.082	0.223
-187.144	-200.000	-0.021	-0.109
-186.129	-200.000	0.015	0.276
-185.114	26.724	-0.222	-0.185
-184.100	241.130	0.066	0.110
-183.085	556.891	0.202	0.485
-182.071	51.102	0.287	-0.270
-181.056	90.718	0.332	0.369
-180.042	299.056	-0.130	0.237
-179.027	-29.242	0.020	-0.012
-178.012	-41.057	0.129	0.066
-176.998	-166.930	-0.257	-0.010
-175.983	-141.185	-0.186	0.019
-174.969	-200.000	0.001	0.040
-173.954	59.735	-0.172	0.169
-172.939	104.733	0.057	0.066
-171.925	-200.000	0.030	0.411
-170.910	-200.000	0.003	0.323
-169.896	-104.989	-0.186	-0.042
-168.881	800.000	0.047	-0.141
-167.866	-103.193	0.239	-0.056
-166.852	7.157	0.361	0.268
-165.837	162.612	-0.031	-0.044
-164.823	61.645	-0.271	0.268
-163.808	229.626	-0.233	0.377
-162.793	-102.467	-0.166	-0.040
-161.779	74.088	0.033	-0.034
-160.764	1.543	0.482	-0.345
-159.750	-5.181	0.294	0.201
-158.735	800.000	0.018	0.065
-157.720	-98.849	0.291	-0.073
-156.706	-91.253	0.197	0.056
-155.691	800.000	0.044	-0.131
-154.677	-200.000	-0.004	-0.240
-153.662	378.458	0.149	-0.303
-152.647	263.128	-0.102	-0.175
-151.633	-85.852	0.365	-0.112
-150.618	-67.968	-0.368	0.143
-149.604	800.000	0.029	-0.122
-148.589	94.507	-0.149	-0.168
-147.574	-72.298	0.297	-0.109
-146.560	203.706	0.153	-0.235
-145.545	320.490	0.091	0.171
-144.531	-60.456	-0.347	-0.147
-143.516	424.997	0.107	0.229
-142.502	291.868	-0.137	0.247
-141.487	-200.000	0.001	0.024
-140.472	-82.615	-0.410	-0.132
-139.458	-200.000	-0.070	-0.331
-138.443	-110.964	0.207	-0.042
-137.429	-200.000	-0.027	-0.231
-136.414	-143.337	0.312	0.030
-135.399	800.000	-0.144	0.421
-134.385	57.572	-0.145	0.140
-133.370	-117.777	0.180	0.032
-132.356	-100.119	-0.211	-0.052
-131.341	-85.766	-0.103	-0.032
-130.326	398.134	-0.106	0.221
-129.312	800.000	0.082	0.266
-128.297	-21.864	-0.264	-0.159
-127.283	-200.000	0.032	-0.272
-126.268	7.216	-0.140	0.104
-125.253	800.000	0.137	0.400
-124.239	800.000	-0.069	0.202
-123.224	-196.973	0.392	-0.003
-122.210	-0.728	-0.146	-0.103
