DTS Sentinel unit serial number:	SN413079Multiplexer serial number:	ORYXHardware model number:	OX4-SRSoftware version number:	ORYX F/W v4.00 Oryx Data Collector v3.7.2.0data status	okinstallation	princeton_trtdifferential loss correction	single-endedforward channel	channel 4reverse channel	N/Adate	2019/09/19time	05:53:35forward acquisition time	60.00reverse acquisition time	0.00gamma	496.2192k internal	0.2340k external	0.2340temperature offset calibration	1.0029default loss term (dB/km)	0.3790temperature slope calibration	1.0000multiplexer offset coefficient	1.0000multiplexer slope coefficient	1.0000fibre end	0.00T internal ref (°C)	19.19T ext. ref 1 (°C)	0.58T ext. ref 2 (°C)	12.74length (m)	temperature (°C)	Stokes	anti-Stokes-747.200	285.264	0.094	-0.169
-746.185	-200.000	0.047	0.516
-745.171	-88.169	0.041	0.012
-744.156	-55.078	-0.304	0.137
-743.142	-200.000	0.030	-0.139
-742.127	800.000	-0.048	-0.195
-741.112	500.463	0.038	0.087
-740.098	-120.471	-0.315	0.054
-739.083	463.835	-0.214	0.480
-738.069	-144.063	0.126	-0.012
-737.054	-50.189	-0.194	-0.092
-736.039	-40.365	-0.208	0.109
-735.025	-49.243	0.229	0.110
-734.010	747.317	0.012	-0.032
-732.996	-70.716	-0.250	0.095
-731.981	-160.030	-0.236	-0.013
-730.966	-200.000	-0.013	0.061
-729.952	105.916	-0.155	0.184
-728.937	80.724	-0.081	0.088
-727.923	65.153	0.151	0.152
-726.908	12.117	-0.193	0.148
-725.894	-40.854	-0.276	-0.143
-724.879	-95.871	-0.441	0.118
-723.864	179.647	-0.159	-0.233
-722.850	-52.357	-0.409	-0.190
-721.835	272.133	0.149	-0.264
-720.821	800.000	0.062	-0.197
-719.806	-171.209	-0.198	-0.007
-718.791	-77.852	0.446	0.154
-717.777	-200.000	0.037	-0.241
-716.762	113.049	-0.024	0.029
-715.748	-35.265	-0.510	0.278
-714.733	229.166	-0.136	0.223
-713.718	-200.000	-0.020	0.136
-712.704	104.611	-0.291	-0.343
-711.689	-29.338	-0.122	-0.070
-710.675	-26.314	0.246	-0.145
-709.660	7.650	0.144	0.108
-708.645	-200.000	0.032	-0.160
-707.631	-106.779	0.179	0.040
-706.616	-155.880	-0.034	-0.002
-705.602	330.742	-0.177	0.342
-704.587	-156.806	0.192	-0.012
-703.572	441.373	0.090	-0.198
-702.558	-125.050	0.050	0.008
-701.543	-200.000	0.004	-0.092
-700.529	663.480	-0.060	-0.154
-699.514	-99.651	-0.297	0.075
-698.499	-87.761	0.175	-0.053
-697.485	151.132	-0.209	-0.284
-696.470	-200.000	-0.053	0.387
-695.456	-123.544	0.246	0.039
-694.441	-91.680	-0.071	-0.020
-693.426	122.387	-0.216	0.270
-692.412	13.291	-0.143	0.111
-691.397	25.140	0.140	-0.117
-690.383	800.000	0.080	-0.319
-689.368	-8.602	0.077	0.052
-688.354	-200.000	0.010	0.212
-687.339	800.000	0.137	-0.381
-686.324	-27.159	0.147	-0.086
-685.310	800.000	-0.096	0.272
-684.295	-122.409	-0.410	-0.067
-683.281	169.414	-0.097	-0.139
-682.266	-114.212	-0.112	0.022
-681.251	-5.791	0.272	0.187
-680.237	-83.670	-0.411	0.131
-679.222	-28.020	0.200	-0.116
-678.208	22.194	-0.338	0.276
-677.193	-200.000	0.025	0.173
-676.178	-143.115	0.177	0.017
-675.164	800.000	-0.040	-0.172
-674.149	53.926	-0.240	0.231
-673.135	23.363	0.227	-0.186
-672.120	15.791	-0.125	-0.098
-671.105	-200.000	0.027	0.146
-670.091	2.973	-0.242	-0.176
-669.076	69.376	-0.128	-0.132
-668.062	-70.235	0.148	-0.056
-667.047	-76.873	-0.231	-0.081
-666.032	-13.252	-0.415	-0.269
-665.018	99.564	-0.167	0.193
-664.003	-200.000	0.022	0.144
-662.989	-59.477	-0.018	-0.008
-661.974	800.000	0.128	-0.475
-660.959	-6.464	0.220	0.150
-659.945	162.820	-0.206	0.289
-658.930	-64.253	0.239	-0.097
-657.916	-200.000	-0.036	-0.224
-656.901	-83.124	0.252	0.081
-655.886	196.621	-0.114	-0.174
-654.872	114.652	0.088	-0.108
-653.857	-2.908	-0.105	0.073
-652.843	-71.561	-0.149	-0.056
-651.828	-11.249	-0.134	0.088
-650.814	-200.000	-0.078	0.361
-649.799	800.000	-0.023	-0.075
-648.784	266.506	-0.180	-0.314
-647.770	-116.417	-0.391	0.072
-646.755	-133.836	0.358	-0.045
-645.741	22.349	-0.205	-0.167
-644.726	800.000	0.030	0.108
-643.711	-200.000	-0.024	0.164
-642.697	101.404	0.069	0.080
-641.682	-18.180	-0.379	-0.237
-640.668	145.529	0.217	0.291
-639.653	378.901	-0.143	0.293
-638.638	-124.648	0.093	-0.014
-637.624	-200.000	0.061	0.266
-636.609	59.517	0.373	-0.368
-635.595	-200.000	-0.079	-0.372
-634.580	13.118	0.243	-0.188
-633.565	-96.330	-0.175	0.046
-632.551	-200.000	-0.005	-0.457
-631.536	93.603	-0.158	0.179
-630.522	397.438	-0.210	-0.438
-629.507	-124.901	-0.220	0.034
-628.492	-200.000	0.004	-0.060
-627.478	45.684	0.021	-0.019
-626.463	25.048	-0.146	0.121
-625.449	800.000	-0.055	-0.185
-624.434	573.394	-0.159	0.387
-623.419	-200.000	-0.003	0.120
-622.405	800.000	-0.075	-0.226
-621.390	691.910	0.046	-0.121
-620.376	320.362	-0.122	-0.230
-619.361	106.761	-0.306	-0.362
-618.346	24.991	0.200	-0.166
-617.332	-31.797	0.176	0.098
-616.317	199.833	0.287	-0.440
-615.303	-200.000	-0.008	-0.060
-614.288	-193.776	-0.281	-0.002
-613.273	-166.260	-0.424	0.018
-612.259	-111.602	-0.204	-0.041
-611.244	-200.000	-0.047	0.295
-610.230	38.426	0.203	0.181
-609.215	-140.791	0.143	0.015
-608.201	-200.000	-0.047	-0.366
-607.186	-91.969	0.015	-0.004
-606.171	453.978	0.037	0.082
-605.157	-18.054	0.219	0.137
-604.142	41.322	0.064	0.057
-603.128	10.566	0.327	-0.249
-602.113	-71.901	-0.079	0.029
-601.098	-200.000	-0.021	-0.128
-600.084	-186.553	-0.168	0.002
-599.069	36.278	0.150	0.132
-598.055	-151.507	-0.137	0.010
-597.040	-200.000	0.086	0.517
-596.025	-42.058	-0.168	0.086
-595.011	800.000	-0.099	0.338
-593.996	420.875	0.103	0.220
-592.982	-34.150	0.040	-0.022
-591.967	29.660	-0.305	-0.259
-590.952	663.637	-0.139	0.359
-589.938	800.000	-0.071	-0.306
-588.923	711.418	0.116	-0.306
-587.909	89.689	-0.218	-0.243
-586.894	253.017	-0.058	-0.099
-585.879	21.185	-0.273	-0.221
-584.865	-74.304	-0.184	0.066
-583.850	-200.000	0.003	-0.194
-582.836	-183.277	0.376	0.007
-581.821	-19.076	-0.149	-0.092
-580.806	-154.487	0.181	0.012
-579.792	-200.000	-0.003	-0.044
-578.777	-35.680	-0.200	0.108
-577.763	-32.478	-0.247	0.137
-576.748	-141.887	0.371	-0.037
-575.733	451.520	-0.149	0.329
-574.719	-84.449	-0.183	-0.058
-573.704	-54.074	0.144	-0.065
-572.690	-52.571	-0.182	-0.084
-571.675	-47.844	0.109	0.053
-570.661	800.000	-0.069	0.277
-569.646	800.000	-0.110	-0.352
-568.631	-35.323	0.128	-0.069
-567.617	129.775	0.150	0.192
-566.602	-20.652	-0.022	0.014
-565.588	28.977	0.246	0.208
-564.573	-133.356	0.363	-0.046
-563.558	-64.395	-0.309	-0.125
-562.544	-200.000	-0.001	-0.209
-561.529	-44.584	-0.086	0.043
-560.515	-171.517	-0.322	-0.011
-559.500	-118.330	-0.103	-0.018
-558.485	-18.896	-0.287	-0.178
-557.471	97.351	-0.081	-0.093
-556.456	88.124	-0.104	0.115
-555.442	-85.743	0.099	0.030
-554.427	125.509	0.257	0.323
-553.412	132.682	0.211	-0.271
-552.398	-24.203	0.236	-0.140
-551.383	232.562	-0.107	0.175
-550.369	-5.816	0.160	-0.109
-549.354	-39.042	0.189	0.099
-548.339	-51.963	-0.249	0.115
-547.325	800.000	0.113	0.330
-546.310	35.410	-0.151	-0.132
-545.296	-72.370	-0.228	-0.084
-544.281	7.151	0.050	-0.037
-543.266	57.229	-0.163	-0.158
-542.252	84.275	0.080	-0.087
-541.237	-80.763	0.287	-0.095
-540.223	75.585	0.213	0.224
-539.208	-44.366	-0.207	-0.103
-538.193	-46.572	0.353	0.172
-537.179	642.798	0.124	0.314
-536.164	-95.893	-0.482	0.128
-535.150	430.589	-0.097	-0.209
-534.135	800.000	-0.038	0.157
-533.121	-40.712	0.175	0.090
-532.106	117.937	0.171	0.210
-531.091	21.566	0.083	-0.067
-530.077	-19.397	-0.319	-0.197
-529.062	-15.891	-0.036	0.023
-528.048	722.028	0.115	-0.304
-527.033	-200.000	0.040	-0.433
-526.018	800.000	0.048	-0.187
-525.004	-118.593	-0.097	0.017
-523.989	800.000	-0.006	-0.018
-522.975	161.908	-0.145	-0.202
-521.960	-200.000	-0.035	0.200
-520.945	-200.000	0.002	0.159
-519.931	271.167	-0.024	-0.041
-518.916	-200.000	0.011	0.330
-517.902	183.371	0.108	-0.159
-516.887	-29.394	0.106	0.060
-515.872	-200.000	-0.031	-0.350
-514.858	-130.769	-0.251	0.034
-513.843	187.237	-0.128	-0.190
-512.829	261.716	0.208	0.358
-511.814	-152.962	-0.062	0.004
-510.799	107.666	0.041	-0.049
-509.785	-3.806	0.052	0.036
-508.770	-10.860	-0.352	0.231
-507.756	-123.293	0.217	-0.034
-506.741	800.000	-0.032	0.129
-505.726	-107.684	-0.226	0.049
-504.712	387.169	0.157	0.322
-503.697	-200.000	0.001	0.096
-502.683	62.968	-0.080	-0.079
-501.668	310.677	0.085	-0.158
-500.653	800.000	-0.058	-0.192
-499.639	-88.910	-0.520	-0.153
-498.624	15.556	-0.260	0.203
-497.610	431.335	0.077	-0.165
-496.595	800.000	-0.122	-0.459
-495.581	2.304	0.239	0.172
-494.566	4.892	-0.086	0.063
-493.551	-200.000	0.052	-0.326
-492.537	10.434	0.118	-0.089
-491.522	-200.000	0.012	-0.301
-490.508	429.599	0.112	0.240
-489.493	-191.149	-0.141	-0.001
-488.478	16.376	0.355	0.278
-487.464	315.492	-0.140	-0.263
-486.449	168.744	0.135	-0.191
-485.435	-200.000	-0.007	-0.086
-484.420	361.476	-0.161	-0.320
-483.405	800.000	0.048	-0.160
-482.391	-197.213	0.139	-0.001
-481.376	-147.600	-0.294	0.025
-480.362	-35.941	-0.307	0.165
-479.347	-19.003	-0.199	0.123
-478.332	111.652	-0.038	0.046
-477.318	-119.663	0.179	0.031
-476.303	542.748	0.051	-0.121
-475.289	-58.537	0.278	-0.120
-474.274	59.940	-0.319	0.313
-473.259	-161.093	0.344	0.018
-472.245	-200.000	0.003	-0.240
-471.230	426.579	-0.135	-0.288
-470.216	651.757	0.097	0.246
-469.201	800.000	0.057	0.158
-468.186	611.360	0.042	0.104
-467.172	199.413	-0.074	0.112
-466.157	800.000	0.040	0.135
-465.143	18.582	-0.086	0.068
-464.128	-100.339	0.463	-0.114
-463.113	567.665	-0.061	-0.148
-462.099	-25.404	0.156	0.092
-461.084	-48.825	0.218	0.104
-460.070	188.985	-0.081	0.121
-459.055	-80.455	0.158	0.052
-458.040	-200.000	0.013	-0.230
-457.026	133.621	-0.109	-0.140
-456.011	-20.457	-0.155	0.095
-454.997	278.316	0.040	-0.070
-453.982	800.000	0.039	0.155
-452.968	-116.031	-0.177	-0.033
-451.953	-112.084	0.261	0.052
-450.938	-26.850	0.225	-0.131
-449.924	800.000	-0.030	0.089
-448.909	127.186	-0.123	-0.154
-447.895	60.733	-0.152	0.149
-446.880	-74.807	-0.135	0.048
-445.865	-20.855	0.171	-0.104
-444.851	117.194	0.057	-0.069
-443.836	97.303	-0.197	-0.225
-442.822	800.000	-0.087	0.237
-441.807	139.418	0.176	-0.229
-440.792	-114.109	0.134	0.026
-439.778	-22.071	-0.335	0.202
-438.763	-118.432	0.200	0.035
-437.749	-114.596	-0.300	0.057
-436.734	800.000	0.071	-0.283
-435.719	166.800	-0.090	0.126
-434.705	-62.411	-0.137	0.057
-433.690	800.000	-0.049	0.201
-432.676	-92.875	-0.105	-0.029
-431.661	42.722	-0.105	-0.094
-430.646	129.450	-0.077	0.097
-429.632	-200.000	-0.015	0.208
-428.617	-97.459	0.247	0.064
-427.603	296.887	0.014	-0.025
-426.588	-159.786	-0.178	0.010
-425.573	187.450	-0.072	0.106
-424.559	-200.000	-0.016	-0.070
-423.544	-74.351	0.302	-0.108
-422.530	-200.000	0.028	0.305
-421.515	800.000	0.014	0.055
-420.500	133.635	-0.083	0.107
-419.486	66.297	0.076	-0.076
-418.471	-83.545	0.171	-0.054
-417.457	-109.668	-0.160	-0.033
-416.442	-80.930	-0.235	0.077
-415.428	112.245	0.346	0.414
-414.413	-140.618	0.296	0.030
-413.398	47.899	-0.270	-0.249
-412.384	-177.829	-0.239	0.006
-411.369	-8.155	0.130	0.086
-410.355	118.460	-0.050	0.061
-409.340	77.890	0.143	-0.151
-408.325	79.780	-0.185	-0.197
-407.311	443.957	-0.153	-0.333
-406.296	474.497	-0.143	0.319
-405.282	38.315	-0.248	0.218
-404.267	-18.849	-0.092	0.056
-403.252	800.000	0.034	-0.130
-402.238	3.463	0.294	0.212
-401.223	157.395	0.166	-0.228
-400.209	202.503	0.112	0.172
-399.194	-200.000	-0.022	0.123
-398.179	100.695	0.165	-0.190
-397.165	-25.796	-0.109	0.064
-396.150	-112.898	-0.219	0.043
-395.136	113.944	0.068	-0.082
-394.121	499.510	0.084	0.192
-393.106	800.000	-0.076	0.223
-392.092	2.246	-0.288	-0.206
-391.077	-94.406	0.092	0.025
-390.063	-7.225	-0.305	-0.204
-389.048	23.566	-0.214	-0.174
-388.033	-80.709	-0.087	-0.029
-387.019	171.663	-0.046	-0.066
-386.004	800.000	-0.019	-0.068
-384.990	-37.264	0.062	-0.033
-383.975	-200.000	0.045	-0.227
-382.960	375.218	0.127	0.255
-381.946	16.725	0.244	0.191
-380.931	-103.037	0.112	-0.026
-379.917	-36.888	-0.175	0.093
-378.902	-65.820	0.271	0.107
-377.888	-117.036	-0.143	-0.026
-376.873	-111.536	0.315	0.063
-375.858	-158.349	0.194	0.011
-374.844	-200.000	-0.001	0.072
-373.829	-148.500	-0.309	0.025
-372.815	-50.476	0.322	0.150
-371.800	-157.074	0.036	-0.002
-370.785	-164.141	-0.316	0.014
-369.771	-136.147	-0.301	-0.035
-368.756	-200.000	-0.041	0.193
-367.742	-99.166	-0.094	0.023
-366.727	407.375	0.086	-0.179
-365.712	-63.322	-0.161	0.066
-364.698	23.580	-0.086	0.070
-363.683	-200.000	-0.020	0.375
-362.669	-54.110	0.323	-0.145
-361.654	505.828	0.203	0.465
-360.639	-35.080	0.052	-0.028
-359.625	-200.000	-0.004	-0.111
-358.610	-121.340	-0.133	0.022
-357.596	117.512	-0.193	-0.234
-356.581	328.406	-0.185	-0.351
-355.566	298.628	0.050	0.092
-354.552	37.941	0.083	0.073
-353.537	-170.830	0.292	-0.010
-352.523	282.043	-0.120	-0.213
-351.508	-200.000	0.012	-0.114
-350.493	-25.697	-0.092	0.054
-349.479	248.427	-0.105	-0.176
-348.464	800.000	-0.077	0.227
-347.450	0.985	-0.058	0.041
-346.435	-61.708	-0.143	-0.059
-345.420	-47.102	-0.116	0.056
-344.406	134.738	0.119	-0.152
-343.391	-40.635	0.117	0.060
-342.377	176.568	0.247	0.355
-341.362	207.429	-0.107	-0.164
-340.348	-106.591	-0.266	-0.058
-339.333	-80.628	-0.417	0.137
-338.318	-93.125	0.042	-0.011
-337.304	800.000	-0.043	-0.161
-336.289	144.743	0.075	0.099
-335.275	373.408	0.058	0.117
-334.260	800.000	0.061	-0.201
-333.245	132.269	-0.222	0.282
-332.231	-51.232	-0.090	0.041
-331.216	-131.675	0.370	-0.048
-330.202	506.895	-0.166	0.381
-329.187	-200.000	-0.035	-0.163
-328.172	139.646	-0.149	0.193
-327.158	-156.672	0.201	-0.012
-326.143	32.156	0.256	-0.218
-325.129	-200.000	-0.002	-0.185
-324.114	-155.169	0.553	0.036
-323.099	24.491	0.034	0.028
-322.085	600.197	0.061	-0.150
-321.070	-200.000	-0.009	-0.233
-320.056	-200.000	-0.109	-0.000
-319.041	-37.091	-0.151	-0.080
-318.026	169.140	0.067	-0.095
-317.012	96.105	0.210	-0.237
-315.997	48.538	0.371	0.342
-314.983	410.313	-0.068	-0.142
-313.968	32.464	0.296	-0.252
-312.953	39.991	-0.085	-0.075
-311.939	209.816	0.119	0.184
-310.924	28.722	-0.176	0.147
-309.910	-200.000	0.002	0.107
-308.895	-155.165	-0.146	0.009
-307.880	-89.945	-0.138	-0.040
-306.866	184.335	-0.082	0.120
-305.851	15.455	-0.241	-0.186
-304.837	-200.000	0.014	0.081
-303.822	-106.368	-0.292	0.064
-302.807	24.892	0.300	0.245
-301.793	-126.113	0.131	0.019
-300.778	800.000	-0.052	-0.219
-299.764	577.869	-0.006	0.015
-298.749	-88.995	0.118	-0.035
-297.735	-200.000	0.012	0.202
-296.720	-108.636	0.328	-0.069
-295.705	20.315	-0.124	-0.098
-294.691	27.370	-0.235	-0.195
-293.676	800.000	-0.053	0.202
-292.662	800.000	0.132	-0.429
-291.647	253.311	0.195	0.328
-290.632	149.403	0.119	-0.158
-289.618	31.725	0.105	0.089
-288.603	-46.554	-0.508	-0.245
-287.589	-65.573	0.109	-0.043
-286.574	657.438	-0.130	0.330
-285.559	160.931	-0.094	0.129
-284.545	10.386	0.247	-0.186
-283.530	182.183	-0.121	-0.176
-282.516	-41.042	0.168	0.085
-281.501	-0.564	-0.213	0.149
-280.486	-19.899	0.095	0.058
-279.472	351.074	-0.101	-0.196
-278.457	-124.145	0.152	-0.023
-277.443	27.500	-0.148	-0.122
-276.428	-135.470	-0.308	0.036
-275.413	-84.848	-0.170	0.053
-274.399	-200.000	-0.085	0.471
-273.384	-200.000	-0.016	-0.075
-272.370	-99.677	0.427	-0.106
-271.355	-200.000	0.015	0.224
-270.340	-200.000	-0.043	0.200
-269.326	303.655	0.081	-0.148
-268.311	-77.611	0.180	-0.061
-267.297	31.863	-0.029	0.025
-266.282	-129.913	0.133	-0.018
-265.267	-200.000	0.011	-0.118
-264.253	-200.000	0.022	0.205
-263.238	-124.698	0.214	0.033
-262.224	-44.172	0.133	-0.066
-261.209	18.497	0.426	0.335
-260.195	800.000	-0.081	0.255
-259.180	258.646	-0.028	0.048
-258.165	390.259	0.051	0.103
-257.151	-155.840	0.113	-0.007
-256.136	122.371	-0.178	-0.219
-255.122	-200.000	-0.008	0.071
-254.107	800.000	0.074	0.212
-253.092	127.775	0.100	-0.125
-252.078	-4.027	0.239	0.163
-251.063	-150.795	-0.465	-0.035
-250.049	682.350	-0.107	-0.275
-249.034	205.447	-0.107	0.163
-248.019	-97.454	0.060	0.015
-247.005	800.000	0.168	-0.636
-245.990	-200.000	0.008	0.403
-244.976	-45.440	-0.094	0.046
-243.961	-200.000	-0.011	-0.422
-242.946	-129.013	-0.448	0.062
-241.932	93.506	0.177	-0.197
-240.917	800.000	-0.072	0.238
-239.903	800.000	0.137	0.409
-238.888	-200.000	-0.006	0.217
-237.873	68.958	0.180	-0.181
-236.859	555.957	0.122	-0.290
-235.844	-200.000	0.022	0.259
-234.830	-37.015	-0.134	0.071
-233.815	170.037	-0.180	0.253
-232.800	-200.000	0.042	-0.300
-231.786	-88.885	-0.268	-0.078
-230.771	800.000	-0.036	-0.153
-229.757	-153.549	-0.081	0.006
-228.742	545.537	-0.014	-0.032
-227.727	191.089	0.148	0.219
-226.713	-37.561	-0.174	0.091
-225.698	-143.035	0.361	-0.034
-224.684	-140.178	0.125	-0.013
-223.669	-45.739	-0.201	-0.097
-222.655	-70.223	-0.139	0.052
-221.640	678.646	0.046	-0.118
-220.625	-200.000	0.040	0.237
-219.611	480.513	-0.018	-0.039
-218.596	-75.749	-0.049	-0.017
-217.582	-56.402	0.075	0.033
-216.567	110.968	-0.094	-0.111
-215.552	-200.000	0.058	0.321
-214.538	800.000	-0.090	0.302
-213.523	-200.000	0.005	-0.082
-212.509	546.387	-0.102	0.239
-211.494	-58.809	0.026	0.011
-210.479	384.272	-0.132	0.266
-209.465	-102.586	0.218	-0.051
-208.450	-5.550	-0.088	0.059
-207.436	-200.000	-0.032	-0.235
-206.421	800.000	-0.044	0.128
-205.406	800.000	0.143	0.572
-204.392	-99.371	-0.113	0.028
-203.377	-95.915	-0.254	0.067
-202.363	662.987	0.057	-0.145
-201.348	265.625	0.201	-0.344
-200.333	-200.000	0.024	-0.315
-199.319	-200.000	0.015	0.121
-198.304	172.564	-0.071	-0.100
-197.290	5.558	0.103	-0.074
-196.275	274.549	0.261	-0.454
-195.260	310.117	-0.050	-0.091
-194.246	-200.000	0.029	0.245
-193.231	-200.000	0.051	0.223
-192.217	71.451	0.395	-0.402
-191.202	440.373	0.192	-0.412
-190.187	-133.712	-0.148	-0.018
-189.173	-119.507	-0.245	0.042
-188.158	143.802	-0.064	-0.083
-187.144	-70.545	0.310	-0.115
-186.129	800.000	0.107	0.426
-185.114	-200.000	0.009	0.195
-184.100	800.000	-0.110	0.324
-183.085	49.028	-0.003	-0.003
-182.071	-131.109	0.199	-0.026
-181.056	-6.604	0.358	0.239
-180.042	355.137	0.249	-0.485
-179.027	-76.562	0.297	0.102
-178.012	80.260	0.311	0.328
-176.998	110.381	-0.170	-0.201
-175.983	-2.824	-0.253	-0.173
-174.969	25.306	0.073	0.059
-173.954	357.776	0.207	0.405
-172.939	182.882	0.146	-0.211
-171.925	-116.119	0.256	0.047
-170.910	-166.387	-0.286	0.012
-169.896	118.777	0.099	-0.120
-168.881	-200.000	-0.022	0.149
-167.866	-81.495	-0.150	0.048
-166.852	-5.713	0.339	-0.228
-165.837	-6.516	0.155	0.104
-164.823	44.168	0.370	0.333
-163.808	-180.872	0.143	0.003
-162.793	-200.000	-0.016	-0.069
-161.779	-2.315	-0.045	-0.031
-160.764	308.695	0.178	0.325
-159.750	93.082	0.175	-0.194
-158.735	-200.000	-0.065	-0.329
-157.720	6.746	-0.207	0.151
-156.706	-156.656	-0.083	-0.005
-155.691	256.854	-0.136	-0.228
-154.677	43.525	0.066	0.059
-153.662	-66.428	-0.081	-0.032
-152.647	-55.217	-0.175	-0.077
-151.633	-172.572	0.298	0.009
-150.618	471.249	-0.093	-0.204
-149.604	-178.358	0.117	0.003
-148.589	108.095	0.157	0.183
-147.574	-26.890	-0.152	-0.087
-146.560	411.562	-0.067	0.139
-145.545	418.048	-0.114	-0.240
-144.531	-66.085	0.275	-0.107
-143.516	-200.000	-0.032	0.147
-142.502	800.000	0.087	-0.323
-141.487	86.340	-0.163	0.176
-140.472	-95.868	-0.331	-0.086
-139.458	800.000	0.031	-0.090
-138.443	-170.923	0.205	0.007
-137.429	800.000	0.065	-0.206
-136.414	-105.898	0.129	0.029
-135.399	-128.190	0.212	0.030
-134.385	-200.000	-0.073	-0.448
-133.370	11.900	0.207	0.156
-132.356	-47.647	0.388	0.184
-131.341	54.682	-0.106	0.100
-130.326	-200.000	0.005	-0.028
-129.312	-136.182	-0.239	0.027
-128.297	-104.660	0.202	-0.046
-127.283	-200.000	0.003	0.020
-126.268	-200.000	-0.018	0.383
-125.253	-200.000	-0.026	-0.179
-124.239	-200.000	-0.023	-0.132
-123.224	-95.529	0.398	0.105
-122.210	-68.117	0.148	-0.057
-121.195	-166.761	-0.132	-0.005
