DTS Sentinel unit serial number:	SN413079Multiplexer serial number:	ORYXHardware model number:	OX4-SRSoftware version number:	ORYX F/W v4.00 Oryx Data Collector v3.7.2.0data status	okinstallation	princeton_trtdifferential loss correction	single-endedforward channel	channel 4reverse channel	N/Adate	2019/09/15time	10:53:35forward acquisition time	60.00reverse acquisition time	0.00gamma	496.2192k internal	0.2298k external	0.2298temperature offset calibration	1.0019default loss term (dB/km)	0.3790temperature slope calibration	1.0000multiplexer offset coefficient	1.0000multiplexer slope coefficient	1.0000fibre end	0.00T internal ref (°C)	34.25T ext. ref 1 (°C)	5.03T ext. ref 2 (°C)	29.80length (m)	temperature (°C)	Stokes	anti-Stokes-747.200	225.364	-0.101	0.168
-746.185	-96.186	-0.054	-0.015
-745.171	-113.380	0.088	-0.018
-744.156	-72.820	0.142	0.053
-743.142	198.795	0.158	0.246
-742.127	163.232	0.175	0.251
-741.112	-55.803	-0.196	0.089
-740.098	552.783	0.118	0.290
-739.083	-14.592	-0.147	0.096
-738.069	437.334	0.078	0.173
-737.054	800.000	0.056	0.175
-736.039	268.777	-0.060	-0.107
-735.025	112.151	0.170	0.210
-734.010	-200.000	-0.026	-0.214
-732.996	28.518	-0.017	0.015
-731.981	467.248	-0.153	0.350
-730.966	-134.308	0.179	0.022
-729.952	260.283	-0.247	-0.435
-728.937	65.218	-0.048	0.049
-727.923	-89.702	0.463	0.138
-726.908	0.486	-0.200	-0.145
-725.894	-72.939	0.178	-0.067
-724.879	152.030	-0.086	-0.120
-723.864	395.726	-0.148	-0.314
-722.850	449.854	-0.130	-0.293
-721.835	168.920	-0.023	0.033
-720.821	-152.602	-0.213	0.015
-719.806	-200.000	-0.026	-0.314
-718.791	-60.923	0.145	0.062
-717.777	29.165	-0.247	-0.214
-716.762	-147.413	0.088	-0.008
-715.748	800.000	0.099	-0.334
-714.733	-127.253	-0.297	-0.044
-713.718	85.993	0.067	-0.076
-712.704	-60.938	-0.131	-0.056
-711.689	-159.176	-0.086	-0.005
-710.675	-97.841	-0.247	-0.065
-709.660	130.777	0.056	-0.073
-708.645	800.000	0.046	0.187
-707.631	800.000	0.005	-0.021
-706.616	-125.364	0.136	0.021
-705.602	-3.388	-0.198	-0.141
-704.587	311.377	-0.165	-0.315
-703.572	-29.654	0.123	0.072
-702.558	-117.206	-0.091	-0.017
-701.543	-103.119	-0.103	-0.025
-700.529	122.228	0.053	0.067
-699.514	-95.704	-0.204	0.056
-698.499	48.759	0.124	-0.118
-697.485	-200.000	-0.028	-0.233
-696.470	28.436	-0.212	0.182
-695.456	800.000	-0.087	-0.310
-694.441	-99.635	-0.101	-0.026
-693.426	-200.000	0.026	-0.343
-692.412	800.000	-0.077	-0.260
-691.397	123.280	-0.286	-0.365
-690.383	-79.798	0.167	0.057
-689.368	-200.000	-0.009	-0.270
-688.354	-169.343	0.140	-0.005
-687.339	358.775	0.177	-0.360
-686.324	-59.117	-0.225	0.099
-685.310	-2.096	-0.153	-0.109
-684.295	149.895	0.139	-0.192
-683.281	391.014	-0.150	-0.316
-682.266	151.820	0.141	-0.196
-681.251	94.901	-0.058	0.068
-680.237	374.730	-0.113	0.235
-679.222	-200.000	0.021	0.106
-678.208	-123.756	-0.090	-0.014
-677.193	49.784	0.024	-0.023
-676.178	226.741	-0.166	-0.275
-675.164	488.916	-0.054	-0.125
-674.149	69.069	-0.157	-0.164
-673.135	87.700	0.063	0.071
-672.120	41.930	-0.133	-0.123
-671.105	-135.307	-0.307	0.037
-670.091	-75.469	0.037	0.014
-669.076	-84.666	-0.130	-0.042
-668.062	-143.625	0.358	-0.035
-667.047	657.316	0.108	-0.284
-666.032	338.572	0.068	-0.134
-665.018	88.529	-0.130	0.147
-664.003	-200.000	-0.041	0.399
-662.989	-73.879	-0.239	-0.088
-661.974	419.266	-0.219	-0.476
-660.959	800.000	0.058	-0.229
-659.945	800.000	0.062	0.183
-658.930	565.901	-0.145	-0.359
-657.916	377.202	0.114	-0.238
-656.901	-6.677	0.107	0.074
-655.886	800.000	0.049	-0.181
-654.872	-200.000	-0.007	0.210
-653.857	800.000	-0.056	-0.206
-652.843	248.898	0.083	0.142
-651.828	154.040	0.183	0.255
-650.814	81.224	0.408	-0.448
-649.799	-160.606	0.193	0.010
-648.784	-200.000	-0.043	-0.374
-647.770	-23.481	-0.048	0.029
-646.755	-137.109	-0.055	-0.006
-645.741	69.490	-0.079	0.083
-644.726	-79.139	-0.381	-0.131
-643.711	-91.507	-0.136	-0.039
-642.697	-50.251	-0.351	-0.169
-641.682	398.551	-0.162	0.344
-640.668	577.617	-0.077	0.191
-639.653	63.854	-0.213	0.217
-638.638	23.106	-0.307	-0.256
-637.624	-151.465	-0.038	0.003
-636.609	800.000	-0.053	0.155
-635.595	5.709	0.088	-0.066
-634.580	-129.492	-0.335	-0.047
-633.565	-147.807	0.257	-0.022
-632.551	-65.645	-0.343	-0.140
-631.536	-200.000	-0.022	0.286
-630.522	82.192	0.092	-0.102
-629.507	-12.739	0.108	0.071
-628.492	-200.000	-0.003	0.117
-627.478	17.862	-0.158	-0.128
-626.463	550.399	0.191	-0.466
-625.449	-137.909	0.103	-0.012
-624.434	37.034	-0.088	-0.079
-623.419	43.669	-0.202	-0.188
-622.405	12.354	0.209	-0.163
-621.390	649.091	-0.068	-0.177
-620.376	-137.823	-0.099	0.011
-619.361	656.954	0.083	-0.218
-618.346	-142.911	0.257	0.025
-617.332	-34.758	-0.111	-0.062
-616.317	-33.804	0.206	-0.115
-615.303	-137.740	-0.206	-0.023
-614.288	25.102	-0.225	-0.189
-613.273	731.989	0.096	0.259
-612.259	-200.000	0.003	-0.106
-611.244	-200.000	-0.051	-0.228
-610.230	-137.692	0.353	0.040
-609.215	74.573	-0.105	0.112
-608.201	255.551	-0.061	-0.106
-607.186	-99.698	-0.135	0.034
-606.171	-200.000	-0.010	0.099
-605.157	800.000	0.014	0.061
-604.142	-27.254	0.122	-0.072
-603.128	-118.260	-0.266	0.048
-602.113	102.587	0.179	-0.213
-601.098	65.735	0.146	0.150
-600.084	20.992	0.137	0.113
-599.069	5.683	0.223	0.167
-598.055	-63.591	-0.217	-0.091
-597.040	-163.286	-0.352	0.017
-596.025	800.000	0.061	-0.253
-595.011	19.608	0.122	-0.100
-593.996	-43.095	0.113	0.058
-592.982	234.422	-0.018	-0.030
-591.967	256.424	0.014	0.025
-590.952	-200.000	-0.019	0.226
-589.938	-21.949	0.231	0.143
-588.923	-200.000	-0.004	0.021
-587.909	241.161	0.091	-0.154
-586.894	-200.000	-0.010	-0.206
-585.879	259.600	0.078	-0.137
-584.865	800.000	0.048	0.147
-583.850	-200.000	0.002	-0.051
-582.836	-164.319	0.129	-0.006
-581.821	64.427	-0.275	0.281
-580.806	-200.000	-0.008	-0.063
-579.792	70.298	-0.118	-0.123
-578.777	-43.313	0.094	-0.048
-577.763	37.827	0.139	-0.125
-576.748	-126.888	-0.172	-0.026
-575.733	395.345	-0.061	0.129
-574.719	583.238	0.058	-0.145
-573.704	181.970	0.173	0.258
-572.690	105.563	0.139	-0.167
-571.675	449.842	-0.033	0.073
-570.661	800.000	0.019	0.080
-569.646	350.149	0.109	-0.218
-568.631	47.508	-0.132	-0.125
-567.617	119.660	-0.134	0.168
-566.602	-18.737	0.350	-0.221
-565.588	-81.743	-0.197	0.065
-564.573	104.444	-0.148	0.177
-563.558	246.654	-0.164	0.280
-562.544	-200.000	0.003	-0.323
-561.529	-64.432	0.171	0.071
-560.515	-200.000	-0.061	0.296
-559.500	255.762	-0.078	-0.135
-558.485	45.810	0.094	-0.088
-557.471	800.000	0.145	-0.440
-556.456	-68.745	-0.218	0.085
-555.442	-131.367	-0.127	-0.017
-554.427	800.000	0.042	-0.171
-553.412	-200.000	-0.010	0.056
-552.398	79.055	0.138	0.149
-551.383	6.686	0.210	-0.158
-550.369	-109.261	0.236	0.051
-549.354	-63.583	0.177	-0.074
-548.339	129.154	-0.168	-0.217
-547.325	-73.864	0.212	-0.078
-546.310	379.167	0.279	-0.579
-545.296	-157.303	-0.106	0.006
-544.281	171.898	0.168	0.245
-543.266	-48.090	0.209	0.102
-542.252	-28.636	-0.186	-0.108
-541.237	-123.292	-0.227	0.037
-540.223	-160.473	-0.111	0.006
-539.208	-200.000	0.013	-0.227
-538.193	-38.131	0.071	-0.038
-537.179	62.274	-0.205	0.207
-536.164	23.116	-0.057	-0.047
-535.150	112.544	0.127	0.156
-534.135	-200.000	-0.010	-0.115
-533.121	800.000	-0.051	-0.171
-532.106	340.493	0.175	-0.346
-531.091	800.000	-0.042	-0.120
-530.077	119.183	-0.012	0.015
-529.062	-123.391	-0.257	-0.042
-528.048	89.965	-0.130	-0.147
-527.033	-200.000	-0.021	0.216
-526.018	56.189	-0.052	0.051
-525.004	-73.352	-0.272	0.101
-523.989	-48.247	0.129	-0.063
-522.975	-111.770	0.234	0.048
-521.960	-36.337	-0.250	0.137
-520.945	-157.507	0.435	-0.026
-519.931	220.732	0.158	-0.257
-518.916	49.320	-0.078	0.074
-517.902	465.551	-0.069	0.156
-516.887	-83.880	-0.237	-0.076
-515.872	-200.000	-0.008	0.164
-514.858	170.556	0.127	-0.184
-513.843	506.058	0.074	-0.173
-512.829	128.404	-0.210	0.271
-511.814	15.290	-0.353	0.280
-510.799	-17.638	-0.202	0.128
-509.785	-181.903	0.219	0.004
-508.770	-31.667	-0.105	-0.060
-507.756	-43.419	-0.138	0.070
-506.741	-99.942	0.152	0.039
-505.726	-200.000	-0.003	-0.097
-504.712	-200.000	0.022	0.293
-503.697	557.649	-0.065	-0.159
-502.683	-115.191	-0.074	0.014
-501.668	-200.000	-0.005	-0.164
-500.653	91.072	-0.048	0.055
-499.639	-200.000	-0.025	0.388
-498.624	-85.773	0.190	0.060
-497.610	684.962	-0.041	-0.109
-496.595	-200.000	-0.018	-0.108
-495.581	185.807	0.204	0.306
-494.566	109.844	-0.093	0.112
-493.551	237.059	0.049	-0.082
-492.537	6.227	-0.238	-0.179
-491.522	-66.490	-0.175	-0.070
-490.508	-200.000	-0.005	-0.153
-489.493	-176.150	-0.215	-0.006
-488.478	687.320	0.104	-0.275
-487.464	-20.377	-0.202	-0.125
-486.449	159.883	-0.048	-0.067
-485.435	-26.173	0.392	0.233
-484.420	457.462	0.040	0.089
-483.405	-200.000	0.006	0.138
-482.391	-3.189	-0.271	-0.191
-481.376	800.000	0.030	0.131
-480.362	-200.000	-0.022	-0.132
-479.347	319.765	-0.108	-0.206
-478.332	-200.000	0.006	0.286
-477.318	631.149	-0.114	-0.292
-476.303	28.270	0.287	0.245
-475.289	-114.108	-0.245	0.048
-474.274	613.447	-0.117	0.297
-473.259	-110.477	-0.153	0.032
-472.245	-101.234	-0.109	-0.027
-471.230	-28.390	0.185	-0.108
-470.216	328.953	-0.077	0.149
-469.201	-200.000	0.029	-0.210
-468.186	-1.565	-0.116	0.083
-467.172	242.271	0.048	-0.080
-466.157	67.752	0.039	-0.040
-465.143	-42.498	-0.150	0.077
-464.128	-74.650	0.107	-0.039
-463.113	-136.920	-0.122	0.014
-462.099	-200.000	-0.022	0.192
-461.084	800.000	0.048	0.143
-460.070	-200.000	-0.022	0.314
-459.055	-200.000	0.033	-0.181
-458.040	-77.859	-0.180	0.063
-457.026	20.733	0.166	0.135
-456.011	-147.769	0.369	-0.031
-454.997	-200.000	0.006	0.035
-453.982	800.000	-0.017	-0.071
-452.968	-109.338	0.481	0.103
-451.953	-151.873	-0.085	-0.006
-450.938	800.000	0.052	-0.168
-449.924	800.000	0.072	-0.241
-448.909	800.000	0.113	0.330
-447.895	-108.895	0.134	-0.029
-446.880	103.220	-0.145	-0.172
-445.865	-51.871	0.161	-0.075
-444.851	266.060	0.084	-0.148
-443.836	-100.431	-0.321	0.080
-442.822	-11.221	-0.245	-0.163
-441.807	473.805	0.115	-0.261
-440.792	-200.000	-0.038	0.332
-439.778	-108.062	-0.164	0.036
-438.763	81.393	0.097	-0.106
-437.749	21.990	-0.045	0.037
-436.734	-200.000	0.011	0.246
-435.719	39.952	-0.260	-0.235
-434.705	-200.000	-0.009	-0.140
-433.690	-131.103	0.509	-0.068
-432.676	-133.127	-0.155	0.020
-431.661	800.000	0.117	0.337
-430.646	-65.441	0.111	0.045
-429.632	177.631	0.094	-0.138
-428.617	299.591	0.118	0.219
-427.603	-19.137	-0.109	-0.068
-426.588	450.771	0.163	-0.362
-425.573	397.209	0.092	-0.195
-424.559	-200.000	0.010	-0.061
-423.544	67.086	-0.084	0.087
-422.530	-99.434	-0.432	-0.110
-421.515	352.626	-0.158	0.315
-420.500	-100.212	0.233	0.058
-419.486	206.652	0.080	0.125
-418.471	-18.875	0.099	-0.062
-417.457	-200.000	-0.021	-0.148
-416.442	-129.410	-0.120	-0.017
-415.428	-122.834	-0.231	0.038
-414.413	-200.000	0.035	-0.305
-413.398	800.000	-0.025	-0.104
-412.384	-118.685	-0.337	0.060
-411.369	35.455	0.177	0.156
-410.355	-200.000	-0.066	0.345
-409.340	404.617	0.082	-0.174
-408.325	126.906	-0.162	0.207
-407.311	-200.000	-0.032	-0.192
-406.296	287.647	0.032	-0.058
-405.282	273.448	-0.258	0.459
-404.267	-104.178	0.171	-0.040
-403.252	-81.941	0.042	0.014
-402.238	269.670	0.032	0.056
-401.223	-2.296	0.057	-0.040
-400.209	73.701	-0.129	0.136
-399.194	76.791	-0.065	-0.069
-398.179	141.133	0.196	0.261
-397.165	24.130	-0.136	0.113
-396.150	-3.617	-0.154	-0.108
-395.136	22.541	-0.037	0.031
-394.121	521.496	0.168	0.397
-393.106	158.794	-0.035	0.049
-392.092	17.769	-0.038	0.030
-391.077	-200.000	-0.013	0.254
-390.063	-33.701	0.076	-0.042
-389.048	41.742	-0.026	0.024
-388.033	385.328	-0.175	0.363
-387.019	800.000	-0.141	0.414
-386.004	-88.967	-0.288	0.086
-384.990	-53.363	-0.460	0.212
-383.975	64.424	0.265	-0.268
-382.960	-75.719	0.196	0.070
-381.946	247.807	-0.128	0.218
-380.931	800.000	0.045	-0.172
-379.917	-200.000	0.016	-0.222
-378.902	59.679	-0.103	-0.102
-377.888	428.399	0.063	-0.136
-376.873	107.253	-0.157	-0.188
-375.858	-80.807	0.192	-0.064
-374.844	-200.000	-0.019	-0.459
-373.829	-164.265	-0.200	-0.009
-372.815	-25.559	0.151	0.090
-371.800	-70.247	-0.110	0.042
-370.785	221.980	-0.171	-0.276
-369.771	16.428	-0.064	0.051
-368.756	-174.917	0.085	-0.002
-367.742	-133.789	0.407	-0.051
-366.727	-56.849	-0.146	-0.065
-365.712	-64.488	0.211	-0.086
-364.698	248.682	-0.181	-0.307
-363.683	-200.000	-0.011	-0.106
-362.669	-200.000	0.010	-0.339
-361.654	-11.732	-0.118	0.078
-360.639	-10.199	0.239	-0.160
-359.625	167.783	-0.104	-0.148
-358.610	-200.000	-0.021	-0.340
-357.596	-40.762	-0.170	-0.088
-356.581	-90.552	-0.143	0.042
-355.566	800.000	-0.083	0.300
-354.552	800.000	-0.060	0.205
-353.537	36.951	0.249	0.221
-352.523	15.889	0.294	-0.232
-351.508	502.932	0.022	0.050
-350.493	25.554	-0.131	-0.110
-349.479	315.958	-0.184	0.350
-348.464	800.000	0.084	0.333
-347.450	-200.000	0.031	-0.338
-346.435	144.100	0.261	0.350
-345.420	-49.514	0.438	-0.210
-344.406	-132.585	0.104	0.013
-343.391	-142.848	-0.586	0.057
-342.377	-175.513	0.083	-0.002
-341.362	-200.000	-0.010	-0.045
-340.348	-148.110	0.233	0.019
-339.333	-37.621	0.307	-0.164
-338.318	-102.383	-0.139	-0.033
-337.304	-137.542	-0.111	0.013
-336.289	-168.575	-0.348	0.013
-335.275	-81.614	-0.365	-0.121
-334.260	-96.669	0.162	0.043
-333.245	72.960	0.069	-0.072
-332.231	-147.922	-0.328	-0.027
-331.216	-200.000	0.033	0.196
-330.202	58.995	-0.110	-0.109
-329.187	-79.783	0.250	0.085
-328.172	-200.000	0.002	-0.241
-327.158	121.978	0.173	-0.216
-326.143	800.000	-0.147	-0.459
-325.129	345.411	-0.035	-0.069
-324.114	783.946	0.016	-0.044
-323.099	103.338	-0.195	-0.229
-322.085	109.780	-0.186	0.224
-321.070	-78.568	0.264	-0.091
-320.056	-93.596	-0.023	0.006
-319.041	125.015	0.147	0.186
-318.026	68.878	0.063	0.064
-317.012	298.508	-0.103	0.190
-315.997	-163.417	-0.171	-0.008
-314.983	3.559	0.206	-0.151
-313.968	-45.256	-0.086	-0.043
-312.953	-117.931	0.112	-0.020
-311.939	68.138	-0.116	0.120
-310.924	432.962	-0.086	0.186
-309.910	-78.839	-0.227	0.078
-308.895	-107.237	-0.082	-0.018
-307.880	-71.862	0.126	0.047
-306.866	-29.214	0.317	-0.182
-305.851	-66.310	-0.134	0.053
-304.837	200.810	0.088	-0.136
-303.822	300.969	0.186	0.345
-302.807	32.292	0.128	0.111
-301.793	83.910	-0.244	0.267
-300.778	-106.964	-0.381	-0.085
-299.764	45.719	0.103	-0.095
-298.749	-91.996	-0.294	-0.083
-297.735	17.135	0.135	0.107
-296.720	73.422	0.274	0.287
-295.705	-17.134	0.315	-0.199
-294.691	47.962	-0.137	0.128
-293.676	22.735	0.049	-0.040
-292.662	800.000	-0.142	-0.592
-291.647	139.686	0.120	-0.158
-290.632	12.260	0.174	0.134
-289.618	522.549	-0.189	-0.446
-288.603	800.000	0.048	0.171
-287.589	27.161	0.044	0.037
-286.574	93.997	-0.078	0.089
-285.559	-24.548	-0.140	0.084
-284.545	-200.000	0.006	0.080
-283.530	-89.186	0.093	-0.027
-282.516	-200.000	-0.049	-0.484
-281.501	-167.365	0.122	-0.005
-280.486	800.000	0.039	0.124
-279.472	39.361	0.179	-0.160
-278.457	-200.000	-0.005	0.055
-277.443	-141.804	0.280	0.028
-276.428	273.378	-0.151	-0.268
-275.413	518.292	-0.067	-0.158
-274.399	800.000	-0.029	-0.099
-273.384	581.408	-0.061	0.150
-272.370	-62.621	-0.220	-0.092
-271.355	-200.000	0.003	0.014
-270.340	-187.284	0.126	0.002
-269.326	264.646	0.008	0.014
-268.311	31.795	-0.264	0.228
-267.297	105.498	0.245	0.290
-266.282	256.689	0.064	0.110
-265.267	-21.230	-0.141	-0.086
-264.253	280.371	0.153	0.274
-263.238	-200.000	0.026	0.154
-262.224	-75.035	-0.198	0.071
-261.209	290.412	-0.132	-0.241
-260.195	-51.419	0.262	-0.123
-259.180	309.547	0.180	-0.336
-258.165	787.446	-0.101	-0.278
-257.151	37.711	0.197	0.175
-256.136	-75.037	0.145	-0.052
-255.122	283.093	0.043	0.077
-254.107	-90.615	-0.280	0.081
-253.092	86.567	0.269	0.297
-252.078	-200.000	-0.012	0.075
-251.063	800.000	0.041	0.136
-250.049	-200.000	-0.011	-0.067
-249.034	195.546	0.110	-0.167
-248.019	-97.884	0.328	0.085
-247.005	-63.453	0.207	-0.085
-245.990	-139.709	0.349	0.037
-244.976	156.335	0.203	0.281
-243.961	-200.000	-0.022	-0.114
-242.946	-200.000	0.056	-0.277
-241.932	143.574	-0.081	0.109
-240.917	-48.703	-0.363	0.174
-239.903	199.891	-0.046	-0.071
-238.888	327.893	0.111	0.214
-237.873	800.000	0.041	0.166
-236.859	-13.105	0.104	0.068
-235.844	-21.803	0.094	0.057
-234.830	-22.092	0.242	0.147
-233.815	800.000	-0.052	-0.210
-232.800	-17.291	0.051	0.032
-231.786	-64.156	0.112	-0.046
-230.771	769.587	0.171	-0.465
-229.757	-134.965	0.047	-0.006
-228.742	-21.031	-0.135	0.083
-227.727	-111.111	-0.460	-0.094
-226.713	-120.211	0.294	0.050
-225.698	-101.573	0.195	0.047
-224.684	47.155	-0.022	-0.020
-223.669	-200.000	0.026	-0.225
-222.655	-77.323	0.088	0.031
-221.640	-47.349	-0.381	0.186
-220.625	-118.388	0.251	0.045
-219.611	-70.029	0.146	-0.056
-218.596	657.327	-0.169	-0.433
-217.582	473.122	0.137	0.309
-216.567	-134.577	-0.242	0.029
-215.552	73.582	0.135	0.141
-214.538	-33.615	0.117	-0.064
-213.523	100.670	0.201	-0.233
-212.509	-70.871	0.332	-0.125
-211.494	-134.084	-0.236	-0.029
-210.479	800.000	0.089	0.292
-209.465	271.325	0.075	0.131
-208.450	-200.000	0.021	-0.344
-207.436	104.293	-0.210	0.247
-206.421	384.279	0.119	0.246
-205.406	287.778	-0.101	0.183
-204.392	-200.000	-0.028	0.218
-203.377	-12.517	0.175	0.114
-202.363	-149.132	0.104	-0.008
-201.348	136.438	0.194	0.253
-200.333	800.000	-0.109	0.316
-199.319	504.053	-0.048	0.112
-198.304	-96.775	0.234	-0.062
-197.290	-89.464	0.161	-0.047
-196.275	-14.288	0.274	0.177
-195.260	-96.950	0.238	-0.062
-194.246	800.000	0.076	0.293
-193.231	-3.802	0.089	0.062
-192.217	456.565	-0.101	0.224
-191.202	-200.000	0.032	0.187
-190.187	800.000	-0.019	-0.065
-189.173	18.245	0.101	-0.080
-188.158	40.487	0.430	0.387
-187.144	267.274	0.097	0.170
-186.129	800.000	0.153	-0.447
-185.114	-151.635	0.071	-0.005
-184.100	5.673	-0.245	0.181
-183.085	-54.786	0.097	-0.044
-182.071	800.000	0.036	0.122
-181.056	-81.880	-0.317	0.104
-180.042	-94.607	-0.288	0.078
-179.027	-90.494	0.114	-0.033
-178.012	107.605	-0.229	0.273
-176.998	-123.509	0.321	-0.051
-175.983	-153.453	-0.011	-0.001
-174.969	-200.000	-0.058	0.548
-173.954	-52.813	-0.198	0.091
-172.939	256.103	0.035	0.061
-171.925	-200.000	0.009	0.173
-170.910	-53.547	0.108	0.049
-169.896	362.293	0.173	0.345
-168.881	-200.000	-0.021	-0.221
-167.866	-115.200	0.230	-0.043
-166.852	180.684	-0.154	-0.226
-165.837	-66.802	-0.173	0.068
-164.823	-30.922	-0.173	-0.097
-163.808	-127.991	0.206	-0.030
-162.793	415.130	0.132	-0.281
-161.779	800.000	-0.108	-0.324
-160.764	-200.000	-0.038	-0.340
-159.750	344.286	-0.056	-0.110
-158.735	2.696	0.119	0.086
-157.720	236.071	0.140	0.231
-156.706	41.210	-0.053	-0.048
-155.691	-82.953	-0.357	0.115
-154.677	-0.365	-0.199	0.141
-153.662	-48.587	-0.166	0.079
-152.647	-113.169	-0.230	-0.045
-151.633	-127.959	-0.114	0.016
-150.618	-38.890	-0.072	0.038
-149.604	74.772	0.254	0.267
-148.589	-200.000	-0.009	-0.099
-147.574	-11.608	0.079	0.052
-146.560	-103.937	0.228	-0.053
-145.545	-200.000	0.045	-0.222
-144.531	-15.469	0.080	0.051
-143.516	-200.000	-0.018	0.306
-142.502	17.778	0.099	0.079
-141.487	148.039	-0.123	0.165
-140.472	112.997	0.161	-0.194
-139.458	-111.737	0.160	-0.032
-138.443	182.699	0.105	-0.154
-137.429	800.000	-0.019	-0.084
-136.414	-142.676	0.281	0.027
-135.399	800.000	-0.047	0.176
-134.385	27.813	-0.165	0.139
-133.370	610.107	-0.108	-0.270
-132.356	800.000	-0.060	0.185
-131.341	24.859	0.103	-0.085
-130.326	-147.316	-0.148	-0.013
-129.312	452.927	-0.211	0.466
-128.297	-134.958	-0.074	-0.009
-127.283	523.082	0.060	-0.141
-126.268	-126.047	-0.294	0.044
-125.253	800.000	-0.154	-0.438
-124.239	-33.541	-0.241	0.133
-123.224	800.000	-0.021	0.086
-122.210	-88.159	0.027	-0.008
