DTS Sentinel unit serial number:	SN413079Multiplexer serial number:	ORYXHardware model number:	OX4-SRSoftware version number:	ORYX F/W v4.00 Oryx Data Collector v3.7.2.0data status	okinstallation	princeton_trtdifferential loss correction	single-endedforward channel	channel 4reverse channel	N/Adate	2019/09/12time	18:49:19forward acquisition time	15.00reverse acquisition time	0.00gamma	496.2192k internal	0.2307k external	0.2307temperature offset calibration	1.0134default loss term (dB/km)	0.3790temperature slope calibration	1.0000multiplexer offset coefficient	1.0000multiplexer slope coefficient	1.0000fibre end	0.00T internal ref (°C)	32.94T ext. ref 1 (°C)	2.98T ext. ref 2 (°C)	27.41length (m)	temperature (°C)	Stokes	anti-Stokes-747.200	-101.001	0.383	-0.096
-746.185	237.123	-0.230	-0.387
-745.171	196.610	0.096	-0.149
-744.156	-200.000	0.013	0.720
-743.142	800.000	-0.123	0.370
-742.127	85.818	0.433	-0.485
-741.112	-200.000	0.054	-0.568
-740.098	-74.382	-0.511	-0.187
-739.083	800.000	-0.165	-0.485
-738.069	-95.907	0.280	0.076
-737.054	87.216	0.179	0.201
-736.039	-200.000	-0.216	-1.245
-735.025	539.042	0.185	0.446
-734.010	-123.626	0.292	0.047
-732.996	-200.000	-0.145	-0.722
-731.981	173.294	-0.065	-0.095
-730.966	100.633	0.161	-0.191
-729.952	9.147	0.795	-0.610
-728.937	-66.395	-0.520	-0.210
-727.923	-97.100	-0.648	-0.172
-726.908	-139.293	-0.721	-0.079
-725.894	373.547	-0.222	0.459
-724.879	288.975	-0.218	0.402
-723.864	38.614	0.170	0.154
-722.850	31.761	-0.548	-0.479
-721.835	496.307	0.159	-0.371
-720.821	336.771	0.410	0.810
-719.806	597.309	0.092	-0.231
-718.791	800.000	0.163	-0.587
-717.777	800.000	0.132	0.501
-716.762	-170.535	-0.088	-0.003
-715.748	-66.215	-0.440	-0.178
-714.733	174.977	-0.248	-0.365
-713.718	298.802	0.024	-0.046
-712.704	448.051	0.180	-0.402
-711.689	169.513	0.854	-1.239
-710.675	-200.000	0.171	-1.238
-709.660	-92.434	0.147	0.042
-708.645	53.378	-0.225	0.219
-707.631	366.222	0.345	0.706
-706.616	146.880	0.363	-0.496
-705.602	53.545	0.192	-0.187
-704.587	-5.820	0.200	0.139
-703.572	-200.000	-0.163	0.741
-702.558	800.000	0.073	-0.292
-701.543	-196.353	-0.955	-0.007
-700.529	9.275	-0.245	-0.188
-699.514	4.355	-0.290	-0.216
-698.499	-160.614	-0.391	-0.021
-697.485	31.672	-0.736	0.643
-696.470	140.896	0.421	0.565
-695.456	114.137	0.339	0.419
-694.441	15.111	-0.309	-0.246
-693.426	-200.000	0.168	-0.815
-692.412	-108.563	-0.247	-0.054
-691.397	103.067	0.492	-0.585
-690.383	-200.000	-0.067	-0.646
-689.368	203.314	0.208	0.327
-688.354	-110.582	0.124	0.026
-687.339	-4.452	-0.611	-0.428
-686.324	-140.968	-0.352	-0.037
-685.310	336.777	0.392	-0.773
-684.295	-200.000	0.005	0.793
-683.281	125.594	-0.175	0.224
-682.266	-55.411	-0.477	0.217
-681.251	148.427	-0.274	-0.375
-680.237	-200.000	-0.103	-0.594
-679.222	101.402	-0.366	-0.432
-678.208	-66.553	0.384	-0.155
-677.193	800.000	0.060	0.189
-676.178	-200.000	-0.078	0.495
-675.164	120.009	0.213	-0.268
-674.149	34.713	-0.302	-0.268
-673.135	800.000	0.309	1.090
-672.120	-171.408	-0.540	-0.018
-671.105	148.062	-0.275	0.376
-670.091	98.660	-0.460	0.538
-669.076	24.270	-0.245	-0.205
-668.062	251.367	0.317	0.546
-667.047	134.476	-0.904	-1.189
-666.032	521.582	0.323	-0.769
-665.018	95.422	-0.656	-0.759
-664.003	-38.058	0.374	0.201
-662.989	800.000	-0.262	-0.873
-661.974	185.081	0.522	-0.785
-660.959	800.000	-0.092	-0.278
-659.945	800.000	-0.083	0.244
-658.930	607.453	0.193	-0.489
-657.916	800.000	-0.045	-0.153
-656.901	331.146	0.149	-0.292
-655.886	-200.000	0.035	-0.262
-654.872	-91.249	-0.274	0.080
-653.857	-111.630	-0.409	-0.084
-652.843	800.000	0.040	-0.133
-651.828	248.734	-0.042	-0.072
-650.814	-34.167	0.245	-0.136
-649.799	24.628	0.447	-0.375
-648.784	30.244	-0.475	0.411
-647.770	179.949	-0.220	-0.327
-646.755	-41.345	0.196	0.102
-645.741	-22.913	-0.626	0.383
-644.726	-97.366	0.637	-0.168
-643.711	173.942	-0.207	-0.302
-642.697	-200.000	-0.008	-0.052
-641.682	-20.796	0.655	0.407
-640.668	294.610	-0.420	0.777
-639.653	131.462	-0.083	-0.108
-638.638	155.154	0.315	-0.439
-637.624	-200.000	0.027	-0.829
-636.609	33.736	0.354	0.311
-635.595	36.699	0.204	-0.183
-634.580	21.072	-0.383	0.314
-633.565	18.383	0.356	0.288
-632.551	-200.000	0.091	-0.408
-631.536	70.436	-0.610	-0.639
-630.522	105.927	-0.515	0.617
-629.507	-47.139	0.800	0.395
-628.492	79.469	0.438	-0.475
-627.478	-72.459	-0.255	-0.095
-626.463	-200.000	0.021	-0.460
-625.449	-96.778	-0.355	-0.095
-624.434	-79.264	-0.142	0.049
-623.419	-200.000	-0.016	0.082
-622.405	347.841	-0.324	0.646
-621.390	-55.411	-0.582	-0.264
-620.376	-200.000	-0.133	0.804
-619.361	-200.000	0.067	0.303
-618.346	152.999	-0.087	-0.120
-617.332	116.386	0.024	0.030
-616.317	-91.747	0.496	-0.143
-615.303	583.120	-0.195	-0.485
-614.288	14.407	0.843	0.665
-613.273	-5.946	0.519	0.359
-612.259	-28.516	-0.780	0.455
-611.244	-200.000	-0.105	0.964
-610.230	77.694	0.210	0.226
-609.215	-66.960	-0.117	-0.047
-608.201	-119.634	0.165	-0.029
-607.186	-200.000	-0.139	-0.706
-606.171	-200.000	0.009	0.084
-605.157	96.984	-0.138	-0.160
-604.142	-85.368	-0.380	-0.120
-603.128	-90.851	0.586	-0.171
-602.113	-200.000	-0.076	0.797
-601.098	-162.467	-0.658	-0.033
-600.084	428.508	0.329	0.719
-599.069	-135.968	-0.582	-0.069
-598.055	-119.464	-0.581	-0.102
-597.040	-160.456	-0.517	-0.028
-596.025	800.000	-0.196	0.759
-595.011	-180.791	1.224	0.025
-593.996	94.540	0.262	-0.300
-592.982	-200.000	-0.013	0.659
-591.967	221.320	0.111	-0.181
-590.952	104.279	-0.400	-0.476
-589.938	108.530	0.242	-0.292
-588.923	-154.924	0.459	0.031
-587.909	154.360	-0.319	-0.442
-586.894	12.098	0.907	0.706
-585.879	-200.000	-0.013	-0.096
-584.865	800.000	0.184	-0.526
-583.850	-200.000	0.057	0.472
-582.836	-200.000	0.002	-0.268
-581.821	-200.000	0.081	-0.907
-580.806	-61.728	-0.509	-0.215
-579.792	-101.449	0.482	-0.119
-578.777	29.833	0.679	-0.585
-577.763	800.000	0.175	-0.665
-576.748	800.000	0.234	-0.826
-575.733	638.354	-0.072	-0.185
-574.719	-127.738	-0.504	-0.074
-573.704	-200.000	0.099	-0.438
-572.690	-13.066	0.262	-0.172
-571.675	-5.350	-0.719	-0.499
-570.661	-127.086	0.482	-0.071
-569.646	-53.671	-0.632	0.291
-568.631	153.224	-0.305	-0.422
-567.617	-174.355	-0.628	0.018
-566.602	800.000	-0.014	0.056
-565.588	-62.374	-0.463	0.194
-564.573	-17.960	0.711	0.450
-563.558	208.537	-0.171	-0.270
-562.544	728.404	0.099	-0.266
-561.529	-200.000	-0.053	-1.019
-560.515	225.520	-0.213	0.349
-559.500	800.000	0.022	-0.091
-558.485	800.000	-0.187	-0.682
-557.471	-200.000	0.177	1.151
-556.456	62.012	0.198	-0.199
-555.442	-200.000	0.112	0.698
-554.427	800.000	-0.017	-0.074
-553.412	23.076	-0.140	-0.116
-552.398	714.202	0.143	-0.382
-551.383	513.488	-0.328	-0.772
-550.369	106.382	0.042	-0.051
-549.354	-183.615	-0.460	-0.008
-548.339	-76.310	-0.079	0.028
-547.325	-200.000	0.037	-0.214
-546.310	272.637	-0.123	0.219
-545.296	-56.069	-0.698	-0.314
-544.281	800.000	-0.131	-0.522
-543.266	-110.827	-0.240	0.050
-542.252	52.040	-0.213	-0.205
-541.237	-75.003	0.394	-0.142
-540.223	30.148	-0.564	-0.486
-539.208	252.784	0.353	-0.607
-538.193	435.946	0.257	-0.565
-537.179	669.380	-0.257	-0.671
-536.164	41.748	0.402	-0.368
-535.150	56.657	0.316	0.310
-534.135	55.229	0.382	-0.372
-533.121	-200.000	0.026	-0.812
-532.106	78.655	-0.248	-0.267
-531.091	-127.542	-1.130	0.165
-530.077	-200.000	0.139	0.736
-529.062	38.362	0.315	0.283
-528.048	-138.657	0.545	-0.060
-527.033	22.539	-0.724	-0.597
-526.018	69.491	0.382	0.397
-525.004	-120.990	0.535	-0.091
-523.989	146.898	0.236	0.320
-522.975	-85.153	0.836	-0.264
-521.960	120.726	0.281	0.352
-520.945	-64.922	-0.317	-0.129
-519.931	226.627	0.138	0.226
-518.916	-73.910	-0.457	-0.167
-517.902	-128.242	0.475	-0.068
-516.887	165.457	-0.135	-0.192
-515.872	52.522	0.349	0.335
-514.858	90.374	-0.083	0.093
-513.843	-163.272	0.709	-0.034
-512.829	-26.968	-0.579	0.341
-511.814	-200.000	-0.021	-0.322
-510.799	138.111	0.389	0.514
-509.785	273.681	-0.124	-0.222
-508.770	-200.000	-0.012	0.711
-507.756	-150.284	-0.815	-0.063
-506.741	-20.506	0.009	-0.005
-505.726	-156.024	-0.179	-0.011
-504.712	-121.649	-0.869	0.145
-503.697	-109.021	-0.144	0.031
-502.683	-10.218	0.660	-0.441
-501.668	-200.000	0.007	0.204
-500.653	119.778	0.213	-0.265
-499.639	-111.940	-0.506	-0.103
-498.624	800.000	0.063	-0.227
-497.610	-75.724	0.205	0.073
-496.595	-0.199	0.727	-0.521
-495.581	-13.364	0.248	0.162
-494.566	-7.569	-0.461	-0.314
-493.551	-22.651	-0.227	-0.138
-492.537	40.443	-0.408	-0.370
-491.522	93.478	-0.732	0.835
-490.508	-200.000	-0.105	-0.571
-489.493	218.537	0.305	0.490
-488.478	-90.512	-0.395	-0.115
-487.464	-123.045	0.325	0.053
-486.449	-200.000	-0.024	-0.157
-485.435	800.000	0.103	0.394
-484.420	168.958	-0.248	-0.356
-483.405	-200.000	0.093	1.446
-482.391	-97.496	-0.476	0.125
-481.376	-111.959	-0.156	0.032
-480.362	59.018	-0.153	0.152
-479.347	-109.211	0.341	-0.073
-478.332	-200.000	-0.168	0.000
-477.318	283.317	-0.195	0.353
-476.303	-165.770	-0.375	-0.016
-475.289	-200.000	-0.085	-0.382
-474.274	160.702	-0.318	0.447
-473.259	-200.000	-0.017	0.403
-472.245	192.779	0.025	-0.039
-471.230	250.601	-0.152	0.260
-470.216	-120.344	1.330	-0.228
-469.201	-200.000	0.038	-0.236
-468.186	149.217	0.248	-0.338
-467.172	-139.536	0.547	0.059
-466.157	-123.268	-0.241	0.039
-465.143	-71.039	0.385	-0.146
-464.128	-200.000	-0.014	0.486
-463.113	171.729	0.582	0.841
-462.099	-8.497	0.161	0.109
-461.084	33.051	0.520	-0.453
-460.070	-27.447	-0.723	0.423
-459.055	800.000	-0.317	1.139
-458.040	-143.002	-0.098	0.010
-457.026	152.244	0.162	0.223
-456.011	51.341	0.276	-0.264
-454.997	-76.545	0.304	-0.107
-453.982	-127.307	-0.825	0.121
-452.968	29.904	0.277	-0.237
-451.953	-200.000	0.012	0.213
-450.938	800.000	-0.091	-0.393
-449.924	-104.206	0.580	0.135
-448.909	-20.495	-0.646	0.399
-447.895	184.216	-0.364	0.542
-446.880	-200.000	0.102	0.856
-445.865	-35.693	-0.280	0.152
-444.851	-60.831	-0.879	0.374
-443.836	433.184	-0.041	0.089
-442.822	-59.189	0.650	0.281
-441.807	-111.966	-0.616	-0.125
-440.792	-87.461	-0.322	-0.098
-439.778	800.000	0.117	0.482
-438.763	-200.000	0.007	-0.150
-437.749	-200.000	-0.140	1.318
-436.734	-200.000	-0.043	-0.393
-435.719	-30.302	0.482	0.275
-434.705	-200.000	-0.049	-0.290
-433.690	26.617	-0.433	0.364
-432.676	-47.732	-0.897	-0.437
-431.661	800.000	0.103	-0.403
-430.646	-28.421	-0.462	-0.268
-429.632	-200.000	-0.163	-0.810
-428.617	-83.093	0.976	-0.315
-427.603	37.509	-0.145	0.129
-426.588	68.878	0.563	-0.581
-425.573	75.647	0.403	-0.428
-424.559	347.817	-0.220	-0.435
-423.544	800.000	0.092	0.274
-422.530	23.482	0.366	0.302
-421.515	-24.852	0.550	0.328
-420.500	-39.594	-0.766	0.403
-419.486	-56.428	0.390	-0.174
-418.471	-135.232	0.252	-0.030
-417.457	-102.654	-0.184	0.044
-416.442	180.431	-0.449	0.661
-415.428	-149.168	0.643	0.052
-414.413	46.023	-0.461	0.429
-413.398	-200.000	-0.083	-0.548
-412.384	-66.859	-0.574	0.228
-411.369	-184.916	0.425	-0.007
-410.355	-200.000	0.092	0.914
-409.340	-39.850	-0.476	0.249
-408.325	-200.000	0.041	-0.927
-407.311	148.331	0.114	-0.154
-406.296	800.000	0.206	-0.734
-405.282	394.322	-0.261	-0.545
-404.267	-200.000	-0.128	0.770
-403.252	-95.905	-0.810	-0.217
-402.238	103.077	-0.592	-0.696
-401.223	800.000	-0.021	-0.086
-400.209	800.000	0.065	-0.238
-399.194	128.480	0.672	0.859
-398.179	-200.000	0.146	0.919
-397.165	-82.478	-0.224	0.073
-396.150	-141.461	-0.463	-0.047
-395.136	558.951	0.110	-0.267
-394.121	-48.511	-0.357	0.172
-393.106	-108.082	-0.897	0.195
-392.092	-90.465	-0.277	-0.081
-391.077	283.045	-0.155	-0.278
-390.063	800.000	0.361	-1.034
-389.048	-128.447	-0.210	-0.030
-388.033	136.672	0.293	-0.384
-387.019	-80.918	0.400	0.133
-386.004	-200.000	0.015	0.467
-384.990	-176.818	0.396	-0.010
-383.975	194.522	-0.313	0.475
-382.960	-52.998	-0.366	-0.169
-381.946	527.814	-0.324	-0.766
-380.931	-200.000	0.060	-0.495
-379.917	101.540	-0.640	-0.747
-378.902	-200.000	-0.005	-0.451
-377.888	-99.469	0.210	-0.053
-376.873	-158.980	-0.324	0.018
-375.858	61.006	-0.397	0.395
-374.844	-30.192	0.427	0.243
-373.829	565.428	-0.152	-0.369
-372.815	800.000	-0.064	0.258
-371.800	685.648	0.274	-0.718
-370.785	30.609	0.801	-0.687
-369.771	-200.000	-0.144	-0.689
-368.756	247.403	-0.483	0.818
-367.742	24.419	-0.377	0.313
-366.727	800.000	0.091	0.282
-365.712	-200.000	-0.056	-0.424
-364.698	283.952	-0.133	-0.239
-363.683	382.623	-0.433	0.892
-362.669	800.000	-0.157	0.667
-361.654	-122.210	0.811	-0.133
-360.639	-42.872	-0.058	0.030
-359.625	195.056	0.402	-0.611
-358.610	-200.000	0.095	-0.458
-357.596	-182.659	0.450	-0.008
-356.581	20.138	0.743	0.600
-355.566	800.000	0.130	0.545
-354.552	4.120	0.404	0.296
-353.537	459.436	0.332	-0.741
-352.523	-151.802	-0.320	0.024
-351.508	-200.000	-0.093	0.566
-350.493	-67.845	0.744	-0.291
-349.479	33.471	-0.371	0.322
-348.464	-199.652	-0.435	0.002
-347.450	-62.868	-0.214	-0.089
-346.435	-85.967	-0.400	0.124
-345.420	-200.000	-0.065	-0.323
-344.406	642.928	-0.123	-0.313
-343.391	123.197	-0.106	0.133
-342.377	476.059	0.254	0.573
-341.362	-200.000	-0.188	0.995
-340.348	-90.363	0.247	-0.072
-339.333	-124.941	0.323	0.050
-338.318	-143.824	-0.537	0.051
-337.304	800.000	0.018	0.063
-336.289	-200.000	-0.034	0.669
-335.275	-128.123	0.878	0.126
-334.260	42.142	0.436	-0.396
-333.245	315.793	-0.273	0.515
-332.231	-145.803	0.192	0.017
-331.216	-45.825	0.330	-0.163
-330.202	-126.988	0.364	0.054
-329.187	21.981	0.814	0.664
-328.172	-169.961	0.434	0.016
-327.158	-51.053	0.807	0.379
-326.143	223.142	-0.379	-0.611
-325.129	-34.186	0.544	0.299
-324.114	-69.472	-1.209	0.464
-323.099	-200.000	0.194	-1.041
-322.085	36.671	0.354	-0.313
-321.070	-200.000	0.066	1.033
-320.056	301.242	-0.206	-0.380
-319.041	35.990	-0.368	-0.324
-318.026	140.149	0.482	-0.636
-317.012	356.773	-0.097	0.193
-315.997	-92.901	-0.754	-0.211
-314.983	536.387	0.139	-0.330
-313.968	-81.694	0.633	0.208
-312.953	38.861	0.508	0.454
-311.939	-133.868	0.619	0.077
-310.924	-150.050	0.369	-0.029
-309.910	-200.000	-0.011	-0.350
-308.895	328.622	0.512	0.984
-307.880	-151.618	0.920	0.068
-306.866	-200.000	0.072	-0.577
-305.851	-200.000	0.138	0.867
-304.837	-167.611	-0.468	-0.019
-303.822	241.484	0.296	-0.494
-302.807	76.370	0.538	-0.569
-301.793	-24.539	0.515	-0.306
-300.778	-68.579	0.459	0.178
-299.764	725.795	0.276	-0.736
-298.749	63.478	0.351	0.352
-297.735	-140.246	0.618	-0.065
-296.720	135.063	-0.166	-0.216
-295.705	83.719	-0.364	-0.396
-294.691	-65.713	0.553	0.221
-293.676	149.927	-0.333	-0.451
-292.662	-12.323	-0.505	0.330
-291.647	800.000	-0.297	0.973
-290.632	-200.000	0.018	0.311
-289.618	122.490	0.126	0.158
-288.603	-177.373	-0.428	0.011
-287.589	262.864	0.383	0.665
-286.574	-200.000	0.064	-0.547
-285.559	-3.455	0.799	-0.556
-284.545	202.272	-0.093	-0.144
-283.530	800.000	-0.042	0.181
-282.516	-63.878	-0.238	-0.097
-281.501	7.352	-0.493	-0.367
-280.486	-159.610	-0.455	0.025
-279.472	73.024	0.535	0.558
-278.457	-118.646	-0.777	-0.137
-277.443	87.643	-0.433	0.479
-276.428	211.551	-0.077	0.120
-275.413	67.512	-0.177	-0.181
-274.399	800.000	-0.074	-0.314
-273.384	172.177	0.471	0.675
-272.370	-87.096	0.520	-0.158
-271.355	-16.165	0.723	-0.459
-270.340	229.181	-0.241	-0.392
-269.326	87.318	0.327	-0.361
-268.311	-145.117	-0.514	0.047
-267.297	-200.000	0.068	-0.663
-266.282	67.695	-0.522	-0.533
-265.267	106.706	-0.289	-0.342
-264.253	394.613	-0.209	0.434
-263.238	-200.000	0.075	0.345
-262.224	-105.133	0.454	-0.104
-261.209	5.124	0.331	0.243
-260.195	800.000	0.117	0.351
-259.180	-200.000	-0.063	-0.374
-258.165	-10.888	-0.261	-0.172
-257.151	12.624	0.640	-0.493
-256.136	225.567	0.389	0.629
-255.122	177.840	0.468	0.681
-254.107	-24.188	-0.395	-0.235
-253.092	-86.534	0.508	-0.156
-252.078	57.201	-0.420	-0.409
-251.063	-200.000	0.058	-0.397
-250.049	53.080	-0.556	-0.531
-249.034	-200.000	-0.049	0.442
-248.019	239.762	-0.180	0.299
-247.005	525.126	0.122	-0.287
-245.990	3.006	-0.831	-0.602
-244.976	-63.869	0.280	0.114
-243.961	-96.518	0.181	-0.048
-242.946	127.296	0.295	0.374
-241.932	75.218	0.443	0.466
-240.917	8.922	-0.493	-0.371
-239.903	552.789	0.211	-0.506
-238.888	-200.000	0.023	0.399
-237.873	-38.720	0.316	0.166
-236.859	-35.561	0.132	0.071
-235.844	-200.000	0.117	0.557
-234.830	800.000	0.151	0.470
-233.815	-75.197	-0.925	-0.329
-232.800	-93.494	0.520	-0.143
-231.786	800.000	-0.243	-0.952
-230.771	219.467	0.017	-0.027
-229.757	-52.955	-0.668	0.306
-228.742	-158.242	-0.985	0.057
-227.727	-98.818	0.985	-0.250
-226.713	25.359	-0.331	-0.274
-225.698	51.854	-0.408	0.387
-224.684	800.000	0.245	0.793
-223.669	-200.000	0.158	-0.889
-222.655	-185.472	-0.628	0.010
-221.640	-200.000	-0.039	-0.209
-220.625	67.929	-0.444	-0.453
-219.611	236.575	0.156	-0.257
-218.596	297.021	0.203	-0.371
-217.582	-188.124	0.400	0.005
-216.567	-3.850	0.747	0.516
-215.552	800.000	0.101	0.398
-214.538	800.000	0.141	0.568
-213.523	800.000	0.038	0.130
-212.509	-200.000	-0.049	-1.010
-211.494	-200.000	-0.078	-0.584
-210.479	-42.786	0.447	-0.226
-209.465	700.814	-0.133	-0.349
-208.450	607.971	0.442	1.099
-207.436	252.233	-0.151	0.255
-206.421	-160.092	0.471	0.026
-205.406	-168.292	-0.439	0.017
-204.392	-37.860	0.779	0.412
-203.377	-82.717	0.464	0.150
-202.363	175.911	-0.272	-0.392
-201.348	-200.000	-0.064	0.548
-200.333	616.896	-0.218	0.545
-199.319	405.167	-0.279	-0.585
-198.304	-72.577	-0.808	0.297
-197.290	-169.977	-0.574	-0.020
-196.275	-90.995	-0.312	-0.089
-195.260	-200.000	0.191	0.850
-194.246	101.524	0.226	-0.262
-193.231	2.997	-0.325	-0.235
-192.217	-76.053	0.502	-0.177
-191.202	-75.587	-0.774	0.274
-190.187	-108.472	0.843	0.181
-189.173	800.000	-0.177	0.606
-188.158	-104.464	0.275	-0.063
-187.144	800.000	-0.253	0.772
-186.129	800.000	-0.093	0.259
-185.114	28.680	0.186	-0.157
-184.100	-17.872	-0.162	0.101
-183.085	93.085	-0.160	0.180
-182.071	-38.284	-0.405	-0.213
-181.056	-87.879	-0.334	0.100
-180.042	-138.423	-0.344	0.038
-179.027	184.734	0.192	0.283
-178.012	-115.194	-0.443	0.083
-176.998	67.083	-0.221	0.224
-175.983	353.557	-0.141	0.277
-174.969	448.111	-0.182	0.399
-173.954	-35.895	0.250	-0.135
-172.939	-137.009	0.265	0.030
-171.925	-111.220	-0.642	0.131
-170.910	800.000	0.166	-0.502
-169.896	269.619	0.456	0.797
-168.881	4.362	-0.250	0.182
-167.866	-45.664	-0.388	0.191
-166.852	800.000	-0.061	-0.181
-165.837	-101.150	0.257	-0.063
-164.823	182.165	-0.626	-0.917
-163.808	800.000	0.104	-0.337
-162.793	-8.891	-0.064	0.043
-161.779	-160.554	-0.570	-0.030
-160.764	208.837	0.173	0.270
-159.750	587.539	0.117	0.287
-158.735	-65.887	0.280	0.111
-157.720	91.130	-0.453	-0.506
-156.706	-200.000	0.029	0.451
-155.691	171.963	0.299	-0.427
-154.677	-138.573	0.540	0.059
-153.662	-54.470	-1.450	-0.653
-152.647	45.306	0.294	0.270
-151.633	-91.216	0.373	-0.106
-150.618	544.993	0.210	0.498
-149.604	-200.000	0.109	-0.555
-148.589	-200.000	-0.082	-0.492
-147.574	749.674	-0.372	0.997
-146.560	56.486	0.549	-0.531
-145.545	800.000	-0.075	-0.316
-144.531	-200.000	0.025	0.408
-143.516	800.000	-0.158	0.448
-142.502	-73.632	-0.181	-0.066
-141.487	62.259	-0.335	0.332
-140.472	-98.072	-0.741	0.190
-139.458	-44.971	0.172	-0.085
-138.443	-1.582	-0.360	0.252
-137.429	-47.515	0.577	0.278
-136.414	-200.000	-0.028	-0.148
-135.399	23.560	1.092	-0.892
-134.385	7.331	-0.119	0.088
-133.370	159.941	0.111	-0.154
-132.356	800.000	-0.141	-0.572
-131.341	800.000	0.242	0.869
-130.326	-200.000	0.050	-0.887
-129.312	92.952	-0.412	-0.462
-128.297	-67.383	-0.382	-0.149
-127.283	-38.731	0.511	0.268
-126.268	-83.477	-0.129	0.041
-125.253	-25.997	-0.705	-0.412
-124.239	-200.000	0.041	0.197
-123.224	145.329	-0.698	-0.927
-122.210	-200.000	0.054	0.286
