DTS Sentinel unit serial number:	SN413079Multiplexer serial number:	ORYXHardware model number:	OX4-SRSoftware version number:	ORYX F/W v4.00 Oryx Data Collector v3.7.2.0data status	okinstallation	princeton_trtdifferential loss correction	single-endedforward channel	channel 4reverse channel	N/Adate	2019/09/13time	23:29:35forward acquisition time	60.00reverse acquisition time	0.00gamma	496.2192k internal	0.2324k external	0.2324temperature offset calibration	1.0132default loss term (dB/km)	0.3790temperature slope calibration	1.0000multiplexer offset coefficient	1.0000multiplexer slope coefficient	1.0000fibre end	0.00T internal ref (°C)	26.87T ext. ref 1 (°C)	3.18T ext. ref 2 (°C)	20.96length (m)	temperature (°C)	Stokes	anti-Stokes-747.200	-16.712	0.140	-0.089
-746.185	-200.000	0.059	0.323
-745.171	-200.000	-0.001	0.005
-744.156	39.615	0.107	0.097
-743.142	800.000	0.034	0.130
-742.127	-164.779	-0.342	0.016
-741.112	194.167	0.153	-0.234
-740.098	149.378	-0.177	0.242
-739.083	-123.953	0.156	-0.025
-738.069	15.687	-0.263	0.208
-737.054	-143.687	-0.423	-0.040
-736.039	30.714	0.068	0.058
-735.025	31.981	0.312	0.271
-734.010	-85.551	-0.172	0.054
-732.996	-17.452	-0.441	-0.280
-731.981	8.343	-0.090	0.068
-730.966	283.625	0.089	-0.161
-729.952	800.000	0.098	-0.291
-728.937	800.000	0.017	0.050
-727.923	154.406	0.216	-0.299
-726.908	-12.063	-0.150	0.099
-725.894	49.642	0.097	-0.092
-724.879	-27.121	-0.236	-0.139
-723.864	428.717	0.087	0.189
-722.850	110.938	0.228	-0.276
-721.835	-62.795	-0.315	0.131
-720.821	-16.300	-0.214	-0.137
-719.806	-200.000	-0.016	0.073
-718.791	-150.905	-0.179	-0.014
-717.777	47.190	-0.204	-0.191
-716.762	-142.816	-0.163	0.016
-715.748	103.324	-0.101	-0.119
-714.733	-56.988	-0.273	-0.121
-713.718	141.925	-0.207	0.277
-712.704	-10.376	0.295	-0.197
-711.689	26.267	-0.194	-0.163
-710.675	-200.000	-0.011	-0.172
-709.660	49.884	0.187	0.178
-708.645	-200.000	0.005	0.394
-707.631	-24.705	0.396	-0.237
-706.616	-49.710	-0.174	0.084
-705.602	24.106	0.188	0.157
-704.587	16.941	-0.169	-0.135
-703.572	-200.000	0.015	-0.081
-702.558	331.271	-0.109	-0.212
-701.543	12.286	-0.209	-0.162
-700.529	-129.317	0.390	0.055
-699.514	-51.347	-0.171	0.081
-698.499	-55.260	-0.205	-0.093
-697.485	-110.405	0.298	-0.062
-696.470	534.352	-0.067	0.159
-695.456	-88.649	0.506	-0.152
-694.441	-25.107	0.215	-0.129
-693.426	-200.000	0.029	-0.274
-692.412	-26.613	-0.174	0.103
-691.397	659.485	-0.097	-0.251
-690.383	73.368	-0.095	0.100
-689.368	-49.455	0.245	-0.118
-688.354	85.920	-0.127	0.141
-687.339	64.860	0.174	0.177
-686.324	-200.000	-0.002	0.044
-685.310	197.438	-0.068	0.105
-684.295	-6.688	-0.202	0.139
-683.281	208.798	0.163	-0.258
-682.266	117.393	-0.035	0.044
-681.251	504.733	0.061	0.143
-680.237	40.096	-0.025	0.023
-679.222	43.469	0.089	-0.082
-678.208	-189.709	-0.267	0.003
-677.193	328.666	-0.154	0.297
-676.178	25.604	-0.264	-0.222
-675.164	-128.833	0.024	-0.003
-674.149	13.221	0.125	-0.097
-673.135	95.561	-0.067	0.077
-672.120	122.217	0.244	0.307
-671.105	-5.635	-0.284	0.196
-670.091	-200.000	0.001	-0.035
-669.076	502.007	-0.092	0.214
-668.062	497.248	0.038	0.088
-667.047	-200.000	0.013	-0.109
-666.032	-200.000	-0.023	-0.327
-665.018	22.233	-0.164	-0.135
-664.003	800.000	0.089	-0.272
-662.989	53.979	-0.350	0.338
-661.974	-120.335	-0.162	-0.028
-660.959	-70.876	-0.143	-0.054
-659.945	-80.374	0.164	0.055
-658.930	-140.940	-0.107	0.011
-657.916	249.924	-0.290	-0.496
-656.901	356.836	0.097	-0.195
-655.886	25.624	0.164	-0.137
-654.872	-200.000	0.002	-0.182
-653.857	-73.507	-0.038	-0.014
-652.843	-200.000	-0.016	0.083
-651.828	-62.070	-0.063	0.027
-650.814	800.000	-0.076	-0.313
-649.799	800.000	0.028	-0.108
-648.784	-79.587	0.090	-0.031
-647.770	-112.173	-0.250	-0.050
-646.755	799.637	-0.136	-0.377
-645.741	76.860	0.145	-0.155
-644.726	4.603	0.118	-0.087
-643.711	204.172	-0.115	-0.180
-642.697	27.252	-0.044	-0.037
-641.682	86.214	-0.073	-0.081
-640.668	116.235	0.242	-0.299
-639.653	-47.095	-0.240	0.118
-638.638	35.972	-0.083	-0.074
-637.624	-200.000	0.028	-0.157
-636.609	73.996	0.174	-0.184
-635.595	-200.000	0.044	-0.215
-634.580	630.017	-0.075	-0.192
-633.565	-135.825	-0.355	0.042
-632.551	591.969	-0.173	0.429
-631.536	17.261	0.263	0.210
-630.522	-120.295	0.225	0.038
-629.507	-200.000	-0.024	0.206
-628.492	174.660	-0.155	-0.225
-627.478	14.494	0.166	0.130
-626.463	107.794	-0.070	0.083
-625.449	-86.098	-0.315	-0.098
-624.434	414.039	-0.039	-0.084
-623.419	800.000	0.033	0.142
-622.405	-67.169	0.220	-0.087
-621.390	800.000	-0.039	-0.136
-620.376	-29.781	0.080	-0.046
-619.361	-94.428	0.509	-0.140
-618.346	110.081	0.162	-0.196
-617.332	28.339	-0.114	-0.096
-616.317	67.964	0.202	0.208
-615.303	441.770	-0.098	0.214
-614.288	-196.626	0.455	0.003
-613.273	-200.000	-0.027	-0.290
-612.259	-200.000	-0.014	-0.069
-611.244	280.596	0.204	-0.367
-610.230	591.335	0.029	-0.073
-609.215	-35.429	-0.218	0.119
-608.201	-200.000	0.001	0.026
-607.186	800.000	0.187	-0.600
-606.171	154.070	0.165	-0.227
-605.157	-200.000	-0.003	-0.245
-604.142	82.714	-0.128	0.139
-603.128	12.684	0.121	-0.094
-602.113	21.424	-0.187	0.152
-601.098	-151.772	-0.394	-0.029
-600.084	450.821	0.013	0.029
-599.069	-200.000	-0.032	-0.208
-598.055	16.722	-0.197	-0.157
-597.040	800.000	0.036	-0.143
-596.025	156.161	0.133	-0.184
-595.011	61.084	0.078	-0.078
-593.996	90.782	-0.109	0.122
-592.982	179.705	0.133	-0.196
-591.967	-174.156	-0.353	0.010
-590.952	-55.567	-0.046	-0.021
-589.938	-200.000	-0.025	-0.130
-588.923	-156.521	0.428	-0.027
-587.909	-200.000	-0.019	-0.109
-586.894	-112.172	0.109	0.022
-585.879	-39.906	-0.168	0.088
-584.865	18.278	0.048	0.038
-583.850	-69.101	0.315	0.122
-582.836	-182.767	-0.153	0.003
-581.821	800.000	-0.063	-0.224
-580.806	133.386	-0.209	0.271
-579.792	-14.805	0.104	0.067
-578.777	-172.363	0.145	-0.005
-577.763	-123.001	0.231	0.037
-576.748	800.000	-0.071	0.266
-575.733	20.898	0.215	0.175
-574.719	-200.000	0.019	-0.164
-573.704	2.917	0.141	0.103
-572.690	-200.000	-0.014	0.315
-571.675	470.350	0.126	-0.283
-570.661	-121.776	0.306	0.051
-569.646	800.000	-0.073	0.211
-568.631	428.114	0.059	-0.128
-567.617	72.338	-0.209	-0.218
-566.602	-67.057	0.357	0.141
-565.588	-83.063	-0.091	0.029
-564.573	73.678	-0.205	0.215
-563.558	-200.000	-0.025	0.121
-562.544	412.082	-0.038	0.080
-561.529	-76.068	0.334	0.118
-560.515	-8.590	0.240	-0.162
-559.500	-14.371	0.130	-0.084
-558.485	-35.947	-0.099	-0.054
-557.471	22.645	0.120	0.098
-556.456	-153.040	0.407	0.029
-555.442	800.000	-0.060	0.184
-554.427	-76.362	-0.134	-0.047
-553.412	-200.000	0.023	0.320
-552.398	409.217	-0.101	0.214
-551.383	-166.377	0.198	-0.008
-550.369	-200.000	-0.025	0.246
-549.354	135.355	-0.044	-0.057
-548.339	-200.000	-0.021	-0.232
-547.325	-200.000	0.011	0.058
-546.310	-57.464	0.215	-0.095
-545.296	-123.861	-0.148	0.023
-544.281	1.538	0.119	0.085
-543.266	-75.715	0.185	-0.066
-542.252	-200.000	-0.021	-0.172
-541.237	731.948	-0.038	0.101
-540.223	113.530	-0.190	-0.231
-539.208	-63.853	-0.142	-0.058
-538.193	800.000	0.046	0.132
-537.179	278.361	0.113	-0.202
-536.164	-95.697	0.276	-0.074
-535.150	-129.574	-0.128	0.018
-534.135	17.335	0.246	0.196
-533.121	-71.182	0.285	0.107
-532.106	-94.380	-0.420	-0.115
-531.091	-126.460	-0.133	-0.020
-530.077	-89.762	-0.281	0.082
-529.062	203.279	-0.067	0.104
-528.048	800.000	0.066	0.274
-527.033	395.361	0.047	0.098
-526.018	-200.000	-0.014	-0.073
-525.004	316.516	0.075	-0.142
-523.989	377.251	-0.027	-0.056
-522.975	-200.000	-0.004	-0.101
-521.960	192.654	-0.289	0.436
-520.945	175.554	-0.107	0.155
-519.931	670.956	-0.019	0.049
-518.916	143.705	-0.059	-0.078
-517.902	-165.394	-0.060	0.003
-516.887	-124.536	-0.169	-0.026
-515.872	-98.174	0.205	0.053
-514.858	-43.669	0.157	0.079
-513.843	-104.501	-0.124	-0.029
-512.829	-145.394	-0.024	-0.002
-511.814	-200.000	-0.035	-0.254
-510.799	105.773	-0.048	0.057
-509.785	-5.345	0.234	-0.161
-508.770	104.483	-0.311	-0.366
-507.756	31.550	-0.136	-0.117
-506.741	-57.072	-0.148	0.065
-505.726	-123.296	-0.211	0.034
-504.712	-200.000	-0.011	-0.100
-503.697	-70.291	-0.239	0.091
-502.683	230.421	0.079	0.129
-501.668	-200.000	0.003	-0.265
-500.653	-104.315	-0.183	0.042
-499.639	-117.767	-0.253	-0.046
-498.624	-3.159	-0.162	-0.113
-497.610	-200.000	-0.025	-0.138
-496.595	159.263	-0.110	-0.154
-495.581	155.894	0.085	0.117
-494.566	-79.643	-0.048	0.016
-493.551	800.000	-0.066	-0.241
-492.537	484.899	0.118	-0.268
-491.522	-73.460	0.207	-0.075
-490.508	-84.544	-0.094	-0.030
-489.493	638.354	0.049	0.124
-488.478	86.666	-0.068	-0.075
-487.464	382.959	-0.074	0.152
-486.449	27.804	0.177	0.149
-485.435	42.046	-0.172	-0.156
-484.420	308.225	0.102	0.191
-483.405	-60.434	-0.168	-0.071
-482.391	268.374	0.043	-0.074
-481.376	-200.000	0.021	0.118
-480.362	-94.500	-0.210	-0.057
-479.347	-103.930	-0.420	0.098
-478.332	319.715	0.093	-0.176
-477.318	-84.041	-0.290	-0.092
-476.303	106.280	-0.103	0.122
-475.289	-191.112	-0.190	-0.002
-474.274	-200.000	0.000	0.297
-473.259	149.628	-0.079	0.107
-472.245	-123.335	0.244	0.039
-471.230	8.197	0.273	0.204
-470.216	-93.554	-0.405	-0.112
-469.201	-4.024	-0.167	0.116
-468.186	-22.789	-0.152	0.092
-467.172	132.301	-0.142	-0.183
-466.157	-103.506	-0.148	0.035
-465.143	237.697	-0.091	0.151
-464.128	61.362	0.193	-0.191
-463.113	479.719	-0.072	-0.162
-462.099	-49.976	0.302	0.143
-461.084	179.394	-0.141	-0.207
-460.070	-200.000	0.010	-0.255
-459.055	-39.832	0.084	-0.044
-458.040	800.000	0.120	0.450
-457.026	800.000	0.086	0.261
-456.011	497.178	0.061	-0.140
-454.997	390.013	0.136	-0.282
-453.982	-32.084	-0.104	0.058
-452.968	-145.164	-0.262	-0.024
-451.953	230.856	0.109	0.179
-450.938	-159.320	0.295	-0.016
-449.924	800.000	-0.062	-0.235
-448.909	-67.448	-0.267	0.105
-447.895	-91.574	0.292	0.083
-446.880	-66.274	0.100	0.040
-445.865	118.806	-0.199	-0.245
-444.851	622.277	-0.113	0.284
-443.836	800.000	0.110	0.308
-442.822	-111.429	-0.092	-0.019
-441.807	-130.504	0.078	0.010
-440.792	-16.021	0.204	-0.130
-439.778	-20.023	0.533	0.328
-438.763	-85.853	-0.034	0.010
-437.749	-134.360	-0.118	-0.014
-436.734	588.413	0.213	-0.524
-435.719	128.136	-0.228	-0.289
-434.705	61.736	0.214	-0.213
-433.690	43.714	-0.095	-0.087
-432.676	-53.058	0.176	0.081
-431.661	129.739	0.103	0.132
-430.646	-76.743	-0.317	-0.111
-429.632	105.520	-0.225	-0.265
-428.617	54.909	-0.192	0.185
-427.603	479.394	0.020	0.045
-426.588	70.198	-0.319	-0.329
-425.573	152.284	0.109	-0.148
-424.559	-164.892	0.213	-0.010
-423.544	-68.457	0.216	-0.084
-422.530	-0.054	-0.302	0.214
-421.515	-60.419	0.191	0.081
-420.500	470.081	0.045	-0.101
-419.486	-200.000	0.002	-0.087
-418.471	339.977	-0.019	0.037
-417.457	-200.000	0.002	-0.063
-416.442	-67.240	-0.312	-0.122
-415.428	48.851	0.218	0.204
-414.413	195.416	0.210	0.318
-413.398	-12.455	-0.058	0.038
-412.384	-79.402	-0.425	0.143
-411.369	-125.457	0.059	-0.009
-410.355	516.654	-0.100	0.233
-409.340	-114.342	0.310	0.060
-408.325	-200.000	-0.023	0.237
-407.311	-115.109	-0.102	0.019
-406.296	-172.923	0.294	-0.009
-405.282	800.000	0.069	0.212
-404.267	-50.345	-0.019	-0.009
-403.252	800.000	0.107	-0.398
-402.238	-82.422	-0.039	0.013
-401.223	288.811	0.107	-0.193
-400.209	-49.911	0.132	0.062
-399.194	13.896	0.114	-0.088
-398.179	278.838	-0.141	-0.250
-397.165	741.175	-0.077	0.207
-396.150	87.564	-0.091	-0.101
-395.136	-141.374	-0.190	-0.019
-394.121	-61.813	-0.292	0.122
-393.106	-200.000	0.045	-0.209
-392.092	-63.870	0.171	-0.070
-391.077	500.705	0.044	-0.101
-390.063	-140.946	-0.391	0.040
-389.048	-153.407	-0.110	-0.008
-388.033	16.014	-0.102	-0.080
-387.019	-200.000	-0.007	0.102
-386.004	14.011	0.257	-0.199
-384.990	-200.000	0.007	0.074
-383.975	-146.279	-0.065	-0.006
-382.960	-26.412	-0.218	0.128
-381.946	528.408	0.060	-0.140
-380.931	415.498	-0.071	0.150
-379.917	57.431	-0.203	0.198
-378.902	74.901	0.069	-0.073
-377.888	800.000	0.054	0.198
-376.873	326.286	0.142	0.270
-375.858	-120.212	-0.241	0.041
-374.844	0.807	-0.167	-0.119
-373.829	238.972	-0.180	0.298
-372.815	-85.009	0.127	0.040
-371.800	31.903	-0.130	-0.112
-370.785	158.611	0.066	0.092
-369.771	-111.680	0.148	0.030
-368.756	-200.000	0.002	0.319
-367.742	96.197	0.134	0.153
-366.727	800.000	0.030	-0.100
-365.712	-173.993	0.186	0.005
-364.698	-122.960	-0.190	0.030
-363.683	-109.971	-0.390	-0.081
-362.669	67.161	-0.149	-0.151
-361.654	-19.434	0.201	0.124
-360.639	-33.746	-0.220	0.121
-359.625	-200.000	0.015	-0.159
-358.610	800.000	0.062	0.234
-357.596	-200.000	0.022	0.155
-356.581	-121.348	-0.410	0.068
-355.566	-19.490	0.139	0.086
-354.552	-63.896	-0.155	-0.063
-353.537	-55.024	0.107	0.048
-352.523	484.397	-0.062	0.141
-351.508	800.000	-0.044	0.164
-350.493	-136.043	0.254	-0.030
-349.479	472.932	0.151	0.338
-348.464	-12.692	-0.218	0.141
-347.450	-90.600	-0.286	0.082
-346.435	570.833	0.049	0.120
-345.420	-64.083	0.112	0.045
-344.406	800.000	0.051	-0.166
-343.391	-200.000	0.002	0.098
-342.377	-28.778	0.325	-0.186
-341.362	800.000	0.058	-0.194
-340.348	8.734	0.134	0.100
-339.333	800.000	-0.068	-0.264
-338.318	325.877	-0.178	-0.339
-337.304	-200.000	0.020	-0.240
-336.289	-115.552	-0.291	-0.054
-335.275	-200.000	-0.021	-0.335
-334.260	-96.348	0.327	0.086
-333.245	-10.868	-0.170	-0.111
-332.231	-26.830	-0.121	-0.070
-331.216	292.233	0.031	0.057
-330.202	-200.000	-0.011	-0.150
-329.187	-81.501	0.127	0.041
-328.172	-200.000	0.073	0.365
-327.158	-43.749	-0.106	0.053
-326.143	-40.926	-0.152	0.078
-325.129	-63.812	-0.090	-0.037
-324.114	5.507	0.314	0.230
-323.099	74.845	0.075	-0.079
-322.085	-200.000	0.004	0.050
-321.070	-97.171	-0.118	0.031
-320.056	167.218	-0.184	-0.259
-319.041	-101.480	0.326	-0.079
-318.026	514.411	-0.031	-0.073
-317.012	-200.000	-0.007	0.274
-315.997	-139.111	-0.406	-0.044
-314.983	150.009	-0.094	0.127
-313.968	119.159	-0.068	0.083
-312.953	-200.000	-0.010	-0.053
-311.939	5.466	0.050	-0.036
-310.924	-8.868	-0.169	0.113
-309.910	85.708	0.102	0.111
-308.895	-130.185	0.384	0.052
-307.880	21.344	-0.269	0.217
-306.866	-117.250	-0.193	-0.035
-305.851	85.522	-0.135	-0.147
-304.837	-200.000	0.050	0.272
-303.822	-200.000	-0.045	-0.276
-302.807	-17.811	-0.257	-0.160
-301.793	56.655	-0.189	0.182
-300.778	-200.000	0.005	0.219
-299.764	109.622	-0.097	-0.116
-298.749	46.674	-0.204	0.188
-297.735	-135.187	-0.226	0.027
-296.720	-71.775	0.243	-0.090
-295.705	119.673	-0.102	0.125
-294.691	22.957	0.186	-0.151
-293.676	-87.400	-0.396	0.119
-292.662	679.072	0.109	0.281
-291.647	323.256	-0.057	-0.109
-290.632	800.000	0.089	0.277
-289.618	29.095	0.210	0.176
-288.603	-200.000	-0.019	0.178
-287.589	-200.000	-0.170	-0.001
-286.574	-43.696	0.276	-0.138
-285.559	-200.000	-0.043	-0.271
-284.545	138.873	-0.216	-0.281
-283.530	-79.200	0.310	-0.104
-282.516	-17.337	-0.381	-0.238
-281.501	-142.795	0.221	0.021
-280.486	-200.000	-0.010	0.211
-279.472	-7.783	0.206	0.138
-278.457	257.157	-0.095	-0.161
-277.443	-4.515	0.177	-0.121
-276.428	-200.000	0.033	0.203
-275.413	553.921	-0.059	0.141
-274.399	800.000	-0.015	-0.053
-273.384	-200.000	0.013	0.177
-272.370	23.071	-0.205	-0.166
-271.355	-200.000	-0.038	-0.200
-270.340	93.158	0.018	0.020
-269.326	-200.000	-0.028	0.237
-268.311	-200.000	0.003	0.345
-267.297	-44.515	-0.008	-0.004
-266.282	639.366	-0.049	-0.123
-265.267	-22.279	-0.135	-0.081
-264.253	91.034	-0.062	-0.068
-263.238	-44.822	-0.157	-0.077
-262.224	-61.818	0.070	-0.029
-261.209	-200.000	-0.030	-0.132
-260.195	23.036	0.037	-0.030
-259.180	302.404	-0.146	0.268
-258.165	-72.781	0.286	0.104
-257.151	800.000	0.018	0.051
-256.136	77.988	0.160	0.169
-255.122	39.956	-0.181	-0.161
-254.107	-4.673	0.165	-0.113
-253.092	742.061	0.048	0.127
-252.078	45.331	0.238	-0.218
-251.063	-91.063	0.210	0.060
-250.049	-200.000	0.001	0.174
-249.034	88.139	0.079	-0.087
-248.019	24.646	-0.114	-0.094
-247.005	-24.852	-0.054	-0.032
-245.990	594.024	-0.009	-0.022
-244.976	-62.075	0.180	-0.074
-243.961	800.000	0.056	0.215
-242.946	-200.000	0.056	0.247
-241.932	269.919	0.098	0.170
-240.917	158.642	0.050	-0.069
-239.903	-86.445	0.389	-0.118
-238.888	271.687	-0.130	-0.227
-237.873	-56.321	0.300	0.132
-236.859	800.000	-0.072	-0.199
-235.844	-14.631	0.112	-0.071
-234.830	-200.000	-0.006	-0.196
-233.815	-78.691	0.282	-0.095
-232.800	109.170	-0.199	-0.235
-231.786	-123.162	-0.240	-0.038
-230.771	800.000	-0.023	0.100
-229.757	21.470	0.087	0.070
-228.742	56.165	-0.169	0.162
-227.727	-200.000	-0.013	-0.228
-226.713	669.107	-0.125	0.321
-225.698	-142.143	0.362	0.036
-224.684	30.502	-0.232	-0.196
-223.669	172.131	0.129	0.184
-222.655	210.448	0.193	-0.299
-221.640	-141.420	0.168	0.017
-220.625	25.427	0.213	0.175
-219.611	-200.000	0.056	-0.290
-218.596	575.606	0.050	-0.121
-217.582	-69.526	-0.171	-0.065
-216.567	235.573	-0.098	-0.160
-215.552	61.235	0.109	-0.107
-214.538	-90.440	-0.394	0.113
-213.523	800.000	0.016	0.070
-212.509	104.252	0.106	-0.123
-211.494	-200.000	-0.018	0.269
-210.479	-122.744	0.091	0.015
-209.465	-200.000	-0.006	0.093
-208.450	153.256	0.154	0.209
-207.436	210.070	-0.084	-0.131
-206.421	374.828	-0.107	0.216
-205.406	-105.822	-0.277	0.062
-204.392	63.504	0.114	0.113
-203.377	-144.084	0.148	0.014
-202.363	-200.000	0.010	0.204
-201.348	451.705	0.149	0.326
-200.333	509.743	0.041	-0.095
-199.319	125.196	-0.152	-0.189
-198.304	85.665	-0.173	0.187
-197.290	-4.893	0.160	-0.109
-196.275	-107.002	-0.104	0.023
-195.260	-200.000	0.000	-0.100
-194.246	205.716	-0.051	-0.079
-193.231	-110.748	-0.175	-0.036
-192.217	-101.449	0.163	-0.039
-191.202	-114.561	0.309	-0.059
-190.187	43.152	0.189	0.170
-189.173	169.478	-0.176	0.248
-188.158	800.000	-0.091	0.343
-187.144	260.891	0.101	-0.173
-186.129	29.522	0.164	-0.138
-185.114	59.071	0.229	0.222
-184.100	137.966	0.154	-0.200
-183.085	8.471	0.350	0.260
-182.071	-59.658	-0.125	-0.053
-181.056	-71.852	0.327	-0.120
-180.042	-200.000	0.009	-0.325
-179.027	-200.000	-0.005	-0.454
-178.012	-104.785	0.323	-0.073
-176.998	800.000	0.113	0.360
-175.983	-166.053	0.073	0.003
-174.969	-97.481	-0.183	-0.047
-173.954	-63.712	0.101	-0.041
-172.939	263.457	0.237	0.406
-171.925	-58.404	0.043	0.019
-170.910	210.558	0.126	-0.195
-169.896	260.484	-0.077	0.132
-168.881	-200.000	0.012	-0.092
-167.866	5.731	0.160	0.117
-166.852	-108.614	-0.234	-0.050
-165.837	-20.886	0.098	-0.059
-164.823	800.000	0.060	-0.166
-163.808	-115.591	-0.584	0.108
-162.793	146.621	-0.038	0.050
-161.779	800.000	-0.087	0.256
-160.764	-0.362	-0.182	0.127
-159.750	390.172	-0.048	-0.098
-158.735	37.052	0.163	0.142
-157.720	94.286	0.151	0.170
-156.706	224.913	0.021	0.034
-155.691	800.000	0.026	-0.072
-154.677	-12.122	-0.067	-0.043
-153.662	-137.967	-0.068	0.008
-152.647	800.000	-0.041	0.156
-151.633	-58.873	0.074	0.032
-150.618	-200.000	-0.024	0.160
-149.604	538.163	0.075	0.175
-148.589	-48.889	-0.272	0.128
-147.574	102.333	0.284	0.328
-146.560	704.363	-0.028	0.074
-145.545	800.000	-0.073	0.216
-144.531	122.371	0.091	-0.113
-143.516	-77.929	0.319	-0.109
-142.502	-200.000	-0.012	0.124
-141.487	62.206	0.103	0.101
-140.472	-101.457	-0.195	-0.047
-139.458	800.000	0.043	0.171
-138.443	-200.000	0.003	-0.157
-137.429	-200.000	0.007	-0.225
-136.414	-95.566	0.305	0.081
-135.399	131.205	0.227	0.287
-134.385	-40.407	0.238	-0.122
-133.370	-200.000	0.043	0.284
-132.356	-115.207	-0.319	-0.059
-131.341	-20.555	-0.113	0.068
-130.326	-118.967	-0.202	-0.035
-129.312	-200.000	0.054	0.479
-128.297	319.115	-0.095	0.177
-127.283	17.692	-0.237	-0.186
-126.268	800.000	-0.068	0.238
-125.253	256.933	-0.044	0.075
-124.239	-115.428	-0.231	0.043
-123.224	171.211	-0.224	0.316
-122.210	-100.521	0.100	0.024
-121.195	-200.000	-0.034	-0.396
