DTS Sentinel unit serial number:	SN413079Multiplexer serial number:	ORYXHardware model number:	OX4-SRSoftware version number:	ORYX F/W v4.00 Oryx Data Collector v3.7.2.0data status	okinstallation	princeton_trtdifferential loss correction	single-endedforward channel	channel 4reverse channel	N/Adate	2019/09/10time	16:07:11forward acquisition time	60.00reverse acquisition time	0.00gamma	496.2192k internal	0.2294k external	0.2294temperature offset calibration	0.9937default loss term (dB/km)	0.3790temperature slope calibration	1.0000multiplexer offset coefficient	1.0000multiplexer slope coefficient	1.0000fibre end	0.00T internal ref (°C)	38.30T ext. ref 1 (°C)	-0.28T ext. ref 2 (°C)	31.87length (m)	temperature (°C)	Stokes	anti-Stokes-747.200	148.441	-0.064	-0.088
-746.185	-94.075	-0.205	0.058
-745.171	57.474	0.209	0.209
-744.156	6.812	-0.113	-0.086
-743.142	800.000	-0.056	-0.167
-742.127	239.048	-0.036	0.061
-741.112	467.365	0.109	0.249
-740.098	-153.471	-0.136	-0.010
-739.083	17.873	0.127	0.103
-738.069	-200.000	-0.115	0.576
-737.054	262.717	0.158	0.280
-736.039	-145.261	-0.334	-0.031
-735.025	41.478	-0.116	0.108
-734.010	-183.850	-0.395	-0.007
-732.996	8.585	-0.242	-0.186
-731.981	-64.670	0.036	0.015
-730.966	800.000	-0.090	0.350
-729.952	539.402	-0.076	0.185
-728.937	-102.562	-0.116	0.028
-727.923	-137.989	0.371	0.042
-726.908	-4.563	-0.093	-0.066
-725.894	161.108	0.075	0.108
-724.879	800.000	-0.124	0.447
-723.864	72.318	-0.089	-0.095
-722.850	-200.000	-0.012	-0.067
-721.835	71.009	-0.278	0.294
-720.821	-15.821	-0.080	-0.052
-719.806	5.909	0.209	0.158
-718.791	123.554	0.156	-0.200
-717.777	-200.000	0.009	0.118
-716.762	75.933	-0.069	0.075
-715.748	-200.000	-0.003	-0.175
-714.733	800.000	-0.010	0.041
-713.718	-200.000	-0.032	-0.308
-712.704	478.056	-0.122	-0.283
-711.689	350.817	0.160	-0.323
-710.675	289.532	-0.191	0.354
-709.660	117.883	0.304	0.382
-708.645	-146.792	0.084	0.007
-707.631	60.934	-0.282	-0.286
-706.616	-17.698	0.172	-0.110
-705.602	145.873	-0.166	0.227
-704.587	-96.224	-0.200	0.054
-703.572	-179.414	-0.132	0.003
-702.558	256.473	-0.194	0.341
-701.543	333.207	0.058	0.113
-700.529	-91.769	0.390	-0.113
-699.514	-49.070	-0.091	-0.045
-698.499	135.596	0.199	-0.264
-697.485	-88.024	0.090	-0.027
-696.470	185.689	0.208	-0.315
-695.456	580.868	-0.031	0.077
-694.441	-16.146	-0.380	0.247
-693.426	0.470	0.187	0.136
-692.412	-15.865	0.301	-0.196
-691.397	-144.485	0.309	-0.029
-690.383	468.855	0.037	0.084
-689.368	337.989	0.102	-0.202
-688.354	-35.028	-0.146	-0.081
-687.339	158.182	0.134	0.190
-686.324	713.099	-0.159	-0.431
-685.310	723.775	-0.075	-0.204
-684.295	-96.754	0.201	-0.054
-683.281	800.000	-0.082	0.347
-682.266	670.298	-0.013	0.035
-681.251	-200.000	0.024	-0.170
-680.237	-106.891	0.096	0.022
-679.222	-103.566	0.222	-0.053
-678.208	-72.742	0.182	-0.068
-677.193	-142.496	0.278	0.028
-676.178	50.161	0.077	-0.074
-675.164	-26.319	-0.116	0.069
-674.149	800.000	-0.070	-0.229
-673.135	169.901	-0.214	-0.312
-672.120	79.498	0.103	0.113
-671.105	800.000	-0.102	-0.340
-670.091	209.316	0.239	0.382
-669.076	45.523	-0.297	-0.279
-668.062	-29.275	0.197	0.115
-667.047	-164.349	-0.067	0.003
-666.032	231.161	-0.046	-0.076
-665.018	166.125	0.199	-0.287
-664.003	-200.000	-0.002	-0.092
-662.989	202.432	0.112	0.177
-661.974	-10.341	0.126	0.085
-660.959	555.074	0.073	0.180
-659.945	417.866	-0.012	0.025
-658.930	800.000	-0.072	-0.205
-657.916	-200.000	0.051	-0.392
-656.901	507.726	0.071	-0.167
-655.886	-102.882	0.086	0.021
-654.872	75.977	0.100	0.108
-653.857	85.838	0.180	-0.202
-652.843	119.797	-0.124	-0.157
-651.828	-200.000	-0.085	-0.412
-650.814	-200.000	0.021	0.171
-649.799	-95.175	-0.206	0.057
-648.784	-200.000	-0.026	-0.176
-647.770	-166.684	-0.277	0.012
-646.755	153.259	0.302	-0.421
-645.741	-3.115	-0.345	0.245
-644.726	-28.859	-0.121	-0.071
-643.711	-89.608	0.075	-0.022
-642.697	-200.000	0.008	-0.089
-641.682	-71.135	-0.027	0.010
-640.668	-97.732	-0.144	-0.038
-639.653	9.392	-0.157	0.121
-638.638	-72.248	-0.207	0.078
-637.624	716.246	0.039	-0.105
-636.609	800.000	-0.036	0.133
-635.595	800.000	0.080	0.321
-634.580	-65.908	-0.185	-0.075
-633.565	800.000	0.056	-0.243
-632.551	-69.915	-0.410	-0.159
-631.536	-107.605	0.263	-0.058
-630.522	-110.754	0.220	-0.046
-629.507	-67.421	-0.176	-0.070
-628.492	-27.982	0.225	0.132
-627.478	21.309	-0.278	0.230
-626.463	35.471	0.205	0.184
-625.449	143.778	0.044	0.060
-624.434	147.470	-0.232	-0.318
-623.419	-104.047	0.034	-0.008
-622.405	219.571	0.060	-0.099
-621.390	77.031	-0.081	0.088
-620.376	-147.679	-0.288	-0.025
-619.361	-35.725	-0.108	0.060
-618.346	-66.341	-0.332	0.134
-617.332	148.881	0.153	-0.210
-616.317	81.159	0.062	-0.068
-615.303	-5.282	-0.220	0.154
-614.288	-200.000	-0.010	-0.112
-613.273	-78.322	-0.195	0.068
-612.259	179.483	0.069	-0.102
-611.244	164.805	0.110	0.158
-610.230	-90.563	0.054	-0.016
-609.215	109.858	-0.147	-0.179
-608.201	-126.830	0.117	-0.018
-607.186	199.113	-0.098	0.153
-606.171	224.725	-0.105	0.173
-605.157	-200.000	0.005	0.216
-604.142	-118.892	-0.213	0.038
-603.128	169.463	-0.029	0.043
-602.113	-200.000	0.050	0.231
-601.098	64.016	-0.044	-0.045
-600.084	316.861	0.108	-0.208
-599.069	-98.732	-0.214	0.055
-598.055	719.870	-0.098	0.266
-597.040	-200.000	-0.006	-0.183
-596.025	487.974	-0.142	-0.330
-595.011	-200.000	-0.032	-0.391
-593.996	-121.497	0.166	0.028
-592.982	-32.984	-0.255	0.144
-591.967	-107.730	0.159	-0.035
-590.952	61.308	0.113	-0.115
-589.938	-200.000	0.032	-0.213
-588.923	65.581	0.109	0.112
-587.909	-138.924	0.255	-0.028
-586.894	27.374	-0.176	-0.151
-585.879	-143.783	-0.519	-0.050
-584.865	242.613	-0.030	0.051
-583.850	704.420	-0.114	-0.307
-582.836	64.321	0.120	-0.122
-581.821	395.008	-0.157	0.333
-580.806	-200.000	-0.060	0.495
-579.792	182.842	-0.094	-0.142
-578.777	-6.358	-0.226	-0.157
-577.763	410.906	0.091	0.195
-576.748	-80.605	0.223	0.075
-575.733	230.547	-0.076	-0.127
-574.719	60.447	-0.123	-0.124
-573.704	134.968	-0.241	-0.317
-572.690	-105.377	0.299	-0.069
-571.675	55.470	-0.195	-0.192
-570.661	-26.781	-0.183	0.109
-569.646	-200.000	-0.004	-0.097
-568.631	-60.938	0.076	-0.033
-567.617	-200.000	-0.007	0.497
-566.602	-137.255	0.103	0.012
-565.588	743.368	0.057	0.155
-564.573	53.193	0.088	-0.085
-563.558	-79.155	0.290	0.100
-562.544	78.964	-0.245	-0.267
-561.529	-78.286	-0.161	0.056
-560.515	-115.513	-0.237	-0.045
-559.500	-200.000	0.010	-0.046
-558.485	156.210	-0.156	0.219
-557.471	-200.000	-0.006	0.272
-556.456	-61.918	0.559	0.237
-555.442	-200.000	-0.094	-0.454
-554.427	29.235	-0.178	0.153
-553.412	69.275	0.109	0.114
-552.398	-90.889	-0.161	-0.047
-551.383	-200.000	-0.004	0.031
-550.369	559.927	-0.108	-0.264
-549.354	68.892	0.093	-0.097
-548.339	-9.288	0.264	-0.179
-547.325	800.000	0.142	-0.404
-546.310	-200.000	0.015	-0.302
-545.296	15.750	0.024	-0.019
-544.281	11.015	0.116	-0.090
-543.266	-200.000	0.033	-0.268
-542.252	19.382	-0.207	0.169
-541.237	800.000	-0.026	0.076
-540.223	153.193	0.023	-0.032
-539.208	105.925	-0.109	-0.131
-538.193	353.803	0.151	-0.304
-537.179	-53.984	-0.335	-0.155
-536.164	-25.062	0.246	0.148
-535.150	-46.898	-0.058	0.029
-534.135	141.285	-0.129	-0.173
-533.121	800.000	0.045	0.178
-532.106	800.000	0.022	-0.070
-531.091	-3.530	-0.187	-0.132
-530.077	-194.217	0.218	-0.002
-529.062	-124.128	-0.085	-0.014
-528.048	58.363	-0.150	0.150
-527.033	183.123	-0.050	-0.075
-526.018	-195.552	-0.263	-0.002
-525.004	19.998	0.204	-0.166
-523.989	56.484	-0.046	-0.045
-522.975	-16.887	0.014	-0.009
-521.960	-200.000	-0.030	-0.180
-520.945	-200.000	0.044	0.344
-519.931	-200.000	-0.007	-0.063
-518.916	38.626	-0.358	-0.324
-517.902	148.725	-0.168	0.230
-516.887	-88.567	-0.191	0.058
-515.872	-200.000	0.004	-0.056
-514.858	-19.205	-0.259	0.163
-513.843	134.273	-0.169	0.221
-512.829	-1.610	0.137	0.098
-511.814	338.601	0.033	0.065
-510.799	-122.751	0.075	-0.012
-509.785	426.353	-0.184	-0.402
-508.770	-23.328	0.390	-0.238
-507.756	49.269	-0.186	-0.177
-506.741	800.000	0.112	-0.345
-505.726	25.183	-0.086	-0.073
-504.712	800.000	-0.085	-0.281
-503.697	800.000	-0.127	0.432
-502.683	41.867	0.364	0.334
-501.668	-31.660	-0.304	0.173
-500.653	-20.722	-0.162	0.100
-499.639	-200.000	0.004	0.268
-498.624	-141.000	0.267	0.028
-497.610	203.237	0.170	0.265
-496.595	-104.767	-0.081	-0.019
-495.581	-69.016	-0.308	0.120
-494.566	75.185	-0.028	-0.030
-493.551	24.533	0.173	-0.145
-492.537	-200.000	-0.013	0.356
-491.522	800.000	-0.042	0.139
-490.508	662.525	0.126	0.328
-489.493	38.347	0.489	-0.441
-488.478	123.923	0.234	-0.297
-487.464	-58.816	-0.109	-0.048
-486.449	800.000	0.037	0.121
-485.435	-200.000	0.052	0.434
-484.420	255.307	0.079	-0.137
-483.405	-135.620	0.290	-0.035
-482.391	-58.461	-0.353	-0.155
-481.376	800.000	-0.079	-0.238
-480.362	83.639	0.192	0.212
-479.347	-24.068	-0.147	0.089
-478.332	-148.637	0.254	0.021
-477.318	-11.683	0.128	0.085
-476.303	-146.168	0.303	0.027
-475.289	-79.913	0.067	0.023
-474.274	74.519	-0.125	-0.133
-473.259	94.298	-0.086	0.099
-472.245	156.192	-0.067	0.094
-471.230	126.840	-0.349	-0.448
-470.216	590.183	-0.176	0.438
-469.201	-87.183	0.375	-0.115
-468.186	-4.331	0.221	0.154
-467.172	-200.000	-0.035	-0.172
-466.157	-83.283	0.355	0.115
-465.143	-200.000	0.002	-0.399
-464.128	3.087	0.268	-0.197
-463.113	-101.134	0.303	-0.075
-462.099	448.350	-0.019	-0.043
-461.084	362.378	-0.101	-0.205
-460.070	-200.000	0.089	0.000
-459.055	-6.240	0.292	0.202
-458.040	414.079	0.209	0.451
-457.026	66.863	-0.175	-0.180
-456.011	83.851	0.128	-0.141
-454.997	-56.962	0.184	0.082
-453.982	-200.000	0.017	0.112
-452.968	-159.677	0.308	0.017
-451.953	-200.000	-0.008	0.141
-450.938	267.479	-0.065	-0.115
-449.924	414.646	-0.058	-0.124
-448.909	-43.387	0.104	0.053
-447.895	135.093	-0.134	-0.176
-446.880	267.447	0.115	-0.204
-445.865	-64.759	0.145	0.059
-444.851	86.185	-0.253	-0.282
-443.836	-103.968	-0.190	-0.045
-442.822	-200.000	-0.021	0.125
-441.807	-138.147	-0.399	0.045
-440.792	-133.446	0.114	-0.014
-439.778	-43.827	-0.325	0.165
-438.763	29.911	-0.230	-0.198
-437.749	-200.000	-0.015	-0.069
-436.734	269.920	-0.019	0.033
-435.719	800.000	-0.008	0.036
-434.705	-59.367	-0.102	-0.044
-433.690	-8.941	-0.141	0.095
-432.676	-200.000	-0.033	-0.156
-431.661	-49.430	0.229	-0.110
-430.646	-200.000	-0.002	0.261
-429.632	5.950	0.208	0.156
-428.617	-200.000	-0.005	-0.023
-427.603	-160.179	0.266	-0.015
-426.588	-200.000	0.094	0.467
-425.573	44.265	-0.154	0.143
-424.559	-80.879	-0.419	-0.140
-423.544	800.000	0.027	0.082
-422.530	-34.352	-0.164	-0.091
-421.515	-79.906	0.118	0.040
-420.500	-42.210	-0.138	-0.071
-419.486	800.000	-0.027	0.077
-418.471	800.000	0.070	0.208
-417.457	-37.748	0.404	0.217
-416.442	-85.699	0.161	0.050
-415.428	-138.255	0.166	0.019
-414.413	192.921	0.062	-0.094
-413.398	57.504	-0.110	0.109
-412.384	94.999	0.260	0.299
-411.369	139.020	-0.174	0.231
-410.355	504.542	0.022	0.050
-409.340	800.000	-0.037	-0.108
-408.325	800.000	-0.055	-0.212
-407.311	-32.451	-0.182	0.102
-406.296	3.462	0.250	0.184
-405.282	-200.000	-0.127	-0.573
-404.267	101.052	-0.091	0.107
-403.252	-112.784	-0.264	0.053
-402.238	166.222	-0.053	-0.076
-401.223	272.197	0.136	-0.242
-400.209	19.324	-0.112	-0.091
-399.194	457.798	0.087	-0.195
-398.179	109.040	0.392	0.473
-397.165	-64.593	0.279	-0.114
-396.150	-157.298	0.232	-0.014
-395.136	240.981	0.049	-0.082
-394.121	133.803	0.173	-0.226
-393.106	800.000	-0.059	-0.179
-392.092	22.280	0.186	0.153
-391.077	-143.400	-0.363	0.035
-390.063	491.426	-0.138	-0.319
-389.048	156.085	0.041	0.057
-388.033	184.107	0.117	0.175
-387.019	-157.275	-0.056	-0.003
-386.004	177.699	-0.127	0.186
-384.990	-1.050	0.142	0.101
-383.975	91.854	0.274	-0.310
-382.960	-129.468	0.161	0.023
-381.946	-30.912	-0.135	0.077
-380.931	-7.830	-0.087	-0.059
-379.917	-200.000	-0.005	0.373
-378.902	-107.419	0.136	0.030
-377.888	97.844	-0.036	-0.042
-376.873	352.348	-0.037	-0.074
-375.858	-144.668	-0.110	0.010
-374.844	299.676	0.020	0.037
-373.829	25.774	0.181	0.152
-372.815	485.025	-0.077	0.177
-371.800	28.515	0.104	0.089
-370.785	-148.660	-0.210	0.017
-369.771	-70.611	0.120	-0.046
-368.756	74.538	-0.146	-0.155
-367.742	-9.917	-0.159	-0.107
-366.727	-7.496	0.218	0.148
-365.712	-26.866	-0.054	-0.032
-364.698	-200.000	0.006	0.279
-363.683	102.445	0.097	-0.115
-362.669	379.112	0.042	-0.086
-361.654	-102.327	0.182	-0.044
-360.639	565.339	0.015	-0.036
-359.625	-64.560	-0.177	0.073
-358.610	118.907	-0.038	-0.047
-357.596	-35.476	0.194	0.106
-356.581	6.714	-0.055	0.041
-355.566	-200.000	0.005	0.312
-354.552	108.702	-0.269	0.323
-353.537	-131.666	-0.238	0.031
-352.523	-55.156	0.239	-0.108
-351.508	-97.902	-0.063	0.016
-350.493	-200.000	-0.007	-0.138
-349.479	-200.000	-0.014	-0.115
-348.464	-37.229	-0.260	0.140
-347.450	-200.000	0.005	-0.039
-346.435	-40.477	0.138	0.072
-345.420	196.661	-0.201	0.309
-344.406	-200.000	-0.002	0.084
-343.391	7.648	-0.243	-0.183
-342.377	4.364	-0.260	-0.192
-341.362	-96.882	0.092	-0.024
-340.348	-115.214	0.127	-0.024
-339.333	-94.841	-0.041	-0.011
-338.318	-51.541	-0.323	-0.152
-337.304	800.000	-0.064	-0.187
-336.289	800.000	-0.041	-0.147
-335.275	337.561	0.112	-0.218
-334.260	140.244	0.243	0.322
-333.245	-56.953	0.388	-0.172
-332.231	-10.441	0.350	-0.233
-331.216	-97.425	-0.483	-0.126
-330.202	201.687	-0.201	0.311
-329.187	-97.481	-0.206	0.054
-328.172	-200.000	-0.005	0.296
-327.158	67.063	0.186	0.190
-326.143	531.636	-0.100	0.239
-325.129	800.000	-0.022	-0.096
-324.114	276.313	0.046	0.082
-323.099	-62.412	0.162	0.068
-322.085	-75.145	0.085	0.031
-321.070	-91.071	0.022	-0.006
-320.056	216.634	0.102	-0.164
-319.041	73.762	0.087	-0.092
-318.026	800.000	0.041	0.132
-317.012	-190.231	0.158	0.002
-315.997	63.724	-0.160	-0.162
-314.983	-200.000	0.000	-0.058
-313.968	296.506	0.052	-0.095
-312.953	78.680	-0.347	-0.373
-311.939	471.168	0.112	-0.252
-310.924	-200.000	-0.017	-0.126
-309.910	-200.000	0.021	0.093
-308.895	411.334	0.089	0.190
-307.880	139.638	0.061	0.081
-306.866	35.655	0.057	-0.051
-305.851	-58.002	0.144	0.063
-304.837	-55.147	0.271	0.123
-303.822	-18.434	0.225	-0.141
-302.807	-140.640	0.188	0.020
-301.793	155.274	0.101	-0.140
-300.778	-200.000	-0.001	-0.174
-299.764	-83.525	-0.287	-0.092
-298.749	-134.999	0.151	-0.018
-297.735	513.094	0.181	-0.424
-296.720	278.767	-0.126	-0.226
-295.705	474.381	0.091	-0.206
-294.691	-134.391	0.074	-0.009
-293.676	191.980	-0.117	0.177
-292.662	-200.000	-0.023	0.190
-291.647	-101.222	0.156	0.038
-290.632	-200.000	0.007	-0.146
-289.618	-200.000	-0.172	0.000
-288.603	-84.199	0.249	-0.079
-287.589	-70.125	-0.372	-0.142
-286.574	202.923	0.172	0.267
-285.559	77.226	-0.059	0.062
-284.545	-137.013	-0.215	0.025
-283.530	147.940	0.065	-0.088
-282.516	-158.086	0.186	0.011
-281.501	-83.850	-0.155	-0.050
-280.486	119.632	0.178	-0.221
-279.472	642.144	-0.038	-0.096
-278.457	800.000	-0.005	0.020
-277.443	337.442	0.053	-0.104
-276.428	171.639	-0.316	0.455
-275.413	-200.000	-0.017	0.372
-274.399	-100.513	-0.173	-0.043
-273.384	-106.851	0.199	-0.044
-272.370	-35.198	0.164	-0.090
-271.355	-200.000	-0.030	0.161
-270.340	-200.000	-0.056	-0.285
-269.326	163.040	-0.076	-0.107
-268.311	800.000	0.016	-0.047
-267.297	207.520	0.116	0.182
-266.282	264.154	0.086	0.150
-265.267	429.332	-0.061	-0.132
-264.253	70.827	0.165	0.171
-263.238	-2.912	0.280	0.196
-262.224	-131.776	0.153	0.020
-261.209	727.764	-0.110	-0.293
-260.195	290.279	0.073	-0.133
-259.180	-200.000	0.064	0.283
-258.165	-10.164	0.137	0.091
-257.151	58.027	-0.045	-0.044
-256.136	-123.870	-0.116	-0.018
-255.122	800.000	-0.098	-0.328
-254.107	-45.190	-0.275	0.137
-253.092	-165.952	0.163	-0.007
-252.078	351.721	-0.024	0.048
-251.063	-143.230	0.408	-0.039
-250.049	-43.935	0.141	0.071
-249.034	261.436	-0.152	-0.264
-248.019	-32.556	0.283	-0.158
-247.005	-9.695	-0.011	0.008
-245.990	-200.000	-0.007	0.148
-244.976	-86.685	0.108	0.033
-243.961	62.252	-0.076	0.076
-242.946	-58.542	0.415	0.180
-241.932	-1.076	0.138	-0.098
-240.917	79.811	0.221	-0.238
-239.903	39.997	0.109	-0.099
-238.888	-15.396	0.160	0.103
-237.873	120.025	-0.145	0.181
-236.859	305.425	-0.085	-0.158
-235.844	-50.358	0.065	-0.031
-234.830	5.994	-0.141	0.104
-233.815	73.131	0.343	0.359
-232.800	-200.000	-0.064	0.439
-231.786	364.923	-0.060	-0.120
-230.771	25.331	0.080	0.066
-229.757	-88.934	-0.298	-0.088
-228.742	289.974	0.209	0.379
-227.727	-137.419	-0.275	-0.031
-226.713	-200.000	-0.028	-0.161
-225.698	-112.599	-0.211	-0.042
-224.684	687.190	-0.085	0.222
-223.669	-37.954	0.062	-0.033
-222.655	-79.532	-0.193	0.065
-221.640	-21.515	-0.182	-0.111
-220.625	-79.798	0.446	-0.150
-219.611	783.388	0.129	-0.355
-218.596	-139.765	0.254	-0.027
-217.582	-200.000	0.003	-0.057
-216.567	-153.302	-0.132	0.009
-215.552	-67.975	0.136	-0.053
-214.538	-108.089	0.023	-0.005
-213.523	-178.681	0.221	-0.005
-212.509	267.060	-0.152	0.267
-211.494	-200.000	-0.106	-0.585
-210.479	22.297	-0.077	-0.063
-209.465	800.000	0.024	-0.084
-208.450	-200.000	0.027	-0.253
-207.436	-66.295	0.146	0.058
-206.421	-45.490	0.485	0.241
-205.406	-56.770	0.280	-0.124
-204.392	348.520	-0.085	0.168
-203.377	736.526	0.080	0.214
-202.363	44.564	0.329	-0.303
-201.348	-200.000	0.005	-0.305
-200.333	109.302	-0.173	0.208
-199.319	-136.053	-0.399	0.047
-198.304	-200.000	-0.013	-0.152
-197.290	167.079	0.212	0.301
-196.275	-63.774	-0.151	-0.062
-195.260	390.268	0.021	0.044
-194.246	-200.000	0.008	0.268
-193.231	337.582	0.142	0.277
-192.217	151.086	-0.338	0.461
-191.202	-200.000	-0.004	0.178
-190.187	666.455	-0.033	0.084
-189.173	800.000	-0.027	0.096
-188.158	115.422	-0.270	-0.330
-187.144	104.412	-0.132	-0.156
-186.129	800.000	0.049	0.208
-185.114	-153.978	-0.148	0.010
-184.100	38.102	0.167	0.149
-183.085	-36.797	0.111	0.059
-182.071	-200.000	-0.061	-0.374
-181.056	-25.052	0.231	0.137
-180.042	-70.187	-0.032	0.012
-179.027	53.104	0.229	0.219
-178.012	133.271	-0.296	0.382
-176.998	-79.379	0.078	0.026
-175.983	214.853	0.082	-0.130
-174.969	72.814	0.207	0.216
-173.954	-98.633	-0.274	-0.070
-172.939	-172.168	0.244	0.008
-171.925	-72.879	0.201	-0.074
-170.910	-93.051	-0.145	-0.041
-169.896	-75.667	-0.348	-0.124
-168.881	682.612	0.106	-0.276
-167.866	-37.317	0.287	-0.153
-166.852	190.264	-0.189	0.284
-165.837	-186.805	-0.531	-0.007
-164.823	689.569	-0.091	0.238
-163.808	382.618	0.018	-0.037
-162.793	-79.675	-0.206	0.069
-161.779	-138.589	0.087	0.009
-160.764	-30.000	-0.096	0.055
-159.750	800.000	0.028	0.108
-158.735	72.425	-0.290	0.302
-157.720	85.441	-0.102	-0.112
-156.706	494.394	-0.063	-0.144
-155.691	-113.150	-0.092	0.018
-154.677	800.000	0.049	-0.157
-153.662	448.242	0.075	0.165
-152.647	-200.000	-0.021	-0.112
-151.633	-200.000	0.034	0.281
-150.618	-101.241	0.297	0.073
-149.604	-200.000	0.050	0.245
-148.589	-200.000	-0.053	0.275
-147.574	432.083	-0.064	-0.139
-146.560	-74.081	0.359	0.130
-145.545	54.644	0.087	0.084
-144.531	-74.701	-0.092	-0.033
-143.516	-41.729	0.288	0.148
-142.502	68.962	-0.162	0.166
-141.487	-200.000	-0.010	-0.065
-140.472	153.016	0.217	-0.296
-139.458	342.334	0.126	-0.247
-138.443	-83.283	0.171	-0.055
-137.429	-118.441	-0.425	-0.075
-136.414	-46.641	0.102	0.050
-135.399	260.928	-0.156	-0.269
-134.385	800.000	-0.063	0.266
-133.370	106.258	0.066	0.078
-132.356	800.000	-0.037	0.147
-131.341	1.870	-0.065	0.047
-130.326	739.528	0.142	0.380
-129.312	-75.774	-0.073	0.026
-128.297	-200.000	-0.020	0.290
-127.283	-35.408	0.298	-0.162
-126.268	-117.292	-0.132	-0.024
-125.253	-69.360	-0.113	-0.043
-124.239	-80.633	0.124	0.041
-123.224	-98.127	-0.314	-0.081
-122.210	68.182	0.064	0.065
-121.195	-0.325	0.153	-0.108
