DTS Sentinel unit serial number:	SN413079Multiplexer serial number:	ORYXHardware model number:	OX4-SRSoftware version number:	ORYX F/W v4.00 Oryx Data Collector v3.7.2.0data status	okinstallation	princeton_trtdifferential loss correction	single-endedforward channel	channel 4reverse channel	N/Adate	2019/09/13time	22:09:34forward acquisition time	60.00reverse acquisition time	0.00gamma	496.2192k internal	0.2320k external	0.2320temperature offset calibration	1.0137default loss term (dB/km)	0.3790temperature slope calibration	1.0000multiplexer offset coefficient	1.0000multiplexer slope coefficient	1.0000fibre end	0.00T internal ref (°C)	27.94T ext. ref 1 (°C)	3.25T ext. ref 2 (°C)	22.68length (m)	temperature (°C)	Stokes	anti-Stokes-747.200	-200.000	0.004	0.133
-746.185	13.088	0.046	-0.036
-745.171	800.000	-0.046	-0.155
-744.156	-200.000	0.009	0.070
-743.142	-111.036	-0.426	0.088
-742.127	-82.919	0.229	-0.075
-741.112	122.405	0.060	-0.076
-740.098	3.865	-0.205	0.151
-739.083	-79.282	-0.301	0.103
-738.069	102.880	-0.122	0.144
-737.054	469.695	-0.079	0.179
-736.039	222.901	-0.043	-0.070
-735.025	722.868	0.081	0.219
-734.010	0.814	0.237	0.171
-732.996	-178.857	-0.417	-0.010
-731.981	-200.000	-0.003	-0.076
-730.966	34.235	-0.153	-0.135
-729.952	296.699	-0.074	-0.137
-728.937	-46.426	-0.234	-0.116
-727.923	48.183	0.045	0.042
-726.908	-200.000	-0.002	-0.158
-725.894	800.000	0.082	-0.321
-724.879	76.467	-0.116	-0.124
-723.864	61.262	0.016	0.016
-722.850	-200.000	-0.005	-0.175
-721.835	447.152	0.012	-0.028
-720.821	-56.016	0.045	0.020
-719.806	-134.768	-0.419	0.051
-718.791	-81.972	0.215	0.071
-717.777	-103.155	-0.272	0.065
-716.762	-85.751	-0.226	0.071
-715.748	-175.294	0.069	-0.002
-714.733	-121.334	-0.254	-0.043
-713.718	800.000	0.073	-0.243
-712.704	800.000	-0.044	-0.163
-711.689	-118.707	-0.475	0.085
-710.675	124.045	0.174	-0.220
-709.660	-110.724	-0.230	0.048
-708.645	-20.776	0.241	0.149
-707.631	142.554	-0.241	-0.323
-706.616	-99.841	-0.191	-0.048
-705.602	-135.765	-0.123	0.015
-704.587	49.576	-0.164	0.156
-703.572	-52.513	-0.205	0.096
-702.558	-200.000	-0.072	-0.337
-701.543	31.339	-0.140	-0.121
-700.529	-103.739	-0.055	0.013
-699.514	-107.838	0.040	-0.009
-698.499	-169.855	-0.137	-0.005
-697.485	187.721	-0.055	0.083
-696.470	41.673	0.079	-0.072
-695.456	92.835	0.065	-0.074
-694.441	-1.767	0.201	0.143
-693.426	60.893	0.182	-0.182
-692.412	-200.000	-0.009	0.375
-691.397	553.306	0.052	-0.126
-690.383	726.033	0.059	-0.158
-689.368	-80.626	-0.114	0.038
-688.354	-200.000	-0.111	0.000
-687.339	369.288	0.080	0.164
-686.324	37.556	0.105	-0.094
-685.310	-200.000	-0.029	-0.348
-684.295	143.959	0.223	0.299
-683.281	-177.283	-0.238	0.006
-682.266	-200.000	-0.008	0.293
-681.251	208.362	0.153	0.242
-680.237	-86.155	0.117	0.036
-679.222	-97.343	-0.145	0.038
-678.208	136.901	-0.087	0.114
-677.193	-200.000	-0.002	0.069
-676.178	-135.152	-0.122	-0.015
-675.164	-116.461	0.097	0.018
-674.149	-77.218	0.213	0.075
-673.135	-19.557	-0.186	-0.116
-672.120	-200.000	0.007	0.170
-671.105	800.000	0.016	-0.056
-670.091	-200.000	-0.036	-0.172
-669.076	180.938	-0.019	0.029
-668.062	35.905	0.206	-0.183
-667.047	-124.981	0.414	0.064
-666.032	-89.780	-0.133	-0.039
-665.018	-45.198	0.300	0.150
-664.003	-25.195	-0.151	-0.090
-662.989	-200.000	0.095	-0.449
-661.974	-86.810	0.225	0.069
-660.959	-160.770	0.131	0.007
-659.945	74.627	-0.154	-0.163
-658.930	-99.289	0.060	-0.015
-657.916	170.723	-0.070	-0.101
-656.901	-2.667	-0.187	-0.132
-655.886	191.579	-0.087	-0.133
-654.872	-2.749	0.041	-0.029
-653.857	409.515	0.151	-0.322
-652.843	601.423	-0.142	-0.355
-651.828	57.747	-0.137	0.135
-650.814	-10.661	0.079	0.053
-649.799	112.147	-0.064	0.078
-648.784	-200.000	0.007	0.044
-647.770	-69.106	0.350	0.136
-646.755	-200.000	0.004	0.016
-645.741	800.000	0.100	0.420
-644.726	40.113	-0.023	-0.020
-643.711	180.456	0.080	-0.119
-642.697	-200.000	-0.000	-0.366
-641.682	-47.139	-0.116	-0.057
-640.668	-200.000	-0.048	-0.315
-639.653	341.550	-0.124	-0.244
-638.638	800.000	-0.065	0.271
-637.624	127.617	0.128	0.164
-636.609	-125.857	-0.331	0.050
-635.595	-68.314	-0.250	-0.098
-634.580	-13.555	-0.132	0.086
-633.565	51.666	0.228	0.219
-632.551	595.191	0.103	-0.255
-631.536	157.919	-0.071	0.099
-630.522	-129.962	0.043	-0.006
-629.507	575.692	-0.062	-0.152
-628.492	-142.814	-0.210	-0.021
-627.478	495.163	0.034	0.078
-626.463	250.453	0.148	-0.253
-625.449	217.717	0.166	-0.266
-624.434	800.000	-0.017	-0.064
-623.419	41.034	0.224	-0.203
-622.405	-159.233	0.228	-0.013
-621.390	-200.000	-0.003	0.121
-620.376	215.589	-0.195	-0.312
-619.361	-54.288	0.122	-0.056
-618.346	-200.000	0.028	0.251
-617.332	519.673	-0.115	0.270
-616.317	-169.342	-0.208	-0.008
-615.303	28.463	-0.127	0.108
-614.288	175.912	-0.139	0.203
-613.273	458.536	-0.158	-0.355
-612.259	-192.286	-0.265	0.003
-611.244	323.867	0.128	0.246
-610.230	9.517	-0.077	0.058
-609.215	-19.045	-0.051	0.032
-608.201	-153.134	0.311	0.022
-607.186	-20.536	0.170	-0.105
-606.171	-200.000	0.014	0.221
-605.157	-200.000	-0.035	0.224
-604.142	-12.214	-0.326	0.214
-603.128	800.000	-0.032	-0.115
-602.113	67.213	-0.120	-0.123
-601.098	710.377	-0.050	0.133
-600.084	-81.013	-0.203	-0.067
-599.069	-13.736	-0.396	0.258
-598.055	-71.472	-0.162	0.061
-597.040	-132.431	0.228	-0.030
-596.025	-200.000	0.045	0.262
-595.011	-186.104	0.338	-0.005
-593.996	-77.200	-0.183	0.064
-592.982	-101.530	0.253	-0.062
-591.967	-42.040	-0.264	0.136
-590.952	800.000	-0.032	-0.092
-589.938	134.661	-0.051	0.067
-588.923	-35.561	0.047	0.026
-587.909	-75.703	-0.074	0.026
-586.894	266.579	0.070	-0.122
-585.879	414.246	-0.122	0.260
-584.865	8.029	0.103	0.077
-583.850	112.146	0.085	-0.103
-582.836	-200.000	-0.084	-0.391
-581.821	-174.337	-0.373	0.011
-580.806	-168.121	0.404	-0.016
-579.792	265.473	-0.190	0.333
-578.777	477.048	-0.137	0.312
-577.763	21.517	-0.111	-0.091
-576.748	14.280	-0.076	-0.060
-575.733	40.658	-0.063	-0.057
-574.719	1.849	0.105	-0.076
-573.704	575.232	-0.060	0.147
-572.690	-69.971	0.157	-0.060
-571.675	637.528	-0.119	0.303
-570.661	-132.024	-0.173	0.023
-569.646	38.872	0.244	-0.219
-568.631	-200.000	0.058	-0.318
-567.617	114.831	-0.188	-0.231
-566.602	-200.000	0.017	-0.124
-565.588	-126.643	0.182	0.027
-564.573	-160.691	-0.199	-0.011
-563.558	60.130	-0.106	0.105
-562.544	-200.000	0.000	0.008
-561.529	-17.792	0.171	-0.108
-560.515	-28.918	-0.290	0.167
-559.500	-85.258	0.057	-0.018
-558.485	-133.582	-0.287	-0.036
-557.471	800.000	0.038	0.112
-556.456	105.223	-0.141	-0.167
-555.442	-200.000	-0.033	-0.330
-554.427	47.924	-0.106	0.099
-553.412	-120.938	-0.141	-0.024
-552.398	-73.489	-0.248	0.091
-551.383	-200.000	0.029	-0.328
-550.369	-200.000	0.053	0.254
-549.354	277.299	0.080	0.143
-548.339	-85.938	0.153	0.047
-547.325	258.842	0.063	0.109
-546.310	118.724	-0.130	-0.162
-545.296	386.967	0.168	0.348
-544.281	-65.775	0.209	-0.084
-543.266	-16.324	-0.194	-0.124
-542.252	-200.000	-0.056	0.438
-541.237	-53.081	0.142	0.065
-540.223	-200.000	0.020	0.216
-539.208	-86.083	-0.484	-0.150
-538.193	-76.247	0.275	-0.097
-537.179	-75.855	0.037	0.013
-536.164	302.461	-0.042	0.077
-535.150	-124.128	-0.153	-0.024
-534.135	261.499	0.135	0.235
-533.121	13.260	0.131	0.102
-532.106	569.058	-0.051	-0.124
-531.091	-55.650	-0.100	0.045
-530.077	194.992	-0.154	-0.234
-529.062	25.697	-0.117	-0.098
-528.048	-200.000	-0.005	-0.162
-527.033	-200.000	-0.026	-0.122
-526.018	-90.250	-0.225	0.065
-525.004	-200.000	-0.030	-0.275
-523.989	-137.884	0.286	-0.032
-522.975	120.013	0.085	-0.106
-521.960	-76.277	-0.225	-0.080
-520.945	54.956	0.225	-0.218
-519.931	-42.512	-0.357	-0.182
-518.916	19.058	-0.070	0.057
-517.902	-63.353	-0.169	0.070
-516.887	785.482	0.027	-0.074
-515.872	-42.858	0.458	-0.233
-514.858	154.466	0.087	-0.120
-513.843	-17.822	-0.174	0.110
-512.829	-78.143	-0.150	-0.052
-511.814	347.701	-0.100	-0.198
-510.799	101.980	0.018	-0.021
-509.785	800.000	0.110	0.379
-508.770	-200.000	-0.013	0.112
-507.756	800.000	-0.066	-0.189
-506.741	-97.930	0.070	-0.018
-505.726	-144.500	-0.293	-0.027
-504.712	-46.858	-0.222	-0.109
-503.697	15.781	-0.173	-0.136
-502.683	512.659	-0.025	-0.058
-501.668	-39.355	0.227	-0.119
-500.653	-200.000	0.073	-0.395
-499.639	295.529	-0.017	-0.032
-498.624	800.000	0.058	-0.201
-497.610	-45.443	0.102	-0.051
-496.595	-26.637	-0.467	-0.273
-495.581	187.962	0.158	-0.236
-494.566	150.765	0.093	-0.127
-493.551	800.000	0.048	0.171
-492.537	248.433	0.119	0.202
-491.522	264.003	-0.129	0.225
-490.508	1.500	-0.024	-0.017
-489.493	-160.663	-0.040	-0.002
-488.478	-200.000	-0.045	-0.224
-487.464	153.961	-0.062	0.085
-486.449	-200.000	-0.005	-0.327
-485.435	485.088	0.087	-0.198
-484.420	-200.000	0.048	0.348
-483.405	-112.139	-0.336	0.068
-482.391	-115.612	-0.181	-0.034
-481.376	800.000	-0.044	-0.138
-480.362	79.418	0.041	-0.044
-479.347	-200.000	0.110	-0.525
-478.332	-173.567	0.045	0.001
-477.318	-185.752	0.173	-0.003
-476.303	4.612	0.133	-0.098
-475.289	-139.250	0.112	0.012
-474.274	-119.319	0.180	0.031
-473.259	158.849	-0.043	0.060
-472.245	800.000	-0.039	-0.151
-471.230	800.000	-0.013	0.043
-470.216	-131.309	-0.062	0.008
-469.201	766.226	-0.107	-0.291
-468.186	-44.269	-0.352	0.177
-467.172	153.220	-0.139	0.190
-466.157	29.454	0.085	0.072
-465.143	-65.006	-0.368	0.149
-464.128	-200.000	0.035	-0.351
-463.113	-13.263	-0.050	0.033
-462.099	147.120	0.208	-0.280
-461.084	-17.929	0.365	-0.229
-460.070	108.100	0.100	-0.120
-459.055	222.776	-0.108	-0.175
-458.040	83.759	0.169	0.184
-457.026	-68.389	0.188	0.073
-456.011	461.679	-0.098	0.218
-454.997	-54.057	-0.304	0.138
-453.982	-57.741	0.037	-0.016
-452.968	-200.000	-0.004	0.069
-451.953	-200.000	-0.007	-0.222
-450.938	-60.286	-0.144	0.061
-449.924	15.839	0.185	-0.146
-448.909	-84.496	0.380	0.120
-447.895	800.000	-0.075	-0.315
-446.880	256.708	-0.092	0.159
-445.865	-49.588	-0.397	-0.189
-444.851	84.939	0.100	0.110
-443.836	-120.344	0.152	-0.026
-442.822	-11.309	-0.177	0.116
-441.807	-4.966	0.109	-0.075
-440.792	63.082	0.081	0.081
-439.778	-52.862	0.506	0.233
-438.763	-129.836	0.164	-0.022
-437.749	-104.793	0.067	0.015
-436.734	800.000	0.045	0.133
-435.719	800.000	-0.070	0.234
-434.705	800.000	0.034	-0.114
-433.690	311.984	0.117	-0.220
-432.676	-83.055	0.121	-0.039
-431.661	-127.286	-0.153	-0.022
-430.646	-200.000	0.012	-0.068
-429.632	-116.968	0.243	0.044
-428.617	-200.000	-0.055	-0.306
-427.603	32.913	0.130	0.113
-426.588	800.000	-0.033	-0.142
-425.573	-200.000	0.008	-0.198
-424.559	170.615	-0.050	-0.071
-423.544	211.512	-0.146	0.229
-422.530	321.049	0.075	-0.142
-421.515	536.608	0.176	0.418
-420.500	78.756	0.097	-0.104
-419.486	5.108	0.135	0.099
-418.471	563.028	0.187	0.451
-417.457	-17.727	-0.086	0.054
-416.442	-200.000	0.013	-0.123
-415.428	247.775	0.086	0.146
-414.413	800.000	-0.036	-0.128
-413.398	-200.000	-0.009	-0.038
-412.384	-200.000	0.030	0.236
-411.369	-30.110	-0.163	0.093
-410.355	-200.000	0.027	0.301
-409.340	-87.320	0.105	-0.032
-408.325	15.106	-0.153	-0.119
-407.311	324.398	-0.102	0.194
-406.296	55.034	-0.204	0.196
-405.282	95.355	-0.109	0.124
-404.267	-200.000	0.012	0.291
-403.252	-33.625	-0.366	0.202
-402.238	-176.602	-0.171	-0.004
-401.223	-136.081	0.224	0.026
-400.209	-2.703	0.288	-0.201
-399.194	182.177	-0.225	-0.330
-398.179	-200.000	-0.023	-0.201
-397.165	-108.176	0.203	0.044
-396.150	24.324	0.053	0.044
-395.136	800.000	0.130	0.386
-394.121	536.453	0.080	0.188
-393.106	461.930	-0.117	-0.261
-392.092	-83.530	-0.173	0.055
-391.077	19.531	0.047	-0.038
-390.063	-121.039	0.113	-0.019
-389.048	33.101	-0.167	-0.144
-388.033	-69.823	-0.071	0.027
-387.019	-9.229	0.048	0.032
-386.004	-6.358	0.214	0.145
-384.990	-86.906	0.368	0.112
-383.975	-200.000	-0.022	-0.154
-382.960	-200.000	0.044	-0.198
-381.946	-200.000	0.019	0.158
-380.931	-80.338	-0.259	0.086
-379.917	-200.000	-0.057	0.256
-378.902	37.588	0.147	-0.130
-377.888	-36.007	-0.088	0.047
-376.873	-81.164	0.374	-0.123
-375.858	-17.316	-0.268	0.168
-374.844	800.000	0.077	-0.279
-373.829	-11.666	-0.339	0.222
-372.815	-42.379	-0.257	-0.131
-371.800	-200.000	-0.006	0.032
-370.785	308.517	0.038	0.072
-369.771	472.226	-0.160	0.360
-368.756	-111.851	-0.236	0.047
-367.742	800.000	0.104	-0.337
-366.727	-68.684	-0.256	-0.099
-365.712	78.683	0.117	0.124
-364.698	-50.090	0.194	0.092
-363.683	-85.771	-0.218	0.067
-362.669	-86.557	-0.393	-0.120
-361.654	-36.137	-0.264	0.142
-360.639	-13.151	0.183	0.119
-359.625	-81.590	-0.160	0.052
-358.610	-200.000	-0.015	0.246
-357.596	-112.882	-0.216	-0.043
-356.581	286.121	-0.151	-0.271
-355.566	3.857	-0.134	-0.097
-354.552	336.858	0.073	0.141
-353.537	-200.000	0.005	0.345
-352.523	561.280	-0.034	-0.083
-351.508	-98.348	0.190	0.049
-350.493	-200.000	-0.032	0.247
-349.479	282.025	0.095	0.169
-348.464	-200.000	0.024	-0.168
-347.450	140.581	-0.099	-0.130
-346.435	70.238	0.180	0.185
-345.420	-110.024	-0.210	0.044
-344.406	-200.000	0.040	-0.200
-343.391	-62.704	0.308	-0.127
-342.377	264.825	-0.290	0.502
-341.362	232.027	-0.129	-0.210
-340.348	350.740	0.233	0.459
-339.333	-200.000	-0.017	-0.301
-338.318	267.941	0.085	0.149
-337.304	-108.643	-0.154	-0.033
-336.289	-97.421	0.488	0.126
-335.275	800.000	0.071	0.305
-334.260	-107.929	-0.088	-0.019
-333.245	-200.000	-0.068	0.398
-332.231	136.381	0.238	-0.309
-331.216	-43.627	0.038	0.019
-330.202	-11.386	0.356	0.233
-329.187	83.320	-0.139	-0.151
-328.172	79.009	-0.031	-0.033
-327.158	800.000	-0.086	-0.256
-326.143	96.901	0.077	-0.088
-325.129	115.194	-0.169	-0.205
-324.114	-12.527	0.101	-0.066
-323.099	-200.000	0.014	0.231
-322.085	800.000	0.015	-0.064
-321.070	47.402	-0.108	0.100
-320.056	-66.225	0.194	-0.077
-319.041	17.873	-0.449	-0.356
-318.026	-200.000	-0.024	0.249
-317.012	80.658	-0.117	0.125
-315.997	239.136	0.089	0.147
-314.983	-200.000	0.004	-0.164
-313.968	516.511	-0.060	0.139
-312.953	124.159	0.060	-0.075
-311.939	30.970	-0.213	0.181
-310.924	800.000	0.017	-0.069
-309.910	68.001	-0.248	0.253
-308.895	-49.551	0.527	-0.250
-307.880	-39.006	0.142	0.074
-306.866	-200.000	-0.016	-0.087
-305.851	-200.000	0.065	0.346
-304.837	-148.624	-0.045	-0.004
-303.822	52.543	0.173	0.165
-302.807	28.078	0.060	0.050
-301.793	324.336	-0.027	0.051
-300.778	159.013	0.174	-0.240
-299.764	98.126	-0.219	-0.250
-298.749	290.905	0.043	0.077
-297.735	-200.000	0.035	0.424
-296.720	282.821	-0.024	-0.042
-295.705	-62.378	0.263	0.109
-294.691	-83.133	-0.161	0.052
-293.676	-200.000	-0.052	0.365
-292.662	-170.761	0.206	-0.007
-291.647	39.912	-0.281	0.250
-290.632	800.000	0.046	-0.188
-289.618	-53.583	-0.242	-0.110
-288.603	49.609	0.242	0.227
-287.589	-33.603	-0.140	-0.077
-286.574	192.939	0.102	-0.153
-285.559	149.386	0.293	0.394
-284.545	-200.000	0.010	0.105
-283.530	113.234	0.179	0.216
-282.516	-25.828	-0.340	0.199
-281.501	94.768	-0.098	-0.111
-280.486	-55.306	0.335	0.149
-279.472	-32.430	0.161	0.089
-278.457	-69.222	-0.119	-0.045
-277.443	-115.444	0.197	-0.037
-276.428	-41.787	-0.395	-0.201
-275.413	-18.387	0.156	-0.097
-274.399	-84.310	0.188	0.059
-273.384	-105.155	0.098	0.022
-272.370	3.592	-0.187	0.135
-271.355	-200.000	-0.007	0.035
-270.340	107.699	0.044	0.052
-269.326	-16.061	0.241	-0.152
-268.311	-93.302	0.269	0.074
-267.297	-131.824	-0.309	-0.040
-266.282	5.173	0.223	0.163
-265.267	-86.609	0.233	0.071
-264.253	630.742	-0.132	0.332
-263.238	-128.486	0.176	-0.025
-262.224	23.039	0.142	-0.116
-261.209	198.913	-0.166	-0.252
-260.195	-112.109	-0.238	0.048
-259.180	-200.000	0.001	-0.048
-258.165	648.278	0.094	-0.239
-257.151	-143.932	0.305	-0.028
-256.136	-200.000	-0.030	0.191
-255.122	78.541	-0.115	0.122
-254.107	-200.000	0.002	-0.255
-253.092	272.092	0.016	0.027
-252.078	71.678	0.195	0.201
-251.063	-121.978	0.307	-0.050
-250.049	-144.328	-0.264	0.024
-249.034	322.734	0.134	-0.252
-248.019	-200.000	0.005	0.113
-247.005	-38.342	0.164	0.086
-245.990	-200.000	0.290	0.001
-244.976	-73.095	-0.404	-0.147
-243.961	-86.614	0.125	-0.038
-242.946	-200.000	0.316	-0.000
-241.932	500.497	-0.151	-0.346
-240.917	-101.253	-0.282	0.068
-239.903	-140.820	0.343	-0.035
-238.888	0.964	-0.119	-0.085
-237.873	514.724	0.016	-0.038
-236.859	141.914	-0.149	0.196
-235.844	-200.000	0.062	-0.288
-234.830	-82.631	-0.249	-0.080
-233.815	-59.827	-0.206	0.088
-232.800	-60.903	-0.378	-0.159
-231.786	-86.755	-0.275	-0.083
-230.771	204.320	0.079	0.121
-229.757	228.594	0.050	-0.081
-228.742	133.350	0.199	-0.255
-227.727	154.461	0.277	0.377
-226.713	-69.795	0.322	0.122
-225.698	79.848	-0.036	-0.038
-224.684	80.466	-0.300	-0.320
-223.669	-60.027	-0.065	0.027
-222.655	-102.740	-0.338	-0.080
-221.640	-124.990	-0.143	-0.022
-220.625	-66.178	-0.217	0.086
-219.611	3.301	0.302	0.218
-218.596	-108.083	-0.111	-0.024
-217.582	-145.141	0.156	-0.014
-216.567	-111.059	-0.378	0.077
-215.552	406.595	0.137	0.286
-214.538	-157.233	-0.091	-0.005
-213.523	800.000	-0.074	0.256
-212.509	21.661	0.193	-0.155
-211.494	-200.000	-0.032	-0.398
-210.479	13.103	0.287	0.220
-209.465	-200.000	0.030	-0.230
-208.450	-51.972	0.113	-0.052
-207.436	84.968	-0.016	0.018
-206.421	800.000	0.037	-0.138
-205.406	-67.319	-0.085	0.033
-204.392	19.666	0.162	-0.129
-203.377	-200.000	0.027	0.130
-202.363	744.497	-0.049	-0.132
-201.348	91.592	0.133	0.148
-200.333	67.337	-0.265	0.268
-199.319	227.135	0.252	-0.405
-198.304	-200.000	-0.010	0.080
-197.290	2.319	-0.176	0.126
-196.275	47.756	0.211	0.195
-195.260	-11.808	0.030	-0.019
-194.246	474.459	0.024	-0.054
-193.231	257.377	0.115	-0.196
-192.217	-82.648	0.029	0.009
-191.202	-200.000	-0.081	-0.355
-190.187	42.673	0.122	-0.110
-189.173	800.000	0.083	0.308
-188.158	544.196	0.121	-0.287
-187.144	-146.372	-0.153	0.013
-186.129	-95.486	0.143	0.038
-185.114	52.294	0.091	0.086
-184.100	177.704	0.178	-0.256
-183.085	-94.306	-0.107	0.029
-182.071	-97.022	-0.312	0.081
-181.056	50.286	-0.200	0.187
-180.042	443.579	0.074	0.160
-179.027	-36.193	0.397	-0.212
-178.012	-200.000	-0.008	-0.240
-176.998	-84.513	0.377	0.118
-175.983	334.175	0.056	-0.107
-174.969	-164.314	0.162	-0.007
-173.954	-23.116	-0.219	-0.130
-172.939	65.074	0.227	-0.227
-171.925	-200.000	-0.005	-0.166
-170.910	152.846	-0.216	-0.292
-169.896	-157.762	0.096	-0.006
-168.881	800.000	0.025	-0.083
-167.866	-44.991	-0.125	0.062
-166.852	-196.438	-0.121	0.001
-165.837	-161.568	0.274	-0.014
-164.823	-200.000	-0.050	0.276
-163.808	62.164	0.208	0.205
-162.793	61.324	-0.071	-0.070
-161.779	268.150	0.154	-0.267
-160.764	-200.000	-0.064	-0.404
-159.750	-72.098	-0.066	0.024
-158.735	147.198	0.223	-0.297
-157.720	-139.672	0.251	-0.026
-156.706	-112.454	-0.226	0.045
-155.691	203.703	0.045	-0.069
-154.677	-200.000	-0.010	0.154
-153.662	55.717	0.253	0.242
-152.647	-36.833	0.201	-0.107
-151.633	159.434	0.099	0.136
-150.618	800.000	0.064	0.220
-149.604	-25.803	-0.185	0.107
-148.589	18.324	0.457	-0.360
-147.574	800.000	-0.069	0.272
-146.560	-200.000	-0.022	0.197
-145.545	-161.825	0.071	0.004
-144.531	140.069	0.164	-0.213
-143.516	3.936	0.322	-0.233
-142.502	208.180	-0.089	-0.137
-141.487	345.345	-0.155	-0.300
-140.472	230.865	0.079	0.127
-139.458	29.341	0.094	-0.079
-138.443	-38.768	0.146	0.076
-137.429	58.063	-0.227	-0.220
-136.414	-156.344	-0.090	0.006
-135.399	10.173	-0.191	-0.143
-134.385	-186.996	0.158	-0.002
-133.370	-200.000	0.056	-0.359
-132.356	31.131	-0.097	-0.082
-131.341	-65.363	-0.286	-0.114
-130.326	423.101	0.285	0.605
-129.312	-111.089	0.283	-0.057
-128.297	-200.000	0.035	0.173
-127.283	-200.000	-0.002	0.212
-126.268	-169.882	-0.052	0.002
-125.253	-200.000	0.307	0.000
-124.239	89.251	0.077	-0.084
-123.224	19.613	-0.192	0.152
-122.210	-188.010	0.367	-0.005
-121.195	-70.735	-0.240	-0.089
