DTS Sentinel unit serial number:	SN413079Multiplexer serial number:	ORYXHardware model number:	OX4-SRSoftware version number:	ORYX F/W v4.00 Oryx Data Collector v3.7.2.0data status	okinstallation	princeton_trtdifferential loss correction	single-endedforward channel	channel 4reverse channel	N/Adate	2019/09/12time	16:51:11forward acquisition time	60.00reverse acquisition time	0.00gamma	496.2192k internal	0.2306k external	0.2306temperature offset calibration	1.0121default loss term (dB/km)	0.3790temperature slope calibration	1.0000multiplexer offset coefficient	1.0000multiplexer slope coefficient	1.0000fibre end	0.00T internal ref (°C)	36.19T ext. ref 1 (°C)	2.74T ext. ref 2 (°C)	29.47length (m)	temperature (°C)	Stokes	anti-Stokes-747.200	-77.989	-0.157	0.055
-746.185	9.783	-0.393	0.303
-745.171	-200.000	0.002	-0.019
-744.156	-200.000	-0.004	0.413
-743.142	-200.000	-0.017	0.188
-742.127	122.286	-0.134	0.170
-741.112	-139.143	-0.083	-0.009
-740.098	-27.580	-0.101	-0.060
-739.083	-89.234	-0.350	-0.105
-738.069	-200.000	-0.032	0.445
-737.054	-150.283	-0.338	-0.027
-736.039	-123.293	-0.232	0.038
-735.025	4.244	0.196	-0.146
-734.010	-200.000	-0.017	-0.326
-732.996	-138.397	-0.159	-0.018
-731.981	106.689	0.070	-0.085
-730.966	-60.032	0.119	0.052
-729.952	-116.430	-0.365	-0.069
-728.937	-200.000	-0.014	0.081
-727.923	137.955	0.099	-0.133
-726.908	214.683	-0.044	0.071
-725.894	-90.090	-0.131	0.039
-724.879	-200.000	0.173	0.000
-723.864	800.000	-0.130	0.381
-722.850	-8.875	0.106	0.072
-721.835	-62.112	0.109	0.046
-720.821	-13.271	0.071	-0.047
-719.806	-96.605	-0.167	-0.045
-718.791	-89.912	-0.223	0.066
-717.777	-105.311	-0.205	-0.048
-716.762	370.473	0.079	0.163
-715.748	19.241	0.299	0.244
-714.733	-143.786	-0.374	-0.036
-713.718	-67.246	-0.231	-0.092
-712.704	-178.011	0.161	-0.004
-711.689	53.994	-0.195	-0.191
-710.675	518.917	-0.105	-0.250
-709.660	-89.308	-0.092	0.028
-708.645	570.224	-0.064	-0.158
-707.631	-200.000	-0.022	-0.112
-706.616	-73.848	0.268	0.099
-705.602	800.000	0.047	0.184
-704.587	-171.540	-0.047	0.002
-703.572	75.800	0.123	-0.132
-702.558	364.917	-0.076	0.156
-701.543	800.000	0.036	0.159
-700.529	-37.340	0.321	0.174
-699.514	-186.566	0.251	-0.004
-698.499	-34.535	0.056	-0.031
-697.485	-73.144	0.164	-0.061
-696.470	-200.000	0.012	-0.154
-695.456	-98.565	-0.257	-0.067
-694.441	40.293	-0.119	-0.109
-693.426	50.112	-0.044	0.042
-692.412	-31.980	-0.449	0.255
-691.397	-200.000	-0.013	-0.208
-690.383	223.912	-0.165	-0.271
-689.368	-200.000	-0.004	0.404
-688.354	-145.101	0.230	-0.021
-687.339	-137.849	0.095	0.011
-686.324	-17.925	0.209	0.133
-685.310	-2.167	0.102	0.073
-684.295	-20.124	0.311	-0.194
-683.281	4.765	0.191	-0.142
-682.266	800.000	0.064	0.224
-681.251	-68.116	-0.149	-0.059
-680.237	297.606	-0.048	-0.090
-679.222	105.955	0.074	-0.089
-678.208	-66.306	-0.054	-0.022
-677.193	-118.844	-0.158	0.028
-676.178	260.688	-0.196	-0.345
-675.164	800.000	0.124	0.354
-674.149	-200.000	0.026	-0.168
-673.135	-200.000	-0.006	-0.276
-672.120	29.404	0.149	-0.128
-671.105	-200.000	-0.035	-0.160
-670.091	223.555	-0.164	0.269
-669.076	-200.000	-0.021	-0.168
-668.062	-8.331	-0.051	-0.035
-667.047	-148.801	-0.277	0.023
-666.032	-112.112	-0.221	0.045
-665.018	800.000	0.022	0.079
-664.003	260.727	-0.078	0.138
-662.989	-154.908	-0.092	0.006
-661.974	-200.000	-0.011	-0.134
-660.959	800.000	-0.091	0.379
-659.945	-131.087	-0.252	0.034
-658.930	223.276	-0.195	-0.319
-657.916	-17.331	0.188	0.120
-656.901	195.742	0.092	0.142
-655.886	149.174	0.187	-0.256
-654.872	35.522	0.105	-0.093
-653.857	130.325	0.115	-0.149
-652.843	-164.265	-0.052	-0.002
-651.828	-69.123	-0.305	-0.119
-650.814	11.894	-0.080	0.062
-649.799	-85.082	0.134	0.043
-648.784	37.581	0.129	0.116
-647.770	68.351	0.094	0.097
-646.755	-1.271	-0.184	-0.132
-645.741	31.403	-0.148	-0.129
-644.726	-200.000	-0.007	-0.256
-643.711	-119.467	-0.255	-0.045
-642.697	200.321	0.177	-0.276
-641.682	800.000	0.043	-0.147
-640.668	45.925	-0.117	0.110
-639.653	-125.790	0.148	-0.023
-638.638	52.355	-0.238	-0.230
-637.624	25.053	0.064	-0.054
-636.609	78.615	0.102	0.111
-635.595	383.093	0.065	0.136
-634.580	85.857	0.235	-0.262
-633.565	-16.477	-0.134	0.086
-632.551	-200.000	-0.006	-0.031
-631.536	88.610	0.023	0.026
-630.522	-128.716	-0.140	-0.020
-629.507	800.000	-0.009	0.033
-628.492	7.563	-0.075	-0.057
-627.478	-42.363	-0.153	-0.079
-626.463	178.542	-0.163	-0.241
-625.449	-105.680	-0.117	-0.027
-624.434	-16.031	-0.215	-0.139
-623.419	81.019	0.154	-0.169
-622.405	-171.785	-0.159	0.005
-621.390	800.000	0.089	0.326
-620.376	-102.353	0.260	-0.063
-619.361	-200.000	0.012	-0.426
-618.346	-160.127	-0.287	0.016
-617.332	-135.467	0.143	-0.017
-616.317	-79.266	-0.215	0.074
-615.303	800.000	-0.017	-0.052
-614.288	-34.969	0.175	0.097
-613.273	-70.012	0.115	-0.044
-612.259	-191.267	-0.136	0.001
-611.244	87.394	-0.138	-0.154
-610.230	-200.000	0.041	-0.187
-609.215	-138.402	-0.173	-0.019
-608.201	5.125	0.097	-0.072
-607.186	-100.235	-0.133	-0.034
-606.171	126.609	0.090	0.116
-605.157	-25.308	-0.245	0.147
-604.142	-54.921	-0.051	0.023
-603.128	-88.625	-0.263	0.079
-602.113	-113.137	-0.197	0.039
-601.098	800.000	-0.002	-0.006
-600.084	634.981	0.018	-0.045
-599.069	386.742	-0.057	-0.120
-598.055	-137.061	-0.180	-0.021
-597.040	-72.292	-0.291	0.109
-596.025	-19.661	0.198	-0.124
-595.011	-200.000	0.013	-0.398
-593.996	-200.000	-0.030	-0.385
-592.982	-10.140	0.205	-0.138
-591.967	-186.669	-0.244	0.003
-590.952	-45.838	0.538	-0.268
-589.938	-200.000	-0.043	-0.481
-588.923	800.000	0.055	-0.218
-587.909	-200.000	0.006	-0.112
-586.894	33.553	0.167	0.147
-585.879	-75.839	-0.047	0.017
-584.865	-124.733	0.107	0.017
-583.850	38.993	-0.208	0.188
-582.836	-73.154	-0.187	0.069
-581.821	-87.474	-0.424	0.130
-580.806	149.603	0.062	-0.085
-579.792	74.424	0.209	0.222
-578.777	49.335	0.122	0.116
-577.763	462.981	-0.140	-0.316
-576.748	-122.022	-0.719	0.119
-575.733	-117.896	0.094	-0.017
-574.719	-200.000	0.001	-0.157
-573.704	216.531	0.103	-0.165
-572.690	169.126	0.188	0.270
-571.675	136.217	-0.122	0.161
-570.661	35.367	0.163	0.144
-569.646	25.848	-0.152	-0.128
-568.631	-200.000	-0.002	0.019
-567.617	109.018	-0.017	0.020
-566.602	347.069	-0.052	0.104
-565.588	800.000	-0.030	-0.131
-564.573	-200.000	0.003	-0.281
-563.558	23.000	0.185	-0.153
-562.544	-124.820	-0.066	0.010
-561.529	85.477	0.141	-0.156
-560.515	-73.764	0.208	-0.076
-559.500	236.232	0.197	-0.329
-558.485	2.082	-0.121	-0.089
-557.471	462.993	-0.106	0.238
-556.456	-95.906	-0.195	0.052
-555.442	-101.966	0.416	-0.101
-554.427	-15.666	0.021	0.013
-553.412	-85.444	0.195	-0.061
-552.398	-191.920	-0.146	0.001
-551.383	-122.954	-0.228	0.037
-550.369	-200.000	-0.038	0.203
-549.354	-200.000	0.016	-0.186
-548.339	-117.096	-0.294	0.054
-547.325	-24.239	0.280	0.169
-546.310	-56.021	0.115	-0.052
-545.296	-129.398	-0.088	0.012
-544.281	160.698	0.074	0.104
-543.266	-200.000	-0.010	0.117
-542.252	-50.143	-0.118	-0.057
-541.237	152.075	0.125	0.172
-540.223	-171.539	0.162	0.005
-539.208	161.423	-0.125	0.176
-538.193	642.239	0.127	0.326
-537.179	-18.078	-0.050	0.032
-536.164	540.632	-0.039	-0.094
-535.150	-106.895	-0.231	-0.052
-534.135	-185.536	0.235	-0.004
-533.121	-68.768	0.093	0.036
-532.106	-90.005	-0.114	0.033
-531.091	-95.653	-0.245	0.066
-530.077	570.235	-0.133	-0.327
-529.062	196.655	0.084	0.129
-528.048	-108.946	-0.162	-0.035
-527.033	250.152	-0.077	0.132
-526.018	311.234	0.075	0.141
-525.004	602.850	0.075	0.189
-523.989	-133.954	-0.386	0.048
-522.975	-143.079	-0.387	0.038
-521.960	-95.678	-0.067	0.018
-520.945	-22.519	-0.116	0.071
-519.931	-117.756	0.259	0.047
-518.916	-67.916	-0.222	-0.087
-517.902	-147.326	0.238	0.020
-516.887	800.000	0.027	-0.076
-515.872	128.414	0.121	0.155
-514.858	725.467	-0.078	-0.210
-513.843	45.080	0.203	-0.188
-512.829	-200.000	0.001	0.202
-511.814	-10.601	-0.103	0.068
-510.799	528.904	0.053	-0.126
-509.785	9.168	0.147	0.112
-508.770	-91.965	0.172	0.049
-507.756	73.565	0.176	0.186
-506.741	-152.321	0.115	0.008
-505.726	-145.462	-0.420	0.038
-504.712	202.348	-0.143	-0.223
-503.697	-41.245	0.140	-0.073
-502.683	-32.428	-0.312	-0.175
-501.668	479.639	-0.103	-0.234
-500.653	-5.175	0.227	0.158
-499.639	-200.000	0.006	0.375
-498.624	53.034	-0.064	0.062
-497.610	505.633	-0.112	-0.261
-496.595	406.274	-0.094	0.201
-495.581	6.612	0.032	-0.024
-494.566	-79.439	0.189	0.064
-493.551	800.000	-0.057	-0.180
-492.537	586.161	0.109	0.270
-491.522	-200.000	0.034	-0.221
-490.508	800.000	-0.081	-0.311
-489.493	-96.892	0.371	-0.098
-488.478	-12.088	-0.207	-0.136
-487.464	176.617	-0.187	0.274
-486.449	-155.842	-0.156	-0.010
-485.435	-70.603	-0.158	0.060
-484.420	136.816	-0.227	0.298
-483.405	-200.000	-0.105	0.682
-482.391	800.000	0.060	0.200
-481.376	-200.000	0.040	-0.280
-480.362	-62.300	-0.186	0.078
-479.347	70.289	-0.037	0.038
-478.332	308.238	0.162	0.305
-477.318	-200.000	0.009	0.058
-476.303	-114.106	0.250	0.049
-475.289	55.180	0.122	-0.119
-474.274	-152.046	-0.130	-0.010
-473.259	800.000	0.077	-0.323
-472.245	-200.000	0.026	0.123
-471.230	-93.421	-0.364	0.101
-470.216	513.793	0.108	0.254
-469.201	5.379	0.177	0.131
-468.186	460.629	-0.109	0.245
-467.172	58.589	0.201	-0.199
-466.157	-9.521	0.238	-0.160
-465.143	-54.911	-0.373	-0.169
-464.128	-200.000	0.056	-0.289
-463.113	-126.163	0.139	-0.021
-462.099	163.758	0.177	0.250
-461.084	-200.000	-0.059	0.300
-460.070	331.737	-0.053	-0.103
-459.055	-30.772	0.426	0.242
-458.040	388.868	0.034	0.070
-457.026	95.212	0.044	-0.050
-456.011	38.935	0.047	-0.042
-454.997	-157.585	0.094	-0.006
-453.982	-99.682	-0.262	0.066
-452.968	-145.693	-0.150	0.013
-451.953	-200.000	0.021	0.183
-450.938	-26.408	-0.188	0.111
-449.924	484.639	-0.032	0.073
-448.909	124.512	0.100	0.126
-447.895	-32.607	0.245	-0.137
-446.880	-200.000	0.010	0.086
-445.865	395.918	-0.066	0.138
-444.851	-73.828	-0.045	-0.016
-443.836	-99.125	-0.247	-0.063
-442.822	-43.905	0.220	-0.111
-441.807	450.523	-0.140	0.310
-440.792	123.352	-0.135	0.171
-439.778	253.943	0.044	0.076
-438.763	172.845	-0.197	0.285
-437.749	109.090	0.054	-0.065
-436.734	800.000	0.024	-0.092
-435.719	800.000	-0.091	-0.295
-434.705	-94.313	-0.415	0.114
-433.690	2.813	0.128	-0.093
-432.676	-95.507	-0.219	0.059
-431.661	754.230	-0.174	0.474
-430.646	-102.907	0.122	-0.029
-429.632	550.708	0.132	-0.319
-428.617	800.000	-0.088	-0.263
-427.603	800.000	-0.040	-0.125
-426.588	-16.492	-0.162	0.103
-425.573	800.000	-0.033	-0.117
-424.559	-5.296	-0.192	0.132
-423.544	-59.204	-0.140	-0.061
-422.530	800.000	-0.056	-0.186
-421.515	-7.409	0.080	0.054
-420.500	-119.293	-0.224	0.039
-419.486	222.667	0.052	-0.084
-418.471	-200.000	-0.022	-0.112
-417.457	154.683	-0.164	0.226
-416.442	-124.627	0.062	0.010
-415.428	31.080	0.221	0.191
-414.413	207.025	-0.148	-0.231
-413.398	-8.956	-0.105	0.071
-412.384	480.262	0.046	0.105
-411.369	-55.506	-0.108	0.049
-410.355	299.617	-0.219	0.405
-409.340	-45.338	0.053	0.027
-408.325	238.848	-0.132	0.220
-407.311	-108.679	0.093	0.020
-406.296	-27.155	0.427	0.250
-405.282	800.000	-0.086	-0.277
-404.267	-65.063	0.264	0.107
-403.252	178.781	-0.105	0.154
-402.238	800.000	-0.067	-0.276
-401.223	8.960	0.104	0.079
-400.209	-200.000	-0.017	-0.152
-399.194	-65.118	-0.317	0.128
-398.179	-69.392	-0.092	0.035
-397.165	55.813	0.302	0.294
-396.150	-200.000	0.052	0.246
-395.136	-89.382	-0.249	-0.073
-394.121	-200.000	-0.009	0.358
-393.106	800.000	-0.049	0.191
-392.092	45.134	-0.260	-0.240
-391.077	-200.000	-0.021	0.160
-390.063	340.214	0.049	0.096
-389.048	800.000	-0.019	0.057
-388.033	483.685	-0.115	0.261
-387.019	25.288	-0.070	-0.058
-386.004	308.273	0.020	-0.038
-384.990	646.064	0.069	0.176
-383.975	-145.824	-0.213	-0.019
-382.960	-144.590	0.236	-0.022
-381.946	178.971	0.171	0.250
-380.931	83.704	-0.125	-0.137
-379.917	-200.000	-0.001	0.353
-378.902	-200.000	0.006	0.067
-377.888	-112.316	-0.248	0.050
-376.873	800.000	-0.094	0.399
-375.858	-1.462	0.232	0.164
-374.844	-200.000	-0.013	0.145
-373.829	-144.746	0.435	0.040
-372.815	-48.934	-0.159	0.076
-371.800	-162.495	-0.223	0.011
-370.785	800.000	-0.075	-0.238
-369.771	101.098	0.280	0.327
-368.756	147.287	-0.104	-0.140
-367.742	223.521	0.185	-0.299
-366.727	44.021	0.067	0.062
-365.712	-45.728	0.031	0.016
-364.698	617.634	-0.148	-0.372
-363.683	-160.100	0.322	-0.018
-362.669	-123.217	-0.190	0.030
-361.654	-27.922	-0.258	-0.150
-360.639	-19.394	0.174	-0.108
-359.625	800.000	-0.098	-0.360
-358.610	-200.000	-0.067	-0.390
-357.596	-200.000	0.011	-0.213
-356.581	-104.983	-0.184	0.042
-355.566	-55.828	-0.316	-0.141
-354.552	329.830	0.031	0.060
-353.537	800.000	-0.045	-0.188
-352.523	-20.818	0.316	0.194
-351.508	-145.564	0.200	-0.018
-350.493	-92.343	-0.426	-0.120
-349.479	-3.378	-0.140	0.097
-348.464	-200.000	-0.009	0.134
-347.450	-19.842	0.031	-0.019
-346.435	-32.907	0.101	-0.056
-345.420	-82.353	0.035	-0.011
-344.406	-10.157	-0.103	0.068
-343.391	-136.549	0.237	-0.027
-342.377	800.000	0.022	0.068
-341.362	29.241	-0.186	0.159
-340.348	-171.834	-0.319	0.010
-339.333	-57.547	-0.347	-0.152
-338.318	759.720	-0.063	0.170
-337.304	116.946	0.086	-0.106
-336.289	94.809	0.144	0.164
-335.275	398.060	-0.081	-0.169
-334.260	-46.186	0.302	0.149
-333.245	29.984	0.100	-0.086
-332.231	-42.299	0.274	-0.140
-331.216	145.470	-0.118	-0.158
-330.202	-129.745	0.176	0.024
-329.187	-70.583	-0.254	0.096
-328.172	-200.000	-0.024	-0.156
-327.158	62.870	-0.082	0.082
-326.143	800.000	0.039	0.145
-325.129	-106.803	-0.151	0.034
-324.114	-86.796	0.176	0.054
-323.099	-75.185	0.170	-0.061
-322.085	-200.000	-0.016	0.143
-321.070	-200.000	-0.016	-0.170
-320.056	49.032	0.147	-0.139
-319.041	139.862	-0.023	0.031
-318.026	-200.000	-0.039	0.242
-317.012	-96.254	0.131	-0.035
-315.997	26.839	-0.166	-0.139
-314.983	35.653	0.236	0.207
-313.968	114.378	-0.047	0.057
-312.953	115.748	-0.208	0.254
-311.939	36.888	-0.142	-0.125
-310.924	39.510	0.296	0.265
-309.910	-4.985	0.140	0.096
-308.895	-86.231	0.264	0.081
-307.880	-10.329	0.198	0.131
-306.866	-93.237	-0.088	-0.025
-305.851	800.000	0.136	-0.414
-304.837	-200.000	-0.019	-0.088
-303.822	-94.574	-0.182	-0.050
-302.807	-86.515	-0.358	0.110
-301.793	247.696	0.060	-0.101
-300.778	142.001	0.082	-0.109
-299.764	800.000	0.078	0.338
-298.749	-117.633	-0.347	-0.063
-297.735	800.000	-0.120	-0.483
-296.720	-146.871	0.197	0.017
-295.705	243.855	0.059	-0.100
-294.691	192.060	-0.081	-0.122
-293.676	-98.292	-0.149	-0.038
-292.662	-200.000	0.006	0.141
-291.647	205.615	0.166	0.258
-290.632	-75.774	0.291	0.103
-289.618	450.309	-0.106	0.233
-288.603	423.973	-0.068	0.146
-287.589	466.401	0.034	-0.075
-286.574	354.469	0.165	-0.327
-285.559	83.948	-0.094	-0.102
-284.545	800.000	-0.029	-0.106
-283.530	800.000	0.051	0.210
-282.516	71.069	0.042	-0.043
-281.501	216.786	-0.075	-0.120
-280.486	426.540	-0.124	-0.267
-279.472	100.975	0.244	0.284
-278.457	435.692	0.037	0.080
-277.443	-131.066	0.085	-0.011
-276.428	-16.549	-0.197	0.125
-275.413	220.315	-0.130	-0.208
-274.399	-128.978	0.025	-0.003
-273.384	9.599	-0.177	0.134
-272.370	41.560	-0.130	0.118
-271.355	-51.658	0.137	-0.064
-270.340	76.464	-0.124	0.131
-269.326	-200.000	0.004	0.301
-268.311	-34.520	0.079	0.043
-267.297	-130.930	-0.406	-0.054
-266.282	-200.000	0.019	0.216
-265.267	-200.000	-0.025	-0.199
-264.253	-156.439	-0.148	-0.009
-263.238	294.480	0.157	0.287
-262.224	462.687	0.084	0.188
-261.209	-200.000	0.001	-0.010
-260.195	146.094	-0.074	0.099
-259.180	-54.882	0.449	-0.202
-258.165	-93.421	-0.113	0.031
-257.151	800.000	0.034	-0.097
-256.136	-200.000	0.021	-0.116
-255.122	-81.852	0.112	0.037
-254.107	800.000	0.078	-0.217
-253.092	-16.740	0.347	-0.219
-252.078	-106.721	0.110	-0.025
-251.063	24.002	0.255	-0.210
-250.049	215.398	0.176	-0.279
-249.034	284.761	0.061	-0.110
-248.019	-117.257	-0.322	0.058
-247.005	645.226	-0.006	0.017
-245.990	-200.000	0.005	-0.387
-244.976	-112.001	0.304	-0.061
-243.961	800.000	0.083	-0.345
-242.946	800.000	-0.033	-0.124
-241.932	-124.936	0.197	-0.030
-240.917	-166.332	-0.362	-0.015
-239.903	573.259	0.216	-0.526
-238.888	603.479	0.102	-0.254
-237.873	84.441	0.064	0.070
-236.859	-40.657	0.172	-0.089
-235.844	-200.000	0.010	-0.103
-234.830	800.000	0.093	-0.365
-233.815	-200.000	-0.050	-0.217
-232.800	-28.833	-0.014	-0.008
-231.786	-92.287	0.082	0.023
-230.771	0.886	-0.038	-0.027
-229.757	-77.238	0.185	-0.064
-228.742	-18.444	0.361	-0.225
-227.727	-34.672	0.288	-0.157
-226.713	-184.512	0.582	0.009
-225.698	-30.451	-0.096	-0.054
-224.684	-200.000	-0.014	-0.171
-223.669	-162.215	0.072	-0.004
-222.655	21.834	-0.231	0.188
-221.640	-200.000	-0.015	0.118
-220.625	65.609	-0.058	0.058
-219.611	-69.471	0.204	-0.078
-218.596	131.337	-0.080	-0.102
-217.582	-28.800	-0.085	0.049
-216.567	-200.000	0.011	-0.194
-215.552	194.746	-0.147	-0.223
-214.538	-20.774	0.136	0.083
-213.523	-25.685	0.155	0.091
-212.509	322.545	0.122	-0.232
-211.494	600.335	-0.141	0.349
-210.479	-59.502	0.190	-0.081
-209.465	800.000	-0.034	0.117
-208.450	-200.000	0.011	0.058
-207.436	-39.840	0.280	0.146
-206.421	800.000	-0.054	0.196
-205.406	-200.000	0.004	-0.132
-204.392	-200.000	0.055	-0.275
-203.377	-1.694	0.047	0.033
-202.363	-133.276	0.268	0.034
-201.348	-56.636	0.059	0.026
-200.333	-77.701	-0.253	-0.087
-199.319	422.884	-0.044	-0.095
-198.304	-200.000	-0.007	0.060
-197.290	-14.465	-0.136	-0.087
-196.275	-23.601	-0.336	-0.200
-195.260	64.232	0.201	0.201
-194.246	247.221	-0.275	0.462
-193.231	-152.989	0.062	-0.004
-192.217	88.008	0.084	0.093
-191.202	800.000	0.009	-0.031
-190.187	484.803	0.113	-0.257
-189.173	-28.807	0.236	-0.135
-188.158	800.000	-0.073	0.201
-187.144	-95.177	0.210	0.056
-186.129	-175.157	0.239	0.007
-185.114	-200.000	-0.103	-0.574
-184.100	563.492	-0.109	0.263
-183.085	-200.000	-0.027	0.275
-182.071	18.601	0.300	0.239
-181.056	-135.265	-0.128	-0.015
-180.042	-89.044	0.136	0.040
-179.027	-2.792	-0.215	0.150
-178.012	-160.285	-0.128	0.007
-176.998	30.666	0.219	-0.186
-175.983	115.614	-0.159	0.194
-174.969	344.672	0.059	0.116
-173.954	800.000	0.102	-0.286
-172.939	198.084	0.234	0.356
-171.925	-46.196	0.339	-0.166
-170.910	81.045	-0.143	-0.154
-169.896	-138.400	-0.071	0.008
-168.881	-200.000	0.039	0.203
-167.866	800.000	0.070	0.248
-166.852	-8.558	-0.111	-0.074
-165.837	-81.624	-0.114	0.037
-164.823	152.546	-0.084	0.115
-163.808	466.455	-0.122	0.272
-162.793	-81.688	0.385	0.126
-161.779	800.000	-0.084	0.303
-160.764	270.598	0.062	-0.109
-159.750	-109.473	0.292	-0.061
-158.735	800.000	0.053	0.154
-157.720	-88.044	0.066	0.020
-156.706	40.474	0.208	-0.187
-155.691	-169.478	-0.063	0.002
-154.677	-57.462	-0.018	0.008
-153.662	-6.445	-0.075	0.051
-152.647	19.263	0.044	-0.035
-151.633	-141.409	0.246	-0.025
-150.618	70.406	0.190	0.196
-149.604	1.726	0.186	0.133
-148.589	800.000	-0.010	0.040
-147.574	40.111	0.268	-0.240
-146.560	94.461	-0.081	-0.091
-145.545	27.748	0.219	0.183
-144.531	-5.068	0.341	-0.233
-143.516	-200.000	0.031	0.351
-142.502	198.391	-0.213	-0.323
-141.487	228.684	-0.070	0.114
-140.472	300.264	0.256	-0.470
-139.458	301.518	0.076	0.139
-138.443	226.263	-0.090	0.145
-137.429	-5.301	-0.181	0.123
-136.414	-152.478	-0.192	-0.014
-135.399	584.086	0.093	0.228
-134.385	800.000	0.090	0.281
-133.370	-68.522	-0.132	-0.051
-132.356	361.177	-0.094	0.188
-131.341	517.601	0.128	0.297
-130.326	-104.889	-0.582	0.133
-129.312	38.703	0.162	0.143
-128.297	800.000	-0.089	-0.293
-127.283	236.495	0.019	-0.031
-126.268	-87.438	0.172	-0.052
-125.253	-36.793	-0.347	0.185
-124.239	122.612	0.149	-0.185
-123.224	83.033	-0.234	0.252
-122.210	800.000	0.063	0.210
-121.195	-200.000	-0.001	0.009
