DTS Sentinel unit serial number:	SN413079Multiplexer serial number:	ORYXHardware model number:	OX4-SRSoftware version number:	ORYX F/W v4.00 Oryx Data Collector v3.7.2.0data status	okinstallation	princeton_trtdifferential loss correction	single-endedforward channel	channel 4reverse channel	N/Adate	2019/09/12time	13:51:11forward acquisition time	60.00reverse acquisition time	0.00gamma	496.2192k internal	0.2289k external	0.2289temperature offset calibration	1.0079default loss term (dB/km)	0.3790temperature slope calibration	1.0000multiplexer offset coefficient	1.0000multiplexer slope coefficient	1.0000fibre end	0.00T internal ref (°C)	40.87T ext. ref 1 (°C)	2.19T ext. ref 2 (°C)	34.86length (m)	temperature (°C)	Stokes	anti-Stokes-747.200	-200.000	0.003	0.292
-746.185	-200.000	0.090	0.409
-745.171	790.199	0.091	0.257
-744.156	-69.737	0.198	0.078
-743.142	800.000	0.084	0.324
-742.127	-200.000	0.011	0.241
-741.112	-200.000	0.036	-0.194
-740.098	-15.627	0.142	-0.093
-739.083	219.878	-0.045	-0.074
-738.069	244.361	0.129	0.223
-737.054	-200.000	-0.060	0.299
-736.039	-140.513	0.201	-0.021
-735.025	-88.896	0.333	0.101
-734.010	-200.000	0.024	-0.260
-732.996	104.542	0.227	-0.274
-731.981	119.429	-0.168	-0.213
-730.966	185.122	0.093	0.142
-729.952	-41.190	-0.232	-0.123
-728.937	-99.639	-0.115	0.030
-727.923	800.000	0.053	0.171
-726.908	-46.089	-0.123	0.062
-725.894	-85.018	-0.087	0.028
-724.879	102.238	0.025	0.030
-723.864	120.600	-0.050	0.063
-722.850	-176.616	0.334	0.009
-721.835	122.369	-0.044	-0.056
-720.821	800.000	0.092	0.403
-719.806	-200.000	0.054	0.325
-718.791	-200.000	0.016	-0.167
-717.777	-200.000	-0.064	-0.309
-716.762	120.400	-0.090	0.114
-715.748	145.452	0.248	-0.340
-714.733	307.017	-0.160	-0.305
-713.718	-200.000	0.005	0.065
-712.704	666.608	0.100	-0.264
-711.689	-200.000	-0.035	-0.387
-710.675	-44.541	-0.130	-0.067
-709.660	-148.580	0.310	-0.026
-708.645	-95.739	0.323	0.088
-707.631	679.275	0.014	-0.038
-706.616	173.971	0.218	0.322
-705.602	-9.711	0.112	-0.076
-704.587	-129.235	-0.231	0.033
-703.572	-200.000	0.026	-0.408
-702.558	-200.000	0.003	-0.146
-701.543	124.360	-0.033	-0.043
-700.529	800.000	-0.018	-0.079
-699.514	-99.370	0.137	0.035
-698.499	126.393	-0.051	-0.066
-697.485	1.419	-0.216	-0.159
-696.470	502.790	-0.133	-0.314
-695.456	-97.127	0.077	0.021
-694.441	381.685	0.035	0.073
-693.426	-200.000	0.016	-0.178
-692.412	-200.000	0.030	0.264
-691.397	16.234	0.117	0.095
-690.383	-19.946	0.325	0.205
-689.368	-32.146	-0.246	-0.141
-688.354	41.982	0.262	0.243
-687.339	-144.561	0.195	0.018
-686.324	216.495	0.081	-0.131
-685.310	33.571	-0.018	-0.016
-684.295	-200.000	0.003	0.078
-683.281	-68.928	-0.086	-0.034
-682.266	-200.000	0.004	0.100
-681.251	-200.000	-0.001	-0.172
-680.237	-88.034	0.024	0.007
-679.222	159.851	-0.086	0.122
-678.208	265.031	-0.167	0.297
-677.193	186.129	-0.124	-0.189
-676.178	371.483	0.063	0.130
-675.164	-200.000	0.011	0.153
-674.149	-74.855	0.116	0.042
-673.135	27.535	0.171	-0.147
-672.120	-198.149	-0.154	0.001
-671.105	-79.768	-0.235	0.081
-670.091	85.004	0.285	0.320
-669.076	396.517	0.080	-0.170
-668.062	-106.344	-0.109	0.025
-667.047	-99.894	0.083	-0.021
-666.032	-120.799	-0.153	0.026
-665.018	-24.573	-0.160	0.097
-664.003	-200.000	-0.044	-0.290
-662.989	-116.743	-0.246	-0.046
-661.974	-200.000	-0.005	0.174
-660.959	-200.000	-0.035	-0.418
-659.945	800.000	0.031	0.091
-658.930	6.086	-0.301	0.228
-657.916	407.270	-0.115	-0.249
-656.901	800.000	0.031	0.110
-655.886	301.718	-0.088	0.166
-654.872	-68.527	0.480	-0.190
-653.857	118.930	0.135	-0.171
-652.843	99.347	-0.128	-0.151
-651.828	44.857	-0.176	-0.165
-650.814	-140.979	0.077	0.008
-649.799	165.250	-0.097	-0.140
-648.784	-200.000	-0.017	-0.249
-647.770	-66.018	0.124	-0.051
-646.755	-122.577	-0.312	-0.052
-645.741	-200.000	-0.043	-0.342
-644.726	-200.000	-0.005	0.081
-643.711	-200.000	-0.039	0.217
-642.697	-107.646	-0.199	0.044
-641.682	-183.883	-0.187	-0.003
-640.668	-200.000	0.017	-0.088
-639.653	83.030	-0.114	-0.127
-638.638	212.784	-0.092	-0.148
-637.624	208.406	0.018	0.029
-636.609	84.580	-0.172	-0.192
-635.595	-200.000	0.048	0.300
-634.580	31.706	-0.267	0.235
-633.565	254.382	-0.043	-0.075
-632.551	-84.868	0.306	0.098
-631.536	-200.000	0.019	0.170
-630.522	94.452	-0.075	-0.087
-629.507	-59.476	0.034	0.015
-628.492	104.148	-0.268	-0.322
-627.478	800.000	-0.028	-0.098
-626.463	-47.941	-0.280	-0.138
-625.449	-50.008	0.127	-0.061
-624.434	-90.050	-0.089	0.026
-623.419	381.301	0.051	0.107
-622.405	-155.298	-0.347	0.023
-621.390	450.287	-0.024	-0.054
-620.376	-200.000	-0.075	-0.355
-619.361	-115.546	0.070	0.013
-618.346	-84.940	0.212	0.068
-617.332	800.000	-0.026	-0.106
-616.317	-200.000	0.004	-0.084
-615.303	107.662	0.055	0.066
-614.288	800.000	-0.094	0.280
-613.273	-14.587	-0.014	-0.009
-612.259	46.880	-0.221	0.209
-611.244	108.742	-0.224	0.272
-610.230	-38.282	-0.285	-0.154
-609.215	-48.974	-0.129	-0.063
-608.201	-138.890	0.070	-0.008
-607.186	-45.453	0.086	-0.044
-606.171	-111.752	0.302	-0.062
-605.157	-116.991	-0.221	0.041
-604.142	429.264	-0.038	0.083
-603.128	52.339	0.187	-0.182
-602.113	119.569	-0.161	0.204
-601.098	149.432	-0.168	0.232
-600.084	22.004	-0.148	-0.123
-599.069	306.017	0.218	-0.413
-598.055	372.567	-0.132	-0.272
-597.040	-73.740	-0.401	-0.149
-596.025	800.000	0.042	-0.149
-595.011	-200.000	0.027	0.310
-593.996	-66.638	-0.093	-0.038
-592.982	-200.000	0.014	-0.112
-591.967	177.052	-0.097	-0.144
-590.952	-53.456	0.199	0.093
-589.938	-200.000	0.008	0.128
-588.923	-145.716	0.075	0.007
-587.909	-200.000	-0.075	-0.534
-586.894	-200.000	-0.027	-0.187
-585.879	800.000	0.079	0.244
-584.865	-200.000	0.027	0.125
-583.850	106.349	-0.110	-0.133
-582.836	132.800	-0.221	-0.290
-581.821	275.526	0.010	-0.018
-580.806	-1.661	-0.189	0.135
-579.792	73.264	-0.031	-0.033
-578.777	-91.204	0.242	0.070
-577.763	-167.708	-0.660	-0.027
-576.748	-147.225	-0.242	-0.021
-575.733	-88.906	-0.183	-0.055
-574.719	-84.748	-0.429	-0.137
-573.704	-12.615	0.033	-0.022
-572.690	-200.000	0.048	-0.260
-571.675	1.098	0.272	-0.199
-570.661	-200.000	-0.030	-0.191
-569.646	800.000	-0.116	0.437
-568.631	-149.193	-0.284	-0.023
-567.617	800.000	0.034	0.111
-566.602	352.817	0.060	0.120
-565.588	439.943	-0.073	0.162
-564.573	105.410	0.098	0.118
-563.558	20.663	-0.119	-0.098
-562.544	536.658	0.077	-0.187
-561.529	800.000	0.070	-0.287
-560.515	268.283	0.201	-0.358
-559.500	800.000	-0.036	-0.115
-558.485	90.255	-0.042	-0.048
-557.471	-17.527	0.119	0.076
-556.456	800.000	-0.049	-0.215
-555.442	-156.633	0.312	-0.020
-554.427	-200.000	0.020	0.348
-553.412	800.000	-0.181	0.617
-552.398	240.799	0.158	-0.268
-551.383	30.712	0.135	-0.118
-550.369	-107.567	0.204	0.045
-549.354	-14.281	-0.202	0.133
-548.339	-184.467	0.100	0.002
-547.325	-100.814	0.221	-0.055
-546.310	-99.503	0.478	0.122
-545.296	112.774	-0.253	-0.312
-544.281	65.306	0.127	-0.130
-543.266	182.091	0.080	0.119
-542.252	800.000	0.047	-0.171
-541.237	-184.418	-0.057	0.001
-540.223	-26.147	0.228	0.136
-539.208	800.000	0.107	-0.395
-538.193	12.898	0.151	-0.119
-537.179	-88.380	0.300	-0.091
-536.164	-200.000	0.006	0.066
-535.150	34.958	-0.032	0.028
-534.135	-62.301	-0.080	-0.034
-533.121	-24.588	-0.178	-0.108
-532.106	788.381	0.014	0.039
-531.091	29.892	0.065	-0.056
-530.077	550.706	-0.108	-0.263
-529.062	-2.004	0.121	0.086
-528.048	-200.000	-0.021	-0.413
-527.033	-154.065	-0.319	0.022
-526.018	800.000	-0.160	-0.452
-525.004	32.018	0.193	-0.169
-523.989	95.927	-0.102	-0.119
-522.975	-143.952	-0.139	-0.013
-521.960	78.054	-0.222	0.240
-520.945	-127.072	-0.332	0.049
-519.931	-89.685	-0.207	-0.062
-518.916	-87.121	-0.147	-0.045
-517.902	-44.286	-0.214	0.109
-516.887	800.000	-0.003	0.009
-515.872	-35.001	-0.156	-0.086
-514.858	14.533	-0.115	0.091
-513.843	-200.000	0.034	0.153
-512.829	641.035	-0.019	-0.049
-511.814	-200.000	-0.014	0.107
-510.799	-91.441	-0.404	-0.117
-509.785	-200.000	-0.002	-0.138
-508.770	263.406	0.205	0.361
-507.756	-17.995	0.247	0.157
-506.741	-200.000	-0.009	0.123
-505.726	-200.000	0.007	-0.043
-504.712	204.186	-0.074	-0.117
-503.697	-146.757	-0.117	0.010
-502.683	575.917	-0.102	0.253
-501.668	-27.329	-0.242	0.143
-500.653	153.110	0.179	0.248
-499.639	800.000	0.097	0.395
-498.624	-51.956	-0.021	0.010
-497.610	-200.000	0.004	0.050
-496.595	-47.240	0.248	-0.123
-495.581	176.725	0.026	-0.038
-494.566	-3.588	0.311	0.220
-493.551	-200.000	-0.002	0.245
-492.537	-67.418	0.144	0.057
-491.522	-98.195	0.115	0.030
-490.508	178.346	-0.188	-0.279
-489.493	16.853	-0.148	0.119
-488.478	-46.834	0.021	-0.010
-487.464	375.610	0.121	0.250
-486.449	518.776	0.071	-0.168
-485.435	-87.516	-0.263	-0.081
-484.420	-200.000	-0.036	-0.188
-483.405	406.615	-0.104	0.222
-482.391	-200.000	0.150	0.001
-481.376	777.162	-0.018	-0.049
-480.362	-34.452	0.154	-0.085
-479.347	5.445	0.086	-0.064
-478.332	-200.000	0.009	-0.193
-477.318	-26.739	0.111	0.066
-476.303	15.741	-0.203	0.162
-475.289	265.569	0.093	0.165
-474.274	-185.916	0.233	-0.003
-473.259	-200.000	0.004	0.038
-472.245	-200.000	-0.027	-0.280
-471.230	33.731	-0.109	0.096
-470.216	-65.436	-0.243	-0.099
-469.201	-123.239	-0.081	0.013
-468.186	392.941	0.025	-0.052
-467.172	-41.808	-0.143	-0.074
-466.157	-84.493	-0.062	0.020
-465.143	113.058	-0.008	-0.010
-464.128	92.333	0.138	0.158
-463.113	111.341	0.169	-0.206
-462.099	129.243	0.088	0.114
-461.084	800.000	0.100	-0.301
-460.070	379.130	0.139	0.288
-459.055	-100.095	-0.076	0.019
-458.040	181.397	0.101	-0.150
-457.026	-49.515	-0.162	0.078
-456.011	86.776	0.054	-0.061
-454.997	800.000	-0.090	0.302
-453.982	416.332	0.034	-0.074
-452.968	8.014	0.032	0.025
-451.953	800.000	0.051	0.170
-450.938	268.403	-0.157	-0.280
-449.924	142.042	0.122	-0.164
-448.909	-104.703	0.246	0.057
-447.895	-200.000	0.014	0.160
-446.880	-200.000	-0.037	-0.170
-445.865	-200.000	-0.017	0.123
-444.851	-88.783	-0.307	-0.092
-443.836	-191.200	0.094	-0.001
-442.822	-200.000	0.018	-0.188
-441.807	-200.000	-0.011	0.053
-440.792	76.504	0.056	0.060
-439.778	96.449	0.178	-0.207
-438.763	-112.030	-0.231	0.047
-437.749	-2.428	0.120	0.085
-436.734	623.873	-0.083	0.213
-435.719	-200.000	0.052	0.299
-434.705	800.000	-0.079	0.238
-433.690	130.010	-0.123	0.160
-432.676	77.789	0.079	0.085
-431.661	46.949	-0.153	0.144
-430.646	206.716	0.125	0.197
-429.632	-98.494	0.291	-0.075
-428.617	-200.000	-0.016	0.341
-427.603	800.000	0.082	0.279
-426.588	744.121	-0.041	0.111
-425.573	800.000	0.077	0.224
-424.559	-200.000	-0.004	-0.078
-423.544	-53.905	0.370	-0.171
-422.530	-28.580	0.107	0.062
-421.515	-74.146	-0.126	0.046
-420.500	-115.768	0.077	-0.015
-419.486	-58.073	0.278	0.123
-418.471	-56.903	0.109	-0.049
-417.457	627.959	0.104	0.266
-416.442	-200.000	-0.002	0.067
-415.428	-84.182	0.004	0.001
-414.413	143.052	0.052	-0.070
-413.398	-157.455	-0.367	-0.022
-412.384	-200.000	-0.011	-0.263
-411.369	43.830	-0.148	0.137
-410.355	-30.656	-0.280	0.160
-409.340	-121.582	0.092	-0.016
-408.325	139.311	0.147	0.196
-407.311	6.831	-0.170	0.128
-406.296	-200.000	-0.037	0.181
-405.282	355.887	0.087	-0.175
-404.267	287.974	0.111	-0.203
-403.252	-55.406	-0.067	0.031
-402.238	71.135	0.182	0.191
-401.223	1.231	-0.135	0.098
-400.209	-19.719	0.162	0.101
-399.194	22.696	-0.169	-0.140
-398.179	103.841	-0.096	0.114
-397.165	-60.451	0.307	-0.132
-396.150	76.323	0.159	-0.171
-395.136	-200.000	-0.021	0.344
-394.121	-26.448	0.400	0.237
-393.106	35.983	-0.152	-0.136
-392.092	-113.484	-0.384	0.076
-391.077	509.020	-0.090	0.211
-390.063	131.950	0.150	0.195
-389.048	-87.914	0.184	0.056
-388.033	-200.000	0.008	0.051
-387.019	-86.532	-0.280	0.087
-386.004	53.783	0.211	-0.205
-384.990	-72.217	0.117	0.044
-383.975	-95.450	0.331	0.090
-382.960	770.562	-0.200	0.550
-381.946	63.415	-0.055	-0.055
-380.931	71.246	0.093	-0.098
-379.917	-128.335	-0.056	-0.008
-378.902	221.914	-0.201	0.327
-377.888	-166.304	0.168	0.007
-376.873	800.000	-0.027	-0.092
-375.858	800.000	-0.072	-0.238
-374.844	21.772	0.049	0.041
-373.829	-21.295	0.157	0.097
-372.815	180.579	-0.116	0.172
-371.800	-57.086	0.070	0.031
-370.785	235.429	-0.086	0.143
-369.771	299.091	-0.126	0.234
-368.756	307.539	0.094	-0.177
-367.742	-75.723	0.132	0.047
-366.727	-147.967	-0.071	0.006
-365.712	85.569	0.204	0.226
-364.698	800.000	0.083	-0.300
-363.683	-200.000	-0.027	0.200
-362.669	-193.560	0.332	0.003
-361.654	-200.000	-0.031	0.243
-360.639	-147.103	0.073	0.006
-359.625	6.540	-0.125	0.094
-358.610	11.208	-0.191	-0.148
-357.596	-200.000	-0.053	0.327
-356.581	-200.000	0.134	-0.624
-355.566	11.128	-0.224	-0.173
-354.552	-126.508	0.324	0.049
-353.537	150.338	-0.062	0.085
-352.523	-54.470	-0.078	0.036
-351.508	800.000	0.080	0.243
-350.493	496.286	0.123	0.285
-349.479	-72.788	-0.165	-0.061
-348.464	-200.000	-0.020	-0.156
-347.450	-165.228	-0.171	0.008
-346.435	-81.570	0.152	0.050
-345.420	587.999	0.040	-0.100
-344.406	-125.100	0.054	0.008
-343.391	52.374	-0.102	0.098
-342.377	800.000	-0.033	-0.118
-341.362	-97.803	0.111	-0.029
-340.348	-83.132	0.302	0.098
-339.333	800.000	0.130	0.407
-338.318	326.472	-0.049	0.094
-337.304	-99.971	0.180	-0.045
-336.289	-24.354	0.443	0.266
-335.275	-55.386	-0.058	-0.026
-334.260	466.304	0.078	0.176
-333.245	383.184	0.126	-0.262
-332.231	-178.418	-0.236	0.006
-331.216	163.732	-0.159	-0.225
-330.202	325.410	-0.084	-0.161
-329.187	-39.113	0.181	0.096
-328.172	65.828	0.068	0.069
-327.158	-200.000	0.048	-0.261
-326.143	-47.759	0.040	-0.020
-325.129	-200.000	-0.027	-0.176
-324.114	-68.747	0.186	0.073
-323.099	-27.629	0.406	0.238
-322.085	31.296	0.214	0.185
-321.070	-200.000	-0.063	-0.341
-320.056	280.837	0.125	-0.226
-319.041	-145.502	0.112	0.010
-318.026	-32.258	0.111	0.063
-317.012	-8.518	0.143	-0.097
-315.997	-48.254	-0.108	0.053
-314.983	7.795	0.059	-0.045
-313.968	-200.000	0.030	-0.160
-312.953	24.043	0.107	0.089
-311.939	165.337	-0.104	0.149
-310.924	86.253	0.257	0.285
-309.910	-127.699	-0.203	0.030
-308.895	121.809	-0.045	-0.057
-307.880	218.127	0.020	-0.032
-306.866	-13.286	0.210	-0.138
-305.851	-200.000	-0.029	-0.176
-304.837	-10.272	0.097	-0.065
-303.822	800.000	0.018	-0.055
-302.807	-26.994	0.231	0.136
-301.793	172.631	-0.138	0.200
-300.778	101.331	-0.080	0.094
-299.764	-68.905	-0.031	0.012
-298.749	800.000	-0.116	0.422
-297.735	203.600	0.139	-0.217
-296.720	-108.397	-0.118	-0.026
-295.705	-200.000	-0.022	-0.215
-294.691	-40.781	0.182	0.095
-293.676	274.996	-0.097	-0.172
-292.662	157.136	-0.231	-0.322
-291.647	800.000	0.018	-0.062
-290.632	-57.850	0.256	0.113
-289.618	58.274	0.054	-0.053
-288.603	-75.006	-0.166	-0.060
-287.589	137.839	-0.122	0.161
-286.574	-200.000	0.012	0.115
-285.559	-126.601	0.200	-0.030
-284.545	-35.916	0.136	-0.074
-283.530	-200.000	0.026	0.130
-282.516	-99.871	-0.097	-0.024
-281.501	800.000	-0.035	-0.117
-280.486	389.750	-0.046	0.096
-279.472	34.198	-0.122	0.107
-278.457	1.186	-0.051	0.037
-277.443	701.644	0.029	0.078
-276.428	-87.713	0.264	0.080
-275.413	-137.503	0.303	0.034
-274.399	108.894	0.103	-0.123
-273.384	-102.783	-0.201	-0.048
-272.370	-37.409	-0.141	0.076
-271.355	-113.444	0.239	-0.047
-270.340	800.000	-0.124	-0.466
-269.326	-162.323	0.220	0.011
-268.311	-80.950	-0.224	-0.075
-267.297	-154.620	0.083	0.006
-266.282	1.808	-0.206	0.149
-265.267	-200.000	-0.011	0.097
-264.253	-166.917	-0.280	-0.012
-263.238	800.000	0.104	-0.326
-262.224	-200.000	-0.017	0.173
-261.209	-76.528	-0.187	0.066
-260.195	36.339	-0.274	-0.243
-259.180	70.498	-0.117	0.122
-258.165	-200.000	0.028	-0.200
-257.151	167.060	0.057	-0.081
-256.136	-200.000	-0.012	-0.449
-255.122	330.166	0.252	0.489
-254.107	128.900	0.114	0.147
-253.092	-48.869	0.229	-0.110
-252.078	800.000	-0.031	-0.128
-251.063	-84.954	0.358	-0.113
-250.049	-200.000	0.003	0.138
-249.034	4.443	0.208	0.153
-248.019	800.000	-0.076	0.255
-247.005	-200.000	-0.023	-0.121
-245.990	174.772	-0.228	-0.331
-244.976	800.000	0.084	-0.266
-243.961	166.886	-0.223	-0.319
-242.946	-200.000	-0.051	-0.528
-241.932	165.558	-0.073	0.104
-240.917	-16.370	0.248	0.158
-239.903	-85.385	0.225	0.070
-238.888	27.307	-0.273	-0.230
-237.873	56.559	0.183	-0.179
-236.859	-200.000	-0.191	0.001
-235.844	128.787	0.071	-0.091
-234.830	358.850	-0.070	0.141
-233.815	-200.000	-0.003	0.062
-232.800	-105.493	-0.317	0.072
-231.786	-21.819	-0.144	0.088
-230.771	81.619	0.200	-0.218
-229.757	29.914	-0.129	0.111
-228.742	167.948	-0.062	0.089
-227.727	-91.111	-0.258	-0.074
-226.713	34.405	0.227	-0.199
-225.698	-200.000	0.035	-0.294
-224.684	-99.211	0.320	0.081
-223.669	-77.002	0.172	0.060
-222.655	-200.000	-0.013	0.170
-221.640	-71.814	0.176	0.066
-220.625	-200.000	0.018	0.192
-219.611	-114.884	-0.239	-0.046
-218.596	5.259	-0.379	-0.281
-217.582	101.707	-0.033	-0.039
-216.567	54.306	-0.221	0.213
-215.552	182.751	-0.099	0.147
-214.538	800.000	0.021	-0.070
-213.523	-80.507	-0.268	-0.090
-212.509	-119.975	-0.133	0.023
-211.494	-103.351	0.065	0.015
-210.479	-52.242	-0.073	0.034
-209.465	54.435	-0.193	-0.187
-208.450	800.000	-0.071	-0.211
-207.436	16.203	0.244	0.193
-206.421	-200.000	-0.025	0.154
-205.406	49.808	0.134	-0.126
-204.392	-144.873	-0.051	0.005
-203.377	110.135	0.145	-0.175
-202.363	-27.588	-0.110	0.064
-201.348	-166.510	0.174	0.007
-200.333	-77.593	-0.205	0.071
-199.319	-145.138	0.186	0.017
-198.304	-66.552	0.164	0.065
-197.290	22.997	0.099	0.081
-196.275	-63.220	-0.064	0.027
-195.260	-51.259	0.208	-0.098
-194.246	-180.017	0.156	0.003
-193.231	-120.471	0.193	-0.033
-192.217	113.257	-0.219	-0.267
-191.202	72.272	0.095	0.100
-190.187	313.827	0.225	-0.424
-189.173	33.839	0.124	-0.109
-188.158	-131.525	-0.076	0.010
-187.144	-0.220	0.123	0.088
-186.129	-41.609	-0.389	0.200
-185.114	-36.186	0.262	-0.142
-184.100	-62.560	0.223	0.093
-183.085	-200.000	0.030	0.163
-182.071	227.009	-0.091	0.148
-181.056	-200.000	0.001	-0.353
-180.042	56.474	0.349	-0.340
-179.027	800.000	-0.025	0.076
-178.012	147.541	-0.192	0.259
-176.998	315.819	-0.104	-0.196
-175.983	477.795	0.031	0.071
-174.969	56.512	-0.033	0.032
-173.954	-200.000	-0.029	0.208
-172.939	427.600	-0.046	0.100
-171.925	-115.293	-0.343	-0.065
-170.910	-83.754	-0.263	-0.084
-169.896	-200.000	0.062	-0.394
-168.881	-68.027	-0.076	-0.030
-167.866	-200.000	-0.056	0.316
-166.852	-41.849	0.103	-0.053
-165.837	-91.057	0.025	0.007
-164.823	-51.732	-0.012	0.006
-163.808	230.648	0.106	0.174
-162.793	-159.253	-0.218	-0.012
-161.779	-46.910	0.191	0.093
-160.764	45.736	-0.256	0.237
-159.750	642.988	0.163	0.416
-158.735	-115.094	0.070	0.013
-157.720	-127.933	0.236	-0.034
-156.706	-39.952	-0.309	-0.162
-155.691	-160.878	-0.074	0.004
-154.677	494.370	-0.095	0.219
-153.662	44.395	0.182	-0.168
-152.647	800.000	0.038	0.119
-151.633	-200.000	0.031	-0.312
-150.618	-2.301	-0.137	0.096
-149.604	800.000	0.082	-0.314
-148.589	37.165	0.183	-0.162
-147.574	182.674	0.080	-0.118
-146.560	67.045	0.108	0.111
-145.545	67.461	-0.199	-0.203
-144.531	-200.000	-0.005	-0.329
-143.516	-200.000	0.035	-0.372
-142.502	-141.884	0.376	-0.038
-141.487	194.936	-0.058	0.088
-140.472	45.088	0.295	0.272
-139.458	235.740	-0.159	-0.263
-138.443	-3.354	0.279	0.194
-137.429	-200.000	0.033	0.534
-136.414	800.000	0.024	-0.075
-135.399	-200.000	-0.046	-0.258
-134.385	800.000	-0.108	0.400
-133.370	-77.718	-0.169	-0.059
-132.356	-85.435	-0.309	0.096
-131.341	782.522	0.031	-0.085
-130.326	-200.000	-0.053	0.362
-129.312	-200.000	0.002	-0.314
-128.297	283.200	0.249	-0.448
-127.283	-19.555	0.478	0.296
-126.268	60.697	-0.062	0.062
-125.253	-77.121	-0.474	-0.165
-124.239	-5.200	0.164	-0.113
-123.224	-18.500	-0.247	0.154
-122.210	-110.929	-0.172	0.035
-121.195	800.000	-0.052	0.182
-120.180	173.054	-0.058	0.084
