DTS Sentinel unit serial number:	SN413079Multiplexer serial number:	ORYXHardware model number:	OX4-SRSoftware version number:	ORYX F/W v4.00 Oryx Data Collector v3.7.2.0data status	okinstallation	princeton_trtdifferential loss correction	single-endedforward channel	channel 4reverse channel	N/Adate	2019/09/13time	08:21:35forward acquisition time	60.00reverse acquisition time	0.00gamma	496.2192k internal	0.2317k external	0.2317temperature offset calibration	1.0202default loss term (dB/km)	0.3790temperature slope calibration	1.0000multiplexer offset coefficient	1.0000multiplexer slope coefficient	1.0000fibre end	0.00T internal ref (°C)	27.25T ext. ref 1 (°C)	4.27T ext. ref 2 (°C)	23.34length (m)	temperature (°C)	Stokes	anti-Stokes-747.200	-74.227	-0.022	0.008
-746.185	60.376	-0.221	0.221
-745.171	36.371	-0.277	-0.247
-744.156	149.708	0.150	-0.206
-743.142	32.229	0.135	0.118
-742.127	-55.052	-0.402	0.183
-741.112	236.929	-0.023	0.038
-740.098	-13.576	-0.325	0.213
-739.083	-68.590	0.170	0.067
-738.069	425.399	0.091	0.198
-737.054	-115.570	0.032	0.006
-736.039	-103.225	0.085	0.020
-735.025	351.093	0.228	0.456
-734.010	267.689	0.100	-0.178
-732.996	800.000	0.043	-0.182
-731.981	321.183	-0.045	-0.087
-730.966	-200.000	0.038	-0.323
-729.952	-73.032	0.084	-0.031
-728.937	-200.000	-0.042	-0.263
-727.923	-200.000	-0.020	0.118
-726.908	-4.783	-0.097	-0.068
-725.894	-106.026	-0.118	-0.027
-724.879	-200.000	0.027	0.245
-723.864	251.999	-0.152	-0.262
-722.850	186.781	-0.115	0.173
-721.835	29.926	-0.234	-0.202
-720.821	78.081	0.236	-0.254
-719.806	-149.088	0.150	-0.012
-718.791	71.722	0.179	-0.188
-717.777	359.276	-0.072	-0.146
-716.762	-7.559	0.284	0.195
-715.748	800.000	0.015	-0.045
-714.733	256.928	0.138	-0.239
-713.718	-123.452	-0.333	-0.054
-712.704	-200.000	0.001	-0.160
-711.689	-45.402	0.095	-0.048
-710.675	-45.566	0.188	0.094
-709.660	800.000	-0.094	-0.313
-708.645	800.000	-0.047	-0.150
-707.631	172.491	-0.274	-0.399
-706.616	-141.903	0.190	-0.019
-705.602	-200.000	-0.012	-0.151
-704.587	-200.000	-0.080	0.537
-703.572	325.795	-0.157	0.304
-702.558	-100.310	-0.291	-0.073
-701.543	800.000	-0.061	0.247
-700.529	-190.171	0.256	-0.003
-699.514	-200.000	0.002	0.064
-698.499	214.354	-0.136	0.217
-697.485	-119.060	-0.231	0.041
-696.470	271.347	0.045	-0.080
-695.456	53.414	-0.084	-0.081
-694.441	112.271	0.164	0.201
-693.426	-48.366	0.236	0.115
-692.412	38.065	0.183	0.165
-691.397	-200.000	-0.005	-0.062
-690.383	-185.606	-0.258	0.004
-689.368	75.224	-0.287	-0.305
-688.354	135.098	-0.262	-0.345
-687.339	186.688	-0.085	-0.128
-686.324	195.788	-0.165	0.253
-685.310	-200.000	-0.023	-0.195
-684.295	800.000	0.096	0.330
-683.281	-200.000	-0.046	-0.419
-682.266	-31.473	0.372	-0.211
-681.251	-85.555	-0.261	0.082
-680.237	800.000	0.144	-0.605
-679.222	-122.040	-0.358	0.059
-678.208	-109.195	0.089	0.019
-677.193	79.388	-0.169	-0.183
-676.178	-200.000	-0.000	-0.121
-675.164	-49.807	-0.232	-0.111
-674.149	-200.000	0.001	0.052
-673.135	-55.780	-0.393	-0.177
-672.120	67.335	-0.374	-0.385
-671.105	-200.000	0.026	-0.286
-670.091	-200.000	-0.031	0.230
-669.076	-200.000	0.004	0.082
-668.062	260.651	-0.042	0.074
-667.047	-150.248	0.330	0.026
-666.032	-200.000	0.034	-0.442
-665.018	800.000	-0.030	-0.089
-664.003	19.071	0.059	0.048
-662.989	74.538	0.118	-0.125
-661.974	-50.898	-0.261	-0.124
-660.959	-200.000	-0.040	0.509
-659.945	-37.596	-0.193	0.104
-658.930	-77.621	-0.277	-0.097
-657.916	-109.475	0.202	-0.043
-656.901	-200.000	0.031	0.174
-655.886	-13.247	0.030	-0.020
-654.872	-29.252	-0.240	0.138
-653.857	3.506	-0.096	0.071
-652.843	127.510	0.160	0.205
-651.828	-107.290	0.177	0.039
-650.814	471.124	0.018	-0.040
-649.799	-61.767	-0.192	0.081
-648.784	-200.000	-0.019	0.275
-647.770	157.150	-0.085	-0.119
-646.755	-200.000	-0.032	-0.158
-645.741	-200.000	-0.030	-0.406
-644.726	-200.000	0.009	0.170
-643.711	108.638	-0.083	-0.100
-642.697	76.531	-0.127	0.136
-641.682	800.000	0.051	-0.166
-640.668	-13.795	0.246	0.160
-639.653	17.260	-0.201	0.161
-638.638	800.000	0.048	-0.181
-637.624	800.000	-0.032	0.124
-636.609	-1.452	-0.339	0.241
-635.595	188.295	-0.173	0.261
-634.580	166.733	0.041	-0.059
-633.565	-158.275	0.145	0.009
-632.551	-112.722	0.021	-0.004
-631.536	-84.955	0.097	0.031
-630.522	12.235	-0.049	0.038
-629.507	185.526	-0.222	-0.332
-628.492	800.000	0.062	-0.258
-627.478	-100.636	0.096	-0.024
-626.463	-35.735	0.154	-0.084
-625.449	800.000	-0.040	0.116
-624.434	143.602	0.120	0.161
-623.419	800.000	-0.080	-0.266
-622.405	264.590	-0.116	-0.204
-621.390	728.504	0.087	-0.234
-620.376	-103.749	-0.100	0.024
-619.361	-200.000	-0.019	-0.445
-618.346	-200.000	-0.034	-0.255
-617.332	-49.870	0.168	0.081
-616.317	235.945	-0.028	0.047
-615.303	18.447	0.135	0.109
-614.288	44.391	-0.118	0.109
-613.273	-31.565	-0.306	-0.173
-612.259	9.092	-0.126	0.096
-611.244	-43.556	0.126	-0.064
-610.230	347.552	-0.069	0.138
-609.215	800.000	0.007	0.028
-608.201	50.196	0.102	0.097
-607.186	425.331	-0.213	0.463
-606.171	26.323	0.033	-0.028
-605.157	-200.000	0.029	0.305
-604.142	433.847	-0.054	-0.118
-603.128	47.491	-0.182	-0.171
-602.113	37.666	-0.223	0.200
-601.098	726.304	-0.102	-0.274
-600.084	-146.619	0.351	-0.031
-599.069	170.560	0.165	-0.238
-598.055	25.982	0.108	-0.091
-597.040	-161.266	-0.169	0.009
-596.025	625.121	-0.044	-0.112
-595.011	19.026	0.203	-0.164
-593.996	800.000	-0.099	0.403
-592.982	-124.352	0.144	0.023
-591.967	298.185	-0.080	-0.149
-590.952	-200.000	-0.022	0.100
-589.938	-200.000	-0.005	-0.227
-588.923	-88.212	0.193	-0.058
-587.909	-71.587	0.376	0.142
-586.894	-91.203	-0.270	-0.078
-585.879	148.818	-0.161	-0.219
-584.865	-103.948	-0.070	0.017
-583.850	262.983	0.081	0.141
-582.836	-200.000	0.014	-0.095
-581.821	192.678	-0.156	0.237
-580.806	800.000	0.034	0.130
-579.792	210.578	-0.114	0.181
-578.777	305.909	0.173	-0.324
-577.763	87.062	-0.189	-0.210
-576.748	682.188	0.028	0.074
-575.733	16.591	-0.320	0.254
-574.719	-131.250	0.027	-0.004
-573.704	-60.711	-0.150	-0.064
-572.690	32.746	-0.183	0.159
-571.675	14.397	-0.104	0.082
-570.661	-23.945	0.094	-0.057
-569.646	-200.000	-0.036	0.220
-568.631	-200.000	-0.018	0.311
-567.617	800.000	0.061	0.268
-566.602	-114.995	0.092	0.018
-565.588	39.805	-0.200	-0.180
-564.573	-87.316	-0.071	0.022
-563.558	-102.721	0.181	0.043
-562.544	-82.358	0.182	0.060
-561.529	-200.000	-0.068	-0.409
-560.515	619.126	-0.133	-0.337
-559.500	515.861	0.085	-0.199
-558.485	-22.938	0.175	0.106
-557.471	-200.000	0.020	-0.202
-556.456	800.000	0.037	0.137
-555.442	-200.000	0.012	-0.055
-554.427	635.025	0.119	-0.303
-553.412	-200.000	-0.022	-0.134
-552.398	-30.857	0.116	0.066
-551.383	671.812	0.100	-0.262
-550.369	265.250	0.053	-0.093
-549.354	42.840	-0.170	-0.155
-548.339	75.313	0.275	0.291
-547.325	181.348	0.092	-0.136
-546.310	-29.695	-0.177	-0.101
-545.296	-200.000	0.077	-0.653
-544.281	115.121	0.198	0.243
-543.266	-97.824	-0.210	-0.054
-542.252	-200.000	-0.001	0.169
-541.237	191.080	0.157	-0.238
-540.223	611.397	-0.077	0.193
-539.208	800.000	0.009	-0.037
-538.193	-28.983	0.376	0.217
-537.179	21.235	0.046	-0.038
-536.164	-92.037	-0.382	-0.108
-535.150	356.588	0.054	-0.108
-534.135	343.100	-0.146	-0.286
-533.121	-112.531	0.204	-0.041
-532.106	114.512	-0.144	-0.176
-531.091	-80.619	0.542	0.181
-530.077	87.978	0.259	0.288
-529.062	-200.000	-0.013	-0.214
-528.048	248.530	-0.195	-0.331
-527.033	53.156	-0.060	-0.057
-526.018	120.153	0.105	0.131
-525.004	-97.420	0.206	-0.054
-523.989	-200.000	-0.044	-0.320
-522.975	-200.000	0.014	-0.083
-521.960	-200.000	0.004	-0.233
-520.945	-147.974	0.087	-0.007
-519.931	-200.000	0.004	0.130
-518.916	320.191	0.181	-0.346
-517.902	381.092	0.071	0.146
-516.887	538.842	-0.149	0.357
-515.872	-7.882	-0.155	-0.105
-514.858	768.221	0.153	0.417
-513.843	39.134	-0.249	0.223
-512.829	795.926	0.065	-0.180
-511.814	-125.995	0.372	0.056
-510.799	706.868	-0.057	0.150
-509.785	145.388	0.099	-0.133
-508.770	-200.000	-0.015	0.074
-507.756	-33.952	0.206	0.114
-506.741	4.010	0.119	0.087
-505.726	91.411	0.091	0.103
-504.712	69.198	-0.007	-0.007
-503.697	800.000	-0.125	-0.361
-502.683	289.813	0.043	0.078
-501.668	-132.154	-0.232	-0.030
-500.653	-200.000	-0.046	-0.400
-499.639	3.952	-0.261	-0.191
-498.624	800.000	-0.105	-0.339
-497.610	-123.189	-0.217	-0.035
-496.595	800.000	0.062	-0.268
-495.581	77.335	0.067	-0.071
-494.566	800.000	0.084	0.235
-493.551	224.243	-0.274	-0.445
-492.537	151.690	0.103	0.140
-491.522	34.116	-0.270	0.236
-490.508	20.158	0.219	-0.177
-489.493	176.934	-0.091	0.133
-488.478	800.000	-0.089	-0.248
-487.464	800.000	-0.067	-0.272
-486.449	-115.343	-0.428	-0.081
-485.435	-92.445	0.445	-0.125
-484.420	95.169	0.116	0.132
-483.405	-45.806	-0.169	0.084
-482.391	-145.158	0.078	0.007
-481.376	-200.000	0.040	0.323
-480.362	-11.414	-0.341	0.225
-479.347	-117.476	0.275	0.050
-478.332	15.430	-0.098	0.077
-477.318	764.936	0.097	-0.263
-476.303	-200.000	0.025	0.142
-475.289	19.149	-0.292	0.234
-474.274	-19.457	0.133	-0.083
-473.259	800.000	-0.044	-0.187
-472.245	-84.653	0.359	0.113
-471.230	-200.000	-0.022	0.131
-470.216	-200.000	0.000	0.037
-469.201	-101.988	0.036	0.009
-468.186	-153.352	0.363	0.025
-467.172	-2.439	0.089	0.063
-466.157	-116.562	-0.046	0.009
-465.143	-75.600	-0.327	-0.116
-464.128	11.706	-0.207	-0.159
-463.113	705.121	0.052	0.137
-462.099	4.708	0.053	0.039
-461.084	-33.658	0.266	0.147
-460.070	-118.897	-0.252	0.044
-459.055	-13.614	0.116	-0.076
-458.040	-141.768	0.286	0.029
-457.026	-161.238	-0.169	-0.009
-456.011	436.778	-0.118	0.257
-454.997	-200.000	-0.006	0.169
-453.982	242.433	-0.051	-0.086
-452.968	-114.983	0.189	0.036
-451.953	-147.713	-0.097	0.008
-450.938	-65.508	-0.180	-0.072
-449.924	-200.000	-0.010	-0.126
-448.909	-200.000	-0.022	0.172
-447.895	-13.141	0.076	0.049
-446.880	-200.000	0.053	0.309
-445.865	249.919	-0.203	0.345
-444.851	800.000	0.060	0.192
-443.836	418.680	0.149	0.320
-442.822	800.000	0.090	0.267
-441.807	-29.606	0.371	0.212
-440.792	800.000	0.007	0.027
-439.778	-200.000	0.006	-0.279
-438.763	-150.456	-0.261	-0.020
-437.749	-66.717	0.282	0.112
-436.734	-87.174	-0.158	0.048
-435.719	120.164	0.095	-0.118
-434.705	189.917	-0.064	0.096
-433.690	-183.750	-0.225	0.004
-432.676	-8.299	-0.310	-0.209
-431.661	-24.399	0.122	0.073
-430.646	-200.000	-0.267	0.000
-429.632	800.000	-0.040	0.131
-428.617	-185.108	0.070	-0.001
-427.603	388.736	0.085	-0.176
-426.588	186.404	-0.106	-0.157
-425.573	-30.232	-0.237	0.135
-424.559	566.277	0.146	-0.355
-423.544	-174.250	-0.357	0.010
-422.530	215.954	-0.119	0.189
-421.515	-136.567	0.069	-0.008
-420.500	-162.495	-0.377	0.019
-419.486	-40.961	-0.018	0.009
-418.471	-200.000	0.003	-0.388
-417.457	-37.363	0.142	-0.076
-416.442	188.409	-0.079	-0.118
-415.428	-84.385	0.042	0.013
-414.413	-159.581	0.220	-0.012
-413.398	800.000	-0.017	0.063
-412.384	71.029	-0.128	-0.133
-411.369	57.141	0.154	-0.150
-410.355	46.484	0.328	-0.304
-409.340	772.737	0.050	0.137
-408.325	-83.649	-0.069	0.022
-407.311	-200.000	0.000	0.169
-406.296	-200.000	-0.038	0.181
-405.282	-81.922	0.190	-0.062
-404.267	-200.000	0.039	0.236
-403.252	-86.895	-0.357	0.109
-402.238	-177.973	-0.027	-0.001
-401.223	-145.403	-0.198	-0.018
-400.209	110.265	0.044	0.053
-399.194	-124.357	-0.135	-0.021
-398.179	-10.675	0.079	0.052
-397.165	7.686	0.295	-0.220
-396.150	-200.000	0.019	-0.226
-395.136	-200.000	0.040	0.211
-394.121	-13.607	-0.124	-0.080
-393.106	155.960	-0.019	0.027
-392.092	301.380	-0.061	-0.112
-391.077	-8.837	0.374	0.251
-390.063	680.874	0.078	-0.202
-389.048	304.152	-0.085	0.157
-388.033	-100.181	0.205	-0.051
-387.019	512.698	-0.059	0.138
-386.004	4.978	-0.254	0.187
-384.990	-200.000	-0.006	-0.252
-383.975	-76.193	0.306	-0.108
-382.960	-200.000	0.104	0.554
-381.946	-23.622	0.272	0.163
-380.931	225.848	-0.092	0.149
-379.917	-200.000	-0.023	-0.392
-378.902	-33.929	-0.118	-0.065
-377.888	-69.067	-0.150	0.058
-376.873	-22.647	-0.069	-0.042
-375.858	163.137	0.077	-0.108
-374.844	800.000	-0.048	-0.146
-373.829	505.788	0.119	0.275
-372.815	800.000	0.034	-0.116
-371.800	-79.363	0.195	-0.066
-370.785	-200.000	0.061	0.304
-369.771	-6.352	0.214	0.146
-368.756	-82.134	-0.476	0.155
-367.742	-70.878	-0.208	-0.078
-366.727	-200.000	0.054	-0.239
-365.712	7.771	0.071	-0.053
-364.698	-113.310	-0.444	0.087
-363.683	-140.074	-0.200	-0.021
-362.669	-112.913	-0.121	-0.024
-361.654	800.000	-0.040	0.158
-360.639	-86.223	-0.069	-0.021
-359.625	-51.053	0.175	-0.082
-358.610	447.784	-0.086	-0.189
-357.596	800.000	0.092	-0.305
-356.581	-135.358	0.420	-0.050
-355.566	-191.096	-0.192	-0.002
-354.552	52.678	0.101	-0.097
-353.537	-159.000	0.255	-0.014
-352.523	180.782	-0.083	-0.121
-351.508	39.047	0.157	0.140
-350.493	148.974	0.109	0.147
-349.479	38.663	-0.356	-0.317
-348.464	1.075	0.069	-0.049
-347.450	-50.545	-0.242	-0.114
-346.435	-200.000	0.045	-0.428
-345.420	-123.730	0.206	-0.033
-344.406	351.584	-0.035	-0.069
-343.391	-119.434	-0.065	-0.011
-342.377	-200.000	0.075	-0.488
-341.362	-105.253	-0.086	0.020
-340.348	34.662	0.106	0.093
-339.333	-9.745	-0.150	-0.099
-338.318	-110.085	-0.204	0.043
-337.304	-122.088	-0.130	0.021
-336.289	362.930	0.048	-0.096
-335.275	800.000	-0.104	0.333
-334.260	800.000	-0.034	0.120
-333.245	-200.000	0.005	0.040
-332.231	-51.591	0.289	0.134
-331.216	40.710	0.139	-0.125
-330.202	800.000	0.046	-0.162
-329.187	-200.000	0.063	-0.348
-328.172	800.000	0.039	-0.159
-327.158	-89.372	0.264	-0.077
-326.143	-200.000	0.014	-0.438
-325.129	-120.323	0.283	0.048
-324.114	800.000	0.037	0.114
-323.099	-52.024	0.238	-0.110
-322.085	-94.914	0.391	-0.105
-321.070	-113.905	0.228	0.044
-320.056	292.260	0.069	0.126
-319.041	-43.493	-0.423	-0.213
-318.026	-200.000	-0.019	0.120
-317.012	-49.863	-0.270	0.128
-315.997	-200.000	-0.008	0.243
-314.983	274.854	-0.131	0.231
-313.968	-200.000	-0.003	-0.245
-312.953	-200.000	0.043	0.249
-311.939	99.740	-0.140	0.161
-310.924	-200.000	0.013	-0.179
-309.910	-34.835	0.076	-0.041
-308.895	-83.752	-0.077	0.024
-307.880	76.499	-0.141	-0.149
-306.866	174.922	0.142	-0.204
-305.851	92.621	0.157	0.177
-304.837	-5.424	-0.220	-0.150
-303.822	-200.000	0.019	-0.218
-302.807	1.989	0.248	0.178
-301.793	-200.000	0.010	0.202
-300.778	-88.309	0.215	-0.064
-299.764	1.989	-0.188	-0.135
-298.749	-53.830	-0.332	-0.151
-297.735	-132.329	-0.278	0.036
-296.720	70.814	0.305	0.314
-295.705	-157.695	0.228	-0.014
-294.691	-200.000	0.031	0.473
-293.676	800.000	-0.076	0.217
-292.662	-102.051	-0.069	-0.017
-291.647	147.837	-0.081	-0.109
-290.632	304.114	-0.069	0.128
-289.618	-200.000	0.015	0.266
-288.603	-104.997	0.045	0.010
-287.589	-75.162	0.213	0.076
-286.574	721.914	0.038	-0.100
-285.559	67.000	-0.137	0.139
-284.545	309.419	0.099	-0.183
-283.530	38.961	0.069	0.061
-282.516	-164.449	0.305	-0.014
-281.501	-142.785	0.205	0.020
-280.486	-77.086	-0.274	0.095
-279.472	-200.000	-0.012	-0.454
-278.457	-39.712	0.148	0.077
-277.443	24.715	0.060	-0.049
-276.428	22.276	-0.294	0.239
-275.413	120.175	-0.122	-0.150
-274.399	-139.929	0.492	0.052
-273.384	-141.594	-0.217	0.022
-272.370	-113.046	-0.293	0.058
-271.355	800.000	0.064	0.239
-270.340	412.972	0.191	0.403
-269.326	-160.329	-0.241	-0.013
-268.311	153.700	-0.222	-0.302
-267.297	-200.000	0.011	0.206
-266.282	800.000	0.106	0.422
-265.267	-8.979	-0.328	-0.218
-264.253	7.880	-0.256	0.191
-263.238	-77.239	0.215	0.074
-262.224	-200.000	-0.057	0.272
-261.209	800.000	-0.116	0.343
-260.195	67.685	0.353	0.358
-259.180	175.112	-0.178	-0.256
-258.165	-200.000	-0.044	-0.344
-257.151	800.000	0.104	0.339
-256.136	315.489	0.052	0.098
-255.122	775.861	0.100	0.271
-254.107	-94.122	-0.233	-0.064
-253.092	-52.465	-0.234	-0.108
-252.078	-135.984	0.094	-0.011
-251.063	-116.825	-0.165	0.030
-250.049	31.843	0.248	0.212
-249.034	-196.756	0.494	0.003
-248.019	-53.270	-0.205	-0.093
-247.005	-93.308	-0.114	-0.031
-245.990	106.703	0.035	-0.041
-244.976	800.000	0.128	-0.365
-243.961	-167.174	0.145	-0.006
-242.946	800.000	-0.066	0.213
-241.932	-200.000	-0.058	0.328
-240.917	84.393	0.144	0.157
-239.903	16.212	-0.340	-0.266
-238.888	-200.000	0.014	0.102
-237.873	-200.000	0.002	-0.133
-236.859	557.951	-0.115	-0.275
-235.844	-200.000	-0.064	-0.462
-234.830	324.487	-0.169	0.319
-233.815	315.379	-0.041	0.076
-232.800	-91.015	0.186	0.053
-231.786	-40.048	0.156	0.081
-230.771	722.957	0.092	-0.243
-229.757	16.476	-0.119	0.093
-228.742	-31.900	0.101	0.056
-227.727	-155.551	0.416	-0.027
-226.713	193.917	0.076	0.115
-225.698	517.479	0.112	0.259
-224.684	505.003	-0.110	-0.252
-223.669	-200.000	-0.003	0.369
-222.655	200.177	0.117	-0.178
-221.640	-200.000	0.009	-0.396
-220.625	237.585	-0.172	-0.283
-219.611	-108.320	-0.083	-0.018
-218.596	-200.000	0.060	-0.261
-217.582	-193.343	0.216	0.002
-216.567	477.548	-0.033	-0.073
-215.552	-200.000	-0.011	0.089
-214.538	-200.000	0.005	-0.027
-213.523	-200.000	-0.028	0.250
-212.509	-200.000	0.084	0.588
-211.494	-200.000	0.031	-0.242
-210.479	-79.104	0.142	-0.048
-209.465	408.180	-0.080	-0.168
-208.450	142.770	0.088	0.115
-207.436	800.000	-0.084	0.358
-206.421	310.068	-0.084	-0.156
-205.406	-43.033	0.231	0.116
-204.392	151.836	0.143	0.193
-203.377	40.646	-0.103	-0.092
-202.363	119.240	-0.070	0.086
-201.348	419.358	-0.112	-0.237
-200.333	335.941	0.065	-0.124
-199.319	-81.407	0.062	0.020
-198.304	42.632	-0.198	0.179
-197.290	-156.054	-0.072	0.005
-196.275	614.720	0.071	0.175
-195.260	800.000	-0.074	-0.229
-194.246	-19.122	0.071	-0.044
-193.231	-200.000	-0.045	-0.283
-192.217	-200.000	0.043	0.243
-191.202	243.910	0.051	0.084
-190.187	164.033	-0.269	-0.375
-189.173	-15.189	-0.117	0.074
-188.158	-55.690	-0.219	0.097
-187.144	-89.276	0.375	0.110
-186.129	-34.735	-0.091	0.049
-185.114	-82.804	-0.081	0.026
-184.100	800.000	0.044	0.143
-183.085	6.343	-0.161	-0.118
-182.071	-200.000	-0.023	0.279
-181.056	-200.000	-0.067	0.299
-180.042	-133.764	-0.066	-0.008
-179.027	155.048	0.170	0.232
-178.012	7.250	0.211	-0.156
-176.998	-66.502	0.079	-0.031
-175.983	-39.677	-0.214	0.111
-174.969	-200.000	-0.058	0.345
-173.954	800.000	-0.050	-0.137
-172.939	249.695	0.187	-0.314
-171.925	162.451	0.253	-0.351
-170.910	172.333	0.129	0.184
-169.896	443.144	-0.096	-0.208
-168.881	-200.000	0.007	0.070
-167.866	-58.769	-0.125	-0.054
-166.852	663.118	0.082	-0.210
-165.837	16.957	-0.097	0.076
-164.823	261.670	0.341	0.585
-163.808	115.332	-0.113	0.137
-162.793	183.386	0.191	0.279
-161.779	-101.121	0.091	-0.022
-160.764	-30.187	0.316	-0.178
-159.750	417.830	-0.079	-0.166
-158.735	-49.053	-0.272	-0.129
-157.720	-46.398	-0.084	0.041
-156.706	-107.047	-0.375	-0.082
-155.691	89.045	0.276	0.304
-154.677	-89.746	-0.303	0.088
-153.662	257.314	-0.084	0.142
-152.647	800.000	0.007	-0.024
-151.633	-82.461	-0.323	0.104
-150.618	-19.911	0.093	-0.057
-149.604	-200.000	-0.074	0.342
-148.589	-80.882	0.204	-0.067
-147.574	-26.582	-0.308	-0.179
-146.560	800.000	-0.066	0.194
-145.545	-200.000	0.005	0.056
-144.531	-32.092	-0.142	0.079
-143.516	800.000	0.104	-0.336
-142.502	150.296	-0.116	-0.156
-141.487	-52.707	0.142	0.065
-140.472	-200.000	0.028	0.173
-139.458	-67.330	-0.192	-0.075
-138.443	-200.000	-0.051	-0.291
-137.429	529.882	-0.136	-0.317
-136.414	532.895	-0.053	-0.125
-135.399	-76.062	-0.395	0.138
-134.385	90.122	0.142	0.157
-133.370	147.754	-0.346	0.461
-132.356	-121.924	-0.046	-0.007
-131.341	800.000	-0.051	0.190
-130.326	-109.661	0.207	-0.043
-129.312	523.858	-0.093	0.217
-128.297	-33.236	0.182	0.100
-127.283	-52.192	0.318	0.146
-126.268	-200.000	0.027	0.224
-125.253	396.019	0.124	-0.255
-124.239	-200.000	0.021	-0.245
-123.224	800.000	0.097	0.330
-122.210	-200.000	-0.034	-0.307
