DTS Sentinel unit serial number:	SN413079Multiplexer serial number:	ORYXHardware model number:	OX4-SRSoftware version number:	ORYX F/W v4.00 Oryx Data Collector v3.7.2.0data status	okinstallation	princeton_trtdifferential loss correction	single-endedforward channel	channel 4reverse channel	N/Adate	2019/09/12time	21:01:34forward acquisition time	60.00reverse acquisition time	0.00gamma	496.2192k internal	0.2312k external	0.2312temperature offset calibration	1.0167default loss term (dB/km)	0.3790temperature slope calibration	1.0000multiplexer offset coefficient	1.0000multiplexer slope coefficient	1.0000fibre end	0.00T internal ref (°C)	30.81T ext. ref 1 (°C)	3.56T ext. ref 2 (°C)	25.38length (m)	temperature (°C)	Stokes	anti-Stokes-747.200	61.615	-0.386	-0.390
-746.185	-138.837	-0.079	0.009
-745.171	-200.000	-0.029	0.164
-744.156	-83.068	0.206	0.067
-743.142	128.376	-0.123	-0.158
-742.127	-104.293	-0.318	0.075
-741.112	49.893	-0.185	0.177
-740.098	58.329	0.108	-0.108
-739.083	688.908	0.072	-0.191
-738.069	-51.915	-0.153	-0.072
-737.054	516.389	0.068	-0.161
-736.039	800.000	-0.048	-0.166
-735.025	20.540	0.069	0.057
-734.010	432.111	-0.018	0.040
-732.996	138.479	-0.156	-0.207
-731.981	494.161	-0.093	-0.215
-730.966	-200.000	-0.012	-0.248
-729.952	-143.548	-0.198	0.019
-728.937	-191.890	0.349	-0.003
-727.923	92.197	-0.404	-0.461
-726.908	46.842	0.130	0.122
-725.894	237.357	0.275	-0.462
-724.879	10.372	-0.291	0.225
-723.864	47.380	-0.110	0.104
-722.850	-22.417	0.123	0.076
-721.835	50.974	0.143	0.137
-720.821	-109.238	-0.244	-0.053
-719.806	-33.044	-0.227	-0.127
-718.791	-28.665	-0.045	0.026
-717.777	-200.000	0.005	-0.053
-716.762	-51.268	0.100	-0.048
-715.748	-7.607	0.255	-0.175
-714.733	647.517	0.057	-0.148
-713.718	-52.504	0.268	-0.126
-712.704	20.310	0.201	-0.164
-711.689	-200.000	-0.005	-0.225
-710.675	-91.147	-0.147	-0.043
-709.660	-200.000	0.028	-0.245
-708.645	-3.793	-0.064	-0.045
-707.631	215.479	0.117	0.187
-706.616	22.358	-0.157	0.130
-705.602	-200.000	-0.024	-0.115
-704.587	-113.092	-0.159	0.032
-703.572	-200.000	-0.043	0.220
-702.558	-87.585	0.220	0.067
-701.543	-92.796	-0.062	-0.017
-700.529	-55.375	-0.141	0.064
-699.514	778.930	0.097	0.269
-698.499	-101.631	0.206	-0.051
-697.485	254.709	0.092	-0.159
-696.470	800.000	-0.069	-0.261
-695.456	195.708	-0.255	-0.393
-694.441	-144.955	0.431	0.040
-693.426	-200.000	0.360	-0.002
-692.412	-5.938	-0.200	-0.138
-691.397	-46.675	-0.281	0.139
-690.383	-65.906	0.137	0.055
-689.368	800.000	0.041	0.135
-688.354	510.923	0.137	-0.323
-687.339	-200.000	0.036	-0.582
-686.324	165.636	-0.229	-0.328
-685.310	-86.598	-0.138	-0.043
-684.295	-200.000	0.007	-0.409
-683.281	-80.737	0.055	0.018
-682.266	19.764	-0.209	-0.170
-681.251	800.000	0.103	0.335
-680.237	449.178	-0.179	-0.399
-679.222	-200.000	0.048	-0.238
-678.208	-113.327	0.212	-0.042
-677.193	-107.863	0.238	0.052
-676.178	344.880	-0.101	-0.200
-675.164	649.691	-0.074	-0.192
-674.149	-93.925	0.199	0.055
-673.135	-65.026	0.407	0.166
-672.120	245.475	0.094	-0.160
-671.105	61.501	0.076	-0.076
-670.091	58.124	-0.170	0.168
-669.076	456.338	0.141	0.316
-668.062	-86.481	-0.421	0.131
-667.047	52.168	0.297	0.287
-666.032	96.718	-0.069	0.080
-665.018	800.000	-0.052	-0.226
-664.003	800.000	0.068	-0.286
-662.989	-200.000	0.051	-0.394
-661.974	800.000	-0.052	-0.224
-660.959	87.808	-0.068	-0.077
-659.945	-200.000	-0.029	-0.312
-658.930	800.000	0.125	-0.418
-657.916	-158.545	-0.075	-0.004
-656.901	-98.011	0.231	-0.060
-655.886	-90.986	-0.195	-0.057
-654.872	-76.730	0.299	0.106
-653.857	-51.716	0.279	-0.132
-652.843	353.052	0.042	0.084
-651.828	-44.624	0.206	0.104
-650.814	-90.666	0.198	0.058
-649.799	-200.000	0.029	-0.163
-648.784	46.196	-0.008	-0.007
-647.770	-200.000	-0.060	-0.273
-646.755	-200.000	-0.005	0.174
-645.741	681.227	-0.018	-0.047
-644.726	-110.730	-0.067	-0.014
-643.711	466.606	-0.080	-0.180
-642.697	800.000	-0.066	0.189
-641.682	-145.798	0.055	0.005
-640.668	800.000	-0.058	-0.234
-639.653	223.426	0.112	0.183
-638.638	-200.000	0.069	-0.350
-637.624	-196.447	-0.360	0.002
-636.609	-200.000	0.015	-0.248
-635.595	-168.001	-0.239	0.009
-634.580	-156.193	-0.184	-0.012
-633.565	279.066	-0.046	0.084
-632.551	29.387	0.133	-0.114
-631.536	67.945	0.040	-0.042
-630.522	328.504	0.073	-0.142
-629.507	24.130	0.196	-0.164
-628.492	275.445	0.077	-0.138
-627.478	-56.477	0.313	-0.140
-626.463	-200.000	0.042	-0.435
-625.449	-113.134	0.157	-0.031
-624.434	435.932	0.091	0.200
-623.419	98.139	0.129	-0.149
-622.405	79.954	-0.132	0.143
-621.390	185.956	0.115	-0.173
-620.376	-200.000	-0.026	-0.194
-619.361	15.512	-0.212	-0.168
-618.346	-90.206	0.069	0.020
-617.332	306.541	0.167	-0.315
-616.317	499.936	-0.067	-0.156
-615.303	114.779	0.209	-0.258
-614.288	32.451	-0.179	-0.156
-613.273	-135.977	0.139	0.017
-612.259	0.826	0.060	0.044
-611.244	55.777	0.020	-0.019
-610.230	-200.000	0.041	0.231
-609.215	-100.814	-0.443	0.110
-608.201	168.980	-0.073	0.105
-607.186	789.838	0.123	-0.340
-606.171	126.124	0.083	0.106
-605.157	-14.142	-0.118	-0.077
-604.142	68.394	0.344	-0.355
-603.128	-52.951	-0.423	0.196
-602.113	-181.760	0.130	0.003
-601.098	484.055	0.034	0.077
-600.084	87.586	-0.063	-0.070
-599.069	217.471	-0.052	-0.083
-598.055	-71.052	-0.216	0.082
-597.040	17.007	0.160	0.128
-596.025	-110.305	-0.308	0.065
-595.011	-49.607	-0.281	0.135
-593.996	800.000	-0.069	0.229
-592.982	-200.000	0.014	0.094
-591.967	-76.411	0.258	-0.092
-590.952	89.485	0.068	0.077
-589.938	72.009	-0.128	-0.134
-588.923	-61.898	0.178	-0.075
-587.909	39.141	0.184	-0.166
-586.894	47.989	-0.023	0.022
-585.879	87.166	-0.124	-0.138
-584.865	800.000	-0.025	-0.101
-583.850	265.718	0.073	0.129
-582.836	86.103	-0.265	-0.294
-581.821	429.215	-0.075	-0.165
-580.806	-35.278	-0.194	-0.106
-579.792	-57.936	-0.296	0.130
-578.777	-66.884	0.341	0.136
-577.763	800.000	0.035	-0.103
-576.748	2.256	0.101	0.074
-575.733	83.990	-0.253	0.278
-574.719	-125.022	-0.227	0.035
-573.704	-200.000	0.038	0.334
-572.690	133.203	-0.184	0.240
-571.675	599.832	-0.108	0.270
-570.661	152.196	-0.169	0.232
-569.646	30.673	-0.101	0.087
-568.631	-108.883	-0.251	0.054
-567.617	-200.000	-0.000	-0.247
-566.602	449.494	-0.047	-0.104
-565.588	27.461	0.188	-0.159
-564.573	-21.132	0.189	0.116
-563.558	89.047	-0.163	0.183
-562.544	-24.024	-0.258	0.156
-561.529	62.991	0.073	-0.073
-560.515	800.000	-0.016	-0.062
-559.500	46.158	-0.093	0.087
-558.485	78.108	0.203	0.219
-557.471	251.747	-0.153	-0.262
-556.456	-122.181	0.286	-0.047
-555.442	-159.137	-0.251	0.014
-554.427	45.789	0.338	-0.315
-553.412	501.344	0.030	0.070
-552.398	800.000	-0.078	-0.252
-551.383	22.498	-0.161	0.132
-550.369	-64.940	-0.297	-0.121
-549.354	99.053	0.129	-0.150
-548.339	800.000	0.031	-0.101
-547.325	113.887	0.242	-0.297
-546.310	651.998	-0.048	-0.124
-545.296	-89.173	0.114	-0.034
-544.281	-89.103	0.148	0.044
-543.266	78.002	0.182	-0.195
-542.252	-200.000	-0.084	-0.435
-541.237	-56.352	-0.137	-0.061
-540.223	-200.000	-0.027	0.164
-539.208	-80.692	-0.371	-0.124
-538.193	124.470	0.059	0.074
-537.179	-98.906	-0.499	0.128
-536.164	-41.990	0.330	-0.170
-535.150	763.250	0.084	-0.230
-534.135	0.674	-0.146	-0.105
-533.121	57.333	0.140	0.138
-532.106	800.000	-0.053	-0.196
-531.091	65.342	-0.164	-0.167
-530.077	151.740	-0.230	0.315
-529.062	-200.000	-0.040	0.263
-528.048	-77.480	0.185	0.064
-527.033	501.780	-0.064	0.150
-526.018	-26.819	0.096	-0.057
-525.004	171.182	-0.181	0.261
-523.989	-41.344	-0.165	0.085
-522.975	-41.269	0.129	0.067
-521.960	-20.940	0.211	-0.130
-520.945	-14.263	-0.218	0.141
-519.931	50.321	-0.090	0.085
-518.916	66.337	0.118	0.121
-517.902	149.670	-0.151	0.206
-516.887	800.000	-0.056	0.192
-515.872	-48.634	0.008	0.004
-514.858	146.738	-0.106	-0.143
-513.843	394.200	-0.061	0.128
-512.829	18.342	-0.307	-0.247
-511.814	40.790	0.085	0.077
-510.799	127.564	-0.102	0.130
-509.785	-82.544	0.036	-0.012
-508.770	-126.192	-0.217	0.033
-507.756	-68.023	0.040	-0.016
-506.741	277.154	0.141	0.251
-505.726	0.232	-0.019	-0.014
-504.712	-104.952	0.110	-0.025
-503.697	-114.565	0.104	-0.020
-502.683	-31.801	0.293	-0.165
-501.668	13.613	-0.155	0.121
-500.653	360.400	0.044	0.088
-499.639	26.476	0.158	-0.133
-498.624	-1.874	0.121	0.086
-497.610	-117.431	-0.137	0.025
-496.595	-89.308	-0.201	-0.060
-495.581	-200.000	0.020	-0.218
-494.566	116.757	0.013	-0.016
-493.551	424.025	0.118	0.256
-492.537	-106.347	0.137	0.031
-491.522	418.295	-0.027	0.058
-490.508	-200.000	0.182	0.000
-489.493	2.231	-0.096	0.070
-488.478	25.009	-0.038	0.031
-487.464	195.995	-0.094	0.144
-486.449	-1.305	0.068	-0.048
-485.435	-200.000	-0.008	-0.100
-484.420	-75.141	-0.240	0.086
-483.405	800.000	0.106	0.306
-482.391	-36.104	0.220	-0.119
-481.376	77.925	-0.325	0.348
-480.362	-88.347	0.357	0.107
-479.347	676.385	0.061	-0.159
-478.332	-90.482	0.228	-0.066
-477.318	800.000	-0.140	-0.469
-476.303	-48.465	0.038	0.019
-475.289	-71.063	-0.087	0.033
-474.274	-110.019	0.111	0.023
-473.259	-33.422	-0.180	0.100
-472.245	145.615	0.150	0.202
-471.230	145.772	-0.154	0.208
-470.216	-44.884	0.048	-0.024
-469.201	-60.309	-0.062	0.026
-468.186	31.733	-0.303	-0.262
-467.172	60.163	0.154	-0.153
-466.157	-76.824	-0.359	-0.126
-465.143	-1.333	0.024	0.017
-464.128	191.481	-0.105	-0.159
-463.113	-50.187	-0.081	0.038
-462.099	-35.590	-0.198	-0.108
-461.084	-77.693	0.252	-0.088
-460.070	86.699	-0.196	0.217
-459.055	28.704	0.171	0.145
-458.040	-5.909	-0.202	-0.139
-457.026	-14.956	-0.048	-0.031
-456.011	-200.000	-0.003	-0.244
-454.997	-200.000	-0.029	-0.295
-453.982	-200.000	0.064	0.364
-452.968	-9.361	0.265	-0.177
-451.953	-200.000	0.003	0.175
-450.938	-178.173	0.192	0.005
-449.924	800.000	0.034	-0.111
-448.909	-200.000	-0.008	0.035
-447.895	45.658	-0.213	0.197
-446.880	-152.164	0.127	-0.009
-445.865	62.839	-0.117	-0.118
-444.851	-200.000	0.000	0.012
-443.836	1.618	-0.213	-0.154
-442.822	-115.544	0.434	-0.082
-441.807	-43.507	-0.339	-0.172
-440.792	21.516	0.131	0.107
-439.778	-200.000	-0.015	-0.081
-438.763	35.053	0.200	-0.176
-437.749	800.000	0.117	0.353
-436.734	-115.547	-0.233	0.044
-435.719	800.000	-0.047	-0.155
-434.705	725.475	-0.043	0.116
-433.690	58.699	0.162	-0.159
-432.676	-78.744	-0.228	-0.078
-431.661	571.167	-0.053	0.130
-430.646	37.684	-0.105	-0.094
-429.632	11.283	-0.212	0.162
-428.617	-95.474	-0.143	0.038
-427.603	46.890	0.060	-0.056
-426.588	-107.133	-0.229	0.051
-425.573	800.000	0.086	-0.274
-424.559	80.677	-0.154	0.166
-423.544	-154.992	-0.349	0.023
-422.530	-112.408	-0.475	0.095
-421.515	-154.693	0.227	-0.015
-420.500	-184.120	-0.122	0.002
-419.486	16.592	0.375	-0.297
-418.471	-147.823	0.148	0.012
-417.457	800.000	0.078	-0.251
-416.442	359.708	-0.151	-0.302
-415.428	561.324	0.091	-0.219
-414.413	-200.000	0.030	-0.192
-413.398	161.277	0.307	0.429
-412.384	358.741	-0.163	0.326
-411.369	-62.455	0.011	-0.005
-410.355	-200.000	-0.037	0.350
-409.340	133.044	-0.228	0.295
-408.325	800.000	0.044	-0.124
-407.311	-151.406	0.376	-0.028
-406.296	-95.458	-0.159	-0.043
-405.282	-200.000	-0.022	0.122
-404.267	-51.290	0.058	-0.027
-403.252	62.890	0.178	0.178
-402.238	69.368	0.183	0.189
-401.223	72.857	0.070	0.073
-400.209	-172.947	0.132	0.004
-399.194	252.339	0.077	-0.131
-398.179	-200.000	0.015	-0.271
-397.165	-34.496	0.235	0.129
-396.150	-200.000	-0.002	-0.279
-395.136	51.518	-0.025	-0.024
-394.121	-200.000	-0.010	0.319
-393.106	-200.000	-0.000	-0.040
-392.092	-200.000	0.020	-0.166
-391.077	156.802	0.132	-0.183
-390.063	-200.000	0.010	0.258
-389.048	-4.838	-0.080	0.055
-388.033	800.000	-0.066	0.187
-387.019	146.124	0.067	0.090
-386.004	-23.069	-0.295	0.178
-384.990	-200.000	-0.003	-0.214
-383.975	248.373	0.102	-0.172
-382.960	-102.317	0.033	-0.008
-381.946	-179.224	-0.375	-0.008
-380.931	521.225	-0.037	-0.086
-379.917	-200.000	-0.055	-0.272
-378.902	-32.136	0.387	-0.216
-377.888	-200.000	-0.009	-0.117
-376.873	19.521	-0.090	-0.072
-375.858	36.168	0.283	0.250
-374.844	-200.000	-0.007	0.037
-373.829	-200.000	-0.008	0.141
-372.815	91.242	0.116	0.131
-371.800	-168.281	0.224	-0.009
-370.785	184.079	-0.121	0.179
-369.771	-200.000	-0.062	0.328
-368.756	-200.000	0.004	0.113
-367.742	800.000	0.027	0.100
-366.727	-21.744	-0.284	0.173
-365.712	118.306	0.107	-0.132
-364.698	-200.000	-0.038	-0.205
-363.683	-200.000	-0.012	0.073
-362.669	-200.000	0.004	-0.057
-361.654	53.071	0.108	0.104
-360.639	-68.032	0.152	-0.059
-359.625	200.902	0.119	-0.182
-358.610	-114.125	-0.208	0.040
-357.596	90.218	-0.064	0.072
-356.581	-200.000	-0.011	0.177
-355.566	118.639	-0.052	-0.064
-354.552	-153.658	0.039	-0.003
-353.537	251.960	0.119	-0.203
-352.523	800.000	0.051	0.185
-351.508	325.990	0.117	-0.224
-350.493	-13.039	0.237	0.154
-349.479	243.795	0.107	-0.179
-348.464	-200.000	-0.022	-0.114
-347.450	800.000	0.052	0.184
-346.435	-200.000	-0.024	-0.114
-345.420	271.138	-0.178	0.312
-344.406	-31.126	-0.173	0.098
-343.391	-200.000	0.034	0.234
-342.377	-117.059	0.159	0.029
-341.362	-118.526	-0.155	0.027
-340.348	402.308	0.094	0.197
-339.333	2.774	0.320	-0.232
-338.318	-200.000	0.020	0.346
-337.304	-200.000	0.011	0.106
-336.289	-35.445	0.246	-0.134
-335.275	153.353	0.071	0.097
-334.260	71.143	0.153	0.158
-333.245	800.000	0.064	0.176
-332.231	300.798	-0.082	0.152
-331.216	42.213	-0.120	0.108
-330.202	-200.000	-0.016	-0.090
-329.187	800.000	-0.088	0.351
-328.172	-100.846	0.304	0.075
-327.158	-200.000	0.058	-0.394
-326.143	313.447	-0.108	0.202
-325.129	56.600	0.077	-0.074
-324.114	-83.748	0.240	0.076
-323.099	-113.662	0.221	0.043
-322.085	59.828	0.097	0.096
-321.070	-54.346	-0.060	-0.027
-320.056	-75.777	-0.078	-0.028
-319.041	-200.000	-0.001	0.321
-318.026	-114.506	0.100	0.019
-317.012	-200.000	-0.029	0.168
-315.997	-85.715	0.229	0.071
-314.983	157.935	-0.092	-0.127
-313.968	-200.000	0.000	-0.242
-312.953	-200.000	-0.010	-0.261
-311.939	121.044	-0.303	-0.376
-310.924	-68.436	-0.166	-0.064
-309.910	-34.423	0.140	-0.076
-308.895	71.047	0.208	0.215
-307.880	671.105	0.065	-0.167
-306.866	-122.234	0.162	0.026
-305.851	605.087	-0.052	-0.130
-304.837	587.388	0.040	-0.099
-303.822	794.008	-0.041	0.113
-302.807	152.344	-0.198	0.269
-301.793	78.651	0.195	0.208
-300.778	-2.561	-0.137	0.096
-299.764	-121.550	-0.228	-0.038
-298.749	97.396	-0.107	0.123
-297.735	-200.000	0.005	0.050
-296.720	107.842	-0.166	-0.197
-295.705	77.041	-0.072	0.076
-294.691	-5.194	0.164	-0.112
-293.676	-58.615	0.431	-0.186
-292.662	-31.793	0.256	-0.143
-291.647	46.841	0.106	-0.098
-290.632	-133.045	-0.272	-0.034
-289.618	15.366	-0.158	-0.124
-288.603	0.739	-0.233	0.166
-287.589	440.050	-0.040	0.086
-286.574	-200.000	-0.002	0.293
-285.559	384.920	0.113	0.233
-284.545	-102.587	-0.196	-0.047
-283.530	-122.704	-0.060	0.010
-282.516	-200.000	-0.041	0.395
-281.501	-200.000	0.002	0.212
-280.486	-200.000	-0.016	0.124
-279.472	44.915	0.215	-0.197
-278.457	-25.713	-0.066	-0.039
-277.443	-187.698	-0.306	0.004
-276.428	430.484	-0.069	-0.149
-275.413	-108.263	-0.247	0.053
-274.399	595.146	-0.025	-0.063
-273.384	97.527	-0.032	0.036
-272.370	-57.395	0.156	-0.068
-271.355	407.522	0.060	-0.126
-270.340	-82.373	-0.149	-0.048
-269.326	382.748	0.070	0.143
-268.311	72.638	0.059	0.061
-267.297	-188.874	-0.331	0.004
-266.282	-18.366	0.255	-0.159
-265.267	-129.335	0.405	-0.056
-264.253	308.277	0.094	0.175
-263.238	-200.000	0.015	0.170
-262.224	-142.458	-0.420	-0.041
-261.209	433.499	0.154	-0.332
-260.195	-20.941	0.347	0.211
-259.180	800.000	0.026	0.104
-258.165	800.000	0.063	-0.174
-257.151	800.000	-0.078	-0.221
-256.136	-7.142	0.146	-0.099
-255.122	336.301	0.145	0.280
-254.107	800.000	0.094	0.373
-253.092	162.909	-0.064	-0.089
-252.078	-19.722	-0.035	-0.022
-251.063	800.000	0.047	0.175
-250.049	437.851	0.091	-0.197
-249.034	-88.212	0.334	0.099
-248.019	268.356	-0.022	0.039
-247.005	-41.332	0.078	0.040
-245.990	-3.970	-0.238	0.164
-244.976	-120.289	-0.148	0.025
-243.961	192.854	-0.025	0.038
-242.946	623.358	0.178	-0.446
-241.932	800.000	0.113	-0.339
-240.917	-82.671	-0.328	-0.106
-239.903	312.312	0.070	-0.130
-238.888	-48.799	-0.213	-0.102
-237.873	33.328	0.024	-0.021
-236.859	800.000	0.068	-0.282
-235.844	228.016	-0.067	-0.109
-234.830	-126.893	0.406	0.059
-233.815	111.267	-0.143	-0.171
-232.800	188.248	-0.323	0.481
-231.786	26.592	0.097	-0.081
-230.771	-131.104	0.104	-0.014
-229.757	260.636	0.119	0.204
-228.742	-22.887	-0.137	0.082
-227.727	800.000	0.023	0.095
-226.713	-163.954	-0.167	0.008
-225.698	800.000	0.068	0.275
-224.684	-42.219	-0.256	0.130
-223.669	-166.966	0.351	-0.014
-222.655	-54.482	-0.211	0.095
-221.640	-78.540	-0.161	-0.055
-220.625	-41.197	-0.381	0.195
-219.611	-25.549	0.155	-0.091
-218.596	800.000	-0.025	0.078
-217.582	290.098	0.020	0.037
-216.567	-60.682	0.190	-0.080
-215.552	173.917	0.157	0.226
-214.538	418.195	0.110	0.234
-213.523	-128.975	0.188	-0.026
-212.509	244.557	-0.046	0.077
-211.494	-175.718	-0.235	-0.006
-210.479	-200.000	-0.011	0.058
-209.465	42.401	0.143	-0.129
-208.450	-139.690	0.116	-0.012
-207.436	-200.000	0.011	0.114
-206.421	313.001	-0.103	0.192
-205.406	78.225	0.156	0.165
-204.392	148.859	-0.029	-0.039
-203.377	800.000	-0.015	0.062
-202.363	-123.699	0.175	0.028
-201.348	150.229	0.084	0.113
-200.333	42.490	0.176	0.159
-199.319	-12.077	-0.175	-0.114
-198.304	143.921	0.184	-0.244
-197.290	-64.251	0.367	0.148
-196.275	309.150	0.034	0.064
-195.260	356.419	0.179	-0.354
-194.246	-33.749	-0.039	0.021
-193.231	11.505	0.201	0.153
-192.217	7.189	0.253	-0.188
-191.202	455.647	0.042	-0.093
-190.187	-200.000	0.070	-0.313
-189.173	18.625	-0.105	0.084
-188.158	-200.000	0.049	0.281
-187.144	12.832	-0.052	-0.040
-186.129	50.895	0.102	-0.096
-185.114	-55.005	-0.218	-0.097
-184.100	757.827	-0.123	-0.332
-183.085	85.696	-0.048	-0.053
-182.071	-51.552	0.264	0.122
-181.056	307.509	0.069	0.128
-180.042	-200.000	-0.016	-0.166
-179.027	91.963	-0.083	0.093
-178.012	261.702	0.158	0.271
-176.998	-200.000	-0.052	-0.388
-175.983	182.716	-0.109	0.159
-174.969	800.000	0.167	0.578
-173.954	-130.388	0.479	0.064
-172.939	-124.775	-0.348	0.053
-171.925	-44.898	-0.134	0.066
-170.910	329.851	0.061	-0.116
-169.896	-200.000	-0.025	0.400
-168.881	-148.498	-0.174	-0.014
-167.866	-200.000	-0.022	-0.129
-166.852	800.000	0.011	0.048
-165.837	-110.103	-0.257	-0.053
-164.823	-200.000	-0.013	0.380
-163.808	37.181	-0.183	0.161
-162.793	-148.010	0.069	-0.006
-161.779	37.133	0.225	-0.197
-160.764	800.000	-0.083	-0.249
-159.750	52.425	-0.098	-0.092
-158.735	83.415	0.149	-0.161
-157.720	-200.000	0.029	-0.290
-156.706	58.713	0.142	-0.138
-155.691	-139.731	-0.269	-0.028
-154.677	147.996	-0.075	-0.101
-153.662	-167.686	-0.332	-0.013
-152.647	-200.000	-0.011	-0.288
-151.633	-200.000	0.046	-0.243
-150.618	-94.834	0.265	-0.071
-149.604	132.657	-0.109	0.140
-148.589	38.636	0.079	-0.070
-147.574	81.940	-0.104	0.112
-146.560	-200.000	-0.012	0.101
-145.545	-25.049	0.131	-0.077
-144.531	-200.000	-0.564	-0.001
-143.516	800.000	-0.106	-0.373
-142.502	-57.522	-0.092	-0.040
-141.487	86.310	-0.156	-0.170
-140.472	-62.038	0.143	0.059
-139.458	470.180	-0.091	0.203
-138.443	-78.810	0.456	-0.154
-137.429	25.640	-0.296	-0.244
-136.414	-12.492	0.269	-0.174
-135.399	-75.369	0.219	-0.078
-134.385	108.470	0.213	-0.252
-133.370	353.909	-0.125	-0.246
-132.356	-49.087	0.152	-0.072
-131.341	-53.965	0.171	-0.077
-130.326	-161.077	-0.354	0.018
-129.312	-200.000	-0.001	-0.086
-128.297	-200.000	-0.007	0.107
-127.283	-49.341	0.097	0.046
-126.268	-73.739	-0.178	-0.064
-125.253	62.005	0.230	-0.227
-124.239	-96.777	-0.457	-0.119
-123.224	429.994	-0.064	-0.137
-122.210	-200.000	-0.012	0.117
-121.195	295.919	0.092	0.167
-120.180	107.999	0.221	0.261
