DTS Sentinel unit serial number:	SN413079Multiplexer serial number:	ORYXHardware model number:	OX4-SRSoftware version number:	ORYX F/W v4.00 Oryx Data Collector v3.7.2.0data status	okinstallation	princeton_trtdifferential loss correction	single-endedforward channel	channel 4reverse channel	N/Adate	2019/09/12time	19:46:19forward acquisition time	15.00reverse acquisition time	0.00gamma	496.2192k internal	0.2310k external	0.2310temperature offset calibration	1.0165default loss term (dB/km)	0.3790temperature slope calibration	1.0000multiplexer offset coefficient	1.0000multiplexer slope coefficient	1.0000fibre end	0.00T internal ref (°C)	32.00T ext. ref 1 (°C)	3.48T ext. ref 2 (°C)	26.56length (m)	temperature (°C)	Stokes	anti-Stokes-747.200	238.053	0.277	-0.466
-746.185	800.000	-0.095	0.344
-745.171	35.148	-0.148	-0.131
-744.156	-200.000	0.023	0.166
-743.142	800.000	-0.123	0.493
-742.127	-23.494	0.462	-0.282
-741.112	173.497	0.559	0.819
-740.098	-200.000	0.063	0.840
-739.083	-67.681	0.521	-0.207
-738.069	-85.557	0.687	0.217
-737.054	-139.255	-0.710	0.078
-736.039	347.910	0.140	0.281
-735.025	266.528	-0.266	-0.472
-734.010	67.594	0.614	-0.636
-732.996	48.462	0.575	0.547
-731.981	800.000	-0.172	0.564
-730.966	-58.694	-0.459	0.202
-729.952	-177.235	-0.750	-0.019
-728.937	-200.000	0.012	0.142
-727.923	-69.087	0.272	-0.106
-726.908	800.000	0.037	0.113
-725.894	54.176	-0.356	0.347
-724.879	-47.500	-0.184	-0.091
-723.864	133.580	-0.038	0.050
-722.850	52.782	0.451	0.437
-721.835	431.404	-0.189	0.416
-720.821	-111.968	-0.439	-0.090
-719.806	-83.025	0.235	-0.077
-718.791	258.477	0.218	0.382
-717.777	-200.000	0.007	0.350
-716.762	800.000	-0.036	0.128
-715.748	455.897	0.255	-0.573
-714.733	-22.546	-0.471	-0.289
-713.718	481.909	0.136	-0.313
-712.704	-110.950	-0.540	0.113
-711.689	-136.270	-0.215	0.025
-710.675	-37.023	0.624	0.339
-709.660	-200.000	0.068	-0.377
-708.645	225.518	-0.157	-0.258
-707.631	195.389	0.081	-0.125
-706.616	-25.392	-0.432	0.259
-705.602	-138.473	0.597	0.067
-704.587	633.343	-0.184	-0.474
-703.572	84.124	-0.130	0.144
-702.558	138.859	0.283	0.377
-701.543	-109.524	0.816	0.175
-700.529	-38.891	0.322	-0.172
-699.514	-83.502	0.572	-0.186
-698.499	-200.000	-0.144	0.656
-697.485	338.627	0.038	-0.076
-696.470	255.771	-0.289	-0.502
-695.456	-200.000	0.190	-1.130
-694.441	246.445	0.284	0.485
-693.426	194.723	0.079	-0.122
-692.412	101.924	0.473	-0.559
-691.397	101.214	-0.240	-0.284
-690.383	445.179	0.081	0.181
-689.368	-81.139	0.902	-0.302
-688.354	-49.570	-0.666	0.322
-687.339	-200.000	0.107	0.718
-686.324	304.666	-0.246	-0.463
-685.310	242.193	0.205	-0.348
-684.295	-22.452	-0.720	0.442
-683.281	109.891	-0.500	-0.608
-682.266	441.764	-0.517	-1.147
-681.251	-5.422	-0.962	-0.669
-680.237	-58.038	-0.803	-0.355
-679.222	37.412	-0.489	-0.439
-678.208	21.082	0.533	-0.438
-677.193	-40.078	0.587	0.310
-676.178	-125.098	-0.661	0.103
-675.164	-200.000	0.035	-0.539
-674.149	90.178	-0.245	-0.278
-673.135	13.633	0.314	0.247
-672.120	196.914	0.370	-0.571
-671.105	-109.380	0.600	0.129
-670.091	-57.788	-0.195	0.086
-669.076	298.563	0.309	0.575
-668.062	-200.000	-0.076	-0.446
-667.047	-23.282	0.442	-0.269
-666.032	164.444	-0.139	-0.198
-665.018	78.853	0.250	0.270
-664.003	-56.474	-0.778	-0.349
-662.989	243.966	0.300	0.510
-661.974	302.480	0.046	0.086
-660.959	-200.000	-0.028	0.454
-659.945	70.903	-0.714	0.749
-658.930	-100.601	-0.235	-0.059
-657.916	217.212	-0.315	0.508
-656.901	800.000	0.143	0.520
-655.886	104.046	0.374	-0.445
-654.872	112.768	0.335	0.410
-653.857	-99.760	-0.476	-0.121
-652.843	800.000	-0.133	0.408
-651.828	327.061	0.393	0.762
-650.814	-200.000	-0.001	-0.113
-649.799	-122.798	-0.722	0.118
-648.784	-101.212	-0.197	0.049
-647.770	229.721	0.066	0.109
-646.755	515.315	-0.125	-0.295
-645.741	230.929	-0.259	0.429
-644.726	204.833	-0.124	0.195
-643.711	-200.000	-0.112	0.650
-642.697	-122.353	0.678	-0.112
-641.682	-37.096	-0.376	0.204
-640.668	117.899	0.595	-0.741
-639.653	-200.000	-0.094	-0.992
-638.638	73.185	0.519	0.549
-637.624	-200.000	-0.099	-0.957
-636.609	-59.493	-0.414	-0.180
-635.595	139.792	-0.190	0.254
-634.580	-25.003	-0.099	0.059
-633.565	224.825	0.218	-0.357
-632.551	157.495	0.270	-0.378
-631.536	-22.691	-0.709	0.433
-630.522	800.000	-0.163	0.550
-629.507	-200.000	0.034	-0.652
-628.492	664.086	-0.195	0.508
-627.478	800.000	-0.026	-0.086
-626.463	-200.000	-0.050	-0.519
-625.449	-44.396	0.215	-0.109
-624.434	-93.861	0.575	0.160
-623.419	203.578	-0.291	-0.456
-622.405	598.512	0.110	-0.276
-621.390	800.000	-0.347	1.017
-620.376	-83.274	0.391	-0.127
-619.361	-200.000	-0.040	0.246
-618.346	19.620	-0.330	-0.268
-617.332	-200.000	-0.039	-0.388
-616.317	-80.897	0.353	0.118
-615.303	800.000	-0.133	-0.433
-614.288	-200.000	0.145	0.689
-613.273	-11.396	0.265	0.176
-612.259	-14.050	0.283	-0.185
-611.244	316.793	-0.391	-0.747
-610.230	326.064	-0.071	-0.138
-609.215	800.000	0.063	0.223
-608.201	-186.606	0.739	0.011
-607.186	233.928	0.220	0.366
-606.171	230.941	-0.304	-0.503
-605.157	-80.836	0.064	-0.021
-604.142	-95.515	0.598	-0.162
-603.128	-126.961	0.660	-0.098
-602.113	-110.906	0.351	-0.073
-601.098	112.419	-0.243	-0.297
-600.084	-42.107	0.487	-0.252
-599.069	3.599	0.702	0.517
-598.055	800.000	0.063	0.263
-597.040	-33.113	0.430	-0.241
-596.025	-109.516	0.229	-0.049
-595.011	-147.206	-0.637	0.055
-593.996	188.744	-0.456	-0.689
-592.982	85.576	-0.137	0.152
-591.967	523.681	0.169	-0.401
-590.952	800.000	0.116	-0.459
-589.938	-128.754	0.274	-0.039
-588.923	153.985	0.468	-0.647
-587.909	313.401	-0.251	0.477
-586.894	-126.383	0.752	-0.113
-585.879	800.000	-0.237	0.806
-584.865	-200.000	-0.041	-0.335
-583.850	35.251	-0.571	-0.506
-582.836	-103.638	0.313	-0.074
-581.821	-79.445	-0.339	-0.116
-580.806	128.972	0.188	0.242
-579.792	-200.000	0.037	0.805
-578.777	393.712	-0.301	0.632
-577.763	-67.278	0.251	0.100
-576.748	-55.282	0.126	0.057
-575.733	-110.168	-0.112	0.023
-574.719	-61.662	0.639	-0.270
-573.704	-200.000	0.235	1.324
-572.690	-62.949	0.297	0.124
-571.675	125.069	-0.209	-0.266
-570.661	6.350	0.062	0.046
-569.646	-200.000	-0.057	-0.878
-568.631	-200.000	0.071	1.634
-567.617	-88.844	0.647	-0.194
-566.602	182.672	0.330	0.491
-565.588	-101.914	-0.244	0.060
-564.573	190.992	-0.055	0.083
-563.558	-60.760	-0.946	0.404
-562.544	275.954	0.494	0.885
-561.529	-57.997	-0.690	0.304
-560.515	-132.331	-0.444	0.058
-559.500	-180.997	0.790	-0.016
-558.485	-152.023	0.977	0.072
-557.471	-80.225	0.332	-0.112
-556.456	345.276	0.520	-1.030
-555.442	123.519	0.133	0.168
-554.427	-74.737	-0.390	0.141
-553.412	-58.906	-0.811	0.354
-552.398	228.343	-0.385	0.632
-551.383	704.424	-0.294	0.782
-550.369	-157.435	0.552	-0.033
-549.354	-76.385	0.305	0.108
-548.339	-200.000	0.022	0.721
-547.325	-133.254	0.252	0.032
-546.310	337.496	0.058	-0.114
-545.296	-200.000	-0.045	-0.507
-544.281	451.804	0.242	-0.540
-543.266	-108.238	0.918	0.200
-542.252	-39.744	-0.285	-0.150
-541.237	-200.000	-0.047	0.274
-540.223	37.003	0.583	-0.520
-539.208	205.945	0.128	-0.201
-538.193	-157.143	-1.025	-0.063
-537.179	-200.000	-0.187	-1.273
-536.164	-74.016	-0.055	0.020
-535.150	-46.534	-0.217	0.107
-534.135	-200.000	-0.072	-0.380
-533.121	-60.861	0.523	0.223
-532.106	213.366	-0.490	-0.779
-531.091	114.718	-0.506	-0.621
-530.077	562.285	0.387	0.942
-529.062	-65.262	-0.529	-0.214
-528.048	284.030	-0.095	0.173
-527.033	-67.167	1.059	-0.420
-526.018	-101.934	-0.116	-0.028
-525.004	-200.000	0.064	0.428
-523.989	-98.712	0.930	-0.239
-522.975	800.000	-0.091	-0.292
-521.960	-67.883	-0.417	-0.164
-520.945	-50.820	0.446	0.211
-519.931	800.000	0.182	-0.523
-518.916	-21.974	0.258	-0.158
-517.902	186.487	0.214	0.320
-516.887	-94.113	-0.395	-0.109
-515.872	-200.000	-0.050	-0.561
-514.858	-200.000	-0.043	-0.376
-513.843	129.432	-0.320	-0.411
-512.829	-73.584	-1.150	0.422
-511.814	214.674	-0.159	0.253
-510.799	71.254	-0.235	0.246
-509.785	6.723	-0.328	-0.246
-508.770	-108.096	-0.665	0.145
-507.756	4.774	0.598	-0.442
-506.741	196.544	-0.310	0.476
-505.726	120.236	0.237	-0.296
-504.712	-84.034	0.530	-0.169
-503.697	-200.000	-0.037	-0.324
-502.683	-99.255	-1.394	0.354
-501.668	399.095	0.253	-0.533
-500.653	800.000	-0.075	0.237
-499.639	126.543	0.203	0.258
-498.624	800.000	-0.251	0.929
-497.610	-61.902	-0.318	0.134
-496.595	-142.353	0.510	0.051
-495.581	-75.246	0.913	-0.328
-494.566	-104.946	-0.566	-0.130
-493.551	-27.208	0.256	0.150
-492.537	-168.077	0.741	-0.029
-491.522	318.234	0.235	-0.447
-490.508	-47.114	-0.651	0.319
-489.493	800.000	-0.136	0.382
-488.478	109.943	0.605	0.730
-487.464	144.839	-0.593	-0.797
-486.449	229.559	0.327	0.537
-485.435	-200.000	0.052	0.357
-484.420	-200.000	-0.018	0.582
-483.405	-200.000	-0.066	0.476
-482.391	-200.000	-0.019	-0.775
-481.376	-200.000	-0.086	-0.565
-480.362	39.412	0.442	0.398
-479.347	32.630	-0.384	0.334
-478.332	-86.833	-0.784	-0.241
-477.318	-200.000	0.137	-0.862
-476.303	608.393	-0.368	0.924
-475.289	110.454	0.047	0.057
-474.274	800.000	-0.104	0.404
-473.259	450.333	0.111	0.247
-472.245	-53.405	-0.442	-0.204
-471.230	64.399	-0.387	0.392
-470.216	-200.000	0.027	-0.634
-469.201	-87.851	-0.166	-0.050
-468.186	-22.171	0.249	-0.152
-467.172	168.020	-0.308	-0.440
-466.157	62.265	0.163	-0.163
-465.143	146.453	0.300	0.404
-464.128	-159.977	-0.734	-0.040
-463.113	-35.640	-0.263	0.143
-462.099	701.858	-0.013	0.034
-461.084	-129.182	-0.723	0.101
-460.070	-154.948	-0.983	0.065
-459.055	34.378	0.415	0.364
-458.040	-86.421	-0.365	-0.113
-457.026	635.586	-0.159	-0.406
-456.011	-200.000	0.011	-0.456
-454.997	-200.000	0.148	0.856
-453.982	-200.000	-0.029	-0.804
-452.968	237.783	0.537	0.894
-451.953	418.622	0.246	0.529
-450.938	275.741	-0.300	0.535
-449.924	-36.271	-0.302	-0.164
-448.909	-135.349	0.422	0.051
-447.895	-52.222	0.444	-0.206
-446.880	28.002	-0.272	-0.230
-445.865	141.576	0.476	0.633
-444.851	-200.000	-0.036	-0.167
-443.836	-146.978	0.441	-0.038
-442.822	-142.432	-0.204	0.020
-441.807	-200.000	-0.046	0.658
-440.792	71.068	0.762	0.792
-439.778	329.433	0.479	-0.925
-438.763	-145.513	-0.242	0.022
-437.749	-163.655	-0.653	-0.031
-436.734	229.854	0.672	-1.102
-435.719	-200.000	-0.121	-0.853
-434.705	-200.000	-0.032	-0.476
-433.690	-200.000	-0.045	-0.226
-432.676	146.154	-0.191	0.257
-431.661	86.641	0.568	-0.629
-430.646	-144.229	0.497	0.047
-429.632	-27.326	-1.002	-0.585
-428.617	27.094	-0.018	-0.015
-427.603	-54.129	-0.119	0.054
-426.588	44.712	0.112	0.103
-425.573	258.391	0.250	-0.433
-424.559	800.000	-0.161	-0.496
-423.544	557.339	0.260	-0.629
-422.530	-11.075	-0.922	0.610
-421.515	-14.909	0.448	-0.288
-420.500	253.698	0.263	-0.450
-419.486	-200.000	0.044	-0.345
-418.471	110.071	-0.202	-0.243
-417.457	800.000	-0.062	-0.206
-416.442	-35.174	-0.625	0.341
-415.428	202.104	-0.299	0.462
-414.413	-118.955	0.766	-0.135
-413.398	299.324	-0.170	0.314
-412.384	250.746	0.040	0.069
-411.369	15.019	0.128	0.100
-410.355	-123.423	0.508	0.081
-409.340	-92.457	0.235	-0.066
-408.325	-149.390	0.570	0.045
-407.311	-130.330	-0.920	-0.125
-406.296	-156.127	-0.560	-0.035
-405.282	-93.621	0.534	-0.148
-404.267	69.268	0.603	0.622
-403.252	-155.215	0.998	0.065
-402.238	-134.223	0.831	-0.103
-401.223	-131.870	-0.575	0.075
-400.209	-142.737	0.804	-0.079
-399.194	68.391	0.474	-0.487
-398.179	-104.872	-0.936	0.215
-397.165	27.986	0.413	0.349
-396.150	359.681	-0.298	0.597
-395.136	-120.649	1.019	0.173
-394.121	-119.245	-1.076	0.188
-393.106	165.548	0.262	-0.370
-392.092	461.081	-0.190	0.424
-391.077	-88.447	-0.212	0.063
-390.063	-45.577	0.293	0.145
-389.048	-200.000	0.081	-0.748
-388.033	-46.357	-0.713	-0.351
-387.019	6.101	0.091	0.068
-386.004	404.385	0.299	0.630
-384.990	628.817	-0.206	-0.521
-383.975	-200.000	0.050	0.444
-382.960	-161.847	0.408	0.021
-381.946	-31.747	-0.248	0.139
-380.931	58.369	-0.362	-0.356
-379.917	-75.883	0.741	0.263
-378.902	-43.215	0.405	0.205
-377.888	236.000	0.060	-0.099
-376.873	65.582	-0.469	0.476
-375.858	800.000	-0.165	-0.690
-374.844	-50.343	-0.533	-0.252
-373.829	323.939	0.256	0.488
-372.815	82.178	0.322	-0.349
-371.800	-200.000	0.029	0.586
-370.785	238.589	-0.062	0.104
-369.771	465.398	0.053	-0.118
-368.756	363.333	-0.288	-0.580
-367.742	-72.060	-0.819	0.305
-366.727	-200.000	-0.013	0.466
-365.712	-118.419	0.445	0.079
-364.698	800.000	-0.159	-0.577
-363.683	-78.028	0.164	-0.057
-362.669	-60.110	-0.703	-0.300
-361.654	-200.000	0.158	0.762
-360.639	-200.000	0.173	0.874
-359.625	477.528	0.077	0.174
-358.610	44.677	0.302	-0.278
-357.596	800.000	0.269	-0.868
-356.581	364.458	-0.049	-0.099
-355.566	-109.055	-0.631	-0.134
-354.552	490.624	-0.157	0.359
-353.537	22.405	-0.473	-0.387
-352.523	2.024	0.677	0.489
-351.508	125.794	-0.561	0.709
-350.493	-73.935	1.159	0.421
-349.479	359.775	-0.201	-0.402
-348.464	-160.566	1.014	-0.054
-347.450	288.274	0.251	-0.455
-346.435	31.081	0.421	-0.361
-345.420	-60.339	0.311	-0.132
-344.406	146.002	0.234	0.314
-343.391	78.187	-0.479	0.511
-342.377	-200.000	0.019	0.198
-341.362	307.409	-0.280	0.521
-340.348	-41.456	-0.259	-0.133
-339.333	-31.642	-0.469	-0.263
-338.318	-200.000	0.002	0.336
-337.304	-30.414	-0.230	0.130
-336.289	-81.855	0.547	0.179
-335.275	61.708	-0.596	0.593
-334.260	-61.912	-0.535	-0.224
-333.245	800.000	0.075	-0.297
-332.231	-123.116	-0.334	-0.053
-331.216	800.000	-0.128	-0.388
-330.202	156.054	-0.207	-0.285
-329.187	-200.000	-0.014	0.411
-328.172	-13.679	0.141	-0.091
-327.158	-22.417	-0.812	-0.492
-326.143	46.064	-0.291	-0.270
-325.129	-149.536	0.778	-0.061
-324.114	211.293	-0.252	0.396
-323.099	176.516	0.326	0.474
-322.085	224.643	-0.232	0.374
-321.070	-81.579	0.454	-0.149
-320.056	391.577	0.105	0.217
-319.041	-178.434	-0.601	0.014
-318.026	41.349	-0.338	-0.305
-317.012	9.295	-0.818	-0.618
-315.997	-10.771	-0.174	-0.115
-314.983	-59.680	-0.209	0.089
-313.968	114.878	0.138	0.168
-312.953	96.439	-0.207	-0.237
-311.939	-77.337	-0.542	0.188
-310.924	800.000	0.242	-0.912
-309.910	286.807	0.269	-0.484
-308.895	-200.000	0.037	-0.185
-307.880	-56.585	0.306	0.135
-306.866	-200.000	-0.447	0.001
-305.851	-63.643	-0.456	0.187
-304.837	-81.099	-0.552	0.182
-303.822	-200.000	-0.133	-1.624
-302.807	-3.959	-0.695	-0.481
-301.793	171.407	-0.133	0.190
-300.778	-20.104	0.677	0.417
-299.764	109.288	0.414	0.495
-298.749	207.654	-0.442	0.689
-297.735	-8.117	-0.468	-0.315
-296.720	-40.340	-0.356	0.185
-295.705	-26.591	-0.192	0.112
-294.691	-105.248	0.253	0.058
-293.676	-200.000	0.043	0.545
-292.662	-200.000	-0.044	-0.467
-291.647	473.137	0.103	-0.232
-290.632	260.732	-0.138	0.239
-289.618	-114.685	-0.694	-0.132
-288.603	0.453	0.284	-0.203
-287.589	-200.000	0.033	0.410
-286.574	-157.695	-0.819	-0.049
-285.559	195.274	0.191	-0.289
-284.545	-17.995	-0.223	0.140
-283.530	11.115	0.339	0.259
-282.516	-31.572	0.372	0.208
-281.501	548.064	0.104	0.248
-280.486	-157.719	-0.824	-0.049
-279.472	281.777	0.211	0.377
-278.457	7.898	-0.635	0.475
-277.443	-200.000	0.065	0.358
-276.428	-97.550	0.648	0.168
-275.413	-58.286	-0.575	-0.249
-274.399	762.853	-0.350	0.948
-273.384	-32.619	0.065	-0.036
-272.370	-59.273	0.435	-0.187
-271.355	17.947	0.317	0.252
-270.340	-106.564	-0.571	0.127
-269.326	19.936	-0.348	-0.280
-268.311	118.947	-0.154	-0.190
-267.297	-101.221	0.386	-0.094
-266.282	-126.016	0.588	-0.088
-265.267	133.292	0.089	-0.115
-264.253	-89.202	0.540	0.159
-263.238	133.507	0.047	0.061
-262.224	-64.339	-0.524	0.213
-261.209	-200.000	-0.009	0.119
-260.195	104.761	0.440	-0.517
-259.180	-28.790	-0.451	-0.258
-258.165	86.365	0.078	-0.086
-257.151	-185.291	-0.461	-0.007
-256.136	-91.522	0.130	-0.037
-255.122	800.000	-0.129	0.364
-254.107	-143.497	0.456	-0.043
-253.092	800.000	0.171	-0.555
-252.078	-78.267	0.313	-0.107
-251.063	590.820	-0.383	0.940
-250.049	-59.438	-0.486	-0.208
-249.034	-62.974	1.655	0.681
-248.019	-200.000	0.130	-0.664
-247.005	-35.128	-0.862	0.468
-245.990	-200.000	0.140	0.943
-244.976	800.000	-0.229	0.728
-243.961	-7.894	0.758	0.509
-242.946	-200.000	0.083	0.691
-241.932	-50.011	0.097	0.046
-240.917	-82.740	-0.873	-0.281
-239.903	-125.017	0.098	0.015
-238.888	-200.000	-0.140	0.612
-237.873	-104.032	-0.522	0.121
-236.859	-43.641	0.223	0.112
-235.844	-83.385	-0.676	-0.216
-234.830	-188.739	0.667	0.008
-233.815	67.920	0.451	0.459
-232.800	-200.000	0.164	0.746
-231.786	-144.290	0.480	0.045
-230.771	800.000	-0.203	-0.604
-229.757	193.995	0.199	0.300
-228.742	46.331	0.154	0.142
-227.727	778.283	0.168	-0.457
-226.713	7.718	-0.405	-0.302
-225.698	399.919	-0.096	0.199
-224.684	-77.793	-0.377	0.130
-223.669	800.000	0.090	-0.358
-222.655	800.000	0.058	-0.186
-221.640	-120.107	-0.706	0.120
-220.625	58.926	-0.182	-0.178
-219.611	67.271	0.270	-0.274
-218.596	135.356	-0.047	0.061
-217.582	-178.870	-0.663	-0.015
-216.567	87.957	-0.016	0.018
-215.552	82.437	0.336	0.363
-214.538	-161.101	-0.792	0.041
-213.523	-2.551	0.575	0.400
-212.509	-42.936	-0.232	-0.117
-211.494	-44.584	-0.592	-0.294
-210.479	-200.000	0.082	0.370
-209.465	-2.234	-0.565	0.394
-208.450	5.971	-0.525	-0.387
-207.436	335.519	0.324	0.625
-206.421	361.516	-0.236	0.471
-205.406	-200.000	-0.072	-0.492
-204.392	-200.000	0.077	-1.109
-203.377	-160.451	-0.256	-0.014
-202.363	-175.576	0.569	-0.015
-201.348	498.685	0.261	0.598
-200.333	-102.838	0.138	0.033
-199.319	-200.000	-0.045	-1.259
-198.304	-37.145	0.743	-0.396
-197.290	-92.556	1.074	-0.300
-196.275	597.957	-0.129	-0.317
-195.260	287.577	0.490	0.882
-194.246	-14.338	-0.427	-0.273
-193.231	96.519	0.561	-0.638
-192.217	-200.000	-0.162	0.723
-191.202	-65.735	0.325	-0.130
-190.187	-94.796	-0.468	-0.126
-189.173	-31.233	-0.482	0.270
-188.158	-7.854	-1.228	0.824
-187.144	293.357	-0.394	0.714
-186.129	-158.182	0.775	-0.045
-185.114	-159.165	-1.261	-0.071
-184.100	-200.000	0.312	-1.396
-183.085	90.519	-0.256	-0.285
-182.071	252.508	-0.250	0.423
-181.056	-149.164	0.497	0.040
-180.042	89.650	-0.436	0.484
-179.027	368.823	0.196	-0.394
-178.012	-141.029	1.006	0.102
-176.998	227.883	0.768	-1.242
-175.983	-200.000	0.004	0.288
-174.969	-111.397	-0.558	0.113
-173.954	-200.000	0.015	-0.351
-172.939	-200.000	-0.015	0.181
-171.925	14.065	1.237	-0.957
-170.910	-70.501	0.308	-0.116
-169.896	-200.000	0.009	0.153
-168.881	800.000	-0.238	-0.926
-167.866	-80.182	-0.565	-0.188
-166.852	-75.593	-0.389	-0.137
-165.837	800.000	-0.104	-0.433
-164.823	-200.000	0.014	0.205
-163.808	-77.849	0.850	0.291
-162.793	-200.000	-0.008	0.260
-161.779	365.449	-0.215	0.431
-160.764	-183.291	0.361	0.006
-159.750	800.000	0.124	-0.471
-158.735	-60.413	0.155	-0.065
-157.720	-43.466	-0.457	0.229
-156.706	800.000	0.301	-0.982
-155.691	-96.288	0.379	-0.100
-154.677	95.753	0.187	-0.212
-153.662	734.900	0.285	0.757
-152.647	27.011	0.528	-0.440
-151.633	126.763	-0.338	-0.426
-150.618	-134.512	1.147	0.139
-149.604	-200.000	0.025	0.232
-148.589	744.481	-0.363	-0.970
-147.574	-55.537	-0.713	0.317
-146.560	215.269	-0.409	0.644
-145.545	-76.530	0.535	0.187
-144.531	800.000	-0.068	-0.246
-143.516	228.471	-0.335	-0.541
-142.502	-46.454	0.467	-0.228
-141.487	-200.000	0.019	-0.426
-140.472	243.627	-0.451	-0.750
-139.458	800.000	0.236	-0.819
-138.443	-64.674	0.666	-0.268
-137.429	-37.022	-0.497	-0.264
-136.414	383.338	0.245	-0.500
-135.399	107.876	0.175	-0.207
-134.385	-71.461	0.366	0.136
-133.370	301.010	0.223	-0.408
-132.356	70.356	-0.220	-0.225
-131.341	231.922	-0.317	-0.515
-130.326	-44.469	-0.706	-0.350
-129.312	58.164	0.716	0.695
-128.297	-200.000	0.002	0.150
-127.283	-157.940	0.146	-0.009
-126.268	-77.366	0.306	0.105
-125.253	366.836	-0.148	-0.295
-124.239	-200.000	-0.011	0.174
-123.224	43.365	-0.362	-0.328
-122.210	-96.032	-0.551	0.145
