DTS Sentinel unit serial number:	SN413079Multiplexer serial number:	ORYXHardware model number:	OX4-SRSoftware version number:	ORYX F/W v4.00 Oryx Data Collector v3.7.2.0data status	okinstallation	princeton_trtdifferential loss correction	single-endedforward channel	channel 4reverse channel	N/Adate	2019/09/19time	12:13:34forward acquisition time	60.00reverse acquisition time	0.00gamma	496.2192k internal	0.2324k external	0.2324temperature offset calibration	1.0015default loss term (dB/km)	0.3790temperature slope calibration	1.0000multiplexer offset coefficient	1.0000multiplexer slope coefficient	1.0000fibre end	0.00T internal ref (°C)	26.42T ext. ref 1 (°C)	0.86T ext. ref 2 (°C)	23.19length (m)	temperature (°C)	Stokes	anti-Stokes-747.200	-200.000	0.047	0.244
-746.185	-177.333	-0.612	0.015
-745.171	-32.801	0.180	-0.101
-744.156	262.390	-0.109	0.190
-743.142	-24.734	0.331	0.199
-742.127	296.836	0.154	0.285
-741.112	-200.000	-0.087	0.524
-740.098	594.955	-0.128	0.321
-739.083	-200.000	0.050	0.221
-738.069	-34.044	0.266	0.147
-737.054	230.047	0.126	0.208
-736.039	-35.055	-0.070	-0.039
-735.025	-186.627	0.325	-0.005
-734.010	-200.000	0.003	0.017
-732.996	-200.000	-0.000	-0.011
-731.981	-142.690	0.167	0.016
-730.966	-200.000	0.023	-0.312
-729.952	-200.000	-0.016	-0.175
-728.937	-154.115	-0.192	0.013
-727.923	598.717	0.114	-0.285
-726.908	-136.019	-0.291	0.034
-725.894	-200.000	-0.013	0.156
-724.879	15.712	-0.216	0.171
-723.864	-48.396	0.338	-0.164
-722.850	-200.000	0.006	0.039
-721.835	-49.935	-0.460	-0.220
-720.821	800.000	-0.048	0.188
-719.806	49.361	-0.236	0.224
-718.791	-66.738	-0.448	-0.179
-717.777	76.385	0.116	-0.124
-716.762	-7.145	-0.302	0.206
-715.748	702.462	-0.063	-0.166
-714.733	-33.273	0.162	-0.090
-713.718	448.684	0.089	0.198
-712.704	141.704	0.103	-0.137
-711.689	-63.553	-0.079	0.033
-710.675	-16.018	-0.139	0.089
-709.660	182.578	0.159	-0.236
-708.645	320.740	0.063	0.120
-707.631	-9.249	-0.032	0.021
-706.616	-41.174	-0.050	0.026
-705.602	-72.260	-0.190	-0.071
-704.587	-37.286	0.226	0.122
-703.572	53.999	-0.194	0.188
-702.558	-200.000	-0.007	0.256
-701.543	-158.877	0.413	0.024
-700.529	-53.462	-0.250	-0.115
-699.514	-200.000	-0.025	-0.487
-698.499	-200.000	0.018	-0.104
-697.485	-112.167	0.257	-0.052
-696.470	-108.032	0.107	0.023
-695.456	-43.568	-0.120	-0.061
-694.441	-200.000	0.061	-0.411
-693.426	453.186	-0.111	-0.248
-692.412	-190.874	0.122	0.001
-691.397	-155.041	0.155	0.010
-690.383	222.952	-0.104	0.169
-689.368	-200.000	0.019	0.283
-688.354	-68.133	-0.151	-0.059
-687.339	-104.346	0.214	0.050
-686.324	-35.051	0.209	0.115
-685.310	17.432	-0.095	-0.076
-684.295	-65.781	-0.466	-0.188
-683.281	112.486	-0.038	0.047
-682.266	-200.000	-0.012	-0.147
-681.251	-200.000	0.010	0.221
-680.237	-200.000	-0.024	-0.180
-679.222	-81.526	-0.368	-0.122
-678.208	-200.000	0.023	-0.386
-677.193	-200.000	0.029	-0.286
-676.178	-133.823	0.307	0.039
-675.164	-108.345	0.370	-0.080
-674.149	-200.000	-0.026	0.198
-673.135	298.899	0.080	-0.149
-672.120	-43.266	0.285	0.145
-671.105	-17.293	-0.192	0.122
-670.091	-133.467	0.126	0.016
-669.076	-64.068	0.238	-0.098
-668.062	-37.914	-0.237	0.127
-667.047	-105.552	-0.303	-0.069
-666.032	-118.664	0.275	-0.049
-665.018	-8.698	-0.144	-0.097
-664.003	-169.342	0.079	0.003
-662.989	-200.000	0.005	-0.268
-661.974	165.776	-0.247	-0.352
-660.959	60.477	-0.099	-0.099
-659.945	-145.874	0.276	-0.025
-658.930	449.990	-0.054	0.121
-657.916	182.567	-0.147	0.218
-656.901	790.379	-0.074	0.205
-655.886	278.782	-0.143	-0.257
-654.872	-154.095	0.194	-0.013
-653.857	-200.000	0.017	0.176
-652.843	293.815	-0.049	-0.090
-651.828	-52.022	-0.137	0.064
-650.814	79.213	0.190	-0.205
-649.799	62.628	0.278	-0.280
-648.784	49.076	-0.071	-0.067
-647.770	800.000	0.053	0.185
-646.755	623.242	-0.079	-0.199
-645.741	333.305	0.061	-0.119
-644.726	-200.000	0.047	0.210
-643.711	168.514	-0.075	0.107
-642.697	-200.000	0.000	-0.389
-641.682	-156.608	-0.186	-0.012
-640.668	-119.099	-0.270	-0.047
-639.653	136.208	-0.191	-0.250
-638.638	-45.344	0.227	0.113
-637.624	-109.012	-0.292	-0.063
-636.609	800.000	-0.025	-0.077
-635.595	90.188	-0.222	-0.249
-634.580	-166.606	-0.167	-0.007
-633.565	270.749	0.228	-0.404
-632.551	84.600	-0.232	-0.255
-631.536	-121.113	-0.076	0.013
-630.522	-129.130	-0.334	0.047
-629.507	-200.000	0.011	0.122
-628.492	82.983	0.211	0.231
-627.478	54.984	-0.299	-0.290
-626.463	105.008	0.059	0.070
-625.449	-57.964	0.207	-0.091
-624.434	-90.711	-0.089	0.026
-623.419	-118.182	0.235	0.042
-622.405	170.989	0.086	-0.124
-621.390	382.288	-0.103	0.213
-620.376	397.387	-0.069	-0.146
-619.361	74.816	-0.097	-0.102
-618.346	-200.000	0.034	-0.323
-617.332	-104.028	-0.377	0.088
-616.317	-200.000	0.012	-0.461
-615.303	-34.173	0.202	-0.112
-614.288	160.780	0.173	-0.243
-613.273	133.005	-0.060	-0.078
-612.259	59.888	0.168	-0.167
-611.244	693.323	-0.079	-0.209
-610.230	-200.000	0.011	0.207
-609.215	608.349	0.067	0.168
-608.201	105.747	-0.160	-0.190
-607.186	-109.372	0.274	-0.058
-606.171	-200.000	0.017	0.144
-605.157	646.660	-0.005	0.013
-604.142	800.000	-0.131	0.463
-603.128	345.124	0.113	0.222
-602.113	800.000	0.055	-0.238
-601.098	-7.825	-0.314	0.213
-600.084	1.792	0.168	-0.122
-599.069	218.409	0.139	0.223
-598.055	653.673	-0.127	-0.327
-597.040	-85.869	-0.155	0.048
-596.025	-14.494	0.040	0.026
-595.011	800.000	0.074	0.251
-593.996	800.000	0.061	-0.239
-592.982	-157.729	-0.178	0.011
-591.967	-30.616	-0.321	0.183
-590.952	-112.282	0.138	0.028
-589.938	306.938	-0.171	-0.320
-588.923	-200.000	0.008	0.373
-587.909	-64.993	0.272	0.110
-586.894	607.864	-0.010	0.024
-585.879	-81.641	-0.080	-0.026
-584.865	177.864	-0.115	-0.169
-583.850	-124.561	0.214	-0.033
-582.836	33.402	-0.074	0.064
-581.821	-200.000	0.009	0.056
-580.806	800.000	-0.073	0.218
-579.792	-149.603	-0.245	-0.019
-578.777	800.000	-0.135	-0.395
-577.763	15.229	0.079	-0.062
-576.748	-53.359	-0.058	0.026
-575.733	180.290	0.106	0.156
-574.719	-200.000	-0.018	-0.497
-573.704	-75.663	-0.413	-0.147
-572.690	202.913	0.126	0.195
-571.675	-138.309	0.253	-0.028
-570.661	256.494	-0.071	0.123
-569.646	-46.860	-0.219	0.107
-568.631	123.664	-0.047	-0.060
-567.617	24.380	-0.321	-0.266
-566.602	-7.128	-0.129	-0.088
-565.588	72.687	-0.220	-0.231
-564.573	800.000	-0.030	0.090
-563.558	323.168	0.063	-0.120
-562.544	216.104	0.167	0.265
-561.529	-93.359	-0.376	-0.105
-560.515	6.576	0.202	0.151
-559.500	583.370	-0.019	0.047
-558.485	-200.000	-0.019	-0.324
-557.471	355.554	0.019	-0.038
-556.456	109.497	0.141	0.169
-555.442	-47.100	0.277	0.135
-554.427	726.198	0.031	0.083
-553.412	34.417	-0.143	0.125
-552.398	27.558	0.159	0.134
-551.383	-200.000	-0.004	0.216
-550.369	19.589	-0.293	-0.236
-549.354	-200.000	0.000	-0.025
-548.339	1.215	-0.129	0.093
-547.325	52.013	-0.219	0.209
-546.310	-200.000	0.070	-0.330
-545.296	-22.309	0.106	0.064
-544.281	-28.793	-0.054	0.031
-543.266	-94.496	0.178	0.049
-542.252	-168.416	-0.115	0.004
-541.237	24.074	0.226	0.187
-540.223	90.471	-0.222	0.248
-539.208	7.439	-0.130	0.097
-538.193	507.676	0.034	0.078
-537.179	-200.000	0.007	-0.084
-536.164	-80.512	0.280	-0.093
-535.150	42.399	0.090	0.082
-534.135	301.493	-0.048	-0.088
-533.121	-200.000	0.049	0.373
-532.106	-64.765	-0.162	-0.066
-531.091	800.000	-0.012	0.048
-530.077	800.000	-0.015	-0.057
-529.062	-136.059	0.284	-0.033
-528.048	-191.999	0.020	-0.000
-527.033	-45.360	-0.225	-0.112
-526.018	390.944	-0.215	0.446
-525.004	72.903	-0.109	0.114
-523.989	-140.936	0.479	-0.049
-522.975	-161.289	-0.277	-0.014
-521.960	250.127	-0.149	-0.254
-520.945	-83.179	-0.305	-0.098
-519.931	-200.000	0.055	-0.318
-518.916	78.459	-0.083	-0.088
-517.902	-200.000	-0.002	-0.116
-516.887	8.914	-0.304	-0.229
-515.872	124.687	0.105	0.133
-514.858	-200.000	0.001	0.054
-513.843	490.203	-0.074	0.170
-512.829	-133.565	0.343	-0.043
-511.814	-108.930	0.184	0.039
-510.799	407.531	-0.112	0.238
-509.785	-200.000	-0.019	-0.217
-508.770	-24.420	0.105	-0.062
-507.756	800.000	0.038	0.146
-506.741	188.317	0.048	-0.071
-505.726	-200.000	0.033	0.149
-504.712	-100.845	0.121	-0.030
-503.697	-53.955	-0.404	0.184
-502.683	175.976	0.025	-0.036
-501.668	-27.446	-0.086	-0.050
-500.653	-200.000	-0.009	0.121
-499.639	-200.000	0.061	0.311
-498.624	-83.439	0.054	-0.017
-497.610	-38.428	-0.275	0.146
-496.595	41.582	0.212	0.192
-495.581	-55.018	0.291	0.131
-494.566	224.033	0.080	0.129
-493.551	800.000	-0.064	-0.271
-492.537	-84.731	-0.119	-0.038
-491.522	-126.807	0.259	-0.038
-490.508	225.613	0.324	0.525
-489.493	-107.557	0.218	-0.048
-488.478	-144.382	-0.418	-0.039
-487.464	-62.940	0.128	0.053
-486.449	-200.000	-0.001	-0.117
-485.435	-200.000	-0.003	0.232
-484.420	105.411	0.223	-0.263
-483.405	-17.089	-0.065	-0.041
-482.391	800.000	-0.063	0.254
-481.376	-50.276	-0.380	0.180
-480.362	-128.644	0.066	0.009
-479.347	-35.819	-0.119	0.064
-478.332	-198.613	0.156	0.001
-477.318	800.000	0.046	-0.169
-476.303	-181.108	-0.066	0.001
-475.289	169.711	0.149	0.213
-474.274	-108.336	0.366	0.079
-473.259	-200.000	0.022	-0.115
-472.245	-200.000	-0.049	-0.291
-471.230	800.000	-0.080	-0.288
-470.216	-114.143	0.206	-0.040
-469.201	61.196	-0.158	-0.156
-468.186	113.280	0.178	-0.216
-467.172	287.359	-0.091	-0.164
-466.157	395.897	0.094	0.195
-465.143	-200.000	0.004	-0.148
-464.128	-78.900	-0.211	-0.072
-463.113	-200.000	0.040	-0.190
-462.099	-0.906	-0.182	0.129
-461.084	-200.000	-0.049	-0.261
-460.070	-7.171	-0.158	0.107
-459.055	191.149	-0.105	-0.158
-458.040	-80.529	-0.069	0.023
-457.026	338.877	-0.059	-0.115
-456.011	-76.181	-0.288	-0.101
-454.997	-76.272	0.174	-0.061
-453.982	799.479	0.122	-0.337
-452.968	20.536	-0.194	0.157
-451.953	800.000	0.141	0.499
-450.938	-200.000	-0.040	0.192
-449.924	-60.588	-0.123	-0.052
-448.909	185.998	0.115	0.171
-447.895	493.826	0.055	0.127
-446.880	-200.000	-0.053	0.237
-445.865	-132.649	-0.165	0.021
-444.851	34.014	-0.185	0.161
-443.836	-200.000	-0.021	-0.240
-442.822	53.338	-0.092	0.088
-441.807	52.670	-0.221	0.210
-440.792	-13.660	0.181	0.117
-439.778	-27.571	-0.035	-0.020
-438.763	-134.501	0.109	-0.013
-437.749	45.582	-0.268	-0.247
-436.734	800.000	0.061	-0.190
-435.719	-200.000	-0.041	0.417
-434.705	-200.000	0.023	-0.222
-433.690	-162.873	0.064	-0.003
-432.676	51.970	0.022	0.021
-431.661	483.040	0.146	-0.330
-430.646	-191.834	0.080	-0.001
-429.632	-65.640	-0.274	0.110
-428.617	15.429	0.097	0.076
-427.603	-57.226	0.101	0.044
-426.588	373.893	0.081	-0.165
-425.573	201.823	-0.067	0.102
-424.559	133.578	-0.205	0.264
-423.544	-128.923	-0.186	0.026
-422.530	-200.000	-0.008	0.084
-421.515	-200.000	0.094	0.518
-420.500	206.757	0.128	0.199
-419.486	-166.608	-0.221	0.009
-418.471	249.093	0.065	-0.109
-417.457	28.142	-0.230	-0.194
-416.442	800.000	-0.015	0.061
-415.428	36.473	0.289	-0.254
-414.413	82.862	0.112	-0.121
-413.398	-116.155	-0.183	0.034
-412.384	-82.347	0.322	-0.104
-411.369	-200.000	-0.001	0.177
-410.355	26.756	-0.130	-0.108
-409.340	-107.971	-0.229	0.050
-408.325	6.426	-0.041	-0.031
-407.311	443.169	0.085	0.185
-406.296	-30.277	0.067	-0.038
-405.282	-10.492	-0.341	0.225
-404.267	-109.262	-0.302	0.064
-403.252	68.746	0.155	0.159
-402.238	106.657	0.243	-0.287
-401.223	-161.993	0.342	0.017
-400.209	-62.505	0.369	0.153
-399.194	137.216	-0.046	-0.060
-398.179	-200.000	0.041	0.205
-397.165	-53.251	0.131	-0.060
-396.150	61.613	0.107	0.106
-395.136	2.659	0.275	0.198
-394.121	127.378	-0.209	0.264
-393.106	326.537	0.035	-0.066
-392.092	-200.000	0.053	0.311
-391.077	65.084	-0.087	-0.087
-390.063	-99.170	-0.256	-0.065
-389.048	481.273	0.126	0.284
-388.033	118.906	-0.143	-0.175
-387.019	-6.857	-0.207	-0.140
-386.004	-200.000	-0.075	0.408
-384.990	-13.480	0.163	-0.105
-383.975	-124.081	-0.142	0.022
-382.960	-200.000	-0.015	0.231
-381.946	380.464	-0.071	-0.145
-380.931	6.041	0.090	-0.067
-379.917	-16.524	0.278	0.175
-378.902	800.000	-0.087	0.316
-377.888	-64.105	-0.185	-0.075
-376.873	-103.758	0.276	-0.064
-375.858	-130.013	-0.267	0.036
-374.844	-99.487	0.133	0.033
-373.829	-200.000	-0.012	-0.186
-372.815	153.780	-0.076	0.104
-371.800	-12.250	-0.076	0.049
-370.785	134.018	-0.135	-0.174
-369.771	-41.092	0.073	-0.037
-368.756	36.692	0.080	-0.070
-367.742	-160.908	-0.424	0.022
-366.727	-69.378	0.328	0.125
-365.712	-200.000	0.053	0.241
-364.698	-122.210	0.196	0.032
-363.683	800.000	-0.058	0.228
-362.669	-43.765	-0.099	0.050
-361.654	-200.000	0.017	0.126
-360.639	-174.115	-0.271	-0.008
-359.625	54.081	-0.218	0.208
-358.610	-16.857	0.265	-0.167
-357.596	-95.932	-0.209	0.055
-356.581	166.720	-0.057	-0.081
-355.566	566.652	0.116	-0.280
-354.552	-47.946	0.239	-0.115
-353.537	-76.527	-0.135	0.047
-352.523	-136.669	-0.231	-0.027
-351.508	-46.522	0.312	0.152
-350.493	626.509	0.112	0.282
-349.479	-86.604	0.336	-0.102
-348.464	79.204	-0.270	-0.287
-347.450	800.000	0.097	0.296
-346.435	192.161	-0.220	-0.329
-345.420	-112.060	0.134	0.027
-344.406	-49.253	-0.266	0.126
-343.391	-42.444	0.363	0.184
-342.377	-101.729	-0.267	0.064
-341.362	195.386	-0.144	-0.218
-340.348	-104.948	0.185	0.042
-339.333	800.000	-0.064	-0.193
-338.318	-145.342	-0.137	-0.012
-337.304	-112.961	0.136	0.027
-336.289	74.326	0.320	0.334
-335.275	448.792	-0.102	-0.224
-334.260	722.257	0.089	0.235
-333.245	38.902	0.177	0.157
-332.231	-139.893	-0.059	-0.006
-331.216	-31.006	-0.238	0.133
-330.202	-161.872	-0.047	-0.002
-329.187	-91.935	0.187	-0.053
-328.172	800.000	-0.100	-0.339
-327.158	35.515	-0.085	-0.074
-326.143	-32.033	-0.283	-0.157
-325.129	-139.061	0.160	0.017
-324.114	-1.533	0.223	0.156
-323.099	800.000	-0.045	-0.193
-322.085	-15.513	0.252	-0.160
-321.070	800.000	-0.059	0.226
-320.056	-113.711	-0.176	0.034
-319.041	-82.930	0.108	-0.034
-318.026	-76.837	-0.123	-0.043
-317.012	-2.730	-0.163	-0.113
-315.997	89.819	0.198	-0.219
-314.983	187.426	-0.055	0.081
-313.968	189.012	-0.030	-0.045
-312.953	-127.827	-0.236	0.034
-311.939	-200.000	0.027	-0.240
-310.924	-30.280	0.049	0.028
-309.910	503.140	-0.093	-0.215
-308.895	-200.000	-0.022	0.100
-307.880	37.245	-0.327	0.287
-306.866	-200.000	0.045	0.415
-305.851	-123.194	-0.115	-0.018
-304.837	-200.000	-0.027	-0.162
-303.822	78.758	0.120	0.127
-302.807	2.399	0.136	-0.098
-301.793	356.944	-0.076	0.149
-300.778	-46.879	0.197	0.096
-299.764	251.776	0.109	-0.183
-298.749	174.166	-0.164	-0.235
-297.735	-121.197	0.329	-0.055
-296.720	-26.775	0.129	-0.075
-295.705	-117.038	0.112	0.020
-294.691	186.852	0.108	0.159
-293.676	-200.000	-0.043	0.366
-292.662	-200.000	0.012	-0.119
-291.647	-85.056	-0.166	0.051
-290.632	-61.410	-0.178	0.074
-289.618	6.995	0.218	0.161
-288.603	-133.412	-0.367	-0.046
-287.589	437.082	-0.061	0.131
-286.574	-0.995	0.122	0.086
-285.559	800.000	0.047	-0.190
-284.545	18.582	-0.070	-0.055
-283.530	0.412	0.261	-0.185
-282.516	-2.174	0.242	-0.168
-281.501	-200.000	0.010	0.198
-280.486	98.198	0.151	0.173
-279.472	-200.000	-0.026	0.317
-278.457	159.257	-0.189	0.260
-277.443	119.710	0.067	-0.083
-276.428	-63.944	0.205	-0.083
-275.413	755.694	0.070	0.187
-274.399	800.000	-0.059	-0.235
-273.384	-115.191	-0.137	0.026
-272.370	72.540	0.130	0.135
-271.355	-200.000	-0.113	-0.000
-270.340	29.923	-0.069	0.058
-269.326	-34.466	0.030	0.016
-268.311	97.243	-0.038	-0.044
-267.297	163.305	0.080	-0.111
-266.282	-56.615	-0.067	-0.029
-265.267	57.662	0.153	-0.148
-264.253	-70.926	-0.365	-0.136
-263.238	-143.043	-0.279	-0.027
-262.224	33.496	-0.163	0.140
-261.209	-37.496	-0.129	-0.068
-260.195	108.058	0.207	0.244
-259.180	353.072	-0.031	0.060
-258.165	-47.528	0.353	-0.170
-257.151	-200.000	-0.001	0.148
-256.136	-27.334	0.179	-0.103
-255.122	-200.000	-0.008	-0.231
-254.107	800.000	-0.052	-0.198
-253.092	800.000	0.044	-0.159
-252.078	-19.336	0.113	-0.069
-251.063	284.094	-0.120	-0.215
-250.049	-200.000	0.004	-0.232
-249.034	147.548	0.076	-0.101
-248.019	-200.000	0.053	-0.344
-247.005	-32.342	0.322	0.178
-245.990	205.540	-0.037	-0.057
-244.976	45.728	-0.102	0.094
-243.961	0.287	-0.065	-0.046
-242.946	66.133	0.210	-0.211
-241.932	46.157	-0.118	0.108
-240.917	8.475	-0.205	-0.152
-239.903	-200.000	0.012	0.223
-238.888	-58.180	-0.267	-0.115
-237.873	680.922	-0.071	0.183
-236.859	800.000	-0.091	0.282
-235.844	188.940	0.130	0.192
-234.830	-185.631	-0.346	0.005
-233.815	46.625	-0.186	0.171
-232.800	-114.918	0.217	-0.041
-231.786	-200.000	0.020	-0.118
-230.771	-200.000	0.031	-0.453
-229.757	-148.794	0.347	0.028
-228.742	-200.000	-0.056	-0.298
-227.727	49.844	0.231	-0.216
-226.713	800.000	0.041	-0.141
-225.698	179.034	0.117	-0.169
-224.684	81.468	-0.240	-0.256
-223.669	-77.629	0.112	0.039
-222.655	-88.745	0.332	0.098
-221.640	-97.121	0.167	0.043
-220.625	-86.382	0.309	0.094
-219.611	190.919	0.260	-0.387
-218.596	242.139	-0.104	0.172
-217.582	-200.000	0.007	-0.250
-216.567	-27.844	0.248	-0.142
-215.552	-10.654	-0.143	-0.093
-214.538	800.000	0.041	-0.171
-213.523	-31.272	0.021	-0.012
-212.509	105.983	-0.064	0.075
-211.494	-200.000	0.016	-0.227
-210.479	-38.074	0.353	-0.185
-209.465	-200.000	-0.036	0.163
-208.450	800.000	-0.018	0.061
-207.436	-158.791	0.208	-0.012
-206.421	0.988	-0.136	0.096
-205.406	-37.297	0.365	-0.193
-204.392	800.000	0.112	0.346
-203.377	-149.834	0.236	-0.018
-202.363	-108.805	0.176	-0.037
-201.348	-121.293	0.107	-0.018
-200.333	-190.106	-0.271	-0.003
-199.319	236.067	0.055	-0.089
-198.304	414.768	0.139	-0.293
-197.290	-200.000	-0.010	-0.047
-196.275	-43.533	-0.202	-0.101
-195.260	800.000	0.034	0.099
-194.246	-42.548	0.364	0.183
-193.231	800.000	0.113	0.462
-192.217	-35.258	0.082	0.044
-191.202	-188.487	0.165	0.002
-190.187	281.690	0.078	-0.138
-189.173	184.465	-0.065	0.095
-188.158	-172.744	0.072	0.002
-187.144	278.967	0.110	-0.193
-186.129	-200.000	0.039	0.229
-185.114	60.194	-0.245	-0.239
-184.100	312.306	0.074	-0.137
-183.085	-117.937	-0.034	-0.006
-182.071	138.004	0.056	0.072
-181.056	-200.000	-0.007	0.089
-180.042	-200.000	0.042	0.267
-179.027	281.724	0.056	-0.099
-178.012	-90.752	0.231	0.066
-176.998	262.386	-0.117	-0.200
-175.983	100.824	0.311	0.357
-174.969	98.157	-0.023	0.026
-173.954	25.932	0.084	0.069
-172.939	248.145	0.117	0.195
-171.925	212.951	-0.150	0.233
-170.910	451.683	-0.096	-0.210
-169.896	-20.279	-0.235	0.143
-168.881	112.894	-0.187	0.223
-167.866	-200.000	-0.001	-0.077
-166.852	-200.000	0.026	-0.267
-165.837	48.127	0.145	-0.134
-164.823	-200.000	-0.001	0.378
-163.808	90.570	0.166	-0.184
-162.793	-115.857	-0.259	-0.048
-161.779	-56.104	0.507	-0.223
-160.764	800.000	-0.037	-0.161
-159.750	-96.652	-0.201	-0.052
-158.735	-20.172	0.170	0.103
-157.720	-67.759	-0.204	0.079
-156.706	-127.572	-0.387	0.055
-155.691	-159.694	0.062	0.003
-154.677	800.000	-0.032	-0.091
-153.662	-34.967	0.180	-0.097
-152.647	-88.950	-0.222	-0.065
-151.633	-200.000	-0.078	0.552
-150.618	-67.618	0.140	-0.054
-149.604	-18.424	0.243	-0.149
-148.589	-18.814	0.109	0.067
-147.574	800.000	0.024	-0.091
-146.560	-99.535	0.231	-0.057
-145.545	5.557	0.071	0.052
-144.531	-151.923	0.106	0.008
-143.516	46.467	0.159	-0.145
-142.502	-121.817	0.245	0.040
-141.487	800.000	-0.034	0.097
-140.472	-8.470	0.251	-0.166
-139.458	-100.355	0.221	0.054
-138.443	320.471	0.070	-0.131
-137.429	-88.392	0.303	-0.089
-136.414	-200.000	0.026	-0.188
-135.399	-87.120	0.273	0.082
-134.385	282.136	-0.102	0.180
-133.370	-200.000	0.013	-0.286
-132.356	312.790	-0.089	-0.165
-131.341	180.285	0.081	0.117
-130.326	111.281	0.307	0.364
-129.312	1.145	-0.263	-0.186
-128.297	-200.000	-0.021	-0.290
-127.283	800.000	0.075	-0.216
-126.268	-111.016	-0.378	-0.077
-125.253	-56.715	-0.250	-0.109
-124.239	62.490	0.046	-0.046
-123.224	-200.000	0.044	-0.248
-122.210	208.066	-0.130	0.200
