DTS Sentinel unit serial number:	SN413079Multiplexer serial number:	ORYXHardware model number:	OX4-SRSoftware version number:	ORYX F/W v4.00 Oryx Data Collector v3.7.2.0data status	okinstallation	princeton_trtdifferential loss correction	single-endedforward channel	channel 4reverse channel	N/Adate	2019/09/12time	12:59:11forward acquisition time	60.00reverse acquisition time	0.00gamma	496.2192k internal	0.2287k external	0.2287temperature offset calibration	1.0074default loss term (dB/km)	0.3790temperature slope calibration	1.0000multiplexer offset coefficient	1.0000multiplexer slope coefficient	1.0000fibre end	0.00T internal ref (°C)	40.89T ext. ref 1 (°C)	2.06T ext. ref 2 (°C)	37.40length (m)	temperature (°C)	Stokes	anti-Stokes-747.200	-59.569	-0.267	0.117
-746.185	82.805	-0.262	0.292
-745.171	-200.000	-0.074	0.398
-744.156	207.336	0.071	-0.113
-743.142	45.271	-0.232	0.220
-742.127	-132.649	-0.156	-0.020
-741.112	553.053	0.126	0.311
-740.098	504.935	-0.128	0.304
-739.083	415.394	-0.037	0.081
-738.069	121.595	0.121	0.154
-737.054	800.000	0.004	0.019
-736.039	-200.000	0.046	0.229
-735.025	-178.944	0.575	0.013
-734.010	473.453	-0.041	0.096
-732.996	-82.934	-0.216	-0.071
-731.981	134.813	-0.135	0.180
-730.966	-92.196	0.071	-0.020
-729.952	-200.000	0.030	0.161
-728.937	-170.558	-0.162	0.006
-727.923	63.084	-0.236	0.242
-726.908	275.688	-0.155	-0.282
-725.894	-183.381	-0.125	-0.002
-724.879	800.000	0.024	0.082
-723.864	241.063	-0.070	0.119
-722.850	-88.445	-0.438	-0.134
-721.835	800.000	0.093	-0.356
-720.821	264.216	-0.054	0.097
-719.806	-131.543	-0.162	0.022
-718.791	-200.000	-0.028	0.174
-717.777	250.746	0.115	0.200
-716.762	366.557	0.028	-0.057
-715.748	28.722	0.272	-0.236
-714.733	-20.923	0.235	0.147
-713.718	94.775	0.311	-0.362
-712.704	-154.419	0.317	-0.022
-711.689	-27.214	0.029	0.017
-710.675	171.475	0.110	0.162
-709.660	-42.467	-0.171	0.089
-708.645	-93.824	-0.445	0.126
-707.631	-51.824	0.124	0.059
-706.616	-200.000	0.074	0.337
-705.602	-41.561	0.203	-0.107
-704.587	-200.000	-0.008	-0.101
-703.572	455.260	-0.052	0.117
-702.558	-6.503	-0.076	-0.053
-701.543	800.000	-0.034	0.130
-700.529	-49.576	-0.351	0.171
-699.514	-163.827	0.191	0.009
-698.499	-77.583	-0.219	0.078
-697.485	-65.770	-0.247	-0.101
-696.470	-200.000	0.015	-0.180
-695.456	-120.642	0.156	0.027
-694.441	-5.316	-0.148	-0.104
-693.426	337.838	-0.113	-0.225
-692.412	-200.000	0.009	-0.275
-691.397	-34.459	0.481	0.270
-690.383	-200.000	-0.038	-0.329
-689.368	-200.000	0.005	0.163
-688.354	113.885	-0.127	-0.157
-687.339	-32.821	0.346	-0.197
-686.324	260.358	-0.130	-0.231
-685.310	-112.950	-0.403	-0.082
-684.295	800.000	-0.038	-0.138
-683.281	421.385	0.040	0.087
-682.266	-49.151	0.138	-0.068
-681.251	-124.940	0.150	-0.024
-680.237	33.262	-0.170	0.151
-679.222	-105.917	0.300	0.069
-678.208	254.147	0.177	-0.310
-677.193	-92.052	0.030	0.009
-676.178	-200.000	-0.027	0.328
-675.164	714.188	-0.135	0.367
-674.149	-35.626	0.184	0.102
-673.135	-52.832	0.164	-0.077
-672.120	-200.000	-0.044	0.257
-671.105	232.375	0.152	-0.255
-670.091	23.661	-0.139	0.117
-669.076	-12.927	-0.173	-0.115
-668.062	-94.909	-0.183	0.051
-667.047	234.140	-0.027	-0.046
-666.032	800.000	-0.044	0.127
-665.018	9.936	0.142	0.110
-664.003	189.010	-0.122	-0.187
-662.989	-97.326	-0.232	-0.062
-661.974	-161.236	-0.214	0.011
-660.959	-50.119	-0.101	0.049
-659.945	-97.349	-0.123	-0.033
-658.930	-83.981	-0.250	0.081
-657.916	-200.000	0.052	0.000
-656.901	15.752	0.100	-0.081
-655.886	23.381	-0.189	0.159
-654.872	-52.620	0.334	-0.158
-653.857	-47.175	0.197	0.098
-652.843	-200.000	0.033	0.255
-651.828	-190.518	0.052	0.001
-650.814	-200.000	0.007	0.074
-649.799	8.726	-0.256	-0.197
-648.784	757.611	-0.125	-0.345
-647.770	777.131	0.104	-0.291
-646.755	800.000	0.052	0.186
-645.741	-46.294	0.030	-0.015
-644.726	-24.693	-0.255	0.155
-643.711	-75.788	0.243	-0.088
-642.697	20.792	-0.118	-0.098
-641.682	22.890	-0.166	-0.139
-640.668	-64.843	0.254	-0.105
-639.653	-40.662	-0.390	-0.207
-638.638	-200.000	0.046	-0.271
-637.624	-200.000	0.255	-0.000
-636.609	66.400	0.088	0.091
-635.595	-200.000	-0.009	0.045
-634.580	-153.408	0.294	0.021
-633.565	-117.317	0.217	-0.040
-632.551	-119.041	-0.232	0.041
-631.536	-109.681	0.075	0.016
-630.522	-7.768	0.170	-0.117
-629.507	-126.786	-0.127	0.019
-628.492	59.050	0.175	0.176
-627.478	-200.000	-0.017	-0.215
-626.463	-1.644	0.138	0.099
-625.449	-121.127	-0.315	0.054
-624.434	107.709	0.022	0.026
-623.419	-200.000	0.025	0.187
-622.405	-3.706	0.422	0.300
-621.390	80.260	-0.162	-0.178
-620.376	800.000	-0.091	-0.257
-619.361	0.419	0.116	0.085
-618.346	-200.000	-0.008	-0.154
-617.332	467.413	0.038	0.087
-616.317	-200.000	-0.048	-0.216
-615.303	435.627	0.148	0.329
-614.288	-168.118	0.041	-0.002
-613.273	176.155	0.121	-0.180
-612.259	19.476	0.104	-0.086
-611.244	596.005	0.098	-0.248
-610.230	153.982	0.137	-0.192
-609.215	-38.651	0.155	-0.083
-608.201	-152.171	-0.213	-0.016
-607.186	800.000	-0.038	0.156
-606.171	-58.149	0.295	-0.131
-605.157	612.017	0.123	-0.313
-604.142	-200.000	-0.039	0.200
-603.128	-120.348	-0.148	0.026
-602.113	-110.796	-0.388	0.082
-601.098	-83.947	-0.230	0.075
-600.084	519.885	0.089	-0.212
-599.069	-123.806	0.184	0.030
-598.055	-200.000	-0.015	-0.177
-597.040	-80.293	0.207	-0.071
-596.025	-79.193	-0.083	0.029
-595.011	430.397	0.223	-0.492
-593.996	-47.865	-0.222	0.109
-592.982	-91.879	-0.294	-0.085
-591.967	15.358	0.314	-0.251
-590.952	208.680	0.130	0.207
-589.938	800.000	-0.095	0.354
-588.923	111.807	0.103	0.127
-587.909	-171.654	-0.229	0.008
-586.894	35.618	-0.316	0.283
-585.879	800.000	0.040	0.151
-584.865	-200.000	0.018	0.339
-583.850	-110.715	-0.017	-0.004
-582.836	556.806	-0.098	-0.241
-581.821	-200.000	0.062	-0.402
-580.806	-122.024	0.215	0.036
-579.792	179.921	-0.094	-0.140
-578.777	55.347	-0.113	0.112
-577.763	26.805	0.131	-0.112
-576.748	-18.064	-0.114	0.073
-575.733	114.754	-0.052	0.064
-574.719	289.597	-0.122	0.225
-573.704	-107.648	0.106	-0.024
-572.690	-157.036	0.262	0.016
-571.675	-51.340	-0.164	0.078
-570.661	-6.951	0.276	0.191
-569.646	-134.524	0.296	0.037
-568.631	-133.680	0.408	0.052
-567.617	800.000	-0.098	-0.294
-566.602	-32.130	0.070	-0.040
-565.588	-200.000	0.024	0.130
-564.573	800.000	-0.049	-0.201
-563.558	-90.685	0.105	-0.031
-562.544	-200.000	0.028	-0.215
-561.529	250.548	0.108	-0.187
-560.515	-139.543	-0.194	-0.021
-559.500	-113.802	0.264	-0.052
-558.485	-83.300	0.212	0.069
-557.471	-11.313	-0.086	0.058
-556.456	708.531	-0.049	0.132
-555.442	-200.000	0.025	-0.143
-554.427	501.541	-0.106	0.250
-553.412	-200.000	0.015	-0.098
-552.398	-101.433	0.142	-0.035
-551.383	-200.000	-0.022	0.185
-550.369	-200.000	0.020	-0.201
-549.354	-200.000	-0.068	0.381
-548.339	31.484	0.137	0.120
-547.325	-200.000	-0.003	0.212
-546.310	-87.073	-0.213	-0.066
-545.296	-200.000	-0.055	-0.253
-544.281	727.428	-0.083	0.225
-543.266	-128.985	-0.141	0.020
-542.252	335.538	0.147	-0.290
-541.237	-61.237	-0.087	0.037
-540.223	74.354	0.042	-0.045
-539.208	91.078	-0.099	-0.113
-538.193	191.414	-0.260	-0.398
-537.179	14.888	0.216	0.172
-536.164	-57.126	0.131	0.059
-535.150	-158.769	-0.015	0.001
-534.135	64.588	-0.203	0.209
-533.121	65.389	-0.109	0.112
-532.106	504.435	-0.105	0.247
-531.091	-79.641	-0.255	0.088
-530.077	-107.163	-0.118	0.027
-529.062	-74.925	0.081	0.029
-528.048	-52.800	0.329	0.154
-527.033	-97.199	0.148	0.039
-526.018	1.716	-0.288	-0.211
-525.004	149.809	-0.098	-0.135
-523.989	800.000	-0.040	0.124
-522.975	203.971	0.030	-0.048
-521.960	595.917	-0.062	0.157
-520.945	-200.000	0.034	0.260
-519.931	-135.676	0.119	0.014
-518.916	-133.518	0.312	0.040
-517.902	800.000	0.007	0.023
-516.887	64.335	-0.222	-0.227
-515.872	-139.655	0.133	-0.014
-514.858	-85.548	0.079	-0.025
-513.843	-200.000	0.059	-0.276
-512.829	761.236	0.131	-0.360
-511.814	195.215	0.172	0.266
-510.799	289.109	-0.117	0.215
-509.785	122.268	-0.085	0.108
-508.770	800.000	0.094	-0.413
-507.756	800.000	0.059	0.222
-506.741	-31.927	-0.469	-0.267
-505.726	258.771	-0.040	0.070
-504.712	-200.000	0.018	-0.313
-503.697	-33.021	-0.193	0.109
-502.683	-200.000	-0.047	0.276
-501.668	449.345	-0.207	0.463
-500.653	179.129	0.007	-0.011
-499.639	520.957	0.045	0.107
-498.624	-105.391	-0.228	0.053
-497.610	-68.626	-0.332	-0.131
-496.595	-40.250	0.037	0.020
-495.581	800.000	0.025	0.071
-494.566	634.850	-0.063	0.163
-493.551	20.719	0.144	-0.118
-492.537	-122.651	0.323	-0.053
-491.522	549.493	-0.148	0.359
-490.508	-200.000	-0.004	0.467
-489.493	-33.430	-0.176	0.099
-488.478	48.226	-0.179	-0.170
-487.464	-10.037	-0.109	-0.073
-486.449	83.320	-0.047	-0.052
-485.435	-16.283	-0.165	-0.107
-484.420	587.172	0.032	-0.080
-483.405	-52.812	-0.315	-0.147
-482.391	-200.000	-0.002	-0.114
-481.376	20.388	-0.289	0.237
-480.362	238.180	0.134	0.226
-479.347	57.238	-0.201	0.199
-478.332	-82.957	0.168	-0.055
-477.318	-158.214	-0.142	0.008
-476.303	17.574	-0.225	0.182
-475.289	-44.184	-0.186	0.095
-474.274	-109.384	0.275	-0.059
-473.259	-56.829	-0.258	-0.116
-472.245	-42.841	0.139	0.072
-471.230	-200.000	0.031	0.193
-470.216	713.540	-0.021	-0.057
-469.201	-126.960	-0.084	0.013
-468.186	-28.647	-0.126	-0.073
-467.172	-66.782	0.311	0.125
-466.157	-56.483	-0.261	0.117
-465.143	-155.273	-0.366	0.024
-464.128	-61.302	-0.306	-0.131
-463.113	-105.048	-0.128	0.030
-462.099	251.572	-0.082	-0.141
-461.084	162.834	-0.146	0.208
-460.070	-83.452	0.319	-0.104
-459.055	-33.488	0.108	-0.060
-458.040	19.869	0.163	0.133
-457.026	-200.000	-0.010	-0.355
-456.011	119.376	0.068	-0.086
-454.997	30.490	-0.084	-0.073
-453.982	796.937	-0.051	-0.142
-452.968	800.000	-0.028	0.095
-451.953	-200.000	-0.027	0.149
-450.938	-200.000	-0.002	0.050
-449.924	-121.019	-0.179	0.031
-448.909	116.363	0.098	0.122
-447.895	42.819	-0.057	-0.053
-446.880	218.504	-0.065	0.106
-445.865	61.129	0.101	-0.102
-444.851	424.122	-0.044	-0.097
-443.836	-33.233	-0.094	-0.053
-442.822	-200.000	-0.043	0.360
-441.807	400.373	0.053	-0.113
-440.792	508.903	0.132	-0.310
-439.778	-200.000	-0.021	0.177
-438.763	-157.812	0.022	0.001
-437.749	-200.000	0.006	-0.288
-436.734	762.266	-0.115	-0.316
-435.719	-15.683	-0.242	0.157
-434.705	220.454	-0.041	-0.067
-433.690	-82.395	0.146	0.048
-432.676	-53.265	0.334	0.155
-431.661	159.138	-0.100	0.140
-430.646	455.462	0.029	-0.064
-429.632	-40.223	0.086	-0.045
-428.617	13.112	-0.127	0.100
-427.603	800.000	-0.026	0.112
-426.588	661.337	0.112	0.292
-425.573	555.492	-0.067	0.164
-424.559	-170.781	0.123	0.004
-423.544	-126.696	0.218	-0.033
-422.530	-200.000	-0.026	-0.258
-421.515	-200.000	-0.006	0.029
-420.500	231.719	0.118	0.196
-419.486	277.927	-0.118	0.213
-418.471	-36.828	-0.094	0.051
-417.457	-59.198	-0.071	-0.031
-416.442	-23.455	0.304	-0.185
-415.428	800.000	-0.031	-0.096
-414.413	-148.227	0.168	0.014
-413.398	98.876	-0.058	0.068
-412.384	241.482	0.117	-0.198
-411.369	-44.751	0.181	-0.091
-410.355	70.305	-0.204	0.213
-409.340	34.902	0.217	0.192
-408.325	24.451	0.029	0.024
-407.311	215.224	0.074	-0.119
-406.296	-42.287	0.302	-0.156
-405.282	302.785	-0.094	-0.176
-404.267	-200.000	0.024	-0.363
-403.252	68.852	-0.131	-0.136
-402.238	-200.000	-0.029	0.211
-401.223	-36.614	0.097	-0.053
-400.209	-200.000	0.044	0.299
-399.194	-136.001	0.356	-0.042
-398.179	-65.621	0.471	0.191
-397.165	233.294	-0.064	-0.106
-396.150	800.000	-0.096	0.278
-395.136	-9.869	0.170	0.114
-394.121	-14.057	0.128	-0.083
-393.106	179.060	-0.075	0.110
-392.092	-200.000	0.002	-0.271
-391.077	800.000	0.094	0.303
-390.063	-65.798	0.195	-0.079
-389.048	-126.761	0.290	-0.043
-388.033	108.553	0.214	-0.258
-387.019	-200.000	-0.023	-0.186
-386.004	73.325	-0.136	-0.144
-384.990	-79.557	0.159	0.054
-383.975	-130.280	0.142	0.020
-382.960	-167.752	0.255	0.010
-381.946	711.200	0.079	-0.211
-380.931	-42.940	-0.147	0.075
-379.917	-11.519	0.290	-0.193
-378.902	-101.901	-0.294	0.072
-377.888	800.000	-0.043	0.142
-376.873	115.059	0.214	0.265
-375.858	-53.968	-0.094	-0.043
-374.844	-200.000	-0.020	-0.314
-373.829	44.620	0.035	0.032
-372.815	13.416	-0.164	0.128
-371.800	492.465	-0.033	0.075
-370.785	-58.337	-0.331	0.146
-369.771	450.232	0.052	0.116
-368.756	-200.000	-0.061	0.323
-367.742	344.141	-0.112	0.222
-366.727	-148.018	-0.475	-0.040
-365.712	-165.746	0.326	0.014
-364.698	84.016	0.082	0.091
-363.683	-32.765	0.286	0.161
-362.669	254.582	-0.196	-0.339
-361.654	-128.340	-0.112	0.016
-360.639	-168.271	0.141	-0.005
-359.625	-10.007	-0.151	0.101
-358.610	328.370	-0.178	-0.345
-357.596	-16.793	-0.153	-0.098
-356.581	-200.000	0.008	0.090
-355.566	148.980	-0.100	0.137
-354.552	-124.749	0.128	-0.020
-353.537	43.203	-0.233	-0.215
-352.523	-22.675	-0.194	0.119
-351.508	293.364	0.075	-0.139
-350.493	800.000	-0.147	-0.424
-349.479	58.701	0.116	-0.115
-348.464	161.427	-0.169	0.239
-347.450	84.869	-0.113	-0.125
-346.435	-151.884	0.307	0.023
-345.420	136.486	0.084	0.111
-344.406	-87.497	0.111	-0.034
-343.391	-200.000	0.022	-0.274
-342.377	800.000	-0.063	0.214
-341.362	-82.825	0.305	-0.099
-340.348	-70.619	-0.124	0.047
-339.333	62.487	-0.177	0.178
-338.318	10.048	-0.109	-0.084
-337.304	800.000	0.052	0.216
-336.289	-17.123	-0.056	-0.035
-335.275	-105.019	0.250	-0.058
-334.260	-102.532	-0.346	-0.084
-333.245	-146.139	-0.350	-0.031
-332.231	-108.360	-0.167	0.036
-331.216	-2.705	0.358	0.253
-330.202	-35.542	-0.228	0.125
-329.187	-200.000	0.016	0.142
-328.172	165.737	-0.076	-0.108
-327.158	-165.951	-0.179	-0.008
-326.143	78.149	0.175	-0.188
-325.129	-161.860	0.307	0.016
-324.114	146.598	-0.118	0.160
-323.099	522.224	-0.016	-0.039
-322.085	800.000	-0.043	0.147
-321.070	-106.013	0.240	0.055
-320.056	-200.000	0.023	0.160
-319.041	650.317	0.143	-0.370
-318.026	749.070	0.095	0.257
-317.012	717.754	-0.050	-0.134
-315.997	800.000	0.068	-0.288
-314.983	-49.411	-0.283	-0.136
-313.968	800.000	0.057	-0.232
-312.953	800.000	-0.054	-0.157
-311.939	-85.458	0.151	0.048
-310.924	-20.687	0.054	-0.034
-309.910	-0.386	-0.233	0.167
-308.895	16.311	-0.214	-0.170
-307.880	-125.391	0.027	0.004
-306.866	311.604	-0.075	0.143
-305.851	660.641	-0.113	-0.294
-304.837	128.519	-0.163	-0.210
-303.822	-200.000	0.039	0.243
-302.807	13.148	0.142	0.111
-301.793	44.655	-0.056	-0.051
-300.778	800.000	0.003	0.012
-299.764	-156.114	0.389	0.025
-298.749	64.589	0.087	0.088
-297.735	800.000	-0.174	0.541
-296.720	-200.000	0.001	-0.275
-295.705	12.012	-0.110	-0.085
-294.691	-55.549	0.367	-0.166
-293.676	-80.759	0.316	-0.106
-292.662	635.054	0.025	0.063
-291.647	800.000	-0.018	0.059
-290.632	-200.000	0.038	0.306
-289.618	14.276	-0.314	-0.247
-288.603	-200.000	0.063	-0.381
-287.589	-94.577	0.141	-0.039
-286.574	-38.712	0.141	0.075
-285.559	-23.463	0.147	-0.089
-284.545	116.516	-0.096	0.118
-283.530	-200.000	-0.053	0.315
-282.516	50.966	-0.116	-0.111
-281.501	60.274	0.068	0.068
-280.486	-45.460	0.059	0.030
-279.472	631.790	-0.067	-0.172
-278.457	-169.534	-0.181	0.007
-277.443	321.387	-0.121	0.232
-276.428	99.547	0.063	0.074
-275.413	-200.000	-0.045	0.422
-274.399	-106.032	0.197	-0.045
-273.384	-21.669	-0.160	-0.098
-272.370	-200.000	-0.002	0.045
-271.355	-200.000	0.015	0.334
-270.340	-200.000	0.013	0.056
-269.326	800.000	-0.026	0.102
-268.311	6.781	-0.212	-0.159
-267.297	800.000	0.088	0.361
-266.282	-200.000	-0.009	0.108
-265.267	-7.959	-0.214	-0.145
-264.253	532.423	0.083	0.198
-263.238	275.753	-0.172	0.308
-262.224	122.180	0.094	0.118
-261.209	508.286	0.127	-0.297
-260.195	-200.000	-0.008	-0.180
-259.180	430.112	0.108	-0.235
-258.165	65.237	0.176	-0.179
-257.151	-85.974	0.157	-0.049
-256.136	-20.542	0.251	0.155
-255.122	33.630	-0.402	0.351
-254.107	-143.210	-0.140	-0.014
-253.092	-86.368	0.240	-0.074
-252.078	-0.219	-0.261	0.186
-251.063	-131.155	0.050	0.007
-250.049	9.299	-0.290	-0.221
-249.034	-200.000	0.032	0.207
-248.019	701.256	0.112	-0.296
-247.005	-200.000	-0.004	-0.050
-245.990	275.603	0.224	-0.399
-244.976	-34.984	-0.197	0.108
-243.961	188.665	-0.126	-0.189
-242.946	-200.000	-0.034	-0.232
-241.932	5.288	0.090	0.067
-240.917	-200.000	-0.059	0.329
-239.903	-63.368	-0.059	-0.024
-238.888	-61.053	-0.242	0.103
-237.873	-200.000	-0.005	0.126
-236.859	-117.111	0.028	0.005
-235.844	-172.865	-0.213	0.007
-234.830	-56.969	0.286	-0.127
-233.815	165.508	-0.078	-0.111
-232.800	656.005	-0.087	-0.225
-231.786	-135.295	0.195	-0.023
-230.771	-51.519	0.163	-0.077
-229.757	-11.958	-0.152	-0.100
-228.742	-200.000	-0.007	-0.088
-227.727	-23.514	-0.247	0.149
-226.713	95.381	0.161	0.185
-225.698	115.516	-0.068	-0.084
-224.684	-200.000	-0.025	-0.145
-223.669	-147.866	-0.171	0.014
-222.655	62.165	0.139	0.139
-221.640	800.000	-0.069	0.191
-220.625	-48.455	-0.184	-0.089
-219.611	-22.609	-0.297	-0.181
-218.596	-200.000	-0.019	0.180
-217.582	37.454	0.168	-0.149
-216.567	-200.000	0.040	0.187
-215.552	489.898	0.061	-0.139
-214.538	800.000	0.191	-0.573
-213.523	-68.849	-0.251	0.098
-212.509	-200.000	-0.063	-0.314
-211.494	-200.000	-0.058	-0.365
-210.479	-200.000	0.032	0.202
-209.465	-98.849	0.222	-0.057
-208.450	23.776	0.081	0.067
-207.436	47.540	0.173	-0.162
-206.421	800.000	-0.074	0.298
-205.406	585.492	0.097	-0.238
-204.392	-200.000	0.066	-0.306
-203.377	73.583	0.062	0.065
-202.363	-99.257	-0.393	0.100
-201.348	-200.000	0.033	0.185
-200.333	-104.872	0.093	0.021
-199.319	755.194	0.010	0.027
-198.304	-200.000	0.026	-0.374
-197.290	-200.000	-0.069	-0.415
-196.275	-142.139	0.180	0.018
-195.260	-154.424	0.207	-0.014
-194.246	544.405	0.053	-0.127
-193.231	13.850	0.067	0.052
-192.217	-130.461	0.304	-0.041
-191.202	-164.261	-0.314	0.015
-190.187	15.076	-0.158	0.124
-189.173	119.549	-0.057	0.071
-188.158	-200.000	0.013	0.062
-187.144	206.930	-0.191	0.299
-186.129	-181.585	-0.084	-0.002
-185.114	-86.451	0.275	0.085
-184.100	751.760	-0.067	0.182
-183.085	-68.533	-0.214	-0.083
-182.071	-10.029	-0.070	-0.046
-181.056	800.000	0.033	0.119
-180.042	-115.855	0.289	-0.054
-179.027	283.952	-0.139	0.250
-178.012	-200.000	-0.003	-0.062
-176.998	-73.951	0.198	0.072
-175.983	73.788	0.226	-0.237
-174.969	-93.946	0.075	-0.021
-173.954	88.550	0.270	-0.300
-172.939	-200.000	0.010	0.250
-171.925	128.456	0.201	-0.257
-170.910	800.000	-0.068	-0.209
-169.896	-115.983	-0.297	0.056
-168.881	-25.183	-0.251	0.149
-167.866	-49.410	-0.110	-0.053
-166.852	-166.114	-0.375	0.016
-165.837	-200.000	0.022	0.331
-164.823	-27.757	0.335	-0.195
-163.808	412.173	0.088	-0.187
-162.793	222.486	-0.080	-0.129
-161.779	71.929	0.136	0.142
-160.764	120.909	0.236	0.294
-159.750	64.543	-0.107	-0.108
-158.735	-68.210	0.118	0.046
-157.720	800.000	-0.037	0.122
-156.706	-66.222	-0.155	0.062
-155.691	-158.630	0.216	-0.012
-154.677	-56.229	-0.239	0.107
-153.662	-200.000	-0.002	0.040
-152.647	370.494	0.119	0.242
-151.633	-200.000	-0.071	0.499
-150.618	-200.000	-0.002	0.198
-149.604	-147.897	0.239	0.020
-148.589	-125.184	-0.166	0.025
-147.574	306.114	0.093	-0.173
-146.560	281.171	-0.071	-0.126
-145.545	102.486	0.255	-0.299
-144.531	-70.974	0.197	-0.074
-143.516	-174.196	-0.259	0.008
-142.502	-119.581	-0.191	-0.033
-141.487	-155.860	-0.244	0.016
-140.472	-200.000	-0.057	-0.347
-139.458	236.922	0.127	-0.211
-138.443	8.306	0.124	0.094
-137.429	-200.000	-0.065	-0.453
-136.414	102.404	0.199	-0.232
-135.399	20.197	0.075	-0.060
-134.385	-62.902	0.150	-0.062
-133.370	-90.867	-0.139	-0.040
-132.356	-25.391	0.169	0.100
-131.341	-200.000	-0.029	0.130
-130.326	202.127	-0.083	0.128
-129.312	76.130	0.110	0.117
-128.297	800.000	0.155	0.468
-127.283	-160.265	0.274	-0.015
-126.268	-51.457	0.214	-0.100
-125.253	-83.872	0.279	0.089
-124.239	336.428	-0.111	-0.215
-123.224	756.626	-0.124	-0.336
-122.210	16.532	-0.145	0.115
-121.195	-127.861	-0.235	-0.034
