DTS Sentinel unit serial number:	SN413079Multiplexer serial number:	ORYXHardware model number:	OX4-SRSoftware version number:	ORYX F/W v4.00 Oryx Data Collector v3.7.2.0data status	okinstallation	princeton_trtdifferential loss correction	single-endedforward channel	channel 4reverse channel	N/Adate	2019/09/17time	06:05:35forward acquisition time	60.00reverse acquisition time	0.00gamma	496.2192k internal	0.2316k external	0.2316temperature offset calibration	0.9981default loss term (dB/km)	0.3790temperature slope calibration	1.0000multiplexer offset coefficient	1.0000multiplexer slope coefficient	1.0000fibre end	0.00T internal ref (°C)	28.69T ext. ref 1 (°C)	0.13T ext. ref 2 (°C)	22.23length (m)	temperature (°C)	Stokes	anti-Stokes-747.200	322.750	-0.062	0.119
-746.185	46.683	0.236	-0.222
-745.171	205.409	0.141	-0.222
-744.156	-92.079	-0.349	0.100
-743.142	90.946	0.267	-0.303
-742.127	-200.000	0.020	-0.119
-741.112	-55.011	-0.085	-0.039
-740.098	-122.320	0.103	-0.017
-739.083	-46.620	-0.033	0.016
-738.069	-84.624	-0.546	0.174
-737.054	-80.818	0.222	0.075
-736.039	-200.000	-0.013	-0.113
-735.025	-200.000	0.035	0.463
-734.010	-70.394	-0.368	-0.141
-732.996	-200.000	0.036	-0.236
-731.981	59.389	-0.314	0.313
-730.966	-200.000	0.001	-0.187
-729.952	-13.246	-0.074	0.049
-728.937	480.549	0.176	-0.404
-727.923	22.623	0.136	0.113
-726.908	351.602	-0.108	-0.217
-725.894	451.356	-0.087	-0.195
-724.879	121.635	-0.181	0.229
-723.864	-104.716	0.089	0.021
-722.850	-152.604	-0.099	-0.007
-721.835	590.150	-0.087	-0.218
-720.821	-118.905	-0.189	-0.034
-719.806	-126.744	0.142	0.021
-718.791	-58.486	0.114	0.050
-717.777	-110.352	-0.150	0.032
-716.762	-200.000	0.008	0.147
-715.748	-34.946	-0.184	-0.102
-714.733	227.324	0.182	-0.299
-713.718	463.229	0.159	-0.359
-712.704	-99.652	-0.240	-0.061
-711.689	32.467	0.196	0.171
-710.675	-67.015	0.305	0.122
-709.660	128.011	-0.245	0.316
-708.645	-46.002	0.207	-0.103
-707.631	310.150	0.148	0.280
-706.616	-200.000	-0.017	0.249
-705.602	-200.000	-0.070	0.316
-704.587	-107.234	0.202	0.045
-703.572	-86.397	0.209	-0.065
-702.558	-200.000	0.015	0.174
-701.543	-200.000	-0.058	-0.384
-700.529	21.683	0.024	0.020
-699.514	617.786	-0.081	-0.206
-698.499	59.225	0.188	-0.187
-697.485	-47.922	-0.216	0.106
-696.470	239.960	0.041	0.068
-695.456	-87.457	0.430	-0.132
-694.441	-63.310	-0.160	-0.066
-693.426	-121.164	0.088	0.015
-692.412	-200.000	-0.077	-0.455
-691.397	57.890	-0.222	0.220
-690.383	800.000	-0.091	0.262
-689.368	-158.432	-0.172	-0.010
-688.354	16.805	0.022	0.018
-687.339	25.083	-0.199	0.167
-686.324	-200.000	-0.042	0.295
-685.310	61.110	-0.004	0.004
-684.295	3.895	-0.076	0.056
-683.281	-42.442	-0.359	-0.185
-682.266	337.465	0.097	-0.190
-681.251	800.000	-0.079	0.232
-680.237	130.124	0.194	0.250
-679.222	-122.820	-0.296	-0.048
-678.208	-50.430	-0.226	-0.108
-677.193	800.000	-0.076	0.311
-676.178	-23.518	0.140	0.085
-675.164	-8.311	0.158	-0.107
-674.149	684.095	0.059	-0.155
-673.135	544.159	0.104	-0.250
-672.120	-77.640	0.437	0.153
-671.105	-98.751	-0.240	0.062
-670.091	800.000	-0.029	-0.092
-669.076	235.647	-0.039	0.066
-668.062	54.354	0.333	-0.324
-667.047	-99.993	-0.292	-0.074
-666.032	800.000	-0.042	0.132
-665.018	-88.229	0.309	0.093
-664.003	333.420	-0.052	-0.102
-662.989	-82.813	-0.093	0.030
-661.974	11.709	0.232	-0.180
-660.959	-98.884	0.154	-0.039
-659.945	365.990	0.104	-0.212
-658.930	-151.217	0.176	0.013
-657.916	289.683	-0.170	0.312
-656.901	-36.843	-0.049	-0.026
-655.886	-7.364	0.042	0.028
-654.872	86.330	0.128	-0.142
-653.857	107.696	-0.268	0.323
-652.843	-115.703	0.143	0.027
-651.828	-200.000	-0.036	0.179
-650.814	-68.778	0.162	0.063
-649.799	800.000	-0.037	0.127
-648.784	-5.499	0.103	0.072
-647.770	537.483	-0.124	-0.296
-646.755	800.000	-0.039	-0.110
-645.741	-200.000	-0.023	-0.105
-644.726	46.589	-0.091	0.085
-643.711	35.973	0.162	0.144
-642.697	104.530	-0.092	-0.109
-641.682	-31.849	-0.133	0.075
-640.668	-200.000	-0.004	0.115
-639.653	-200.000	0.009	0.242
-638.638	800.000	-0.137	-0.399
-637.624	639.704	0.040	0.102
-636.609	-96.462	0.149	-0.040
-635.595	-98.305	-0.357	0.092
-634.580	-132.874	0.306	-0.039
-633.565	35.028	0.243	-0.215
-632.551	-200.000	0.000	-0.093
-631.536	107.388	-0.123	-0.148
-630.522	-200.000	0.007	0.118
-629.507	-200.000	0.012	0.340
-628.492	-134.498	0.212	-0.026
-627.478	800.000	0.082	-0.274
-626.463	-200.000	0.082	-0.538
-625.449	235.472	0.226	0.376
-624.434	-200.000	-0.023	0.129
-623.419	-146.720	0.076	0.007
-622.405	40.948	-0.224	-0.204
-621.390	-200.000	-0.042	-0.223
-620.376	800.000	0.055	-0.199
-619.361	138.827	-0.096	-0.127
-618.346	236.347	0.152	0.254
-617.332	-96.993	-0.169	0.045
-616.317	23.761	-0.084	-0.070
-615.303	-200.000	-0.029	-0.285
-614.288	-76.971	0.225	-0.079
-613.273	33.658	0.176	0.154
-612.259	-46.609	-0.279	-0.138
-611.244	-17.268	-0.202	0.128
-610.230	37.620	0.183	0.164
-609.215	368.700	-0.165	-0.336
-608.201	-112.595	0.053	-0.011
-607.186	9.055	0.043	-0.033
-606.171	-131.968	0.323	0.042
-605.157	-200.000	-0.026	-0.325
-604.142	293.841	0.148	-0.272
-603.128	-200.000	0.036	-0.442
-602.113	-90.737	0.173	0.050
-601.098	-7.907	-0.192	0.131
-600.084	116.653	-0.012	-0.014
-599.069	345.133	-0.045	-0.089
-598.055	-183.494	-0.299	-0.005
-597.040	-200.000	-0.017	0.223
-596.025	-69.880	-0.201	0.077
-595.011	-60.012	-0.471	0.203
-593.996	-35.677	-0.188	0.103
-592.982	-16.138	0.142	0.091
-591.967	-200.000	-0.001	-0.034
-590.952	10.920	0.140	-0.108
-589.938	311.326	-0.205	0.388
-588.923	101.410	-0.186	-0.218
-587.909	-200.000	-0.076	0.398
-586.894	357.973	0.136	-0.273
-585.879	-126.674	-0.370	-0.055
-584.865	-10.972	0.351	0.234
-583.850	800.000	0.056	-0.218
-582.836	-111.298	0.232	0.048
-581.821	-95.308	0.168	-0.045
-580.806	610.856	0.124	0.312
-579.792	166.199	0.226	0.322
-578.777	-125.100	-0.289	-0.045
-577.763	391.313	0.054	0.112
-576.748	-19.528	0.244	-0.152
-575.733	-24.919	-0.233	-0.139
-574.719	39.862	-0.188	0.170
-573.704	-104.267	0.141	-0.033
-572.690	-24.764	0.140	-0.084
-571.675	-163.469	0.198	0.009
-570.661	800.000	-0.085	-0.354
-569.646	800.000	0.051	-0.211
-568.631	558.541	-0.074	-0.180
-567.617	-49.965	-0.143	0.068
-566.602	-120.211	0.381	-0.066
-565.588	-200.000	-0.001	0.028
-564.573	218.302	-0.139	0.223
-563.558	379.384	0.066	-0.135
-562.544	63.987	-0.162	0.164
-561.529	-21.722	0.253	0.155
-560.515	-14.819	-0.206	0.133
-559.500	-96.952	0.308	0.081
-558.485	-200.000	-0.072	0.465
-557.471	-135.147	-0.263	-0.032
-556.456	137.210	0.264	-0.347
-555.442	240.567	-0.179	0.301
-554.427	-200.000	0.053	-0.257
-553.412	800.000	0.070	0.254
-552.398	-200.000	0.008	0.267
-551.383	-200.000	-0.012	0.203
-550.369	-151.779	0.331	0.024
-549.354	-27.809	0.081	-0.047
-548.339	31.734	0.132	-0.115
-547.325	-17.681	0.100	-0.063
-546.310	-127.942	0.225	-0.032
-545.296	-117.297	-0.037	-0.007
-544.281	-200.000	0.017	0.362
-543.266	-188.868	0.220	-0.003
-542.252	800.000	-0.033	-0.118
-541.237	55.184	0.236	0.229
-540.223	-9.559	-0.096	0.064
-539.208	-200.000	-0.026	0.322
-538.193	-64.720	-0.279	0.113
-537.179	367.654	0.266	0.541
-536.164	-37.466	-0.118	-0.063
-535.150	121.766	-0.135	-0.170
-534.135	-200.000	-0.018	-0.244
-533.121	-62.894	-0.292	-0.121
-532.106	-200.000	0.000	-0.248
-531.091	700.608	0.092	-0.243
-530.077	-88.658	-0.350	-0.105
-529.062	-84.807	-0.398	-0.126
-528.048	71.987	-0.124	-0.129
-527.033	-83.904	0.162	0.052
-526.018	-26.360	-0.245	0.145
-525.004	-158.331	-0.083	0.005
-523.989	-89.004	-0.322	0.096
-522.975	90.725	-0.069	-0.078
-521.960	800.000	0.031	0.132
-520.945	-54.271	-0.408	-0.186
-519.931	-173.793	-0.517	0.015
-518.916	-9.166	0.161	-0.108
-517.902	800.000	-0.068	-0.240
-516.887	-200.000	-0.000	-0.152
-515.872	-152.837	0.423	0.030
-514.858	9.107	-0.237	-0.179
-513.843	-200.000	-0.030	-0.186
-512.829	-23.813	0.217	0.130
-511.814	158.519	-0.090	-0.126
-510.799	468.088	0.142	-0.320
-509.785	-200.000	0.004	-0.172
-508.770	641.879	0.140	-0.359
-507.756	136.437	0.174	-0.228
-506.741	-68.893	-0.339	-0.131
-505.726	46.101	-0.091	-0.084
-504.712	87.421	-0.151	-0.167
-503.697	163.970	0.284	0.401
-502.683	-119.091	0.052	-0.009
-501.668	-200.000	0.010	0.212
-500.653	321.479	-0.124	-0.237
-499.639	587.202	-0.059	0.145
-498.624	-10.196	-0.163	0.109
-497.610	800.000	-0.050	-0.185
-496.595	156.520	-0.078	-0.107
-495.581	-200.000	0.260	0.001
-494.566	659.932	-0.076	0.197
-493.551	800.000	0.034	0.110
-492.537	67.864	-0.209	-0.215
-491.522	-7.683	-0.161	-0.109
-490.508	111.039	0.137	-0.165
-489.493	-200.000	-0.043	-0.430
-488.478	34.464	0.202	-0.177
-487.464	2.732	-0.337	-0.245
-486.449	-79.456	-0.186	-0.063
-485.435	-200.000	0.045	-0.253
-484.420	-109.658	0.125	0.026
-483.405	127.557	0.199	0.254
-482.391	-200.000	-0.032	-0.216
-481.376	-200.000	0.009	-0.435
-480.362	210.984	0.010	-0.016
-479.347	-152.061	-0.126	0.009
-478.332	-200.000	0.021	0.128
-477.318	-55.555	0.165	-0.074
-476.303	39.134	-0.144	-0.129
-475.289	-66.692	0.292	0.116
-474.274	-200.000	0.005	-0.242
-473.259	-100.531	-0.153	0.038
-472.245	11.930	-0.281	0.216
-471.230	296.702	0.063	-0.115
-470.216	583.547	0.047	-0.115
-469.201	-89.319	0.095	0.028
-468.186	-67.001	-0.107	0.042
-467.172	-59.601	-0.166	-0.071
-466.157	165.692	0.230	-0.326
-465.143	33.243	0.331	0.288
-464.128	-92.828	0.218	0.061
-463.113	28.503	0.036	0.030
-462.099	800.000	0.033	0.127
-461.084	-200.000	0.040	-0.377
-460.070	800.000	0.109	-0.303
-459.055	134.969	-0.141	-0.183
-458.040	159.322	0.118	0.165
-457.026	800.000	0.005	-0.015
-456.011	40.906	-0.349	0.315
-454.997	-200.000	-0.014	0.201
-453.982	-200.000	-0.053	0.253
-452.968	-143.407	-0.318	-0.030
-451.953	52.612	0.172	0.165
-450.938	-93.137	0.090	0.025
-449.924	-23.107	0.248	-0.150
-448.909	472.994	0.075	-0.168
-447.895	62.747	-0.110	0.111
-446.880	-57.658	-0.130	0.057
-445.865	13.900	0.388	0.302
-444.851	-72.337	0.222	0.082
-443.836	800.000	0.050	-0.184
-442.822	-59.424	-0.067	-0.029
-441.807	373.693	0.059	-0.120
-440.792	-200.000	0.034	-0.243
-439.778	800.000	0.040	0.150
-438.763	-95.839	0.160	0.043
-437.749	-67.534	0.373	0.146
-436.734	16.667	0.038	-0.030
-435.719	0.875	-0.108	0.077
-434.705	110.828	0.066	0.080
-433.690	279.990	-0.209	-0.375
-432.676	96.799	-0.159	-0.183
-431.661	0.805	0.180	0.129
-430.646	25.858	0.223	-0.186
-429.632	-2.228	-0.119	-0.084
-428.617	-12.809	-0.127	0.083
-427.603	-34.029	0.269	-0.148
-426.588	-200.000	0.037	-0.206
-425.573	800.000	0.111	-0.352
-424.559	373.015	-0.050	-0.101
-423.544	-93.077	-0.155	-0.043
-422.530	114.293	0.151	0.184
-421.515	510.689	-0.155	-0.360
-420.500	-200.000	-0.052	-0.366
-419.486	-84.170	0.293	0.093
-418.471	152.475	0.226	-0.309
-417.457	88.082	-0.251	-0.278
-416.442	-49.231	-0.054	-0.026
-415.428	-200.000	0.025	0.122
-414.413	460.617	0.123	0.273
-413.398	-200.000	0.021	0.131
-412.384	10.291	-0.100	-0.076
-411.369	-200.000	-0.017	-0.085
-410.355	800.000	-0.117	0.420
-409.340	162.040	0.077	-0.107
-408.325	-79.345	-0.298	0.101
-407.311	515.945	0.178	-0.415
-406.296	158.484	-0.281	0.390
-405.282	82.801	0.253	0.275
-404.267	-200.000	0.002	-0.097
-403.252	-56.723	0.053	-0.023
-402.238	56.918	0.253	-0.247
-401.223	431.716	-0.019	-0.042
-400.209	-111.960	0.222	0.045
-399.194	800.000	-0.031	0.123
-398.179	800.000	0.081	0.247
-397.165	-119.389	-0.193	-0.034
-396.150	-1.867	0.161	0.113
-395.136	5.679	0.020	0.015
-394.121	800.000	-0.039	0.146
-393.106	576.031	0.105	-0.256
-392.092	-200.000	0.013	-0.072
-391.077	6.129	-0.098	0.073
-390.063	-200.000	-0.007	-0.097
-389.048	-6.093	0.153	-0.105
-388.033	800.000	0.044	-0.154
-387.019	11.164	-0.157	0.120
-386.004	-132.576	-0.354	-0.045
-384.990	-200.000	0.057	0.265
-383.975	9.973	0.172	-0.131
-382.960	-46.690	-0.299	-0.146
-381.946	-173.276	0.346	-0.011
-380.931	83.654	0.050	-0.054
-379.917	267.343	-0.057	-0.099
-378.902	420.285	-0.098	0.210
-377.888	-59.231	0.254	-0.109
-376.873	800.000	0.021	0.084
-375.858	-56.853	0.258	0.114
-374.844	-129.033	0.087	-0.012
-373.829	-19.562	-0.139	0.086
-372.815	429.596	-0.100	-0.216
-371.800	-200.000	0.006	-0.099
-370.785	-200.000	0.009	0.090
-369.771	-93.643	-0.093	-0.026
-368.756	252.368	0.134	-0.228
-367.742	-200.000	0.021	0.188
-366.727	800.000	0.053	-0.201
-365.712	-3.549	0.351	0.244
-364.698	-159.758	0.267	0.015
-363.683	261.577	-0.037	0.064
-362.669	23.696	0.120	0.099
-361.654	21.501	-0.242	-0.196
-360.639	45.657	-0.089	-0.082
-359.625	-114.339	-0.383	0.074
-358.610	-35.279	0.046	0.025
-357.596	425.238	0.092	0.197
-356.581	70.499	0.014	-0.014
-355.566	74.348	-0.070	-0.073
-354.552	-30.896	-0.344	-0.194
-353.537	-86.203	0.373	0.115
-352.523	-120.793	0.202	-0.034
-351.508	-200.000	0.026	0.438
-350.493	-200.000	0.043	-0.261
-349.479	-200.000	-0.006	0.128
-348.464	-120.300	-0.338	0.058
-347.450	-200.000	-0.003	-0.059
-346.435	-79.878	-0.022	0.007
-345.420	-3.367	-0.110	0.076
-344.406	43.610	0.104	0.095
-343.391	-200.000	-0.045	-0.222
-342.377	543.530	0.037	-0.088
-341.362	-176.691	-0.040	0.001
-340.348	203.199	0.046	0.072
-339.333	406.060	0.073	0.155
-338.318	-19.543	-0.515	0.318
-337.304	142.630	-0.310	0.411
-336.289	-64.630	-0.113	0.046
-335.275	482.805	0.091	-0.206
-334.260	76.344	0.206	0.217
-333.245	-49.733	0.338	0.160
-332.231	50.950	-0.152	-0.144
-331.216	-50.771	-0.180	-0.084
-330.202	-56.393	0.283	0.125
-329.187	157.657	-0.133	0.183
-328.172	800.000	-0.128	0.490
-327.158	73.028	-0.159	0.166
-326.143	170.169	0.040	-0.058
-325.129	-200.000	-0.087	0.474
-324.114	667.615	-0.054	0.139
-323.099	-4.477	0.259	-0.178
-322.085	-129.106	-0.495	-0.069
-321.070	-102.927	0.083	0.020
-320.056	800.000	0.012	0.034
-319.041	-132.876	0.228	-0.029
-318.026	-200.000	-0.001	0.005
-317.012	28.843	0.174	-0.147
-315.997	38.779	-0.152	-0.136
-314.983	28.537	-0.299	0.252
-313.968	642.532	0.074	0.188
-312.953	-200.000	-0.084	0.535
-311.939	800.000	0.048	0.197
-310.924	-200.000	0.016	-0.071
-309.910	-200.000	0.074	0.350
-308.895	-200.000	0.000	0.072
-307.880	99.850	-0.138	-0.160
-306.866	-200.000	0.005	0.218
-305.851	86.604	0.164	-0.180
-304.837	-112.666	-0.126	0.025
-303.822	233.670	-0.101	-0.165
-302.807	101.929	0.077	-0.090
-301.793	-59.315	0.192	-0.082
-300.778	59.954	-0.085	0.084
-299.764	42.026	0.068	-0.061
-298.749	3.555	0.104	-0.075
-297.735	-195.123	-0.356	-0.003
-296.720	-43.277	-0.149	0.075
-295.705	-34.879	-0.098	-0.053
-294.691	-12.084	-0.235	-0.153
-293.676	359.714	-0.094	0.187
-292.662	35.801	-0.283	-0.247
-291.647	-76.432	-0.189	-0.066
-290.632	-31.069	0.334	-0.187
-289.618	-40.973	-0.231	0.119
-288.603	43.054	0.102	-0.093
-287.589	424.032	0.101	0.216
-286.574	-129.517	-0.264	-0.036
-285.559	409.200	0.106	0.223
-284.545	-200.000	0.002	0.277
-283.530	-142.124	0.078	0.008
-282.516	-23.547	-0.309	-0.185
-281.501	-56.253	-0.194	-0.086
-280.486	-19.002	-0.212	-0.131
-279.472	527.774	-0.088	0.207
-278.457	-123.183	0.276	-0.044
-277.443	183.020	-0.055	-0.080
-276.428	365.426	-0.134	-0.269
-275.413	612.111	0.080	-0.199
-274.399	117.155	-0.063	-0.077
-273.384	63.441	0.086	0.086
-272.370	-6.980	0.265	-0.179
-271.355	-99.502	0.351	0.088
-270.340	800.000	-0.075	-0.321
-269.326	-22.946	0.097	0.058
-268.311	-200.000	-0.024	0.199
-267.297	800.000	-0.025	0.093
-266.282	-19.630	0.203	-0.125
-265.267	77.896	-0.231	-0.245
-264.253	-80.602	-0.281	-0.093
-263.238	-80.141	-0.262	-0.087
-262.224	19.578	0.076	0.061
-261.209	59.711	0.111	0.109
-260.195	130.469	0.340	0.433
-259.180	-54.589	0.155	-0.070
-258.165	628.552	-0.083	-0.208
-257.151	-74.999	-0.067	0.024
-256.136	-130.126	-0.399	0.054
-255.122	32.358	-0.155	-0.133
-254.107	-40.807	0.093	0.048
-253.092	13.431	0.342	0.264
-252.078	-52.965	-0.244	0.111
-251.063	-200.000	0.030	0.148
-250.049	800.000	-0.062	-0.268
-249.034	259.401	-0.048	0.083
-248.019	-75.171	0.186	-0.066
-247.005	-16.640	-0.217	-0.136
-245.990	468.936	-0.089	-0.199
-244.976	-200.000	-0.040	-0.441
-243.961	-25.026	0.132	-0.078
-242.946	800.000	-0.053	0.172
-241.932	-41.725	0.143	0.073
-240.917	-200.000	-0.044	0.243
-239.903	-117.887	0.229	-0.041
-238.888	3.489	-0.170	-0.123
-237.873	-9.809	0.098	-0.065
-236.859	340.781	-0.128	-0.248
-235.844	77.761	-0.265	0.280
-234.830	-200.000	0.012	0.275
-233.815	196.883	0.192	0.290
-232.800	131.290	0.180	0.230
-231.786	212.955	-0.240	0.376
-230.771	-109.755	-0.332	-0.069
-229.757	-48.382	-0.122	0.058
-228.742	70.185	0.086	0.088
-227.727	800.000	-0.100	-0.362
-226.713	-114.188	0.366	-0.070
-225.698	-105.878	0.162	-0.036
-224.684	-7.143	0.314	-0.212
-223.669	-200.000	-0.075	0.577
-222.655	353.650	0.159	0.313
-221.640	287.870	-0.133	0.238
-220.625	159.943	0.219	0.303
-219.611	800.000	-0.033	-0.111
-218.596	-200.000	-0.036	-0.343
-217.582	152.659	0.066	-0.089
-216.567	-102.974	-0.302	-0.071
-215.552	24.960	0.097	0.080
-214.538	48.402	-0.156	-0.145
-213.523	-67.192	-0.135	-0.053
-212.509	-145.978	-0.324	0.028
-211.494	-125.239	0.231	-0.035
-210.479	509.405	0.121	0.280
-209.465	-60.497	-0.153	-0.065
-208.450	17.136	0.127	0.100
-207.436	-200.000	-0.049	0.218
-206.421	800.000	-0.060	0.250
-205.406	-30.300	0.169	0.095
-204.392	-200.000	0.018	-0.164
-203.377	-200.000	0.054	0.259
-202.363	-58.804	-0.086	-0.037
-201.348	-98.225	0.203	-0.052
-200.333	-13.242	-0.035	-0.023
-199.319	416.469	0.093	-0.197
-198.304	19.215	-0.258	-0.206
-197.290	-74.965	-0.230	-0.082
-196.275	49.278	0.121	-0.113
-195.260	46.741	0.287	0.264
-194.246	40.166	0.246	0.220
-193.231	-200.000	0.064	-0.304
-192.217	306.439	-0.102	-0.188
-191.202	-200.000	-0.059	-0.499
-190.187	558.651	-0.052	0.123
-189.173	329.991	0.058	-0.111
-188.158	62.489	0.066	0.065
-187.144	104.154	0.311	0.362
-186.129	-200.000	0.090	0.400
-185.114	-144.749	0.014	0.001
-184.100	7.426	0.161	-0.119
-183.085	-200.000	-0.006	0.275
-182.071	613.262	-0.014	-0.035
-181.056	-15.442	-0.055	-0.035
-180.042	800.000	-0.045	-0.125
-179.027	-8.685	0.112	-0.074
-178.012	54.087	0.193	0.184
-176.998	131.108	0.064	0.082
-175.983	-141.738	-0.212	-0.021
-174.969	150.814	-0.049	0.065
-173.954	-105.258	0.109	0.025
-172.939	-53.046	-0.242	-0.110
-171.925	246.306	0.040	0.066
-170.910	61.568	0.141	0.139
-169.896	-106.099	-0.172	-0.038
-168.881	144.785	0.088	0.116
-167.866	406.764	-0.162	0.339
-166.852	-9.557	-0.121	0.080
-165.837	-200.000	0.000	-0.264
-164.823	162.076	0.310	-0.430
-163.808	402.515	-0.139	-0.289
-162.793	386.567	-0.069	0.142
-161.779	800.000	0.113	0.388
-160.764	-200.000	-0.008	-0.172
-159.750	44.254	0.067	0.061
-158.735	-81.885	-0.205	0.067
-157.720	-119.987	0.486	0.083
-156.706	-27.484	-0.279	0.161
-155.691	-200.000	0.006	0.211
-154.677	-38.808	0.254	0.133
-153.662	123.680	-0.246	0.305
-152.647	460.030	0.114	0.252
-151.633	-166.276	0.131	0.005
-150.618	-106.541	0.284	0.063
-149.604	26.818	-0.047	0.039
-148.589	130.709	0.157	-0.200
-147.574	237.496	0.036	-0.059
-146.560	-133.414	-0.206	-0.026
-145.545	-200.000	-0.017	0.227
-144.531	-107.687	0.344	0.074
-143.516	-25.208	-0.230	0.135
-142.502	800.000	0.068	0.230
-141.487	70.188	0.149	-0.153
-140.472	-66.303	-0.367	-0.144
-139.458	-10.401	0.428	0.280
-138.443	-32.008	0.215	-0.119
-137.429	-151.780	-0.119	-0.009
-136.414	-128.177	0.251	0.035
-135.399	-141.064	-0.482	-0.049
-134.385	-54.177	0.184	-0.083
-133.370	298.323	-0.146	0.266
-132.356	-114.895	0.351	0.066
-131.341	-104.205	-0.010	0.002
-130.326	-159.768	-0.305	-0.017
-129.312	153.273	0.164	-0.221
-128.297	196.107	-0.054	0.081
-127.283	329.510	0.067	0.128
-126.268	-200.000	0.020	-0.291
-125.253	-200.000	0.025	-0.181
-124.239	144.660	-0.209	0.276
-123.224	-200.000	-0.009	-0.046
-122.210	-40.029	-0.157	-0.081
-121.195	-81.985	0.077	-0.025
-120.180	-59.429	-0.141	-0.060
