DTS Sentinel unit serial number:	SN413079Multiplexer serial number:	ORYXHardware model number:	OX4-SRSoftware version number:	ORYX F/W v4.00 Oryx Data Collector v3.7.2.0data status	okinstallation	princeton_trtdifferential loss correction	single-endedforward channel	channel 4reverse channel	N/Adate	2019/09/18time	06:41:35forward acquisition time	60.00reverse acquisition time	0.00gamma	496.2192k internal	0.2332k external	0.2332temperature offset calibration	0.9998default loss term (dB/km)	0.3790temperature slope calibration	1.0000multiplexer offset coefficient	1.0000multiplexer slope coefficient	1.0000fibre end	0.00T internal ref (°C)	23.25T ext. ref 1 (°C)	0.20T ext. ref 2 (°C)	17.10length (m)	temperature (°C)	Stokes	anti-Stokes-747.200	174.767	-0.164	0.239
-746.185	-127.720	-0.133	-0.019
-745.171	-22.321	0.311	-0.190
-744.156	14.628	-0.190	0.149
-743.142	257.722	0.220	0.381
-742.127	539.090	-0.093	-0.221
-741.112	167.096	0.145	-0.207
-740.098	-23.949	-0.462	0.278
-739.083	-48.373	0.072	-0.035
-738.069	800.000	0.123	0.453
-737.054	-29.330	-0.112	0.064
-736.039	-66.757	-0.349	-0.139
-735.025	-200.000	0.005	0.101
-734.010	20.531	0.034	-0.027
-732.996	190.057	-0.122	-0.184
-731.981	5.327	-0.066	-0.049
-730.966	-104.994	-0.050	0.012
-729.952	37.782	-0.087	-0.078
-728.937	-200.000	0.035	0.202
-727.923	-50.378	-0.113	-0.054
-726.908	86.033	0.164	0.181
-725.894	-4.854	-0.258	-0.179
-724.879	-200.000	-0.009	0.130
-723.864	442.371	-0.113	-0.248
-722.850	89.089	-0.216	-0.241
-721.835	-6.817	-0.304	-0.208
-720.821	22.153	0.239	0.196
-719.806	662.342	0.091	-0.235
-718.791	-162.739	0.115	0.006
-717.777	-117.512	-0.165	0.030
-716.762	-85.487	0.222	0.069
-715.748	207.405	0.053	-0.083
-714.733	-107.815	0.352	0.077
-713.718	-79.717	-0.111	0.037
-712.704	-61.888	0.112	-0.047
-711.689	-15.811	-0.059	0.038
-710.675	183.331	-0.132	0.196
-709.660	70.873	-0.108	0.112
-708.645	-200.000	-0.005	-0.078
-707.631	-200.000	0.020	0.368
-706.616	30.376	0.320	0.275
-705.602	12.607	-0.144	0.112
-704.587	-117.733	0.038	-0.007
-703.572	68.422	-0.244	0.251
-702.558	541.751	0.131	-0.313
-701.543	-139.043	-0.399	0.043
-700.529	800.000	-0.033	-0.104
-699.514	-72.244	-0.433	0.161
-698.499	177.124	0.048	-0.070
-697.485	-144.733	0.344	-0.032
-696.470	-46.152	-0.262	0.129
-695.456	800.000	0.102	0.286
-694.441	126.648	0.255	-0.324
-693.426	46.074	0.335	-0.311
-692.412	87.308	-0.102	0.113
-691.397	129.332	-0.231	0.296
-690.383	-53.771	-0.172	0.079
-689.368	548.408	0.148	0.356
-688.354	-114.010	0.210	0.041
-687.339	-200.000	0.016	0.083
-686.324	296.463	-0.046	0.085
-685.310	84.778	-0.432	0.475
-684.295	217.621	-0.099	-0.158
-683.281	312.816	0.061	0.114
-682.266	94.530	-0.216	0.247
-681.251	-56.740	0.110	0.049
-680.237	-104.034	0.208	-0.049
-679.222	800.000	0.091	0.328
-678.208	-200.000	-0.019	-0.499
-677.193	-112.673	-0.161	-0.032
-676.178	15.668	-0.364	0.287
-675.164	558.937	-0.066	-0.160
-674.149	-200.000	0.011	0.225
-673.135	-82.216	0.072	-0.024
-672.120	575.101	0.082	-0.201
-671.105	-79.186	-0.323	0.110
-670.091	-49.593	-0.200	-0.096
-669.076	533.936	-0.131	-0.311
-668.062	-200.000	-0.012	0.269
-667.047	-135.173	0.296	0.036
-666.032	-133.217	-0.358	-0.045
-665.018	-200.000	0.020	-0.224
-664.003	-200.000	0.065	-0.393
-662.989	-200.000	-0.017	-0.079
-661.974	-94.927	-0.460	-0.125
-660.959	81.300	-0.143	0.155
-659.945	3.524	0.138	-0.101
-658.930	76.836	0.062	-0.066
-657.916	-25.233	0.397	-0.236
-656.901	-81.865	0.139	-0.046
-655.886	224.651	0.051	-0.083
-654.872	-62.041	0.028	0.012
-653.857	-145.288	-0.287	0.026
-652.843	-0.795	-0.267	0.190
-651.828	-86.334	0.237	0.073
-650.814	-200.000	-0.024	0.191
-649.799	-144.103	-0.234	0.022
-648.784	-49.438	-0.234	0.112
-647.770	800.000	0.046	0.150
-646.755	-200.000	0.001	-0.134
-645.741	-200.000	0.009	-0.233
-644.726	38.605	-0.255	0.228
-643.711	800.000	0.051	0.199
-642.697	86.347	-0.301	0.332
-641.682	-200.000	-0.001	0.186
-640.668	761.281	0.085	0.231
-639.653	464.985	-0.092	-0.205
-638.638	800.000	-0.077	-0.237
-637.624	-200.000	-0.006	-0.136
-636.609	38.174	-0.205	-0.183
-635.595	251.038	0.166	-0.282
-634.580	-74.322	-0.207	-0.075
-633.565	-200.000	-0.030	-0.251
-632.551	-85.835	0.169	0.053
-631.536	731.089	0.054	-0.143
-630.522	-121.586	0.137	0.023
-629.507	401.932	0.119	0.250
-628.492	-99.201	0.058	-0.015
-627.478	800.000	0.075	-0.236
-626.463	-200.000	-0.028	0.239
-625.449	434.896	0.077	-0.168
-624.434	17.184	0.221	-0.176
-623.419	96.290	-0.157	-0.179
-622.405	-200.000	0.010	0.148
-621.390	-55.259	0.148	-0.066
-620.376	-200.000	-0.012	-0.105
-619.361	521.806	-0.055	-0.129
-618.346	-78.879	-0.081	0.028
-617.332	-200.000	-0.012	0.184
-616.317	-100.998	0.245	0.060
-615.303	0.327	0.141	-0.101
-614.288	-180.720	0.184	-0.004
-613.273	-170.288	-0.422	0.015
-612.259	753.828	0.107	0.289
-611.244	-200.000	-0.025	0.203
-610.230	500.157	-0.124	0.287
-609.215	-76.057	0.246	-0.087
-608.201	-11.211	-0.144	-0.095
-607.186	800.000	0.111	-0.325
-606.171	47.096	0.333	-0.310
-605.157	-200.000	-0.023	-0.224
-604.142	319.880	0.128	0.244
-603.128	526.094	0.109	-0.258
-602.113	-200.000	-0.089	-0.449
-601.098	800.000	-0.023	-0.090
-600.084	-200.000	-0.038	0.228
-599.069	800.000	0.045	-0.146
-598.055	15.952	-0.040	-0.032
-597.040	-122.940	-0.157	-0.025
-596.025	-109.905	0.277	0.058
-595.011	44.297	-0.169	-0.155
-593.996	6.391	0.153	0.113
-592.982	800.000	0.075	-0.210
-591.967	330.151	-0.045	0.087
-590.952	179.335	0.206	0.301
-589.938	-200.000	0.029	-0.255
-588.923	800.000	0.120	-0.347
-587.909	-200.000	0.030	0.137
-586.894	-140.256	-0.271	0.028
-585.879	-50.331	0.246	0.116
-584.865	87.341	-0.030	-0.033
-583.850	-12.833	0.299	0.195
-582.836	-19.653	0.195	0.121
-581.821	10.667	-0.087	-0.066
-580.806	161.026	-0.021	0.029
-579.792	800.000	0.030	-0.129
-578.777	-200.000	-0.026	-0.655
-577.763	-200.000	-0.071	0.362
-576.748	-200.000	-0.034	-0.201
-575.733	33.492	0.207	-0.180
-574.719	109.678	-0.092	-0.110
-573.704	-200.000	-0.008	-0.184
-572.690	800.000	0.041	0.162
-571.675	11.774	-0.284	0.218
-570.661	-115.953	-0.277	-0.052
-569.646	-91.301	-0.116	0.033
-568.631	-200.000	-0.011	-0.239
-567.617	-200.000	-0.000	-0.123
-566.602	77.371	-0.105	-0.112
-565.588	800.000	-0.048	0.140
-564.573	-200.000	-0.043	-0.205
-563.558	-139.940	-0.091	0.010
-562.544	10.518	0.258	-0.197
-561.529	-21.408	0.176	-0.107
-560.515	60.012	0.238	0.235
-559.500	23.269	-0.087	-0.072
-558.485	64.075	0.055	0.055
-557.471	-5.683	-0.304	-0.208
-556.456	-43.146	-0.189	0.095
-555.442	-200.000	-0.056	-0.413
-554.427	-182.780	-0.355	0.006
-553.412	-83.691	-0.171	0.054
-552.398	697.755	-0.118	0.311
-551.383	800.000	0.132	-0.384
-550.369	411.280	0.136	-0.288
-549.354	42.661	-0.142	0.129
-548.339	-200.000	-0.053	-0.425
-547.325	26.176	0.176	-0.146
-546.310	257.026	0.138	-0.237
-545.296	448.374	0.083	-0.182
-544.281	-161.823	0.207	-0.010
-543.266	-200.000	-0.048	-0.326
-542.252	800.000	-0.064	-0.237
-541.237	286.240	-0.063	-0.113
-540.223	-200.000	0.037	-0.408
-539.208	-26.985	0.184	-0.107
-538.193	-149.458	-0.241	-0.019
-537.179	-51.106	0.147	-0.069
-536.164	123.891	-0.045	0.056
-535.150	-200.000	-0.019	-0.185
-534.135	-200.000	0.032	0.240
-533.121	375.283	0.057	-0.116
-532.106	-24.208	0.274	-0.163
-531.091	139.079	0.147	-0.193
-530.077	-49.144	-0.139	0.066
-529.062	10.170	-0.278	-0.211
-528.048	83.929	-0.065	0.070
-527.033	-123.962	0.275	-0.043
-526.018	800.000	0.035	0.128
-525.004	-200.000	0.070	0.483
-523.989	-0.849	-0.067	0.047
-522.975	162.506	0.177	0.248
-521.960	-200.000	-0.001	0.141
-520.945	-50.030	-0.356	-0.168
-519.931	99.701	0.129	-0.149
-518.916	32.581	-0.050	-0.043
-517.902	800.000	0.062	-0.184
-516.887	162.581	-0.132	0.185
-515.872	-117.662	0.145	0.026
-514.858	-116.787	0.158	-0.029
-513.843	-200.000	0.013	-0.231
-512.829	-58.221	-0.206	0.089
-511.814	-37.017	0.109	-0.058
-510.799	354.683	-0.126	0.250
-509.785	800.000	0.074	0.272
-508.770	-18.315	-0.151	-0.094
-507.756	42.633	-0.020	0.018
-506.741	-104.071	-0.163	0.038
-505.726	-116.845	0.298	0.054
-504.712	-113.791	-0.110	0.021
-503.697	-55.898	0.039	0.017
-502.683	192.201	-0.026	-0.039
-501.668	433.514	0.202	0.437
-500.653	-99.034	-0.297	-0.075
-499.639	800.000	-0.085	0.258
-498.624	-200.000	0.084	-0.404
-497.610	381.979	-0.077	0.158
-496.595	800.000	-0.026	-0.109
-495.581	121.455	-0.185	-0.230
-494.566	-115.265	-0.118	0.022
-493.551	-57.682	-0.124	-0.054
-492.537	55.770	0.125	0.121
-491.522	577.862	-0.134	0.327
-490.508	-13.540	-0.219	0.141
-489.493	-69.731	0.096	-0.037
-488.478	-200.000	-0.063	-0.362
-487.464	-200.000	-0.019	0.341
-486.449	23.459	0.165	0.135
-485.435	270.428	0.137	0.240
-484.420	-40.936	-0.087	-0.045
-483.405	-80.432	0.278	0.092
-482.391	29.717	0.165	0.139
-481.376	27.370	0.199	0.167
-480.362	154.794	0.115	-0.158
-479.347	102.180	-0.148	0.172
-478.332	800.000	-0.061	-0.244
-477.318	-46.169	0.044	-0.021
-476.303	14.401	0.388	-0.302
-475.289	115.464	-0.015	-0.018
-474.274	-200.000	-0.038	-0.219
-473.259	-5.243	-0.295	-0.202
-472.245	-200.000	-0.059	0.269
-471.230	800.000	0.041	-0.137
-470.216	-138.095	0.281	0.031
-469.201	772.980	0.067	-0.182
-468.186	-200.000	0.027	-0.152
-467.172	-200.000	0.073	-0.439
-466.157	-118.265	-0.501	0.089
-465.143	-12.257	-0.237	0.154
-464.128	53.205	-0.323	0.308
-463.113	9.698	0.174	-0.131
-462.099	-200.000	-0.014	0.203
-461.084	-41.338	-0.177	0.091
-460.070	-109.627	-0.178	-0.037
-459.055	-84.388	0.203	-0.064
-458.040	-0.495	-0.053	-0.038
-457.026	-137.455	-0.301	0.034
-456.011	71.151	-0.100	-0.104
-454.997	-200.000	0.076	0.424
-453.982	-150.768	-0.152	-0.011
-452.968	-105.348	0.184	-0.042
-451.953	424.292	-0.104	-0.223
-450.938	637.086	-0.151	0.381
-449.924	-113.470	0.084	-0.016
-448.909	-200.000	-0.012	-0.331
-447.895	-200.000	-0.022	0.250
-446.880	247.121	-0.231	0.388
-445.865	-200.000	0.004	-0.101
-444.851	-89.310	-0.261	-0.076
-443.836	100.363	0.148	0.171
-442.822	-2.973	-0.239	0.166
-441.807	-24.140	-0.098	0.058
-440.792	-41.101	0.258	-0.132
-439.778	130.660	-0.078	-0.099
-438.763	-148.743	-0.185	-0.015
-437.749	25.624	0.444	0.367
-436.734	122.614	-0.086	0.107
-435.719	238.019	-0.165	0.272
-434.705	-96.638	-0.381	-0.100
-433.690	5.360	0.074	0.054
-432.676	-3.524	-0.466	-0.322
-431.661	52.086	0.257	-0.244
-430.646	800.000	0.032	0.091
-429.632	191.031	0.029	0.043
-428.617	-166.208	-0.237	0.010
-427.603	276.844	-0.025	-0.045
-426.588	-111.908	-0.080	-0.016
-425.573	692.395	0.143	-0.373
-424.559	-57.812	-0.304	0.132
-423.544	-167.879	0.191	-0.007
-422.530	72.851	0.102	0.106
-421.515	23.663	0.459	0.375
-420.500	140.074	0.220	-0.289
-419.486	253.903	0.089	0.150
-418.471	800.000	0.041	-0.168
-417.457	159.601	0.164	0.227
-416.442	94.412	0.137	0.155
-415.428	111.896	0.137	-0.164
-414.413	-18.906	0.163	-0.101
-413.398	-12.146	0.255	-0.166
-412.384	-96.551	0.317	0.083
-411.369	264.466	0.114	0.196
-410.355	-145.268	0.236	0.021
-409.340	-200.000	-0.029	-0.415
-408.325	53.647	-0.158	0.151
-407.311	-14.869	-0.017	-0.011
-406.296	-200.000	-0.010	0.128
-405.282	264.461	-0.119	0.205
-404.267	-200.000	0.019	-0.210
-403.252	258.280	-0.014	-0.024
-402.238	169.958	0.120	0.170
-401.223	-106.076	-0.151	0.034
-400.209	113.318	-0.232	-0.280
-399.194	-79.454	0.340	0.114
-398.179	800.000	0.052	0.168
-397.165	30.951	0.177	0.150
-396.150	491.274	-0.145	-0.329
-395.136	-100.301	-0.239	0.059
-394.121	-200.000	-0.035	-0.168
-393.106	-200.000	-0.060	-0.318
-392.092	-103.391	-0.494	0.115
-391.077	-167.288	0.210	0.008
-390.063	-123.119	-0.245	-0.039
-389.048	173.421	-0.081	-0.116
-388.033	-145.959	0.262	0.023
-387.019	-110.842	0.282	0.058
-386.004	-39.272	-0.043	-0.023
-384.990	-200.000	-0.012	-0.073
-383.975	-154.986	-0.152	-0.010
-382.960	87.741	-0.252	-0.277
-381.946	266.033	-0.134	-0.232
-380.931	-89.914	0.178	-0.052
-379.917	37.454	0.354	0.311
-378.902	89.623	0.039	-0.043
-377.888	37.363	0.220	-0.193
-376.873	-200.000	0.030	0.209
-375.858	-200.000	-0.050	0.373
-374.844	-70.215	-0.327	-0.123
-373.829	-131.183	0.218	-0.029
-372.815	56.501	0.039	-0.037
-371.800	30.375	-0.255	-0.216
-370.785	-102.004	0.243	0.058
-369.771	301.210	0.044	-0.080
-368.756	-200.000	-0.001	0.364
-367.742	752.278	-0.013	0.035
-366.727	-150.254	-0.384	-0.029
-365.712	800.000	-0.115	0.436
-364.698	250.122	0.086	0.144
-363.683	-116.917	0.153	-0.028
-362.669	143.001	0.247	-0.326
-361.654	75.947	0.098	0.103
-360.639	-17.836	0.151	0.094
-359.625	566.402	-0.117	0.281
-358.610	-200.000	0.014	-0.069
-357.596	191.719	0.155	-0.232
-356.581	-52.718	0.291	-0.133
-355.566	-200.000	-0.019	0.223
-354.552	-39.090	0.079	0.041
-353.537	434.594	0.035	0.075
-352.523	33.796	-0.056	-0.048
-351.508	-45.662	0.132	-0.065
-350.493	593.110	-0.083	0.204
-349.479	-26.656	0.291	0.169
-348.464	-183.514	-0.177	-0.003
-347.450	-84.641	-0.116	-0.036
-346.435	-29.591	0.275	-0.156
-345.420	800.000	0.094	0.343
-344.406	171.399	-0.047	-0.067
-343.391	800.000	-0.061	-0.203
-342.377	11.757	0.121	-0.092
-341.362	79.259	0.142	0.151
-340.348	93.736	0.058	0.065
-339.333	87.508	-0.131	0.144
-338.318	-200.000	-0.022	0.132
-337.304	128.551	-0.230	0.290
-336.289	-72.898	0.291	-0.106
-335.275	40.849	-0.196	-0.175
-334.260	-87.869	-0.360	-0.107
-333.245	-152.837	0.109	-0.008
-332.231	411.242	-0.081	-0.170
-331.216	-60.547	0.231	-0.097
-330.202	-200.000	0.022	-0.158
-329.187	-200.000	0.013	0.082
-328.172	-200.000	-0.032	-0.235
-327.158	52.166	-0.169	-0.159
-326.143	-200.000	-0.026	-0.300
-325.129	-200.000	-0.005	-0.144
-324.114	200.435	-0.044	-0.066
-323.099	-77.567	0.233	0.080
-322.085	-200.000	0.016	0.317
-321.070	274.477	-0.082	-0.143
-320.056	19.044	0.062	-0.049
-319.041	-113.243	0.341	-0.066
-318.026	-84.955	0.086	0.027
-317.012	800.000	-0.059	0.225
-315.997	179.072	-0.094	-0.136
-314.983	-7.622	0.320	0.214
-313.968	-87.599	-0.327	0.098
-312.953	607.244	0.068	-0.168
-311.939	26.843	0.084	-0.070
-310.924	800.000	-0.056	-0.175
-309.910	35.991	-0.070	-0.061
-308.895	125.901	0.201	0.251
-307.880	-150.385	-0.266	0.020
-306.866	800.000	-0.034	0.094
-305.851	-24.176	-0.148	0.087
-304.837	-200.000	0.037	-0.304
-303.822	-94.463	0.024	0.006
-302.807	-200.000	-0.050	0.344
-301.793	-74.530	-0.181	0.064
-300.778	-200.000	-0.002	0.140
-299.764	-116.051	-0.210	0.039
-298.749	-59.776	-0.344	0.146
-297.735	134.982	0.086	-0.110
-296.720	180.314	-0.189	0.275
-295.705	400.710	0.151	0.313
-294.691	198.994	0.043	-0.065
-293.676	736.297	-0.033	0.088
-292.662	-56.158	-0.260	-0.114
-291.647	-46.432	-0.434	-0.210
-290.632	641.914	-0.123	0.310
-289.618	132.908	-0.190	-0.242
-288.603	-71.360	0.357	-0.132
-287.589	-133.726	-0.242	-0.030
-286.574	-200.000	-0.003	0.064
-285.559	-96.992	0.226	-0.058
-284.545	37.643	0.029	0.026
-283.530	-200.000	0.064	-0.330
-282.516	-200.000	-0.008	0.144
-281.501	101.070	-0.251	0.288
-280.486	800.000	0.032	-0.129
-279.472	-11.510	0.240	-0.156
-278.457	-15.739	-0.254	-0.160
-277.443	-23.973	0.192	0.114
-276.428	-200.000	-0.003	-0.171
-275.413	-28.277	-0.141	-0.080
-274.399	371.380	0.088	0.175
-273.384	-157.124	0.300	0.018
-272.370	335.176	-0.168	0.322
-271.355	-133.819	0.109	-0.013
-270.340	-181.858	-0.285	0.005
-269.326	62.861	-0.119	0.117
-268.311	800.000	-0.019	0.076
-267.297	-11.897	0.097	0.063
-266.282	-13.981	-0.176	0.112
-265.267	665.217	0.051	0.129
-264.253	-200.000	-0.015	-0.151
-263.238	769.802	0.070	0.188
-262.224	-200.000	-0.016	0.217
-261.209	114.312	-0.210	-0.252
-260.195	-54.275	0.282	-0.127
-259.180	80.255	-0.168	0.179
-258.165	800.000	0.086	-0.323
-257.151	-13.213	0.209	0.134
-256.136	-118.593	0.058	-0.010
-255.122	-179.583	0.161	-0.003
-254.107	-200.000	0.018	-0.152
-253.092	800.000	-0.006	0.018
-252.078	-74.378	0.444	0.158
-251.063	-127.607	-0.183	-0.026
-250.049	705.499	0.111	0.288
-249.034	-200.000	-0.057	-0.332
-248.019	-200.000	-0.012	0.178
-247.005	-14.206	-0.167	0.106
-245.990	-130.906	0.129	-0.017
-244.976	49.815	-0.198	0.184
-243.961	800.000	0.101	0.350
-242.946	-200.000	-0.005	-0.118
-241.932	-4.468	-0.143	-0.098
-240.917	-117.373	0.311	-0.055
-239.903	71.055	0.139	0.142
-238.888	-129.786	0.246	-0.033
-237.873	217.631	-0.276	0.433
-236.859	593.509	0.066	-0.161
-235.844	21.239	0.079	-0.063
-234.830	13.577	0.099	0.076
-233.815	-30.937	0.366	-0.204
-232.800	70.834	-0.086	-0.088
-231.786	527.662	-0.160	-0.371
-230.771	-140.628	-0.294	0.030
-229.757	42.606	-0.324	0.290
-228.742	-28.825	-0.157	0.089
-227.727	-16.808	-0.055	-0.035
-226.713	-133.769	0.101	0.012
-225.698	-200.000	-0.007	0.134
-224.684	-40.879	-0.295	-0.150
-223.669	800.000	0.065	-0.198
-222.655	190.507	-0.176	0.261
-221.640	-200.000	0.052	0.391
-220.625	800.000	-0.109	0.394
-219.611	-58.583	-0.149	-0.064
-218.596	-156.464	0.167	-0.010
-217.582	-200.000	0.050	-0.443
-216.567	-7.111	-0.085	0.057
-215.552	52.413	0.083	0.078
-214.538	-128.230	0.378	0.053
-213.523	164.536	-0.095	0.132
-212.509	27.987	-0.096	-0.080
-211.494	-200.000	0.013	0.203
-210.479	12.963	-0.159	-0.121
-209.465	-128.841	-0.188	-0.026
-208.450	611.871	0.048	0.118
-207.436	427.232	0.089	0.189
-206.421	586.428	0.025	0.060
-205.406	-17.120	0.140	0.087
-204.392	-88.352	0.837	0.246
-203.377	472.426	-0.082	-0.182
-202.363	23.945	-0.184	0.150
-201.348	94.067	-0.203	0.227
-200.333	161.660	0.169	-0.233
-199.319	800.000	0.028	0.094
-198.304	8.383	0.256	0.190
-197.290	194.875	0.208	0.311
-196.275	-200.000	0.012	-0.101
-195.260	194.501	0.072	-0.107
-194.246	-168.345	-0.217	0.008
-193.231	-200.000	0.031	0.165
-192.217	83.133	0.099	0.107
-191.202	-41.751	0.326	0.165
-190.187	-66.219	0.132	0.052
-189.173	265.031	-0.111	-0.190
-188.158	-135.680	-0.089	-0.010
-187.144	-200.000	-0.047	-0.273
-186.129	-154.267	-0.171	0.011
-185.114	-58.847	0.248	0.106
-184.100	176.814	-0.132	0.189
-183.085	800.000	-0.092	-0.284
-182.071	800.000	0.057	-0.201
-181.056	800.000	0.113	-0.468
-180.042	234.859	0.130	-0.211
-179.027	543.347	-0.070	0.163
-178.012	800.000	-0.054	0.195
-176.998	-200.000	0.013	-0.096
-175.983	-200.000	-0.009	-0.097
-174.969	800.000	0.090	0.247
-173.954	30.655	0.094	-0.079
-172.939	-18.061	0.119	-0.073
-171.925	-200.000	-0.042	0.205
-170.910	-16.584	0.047	-0.029
-169.896	126.746	-0.183	0.228
-168.881	42.309	0.016	0.014
-167.866	-200.000	-0.011	0.246
-166.852	-129.658	-0.283	-0.038
-165.837	-200.000	0.026	-0.150
-164.823	24.493	0.186	0.151
-163.808	38.512	0.087	-0.076
-162.793	-200.000	0.032	0.221
-161.779	613.150	-0.050	0.122
-160.764	-149.586	0.200	-0.016
-159.750	-98.496	-0.325	0.082
-158.735	133.332	-0.048	-0.061
-157.720	-28.212	0.236	0.134
-156.706	-64.353	-0.148	0.059
-155.691	-91.787	-0.258	0.072
-154.677	297.816	0.091	-0.165
-153.662	37.948	-0.216	0.188
-152.647	-150.040	-0.346	-0.027
-151.633	404.699	-0.090	0.186
-150.618	174.341	0.131	0.186
-149.604	-85.846	-0.144	0.044
-148.589	0.840	-0.310	0.218
-147.574	-66.580	-0.033	-0.013
-146.560	62.517	-0.197	0.194
-145.545	617.768	0.002	-0.005
-144.531	-115.704	0.331	-0.061
-143.516	774.903	-0.058	-0.156
-142.502	-34.983	0.278	0.149
-141.487	195.695	0.191	0.285
-140.472	-59.047	0.125	-0.053
-139.458	1.884	-0.121	0.086
-138.443	1.067	-0.249	0.176
-137.429	-51.546	0.123	-0.057
-136.414	15.151	0.253	-0.195
-135.399	230.518	-0.101	-0.162
-134.385	32.615	-0.561	0.476
-133.370	-28.058	0.163	0.093
-132.356	-141.184	-0.043	0.004
-131.341	0.394	-0.322	-0.226
-130.326	700.079	-0.163	0.421
-129.312	-200.000	0.083	0.424
-128.297	-92.281	-0.094	0.026
-127.283	32.419	0.372	0.315
-126.268	72.783	-0.182	0.187
-125.253	-82.844	0.052	0.016
-124.239	-200.000	-0.026	-0.141
-123.224	-172.072	0.367	0.012
-122.210	74.398	-0.200	0.206
-121.195	185.143	-0.241	-0.351
