DTS Sentinel unit serial number:	SN413079Multiplexer serial number:	ORYXHardware model number:	OX4-SRSoftware version number:	ORYX F/W v4.00 Oryx Data Collector v3.7.2.0data status	okinstallation	princeton_trtdifferential loss correction	single-endedforward channel	channel 4reverse channel	N/Adate	2019/09/18time	22:21:35forward acquisition time	60.00reverse acquisition time	0.00gamma	496.2192k internal	0.2333k external	0.2333temperature offset calibration	1.0031default loss term (dB/km)	0.3790temperature slope calibration	1.0000multiplexer offset coefficient	1.0000multiplexer slope coefficient	1.0000fibre end	0.00T internal ref (°C)	24.31T ext. ref 1 (°C)	0.81T ext. ref 2 (°C)	18.04length (m)	temperature (°C)	Stokes	anti-Stokes-747.200	318.035	-0.162	0.308
-746.185	800.000	-0.082	0.301
-745.171	-83.859	0.334	0.107
-744.156	153.377	0.083	0.114
-743.142	-17.366	0.135	-0.085
-742.127	-157.760	-0.372	0.022
-741.112	-35.102	-0.097	0.053
-740.098	-28.750	0.103	-0.060
-739.083	-0.360	0.196	-0.140
-738.069	-200.000	0.011	-0.110
-737.054	206.640	-0.077	-0.121
-736.039	74.908	-0.234	-0.247
-735.025	-200.000	0.020	0.464
-734.010	770.450	0.104	0.284
-732.996	-111.867	-0.455	-0.092
-731.981	-11.997	-0.182	0.120
-730.966	-126.639	-0.216	-0.032
-729.952	-96.133	-0.062	-0.017
-728.937	245.128	-0.110	-0.185
-727.923	97.327	0.179	-0.207
-726.908	-200.000	-0.001	-0.077
-725.894	-5.881	-0.109	0.075
-724.879	-200.000	-0.015	0.287
-723.864	-23.442	0.124	0.075
-722.850	-200.000	0.060	-0.414
-721.835	32.015	0.213	0.185
-720.821	-104.240	-0.505	-0.118
-719.806	140.509	0.168	0.222
-718.791	-114.191	-0.117	-0.023
-717.777	83.296	-0.027	0.029
-716.762	-176.108	0.305	0.008
-715.748	-130.707	-0.284	-0.038
-714.733	136.109	0.105	-0.137
-713.718	-49.865	-0.064	0.031
-712.704	800.000	-0.096	0.376
-711.689	75.571	-0.112	-0.118
-710.675	453.495	0.034	0.075
-709.660	84.303	0.273	0.299
-708.645	250.183	-0.094	0.160
-707.631	-200.000	-0.018	-0.179
-706.616	800.000	0.104	0.422
-705.602	330.919	0.082	-0.158
-704.587	490.053	0.009	-0.020
-703.572	239.066	-0.199	0.333
-702.558	-146.201	0.241	0.021
-701.543	-200.000	-0.014	0.112
-700.529	-15.346	-0.149	0.096
-699.514	800.000	-0.152	0.559
-698.499	170.193	-0.098	-0.141
-697.485	-24.127	0.090	0.054
-696.470	410.918	-0.152	-0.323
-695.456	800.000	0.085	-0.368
-694.441	42.312	-0.270	-0.246
-693.426	-200.000	-0.014	0.083
-692.412	-200.000	0.004	-0.178
-691.397	257.145	-0.130	0.225
-690.383	100.814	-0.266	-0.311
-689.368	-5.297	0.120	0.083
-688.354	-200.000	0.013	0.070
-687.339	-200.000	0.040	0.318
-686.324	2.720	-0.187	0.136
-685.310	-116.847	-0.160	-0.029
-684.295	800.000	0.021	-0.068
-683.281	-61.713	-0.199	0.084
-682.266	-113.126	-0.337	-0.067
-681.251	423.650	0.159	-0.344
-680.237	-14.078	-0.054	0.035
-679.222	-5.052	0.253	-0.175
-678.208	69.002	-0.166	-0.171
-677.193	78.481	-0.089	0.095
-676.178	61.467	-0.221	0.221
-675.164	131.780	0.095	-0.123
-674.149	169.851	-0.094	-0.135
-673.135	62.149	-0.296	0.297
-672.120	11.259	-0.104	0.080
-671.105	-200.000	-0.228	-0.001
-670.091	503.917	0.124	0.289
-669.076	-200.000	-0.024	0.225
-668.062	800.000	0.084	0.268
-667.047	28.924	-0.261	0.222
-666.032	800.000	-0.101	-0.319
-665.018	86.859	-0.166	-0.184
-664.003	-200.000	-0.018	0.139
-662.989	30.316	-0.109	0.094
-661.974	5.592	0.247	-0.183
-660.959	-200.000	-0.024	-0.165
-659.945	-22.724	-0.131	-0.080
-658.930	-99.650	-0.157	-0.040
-657.916	12.359	-0.155	-0.120
-656.901	-52.210	0.460	0.214
-655.886	-109.935	0.029	-0.006
-654.872	800.000	0.032	0.133
-653.857	-58.311	-0.196	-0.085
-652.843	146.800	-0.183	-0.246
-651.828	-200.000	0.028	-0.338
-650.814	61.372	-0.050	-0.050
-649.799	-200.000	0.029	-0.131
-648.784	800.000	0.104	0.288
-647.770	-122.213	0.423	-0.069
-646.755	-10.402	-0.219	0.146
-645.741	162.876	0.224	-0.315
-644.726	-46.936	-0.257	-0.126
-643.711	98.467	0.124	0.143
-642.697	-160.984	-0.243	0.013
-641.682	-200.000	-0.022	-0.123
-640.668	-64.636	0.132	-0.054
-639.653	-138.550	-0.146	0.016
-638.638	800.000	-0.058	-0.191
-637.624	251.517	0.072	-0.123
-636.609	-134.550	0.152	0.019
-635.595	123.700	0.098	-0.123
-634.580	16.651	-0.361	0.285
-633.565	-91.541	-0.108	0.031
-632.551	26.327	-0.253	-0.212
-631.536	514.577	0.132	-0.309
-630.522	-138.158	-0.196	-0.022
-629.507	-131.567	-0.223	0.029
-628.492	-134.928	-0.240	-0.029
-627.478	-186.043	0.237	-0.003
-626.463	412.804	0.053	0.112
-625.449	251.001	-0.073	0.123
-624.434	800.000	-0.092	-0.310
-623.419	-124.677	0.246	0.038
-622.405	66.173	-0.045	0.046
-621.390	0.817	-0.096	0.069
-620.376	635.901	-0.088	0.223
-619.361	800.000	0.058	-0.226
-618.346	567.446	-0.055	-0.134
-617.332	-61.434	-0.044	0.019
-616.317	800.000	0.051	0.160
-615.303	704.239	0.050	0.131
-614.288	-77.384	-0.166	0.058
-613.273	-200.000	-0.082	0.422
-612.259	-135.894	-0.376	0.044
-611.244	213.257	-0.125	-0.198
-610.230	10.215	0.345	-0.262
-609.215	-200.000	-0.000	-0.134
-608.201	-200.000	-0.002	-0.101
-607.186	87.643	-0.086	-0.095
-606.171	175.083	0.083	0.120
-605.157	-42.013	-0.141	-0.072
-604.142	-8.010	0.398	0.269
-603.128	281.025	-0.095	-0.170
-602.113	800.000	-0.051	-0.159
-601.098	113.046	-0.110	-0.133
-600.084	74.190	0.057	-0.059
-599.069	-62.816	0.065	-0.027
-598.055	-200.000	-0.011	0.195
-597.040	-200.000	-0.076	0.373
-596.025	-103.730	0.268	-0.063
-595.011	-127.331	-0.319	0.046
-593.996	-76.944	-0.254	0.089
-592.982	-200.000	0.002	-0.204
-591.967	-94.646	-0.199	0.054
-590.952	-200.000	0.043	0.314
-589.938	19.826	0.183	-0.148
-588.923	-36.183	-0.256	0.138
-587.909	-18.874	0.108	0.067
-586.894	-58.989	0.090	-0.039
-585.879	73.001	0.274	-0.287
-584.865	79.851	-0.190	-0.204
-583.850	800.000	0.069	0.208
-582.836	-33.217	-0.198	0.109
-581.821	43.646	-0.033	-0.031
-580.806	96.767	0.101	-0.116
-579.792	295.646	-0.028	-0.052
-578.777	-200.000	-0.033	-0.181
-577.763	-35.205	-0.374	0.203
-576.748	51.919	0.187	-0.178
-575.733	-124.285	0.345	-0.054
-574.719	-200.000	-0.061	0.313
-573.704	642.321	-0.089	-0.226
-572.690	146.440	-0.086	-0.116
-571.675	-70.912	0.169	0.064
-570.661	225.990	0.174	0.281
-569.646	-143.380	0.216	0.021
-568.631	-156.559	0.164	-0.010
-567.617	-200.000	-0.015	-0.207
-566.602	-65.374	-0.150	-0.060
-565.588	-200.000	-0.001	-0.126
-564.573	-200.000	0.016	-0.091
-563.558	-200.000	-0.014	0.128
-562.544	26.686	0.488	-0.408
-561.529	-148.000	-0.332	0.028
-560.515	285.647	0.116	0.209
-559.500	68.796	0.072	-0.074
-558.485	-161.443	-0.209	-0.011
-557.471	65.205	0.100	0.101
-556.456	-200.000	0.015	-0.097
-555.442	-200.000	0.003	0.137
-554.427	800.000	-0.048	-0.166
-553.412	-59.878	0.332	-0.142
-552.398	200.613	-0.156	0.239
-551.383	-0.114	-0.203	0.144
-550.369	118.499	-0.262	0.322
-549.354	-137.841	0.310	-0.035
-548.339	-82.330	-0.042	-0.014
-547.325	-67.809	-0.057	0.022
-546.310	25.181	0.134	-0.111
-545.296	-173.711	-0.265	0.008
-544.281	37.183	-0.224	0.198
-543.266	126.808	-0.047	0.059
-542.252	-73.164	0.207	0.076
-541.237	-7.357	-0.074	0.050
-540.223	-64.216	0.029	0.012
-539.208	-200.000	-0.003	-0.041
-538.193	-128.810	0.149	0.021
-537.179	81.114	0.039	-0.042
-536.164	209.933	-0.243	0.380
-535.150	-141.461	0.554	-0.056
-534.135	-4.967	-0.258	0.177
-533.121	-175.473	-0.104	0.003
-532.106	-128.645	0.204	-0.029
-531.091	468.773	0.069	0.155
-530.077	504.873	-0.138	-0.319
-529.062	-71.457	-0.052	0.019
-528.048	-55.472	-0.330	-0.147
-527.033	75.638	0.131	-0.138
-526.018	-94.490	0.605	-0.165
-525.004	-25.065	0.171	-0.101
-523.989	-79.755	-0.133	-0.045
-522.975	105.157	0.095	0.112
-521.960	179.408	0.081	-0.119
-520.945	-187.913	0.665	0.009
-519.931	-200.000	-0.034	0.150
-518.916	-200.000	-0.048	-0.260
-517.902	0.636	0.241	-0.172
-516.887	319.455	-0.136	0.257
-515.872	-200.000	-0.005	-0.300
-514.858	800.000	0.113	0.314
-513.843	795.343	-0.031	0.086
-512.829	325.753	-0.146	-0.278
-511.814	180.131	-0.125	-0.182
-510.799	-134.002	-0.187	-0.023
-509.785	6.057	-0.085	0.063
-508.770	-200.000	0.012	0.233
-507.756	-75.067	0.272	-0.097
-506.741	-90.723	0.134	-0.039
-505.726	-81.658	0.147	0.048
-504.712	-200.000	-0.019	0.268
-503.697	160.301	-0.050	-0.070
-502.683	312.709	0.143	-0.267
-501.668	-33.598	0.100	-0.055
-500.653	164.280	-0.155	-0.217
-499.639	-33.165	0.378	0.208
-498.624	-103.505	-0.336	0.079
-497.610	-200.000	0.033	-0.297
-496.595	-39.505	-0.078	0.041
-495.581	800.000	0.008	-0.026
-494.566	127.394	-0.066	0.083
-493.551	800.000	0.095	-0.287
-492.537	-141.723	0.215	-0.021
-491.522	96.001	-0.132	-0.150
-490.508	-70.712	0.145	0.055
-489.493	147.986	0.142	0.191
-488.478	-200.000	0.001	-0.278
-487.464	-200.000	0.028	-0.243
-486.449	-200.000	-0.023	-0.101
-485.435	97.726	-0.172	-0.197
-484.420	118.016	0.194	0.238
-483.405	-144.198	0.270	0.025
-482.391	-200.000	-0.073	-0.324
-481.376	-81.920	-0.060	-0.020
-480.362	-38.162	-0.072	0.038
-479.347	800.000	0.048	0.194
-478.332	-82.900	-0.072	-0.023
-477.318	-200.000	0.018	-0.308
-476.303	781.276	0.054	-0.147
-475.289	271.724	-0.134	-0.234
-474.274	448.014	-0.085	0.186
-473.259	800.000	-0.040	0.144
-472.245	68.880	-0.067	0.068
-471.230	-200.000	-0.013	-0.161
-470.216	-110.811	0.359	-0.074
-469.201	800.000	-0.113	0.358
-468.186	800.000	-0.046	0.148
-467.172	-105.803	0.035	-0.008
-466.157	61.543	-0.307	-0.304
-465.143	137.350	0.248	0.322
-464.128	6.830	-0.145	0.107
-463.113	-200.000	-0.001	0.087
-462.099	52.974	-0.126	0.120
-461.084	36.851	-0.271	0.238
-460.070	269.095	0.077	-0.135
-459.055	28.364	-0.304	-0.255
-458.040	4.625	-0.163	0.119
-457.026	800.000	0.092	0.349
-456.011	23.878	-0.214	0.175
-454.997	-200.000	-0.013	-0.125
-453.982	20.492	0.068	0.055
-452.968	264.793	0.054	-0.093
-451.953	-101.759	-0.089	0.021
-450.938	800.000	-0.036	0.109
-449.924	-65.715	0.055	0.022
-448.909	-35.852	-0.213	0.115
-447.895	-86.883	-0.165	-0.050
-446.880	-200.000	-0.009	0.107
-445.865	302.048	-0.133	-0.245
-444.851	-200.000	0.068	0.381
-443.836	-200.000	0.024	0.307
-442.822	133.889	0.315	0.405
-441.807	127.485	0.072	0.091
-440.792	-200.000	-0.028	-0.588
-439.778	-200.000	-0.072	0.341
-438.763	-90.609	-0.118	0.034
-437.749	-52.604	0.331	-0.152
-436.734	17.627	-0.215	-0.170
-435.719	13.224	-0.150	-0.116
-434.705	10.733	-0.162	0.123
-433.690	-123.690	-0.095	-0.015
-432.676	45.735	0.035	-0.032
-431.661	-200.000	0.024	0.260
-430.646	13.427	0.160	-0.123
-429.632	-3.956	0.134	0.093
-428.617	143.347	-0.153	0.202
-427.603	-136.863	0.227	0.026
-426.588	124.315	-0.092	0.115
-425.573	229.912	0.176	-0.285
-424.559	-200.000	-0.036	-0.201
-423.544	-39.396	-0.298	0.155
-422.530	39.399	-0.327	0.291
-421.515	-200.000	0.023	-0.156
-420.500	-118.854	-0.035	-0.006
-419.486	-174.441	-0.141	0.004
-418.471	235.918	-0.149	-0.245
-417.457	340.550	-0.124	-0.240
-416.442	529.860	0.133	0.313
-415.428	-45.237	-0.130	0.064
-414.413	-200.000	-0.007	-0.133
-413.398	-147.448	-0.212	-0.018
-412.384	182.648	-0.084	-0.123
-411.369	-200.000	-0.004	0.295
-410.355	-200.000	0.023	0.161
-409.340	-105.143	0.482	0.109
-408.325	-200.000	0.013	-0.500
-407.311	324.509	0.069	0.131
-406.296	-173.373	-0.121	-0.004
-405.282	401.603	-0.090	-0.189
-404.267	800.000	-0.061	-0.202
-403.252	-200.000	-0.005	0.089
-402.238	-126.731	-0.297	0.044
-401.223	-147.556	-0.234	-0.020
-400.209	313.861	-0.177	-0.330
-399.194	-200.000	0.001	0.258
-398.179	-200.000	-0.007	-0.127
-397.165	48.906	-0.111	-0.103
-396.150	-16.093	-0.278	0.175
-395.136	-117.181	-0.270	0.049
-394.121	-115.877	-0.154	-0.029
-393.106	257.512	0.103	0.175
-392.092	-29.042	0.249	0.142
-391.077	-146.392	-0.330	0.029
-390.063	800.000	0.028	0.109
-389.048	800.000	0.043	0.133
-388.033	800.000	-0.066	0.251
-387.019	-126.369	0.186	0.027
-386.004	-1.726	0.156	-0.109
-384.990	541.640	-0.069	0.163
-383.975	-68.724	-0.066	-0.025
-382.960	-15.970	0.041	-0.026
-381.946	-53.002	0.194	0.089
-380.931	507.156	0.051	0.118
-379.917	-200.000	-0.017	0.097
-378.902	-108.565	0.136	-0.029
-377.888	-176.402	-0.262	0.007
-376.873	-200.000	-0.005	-0.246
-375.858	-54.259	0.294	0.132
-374.844	18.602	0.090	0.071
-373.829	675.745	0.071	-0.183
-372.815	-153.446	-0.224	0.015
-371.800	-117.466	-0.239	-0.043
-370.785	800.000	-0.008	-0.026
-369.771	-83.592	-0.143	0.045
-368.756	-200.000	0.019	0.204
-367.742	-171.197	0.056	-0.002
-366.727	31.106	-0.301	-0.256
-365.712	-13.898	-0.039	-0.025
-364.698	-117.433	0.327	0.059
-363.683	-179.495	0.276	0.006
-362.669	-106.245	0.318	-0.071
-361.654	-58.564	-0.241	0.104
-360.639	93.952	0.065	0.073
-359.625	-57.866	0.109	-0.047
-358.610	-59.563	0.157	-0.067
-357.596	154.168	0.144	-0.196
-356.581	286.181	-0.053	0.095
-355.566	-16.914	-0.303	0.189
-354.552	-200.000	-0.066	-0.434
-353.537	584.542	-0.036	0.088
-352.523	-200.000	0.010	0.049
-351.508	-36.734	-0.338	0.180
-350.493	-73.173	0.113	0.041
-349.479	735.672	0.140	0.373
-348.464	123.391	0.071	-0.088
-347.450	-75.271	-0.250	-0.088
-346.435	38.784	0.326	-0.288
-345.420	242.905	0.050	0.083
-344.406	-40.511	-0.280	0.144
-343.391	458.453	-0.166	0.365
-342.377	-200.000	-0.072	0.503
-341.362	800.000	0.082	0.277
-340.348	-200.000	-0.022	-0.248
-339.333	161.189	-0.049	-0.068
-338.318	312.103	-0.021	-0.040
-337.304	-77.228	-0.179	-0.062
-336.289	148.940	-0.142	-0.190
-335.275	-200.000	-0.011	-0.103
-334.260	48.262	0.112	0.104
-333.245	800.000	-0.039	-0.149
-332.231	-66.373	0.232	0.091
-331.216	-160.317	0.377	-0.020
-330.202	-43.295	0.359	-0.180
-329.187	-92.733	-0.167	-0.046
-328.172	154.465	0.066	-0.089
-327.158	100.153	-0.299	-0.343
-326.143	142.001	0.299	-0.392
-325.129	-70.195	-0.099	0.037
-324.114	-52.480	-0.187	-0.086
-323.099	758.865	0.083	-0.223
-322.085	-200.000	0.055	0.360
-321.070	35.669	0.294	-0.255
-320.056	-153.905	-0.439	-0.030
-319.041	-68.055	-0.165	0.064
-318.026	-200.000	0.179	0.000
-317.012	-200.000	-0.006	-0.068
-315.997	-93.382	-0.254	-0.070
-314.983	132.576	0.070	0.090
-313.968	-117.459	0.090	-0.016
-312.953	-26.616	0.238	0.138
-311.939	-8.426	0.115	0.077
-310.924	-91.028	-0.315	0.089
-309.910	165.920	0.129	-0.181
-308.895	143.907	0.147	-0.194
-307.880	-200.000	-0.085	0.600
-306.866	550.254	0.037	0.087
-305.851	-200.000	-0.018	-0.211
-304.837	-200.000	-0.047	-0.292
-303.822	-5.415	-0.179	0.122
-302.807	17.541	-0.258	0.203
-301.793	108.882	-0.165	-0.195
-300.778	-144.098	0.529	0.049
-299.764	-130.097	0.212	-0.029
-298.749	800.000	0.097	-0.319
-297.735	-200.000	0.055	0.526
-296.720	204.054	-0.100	0.153
-295.705	-200.000	0.000	-0.104
-294.691	800.000	0.038	-0.116
-293.676	-143.974	0.054	0.005
-292.662	-200.000	0.063	0.297
-291.647	166.900	0.161	-0.226
-290.632	-141.699	-0.165	0.016
-289.618	474.610	0.126	0.280
-288.603	-200.000	0.096	0.435
-287.589	189.455	0.028	0.041
-286.574	-110.290	0.075	0.015
-285.559	682.403	0.076	-0.195
-284.545	453.867	0.129	0.282
-283.530	-200.000	-0.098	0.481
-282.516	-68.143	-0.250	-0.096
-281.501	-200.000	0.026	-0.372
-280.486	153.032	-0.242	-0.327
-279.472	142.107	0.083	-0.109
-278.457	251.726	-0.145	0.245
-277.443	-88.952	0.216	-0.063
-276.428	-200.000	-0.006	0.207
-275.413	-174.434	0.130	-0.004
-274.399	18.112	0.152	0.120
-273.384	-200.000	0.012	0.255
-272.370	188.351	0.189	0.279
-271.355	180.557	-0.135	0.195
-270.340	10.038	0.142	0.107
-269.326	-94.988	-0.130	-0.035
-268.311	-163.008	0.091	0.004
-267.297	20.174	0.078	-0.062
-266.282	341.091	-0.164	-0.317
-265.267	178.111	-0.230	-0.332
-264.253	-200.000	-0.032	0.263
-263.238	-140.501	-0.393	-0.040
-262.224	161.178	-0.171	-0.236
-261.209	135.251	0.082	0.106
-260.195	66.331	-0.079	0.079
-259.180	-41.001	0.188	0.096
-258.165	62.548	0.302	0.298
-257.151	-57.618	0.202	0.087
-256.136	800.000	0.093	-0.331
-255.122	645.060	0.048	-0.121
-254.107	-200.000	-0.020	0.174
-253.092	800.000	-0.053	-0.222
-252.078	-47.774	-0.160	0.077
-251.063	233.532	-0.162	-0.264
-250.049	462.165	-0.124	-0.273
-249.034	800.000	-0.032	-0.107
-248.019	72.561	-0.167	-0.172
-247.005	57.806	-0.124	-0.120
-245.990	135.358	0.119	-0.153
-244.976	-200.000	0.010	0.167
-243.961	-157.997	0.318	0.018
-242.946	173.761	-0.246	-0.351
-241.932	-200.000	0.045	-0.324
-240.917	-160.013	-0.149	-0.008
-239.903	-163.420	-0.125	0.006
-238.888	32.327	-0.252	-0.214
-237.873	-132.776	-0.083	-0.010
-236.859	136.450	0.207	-0.266
-235.844	-80.023	0.340	-0.113
-234.830	153.323	-0.181	-0.244
-233.815	309.497	0.085	0.156
-232.800	-4.180	-0.239	-0.163
-231.786	-107.855	0.201	-0.043
-230.771	-117.373	0.037	0.007
-229.757	-138.818	0.295	0.032
-228.742	4.029	0.134	0.096
-227.727	-200.000	0.078	0.369
-226.713	-108.413	0.169	0.036
-225.698	-64.688	0.060	-0.024
-224.684	800.000	-0.122	0.448
-223.669	136.759	0.257	0.330
-222.655	-200.000	0.003	-0.193
-221.640	-146.594	-0.226	0.019
-220.625	-33.706	0.646	-0.351
-219.611	-133.758	-0.307	0.038
-218.596	-200.000	-0.031	0.437
-217.582	-32.092	-0.347	-0.191
-216.567	-70.318	-0.363	0.136
-215.552	16.959	-0.258	-0.201
-214.538	-24.719	-0.135	-0.079
-213.523	-99.675	-0.112	-0.028
-212.509	-200.000	-0.041	0.295
-211.494	-100.766	0.219	-0.053
-210.479	-200.000	0.083	0.430
-209.465	800.000	-0.068	-0.225
-208.450	-200.000	0.074	-0.390
-207.436	-158.589	0.148	-0.008
-206.421	218.992	0.064	-0.101
-205.406	-67.254	-0.185	0.072
-204.392	-200.000	-0.030	-0.332
-203.377	-154.394	0.376	0.025
-202.363	-84.650	-0.124	0.038
-201.348	800.000	-0.078	0.272
-200.333	800.000	0.078	-0.278
-199.319	60.183	-0.166	0.162
-198.304	-36.368	-0.209	0.111
-197.290	35.890	0.235	-0.203
-196.275	77.107	0.368	0.385
-195.260	626.857	-0.058	0.144
-194.246	-46.647	0.281	-0.135
-193.231	190.728	0.116	-0.171
-192.217	639.853	0.100	-0.250
-191.202	15.662	-0.114	-0.088
-190.187	-135.043	0.346	-0.041
-189.173	-200.000	-0.020	0.231
-188.158	-32.533	-0.164	-0.090
-187.144	94.072	0.038	0.042
-186.129	65.516	0.185	-0.184
-185.114	25.333	-0.095	0.078
-184.100	-200.000	0.017	0.185
-183.085	-28.735	0.140	0.079
-182.071	800.000	-0.203	0.629
-181.056	208.765	0.124	0.192
-180.042	222.544	-0.198	-0.313
-179.027	800.000	-0.043	0.136
-178.012	-69.749	-0.262	-0.099
-176.998	800.000	-0.089	-0.323
-175.983	-68.032	-0.270	-0.104
-174.969	154.722	0.040	0.054
-173.954	644.856	0.095	-0.240
-172.939	-200.000	-0.044	0.258
-171.925	-30.321	0.037	-0.021
-170.910	29.255	0.278	-0.232
-169.896	-200.000	-0.059	0.257
-168.881	-90.230	0.134	-0.038
-167.866	-130.787	0.346	-0.046
-166.852	-186.524	0.207	-0.003
-165.837	-200.000	0.001	-0.103
-164.823	-200.000	0.036	-0.175
-163.808	212.956	-0.090	-0.140
-162.793	-6.515	0.352	-0.236
-161.779	-53.427	-0.187	-0.084
-160.764	-73.378	0.102	0.037
-159.750	-122.370	0.075	-0.012
-158.735	218.001	0.130	-0.204
-157.720	103.386	0.139	0.160
-156.706	687.198	-0.111	0.286
-155.691	-200.000	-0.069	0.340
-154.677	17.768	0.196	0.153
-153.662	485.474	0.039	0.087
-152.647	-200.000	-0.020	0.142
-151.633	800.000	-0.040	0.124
-150.618	-82.797	-0.333	0.106
-149.604	-200.000	-0.023	-0.466
-148.589	-132.930	-0.150	0.019
-147.574	800.000	0.082	0.339
-146.560	688.252	0.061	-0.156
-145.545	-19.630	-0.271	-0.165
-144.531	51.358	-0.156	-0.145
-143.516	-119.940	-0.109	0.018
-142.502	409.176	-0.045	0.093
-141.487	-200.000	0.082	-0.368
-140.472	213.057	-0.151	-0.234
-139.458	-54.314	0.066	-0.029
-138.443	-200.000	-0.017	-0.140
-137.429	-85.393	0.223	0.068
-136.414	413.989	-0.068	-0.142
-135.399	-63.009	0.072	-0.029
-134.385	-7.364	-0.228	0.152
-133.370	800.000	-0.037	-0.126
-132.356	-142.188	0.211	-0.021
-131.341	336.183	-0.164	0.312
-130.326	-26.382	-0.238	0.137
-129.312	-144.658	0.234	-0.021
-128.297	90.742	0.242	0.267
-127.283	761.421	0.064	0.170
-126.268	-39.293	-0.237	-0.122
-125.253	89.689	-0.173	-0.190
-124.239	25.022	0.100	0.082
-123.224	107.050	-0.136	0.158
