DTS Sentinel unit serial number:	SN413079Multiplexer serial number:	ORYXHardware model number:	OX4-SRSoftware version number:	ORYX F/W v4.00 Oryx Data Collector v3.7.2.0data status	okinstallation	princeton_trtdifferential loss correction	single-endedforward channel	channel 4reverse channel	N/Adate	2019/09/18time	05:13:35forward acquisition time	60.00reverse acquisition time	0.00gamma	496.2192k internal	0.2331k external	0.2331temperature offset calibration	0.9997default loss term (dB/km)	0.3790temperature slope calibration	1.0000multiplexer offset coefficient	1.0000multiplexer slope coefficient	1.0000fibre end	0.00T internal ref (°C)	23.50T ext. ref 1 (°C)	0.19T ext. ref 2 (°C)	17.44length (m)	temperature (°C)	Stokes	anti-Stokes-747.200	-107.832	0.065	0.014
-746.185	9.116	0.252	0.192
-745.171	-13.193	-0.140	0.092
-744.156	-58.885	0.013	0.006
-743.142	95.191	-0.203	0.233
-742.127	525.959	0.066	0.157
-741.112	-77.295	-0.172	-0.060
-740.098	-76.867	-0.096	-0.034
-739.083	-38.114	0.126	0.067
-738.069	275.315	-0.245	0.438
-737.054	800.000	0.061	-0.215
-736.039	-130.975	0.153	0.021
-735.025	27.493	0.234	-0.198
-734.010	-200.000	0.042	-0.248
-732.996	-150.914	-0.229	-0.017
-731.981	376.601	0.043	-0.087
-730.966	21.285	0.122	-0.100
-729.952	98.926	0.065	-0.076
-728.937	-53.778	0.108	0.049
-727.923	-28.849	-0.314	-0.182
-726.908	10.795	0.030	-0.023
-725.894	0.540	-0.254	0.183
-724.879	25.425	-0.228	-0.191
-723.864	763.918	-0.074	-0.203
-722.850	53.560	-0.154	0.149
-721.835	726.581	-0.116	-0.311
-720.821	-14.559	0.100	0.065
-719.806	-76.113	0.360	-0.128
-718.791	-191.867	-0.519	-0.005
-717.777	-200.000	0.048	-0.356
-716.762	800.000	-0.071	0.273
-715.748	-200.000	-0.001	0.077
-714.733	399.070	-0.190	-0.400
-713.718	-100.015	0.335	-0.084
-712.704	-29.294	0.146	-0.084
-711.689	-200.000	-0.044	-0.208
-710.675	48.329	0.084	-0.079
-709.660	-200.000	-0.004	-0.213
-708.645	-160.986	0.370	0.020
-707.631	184.586	0.102	-0.151
-706.616	800.000	-0.035	-0.133
-705.602	-200.000	0.033	-0.166
-704.587	12.892	0.114	-0.089
-703.572	-63.133	-0.185	0.077
-702.558	96.993	-0.050	-0.057
-701.543	-119.168	0.208	0.036
-700.529	-200.000	-0.007	-0.304
-699.514	-15.784	0.264	-0.169
-698.499	-124.797	-0.194	-0.030
-697.485	21.660	0.091	0.075
-696.470	-76.239	0.134	0.047
-695.456	-51.666	-0.402	-0.188
-694.441	-16.574	-0.487	-0.310
-693.426	-26.889	-0.237	-0.139
-692.412	-200.000	-0.038	-0.252
-691.397	-200.000	0.016	0.207
-690.383	328.876	-0.176	-0.339
-689.368	23.263	-0.104	-0.086
-688.354	-30.122	-0.165	0.094
-687.339	-200.000	0.018	-0.240
-686.324	33.930	0.053	0.047
-685.310	-141.428	-0.272	-0.028
-684.295	686.298	-0.037	-0.097
-683.281	399.526	0.088	-0.185
-682.266	-60.339	-0.049	-0.021
-681.251	-200.000	-0.073	-0.587
-680.237	-152.054	-0.152	0.011
-679.222	-200.000	0.002	0.026
-678.208	-2.597	0.324	-0.228
-677.193	757.084	-0.019	0.051
-676.178	280.492	0.127	-0.227
-675.164	116.319	-0.084	-0.103
-674.149	800.000	-0.080	-0.247
-673.135	219.851	-0.269	-0.433
-672.120	5.279	-0.320	-0.237
-671.105	141.897	-0.148	-0.197
-670.091	800.000	0.062	-0.183
-669.076	800.000	-0.133	-0.438
-668.062	43.655	0.115	-0.105
-667.047	308.270	0.102	-0.191
-666.032	301.249	0.084	0.155
-665.018	-135.448	0.326	0.039
-664.003	164.372	0.185	-0.262
-662.989	159.008	-0.030	-0.041
-661.974	23.784	-0.166	-0.137
-660.959	-134.541	0.204	0.025
-659.945	-76.932	-0.167	-0.059
-658.930	-79.107	-0.230	0.078
-657.916	6.387	-0.353	-0.263
-656.901	317.776	0.189	-0.360
-655.886	11.285	0.151	-0.116
-654.872	-98.174	0.332	0.086
-653.857	-12.983	-0.213	-0.139
-652.843	-49.721	0.168	0.080
-651.828	77.313	0.118	0.126
-650.814	-49.092	-0.082	0.039
-649.799	545.536	0.057	-0.135
-648.784	-200.000	0.021	-0.101
-647.770	195.724	-0.248	-0.378
-646.755	305.475	-0.135	-0.252
-645.741	-83.634	-0.213	-0.068
-644.726	44.573	-0.239	0.221
-643.711	20.927	0.151	0.123
-642.697	-48.953	0.381	0.183
-641.682	16.424	-0.369	-0.292
-640.668	12.037	0.137	-0.106
-639.653	-191.169	0.264	-0.003
-638.638	-52.530	-0.112	-0.052
-637.624	84.413	-0.259	-0.284
-636.609	-118.652	0.090	-0.016
-635.595	-56.087	0.174	0.078
-634.580	800.000	0.021	-0.074
-633.565	-126.798	0.288	0.043
-632.551	280.771	0.162	0.290
-631.536	559.447	0.063	0.152
-630.522	-76.560	0.231	0.081
-629.507	57.405	-0.109	-0.106
-628.492	-180.865	0.187	0.004
-627.478	-200.000	-0.022	-0.177
-626.463	11.118	-0.045	-0.035
-625.449	24.795	-0.243	-0.202
-624.434	7.762	-0.131	0.098
-623.419	-141.219	-0.083	-0.009
-622.405	-130.822	-0.458	-0.062
-621.390	-102.123	-0.291	-0.070
-620.376	143.350	-0.040	0.053
-619.361	-200.000	0.046	-0.235
-618.346	61.763	-0.261	0.261
-617.332	31.799	-0.283	0.244
-616.317	66.499	-0.232	-0.236
-615.303	209.917	-0.045	0.070
-614.288	102.172	0.160	0.187
-613.273	-6.577	0.090	-0.061
-612.259	-119.099	0.286	-0.050
-611.244	166.378	-0.204	0.290
-610.230	-7.708	-0.039	0.026
-609.215	346.949	0.075	0.147
-608.201	-163.523	-0.399	0.019
-607.186	611.901	-0.030	-0.074
-606.171	800.000	0.083	-0.353
-605.157	-200.000	-0.023	0.160
-604.142	-200.000	0.000	0.189
-603.128	43.912	-0.114	-0.105
-602.113	-97.210	-0.295	0.077
-601.098	-38.461	-0.138	-0.073
-600.084	191.855	-0.069	0.104
-599.069	-119.408	0.126	-0.022
-598.055	-62.659	-0.149	-0.062
-597.040	529.975	-0.121	0.287
-596.025	208.306	0.068	0.106
-595.011	220.564	0.091	-0.146
-593.996	800.000	0.042	-0.137
-592.982	-108.652	0.177	-0.038
-591.967	520.491	0.090	-0.212
-590.952	-103.802	0.260	-0.061
-589.938	800.000	-0.117	-0.326
-588.923	160.338	0.038	-0.053
-587.909	800.000	-0.060	-0.224
-586.894	-22.872	-0.155	-0.094
-585.879	30.684	-0.049	0.042
-584.865	-21.533	0.187	-0.114
-583.850	-143.735	0.121	0.012
-582.836	193.366	-0.216	0.326
-581.821	-200.000	-0.023	-0.139
-580.806	24.564	0.076	0.063
-579.792	-200.000	-0.029	0.136
-578.777	-150.068	-0.372	0.029
-577.763	-85.321	-0.320	0.100
-576.748	800.000	-0.076	-0.228
-575.733	176.096	-0.184	0.267
-574.719	-63.994	0.034	0.014
-573.704	-200.000	-0.034	-0.270
-572.690	266.840	0.150	-0.262
-571.675	-127.577	-0.310	-0.045
-570.661	45.251	0.118	0.109
-569.646	-159.932	0.278	0.015
-568.631	-76.386	-0.140	-0.049
-567.617	28.806	-0.242	0.205
-566.602	195.282	-0.157	0.238
-565.588	-2.847	-0.207	0.145
-564.573	399.025	0.063	0.131
-563.558	82.600	-0.183	-0.198
-562.544	800.000	0.017	0.049
-561.529	-112.227	-0.312	0.063
-560.515	136.501	-0.100	-0.131
-559.500	-200.000	0.079	-0.402
-558.485	800.000	-0.124	-0.355
-557.471	-87.353	0.316	-0.096
-556.456	375.239	0.062	0.126
-555.442	800.000	0.096	0.396
-554.427	-76.695	-0.132	-0.046
-553.412	-48.942	0.120	0.057
-552.398	-119.373	-0.157	0.027
-551.383	105.893	-0.036	0.043
-550.369	9.948	0.130	0.099
-549.354	43.172	-0.139	-0.127
-548.339	-81.405	-0.243	0.080
-547.325	800.000	-0.076	0.279
-546.310	308.651	-0.157	-0.293
-545.296	-45.614	0.212	-0.105
-544.281	-42.663	-0.087	-0.044
-543.266	59.352	-0.181	-0.178
-542.252	15.788	-0.019	-0.015
-541.237	-73.911	0.146	0.053
-540.223	374.176	-0.045	-0.092
-539.208	84.226	-0.029	0.032
-538.193	104.932	0.284	0.335
-537.179	-5.042	-0.218	-0.150
-536.164	-157.346	0.220	-0.013
-535.150	800.000	-0.057	-0.170
-534.135	-20.606	-0.034	-0.021
-533.121	-48.761	-0.140	0.067
-532.106	-76.499	-0.190	0.067
-531.091	222.974	0.050	0.081
-530.077	-200.000	-0.036	0.305
-529.062	186.396	0.108	0.161
-528.048	-200.000	0.029	-0.177
-527.033	800.000	0.115	-0.446
-526.018	-200.000	-0.037	0.181
-525.004	124.037	0.154	-0.193
-523.989	-67.988	-0.275	0.107
-522.975	54.363	-0.113	-0.109
-521.960	-200.000	-0.068	0.637
-520.945	31.664	0.138	-0.119
-519.931	-200.000	-0.042	-0.380
-518.916	-200.000	-0.012	-0.287
-517.902	-124.565	-0.120	-0.019
-516.887	-65.479	0.067	0.027
-515.872	327.644	0.009	-0.017
-514.858	-125.765	0.242	0.036
-513.843	-111.415	-0.143	-0.029
-512.829	105.506	0.099	0.117
-511.814	355.838	-0.090	0.178
-510.799	23.395	-0.066	0.054
-509.785	-41.411	0.158	0.081
-508.770	-67.088	-0.161	0.063
-507.756	-152.076	-0.335	0.024
-506.741	-200.000	0.074	-0.347
-505.726	800.000	0.057	-0.180
-504.712	-84.331	-0.171	0.054
-503.697	607.892	-0.067	-0.166
-502.683	-23.809	0.329	0.196
-501.668	-200.000	0.028	0.151
-500.653	126.244	0.192	0.242
-499.639	-41.770	0.174	-0.089
-498.624	37.230	0.269	-0.237
-497.610	-94.513	0.213	-0.058
-496.595	-103.880	-0.315	-0.073
-495.581	-156.897	-0.072	0.004
-494.566	182.821	-0.089	0.131
-493.551	12.510	0.142	0.109
-492.537	800.000	-0.054	-0.171
-491.522	-40.960	-0.237	-0.122
-490.508	239.929	-0.186	-0.309
-489.493	-32.713	0.309	-0.171
-488.478	-77.726	-0.308	-0.106
-487.464	-12.632	0.089	-0.058
-486.449	800.000	-0.035	0.143
-485.435	-96.624	-0.270	0.071
-484.420	41.136	0.064	0.058
-483.405	382.577	0.208	0.426
-482.391	-146.084	-0.068	-0.006
-481.376	800.000	0.035	-0.100
-480.362	-200.000	0.008	0.150
-479.347	38.459	0.094	0.083
-478.332	-16.418	0.080	0.050
-477.318	800.000	-0.052	0.195
-476.303	-141.319	-0.278	-0.028
-475.289	800.000	-0.033	0.131
-474.274	300.416	0.099	0.181
-473.259	494.258	-0.107	-0.245
-472.245	-139.615	-0.125	0.013
-471.230	529.565	-0.089	0.209
-470.216	-36.387	0.231	0.124
-469.201	-200.000	0.003	0.110
-468.186	302.780	-0.013	-0.023
-467.172	-80.151	0.142	-0.047
-466.157	-200.000	-0.020	0.236
-465.143	-200.000	0.038	0.218
-464.128	-200.000	-0.006	-0.282
-463.113	800.000	-0.049	0.205
-462.099	88.852	0.257	0.285
-461.084	416.235	0.182	-0.386
-460.070	-200.000	0.002	-0.167
-459.055	800.000	0.027	-0.118
-458.040	302.935	-0.135	-0.249
-457.026	454.964	0.089	-0.196
-456.011	98.993	0.341	0.392
-454.997	800.000	-0.023	0.063
-453.982	-123.962	0.313	-0.049
-452.968	232.356	0.112	0.182
-451.953	-200.000	-0.017	-0.099
-450.938	99.323	-0.264	0.304
-449.924	-150.246	0.393	0.030
-448.909	-200.000	-0.038	-0.274
-447.895	800.000	-0.021	-0.061
-446.880	8.844	-0.241	0.181
-445.865	-200.000	-0.013	-0.130
-444.851	800.000	-0.034	-0.095
-443.836	136.478	-0.119	-0.154
-442.822	483.597	0.096	-0.216
-441.807	739.896	-0.088	0.235
-440.792	800.000	-0.016	0.065
-439.778	-200.000	-0.017	0.151
-438.763	150.808	-0.196	0.265
-437.749	99.860	-0.271	0.312
-436.734	-135.222	0.287	0.034
-435.719	-44.665	0.096	0.048
-434.705	116.934	-0.140	0.171
-433.690	6.608	-0.218	0.161
-432.676	243.754	-0.187	-0.312
-431.661	146.782	-0.166	0.222
-430.646	34.485	0.088	-0.076
-429.632	-200.000	-0.075	0.330
-428.617	-107.573	-0.042	0.009
-427.603	-166.804	-0.038	-0.002
-426.588	-200.000	0.000	-0.394
-425.573	460.569	-0.057	0.127
-424.559	-144.712	-0.170	0.016
-423.544	800.000	-0.131	0.396
-422.530	311.347	0.087	-0.162
-421.515	800.000	-0.045	0.163
-420.500	132.681	-0.113	0.145
-419.486	182.991	-0.109	-0.159
-418.471	-200.000	-0.007	0.182
-417.457	-18.913	0.188	-0.116
-416.442	-200.000	-0.219	0.001
-415.428	-200.000	0.027	0.141
-414.413	-89.663	0.129	0.038
-413.398	-28.372	0.432	0.248
-412.384	-200.000	0.020	-0.278
-411.369	86.914	-0.280	-0.307
-410.355	-200.000	-0.032	0.143
-409.340	708.436	0.006	-0.016
-408.325	21.575	0.128	-0.103
-407.311	-41.016	0.260	-0.134
-406.296	-73.069	0.205	-0.075
-405.282	800.000	-0.029	0.126
-404.267	-200.000	-0.030	-0.198
-403.252	-33.433	0.052	-0.029
-402.238	14.216	0.416	0.322
-401.223	133.552	0.112	0.143
-400.209	-200.000	0.022	0.281
-399.194	347.581	-0.170	-0.332
-398.179	800.000	-0.045	0.148
-397.165	-200.000	-0.002	0.322
-396.150	-35.670	-0.242	0.130
-395.136	800.000	0.080	-0.256
-394.121	163.921	-0.060	-0.084
-393.106	34.063	-0.097	0.083
-392.092	-79.733	-0.092	-0.031
-391.077	-200.000	-0.017	0.207
-390.063	800.000	0.039	0.122
-389.048	-200.000	-0.023	0.137
-388.033	21.094	0.367	-0.295
-387.019	-117.779	-0.420	-0.075
-386.004	318.228	-0.102	-0.191
-384.990	800.000	0.066	0.188
-383.975	222.906	0.027	-0.043
-382.960	-3.918	-0.029	-0.020
-381.946	511.475	-0.130	0.301
-380.931	-116.247	-0.285	-0.052
-379.917	-200.000	-0.015	-0.140
-378.902	-67.867	-0.163	0.063
-377.888	249.113	0.192	0.323
-376.873	-4.629	0.312	0.213
-375.858	218.345	-0.051	0.081
-374.844	-116.816	-0.049	0.009
-373.829	-200.000	0.005	-0.500
-372.815	800.000	0.018	0.052
-371.800	46.632	-0.134	0.124
-370.785	800.000	-0.089	-0.324
-369.771	15.792	0.203	0.159
-368.756	-14.528	0.164	-0.105
-367.742	65.722	0.052	-0.052
-366.727	-22.164	-0.307	-0.185
-365.712	17.284	-0.066	0.052
-364.698	-200.000	-0.014	0.410
-363.683	-11.911	0.316	0.205
-362.669	-200.000	0.002	0.085
-361.654	-80.871	0.133	0.044
-360.639	800.000	-0.059	-0.209
-359.625	208.925	-0.118	-0.182
-358.610	-200.000	-0.049	-0.324
-357.596	57.502	-0.248	-0.241
-356.581	-200.000	0.011	0.294
-355.566	22.962	-0.076	-0.062
-354.552	-121.647	0.226	-0.037
-353.537	800.000	-0.109	0.453
-352.523	126.156	0.093	-0.116
-351.508	-150.210	0.141	0.011
-350.493	-97.930	0.178	0.046
-349.479	-193.944	-0.191	0.002
-348.464	-61.533	0.160	-0.067
-347.450	-109.058	-0.199	0.042
-346.435	-32.100	0.080	0.044
-345.420	-36.712	0.133	-0.071
-344.406	114.975	-0.122	0.147
-343.391	0.204	-0.106	0.075
-342.377	-200.000	-0.004	-0.048
-341.362	-139.946	0.209	0.022
-340.348	-68.606	-0.262	-0.101
-339.333	326.793	0.128	-0.243
-338.318	-83.256	0.387	0.123
-337.304	1.002	-0.115	0.082
-336.289	33.091	0.052	0.045
-335.275	1.713	-0.152	-0.108
-334.260	-26.494	0.303	-0.176
-333.245	59.734	0.216	0.211
-332.231	356.905	0.129	0.254
-331.216	48.064	0.548	-0.507
-330.202	-87.385	-0.158	0.047
-329.187	-87.319	-0.095	0.029
-328.172	-200.000	-0.056	-0.275
-327.158	222.215	0.269	-0.428
-326.143	-62.323	0.250	0.103
-325.129	5.798	0.205	0.150
-324.114	157.596	-0.152	-0.208
-323.099	363.942	0.108	0.214
-322.085	319.913	-0.136	0.256
-321.070	800.000	0.058	0.181
-320.056	-45.266	0.188	-0.093
-319.041	320.251	-0.074	-0.139
-318.026	532.088	0.122	-0.286
-317.012	-200.000	0.032	-0.229
-315.997	-86.169	-0.067	-0.020
-314.983	5.072	0.102	-0.074
-313.968	-200.000	-0.007	0.122
-312.953	-59.611	-0.249	-0.106
-311.939	22.862	-0.167	0.136
-310.924	21.045	-0.114	0.092
-309.910	-2.159	-0.225	-0.157
-308.895	-44.099	-0.216	-0.107
-307.880	202.035	-0.210	0.321
-306.866	252.775	-0.111	0.188
-305.851	539.333	-0.080	0.188
-304.837	76.483	-0.188	0.197
-303.822	800.000	-0.046	0.194
-302.807	-3.419	-0.137	-0.094
-301.793	-55.363	0.139	-0.062
-300.778	-140.787	0.162	-0.017
-299.764	67.491	-0.154	0.156
-298.749	-45.316	0.320	0.157
-297.735	155.497	-0.177	0.240
-296.720	-200.000	0.025	-0.112
-295.705	800.000	0.063	-0.231
-294.691	525.700	0.157	-0.366
-293.676	269.002	0.173	-0.300
-292.662	244.909	0.229	0.381
-291.647	36.599	0.093	0.082
-290.632	-56.741	0.225	-0.098
-289.618	-143.405	-0.073	-0.007
-288.603	-109.870	-0.260	0.054
-287.589	-200.000	0.046	0.338
-286.574	43.957	-0.105	0.095
-285.559	-91.613	-0.167	0.047
-284.545	52.298	-0.173	-0.163
-283.530	-76.809	0.118	0.041
-282.516	-4.798	-0.122	-0.083
-281.501	-54.975	-0.365	-0.163
-280.486	-147.999	0.084	-0.007
-279.472	-71.380	-0.266	0.098
-278.457	-200.000	0.031	0.196
-277.443	-186.340	0.224	0.003
-276.428	-59.113	0.149	0.064
-275.413	57.766	0.151	0.146
-274.399	328.909	-0.102	0.195
-273.384	-98.057	0.278	-0.071
-272.370	572.717	-0.050	0.120
-271.355	-90.398	0.379	-0.109
-270.340	-141.041	0.068	0.007
-269.326	589.352	-0.085	-0.206
-268.311	95.650	0.296	-0.334
-267.297	69.928	-0.024	0.025
-266.282	800.000	0.025	-0.096
-265.267	187.272	0.180	-0.266
-264.253	-200.000	0.012	0.127
-263.238	-59.485	-0.318	-0.135
-262.224	-200.000	-0.033	-0.219
-261.209	-200.000	0.063	-0.495
-260.195	163.905	0.079	0.110
-259.180	156.816	0.064	0.088
-258.165	-36.539	-0.219	-0.117
-257.151	800.000	0.050	0.193
-256.136	-4.546	-0.137	0.093
-255.122	-1.932	-0.114	-0.079
-254.107	-200.000	0.005	0.111
-253.092	434.117	0.041	0.089
-252.078	-162.006	0.135	-0.007
-251.063	50.810	0.246	0.230
-250.049	92.501	-0.209	0.232
-249.034	484.874	-0.069	0.155
-248.019	-42.666	0.309	0.155
-247.005	366.326	0.086	0.171
-245.990	351.818	-0.121	0.237
-244.976	260.657	0.044	-0.075
-243.961	335.083	-0.132	0.252
-242.946	-99.041	0.219	0.055
-241.932	174.293	0.066	0.095
-240.917	-88.514	0.120	-0.035
-239.903	4.870	0.159	0.115
-238.888	2.149	-0.229	0.163
-237.873	130.913	-0.058	0.074
-236.859	-200.000	-0.011	-0.214
-235.844	-26.613	-0.145	0.084
-234.830	800.000	0.070	-0.236
-233.815	-41.642	-0.289	-0.147
-232.800	179.254	-0.152	0.219
-231.786	-10.132	-0.140	0.092
-230.771	669.162	0.054	0.138
-229.757	-200.000	-0.013	0.095
-228.742	-200.000	-0.011	-0.082
-227.727	-200.000	-0.033	0.224
-226.713	-16.097	-0.263	-0.165
-225.698	-103.773	0.292	0.067
-224.684	-115.397	0.337	-0.063
-223.669	-116.722	-0.198	0.036
-222.655	800.000	-0.029	-0.082
-221.640	66.126	-0.227	-0.227
-220.625	355.461	0.108	-0.211
-219.611	363.831	0.024	0.047
-218.596	52.844	-0.202	-0.190
-217.582	-198.274	0.399	-0.002
-216.567	800.000	0.040	0.140
-215.552	300.352	-0.058	-0.106
-214.538	-200.000	0.027	0.123
-213.523	310.981	0.100	0.184
-212.509	371.332	-0.186	0.372
-211.494	-93.790	-0.242	-0.066
-210.479	-90.015	0.209	-0.060
-209.465	209.087	0.144	-0.222
-208.450	-35.639	0.391	0.209
-207.436	48.371	0.154	-0.142
-206.421	-20.929	0.230	-0.139
-205.406	429.401	0.005	0.010
-204.392	-80.179	-0.202	0.067
-203.377	-78.305	-0.091	-0.031
-202.363	-200.000	0.002	-0.012
-201.348	-71.613	0.297	-0.109
-200.333	-87.979	-0.146	0.043
-199.319	-94.351	-0.310	-0.083
-198.304	-37.556	0.242	0.127
-197.290	-200.000	0.034	0.307
-196.275	-200.000	0.011	-0.249
-195.260	-127.093	0.109	-0.016
-194.246	16.086	0.336	-0.261
-193.231	-0.794	0.168	-0.117
-192.217	-175.887	0.127	-0.003
-191.202	-200.000	0.040	-0.218
-190.187	-79.440	0.147	0.049
-189.173	800.000	0.067	-0.219
-188.158	63.175	0.167	0.165
-187.144	-176.365	-0.033	0.001
-186.129	-155.529	-0.310	0.020
-185.114	-200.000	0.006	0.146
-184.100	-77.106	0.194	-0.067
-183.085	117.447	-0.107	0.130
-182.071	-70.717	-0.484	-0.180
-181.056	-89.349	0.189	0.055
-180.042	800.000	-0.109	-0.418
-179.027	114.744	0.215	-0.258
-178.012	-5.925	0.184	-0.124
-176.998	-17.059	0.130	-0.081
-175.983	-149.142	-0.174	-0.014
-174.969	800.000	0.024	0.087
-173.954	204.476	-0.212	-0.323
-172.939	-33.285	-0.254	-0.139
-171.925	-70.970	0.043	0.016
-170.910	421.922	0.136	0.287
-169.896	-200.000	-0.006	-0.304
-168.881	376.759	0.160	-0.322
-167.866	502.879	0.067	0.152
-166.852	279.275	0.124	0.218
-165.837	68.655	0.219	-0.221
-164.823	-56.009	-0.092	0.040
-163.808	470.694	0.063	0.138
-162.793	203.512	0.103	-0.157
-161.779	22.318	0.098	0.079
-160.764	800.000	0.058	-0.206
-159.750	98.560	0.063	0.071
-158.735	338.847	-0.028	-0.054
-157.720	184.885	0.091	0.132
-156.706	-116.745	0.576	-0.104
-155.691	379.181	0.154	-0.310
-154.677	-50.831	0.312	-0.144
-153.662	795.325	0.010	0.026
-152.647	-81.070	-0.251	0.082
-151.633	-200.000	-0.011	0.075
-150.618	-130.058	-0.182	0.024
-149.604	-157.750	0.298	-0.017
-148.589	-102.821	0.272	-0.064
-147.574	-28.066	-0.220	-0.125
-146.560	418.135	-0.107	-0.224
-145.545	20.795	0.159	-0.127
-144.531	366.066	0.107	-0.211
-143.516	14.874	0.246	0.189
-142.502	54.378	0.226	-0.214
-141.487	714.588	0.100	-0.261
-140.472	390.270	-0.097	0.198
-139.458	-109.391	-0.081	-0.017
-138.443	297.895	-0.018	-0.032
-137.429	326.830	0.077	0.145
-136.414	475.230	0.052	0.116
-135.399	59.963	-0.157	-0.152
-134.385	289.023	0.123	-0.220
-133.370	-105.539	0.080	0.018
-132.356	-0.219	0.079	0.055
-131.341	182.494	-0.247	0.357
-130.326	61.286	0.084	-0.082
-129.312	100.415	-0.196	0.223
-128.297	-200.000	-0.046	0.470
-127.283	-153.557	0.235	-0.016
-126.268	26.720	0.283	0.233
-125.253	-200.000	0.207	-0.000
-124.239	-200.000	0.033	-0.187
-123.224	538.945	-0.066	0.153
-122.210	212.500	-0.141	-0.218
-121.195	-8.769	-0.083	-0.055
-120.180	-62.668	0.189	0.077
