DTS Sentinel unit serial number:	SN413079Multiplexer serial number:	ORYXHardware model number:	OX4-SRSoftware version number:	ORYX F/W v4.00 Oryx Data Collector v3.7.2.0data status	okinstallation	princeton_trtdifferential loss correction	single-endedforward channel	channel 4reverse channel	N/Adate	2019/09/16time	19:05:35forward acquisition time	60.00reverse acquisition time	0.00gamma	496.2192k internal	0.2305k external	0.2305temperature offset calibration	0.9967default loss term (dB/km)	0.3790temperature slope calibration	1.0000multiplexer offset coefficient	1.0000multiplexer slope coefficient	1.0000fibre end	0.00T internal ref (°C)	35.41T ext. ref 1 (°C)	0.07T ext. ref 2 (°C)	28.60length (m)	temperature (°C)	Stokes	anti-Stokes-747.200	-200.000	0.086	0.449
-746.185	-131.884	0.201	0.027
-745.171	-200.000	0.013	0.075
-744.156	161.368	0.066	0.094
-743.142	-85.366	-0.234	0.074
-742.127	-132.462	0.130	0.017
-741.112	94.280	-0.061	0.071
-740.098	-142.203	-0.289	-0.029
-739.083	-200.000	-0.022	0.181
-738.069	800.000	0.113	0.376
-737.054	-200.000	0.009	-0.067
-736.039	800.000	-0.091	-0.377
-735.025	-200.000	-0.049	0.288
-734.010	-169.417	-0.100	0.004
-732.996	-200.000	-0.007	0.380
-731.981	800.000	0.052	-0.173
-730.966	-200.000	-0.003	-0.082
-729.952	715.338	0.059	0.160
-728.937	241.513	0.139	0.237
-727.923	800.000	-0.082	-0.238
-726.908	164.137	-0.169	-0.242
-725.894	129.052	-0.273	-0.355
-724.879	153.214	0.067	-0.094
-723.864	-200.000	-0.051	0.233
-722.850	-101.931	0.140	0.034
-721.835	-46.041	-0.107	-0.054
-720.821	800.000	0.036	0.158
-719.806	245.991	0.079	0.136
-718.791	800.000	0.025	0.103
-717.777	-153.411	-0.096	-0.007
-716.762	-155.878	-0.460	-0.030
-715.748	51.241	-0.133	0.129
-714.733	800.000	-0.072	-0.227
-713.718	150.721	0.161	0.222
-712.704	-200.000	-0.012	-0.120
-711.689	-33.314	0.191	0.107
-710.675	-64.896	-0.296	0.122
-709.660	179.653	0.087	-0.129
-708.645	-132.760	0.095	-0.012
-707.631	-132.157	0.145	-0.019
-706.616	800.000	-0.070	0.228
-705.602	16.089	0.103	0.082
-704.587	-73.057	0.066	-0.025
-703.572	-41.203	0.258	-0.135
-702.558	-159.479	0.261	-0.015
-701.543	-71.144	-0.090	0.034
-700.529	-41.656	-0.203	-0.106
-699.514	-158.489	0.155	0.009
-698.499	218.525	0.085	0.137
-697.485	-128.285	0.235	-0.034
-696.470	-113.606	0.160	0.032
-695.456	-70.056	-0.066	-0.026
-694.441	-107.835	0.331	0.073
-693.426	-200.000	0.300	-0.001
-692.412	800.000	0.089	-0.343
-691.397	29.081	-0.165	-0.142
-690.383	-200.000	0.062	-0.344
-689.368	1.993	-0.103	-0.076
-688.354	-200.000	0.010	0.364
-687.339	-183.492	-0.285	-0.005
-686.324	-118.477	0.351	0.063
-685.310	37.438	0.044	-0.040
-684.295	800.000	-0.080	-0.255
-683.281	-20.435	0.116	-0.073
-682.266	-109.328	0.111	0.024
-681.251	161.499	0.171	-0.243
-680.237	-19.970	-0.245	0.154
-679.222	-22.081	-0.213	0.131
-678.208	-200.000	0.018	0.197
-677.193	-200.000	0.008	0.125
-676.178	-103.719	-0.099	-0.024
-675.164	-200.000	-0.048	0.236
-674.149	272.047	-0.167	0.299
-673.135	49.146	-0.263	-0.251
-672.120	3.551	-0.238	0.176
-671.105	-124.529	0.214	0.034
-670.091	164.071	0.119	-0.170
-669.076	-200.000	0.022	0.136
-668.062	800.000	-0.087	0.295
-667.047	60.747	0.124	0.125
-666.032	-82.715	-0.280	-0.092
-665.018	7.671	0.106	-0.080
-664.003	-135.148	-0.154	-0.019
-662.989	-107.619	-0.187	0.041
-661.974	-66.929	-0.152	-0.061
-660.959	-171.348	0.180	0.006
-659.945	392.299	0.017	0.036
-658.930	-168.294	0.202	0.008
-657.916	281.238	-0.106	0.193
-656.901	123.129	0.172	0.219
-655.886	-200.000	0.003	0.411
-654.872	-122.298	0.216	0.036
-653.857	102.074	-0.326	0.386
-652.843	256.670	0.182	0.317
-651.828	-120.659	-0.345	-0.059
-650.814	-124.959	0.037	-0.006
-649.799	-200.000	0.007	0.322
-648.784	-28.449	-0.533	0.312
-647.770	-145.283	-0.483	0.044
-646.755	800.000	0.015	-0.044
-645.741	-200.000	-0.026	0.180
-644.726	-200.000	-0.006	0.103
-643.711	-200.000	0.047	-0.388
-642.697	44.822	0.144	0.134
-641.682	-102.865	-0.283	0.068
-640.668	235.596	0.189	-0.316
-639.653	-75.442	-0.316	-0.114
-638.638	121.550	-0.092	-0.117
-637.624	74.742	0.155	-0.165
-636.609	235.158	0.100	-0.167
-635.595	-89.004	-0.386	0.116
-634.580	800.000	-0.038	0.114
-633.565	-149.628	0.297	0.024
-632.551	456.756	0.188	-0.424
-631.536	660.121	-0.064	-0.166
-630.522	394.968	0.077	0.163
-629.507	-96.986	-0.133	-0.035
-628.492	-36.515	-0.181	0.099
-627.478	-177.448	0.129	-0.003
-626.463	63.555	0.053	0.053
-625.449	800.000	0.069	0.274
-624.434	35.782	-0.273	0.243
-623.419	-27.498	-0.128	-0.075
-622.405	2.428	0.210	0.154
-621.390	42.977	-0.108	-0.100
-620.376	-12.173	-0.187	-0.124
-619.361	-89.984	0.197	0.058
-618.346	21.891	0.193	-0.160
-617.332	-200.000	-0.264	0.000
-616.317	520.477	0.040	-0.095
-615.303	3.026	-0.307	-0.226
-614.288	43.372	0.121	0.112
-613.273	-200.000	-0.007	0.294
-612.259	800.000	0.068	0.251
-611.244	-66.602	-0.246	0.099
-610.230	521.147	-0.045	-0.106
-609.215	-200.000	0.080	-0.419
-608.201	-16.086	0.103	0.066
-607.186	-127.694	0.488	0.071
-606.171	40.734	0.193	-0.176
-605.157	-113.355	-0.427	-0.085
-604.142	156.502	0.187	0.261
-603.128	-68.358	-0.275	-0.108
-602.113	-40.677	-0.210	0.110
-601.098	-58.606	0.151	0.066
-600.084	-156.594	-0.378	0.024
-599.069	-101.158	0.369	-0.091
-598.055	115.584	-0.063	-0.078
-597.040	-200.000	-0.027	-0.210
-596.025	663.463	0.031	0.081
-595.011	5.829	0.057	-0.043
-593.996	-200.000	-0.095	-0.445
-592.982	128.489	0.204	-0.263
-591.967	-155.214	0.356	0.023
-590.952	156.875	-0.110	-0.154
-589.938	337.972	0.057	0.112
-588.923	733.832	-0.158	-0.429
-587.909	275.366	-0.137	0.245
-586.894	117.678	0.069	0.086
-585.879	333.758	0.148	0.291
-584.865	25.118	-0.252	-0.212
-583.850	-15.221	-0.212	-0.137
-582.836	229.075	-0.108	0.179
-581.821	-92.036	0.181	0.052
-580.806	352.639	0.102	0.204
-579.792	-19.821	0.051	-0.032
-578.777	-200.000	-0.030	-0.168
-577.763	52.860	0.149	0.144
-576.748	-84.988	-0.338	-0.107
-575.733	-200.000	0.020	-0.101
-574.719	198.434	0.079	-0.122
-573.704	-153.640	-0.228	0.016
-572.690	800.000	-0.048	0.150
-571.675	800.000	-0.040	-0.125
-570.661	173.862	0.032	-0.047
-569.646	-38.841	-0.300	-0.160
-568.631	-56.324	0.053	-0.024
-567.617	46.674	0.158	-0.149
-566.602	-37.153	0.229	-0.124
-565.588	-25.264	-0.182	-0.109
-564.573	-200.000	-0.001	-0.430
-563.558	800.000	-0.098	0.289
-562.544	-200.000	0.063	0.297
-561.529	30.973	-0.206	-0.179
-560.515	-200.000	-0.032	-0.190
-559.500	-39.598	-0.143	-0.075
-558.485	340.467	0.162	0.320
-557.471	-79.504	-0.132	-0.045
-556.456	-200.000	-0.018	0.201
-555.442	-58.429	0.211	0.093
-554.427	-130.766	-0.147	0.020
-553.412	-43.122	-0.160	-0.082
-552.398	-29.846	-0.177	-0.102
-551.383	189.524	0.183	-0.277
-550.369	-102.826	-0.156	0.037
-549.354	-139.721	-0.152	0.016
-548.339	800.000	0.090	0.268
-547.325	272.086	0.070	-0.125
-546.310	-200.000	-0.009	0.333
-545.296	16.427	0.252	-0.201
-544.281	129.622	-0.084	-0.109
-543.266	185.511	0.121	-0.181
-542.252	-200.000	0.025	0.131
-541.237	-200.000	0.015	-0.247
-540.223	-200.000	-0.000	-0.036
-539.208	-35.643	-0.236	-0.129
-538.193	-119.485	-0.055	0.010
-537.179	355.578	0.204	0.409
-536.164	13.465	0.138	-0.108
-535.150	70.224	-0.045	-0.047
-534.135	-150.141	-0.226	0.018
-533.121	-113.699	-0.294	-0.058
-532.106	2.325	-0.271	0.198
-531.091	-200.000	0.011	0.053
-530.077	131.804	0.101	-0.131
-529.062	100.812	-0.249	0.292
-528.048	-200.000	-0.071	0.475
-527.033	-65.240	-0.112	0.046
-526.018	179.086	-0.013	-0.019
-525.004	150.064	-0.135	-0.185
-523.989	-105.414	-0.062	-0.014
-522.975	800.000	-0.024	-0.096
-521.960	-163.065	-0.290	0.014
-520.945	-200.000	0.060	0.299
-519.931	-95.317	0.207	0.056
-518.916	32.486	-0.200	-0.174
-517.902	175.304	-0.029	-0.043
-516.887	273.308	-0.083	0.149
-515.872	800.000	-0.096	-0.359
-514.858	-130.248	0.085	0.012
-513.843	-149.083	-0.096	-0.008
-512.829	-200.000	0.028	-0.254
-511.814	108.882	0.213	0.257
-510.799	-95.158	-0.263	-0.072
-509.785	245.492	0.062	0.105
-508.770	-109.068	-0.164	0.035
-507.756	-142.764	0.271	-0.027
-506.741	-86.863	0.142	-0.044
-505.726	10.109	0.280	-0.215
-504.712	7.483	-0.178	-0.134
-503.697	-200.000	-0.003	-0.251
-502.683	182.138	-0.142	0.211
-501.668	-200.000	-0.033	-0.361
-500.653	71.803	0.248	-0.260
-499.639	147.294	-0.074	0.100
-498.624	-200.000	-0.028	-0.311
-497.610	-0.261	0.311	-0.223
-496.595	-200.000	-0.012	0.225
-495.581	192.409	0.150	0.229
-494.566	29.215	-0.286	0.245
-493.551	62.162	-0.177	-0.178
-492.537	60.771	-0.098	0.098
-491.522	82.598	0.178	0.195
-490.508	-200.000	0.016	0.316
-489.493	87.151	-0.150	0.167
-488.478	-77.627	0.207	0.072
-487.464	-200.000	-0.049	-0.219
-486.449	292.037	-0.078	-0.143
-485.435	268.148	-0.052	0.092
-484.420	69.977	-0.163	0.170
-483.405	-92.239	-0.154	0.044
-482.391	13.851	-0.146	0.115
-481.376	-200.000	-0.005	0.080
-480.362	116.348	-0.132	0.163
-479.347	273.139	0.186	-0.331
-478.332	-30.538	-0.063	-0.036
-477.318	-168.698	-0.095	0.004
-476.303	3.232	0.199	0.146
-475.289	-200.000	-0.010	-0.057
-474.274	800.000	-0.010	0.039
-473.259	210.688	0.215	-0.340
-472.245	274.415	-0.125	-0.223
-471.230	-200.000	-0.047	0.387
-470.216	248.314	-0.075	0.127
-469.201	332.243	0.062	0.120
-468.186	-63.998	0.066	-0.027
-467.172	319.883	-0.230	-0.440
-466.157	175.630	0.146	-0.212
-465.143	-64.204	0.321	-0.132
-464.128	312.756	-0.193	0.364
-463.113	88.709	0.042	-0.047
-462.099	41.228	-0.171	0.155
-461.084	-200.000	0.142	-0.634
-460.070	-200.000	-0.001	-0.211
-459.055	277.197	0.124	0.222
-458.040	-200.000	0.029	-0.171
-457.026	-200.000	-0.021	-0.260
-456.011	153.546	-0.065	-0.090
-454.997	-100.568	-0.223	0.055
-453.982	194.476	0.251	-0.383
-452.968	199.735	0.231	0.357
-451.953	219.649	0.055	0.089
-450.938	2.115	-0.130	0.094
-449.924	-200.000	-0.039	-0.323
-448.909	-200.000	0.018	-0.155
-447.895	-112.083	-0.122	-0.025
-446.880	-200.000	0.005	-0.053
-445.865	22.520	0.164	-0.135
-444.851	124.012	0.107	-0.135
-443.836	800.000	-0.029	-0.084
-442.822	650.377	-0.075	0.193
-441.807	54.577	0.066	-0.064
-440.792	29.847	-0.107	0.091
-439.778	188.351	-0.183	-0.274
-438.763	104.068	-0.056	0.066
-437.749	-166.055	0.179	-0.008
-436.734	22.831	-0.090	0.074
-435.719	-200.000	0.031	0.268
-434.705	463.135	0.039	0.088
-433.690	-26.003	0.027	0.016
-432.676	273.346	0.149	-0.265
-431.661	-53.062	-0.093	-0.043
-430.646	-89.192	-0.368	0.109
-429.632	-200.000	-0.003	0.244
-428.617	16.945	-0.211	-0.168
-427.603	-107.144	-0.052	-0.012
-426.588	-200.000	0.025	-0.280
-425.573	800.000	-0.042	-0.178
-424.559	-200.000	-0.002	0.041
-423.544	-124.892	0.347	0.054
-422.530	310.013	-0.196	0.369
-421.515	800.000	0.024	-0.081
-420.500	-200.000	-0.086	-0.466
-419.486	-88.598	0.255	0.076
-418.471	-200.000	0.031	-0.362
-417.457	220.071	-0.086	0.139
-416.442	269.537	-0.134	-0.236
-415.428	-93.493	0.115	-0.032
-414.413	143.078	0.072	0.096
-413.398	-100.453	-0.325	-0.081
-412.384	-49.483	0.212	-0.102
-411.369	-200.000	0.001	0.086
-410.355	253.700	-0.010	-0.018
-409.340	-200.000	0.000	-0.078
-408.325	-200.000	0.060	0.314
-407.311	-113.825	-0.168	-0.033
-406.296	-0.985	0.238	0.169
-405.282	-87.493	0.209	0.064
-404.267	254.360	0.122	-0.210
-403.252	14.139	0.283	0.222
-402.238	-200.000	-0.024	0.243
-401.223	333.585	-0.183	0.355
-400.209	162.509	0.036	0.051
-399.194	222.323	0.090	0.145
-398.179	20.565	-0.099	0.081
-397.165	-200.000	0.021	0.193
-396.150	-79.181	-0.120	-0.041
-395.136	-152.560	0.196	-0.014
-394.121	800.000	-0.032	-0.094
-393.106	-200.000	-0.035	-0.287
-392.092	-137.391	0.413	-0.047
-391.077	-13.141	0.391	-0.255
-390.063	-130.748	-0.121	0.016
-389.048	-88.559	0.248	-0.074
-388.033	-54.977	0.301	0.136
-387.019	81.641	0.142	-0.154
-386.004	187.161	-0.014	0.022
-384.990	355.373	-0.152	0.304
-383.975	125.773	0.124	0.158
-382.960	236.323	-0.171	0.284
-381.946	495.231	-0.042	0.096
-380.931	-4.813	0.085	0.059
-379.917	-54.040	0.279	0.127
-378.902	60.496	0.265	-0.264
-377.888	800.000	-0.052	-0.215
-376.873	5.954	-0.117	0.087
-375.858	-183.693	0.141	0.002
-374.844	-31.239	0.244	-0.138
-373.829	-200.000	0.050	0.430
-372.815	456.400	0.067	0.148
-371.800	-200.000	0.008	0.231
-370.785	-200.000	-0.015	-0.182
-369.771	-32.869	-0.120	0.067
-368.756	178.853	0.123	-0.180
-367.742	-200.000	0.016	-0.102
-366.727	473.063	0.196	-0.442
-365.712	800.000	0.047	-0.176
-364.698	8.941	-0.337	0.255
-363.683	236.707	0.049	0.081
-362.669	429.202	-0.184	-0.399
-361.654	162.747	-0.195	0.275
-360.639	800.000	0.053	0.152
-359.625	-81.068	-0.288	0.095
-358.610	-72.188	-0.132	-0.049
-357.596	31.929	-0.103	-0.089
-356.581	30.422	-0.336	0.288
-355.566	-50.181	0.118	-0.056
-354.552	49.123	0.185	-0.174
-353.537	-200.000	0.029	-0.182
-352.523	800.000	-0.066	-0.196
-351.508	-101.306	-0.205	-0.050
-350.493	76.457	0.076	0.081
-349.479	-95.938	0.485	0.130
-348.464	800.000	0.094	0.306
-347.450	-18.468	-0.175	0.110
-346.435	-114.139	-0.464	0.090
-345.420	-200.000	0.007	0.126
-344.406	-27.389	0.227	0.132
-343.391	23.358	-0.323	-0.266
-342.377	86.719	0.105	0.116
-341.362	800.000	0.041	-0.171
-340.348	98.104	0.118	0.136
-339.333	138.796	-0.168	0.221
-338.318	73.278	0.093	0.097
-337.304	-96.385	0.328	0.087
-336.289	555.316	0.182	-0.439
-335.275	51.512	-0.100	-0.095
-334.260	-200.000	0.016	-0.169
-333.245	-86.851	0.196	-0.060
-332.231	84.712	-0.059	0.065
-331.216	-87.144	-0.191	-0.058
-330.202	-178.598	0.346	-0.008
-329.187	-126.588	-0.165	-0.025
-328.172	166.902	0.089	0.127
-327.158	-152.032	-0.216	0.016
-326.143	109.583	-0.090	0.108
-325.129	800.000	-0.118	0.422
-324.114	158.452	-0.190	0.264
-323.099	149.880	-0.212	-0.288
-322.085	-45.413	0.285	-0.141
-321.070	214.266	-0.216	0.342
-320.056	-200.000	0.007	0.129
-319.041	-186.759	-0.218	-0.003
-318.026	-200.000	0.002	-0.148
-317.012	-34.203	0.281	0.155
-315.997	-98.747	0.339	-0.086
-314.983	-123.696	-0.225	-0.036
-313.968	251.508	0.132	0.225
-312.953	-45.409	-0.247	0.123
-311.939	87.667	0.010	-0.011
-310.924	625.068	-0.011	-0.029
-309.910	-105.989	0.213	0.048
-308.895	-28.725	0.177	-0.102
-307.880	8.636	0.283	0.213
-306.866	-115.211	-0.257	-0.049
-305.851	-23.641	0.332	-0.199
-304.837	64.976	0.040	-0.040
-303.822	233.805	-0.089	0.146
-302.807	42.983	0.163	-0.148
-301.793	-200.000	0.030	0.270
-300.778	-68.455	-0.627	-0.243
-299.764	800.000	0.075	0.287
-298.749	386.948	0.115	0.237
-297.735	12.581	-0.317	0.245
-296.720	-29.577	-0.090	0.051
-295.705	-136.824	0.213	0.025
-294.691	-3.535	0.205	-0.143
-293.676	383.556	0.091	0.187
-292.662	-151.568	0.192	-0.014
-291.647	8.350	0.049	-0.037
-290.632	296.953	-0.122	-0.223
-289.618	-200.000	0.002	-0.071
-288.603	800.000	-0.080	0.253
-287.589	43.742	-0.036	0.033
-286.574	252.504	-0.190	-0.325
-285.559	179.451	0.080	0.117
-284.545	-200.000	-0.011	-0.126
-283.530	591.487	0.052	-0.128
-282.516	-101.903	-0.196	-0.047
-281.501	-89.857	-0.206	0.060
-280.486	-200.000	-0.005	-0.202
-279.472	-200.000	0.034	0.276
-278.457	-200.000	0.042	0.326
-277.443	-200.000	0.023	0.305
-276.428	-107.750	0.136	-0.030
-275.413	-181.467	-0.158	-0.003
-274.399	40.890	-0.194	0.175
-273.384	-172.371	-0.197	0.006
-272.370	104.204	-0.065	-0.076
-271.355	-42.072	-0.169	0.086
-270.340	-37.476	0.246	0.131
-269.326	31.120	-0.264	0.226
-268.311	-65.029	0.135	-0.054
-267.297	800.000	-0.122	-0.352
-266.282	800.000	-0.036	0.152
-265.267	800.000	0.029	-0.087
-264.253	-200.000	0.041	-0.250
-263.238	626.576	0.088	0.221
-262.224	56.965	-0.226	-0.220
-261.209	-112.817	0.345	-0.068
-260.195	-200.000	0.011	0.113
-259.180	-128.912	-0.094	-0.013
-258.165	13.639	-0.184	0.143
-257.151	87.783	0.088	0.097
-256.136	218.344	0.166	0.265
-255.122	22.706	0.103	0.084
-254.107	-200.000	-0.026	-0.152
-253.092	-81.103	-0.183	-0.060
-252.078	85.981	0.150	-0.165
-251.063	53.441	0.077	0.073
-250.049	-87.257	0.128	-0.039
-249.034	-200.000	0.018	-0.323
-248.019	16.455	-0.203	-0.160
-247.005	227.175	-0.109	-0.176
-245.990	-104.084	0.085	-0.020
-244.976	-200.000	0.047	-0.272
-243.961	661.514	0.086	0.221
-242.946	232.874	0.174	-0.286
-241.932	40.172	-0.083	-0.075
-240.917	-200.000	-0.023	0.241
-239.903	-180.911	-0.314	-0.006
-238.888	-26.362	0.130	-0.076
-237.873	36.389	0.242	0.213
-236.859	800.000	0.108	0.331
-235.844	-200.000	-0.040	0.182
-234.830	748.677	-0.047	-0.127
-233.815	796.932	0.163	0.448
-232.800	-102.314	0.026	0.006
-231.786	-200.000	-0.047	0.223
-230.771	-94.752	-0.054	-0.015
-229.757	-30.830	0.235	-0.132
-228.742	38.563	-0.156	-0.139
-227.727	722.222	-0.188	0.498
-226.713	94.000	-0.247	0.279
-225.698	-77.536	0.207	-0.071
-224.684	261.706	-0.170	0.293
-223.669	-19.432	0.114	-0.070
-222.655	-117.401	0.315	0.057
-221.640	-200.000	-0.040	-0.478
-220.625	-22.868	0.096	0.058
-219.611	-81.315	0.474	0.156
-218.596	-170.166	-0.096	-0.003
-217.582	178.374	0.022	0.031
-216.567	-200.000	-0.004	0.067
-215.552	722.548	0.035	-0.093
-214.538	-200.000	-0.033	-0.545
-213.523	228.698	0.099	0.161
-212.509	723.608	0.076	-0.201
-211.494	783.953	0.056	0.154
-210.479	21.043	-0.117	-0.095
-209.465	-57.808	0.162	0.071
-208.450	-75.178	-0.275	0.098
-207.436	-85.110	-0.167	-0.052
-206.421	-200.000	0.004	-0.136
-205.406	800.000	-0.033	0.119
-204.392	100.638	-0.168	0.194
-203.377	560.828	-0.098	-0.236
-202.363	800.000	0.051	-0.161
-201.348	398.350	0.079	0.165
-200.333	-200.000	-0.001	0.047
-199.319	-74.649	0.410	0.147
-198.304	-56.108	-0.089	0.039
-197.290	125.522	-0.125	-0.158
-196.275	261.788	-0.109	-0.188
-195.260	800.000	0.096	0.286
-194.246	-74.388	0.179	-0.064
-193.231	-200.000	0.249	-0.001
-192.217	-119.308	-0.153	-0.027
-191.202	-200.000	-0.033	0.222
-190.187	-200.000	-0.008	-0.064
-189.173	-63.469	0.339	0.139
-188.158	-88.681	0.193	-0.057
-187.144	-37.769	-0.198	-0.105
-186.129	-200.000	0.002	-0.273
-185.114	666.545	0.067	0.173
-184.100	579.314	-0.021	0.050
-183.085	-200.000	0.014	-0.262
-182.071	199.419	0.197	0.300
-181.056	62.987	0.165	0.165
-180.042	-78.166	0.208	-0.071
-179.027	-200.000	0.003	0.051
-178.012	-200.000	0.150	-0.001
-176.998	13.351	0.206	-0.159
-175.983	168.408	-0.049	-0.070
-174.969	-51.574	0.439	-0.204
-173.954	307.962	-0.104	-0.194
-172.939	44.460	0.239	-0.219
-171.925	66.041	-0.045	-0.046
-170.910	-200.000	-0.011	0.205
-169.896	-116.805	-0.277	0.050
-168.881	-200.000	0.572	0.001
-167.866	800.000	0.068	-0.295
-166.852	-2.628	0.273	-0.190
-165.837	-3.892	0.202	0.140
-164.823	-200.000	0.005	0.032
-163.808	207.585	0.190	0.295
-162.793	800.000	-0.080	0.307
-161.779	-71.315	-0.277	-0.103
-160.764	36.345	-0.211	0.185
-159.750	-82.862	0.098	-0.032
-158.735	199.644	0.099	-0.151
-157.720	72.940	-0.341	-0.355
-156.706	-64.731	0.245	0.099
-155.691	-167.033	-0.211	-0.009
-154.677	-102.717	-0.291	-0.069
-153.662	402.750	-0.090	0.189
-152.647	-2.156	-0.219	0.153
-151.633	-108.881	0.148	-0.032
-150.618	221.159	-0.115	0.184
-149.604	0.169	0.283	0.201
-148.589	-200.000	-0.036	0.205
-147.574	15.987	0.109	0.085
-146.560	-93.230	-0.119	0.033
-145.545	800.000	-0.064	-0.272
-144.531	36.201	0.268	-0.235
-143.516	-200.000	0.050	0.348
-142.502	283.699	0.077	0.137
-141.487	430.360	0.050	-0.108
-140.472	-116.863	-0.285	0.052
-139.458	-151.260	-0.265	-0.020
-138.443	-141.341	0.121	0.012
-137.429	800.000	-0.051	-0.143
-136.414	800.000	-0.049	-0.208
-135.399	-103.616	-0.137	-0.032
-134.385	-118.554	0.210	0.037
-133.370	74.475	0.121	-0.126
-132.356	-200.000	-0.035	0.221
-131.341	-26.794	0.030	0.018
-130.326	-200.000	-0.012	0.130
-129.312	-46.694	-0.246	-0.120
-128.297	367.058	0.024	-0.049
-127.283	3.592	0.007	0.005
-126.268	800.000	-0.011	0.033
-125.253	-49.213	-0.250	-0.119
-124.239	-64.852	-0.302	-0.122
-123.224	139.971	0.241	0.316
-122.210	-29.186	-0.125	0.071
-121.195	596.989	-0.138	0.340
