DTS Sentinel unit serial number:	SN413079Multiplexer serial number:	ORYXHardware model number:	OX4-SRSoftware version number:	ORYX F/W v4.00 Oryx Data Collector v3.7.2.0data status	okinstallation	princeton_trtdifferential loss correction	single-endedforward channel	channel 4reverse channel	N/Adate	2019/09/13time	22:17:35forward acquisition time	60.00reverse acquisition time	0.00gamma	496.2192k internal	0.2320k external	0.2320temperature offset calibration	1.0137default loss term (dB/km)	0.3790temperature slope calibration	1.0000multiplexer offset coefficient	1.0000multiplexer slope coefficient	1.0000fibre end	0.00T internal ref (°C)	27.87T ext. ref 1 (°C)	3.23T ext. ref 2 (°C)	22.57length (m)	temperature (°C)	Stokes	anti-Stokes-747.200	-96.089	0.049	-0.013
-746.185	-32.485	0.195	0.110
-745.171	-32.720	0.285	0.160
-744.156	-54.791	-0.197	0.090
-743.142	107.673	-0.144	0.173
-742.127	223.135	-0.139	0.226
-741.112	-155.788	-0.260	0.017
-740.098	-135.608	0.134	-0.016
-739.083	83.317	0.128	0.141
-738.069	354.515	-0.146	0.293
-737.054	800.000	0.047	0.147
-736.039	-200.000	-0.079	0.549
-735.025	-93.131	0.296	0.083
-734.010	12.146	-0.127	0.099
-732.996	16.961	0.227	0.182
-731.981	31.427	0.083	-0.072
-730.966	-200.000	0.047	-0.452
-729.952	46.465	0.134	0.125
-728.937	101.101	-0.147	-0.173
-727.923	-118.449	-0.279	-0.050
-726.908	-200.000	-0.059	-0.266
-725.894	-200.000	-0.018	-0.227
-724.879	-200.000	-0.003	-0.160
-723.864	-200.000	0.000	0.222
-722.850	157.135	-0.105	-0.147
-721.835	127.494	0.128	0.164
-720.821	800.000	0.047	0.198
-719.806	-200.000	0.024	0.438
-718.791	-172.428	-0.171	0.006
-717.777	42.046	0.051	0.046
-716.762	153.558	-0.114	-0.158
-715.748	-121.747	-0.158	-0.026
-714.733	-51.800	-0.274	0.129
-713.718	-143.010	0.178	0.017
-712.704	-121.925	-0.167	0.028
-711.689	-61.863	0.209	0.088
-710.675	435.906	-0.051	-0.111
-709.660	800.000	0.061	-0.242
-708.645	164.312	-0.269	0.383
-707.631	452.335	-0.072	-0.161
-706.616	-112.928	-0.166	0.033
-705.602	800.000	0.050	-0.177
-704.587	3.103	0.115	-0.084
-703.572	-2.359	0.047	0.034
-702.558	-200.000	0.007	0.047
-701.543	-107.125	-0.236	0.053
-700.529	212.945	-0.171	-0.273
-699.514	-200.000	0.014	-0.141
-698.499	-5.546	0.269	-0.186
-697.485	-4.479	-0.071	0.050
-696.470	-128.790	-0.183	-0.026
-695.456	25.048	0.295	0.247
-694.441	96.563	0.128	-0.148
-693.426	800.000	-0.077	-0.223
-692.412	800.000	0.029	-0.097
-691.397	244.976	0.201	-0.341
-690.383	106.334	0.153	-0.183
-689.368	-93.053	-0.142	-0.040
-688.354	-14.972	-0.202	0.131
-687.339	800.000	0.080	0.241
-686.324	-109.560	-0.427	0.091
-685.310	8.207	0.185	-0.140
-684.295	164.193	0.276	0.392
-683.281	329.207	-0.221	-0.430
-682.266	-54.805	0.370	0.168
-681.251	201.803	-0.216	0.335
-680.237	-200.000	0.020	0.138
-679.222	436.965	0.071	0.155
-678.208	375.285	-0.214	0.441
-677.193	-23.040	-0.080	-0.049
-676.178	-28.371	-0.207	0.121
-675.164	704.741	0.061	0.162
-674.149	-141.213	0.152	0.016
-673.135	-102.285	0.414	0.100
-672.120	21.489	0.152	-0.125
-671.105	102.202	0.039	-0.046
-670.091	26.002	-0.279	0.235
-669.076	-23.799	0.202	-0.122
-668.062	-200.000	-0.041	-0.224
-667.047	305.224	0.035	0.066
-666.032	62.036	-0.263	0.264
-665.018	-105.961	-0.221	0.050
-664.003	95.095	0.094	0.107
-662.989	800.000	-0.090	-0.268
-661.974	420.983	0.095	-0.206
-660.959	800.000	0.112	-0.336
-659.945	510.474	-0.167	0.390
-658.930	-137.209	-0.153	-0.018
-657.916	56.718	-0.237	-0.232
-656.901	-82.711	0.094	0.031
-655.886	-3.787	0.138	0.096
-654.872	-35.592	0.195	0.107
-653.857	-200.000	-0.004	0.112
-652.843	-59.921	0.297	-0.128
-651.828	800.000	0.074	0.277
-650.814	-27.692	0.082	0.048
-649.799	82.491	-0.227	-0.249
-648.784	169.358	-0.133	-0.192
-647.770	243.592	0.114	0.192
-646.755	-200.000	-0.018	0.273
-645.741	78.149	-0.441	-0.474
-644.726	-200.000	-0.011	-0.253
-643.711	-87.669	-0.113	0.034
-642.697	-200.000	-0.016	-0.223
-641.682	800.000	-0.046	-0.139
-640.668	-200.000	-0.011	0.237
-639.653	128.266	-0.061	0.078
-638.638	-79.500	-0.063	0.021
-637.624	-77.729	-0.239	0.083
-636.609	100.104	0.113	0.132
-635.595	-200.000	0.039	-0.174
-634.580	-121.866	-0.333	0.055
-633.565	-82.911	0.141	-0.046
-632.551	-200.000	-0.034	-0.282
-631.536	484.449	0.109	-0.249
-630.522	-32.506	-0.495	0.278
-629.507	-2.540	0.081	0.057
-628.492	-200.000	0.021	-0.179
-627.478	68.158	-0.199	0.205
-626.463	-135.643	0.225	-0.027
-625.449	385.469	0.157	-0.326
-624.434	-78.586	-0.163	-0.056
-623.419	4.283	0.130	-0.096
-622.405	-92.880	-0.031	-0.009
-621.390	225.836	0.049	0.080
-620.376	192.914	0.055	-0.083
-619.361	81.901	0.181	0.197
-618.346	800.000	0.032	0.115
-617.332	111.730	-0.165	-0.200
-616.317	56.887	0.160	0.157
-615.303	-200.000	0.017	0.165
-614.288	-178.099	0.114	0.003
-613.273	61.701	0.219	-0.220
-612.259	20.896	-0.223	0.182
-611.244	92.927	-0.068	0.078
-610.230	-90.261	-0.437	0.128
-609.215	755.756	0.063	0.172
-608.201	142.544	-0.150	0.200
-607.186	-10.191	0.185	0.124
-606.171	-107.246	-0.200	0.044
-605.157	-41.376	-0.308	-0.160
-604.142	-4.768	-0.315	0.219
-603.128	131.055	-0.193	-0.250
-602.113	-96.255	-0.297	-0.079
-601.098	800.000	0.038	-0.109
-600.084	-143.316	-0.081	-0.008
-599.069	366.518	0.055	-0.111
-598.055	123.440	-0.152	0.192
-597.040	-76.767	0.381	-0.134
-596.025	-112.118	-0.090	0.018
-595.011	-200.000	-0.050	0.347
-593.996	800.000	0.033	0.093
-592.982	460.008	0.049	0.109
-591.967	737.964	0.023	-0.063
-590.952	184.734	-0.041	0.061
-589.938	800.000	-0.077	-0.227
-588.923	-156.920	-0.183	0.011
-587.909	0.283	0.178	0.128
-586.894	-26.447	0.188	-0.111
-585.879	-43.486	-0.061	-0.031
-584.865	-148.650	-0.246	-0.020
-583.850	11.913	0.195	0.151
-582.836	800.000	0.069	0.260
-581.821	-121.050	0.093	-0.016
-580.806	-200.000	-0.005	0.082
-579.792	664.477	0.065	0.169
-578.777	-159.905	0.407	0.022
-577.763	29.861	0.245	-0.210
-576.748	218.235	-0.263	-0.421
-575.733	-200.000	-0.007	-0.067
-574.719	42.410	-0.098	0.089
-573.704	424.266	-0.169	0.365
-572.690	668.248	0.031	0.080
-571.675	65.275	0.100	0.102
-570.661	800.000	0.038	0.128
-569.646	-55.262	0.055	-0.025
-568.631	148.723	-0.159	-0.216
-567.617	274.811	-0.081	0.143
-566.602	52.465	-0.130	-0.124
-565.588	-39.194	0.193	0.102
-564.573	-200.000	-0.006	0.120
-563.558	800.000	0.082	-0.248
-562.544	-97.308	0.180	0.047
-561.529	525.379	-0.148	-0.349
-560.515	-140.779	0.146	0.015
-559.500	76.194	-0.036	-0.039
-558.485	48.448	-0.224	-0.210
-557.471	-176.633	-0.154	-0.004
-556.456	-25.815	-0.161	-0.095
-555.442	-73.585	0.324	-0.118
-554.427	0.589	0.204	0.146
-553.412	-200.000	0.017	0.219
-552.398	-89.279	-0.313	0.093
-551.383	-52.639	0.154	0.071
-550.369	110.387	0.103	0.125
-549.354	-61.216	-0.214	-0.091
-548.339	-160.833	0.087	0.005
-547.325	132.586	-0.116	0.149
-546.310	-96.142	-0.185	0.049
-545.296	453.589	0.090	0.199
-544.281	-35.443	-0.345	0.188
-543.266	-99.661	-0.025	0.006
-542.252	800.000	-0.039	-0.109
-541.237	-78.854	-0.446	0.152
-540.223	89.809	-0.168	-0.188
-539.208	45.141	-0.072	0.067
-538.193	175.767	-0.025	-0.036
-537.179	-127.334	0.193	0.028
-536.164	447.775	0.099	0.218
-535.150	-124.488	0.160	0.025
-534.135	416.742	0.065	0.139
-533.121	-142.900	-0.310	-0.030
-532.106	-200.000	0.018	0.292
-531.091	-28.282	-0.141	-0.081
-530.077	-200.000	0.004	-0.351
-529.062	-65.644	0.179	0.072
-528.048	-200.000	0.009	-0.064
-527.033	-41.856	0.057	0.030
-526.018	-23.405	-0.253	0.152
-525.004	6.666	-0.199	0.149
-523.989	172.080	-0.134	-0.194
-522.975	-104.635	0.240	-0.055
-521.960	-13.450	-0.144	-0.093
-520.945	800.000	-0.061	0.194
-519.931	-57.188	0.210	0.093
-518.916	-79.520	-0.263	0.089
-517.902	800.000	-0.022	-0.090
-516.887	360.243	-0.203	-0.406
-515.872	121.964	-0.079	-0.099
-514.858	96.851	-0.090	0.103
-513.843	163.880	-0.114	0.161
-512.829	26.822	-0.212	0.178
-511.814	-101.683	0.257	0.062
-510.799	-200.000	0.082	-0.366
-509.785	-120.049	-0.318	-0.055
-508.770	190.603	-0.282	-0.424
-507.756	350.236	0.056	0.110
-506.741	-200.000	-0.039	-0.202
-505.726	-200.000	-0.017	0.207
-504.712	66.657	-0.167	-0.171
-503.697	-181.017	-0.200	0.004
-502.683	-200.000	0.006	-0.113
-501.668	449.905	0.099	-0.218
-500.653	-181.636	-0.194	0.004
-499.639	800.000	-0.043	-0.141
-498.624	-8.805	0.200	-0.135
-497.610	-39.760	0.443	-0.232
-496.595	124.692	-0.082	0.103
-495.581	-67.340	-0.224	-0.088
-494.566	147.044	-0.165	-0.222
-493.551	288.494	0.077	0.140
-492.537	297.073	-0.140	0.257
-491.522	130.447	0.145	-0.186
-490.508	800.000	0.067	-0.216
-489.493	586.086	0.076	-0.187
-488.478	-200.000	-0.025	0.196
-487.464	-200.000	-0.091	-0.468
-486.449	568.786	0.079	-0.192
-485.435	800.000	0.030	0.113
-484.420	-24.706	-0.136	-0.081
-483.405	-9.861	-0.090	0.060
-482.391	-200.000	-0.003	-0.131
-481.376	163.530	0.264	-0.372
-480.362	-120.186	0.182	0.031
-479.347	76.893	0.043	-0.046
-478.332	650.323	-0.094	-0.240
-477.318	10.138	0.151	-0.115
-476.303	-115.371	-0.367	0.069
-475.289	-57.107	-0.373	-0.165
-474.274	-158.320	0.365	0.021
-473.259	-23.371	0.174	0.105
-472.245	-200.000	0.072	0.513
-471.230	213.242	-0.194	0.307
-470.216	800.000	-0.087	-0.247
-469.201	41.252	0.049	0.044
-468.186	88.461	0.286	0.318
-467.172	800.000	0.076	0.254
-466.157	109.268	0.085	0.102
-465.143	-200.000	0.003	-0.084
-464.128	-83.974	-0.059	0.019
-463.113	300.883	0.129	-0.237
-462.099	13.026	-0.373	0.288
-461.084	-132.502	0.251	-0.032
-460.070	354.797	0.064	0.128
-459.055	800.000	-0.062	-0.191
-458.040	-108.630	-0.400	-0.086
-457.026	5.263	-0.055	0.041
-456.011	10.013	-0.106	-0.081
-454.997	-133.959	0.122	0.015
-453.982	-117.131	-0.208	-0.038
-452.968	-200.000	-0.051	0.235
-451.953	-64.835	-0.041	0.017
-450.938	635.455	0.093	-0.236
-449.924	6.376	0.183	0.136
-448.909	-133.684	-0.279	-0.035
-447.895	762.187	-0.039	-0.105
-446.880	224.828	0.113	-0.182
-445.865	51.775	0.375	0.357
-444.851	-19.537	-0.171	0.106
-443.836	-1.232	-0.050	-0.035
-442.822	-50.437	0.102	-0.048
-441.807	-200.000	-0.043	-0.247
-440.792	-113.912	0.261	0.051
-439.778	761.721	-0.051	-0.139
-438.763	196.954	-0.114	-0.174
-437.749	-200.000	0.006	0.085
-436.734	-151.381	-0.249	-0.019
-435.719	44.026	-0.230	0.211
-434.705	-200.000	-0.004	0.250
-433.690	101.454	0.201	-0.234
-432.676	-96.119	0.190	0.050
-431.661	767.094	0.123	-0.333
-430.646	-70.527	-0.111	0.042
-429.632	124.424	0.184	0.231
-428.617	11.338	-0.139	0.107
-427.603	3.610	0.176	-0.128
-426.588	-200.000	-0.179	-0.001
-425.573	-200.000	-0.024	-0.145
-424.559	800.000	-0.036	0.133
-423.544	-200.000	0.010	-0.157
-422.530	800.000	0.081	0.237
-421.515	-200.000	0.032	-0.256
-420.500	-83.243	0.362	0.116
-419.486	41.962	0.331	-0.299
-418.471	800.000	-0.019	-0.063
-417.457	-11.869	0.197	0.129
-416.442	0.861	-0.077	-0.055
-415.428	21.328	0.185	0.150
-414.413	-55.109	-0.155	-0.070
-413.398	-116.236	0.189	0.035
-412.384	-154.357	-0.031	0.002
-411.369	-200.000	-0.043	-0.539
-410.355	-200.000	0.008	-0.333
-409.340	-119.211	0.429	0.075
-408.325	20.610	-0.129	0.105
-407.311	-200.000	0.007	0.120
-406.296	800.000	0.102	0.419
-405.282	434.767	-0.076	0.165
-404.267	-200.000	0.066	-0.354
-403.252	-200.000	-0.067	0.299
-402.238	472.284	-0.039	-0.088
-401.223	-38.440	-0.062	-0.033
-400.209	109.103	0.209	-0.250
-399.194	250.648	-0.047	-0.080
-398.179	-36.226	-0.331	-0.178
-397.165	-200.000	-0.038	-0.299
-396.150	-103.263	-0.135	-0.032
-395.136	-200.000	0.019	0.141
-394.121	-142.662	0.117	-0.011
-393.106	109.529	0.112	-0.134
-392.092	216.201	-0.198	0.314
-391.077	-139.162	-0.235	-0.025
-390.063	-103.821	0.086	-0.020
-389.048	-200.000	-0.055	0.316
-388.033	3.264	0.144	-0.105
-387.019	85.528	0.026	0.028
-386.004	-200.000	-0.002	0.063
-384.990	-200.000	-0.025	-0.169
-383.975	-57.728	0.163	0.071
-382.960	800.000	0.025	-0.107
-381.946	297.788	-0.112	0.205
-380.931	260.936	-0.121	0.209
-379.917	-200.000	0.020	0.137
-378.902	-200.000	-0.021	0.226
-377.888	-121.086	-0.077	0.013
-376.873	-13.554	0.105	-0.068
-375.858	107.025	-0.116	0.137
-374.844	-84.687	-0.244	-0.076
-373.829	26.314	0.140	-0.116
-372.815	691.752	0.103	0.268
-371.800	800.000	-0.065	-0.222
-370.785	-200.000	-0.024	0.267
-369.771	89.262	0.030	-0.033
-368.756	688.195	0.164	-0.427
-367.742	29.723	0.123	0.104
-366.727	-82.996	0.084	0.027
-365.712	308.719	-0.166	0.309
-364.698	-200.000	0.008	0.135
-363.683	-108.011	-0.181	0.039
-362.669	800.000	0.038	-0.120
-361.654	-125.137	0.135	0.021
-360.639	20.151	0.234	-0.188
-359.625	-37.795	-0.113	-0.060
-358.610	-200.000	-0.034	0.176
-357.596	-2.517	0.176	0.123
-356.581	800.000	-0.082	0.263
-355.566	484.946	0.107	-0.243
-354.552	-200.000	0.001	0.148
-353.537	458.736	0.020	-0.045
-352.523	800.000	0.095	0.356
-351.508	-71.856	0.178	-0.066
-350.493	-200.000	0.030	0.385
-349.479	-87.334	-0.176	-0.053
-348.464	-33.694	0.402	-0.221
-347.450	-200.000	-0.005	0.216
-346.435	-66.614	0.351	0.138
-345.420	-65.624	0.037	0.015
-344.406	-200.000	0.014	-0.115
-343.391	324.082	-0.146	-0.278
-342.377	114.943	-0.256	-0.310
-341.362	11.651	0.217	0.166
-340.348	227.495	-0.192	0.311
-339.333	-116.963	0.324	-0.059
-338.318	157.267	-0.078	0.107
-337.304	-95.952	-0.065	-0.017
-336.289	800.000	0.084	0.279
-335.275	284.676	0.191	0.341
-334.260	487.859	0.031	-0.070
-333.245	68.640	-0.112	-0.114
-332.231	-200.000	0.019	0.088
-331.216	-200.000	-0.042	-0.403
-330.202	800.000	-0.026	-0.081
-329.187	6.409	-0.221	-0.164
-328.172	411.638	-0.174	-0.367
-327.158	-61.083	-0.154	0.064
-326.143	-1.475	-0.066	-0.046
-325.129	-4.829	0.186	0.128
-324.114	-89.701	0.147	0.043
-323.099	36.239	-0.193	0.169
-322.085	682.703	-0.073	0.189
-321.070	20.560	-0.369	0.296
-320.056	800.000	0.100	-0.423
-319.041	-200.000	-0.042	0.261
-318.026	-90.470	-0.029	-0.008
-317.012	800.000	0.129	0.419
-315.997	261.360	-0.037	-0.063
-314.983	-16.641	0.334	0.210
-313.968	126.263	0.255	-0.320
-312.953	407.876	-0.110	0.231
-311.939	-49.685	0.132	-0.063
-310.924	-200.000	0.074	-0.381
-309.910	-81.758	-0.207	0.067
-308.895	800.000	0.037	-0.155
-307.880	-7.964	0.306	-0.205
-306.866	36.458	-0.276	0.242
-305.851	800.000	0.062	-0.228
-304.837	-111.003	0.113	0.023
-303.822	800.000	0.066	0.194
-302.807	-79.526	-0.233	0.078
-301.793	-113.235	-0.131	0.026
-300.778	-200.000	0.212	0.000
-299.764	-16.949	0.270	0.170
-298.749	-46.237	-0.272	0.133
-297.735	800.000	-0.029	0.111
-296.720	63.072	-0.095	0.095
-295.705	44.901	-0.116	0.106
-294.691	68.685	-0.106	0.108
-293.676	-200.000	0.016	-0.262
-292.662	-86.320	0.059	-0.018
-291.647	232.737	-0.125	0.203
-290.632	314.742	0.036	-0.068
-289.618	800.000	0.009	0.038
-288.603	-30.954	0.459	-0.257
-287.589	353.596	0.073	-0.143
-286.574	800.000	0.041	0.154
-285.559	-85.804	0.184	-0.057
-284.545	-200.000	0.041	-0.346
-283.530	-200.000	0.002	-0.060
-282.516	-73.665	-0.229	0.083
-281.501	-15.394	0.187	0.119
-280.486	20.259	0.305	0.244
-279.472	242.867	-0.206	0.343
-278.457	-200.000	-0.061	-0.462
-277.443	-65.753	0.319	-0.127
-276.428	-87.550	0.243	-0.073
-275.413	-5.085	0.217	-0.148
-274.399	172.103	0.187	-0.268
-273.384	160.696	-0.063	-0.088
-272.370	-77.426	0.118	-0.041
-271.355	-200.000	-0.021	-0.178
-270.340	765.122	0.024	0.063
-269.326	800.000	0.073	-0.234
-268.311	-200.000	0.037	-0.161
-267.297	-200.000	-0.046	0.376
-266.282	52.365	0.080	-0.076
-265.267	-118.245	-0.260	0.046
-264.253	628.082	0.121	0.303
-263.238	-116.977	-0.179	-0.032
-262.224	334.906	-0.098	-0.189
-261.209	-38.295	0.135	-0.071
-260.195	-119.349	0.236	-0.041
-259.180	-129.982	0.253	-0.034
-258.165	-169.077	0.309	-0.011
-257.151	-28.448	0.134	0.076
-256.136	-108.047	-0.215	0.046
-255.122	-200.000	-0.028	-0.368
-254.107	-103.020	-0.134	-0.032
-253.092	48.497	-0.248	-0.230
-252.078	450.936	-0.093	0.203
-251.063	-200.000	-0.006	-0.106
-250.049	800.000	0.103	-0.288
-249.034	-90.062	-0.192	-0.056
-248.019	-132.700	0.363	0.046
-247.005	-123.616	-0.387	-0.061
-245.990	-115.577	0.285	0.053
-244.976	-19.742	0.177	-0.108
-243.961	-61.123	-0.281	0.118
-242.946	443.127	0.086	0.188
-241.932	-101.301	0.457	0.111
-240.917	-200.000	0.062	-0.303
-239.903	-99.483	-0.054	0.013
-238.888	-200.000	0.020	-0.312
-237.873	800.000	-0.034	0.145
-236.859	800.000	0.025	0.096
-235.844	61.438	-0.187	0.184
-234.830	-119.715	-0.194	-0.033
-233.815	653.997	-0.045	0.114
-232.800	-13.984	-0.114	0.073
-231.786	402.931	-0.112	0.233
-230.771	-129.011	-0.194	-0.027
-229.757	-73.551	-0.055	-0.020
-228.742	78.884	-0.025	0.026
-227.727	167.243	-0.130	0.182
-226.713	78.996	0.067	0.071
-225.698	-200.000	0.006	0.072
-224.684	-31.560	-0.209	-0.117
-223.669	-27.287	0.247	-0.142
-222.655	90.484	-0.251	-0.278
-221.640	-96.357	-0.262	0.069
-220.625	-108.079	-0.118	-0.025
-219.611	-150.868	0.212	0.016
-218.596	58.189	0.193	-0.187
-217.582	728.709	-0.116	0.307
-216.567	126.001	0.326	0.409
-215.552	55.051	0.109	0.104
-214.538	800.000	-0.022	0.081
-213.523	-106.763	-0.272	-0.060
-212.509	-89.824	0.060	-0.017
-211.494	8.193	0.081	0.060
-210.479	544.236	0.066	0.157
-209.465	-80.163	-0.337	-0.112
-208.450	79.899	0.168	0.179
-207.436	-155.862	-0.071	0.004
-206.421	14.632	-0.239	0.185
-205.406	800.000	0.060	0.223
-204.392	-47.293	-0.115	-0.056
-203.377	-24.525	-0.091	-0.053
-202.363	-118.865	0.201	-0.035
-201.348	-43.654	0.159	-0.079
-200.333	-82.671	0.345	0.111
-199.319	-103.664	-0.343	0.080
-198.304	-200.000	0.235	-0.000
-197.290	17.103	-0.207	-0.163
-196.275	-45.330	0.262	-0.129
-195.260	512.002	0.067	-0.154
-194.246	-200.000	-0.009	-0.061
-193.231	-134.630	0.306	0.037
-192.217	800.000	-0.075	0.276
-191.202	528.062	0.110	0.257
-190.187	726.129	-0.077	0.203
-189.173	-12.438	-0.204	0.132
-188.158	-30.737	0.032	0.018
-187.144	85.522	0.074	0.081
-186.129	-115.083	-0.186	-0.035
-185.114	-65.248	-0.076	-0.030
-184.100	200.060	0.265	0.403
-183.085	235.268	0.058	-0.094
-182.071	19.408	-0.311	-0.247
-181.056	-200.000	-0.025	0.273
-180.042	180.044	-0.083	0.120
-179.027	0.458	0.131	-0.093
-178.012	528.615	0.108	-0.253
-176.998	0.561	-0.369	-0.261
-175.983	-36.888	0.219	0.116
-174.969	42.777	0.061	0.055
-173.954	800.000	0.022	-0.091
-172.939	518.649	-0.078	-0.181
-171.925	-100.765	0.506	-0.123
-170.910	-89.455	0.039	0.011
-169.896	250.672	-0.067	0.113
-168.881	-200.000	0.011	0.088
-167.866	735.819	0.061	-0.163
-166.852	85.733	0.146	0.158
-165.837	800.000	-0.030	-0.086
-164.823	37.353	-0.095	-0.083
-163.808	-89.894	0.033	0.010
-162.793	43.943	0.163	0.147
-161.779	-200.000	0.052	0.416
-160.764	-28.287	0.199	-0.114
-159.750	446.229	-0.113	0.246
-158.735	-75.638	-0.099	-0.035
-157.720	201.012	0.134	-0.204
-156.706	-81.024	0.329	-0.108
-155.691	91.644	0.218	-0.242
-154.677	183.263	0.190	-0.277
-153.662	285.575	0.097	-0.172
-152.647	800.000	-0.068	0.211
-151.633	-26.342	0.083	0.048
-150.618	-142.562	-0.269	-0.026
-149.604	800.000	0.043	0.159
-148.589	800.000	0.069	0.220
-147.574	-200.000	0.065	0.283
-146.560	187.114	-0.091	-0.135
-145.545	-65.172	0.257	0.102
-144.531	500.339	-0.135	-0.307
-143.516	152.068	-0.054	-0.073
-142.502	-99.078	-0.086	-0.022
-141.487	69.778	0.188	-0.191
-140.472	18.356	-0.161	0.127
-139.458	-118.464	0.134	-0.024
-138.443	-36.623	-0.128	-0.068
-137.429	800.000	0.060	0.188
-136.414	235.057	0.148	0.241
-135.399	-150.607	0.064	0.005
-134.385	-200.000	0.054	0.352
-133.370	800.000	-0.118	0.395
-132.356	-200.000	0.055	0.530
-131.341	4.239	0.356	-0.257
-130.326	-25.641	-0.322	0.188
-129.312	97.510	0.224	0.254
-128.297	81.674	-0.080	-0.085
-127.283	58.559	-0.180	0.175
-126.268	466.085	0.083	0.183
-125.253	511.027	-0.048	0.110
-124.239	800.000	-0.054	0.205
-123.224	-200.000	0.014	-0.103
-122.210	-20.043	-0.376	0.229
-121.195	-76.690	-0.141	0.049
-120.180	800.000	-0.070	0.220
