DTS Sentinel unit serial number:	SN413079Multiplexer serial number:	ORYXHardware model number:	OX4-SRSoftware version number:	ORYX F/W v4.00 Oryx Data Collector v3.7.2.0data status	okinstallation	princeton_trtdifferential loss correction	single-endedforward channel	channel 4reverse channel	N/Adate	2019/09/18time	23:05:34forward acquisition time	60.00reverse acquisition time	0.00gamma	496.2192k internal	0.2333k external	0.2333temperature offset calibration	1.0031default loss term (dB/km)	0.3790temperature slope calibration	1.0000multiplexer offset coefficient	1.0000multiplexer slope coefficient	1.0000fibre end	0.00T internal ref (°C)	24.00T ext. ref 1 (°C)	0.79T ext. ref 2 (°C)	17.75length (m)	temperature (°C)	Stokes	anti-Stokes-747.200	-158.456	0.322	-0.019
-746.185	185.361	-0.073	-0.109
-745.171	-189.251	-0.279	0.003
-744.156	-9.446	-0.064	0.043
-743.142	800.000	0.121	0.350
-742.127	133.931	0.208	0.270
-741.112	184.104	0.133	-0.198
-740.098	-194.070	-0.122	-0.001
-739.083	-200.000	-0.075	-0.384
-738.069	-16.661	-0.048	-0.030
-737.054	117.016	0.157	-0.194
-736.039	-200.000	-0.085	-0.547
-735.025	-75.169	-0.388	-0.139
-734.010	-200.000	-0.009	0.075
-732.996	-143.031	-0.425	0.041
-731.981	-200.000	0.009	-0.059
-730.966	60.325	-0.347	0.345
-729.952	-91.923	-0.197	-0.056
-728.937	166.180	-0.232	-0.330
-727.923	-91.290	-0.172	-0.049
-726.908	-82.108	-0.331	-0.108
-725.894	84.321	0.193	-0.213
-724.879	-84.586	-0.085	0.027
-723.864	140.462	0.119	0.158
-722.850	800.000	0.011	-0.045
-721.835	70.568	-0.191	0.198
-720.821	391.241	-0.151	0.315
-719.806	800.000	-0.105	0.424
-718.791	-200.000	-0.016	0.384
-717.777	800.000	-0.101	0.283
-716.762	-71.105	-0.343	0.129
-715.748	-66.396	0.005	-0.002
-714.733	204.139	0.093	0.145
-713.718	-200.000	-0.033	-0.278
-712.704	359.971	0.073	-0.147
-711.689	61.339	-0.055	0.055
-710.675	-200.000	-0.045	0.243
-709.660	580.028	-0.020	0.050
-708.645	-200.000	-0.025	0.507
-707.631	-15.470	-0.180	-0.115
-706.616	160.115	0.255	-0.356
-705.602	800.000	0.083	-0.248
-704.587	145.485	0.254	0.341
-703.572	18.662	0.375	0.301
-702.558	-101.181	-0.134	-0.033
-701.543	-2.106	0.186	0.131
-700.529	-149.249	-0.104	0.008
-699.514	-188.118	0.356	-0.005
-698.499	-151.739	-0.436	0.032
-697.485	-42.257	0.246	0.126
-696.470	35.372	-0.148	0.130
-695.456	-200.000	-0.015	-0.268
-694.441	-144.953	-0.349	-0.032
-693.426	133.633	-0.171	0.221
-692.412	-121.627	-0.344	0.057
-691.397	52.445	0.141	-0.135
-690.383	620.734	-0.022	0.056
-689.368	-200.000	-0.013	-0.200
-688.354	-123.765	-0.142	0.023
-687.339	-95.200	-0.334	0.090
-686.324	696.443	0.116	-0.307
-685.310	234.644	0.217	-0.359
-684.295	-80.911	-0.194	-0.065
-683.281	-76.246	-0.538	0.190
-682.266	120.479	-0.119	0.148
-681.251	57.769	-0.100	0.098
-680.237	-73.430	-0.249	0.091
-679.222	-96.034	0.237	-0.063
-678.208	-163.330	0.205	0.010
-677.193	-118.375	0.182	-0.032
-676.178	800.000	0.037	0.132
-675.164	-46.805	-0.215	-0.105
-674.149	-84.909	-0.090	-0.028
-673.135	-41.186	0.330	0.171
-672.120	355.418	0.038	-0.076
-671.105	-105.225	0.136	-0.031
-670.091	94.442	-0.089	0.102
-669.076	-70.541	0.228	0.086
-668.062	-65.383	0.066	0.027
-667.047	800.000	0.136	0.394
-666.032	-51.769	-0.261	-0.122
-665.018	267.292	0.093	0.162
-664.003	423.055	-0.055	-0.118
-662.989	-90.532	-0.242	-0.070
-661.974	-200.000	0.050	0.232
-660.959	95.243	0.081	0.092
-659.945	73.784	-0.076	-0.080
-658.930	237.322	0.037	-0.061
-657.916	-92.505	-0.175	0.049
-656.901	-96.988	0.105	0.028
-655.886	-183.303	-0.360	-0.006
-654.872	-200.000	0.032	-0.303
-653.857	-150.175	-0.299	0.023
-652.843	-200.000	-0.011	0.120
-651.828	243.872	0.049	-0.083
-650.814	-43.869	0.113	0.057
-649.799	-51.212	-0.334	0.157
-648.784	-200.000	0.012	-0.303
-647.770	-79.219	0.242	-0.082
-646.755	228.137	0.049	0.079
-645.741	700.260	0.070	0.185
-644.726	-128.105	-0.153	-0.022
-643.711	-89.556	-0.210	-0.062
-642.697	-168.554	-0.155	-0.006
-641.682	-69.923	0.355	0.136
-640.668	-35.291	0.259	-0.141
-639.653	365.348	0.056	0.114
-638.638	57.943	-0.125	0.123
-637.624	-29.598	0.179	-0.102
-636.609	-99.601	-0.253	0.064
-635.595	42.793	0.040	-0.037
-634.580	-61.531	0.049	-0.021
-633.565	40.355	0.057	0.051
-632.551	196.864	-0.043	-0.065
-631.536	-68.290	-0.091	-0.035
-630.522	553.548	0.120	-0.288
-629.507	-68.417	-0.239	0.093
-628.492	203.054	-0.104	-0.161
-627.478	-200.000	0.025	-0.208
-626.463	-75.966	-0.297	-0.105
-625.449	-150.109	-0.192	-0.015
-624.434	-30.117	0.303	0.173
-623.419	-200.000	-0.012	0.056
-622.405	161.230	-0.060	-0.084
-621.390	-79.095	-0.027	0.009
-620.376	-200.000	-0.003	0.176
-619.361	800.000	0.042	0.146
-618.346	-200.000	0.016	0.344
-617.332	-102.933	-0.209	0.050
-616.317	-62.268	0.127	-0.053
-615.303	54.188	-0.155	-0.149
-614.288	354.090	0.116	0.231
-613.273	22.660	-0.179	0.147
-612.259	-200.000	0.026	0.265
-611.244	225.784	0.125	-0.203
-610.230	-62.759	-0.227	-0.094
-609.215	-18.408	0.202	0.126
-608.201	34.177	0.075	0.066
-607.186	-200.000	-0.070	-0.527
-606.171	472.262	-0.141	-0.317
-605.157	181.021	0.083	-0.122
-604.142	-200.000	-0.020	-0.240
-603.128	467.237	-0.029	-0.064
-602.113	-91.922	0.172	-0.049
-601.098	-184.866	-0.340	0.005
-600.084	396.267	0.076	0.159
-599.069	128.388	-0.107	0.137
-598.055	800.000	0.049	0.157
-597.040	-200.000	0.004	0.221
-596.025	800.000	-0.101	0.329
-595.011	-63.855	-0.369	-0.151
-593.996	-136.784	0.290	0.033
-592.982	800.000	0.024	-0.104
-591.967	159.593	0.245	-0.341
-590.952	241.040	-0.089	-0.148
-589.938	-44.435	0.188	-0.094
-588.923	-110.092	0.241	0.050
-587.909	148.283	0.190	0.256
-586.894	-113.876	-0.387	-0.075
-585.879	-56.385	0.214	-0.095
-584.865	-52.475	-0.179	0.083
-583.850	-14.099	0.171	-0.110
-582.836	17.329	-0.236	-0.187
-581.821	87.979	-0.299	-0.332
-580.806	-200.000	-0.019	0.318
-579.792	-200.000	-0.064	0.374
-578.777	239.466	0.165	-0.275
-577.763	-37.615	-0.121	-0.064
-576.748	316.124	-0.120	0.227
-575.733	-52.297	-0.120	0.056
-574.719	-200.000	-0.027	-0.137
-573.704	-155.928	-0.206	0.013
-572.690	301.594	0.015	0.027
-571.675	149.752	0.207	0.280
-570.661	45.711	0.050	0.046
-569.646	403.102	0.092	-0.193
-568.631	-200.000	0.017	-0.270
-567.617	123.977	0.149	-0.186
-566.602	-108.017	-0.360	-0.078
-565.588	-63.544	0.040	0.016
-564.573	-76.697	0.133	0.047
-563.558	218.331	0.122	0.195
-562.544	795.353	0.086	0.237
-561.529	158.384	-0.076	-0.106
-560.515	-80.158	0.224	0.075
-559.500	-200.000	-0.021	-0.192
-558.485	-109.416	-0.240	-0.051
-557.471	800.000	0.045	-0.126
-556.456	-19.627	0.364	-0.225
-555.442	-16.247	0.063	0.040
-554.427	-159.568	-0.022	0.001
-553.412	-200.000	-0.017	-0.114
-552.398	-40.269	-0.187	-0.097
-551.383	-139.711	-0.222	-0.024
-550.369	695.052	0.021	-0.054
-549.354	800.000	0.124	-0.356
-548.339	-200.000	-0.057	-0.269
-547.325	-200.000	-0.008	0.296
-546.310	-21.662	0.167	0.101
-545.296	800.000	0.092	0.320
-544.281	49.341	-0.121	0.113
-543.266	-200.000	0.007	-0.060
-542.252	-200.000	-0.017	0.203
-541.237	-46.664	-0.146	-0.071
-540.223	112.327	0.154	0.186
-539.208	-88.630	0.039	-0.012
-538.193	-200.000	0.033	0.183
-537.179	-45.274	-0.235	-0.116
-536.164	136.538	0.224	-0.291
-535.150	-200.000	-0.074	-0.328
-534.135	-200.000	-0.046	-0.210
-533.121	79.552	0.097	0.104
-532.106	70.833	0.177	0.183
-531.091	-200.000	0.036	0.361
-530.077	-200.000	-0.011	0.337
-529.062	-64.489	-0.188	-0.076
-528.048	22.967	0.190	-0.155
-527.033	14.346	-0.113	0.088
-526.018	-100.947	0.042	0.010
-525.004	-92.856	0.290	-0.081
-523.989	252.428	0.154	-0.262
-522.975	-98.478	-0.208	0.053
-521.960	99.366	0.070	-0.081
-520.945	306.093	0.092	0.170
-519.931	88.042	-0.208	-0.230
-518.916	513.063	-0.134	0.312
-517.902	593.143	0.097	-0.240
-516.887	-200.000	-0.000	0.149
-515.872	800.000	0.047	0.157
-514.858	-33.429	0.206	-0.113
-513.843	-64.957	0.429	0.173
-512.829	5.627	0.335	-0.247
-511.814	10.125	0.233	0.176
-510.799	17.628	0.080	0.063
-509.785	-56.649	0.210	-0.092
-508.770	-98.674	0.260	-0.066
-507.756	296.269	-0.139	-0.253
-506.741	-81.028	0.093	0.031
-505.726	-144.894	-0.167	0.015
-504.712	-149.361	0.079	0.006
-503.697	-146.142	-0.216	-0.019
-502.683	-14.698	-0.293	-0.188
-501.668	101.936	0.175	-0.204
-500.653	-25.165	-0.150	-0.088
-499.639	-188.520	0.351	0.004
-498.624	-131.060	-0.242	-0.032
-497.610	696.548	-0.096	0.251
-496.595	-200.000	-0.045	-0.248
-495.581	-149.834	-0.120	0.009
-494.566	-173.893	-0.076	0.002
-493.551	-143.209	0.128	-0.012
-492.537	-80.092	0.258	-0.086
-491.522	576.328	0.062	0.151
-490.508	-44.140	0.103	-0.052
-489.493	230.131	-0.149	0.243
-488.478	130.198	-0.091	0.116
-487.464	58.993	0.297	-0.290
-486.449	-103.902	-0.103	-0.024
-485.435	-200.000	-0.003	0.315
-484.420	173.237	-0.062	0.089
-483.405	800.000	-0.069	-0.264
-482.391	800.000	-0.038	-0.164
-481.376	523.734	0.013	-0.031
-480.362	251.551	-0.098	0.165
-479.347	430.650	0.179	0.386
-478.332	-11.283	-0.318	-0.209
-477.318	-200.000	0.014	-0.249
-476.303	-73.483	0.201	0.073
-475.289	3.592	-0.231	0.168
-474.274	-79.133	0.225	-0.076
-473.259	382.962	-0.050	-0.102
-472.245	-24.797	0.277	-0.164
-471.230	-88.838	-0.379	-0.112
-470.216	27.853	-0.192	0.161
-469.201	156.233	0.252	0.345
-468.186	45.749	-0.304	-0.279
-467.172	800.000	0.087	-0.352
-466.157	-45.995	-0.128	0.063
-465.143	-31.316	-0.055	-0.031
-464.128	-200.000	0.020	-0.131
-463.113	130.879	-0.091	-0.116
-462.099	96.901	0.119	0.135
-461.084	-55.563	0.198	0.088
-460.070	-133.155	-0.189	0.024
-459.055	-200.000	0.001	0.162
-458.040	-66.598	-0.117	-0.046
-457.026	-200.000	0.019	0.154
-456.011	-200.000	-0.019	-0.346
-454.997	-78.204	0.274	-0.094
-453.982	-41.691	0.255	0.130
-452.968	7.363	-0.168	0.125
-451.953	-200.000	-0.062	-0.316
-450.938	-120.315	-0.252	-0.043
-449.924	371.858	0.054	-0.110
-448.909	-48.552	0.065	-0.031
-447.895	188.283	0.196	-0.291
-446.880	-200.000	-0.026	0.156
-445.865	-70.019	-0.330	0.125
-444.851	800.000	0.043	-0.144
-443.836	127.671	0.177	0.224
-442.822	36.699	-0.157	0.137
-441.807	-67.529	-0.339	0.132
-440.792	-139.019	-0.207	0.022
-439.778	127.629	0.231	0.292
-438.763	-15.614	0.211	-0.134
-437.749	593.380	0.099	-0.244
-436.734	502.955	0.020	0.046
-435.719	115.001	-0.082	0.099
-434.705	259.293	-0.058	0.099
-433.690	-111.098	0.292	-0.060
-432.676	800.000	0.027	-0.105
-431.661	-103.298	-0.053	0.012
-430.646	-200.000	-0.033	-0.189
-429.632	-115.733	0.101	0.019
-428.617	-65.195	-0.324	0.130
-427.603	102.775	-0.164	0.190
-426.588	117.185	0.088	-0.107
-425.573	800.000	0.088	-0.242
-424.559	800.000	-0.044	-0.184
-423.544	294.228	0.263	-0.477
-422.530	486.111	-0.046	-0.105
-421.515	-200.000	0.024	-0.139
-420.500	788.034	0.183	0.499
-419.486	-57.912	0.248	0.108
-418.471	70.517	-0.172	0.176
-417.457	-0.740	0.107	-0.075
-416.442	736.724	0.024	-0.065
-415.428	194.914	-0.109	0.164
-414.413	141.412	0.053	-0.070
-413.398	-140.089	-0.363	-0.038
-412.384	31.270	-0.280	0.238
-411.369	-12.376	-0.298	-0.193
-410.355	-97.346	-0.243	0.063
-409.340	261.100	-0.011	0.019
-408.325	800.000	-0.022	-0.080
-407.311	800.000	0.085	0.268
-406.296	800.000	0.066	-0.274
-405.282	178.872	0.154	-0.223
-404.267	-200.000	0.007	-0.372
-403.252	-200.000	-0.010	-0.203
-402.238	-200.000	0.004	0.206
-401.223	800.000	-0.047	-0.159
-400.209	24.609	-0.379	-0.311
-399.194	38.973	0.138	-0.122
-398.179	48.463	-0.069	0.064
-397.165	118.055	-0.053	-0.064
-396.150	72.346	0.085	-0.087
-395.136	-75.083	0.189	-0.067
-394.121	58.567	-0.198	0.192
-393.106	6.910	-0.064	-0.047
-392.092	443.452	-0.034	-0.075
-391.077	25.558	-0.119	0.098
-390.063	21.920	0.377	0.305
-389.048	389.287	0.150	0.308
-388.033	467.028	-0.092	0.203
-387.019	-42.222	-0.227	0.115
-386.004	-200.000	0.003	0.161
-384.990	-200.000	0.042	0.250
-383.975	445.432	-0.066	-0.144
-382.960	-91.916	-0.100	-0.028
-381.946	16.886	-0.423	0.332
-380.931	-105.141	-0.331	-0.075
-379.917	148.442	-0.094	0.125
-378.902	800.000	-0.095	-0.364
-377.888	125.721	0.134	-0.168
-376.873	18.142	-0.213	0.168
-375.858	-24.583	-0.245	0.145
-374.844	-193.584	0.317	0.003
-373.829	-68.197	-0.406	-0.157
-372.815	-200.000	-0.039	0.248
-371.800	-200.000	0.007	-0.041
-370.785	-175.774	-0.200	-0.005
-369.771	557.934	0.027	0.065
-368.756	-31.417	0.164	0.092
-367.742	23.032	0.377	-0.306
-366.727	-88.190	-0.358	-0.106
-365.712	51.020	-0.183	0.172
-364.698	279.419	0.107	0.189
-363.683	19.524	-0.114	0.091
-362.669	7.458	-0.094	0.069
-361.654	43.738	0.105	-0.095
-360.639	511.653	0.050	0.115
-359.625	-46.306	0.313	-0.152
-358.610	-128.358	0.211	0.030
-357.596	-51.746	0.246	-0.114
-356.581	67.798	0.164	-0.166
-355.566	534.870	-0.082	0.192
-354.552	224.950	-0.116	0.185
-353.537	-98.608	0.285	0.072
-352.523	-200.000	-0.033	-0.309
-351.508	-152.014	-0.188	0.014
-350.493	257.593	-0.084	-0.143
-349.479	23.672	-0.152	0.124
-348.464	-140.154	-0.201	0.021
-347.450	168.604	-0.048	-0.067
-346.435	9.650	0.328	0.246
-345.420	-47.748	-0.248	-0.119
-344.406	22.492	0.118	0.096
-343.391	-84.329	-0.082	0.026
-342.377	86.048	0.262	0.285
-341.362	714.986	0.148	-0.388
-340.348	510.709	-0.094	0.217
-339.333	-110.866	0.137	0.028
-338.318	-200.000	0.002	-0.332
-337.304	-68.411	-0.167	0.064
-336.289	-4.958	0.160	0.109
-335.275	-133.938	0.217	0.027
-334.260	-159.932	-0.239	0.013
-333.245	-97.622	-0.117	-0.030
-332.231	647.627	0.038	-0.097
-331.216	-151.654	-0.074	-0.005
-330.202	-106.910	0.252	-0.055
-329.187	787.414	-0.058	-0.157
-328.172	-188.540	0.251	-0.003
-327.158	-171.786	-0.336	0.011
-326.143	67.176	-0.197	0.199
-325.129	30.679	0.047	0.040
-324.114	68.270	-0.214	-0.217
-323.099	-200.000	-0.010	0.297
-322.085	-200.000	-0.032	-0.281
-321.070	-94.256	-0.262	0.071
-320.056	-30.177	0.329	0.185
-319.041	125.664	-0.141	-0.176
-318.026	-61.977	0.331	0.137
-317.012	-200.000	-0.009	-0.101
-315.997	111.660	-0.100	-0.120
-314.983	-200.000	-0.055	-0.254
-313.968	72.718	0.019	0.019
-312.953	-46.000	0.220	-0.107
-311.939	-54.909	-0.139	-0.062
-310.924	-200.000	-0.004	0.019
-309.910	62.153	-0.320	-0.316
-308.895	426.922	-0.084	-0.178
-307.880	-143.829	0.235	0.022
-306.866	800.000	0.040	0.116
-305.851	423.042	-0.082	0.175
-304.837	238.827	-0.130	0.214
-303.822	-136.495	0.393	0.045
-302.807	200.946	-0.271	-0.412
-301.793	-167.277	0.105	0.004
-300.778	800.000	0.147	0.447
-299.764	24.181	-0.216	0.177
-298.749	-200.000	0.019	-0.240
-297.735	-35.749	0.152	-0.081
-296.720	1.626	0.066	-0.047
-295.705	-68.756	-0.175	-0.067
-294.691	-200.000	0.002	0.082
-293.676	-200.000	0.006	0.321
-292.662	101.836	0.115	0.132
-291.647	-200.000	0.012	0.386
-290.632	15.360	-0.081	0.063
-289.618	-200.000	-0.024	-0.143
-288.603	-82.026	0.366	0.118
-287.589	-6.164	-0.277	0.187
-286.574	-200.000	-0.016	-0.204
-285.559	-10.636	0.241	-0.157
-284.545	-68.384	0.144	0.055
-283.530	800.000	0.020	0.059
-282.516	203.506	-0.036	-0.055
-281.501	-29.840	0.110	0.062
-280.486	246.669	0.179	0.298
-279.472	-107.525	-0.323	0.070
-278.457	800.000	0.047	-0.197
-277.443	-200.000	-0.048	0.250
-276.428	4.009	-0.284	0.205
-275.413	-157.457	0.440	0.026
-274.399	-200.000	-0.016	-0.337
-273.384	415.635	-0.118	0.249
-272.370	-200.000	-0.012	0.286
-271.355	256.550	-0.139	0.235
-270.340	800.000	0.045	0.126
-269.326	-45.879	-0.183	0.089
-268.311	-200.000	-0.012	-0.341
-267.297	219.226	0.366	0.577
-266.282	-15.175	-0.114	0.072
-265.267	-1.612	-0.072	0.050
-264.253	37.811	-0.168	-0.147
-263.238	-9.063	0.061	-0.040
-262.224	-142.559	0.324	-0.031
-261.209	-137.032	-0.241	0.027
-260.195	-200.000	0.029	0.243
-259.180	800.000	0.072	0.229
-258.165	-37.036	-0.097	0.051
-257.151	154.611	-0.089	-0.120
-256.136	800.000	-0.020	0.075
-255.122	-79.360	0.364	-0.122
-254.107	15.380	0.114	-0.088
-253.092	522.272	-0.090	-0.209
-252.078	800.000	-0.017	-0.064
-251.063	25.286	0.010	-0.008
-250.049	-49.815	-0.138	0.065
-249.034	800.000	-0.064	-0.253
-248.019	325.239	0.025	0.048
-247.005	-52.568	-0.137	-0.063
-245.990	-58.790	-0.282	0.120
-244.976	588.923	0.060	0.147
-243.961	-200.000	0.027	-0.129
-242.946	-200.000	-0.038	-0.210
-241.932	-77.487	0.314	-0.108
-240.917	-199.504	0.092	0.000
-239.903	-92.079	-0.093	0.026
-238.888	-200.000	-0.042	-0.286
-237.873	-200.000	-0.060	0.282
-236.859	-66.105	-0.309	-0.121
-235.844	-200.000	-0.018	-0.347
-234.830	-124.216	-0.250	-0.039
-233.815	61.182	-0.091	-0.089
-232.800	-137.251	-0.232	0.026
-231.786	-18.020	0.220	-0.136
-230.771	-200.000	-0.014	-0.216
-229.757	-86.567	0.181	0.055
-228.742	-78.507	-0.427	-0.144
-227.727	33.201	0.265	-0.226
-226.713	-148.579	-0.218	0.018
-225.698	138.738	0.078	-0.101
-224.684	-173.206	0.262	0.008
-223.669	72.552	0.281	-0.289
-222.655	636.880	-0.106	-0.265
-221.640	178.020	0.139	-0.200
-220.625	-53.480	0.235	0.106
-219.611	174.689	-0.024	0.034
-218.596	-200.000	0.044	-0.387
-217.582	216.482	-0.108	0.170
-216.567	-200.000	-0.031	0.237
-215.552	-124.898	-0.142	0.022
-214.538	-64.259	0.147	-0.059
-213.523	620.232	0.107	0.265
-212.509	190.103	-0.092	-0.136
-211.494	254.137	0.084	0.142
-210.479	-57.626	-0.342	-0.148
-209.465	92.221	-0.097	0.108
-208.450	-84.442	-0.048	-0.015
-207.436	76.019	-0.171	-0.178
-206.421	420.261	0.094	0.198
-205.406	441.260	-0.085	-0.184
-204.392	-129.351	0.123	0.017
-203.377	-67.288	0.260	0.101
-202.363	-200.000	-0.018	-0.318
-201.348	215.617	0.051	0.080
-200.333	166.970	-0.312	0.436
-199.319	-200.000	-0.006	0.470
-198.304	322.666	-0.150	0.282
-197.290	43.462	0.160	0.144
-196.275	-126.854	0.390	0.057
-195.260	800.000	-0.045	0.162
-194.246	107.239	-0.131	-0.153
-193.231	-115.779	0.408	0.075
-192.217	-86.265	-0.045	0.014
-191.202	-118.165	0.225	0.039
-190.187	-144.711	-0.272	0.025
-189.173	-113.345	0.234	0.045
-188.158	-175.745	0.178	-0.005
-187.144	-104.843	0.329	-0.074
-186.129	800.000	-0.110	0.331
-185.114	-200.000	0.040	0.207
-184.100	-137.054	-0.361	0.041
-183.085	144.698	0.234	0.307
-182.071	261.208	0.067	0.114
-181.056	207.516	0.058	0.089
-180.042	39.606	-0.208	-0.184
-179.027	462.291	0.112	0.246
-178.012	-95.638	0.156	0.041
-176.998	-116.576	0.324	0.059
-175.983	-80.056	0.277	-0.091
-174.969	81.036	-0.126	-0.133
-173.954	-60.746	-0.245	0.102
-172.939	800.000	-0.057	-0.234
-171.925	90.592	0.114	0.126
-170.910	-153.888	-0.197	0.013
-169.896	264.211	0.106	0.182
-168.881	22.873	-0.116	0.094
-167.866	-200.000	0.034	0.159
-166.852	22.643	0.102	-0.082
-165.837	-36.546	0.166	-0.088
-164.823	-60.145	-0.299	-0.125
-163.808	168.838	-0.120	0.169
-162.793	92.433	0.308	-0.342
-161.779	229.006	-0.223	-0.357
-160.764	-150.010	-0.392	0.030
-159.750	-149.191	0.517	0.041
-158.735	-194.317	0.515	-0.004
-157.720	751.983	0.058	-0.155
-156.706	10.736	-0.030	-0.023
-155.691	28.928	0.212	0.177
-154.677	-200.000	-0.041	0.203
-153.662	800.000	0.156	0.428
-152.647	-51.639	-0.341	-0.156
-151.633	-200.000	-0.022	-0.138
-150.618	-16.152	-0.355	-0.221
-149.604	-59.245	0.113	0.048
-148.589	800.000	0.054	0.219
-147.574	454.318	0.183	-0.399
-146.560	404.016	0.086	-0.178
-145.545	790.953	-0.017	-0.046
-144.531	448.449	-0.044	-0.095
-143.516	128.728	0.073	-0.091
-142.502	-135.813	0.134	-0.016
-141.487	-137.707	0.098	-0.011
-140.472	-50.639	-0.311	0.144
-139.458	356.175	-0.117	-0.228
-138.443	-43.628	0.320	0.158
-137.429	-200.000	-0.024	0.260
-136.414	-200.000	0.087	-0.474
-135.399	164.511	-0.135	0.188
-134.385	-200.000	0.244	0.000
-133.370	-81.861	-0.312	0.100
-132.356	682.425	-0.069	0.177
-131.341	-200.000	0.019	0.362
-130.326	-200.000	-0.006	-0.038
-129.312	-3.538	0.084	-0.057
-128.297	334.083	-0.108	-0.206
-127.283	-67.987	0.192	0.073
-126.268	-200.000	-0.010	0.055
-125.253	800.000	-0.073	-0.246
-124.239	-133.855	-0.233	-0.028
-123.224	-107.653	-0.134	0.029
-122.210	690.565	0.039	-0.101
