DTS Sentinel unit serial number:	SN413079Multiplexer serial number:	ORYXHardware model number:	OX4-SRSoftware version number:	ORYX F/W v4.00 Oryx Data Collector v3.7.2.0data status	okinstallation	princeton_trtdifferential loss correction	single-endedforward channel	channel 4reverse channel	N/Adate	2019/09/14time	08:41:35forward acquisition time	60.00reverse acquisition time	0.00gamma	496.2192k internal	0.2312k external	0.2312temperature offset calibration	1.0136default loss term (dB/km)	0.3790temperature slope calibration	1.0000multiplexer offset coefficient	1.0000multiplexer slope coefficient	1.0000fibre end	0.00T internal ref (°C)	28.94T ext. ref 1 (°C)	3.66T ext. ref 2 (°C)	26.42length (m)	temperature (°C)	Stokes	anti-Stokes-747.200	-12.796	0.194	0.128
-746.185	26.013	0.041	-0.035
-745.171	560.423	-0.040	-0.099
-744.156	-147.150	-0.221	-0.019
-743.142	362.356	-0.127	0.258
-742.127	-52.902	0.199	0.093
-741.112	800.000	0.094	0.293
-740.098	-80.830	-0.300	0.101
-739.083	106.493	0.075	0.091
-738.069	161.334	-0.145	0.206
-737.054	377.779	0.150	0.312
-736.039	-200.000	0.017	0.172
-735.025	723.529	0.121	0.328
-734.010	-200.000	-0.060	-0.298
-732.996	-200.000	-0.020	0.320
-731.981	-86.368	-0.357	0.111
-730.966	365.698	-0.177	0.362
-729.952	-36.136	-0.046	0.025
-728.937	115.045	0.056	0.070
-727.923	800.000	0.054	0.154
-726.908	-13.191	-0.225	-0.148
-725.894	-158.346	-0.078	-0.005
-724.879	145.466	-0.082	-0.111
-723.864	139.924	-0.217	-0.290
-722.850	160.328	-0.229	-0.324
-721.835	257.462	-0.109	-0.191
-720.821	-200.000	0.004	-0.236
-719.806	-69.925	0.114	0.044
-718.791	-29.735	0.156	0.090
-717.777	-90.651	-0.126	0.037
-716.762	787.588	-0.087	-0.241
-715.748	190.192	-0.124	0.189
-714.733	-67.340	-0.064	0.025
-713.718	-200.000	-0.011	-0.226
-712.704	-129.648	-0.110	0.015
-711.689	-21.522	-0.392	0.242
-710.675	532.696	-0.096	-0.230
-709.660	-2.765	0.286	0.203
-708.645	-89.659	-0.043	0.013
-707.631	126.822	0.052	0.067
-706.616	800.000	0.037	-0.130
-705.602	-118.829	-0.166	-0.029
-704.587	333.400	0.049	-0.097
-703.572	-132.245	0.284	0.037
-702.558	-200.000	-0.004	-0.275
-701.543	-200.000	-0.045	-0.234
-700.529	-119.943	-0.144	0.025
-699.514	-200.000	0.012	0.154
-698.499	621.566	-0.073	-0.186
-697.485	13.484	0.269	-0.212
-696.470	0.673	0.253	-0.183
-695.456	-77.969	-0.146	0.051
-694.441	800.000	0.021	-0.065
-693.426	439.849	-0.054	-0.119
-692.412	-53.907	-0.300	0.138
-691.397	296.014	-0.028	-0.052
-690.383	-165.688	0.211	-0.009
-689.368	-200.000	0.011	-0.178
-688.354	-89.344	-0.271	-0.081
-687.339	28.781	-0.236	0.202
-686.324	44.220	-0.291	-0.271
-685.310	275.721	0.085	0.153
-684.295	-117.472	0.079	0.014
-683.281	539.645	0.082	-0.197
-682.266	-200.000	-0.019	-0.088
-681.251	42.185	-0.409	-0.376
-680.237	485.393	0.044	0.101
-679.222	-34.527	-0.170	-0.094
-678.208	717.844	0.128	-0.343
-677.193	345.182	0.010	-0.019
-676.178	-125.847	0.183	-0.028
-675.164	214.541	-0.096	-0.154
-674.149	-87.698	-0.231	-0.071
-673.135	-200.000	0.049	-0.277
-672.120	-200.000	-0.020	-0.176
-671.105	-200.000	0.035	-0.209
-670.091	55.893	-0.178	0.175
-669.076	-110.734	-0.100	0.021
-668.062	-44.846	-0.125	-0.063
-667.047	-47.713	-0.420	-0.206
-666.032	-200.000	-0.005	-0.287
-665.018	338.909	0.137	-0.271
-664.003	137.686	-0.130	-0.172
-662.989	191.334	0.227	0.346
-661.974	562.435	0.235	0.574
-660.959	-114.193	-0.515	0.101
-659.945	800.000	-0.079	-0.238
-658.930	26.473	-0.185	-0.157
-657.916	-92.526	-0.057	-0.016
-656.901	239.409	0.035	0.059
-655.886	-200.000	-0.021	-0.408
-654.872	84.253	0.073	-0.080
-653.857	-13.808	0.157	0.103
-652.843	356.469	-0.070	-0.142
-651.828	-63.753	-0.090	-0.037
-650.814	-156.053	-0.473	0.030
-649.799	800.000	-0.039	-0.171
-648.784	-200.000	-0.010	0.085
-647.770	800.000	-0.057	0.208
-646.755	22.258	-0.024	0.020
-645.741	-63.794	0.118	0.049
-644.726	62.574	-0.200	0.202
-643.711	-129.168	0.129	0.018
-642.697	-137.611	-0.043	0.005
-641.682	76.971	-0.253	-0.272
-640.668	121.692	0.052	-0.065
-639.653	-77.417	-0.270	-0.095
-638.638	39.443	0.115	0.104
-637.624	740.295	0.117	0.317
-636.609	-200.000	-0.010	0.188
-635.595	-51.682	0.115	0.054
-634.580	-15.130	0.152	-0.098
-633.565	-81.544	0.347	0.115
-632.551	-31.701	-0.180	-0.102
-631.536	13.034	-0.074	-0.058
-630.522	250.952	0.139	0.238
-629.507	378.221	-0.116	-0.239
-628.492	800.000	0.047	0.157
-627.478	-26.593	-0.404	-0.239
-626.463	332.301	-0.110	-0.214
-625.449	124.993	-0.048	-0.062
-624.434	-125.410	0.081	0.012
-623.419	-200.000	0.002	0.254
-622.405	-81.574	-0.112	0.037
-621.390	-35.343	0.305	0.167
-620.376	-61.322	-0.182	0.078
-619.361	-68.265	0.166	-0.065
-618.346	329.729	-0.098	-0.191
-617.332	77.159	-0.080	0.086
-616.317	125.319	0.189	0.241
-615.303	-139.290	0.114	0.012
-614.288	-200.000	0.019	0.287
-613.273	255.934	-0.100	-0.173
-612.259	192.316	0.184	-0.280
-611.244	-74.725	-0.179	0.065
-610.230	-104.714	-0.136	-0.032
-609.215	13.782	0.104	0.082
-608.201	-4.052	0.089	-0.062
-607.186	-200.000	-0.012	-0.115
-606.171	575.431	0.036	0.089
-605.157	800.000	0.050	-0.143
-604.142	343.268	-0.236	-0.467
-603.128	-126.597	-0.134	-0.020
-602.113	-49.065	0.204	0.098
-601.098	104.832	0.153	-0.182
-600.084	66.446	-0.143	0.147
-599.069	-151.156	0.085	-0.006
-598.055	-17.666	-0.149	-0.095
-597.040	-12.358	-0.146	-0.096
-596.025	-130.688	-0.309	0.042
-595.011	615.166	0.168	0.426
-593.996	-200.000	0.001	-0.258
-592.982	29.872	0.111	0.095
-591.967	-38.798	0.167	-0.089
-590.952	-200.000	0.015	-0.382
-589.938	-28.104	0.059	-0.035
-588.923	-44.719	-0.221	0.111
-587.909	481.668	0.065	0.148
-586.894	800.000	0.080	-0.266
-585.879	-98.872	-0.052	0.013
-584.865	-186.059	-0.387	0.006
-583.850	46.287	0.202	0.189
-582.836	800.000	-0.068	-0.275
-581.821	-200.000	0.025	-0.118
-580.806	-34.944	-0.081	0.045
-579.792	-200.000	0.015	0.252
-578.777	101.423	0.180	0.211
-577.763	-3.718	-0.063	-0.044
-576.748	-200.000	-0.024	-0.358
-575.733	-118.133	0.383	0.069
-574.719	-56.672	-0.210	-0.094
-573.704	29.959	0.092	0.079
-572.690	-69.197	-0.082	-0.032
-571.675	355.932	-0.090	0.180
-570.661	-200.000	-0.037	-0.446
-569.646	61.656	0.130	-0.130
-568.631	142.374	-0.016	0.021
-567.617	-82.393	0.304	0.100
-566.602	-200.000	0.049	-0.242
-565.588	102.645	-0.105	0.124
-564.573	-45.859	-0.173	0.086
-563.558	298.668	0.075	-0.138
-562.544	127.923	0.223	0.286
-561.529	-44.771	-0.483	0.243
-560.515	414.223	-0.135	0.288
-559.500	-107.622	-0.245	-0.054
-558.485	307.147	-0.035	0.066
-557.471	337.211	0.107	-0.209
-556.456	-10.386	0.138	-0.092
-555.442	-90.338	0.153	0.045
-554.427	41.854	0.085	0.078
-553.412	466.386	0.089	-0.200
-552.398	229.817	0.201	-0.330
-551.383	157.812	-0.046	-0.064
-550.369	800.000	-0.052	0.176
-549.354	-10.879	-0.129	0.086
-548.339	-200.000	0.060	0.401
-547.325	-200.000	0.001	-0.118
-546.310	-196.721	-0.192	0.001
-545.296	-52.380	0.194	0.091
-544.281	-5.801	0.216	0.149
-543.266	148.180	-0.127	-0.173
-542.252	377.059	-0.073	-0.149
-541.237	800.000	0.046	-0.139
-540.223	194.194	0.132	0.201
-539.208	419.899	0.041	0.089
-538.193	190.313	0.167	-0.252
-537.179	-49.494	0.121	-0.058
-536.164	27.309	-0.077	-0.065
-535.150	-132.559	0.082	-0.011
-534.135	169.038	-0.101	0.145
-533.121	-127.732	-0.153	-0.022
-532.106	-200.000	0.027	-0.379
-531.091	198.425	0.071	-0.110
-530.077	50.274	-0.117	-0.111
-529.062	-40.551	-0.051	-0.027
-528.048	-136.546	-0.339	0.040
-527.033	-133.005	-0.173	0.022
-526.018	387.069	0.101	0.210
-525.004	256.639	0.145	0.251
-523.989	-31.029	0.388	-0.220
-522.975	-132.771	-0.336	-0.043
-521.960	800.000	-0.064	-0.236
-520.945	133.700	0.130	-0.169
-519.931	-6.209	0.219	0.150
-518.916	94.523	0.083	-0.094
-517.902	800.000	-0.101	-0.362
-516.887	800.000	0.043	0.150
-515.872	349.345	0.099	-0.197
-514.858	-110.817	0.099	-0.021
-513.843	-11.546	-0.243	-0.161
-512.829	-200.000	-0.064	0.315
-511.814	800.000	-0.070	-0.272
-510.799	-19.873	0.204	-0.127
-509.785	-123.235	0.062	-0.010
-508.770	1.867	-0.202	0.146
-507.756	-80.444	-0.085	-0.028
-506.741	41.074	-0.151	0.137
-505.726	-33.306	-0.146	-0.081
-504.712	15.780	0.089	0.070
-503.697	391.099	-0.109	-0.227
-502.683	-114.814	0.039	0.008
-501.668	153.676	0.133	0.183
-500.653	-93.156	-0.178	-0.050
-499.639	-200.000	0.016	0.102
-498.624	-121.326	-0.234	-0.039
-497.610	172.970	0.139	0.201
-496.595	-66.374	-0.323	0.129
-495.581	202.417	0.159	0.246
-494.566	-118.337	-0.090	-0.016
-493.551	-18.578	0.152	0.096
-492.537	-200.000	0.010	-0.107
-491.522	-200.000	-0.017	-0.193
-490.508	-200.000	-0.012	-0.216
-489.493	-36.110	-0.203	-0.110
-488.478	296.563	-0.090	-0.166
-487.464	-200.000	-0.004	-0.336
-486.449	-125.452	0.118	0.018
-485.435	242.550	-0.112	-0.188
-484.420	800.000	-0.063	-0.198
-483.405	-121.174	0.115	0.019
-482.391	98.397	-0.052	-0.060
-481.376	-46.446	-0.272	-0.134
-480.362	-16.521	0.102	-0.065
-479.347	45.219	0.136	0.126
-478.332	-200.000	-0.086	0.388
-477.318	800.000	0.038	0.150
-476.303	-36.680	-0.244	-0.132
-475.289	159.590	-0.180	0.251
-474.274	-113.936	-0.179	-0.035
-473.259	192.170	-0.028	-0.043
-472.245	-45.544	0.082	0.041
-471.230	-113.196	0.258	0.051
-470.216	177.698	-0.180	0.263
-469.201	7.886	-0.182	0.137
-468.186	117.395	-0.163	-0.202
-467.172	-13.058	-0.220	-0.144
-466.157	238.784	0.083	0.139
-465.143	800.000	-0.068	0.208
-464.128	38.856	-0.194	0.174
-463.113	65.707	0.260	0.264
-462.099	97.027	-0.129	0.149
-461.084	-135.193	-0.222	0.027
-460.070	-200.000	-0.073	-0.511
-459.055	-77.993	0.264	-0.091
-458.040	-200.000	-0.024	0.239
-457.026	192.141	-0.142	0.215
-456.011	-108.161	0.204	-0.044
-454.997	-200.000	-0.062	-0.303
-453.982	-200.000	-0.047	0.249
-452.968	-59.430	0.187	-0.081
-451.953	800.000	-0.025	-0.091
-450.938	532.727	-0.034	0.081
-449.924	-92.526	-0.289	-0.081
-448.909	176.536	0.053	0.077
-447.895	-149.786	0.390	-0.031
-446.880	435.440	0.060	-0.131
-445.865	250.540	0.150	0.255
-444.851	66.344	-0.063	-0.064
-443.836	-200.000	-0.007	-0.581
-442.822	800.000	0.009	-0.033
-441.807	220.255	0.136	-0.218
-440.792	243.289	0.249	0.419
-439.778	-200.000	-0.034	-0.235
-438.763	-59.592	0.177	0.076
-437.749	69.463	-0.197	0.203
-436.734	-114.072	0.180	-0.035
-435.719	-57.611	-0.064	0.028
-434.705	-200.000	0.014	0.314
-433.690	47.882	0.087	-0.081
-432.676	195.878	-0.170	-0.260
-431.661	53.491	0.193	-0.185
-430.646	-1.953	-0.178	0.125
-429.632	-108.543	0.382	0.082
-428.617	-200.000	0.004	-0.139
-427.603	-81.877	0.144	-0.047
-426.588	-83.721	0.337	0.108
-425.573	-200.000	-0.022	0.135
-424.559	-93.881	-0.089	-0.025
-423.544	28.322	-0.189	-0.160
-422.530	-34.471	-0.359	0.197
-421.515	70.129	0.094	0.097
-420.500	-77.593	-0.215	0.075
-419.486	-200.000	-0.009	-0.268
-418.471	18.431	0.093	0.075
-417.457	20.943	-0.183	-0.148
-416.442	-153.203	0.238	-0.017
-415.428	-145.374	-0.197	0.018
-414.413	161.662	-0.143	0.201
-413.398	322.052	0.134	0.256
-412.384	-200.000	0.021	-0.109
-411.369	-200.000	0.003	-0.258
-410.355	265.195	0.187	-0.326
-409.340	62.844	0.135	0.135
-408.325	227.071	0.077	-0.125
-407.311	-200.000	0.023	-0.099
-406.296	98.593	-0.180	0.208
-405.282	8.147	0.226	0.170
-404.267	616.173	-0.121	-0.304
-403.252	446.621	-0.037	-0.080
-402.238	-94.788	0.243	0.066
-401.223	-82.633	-0.357	0.116
-400.209	-44.069	0.276	-0.139
-399.194	-200.000	-0.026	0.268
-398.179	71.410	0.119	0.123
-397.165	-134.154	0.145	-0.018
-396.150	-68.661	0.220	0.085
-395.136	-69.860	-0.354	-0.135
-394.121	-5.991	0.214	-0.147
-393.106	371.600	0.063	-0.128
-392.092	-109.260	-0.192	0.041
-391.077	124.290	0.146	0.184
-390.063	419.798	-0.104	0.223
-389.048	540.817	-0.063	0.149
-388.033	-171.776	0.107	0.004
-387.019	-200.000	-0.028	0.261
-386.004	4.221	-0.168	-0.123
-384.990	166.954	0.166	-0.236
-383.975	-3.901	-0.365	-0.253
-382.960	-191.487	0.249	-0.003
-381.946	800.000	0.077	-0.223
-380.931	33.913	-0.171	-0.149
-379.917	94.252	0.198	0.225
-378.902	17.494	-0.196	-0.156
-377.888	-34.558	-0.147	-0.080
-376.873	800.000	0.067	0.191
-375.858	-67.090	-0.188	-0.074
-374.844	-54.693	0.164	0.074
-373.829	-50.367	-0.183	0.086
-372.815	142.637	0.056	-0.074
-371.800	-200.000	0.020	0.200
-370.785	-32.076	0.164	0.091
-369.771	315.887	0.021	-0.039
-368.756	198.850	-0.166	0.255
-367.742	-53.814	0.125	0.057
-366.727	0.360	0.184	-0.131
-365.712	-35.248	0.111	-0.061
-364.698	-88.696	0.459	0.136
-363.683	-46.794	0.232	0.114
-362.669	41.914	0.305	-0.277
-361.654	-115.693	-0.287	0.054
-360.639	800.000	-0.013	0.050
-359.625	750.240	0.049	0.132
-358.610	-136.597	0.250	-0.029
-357.596	-77.983	-0.225	-0.077
-356.581	487.949	0.073	-0.166
-355.566	-144.989	-0.055	0.005
-354.552	618.712	0.123	0.308
-353.537	188.235	-0.033	0.049
-352.523	220.439	-0.009	-0.015
-351.508	239.779	0.166	0.275
-350.493	-110.575	-0.282	-0.058
-349.479	441.719	-0.031	-0.067
-348.464	-21.142	0.284	0.174
-347.450	32.077	0.303	0.261
-346.435	800.000	-0.061	0.185
-345.420	140.962	-0.026	0.034
-344.406	-158.506	0.085	-0.005
-343.391	-166.145	-0.198	0.008
-342.377	-200.000	-0.001	-0.201
-341.362	800.000	0.059	-0.188
-340.348	-103.656	-0.094	-0.022
-339.333	-84.793	0.144	0.045
-338.318	-200.000	0.025	-0.436
-337.304	58.696	-0.302	-0.296
-336.289	-200.000	-0.011	-0.237
-335.275	-200.000	-0.008	0.252
-334.260	12.289	0.095	-0.073
-333.245	-128.562	-0.097	0.014
-332.231	-180.355	-0.092	-0.002
-331.216	71.707	-0.182	-0.188
-330.202	-200.000	-0.084	0.373
-329.187	-200.000	-0.439	-0.001
-328.172	800.000	0.014	0.042
-327.158	-200.000	-0.060	0.342
-326.143	-200.000	0.030	0.302
-325.129	-200.000	0.012	-0.434
-324.114	31.730	-0.285	0.245
-323.099	-51.426	-0.122	0.057
-322.085	472.047	0.085	-0.191
-321.070	800.000	0.037	-0.106
-320.056	379.875	0.034	-0.069
-319.041	-15.769	0.235	-0.149
-318.026	-67.285	-0.142	0.056
-317.012	658.050	-0.007	0.018
-315.997	-59.617	0.225	-0.096
-314.983	-50.335	-0.127	-0.060
-313.968	-200.000	0.022	0.177
-312.953	-200.000	0.020	0.138
-311.939	194.101	-0.217	-0.328
-310.924	-200.000	-0.021	0.126
-309.910	-46.614	0.224	-0.109
-308.895	37.398	-0.128	-0.113
-307.880	800.000	-0.028	0.096
-306.866	-36.370	0.097	-0.052
-305.851	67.563	0.229	-0.234
-304.837	-200.000	0.007	-0.036
-303.822	-200.000	0.022	-0.269
-302.807	142.391	0.140	-0.185
-301.793	-25.816	-0.240	0.141
-300.778	-157.496	0.205	0.012
-299.764	149.157	-0.045	-0.060
-298.749	-200.000	0.038	0.231
-297.735	339.363	-0.112	0.218
-296.720	-151.490	0.084	0.006
-295.705	800.000	-0.040	-0.139
-294.691	-5.977	-0.102	0.069
-293.676	-177.705	0.056	0.001
-292.662	800.000	0.111	-0.328
-291.647	347.237	-0.037	-0.073
-290.632	139.378	-0.190	0.249
-289.618	-121.638	0.238	-0.039
-288.603	244.768	0.181	0.303
-287.589	-148.756	0.141	-0.011
-286.574	-200.000	0.000	0.052
-285.559	8.358	-0.095	-0.071
-284.545	31.520	-0.150	-0.128
-283.530	-157.511	-0.089	0.005
-282.516	-92.823	-0.139	-0.039
-281.501	781.365	-0.024	-0.067
-280.486	111.845	0.171	-0.205
-279.472	-2.277	0.391	-0.273
-278.457	-14.685	-0.300	-0.192
-277.443	-200.000	0.019	0.263
-276.428	96.585	0.101	-0.115
-275.413	-130.818	-0.165	-0.022
-274.399	40.125	0.333	-0.298
-273.384	77.919	0.095	0.101
-272.370	137.351	0.099	0.130
-271.355	22.531	0.088	0.072
-270.340	145.431	-0.075	-0.100
-269.326	-200.000	0.016	0.112
-268.311	-50.253	0.238	0.112
-267.297	-96.632	-0.287	0.075
-266.282	82.007	-0.113	0.122
-265.267	196.419	-0.182	0.276
-264.253	3.384	-0.287	0.208
-263.238	-105.523	0.070	0.016
-262.224	800.000	-0.039	-0.137
-261.209	4.583	0.215	0.157
-260.195	-54.254	-0.394	-0.178
-259.180	110.069	-0.167	-0.199
-258.165	-197.103	0.471	-0.003
-257.151	-19.122	0.189	0.117
-256.136	364.756	-0.064	-0.128
-255.122	-14.648	-0.234	0.150
-254.107	507.849	-0.113	0.260
-253.092	217.981	-0.040	0.063
-252.078	-200.000	-0.001	-0.137
-251.063	-116.179	-0.383	-0.071
-250.049	150.876	-0.056	0.076
-249.034	18.823	0.039	0.031
-248.019	-56.600	-0.260	-0.115
-247.005	-173.187	-0.116	-0.004
-245.990	-200.000	-0.030	-0.237
-244.976	-57.151	-0.278	0.122
-243.961	800.000	-0.160	-0.522
-242.946	422.773	0.168	-0.360
-241.932	-200.000	-0.048	0.258
-240.917	75.122	0.262	-0.274
-239.903	800.000	-0.058	0.176
-238.888	51.011	0.168	-0.158
-237.873	69.753	0.163	-0.167
-236.859	-65.999	-0.217	0.086
-235.844	-102.879	0.082	-0.019
-234.830	254.242	0.098	0.166
-233.815	231.849	0.167	0.272
-232.800	-164.791	-0.301	-0.013
-231.786	55.746	-0.109	0.105
-230.771	-200.000	0.033	0.334
-229.757	82.396	-0.099	-0.107
-228.742	-105.131	-0.386	-0.088
-227.727	24.644	0.234	0.192
-226.713	-56.778	0.243	0.107
-225.698	800.000	0.079	0.253
-224.684	-13.257	0.198	-0.128
-223.669	-6.776	0.177	0.120
-222.655	800.000	-0.064	0.206
-221.640	-9.389	-0.130	0.087
-220.625	-87.120	0.203	0.061
-219.611	233.879	-0.143	0.234
-218.596	-200.000	0.004	0.144
-217.582	-170.968	0.042	0.001
-216.567	39.489	-0.200	-0.178
-215.552	707.085	-0.158	-0.415
-214.538	-45.474	0.169	0.083
-213.523	149.175	-0.216	0.291
-212.509	-7.438	0.119	0.080
-211.494	180.450	-0.236	-0.344
-210.479	-135.570	-0.112	-0.013
-209.465	-55.313	0.139	0.062
-208.450	17.230	0.181	-0.143
-207.436	111.360	0.125	0.149
-206.421	-52.764	0.171	-0.078
-205.406	-114.165	0.363	0.070
-204.392	800.000	-0.099	-0.328
-203.377	800.000	-0.053	-0.170
-202.363	786.877	0.127	-0.347
-201.348	-200.000	-0.009	-0.083
-200.333	3.029	-0.273	0.197
-199.319	387.482	0.060	0.123
-198.304	73.463	0.107	0.112
-197.290	-188.183	-0.078	0.001
-196.275	-82.387	0.307	-0.099
-195.260	-200.000	0.005	0.274
-194.246	-85.809	-0.391	0.120
-193.231	776.678	0.028	0.075
-192.217	202.994	0.164	-0.251
-191.202	-26.442	-0.175	0.102
-190.187	-200.000	-0.017	0.162
-189.173	752.361	-0.080	-0.216
-188.158	-200.000	0.050	0.271
-187.144	-75.952	-0.087	0.031
-186.129	483.430	-0.065	0.147
-185.114	366.450	0.188	0.376
-184.100	183.207	0.088	-0.129
-183.085	113.125	0.127	-0.153
-182.071	-16.240	-0.404	0.255
-181.056	80.666	-0.273	0.292
-180.042	-190.475	0.192	-0.002
-179.027	1.686	0.079	0.056
-178.012	-125.506	-0.290	0.044
-176.998	-80.195	0.371	0.123
-175.983	-200.000	-0.008	0.134
-174.969	-6.005	0.096	-0.065
-173.954	-200.000	-0.001	-0.210
-172.939	71.893	0.229	0.236
-171.925	-139.797	-0.378	0.040
-170.910	-181.236	0.297	-0.006
-169.896	113.350	-0.131	-0.158
-168.881	-67.372	-0.062	-0.024
-167.866	99.489	-0.052	0.059
-166.852	800.000	0.041	0.136
-165.837	-200.000	0.018	-0.201
-164.823	-5.661	-0.174	0.118
-163.808	-73.056	0.294	0.107
-162.793	126.040	0.080	0.100
-161.779	362.233	-0.091	0.180
-160.764	-91.992	-0.106	-0.030
-159.750	-158.211	0.235	-0.014
-158.735	-2.595	0.131	0.091
-157.720	-179.938	-0.099	0.002
-156.706	-24.481	0.255	-0.151
-155.691	-200.000	-0.007	-0.034
-154.677	-200.000	-0.030	0.324
-153.662	-27.516	0.342	-0.197
-152.647	-200.000	0.004	-0.147
-151.633	-127.743	0.083	-0.012
-150.618	-2.471	-0.363	-0.252
-149.604	100.062	0.192	0.220
-148.589	58.958	-0.305	-0.298
-147.574	-155.583	-0.383	-0.024
-146.560	-200.000	0.018	-0.329
-145.545	174.302	-0.098	-0.140
-144.531	-43.576	0.239	-0.120
-143.516	71.981	-0.092	-0.095
-142.502	-45.601	0.188	0.092
-141.487	89.224	0.332	0.366
-140.472	315.493	-0.070	0.131
-139.458	-43.218	0.312	0.156
-138.443	51.655	0.403	-0.380
-137.429	174.652	0.061	-0.088
-136.414	-28.881	0.252	0.144
-135.399	-200.000	-0.014	0.381
-134.385	96.229	0.076	-0.086
-133.370	695.992	0.070	0.182
-132.356	-19.506	-0.058	-0.035
-131.341	106.359	0.187	0.220
-130.326	4.763	-0.148	0.108
-129.312	800.000	-0.156	0.438
-128.297	54.572	-0.120	0.115
-127.283	-55.499	-0.290	0.129
-126.268	-33.714	0.200	0.109
-125.253	-48.196	-0.190	0.091
-124.239	175.930	0.203	-0.291
-123.224	445.968	-0.159	0.346
-122.210	-200.000	0.055	-0.286
-121.195	89.959	0.121	-0.134
