DTS Sentinel unit serial number:	SN413079Multiplexer serial number:	ORYXHardware model number:	OX4-SRSoftware version number:	ORYX F/W v4.00 Oryx Data Collector v3.7.2.0data status	okinstallation	princeton_trtdifferential loss correction	single-endedforward channel	channel 4reverse channel	N/Adate	2019/09/15time	10:29:35forward acquisition time	60.00reverse acquisition time	0.00gamma	496.2192k internal	0.2299k external	0.2299temperature offset calibration	1.0021default loss term (dB/km)	0.3790temperature slope calibration	1.0000multiplexer offset coefficient	1.0000multiplexer slope coefficient	1.0000fibre end	0.00T internal ref (°C)	34.25T ext. ref 1 (°C)	5.05T ext. ref 2 (°C)	29.47length (m)	temperature (°C)	Stokes	anti-Stokes-747.200	-110.530	-0.112	0.024
-746.185	800.000	-0.044	0.159
-745.171	-145.059	-0.200	-0.019
-744.156	800.000	-0.123	0.358
-743.142	180.279	0.167	-0.250
-742.127	-177.557	-0.101	0.003
-741.112	226.291	0.175	-0.290
-740.098	79.589	-0.261	-0.285
-739.083	336.132	0.145	0.286
-738.069	249.052	-0.112	0.193
-737.054	201.320	0.144	-0.227
-736.039	315.718	0.018	0.035
-735.025	-200.000	0.028	0.274
-734.010	21.807	-0.065	-0.054
-732.996	-200.000	0.007	0.284
-731.981	800.000	0.027	0.091
-730.966	-137.378	-0.270	-0.031
-729.952	-133.929	-0.114	0.014
-728.937	162.358	-0.178	-0.254
-727.923	-28.167	-0.210	-0.124
-726.908	128.689	-0.426	-0.554
-725.894	800.000	-0.038	-0.121
-724.879	-66.397	0.099	-0.040
-723.864	-200.000	-0.011	0.173
-722.850	-200.000	0.002	0.105
-721.835	45.879	-0.144	-0.136
-720.821	-63.323	0.130	-0.055
-719.806	-18.370	-0.196	0.125
-718.791	56.882	-0.209	-0.208
-717.777	-200.000	0.049	0.248
-716.762	497.774	0.137	-0.322
-715.748	-65.136	0.237	-0.098
-714.733	-64.544	-0.109	0.045
-713.718	-146.218	-0.369	0.033
-712.704	-111.792	-0.217	-0.045
-711.689	-12.565	-0.230	-0.153
-710.675	174.023	-0.110	-0.163
-709.660	-52.821	-0.505	0.237
-708.645	-75.925	-0.181	0.065
-707.631	-78.483	0.265	0.092
-706.616	71.453	0.175	-0.185
-705.602	39.923	0.063	-0.058
-704.587	-105.151	0.177	0.041
-703.572	-200.000	-0.025	-0.278
-702.558	800.000	-0.021	-0.071
-701.543	-138.243	0.238	0.027
-700.529	800.000	-0.009	-0.031
-699.514	-123.030	-0.147	0.024
-698.499	60.339	-0.194	-0.195
-697.485	-101.883	0.267	-0.066
-696.470	-4.027	-0.113	0.080
-695.456	-169.731	0.125	0.005
-694.441	41.198	0.010	-0.010
-693.426	-200.000	-0.022	-0.216
-692.412	-14.489	-0.314	-0.206
-691.397	58.745	0.225	-0.225
-690.383	-34.169	-0.158	-0.088
-689.368	-200.000	0.024	0.361
-688.354	33.083	-0.317	0.280
-687.339	800.000	-0.033	0.122
-686.324	50.695	0.275	0.265
-685.310	72.471	-0.113	0.120
-684.295	127.768	0.148	0.192
-683.281	-65.652	0.124	-0.050
-682.266	170.955	0.203	-0.296
-681.251	-117.954	-0.203	-0.037
-680.237	-117.677	-0.125	-0.023
-679.222	9.203	-0.245	-0.189
-678.208	1.137	-0.213	-0.156
-677.193	-200.000	-0.004	-0.202
-676.178	-132.488	0.073	-0.010
-675.164	-131.813	-0.197	-0.026
-674.149	275.462	0.184	-0.332
-673.135	-174.563	0.071	0.002
-672.120	-46.022	-0.417	-0.209
-671.105	-89.076	-0.085	-0.026
-670.091	-73.519	0.200	-0.074
-669.076	326.931	-0.086	-0.168
-668.062	-34.162	-0.099	-0.055
-667.047	-200.000	-0.034	0.178
-666.032	-126.368	0.188	0.028
-665.018	78.149	0.313	0.340
-664.003	-29.630	-0.275	-0.160
-662.989	-102.488	-0.312	0.076
-661.974	-107.875	-0.119	0.026
-660.959	332.737	-0.073	0.143
-659.945	800.000	0.073	0.242
-658.930	-10.867	0.062	0.042
-657.916	118.634	0.093	-0.117
-656.901	-152.805	0.236	0.017
-655.886	201.587	-0.102	0.159
-654.872	13.488	0.103	-0.082
-653.857	638.017	0.097	0.250
-652.843	-200.000	-0.003	-0.215
-651.828	-28.942	-0.336	-0.196
-650.814	-75.133	0.141	-0.051
-649.799	48.858	-0.086	-0.082
-648.784	764.720	-0.035	-0.096
-647.770	7.738	0.244	-0.186
-646.755	-200.000	0.039	-0.198
-645.741	-130.934	-0.270	-0.037
-644.726	-67.526	-0.317	-0.126
-643.711	19.396	-0.170	0.139
-642.697	59.092	0.013	-0.013
-641.682	28.497	-0.030	0.026
-640.668	-200.000	-0.005	0.072
-639.653	-200.000	0.055	0.349
-638.638	181.529	0.082	0.123
-637.624	115.188	0.123	0.153
-636.609	41.855	-0.095	-0.087
-635.595	-16.482	0.214	-0.138
-634.580	-50.105	-0.246	-0.118
-633.565	207.639	0.137	0.217
-632.551	128.681	0.148	0.191
-631.536	150.410	0.150	-0.207
-630.522	800.000	0.031	-0.110
-629.507	-81.229	-0.382	-0.128
-628.492	-39.337	-0.188	0.100
-627.478	249.899	0.026	-0.045
-626.463	-99.611	0.133	-0.034
-625.449	800.000	-0.098	-0.314
-624.434	-161.031	-0.212	-0.011
-623.419	-9.374	-0.225	-0.153
-622.405	53.049	0.150	0.146
-621.390	800.000	-0.064	-0.205
-620.376	-200.000	0.015	0.177
-619.361	566.434	0.150	0.370
-618.346	159.267	0.179	0.253
-617.332	-200.000	-0.056	-0.371
-616.317	537.360	0.125	-0.300
-615.303	278.435	-0.011	-0.019
-614.288	-200.000	0.013	0.134
-613.273	-200.000	0.030	-0.172
-612.259	11.687	-0.030	0.024
-611.244	-24.989	-0.137	0.082
-610.230	362.139	0.064	0.130
-609.215	41.529	-0.144	0.132
-608.201	-30.427	0.322	0.185
-607.186	421.771	0.020	-0.043
-606.171	-74.576	0.140	0.051
-605.157	-109.056	-0.144	-0.031
-604.142	119.756	0.060	0.075
-603.128	-200.000	-0.052	0.303
-602.113	-200.000	0.006	0.086
-601.098	164.160	0.101	-0.145
-600.084	22.726	-0.134	-0.111
-599.069	51.861	0.120	-0.116
-598.055	-43.660	0.363	0.186
-597.040	-60.390	0.334	0.144
-596.025	-123.086	-0.247	-0.040
-595.011	-78.466	-0.284	-0.099
-593.996	49.842	-0.280	-0.268
-592.982	-93.429	-0.159	0.045
-591.967	109.005	-0.241	0.293
-590.952	-200.000	0.020	0.237
-589.938	72.948	0.089	0.095
-588.923	-113.039	0.026	0.005
-587.909	800.000	0.017	-0.068
-586.894	-103.054	0.245	0.059
-585.879	-169.785	0.174	0.006
-584.865	59.791	0.169	0.170
-583.850	800.000	-0.031	0.120
-582.836	800.000	-0.024	0.098
-581.821	-57.205	-0.094	-0.042
-580.806	14.260	0.067	-0.053
-579.792	800.000	0.024	0.095
-578.777	316.780	-0.125	-0.240
-577.763	196.852	0.224	-0.346
-576.748	-13.115	-0.102	0.068
-575.733	-92.725	0.147	0.042
-574.719	-200.000	0.010	0.139
-573.704	-126.396	-0.218	-0.033
-572.690	-200.000	0.032	-0.312
-571.675	-119.198	-0.117	-0.021
-570.661	453.879	-0.038	-0.085
-569.646	-60.612	-0.185	-0.079
-568.631	318.133	-0.011	0.020
-567.617	52.797	-0.067	-0.065
-566.602	-133.984	-0.212	-0.027
-565.588	151.070	-0.064	0.089
-564.573	88.136	0.167	-0.188
-563.558	800.000	-0.081	0.276
-562.544	5.519	0.305	0.228
-561.529	12.379	0.146	0.114
-560.515	-57.456	0.090	0.040
-559.500	-59.879	-0.050	-0.022
-558.485	7.688	-0.186	-0.141
-557.471	-20.465	0.273	-0.170
-556.456	-94.447	0.151	0.042
-555.442	95.295	0.070	0.081
-554.427	0.134	-0.141	-0.102
-553.412	96.597	-0.103	0.119
-552.398	138.417	0.141	0.188
-551.383	91.424	-0.131	-0.149
-550.369	800.000	-0.044	-0.130
-549.354	97.108	0.064	0.075
-548.339	-76.741	-0.121	0.043
-547.325	-123.968	-0.081	-0.013
-546.310	800.000	-0.073	-0.299
-545.296	17.752	0.165	-0.133
-544.281	800.000	0.042	0.171
-543.266	-117.433	-0.170	-0.031
-542.252	-91.952	-0.379	-0.109
-541.237	104.796	0.150	0.179
-540.223	-148.790	0.279	0.023
-539.208	657.160	-0.080	-0.208
-538.193	211.065	0.048	-0.076
-537.179	224.432	0.053	0.086
-536.164	154.697	-0.171	-0.238
-535.150	47.475	-0.366	-0.345
-534.135	693.247	0.067	0.179
-533.121	34.654	0.292	0.259
-532.106	154.302	0.124	0.172
-531.091	405.878	0.060	0.128
-530.077	800.000	-0.066	0.253
-529.062	246.373	0.112	0.191
-528.048	-96.479	0.254	-0.068
-527.033	-168.375	-0.508	-0.020
-526.018	-108.314	-0.136	0.030
-525.004	160.735	0.275	-0.389
-523.989	95.983	0.128	-0.148
-522.975	32.909	-0.218	-0.191
-521.960	-100.433	0.453	-0.114
-520.945	69.628	0.256	0.266
-519.931	-92.700	-0.414	-0.117
-518.916	59.113	0.134	-0.133
-517.902	510.157	-0.057	-0.135
-516.887	-115.982	0.245	0.046
-515.872	800.000	-0.028	-0.088
-514.858	-52.803	-0.209	0.097
-513.843	-123.035	0.130	-0.021
-512.829	-118.239	-0.035	0.006
-511.814	-200.000	0.011	-0.223
-510.799	81.764	-0.224	-0.245
-509.785	-149.236	0.202	-0.016
-508.770	-80.832	0.318	-0.107
-507.756	-25.807	-0.206	-0.123
-506.741	-200.000	-0.015	-0.102
-505.726	800.000	-0.096	0.275
-504.712	-200.000	0.016	0.116
-503.697	-134.025	-0.069	0.009
-502.683	-81.881	-0.205	0.068
-501.668	-200.000	-0.009	-0.220
-500.653	-86.327	-0.127	0.039
-499.639	-200.000	-0.047	-0.338
-498.624	100.552	-0.142	0.166
-497.610	93.249	0.260	0.298
-496.595	-200.000	-0.020	-0.233
-495.581	800.000	0.120	-0.364
-494.566	-200.000	-0.007	0.425
-493.551	-200.000	0.018	-0.091
-492.537	-111.355	0.107	-0.022
-491.522	179.650	-0.332	-0.491
-490.508	-71.976	-0.316	0.119
-489.493	210.914	-0.155	0.246
-488.478	-101.917	-0.264	-0.064
-487.464	-190.996	0.338	0.004
-486.449	800.000	-0.067	-0.240
-485.435	-153.664	-0.066	0.005
-484.420	-50.711	0.240	-0.114
-483.405	800.000	0.015	0.053
-482.391	107.125	-0.087	-0.104
-481.376	183.790	-0.259	0.388
-480.362	-200.000	-0.019	0.167
-479.347	-187.785	0.056	-0.001
-478.332	65.850	0.241	0.247
-477.318	87.018	0.144	0.161
-476.303	42.758	0.095	-0.087
-475.289	-187.334	0.196	-0.003
-474.274	-200.000	0.002	0.277
-473.259	91.930	-0.210	-0.239
-472.245	-98.690	0.106	-0.027
-471.230	-144.489	-0.117	-0.011
-470.216	-80.184	-0.144	0.049
-469.201	-49.085	0.257	0.124
-468.186	-107.516	-0.134	-0.030
-467.172	800.000	0.065	-0.211
-466.157	-99.498	0.110	0.028
-465.143	800.000	-0.144	-0.435
-464.128	-71.763	-0.315	0.118
-463.113	132.390	-0.167	-0.217
-462.099	-9.516	-0.168	0.113
-461.084	-200.000	0.086	-0.420
-460.070	-51.307	0.145	0.069
-459.055	-166.347	-0.409	-0.017
-458.040	445.940	0.035	-0.077
-457.026	29.630	-0.140	-0.120
-456.011	704.619	0.064	-0.170
-454.997	800.000	0.110	0.340
-453.982	-186.860	0.158	0.002
-452.968	31.941	0.152	-0.132
-451.953	373.765	-0.011	-0.023
-450.938	392.587	0.083	0.174
-449.924	800.000	0.027	0.108
-448.909	-106.791	0.115	0.026
-447.895	800.000	0.079	0.302
-446.880	-148.475	0.045	0.004
-445.865	-172.929	-0.133	-0.004
-444.851	257.268	0.171	0.297
-443.836	-29.850	0.193	-0.111
-442.822	-200.000	-0.039	0.246
-441.807	-81.218	-0.222	0.074
-440.792	-81.798	0.200	-0.066
-439.778	800.000	0.032	-0.099
-438.763	237.310	0.149	0.249
-437.749	800.000	0.056	-0.160
-436.734	767.604	-0.038	-0.105
-435.719	-87.834	0.128	-0.039
-434.705	-47.899	-0.439	-0.214
-433.690	-67.130	0.150	0.060
-432.676	-200.000	0.053	-0.233
-431.661	532.569	0.148	-0.352
-430.646	-200.000	-0.028	-0.154
-429.632	800.000	-0.081	-0.334
-428.617	-156.404	-0.245	-0.015
-427.603	-34.299	0.116	-0.064
-426.588	-22.037	0.129	-0.079
-425.573	-116.474	0.078	-0.015
-424.559	-60.579	0.022	-0.010
-423.544	-96.965	-0.264	0.070
-422.530	-200.000	-0.035	0.309
-421.515	68.228	-0.226	0.233
-420.500	-54.474	-0.207	-0.095
-419.486	-9.416	-0.221	-0.149
-418.471	-200.000	-0.013	-0.242
-417.457	325.292	0.130	0.251
-416.442	507.123	-0.122	0.286
-415.428	27.524	-0.119	-0.101
-414.413	53.966	-0.082	0.079
-413.398	28.060	-0.354	0.301
-412.384	-200.000	0.015	0.106
-411.369	-200.000	0.065	-0.428
-410.355	800.000	-0.031	-0.114
-409.340	39.255	0.318	-0.287
-408.325	-122.516	-0.054	0.009
-407.311	109.762	0.167	0.202
-406.296	-200.000	-0.031	0.403
-405.282	-101.505	0.211	0.052
-404.267	232.036	0.144	0.237
-403.252	800.000	-0.055	0.176
-402.238	144.827	-0.083	-0.111
-401.223	-200.000	-0.022	0.144
-400.209	740.409	0.111	0.300
-399.194	-159.844	0.091	0.005
-398.179	-183.152	-0.217	0.004
-397.165	20.584	-0.305	0.248
-396.150	19.202	0.120	0.097
-395.136	-2.632	0.260	-0.183
-394.121	-100.329	0.114	0.028
-393.106	-200.000	0.081	0.000
-392.092	-200.000	-0.038	0.221
-391.077	-60.775	-0.251	0.107
-390.063	303.885	-0.052	0.097
-389.048	800.000	-0.020	-0.057
-388.033	226.848	0.099	0.162
-387.019	-0.143	0.157	0.113
-386.004	-106.046	0.031	0.007
-384.990	743.354	-0.106	-0.287
-383.975	-17.472	-0.369	-0.233
-382.960	-55.113	-0.287	0.130
-381.946	-89.211	-0.064	-0.019
-380.931	615.810	-0.058	0.147
-379.917	-23.246	0.169	-0.103
-378.902	231.739	0.063	0.104
-377.888	-90.690	-0.151	0.044
-376.873	-200.000	0.015	0.132
-375.858	245.317	0.250	0.424
-374.844	-88.468	-0.056	-0.017
-373.829	-200.000	-0.003	-0.276
-372.815	-32.945	0.483	-0.270
-371.800	-200.000	0.016	0.219
-370.785	21.246	-0.194	-0.159
-369.771	177.992	-0.059	-0.087
-368.756	-141.570	0.086	0.009
-367.742	-86.004	0.149	0.046
-366.727	-51.676	-0.207	-0.097
-365.712	-200.000	0.011	0.100
-364.698	-200.000	0.072	0.328
-363.683	10.515	-0.142	0.109
-362.669	-91.030	-0.206	0.060
-361.654	150.766	0.086	0.117
-360.639	-200.000	-0.000	0.220
-359.625	800.000	0.063	0.208
-358.610	-16.089	0.146	0.093
-357.596	192.435	-0.162	0.246
-356.581	157.075	0.071	-0.098
-355.566	52.437	-0.188	0.180
-354.552	690.338	0.082	-0.215
-353.537	40.926	0.182	0.165
-352.523	-200.000	-0.006	0.156
-351.508	-95.112	0.229	0.062
-350.493	-49.696	-0.121	-0.058
-349.479	-62.491	0.254	0.106
-348.464	-96.332	0.236	-0.063
-347.450	-87.911	-0.295	-0.089
-346.435	0.954	0.141	-0.102
-345.420	-200.000	-0.038	-0.170
-344.406	-113.582	-0.200	0.039
-343.391	3.140	0.226	-0.165
-342.377	800.000	-0.094	0.282
-341.362	-200.000	-0.032	-0.189
-340.348	-200.000	-0.005	-0.194
-339.333	533.320	-0.025	0.060
-338.318	-200.000	-0.010	-0.253
-337.304	-110.737	0.325	-0.067
-336.289	365.276	-0.097	-0.196
-335.275	3.317	-0.101	0.074
-334.260	800.000	0.014	-0.044
-333.245	800.000	0.011	-0.039
-332.231	31.199	-0.301	-0.259
-331.216	231.865	0.082	0.135
-330.202	540.574	0.079	-0.188
-329.187	304.420	0.063	0.118
-328.172	-200.000	-0.008	0.100
-327.158	223.899	0.109	0.177
-326.143	-200.000	0.006	-0.152
-325.129	-82.266	0.250	-0.082
-324.114	19.304	-0.028	0.022
-323.099	-200.000	0.001	-0.078
-322.085	800.000	-0.031	-0.098
-321.070	800.000	-0.020	0.073
-320.056	800.000	-0.105	0.302
-319.041	325.473	-0.133	0.255
-318.026	-130.763	0.118	-0.016
-317.012	-166.259	0.266	-0.011
-315.997	0.171	-0.170	0.122
-314.983	-62.609	0.249	-0.104
-313.968	293.866	0.027	0.049
-312.953	-197.120	-0.208	-0.001
-311.939	-7.669	0.140	0.095
-310.924	-76.777	0.295	-0.104
-309.910	-85.886	0.231	-0.072
-308.895	29.265	0.238	-0.203
-307.880	138.000	-0.048	-0.063
-306.866	-96.958	0.201	0.053
-305.851	53.473	-0.169	0.163
-304.837	-167.459	-0.177	0.007
-303.822	14.580	-0.132	0.103
-302.807	-144.012	-0.063	0.006
-301.793	43.351	-0.352	-0.322
-300.778	710.347	0.087	0.232
-299.764	205.399	0.038	-0.060
-298.749	-100.921	0.182	-0.045
-297.735	-200.000	-0.078	-0.368
-296.720	-76.787	-0.238	0.084
-295.705	786.924	0.089	-0.245
-294.691	-121.419	0.574	0.096
-293.676	609.727	-0.079	0.197
-292.662	32.496	-0.197	-0.171
-291.647	32.531	0.216	-0.187
-290.632	480.193	0.067	-0.151
-289.618	-124.862	-0.232	0.036
-288.603	-96.854	0.192	-0.050
-287.589	-200.000	0.014	0.256
-286.574	203.345	-0.066	-0.102
-285.559	-182.062	0.023	0.000
-284.545	-103.142	0.285	-0.068
-283.530	-200.000	-0.018	-0.259
-282.516	158.342	0.157	0.218
-281.501	139.605	0.066	-0.087
-280.486	-99.980	0.108	0.027
-279.472	-200.000	-0.017	0.082
-278.457	419.959	0.031	-0.067
-277.443	180.417	0.088	-0.129
-276.428	-29.786	0.117	0.067
-275.413	-12.626	-0.255	0.167
-274.399	-200.000	-0.021	0.129
-273.384	-25.372	-0.029	0.017
-272.370	-200.000	0.001	0.146
-271.355	-200.000	0.039	-0.251
-270.340	-183.241	0.177	-0.003
-269.326	-95.439	-0.274	-0.074
-268.311	-19.934	0.080	0.050
-267.297	-200.000	0.029	0.246
-266.282	85.315	-0.071	0.078
-265.267	-11.021	0.319	0.211
-264.253	-145.048	-0.164	-0.015
-263.238	-70.269	-0.073	0.028
-262.224	-200.000	0.001	0.107
-261.209	800.000	-0.067	-0.274
-260.195	-68.132	0.281	-0.110
-259.180	800.000	0.075	-0.264
-258.165	-175.835	0.261	-0.007
-257.151	46.360	-0.029	0.027
-256.136	-48.870	-0.285	0.137
-255.122	-132.182	0.090	0.012
-254.107	-160.806	0.247	0.013
-253.092	341.979	-0.060	-0.117
-252.078	60.920	-0.140	-0.139
-251.063	392.438	-0.049	-0.103
-250.049	-200.000	0.071	-0.400
-249.034	-17.750	-0.174	0.109
-248.019	81.773	0.086	-0.093
-247.005	-200.000	0.025	-0.403
-245.990	-200.000	-0.013	0.069
-244.976	64.494	0.086	-0.087
-243.961	-200.000	-0.003	-0.205
-242.946	18.365	0.194	0.155
-241.932	-191.629	0.194	-0.002
-240.917	178.884	0.076	0.112
-239.903	66.848	0.074	0.075
-238.888	-200.000	-0.066	0.303
-237.873	-8.849	-0.335	-0.224
-236.859	-75.626	0.620	-0.221
-235.844	-200.000	-0.037	-0.221
-234.830	4.582	-0.097	-0.071
-233.815	736.764	0.130	0.349
-232.800	-200.000	0.069	-0.373
-231.786	100.884	0.157	0.182
-230.771	13.902	0.022	0.017
-229.757	28.982	-0.124	-0.105
-228.742	-200.000	0.105	0.500
-227.727	274.458	0.083	-0.147
-226.713	-200.000	0.099	0.556
-225.698	736.111	-0.047	0.126
-224.684	295.171	-0.132	0.242
-223.669	800.000	0.068	0.251
-222.655	-0.278	-0.107	-0.076
-221.640	-153.590	-0.477	-0.033
-220.625	-72.370	-0.125	0.046
-219.611	-120.678	-0.157	0.027
-218.596	-152.709	-0.173	-0.012
-217.582	-114.545	0.259	-0.050
-216.567	800.000	-0.039	-0.136
-215.552	-97.948	-0.176	0.045
-214.538	26.155	0.042	-0.035
-213.523	0.774	-0.220	-0.157
-212.509	39.072	0.179	-0.160
-211.494	-200.000	-0.000	0.209
-210.479	6.212	-0.065	0.048
-209.465	250.005	-0.161	0.273
-208.450	-14.509	0.158	-0.102
-207.436	800.000	-0.076	-0.257
-206.421	-94.806	-0.406	-0.110
-205.406	-42.736	-0.132	-0.067
-204.392	121.570	-0.232	-0.288
-203.377	87.172	-0.107	0.118
-202.363	-168.254	0.238	0.009
-201.348	-200.000	0.049	0.233
-200.333	746.674	-0.020	0.054
-199.319	-17.544	-0.091	0.057
-198.304	-75.684	0.104	0.037
-197.290	-8.925	-0.214	-0.143
-196.275	-173.252	0.302	-0.009
-195.260	12.846	-0.181	0.140
-194.246	-200.000	0.000	-0.035
-193.231	-4.836	-0.183	0.126
-192.217	-119.190	-0.049	-0.009
-191.202	69.882	-0.146	-0.151
-190.187	800.000	-0.133	0.374
-189.173	-177.320	0.204	0.005
-188.158	-71.875	0.420	0.156
-187.144	-200.000	0.020	0.148
-186.129	567.023	-0.105	0.255
-185.114	-146.629	-0.272	-0.024
-184.100	-200.000	-0.014	-0.156
-183.085	73.417	-0.124	0.129
-182.071	83.921	-0.134	-0.146
-181.056	-15.771	0.147	-0.093
-180.042	14.467	0.227	0.177
-179.027	-80.599	-0.186	0.062
-178.012	-10.349	0.158	-0.104
-176.998	-39.499	-0.211	-0.111
-175.983	800.000	0.135	0.456
-174.969	667.894	0.093	-0.240
-173.954	90.106	0.255	0.285
-172.939	28.558	0.137	0.116
-171.925	-200.000	-0.026	-0.229
-170.910	309.649	-0.120	0.223
-169.896	22.046	-0.118	-0.096
-168.881	394.393	0.063	-0.132
-167.866	-200.000	-0.008	0.121
-166.852	-124.648	-0.055	0.008
-165.837	436.442	-0.145	-0.314
-164.823	-200.000	0.019	-0.299
-163.808	-200.000	0.048	-0.226
-162.793	-64.550	-0.418	-0.169
-161.779	629.334	0.103	-0.259
-160.764	11.108	0.072	0.055
-159.750	-93.726	0.145	-0.040
-158.735	-200.000	0.022	-0.114
-157.720	3.456	0.236	0.171
-156.706	38.646	-0.176	-0.156
-155.691	15.982	0.239	-0.188
-154.677	-200.000	0.005	-0.039
-153.662	39.095	-0.216	0.192
-152.647	23.546	-0.134	0.110
-151.633	94.455	-0.150	0.170
-150.618	462.940	-0.206	0.458
-149.604	0.117	-0.032	0.023
-148.589	-93.838	-0.274	-0.075
-147.574	-130.637	-0.156	-0.021
-146.560	-200.000	0.042	-0.216
-145.545	-57.045	-0.198	-0.087
-144.531	-200.000	-0.055	-0.348
-143.516	92.095	0.200	0.224
-142.502	-200.000	-0.008	-0.203
-141.487	-200.000	-0.034	0.215
-140.472	800.000	0.059	0.175
-139.458	-62.327	0.283	0.117
-138.443	-80.670	0.215	0.071
-137.429	28.199	-0.050	-0.042
-136.414	-200.000	-0.002	-0.056
-135.399	91.289	-0.125	-0.140
-134.385	800.000	0.010	0.037
-133.370	-200.000	0.057	0.406
-132.356	800.000	-0.115	0.383
-131.341	70.938	0.069	0.071
-130.326	-60.818	0.091	0.038
-129.312	508.766	0.208	0.481
-128.297	-190.531	0.083	-0.001
-127.283	-200.000	-0.004	-0.160
-126.268	-130.375	-0.170	0.023
-125.253	688.824	-0.062	-0.163
-124.239	173.787	0.307	0.441
-123.224	-151.130	-0.377	0.028
-122.210	-77.333	-0.156	-0.054
-121.195	92.530	0.084	0.094
