DTS Sentinel unit serial number:	SN413079Multiplexer serial number:	ORYXHardware model number:	OX4-SRSoftware version number:	ORYX F/W v4.00 Oryx Data Collector v3.7.2.0data status	okinstallation	princeton_trtdifferential loss correction	single-endedforward channel	channel 4reverse channel	N/Adate	2019/09/11time	19:55:11forward acquisition time	60.00reverse acquisition time	0.00gamma	496.2192k internal	0.2299k external	0.2299temperature offset calibration	1.0048default loss term (dB/km)	0.3790temperature slope calibration	1.0000multiplexer offset coefficient	1.0000multiplexer slope coefficient	1.0000fibre end	0.00T internal ref (°C)	39.05T ext. ref 1 (°C)	1.36T ext. ref 2 (°C)	31.99length (m)	temperature (°C)	Stokes	anti-Stokes-747.200	-118.870	-0.147	-0.026
-746.185	111.508	-0.201	0.248
-745.171	288.528	0.181	-0.335
-744.156	800.000	0.090	0.374
-743.142	-121.039	-0.140	0.024
-742.127	800.000	-0.149	0.430
-741.112	373.898	-0.160	-0.332
-740.098	-132.960	0.096	-0.012
-739.083	-97.455	-0.165	-0.044
-738.069	55.358	-0.245	0.242
-737.054	571.897	-0.020	0.050
-736.039	-129.734	-0.276	0.039
-735.025	-25.759	-0.266	0.160
-734.010	-145.726	-0.297	0.027
-732.996	-89.113	0.143	0.043
-731.981	80.225	-0.121	0.133
-730.966	647.139	-0.078	-0.204
-729.952	-85.968	0.131	-0.041
-728.937	-200.000	-0.035	-0.304
-727.923	-119.544	0.411	-0.073
-726.908	-200.000	0.010	-0.104
-725.894	-32.168	-0.154	0.088
-724.879	177.630	-0.130	0.193
-723.864	71.144	-0.040	-0.043
-722.850	-200.000	0.016	0.208
-721.835	-35.967	-0.432	0.238
-720.821	-190.564	0.121	0.001
-719.806	-28.082	-0.202	-0.119
-718.791	86.111	-0.106	-0.119
-717.777	-19.034	-0.250	-0.158
-716.762	64.589	0.229	-0.236
-715.748	441.042	0.104	0.231
-714.733	-65.562	0.189	-0.077
-713.718	-62.565	-0.055	-0.023
-712.704	-40.057	-0.302	-0.160
-711.689	-200.000	0.019	0.283
-710.675	230.630	0.239	-0.398
-709.660	-93.583	0.365	-0.103
-708.645	-200.000	-0.013	0.147
-707.631	-38.986	0.383	0.205
-706.616	3.441	0.072	0.053
-705.602	65.323	0.172	0.177
-704.587	-200.000	0.047	0.303
-703.572	-200.000	-0.069	0.339
-702.558	-111.799	0.092	-0.019
-701.543	800.000	0.063	0.242
-700.529	100.379	0.132	-0.157
-699.514	110.476	0.277	0.339
-698.499	-87.902	0.287	0.088
-697.485	181.299	-0.119	-0.178
-696.470	8.680	-0.078	0.060
-695.456	68.034	-0.122	-0.127
-694.441	-148.368	0.321	0.027
-693.426	800.000	0.050	0.150
-692.412	-169.402	-0.302	0.011
-691.397	-121.524	0.186	0.032
-690.383	27.436	0.278	-0.238
-689.368	553.723	-0.146	-0.357
-688.354	443.785	0.106	0.237
-687.339	7.013	0.145	-0.110
-686.324	72.589	-0.132	-0.140
-685.310	-200.000	-0.031	-0.422
-684.295	91.712	0.155	-0.178
-683.281	-27.277	-0.241	0.143
-682.266	-200.000	0.006	0.194
-681.251	-128.765	0.446	0.064
-680.237	800.000	-0.059	-0.217
-679.222	237.170	0.139	0.234
-678.208	148.478	-0.141	0.194
-677.193	-200.000	0.007	-0.231
-676.178	-36.118	-0.115	0.063
-675.164	-52.184	0.209	-0.099
-674.149	-104.483	0.046	0.011
-673.135	38.596	-0.193	-0.176
-672.120	-200.000	0.017	0.246
-671.105	-31.445	-0.581	-0.333
-670.091	-39.396	0.108	0.057
-669.076	-48.423	0.223	0.109
-668.062	-41.713	-0.094	-0.049
-667.047	800.000	-0.079	0.271
-666.032	-143.441	0.166	0.016
-665.018	800.000	-0.062	-0.191
-664.003	-102.920	-0.144	-0.035
-662.989	-45.485	-0.224	-0.113
-661.974	-64.066	-0.100	0.041
-660.959	800.000	-0.086	-0.321
-659.945	-166.447	0.108	0.005
-658.930	-77.586	-0.144	0.051
-657.916	68.277	0.124	0.129
-656.901	-87.095	-0.132	0.041
-655.886	-25.766	-0.133	-0.080
-654.872	256.948	0.048	0.084
-653.857	-87.053	-0.440	-0.136
-652.843	-79.951	-0.099	0.034
-651.828	118.356	-0.130	-0.163
-650.814	170.273	-0.233	-0.339
-649.799	-170.242	-0.120	0.004
-648.784	-34.815	0.279	-0.155
-647.770	-151.756	-0.387	0.029
-646.755	510.099	-0.109	0.259
-645.741	-85.263	-0.290	-0.092
-644.726	-81.760	-0.282	0.094
-643.711	507.957	-0.103	-0.243
-642.697	541.344	-0.041	0.098
-641.682	152.098	0.038	-0.052
-640.668	27.783	-0.160	0.137
-639.653	38.092	0.036	0.032
-638.638	98.509	-0.345	0.405
-637.624	-41.701	0.313	-0.163
-636.609	291.773	-0.217	-0.401
-635.595	800.000	-0.098	-0.309
-634.580	-200.000	0.067	-0.467
-633.565	-139.266	0.051	0.006
-632.551	-25.474	0.253	0.152
-631.536	-200.000	0.014	-0.090
-630.522	-81.604	-0.288	0.096
-629.507	-200.000	0.003	0.439
-628.492	173.213	-0.046	0.067
-627.478	-200.000	0.009	0.113
-626.463	-71.259	-0.011	-0.004
-625.449	-59.112	0.427	0.187
-624.434	-154.510	0.139	-0.009
-623.419	-54.934	0.383	0.175
-622.405	-96.505	-0.226	0.061
-621.390	68.138	0.126	0.131
-620.376	-200.000	-0.020	-0.513
-619.361	-42.525	-0.209	0.108
-618.346	-12.784	0.163	0.108
-617.332	-200.000	-0.343	0.001
-616.317	-68.989	-0.271	-0.106
-615.303	237.137	-0.117	-0.197
-614.288	-37.189	0.165	0.090
-613.273	110.380	0.077	0.094
-612.259	93.377	0.035	0.041
-611.244	-55.314	-0.213	-0.097
-610.230	-43.373	-0.176	-0.090
-609.215	170.392	0.048	-0.070
-608.201	36.083	0.030	-0.027
-607.186	-96.742	0.153	-0.041
-606.171	-166.942	0.287	0.012
-605.157	7.132	0.116	0.088
-604.142	535.316	0.057	-0.136
-603.128	-120.622	-0.258	0.044
-602.113	15.671	0.182	0.145
-601.098	-109.247	0.207	-0.045
-600.084	-38.172	0.163	0.088
-599.069	-200.000	-0.013	0.275
-598.055	332.568	-0.115	0.226
-597.040	-191.981	0.031	-0.000
-596.025	-200.000	0.004	-0.443
-595.011	-87.818	-0.334	-0.102
-593.996	-200.000	-0.003	-0.227
-592.982	77.241	0.102	-0.110
-591.967	53.790	-0.136	0.132
-590.952	-116.267	-0.318	-0.060
-589.938	767.725	0.045	-0.123
-588.923	407.105	0.182	-0.391
-587.909	-200.000	0.007	0.067
-586.894	785.714	0.020	0.056
-585.879	130.753	-0.133	-0.174
-584.865	-200.000	-0.002	0.051
-583.850	-200.000	0.050	-0.223
-582.836	51.200	0.216	-0.208
-581.821	-74.918	-0.227	0.082
-580.806	-77.339	-0.140	0.049
-579.792	-168.181	0.364	-0.014
-578.777	-153.893	-0.261	0.018
-577.763	-101.169	-0.193	0.048
-576.748	-14.574	0.294	-0.192
-575.733	-41.503	0.135	-0.070
-574.719	67.083	0.134	-0.138
-573.704	-89.162	-0.197	-0.059
-572.690	-28.353	0.047	0.027
-571.675	-200.000	-0.036	0.239
-570.661	800.000	-0.167	0.500
-569.646	-63.714	-0.196	-0.082
-568.631	268.542	-0.040	-0.070
-567.617	488.181	-0.098	0.227
-566.602	22.262	-0.145	-0.120
-565.588	783.094	0.126	-0.350
-564.573	-200.000	0.014	-0.120
-563.558	130.310	0.189	0.245
-562.544	410.147	-0.161	0.346
-561.529	62.997	-0.202	-0.205
-560.515	149.136	-0.104	-0.143
-559.500	-51.172	-0.076	-0.036
-558.485	37.847	0.162	-0.146
-557.471	140.281	0.132	-0.176
-556.456	-119.051	0.289	0.051
-555.442	-96.023	0.222	0.060
-554.427	-200.000	-0.019	-0.286
-553.412	-89.115	0.169	-0.051
-552.398	66.451	0.065	0.066
-551.383	42.570	-0.173	0.160
-550.369	-75.294	-0.253	-0.091
-549.354	-149.173	-0.211	0.017
-548.339	-200.000	-0.031	-0.261
-547.325	800.000	-0.116	0.397
-546.310	168.070	-0.068	0.098
-545.296	-33.291	0.173	0.097
-544.281	-9.982	-0.192	0.129
-543.266	-95.030	0.103	0.028
-542.252	-200.000	-0.014	-0.177
-541.237	411.070	-0.058	0.124
-540.223	-94.755	-0.099	-0.027
-539.208	800.000	-0.122	-0.443
-538.193	800.000	-0.161	-0.478
-537.179	-93.526	-0.396	-0.111
-536.164	59.600	0.097	-0.097
-535.150	-60.245	0.285	0.123
-534.135	800.000	-0.062	-0.231
-533.121	-88.152	0.308	0.093
-532.106	-95.214	0.093	-0.025
-531.091	800.000	-0.036	0.124
-530.077	-0.406	-0.147	0.106
-529.062	-143.053	-0.245	0.024
-528.048	-95.461	0.415	0.113
-527.033	-94.970	-0.146	-0.040
-526.018	-200.000	0.022	-0.384
-525.004	800.000	-0.040	-0.113
-523.989	800.000	-0.059	-0.224
-522.975	-36.988	0.125	0.068
-521.960	36.757	-0.373	-0.333
-520.945	800.000	0.035	0.132
-519.931	-32.792	-0.299	-0.168
-518.916	274.932	0.088	0.158
-517.902	445.885	-0.068	0.152
-516.887	311.065	0.127	0.241
-515.872	74.175	0.254	0.269
-514.858	324.079	0.048	-0.093
-513.843	191.781	0.094	0.143
-512.829	-16.042	-0.369	0.237
-511.814	-200.000	-0.025	0.382
-510.799	-200.000	-0.016	-0.193
-509.785	-63.676	0.206	0.085
-508.770	-162.691	0.279	0.014
-507.756	64.471	-0.120	-0.122
-506.741	9.649	-0.169	0.130
-505.726	-200.000	-0.035	-0.185
-504.712	-41.567	0.206	0.107
-503.697	616.092	0.043	-0.108
-502.683	206.540	-0.096	0.151
-501.668	-22.713	0.163	-0.100
-500.653	800.000	-0.097	-0.282
-499.639	1.040	0.248	-0.179
-498.624	-151.710	-0.198	-0.015
-497.610	-82.514	0.066	0.022
-496.595	125.284	0.157	0.200
-495.581	53.943	-0.185	0.180
-494.566	-200.000	0.012	0.084
-493.551	-88.760	-0.168	0.051
-492.537	800.000	-0.020	0.056
-491.522	185.450	0.094	-0.141
-490.508	282.388	-0.069	-0.125
-489.493	800.000	-0.025	-0.081
-488.478	18.544	0.238	0.192
-487.464	266.817	-0.134	0.237
-486.449	122.245	0.162	0.204
-485.435	49.942	-0.179	0.170
-484.420	-88.210	-0.188	-0.057
-483.405	-200.000	0.017	0.189
-482.391	774.525	-0.085	-0.235
-481.376	435.796	-0.075	-0.166
-480.362	-139.453	-0.112	0.012
-479.347	800.000	0.047	-0.133
-478.332	144.695	-0.118	0.160
-477.318	-135.126	-0.309	-0.038
-476.303	-1.658	-0.316	0.225
-475.289	-25.140	-0.097	0.058
-474.274	-54.873	-0.040	0.018
-473.259	263.601	0.098	0.172
-472.245	800.000	-0.099	-0.322
-471.230	-114.270	-0.435	-0.085
-470.216	-200.000	-0.009	-0.175
-469.201	-103.318	0.320	0.076
-468.186	715.797	-0.157	-0.420
-467.172	-200.000	-0.010	0.155
-466.157	51.950	0.151	0.145
-465.143	204.861	0.065	0.102
-464.128	50.852	-0.140	-0.134
-463.113	323.856	0.153	-0.295
-462.099	102.036	-0.151	-0.178
-461.084	-145.897	-0.210	0.019
-460.070	-113.569	0.307	0.061
-459.055	-151.726	-0.182	-0.014
-458.040	79.769	-0.072	-0.078
-457.026	39.493	-0.226	-0.204
-456.011	-200.000	-0.027	-0.181
-454.997	-157.387	0.200	-0.012
-453.982	5.033	-0.074	-0.055
-452.968	-23.611	-0.143	-0.086
-451.953	317.691	0.092	-0.175
-450.938	-155.519	-0.039	0.003
-449.924	123.225	-0.246	-0.311
-448.909	321.366	-0.259	-0.496
-447.895	-32.714	-0.148	0.083
-446.880	-200.000	0.075	0.382
-445.865	323.122	-0.064	-0.123
-444.851	1.652	-0.300	0.218
-443.836	-51.377	0.225	0.106
-442.822	185.582	-0.088	-0.132
-441.807	-69.899	0.291	-0.112
-440.792	-56.513	0.171	-0.077
-439.778	260.837	-0.164	-0.287
-438.763	3.159	0.164	0.120
-437.749	70.725	0.012	0.012
-436.734	141.922	-0.086	0.116
-435.719	-62.012	0.023	-0.010
-434.705	754.611	-0.056	0.154
-433.690	389.484	0.051	-0.106
-432.676	-20.897	-0.049	0.030
-431.661	-27.643	-0.208	0.122
-430.646	42.722	0.266	-0.244
-429.632	-200.000	-0.006	0.327
-428.617	-35.349	0.180	0.099
-427.603	38.319	-0.210	0.188
-426.588	800.000	0.044	-0.183
-425.573	-143.248	-0.129	0.013
-424.559	-132.121	0.044	-0.006
-423.544	652.980	0.069	0.177
-422.530	56.048	0.170	0.166
-421.515	206.954	-0.165	0.259
-420.500	-133.727	0.211	0.027
-419.486	189.471	0.265	0.400
-418.471	-7.992	0.122	0.083
-417.457	464.928	-0.052	0.117
-416.442	-79.513	0.125	0.043
-415.428	-89.183	-0.349	-0.104
-414.413	-200.000	0.018	0.272
-413.398	109.296	-0.253	-0.305
-412.384	-200.000	0.019	-0.208
-411.369	800.000	0.022	-0.062
-410.355	175.755	-0.146	0.213
-409.340	25.917	0.296	0.248
-408.325	-40.982	0.176	0.092
-407.311	1.406	-0.096	0.069
-406.296	-200.000	0.037	0.408
-405.282	-40.880	0.343	-0.179
-404.267	-200.000	-0.011	0.376
-403.252	-56.929	-0.170	-0.075
-402.238	657.358	0.171	0.442
-401.223	-99.043	-0.164	0.042
-400.209	-104.576	0.179	0.042
-399.194	-129.656	0.134	0.019
-398.179	13.951	-0.098	-0.077
-397.165	-34.023	-0.206	-0.114
-396.150	22.514	0.308	-0.254
-395.136	-200.000	-0.011	0.113
-394.121	-9.576	0.172	-0.115
-393.106	-47.710	0.132	0.064
-392.092	-75.701	-0.488	0.174
-391.077	-200.000	-0.108	-0.541
-390.063	-200.000	-0.048	-0.386
-389.048	-200.000	0.007	-0.034
-388.033	-93.628	-0.140	-0.039
-387.019	-15.353	0.140	-0.090
-386.004	-19.732	-0.404	-0.252
-384.990	89.222	-0.042	-0.048
-383.975	-40.257	-0.224	-0.117
-382.960	107.248	0.063	-0.076
-381.946	-200.000	0.033	-0.241
-380.931	8.121	-0.231	-0.175
-379.917	379.362	-0.033	-0.068
-378.902	-187.271	-0.300	-0.004
-377.888	-31.500	-0.237	-0.134
-376.873	-69.577	0.174	-0.067
-375.858	32.855	0.224	-0.195
-374.844	-87.273	-0.055	-0.017
-373.829	-200.000	0.100	0.694
-372.815	758.709	-0.114	0.310
-371.800	-132.789	0.218	0.028
-370.785	-61.277	0.403	0.171
-369.771	-89.924	-0.394	0.116
-368.756	-70.985	-0.280	0.106
-367.742	-96.698	0.277	0.073
-366.727	-127.436	0.069	-0.010
-365.712	800.000	0.076	-0.233
-364.698	-82.674	0.239	0.078
-363.683	122.544	-0.043	-0.054
-362.669	98.233	0.123	0.142
-361.654	365.885	-0.110	-0.223
-360.639	-200.000	-0.030	-0.159
-359.625	59.593	0.123	0.122
-358.610	61.059	-0.103	0.103
-357.596	185.366	-0.139	0.207
-356.581	-150.193	0.285	0.022
-355.566	-172.969	0.238	0.007
-354.552	263.832	0.057	0.099
-353.537	103.659	0.227	0.267
-352.523	62.885	0.145	-0.146
-351.508	11.575	0.103	0.079
-350.493	-200.000	-0.023	-0.133
-349.479	-51.906	0.116	-0.054
-348.464	215.244	-0.185	0.295
-347.450	234.011	0.154	0.256
-346.435	-200.000	-0.019	-0.185
-345.420	800.000	-0.081	0.340
-344.406	174.735	-0.115	0.168
-343.391	-109.829	0.286	-0.060
-342.377	558.341	0.083	-0.202
-341.362	-19.369	-0.250	-0.156
-340.348	-160.129	-0.042	0.002
-339.333	-146.741	0.364	-0.032
-338.318	172.896	-0.128	0.185
-337.304	12.486	-0.222	0.172
-336.289	-200.000	-0.016	0.184
-335.275	-32.440	0.144	0.081
-334.260	361.356	0.027	0.055
-333.245	-200.000	0.026	-0.113
-332.231	-92.172	0.227	-0.064
-331.216	-200.000	-0.015	0.224
-330.202	-148.506	0.368	-0.030
-329.187	-10.801	0.199	-0.132
-328.172	-159.933	0.185	-0.010
-327.158	-200.000	-0.003	-0.084
-326.143	-200.000	0.056	-0.341
-325.129	-200.000	-0.092	-0.445
-324.114	83.508	0.275	0.301
-323.099	-200.000	-0.011	0.117
-322.085	-200.000	0.023	0.137
-321.070	-0.538	-0.131	-0.094
-320.056	800.000	-0.104	-0.382
-319.041	-151.789	0.119	0.009
-318.026	-200.000	-0.073	0.329
-317.012	29.768	-0.273	-0.233
-315.997	-200.000	0.003	0.021
-314.983	-21.942	0.091	0.055
-313.968	800.000	-0.035	-0.121
-312.953	-200.000	-0.036	-0.229
-311.939	-6.708	-0.209	-0.142
-310.924	-125.305	0.207	0.032
-309.910	-131.979	0.414	-0.054
-308.895	-75.665	0.064	0.023
-307.880	800.000	0.056	0.228
-306.866	112.495	0.118	-0.143
-305.851	133.978	-0.305	-0.396
-304.837	-200.000	-0.061	0.430
-303.822	-200.000	0.005	0.147
-302.807	800.000	0.016	-0.063
-301.793	-94.142	0.037	0.010
-300.778	-155.876	0.165	-0.011
-299.764	-200.000	0.024	0.185
-298.749	-107.037	0.356	-0.079
-297.735	85.479	0.149	-0.164
-296.720	100.858	-0.105	0.122
-295.705	278.126	-0.076	-0.135
-294.691	-200.000	0.031	-0.174
-293.676	76.257	0.328	0.348
-292.662	-46.360	-0.159	0.078
-291.647	-88.673	0.220	-0.066
-290.632	-200.000	-0.010	0.282
-289.618	-150.707	-0.201	-0.015
-288.603	6.929	0.346	-0.258
-287.589	800.000	-0.049	0.200
-286.574	-37.440	0.082	-0.044
-285.559	-200.000	0.000	0.048
-284.545	299.734	0.031	-0.058
-283.530	-200.000	0.012	0.248
-282.516	-200.000	0.024	0.190
-281.501	-103.201	0.246	0.058
-280.486	526.543	0.080	0.190
-279.472	103.093	-0.213	-0.250
-278.457	-93.905	-0.095	-0.026
-277.443	-31.313	0.085	-0.048
-276.428	423.597	0.040	-0.087
-275.413	-200.000	-0.021	0.358
-274.399	800.000	0.074	0.269
-273.384	-55.491	0.053	0.024
-272.370	4.807	-0.124	0.091
-271.355	-200.000	-0.029	-0.301
-270.340	-57.606	-0.427	-0.187
-269.326	-159.711	0.179	-0.010
-268.311	-85.562	-0.034	0.011
-267.297	-16.140	0.279	-0.178
-266.282	40.226	-0.255	-0.230
-265.267	-150.382	-0.184	-0.014
-264.253	60.071	0.206	0.204
-263.238	-200.000	-0.031	0.248
-262.224	57.716	0.037	0.036
-261.209	110.834	-0.096	-0.116
-260.195	-174.148	0.086	0.003
-259.180	800.000	0.058	-0.178
-258.165	800.000	0.038	0.117
-257.151	-91.426	0.100	0.029
-256.136	-200.000	-0.005	-0.090
-255.122	-29.815	0.369	-0.211
-254.107	-70.620	-0.270	0.102
-253.092	-12.479	0.231	0.151
-252.078	-54.840	-0.195	0.088
-251.063	-121.957	-0.295	-0.049
-250.049	-200.000	0.004	0.124
-249.034	540.929	-0.107	0.256
-248.019	-156.462	-0.202	-0.013
-247.005	428.196	-0.099	0.214
-245.990	355.559	0.041	-0.081
-244.976	-200.000	-0.004	0.055
-243.961	-200.000	-0.009	-0.194
-242.946	157.927	-0.044	-0.061
-241.932	800.000	0.019	0.059
-240.917	-125.272	0.136	-0.021
-239.903	5.677	0.345	-0.255
-238.888	-130.517	-0.174	-0.024
-237.873	-200.000	0.023	-0.295
-236.859	-200.000	0.000	0.095
-235.844	236.589	-0.041	-0.067
-234.830	-200.000	0.163	-0.000
-233.815	-64.076	-0.399	-0.163
-232.800	-8.312	-0.003	0.002
-231.786	368.198	0.128	0.259
-230.771	-49.742	0.337	-0.160
-229.757	-200.000	0.000	0.354
-228.742	763.709	0.051	0.138
-227.727	-119.088	0.174	-0.030
-226.713	800.000	-0.023	-0.065
-225.698	428.372	0.178	0.384
-224.684	-56.277	-0.226	0.100
-223.669	-124.757	-0.376	0.058
-222.655	280.658	-0.118	-0.211
-221.640	-200.000	0.032	-0.192
-220.625	800.000	0.077	0.311
-219.611	-104.820	0.244	0.056
-218.596	9.607	0.191	-0.145
-217.582	134.249	-0.134	-0.174
-216.567	51.489	0.241	-0.228
-215.552	-107.362	0.097	0.021
-214.538	312.140	0.020	-0.037
-213.523	-67.370	0.109	0.043
-212.509	-7.861	0.147	-0.099
-211.494	-91.421	0.343	0.098
-210.479	8.586	-0.210	-0.158
-209.465	154.417	0.136	0.187
-208.450	67.220	-0.137	0.139
-207.436	493.708	0.138	0.316
-206.421	153.408	-0.149	0.204
-205.406	-99.583	-0.277	-0.070
-204.392	-113.356	-0.194	-0.038
-203.377	-200.000	-0.013	-0.072
-202.363	166.796	-0.135	-0.191
-201.348	-6.739	-0.097	-0.066
-200.333	-111.458	0.155	-0.032
-199.319	800.000	0.006	-0.023
-198.304	477.929	-0.099	0.223
-197.290	-200.000	0.057	-0.287
-196.275	-53.508	0.335	0.153
-195.260	-200.000	0.027	0.492
-194.246	334.823	-0.205	0.397
-193.231	-51.258	-0.121	0.057
-192.217	-184.949	0.296	0.005
-191.202	107.859	0.282	-0.336
-190.187	-200.000	-0.040	-0.314
-189.173	-8.468	0.196	0.132
-188.158	-200.000	-0.014	-0.219
-187.144	420.033	0.168	-0.359
-186.129	-13.631	0.141	0.091
-185.114	214.520	-0.168	-0.266
-184.100	-27.514	-0.121	-0.070
-183.085	-150.360	-0.112	-0.009
-182.071	246.738	-0.148	-0.249
-181.056	-119.678	0.163	-0.028
-180.042	-127.561	0.180	0.026
-179.027	-19.669	-0.304	0.188
-178.012	800.000	0.058	0.246
-176.998	357.583	-0.110	-0.220
-175.983	-41.708	0.240	-0.123
-174.969	800.000	-0.096	0.280
-173.954	-200.000	-0.015	-0.179
-172.939	-29.272	0.010	0.006
-171.925	-8.626	0.203	0.136
-170.910	94.476	-0.203	0.230
-169.896	-77.829	-0.394	-0.136
-168.881	800.000	0.112	-0.312
-167.866	-13.592	0.213	-0.138
-166.852	-69.126	-0.272	-0.104
-165.837	-113.839	0.195	-0.038
-164.823	143.010	0.240	0.318
-163.808	-200.000	0.003	0.083
-162.793	-0.731	-0.132	-0.093
-161.779	-107.993	-0.146	-0.032
-160.764	64.513	0.305	0.306
-159.750	32.206	0.222	-0.191
-158.735	82.794	0.056	-0.061
-157.720	-200.000	-0.053	0.443
-156.706	181.170	-0.147	0.215
-155.691	-200.000	-0.008	0.063
-154.677	-120.252	0.103	0.017
-153.662	-142.191	-0.194	0.019
-152.647	14.991	-0.078	-0.061
-151.633	86.964	-0.035	-0.038
-150.618	-91.579	-0.088	0.025
-149.604	-83.807	-0.260	0.083
-148.589	32.989	0.205	-0.177
-147.574	-143.647	-0.244	0.023
-146.560	-148.401	-0.165	-0.014
-145.545	800.000	-0.100	0.320
-144.531	-200.000	-0.098	0.434
-143.516	120.704	-0.156	-0.193
-142.502	-139.084	0.484	0.052
-141.487	22.623	0.250	-0.204
-140.472	-86.524	0.199	-0.061
-139.458	800.000	0.065	-0.221
-138.443	-19.961	-0.048	-0.030
-137.429	599.332	0.107	-0.265
-136.414	-200.000	-0.001	-0.361
-135.399	610.746	-0.084	0.209
-134.385	-28.637	0.172	-0.099
-133.370	-90.687	-0.161	0.046
-132.356	-71.726	-0.095	-0.035
-131.341	554.910	0.084	0.202
-130.326	93.189	0.083	-0.094
-129.312	164.909	0.048	0.068
-128.297	110.611	0.288	0.345
-127.283	-200.000	-0.024	-0.113
-126.268	-200.000	0.024	-0.182
-125.253	-32.861	-0.328	0.181
-124.239	188.828	0.252	-0.375
-123.224	100.439	-0.205	0.237
-122.210	-127.553	-0.125	-0.018
-121.195	-30.453	0.064	0.036
