DTS Sentinel unit serial number:	SN413079Multiplexer serial number:	ORYXHardware model number:	OX4-SRSoftware version number:	ORYX F/W v4.00 Oryx Data Collector v3.7.2.0data status	okinstallation	princeton_trtdifferential loss correction	single-endedforward channel	channel 4reverse channel	N/Adate	2019/09/15time	03:01:35forward acquisition time	60.00reverse acquisition time	0.00gamma	496.2192k internal	0.2309k external	0.2309temperature offset calibration	1.0034default loss term (dB/km)	0.3790temperature slope calibration	1.0000multiplexer offset coefficient	1.0000multiplexer slope coefficient	1.0000fibre end	0.00T internal ref (°C)	31.19T ext. ref 1 (°C)	4.59T ext. ref 2 (°C)	25.74length (m)	temperature (°C)	Stokes	anti-Stokes-747.200	282.400	0.268	-0.488
-746.185	188.976	-0.152	-0.230
-745.171	-51.085	0.180	-0.086
-744.156	-83.284	-0.191	-0.062
-743.142	172.081	0.264	-0.385
-742.127	-151.999	0.125	-0.009
-741.112	20.231	0.165	0.135
-740.098	-200.000	0.024	0.273
-739.083	800.000	0.060	-0.200
-738.069	-200.000	0.066	0.395
-737.054	210.385	-0.184	0.293
-736.039	-14.923	-0.394	0.256
-735.025	-93.972	0.218	0.061
-734.010	120.779	0.063	-0.080
-732.996	-200.000	-0.023	0.119
-731.981	-6.943	0.056	0.038
-730.966	-148.365	-0.115	0.010
-729.952	-111.347	-0.392	-0.081
-728.937	-118.562	0.050	-0.009
-727.923	198.512	0.148	-0.230
-726.908	595.622	-0.128	-0.322
-725.894	-123.525	-0.200	-0.032
-724.879	717.788	0.022	-0.060
-723.864	-46.043	-0.297	-0.148
-722.850	256.250	0.098	0.171
-721.835	-200.000	0.024	0.208
-720.821	62.202	-0.194	0.196
-719.806	186.548	0.114	0.172
-718.791	-148.785	0.353	-0.029
-717.777	634.178	0.046	0.119
-716.762	347.363	0.146	0.291
-715.748	165.162	-0.109	0.156
-714.733	-57.916	0.046	0.020
-713.718	-85.590	-0.302	0.095
-712.704	-115.076	-0.128	0.025
-711.689	122.654	0.089	-0.112
-710.675	-198.577	-0.185	-0.001
-709.660	-164.072	-0.035	-0.002
-708.645	-31.106	-0.442	-0.253
-707.631	7.398	0.126	0.096
-706.616	-169.576	0.270	-0.010
-705.602	236.292	0.181	0.304
-704.587	-123.331	-0.378	0.061
-703.572	27.796	0.130	-0.111
-702.558	-24.025	-0.137	0.083
-701.543	-111.546	0.323	0.067
-700.529	-200.000	-0.022	-0.143
-699.514	83.911	0.096	0.106
-698.499	-29.094	-0.127	0.074
-697.485	-19.496	0.195	0.122
-696.470	-70.636	-0.326	-0.125
-695.456	-52.006	-0.259	-0.122
-694.441	-200.000	-0.051	-0.269
-693.426	58.810	-0.129	-0.129
-692.412	129.132	0.169	0.219
-691.397	800.000	0.021	0.091
-690.383	127.286	-0.029	0.038
-689.368	41.786	-0.041	-0.037
-688.354	439.143	-0.057	0.125
-687.339	-64.720	0.130	-0.054
-686.324	209.848	-0.196	0.311
-685.310	-88.864	-0.254	0.076
-684.295	138.107	0.045	0.059
-683.281	260.836	-0.100	0.176
-682.266	-194.981	0.194	-0.002
-681.251	51.020	-0.038	-0.037
-680.237	-200.000	0.002	-0.186
-679.222	94.454	-0.060	-0.069
-678.208	-30.281	-0.082	0.047
-677.193	-114.793	-0.457	0.088
-676.178	314.728	0.121	0.231
-675.164	631.858	-0.206	-0.529
-674.149	478.143	0.092	-0.212
-673.135	133.419	-0.165	0.216
-672.120	363.837	0.095	0.193
-671.105	800.000	0.043	0.149
-670.091	-45.332	-0.141	-0.071
-669.076	-29.447	0.109	-0.063
-668.062	554.427	0.100	0.244
-667.047	326.596	0.138	-0.268
-666.032	-144.976	-0.324	-0.030
-665.018	-200.000	-0.015	-0.170
-664.003	-145.756	-0.228	0.021
-662.989	-200.000	-0.075	0.474
-661.974	-134.632	0.161	0.020
-660.959	93.761	0.058	-0.067
-659.945	-200.000	0.046	-0.229
-658.930	-7.358	0.145	0.099
-657.916	-12.982	-0.106	-0.070
-656.901	120.725	0.102	0.128
-655.886	-58.754	-0.276	-0.121
-654.872	-89.550	-0.124	-0.037
-653.857	-114.056	-0.286	0.056
-652.843	111.814	-0.152	0.185
-651.828	13.329	0.072	0.057
-650.814	-9.642	0.172	-0.116
-649.799	800.000	-0.062	0.203
-648.784	-83.894	0.241	0.078
-647.770	-1.520	0.250	-0.178
-646.755	-200.000	0.026	-0.226
-645.741	-5.170	-0.332	-0.231
-644.726	-200.000	0.114	-0.632
-643.711	133.615	-0.122	0.159
-642.697	-64.564	-0.236	-0.097
-641.682	210.735	0.135	0.215
-640.668	-126.541	-0.143	0.021
-639.653	800.000	-0.031	0.112
-638.638	4.347	-0.308	0.228
-637.624	164.971	-0.148	-0.212
-636.609	-101.542	0.179	0.044
-635.595	252.693	-0.178	0.307
-634.580	-58.751	0.063	-0.028
-633.565	-200.000	0.021	-0.313
-632.551	-69.374	-0.319	-0.124
-631.536	-200.000	0.022	0.255
-630.522	83.187	-0.172	0.190
-629.507	575.587	0.058	-0.144
-628.492	-149.496	-0.412	0.033
-627.478	220.246	0.079	-0.129
-626.463	800.000	-0.105	0.324
-625.449	-23.971	0.107	0.065
-624.434	-5.738	0.080	0.055
-623.419	83.033	-0.249	-0.274
-622.405	-12.908	-0.333	0.219
-621.390	-67.613	-0.483	0.191
-620.376	-46.204	-0.233	0.116
-619.361	15.375	-0.253	-0.201
-618.346	2.053	-0.209	-0.152
-617.332	-143.824	0.230	-0.022
-616.317	-200.000	-0.003	-0.060
-615.303	328.073	-0.066	-0.127
-614.288	-2.227	0.084	-0.060
-613.273	-200.000	-0.014	-0.314
-612.259	-35.744	-0.132	-0.073
-611.244	273.182	0.255	-0.455
-610.230	-30.560	0.324	-0.185
-609.215	-88.205	0.024	0.007
-608.201	-45.067	0.219	0.110
-607.186	302.923	0.051	0.096
-606.171	81.833	-0.021	0.023
-605.157	45.656	0.052	-0.049
-604.142	-200.000	-0.044	0.290
-603.128	-138.637	-0.278	0.031
-602.113	-162.451	0.278	0.014
-601.098	-37.675	-0.098	0.053
-600.084	0.700	0.291	-0.210
-599.069	-200.000	0.056	-0.468
-598.055	-62.466	-0.069	-0.029
-597.040	800.000	-0.097	-0.357
-596.025	-17.675	-0.178	-0.113
-595.011	93.369	-0.139	0.158
-593.996	58.656	0.096	-0.095
-592.982	800.000	0.041	-0.128
-591.967	222.343	0.201	0.327
-590.952	173.246	0.033	-0.048
-589.938	-161.506	-0.075	-0.004
-588.923	19.271	-0.357	0.290
-587.909	47.523	0.145	-0.136
-586.894	-200.000	0.027	-0.164
-585.879	28.306	-0.094	-0.080
-584.865	800.000	-0.121	-0.414
-583.850	328.786	0.152	-0.295
-582.836	215.630	0.247	-0.396
-581.821	595.686	0.106	-0.265
-580.806	-48.647	0.215	-0.104
-579.792	34.788	-0.067	0.059
-578.777	-22.110	-0.126	-0.077
-577.763	-200.000	0.009	0.102
-576.748	-28.592	0.219	-0.127
-575.733	-58.021	0.153	0.067
-574.719	220.326	0.075	0.122
-573.704	634.727	-0.038	0.096
-572.690	-82.404	0.238	0.078
-571.675	11.190	-0.112	0.087
-570.661	325.024	0.194	0.374
-569.646	-200.000	0.015	0.311
-568.631	118.860	0.107	-0.133
-567.617	-36.801	-0.159	-0.086
-566.602	-172.463	-0.537	0.017
-565.588	80.664	0.207	-0.225
-564.573	-35.624	0.300	0.164
-563.558	-29.452	-0.237	-0.137
-562.544	800.000	-0.052	0.166
-561.529	282.892	-0.149	0.271
-560.515	399.303	0.111	-0.235
-559.500	547.658	-0.084	0.204
-558.485	-7.368	-0.243	0.166
-557.471	-128.183	-0.158	-0.023
-556.456	35.960	-0.098	-0.087
-555.442	594.453	0.027	0.069
-554.427	-104.359	0.258	-0.060
-553.412	72.916	0.090	0.095
-552.398	-68.603	0.148	-0.058
-551.383	-200.000	0.004	0.311
-550.369	3.483	-0.230	0.169
-549.354	-79.292	0.151	-0.052
-548.339	-65.896	-0.025	0.010
-547.325	-148.438	-0.130	0.011
-546.310	-200.000	0.018	0.137
-545.296	97.597	-0.211	-0.244
-544.281	-132.015	-0.163	-0.021
-543.266	51.501	0.133	0.127
-542.252	51.893	-0.118	-0.113
-541.237	15.394	-0.115	0.091
-540.223	-17.138	-0.190	0.121
-539.208	800.000	0.058	0.209
-538.193	800.000	-0.059	0.186
-537.179	-50.229	0.105	0.050
-536.164	-90.564	-0.367	0.107
-535.150	-80.561	-0.207	0.069
-534.135	800.000	0.041	0.119
-533.121	196.013	-0.093	-0.142
-532.106	-200.000	-0.029	0.170
-531.091	121.755	0.088	0.111
-530.077	-76.251	0.329	-0.117
-529.062	-200.000	-0.036	-0.330
-528.048	-200.000	-0.023	-0.109
-527.033	-104.854	0.231	-0.054
-526.018	800.000	0.042	0.172
-525.004	-101.707	-0.252	0.061
-523.989	800.000	-0.035	0.111
-522.975	-200.000	0.056	-0.256
-521.960	-54.828	-0.188	-0.085
-520.945	158.472	0.057	-0.079
-519.931	-108.222	-0.019	-0.004
-518.916	48.932	0.160	-0.152
-517.902	-200.000	-0.003	-0.032
-516.887	-200.000	0.018	0.188
-515.872	-101.508	0.095	-0.023
-514.858	-198.499	-0.149	0.001
-513.843	-200.000	0.001	-0.352
-512.829	-142.106	0.156	-0.016
-511.814	-200.000	0.023	0.347
-510.799	182.786	0.046	0.069
-509.785	133.555	-0.115	0.149
-508.770	172.885	0.078	0.114
-507.756	423.070	-0.041	-0.088
-506.741	165.173	0.092	0.131
-505.726	-126.289	0.146	-0.022
-504.712	24.842	0.025	-0.021
-503.697	609.623	-0.148	-0.373
-502.683	-111.501	-0.208	0.043
-501.668	252.396	0.055	-0.095
-500.653	-138.084	-0.218	0.024
-499.639	-118.629	0.232	0.041
-498.624	333.075	-0.028	-0.055
-497.610	76.884	-0.135	-0.144
-496.595	-26.480	0.417	-0.246
-495.581	160.666	0.072	0.100
-494.566	87.784	0.138	-0.154
-493.551	-200.000	-0.052	-0.286
-492.537	-200.000	-0.021	-0.133
-491.522	-44.245	-0.298	0.150
-490.508	-92.351	0.141	-0.040
-489.493	-175.002	0.328	-0.009
-488.478	-94.319	0.068	0.019
-487.464	727.287	0.062	-0.167
-486.449	-17.042	0.557	0.354
-485.435	-41.970	0.447	0.230
-484.420	-41.724	-0.096	0.050
-483.405	10.932	0.232	-0.178
-482.391	-172.272	0.243	0.008
-481.376	-90.709	-0.180	-0.052
-480.362	32.245	-0.075	-0.065
-479.347	-79.208	0.250	-0.085
-478.332	214.078	-0.153	-0.244
-477.318	-139.999	0.140	-0.015
-476.303	-200.000	-0.081	-0.000
-475.289	-122.391	-0.081	0.013
-474.274	-92.715	-0.192	-0.054
-473.259	-83.660	0.105	0.034
-472.245	-200.000	-0.034	-0.357
-471.230	148.802	0.160	0.217
-470.216	800.000	0.051	0.194
-469.201	-200.000	0.001	-0.512
-468.186	-29.185	-0.019	-0.011
-467.172	-121.058	0.172	0.029
-466.157	102.543	-0.198	-0.232
-465.143	-3.543	0.040	-0.028
-464.128	-42.578	0.277	0.142
-463.113	29.564	-0.225	-0.193
-462.099	-89.618	0.190	0.056
-461.084	-200.000	-0.028	-0.155
-460.070	-75.873	-0.374	-0.133
-459.055	-13.226	-0.222	0.145
-458.040	-126.436	-0.148	0.022
-457.026	82.808	-0.056	-0.061
-456.011	800.000	-0.080	0.251
-454.997	349.922	0.197	0.392
-453.982	407.323	0.132	-0.280
-452.968	-51.972	-0.188	-0.088
-451.953	475.452	-0.170	-0.386
-450.938	-54.056	0.211	-0.096
-449.924	144.306	-0.056	-0.075
-448.909	153.089	0.073	0.101
-447.895	17.433	0.206	0.164
-446.880	-200.000	-0.011	-0.144
-445.865	-138.979	-0.138	-0.015
-444.851	-16.085	-0.175	-0.111
-443.836	-101.588	-0.288	0.070
-442.822	290.642	-0.103	0.187
-441.807	-125.578	-0.286	0.044
-440.792	-11.087	-0.133	-0.088
-439.778	-200.000	-0.073	0.347
-438.763	-140.181	-0.168	-0.018
-437.749	381.865	0.059	0.122
-436.734	-80.846	0.259	0.086
-435.719	800.000	0.044	0.150
-434.705	-77.129	0.086	-0.030
-433.690	-34.393	0.215	0.118
-432.676	52.036	-0.260	-0.248
-431.661	-200.000	0.058	-0.326
-430.646	25.322	0.345	0.288
-429.632	-200.000	-0.043	0.229
-428.617	-119.315	-0.153	0.027
-427.603	792.000	-0.136	0.374
-426.588	376.535	0.144	-0.295
-425.573	142.191	0.107	0.142
-424.559	-45.130	-0.223	0.111
-423.544	-200.000	0.029	-0.292
-422.530	-77.786	-0.308	-0.107
-421.515	271.015	-0.117	-0.206
-420.500	-200.000	0.017	0.272
-419.486	-44.961	0.152	-0.076
-418.471	184.373	0.100	0.148
-417.457	175.506	0.150	0.218
-416.442	-200.000	-0.019	-0.107
-415.428	276.512	-0.096	-0.171
-414.413	-5.407	-0.015	0.011
-413.398	155.255	0.167	0.231
-412.384	91.444	-0.126	-0.142
-411.369	163.544	-0.049	-0.070
-410.355	450.506	0.065	-0.143
-409.340	800.000	0.049	0.213
-408.325	-200.000	-0.005	0.162
-407.311	1.593	-0.033	-0.024
-406.296	72.858	-0.024	0.025
-405.282	32.068	-0.081	-0.070
-404.267	501.848	-0.123	-0.285
-403.252	-43.852	-0.034	-0.017
-402.238	-200.000	0.050	0.317
-401.223	-3.227	-0.241	-0.168
-400.209	-200.000	0.038	0.374
-399.194	-160.991	-0.250	0.013
-398.179	244.253	0.034	-0.057
-397.165	-200.000	0.104	-0.513
-396.150	168.126	-0.090	-0.128
-395.136	-146.410	0.099	-0.009
-394.121	-95.822	0.125	-0.034
-393.106	-60.506	-0.246	0.105
-392.092	800.000	-0.090	0.373
-391.077	-138.196	0.090	-0.010
-390.063	800.000	0.008	0.030
-389.048	-36.552	-0.034	0.018
-388.033	317.306	0.136	-0.258
-387.019	494.312	0.126	-0.291
-386.004	166.461	0.117	0.167
-384.990	800.000	0.057	-0.202
-383.975	-200.000	-0.020	0.159
-382.960	9.918	-0.106	-0.081
-381.946	401.425	-0.068	-0.144
-380.931	-101.305	-0.231	-0.056
-379.917	-63.135	0.121	0.050
-378.902	453.912	-0.114	0.252
-377.888	-200.000	-0.037	-0.400
-376.873	462.850	-0.054	-0.121
-375.858	-62.466	-0.208	0.086
-374.844	75.920	0.154	0.163
-373.829	17.048	-0.253	-0.201
-372.815	98.162	-0.133	0.153
-371.800	231.219	-0.210	0.344
-370.785	296.596	0.078	-0.144
-369.771	336.611	-0.050	0.097
-368.756	-200.000	0.039	0.178
-367.742	372.211	-0.095	0.194
-366.727	-66.604	0.328	0.130
-365.712	-59.676	0.267	-0.114
-364.698	119.983	0.066	0.083
-363.683	202.840	-0.107	-0.165
-362.669	800.000	0.058	0.187
-361.654	273.446	-0.140	0.247
-360.639	-200.000	0.052	-0.000
-359.625	-200.000	0.027	0.149
-358.610	290.298	0.178	-0.324
-357.596	-200.000	-0.055	-0.242
-356.581	800.000	0.093	-0.405
-355.566	-200.000	0.019	-0.335
-354.552	-68.165	0.209	-0.081
-353.537	-16.683	0.385	0.244
-352.523	186.502	0.235	0.350
-351.508	-108.918	0.219	0.047
-350.493	5.001	-0.148	-0.109
-349.479	-22.599	0.192	0.116
-348.464	-24.731	0.088	0.052
-347.450	-48.664	0.077	-0.037
-346.435	-73.845	0.283	-0.103
-345.420	-200.000	0.004	-0.070
-344.406	-36.671	0.261	-0.140
-343.391	800.000	0.065	-0.193
-342.377	-200.000	0.017	-0.174
-341.362	89.866	-0.143	-0.160
-340.348	-14.390	-0.294	-0.189
-339.333	24.472	0.091	0.075
-338.318	304.272	0.089	0.166
-337.304	321.758	0.140	0.267
-336.289	127.817	0.059	0.075
-335.275	800.000	-0.068	-0.236
-334.260	391.794	0.156	0.323
-333.245	800.000	-0.061	0.225
-332.231	-200.000	-0.028	0.212
-331.216	202.253	0.073	-0.112
-330.202	-67.525	-0.182	-0.071
-329.187	85.841	0.196	-0.216
-328.172	58.067	0.023	-0.023
-327.158	-24.037	-0.136	0.081
-326.143	800.000	0.082	-0.329
-325.129	86.712	-0.256	0.282
-324.114	469.104	0.060	-0.134
-323.099	17.321	0.056	-0.045
-322.085	309.269	0.048	-0.090
-321.070	121.936	0.094	0.117
-320.056	800.000	-0.040	-0.175
-319.041	-200.000	-0.006	0.138
-318.026	-200.000	0.046	0.294
-317.012	108.541	-0.142	-0.169
-315.997	-154.159	0.162	0.011
-314.983	105.370	-0.065	-0.077
-313.968	-50.637	0.358	0.168
-312.953	800.000	0.089	0.330
-311.939	164.370	-0.076	-0.107
-310.924	-200.000	0.079	0.518
-309.910	-200.000	-0.014	0.264
-308.895	-34.476	0.177	-0.097
-307.880	35.240	-0.236	-0.206
-306.866	13.250	-0.112	-0.087
-305.851	-200.000	-0.005	-0.163
-304.837	-82.423	0.101	-0.033
-303.822	-200.000	-0.068	-0.348
-302.807	110.697	0.180	-0.216
-301.793	-108.992	-0.143	0.030
-300.778	-93.378	-0.341	-0.094
-299.764	-33.453	0.058	0.032
-298.749	34.376	0.156	0.136
-297.735	-71.670	-0.283	0.105
-296.720	104.955	-0.289	-0.340
-295.705	-66.719	-0.139	0.055
-294.691	204.358	0.140	0.216
-293.676	5.927	-0.075	0.055
-292.662	800.000	0.040	0.124
-291.647	-90.788	0.084	0.024
-290.632	97.033	-0.164	0.187
-289.618	-43.951	0.040	0.020
-288.603	-200.000	-0.006	0.029
-287.589	332.554	0.069	-0.133
-286.574	800.000	-0.050	-0.141
-285.559	-28.997	0.148	-0.085
-284.545	60.030	0.163	-0.161
-283.530	-200.000	0.024	0.192
-282.516	-200.000	0.339	0.000
-281.501	77.672	0.078	-0.082
-280.486	149.252	0.064	0.086
-279.472	-18.919	-0.113	-0.070
-278.457	-137.315	-0.102	0.012
-277.443	-200.000	0.001	0.207
-276.428	-97.623	-0.137	0.035
-275.413	-71.506	-0.201	-0.075
-274.399	-200.000	0.029	0.293
-273.384	-96.233	0.098	0.026
-272.370	-200.000	-0.015	0.159
-271.355	-87.987	-0.259	-0.078
-270.340	-10.297	0.334	0.221
-269.326	13.845	-0.178	0.138
-268.311	-32.397	0.079	0.044
-267.297	-90.203	-0.219	0.064
-266.282	800.000	-0.071	0.248
-265.267	118.273	-0.131	-0.161
-264.253	249.318	0.152	-0.257
-263.238	-46.834	-0.143	-0.070
-262.224	112.240	0.072	-0.087
-261.209	514.956	0.139	0.323
-260.195	601.890	-0.019	0.048
-259.180	337.642	-0.087	0.168
-258.165	-200.000	0.000	-0.064
-257.151	9.523	-0.091	-0.069
-256.136	-200.000	0.036	-0.173
-255.122	13.522	0.241	0.187
-254.107	-200.000	-0.069	0.000
-253.092	-73.074	-0.196	0.072
-252.078	-56.997	-0.256	0.113
-251.063	-200.000	-0.016	0.265
-250.049	-65.626	0.222	0.089
-249.034	800.000	-0.068	-0.269
-248.019	-200.000	0.002	-0.017
-247.005	156.793	0.160	0.221
-245.990	-38.481	-0.202	-0.106
-244.976	800.000	-0.071	0.238
-243.961	-119.222	0.134	0.023
-242.946	-200.000	0.026	0.270
-241.932	-65.164	0.279	0.112
-240.917	92.474	0.151	-0.170
-239.903	-74.295	-0.196	-0.070
-238.888	-77.438	-0.045	-0.016
-237.873	-200.000	0.063	0.553
-236.859	-200.000	0.030	0.163
-235.844	148.558	-0.092	-0.124
-234.830	582.587	0.110	-0.269
-233.815	-127.453	-0.084	0.012
-232.800	-122.780	0.164	0.026
-231.786	-106.699	0.035	-0.008
-230.771	218.249	-0.096	0.152
-229.757	-200.000	-0.065	0.304
-228.742	389.948	-0.135	-0.279
-227.727	800.000	0.062	-0.241
-226.713	57.507	0.093	-0.091
-225.698	252.671	-0.066	0.111
-224.684	-200.000	0.066	0.394
-223.669	-36.813	-0.243	0.130
-222.655	-200.000	0.052	0.230
-221.640	-200.000	-0.024	-0.157
-220.625	-116.926	-0.065	-0.012
-219.611	77.425	0.096	0.102
-218.596	-55.913	-0.074	-0.033
-217.582	800.000	0.047	-0.137
-216.567	144.824	-0.078	-0.103
-215.552	61.445	0.223	0.220
-214.538	-200.000	-0.002	0.031
-213.523	-59.566	0.026	-0.011
-212.509	-10.273	0.056	-0.037
-211.494	-86.690	-0.482	0.147
-210.479	583.510	0.090	-0.221
-209.465	-132.873	0.317	-0.040
-208.450	75.021	0.249	-0.261
-207.436	625.224	0.093	-0.233
-206.421	481.521	-0.041	0.092
-205.406	-200.000	0.012	0.386
-204.392	-123.878	0.222	-0.035
-203.377	-14.470	-0.167	0.107
-202.363	1.876	0.210	0.151
-201.348	-146.048	-0.128	0.011
-200.333	-62.168	0.197	-0.082
-199.319	-135.662	0.230	-0.027
-198.304	-48.484	-0.301	-0.144
-197.290	-131.072	-0.128	-0.017
-196.275	163.866	0.137	-0.192
-195.260	0.527	-0.288	0.205
-194.246	231.119	-0.172	0.279
-193.231	-200.000	-0.018	0.350
-192.217	800.000	-0.130	0.410
-191.202	-28.896	0.230	0.131
-190.187	-35.829	-0.072	0.039
-189.173	328.680	0.068	-0.129
-188.158	124.935	0.142	-0.178
-187.144	586.183	-0.121	-0.295
-186.129	-70.328	-0.139	0.052
-185.114	-200.000	0.070	-0.364
-184.100	-200.000	-0.070	0.000
-183.085	-63.598	-0.206	0.084
-182.071	-73.292	-0.189	0.069
-181.056	126.171	-0.227	0.286
-180.042	-117.519	0.244	-0.044
-179.027	-110.510	-0.009	0.002
-178.012	628.736	0.136	0.343
-176.998	49.140	0.039	-0.036
-175.983	-92.706	0.379	0.105
-174.969	376.427	-0.092	0.186
-173.954	-200.000	-0.002	-0.198
-172.939	-152.565	-0.086	-0.006
-171.925	-113.147	0.229	-0.045
-170.910	-200.000	0.040	-0.206
-169.896	798.080	-0.126	0.346
-168.881	-43.819	0.184	0.092
-167.866	-167.895	-0.257	0.010
-166.852	800.000	0.068	0.196
-165.837	274.516	0.197	-0.347
-164.823	-85.334	0.236	0.073
-163.808	-25.183	0.189	-0.111
-162.793	-60.563	-0.224	0.094
-161.779	-51.053	-0.204	0.095
-160.764	-200.000	0.057	-0.338
-159.750	202.135	-0.123	-0.188
-158.735	344.203	0.093	-0.182
-157.720	434.318	-0.097	-0.208
-156.706	674.110	0.134	-0.346
-155.691	95.724	-0.104	0.118
-154.677	-80.282	0.149	0.049
-153.662	-89.768	-0.232	0.068
-152.647	-11.917	0.202	0.131
-151.633	-78.229	0.258	-0.088
-150.618	141.263	0.138	0.182
-149.604	25.362	-0.126	0.104
-148.589	507.425	-0.111	0.256
-147.574	-25.984	0.276	0.161
-146.560	25.195	0.140	0.115
-145.545	-22.311	-0.213	-0.128
-144.531	36.386	0.354	-0.310
-143.516	-93.753	0.174	-0.048
-142.502	-200.000	-0.013	-0.281
-141.487	-77.537	-0.394	0.135
-140.472	228.518	-0.064	-0.104
-139.458	-200.000	-0.002	-0.137
-138.443	133.516	-0.189	0.243
-137.429	-197.936	0.056	-0.000
-136.414	98.729	0.174	-0.199
-135.399	-36.255	0.196	-0.105
-134.385	2.467	-0.229	-0.165
-133.370	800.000	-0.134	-0.413
-132.356	493.318	0.140	-0.318
-131.341	-104.885	0.221	-0.050
-130.326	70.356	0.198	0.203
-129.312	-90.655	-0.062	0.018
-128.297	-200.000	-0.001	-0.158
-127.283	373.454	-0.069	0.139
-126.268	-51.403	0.096	-0.045
-125.253	-20.485	-0.118	-0.072
-124.239	119.641	0.181	-0.223
-123.224	36.826	-0.149	0.131
-122.210	528.955	0.117	0.274
-121.195	222.878	-0.032	0.051
