DTS Sentinel unit serial number:	SN413079Multiplexer serial number:	ORYXHardware model number:	OX4-SRSoftware version number:	ORYX F/W v4.00 Oryx Data Collector v3.7.2.0data status	okinstallation	princeton_trtdifferential loss correction	single-endedforward channel	channel 4reverse channel	N/Adate	2019/09/18time	12:33:35forward acquisition time	60.00reverse acquisition time	0.00gamma	496.2192k internal	0.2304k external	0.2304temperature offset calibration	0.9992default loss term (dB/km)	0.3790temperature slope calibration	1.0000multiplexer offset coefficient	1.0000multiplexer slope coefficient	1.0000fibre end	0.00T internal ref (°C)	32.31T ext. ref 1 (°C)	0.53T ext. ref 2 (°C)	30.08length (m)	temperature (°C)	Stokes	anti-Stokes-747.200	292.759	0.057	-0.105
-746.185	-115.594	-0.513	0.098
-745.171	800.000	0.082	-0.246
-744.156	-20.875	0.177	-0.111
-743.142	-94.143	0.077	-0.021
-742.127	-82.239	-0.195	-0.065
-741.112	-160.803	0.116	0.006
-740.098	619.134	0.086	-0.221
-739.083	-8.921	0.017	0.011
-738.069	800.000	-0.104	0.338
-737.054	800.000	0.058	-0.181
-736.039	-200.000	-0.032	0.320
-735.025	22.438	0.123	0.103
-734.010	-47.005	0.054	0.027
-732.996	800.000	0.041	0.167
-731.981	-120.991	0.103	0.018
-730.966	-71.056	-0.080	-0.031
-729.952	-77.067	-0.216	0.077
-728.937	-200.000	-0.017	-0.231
-727.923	-55.836	-0.211	-0.096
-726.908	-200.000	-0.002	-0.293
-725.894	-150.448	-0.076	0.006
-724.879	-78.083	0.047	0.016
-723.864	-29.365	0.372	-0.217
-722.850	800.000	-0.061	0.197
-721.835	-119.817	-0.190	-0.033
-720.821	-100.213	-0.153	0.039
-719.806	38.380	0.130	0.118
-718.791	-139.135	-0.133	0.015
-717.777	-86.998	-0.053	-0.016
-716.762	52.174	0.215	-0.208
-715.748	-71.048	0.043	0.016
-714.733	426.821	0.072	-0.158
-713.718	-34.808	0.306	-0.170
-712.704	800.000	-0.027	-0.111
-711.689	-200.000	0.069	-0.416
-710.675	171.659	-0.218	-0.318
-709.660	800.000	0.091	0.323
-708.645	80.383	0.147	-0.161
-707.631	-31.973	-0.175	-0.100
-706.616	-116.795	0.188	-0.035
-705.602	66.719	-0.298	-0.308
-704.587	-86.847	-0.199	-0.062
-703.572	800.000	-0.078	0.227
-702.558	800.000	0.059	0.264
-701.543	800.000	0.067	-0.282
-700.529	592.147	-0.093	-0.235
-699.514	-57.365	0.090	-0.040
-698.499	-67.553	-0.249	0.099
-697.485	31.432	0.260	0.227
-696.470	60.694	-0.073	-0.074
-695.456	164.016	0.092	0.132
-694.441	-46.993	-0.053	0.026
-693.426	-97.239	-0.103	-0.027
-692.412	-200.000	-0.006	-0.440
-691.397	-104.617	0.297	-0.070
-690.383	-27.322	-0.305	0.181
-689.368	-200.000	0.004	-0.019
-688.354	74.650	-0.084	0.090
-687.339	266.556	-0.026	0.046
-686.324	-130.004	0.296	0.041
-685.310	-82.128	-0.222	-0.073
-684.295	140.733	-0.134	-0.180
-683.281	-0.619	-0.209	0.151
-682.266	296.658	0.135	0.251
-681.251	-200.000	0.008	-0.261
-680.237	-39.458	0.148	-0.079
-679.222	-26.139	-0.090	-0.054
-678.208	529.150	0.063	0.152
-677.193	-166.854	-0.341	-0.014
-676.178	-200.000	0.011	-0.331
-675.164	46.114	-0.094	0.088
-674.149	-131.207	-0.394	-0.053
-673.135	42.458	-0.098	0.091
-672.120	-200.000	-0.003	-0.049
-671.105	-2.882	0.018	0.013
-670.091	373.454	-0.133	-0.275
-669.076	28.496	0.022	0.019
-668.062	800.000	0.041	0.139
-667.047	-200.000	0.038	-0.195
-666.032	-200.000	0.006	0.152
-665.018	-121.350	0.371	-0.063
-664.003	57.923	-0.089	0.089
-662.989	332.523	-0.143	-0.280
-661.974	243.507	-0.035	0.059
-660.959	399.812	0.124	-0.264
-659.945	-155.965	0.272	0.018
-658.930	-116.968	-0.224	-0.042
-657.916	-67.694	0.058	0.023
-656.901	440.958	0.071	-0.158
-655.886	449.666	0.171	0.383
-654.872	-90.541	-0.311	-0.091
-653.857	800.000	0.061	-0.229
-652.843	-79.295	-0.143	-0.049
-651.828	-200.000	-0.023	-0.170
-650.814	-200.000	0.014	-0.133
-649.799	37.091	-0.128	-0.115
-648.784	-200.000	0.047	0.298
-647.770	-200.000	-0.048	0.240
-646.755	-45.000	0.222	0.112
-645.741	-74.335	0.043	0.016
-644.726	679.011	0.041	-0.107
-643.711	16.619	-0.101	-0.081
-642.697	139.048	0.121	0.161
-641.682	-76.715	0.355	0.126
-640.668	-107.708	-0.247	0.055
-639.653	-200.000	0.024	-0.255
-638.638	-200.000	-0.026	-0.115
-637.624	250.980	-0.111	0.191
-636.609	401.287	-0.116	0.247
-635.595	-200.000	-0.051	0.226
-634.580	-149.358	0.307	-0.025
-633.565	77.106	-0.073	0.079
-632.551	-200.000	-0.017	-0.174
-631.536	-200.000	0.032	-0.344
-630.522	522.696	-0.096	-0.228
-629.507	128.503	0.140	-0.180
-628.492	-200.000	-0.016	-0.332
-627.478	226.110	0.099	-0.163
-626.463	69.023	-0.251	-0.262
-625.449	-200.000	0.089	0.415
-624.434	-200.000	0.081	-0.368
-623.419	527.399	0.018	0.042
-622.405	-200.000	-0.017	-0.318
-621.390	-79.166	0.103	0.035
-620.376	-152.178	-0.154	0.011
-619.361	5.935	-0.305	-0.229
-618.346	-200.000	-0.003	-0.258
-617.332	15.719	-0.170	-0.135
-616.317	-33.253	-0.218	-0.122
-615.303	-30.946	0.171	-0.098
-614.288	383.921	-0.112	0.233
-613.273	800.000	-0.052	-0.189
-612.259	31.064	0.107	-0.093
-611.244	321.340	-0.058	0.113
-610.230	-200.000	0.009	-0.171
-609.215	144.935	0.106	-0.143
-608.201	-200.000	-0.063	0.290
-607.186	-200.000	-0.004	0.109
-606.171	-25.168	-0.104	-0.062
-605.157	291.455	-0.222	-0.409
-604.142	-200.000	0.051	0.240
-603.128	32.532	0.449	-0.393
-602.113	79.383	-0.163	-0.177
-601.098	62.349	-0.212	-0.215
-600.084	240.931	-0.175	-0.295
-599.069	39.455	-0.279	0.253
-598.055	800.000	0.119	-0.413
-597.040	-170.571	0.254	0.009
-596.025	800.000	-0.071	0.262
-595.011	-117.664	-0.114	0.021
-593.996	-28.754	0.100	0.058
-592.982	694.022	0.050	0.134
-591.967	327.221	-0.148	0.287
-590.952	-200.000	-0.066	0.325
-589.938	0.479	-0.319	-0.230
-588.923	-200.000	-0.009	0.111
-587.909	-132.165	-0.103	-0.013
-586.894	-164.656	-0.192	0.009
-585.879	49.369	-0.147	0.140
-584.865	800.000	0.049	-0.175
-583.850	121.060	-0.063	-0.079
-582.836	-69.697	0.164	-0.063
-581.821	90.228	-0.056	-0.063
-580.806	-103.138	0.297	-0.071
-579.792	-116.301	0.138	-0.026
-578.777	-200.000	-0.033	0.183
-577.763	18.350	-0.232	0.187
-576.748	800.000	0.039	-0.159
-575.733	800.000	0.088	-0.270
-574.719	-70.618	0.377	0.144
-573.704	209.795	-0.242	0.384
-572.690	-90.090	-0.172	0.051
-571.675	199.736	-0.142	-0.220
-570.661	21.453	0.309	0.254
-569.646	-39.024	-0.194	-0.103
-568.631	98.940	-0.081	-0.095
-567.617	12.460	-0.205	-0.159
-566.602	132.304	-0.230	-0.300
-565.588	-183.086	0.264	-0.005
-564.573	-129.290	-0.263	0.037
-563.558	-55.534	-0.061	-0.028
-562.544	200.616	0.023	-0.036
-561.529	-200.000	-0.001	-0.033
-560.515	-129.907	0.189	-0.026
-559.500	19.532	0.176	-0.143
-558.485	233.812	-0.063	0.105
-557.471	-123.527	0.089	-0.014
-556.456	46.403	0.218	-0.204
-555.442	-9.781	0.245	-0.165
-554.427	41.665	-0.138	-0.126
-553.412	-5.924	0.293	-0.203
-552.398	196.430	0.135	0.207
-551.383	800.000	0.081	-0.298
-550.369	-185.323	0.359	-0.006
-549.354	171.274	-0.047	0.068
-548.339	-97.519	-0.439	-0.115
-547.325	-200.000	-0.032	-0.232
-546.310	283.863	0.155	0.282
-545.296	185.961	-0.102	-0.153
-544.281	-155.875	0.424	-0.027
-543.266	-18.302	0.200	-0.126
-542.252	800.000	0.065	-0.229
-541.237	-173.478	-0.092	-0.003
-540.223	-200.000	-0.002	-0.227
-539.208	-30.162	-0.156	0.090
-538.193	-60.777	-0.152	0.065
-537.179	52.741	0.159	0.154
-536.164	-200.000	-0.044	-0.403
-535.150	-200.000	-0.038	0.221
-534.135	-111.054	-0.272	0.056
-533.121	-200.000	0.039	0.308
-532.106	800.000	0.079	0.341
-531.091	289.391	-0.142	-0.260
-530.077	271.489	-0.009	0.016
-529.062	256.499	-0.172	0.298
-528.048	-41.065	0.092	0.048
-527.033	284.294	-0.099	0.179
-526.018	663.829	0.069	-0.180
-525.004	-57.159	0.114	0.051
-523.989	-94.613	0.085	-0.023
-522.975	-30.800	0.189	-0.108
-521.960	-35.088	-0.171	0.094
-520.945	2.515	0.116	0.085
-519.931	68.105	0.192	-0.199
-518.916	-200.000	-0.021	-0.212
-517.902	-97.711	-0.234	-0.061
-516.887	-30.085	0.112	0.064
-515.872	15.245	0.133	0.105
-514.858	-99.425	0.322	0.082
-513.843	374.038	-0.138	0.282
-512.829	-108.674	0.114	0.025
-511.814	69.769	-0.248	0.258
-510.799	263.913	-0.046	-0.081
-509.785	356.696	-0.013	0.026
-508.770	-200.000	-0.011	0.083
-507.756	799.954	-0.109	-0.303
-506.741	-115.692	-0.147	-0.028
-505.726	-200.000	-0.044	0.204
-504.712	-200.000	-0.047	0.391
-503.697	-133.646	0.368	-0.046
-502.683	-200.000	0.038	-0.594
-501.668	-18.447	0.167	-0.105
-500.653	38.968	0.214	0.193
-499.639	452.510	-0.158	0.352
-498.624	-200.000	-0.031	-0.232
-497.610	19.856	-0.385	-0.312
-496.595	800.000	0.062	-0.251
-495.581	99.735	-0.108	-0.127
-494.566	166.633	-0.170	-0.243
-493.551	800.000	0.120	0.337
-492.537	203.600	0.087	0.135
-491.522	192.498	0.075	-0.114
-490.508	-200.000	-0.005	0.031
-489.493	230.917	0.193	0.319
-488.478	-200.000	-0.012	-0.208
-487.464	-52.790	0.137	0.064
-486.449	286.815	0.104	0.189
-485.435	512.743	0.105	0.247
-484.420	-200.000	-0.014	0.212
-483.405	203.337	-0.126	0.197
-482.391	194.882	-0.018	0.027
-481.376	52.430	-0.073	0.071
-480.362	800.000	-0.048	-0.158
-479.347	317.022	-0.126	0.240
-478.332	-133.984	-0.145	-0.018
-477.318	-15.499	-0.085	-0.055
-476.303	513.351	-0.078	-0.184
-475.289	238.681	0.174	-0.291
-474.274	-200.000	0.031	-0.163
-473.259	8.886	-0.178	-0.135
-472.245	-101.103	0.252	0.062
-471.230	800.000	-0.051	-0.147
-470.216	-87.768	-0.232	0.070
-469.201	84.793	0.143	0.157
-468.186	800.000	0.089	0.349
-467.172	33.456	0.125	0.109
-466.157	29.606	0.135	0.116
-465.143	266.798	-0.064	0.112
-464.128	-17.000	-0.118	0.075
-463.113	-86.894	-0.113	0.035
-462.099	266.475	0.099	-0.174
-461.084	-9.324	0.235	-0.158
-460.070	2.706	0.228	-0.167
-459.055	179.305	-0.215	-0.316
-458.040	-91.970	-0.040	0.011
-457.026	45.435	0.167	0.155
-456.011	800.000	-0.005	-0.015
-454.997	750.250	0.111	-0.302
-453.982	-200.000	-0.023	0.148
-452.968	-79.441	0.094	-0.032
-451.953	0.523	0.178	-0.128
-450.938	239.430	-0.124	-0.209
-449.924	491.652	-0.090	0.208
-448.909	469.429	0.162	-0.365
-447.895	800.000	-0.084	0.318
-446.880	6.428	0.343	0.256
-445.865	-84.577	0.349	-0.111
-444.851	800.000	-0.042	-0.165
-443.836	309.649	-0.136	0.256
-442.822	454.504	-0.062	0.138
-441.807	6.896	-0.145	0.109
-440.792	-82.251	-0.287	-0.094
-439.778	-90.943	0.215	0.062
-438.763	48.856	-0.196	0.185
-437.749	16.767	-0.212	0.169
-436.734	-177.349	-0.235	0.006
-435.719	336.942	0.165	-0.322
-434.705	-10.135	0.212	0.141
-433.690	-85.779	0.119	-0.037
-432.676	-2.310	0.309	0.218
-431.661	-184.473	0.154	-0.003
-430.646	408.394	0.150	-0.319
-429.632	-108.600	0.196	0.042
-428.617	-164.542	-0.113	-0.005
-427.603	-200.000	-0.085	-0.410
-426.588	-31.424	0.169	-0.096
-425.573	41.615	-0.202	0.184
-424.559	-31.464	0.114	0.065
-423.544	-200.000	0.014	0.327
-422.530	-65.333	0.231	0.093
-421.515	23.779	0.075	0.062
-420.500	-150.847	0.178	0.014
-419.486	-41.171	-0.068	-0.035
-418.471	10.205	0.055	0.042
-417.457	411.189	0.163	0.348
-416.442	235.674	0.064	0.106
-415.428	7.330	-0.169	-0.127
-414.413	89.391	-0.124	-0.139
-413.398	-200.000	-0.017	-0.363
-412.384	-124.301	0.417	0.065
-411.369	800.000	-0.046	-0.191
-410.355	13.698	-0.153	-0.119
-409.340	-19.348	-0.307	-0.191
-408.325	24.522	-0.179	0.149
-407.311	-200.000	0.009	0.372
-406.296	181.160	-0.103	0.152
-405.282	243.785	-0.064	0.108
-404.267	-156.156	-0.277	0.018
-403.252	800.000	-0.037	0.111
-402.238	142.608	0.151	0.201
-401.223	-14.542	-0.199	-0.128
-400.209	800.000	-0.055	-0.194
-399.194	-4.326	0.067	-0.046
-398.179	-32.613	-0.384	0.215
-397.165	80.946	-0.209	-0.227
-396.150	-85.734	-0.215	0.067
-395.136	-200.000	-0.051	0.292
-394.121	-5.966	-0.073	-0.050
-393.106	-29.073	-0.013	-0.007
-392.092	129.049	0.137	-0.176
-391.077	-166.597	0.184	-0.008
-390.063	-162.037	0.166	-0.008
-389.048	-105.504	-0.297	-0.068
-388.033	123.348	-0.134	0.169
-387.019	-24.925	-0.086	0.051
-386.004	57.628	0.396	0.389
-384.990	-200.000	-0.060	0.294
-383.975	-30.809	0.236	-0.134
-382.960	800.000	0.097	-0.289
-381.946	-200.000	-0.004	0.096
-380.931	-200.000	0.005	-0.022
-379.917	-21.404	-0.096	-0.059
-378.902	301.678	0.190	0.352
-377.888	-151.428	0.198	-0.015
-376.873	-200.000	-0.052	0.531
-375.858	358.119	-0.037	0.074
-374.844	221.572	-0.055	0.089
-373.829	-57.377	-0.187	0.082
-372.815	56.503	-0.116	-0.113
-371.800	90.854	-0.217	-0.244
-370.785	-52.951	0.156	-0.072
-369.771	-154.916	-0.447	0.030
-368.756	-69.132	-0.457	0.177
-367.742	-23.984	-0.290	-0.174
-366.727	-7.020	0.315	0.214
-365.712	243.828	0.059	-0.100
-364.698	186.722	-0.205	-0.306
-363.683	105.779	-0.034	-0.040
-362.669	-141.852	-0.226	-0.023
-361.654	800.000	-0.174	-0.536
-360.639	-200.000	0.007	0.058
-359.625	-147.560	-0.208	0.018
-358.610	800.000	-0.051	-0.219
-357.596	-200.000	0.027	-0.129
-356.581	69.540	0.229	-0.236
-355.566	90.907	-0.225	-0.253
-354.552	-26.996	-0.208	-0.122
-353.537	149.719	0.121	-0.165
-352.523	71.701	0.151	0.157
-351.508	137.508	-0.051	0.067
-350.493	-200.000	-0.094	-0.558
-349.479	-200.000	-0.034	-0.292
-348.464	-200.000	0.037	-0.230
-347.450	-54.478	-0.131	-0.059
-346.435	508.282	-0.145	0.338
-345.420	-200.000	-0.022	0.129
-344.406	-127.069	-0.253	-0.037
-343.391	-48.556	0.196	0.094
-342.377	-164.823	-0.313	-0.014
-341.362	293.979	0.176	0.323
-340.348	-51.096	0.141	0.066
-339.333	-183.429	0.590	0.010
-338.318	800.000	-0.094	-0.305
-337.304	-57.775	-0.431	-0.189
-336.289	-34.447	0.143	-0.078
-335.275	-200.000	-0.016	-0.148
-334.260	-200.000	-0.085	0.410
-333.245	800.000	-0.083	0.286
-332.231	800.000	-0.095	0.271
-331.216	64.574	0.169	0.171
-330.202	76.014	0.170	-0.180
-329.187	-200.000	-0.028	0.333
-328.172	-186.024	0.221	-0.003
-327.158	-85.060	0.182	0.057
-326.143	184.223	0.079	0.116
-325.129	-179.169	0.111	-0.002
-324.114	-19.754	-0.257	-0.159
-323.099	-6.441	0.209	0.143
-322.085	48.390	-0.080	0.075
-321.070	418.267	-0.019	0.040
-320.056	-132.087	-0.311	-0.040
-319.041	-43.761	0.046	0.023
-318.026	-200.000	0.003	-0.197
-317.012	-200.000	0.040	0.372
-315.997	-155.714	-0.058	0.004
-314.983	170.443	0.115	-0.164
-313.968	193.404	-0.222	0.336
-312.953	-200.000	-0.020	0.432
-311.939	172.262	0.146	0.211
-310.924	551.939	0.090	-0.216
-309.910	76.871	-0.150	-0.159
-308.895	800.000	0.050	-0.139
-307.880	-82.965	-0.279	0.090
-306.866	301.074	-0.151	-0.279
-305.851	-74.529	0.088	-0.032
-304.837	324.929	0.173	-0.332
-303.822	800.000	0.109	-0.343
-302.807	-200.000	-0.033	-0.171
-301.793	102.767	0.107	0.125
-300.778	24.714	0.052	0.043
-299.764	-45.739	-0.080	-0.039
-298.749	632.628	0.064	-0.163
-297.735	800.000	-0.107	-0.330
-296.720	-30.319	0.135	0.077
-295.705	-125.855	-0.223	-0.034
-294.691	66.878	-0.131	-0.134
-293.676	295.720	0.064	-0.118
-292.662	-65.430	0.109	0.044
-291.647	-53.002	-0.254	-0.117
-290.632	-200.000	-0.004	0.180
-289.618	-200.000	0.002	-0.008
-288.603	-24.282	0.138	0.082
-287.589	-184.972	-0.094	-0.001
-286.574	75.293	-0.243	0.257
-285.559	-148.328	0.352	0.029
-284.545	800.000	-0.064	-0.268
-283.530	336.328	-0.041	-0.080
-282.516	-137.298	-0.242	0.027
-281.501	-58.572	-0.290	0.126
-280.486	402.498	0.040	0.084
-279.472	-103.033	0.380	0.090
-278.457	-143.450	-0.143	0.014
-277.443	-200.000	-0.000	0.239
-276.428	356.024	-0.081	0.161
-275.413	70.501	0.139	-0.144
-274.399	-200.000	0.002	0.174
-273.384	205.773	0.092	0.143
-272.370	-49.908	0.146	-0.069
-271.355	-200.000	-0.004	-0.047
-270.340	-200.000	-0.023	0.311
-269.326	-113.861	0.266	0.052
-268.311	420.923	0.101	0.216
-267.297	609.438	-0.043	-0.107
-266.282	800.000	-0.044	0.172
-265.267	447.801	-0.079	0.174
-264.253	105.265	0.261	-0.307
-263.238	123.908	-0.129	-0.162
-262.224	56.764	-0.090	-0.087
-261.209	-200.000	-0.009	-0.113
-260.195	-39.491	0.188	-0.098
-259.180	205.828	0.110	-0.170
-258.165	-74.861	0.231	0.083
-257.151	-10.572	0.361	0.239
-256.136	399.357	-0.109	-0.229
-255.122	-17.910	0.079	0.050
-254.107	638.228	-0.088	-0.225
-253.092	-200.000	0.017	-0.124
-252.078	-47.574	0.175	-0.085
-251.063	-60.802	0.374	-0.158
-250.049	453.718	-0.116	-0.256
-249.034	-33.831	-0.229	0.126
-248.019	-200.000	0.003	0.038
-247.005	214.048	0.154	0.243
-245.990	-64.748	-0.081	-0.033
-244.976	-88.960	0.128	0.038
-243.961	-122.475	-0.361	-0.059
-242.946	135.905	0.398	0.517
-241.932	800.000	-0.035	0.152
-240.917	47.874	-0.361	0.337
-239.903	-108.526	-0.289	0.062
-238.888	-100.989	0.056	-0.014
-237.873	-3.849	-0.063	0.044
-236.859	-200.000	-0.039	0.485
-235.844	-137.537	-0.349	-0.039
-234.830	170.858	0.087	-0.125
-233.815	249.708	0.026	0.044
-232.800	393.472	-0.140	0.290
-231.786	-18.766	0.176	-0.110
-230.771	-115.249	0.118	-0.022
-229.757	-104.601	0.226	0.052
-228.742	-54.213	0.218	-0.099
-227.727	31.184	-0.242	-0.207
-226.713	-114.152	-0.212	-0.041
-225.698	134.899	-0.052	-0.067
-224.684	-200.000	0.040	0.256
-223.669	-4.967	0.073	0.050
-222.655	74.483	-0.195	-0.205
-221.640	-200.000	-0.021	-0.128
-220.625	299.772	0.130	-0.239
-219.611	-5.186	0.106	-0.073
-218.596	-122.028	-0.012	0.002
-217.582	-0.683	-0.072	0.051
-216.567	-113.831	0.193	0.038
-215.552	114.502	0.101	-0.122
-214.538	719.725	0.050	-0.132
-213.523	800.000	-0.049	-0.148
-212.509	18.872	0.177	0.142
-211.494	-71.447	-0.183	0.068
-210.479	72.135	-0.087	0.090
-209.465	-64.700	-0.074	-0.030
-208.450	800.000	-0.078	-0.271
-207.436	363.187	-0.019	-0.038
-206.421	-5.715	-0.064	-0.044
-205.406	-127.535	-0.176	-0.025
-204.392	800.000	0.020	0.059
-203.377	43.845	-0.145	0.132
-202.363	-131.055	0.061	-0.008
-201.348	-200.000	-0.005	0.376
-200.333	-200.000	-0.021	-0.093
-199.319	495.027	0.154	0.353
-198.304	107.095	0.187	0.222
-197.290	57.238	0.270	-0.263
-196.275	-200.000	0.050	0.248
-195.260	-143.407	0.402	0.038
-194.246	-200.000	0.023	0.151
-193.231	59.073	-0.037	0.037
-192.217	-6.367	0.103	-0.070
-191.202	-200.000	-0.050	-0.284
-190.187	-51.978	0.270	0.125
-189.173	800.000	-0.122	0.485
-188.158	-97.683	0.310	0.080
-187.144	-200.000	0.015	-0.193
-186.129	-162.883	-0.012	0.001
-185.114	-200.000	0.020	0.146
-184.100	800.000	0.132	0.380
-183.085	-83.867	-0.359	-0.114
-182.071	323.994	0.132	-0.250
-181.056	-200.000	-0.004	0.394
-180.042	-68.110	0.218	-0.084
-179.027	220.215	-0.220	0.351
-178.012	645.667	-0.130	0.330
-176.998	800.000	0.132	0.373
-175.983	-200.000	0.010	0.290
-174.969	-88.589	0.233	0.069
-173.954	-160.745	-0.309	-0.016
-172.939	-200.000	-0.060	-0.308
-171.925	-189.815	0.157	-0.002
-170.910	13.455	0.097	-0.075
-169.896	10.101	0.033	-0.025
-168.881	55.773	0.043	-0.041
-167.866	-56.441	-0.082	0.036
-166.852	-12.967	-0.145	0.094
-165.837	78.262	-0.027	0.029
-164.823	17.031	-0.236	-0.186
-163.808	308.311	0.092	-0.172
-162.793	-200.000	-0.006	0.056
-161.779	-19.039	0.021	0.013
-160.764	87.855	-0.238	0.262
-159.750	707.461	0.066	-0.174
-158.735	800.000	-0.090	-0.283
-157.720	-200.000	0.037	-0.209
-156.706	29.843	0.132	-0.112
-155.691	418.207	0.087	0.185
-154.677	-200.000	-0.007	0.171
-153.662	613.437	-0.069	-0.173
-152.647	152.158	0.107	-0.145
-151.633	6.004	0.098	0.072
-150.618	61.881	0.136	-0.134
-149.604	25.962	-0.058	-0.048
-148.589	-160.333	-0.185	-0.010
-147.574	91.457	-0.156	-0.174
-146.560	-1.239	0.270	-0.190
-145.545	800.000	0.048	-0.153
-144.531	87.370	-0.070	-0.077
-143.516	-10.307	-0.037	0.024
-142.502	-54.522	-0.361	0.162
-141.487	800.000	0.023	-0.091
-140.472	13.726	-0.128	0.099
-139.458	-39.567	0.235	-0.122
-138.443	-40.343	0.252	-0.130
-137.429	-200.000	0.040	-0.252
-136.414	-166.753	-0.259	-0.011
-135.399	-98.946	-0.252	-0.064
-134.385	-41.301	-0.295	-0.151
-133.370	-124.036	0.090	0.014
-132.356	4.816	-0.111	-0.081
-131.341	220.299	-0.079	-0.126
-130.326	-97.892	0.101	0.026
-129.312	-200.000	0.002	-0.185
-128.297	16.848	0.189	0.149
-127.283	-13.271	0.355	-0.229
-126.268	150.579	-0.036	0.048
-125.253	181.427	0.126	-0.184
-124.239	168.074	-0.016	-0.022
-123.224	82.468	0.252	-0.272
-122.210	-90.006	-0.339	0.098
