DTS Sentinel unit serial number:	SN413079Multiplexer serial number:	ORYXHardware model number:	OX4-SRSoftware version number:	ORYX F/W v4.00 Oryx Data Collector v3.7.2.0data status	okinstallation	princeton_trtdifferential loss correction	single-endedforward channel	channel 4reverse channel	N/Adate	2019/09/14time	22:05:35forward acquisition time	60.00reverse acquisition time	0.00gamma	496.2192k internal	0.2306k external	0.2306temperature offset calibration	1.0068default loss term (dB/km)	0.3790temperature slope calibration	1.0000multiplexer offset coefficient	1.0000multiplexer slope coefficient	1.0000fibre end	0.00T internal ref (°C)	32.67T ext. ref 1 (°C)	4.72T ext. ref 2 (°C)	27.66length (m)	temperature (°C)	Stokes	anti-Stokes-747.200	-45.787	-0.415	-0.209
-746.185	-200.000	-0.072	0.400
-745.171	14.558	0.204	-0.162
-744.156	-200.000	-0.028	0.197
-743.142	399.379	0.064	0.136
-742.127	-200.000	0.035	0.290
-741.112	456.778	0.003	0.006
-740.098	-200.000	0.013	0.228
-739.083	222.596	0.036	-0.060
-738.069	800.000	-0.058	-0.229
-737.054	-36.521	-0.371	-0.203
-736.039	737.006	-0.073	-0.199
-735.025	-147.516	0.216	0.019
-734.010	217.479	-0.107	0.174
-732.996	-200.000	0.016	-0.112
-731.981	58.618	-0.056	-0.056
-730.966	11.281	0.218	0.169
-729.952	-27.009	-0.258	0.153
-728.937	407.613	0.074	0.159
-727.923	-200.000	-0.016	-0.096
-726.908	-117.835	-0.416	-0.076
-725.894	-200.000	0.012	0.369
-724.879	117.523	0.039	-0.049
-723.864	704.062	-0.126	-0.339
-722.850	-27.186	0.128	0.076
-721.835	-111.049	0.052	0.011
-720.821	244.105	0.149	-0.255
-719.806	800.000	0.090	0.281
-718.791	-109.181	-0.205	0.044
-717.777	34.059	0.047	-0.042
-716.762	22.831	-0.227	-0.189
-715.748	800.000	0.042	-0.178
-714.733	191.334	-0.179	-0.273
-713.718	492.178	0.048	-0.112
-712.704	4.787	0.119	0.089
-711.689	28.207	-0.081	-0.069
-710.675	-200.000	0.043	-0.299
-709.660	-42.872	0.286	-0.147
-708.645	-1.981	0.088	-0.063
-707.631	-200.000	-0.012	-0.072
-706.616	-55.899	-0.055	0.025
-705.602	-112.031	-0.098	0.020
-704.587	-200.000	-0.003	0.053
-703.572	52.290	0.107	-0.104
-702.558	-40.959	-0.114	0.060
-701.543	344.735	-0.141	0.280
-700.529	289.103	-0.060	0.110
-699.514	36.756	-0.044	-0.040
-698.499	-76.397	0.196	0.070
-697.485	-158.009	0.182	-0.011
-696.470	-200.000	-0.055	0.341
-695.456	182.753	0.219	-0.328
-694.441	62.488	-0.275	0.278
-693.426	-90.543	0.011	0.003
-692.412	-76.658	0.184	-0.065
-691.397	99.421	-0.338	0.397
-690.383	-108.687	-0.072	0.016
-689.368	18.077	-0.127	0.103
-688.354	677.485	-0.098	0.259
-687.339	30.060	0.105	-0.090
-686.324	-200.000	-0.043	-0.282
-685.310	2.062	0.043	-0.031
-684.295	271.912	0.155	-0.278
-683.281	670.771	0.046	0.121
-682.266	-145.758	0.059	-0.005
-681.251	88.944	0.053	0.060
-680.237	-200.000	0.020	-0.108
-679.222	-22.131	0.099	0.061
-678.208	-200.000	0.069	-0.532
-677.193	800.000	0.044	-0.144
-676.178	-12.485	-0.295	0.195
-675.164	147.292	-0.083	0.113
-674.149	60.241	-0.222	-0.223
-673.135	-105.246	-0.336	-0.078
-672.120	58.987	0.078	0.078
-671.105	415.777	-0.101	-0.217
-670.091	78.209	0.116	0.126
-669.076	-9.924	-0.161	-0.109
-668.062	116.588	0.152	-0.189
-667.047	-176.403	-0.212	0.006
-666.032	-200.000	-0.066	-0.304
-665.018	-200.000	0.007	-0.029
-664.003	-54.466	0.376	-0.173
-662.989	51.852	-0.241	-0.233
-661.974	139.117	0.081	0.108
-660.959	93.766	-0.191	-0.220
-659.945	251.441	-0.176	-0.303
-658.930	230.183	-0.109	0.180
-657.916	219.943	-0.043	0.069
-656.901	2.988	-0.105	0.078
-655.886	277.496	0.126	0.227
-654.872	360.762	-0.085	-0.172
-653.857	-200.000	-0.008	-0.218
-652.843	338.814	0.043	0.084
-651.828	-126.231	0.338	-0.051
-650.814	425.758	-0.062	0.135
-649.799	-10.686	0.114	-0.076
-648.784	-80.398	-0.068	0.023
-647.770	-200.000	0.024	0.295
-646.755	-145.167	-0.155	-0.014
-645.741	-140.503	0.149	0.016
-644.726	800.000	-0.057	0.241
-643.711	-79.557	-0.285	0.098
-642.697	43.374	-0.254	0.236
-641.682	-200.000	0.094	-0.426
-640.668	-45.165	-0.275	0.139
-639.653	141.120	-0.073	0.097
-638.638	-66.137	-0.090	-0.037
-637.624	800.000	0.172	0.499
-636.609	140.265	-0.235	-0.314
-635.595	-27.195	0.554	-0.327
-634.580	-200.000	0.008	0.092
-633.565	147.087	-0.247	-0.337
-632.551	144.589	0.323	-0.438
-631.536	7.590	0.164	-0.124
-630.522	800.000	0.030	0.087
-629.507	-200.000	0.026	0.162
-628.492	-66.248	0.200	-0.081
-627.478	800.000	-0.037	0.107
-626.463	-43.536	-0.195	0.100
-625.449	41.022	0.258	0.236
-624.434	561.211	0.157	-0.384
-623.419	-200.000	0.009	0.331
-622.405	-200.000	-0.045	-0.405
-621.390	-114.611	0.164	0.032
-620.376	800.000	0.035	0.146
-619.361	-26.513	-0.186	-0.110
-618.346	-12.628	-0.170	-0.112
-617.332	-63.179	0.329	0.137
-616.317	-200.000	0.014	0.134
-615.303	188.674	0.039	-0.060
-614.288	1.194	-0.134	0.097
-613.273	268.374	0.070	0.125
-612.259	-91.557	-0.174	-0.050
-611.244	-167.602	-0.111	0.004
-610.230	-178.563	0.193	-0.005
-609.215	800.000	0.011	-0.045
-608.201	-108.910	0.381	-0.082
-607.186	-5.926	-0.079	-0.055
-606.171	129.375	-0.122	0.157
-605.157	-51.601	-0.077	-0.036
-604.142	-59.301	-0.213	0.093
-603.128	206.144	-0.120	0.189
-602.113	273.755	-0.075	0.134
-601.098	7.265	0.331	0.250
-600.084	800.000	0.050	-0.186
-599.069	-200.000	-0.055	0.276
-598.055	-200.000	-0.047	0.279
-597.040	362.574	0.161	-0.328
-596.025	-63.595	0.165	0.068
-595.011	-44.170	-0.086	0.044
-593.996	-125.732	-0.356	0.055
-592.982	-8.335	0.176	0.120
-591.967	322.358	0.061	-0.118
-590.952	-200.000	-0.012	-0.235
-589.938	-200.000	-0.043	-0.350
-588.923	40.431	0.131	0.119
-587.909	48.715	0.073	0.069
-586.894	-84.759	0.148	0.047
-585.879	33.117	-0.276	-0.242
-584.865	-111.502	0.458	-0.094
-583.850	429.217	-0.044	-0.097
-582.836	-172.389	0.397	0.013
-581.821	-195.348	0.145	-0.001
-580.806	-163.510	0.247	-0.012
-579.792	12.088	-0.155	-0.121
-578.777	-45.904	-0.250	-0.125
-577.763	28.527	0.082	0.070
-576.748	-27.040	0.166	-0.098
-575.733	200.825	-0.080	0.124
-574.719	-40.370	0.176	0.092
-573.704	-111.556	-0.431	0.088
-572.690	-200.000	-0.004	-0.249
-571.675	-100.641	0.099	-0.025
-570.661	371.693	-0.089	-0.182
-569.646	43.143	0.294	0.271
-568.631	-54.041	-0.104	0.048
-567.617	-200.000	0.047	-0.509
-566.602	88.729	0.093	0.105
-565.588	-25.145	-0.124	-0.074
-564.573	-106.315	0.157	-0.035
-563.558	476.975	-0.012	-0.027
-562.544	-93.281	-0.171	-0.048
-561.529	531.441	0.115	0.275
-560.515	173.395	-0.140	0.204
-559.500	439.852	0.034	-0.075
-558.485	393.824	-0.089	-0.186
-557.471	384.993	0.158	-0.329
-556.456	106.568	0.016	0.020
-555.442	800.000	-0.040	-0.161
-554.427	-102.869	-0.358	-0.086
-553.412	94.434	-0.147	-0.168
-552.398	-81.512	-0.208	-0.069
-551.383	-154.886	0.293	0.020
-550.369	-86.306	-0.304	-0.095
-549.354	194.168	0.007	-0.010
-548.339	583.417	-0.033	-0.082
-547.325	143.881	0.079	-0.106
-546.310	-59.731	0.038	0.017
-545.296	63.656	0.145	-0.147
-544.281	764.339	-0.042	0.114
-543.266	775.757	0.106	0.293
-542.252	-104.182	-0.238	-0.056
-541.237	-200.000	0.020	0.602
-540.223	137.943	0.073	0.096
-539.208	-107.200	-0.218	-0.048
-538.193	-20.520	-0.209	0.130
-537.179	-144.804	-0.130	-0.012
-536.164	-111.664	0.136	0.028
-535.150	35.643	-0.234	0.207
-534.135	614.920	0.116	0.294
-533.121	-200.000	-0.008	0.217
-532.106	2.020	0.151	-0.110
-531.091	-138.255	0.261	0.029
-530.077	800.000	-0.043	0.167
-529.062	29.829	0.081	0.069
-528.048	-83.653	-0.134	0.043
-527.033	-144.878	0.313	0.029
-526.018	-35.358	-0.323	0.177
-525.004	-92.210	-0.311	-0.088
-523.989	-49.920	-0.287	-0.137
-522.975	52.949	0.141	0.136
-521.960	231.672	-0.090	-0.148
-520.945	25.380	-0.322	0.270
-519.931	-152.151	0.065	-0.005
-518.916	48.516	0.151	0.143
-517.902	-200.000	0.020	-0.127
-516.887	288.474	0.117	0.214
-515.872	258.577	-0.326	-0.567
-514.858	-200.000	-0.012	-0.267
-513.843	135.947	0.203	0.266
-512.829	-200.000	-0.021	-0.195
-511.814	29.425	0.068	0.058
-510.799	288.232	-0.066	-0.120
-509.785	-105.955	-0.401	0.091
-508.770	277.835	-0.054	-0.097
-507.756	104.308	-0.102	-0.121
-506.741	318.126	0.096	-0.184
-505.726	93.372	-0.028	0.032
-504.712	56.527	0.140	-0.137
-503.697	-74.587	0.017	-0.006
-502.683	154.984	-0.125	-0.173
-501.668	-200.000	0.007	0.251
-500.653	-33.084	-0.157	0.088
-499.639	-200.000	-0.028	-0.126
-498.624	183.835	0.124	0.185
-497.610	-200.000	0.004	0.156
-496.595	-30.382	-0.337	0.193
-495.581	-32.958	-0.204	-0.114
-494.566	-58.650	0.103	0.045
-493.551	116.513	0.170	-0.210
-492.537	3.002	-0.195	0.143
-491.522	-200.000	-0.047	-0.306
-490.508	-8.045	0.116	-0.079
-489.493	-200.000	0.017	0.302
-488.478	-28.528	-0.147	0.085
-487.464	-63.617	-0.302	-0.125
-486.449	98.268	-0.246	-0.285
-485.435	-112.406	-0.270	-0.054
-484.420	195.062	0.085	0.130
-483.405	-30.256	0.091	-0.052
-482.391	33.446	0.081	-0.071
-481.376	-45.533	0.172	0.086
-480.362	5.526	-0.134	-0.100
-479.347	257.199	-0.073	0.127
-478.332	139.758	0.185	0.246
-477.318	-134.599	-0.304	0.037
-476.303	400.343	0.077	0.162
-475.289	-67.059	-0.066	0.026
-474.274	-80.464	-0.199	0.067
-473.259	22.137	-0.030	0.025
-472.245	48.626	0.027	0.026
-471.230	-8.251	0.149	0.101
-470.216	-150.971	0.133	-0.010
-469.201	-200.000	0.004	-0.342
-468.186	20.878	-0.086	-0.070
-467.172	800.000	0.020	0.057
-466.157	-200.000	0.003	0.143
-465.143	-5.344	-0.141	0.097
-464.128	170.507	-0.252	0.363
-463.113	-68.124	-0.079	0.031
-462.099	-67.816	0.232	-0.091
-461.084	-43.626	0.224	-0.114
-460.070	800.000	0.027	-0.077
-459.055	402.015	-0.044	-0.092
-458.040	-70.310	0.241	-0.092
-457.026	-200.000	-0.007	-0.122
-456.011	54.115	0.043	0.042
-454.997	77.166	0.059	-0.063
-453.982	-131.694	-0.132	0.017
-452.968	-165.091	-0.318	-0.014
-451.953	-143.262	0.315	-0.030
-450.938	322.213	0.135	0.258
-449.924	800.000	-0.058	0.227
-448.909	-41.717	-0.094	0.048
-447.895	-200.000	-0.036	0.199
-446.880	800.000	0.061	-0.239
-445.865	186.863	0.111	0.167
-444.851	-200.000	0.023	0.320
-443.836	114.809	0.071	0.087
-442.822	113.169	0.139	0.170
-441.807	800.000	-0.047	0.147
-440.792	114.128	-0.038	0.047
-439.778	-200.000	0.012	-0.377
-438.763	-90.595	0.228	0.066
-437.749	64.615	0.146	-0.148
-436.734	9.494	0.066	0.050
-435.719	111.904	0.192	-0.233
-434.705	-48.053	0.238	-0.116
-433.690	-127.961	0.091	-0.013
-432.676	-200.000	0.037	-0.352
-431.661	160.121	-0.051	0.071
-430.646	-151.931	0.276	-0.020
-429.632	240.031	-0.106	0.177
-428.617	800.000	0.091	0.338
-427.603	-74.535	0.243	-0.088
-426.588	583.468	-0.059	-0.146
-425.573	103.401	0.223	0.263
-424.559	-19.611	-0.254	-0.158
-423.544	205.693	-0.176	0.275
-422.530	402.241	-0.090	0.191
-421.515	85.982	0.279	-0.308
-420.500	62.733	-0.071	-0.071
-419.486	124.156	-0.126	-0.159
-418.471	800.000	0.039	-0.134
-417.457	210.973	0.086	0.136
-416.442	89.308	0.203	-0.227
-415.428	51.906	-0.113	0.108
-414.413	-200.000	0.071	-0.317
-413.398	-70.916	-0.224	-0.085
-412.384	-68.049	0.223	0.087
-411.369	-122.356	0.268	0.044
-410.355	16.884	0.135	0.107
-409.340	-85.173	-0.307	0.096
-408.325	-89.685	0.332	-0.098
-407.311	-200.000	0.026	-0.143
-406.296	-53.057	0.022	-0.010
-405.282	-89.494	-0.430	-0.127
-404.267	-5.351	0.088	0.061
-403.252	186.216	-0.102	-0.152
-402.238	187.684	0.062	-0.093
-401.223	70.231	0.195	-0.202
-400.209	593.837	0.103	-0.255
-399.194	800.000	-0.020	-0.068
-398.179	-200.000	-0.026	0.435
-397.165	-106.374	-0.238	-0.053
-396.150	-200.000	0.000	-0.084
-395.136	-7.837	-0.142	0.096
-394.121	206.251	0.183	-0.286
-393.106	581.855	-0.143	0.351
-392.092	-200.000	0.017	0.130
-391.077	146.633	0.190	0.256
-390.063	-52.968	0.101	0.046
-389.048	533.741	0.123	-0.292
-388.033	-63.646	0.134	0.055
-387.019	75.121	-0.159	-0.168
-386.004	96.382	0.015	0.017
-384.990	506.255	-0.023	-0.052
-383.975	170.969	0.088	0.126
-382.960	-200.000	0.003	0.061
-381.946	53.217	-0.211	-0.203
-380.931	17.877	0.199	-0.159
-379.917	38.297	-0.180	0.161
-378.902	-30.987	-0.211	-0.120
-377.888	-200.000	-0.026	0.439
-376.873	153.735	-0.217	-0.299
-375.858	-111.270	-0.197	-0.040
-374.844	-163.220	0.473	0.023
-373.829	141.556	-0.145	0.192
-372.815	-27.358	0.353	-0.206
-371.800	800.000	0.054	-0.184
-370.785	209.805	0.052	0.083
-369.771	-39.571	0.069	-0.036
-368.756	76.083	-0.133	-0.141
-367.742	800.000	-0.050	-0.139
-366.727	378.801	-0.048	0.098
-365.712	7.490	-0.094	0.071
-364.698	554.543	0.131	-0.316
-363.683	-89.930	-0.169	0.050
-362.669	-106.768	-0.266	0.059
-361.654	-140.236	-0.038	-0.004
-360.639	800.000	-0.113	0.360
-359.625	-93.478	0.033	-0.009
-358.610	78.383	-0.030	-0.033
-357.596	485.357	0.113	-0.259
-356.581	274.341	0.102	-0.181
-355.566	800.000	0.052	-0.205
-354.552	328.424	0.119	-0.228
-353.537	233.918	0.121	-0.200
-352.523	564.382	0.103	0.250
-351.508	-93.103	0.123	0.034
-350.493	-200.000	0.013	0.125
-349.479	-200.000	-0.035	0.192
-348.464	-200.000	0.038	0.331
-347.450	36.312	-0.252	0.222
-346.435	31.560	-0.115	-0.099
-345.420	142.171	-0.108	0.144
-344.406	-130.311	0.079	0.011
-343.391	13.060	0.108	0.083
-342.377	344.521	0.065	0.128
-341.362	-97.940	0.107	0.028
-340.348	-98.375	0.500	0.128
-339.333	435.672	-0.065	-0.142
-338.318	-200.000	0.013	-0.136
-337.304	183.156	-0.201	0.297
-336.289	266.384	-0.187	-0.327
-335.275	-58.911	0.309	-0.134
-334.260	117.321	-0.094	0.115
-333.245	-53.160	-0.063	-0.029
-332.231	426.574	-0.207	-0.446
-331.216	13.093	-0.172	-0.134
-330.202	800.000	-0.011	-0.044
-329.187	661.387	0.110	0.285
-328.172	32.059	-0.330	-0.285
-327.158	576.439	-0.018	-0.045
-326.143	26.044	0.185	0.154
-325.129	-9.567	0.060	-0.040
-324.114	-43.734	-0.173	-0.087
-323.099	84.340	-0.038	-0.042
-322.085	-200.000	-0.017	0.137
-321.070	333.156	0.072	-0.138
-320.056	547.134	-0.150	0.360
-319.041	-118.416	-0.152	-0.027
-318.026	491.316	0.187	-0.429
-317.012	373.886	-0.213	-0.433
-315.997	401.466	-0.115	-0.243
-314.983	-107.463	-0.285	0.063
-313.968	-128.859	0.268	0.038
-312.953	-34.516	0.230	-0.126
-311.939	70.014	0.026	0.027
-310.924	-69.160	-0.138	0.053
-309.910	197.193	-0.124	0.190
-308.895	-23.005	0.262	0.158
-307.880	-200.000	-0.019	0.128
-306.866	-200.000	-0.007	0.253
-305.851	-139.744	-0.114	-0.012
-304.837	-167.966	0.121	-0.005
-303.822	-200.000	0.025	0.209
-302.807	-200.000	0.012	0.120
-301.793	511.727	0.050	0.117
-300.778	-62.882	0.138	-0.057
-299.764	800.000	-0.106	-0.312
-298.749	385.402	-0.123	-0.254
-297.735	-12.028	0.388	0.254
-296.720	-200.000	-0.024	-0.341
-295.705	-40.383	0.135	-0.070
-294.691	371.347	0.064	-0.131
-293.676	-143.291	-0.215	-0.021
-292.662	117.926	-0.097	-0.119
-291.647	-123.180	-0.349	-0.056
-290.632	-200.000	-0.044	-0.235
-289.618	132.360	0.111	0.144
-288.603	-13.954	0.087	-0.056
-287.589	79.568	-0.173	0.186
-286.574	-86.664	-0.291	0.089
-285.559	63.502	0.033	0.033
-284.545	-129.230	-0.246	0.034
-283.530	144.870	0.225	-0.300
-282.516	-60.229	0.177	0.075
-281.501	-200.000	-0.026	-0.179
-280.486	55.336	-0.082	0.079
-279.472	-117.187	-0.141	0.026
-278.457	-47.294	-0.142	-0.069
-277.443	403.766	0.058	-0.122
-276.428	800.000	-0.092	0.286
-275.413	-200.000	-0.055	0.353
-274.399	483.671	0.055	-0.125
-273.384	48.653	-0.040	0.038
-272.370	105.145	-0.274	0.323
-271.355	363.413	-0.097	-0.194
-270.340	-180.102	0.167	-0.004
-269.326	-64.330	-0.193	-0.078
-268.311	-200.000	0.035	0.266
-267.297	-41.434	-0.227	-0.117
-266.282	800.000	-0.077	-0.256
-265.267	27.641	0.182	-0.153
-264.253	-0.781	-0.075	0.053
-263.238	88.848	0.199	-0.221
-262.224	-130.497	0.387	0.052
-261.209	-110.140	0.301	0.063
-260.195	800.000	-0.008	-0.029
-259.180	-49.515	0.078	0.037
-258.165	-13.609	-0.126	0.082
-257.151	390.912	0.113	0.234
-256.136	36.431	-0.220	-0.194
-255.122	-200.000	0.023	0.164
-254.107	-200.000	0.004	0.032
-253.092	85.210	0.154	-0.168
-252.078	-200.000	0.000	0.173
-251.063	-200.000	-0.002	0.122
-250.049	-0.537	-0.176	-0.125
-249.034	-62.449	-0.212	-0.088
-248.019	-200.000	-0.013	0.246
-247.005	315.340	-0.097	-0.182
-245.990	-200.000	0.001	0.041
-244.976	-98.204	0.191	-0.049
-243.961	-40.959	0.199	-0.103
-242.946	182.516	-0.118	-0.174
-241.932	-119.569	0.194	0.034
-240.917	800.000	-0.115	-0.409
-239.903	170.604	-0.145	0.207
-238.888	-124.328	0.073	0.011
-237.873	132.981	-0.272	-0.350
-236.859	36.182	-0.182	0.160
-235.844	-178.033	0.418	-0.010
-234.830	-144.212	0.128	-0.012
-233.815	-200.000	-0.040	0.190
-232.800	476.241	-0.076	0.172
-231.786	23.484	0.192	0.158
-230.771	-200.000	0.034	0.169
-229.757	106.505	0.152	-0.179
-228.742	800.000	0.039	0.118
-227.727	-96.511	0.082	-0.021
-226.713	-168.182	0.071	0.003
-225.698	-113.053	0.153	-0.030
-224.684	22.144	-0.059	0.048
-223.669	-200.000	0.026	0.206
-222.655	165.064	0.034	-0.048
-221.640	244.148	-0.191	-0.320
-220.625	397.898	0.115	0.239
-219.611	-164.906	0.320	0.014
-218.596	800.000	-0.049	0.191
-217.582	-137.605	-0.484	0.054
-216.567	115.651	-0.161	0.196
-215.552	800.000	0.110	-0.354
-214.538	213.743	-0.084	-0.132
-213.523	-161.017	-0.204	-0.011
-212.509	406.132	0.068	-0.143
-211.494	-101.919	-0.256	-0.062
-210.479	223.134	-0.055	0.089
-209.465	-200.000	-0.020	0.209
-208.450	188.033	-0.150	0.223
-207.436	-9.441	0.174	0.116
-206.421	800.000	0.027	-0.087
-205.406	-200.000	-0.064	-0.365
-204.392	165.722	-0.028	0.040
-203.377	-62.808	-0.039	0.016
-202.363	800.000	-0.117	-0.353
-201.348	-8.762	-0.081	0.054
-200.333	-2.150	0.070	-0.049
-199.319	-62.688	0.249	-0.103
-198.304	-148.510	0.107	0.009
-197.290	-138.664	0.114	-0.012
-196.275	3.658	0.375	0.272
-195.260	238.241	-0.181	0.298
-194.246	-200.000	-0.002	-0.140
-193.231	543.483	0.048	-0.114
-192.217	49.523	-0.133	0.125
-191.202	54.898	-0.155	-0.149
-190.187	-17.511	0.145	0.091
-189.173	15.570	0.289	0.226
-188.158	194.437	0.106	0.160
-187.144	146.892	-0.068	-0.091
-186.129	-200.000	0.080	0.413
-185.114	-45.792	-0.075	0.037
-184.100	36.619	0.190	-0.167
-183.085	6.226	-0.309	0.228
-182.071	-200.000	0.016	0.241
-181.056	107.801	-0.067	0.079
-180.042	424.520	0.046	0.098
-179.027	-125.308	-0.149	0.023
-178.012	57.808	-0.058	0.056
-176.998	800.000	0.083	-0.241
-175.983	367.134	-0.101	0.202
-174.969	184.875	-0.116	0.172
-173.954	-146.349	0.379	-0.033
-172.939	17.391	-0.211	0.167
-171.925	299.739	0.254	-0.465
-170.910	36.333	0.068	-0.060
-169.896	44.384	-0.067	0.061
-168.881	76.012	0.164	0.173
-167.866	-11.071	-0.164	-0.107
-166.852	-15.982	0.231	0.146
-165.837	-108.791	-0.081	0.017
-164.823	-200.000	-0.017	-0.117
-163.808	274.548	0.133	-0.233
-162.793	178.594	0.082	0.120
-161.779	-140.386	0.057	0.006
-160.764	152.787	0.027	0.037
-159.750	-31.163	-0.232	0.130
-158.735	-123.109	-0.311	0.050
-157.720	623.062	0.073	0.183
-156.706	-76.710	0.125	-0.044
-155.691	-133.229	-0.263	0.033
-154.677	-26.342	-0.293	-0.171
-153.662	271.762	0.125	-0.220
-152.647	-71.063	0.281	-0.105
-151.633	-100.398	0.218	0.054
-150.618	38.468	-0.073	0.065
-149.604	-173.992	-0.166	0.005
-148.589	171.776	-0.033	0.048
-147.574	330.501	0.099	0.190
-146.560	800.000	0.046	0.171
-145.545	96.629	0.193	-0.219
-144.531	800.000	-0.010	0.040
-143.516	800.000	0.075	-0.251
-142.502	246.130	0.095	-0.159
-141.487	-200.000	-0.002	0.076
-140.472	-114.215	-0.155	0.030
-139.458	-200.000	0.011	0.066
-138.443	346.210	-0.149	-0.290
-137.429	60.515	-0.033	-0.032
-136.414	49.196	-0.147	-0.137
-135.399	-107.012	0.457	0.100
-134.385	104.268	-0.133	0.156
-133.370	-64.746	0.034	-0.014
-132.356	-200.000	0.022	0.150
-131.341	754.989	0.041	-0.110
-130.326	231.615	0.226	-0.369
-129.312	-200.000	-0.043	-0.204
-128.297	-24.831	-0.131	-0.077
-127.283	766.284	-0.098	0.265
-126.268	-85.589	-0.232	0.071
-125.253	295.870	0.101	-0.183
-124.239	-200.000	0.041	0.321
-123.224	-159.121	-0.435	0.024
-122.210	-88.376	0.160	0.047
-121.195	-45.597	0.279	-0.137
-120.180	-156.611	-0.169	0.010
