DTS Sentinel unit serial number:	SN413079Multiplexer serial number:	ORYXHardware model number:	OX4-SRSoftware version number:	ORYX F/W v4.00 Oryx Data Collector v3.7.2.0data status	okinstallation	princeton_trtdifferential loss correction	single-endedforward channel	channel 4reverse channel	N/Adate	2019/09/16time	02:25:35forward acquisition time	60.00reverse acquisition time	0.00gamma	496.2192k internal	0.2320k external	0.2320temperature offset calibration	0.9974default loss term (dB/km)	0.3790temperature slope calibration	1.0000multiplexer offset coefficient	1.0000multiplexer slope coefficient	1.0000fibre end	0.00T internal ref (°C)	27.62T ext. ref 1 (°C)	10.24T ext. ref 2 (°C)	22.64length (m)	temperature (°C)	Stokes	anti-Stokes-747.200	279.098	0.105	-0.189
-746.185	800.000	-0.047	-0.162
-745.171	29.294	0.211	-0.181
-744.156	-200.000	-0.068	0.604
-743.142	-63.117	0.095	0.040
-742.127	-200.000	-0.034	0.483
-741.112	-137.213	-0.156	-0.018
-740.098	-117.585	-0.076	0.014
-739.083	-148.271	0.327	0.027
-738.069	-200.000	-0.008	0.120
-737.054	307.298	0.145	0.273
-736.039	-8.317	-0.208	-0.142
-735.025	15.096	-0.256	-0.203
-734.010	-30.469	-0.147	-0.084
-732.996	-121.017	-0.278	0.047
-731.981	-13.416	-0.121	-0.079
-730.966	37.284	0.014	-0.012
-729.952	152.038	0.209	-0.287
-728.937	-88.554	-0.311	-0.094
-727.923	45.560	0.071	-0.066
-726.908	-200.000	-0.008	-0.408
-725.894	40.457	-0.268	0.244
-724.879	292.713	-0.183	0.338
-723.864	-125.158	0.220	-0.034
-722.850	131.250	-0.226	-0.293
-721.835	110.245	-0.223	-0.270
-720.821	356.270	-0.016	0.032
-719.806	-20.242	0.315	-0.196
-718.791	-200.000	-0.075	0.367
-717.777	-200.000	-0.027	-0.161
-716.762	800.000	-0.048	0.167
-715.748	110.941	-0.091	-0.111
-714.733	-18.909	-0.282	0.177
-713.718	-67.285	-0.294	-0.117
-712.704	800.000	-0.020	0.068
-711.689	-136.664	0.353	-0.041
-710.675	-88.738	-0.210	-0.063
-709.660	347.692	0.050	-0.099
-708.645	-72.365	-0.448	0.167
-707.631	-64.666	-0.208	0.085
-706.616	800.000	-0.040	-0.139
-705.602	-110.686	-0.184	-0.038
-704.587	-200.000	0.013	0.076
-703.572	800.000	0.047	-0.194
-702.558	85.359	0.262	-0.291
-701.543	-57.814	-0.328	0.145
-700.529	-200.000	-0.026	0.183
-699.514	-200.000	0.256	0.001
-698.499	157.015	-0.160	-0.224
-697.485	-18.044	-0.278	-0.176
-696.470	-83.805	0.325	-0.104
-695.456	356.982	0.163	0.327
-694.441	85.732	-0.028	-0.031
-693.426	-111.897	0.197	-0.040
-692.412	312.218	0.074	0.139
-691.397	-200.000	0.009	-0.227
-690.383	96.769	0.114	-0.131
-689.368	-39.585	-0.113	0.060
-688.354	77.974	0.014	-0.016
-687.339	-30.937	0.110	-0.063
-686.324	-101.336	0.260	-0.064
-685.310	-6.528	-0.247	0.170
-684.295	47.390	-0.232	-0.218
-683.281	-69.922	0.152	0.058
-682.266	800.000	0.021	-0.074
-681.251	57.235	0.116	0.114
-680.237	-46.404	-0.081	-0.040
-679.222	55.759	0.190	-0.186
-678.208	-110.353	0.125	-0.026
-677.193	-80.375	-0.049	0.017
-676.178	-121.108	-0.437	0.074
-675.164	-130.725	0.066	0.009
-674.149	800.000	-0.086	0.353
-673.135	-123.893	0.338	0.054
-672.120	67.673	-0.034	-0.035
-671.105	-5.513	-0.296	-0.205
-670.091	-112.413	-0.060	0.012
-669.076	-170.515	0.117	-0.004
-668.062	60.820	-0.168	0.168
-667.047	-191.789	0.415	-0.004
-666.032	-21.230	-0.147	-0.090
-665.018	-151.738	0.247	-0.018
-664.003	-117.228	0.115	-0.021
-662.989	-200.000	0.020	-0.154
-661.974	616.140	0.079	0.199
-660.959	-200.000	-0.048	0.415
-659.945	175.944	-0.106	-0.156
-658.930	192.632	-0.183	-0.279
-657.916	122.422	0.157	-0.198
-656.901	527.484	0.034	0.082
-655.886	-38.419	0.155	0.082
-654.872	-39.228	-0.135	-0.071
-653.857	-41.839	0.134	0.069
-652.843	-60.452	0.113	-0.048
-651.828	97.311	0.030	-0.034
-650.814	257.071	-0.168	0.291
-649.799	-81.742	0.099	0.033
-648.784	-152.583	0.151	0.011
-647.770	72.040	-0.165	0.173
-646.755	-153.523	-0.291	-0.020
-645.741	-43.278	0.016	0.008
-644.726	88.010	0.269	-0.300
-643.711	-29.982	0.063	-0.036
-642.697	53.652	-0.105	-0.102
-641.682	-200.000	0.014	-0.292
-640.668	371.887	0.094	0.191
-639.653	-114.788	-0.174	-0.034
-638.638	-200.000	0.002	0.037
-637.624	-200.000	0.033	0.183
-636.609	336.932	0.124	0.244
-635.595	557.387	0.012	0.029
-634.580	79.275	0.055	-0.059
-633.565	-200.000	-0.028	0.176
-632.551	-143.291	0.235	0.023
-631.536	115.111	0.066	-0.082
-630.522	62.762	0.232	0.234
-629.507	-150.591	-0.262	-0.020
-628.492	142.920	0.075	0.100
-627.478	-150.421	0.234	0.018
-626.463	-68.131	-0.142	0.056
-625.449	-108.074	0.031	-0.007
-624.434	99.090	0.023	0.027
-623.419	51.720	-0.213	0.204
-622.405	-126.840	-0.248	-0.037
-621.390	-200.000	-0.026	-0.260
-620.376	112.350	0.141	0.171
-619.361	-54.852	-0.125	0.057
-618.346	-155.272	-0.203	-0.013
-617.332	-141.984	-0.192	-0.019
-616.317	750.922	-0.023	0.063
-615.303	179.866	-0.115	0.169
-614.288	-68.808	0.321	-0.125
-613.273	252.647	0.263	-0.451
-612.259	-98.989	0.103	-0.026
-611.244	-200.000	0.001	0.190
-610.230	-200.000	-0.005	-0.070
-609.215	149.802	-0.161	0.219
-608.201	-65.277	0.073	0.029
-607.186	800.000	-0.102	-0.298
-606.171	-73.950	0.035	-0.013
-605.157	800.000	-0.017	-0.054
-604.142	-200.000	-0.006	0.145
-603.128	-108.811	0.309	0.067
-602.113	-195.485	-0.235	-0.002
-601.098	-26.201	0.315	-0.186
-600.084	236.554	-0.246	0.409
-599.069	45.922	0.084	-0.078
-598.055	-66.722	0.103	-0.041
-597.040	60.746	-0.232	0.231
-596.025	19.301	-0.175	0.142
-595.011	268.583	0.110	-0.194
-593.996	226.883	-0.190	-0.310
-592.982	-76.582	0.309	-0.109
-591.967	146.172	-0.056	0.076
-590.952	-200.000	-0.008	0.077
-589.938	-78.774	-0.273	0.093
-588.923	-14.171	-0.230	-0.149
-587.909	-91.990	0.188	-0.053
-586.894	800.000	0.054	0.193
-585.879	-200.000	-0.000	-0.305
-584.865	800.000	-0.042	-0.133
-583.850	148.291	-0.216	0.293
-582.836	800.000	-0.039	0.123
-581.821	137.085	0.129	-0.169
-580.806	130.093	-0.060	0.077
-579.792	-200.000	-0.032	-0.193
-578.777	-85.769	-0.099	0.031
-577.763	800.000	0.049	0.169
-576.748	-87.236	0.093	0.028
-575.733	-23.211	0.160	-0.096
-574.719	325.792	-0.155	-0.297
-573.704	800.000	-0.068	-0.210
-572.690	-63.291	-0.098	-0.040
-571.675	120.523	0.093	0.116
-570.661	800.000	-0.054	-0.151
-569.646	449.335	-0.079	0.176
-568.631	-200.000	0.100	-0.478
-567.617	-200.000	0.079	-0.352
-566.602	800.000	0.201	-0.623
-565.588	52.437	0.241	-0.231
-564.573	-200.000	-0.044	-0.202
-563.558	-123.234	0.182	-0.029
-562.544	-148.170	0.145	0.012
-561.529	-200.000	-0.003	0.070
-560.515	-124.266	0.128	-0.020
-559.500	-29.422	-0.202	-0.116
-558.485	39.177	0.069	0.062
-557.471	-200.000	-0.012	0.107
-556.456	-108.353	-0.097	-0.021
-555.442	-78.397	-0.250	0.086
-554.427	26.082	0.105	0.088
-553.412	-117.044	-0.035	0.006
-552.398	-100.511	0.111	-0.027
-551.383	-38.984	0.175	-0.093
-550.369	269.200	0.132	-0.233
-549.354	-142.331	0.318	0.031
-548.339	39.871	0.085	0.076
-547.325	-110.240	-0.279	0.058
-546.310	-200.000	-0.051	-0.368
-545.296	-200.000	-0.073	-0.351
-544.281	-148.753	-0.140	-0.011
-543.266	245.409	0.190	0.320
-542.252	800.000	-0.069	0.208
-541.237	-200.000	-0.038	-0.431
-540.223	12.444	0.082	-0.063
-539.208	722.533	0.072	0.191
-538.193	4.914	0.229	-0.169
-537.179	-200.000	0.003	-0.157
-536.164	-200.000	-0.012	0.076
-535.150	800.000	-0.058	0.212
-534.135	15.176	0.104	0.082
-533.121	199.995	-0.260	-0.400
-532.106	163.584	0.095	0.134
-531.091	541.570	-0.041	-0.098
-530.077	96.469	-0.136	-0.156
-529.062	-167.419	-0.145	0.006
-528.048	800.000	-0.048	-0.173
-527.033	-200.000	-0.032	-0.349
-526.018	630.707	-0.104	-0.265
-525.004	5.096	0.135	-0.100
-523.989	396.588	0.042	0.088
-522.975	3.252	-0.132	-0.096
-521.960	-148.810	0.431	0.035
-520.945	54.407	-0.193	0.187
-519.931	-190.846	-0.072	-0.001
-518.916	64.924	-0.099	0.100
-517.902	800.000	-0.040	-0.147
-516.887	-13.566	-0.219	-0.142
-515.872	-5.915	0.287	0.197
-514.858	-66.603	-0.048	0.019
-513.843	44.806	0.262	-0.241
-512.829	-129.686	0.273	0.038
-511.814	187.475	0.042	-0.063
-510.799	-200.000	0.008	-0.129
-509.785	-102.368	-0.230	0.055
-508.770	315.339	-0.103	-0.194
-507.756	-148.722	-0.326	-0.027
-506.741	-178.435	0.170	-0.004
-505.726	800.000	-0.034	-0.109
-504.712	-200.000	0.060	0.353
-503.697	448.421	0.125	0.275
-502.683	-29.501	-0.197	-0.113
-501.668	135.777	-0.322	0.419
-500.653	800.000	0.041	-0.131
-499.639	-200.000	0.042	-0.345
-498.624	7.728	0.254	0.190
-497.610	-115.972	-0.158	0.029
-496.595	38.634	-0.036	-0.032
-495.581	-200.000	0.036	-0.281
-494.566	800.000	-0.116	-0.389
-493.551	-200.000	-0.036	-0.264
-492.537	355.065	0.076	-0.152
-491.522	498.562	0.188	-0.433
-490.508	800.000	0.127	-0.445
-489.493	-99.995	0.192	-0.048
-488.478	424.356	0.138	0.298
-487.464	-166.737	-0.126	-0.005
-486.449	-200.000	0.021	0.200
-485.435	-101.884	0.162	0.039
-484.420	169.250	-0.154	-0.220
-483.405	-121.889	0.273	0.045
-482.391	43.348	-0.260	0.237
-481.376	43.887	0.110	0.101
-480.362	-88.417	-0.224	0.067
-479.347	60.808	-0.099	-0.098
-478.332	110.440	-0.085	0.102
-477.318	-99.402	-0.165	0.042
-476.303	-106.467	-0.366	0.082
-475.289	79.388	0.072	-0.077
-474.274	-77.730	0.233	-0.080
-473.259	59.612	-0.024	-0.024
-472.245	72.477	-0.031	0.032
-471.230	-171.488	0.241	-0.008
-470.216	-15.967	-0.114	-0.073
-469.201	-200.000	-0.007	-0.222
-468.186	1.000	0.237	0.170
-467.172	-54.797	-0.267	-0.120
-466.157	-200.000	0.001	0.155
-465.143	102.595	0.111	0.130
-464.128	124.144	0.403	-0.506
-463.113	-7.751	-0.324	0.219
-462.099	-20.605	-0.457	-0.281
-461.084	-86.108	0.374	0.115
-460.070	-200.000	-0.041	0.257
-459.055	-82.914	-0.165	0.053
-458.040	459.506	0.137	0.304
-457.026	135.926	0.213	-0.277
-456.011	-99.344	-0.205	0.052
-454.997	-93.826	0.169	0.046
-453.982	54.553	0.144	0.139
-452.968	72.028	-0.061	0.064
-451.953	-185.146	-0.169	-0.003
-450.938	179.170	0.095	0.138
-449.924	192.388	0.094	0.142
-448.909	200.787	0.030	-0.046
-447.895	-200.000	0.032	-0.230
-446.880	472.155	0.015	-0.033
-445.865	-41.743	-0.299	0.153
-444.851	-200.000	0.011	0.100
-443.836	-118.554	-0.204	-0.036
-442.822	-153.113	-0.294	-0.021
-441.807	-200.000	0.006	-0.155
-440.792	-200.000	0.017	0.378
-439.778	-200.000	-0.006	-0.116
-438.763	-54.482	-0.125	-0.057
-437.749	107.899	-0.167	0.199
-436.734	-45.005	-0.301	-0.150
-435.719	44.460	-0.202	0.185
-434.705	504.051	-0.146	-0.337
-433.690	28.624	0.035	-0.030
-432.676	-67.984	-0.162	0.063
-431.661	366.257	0.057	-0.116
-430.646	749.337	-0.058	0.155
-429.632	195.856	0.119	0.181
-428.617	394.345	0.139	0.289
-427.603	-200.000	-0.014	-0.190
-426.588	210.911	-0.408	0.641
-425.573	-21.036	0.252	0.154
-424.559	233.290	-0.224	-0.367
-423.544	-106.610	0.045	-0.010
-422.530	-200.000	0.060	0.464
-421.515	-200.000	0.043	0.253
-420.500	-10.575	0.287	-0.190
-419.486	-200.000	0.000	-0.361
-418.471	35.722	0.229	-0.201
-417.457	-193.709	0.232	0.002
-416.442	-200.000	0.057	-0.258
-415.428	70.546	0.104	0.107
-414.413	-83.346	0.223	-0.071
-413.398	144.299	0.142	-0.190
-412.384	184.982	0.073	0.108
-411.369	-80.612	-0.009	-0.003
-410.355	800.000	0.076	0.305
-409.340	119.282	-0.338	-0.417
-408.325	-93.088	0.472	0.131
-407.311	-200.000	0.022	0.155
-406.296	-200.000	-0.004	-0.221
-405.282	-35.704	-0.062	-0.033
-404.267	-88.586	-0.187	-0.056
-403.252	-174.751	-0.128	0.004
-402.238	-200.000	0.005	-0.167
-401.223	-62.872	0.357	0.147
-400.209	44.762	-0.066	0.060
-399.194	800.000	0.040	-0.161
-398.179	-61.387	0.163	0.068
-397.165	24.710	0.112	-0.092
-396.150	400.052	-0.299	-0.624
-395.136	-23.591	-0.404	0.242
-394.121	-130.524	0.156	-0.021
-393.106	-65.567	-0.230	0.092
-392.092	-72.009	0.445	-0.165
-391.077	-76.511	-0.249	0.087
-390.063	16.275	-0.111	0.087
-389.048	-154.409	0.187	0.012
-388.033	139.468	0.100	0.131
-387.019	-200.000	0.002	-0.316
-386.004	357.685	-0.174	-0.346
-384.990	289.830	-0.080	0.144
-383.975	-200.000	0.056	0.000
-382.960	480.235	-0.100	0.227
-381.946	800.000	-0.057	-0.236
-380.931	800.000	0.022	0.063
-379.917	-18.598	-0.095	-0.059
-378.902	4.805	0.168	0.123
-377.888	214.869	-0.056	0.088
-376.873	23.759	0.120	-0.099
-375.858	330.333	-0.112	-0.216
-374.844	14.262	0.139	-0.108
-373.829	800.000	-0.042	0.151
-372.815	42.778	-0.138	0.126
-371.800	-97.963	0.173	-0.044
-370.785	48.644	0.148	-0.138
-369.771	-12.248	-0.069	0.045
-368.756	82.454	-0.327	0.354
-367.742	-200.000	-0.025	0.226
-366.727	-109.637	0.194	0.041
-365.712	466.745	0.108	0.240
-364.698	-129.039	-0.110	0.015
-363.683	-200.000	0.015	-0.105
-362.669	-42.786	-0.119	0.060
-361.654	-200.000	-0.011	-0.307
-360.639	800.000	-0.018	-0.052
-359.625	65.751	0.051	0.052
-358.610	-147.586	0.118	-0.010
-357.596	-32.184	0.074	0.041
-356.581	-62.236	0.014	0.006
-355.566	-200.000	0.021	-0.331
-354.552	125.920	0.120	0.151
-353.537	800.000	0.019	-0.073
-352.523	-42.077	0.108	-0.055
-351.508	800.000	0.075	0.217
-350.493	-0.132	0.227	0.161
-349.479	-57.256	0.126	0.055
-348.464	-200.000	0.000	0.225
-347.450	-200.000	-0.041	0.259
-346.435	362.325	0.101	-0.203
-345.420	369.226	0.118	0.237
-344.406	79.196	-0.214	0.228
-343.391	570.084	-0.098	0.236
-342.377	344.617	0.152	0.297
-341.362	80.336	-0.274	0.293
-340.348	144.113	0.108	-0.143
-339.333	-148.713	0.211	-0.017
-338.318	800.000	-0.035	0.133
-337.304	-17.684	-0.424	0.265
-336.289	381.275	0.108	0.220
-335.275	43.807	-0.165	-0.151
-334.260	-200.000	-0.058	0.338
-333.245	-200.000	0.020	0.097
-332.231	44.058	-0.110	0.100
-331.216	38.804	0.050	-0.044
-330.202	128.397	-0.120	0.152
-329.187	-200.000	-0.057	0.274
-328.172	776.552	0.043	-0.115
-327.158	13.441	0.223	0.172
-326.143	-102.805	0.261	0.062
-325.129	63.057	0.146	0.145
-324.114	357.616	0.091	-0.180
-323.099	800.000	-0.092	-0.385
-322.085	-115.328	0.100	0.019
-321.070	75.422	-0.107	0.112
-320.056	130.109	0.142	0.181
-319.041	-7.291	0.241	0.162
-318.026	-160.920	0.166	-0.009
-317.012	7.043	-0.152	-0.113
-315.997	-20.193	-0.238	-0.146
-314.983	165.331	0.221	0.310
-313.968	22.859	-0.304	-0.248
-312.953	-62.434	-0.086	0.036
-311.939	-86.209	-0.483	-0.148
-310.924	-200.000	0.016	-0.082
-309.910	-169.222	0.348	0.013
-308.895	60.473	0.073	0.072
-307.880	16.552	0.116	-0.091
-306.866	-136.542	-0.273	-0.031
-305.851	-119.005	0.059	-0.010
-304.837	-103.050	0.090	0.021
-303.822	583.970	0.028	-0.069
-302.807	144.639	-0.095	-0.126
-301.793	172.032	-0.131	0.187
-300.778	-138.222	-0.372	-0.041
-299.764	487.185	0.185	0.419
-298.749	-200.000	0.040	0.439
-297.735	-200.000	0.028	0.136
-296.720	-116.362	-0.159	0.029
-295.705	103.185	0.083	-0.097
-294.691	-165.196	-0.230	-0.010
-293.676	-200.000	-0.051	0.250
-292.662	101.297	0.108	0.125
-291.647	-177.446	-0.233	0.006
-290.632	10.555	-0.045	-0.034
-289.618	204.859	0.129	0.199
-288.603	-192.464	0.337	-0.003
-287.589	113.242	0.159	-0.191
-286.574	800.000	-0.056	-0.178
-285.559	-200.000	-0.007	0.209
-284.545	800.000	-0.082	-0.322
-283.530	571.870	0.059	-0.143
-282.516	26.308	0.144	0.120
-281.501	-88.855	0.310	0.091
-280.486	-200.000	0.015	0.080
-279.472	-89.463	-0.113	0.033
-278.457	97.882	-0.348	-0.398
-277.443	16.181	0.273	0.213
-276.428	104.539	-0.193	-0.225
-275.413	-53.883	0.198	-0.090
-274.399	-24.676	0.070	0.041
-273.384	800.000	-0.138	-0.378
-272.370	67.053	0.223	0.225
-271.355	-200.000	-0.052	-0.275
-270.340	40.851	-0.292	-0.262
-269.326	-200.000	0.014	-0.226
-268.311	-39.310	-0.060	-0.031
-267.297	-98.868	0.254	-0.064
-266.282	-118.603	0.230	0.040
-265.267	800.000	0.072	-0.302
-264.253	-59.414	-0.413	-0.176
-263.238	-34.451	0.142	0.077
-262.224	110.153	0.080	-0.096
-261.209	-200.000	-0.064	0.303
-260.195	800.000	-0.032	0.117
-259.180	-200.000	0.011	0.137
-258.165	-104.516	0.091	0.021
-257.151	-72.372	-0.064	-0.024
-256.136	-0.357	0.121	-0.086
-255.122	-200.000	-0.029	0.248
-254.107	800.000	-0.192	0.543
-253.092	-200.000	-0.059	-0.266
-252.078	-36.418	0.141	0.075
-251.063	-60.046	-0.329	-0.139
-250.049	-161.346	-0.104	-0.005
-249.034	-6.547	-0.152	-0.103
-248.019	610.529	-0.041	-0.103
-247.005	44.725	-0.363	0.331
-245.990	-30.443	0.325	0.183
-244.976	-68.509	-0.099	-0.038
-243.961	-131.391	-0.248	0.032
-242.946	126.355	-0.233	0.292
-241.932	-69.431	0.070	-0.027
-240.917	-200.000	-0.029	-0.264
-239.903	-52.037	0.192	-0.089
-238.888	-17.883	0.314	-0.195
-237.873	800.000	-0.035	0.151
-236.859	-200.000	-0.002	0.073
-235.844	114.122	-0.175	-0.211
-234.830	-163.287	-0.127	-0.006
-233.815	241.649	0.086	-0.143
-232.800	35.972	-0.240	0.209
-231.786	157.920	0.108	0.149
-230.771	-163.354	-0.319	-0.015
-229.757	-200.000	0.035	-0.198
-228.742	68.307	-0.258	-0.262
-227.727	-22.687	0.222	0.133
-226.713	162.510	-0.105	-0.146
-225.698	-48.956	0.070	0.033
-224.684	146.716	0.140	-0.186
-223.669	-76.242	-0.420	-0.147
-222.655	57.665	0.127	-0.123
-221.640	800.000	-0.037	-0.147
-220.625	800.000	-0.136	0.435
-219.611	800.000	-0.110	0.345
-218.596	53.682	0.099	-0.094
-217.582	-121.487	0.126	0.021
-216.567	24.449	0.271	0.222
-215.552	177.519	-0.085	-0.123
-214.538	-153.497	0.440	-0.030
-213.523	130.847	-0.266	0.338
-212.509	-32.581	-0.153	0.084
-211.494	800.000	0.010	0.029
-210.479	-150.335	0.174	-0.013
-209.465	71.433	0.209	0.215
-208.450	125.118	0.153	-0.190
-207.436	569.193	0.022	-0.052
-206.421	636.228	-0.042	-0.104
-205.406	800.000	-0.080	0.280
-204.392	583.399	-0.126	-0.306
-203.377	-85.868	0.094	0.029
-202.363	146.295	-0.035	-0.046
-201.348	800.000	-0.186	0.679
-200.333	469.470	0.112	-0.249
-199.319	-200.000	0.005	-0.116
-198.304	-17.527	0.226	-0.141
-197.290	-63.928	0.440	-0.178
-196.275	28.990	-0.032	-0.027
-195.260	116.935	-0.248	0.301
-194.246	-1.963	0.227	-0.158
-193.231	-44.490	-0.237	-0.117
-192.217	-56.453	0.012	-0.005
-191.202	175.528	0.100	0.144
-190.187	-152.150	0.138	-0.010
-189.173	231.377	-0.180	0.292
-188.158	201.059	-0.131	0.199
-187.144	-8.286	-0.317	0.211
-186.129	-162.948	-0.097	0.005
-185.114	800.000	-0.027	0.090
-184.100	-200.000	-0.015	-0.237
-183.085	218.804	-0.128	-0.203
-182.071	181.965	0.076	-0.111
-181.056	-116.551	0.410	0.075
-180.042	17.832	0.111	-0.087
-179.027	-59.968	-0.039	-0.017
-178.012	29.916	-0.046	-0.039
-176.998	326.579	-0.025	-0.046
-175.983	181.714	0.185	0.269
-174.969	-200.000	0.032	-0.376
-173.954	-200.000	0.027	-0.273
-172.939	800.000	-0.053	-0.217
-171.925	152.516	-0.107	-0.145
-170.910	23.841	0.150	0.122
-169.896	-200.000	0.002	0.067
-168.881	108.468	0.162	0.192
-167.866	3.170	0.148	0.106
-166.852	133.953	-0.107	0.137
-165.837	41.806	-0.194	-0.173
-164.823	800.000	-0.063	0.174
-163.808	-157.265	-0.281	0.017
-162.793	94.776	0.172	0.194
-161.779	800.000	-0.148	0.447
-160.764	-90.912	-0.088	0.025
-159.750	-114.006	0.233	0.045
-158.735	566.313	-0.117	-0.280
-157.720	52.751	-0.185	0.174
-156.706	238.887	0.119	0.196
-155.691	-100.062	0.390	0.096
-154.677	-23.212	0.139	0.083
-153.662	144.483	-0.008	-0.011
-152.647	46.603	-0.208	0.191
-151.633	-200.000	-0.009	0.091
-150.618	-200.000	-0.002	0.094
-149.604	-98.973	0.424	-0.106
-148.589	800.000	0.045	-0.175
-147.574	-116.836	0.306	0.055
-146.560	-200.000	-0.017	0.106
-145.545	800.000	0.064	-0.196
-144.531	-72.406	-0.468	-0.171
-143.516	-105.530	0.156	-0.035
-142.502	-163.711	-0.230	-0.011
-141.487	297.645	-0.045	-0.082
-140.472	37.852	-0.180	-0.158
-139.458	-200.000	-0.024	0.285
-138.443	509.040	0.129	0.295
-137.429	149.709	-0.046	0.062
-136.414	44.635	0.032	0.029
-135.399	-1.267	-0.049	0.034
-134.385	-200.000	0.033	0.262
-133.370	522.645	-0.021	-0.050
-132.356	-103.921	0.089	0.021
-131.341	781.958	0.030	-0.082
-130.326	133.353	0.221	-0.282
-129.312	124.039	0.214	0.265
-128.297	-33.074	0.122	0.067
-127.283	66.163	-0.152	0.152
-126.268	245.335	-0.206	-0.342
-125.253	-194.664	-0.090	-0.001
-124.239	271.510	0.080	0.139
-123.224	-51.178	0.118	0.055
-122.210	-200.000	0.022	0.110
-121.195	201.007	0.116	-0.176
