DTS Sentinel unit serial number:	SN413079Multiplexer serial number:	ORYXHardware model number:	OX4-SRSoftware version number:	ORYX F/W v4.00 Oryx Data Collector v3.7.2.0data status	okinstallation	princeton_trtdifferential loss correction	single-endedforward channel	channel 4reverse channel	N/Adate	2019/09/14time	11:17:35forward acquisition time	60.00reverse acquisition time	0.00gamma	496.2192k internal	0.2294k external	0.2294temperature offset calibration	1.0153default loss term (dB/km)	0.3790temperature slope calibration	1.0000multiplexer offset coefficient	1.0000multiplexer slope coefficient	1.0000fibre end	0.00T internal ref (°C)	36.61T ext. ref 1 (°C)	4.49T ext. ref 2 (°C)	33.13length (m)	temperature (°C)	Stokes	anti-Stokes-747.200	128.917	-0.156	0.204
-746.185	-30.929	0.312	0.180
-745.171	731.523	-0.131	0.359
-744.156	103.264	0.228	0.274
-743.142	-200.000	0.019	-0.166
-742.127	-200.000	-0.011	0.197
-741.112	14.369	-0.249	0.199
-740.098	5.498	-0.137	0.103
-739.083	-37.731	-0.157	0.085
-738.069	-80.050	0.178	0.061
-737.054	800.000	0.028	-0.110
-736.039	90.313	-0.105	0.120
-735.025	-142.385	-0.166	0.017
-734.010	-49.077	-0.222	0.109
-732.996	18.189	-0.118	-0.096
-731.981	-200.000	-0.025	-0.277
-730.966	800.000	-0.029	-0.104
-729.952	-200.000	-0.040	-0.179
-728.937	-58.590	0.177	-0.079
-727.923	-83.352	-0.103	-0.034
-726.908	180.009	-0.054	0.082
-725.894	-24.166	-0.069	-0.042
-724.879	-146.892	0.383	0.034
-723.864	-200.000	0.060	-0.282
-722.850	85.026	-0.060	-0.068
-721.835	541.876	-0.074	0.181
-720.821	-200.000	-0.008	-0.222
-719.806	-200.000	-0.276	0.001
-718.791	-31.172	-0.111	-0.064
-717.777	-23.964	-0.180	-0.110
-716.762	145.152	-0.287	-0.393
-715.748	240.204	-0.181	-0.307
-714.733	4.524	0.140	-0.105
-713.718	-200.000	0.015	0.150
-712.704	-10.470	-0.113	-0.077
-711.689	800.000	0.076	0.260
-710.675	-62.922	-0.173	-0.073
-709.660	-154.717	-0.119	-0.008
-708.645	599.920	-0.039	0.099
-707.631	189.732	0.084	0.128
-706.616	-195.981	-0.063	-0.000
-705.602	-118.491	0.093	0.017
-704.587	-200.000	0.004	-0.115
-703.572	-168.603	-0.299	-0.012
-702.558	168.373	0.325	-0.473
-701.543	448.913	0.149	-0.335
-700.529	-160.699	0.087	0.005
-699.514	-200.000	-0.005	-0.094
-698.499	103.089	0.253	0.302
-697.485	117.684	-0.113	-0.142
-696.470	-136.934	0.276	-0.032
-695.456	26.147	-0.038	-0.032
-694.441	29.775	-0.218	-0.189
-693.426	80.139	-0.083	0.091
-692.412	-56.573	-0.259	-0.117
-691.397	-155.780	0.199	0.013
-690.383	130.701	0.116	-0.152
-689.368	-49.858	0.181	0.088
-688.354	166.549	0.194	-0.280
-687.339	-90.197	0.256	0.076
-686.324	-200.000	-0.105	-0.676
-685.310	105.553	-0.134	0.161
-684.295	55.088	0.093	0.091
-683.281	363.891	-0.188	0.386
-682.266	-7.410	-0.024	0.016
-681.251	125.279	0.076	-0.098
-680.237	255.972	-0.172	-0.301
-679.222	54.610	-0.226	-0.223
-678.208	-117.779	-0.159	-0.029
-677.193	800.000	0.042	-0.139
-676.178	-36.069	0.196	0.108
-675.164	800.000	-0.052	-0.158
-674.149	-200.000	0.011	0.182
-673.135	-150.577	0.275	-0.021
-672.120	-38.126	-0.230	-0.124
-671.105	-45.333	-0.286	-0.145
-670.091	-74.686	-0.187	-0.069
-669.076	233.980	-0.086	0.144
-668.062	-77.860	-0.250	-0.088
-667.047	118.393	-0.112	-0.141
-666.032	-153.999	0.244	-0.017
-665.018	44.670	-0.188	0.176
-664.003	-127.138	0.094	-0.014
-662.989	89.809	0.106	-0.120
-661.974	7.826	-0.156	-0.119
-660.959	-200.000	0.038	0.369
-659.945	19.219	-0.130	0.106
-658.930	-17.356	-0.022	0.014
-657.916	730.921	-0.058	-0.157
-656.901	-200.000	0.033	0.193
-655.886	-31.456	-0.304	-0.174
-654.872	-196.925	0.214	0.001
-653.857	-3.698	0.206	0.146
-652.843	-200.000	0.015	0.072
-651.828	-29.451	0.119	-0.069
-650.814	-166.566	-0.494	-0.021
-649.799	-49.592	0.236	-0.114
-648.784	-51.061	-0.467	-0.223
-647.770	-128.106	-0.123	-0.018
-646.755	306.623	-0.071	-0.134
-645.741	-200.000	0.011	-0.096
-644.726	507.708	-0.192	0.454
-643.711	-91.408	-0.384	0.112
-642.697	23.292	-0.202	-0.169
-641.682	800.000	0.067	-0.261
-640.668	800.000	-0.097	0.333
-639.653	-169.406	-0.068	-0.003
-638.638	28.429	-0.079	-0.068
-637.624	-58.581	0.158	0.070
-636.609	90.867	0.163	-0.186
-635.595	-124.270	-0.321	-0.051
-634.580	159.299	0.102	0.145
-633.565	-90.445	0.262	0.077
-632.551	47.804	-0.172	-0.164
-631.536	-200.000	0.011	-0.180
-630.522	312.518	0.118	-0.225
-629.507	-117.461	0.510	-0.094
-628.492	-9.717	0.166	0.113
-627.478	32.698	-0.282	0.248
-626.463	800.000	-0.071	0.244
-625.449	162.252	0.082	0.117
-624.434	99.921	0.161	-0.190
-623.419	-54.394	0.157	-0.073
-622.405	-109.044	-0.168	0.036
-621.390	-153.916	0.102	0.007
-620.376	-177.945	0.413	0.010
-619.361	-71.785	0.155	0.059
-618.346	453.097	-0.052	0.118
-617.332	-200.000	0.035	-0.208
-616.317	601.211	0.077	0.194
-615.303	-200.000	0.050	0.279
-614.288	-77.631	-0.197	-0.069
-613.273	405.233	0.087	0.187
-612.259	24.072	-0.239	0.200
-611.244	-180.954	-0.124	-0.003
-610.230	-200.000	0.016	-0.217
-609.215	169.608	-0.125	-0.182
-608.201	-58.766	0.224	-0.099
-607.186	263.525	0.093	0.165
-606.171	800.000	0.065	-0.193
-605.157	-132.804	0.167	0.022
-604.142	41.257	0.036	-0.033
-603.128	-89.661	0.323	0.096
-602.113	-128.134	-0.347	-0.051
-601.098	-200.000	-0.313	-0.000
-600.084	42.143	-0.233	-0.215
-599.069	592.124	-0.121	-0.303
-598.055	193.358	0.172	0.265
-597.040	-120.471	0.334	0.058
-596.025	15.711	-0.065	0.052
-595.011	95.034	-0.113	-0.131
-593.996	-200.000	-0.003	-0.062
-592.982	800.000	-0.076	-0.221
-591.967	-111.311	-0.366	-0.076
-590.952	-57.616	0.175	-0.078
-589.938	86.217	0.098	-0.110
-588.923	-184.816	0.256	0.004
-587.909	-200.000	0.001	0.266
-586.894	56.223	-0.185	-0.182
-585.879	800.000	0.020	-0.074
-584.865	-200.000	-0.027	-0.283
-583.850	-200.000	-0.014	0.114
-582.836	-200.000	0.021	-0.370
-581.821	229.735	0.153	-0.254
-580.806	761.499	-0.080	-0.222
-579.792	-200.000	0.006	-0.218
-578.777	-151.567	-0.215	-0.016
-577.763	-149.843	0.251	-0.020
-576.748	287.311	-0.089	0.164
-575.733	140.581	-0.115	-0.155
-574.719	6.091	-0.228	0.171
-573.704	192.328	-0.085	-0.130
-572.690	27.752	0.046	-0.039
-571.675	320.387	0.148	-0.285
-570.661	-7.993	0.369	0.253
-569.646	-156.957	-0.149	-0.009
-568.631	222.024	0.129	0.211
-567.617	-52.676	0.097	0.045
-566.602	0.528	-0.106	0.077
-565.588	-29.566	0.142	0.082
-564.573	326.633	-0.068	-0.133
-563.558	800.000	-0.064	0.283
-562.544	435.958	-0.200	0.442
-561.529	-183.279	0.337	-0.006
-560.515	-133.223	-0.258	0.033
-559.500	175.759	-0.162	-0.239
-558.485	-61.884	0.187	0.080
-557.471	800.000	-0.074	0.242
-556.456	-200.000	0.009	-0.393
-555.442	16.940	-0.059	-0.047
-554.427	-145.277	-0.133	-0.012
-553.412	-170.814	-0.168	0.006
-552.398	800.000	0.144	0.413
-551.383	800.000	0.079	0.244
-550.369	-21.090	-0.051	-0.032
-549.354	176.762	0.148	0.218
-548.339	800.000	0.129	-0.442
-547.325	-200.000	-0.000	0.210
-546.310	-44.433	0.107	-0.054
-545.296	-101.235	-0.282	0.070
-544.281	-200.000	0.000	-0.218
-543.266	-111.577	-0.006	-0.001
-542.252	-34.999	-0.114	0.063
-541.237	-77.641	0.087	0.031
-540.223	-94.261	-0.220	0.061
-539.208	-67.324	-0.118	-0.047
-538.193	-83.376	-0.343	-0.111
-537.179	-184.930	0.218	0.003
-536.164	-2.375	0.202	0.143
-535.150	65.641	-0.139	-0.143
-534.135	217.658	-0.062	0.101
-533.121	-177.824	-0.258	-0.006
-532.106	35.542	-0.218	0.194
-531.091	-115.193	-0.163	0.031
-530.077	-200.000	-0.047	0.215
-529.062	-200.000	0.041	0.299
-528.048	190.281	-0.107	-0.162
-527.033	-44.686	0.333	0.169
-526.018	-125.251	-0.232	-0.036
-525.004	49.505	-0.086	-0.082
-523.989	-185.274	0.039	-0.001
-522.975	800.000	0.109	0.393
-521.960	-187.823	0.178	0.002
-520.945	109.139	0.067	-0.081
-519.931	-200.000	0.036	0.205
-518.916	-31.113	-0.280	-0.160
-517.902	11.577	-0.197	0.153
-516.887	-200.000	0.030	-0.297
-515.872	-146.857	0.268	0.023
-514.858	24.871	0.135	0.113
-513.843	114.896	-0.225	-0.278
-512.829	-110.958	-0.344	0.072
-511.814	-200.000	-0.008	-0.191
-510.799	54.112	0.075	-0.073
-509.785	-111.318	-0.247	-0.051
-508.770	-200.000	-0.002	-0.039
-507.756	800.000	0.017	-0.069
-506.741	173.704	0.219	-0.321
-505.726	179.363	0.087	-0.129
-504.712	-185.799	-0.092	-0.001
-503.697	-180.964	0.284	-0.006
-502.683	-14.580	0.159	0.104
-501.668	-59.247	0.277	0.121
-500.653	-55.977	0.068	-0.031
-499.639	351.021	-0.029	-0.058
-498.624	26.449	-0.081	-0.068
-497.610	28.636	-0.187	0.160
-496.595	-119.611	0.386	-0.068
-495.581	735.204	-0.137	0.370
-494.566	-200.000	0.010	-0.119
-493.551	-168.487	-0.042	0.002
-492.537	168.716	-0.165	0.238
-491.522	5.702	0.021	0.016
-490.508	288.359	0.085	-0.156
-489.493	252.696	-0.156	-0.269
-488.478	-135.820	0.191	0.023
-487.464	164.611	-0.218	-0.311
-486.449	115.556	-0.072	-0.089
-485.435	154.783	0.098	-0.136
-484.420	-43.962	-0.360	-0.183
-483.405	-18.131	-0.171	0.109
-482.391	42.736	0.077	0.071
-481.376	-200.000	0.069	0.357
-480.362	89.164	-0.170	-0.191
-479.347	-127.382	0.327	-0.048
-478.332	73.359	0.071	-0.075
-477.318	-170.050	0.280	0.010
-476.303	-71.140	-0.442	-0.168
-475.289	-164.185	0.143	-0.007
-474.274	-82.337	-0.024	0.008
-473.259	6.059	0.374	-0.280
-472.245	-107.871	0.192	-0.042
-471.230	-57.476	-0.223	-0.099
-470.216	-200.000	-0.052	-0.348
-469.201	-200.000	-0.083	0.453
-468.186	12.503	0.103	0.080
-467.172	-69.118	0.062	0.024
-466.157	120.989	-0.417	-0.525
-465.143	-171.966	0.208	-0.007
-464.128	-87.201	-0.092	-0.028
-463.113	-200.000	0.047	0.332
-462.099	147.280	-0.125	0.170
-461.084	-117.363	-0.180	0.033
-460.070	-178.128	0.159	0.004
-459.055	720.726	-0.122	-0.329
-458.040	-107.964	-0.369	0.081
-457.026	186.443	0.064	0.096
-456.011	-72.067	0.199	0.075
-454.997	537.041	0.110	-0.265
-453.982	-39.648	0.143	0.076
-452.968	147.862	0.226	0.308
-451.953	-14.448	0.108	-0.070
-450.938	228.593	0.108	-0.179
-449.924	-78.364	0.096	-0.033
-448.909	-23.215	-0.077	0.047
-447.895	121.080	0.145	-0.183
-446.880	-200.000	0.015	0.128
-445.865	-200.000	-0.019	0.118
-444.851	-200.000	-0.044	-0.325
-443.836	28.307	0.208	-0.177
-442.822	67.989	-0.117	0.121
-441.807	-200.000	-0.003	-0.176
-440.792	37.862	0.151	-0.135
-439.778	-61.297	-0.120	0.051
-438.763	135.371	-0.213	-0.281
-437.749	-200.000	-0.026	-0.172
-436.734	255.041	0.088	0.153
-435.719	800.000	-0.096	0.270
-434.705	26.890	0.158	-0.134
-433.690	-2.431	-0.217	0.154
-432.676	-152.172	-0.170	0.012
-431.661	193.623	0.161	-0.246
-430.646	-14.577	0.240	-0.156
-429.632	-200.000	-0.008	0.109
-428.617	53.821	0.019	-0.018
-427.603	-115.773	0.084	-0.016
-426.588	-196.132	0.441	0.003
-425.573	-131.909	0.258	0.034
-424.559	-200.000	0.016	0.277
-423.544	36.814	-0.105	-0.094
-422.530	371.433	0.071	-0.145
-421.515	-70.936	-0.252	-0.096
-420.500	69.773	-0.170	-0.177
-419.486	2.005	0.145	0.106
-418.471	-151.663	-0.097	0.007
-417.457	1.745	0.151	-0.110
-416.442	167.102	0.096	-0.137
-415.428	-88.229	0.188	0.057
-414.413	-200.000	-0.047	-0.208
-413.398	149.472	0.303	-0.415
-412.384	-152.638	-0.214	-0.015
-411.369	35.682	-0.206	0.183
-410.355	-200.000	-0.016	-0.294
-409.340	-200.000	0.037	-0.400
-408.325	321.688	0.089	0.170
-407.311	65.126	-0.200	0.204
-406.296	108.764	0.154	0.186
-405.282	-146.336	-0.218	0.019
-404.267	-98.408	-0.107	-0.028
-403.252	240.079	-0.131	0.221
-402.238	359.271	-0.128	-0.257
-401.223	5.654	-0.194	-0.145
-400.209	380.614	0.035	0.072
-399.194	52.620	-0.320	0.308
-398.179	-200.000	-0.039	-0.270
-397.165	-200.000	0.037	-0.183
-396.150	268.253	0.109	-0.192
-395.136	672.868	0.094	-0.246
-394.121	68.117	-0.054	-0.056
-393.106	-40.926	-0.223	-0.116
-392.092	-55.836	-0.323	-0.146
-391.077	-87.803	0.274	0.083
-390.063	-69.702	0.302	-0.116
-389.048	-42.535	-0.172	-0.088
-388.033	-87.207	0.074	0.023
-387.019	800.000	-0.050	-0.191
-386.004	-90.134	-0.341	-0.100
-384.990	-153.897	0.197	-0.014
-383.975	30.092	-0.106	0.091
-382.960	75.892	0.181	0.193
-381.946	28.068	0.076	0.065
-380.931	-59.848	-0.233	-0.101
-379.917	800.000	-0.026	0.088
-378.902	-96.765	-0.202	-0.053
-377.888	-83.280	-0.066	-0.021
-376.873	-131.883	0.082	0.011
-375.858	85.573	0.181	-0.201
-374.844	800.000	-0.060	-0.244
-373.829	-200.000	-0.038	0.175
-372.815	-99.488	-0.214	0.054
-371.800	-133.434	0.088	-0.011
-370.785	168.400	-0.150	-0.215
-369.771	-72.878	0.416	-0.154
-368.756	780.132	0.032	0.087
-367.742	800.000	-0.068	-0.229
-366.727	145.301	-0.102	0.137
-365.712	-90.179	-0.317	-0.093
-364.698	-90.357	0.212	-0.062
-363.683	154.367	-0.080	0.111
-362.669	-19.247	-0.107	0.067
-361.654	-134.090	0.369	0.046
-360.639	-5.094	0.063	-0.044
-359.625	60.007	-0.065	-0.064
-358.610	70.659	0.054	-0.056
-357.596	74.541	0.297	-0.314
-356.581	-3.053	0.066	0.047
-355.566	-109.815	0.227	0.048
-354.552	339.538	0.100	-0.197
-353.537	-130.582	-0.211	-0.029
-352.523	173.722	0.221	0.321
-351.508	70.972	-0.133	0.139
-350.493	-77.788	0.058	-0.020
-349.479	5.046	-0.211	0.156
-348.464	-200.000	0.034	-0.161
-347.450	-200.000	0.047	-0.292
-346.435	48.176	-0.166	-0.157
-345.420	198.449	-0.099	-0.153
-344.406	454.847	-0.072	-0.160
-343.391	-114.381	0.328	-0.064
-342.377	-200.000	0.034	0.191
-341.362	132.544	-0.233	0.303
-340.348	-200.000	0.016	0.168
-339.333	194.810	0.137	0.209
-338.318	-86.061	-0.306	0.095
-337.304	191.396	0.022	-0.034
-336.289	-26.884	0.043	-0.025
-335.275	58.884	-0.236	-0.234
-334.260	280.099	0.168	-0.303
-333.245	-134.457	0.195	-0.024
-332.231	-61.755	0.071	0.030
-331.216	-27.517	0.037	0.021
-330.202	463.289	-0.082	0.185
-329.187	800.000	-0.024	0.084
-328.172	644.714	-0.094	0.241
-327.158	139.101	0.090	-0.119
-326.143	800.000	0.065	0.243
-325.129	-200.000	0.009	0.173
-324.114	4.099	0.022	0.016
-323.099	223.606	0.141	0.229
-322.085	-200.000	-0.011	0.235
-321.070	448.890	0.085	0.189
-320.056	-200.000	0.018	0.148
-319.041	-161.318	-0.193	0.010
-318.026	592.241	0.112	-0.278
-317.012	205.852	-0.096	-0.151
-315.997	-22.425	0.250	-0.152
-314.983	-7.237	0.064	-0.044
-313.968	35.720	0.390	-0.345
-312.953	-200.000	-0.028	-0.408
-311.939	200.030	0.104	-0.161
-310.924	-49.561	0.254	-0.122
-309.910	24.728	0.235	0.195
-308.895	-200.000	-0.012	-0.086
-307.880	-157.689	0.234	-0.014
-306.866	-109.676	-0.362	-0.077
-305.851	-200.000	-0.038	0.312
-304.837	104.849	0.047	0.055
-303.822	515.167	-0.140	0.329
-302.807	52.800	-0.088	0.085
-301.793	103.384	-0.133	0.157
-300.778	-187.509	0.277	-0.004
-299.764	-200.000	0.112	-0.000
-298.749	-200.000	-0.055	-0.352
-297.735	24.997	-0.186	0.155
-296.720	72.895	-0.084	-0.088
-295.705	158.534	0.158	0.220
-294.691	800.000	0.069	0.206
-293.676	-124.256	-0.172	-0.027
-292.662	267.647	0.023	-0.041
-291.647	-16.136	-0.114	0.073
-290.632	-78.934	0.148	0.051
-289.618	-27.995	-0.292	-0.170
-288.603	-200.000	-0.024	0.275
-287.589	-200.000	0.070	0.320
-286.574	67.470	-0.070	-0.072
-285.559	-30.958	0.054	-0.030
-284.545	-167.734	-0.277	-0.011
-283.530	-77.196	-0.238	0.083
-282.516	-109.135	0.304	0.065
-281.501	-89.444	-0.055	-0.016
-280.486	13.231	-0.174	0.136
-279.472	-148.666	0.199	-0.016
-278.457	65.666	0.045	-0.046
-277.443	86.968	-0.157	-0.174
-276.428	-142.328	-0.227	0.023
-275.413	-54.705	0.058	0.026
-274.399	531.493	0.213	0.506
-273.384	59.178	0.022	-0.022
-272.370	800.000	-0.031	-0.092
-271.355	56.366	0.016	0.015
-270.340	785.995	0.118	0.325
-269.326	-56.694	0.549	-0.244
-268.311	800.000	0.085	0.340
-267.297	226.009	0.159	-0.259
-266.282	-200.000	-0.017	-0.100
-265.267	-29.853	0.115	-0.066
-264.253	245.675	-0.052	0.088
-263.238	-91.605	-0.263	-0.075
-262.224	489.580	-0.150	0.343
-261.209	800.000	-0.076	0.236
-260.195	-26.069	0.194	0.114
-259.180	-162.355	0.097	0.005
-258.165	-105.220	-0.135	-0.031
-257.151	-17.882	0.442	0.278
-256.136	800.000	-0.031	0.113
-255.122	27.146	-0.176	0.148
-254.107	283.294	0.112	-0.202
-253.092	-89.773	0.187	0.055
-252.078	-29.639	-0.111	-0.064
-251.063	13.867	0.085	-0.067
-250.049	-92.564	-0.284	0.080
-249.034	-26.612	0.256	-0.150
-248.019	-200.000	0.034	0.262
-247.005	-53.949	-0.348	0.159
-245.990	-90.941	-0.109	-0.031
-244.976	-17.463	-0.110	-0.069
-243.961	371.676	-0.078	0.160
-242.946	800.000	-0.027	0.083
-241.932	315.254	0.025	-0.048
-240.917	209.573	-0.140	-0.221
-239.903	280.610	-0.127	-0.228
-238.888	-16.625	0.456	0.289
-237.873	-72.970	-0.178	-0.066
-236.859	153.050	0.054	-0.075
-235.844	33.541	-0.255	0.223
-234.830	-200.000	-0.044	0.195
-233.815	366.870	0.061	-0.124
-232.800	232.361	-0.036	0.059
-231.786	3.143	0.148	-0.108
-230.771	24.460	-0.334	0.277
-229.757	-97.602	-0.134	-0.035
-228.742	-156.134	-0.292	-0.018
-227.727	-188.433	0.214	-0.003
-226.713	224.853	0.189	0.306
-225.698	-200.000	-0.028	0.148
-224.684	-200.000	0.020	0.209
-223.669	-200.000	-0.016	0.156
-222.655	52.369	-0.082	0.078
-221.640	591.977	-0.075	-0.185
-220.625	-129.707	0.222	-0.031
-219.611	-200.000	-0.038	-0.169
-218.596	800.000	0.061	-0.205
-217.582	151.864	0.303	0.413
-216.567	64.410	0.186	0.188
-215.552	800.000	-0.098	-0.282
-214.538	-75.044	-0.075	-0.027
-213.523	800.000	-0.031	0.129
-212.509	56.530	0.153	-0.149
-211.494	86.980	-0.332	-0.367
-210.479	-45.103	0.238	-0.118
-209.465	327.373	0.145	0.278
-208.450	-118.792	0.236	0.042
-207.436	67.156	-0.177	0.181
-206.421	-88.530	0.402	0.120
-205.406	-200.000	-0.019	0.201
-204.392	117.551	-0.297	-0.366
-203.377	-40.322	-0.125	0.065
-202.363	-200.000	-0.049	0.391
-201.348	-106.191	0.139	0.031
-200.333	-93.905	0.137	0.038
-199.319	-120.008	0.135	-0.023
-198.304	-200.000	-0.009	-0.153
-197.290	-85.931	0.282	-0.087
-196.275	-96.833	0.159	0.042
-195.260	800.000	-0.062	0.177
-194.246	-123.728	0.169	0.027
-193.231	339.189	0.162	0.316
-192.217	-200.000	-0.034	0.211
-191.202	-49.835	0.204	0.097
-190.187	339.398	0.062	0.121
-189.173	230.385	0.140	0.229
-188.158	548.391	-0.072	-0.172
-187.144	163.113	-0.119	0.167
-186.129	-200.000	0.043	0.219
-185.114	611.314	-0.124	0.310
-184.100	-200.000	-0.000	-0.068
-183.085	297.149	-0.097	0.178
-182.071	-113.446	-0.186	-0.036
-181.056	-128.018	0.185	0.027
-180.042	-60.830	0.035	-0.015
-179.027	-200.000	-0.019	0.132
-178.012	-75.520	-0.283	0.101
-176.998	10.065	-0.288	-0.219
-175.983	125.874	-0.089	-0.113
-174.969	27.432	-0.195	-0.164
-173.954	-119.775	0.363	-0.063
-172.939	-60.108	-0.348	0.148
-171.925	-40.339	0.104	0.054
-170.910	-116.204	-0.305	-0.057
-169.896	-54.468	0.210	-0.095
-168.881	-128.241	-0.079	0.011
-167.866	-88.696	-0.382	0.113
-166.852	-44.852	0.122	-0.061
-165.837	-147.656	-0.209	-0.018
-164.823	-23.445	-0.146	-0.088
-163.808	-113.234	-0.224	-0.044
-162.793	800.000	0.101	-0.327
-161.779	-103.134	-0.177	-0.042
-160.764	-115.244	0.196	0.037
-159.750	-127.847	-0.117	-0.017
-158.735	372.809	0.053	0.108
-157.720	-21.476	0.152	0.093
-156.706	104.689	0.138	0.162
-155.691	-82.393	-0.084	-0.027
-154.677	78.130	0.086	-0.091
-153.662	-33.778	0.322	-0.177
-152.647	-105.709	-0.129	0.029
-151.633	800.000	-0.105	0.431
-150.618	-70.177	0.089	0.034
-149.604	99.575	0.303	0.351
-148.589	717.897	0.057	-0.150
-147.574	-200.000	0.003	0.058
-146.560	-23.338	-0.075	0.045
-145.545	-156.691	0.110	0.007
-144.531	234.757	-0.081	-0.134
-143.516	171.609	-0.069	0.099
-142.502	162.165	-0.139	0.195
-141.487	308.747	0.055	0.102
-140.472	-82.462	-0.117	0.038
-139.458	229.714	0.056	0.091
-138.443	125.427	0.136	0.172
-137.429	355.013	-0.116	0.229
-136.414	243.344	-0.204	0.341
-135.399	-161.048	-0.234	0.012
-134.385	-79.207	0.027	0.009
-133.370	541.888	0.111	0.265
-132.356	-200.000	-0.042	0.468
-131.341	-200.000	0.020	0.141
-130.326	216.273	-0.059	-0.093
-129.312	800.000	0.066	-0.213
-128.297	-159.782	-0.356	0.020
-127.283	800.000	-0.062	0.245
-126.268	800.000	0.142	0.462
-125.253	81.137	-0.135	-0.145
-124.239	-147.409	0.200	-0.017
-123.224	665.889	0.072	0.185
-122.210	800.000	-0.024	0.103
