DTS Sentinel unit serial number:	SN413079Multiplexer serial number:	ORYXHardware model number:	OX4-SRSoftware version number:	ORYX F/W v4.00 Oryx Data Collector v3.7.2.0data status	okinstallation	princeton_trtdifferential loss correction	single-endedforward channel	channel 4reverse channel	N/Adate	2019/09/13time	04:05:35forward acquisition time	60.00reverse acquisition time	0.00gamma	496.2192k internal	0.2321k external	0.2321temperature offset calibration	1.0195default loss term (dB/km)	0.3790temperature slope calibration	1.0000multiplexer offset coefficient	1.0000multiplexer slope coefficient	1.0000fibre end	0.00T internal ref (°C)	26.94T ext. ref 1 (°C)	4.06T ext. ref 2 (°C)	21.28length (m)	temperature (°C)	Stokes	anti-Stokes-747.200	-200.000	-0.004	-0.105
-746.185	120.772	-0.182	0.229
-745.171	800.000	0.068	0.240
-744.156	250.902	0.061	-0.104
-743.142	-200.000	0.003	-0.069
-742.127	-200.000	-0.023	0.261
-741.112	-186.644	0.109	0.002
-740.098	-47.124	-0.247	-0.122
-739.083	-200.000	0.032	-0.172
-738.069	-105.089	0.103	0.024
-737.054	290.736	-0.074	0.137
-736.039	-48.596	-0.404	0.196
-735.025	-55.999	0.272	-0.122
-734.010	48.910	-0.095	-0.090
-732.996	-15.061	0.152	0.099
-731.981	263.976	0.060	-0.105
-730.966	800.000	-0.150	-0.440
-729.952	-135.222	-0.455	-0.055
-728.937	-86.748	-0.171	0.053
-727.923	57.995	-0.164	-0.162
-726.908	-176.871	0.281	-0.007
-725.894	800.000	-0.088	0.298
-724.879	84.886	-0.197	-0.218
-723.864	-151.098	-0.249	-0.019
-722.850	190.019	-0.096	-0.146
-721.835	-39.483	0.126	-0.066
-720.821	-181.783	-0.233	-0.005
-719.806	-101.532	0.170	0.042
-718.791	-200.000	0.012	0.069
-717.777	-129.006	-0.234	0.033
-716.762	-99.654	0.218	-0.055
-715.748	-125.697	0.273	-0.042
-714.733	358.426	-0.126	0.255
-713.718	-100.676	0.287	0.071
-712.704	42.037	-0.194	-0.177
-711.689	2.690	-0.254	-0.186
-710.675	326.312	0.132	0.256
-709.660	-7.627	-0.051	0.035
-708.645	-20.505	0.172	-0.107
-707.631	-163.898	0.105	0.005
-706.616	-50.803	-0.164	-0.078
-705.602	800.000	-0.082	0.232
-704.587	88.870	-0.136	-0.153
-703.572	-189.556	-0.336	-0.004
-702.558	-117.775	-0.111	-0.020
-701.543	528.883	0.117	0.279
-700.529	-121.998	-0.286	-0.048
-699.514	414.808	0.043	0.093
-698.499	-142.202	-0.382	-0.038
-697.485	-200.000	-0.019	-0.302
-696.470	112.790	-0.166	-0.203
-695.456	-115.388	-0.003	-0.001
-694.441	164.884	-0.201	-0.286
-693.426	737.768	0.036	0.096
-692.412	385.869	-0.060	0.125
-691.397	-200.000	-0.004	0.056
-690.383	-161.350	-0.305	0.016
-689.368	-200.000	-0.015	-0.411
-688.354	800.000	0.055	-0.242
-687.339	-0.266	-0.289	0.207
-686.324	-200.000	-0.006	-0.160
-685.310	-62.303	-0.286	-0.120
-684.295	-152.190	-0.186	-0.014
-683.281	-66.536	0.302	-0.121
-682.266	389.925	0.049	-0.103
-681.251	-20.192	-0.184	-0.114
-680.237	164.385	0.360	-0.512
-679.222	-125.386	-0.173	-0.027
-678.208	-200.000	-0.015	0.225
-677.193	10.160	-0.284	-0.218
-676.178	73.288	0.074	-0.078
-675.164	46.690	-0.112	-0.104
-674.149	20.215	0.131	0.107
-673.135	-70.731	0.049	0.019
-672.120	183.131	-0.158	-0.236
-671.105	-133.604	0.197	0.025
-670.091	-162.115	-0.262	-0.013
-669.076	-30.356	0.102	0.059
-668.062	-200.000	0.013	0.078
-667.047	-200.000	0.019	-0.117
-666.032	254.178	0.038	-0.065
-665.018	-200.000	-0.004	-0.136
-664.003	312.854	-0.115	-0.218
-662.989	800.000	-0.053	-0.230
-661.974	509.453	0.148	-0.345
-660.959	-103.025	0.118	0.028
-659.945	-200.000	0.052	-0.247
-658.930	217.463	0.218	-0.351
-657.916	-9.222	-0.117	0.079
-656.901	-162.769	-0.161	0.008
-655.886	-33.491	-0.077	-0.043
-654.872	-37.769	-0.289	-0.155
-653.857	112.842	-0.229	-0.280
-652.843	-200.000	-0.025	0.161
-651.828	-155.474	-0.133	0.009
-650.814	-57.304	0.309	-0.137
-649.799	-141.353	0.215	-0.022
-648.784	800.000	-0.056	0.177
-647.770	-63.308	-0.101	-0.042
-646.755	800.000	0.072	0.274
-645.741	800.000	0.030	0.091
-644.726	71.200	0.191	-0.200
-643.711	-158.538	-0.506	-0.029
-642.697	235.232	0.073	-0.122
-641.682	800.000	-0.013	0.055
-640.668	-17.716	-0.196	-0.124
-639.653	-200.000	-0.039	0.241
-638.638	-10.424	0.156	-0.104
-637.624	22.690	0.128	-0.105
-636.609	-104.541	-0.120	-0.028
-635.595	-97.678	0.415	0.108
-634.580	-45.828	-0.291	0.145
-633.565	153.083	0.186	0.256
-632.551	-200.000	-0.009	0.056
-631.536	-200.000	0.035	-0.306
-630.522	85.366	0.198	0.219
-629.507	587.908	0.171	-0.423
-628.492	-8.258	-0.235	0.159
-627.478	-200.000	-0.001	-0.267
-626.463	166.268	-0.212	-0.302
-625.449	2.381	-0.181	0.131
-624.434	-200.000	0.007	0.107
-623.419	40.286	-0.171	0.154
-622.405	-13.897	-0.306	-0.199
-621.390	6.344	0.099	-0.074
-620.376	-200.000	0.046	0.225
-619.361	-200.000	-0.512	-0.000
-618.346	-200.000	-0.020	-0.107
-617.332	-200.000	0.007	0.191
-616.317	47.073	-0.284	0.265
-615.303	-84.105	0.111	0.035
-614.288	65.929	0.120	-0.122
-613.273	144.683	-0.130	-0.174
-612.259	109.908	-0.075	-0.091
-611.244	-28.129	-0.059	-0.034
-610.230	-59.342	-0.251	-0.109
-609.215	-200.000	-0.016	0.104
-608.201	257.223	-0.093	0.160
-607.186	51.051	-0.201	-0.192
-606.171	-200.000	-0.025	0.248
-605.157	800.000	0.057	0.211
-604.142	-22.055	-0.206	-0.126
-603.128	-110.506	0.187	-0.039
-602.113	-200.000	-0.012	0.087
-601.098	-30.029	0.341	-0.195
-600.084	312.918	0.204	-0.385
-599.069	800.000	-0.091	-0.317
-598.055	-107.229	0.276	-0.061
-597.040	-68.028	0.125	-0.049
-596.025	48.764	0.253	-0.238
-595.011	-200.000	0.002	-0.047
-593.996	110.568	0.036	-0.043
-592.982	-57.644	-0.254	0.112
-591.967	-200.000	0.034	-0.279
-590.952	-197.812	-0.158	-0.001
-589.938	-200.000	-0.052	0.274
-588.923	235.989	-0.073	0.121
-587.909	13.802	-0.253	0.198
-586.894	-118.302	-0.351	0.063
-585.879	-44.571	0.264	-0.133
-584.865	91.440	-0.102	0.116
-583.850	125.134	-0.226	0.286
-582.836	-200.000	-0.029	-0.400
-581.821	-93.878	-0.182	-0.050
-580.806	-200.000	-0.003	0.063
-579.792	210.520	-0.105	0.165
-578.777	-60.463	-0.219	-0.093
-577.763	-98.753	0.263	-0.067
-576.748	800.000	-0.011	0.035
-575.733	-117.604	-0.220	0.040
-574.719	-155.427	0.364	0.024
-573.704	127.685	-0.098	0.125
-572.690	-119.707	0.324	-0.056
-571.675	800.000	0.073	-0.273
-570.661	222.537	0.145	-0.234
-569.646	-106.720	-0.164	0.037
-568.631	-135.289	0.365	-0.044
-567.617	-200.000	-0.028	-0.137
-566.602	295.585	-0.308	0.565
-565.588	693.240	0.027	0.071
-564.573	438.989	-0.148	-0.325
-563.558	43.293	-0.187	-0.171
-562.544	87.377	-0.170	0.189
-561.529	800.000	0.067	-0.188
-560.515	800.000	0.112	-0.351
-559.500	367.907	0.132	-0.268
-558.485	-51.497	0.164	-0.077
-557.471	-118.799	-0.136	-0.024
-556.456	-52.293	-0.175	-0.081
-555.442	-200.000	-0.054	-0.281
-554.427	142.108	0.201	-0.268
-553.412	58.260	0.188	-0.185
-552.398	241.303	-0.122	0.204
-551.383	-200.000	-0.003	-0.071
-550.369	-200.000	0.039	-0.279
-549.354	-102.522	-0.236	-0.057
-548.339	-200.000	-0.043	-0.218
-547.325	-95.593	0.222	0.060
-546.310	-57.508	-0.157	0.069
-545.296	52.041	0.149	0.143
-544.281	-64.251	-0.339	0.139
-543.266	800.000	0.048	0.136
-542.252	54.379	0.146	0.141
-541.237	-75.681	-0.241	-0.086
-540.223	363.404	-0.088	-0.176
-539.208	1.092	0.153	-0.110
-538.193	306.076	0.111	-0.207
-537.179	-182.779	0.119	-0.002
-536.164	-188.228	-0.378	-0.005
-535.150	800.000	-0.095	-0.367
-534.135	67.159	-0.166	-0.170
-533.121	-146.756	-0.080	-0.007
-532.106	-107.253	-0.193	0.042
-531.091	190.199	-0.135	-0.203
-530.077	-99.176	0.394	0.100
-529.062	-68.539	-0.239	-0.093
-528.048	-200.000	-0.019	-0.419
-527.033	246.586	-0.135	-0.229
-526.018	-146.707	0.262	0.023
-525.004	684.697	0.104	-0.271
-523.989	129.988	0.072	-0.092
-522.975	-9.575	0.214	0.143
-521.960	-200.000	0.015	0.235
-520.945	201.487	0.102	-0.157
-519.931	-105.640	0.266	-0.060
-518.916	-22.804	-0.165	0.100
-517.902	272.400	-0.047	0.084
-516.887	-48.099	0.201	0.097
-515.872	-109.815	-0.251	0.053
-514.858	-200.000	-0.018	0.361
-513.843	368.223	-0.077	-0.156
-512.829	-63.219	0.211	0.087
-511.814	100.999	0.174	0.202
-510.799	549.780	0.138	-0.330
-509.785	540.335	0.128	-0.306
-508.770	800.000	0.119	-0.375
-507.756	-131.037	0.300	-0.040
-506.741	-200.000	-0.002	-0.163
-505.726	-152.121	-0.078	-0.006
-504.712	-85.908	0.152	0.047
-503.697	163.682	0.103	-0.145
-502.683	260.757	-0.204	-0.353
-501.668	-122.932	0.228	0.037
-500.653	8.944	-0.118	0.089
-499.639	204.160	0.058	-0.091
-498.624	800.000	0.033	-0.116
-497.610	-200.000	0.058	-0.285
-496.595	-5.188	0.167	0.115
-495.581	36.014	0.162	0.142
-494.566	800.000	-0.049	0.162
-493.551	-141.284	0.101	-0.010
-492.537	209.903	-0.065	0.102
-491.522	-137.004	0.232	-0.027
-490.508	111.743	-0.148	-0.179
-489.493	49.159	0.211	-0.198
-488.478	101.020	-0.068	-0.079
-487.464	42.498	-0.189	0.172
-486.449	-200.000	0.019	0.270
-485.435	-50.587	-0.166	0.078
-484.420	-69.560	-0.302	0.116
-483.405	-90.148	-0.078	0.023
-482.391	-200.000	-0.011	-0.128
-481.376	800.000	0.067	0.187
-480.362	-1.381	-0.233	-0.164
-479.347	657.856	-0.023	-0.058
-478.332	-56.640	0.142	-0.063
-477.318	800.000	0.079	-0.240
-476.303	-200.000	0.018	-0.140
-475.289	800.000	0.054	0.212
-474.274	53.672	-0.045	-0.043
-473.259	-144.387	-0.130	0.012
-472.245	800.000	-0.082	-0.357
-471.230	241.645	0.188	-0.315
-470.216	-46.255	0.067	0.033
-469.201	646.888	-0.088	-0.224
-468.186	102.861	0.163	0.191
-467.172	-41.766	0.072	-0.037
-466.157	106.333	-0.216	-0.255
-465.143	800.000	0.054	-0.159
-464.128	-200.000	-0.017	-0.200
-463.113	162.138	0.070	0.098
-462.099	-83.094	0.176	-0.057
-461.084	-37.460	-0.189	0.101
-460.070	-119.546	-0.191	-0.033
-459.055	158.202	0.085	-0.117
-458.040	-103.543	-0.293	0.069
-457.026	800.000	-0.129	0.372
-456.011	181.089	-0.099	0.145
-454.997	171.170	-0.085	-0.122
-453.982	800.000	0.117	0.363
-452.968	424.496	0.061	0.132
-451.953	128.092	-0.056	0.072
-450.938	-155.963	-0.312	-0.020
-449.924	650.070	0.078	0.200
-448.909	-39.635	-0.396	-0.207
-447.895	-200.000	-0.016	-0.276
-446.880	-144.190	0.213	-0.020
-445.865	23.446	0.067	0.055
-444.851	800.000	0.014	0.054
-443.836	-200.000	0.000	0.071
-442.822	236.208	0.112	-0.185
-441.807	-55.397	0.122	0.055
-440.792	-182.549	0.125	-0.002
-439.778	-57.691	0.228	0.100
-438.763	-200.000	0.034	-0.200
-437.749	-79.536	0.150	-0.050
-436.734	229.996	0.234	-0.382
-435.719	-47.783	0.076	-0.037
-434.705	-7.008	-0.143	0.097
-433.690	-200.000	0.037	-0.311
-432.676	-114.816	-0.072	0.014
-431.661	130.260	0.240	0.307
-430.646	-92.775	-0.175	-0.049
-429.632	-200.000	-0.052	-0.284
-428.617	-47.869	-0.317	-0.153
-427.603	-200.000	0.006	0.545
-426.588	9.860	-0.283	0.215
-425.573	270.652	0.082	-0.145
-424.559	-200.000	-0.030	0.145
-423.544	299.696	0.026	0.048
-422.530	-68.630	0.179	0.069
-421.515	-64.754	0.178	0.072
-420.500	800.000	-0.020	0.076
-419.486	36.990	0.075	-0.066
-418.471	91.733	-0.083	0.093
-417.457	-200.000	0.035	0.162
-416.442	14.320	-0.023	-0.018
-415.428	708.672	-0.070	0.184
-414.413	-65.616	-0.171	0.069
-413.398	800.000	0.057	-0.168
-412.384	607.654	-0.111	0.277
-411.369	-200.000	-0.012	-0.178
-410.355	-101.721	-0.107	0.026
-409.340	635.856	-0.156	0.396
-408.325	456.132	-0.071	-0.158
-407.311	252.848	-0.282	0.481
-406.296	-163.726	-0.245	0.011
-405.282	-200.000	0.040	0.204
-404.267	-200.000	-0.004	-0.079
-403.252	118.588	-0.151	-0.185
-402.238	216.802	0.142	-0.226
-401.223	57.307	-0.414	-0.403
-400.209	-200.000	0.014	-0.238
-399.194	72.715	-0.174	-0.182
-398.179	-117.793	0.398	-0.071
-397.165	-200.000	-0.044	0.286
-396.150	32.342	-0.103	0.088
-395.136	-200.000	-0.044	0.408
-394.121	-17.243	0.095	0.060
-393.106	-174.475	-0.060	-0.002
-392.092	-9.524	0.053	0.036
-391.077	-157.521	0.410	-0.025
-390.063	800.000	-0.027	0.079
-389.048	-116.989	0.131	-0.024
-388.033	47.369	-0.084	-0.078
-387.019	100.753	-0.149	0.172
-386.004	622.457	0.038	-0.096
-384.990	-200.000	-0.093	-0.437
-383.975	-200.000	-0.016	-0.329
-382.960	-3.840	0.212	-0.147
-381.946	-200.000	-0.054	0.320
-380.931	-46.857	-0.312	0.152
-379.917	126.744	0.252	0.318
-378.902	800.000	-0.147	-0.445
-377.888	-90.433	0.244	-0.070
-376.873	-4.806	-0.229	-0.157
-375.858	-117.245	0.195	0.035
-374.844	146.771	0.153	0.204
-373.829	-200.000	0.005	0.315
-372.815	60.616	-0.171	0.169
-371.800	38.446	-0.151	0.134
-370.785	-53.674	-0.080	0.036
-369.771	-108.331	0.117	-0.025
-368.756	-61.271	-0.085	-0.036
-367.742	-53.526	-0.193	0.088
-366.727	-50.658	0.253	0.119
-365.712	-200.000	0.027	-0.351
-364.698	25.544	0.147	0.122
-363.683	678.426	0.089	0.230
-362.669	403.398	-0.083	0.174
-361.654	-200.000	0.005	0.087
-360.639	83.848	0.316	0.344
-359.625	-107.358	0.214	-0.047
-358.610	-59.367	-0.194	0.083
-357.596	48.733	-0.072	-0.068
-356.581	-13.250	0.091	-0.059
-355.566	94.493	0.057	-0.064
-354.552	141.749	-0.065	0.085
-353.537	-28.707	-0.100	0.057
-352.523	20.423	0.083	0.067
-351.508	42.332	0.105	0.095
-350.493	32.707	0.125	-0.107
-349.479	253.585	-0.041	0.070
-348.464	-152.675	0.243	-0.017
-347.450	65.804	-0.184	0.185
-346.435	58.268	0.121	-0.118
-345.420	-48.011	0.052	0.025
-344.406	-132.064	0.124	0.016
-343.391	-21.574	-0.253	-0.154
-342.377	86.240	-0.295	0.323
-341.362	-80.335	-0.084	-0.028
-340.348	-79.123	0.219	-0.074
-339.333	-200.000	-0.021	-0.144
-338.318	1.985	-0.169	-0.121
-337.304	-36.739	-0.303	-0.162
-336.289	180.022	-0.170	0.247
-335.275	-45.914	0.285	0.140
-334.260	-43.235	0.371	-0.187
-333.245	800.000	-0.080	0.259
-332.231	-125.285	0.230	0.035
-331.216	-73.599	0.118	0.043
-330.202	-200.000	0.021	-0.201
-329.187	-47.542	-0.441	0.213
-328.172	-28.877	-0.079	-0.045
-327.158	59.630	0.161	-0.158
-326.143	114.308	-0.076	-0.092
-325.129	-78.141	0.201	0.069
-324.114	-38.002	0.247	0.131
-323.099	181.952	-0.154	0.225
-322.085	-77.745	-0.213	-0.073
-321.070	88.790	-0.137	0.151
-320.056	-200.000	-0.005	0.141
-319.041	-0.292	0.141	0.100
-318.026	-13.992	0.043	0.027
-317.012	671.939	0.056	0.145
-315.997	27.860	-0.201	0.168
-314.983	218.622	-0.224	0.355
-313.968	-122.593	0.185	0.030
-312.953	-200.000	0.033	0.250
-311.939	-9.399	0.418	-0.277
-310.924	-54.171	0.394	0.178
-309.910	-113.619	0.106	-0.021
-308.895	21.882	0.245	0.198
-307.880	-164.932	-0.128	-0.006
-306.866	-200.000	0.032	0.367
-305.851	64.203	0.168	0.168
-304.837	-200.000	0.060	0.275
-303.822	-200.000	0.071	-0.394
-302.807	-109.689	0.335	-0.070
-301.793	800.000	0.061	0.218
-300.778	28.267	0.124	-0.104
-299.764	-200.000	-0.007	-0.446
-298.749	355.169	0.183	-0.362
-297.735	-200.000	-0.010	-0.067
-296.720	146.118	0.138	0.184
-295.705	-70.143	0.366	-0.138
-294.691	-120.807	0.365	-0.061
-293.676	26.068	0.119	-0.099
-292.662	74.298	-0.198	-0.206
-291.647	-55.421	0.160	0.071
-290.632	-200.000	0.006	-0.163
-289.618	-116.207	-0.324	0.060
-288.603	-200.000	0.022	0.203
-287.589	-93.764	0.167	0.046
-286.574	800.000	-0.054	-0.165
-285.559	122.668	-0.206	0.256
-284.545	800.000	0.040	0.144
-283.530	-31.521	-0.240	-0.134
-282.516	800.000	-0.057	0.186
-281.501	-165.317	0.056	0.002
-280.486	-21.434	-0.217	-0.132
-279.472	15.690	0.305	0.238
-278.457	-154.675	0.349	-0.023
-277.443	208.587	-0.248	0.385
-276.428	800.000	-0.129	-0.491
-275.413	-200.000	0.054	-0.324
-274.399	-52.439	0.127	-0.058
-273.384	273.918	-0.237	0.415
-272.370	-200.000	0.057	-0.311
-271.355	83.883	-0.282	0.305
-270.340	216.141	-0.219	0.345
-269.326	-116.838	0.369	0.067
-268.311	-131.530	0.287	-0.038
-267.297	-139.201	-0.141	-0.015
-266.282	262.367	0.092	-0.159
-265.267	800.000	0.066	0.219
-264.253	-128.895	-0.193	-0.027
-263.238	-51.747	0.189	-0.087
-262.224	-2.287	0.112	0.078
-261.209	55.697	-0.160	0.154
-260.195	-154.481	-0.381	-0.025
-259.180	46.627	-0.058	0.053
-258.165	9.960	-0.156	0.117
-257.151	-70.376	0.028	-0.010
-256.136	-4.730	0.105	0.072
-255.122	800.000	-0.091	0.355
-254.107	-156.419	-0.064	0.004
-253.092	800.000	0.119	-0.354
-252.078	329.331	-0.106	0.203
-251.063	60.467	0.193	-0.190
-250.049	-35.535	-0.278	0.150
-249.034	3.669	0.035	-0.026
-248.019	-200.000	-0.027	-0.173
-247.005	800.000	0.058	0.220
-245.990	-17.450	-0.324	0.202
-244.976	-130.522	0.251	0.034
-243.961	-78.250	-0.143	-0.049
-242.946	34.929	-0.078	0.068
-241.932	-24.362	0.121	0.071
-240.917	800.000	0.098	-0.343
-239.903	800.000	0.116	0.397
-238.888	-104.546	0.104	0.024
-237.873	73.224	0.087	-0.090
-236.859	800.000	0.065	-0.182
-235.844	-142.800	-0.299	0.029
-234.830	-73.242	-0.254	0.092
-233.815	417.234	0.106	0.225
-232.800	-60.869	0.166	0.070
-231.786	-34.521	-0.141	-0.077
-230.771	-93.500	0.070	0.019
-229.757	8.652	-0.168	-0.125
-228.742	-165.738	-0.279	-0.012
-227.727	303.450	0.090	0.165
-226.713	-57.203	-0.062	0.027
-225.698	-84.203	-0.458	0.144
-224.684	800.000	0.128	0.395
-223.669	39.792	-0.051	-0.045
-222.655	742.010	-0.156	-0.415
-221.640	800.000	-0.075	0.254
-220.625	800.000	-0.005	-0.014
-219.611	-77.138	0.375	-0.129
-218.596	800.000	0.063	0.190
-217.582	281.270	0.063	-0.111
-216.567	88.188	-0.196	0.216
-215.552	-83.158	0.039	-0.013
-214.538	800.000	0.037	0.139
-213.523	-200.000	-0.023	-0.164
-212.509	-200.000	0.039	-0.262
-211.494	-159.772	0.545	0.030
-210.479	800.000	0.046	0.177
-209.465	-200.000	-0.009	-0.108
-208.450	-52.999	0.281	0.128
-207.436	800.000	-0.048	-0.136
-206.421	-163.147	-0.365	-0.017
-205.406	-200.000	0.029	-0.125
-204.392	-91.005	-0.287	0.082
-203.377	78.759	-0.126	0.133
-202.363	-78.056	0.140	0.048
-201.348	61.571	0.026	-0.026
-200.333	748.903	0.105	-0.281
-199.319	-20.403	0.062	0.038
-198.304	41.105	-0.223	-0.200
-197.290	38.653	0.187	-0.165
-196.275	800.000	0.063	0.175
-195.260	-106.147	-0.208	0.046
-194.246	414.269	0.076	-0.161
-193.231	44.953	0.196	-0.178
-192.217	-59.638	-0.204	0.086
-191.202	211.989	-0.190	0.296
-190.187	-46.543	0.247	-0.120
-189.173	-43.319	0.258	0.129
-188.158	-200.000	0.020	-0.178
-187.144	-37.675	-0.076	0.040
-186.129	-29.928	0.221	-0.124
-185.114	102.596	0.112	-0.129
-184.100	-48.828	-0.264	0.125
-183.085	67.207	0.201	-0.203
-182.071	-200.000	-0.018	0.227
-181.056	-200.000	-0.050	0.333
-180.042	800.000	0.125	0.392
-179.027	179.236	0.133	-0.192
-178.012	32.534	-0.062	-0.053
-176.998	-117.927	0.142	0.025
-175.983	388.950	0.084	-0.171
-174.969	-95.170	-0.247	0.066
-173.954	-200.000	0.131	-0.001
-172.939	149.474	-0.086	-0.115
-171.925	-200.000	0.046	0.315
-170.910	445.959	-0.092	0.200
-169.896	800.000	0.030	0.099
-168.881	536.673	-0.083	-0.194
-167.866	-115.279	-0.115	0.021
-166.852	-164.586	0.233	0.010
-165.837	-111.918	-0.388	-0.077
-164.823	-47.844	-0.206	0.099
-163.808	-78.759	0.105	0.036
-162.793	50.937	-0.113	-0.105
-161.779	-182.881	0.263	-0.005
-160.764	18.858	-0.228	0.180
-159.750	44.412	-0.083	-0.076
-158.735	291.049	-0.226	0.407
-157.720	-132.465	0.065	0.008
-156.706	-200.000	0.074	0.363
-155.691	795.574	0.104	0.282
-154.677	380.673	0.114	-0.230
-153.662	177.097	0.194	-0.279
-152.647	150.266	0.121	-0.162
-151.633	-92.970	-0.114	-0.031
-150.618	-118.214	-0.108	0.019
-149.604	499.935	-0.160	0.364
-148.589	257.724	0.034	-0.058
-147.574	-136.318	0.402	0.046
-146.560	-200.000	-0.075	0.439
-145.545	131.265	0.186	0.235
-144.531	-19.454	-0.104	0.063
-143.516	107.162	0.115	0.135
-142.502	599.688	0.067	-0.164
-141.487	-200.000	-0.051	0.232
-140.472	164.389	0.086	0.120
-139.458	105.390	-0.116	-0.135
-138.443	410.133	-0.093	0.195
-137.429	735.687	-0.069	0.183
-136.414	-200.000	-0.016	0.186
-135.399	-151.228	0.145	-0.011
-134.385	128.136	0.124	0.156
-133.370	102.105	-0.120	0.138
-132.356	-130.478	-0.115	0.015
-131.341	-1.864	-0.169	-0.117
-130.326	-112.806	0.439	-0.086
-129.312	-200.000	0.008	-0.159
-128.297	-33.741	0.426	-0.232
-127.283	-200.000	0.020	-0.213
-126.268	-92.248	-0.379	0.105
-125.253	798.700	0.145	0.394
-124.239	-48.391	-0.275	-0.131
-123.224	-200.000	0.069	0.000
-122.210	-21.314	0.071	0.043
