DTS Sentinel unit serial number:	SN413079Multiplexer serial number:	ORYXHardware model number:	OX4-SRSoftware version number:	ORYX F/W v4.00 Oryx Data Collector v3.7.2.0data status	okinstallation	princeton_trtdifferential loss correction	single-endedforward channel	channel 4reverse channel	N/Adate	2019/09/15time	05:57:35forward acquisition time	60.00reverse acquisition time	0.00gamma	496.2192k internal	0.2311k external	0.2311temperature offset calibration	1.0038default loss term (dB/km)	0.3790temperature slope calibration	1.0000multiplexer offset coefficient	1.0000multiplexer slope coefficient	1.0000fibre end	0.00T internal ref (°C)	30.62T ext. ref 1 (°C)	4.87T ext. ref 2 (°C)	25.29length (m)	temperature (°C)	Stokes	anti-Stokes-747.200	800.000	-0.048	0.151
-746.185	-140.804	-0.070	0.007
-745.171	-103.102	0.429	0.103
-744.156	150.756	0.057	0.078
-743.142	-200.000	-0.025	-0.368
-742.127	222.585	-0.083	0.136
-741.112	-200.000	-0.020	0.167
-740.098	-200.000	0.011	0.183
-739.083	133.907	-0.138	0.181
-738.069	97.712	-0.121	-0.141
-737.054	-200.000	-0.014	0.196
-736.039	-0.527	-0.150	-0.108
-735.025	-19.824	0.085	-0.053
-734.010	123.930	-0.115	0.147
-732.996	104.039	-0.144	-0.172
-731.981	-200.000	0.007	0.136
-730.966	-114.060	-0.392	-0.077
-729.952	-26.377	-0.411	0.245
-728.937	25.895	-0.147	0.124
-727.923	-19.541	0.158	0.099
-726.908	-116.071	-0.482	0.091
-725.894	22.244	-0.156	0.129
-724.879	122.815	-0.047	-0.060
-723.864	-96.296	-0.196	0.053
-722.850	18.173	-0.150	0.121
-721.835	-169.206	0.141	0.005
-720.821	131.006	-0.132	0.172
-719.806	-180.295	0.358	-0.008
-718.791	800.000	-0.042	-0.135
-717.777	800.000	0.038	-0.164
-716.762	-118.537	-0.224	0.040
-715.748	79.204	0.184	-0.200
-714.733	19.466	-0.106	-0.086
-713.718	-140.642	-0.280	0.029
-712.704	158.880	0.042	0.059
-711.689	-42.977	-0.413	0.213
-710.675	-45.678	0.199	-0.100
-709.660	-200.000	0.054	-0.281
-708.645	-200.000	-0.003	0.069
-707.631	-200.000	-0.037	0.432
-706.616	-114.903	0.291	0.056
-705.602	-58.900	0.242	0.106
-704.587	292.082	0.130	0.240
-703.572	800.000	-0.051	0.207
-702.558	800.000	-0.028	-0.102
-701.543	-200.000	0.026	0.258
-700.529	-73.663	0.170	-0.063
-699.514	299.178	0.045	-0.084
-698.499	800.000	-0.032	0.139
-697.485	-17.706	-0.365	-0.232
-696.470	-200.000	-0.016	-0.173
-695.456	-72.060	-0.088	-0.033
-694.441	17.735	-0.187	0.151
-693.426	-70.933	-0.145	0.055
-692.412	-59.410	0.205	0.089
-691.397	-32.522	-0.147	0.083
-690.383	402.324	-0.027	-0.058
-689.368	-44.107	0.086	0.044
-688.354	25.031	-0.126	0.106
-687.339	-87.426	-0.370	-0.114
-686.324	-26.306	-0.184	-0.110
-685.310	122.675	0.160	-0.203
-684.295	-134.287	0.151	-0.019
-683.281	-135.581	-0.222	-0.027
-682.266	-133.007	-0.436	0.056
-681.251	224.600	0.046	-0.075
-680.237	-200.000	0.031	0.188
-679.222	3.837	-0.103	-0.076
-678.208	-28.900	0.220	0.128
-677.193	-16.997	0.159	0.102
-676.178	-180.920	0.156	0.003
-675.164	445.532	-0.036	-0.080
-674.149	-200.000	-0.044	0.311
-673.135	800.000	0.087	-0.266
-672.120	238.324	0.088	-0.148
-671.105	-124.411	0.249	0.039
-670.091	-7.168	-0.128	-0.088
-669.076	-56.408	0.093	-0.042
-668.062	-146.876	-0.196	0.017
-667.047	298.447	-0.128	-0.239
-666.032	72.605	-0.063	-0.066
-665.018	47.532	0.157	0.148
-664.003	-73.595	-0.155	0.057
-662.989	-100.638	-0.257	-0.064
-661.974	-103.384	-0.140	-0.033
-660.959	-166.528	0.135	-0.006
-659.945	-88.151	-0.368	0.112
-658.930	-64.417	-0.040	0.016
-657.916	-21.180	0.243	0.150
-656.901	-71.895	0.059	0.022
-655.886	-200.000	0.007	-0.477
-654.872	-88.443	-0.215	-0.065
-653.857	109.416	0.046	-0.056
-652.843	-74.221	0.131	-0.048
-651.828	-20.049	-0.178	0.111
-650.814	-137.774	-0.111	0.013
-649.799	43.799	0.066	0.061
-648.784	91.112	-0.226	0.257
-647.770	800.000	0.045	-0.143
-646.755	40.964	0.148	-0.136
-645.741	-38.048	0.341	-0.183
-644.726	-200.000	-0.005	-0.030
-643.711	453.850	0.095	-0.213
-642.697	-200.000	-0.011	-0.115
-641.682	-86.947	0.122	-0.038
-640.668	196.922	-0.058	-0.090
-639.653	-200.000	0.006	-0.039
-638.638	-11.772	-0.245	0.163
-637.624	-200.000	0.011	0.267
-636.609	-140.300	-0.247	-0.026
-635.595	36.820	0.167	0.149
-634.580	742.718	-0.051	-0.138
-633.565	263.819	0.028	0.049
-632.551	800.000	-0.081	0.286
-631.536	23.317	-0.149	0.124
-630.522	-141.431	0.399	-0.041
-629.507	800.000	-0.045	0.155
-628.492	-88.766	-0.220	-0.066
-627.478	-165.069	-0.229	0.010
-626.463	111.788	-0.138	-0.168
-625.449	800.000	0.029	-0.082
-624.434	45.793	0.151	-0.141
-623.419	800.000	0.079	-0.258
-622.405	-95.270	0.073	0.020
-621.390	-200.000	0.023	0.138
-620.376	213.628	0.185	-0.295
-619.361	646.312	-0.020	0.051
-618.346	235.783	0.080	-0.134
-617.332	178.805	-0.206	-0.305
-616.317	209.426	-0.148	0.234
-615.303	-200.000	0.011	0.097
-614.288	4.478	-0.263	-0.195
-613.273	-19.319	0.130	0.082
-612.259	-200.000	-0.028	0.347
-611.244	223.319	0.068	0.111
-610.230	-108.479	-0.194	0.042
-609.215	72.096	0.030	-0.032
-608.201	123.059	0.220	-0.278
-607.186	800.000	0.098	-0.386
-606.171	800.000	-0.075	-0.278
-605.157	-200.000	0.016	-0.245
-604.142	-200.000	0.106	-0.474
-603.128	-200.000	0.056	-0.281
-602.113	216.597	-0.103	-0.165
-601.098	446.961	-0.066	-0.146
-600.084	140.038	0.124	-0.165
-599.069	800.000	0.040	-0.165
-598.055	104.348	0.077	0.092
-597.040	107.169	-0.270	0.324
-596.025	74.335	0.161	-0.171
-595.011	263.932	-0.098	0.172
-593.996	-52.870	-0.139	-0.065
-592.982	89.798	0.144	0.162
-591.967	357.816	-0.255	-0.513
-590.952	-200.000	-0.064	-0.448
-589.938	-56.051	0.080	0.036
-588.923	800.000	0.035	-0.155
-587.909	45.320	0.203	0.189
-586.894	284.253	0.237	0.431
-585.879	174.320	-0.116	-0.170
-584.865	252.670	-0.069	-0.119
-583.850	63.122	-0.149	-0.151
-582.836	192.657	-0.093	0.141
-581.821	800.000	0.040	-0.174
-580.806	-44.494	-0.229	-0.116
-579.792	-89.265	0.348	-0.104
-578.777	303.481	-0.159	0.297
-577.763	-90.917	-0.121	-0.035
-576.748	-121.248	-0.239	0.040
-575.733	-200.000	-0.026	-0.215
-574.719	-56.262	-0.438	-0.196
-573.704	-165.468	0.416	0.018
-572.690	-91.254	-0.540	0.156
-571.675	311.293	-0.046	-0.086
-570.661	129.380	0.078	0.101
-569.646	318.551	0.040	0.076
-568.631	175.206	0.090	0.131
-567.617	25.793	-0.066	-0.055
-566.602	800.000	-0.099	-0.316
-565.588	151.452	0.070	-0.097
-564.573	40.066	-0.155	-0.140
-563.558	-127.219	0.218	0.032
-562.544	-37.434	-0.382	-0.205
-561.529	800.000	-0.048	-0.183
-560.515	-200.000	0.003	0.333
-559.500	-89.786	0.219	0.065
-558.485	-92.891	0.177	0.050
-557.471	-200.000	0.004	0.148
-556.456	-102.413	-0.026	0.006
-555.442	49.101	-0.086	0.081
-554.427	-71.466	0.321	0.121
-553.412	-57.263	-0.166	0.074
-552.398	-88.469	-0.187	0.056
-551.383	109.224	-0.243	0.293
-550.369	-93.565	-0.096	0.027
-549.354	-160.170	-0.251	0.014
-548.339	-200.000	0.246	0.001
-547.325	-50.273	0.219	-0.104
-546.310	417.963	-0.197	0.423
-545.296	800.000	-0.062	-0.189
-544.281	389.859	0.118	0.246
-543.266	264.104	0.063	-0.110
-542.252	-10.657	0.163	-0.109
-541.237	-32.986	0.397	-0.222
-540.223	43.814	0.060	0.056
-539.208	-200.000	-0.015	-0.226
-538.193	-200.000	-0.003	-0.474
-537.179	800.000	-0.107	0.429
-536.164	219.185	0.171	0.275
-535.150	614.377	0.017	0.044
-534.135	126.105	-0.125	-0.159
-533.121	-173.021	-0.251	0.008
-532.106	-139.510	0.162	0.017
-531.091	240.862	0.029	0.049
-530.077	-82.195	-0.241	0.079
-529.062	19.649	0.105	-0.085
-528.048	181.039	-0.149	-0.220
-527.033	84.149	-0.116	0.127
-526.018	-97.251	0.270	-0.071
-525.004	-200.000	-0.054	0.285
-523.989	-200.000	0.027	0.121
-522.975	-119.836	0.274	0.048
-521.960	-53.410	0.164	0.076
-520.945	147.373	-0.157	0.212
-519.931	125.108	0.158	-0.200
-518.916	63.708	-0.245	-0.248
-517.902	-78.300	0.174	-0.060
-516.887	-200.000	0.003	-0.145
-515.872	-200.000	0.075	0.394
-514.858	-125.884	-0.148	-0.022
-513.843	62.301	-0.127	-0.127
-512.829	-108.111	-0.025	-0.005
-511.814	-126.884	-0.179	0.027
-510.799	-104.026	-0.239	-0.056
-509.785	800.000	-0.023	-0.103
-508.770	800.000	-0.084	-0.287
-507.756	-4.753	-0.292	0.203
-506.741	181.782	-0.143	0.212
-505.726	-145.785	0.461	0.041
-504.712	-169.811	-0.145	-0.005
-503.697	52.590	0.258	-0.248
-502.683	69.065	-0.043	-0.044
-501.668	136.814	0.276	0.363
-500.653	-200.000	-0.009	-0.178
-499.639	800.000	0.035	0.098
-498.624	800.000	-0.040	0.115
-497.610	37.744	0.174	0.155
-496.595	607.876	-0.057	0.144
-495.581	-47.808	-0.161	0.078
-494.566	-75.670	-0.205	-0.073
-493.551	-50.338	-0.276	-0.131
-492.537	123.120	-0.110	-0.139
-491.522	-106.100	-0.294	-0.066
-490.508	-200.000	0.021	0.242
-489.493	-57.889	0.248	-0.109
-488.478	90.316	0.148	-0.166
-487.464	-45.306	-0.253	-0.126
-486.449	9.392	-0.122	-0.093
-485.435	121.030	-0.245	0.306
-484.420	800.000	0.055	-0.183
-483.405	62.118	-0.038	0.038
-482.391	108.927	0.100	-0.120
-481.376	-64.080	-0.040	0.016
-480.362	-68.982	-0.377	0.146
-479.347	575.774	0.065	0.160
-478.332	3.505	0.130	-0.095
-477.318	264.204	-0.066	-0.116
-476.303	-200.000	0.034	-0.159
-475.289	-125.366	0.062	-0.010
-474.274	-200.000	-0.022	0.214
-473.259	-200.000	-0.017	0.242
-472.245	-139.123	0.157	0.017
-471.230	-200.000	0.002	-0.350
-470.216	237.239	-0.143	-0.238
-469.201	-48.795	-0.212	-0.102
-468.186	-160.396	0.246	0.013
-467.172	-91.887	0.180	-0.051
-466.157	-50.986	-0.040	0.019
-465.143	112.674	-0.159	-0.193
-464.128	752.608	0.088	-0.239
-463.113	596.424	0.065	0.161
-462.099	800.000	-0.163	-0.470
-461.084	-110.174	-0.165	0.034
-460.070	373.817	0.048	0.097
-459.055	-120.510	-0.230	0.039
-458.040	-200.000	-0.012	0.080
-457.026	76.233	-0.202	-0.214
-456.011	-138.847	-0.417	0.046
-454.997	149.813	0.150	-0.204
-453.982	65.326	0.032	0.032
-452.968	37.452	0.155	0.138
-451.953	173.046	-0.163	-0.236
-450.938	-200.000	0.009	-0.353
-449.924	800.000	-0.137	0.536
-448.909	800.000	-0.049	-0.207
-447.895	478.782	0.104	0.236
-446.880	-62.057	0.181	-0.076
-445.865	800.000	-0.046	0.137
-444.851	139.597	0.173	0.228
-443.836	103.366	-0.183	-0.216
-442.822	-200.000	0.041	-0.193
-441.807	800.000	-0.046	-0.165
-440.792	-1.826	-0.267	0.189
-439.778	-200.000	-0.017	-0.372
-438.763	-169.914	-0.146	0.005
-437.749	421.068	0.092	-0.198
-436.734	-70.894	0.281	0.106
-435.719	-104.047	-0.132	-0.031
-434.705	19.654	0.180	-0.145
-433.690	-127.551	0.111	-0.016
-432.676	59.409	-0.094	0.093
-431.661	610.112	-0.046	0.116
-430.646	-200.000	-0.299	-0.001
-429.632	97.036	-0.098	0.113
-428.617	-164.219	-0.249	-0.011
-427.603	21.428	0.212	0.173
-426.588	-147.212	0.143	-0.012
-425.573	-129.596	-0.384	-0.053
-424.559	203.044	0.140	0.217
-423.544	120.698	0.101	0.126
-422.530	409.107	0.011	0.024
-421.515	386.765	0.177	-0.366
-420.500	800.000	-0.060	0.186
-419.486	-72.945	-0.375	0.138
-418.471	122.208	-0.110	-0.138
-417.457	38.872	0.024	-0.022
-416.442	-68.929	0.171	-0.066
-415.428	-200.000	-0.070	0.341
-414.413	-155.514	0.247	-0.016
-413.398	347.919	0.055	0.108
-412.384	-200.000	-0.019	-0.144
-411.369	167.668	-0.021	0.030
-410.355	-117.545	0.304	-0.055
-409.340	-30.836	-0.159	0.090
-408.325	3.329	0.043	0.031
-407.311	-37.326	-0.008	0.004
-406.296	78.561	0.212	0.227
-405.282	-69.551	-0.317	0.122
-404.267	800.000	0.107	-0.304
-403.252	-200.000	0.023	-0.102
-402.238	247.007	0.156	-0.263
-401.223	129.100	0.193	-0.246
-400.209	51.398	0.078	-0.074
-399.194	509.016	-0.104	-0.243
-398.179	292.670	-0.164	0.299
-397.165	-44.848	-0.100	-0.050
-396.150	800.000	-0.018	0.056
-395.136	-98.642	0.144	0.037
-394.121	800.000	-0.120	-0.417
-393.106	-50.340	0.182	-0.086
-392.092	-26.631	0.125	0.073
-391.077	-86.323	0.142	0.044
-390.063	800.000	0.040	0.175
-389.048	31.789	-0.197	0.170
-388.033	-12.056	-0.141	-0.093
-387.019	400.478	-0.128	-0.268
-386.004	-200.000	-0.015	-0.180
-384.990	213.117	0.032	-0.051
-383.975	346.686	0.263	-0.518
-382.960	57.883	-0.344	-0.337
-381.946	-200.000	-0.012	0.229
-380.931	92.025	-0.070	0.079
-379.917	-22.709	0.197	0.119
-378.902	512.852	0.113	0.263
-377.888	59.232	-0.248	0.244
-376.873	800.000	0.022	-0.086
-375.858	-144.263	-0.056	-0.005
-374.844	184.397	0.121	0.179
-373.829	800.000	0.093	0.388
-372.815	-15.554	0.303	0.194
-371.800	-136.523	-0.181	-0.021
-370.785	-126.213	0.113	0.017
-369.771	-14.734	0.153	0.098
-368.756	-200.000	0.026	0.142
-367.742	-49.741	-0.163	0.078
-366.727	-41.234	0.247	0.127
-365.712	8.711	0.105	0.079
-364.698	244.269	-0.332	0.557
-363.683	75.618	0.114	0.120
-362.669	800.000	-0.049	-0.184
-361.654	-200.000	0.004	0.223
-360.639	800.000	-0.113	0.321
-359.625	-117.263	-0.302	-0.055
-358.610	-95.505	0.276	-0.074
-357.596	-152.229	0.165	0.012
-356.581	-39.494	0.137	-0.072
-355.566	800.000	0.027	-0.079
-354.552	-109.432	0.240	0.051
-353.537	-139.255	0.200	0.022
-352.523	800.000	-0.056	0.199
-351.508	355.761	0.101	0.202
-350.493	113.202	0.124	0.151
-349.479	-159.611	0.138	0.008
-348.464	49.030	-0.170	-0.160
-347.450	57.129	0.069	-0.067
-346.435	201.696	0.190	-0.293
-345.420	26.382	0.081	0.068
-344.406	407.591	-0.133	-0.281
-343.391	-41.771	-0.232	-0.119
-342.377	800.000	-0.013	-0.039
-341.362	-200.000	0.005	-0.045
-340.348	800.000	-0.063	-0.243
-339.333	1.267	0.097	-0.070
-338.318	800.000	0.037	-0.159
-337.304	-50.381	-0.325	0.153
-336.289	-49.335	-0.288	-0.137
-335.275	-200.000	-0.029	0.291
-334.260	72.393	-0.162	0.169
-333.245	-200.000	-0.027	0.157
-332.231	3.024	0.196	0.142
-331.216	-200.000	0.040	-0.266
-330.202	569.280	0.017	-0.042
-329.187	-47.986	-0.333	0.161
-328.172	47.063	0.079	0.073
-327.158	556.020	-0.090	0.216
-326.143	800.000	0.047	-0.150
-325.129	-26.584	0.197	-0.115
-324.114	-39.977	0.187	0.097
-323.099	87.359	0.013	0.015
-322.085	-200.000	-0.014	-0.112
-321.070	49.863	0.095	-0.090
-320.056	-7.481	-0.026	0.018
-319.041	12.977	-0.152	-0.117
-318.026	-65.022	0.302	0.122
-317.012	16.993	-0.159	0.126
-315.997	-200.000	0.073	0.434
-314.983	-66.408	-0.159	0.063
-313.968	-11.742	0.266	0.174
-312.953	-93.357	-0.380	-0.105
-311.939	211.335	-0.146	-0.229
-310.924	-200.000	-0.009	0.217
-309.910	-12.103	0.339	-0.222
-308.895	800.000	0.110	-0.381
-307.880	106.905	-0.131	0.156
-306.866	800.000	0.054	-0.175
-305.851	800.000	0.046	-0.183
-304.837	-200.000	-0.006	0.291
-303.822	-131.050	0.392	0.052
-302.807	-56.653	-0.328	0.145
-301.793	5.620	0.179	0.132
-300.778	-170.769	0.438	0.015
-299.764	6.458	-0.050	0.037
-298.749	-104.249	0.064	-0.015
-297.735	-91.760	-0.018	-0.005
-296.720	-200.000	0.013	-0.341
-295.705	1.743	-0.053	-0.038
-294.691	-200.000	0.010	-0.142
-293.676	-165.775	-0.216	0.009
-292.662	-200.000	0.015	0.210
-291.647	800.000	0.048	0.146
-290.632	-94.249	-0.296	-0.081
-289.618	-115.307	0.254	0.048
-288.603	800.000	-0.072	0.270
-287.589	-200.000	0.042	0.328
-286.574	-134.868	-0.358	-0.043
-285.559	170.045	0.151	0.216
-284.545	800.000	-0.077	0.273
-283.530	-7.249	-0.233	-0.158
-282.516	-200.000	-0.003	0.061
-281.501	-33.247	-0.390	-0.215
-280.486	550.775	0.048	-0.114
-279.472	-64.473	-0.326	-0.132
-278.457	-178.272	0.212	0.005
-277.443	193.698	-0.072	0.109
-276.428	775.065	0.030	0.081
-275.413	-164.266	0.234	-0.011
-274.399	192.347	0.122	-0.184
-273.384	-18.785	0.194	-0.120
-272.370	-200.000	-0.070	-0.347
-271.355	129.322	-0.142	0.181
-270.340	367.168	0.040	0.081
-269.326	51.120	-0.049	-0.047
-268.311	-200.000	-0.008	0.499
-267.297	-166.532	0.470	0.020
-266.282	247.392	0.066	0.111
-265.267	-108.537	-0.323	-0.069
-264.253	365.774	0.098	-0.197
-263.238	-200.000	0.016	-0.229
-262.224	350.775	-0.036	-0.072
-261.209	800.000	0.120	0.390
-260.195	-115.689	0.235	0.044
-259.180	-135.516	0.290	-0.034
-258.165	-200.000	-0.015	-0.127
-257.151	-81.131	0.055	-0.018
-256.136	148.601	0.028	-0.038
-255.122	-66.770	-0.059	-0.023
-254.107	-157.157	-0.175	-0.011
-253.092	-46.122	-0.155	-0.076
-252.078	48.035	0.130	0.121
-251.063	800.000	0.043	0.168
-250.049	-116.380	0.295	0.054
-249.034	46.579	0.102	-0.094
-248.019	253.177	-0.136	-0.231
-247.005	-150.325	0.555	0.043
-245.990	148.161	-0.108	-0.145
-244.976	768.618	-0.094	0.256
-243.961	-143.848	0.501	0.047
-242.946	135.024	0.145	-0.188
-241.932	-3.930	0.091	0.063
-240.917	-98.021	-0.141	-0.036
-239.903	264.264	0.092	-0.159
-238.888	-119.377	-0.179	-0.031
-237.873	500.824	0.136	-0.313
-236.859	371.374	-0.101	-0.203
-235.844	228.970	-0.215	0.349
-234.830	313.296	0.092	0.172
-233.815	668.994	0.055	-0.141
-232.800	-129.180	-0.127	0.018
-231.786	-24.662	-0.142	-0.084
-230.771	-200.000	0.018	0.230
-229.757	459.170	0.063	0.140
-228.742	800.000	0.027	0.084
-227.727	533.363	0.236	-0.557
-226.713	257.392	0.135	-0.231
-225.698	-28.486	-0.281	-0.161
-224.684	-102.367	-0.329	0.078
-223.669	800.000	-0.046	-0.157
-222.655	-200.000	0.019	0.347
-221.640	349.607	-0.064	0.126
-220.625	800.000	-0.068	0.218
-219.611	-1.034	-0.235	-0.166
-218.596	-200.000	-0.025	0.291
-217.582	-200.000	-0.005	-0.103
-216.567	-70.369	-0.216	-0.081
-215.552	-39.893	-0.101	0.052
-214.538	-59.508	0.216	0.092
-213.523	-95.716	0.629	0.167
-212.509	-107.023	0.107	-0.023
-211.494	-79.368	0.222	-0.075
-210.479	305.326	0.146	-0.270
-209.465	-3.027	0.259	0.180
-208.450	-122.584	-0.217	0.035
-207.436	-107.417	-0.336	-0.073
-206.421	322.548	0.259	-0.490
-205.406	451.093	-0.140	0.308
-204.392	-25.233	0.248	0.146
-203.377	21.626	-0.168	0.136
-202.363	-71.167	0.312	-0.117
-201.348	800.000	-0.073	-0.291
-200.333	-132.762	0.092	0.012
-199.319	800.000	0.056	-0.204
-198.304	-141.687	0.106	0.011
-197.290	243.451	-0.132	0.219
-196.275	-38.228	0.167	-0.088
-195.260	-116.517	0.082	-0.015
-194.246	-7.705	0.230	-0.154
-193.231	277.772	-0.152	-0.269
-192.217	-200.000	-0.014	0.108
-191.202	-200.000	-0.008	0.166
-190.187	-104.595	-0.181	-0.041
-189.173	52.551	0.337	0.320
-188.158	-120.799	-0.230	0.038
-187.144	-45.846	0.087	0.043
-186.129	-119.406	-0.027	0.005
-185.114	-39.284	-0.294	-0.153
-184.100	30.869	-0.163	0.139
-183.085	-166.132	-0.174	-0.007
-182.071	27.497	0.100	0.083
-181.056	-36.579	0.165	-0.088
-180.042	800.000	-0.010	-0.031
-179.027	-39.984	0.300	-0.155
-178.012	800.000	0.047	0.176
-176.998	-99.267	-0.357	0.090
-175.983	58.630	-0.108	-0.106
-174.969	-57.443	-0.180	-0.079
-173.954	-60.366	-0.060	-0.025
-172.939	-150.211	0.273	0.021
-171.925	-6.622	0.315	0.213
-170.910	-132.583	0.322	0.041
-169.896	-200.000	-0.092	0.524
-168.881	-45.443	-0.129	-0.063
-167.866	103.474	0.086	0.100
-166.852	98.101	0.175	0.200
-165.837	-88.015	-0.043	-0.013
-164.823	-54.832	0.185	0.083
-163.808	-33.907	-0.134	0.073
-162.793	-72.674	-0.157	-0.058
-161.779	286.939	0.134	0.240
-160.764	-85.140	-0.128	-0.040
-159.750	-200.000	-0.036	0.340
-158.735	-99.032	-0.098	0.025
-157.720	800.000	-0.086	0.359
-156.706	377.237	0.231	0.468
-155.691	-50.769	0.257	0.120
-154.677	800.000	-0.075	-0.219
-153.662	800.000	-0.105	0.381
-152.647	-149.700	-0.231	0.018
-151.633	-71.271	0.049	-0.018
-150.618	-200.000	-0.035	0.255
-149.604	800.000	-0.065	0.259
-148.589	-144.302	0.229	-0.021
-147.574	500.063	-0.012	-0.027
-146.560	363.752	-0.103	0.205
-145.545	308.029	-0.106	0.197
-144.531	176.625	0.063	0.091
-143.516	39.897	0.128	0.114
-142.502	168.702	0.181	0.256
-141.487	-82.614	0.125	-0.040
-140.472	-90.340	-0.218	0.063
-139.458	688.843	-0.032	-0.084
-138.443	106.101	0.250	-0.293
-137.429	-200.000	-0.028	-0.278
-136.414	438.645	-0.082	-0.176
-135.399	117.627	0.151	-0.184
-134.385	19.686	0.272	-0.217
-133.370	65.723	0.167	-0.168
-132.356	308.255	-0.107	-0.198
-131.341	-200.000	0.053	-0.323
-130.326	-154.812	-0.062	0.004
-129.312	666.309	0.153	-0.392
-128.297	-15.843	0.263	-0.166
-127.283	547.732	0.097	-0.231
-126.268	83.029	0.168	0.181
-125.253	-200.000	0.388	0.001
-124.239	-165.830	0.141	-0.006
-123.224	-93.015	0.058	0.016
-122.210	-31.634	0.131	-0.073
-121.195	172.451	-0.099	0.141
