DTS Sentinel unit serial number:	SN413079Multiplexer serial number:	ORYXHardware model number:	OX4-SRSoftware version number:	ORYX F/W v4.00 Oryx Data Collector v3.7.2.0data status	okinstallation	princeton_trtdifferential loss correction	single-endedforward channel	channel 4reverse channel	N/Adate	2019/09/19time	05:41:35forward acquisition time	60.00reverse acquisition time	0.00gamma	496.2192k internal	0.2340k external	0.2340temperature offset calibration	1.0027default loss term (dB/km)	0.3790temperature slope calibration	1.0000multiplexer offset coefficient	1.0000multiplexer slope coefficient	1.0000fibre end	0.00T internal ref (°C)	19.30T ext. ref 1 (°C)	0.58T ext. ref 2 (°C)	12.78length (m)	temperature (°C)	Stokes	anti-Stokes-747.200	21.859	0.115	-0.094
-746.185	117.000	0.151	0.186
-745.171	-200.000	0.000	0.106
-744.156	800.000	0.092	0.385
-743.142	-200.000	0.004	0.050
-742.127	73.719	-0.177	-0.186
-741.112	-200.000	0.045	0.232
-740.098	194.019	-0.213	0.324
-739.083	19.856	0.195	-0.157
-738.069	-93.867	-0.286	-0.079
-737.054	74.136	0.258	0.271
-736.039	-69.018	-0.328	0.127
-735.025	47.958	0.169	-0.158
-734.010	-42.604	-0.368	-0.188
-732.996	214.544	-0.159	-0.253
-731.981	-159.555	-0.367	-0.020
-730.966	-24.388	-0.102	-0.061
-729.952	71.757	-0.201	-0.210
-728.937	15.860	-0.245	0.193
-727.923	405.769	-0.114	0.241
-726.908	47.140	-0.220	-0.206
-725.894	-181.190	0.444	0.009
-724.879	40.586	0.085	0.076
-723.864	-200.000	-0.010	-0.187
-722.850	-26.218	-0.191	0.112
-721.835	-141.291	0.179	0.018
-720.821	-36.053	-0.101	0.054
-719.806	-49.218	-0.070	-0.033
-718.791	74.801	0.166	-0.175
-717.777	125.628	-0.093	-0.118
-716.762	-147.386	-0.185	-0.016
-715.748	85.399	0.077	0.085
-714.733	340.129	-0.053	0.104
-713.718	-127.493	-0.282	-0.041
-712.704	117.358	0.224	-0.276
-711.689	-44.012	-0.139	-0.070
-710.675	-35.632	-0.286	0.155
-709.660	-200.000	0.047	0.236
-708.645	191.720	0.193	0.292
-707.631	-200.000	0.051	-0.266
-706.616	-39.645	-0.149	0.078
-705.602	-133.930	-0.260	-0.032
-704.587	800.000	-0.033	-0.131
-703.572	-132.838	0.209	-0.027
-702.558	-137.230	0.149	-0.017
-701.543	-187.226	0.278	-0.004
-700.529	-200.000	0.034	0.254
-699.514	399.737	0.085	0.179
-698.499	54.254	-0.196	-0.188
-697.485	-51.087	0.048	-0.022
-696.470	800.000	0.073	0.245
-695.456	90.300	-0.090	0.101
-694.441	-83.282	-0.370	-0.119
-693.426	-106.052	0.482	-0.108
-692.412	-46.972	0.361	0.176
-691.397	-85.654	-0.300	-0.093
-690.383	16.886	0.242	0.192
-689.368	-200.000	0.011	-0.181
-688.354	-52.876	0.028	0.013
-687.339	-200.000	0.041	-0.243
-686.324	126.202	-0.109	-0.138
-685.310	-93.453	0.064	-0.018
-684.295	800.000	0.041	0.113
-683.281	66.074	-0.113	-0.115
-682.266	-105.736	-0.306	0.069
-681.251	-108.768	0.153	-0.033
-680.237	130.175	-0.181	0.232
-679.222	88.563	0.160	0.177
-678.208	-135.488	-0.227	0.027
-677.193	152.898	0.226	-0.308
-676.178	800.000	0.100	-0.306
-675.164	-41.898	-0.220	-0.113
-674.149	-200.000	0.002	0.054
-673.135	-38.525	0.068	0.036
-672.120	64.908	-0.056	-0.057
-671.105	-145.497	-0.070	-0.006
-670.091	-200.000	-0.003	0.046
-669.076	-200.000	0.002	-0.167
-668.062	-29.351	0.258	0.148
-667.047	26.104	0.088	0.073
-666.032	-122.132	-0.127	-0.021
-665.018	37.536	-0.144	0.127
-664.003	-86.085	-0.043	-0.013
-662.989	168.143	0.147	0.208
-661.974	632.434	-0.083	-0.210
-660.959	-200.000	-0.037	0.541
-659.945	-104.970	-0.429	0.098
-658.930	-200.000	0.020	-0.091
-657.916	76.885	0.153	-0.163
-656.901	10.988	-0.159	0.121
-655.886	-105.998	-0.322	0.073
-654.872	123.346	0.034	0.043
-653.857	54.369	0.326	-0.314
-652.843	800.000	-0.040	-0.134
-651.828	-99.215	-0.034	-0.009
-650.814	-45.117	0.107	0.053
-649.799	269.997	0.110	-0.193
-648.784	800.000	0.111	-0.319
-647.770	796.469	-0.063	-0.172
-646.755	439.036	-0.047	-0.103
-645.741	-10.182	-0.291	-0.193
-644.726	800.000	-0.047	0.190
-643.711	79.550	0.109	0.117
-642.697	-200.000	-0.025	0.547
-641.682	-20.481	0.104	0.064
-640.668	-96.074	0.333	-0.088
-639.653	-200.000	-0.063	0.294
-638.638	313.255	-0.105	0.196
-637.624	-87.220	-0.332	0.101
-636.609	154.502	0.065	-0.089
-635.595	-54.229	-0.291	-0.132
-634.580	-200.000	0.044	-0.331
-633.565	26.524	0.289	0.242
-632.551	-157.581	-0.503	0.030
-631.536	575.416	0.142	0.347
-630.522	-22.609	0.261	-0.157
-629.507	62.782	-0.127	-0.127
-628.492	-100.230	0.351	0.087
-627.478	-145.584	-0.277	-0.025
-626.463	-90.595	-0.188	-0.054
-625.449	-200.000	0.031	-0.144
-624.434	-181.908	-0.270	0.005
-623.419	-134.284	0.251	-0.031
-622.405	-73.117	0.100	0.037
-621.390	155.893	-0.200	0.276
-620.376	14.662	-0.122	-0.095
-619.361	-200.000	0.009	-0.079
-618.346	800.000	-0.075	0.264
-617.332	710.873	-0.126	-0.332
-616.317	104.100	-0.089	-0.104
-615.303	800.000	-0.067	0.196
-614.288	-123.964	-0.206	0.032
-613.273	32.309	-0.344	-0.296
-612.259	-135.915	0.359	0.042
-611.244	800.000	0.117	0.386
-610.230	74.345	-0.271	-0.284
-609.215	-127.714	-0.276	0.040
-608.201	-200.000	0.051	0.240
-607.186	-106.180	0.044	0.010
-606.171	33.643	0.348	-0.302
-605.157	-0.567	-0.079	0.056
-604.142	-3.611	0.234	0.162
-603.128	26.830	-0.096	-0.080
-602.113	800.000	-0.142	0.434
-601.098	209.458	0.128	0.199
-600.084	-200.000	0.037	0.177
-599.069	-98.035	0.073	-0.019
-598.055	27.039	0.110	-0.092
-597.040	-200.000	0.008	-0.292
-596.025	-200.000	0.054	0.312
-595.011	55.791	-0.064	0.062
-593.996	-114.683	-0.364	-0.069
-592.982	-200.000	-0.026	-0.139
-591.967	72.876	-0.132	0.138
-590.952	285.916	-0.148	0.267
-589.938	800.000	0.100	0.277
-588.923	-200.000	0.036	0.675
-587.909	-161.482	-0.276	-0.014
-586.894	-200.000	-0.045	-0.396
-585.879	484.315	0.034	0.077
-584.865	101.973	0.078	0.091
-583.850	304.005	-0.130	0.241
-582.836	130.694	0.068	-0.087
-581.821	-143.402	0.295	-0.028
-580.806	-200.000	-0.002	-0.391
-579.792	15.278	-0.316	-0.247
-578.777	39.435	0.101	-0.090
-577.763	-200.000	-0.039	-0.328
-576.748	-99.701	0.384	0.096
-575.733	90.488	-0.047	0.052
-574.719	-157.235	-0.112	-0.007
-573.704	-13.039	-0.085	-0.055
-572.690	800.000	-0.116	-0.409
-571.675	-92.682	-0.225	-0.063
-570.661	-24.053	-0.118	-0.070
-569.646	89.400	-0.157	0.174
-568.631	-200.000	0.014	-0.109
-567.617	-200.000	-0.028	-0.371
-566.602	41.329	0.083	-0.074
-565.588	63.368	0.118	-0.118
-564.573	76.828	-0.124	0.131
-563.558	70.305	0.124	-0.127
-562.544	4.427	0.234	0.171
-561.529	800.000	0.046	-0.177
-560.515	324.881	-0.046	0.088
-559.500	627.764	-0.175	0.440
-558.485	-200.000	0.019	0.151
-557.471	800.000	0.008	-0.029
-556.456	-40.185	0.127	-0.066
-555.442	-109.463	-0.311	0.065
-554.427	-68.534	-0.233	0.090
-553.412	178.855	0.307	-0.446
-552.398	800.000	0.052	0.197
-551.383	-181.895	-0.176	-0.003
-550.369	94.657	0.234	-0.265
-549.354	688.488	-0.044	-0.116
-548.339	-48.147	-0.262	0.126
-547.325	-148.235	0.175	-0.014
-546.310	800.000	0.058	-0.249
-545.296	-97.677	-0.330	0.085
-544.281	138.565	-0.153	0.199
-543.266	59.370	-0.161	-0.157
-542.252	-31.258	0.166	0.093
-541.237	-200.000	-0.004	-0.102
-540.223	-200.000	0.053	0.398
-539.208	-33.687	0.130	-0.071
-538.193	45.061	0.288	-0.263
-537.179	800.000	0.212	-0.585
-536.164	800.000	-0.050	-0.168
-535.150	-22.116	0.051	-0.031
-534.135	-44.649	-0.135	0.067
-533.121	-121.130	0.148	0.025
-532.106	-21.836	-0.116	-0.070
-531.091	-83.201	0.217	-0.069
-530.077	85.945	0.129	-0.141
-529.062	-109.572	-0.261	-0.055
-528.048	765.181	-0.086	-0.233
-527.033	-200.000	0.023	-0.280
-526.018	-12.217	-0.135	0.088
-525.004	247.070	-0.150	0.251
-523.989	-57.374	0.071	0.031
-522.975	0.014	-0.285	-0.202
-521.960	-115.711	0.261	0.049
-520.945	172.479	0.131	0.187
-519.931	159.535	0.058	-0.080
-518.916	142.565	-0.197	0.261
-517.902	4.430	-0.201	-0.146
-516.887	88.937	-0.151	-0.166
-515.872	721.226	-0.071	-0.186
-514.858	-200.000	-0.011	0.279
-513.843	306.148	0.069	-0.127
-512.829	-56.072	0.213	0.094
-511.814	-200.000	0.014	-0.252
-510.799	53.149	0.059	0.056
-509.785	440.499	-0.016	0.035
-508.770	728.075	-0.149	-0.395
-507.756	133.517	0.032	-0.041
-506.741	-44.927	-0.344	-0.170
-505.726	-200.000	0.037	0.555
-504.712	-200.000	0.042	-0.183
-503.697	800.000	0.147	0.446
-502.683	800.000	0.062	-0.224
-501.668	117.552	-0.144	0.176
-500.653	308.489	-0.196	0.363
-499.639	-182.620	0.249	0.005
-498.624	270.618	-0.117	0.204
-497.610	800.000	0.040	-0.167
-496.595	-200.000	0.002	0.123
-495.581	-56.670	-0.067	-0.030
-494.566	-22.459	-0.187	-0.113
-493.551	800.000	0.045	-0.147
-492.537	-42.849	-0.204	-0.103
-491.522	249.638	-0.101	0.169
-490.508	-200.000	0.004	-0.103
-489.493	800.000	-0.040	-0.127
-488.478	-60.564	0.132	-0.056
-487.464	-200.000	-0.019	-0.223
-486.449	-26.003	0.089	-0.052
-485.435	800.000	0.115	0.336
-484.420	800.000	-0.079	0.300
-483.405	14.951	0.105	0.082
-482.391	-200.000	-0.028	0.163
-481.376	-46.369	-0.100	-0.049
-480.362	74.362	-0.116	0.121
-479.347	-200.000	0.090	-0.491
-478.332	165.976	0.090	-0.127
-477.318	0.425	-0.148	-0.105
-476.303	-82.702	-0.225	0.072
-475.289	483.499	-0.021	0.048
-474.274	-24.484	0.078	-0.046
-473.259	-56.310	-0.320	0.141
-472.245	-200.000	-0.011	-0.267
-471.230	-152.204	0.247	0.018
-470.216	-200.000	-0.053	0.265
-469.201	203.993	-0.051	0.078
-468.186	-58.372	-0.278	0.120
-467.172	800.000	-0.072	0.233
-466.157	-41.461	0.188	-0.096
-465.143	-25.386	0.333	0.195
-464.128	773.472	0.040	0.107
-463.113	-154.586	-0.046	-0.003
-462.099	-137.984	0.245	-0.027
-461.084	199.281	0.204	0.310
-460.070	82.394	-0.316	-0.340
-459.055	204.262	0.117	0.179
-458.040	68.837	0.288	0.293
-457.026	800.000	0.093	-0.350
-456.011	-84.686	-0.517	0.161
-454.997	-124.857	-0.214	-0.033
-453.982	-36.004	-0.366	-0.196
-452.968	344.467	0.111	0.216
-451.953	-69.000	-0.149	0.057
-450.938	-159.888	-0.176	0.010
-449.924	-84.409	0.181	-0.057
-448.909	-120.605	0.236	-0.040
-447.895	-97.603	0.310	-0.080
-446.880	99.051	-0.225	-0.258
-445.865	186.076	0.161	0.237
-444.851	800.000	0.049	-0.147
-443.836	58.055	0.157	-0.152
-442.822	-28.600	0.077	-0.044
-441.807	-63.033	0.239	-0.098
-440.792	-113.768	-0.077	-0.015
-439.778	-10.947	0.107	0.070
-438.763	-84.331	0.146	0.046
-437.749	-140.713	0.076	0.008
-436.734	-5.637	0.163	-0.111
-435.719	130.494	0.307	0.390
-434.705	-44.244	0.241	0.120
-433.690	-79.211	-0.025	-0.008
-432.676	183.538	-0.097	-0.142
-431.661	800.000	-0.105	0.320
-430.646	295.273	-0.122	0.220
-429.632	22.823	-0.046	0.037
-428.617	30.288	-0.096	-0.081
-427.603	63.577	0.104	0.104
-426.588	800.000	-0.061	-0.192
-425.573	325.650	0.114	0.215
-424.559	-109.689	-0.503	0.105
-423.544	800.000	-0.017	0.073
-422.530	53.099	0.041	0.039
-421.515	231.053	-0.007	0.011
-420.500	-129.354	0.473	-0.065
-419.486	-17.005	0.042	-0.026
-418.471	395.368	0.211	0.435
-417.457	-131.202	-0.130	-0.017
-416.442	484.723	0.025	0.056
-415.428	-87.057	-0.423	0.128
-414.413	-97.955	-0.156	-0.040
-413.398	800.000	-0.027	-0.092
-412.384	-160.689	-0.258	0.014
-411.369	139.051	0.044	0.057
-410.355	43.586	-0.248	-0.224
-409.340	130.994	0.110	0.139
-408.325	-44.314	-0.177	0.088
-407.311	-200.000	-0.001	-0.108
-406.296	-73.051	-0.032	0.012
-405.282	-200.000	-0.002	0.165
-404.267	28.087	0.406	-0.339
-403.252	412.427	0.087	0.184
-402.238	-65.916	0.222	0.088
-401.223	607.948	0.083	0.204
-400.209	-200.000	0.014	-0.165
-399.194	263.610	0.147	0.253
-398.179	800.000	0.092	0.390
-397.165	-55.398	0.133	0.059
-396.150	-28.289	-0.129	-0.073
-395.136	-188.961	-0.205	-0.002
-394.121	-4.016	0.111	0.076
-393.106	-71.523	0.164	0.061
-392.092	90.600	-0.136	-0.151
-391.077	-70.408	-0.365	-0.137
-390.063	57.189	0.048	0.047
-389.048	800.000	-0.066	-0.278
-388.033	-55.394	-0.202	0.089
-387.019	76.187	-0.119	0.125
-386.004	-200.000	-0.002	-0.186
-384.990	-156.830	0.534	0.032
-383.975	-90.802	0.271	0.077
-382.960	-34.401	-0.209	-0.113
-381.946	113.949	0.089	0.107
-380.931	-64.773	0.111	0.045
-379.917	153.354	0.047	0.063
-378.902	800.000	0.045	-0.189
-377.888	157.334	-0.010	-0.013
-376.873	-82.837	0.120	0.038
-375.858	142.820	0.055	-0.072
-374.844	-90.340	0.155	0.044
-373.829	717.566	-0.121	-0.318
-372.815	8.506	0.434	0.323
-371.800	-57.300	-0.143	-0.062
-370.785	95.029	0.208	-0.234
-369.771	-200.000	0.049	-0.314
-368.756	-200.000	-0.002	0.018
-367.742	-89.036	-0.132	-0.039
-366.727	-153.099	0.153	0.011
-365.712	139.051	-0.219	0.284
-364.698	-175.375	0.069	-0.002
-363.683	106.220	-0.188	0.220
-362.669	165.122	0.160	0.224
-361.654	-200.000	-0.009	-0.262
-360.639	-124.724	0.171	0.026
-359.625	327.875	-0.063	-0.119
-358.610	-139.753	-0.277	-0.029
-357.596	-200.000	-0.000	0.270
-356.581	-60.792	-0.069	0.029
-355.566	800.000	0.167	-0.549
-354.552	275.821	0.083	0.145
-353.537	-11.322	0.322	0.209
-352.523	24.360	0.190	0.155
-351.508	90.138	-0.085	0.094
-350.493	-50.939	0.132	-0.061
-349.479	105.474	-0.125	0.146
-348.464	346.871	-0.062	-0.120
-347.450	-28.476	0.071	0.040
-346.435	-88.569	0.407	0.120
-345.420	25.516	-0.171	0.140
-344.406	-141.516	-0.170	-0.017
-343.391	435.013	-0.112	-0.239
-342.377	1.476	0.031	0.022
-341.362	800.000	0.091	-0.271
-340.348	-28.051	-0.188	-0.107
-339.333	-200.000	-0.008	-0.169
-338.318	508.147	-0.165	0.378
-337.304	-161.261	0.129	0.007
-336.289	-168.580	-0.148	0.006
-335.275	-12.452	-0.019	0.013
-334.260	3.314	0.226	0.162
-333.245	-200.000	-0.011	-0.211
-332.231	-192.634	-0.220	-0.002
-331.216	-200.000	0.004	-0.185
-330.202	221.605	0.185	-0.293
-329.187	-53.771	-0.274	-0.123
-328.172	240.726	-0.069	-0.113
-327.158	-57.258	-0.154	-0.067
-326.143	43.275	-0.410	0.370
-325.129	-73.873	-0.028	0.010
-324.114	-29.288	-0.223	-0.126
-323.099	-90.862	0.036	0.010
-322.085	588.077	0.109	-0.264
-321.070	-200.000	0.025	0.226
-320.056	-55.316	-0.341	-0.151
-319.041	100.249	-0.199	-0.227
-318.026	0.665	0.299	-0.211
-317.012	30.775	-0.026	0.022
-315.997	319.065	-0.079	0.148
-314.983	130.945	0.048	-0.061
-313.968	78.746	-0.279	0.295
-312.953	225.511	0.138	0.221
-311.939	33.193	-0.301	0.258
-310.924	685.224	-0.037	-0.096
-309.910	-54.521	0.225	-0.100
-308.895	184.602	-0.100	-0.146
-307.880	-200.000	0.011	-0.131
-306.866	-200.000	0.015	-0.080
-305.851	-10.968	-0.307	0.200
-304.837	-128.377	-0.151	-0.021
-303.822	-139.006	-0.219	-0.023
-302.807	-164.631	0.138	-0.006
-301.793	800.000	-0.062	-0.251
-300.778	180.336	0.089	-0.129
-299.764	-188.645	-0.201	-0.002
-298.749	-39.654	-0.178	-0.092
-297.735	-153.065	-0.074	0.005
-296.720	-151.210	0.228	0.017
-295.705	263.455	-0.071	-0.121
-294.691	-132.409	0.217	-0.028
-293.676	800.000	0.094	0.341
-292.662	68.854	0.178	-0.180
-291.647	-82.002	0.310	0.100
-290.632	23.410	-0.398	0.323
-289.618	-114.744	-0.092	0.017
-288.603	-109.342	0.227	-0.047
-287.589	-108.107	0.378	-0.081
-286.574	-200.000	-0.012	0.328
-285.559	-39.020	-0.155	0.080
-284.545	662.567	-0.032	0.081
-283.530	568.867	-0.097	-0.232
-282.516	370.669	0.126	0.251
-281.501	60.385	0.112	0.109
-280.486	-125.988	0.273	-0.040
-279.472	-32.376	0.430	-0.236
-278.457	-200.000	-0.018	-0.219
-277.443	11.995	0.155	0.118
-276.428	256.472	0.140	-0.237
-275.413	-22.002	-0.060	-0.036
-274.399	-13.355	0.229	-0.146
-273.384	-200.000	0.135	0.000
-272.370	800.000	0.015	-0.046
-271.355	-152.158	0.311	0.022
-270.340	125.526	-0.115	-0.143
-269.326	8.026	-0.015	-0.011
-268.311	-55.190	0.023	-0.010
-267.297	121.135	-0.141	-0.173
-266.282	800.000	0.105	0.294
-265.267	-18.049	0.275	-0.170
-264.253	643.626	0.036	-0.090
-263.238	36.811	0.083	-0.073
-262.224	68.197	-0.270	0.272
-261.209	454.609	-0.062	0.135
-260.195	31.136	-0.059	-0.050
-259.180	-108.089	0.134	0.029
-258.165	800.000	-0.041	0.128
-257.151	35.747	0.203	-0.176
-256.136	-200.000	0.041	-0.194
-255.122	216.918	0.083	0.131
-254.107	11.527	-0.234	-0.176
-253.092	47.070	0.231	-0.211
-252.078	-200.000	0.015	0.141
-251.063	-31.013	0.050	-0.028
-250.049	-200.000	0.007	0.236
-249.034	800.000	-0.055	0.221
-248.019	173.263	-0.181	0.257
-247.005	155.377	-0.061	-0.083
-245.990	-97.006	0.266	0.069
-244.976	-66.678	-0.335	0.131
-243.961	121.492	0.193	0.236
-242.946	-118.922	-0.227	-0.039
-241.932	63.806	-0.066	-0.065
-240.917	-72.003	0.018	0.007
-239.903	264.331	-0.033	0.056
-238.888	77.931	0.167	0.175
-237.873	32.667	-0.069	0.059
-236.859	-19.643	0.135	-0.082
-235.844	800.000	0.061	0.221
-234.830	77.114	-0.192	0.201
-233.815	-120.398	-0.120	0.020
-232.800	-122.847	-0.175	0.028
-231.786	72.382	0.201	-0.206
-230.771	620.328	0.020	0.050
-229.757	-101.861	-0.141	0.034
-228.742	268.072	-0.071	0.122
-227.727	-56.677	-0.271	0.118
-226.713	-200.000	0.033	-0.227
-225.698	157.415	-0.091	0.124
-224.684	462.887	0.151	0.332
-223.669	-81.982	0.283	-0.091
-222.655	51.851	0.065	-0.060
-221.640	-200.000	0.034	-0.258
-220.625	191.854	-0.085	-0.126
-219.611	-99.859	-0.381	0.093
-218.596	37.230	0.241	-0.210
-217.582	-72.718	0.150	-0.054
-216.567	-123.370	0.101	-0.016
-215.552	-200.000	-0.032	-0.151
-214.538	800.000	-0.123	-0.469
-213.523	-200.000	0.013	0.079
-212.509	-81.624	0.429	-0.138
-211.494	125.943	0.170	-0.211
-210.479	43.882	-0.256	-0.230
-209.465	142.345	-0.259	0.338
-208.450	-118.052	-0.118	0.021
-207.436	-160.407	0.131	-0.007
-206.421	-74.590	-0.171	0.060
-205.406	-174.874	0.143	-0.004
-204.392	-69.649	0.063	-0.024
-203.377	-122.667	-0.060	-0.010
-202.363	-102.135	-0.162	-0.038
-201.348	197.656	-0.141	0.212
-200.333	-44.584	0.427	0.209
-199.319	-200.000	-0.014	0.127
-198.304	-26.860	0.310	-0.178
-197.290	-101.918	0.211	-0.050
-196.275	8.842	0.314	-0.232
-195.260	9.721	-0.155	0.115
-194.246	800.000	0.038	0.151
-193.231	-5.791	0.402	0.270
-192.217	-58.680	-0.166	0.070
-191.202	-200.000	0.006	0.036
-190.187	-139.290	0.406	-0.043
-189.173	338.997	0.122	-0.233
-188.158	-56.130	-0.440	0.192
-187.144	-67.966	-0.189	0.073
-186.129	-200.000	-0.023	-0.217
-185.114	38.109	-0.157	0.137
-184.100	-53.652	-0.129	-0.058
-183.085	100.614	0.056	-0.064
-182.071	292.209	-0.079	-0.141
-181.056	242.861	0.116	0.190
-180.042	-38.666	-0.138	0.071
-179.027	180.847	-0.110	-0.159
-178.012	800.000	-0.096	-0.292
-176.998	-116.864	0.335	-0.060
-175.983	196.816	0.073	-0.110
-174.969	236.081	0.103	0.167
-173.954	-200.000	0.014	0.127
-172.939	-200.000	0.033	0.157
-171.925	-91.157	0.257	0.072
-170.910	-145.272	0.319	0.028
-169.896	290.531	-0.140	-0.250
-168.881	364.490	-0.159	0.313
-167.866	-55.650	-0.346	0.152
-166.852	800.000	0.039	-0.124
-165.837	-200.000	0.000	-0.183
-164.823	67.096	-0.184	-0.184
-163.808	50.324	0.215	-0.199
-162.793	-32.772	-0.177	0.096
-161.779	186.985	0.152	0.223
-160.764	325.590	-0.066	-0.123
-159.750	800.000	-0.065	0.192
-158.735	-200.000	-0.003	0.034
-157.720	107.584	-0.138	-0.161
-156.706	17.897	0.196	-0.153
-155.691	-31.819	0.129	-0.071
-154.677	800.000	-0.103	-0.322
-153.662	351.940	0.055	-0.107
-152.647	372.450	0.079	-0.158
-151.633	-61.154	0.049	-0.020
-150.618	800.000	0.057	0.185
-149.604	800.000	0.077	-0.233
-148.589	80.752	-0.245	0.259
-147.574	-32.137	0.186	-0.102
-146.560	-176.648	-0.205	-0.005
-145.545	-200.000	-0.001	0.116
-144.531	-200.000	0.002	-0.013
-143.516	-112.534	0.326	0.064
-142.502	800.000	-0.087	-0.252
-141.487	800.000	0.131	-0.357
-140.472	-23.536	-0.209	-0.123
-139.458	-200.000	0.003	-0.093
-138.443	-200.000	-0.021	-0.197
-137.429	-57.682	0.226	0.097
-136.414	71.166	0.123	0.125
-135.399	-200.000	0.043	-0.280
-134.385	800.000	-0.057	-0.188
-133.370	-200.000	0.009	-0.214
-132.356	25.579	-0.126	-0.103
-131.341	-200.000	-0.002	-0.051
-130.326	21.039	-0.031	-0.024
-129.312	60.228	-0.086	0.084
-128.297	-30.808	-0.504	-0.279
-127.283	-102.666	-0.047	0.011
-126.268	-10.640	0.091	-0.059
-125.253	-85.323	-0.307	-0.094
-124.239	157.208	-0.193	0.261
-123.224	-148.380	0.454	0.036
-122.210	674.122	-0.029	-0.072
-121.195	-3.805	-0.138	-0.094
