DTS Sentinel unit serial number:	SN413079Multiplexer serial number:	ORYXHardware model number:	OX4-SRSoftware version number:	ORYX F/W v4.00 Oryx Data Collector v3.7.2.0data status	okinstallation	princeton_trtdifferential loss correction	single-endedforward channel	channel 4reverse channel	N/Adate	2019/09/14time	01:01:35forward acquisition time	60.00reverse acquisition time	0.00gamma	496.2192k internal	0.2324k external	0.2324temperature offset calibration	1.0129default loss term (dB/km)	0.3790temperature slope calibration	1.0000multiplexer offset coefficient	1.0000multiplexer slope coefficient	1.0000fibre end	0.00T internal ref (°C)	26.37T ext. ref 1 (°C)	3.17T ext. ref 2 (°C)	21.35length (m)	temperature (°C)	Stokes	anti-Stokes-747.200	-200.000	-0.004	0.150
-746.185	-200.000	0.033	0.181
-745.171	6.138	-0.195	0.146
-744.156	43.311	-0.146	-0.134
-743.142	-151.389	0.059	0.004
-742.127	-103.603	-0.187	0.044
-741.112	-68.680	0.072	0.028
-740.098	-82.996	-0.280	0.091
-739.083	-87.669	0.155	0.047
-738.069	40.173	-0.104	0.094
-737.054	800.000	0.088	-0.256
-736.039	-200.000	0.038	-0.256
-735.025	-200.000	-0.004	-0.149
-734.010	-27.681	-0.264	-0.155
-732.996	-120.888	-0.526	-0.089
-731.981	-125.907	0.421	0.064
-730.966	-145.755	-0.311	-0.028
-729.952	108.505	0.138	0.166
-728.937	-91.146	0.286	-0.083
-727.923	800.000	0.044	0.165
-726.908	-56.460	-0.396	0.177
-725.894	-200.000	-0.003	-0.038
-724.879	-23.105	0.210	-0.127
-723.864	41.148	-0.090	0.082
-722.850	188.381	-0.052	0.078
-721.835	75.900	-0.135	-0.144
-720.821	615.150	0.184	-0.464
-719.806	-165.689	-0.358	0.016
-718.791	85.205	-0.362	0.401
-717.777	603.709	0.078	0.196
-716.762	31.687	-0.086	-0.075
-715.748	83.565	-0.062	-0.068
-714.733	459.362	0.174	-0.391
-713.718	138.807	-0.159	-0.210
-712.704	-200.000	-0.024	-0.436
-711.689	-127.042	-0.245	0.036
-710.675	-200.000	-0.048	-0.224
-709.660	800.000	0.018	-0.073
-708.645	60.755	0.103	-0.103
-707.631	-200.000	0.014	0.066
-706.616	-54.640	-0.330	-0.150
-705.602	-200.000	-0.031	0.214
-704.587	-3.988	0.130	-0.091
-703.572	-144.448	0.206	-0.019
-702.558	-36.691	-0.216	0.117
-701.543	5.782	-0.155	-0.115
-700.529	94.337	-0.145	-0.166
-699.514	-61.623	0.221	0.094
-698.499	800.000	-0.031	0.117
-697.485	-29.340	-0.071	0.041
-696.470	-123.093	-0.224	-0.036
-695.456	259.905	-0.141	-0.245
-694.441	-62.964	0.158	-0.066
-693.426	-18.727	0.280	0.176
-692.412	-136.723	0.274	0.032
-691.397	45.365	0.234	-0.218
-690.383	-200.000	0.049	0.227
-689.368	-200.000	0.024	0.281
-688.354	120.916	-0.271	0.340
-687.339	144.086	0.124	0.167
-686.324	-61.041	-0.130	-0.055
-685.310	-14.705	-0.237	-0.154
-684.295	27.742	-0.110	0.093
-683.281	-47.025	-0.106	-0.052
-682.266	-112.921	-0.362	0.072
-681.251	395.901	0.028	0.059
-680.237	-66.445	0.340	-0.136
-679.222	-145.397	0.320	-0.029
-678.208	-55.618	-0.124	0.056
-677.193	-34.035	0.311	-0.172
-676.178	-200.000	-0.018	-0.391
-675.164	-118.597	-0.236	-0.042
-674.149	77.951	-0.186	-0.199
-673.135	-73.632	0.199	0.073
-672.120	-165.271	-0.294	-0.013
-671.105	-200.000	-0.033	0.255
-670.091	67.220	-0.145	-0.149
-669.076	-200.000	0.000	0.172
-668.062	800.000	0.022	0.088
-667.047	117.957	0.065	0.081
-666.032	581.579	0.039	0.095
-665.018	317.367	0.114	0.218
-664.003	-70.204	0.136	0.052
-662.989	278.325	0.103	-0.184
-661.974	-133.171	-0.265	-0.034
-660.959	6.842	-0.162	0.122
-659.945	800.000	0.021	-0.066
-658.930	-163.736	0.140	-0.007
-657.916	-92.660	-0.282	-0.079
-656.901	-95.285	-0.157	0.043
-655.886	-96.356	0.142	0.038
-654.872	-25.093	0.283	-0.168
-653.857	-200.000	-0.008	-0.102
-652.843	0.946	-0.189	-0.137
-651.828	57.397	-0.098	0.096
-650.814	-69.399	-0.167	0.065
-649.799	800.000	0.034	-0.112
-648.784	331.394	-0.171	0.332
-647.770	-125.995	-0.485	-0.073
-646.755	-200.000	0.039	0.275
-645.741	-200.000	-0.042	-0.197
-644.726	-200.000	0.043	-0.207
-643.711	-114.564	0.238	0.046
-642.697	-200.000	-0.018	-0.204
-641.682	30.212	0.275	0.236
-640.668	434.312	-0.122	-0.267
-639.653	-0.652	0.054	0.039
-638.638	-119.817	-0.160	0.028
-637.624	304.096	-0.053	0.099
-636.609	238.587	0.105	-0.175
-635.595	63.744	0.040	-0.040
-634.580	-132.960	-0.097	0.012
-633.565	13.033	0.090	-0.070
-632.551	800.000	-0.058	0.232
-631.536	36.408	-0.063	-0.056
-630.522	-50.215	-0.190	-0.091
-629.507	-99.794	0.217	0.055
-628.492	74.412	-0.283	0.298
-627.478	800.000	0.057	-0.220
-626.463	39.960	-0.127	-0.115
-625.449	-21.668	0.180	-0.110
-624.434	165.644	0.043	-0.061
-623.419	159.064	-0.111	0.156
-622.405	-18.735	-0.240	-0.151
-621.390	199.527	-0.195	0.301
-620.376	-200.000	0.031	-0.194
-619.361	639.629	0.084	0.214
-618.346	800.000	-0.091	-0.283
-617.332	-200.000	-0.039	0.203
-616.317	4.022	0.209	0.154
-615.303	429.017	-0.095	0.206
-614.288	75.757	-0.307	-0.326
-613.273	-18.582	-0.256	-0.160
-612.259	32.151	0.052	-0.045
-611.244	20.310	0.079	0.064
-610.230	89.628	-0.135	0.152
-609.215	-51.132	-0.163	-0.077
-608.201	-113.393	0.167	-0.033
-607.186	-144.288	0.220	0.021
-606.171	49.370	-0.071	0.067
-605.157	800.000	-0.050	0.174
-604.142	-37.299	-0.108	-0.058
-603.128	-200.000	-0.327	0.001
-602.113	-200.000	0.087	-0.522
-601.098	-62.237	0.368	0.154
-600.084	800.000	0.086	-0.311
-599.069	-200.000	0.013	-0.236
-598.055	-200.000	0.002	-0.117
-597.040	800.000	-0.052	0.200
-596.025	12.145	-0.216	0.167
-595.011	577.417	-0.076	0.185
-593.996	-148.687	0.457	0.037
-592.982	-48.932	-0.138	0.066
-591.967	-6.857	-0.244	-0.166
-590.952	125.992	0.174	0.221
-589.938	56.855	-0.137	0.134
-588.923	476.133	0.086	-0.195
-587.909	389.020	0.058	-0.121
-586.894	-132.239	-0.421	0.055
-585.879	81.794	-0.019	0.021
-584.865	133.457	0.122	0.158
-583.850	607.760	-0.141	0.354
-582.836	285.542	0.096	-0.173
-581.821	139.614	-0.029	0.038
-580.806	-200.000	-0.068	0.337
-579.792	-134.185	0.081	-0.010
-578.777	-19.824	-0.346	-0.215
-577.763	22.137	-0.174	-0.142
-576.748	11.822	-0.241	-0.186
-575.733	-167.956	0.368	-0.014
-574.719	-71.548	-0.358	0.134
-573.704	-200.000	-0.038	-0.350
-572.690	8.745	0.127	-0.096
-571.675	97.156	-0.177	0.203
-570.661	800.000	-0.053	0.192
-569.646	-4.947	0.167	0.115
-568.631	332.139	-0.146	-0.283
-567.617	-31.726	-0.271	0.152
-566.602	-88.067	-0.133	0.040
-565.588	218.916	-0.009	-0.014
-564.573	-54.973	0.137	0.062
-563.558	-200.000	-0.024	-0.267
-562.544	-120.925	-0.053	-0.009
-561.529	-128.960	0.300	0.042
-560.515	460.229	0.193	-0.432
-559.500	-200.000	-0.050	-0.340
-558.485	279.619	0.229	-0.409
-557.471	-76.333	-0.222	-0.078
-556.456	-35.109	-0.072	-0.039
-555.442	-158.580	0.271	-0.016
-554.427	800.000	0.051	0.198
-553.412	-39.299	-0.206	-0.108
-552.398	338.342	-0.067	0.131
-551.383	-141.811	-0.136	0.014
-550.369	421.096	-0.081	0.175
-549.354	8.424	-0.086	0.065
-548.339	231.209	0.268	0.440
-547.325	-200.000	0.148	-0.000
-546.310	682.116	-0.028	-0.074
-545.296	62.239	-0.206	-0.206
-544.281	328.748	-0.188	0.362
-543.266	-127.857	0.100	0.014
-542.252	-200.000	-0.045	-0.212
-541.237	174.054	0.048	-0.070
-540.223	-109.603	0.319	-0.067
-539.208	-27.558	-0.065	-0.038
-538.193	272.867	0.104	-0.184
-537.179	-200.000	0.004	-0.060
-536.164	-58.286	-0.239	-0.104
-535.150	46.750	0.171	-0.159
-534.135	114.724	-0.148	-0.180
-533.121	-119.638	-0.279	0.048
-532.106	274.516	0.163	0.290
-531.091	-200.000	0.043	0.335
-530.077	-200.000	-0.001	0.047
-529.062	-200.000	-0.002	0.069
-528.048	-22.611	0.172	-0.104
-527.033	-16.061	-0.155	-0.099
-526.018	499.272	0.145	-0.336
-525.004	-200.000	-0.040	0.195
-523.989	-200.000	-0.086	0.000
-522.975	-118.490	0.207	-0.037
-521.960	-200.000	0.008	-0.133
-520.945	-200.000	-0.014	0.209
-519.931	56.770	-0.329	0.321
-518.916	-117.804	-0.086	-0.016
-517.902	-200.000	-0.005	0.258
-516.887	131.174	-0.101	0.129
-515.872	-149.441	-0.134	-0.011
-514.858	468.667	-0.127	0.286
-513.843	205.188	-0.079	0.122
-512.829	149.283	-0.089	0.121
-511.814	735.878	0.135	0.363
-510.799	-3.640	0.059	-0.041
-509.785	162.096	0.115	-0.161
-508.770	-72.073	0.330	0.122
-507.756	-23.187	-0.128	-0.077
-506.741	11.311	0.018	-0.014
-505.726	-148.911	0.268	-0.022
-504.712	-126.549	-0.246	0.037
-503.697	-90.741	0.410	0.118
-502.683	57.077	0.063	0.062
-501.668	204.107	-0.062	-0.096
-500.653	-200.000	-0.060	0.264
-499.639	-81.560	0.350	0.115
-498.624	-5.662	0.292	-0.200
-497.610	-10.859	-0.043	0.028
-496.595	800.000	-0.024	-0.094
-495.581	-35.148	-0.154	-0.084
-494.566	-67.272	0.300	0.118
-493.551	13.283	0.194	-0.151
-492.537	46.477	0.256	-0.237
-491.522	800.000	0.038	0.150
-490.508	-39.095	-0.316	0.166
-489.493	-76.879	0.224	0.078
-488.478	-200.000	0.063	0.324
-487.464	-200.000	-0.013	-0.095
-486.449	121.471	0.018	0.023
-485.435	276.466	0.089	0.158
-484.420	103.799	0.106	0.124
-483.405	-14.336	-0.129	-0.083
-482.391	4.715	0.087	-0.064
-481.376	-43.495	-0.143	-0.072
-480.362	89.510	-0.072	0.080
-479.347	-36.377	-0.162	-0.087
-478.332	-111.698	0.213	-0.043
-477.318	-200.000	0.037	0.204
-476.303	-130.712	0.208	-0.028
-475.289	800.000	0.144	-0.501
-474.274	-200.000	0.043	-0.218
-473.259	-86.384	0.380	0.117
-472.245	-66.250	-0.200	0.079
-471.230	-114.320	-0.146	0.028
-470.216	129.119	0.199	-0.254
-469.201	-125.455	-0.201	-0.031
-468.186	-70.890	-0.053	-0.020
-467.172	42.749	-0.162	-0.148
-466.157	-200.000	-0.015	-0.069
-465.143	83.092	0.087	-0.094
-464.128	-67.737	-0.296	0.116
-463.113	-70.165	-0.139	0.053
-462.099	58.543	-0.110	0.108
-461.084	797.710	0.049	0.136
-460.070	-200.000	-0.033	0.345
-459.055	-111.599	-0.145	-0.029
-458.040	515.842	-0.066	0.153
-457.026	199.997	-0.036	0.055
-456.011	54.791	-0.092	0.088
-454.997	-200.000	0.050	0.256
-453.982	11.208	0.106	-0.081
-452.968	-122.492	0.253	0.041
-451.953	-68.200	-0.221	0.086
-450.938	76.121	-0.263	-0.278
-449.924	-140.164	0.064	0.007
-448.909	-200.000	-0.011	-0.195
-447.895	-194.680	0.125	-0.001
-446.880	-92.133	-0.208	-0.059
-445.865	-200.000	-0.012	-0.057
-444.851	-13.225	-0.199	-0.129
-443.836	32.210	-0.158	-0.136
-442.822	101.644	0.076	0.089
-441.807	234.087	-0.110	0.180
-440.792	693.397	0.044	0.116
-439.778	112.089	-0.108	0.130
-438.763	630.939	-0.066	0.167
-437.749	541.284	0.074	-0.176
-436.734	-73.073	0.250	-0.092
-435.719	-200.000	0.081	-0.443
-434.705	235.004	0.025	-0.041
-433.690	210.139	0.024	-0.038
-432.676	-200.000	-0.080	-0.357
-431.661	-108.054	-0.154	0.033
-430.646	800.000	0.111	0.391
-429.632	605.499	-0.120	0.298
-428.617	-200.000	-0.071	0.341
-427.603	699.052	0.121	-0.318
-426.588	-101.902	0.076	0.018
-425.573	800.000	-0.021	-0.074
-424.559	800.000	-0.062	-0.174
-423.544	-148.624	0.120	-0.010
-422.530	-65.925	-0.199	-0.079
-421.515	800.000	0.108	0.300
-420.500	-117.794	-0.340	-0.061
-419.486	-44.297	0.215	0.108
-418.471	168.678	0.232	-0.329
-417.457	-155.778	0.592	0.038
-416.442	198.585	-0.113	0.173
-415.428	-3.796	-0.074	0.051
-414.413	800.000	0.053	0.192
-413.398	-159.063	-0.103	0.006
-412.384	-8.534	-0.188	0.126
-411.369	-200.000	0.012	-0.072
-410.355	-200.000	-0.078	-0.355
-409.340	-106.866	0.255	-0.056
-408.325	800.000	-0.055	-0.217
-407.311	800.000	0.067	-0.195
-406.296	-39.312	-0.089	0.046
-405.282	800.000	-0.055	-0.214
-404.267	-136.928	0.348	0.040
-403.252	-162.394	0.182	-0.009
-402.238	-97.645	0.324	0.084
-401.223	30.329	0.169	-0.144
-400.209	32.447	-0.226	-0.195
-399.194	84.994	-0.233	-0.254
-398.179	-178.258	-0.178	0.004
-397.165	-42.147	-0.347	0.177
-396.150	70.715	0.149	0.154
-395.136	-85.721	0.300	-0.093
-394.121	-49.456	0.180	-0.086
-393.106	736.336	0.048	-0.129
-392.092	238.853	0.288	-0.476
-391.077	-138.399	0.114	-0.013
-390.063	508.218	-0.139	-0.321
-389.048	-200.000	-0.031	-0.155
-388.033	39.746	-0.217	-0.194
-387.019	-200.000	-0.027	-0.184
-386.004	-159.171	-0.043	0.002
-384.990	179.802	0.124	-0.181
-383.975	-97.994	-0.305	-0.078
-382.960	800.000	-0.116	0.425
-381.946	153.605	0.242	0.330
-380.931	-125.571	-0.283	0.043
-379.917	-94.517	-0.075	0.020
-378.902	10.624	0.036	0.027
-377.888	-134.255	-0.197	-0.024
-376.873	213.833	0.224	-0.352
-375.858	-200.000	-0.006	-0.106
-374.844	-169.656	-0.207	0.007
-373.829	-172.725	-0.158	0.005
-372.815	-12.896	0.285	0.184
-371.800	-200.000	-0.008	0.177
-370.785	800.000	0.072	0.206
-369.771	-130.206	-0.188	0.026
-368.756	800.000	0.055	0.183
-367.742	-3.398	-0.099	-0.068
-366.727	-174.896	0.189	-0.005
-365.712	222.108	-0.162	0.260
-364.698	800.000	0.052	0.224
-363.683	14.413	0.216	0.168
-362.669	-133.433	-0.253	0.032
-361.654	-99.368	-0.394	0.099
-360.639	-100.898	-0.123	-0.030
-359.625	297.488	-0.082	-0.149
-358.610	-116.174	-0.193	-0.036
-357.596	-96.354	0.158	0.042
-356.581	70.954	-0.116	-0.119
-355.566	374.783	-0.049	0.099
-354.552	5.262	-0.104	-0.076
-353.537	534.306	-0.093	0.220
-352.523	155.402	-0.202	0.276
-351.508	160.832	0.247	0.343
-350.493	435.639	-0.126	0.272
-349.479	-94.520	-0.534	-0.145
-348.464	36.212	0.087	0.076
-347.450	-138.944	-0.074	-0.008
-346.435	582.974	-0.110	-0.269
-345.420	83.762	-0.187	0.202
-344.406	-200.000	0.034	-0.227
-343.391	-178.596	0.182	0.004
-342.377	-150.315	-0.312	0.024
-341.362	305.740	0.146	-0.269
-340.348	-145.452	-0.196	0.018
-339.333	-26.042	0.138	0.081
-338.318	-200.000	0.026	0.200
-337.304	-62.213	-0.327	-0.135
-336.289	-43.616	0.239	0.120
-335.275	-200.000	-0.042	-0.314
-334.260	-13.308	0.135	0.087
-333.245	-2.542	0.128	-0.089
-332.231	-17.528	-0.288	-0.180
-331.216	534.836	0.014	0.032
-330.202	196.186	-0.184	-0.278
-329.187	117.077	0.149	0.182
-328.172	-200.000	-0.015	-0.145
-327.158	-29.694	-0.189	0.107
-326.143	94.137	-0.158	-0.178
-325.129	800.000	-0.110	0.314
-324.114	18.437	0.207	0.164
-323.099	-44.819	0.272	-0.135
-322.085	-17.560	-0.129	-0.080
-321.070	120.732	-0.173	-0.214
-320.056	-76.136	-0.345	0.121
-319.041	215.981	0.124	0.196
-318.026	-79.343	0.120	-0.040
-317.012	-200.000	-0.018	-0.298
-315.997	-191.824	-0.055	-0.001
-314.983	52.351	-0.182	-0.173
-313.968	-43.878	0.249	-0.124
-312.953	138.465	-0.266	-0.346
-311.939	-111.731	-0.275	-0.055
-310.924	-58.244	0.115	0.050
-309.910	-200.000	-0.061	-0.399
-308.895	-147.748	0.135	-0.011
-307.880	385.920	-0.151	0.309
-306.866	599.157	0.087	0.215
-305.851	251.804	0.217	0.366
-304.837	-112.655	0.243	0.048
-303.822	368.538	-0.078	-0.157
-302.807	59.033	0.050	0.049
-301.793	780.826	0.162	0.440
-300.778	800.000	-0.044	0.186
-299.764	-200.000	-0.001	0.236
-298.749	286.414	-0.022	0.039
-297.735	-200.000	-0.004	0.145
-296.720	137.694	-0.102	-0.133
-295.705	-54.886	0.122	-0.055
-294.691	-100.836	0.441	0.108
-293.676	145.846	-0.061	-0.082
-292.662	-200.000	-0.061	-0.394
-291.647	-67.828	-0.083	0.032
-290.632	-115.187	-0.496	0.093
-289.618	800.000	-0.055	-0.174
-288.603	-121.381	-0.357	-0.059
-287.589	-76.623	0.288	-0.100
-286.574	-16.083	-0.162	0.102
-285.559	800.000	-0.064	-0.185
-284.545	-200.000	0.034	0.210
-283.530	-145.422	-0.365	-0.033
-282.516	-85.083	0.136	-0.042
-281.501	65.220	0.227	-0.227
-280.486	800.000	-0.037	0.148
-279.472	-185.544	-0.134	-0.002
-278.457	-29.213	0.011	-0.007
-277.443	-200.000	0.006	0.078
-276.428	1.474	0.155	-0.110
-275.413	563.233	-0.061	-0.147
-274.399	78.603	0.215	-0.228
-273.384	-45.502	0.329	-0.162
-272.370	-200.000	-0.004	0.061
-271.355	-105.288	-0.586	0.132
-270.340	-99.560	0.225	-0.056
-269.326	332.604	-0.056	-0.107
-268.311	-200.000	0.005	0.081
-267.297	191.942	0.117	-0.175
-266.282	272.947	0.057	-0.100
-265.267	24.058	0.088	-0.072
-264.253	-88.560	0.364	-0.107
-263.238	800.000	0.094	-0.258
-262.224	-200.000	-0.022	-0.122
-261.209	-66.645	0.483	-0.190
-260.195	-200.000	0.019	-0.098
-259.180	289.594	0.114	0.206
-258.165	-137.767	-0.245	-0.027
-257.151	-200.000	0.030	-0.243
-256.136	800.000	0.031	-0.127
-255.122	17.177	0.337	-0.265
-254.107	-47.238	-0.121	0.058
-253.092	3.968	-0.065	-0.047
-252.078	-200.000	0.007	-0.053
-251.063	-91.050	0.302	0.086
-250.049	39.046	-0.129	-0.114
-249.034	-47.394	0.248	0.120
-248.019	-63.109	-0.309	0.126
-247.005	56.965	-0.181	0.175
-245.990	732.089	-0.115	-0.304
-244.976	-200.000	-0.017	-0.079
-243.961	117.278	-0.185	0.225
-242.946	-109.596	0.277	0.058
-241.932	-82.637	0.183	0.059
-240.917	1.458	0.132	-0.094
-239.903	619.398	0.151	-0.375
-238.888	-66.373	-0.181	0.071
-237.873	-46.125	0.281	-0.137
-236.859	800.000	0.132	0.433
-235.844	315.370	0.057	0.106
-234.830	792.267	-0.079	-0.215
-233.815	40.168	0.048	0.043
-232.800	48.226	-0.085	-0.079
-231.786	-161.943	-0.288	0.014
-230.771	371.438	0.028	0.055
-229.757	191.907	-0.170	0.253
-228.742	-200.000	-0.008	0.310
-227.727	-96.620	0.314	-0.082
-226.713	-52.623	-0.074	0.034
-225.698	-200.000	-0.002	-0.064
-224.684	-200.000	0.023	0.159
-223.669	347.371	0.168	-0.327
-222.655	800.000	-0.044	0.165
-221.640	-85.133	-0.061	-0.019
-220.625	800.000	-0.089	0.246
-219.611	76.576	-0.101	0.106
-218.596	416.210	-0.035	0.075
-217.582	61.539	0.160	-0.157
-216.567	800.000	-0.051	0.179
-215.552	-200.000	0.074	0.412
-214.538	71.651	-0.154	-0.158
-213.523	-200.000	0.034	0.160
-212.509	-74.373	0.419	0.149
-211.494	225.912	-0.182	0.292
-210.479	-200.000	0.021	-0.141
-209.465	347.357	0.099	0.193
-208.450	-200.000	-0.005	0.072
-207.436	-54.475	-0.169	-0.076
-206.421	-200.000	0.019	0.138
-205.406	-33.682	0.169	-0.092
-204.392	-200.000	-0.003	0.366
-203.377	-118.810	0.085	-0.015
-202.363	195.154	-0.173	0.260
-201.348	-180.844	0.312	0.006
-200.333	90.697	0.051	-0.056
-199.319	-43.594	-0.058	-0.029
-198.304	-146.673	0.327	-0.028
-197.290	166.172	0.091	0.127
-196.275	251.361	0.099	-0.167
-195.260	583.673	0.203	0.492
-194.246	-200.000	-0.005	0.141
-193.231	-28.970	-0.074	0.042
-192.217	-78.308	-0.043	0.015
-191.202	166.566	0.181	0.253
-190.187	-57.512	0.102	0.044
-189.173	66.730	0.194	0.195
-188.158	-200.000	-0.005	-0.096
-187.144	32.378	-0.202	-0.172
-186.129	-102.987	0.119	-0.028
-185.114	-26.305	0.209	-0.121
-184.100	59.009	-0.082	0.080
-183.085	38.529	0.161	-0.142
-182.071	-123.521	0.243	0.038
-181.056	-200.000	0.018	0.126
-180.042	-153.231	0.098	-0.007
-179.027	800.000	-0.025	0.102
-178.012	299.576	-0.172	-0.313
-176.998	155.442	-0.027	0.037
-175.983	-84.109	0.360	-0.113
-174.969	-91.075	0.118	-0.033
-173.954	372.048	-0.189	0.379
-172.939	138.396	0.083	0.107
-171.925	-200.000	0.032	0.241
-170.910	65.161	-0.133	-0.133
-169.896	131.863	0.054	-0.069
-168.881	-200.000	0.010	0.087
-167.866	-61.378	0.111	-0.046
-166.852	-200.000	-0.015	-0.223
-165.837	-200.000	-0.055	0.409
-164.823	-78.818	0.146	-0.049
-163.808	231.143	-0.135	-0.219
-162.793	38.820	0.280	-0.247
-161.779	-112.370	0.068	-0.013
-160.764	432.460	-0.157	-0.335
-159.750	-142.186	0.170	0.017
-158.735	-86.836	0.260	0.078
-157.720	133.355	-0.102	-0.130
-156.706	-54.917	-0.144	-0.064
-155.691	131.750	0.161	0.204
-154.677	-89.169	0.426	-0.124
-153.662	161.985	-0.142	-0.196
-152.647	-85.071	-0.086	0.027
-151.633	-18.214	-0.060	0.037
-150.618	-76.013	0.129	0.045
-149.604	800.000	0.110	-0.375
-148.589	-7.112	-0.072	0.048
-147.574	129.332	-0.164	0.206
-146.560	-113.783	-0.207	-0.040
-145.545	-42.941	0.095	0.048
-144.531	-130.103	-0.141	-0.019
-143.516	-34.930	-0.027	0.014
-142.502	-88.672	0.107	0.031
-141.487	156.606	-0.027	-0.037
-140.472	24.036	-0.244	0.198
-139.458	46.306	0.082	0.075
-138.443	-200.000	0.052	-0.253
-137.429	-19.441	0.094	0.057
-136.414	71.841	0.141	0.145
-135.399	-90.280	0.350	-0.100
-134.385	-102.615	-0.033	0.008
-133.370	-38.631	-0.175	0.091
-132.356	-200.000	0.063	0.424
-131.341	106.901	0.087	-0.101
-130.326	641.262	0.069	0.172
-129.312	800.000	0.031	-0.093
-128.297	178.503	0.137	-0.197
-127.283	205.016	0.153	-0.234
-126.268	763.756	-0.119	-0.318
-125.253	-163.220	0.252	0.012
-124.239	-200.000	0.068	0.400
-123.224	-69.886	0.327	0.123
-122.210	306.056	0.087	0.160
