DTS Sentinel unit serial number:	SN413079Multiplexer serial number:	ORYXHardware model number:	OX4-SRSoftware version number:	ORYX F/W v4.00 Oryx Data Collector v3.7.2.0data status	okinstallation	princeton_trtdifferential loss correction	single-endedforward channel	channel 4reverse channel	N/Adate	2019/09/19time	03:29:34forward acquisition time	60.00reverse acquisition time	0.00gamma	496.2192k internal	0.2340k external	0.2340temperature offset calibration	1.0028default loss term (dB/km)	0.3790temperature slope calibration	1.0000multiplexer offset coefficient	1.0000multiplexer slope coefficient	1.0000fibre end	0.00T internal ref (°C)	20.64T ext. ref 1 (°C)	0.65T ext. ref 2 (°C)	14.29length (m)	temperature (°C)	Stokes	anti-Stokes-747.200	-102.192	0.424	-0.102
-746.185	-39.518	-0.097	0.051
-745.171	536.027	-0.028	-0.068
-744.156	-200.000	-0.036	0.164
-743.142	-45.079	-0.149	-0.074
-742.127	800.000	0.046	0.178
-741.112	85.412	-0.080	-0.088
-740.098	800.000	-0.029	0.121
-739.083	-113.852	0.281	0.055
-738.069	336.774	-0.143	0.278
-737.054	178.380	0.148	0.217
-736.039	-59.674	-0.292	-0.126
-735.025	-9.981	0.365	0.243
-734.010	-45.016	0.115	-0.057
-732.996	-147.753	0.272	0.023
-731.981	-93.757	0.342	-0.095
-730.966	35.575	-0.158	0.139
-729.952	12.416	-0.165	-0.127
-728.937	-200.000	-0.033	-0.293
-727.923	-60.263	-0.238	-0.102
-726.908	-69.798	-0.082	0.031
-725.894	20.520	-0.167	-0.135
-724.879	-200.000	-0.009	-0.324
-723.864	800.000	-0.088	0.319
-722.850	13.876	0.405	-0.316
-721.835	485.893	0.089	-0.203
-720.821	272.752	-0.050	-0.088
-719.806	93.192	0.085	0.096
-718.791	184.210	-0.052	-0.077
-717.777	-41.292	-0.257	0.133
-716.762	-200.000	0.002	-0.290
-715.748	194.726	0.081	-0.122
-714.733	800.000	-0.022	0.087
-713.718	-200.000	0.032	-0.187
-712.704	-179.342	0.457	-0.010
-711.689	221.763	0.125	0.201
-710.675	-200.000	0.043	-0.278
-709.660	-6.318	-0.274	0.187
-708.645	189.639	-0.124	-0.187
-707.631	-158.752	0.073	0.004
-706.616	-88.404	-0.046	0.014
-705.602	-139.595	0.190	-0.020
-704.587	64.995	0.114	-0.116
-703.572	615.805	0.099	-0.249
-702.558	-200.000	-0.016	-0.089
-701.543	-200.000	-0.069	0.331
-700.529	-17.597	0.277	0.174
-699.514	23.858	0.073	-0.060
-698.499	76.256	0.053	-0.056
-697.485	37.589	-0.220	-0.195
-696.470	-1.256	0.075	-0.053
-695.456	-141.661	0.358	0.036
-694.441	168.425	0.138	-0.197
-693.426	-0.205	0.083	-0.059
-692.412	343.594	-0.040	0.078
-691.397	-33.794	-0.174	-0.096
-690.383	23.849	0.055	-0.046
-689.368	40.560	0.173	0.156
-688.354	800.000	0.086	-0.242
-687.339	-114.099	-0.263	-0.051
-686.324	9.052	0.182	-0.137
-685.310	79.116	-0.147	0.158
-684.295	-104.369	-0.236	0.055
-683.281	800.000	0.058	-0.210
-682.266	38.897	-0.287	0.256
-681.251	15.081	-0.194	0.152
-680.237	97.314	0.112	0.129
-679.222	184.596	-0.075	-0.111
-678.208	-200.000	0.052	-0.371
-677.193	307.807	0.073	-0.136
-676.178	-147.826	0.060	0.005
-675.164	-146.661	-0.326	-0.028
-674.149	169.963	-0.093	-0.132
-673.135	525.360	-0.094	0.221
-672.120	674.919	0.134	-0.349
-671.105	-200.000	0.008	-0.190
-670.091	-130.962	0.256	0.034
-669.076	291.267	0.088	0.160
-668.062	-155.984	-0.183	-0.012
-667.047	-67.593	0.134	0.052
-666.032	-92.765	-0.104	0.029
-665.018	33.299	0.066	-0.057
-664.003	-5.355	0.275	-0.189
-662.989	-200.000	0.024	-0.424
-661.974	149.242	0.144	-0.195
-660.959	-50.518	-0.373	-0.176
-659.945	-61.178	-0.169	-0.071
-658.930	119.119	-0.055	-0.068
-657.916	-143.890	0.137	0.013
-656.901	224.129	-0.141	-0.228
-655.886	500.317	0.096	-0.221
-654.872	24.933	0.187	-0.155
-653.857	207.891	0.095	0.149
-652.843	90.607	-0.046	-0.051
-651.828	-9.698	0.284	0.189
-650.814	-73.846	-0.450	-0.163
-649.799	-42.355	-0.421	-0.215
-648.784	-200.000	-0.017	0.229
-647.770	4.181	-0.335	-0.245
-646.755	-113.301	0.107	-0.021
-645.741	283.875	-0.116	-0.208
-644.726	-113.121	0.220	0.043
-643.711	-24.304	0.165	-0.098
-642.697	157.959	-0.085	0.118
-641.682	-96.849	-0.300	-0.079
-640.668	-98.568	-0.196	0.050
-639.653	294.785	-0.264	0.482
-638.638	-131.110	0.376	-0.050
-637.624	-93.336	0.329	-0.091
-636.609	800.000	0.082	-0.243
-635.595	75.155	-0.079	-0.084
-634.580	-118.939	0.451	0.079
-633.565	83.981	0.320	0.349
-632.551	193.426	0.065	0.098
-631.536	-108.246	-0.220	-0.047
-630.522	-200.000	-0.003	-0.226
-629.507	800.000	-0.087	-0.288
-628.492	-79.859	-0.091	-0.031
-627.478	-200.000	0.005	0.315
-626.463	-45.224	0.158	0.078
-625.449	-44.918	-0.223	-0.111
-624.434	36.650	-0.153	-0.135
-623.419	-49.381	0.219	0.104
-622.405	-200.000	0.064	-0.398
-621.390	800.000	0.076	-0.255
-620.376	-149.559	-0.252	0.020
-619.361	37.359	-0.169	-0.149
-618.346	132.135	-0.248	0.318
-617.332	442.174	-0.085	0.186
-616.317	425.513	0.101	0.217
-615.303	-62.238	-0.144	0.060
-614.288	171.680	0.155	-0.223
-613.273	-1.950	0.110	0.077
-612.259	441.797	-0.062	-0.135
-611.244	-200.000	-0.046	0.288
-610.230	-105.065	-0.149	0.034
-609.215	-114.173	0.181	0.035
-608.201	-5.370	0.322	0.220
-607.186	154.430	0.099	0.136
-606.171	-64.479	-0.095	-0.039
-605.157	-62.074	-0.244	-0.102
-604.142	-200.000	0.006	-0.461
-603.128	-200.000	0.039	-0.229
-602.113	297.104	0.033	-0.060
-601.098	106.541	0.156	-0.184
-600.084	148.291	0.045	0.060
-599.069	-200.000	0.012	0.307
-598.055	318.556	-0.081	-0.152
-597.040	-59.686	-0.187	-0.080
-596.025	-71.555	-0.365	0.136
-595.011	-1.844	0.110	0.077
-593.996	-75.483	0.095	0.034
-592.982	103.711	0.241	-0.282
-591.967	-200.000	-0.019	0.083
-590.952	322.825	-0.021	-0.039
-589.938	-100.792	0.058	-0.014
-588.923	-200.000	0.035	-0.367
-587.909	33.231	-0.139	-0.120
-586.894	-200.000	0.025	-0.160
-585.879	-123.405	0.369	0.059
-584.865	89.913	-0.067	0.074
-583.850	70.476	0.125	-0.129
-582.836	-8.281	-0.083	-0.055
-581.821	372.557	0.078	-0.159
-580.806	-200.000	0.066	-0.401
-579.792	-150.916	0.355	0.027
-578.777	76.412	0.146	-0.154
-577.763	800.000	-0.046	0.147
-576.748	800.000	0.033	0.136
-575.733	-199.283	-0.230	0.001
-574.719	345.024	0.127	-0.248
-573.704	-8.596	-0.171	-0.114
-572.690	-0.561	0.211	-0.149
-571.675	493.655	0.097	0.222
-570.661	113.543	0.116	0.141
-569.646	-71.961	-0.242	-0.090
-568.631	-123.129	-0.523	0.083
-567.617	-4.645	0.102	-0.070
-566.602	31.688	0.096	0.082
-565.588	-71.842	0.414	0.154
-564.573	-48.358	-0.517	-0.248
-563.558	800.000	0.016	-0.057
-562.544	307.861	-0.104	0.193
-561.529	-8.310	-0.128	-0.086
-560.515	-200.000	0.074	-0.372
-559.500	205.259	0.061	0.094
-558.485	95.202	0.235	0.267
-557.471	-105.440	-0.118	-0.027
-556.456	-158.760	0.120	-0.007
-555.442	764.703	0.148	-0.400
-554.427	-119.942	0.035	0.006
-553.412	-63.248	-0.147	-0.060
-552.398	-41.508	0.207	0.106
-551.383	101.863	0.277	-0.321
-550.369	-148.323	-0.075	-0.006
-549.354	800.000	0.041	-0.169
-548.339	-70.122	0.083	-0.031
-547.325	3.244	-0.120	-0.087
-546.310	-200.000	-0.002	-0.222
-545.296	800.000	-0.113	0.442
-544.281	-200.000	-0.064	0.317
-543.266	39.472	-0.110	-0.098
-542.252	14.983	0.102	-0.079
-541.237	229.355	-0.024	0.039
-540.223	-31.192	-0.359	0.201
-539.208	136.143	0.108	-0.140
-538.193	-105.797	0.102	0.023
-537.179	-21.879	0.147	0.089
-536.164	-95.104	-0.280	0.075
-535.150	-37.195	0.177	-0.094
-534.135	-200.000	0.021	0.171
-533.121	-98.812	-0.209	0.053
-532.106	144.304	-0.178	0.236
-531.091	743.233	-0.050	0.134
-530.077	247.483	-0.010	-0.017
-529.062	199.203	0.059	0.090
-528.048	800.000	-0.065	0.203
-527.033	94.551	-0.145	-0.163
-526.018	-153.255	0.202	0.014
-525.004	800.000	0.087	-0.273
-523.989	51.719	0.159	-0.150
-522.975	800.000	0.090	0.283
-521.960	-200.000	0.020	0.316
-520.945	280.006	0.139	0.247
-519.931	326.678	-0.054	-0.103
-518.916	-138.036	0.172	0.019
-517.902	800.000	-0.047	0.136
-516.887	102.189	-0.078	0.091
-515.872	436.238	-0.034	-0.073
-514.858	-121.038	-0.219	-0.037
-513.843	44.974	0.059	-0.054
-512.829	-44.493	-0.048	0.024
-511.814	-79.545	0.064	-0.022
-510.799	23.559	0.429	0.350
-509.785	-200.000	-0.024	-0.333
-508.770	69.476	-0.226	-0.232
-507.756	-200.000	0.014	-0.277
-506.741	329.660	0.158	-0.302
-505.726	763.947	-0.076	-0.205
-504.712	-200.000	-0.034	0.451
-503.697	-43.416	0.076	0.038
-502.683	-200.000	-0.029	-0.127
-501.668	-21.456	-0.135	-0.082
-500.653	712.922	0.144	0.379
-499.639	99.028	0.204	-0.234
-498.624	162.457	0.120	0.166
-497.610	187.503	-0.140	-0.207
-496.595	394.798	-0.116	-0.239
-495.581	-178.817	0.395	-0.009
-494.566	-49.211	-0.242	-0.115
-493.551	800.000	0.072	0.235
-492.537	800.000	0.093	0.395
-491.522	175.280	-0.198	-0.285
-490.508	82.327	-0.097	-0.105
-489.493	-200.000	0.211	0.000
-488.478	-156.393	0.164	-0.010
-487.464	-10.161	-0.095	-0.063
-486.449	197.550	0.058	-0.087
-485.435	-42.050	0.045	0.023
-484.420	-33.416	-0.037	-0.020
-483.405	-100.814	0.160	-0.039
-482.391	-200.000	0.021	-0.293
-481.376	12.620	0.188	0.144
-480.362	-200.000	-0.034	0.275
-479.347	800.000	0.057	-0.243
-478.332	-83.986	-0.251	-0.079
-477.318	-108.736	0.119	0.025
-476.303	-200.000	0.007	-0.053
-475.289	-200.000	-0.003	0.024
-474.274	-167.597	-0.123	-0.005
-473.259	-112.901	-0.376	0.074
-472.245	-89.572	0.369	0.107
-471.230	628.255	-0.031	-0.077
-470.216	168.591	0.019	0.027
-469.201	289.086	-0.097	-0.174
-468.186	54.481	0.175	0.167
-467.172	-122.770	-0.287	0.046
-466.157	188.361	-0.071	0.105
-465.143	800.000	-0.058	0.185
-464.128	800.000	-0.085	-0.319
-463.113	-200.000	0.018	-0.137
-462.099	-100.191	-0.104	0.026
-461.084	-200.000	0.011	0.072
-460.070	-66.526	0.376	0.148
-459.055	-33.643	-0.158	-0.086
-458.040	66.534	-0.091	0.092
-457.026	-107.745	0.082	-0.018
-456.011	72.357	-0.135	0.139
-454.997	-200.000	-0.009	-0.043
-453.982	126.634	0.269	-0.338
-452.968	-118.039	-0.310	0.055
-451.953	800.000	0.105	-0.421
-450.938	-67.862	0.096	0.037
-449.924	800.000	0.034	0.095
-448.909	6.959	-0.090	0.067
-447.895	800.000	0.037	-0.128
-446.880	800.000	0.053	-0.212
-445.865	124.862	-0.205	0.256
-444.851	21.762	-0.176	-0.142
-443.836	343.446	-0.064	0.125
-442.822	121.102	0.179	0.221
-441.807	-31.654	0.038	-0.021
-440.792	-200.000	0.005	-0.048
-439.778	323.028	-0.159	-0.300
-438.763	-193.854	0.324	-0.003
-437.749	128.248	-0.181	0.229
-436.734	124.462	-0.094	0.117
-435.719	-200.000	-0.066	0.359
-434.705	-30.900	-0.160	0.090
-433.690	-116.494	0.212	-0.039
-432.676	-133.468	0.311	-0.039
-431.661	-25.497	-0.340	-0.199
-430.646	-57.640	0.129	0.056
-429.632	423.617	0.039	-0.083
-428.617	-18.863	-0.230	0.142
-427.603	11.964	0.090	0.068
-426.588	-118.017	0.336	0.059
-425.573	800.000	-0.047	0.138
-424.559	-90.011	0.190	0.055
-423.544	-200.000	-0.014	0.083
-422.530	-65.701	-0.337	-0.134
-421.515	-111.962	-0.253	-0.051
-420.500	123.310	-0.032	-0.040
-419.486	-1.015	0.145	0.101
-418.471	102.688	-0.101	-0.117
-417.457	-149.500	0.234	-0.018
-416.442	142.150	-0.248	-0.325
-415.428	-64.065	-0.216	0.087
-414.413	-200.000	-0.003	-0.219
-413.398	-44.911	0.193	0.095
-412.384	-141.302	-0.142	-0.014
-411.369	-99.332	-0.398	0.099
-410.355	434.267	0.068	0.145
-409.340	167.666	0.118	0.166
-408.325	403.767	0.104	0.218
-407.311	273.084	0.099	0.173
-406.296	20.887	0.260	0.209
-405.282	-200.000	-0.059	0.343
-404.267	-174.829	0.228	0.006
-403.252	585.950	-0.036	-0.088
-402.238	45.913	0.305	-0.279
-401.223	-5.599	0.061	0.041
-400.209	-76.882	0.201	0.069
-399.194	91.412	0.290	-0.323
-398.179	317.056	0.053	0.099
-397.165	117.561	0.197	-0.240
-396.150	73.676	-0.126	0.130
-395.136	-73.537	-0.253	0.091
-394.121	-139.085	-0.258	0.028
-393.106	800.000	-0.092	0.275
-392.092	-200.000	-0.025	0.383
-391.077	315.130	0.115	-0.213
-390.063	6.103	0.153	0.112
-389.048	121.434	0.103	-0.126
-388.033	21.460	0.291	0.234
-387.019	-41.366	-0.333	0.169
-386.004	-200.000	0.018	0.097
-384.990	-119.667	0.404	0.069
-383.975	133.819	0.136	0.174
-382.960	-178.544	0.313	0.007
-381.946	-155.319	0.326	-0.021
-380.931	-142.753	0.060	0.006
-379.917	26.481	0.225	0.186
-378.902	24.493	-0.088	-0.072
-377.888	800.000	0.009	-0.032
-376.873	-77.579	-0.055	0.019
-375.858	9.040	-0.210	-0.157
-374.844	-200.000	0.023	0.373
-373.829	-161.166	-0.349	-0.018
-372.815	800.000	-0.021	0.088
-371.800	227.896	-0.013	-0.021
-370.785	800.000	0.089	-0.251
-369.771	-129.354	-0.157	0.022
-368.756	-89.526	-0.434	0.126
-367.742	-108.014	0.249	-0.053
-366.727	117.715	0.324	0.394
-365.712	85.338	0.115	-0.125
-364.698	-172.034	-0.347	-0.011
-363.683	-26.632	-0.041	0.024
-362.669	-200.000	-0.014	0.274
-361.654	-182.948	0.133	0.002
-360.639	-50.192	0.032	-0.015
-359.625	-80.166	0.307	0.102
-358.610	86.562	0.197	-0.214
-357.596	-90.856	-0.274	-0.078
-356.581	800.000	0.058	0.170
-355.566	800.000	-0.050	0.202
-354.552	-159.593	-0.287	-0.016
-353.537	6.302	0.070	-0.051
-352.523	800.000	0.083	0.280
-351.508	402.201	0.135	-0.279
-350.493	201.847	0.064	0.097
-349.479	92.523	-0.011	0.013
-348.464	195.964	0.113	0.170
-347.450	-83.653	0.378	0.119
-346.435	-140.397	0.137	0.014
-345.420	111.179	0.268	0.318
-344.406	-200.000	0.025	-0.246
-343.391	60.170	-0.167	0.163
-342.377	-147.751	0.050	-0.004
-341.362	293.632	0.079	-0.142
-340.348	-59.738	-0.311	0.132
-339.333	-200.000	-0.004	0.055
-338.318	-75.689	-0.397	0.139
-337.304	-58.610	-0.163	0.070
-336.289	-40.101	-0.237	0.122
-335.275	800.000	-0.090	-0.318
-334.260	-14.848	0.245	0.155
-333.245	-200.000	0.002	-0.083
-332.231	72.038	-0.094	0.097
-331.216	-200.000	-0.042	-0.236
-330.202	-76.358	-0.108	0.037
-329.187	-200.000	-0.089	0.397
-328.172	-75.412	0.285	0.100
-327.158	173.266	0.332	0.473
-326.143	21.961	0.113	-0.091
-325.129	-142.660	0.099	-0.010
-324.114	25.169	0.061	-0.050
-323.099	-139.269	-0.029	0.003
-322.085	-200.000	0.006	0.065
-321.070	38.832	0.107	-0.095
-320.056	800.000	-0.071	0.238
-319.041	-42.873	0.292	0.146
-318.026	-108.918	-0.160	-0.034
-317.012	143.751	0.132	-0.174
-315.997	800.000	-0.137	0.400
-314.983	171.221	-0.010	0.015
-313.968	800.000	0.042	0.117
-312.953	800.000	0.118	-0.377
-311.939	-47.092	-0.147	0.071
-310.924	-74.583	-0.134	0.048
-309.910	800.000	0.148	-0.434
-308.895	-117.484	0.110	-0.020
-307.880	800.000	-0.103	-0.287
-306.866	103.740	-0.146	0.169
-305.851	-12.007	0.244	0.157
-304.837	-57.236	-0.053	-0.023
-303.822	-53.154	0.098	-0.044
-302.807	5.455	-0.085	0.062
-301.793	800.000	-0.069	0.237
-300.778	-19.719	-0.162	-0.098
-299.764	20.696	-0.110	-0.088
-298.749	-103.922	-0.435	-0.100
-297.735	-200.000	-0.087	-0.426
-296.720	464.832	-0.158	-0.349
-295.705	520.267	0.083	-0.192
-294.691	-30.283	-0.094	-0.053
-293.676	535.024	0.147	-0.343
-292.662	-200.000	-0.012	0.195
-291.647	800.000	-0.096	-0.316
-290.632	-200.000	0.027	-0.144
-289.618	5.636	-0.170	0.124
-288.603	-181.057	-0.264	-0.005
-287.589	800.000	0.061	0.200
-286.574	514.723	0.227	0.522
-285.559	-27.123	0.230	-0.132
-284.545	-200.000	0.019	-0.099
-283.530	294.315	0.064	0.116
-282.516	-132.726	-0.363	0.046
-281.501	202.713	0.182	-0.276
-280.486	-200.000	0.053	-0.318
-279.472	-45.690	-0.178	-0.087
-278.457	49.028	-0.131	-0.121
-277.443	-13.340	-0.161	0.103
-276.428	800.000	-0.067	0.231
-275.413	275.954	-0.090	0.158
-274.399	-184.263	0.504	-0.008
-273.384	-200.000	-0.003	-0.197
-272.370	346.064	-0.056	0.108
-271.355	547.303	0.080	-0.189
-270.340	800.000	0.119	-0.394
-269.326	-150.109	0.304	-0.023
-268.311	-200.000	0.007	0.188
-267.297	74.634	-0.148	0.153
-266.282	-200.000	-0.032	-0.203
-265.267	302.059	-0.185	-0.337
-264.253	-200.000	-0.023	-0.281
-263.238	46.181	-0.334	0.305
-262.224	-65.909	0.337	0.133
-261.209	-18.594	0.017	0.011
-260.195	64.422	-0.147	-0.146
-259.180	800.000	0.087	-0.241
-258.165	84.088	-0.118	-0.126
-257.151	800.000	-0.091	0.268
-256.136	95.244	0.170	-0.191
-255.122	652.641	0.224	-0.564
-254.107	183.963	-0.172	0.250
-253.092	-117.326	-0.362	-0.065
-252.078	-111.252	0.241	-0.048
-251.063	-116.979	-0.213	-0.038
-250.049	587.421	-0.066	-0.159
-249.034	34.514	-0.181	-0.155
-248.019	800.000	0.031	0.120
-247.005	232.240	-0.196	-0.316
-245.990	800.000	0.030	-0.126
-244.976	-53.759	-0.184	-0.083
-243.961	800.000	0.064	0.269
-242.946	-200.000	-0.022	-0.276
-241.932	221.308	0.056	-0.089
-240.917	347.125	-0.236	0.457
-239.903	27.000	-0.143	0.118
-238.888	1.361	0.116	-0.082
-237.873	-200.000	0.006	0.159
-236.859	-78.711	-0.117	0.039
-235.844	-72.683	-0.241	0.087
-234.830	-200.000	0.013	0.068
-233.815	-81.682	-0.184	-0.059
-232.800	118.019	0.186	-0.225
-231.786	-134.169	-0.133	0.016
-230.771	-200.000	0.019	0.110
-229.757	279.743	-0.094	-0.165
-228.742	-200.000	-0.005	-0.071
-227.727	-114.588	-0.238	0.045
-226.713	800.000	0.013	-0.048
-225.698	800.000	-0.085	-0.253
-224.684	139.046	0.168	-0.217
-223.669	-200.000	-0.037	-0.303
-222.655	-200.000	0.068	-0.295
-221.640	-155.720	-0.345	-0.022
-220.625	6.257	-0.228	-0.166
-219.611	-200.000	0.049	0.233
-218.596	-200.000	-0.008	0.245
-217.582	-200.000	0.088	-0.383
-216.567	-139.770	0.435	0.045
-215.552	184.274	0.212	0.309
-214.538	-200.000	-0.019	0.268
-213.523	-57.813	0.147	-0.063
-212.509	131.458	0.124	0.156
-211.494	-200.000	-0.077	0.338
-210.479	-134.697	-0.321	-0.038
-209.465	50.935	0.074	-0.069
-208.450	80.223	-0.060	0.064
-207.436	-200.000	0.008	-0.099
-206.421	-115.456	0.131	-0.024
-205.406	-200.000	0.012	-0.080
-204.392	-40.126	-0.133	-0.068
-203.377	-159.845	0.314	-0.017
-202.363	-141.564	-0.349	-0.035
-201.348	79.270	0.237	0.250
-200.333	130.176	-0.155	-0.194
-199.319	-146.801	-0.165	-0.014
-198.304	-147.704	0.191	-0.016
-197.290	167.266	0.083	0.115
-196.275	102.935	0.085	-0.097
-195.260	800.000	-0.038	0.108
-194.246	50.971	-0.134	0.124
-193.231	800.000	0.074	0.261
-192.217	-170.934	0.406	-0.014
-191.202	14.360	0.257	0.197
-190.187	-127.136	0.095	0.014
-189.173	-57.001	-0.113	0.049
-188.158	-200.000	0.058	-0.362
-187.144	-39.595	-0.113	0.058
-186.129	-130.377	-0.221	0.029
-185.114	-200.000	-0.006	-0.284
-184.100	349.158	-0.057	0.110
-183.085	7.860	-0.158	0.116
-182.071	-50.344	-0.086	-0.040
-181.056	-39.987	-0.201	-0.103
-180.042	-52.856	0.159	-0.072
-179.027	-40.564	0.177	0.090
-178.012	800.000	0.026	0.098
-176.998	241.816	-0.111	0.182
-175.983	369.144	-0.090	-0.179
-174.969	34.519	0.184	-0.158
-173.954	250.841	-0.203	0.338
-172.939	-70.154	-0.121	-0.045
-171.925	-107.904	-0.163	0.035
-170.910	-200.000	0.052	0.242
-169.896	44.202	-0.256	0.230
-168.881	-7.628	-0.121	0.080
-167.866	27.184	-0.106	0.087
-166.852	548.793	-0.014	-0.034
-165.837	-110.869	0.225	-0.045
-164.823	-200.000	-0.017	0.325
-163.808	443.237	0.025	0.054
-162.793	-200.000	0.048	0.226
-161.779	25.145	0.101	-0.082
-160.764	97.825	0.159	0.179
-159.750	54.253	0.033	-0.031
-158.735	233.826	0.156	0.252
-157.720	-73.870	-0.268	0.095
-156.706	254.019	-0.086	-0.144
-155.691	-157.157	0.410	-0.024
-154.677	-128.031	-0.343	0.048
-153.662	-200.000	0.009	-0.461
-152.647	22.757	-0.184	-0.147
-151.633	-200.000	-0.048	0.345
-150.618	800.000	0.063	0.241
-149.604	800.000	0.007	-0.028
-148.589	-200.000	-0.018	0.271
-147.574	800.000	-0.072	0.200
-146.560	-126.448	0.170	0.025
-145.545	-200.000	-0.001	-0.114
-144.531	-50.497	0.042	-0.019
-143.516	800.000	0.046	-0.182
-142.502	800.000	0.059	0.238
-141.487	-60.987	0.221	-0.091
-140.472	91.509	0.041	0.046
-139.458	-86.590	0.066	-0.020
-138.443	148.441	-0.066	0.087
-137.429	55.678	-0.062	-0.059
-136.414	84.355	-0.174	0.186
-135.399	6.500	-0.338	0.246
-134.385	598.600	0.097	-0.236
-133.370	-200.000	0.003	-0.073
-132.356	-200.000	0.049	-0.394
-131.341	-37.012	-0.033	0.018
-130.326	51.162	0.317	0.294
-129.312	12.314	0.113	0.086
-128.297	800.000	-0.053	-0.189
-127.283	6.366	-0.157	-0.114
-126.268	-6.391	0.156	-0.104
-125.253	-62.617	-0.272	0.110
-124.239	-200.000	0.057	0.275
-123.224	-60.599	0.166	-0.069
-122.210	28.589	-0.194	0.161
-121.195	-200.000	0.024	0.110
