DTS Sentinel unit serial number:	SN413079Multiplexer serial number:	ORYXHardware model number:	OX4-SRSoftware version number:	ORYX F/W v4.00 Oryx Data Collector v3.7.2.0data status	okinstallation	princeton_trtdifferential loss correction	single-endedforward channel	channel 4reverse channel	N/Adate	2019/09/13time	01:33:35forward acquisition time	60.00reverse acquisition time	0.00gamma	496.2192k internal	0.2318k external	0.2318temperature offset calibration	1.0176default loss term (dB/km)	0.3790temperature slope calibration	1.0000multiplexer offset coefficient	1.0000multiplexer slope coefficient	1.0000fibre end	0.00T internal ref (°C)	27.75T ext. ref 1 (°C)	3.75T ext. ref 2 (°C)	22.43length (m)	temperature (°C)	Stokes	anti-Stokes-747.200	-149.025	0.223	0.018
-746.185	-91.135	-0.078	0.023
-745.171	-69.267	-0.173	0.067
-744.156	474.827	-0.059	-0.136
-743.142	511.159	-0.154	-0.363
-742.127	-200.000	0.056	0.344
-741.112	437.559	-0.087	0.191
-740.098	9.146	-0.415	-0.317
-739.083	16.513	0.165	0.132
-738.069	-200.000	-0.041	-0.188
-737.054	171.516	-0.116	-0.169
-736.039	-17.306	-0.280	-0.179
-735.025	2.007	-0.204	0.149
-734.010	212.429	-0.091	0.145
-732.996	-104.057	-0.318	-0.075
-731.981	11.283	0.259	-0.201
-730.966	309.748	-0.068	0.129
-729.952	800.000	0.044	0.182
-728.937	800.000	-0.048	-0.174
-727.923	800.000	-0.072	0.255
-726.908	-200.000	0.026	0.168
-725.894	-200.000	-0.085	-0.446
-724.879	-200.000	-0.061	-0.522
-723.864	-200.000	0.014	-0.175
-722.850	244.783	0.102	-0.174
-721.835	-200.000	0.053	0.316
-720.821	-86.181	0.301	-0.094
-719.806	-75.216	0.142	0.051
-718.791	-200.000	-0.032	0.153
-717.777	-89.972	-0.152	-0.045
-716.762	-7.772	-0.159	-0.108
-715.748	197.432	0.043	-0.066
-714.733	155.178	0.086	-0.120
-713.718	-200.000	-0.003	-0.021
-712.704	-71.604	-0.276	-0.104
-711.689	800.000	0.010	0.032
-710.675	-200.000	0.002	-0.104
-709.660	800.000	-0.051	-0.161
-708.645	-114.431	-0.189	-0.037
-707.631	800.000	-0.008	-0.028
-706.616	-85.371	0.358	-0.113
-705.602	139.217	-0.070	-0.093
-704.587	-78.036	-0.110	-0.038
-703.572	-130.357	0.182	-0.025
-702.558	-200.000	0.016	0.325
-701.543	-60.676	-0.316	0.135
-700.529	800.000	-0.050	0.213
-699.514	-14.879	-0.342	-0.222
-698.499	-19.380	0.166	-0.104
-697.485	800.000	-0.050	-0.171
-696.470	-200.000	-0.005	-0.151
-695.456	70.176	-0.103	0.107
-694.441	800.000	0.022	-0.071
-693.426	-200.000	0.006	0.101
-692.412	95.891	-0.073	0.084
-691.397	53.417	0.097	-0.094
-690.383	87.379	-0.185	-0.207
-689.368	20.762	-0.152	0.124
-688.354	-200.000	0.041	-0.218
-687.339	-200.000	0.033	0.200
-686.324	38.022	-0.096	-0.086
-685.310	-93.066	0.183	-0.052
-684.295	62.849	-0.138	0.140
-683.281	-5.264	0.190	-0.132
-682.266	27.932	-0.145	0.123
-681.251	-200.000	0.001	0.121
-680.237	-134.045	-0.137	0.017
-679.222	-72.144	0.164	0.061
-678.208	-12.587	0.198	-0.130
-677.193	-200.000	-0.002	0.011
-676.178	53.425	-0.209	0.202
-675.164	-156.548	-0.090	-0.006
-674.149	-122.785	-0.187	-0.030
-673.135	-200.000	-0.030	-0.165
-672.120	-176.498	0.042	-0.001
-671.105	800.000	0.017	-0.059
-670.091	800.000	0.033	0.137
-669.076	-156.097	0.223	0.014
-668.062	-150.857	0.238	0.018
-667.047	129.849	0.106	0.136
-666.032	623.181	0.082	-0.209
-665.018	-76.886	-0.080	0.028
-664.003	-105.949	-0.238	-0.054
-662.989	138.312	0.156	0.207
-661.974	800.000	0.063	-0.203
-660.959	-33.537	-0.057	-0.032
-659.945	800.000	0.034	-0.105
-658.930	-31.939	-0.152	-0.086
-657.916	-93.773	-0.437	-0.121
-656.901	55.196	-0.154	-0.150
-655.886	-200.000	0.001	-0.106
-654.872	-81.533	-0.389	-0.129
-653.857	-63.695	-0.147	-0.061
-652.843	299.512	0.146	-0.271
-651.828	194.861	0.195	-0.298
-650.814	800.000	-0.039	0.166
-649.799	120.516	0.072	0.090
-648.784	237.546	0.195	-0.326
-647.770	-81.918	-0.211	-0.069
-646.755	-49.973	0.218	-0.104
-645.741	-128.126	-0.201	-0.029
-644.726	-68.284	0.389	0.152
-643.711	-106.378	0.033	0.008
-642.697	207.337	0.107	-0.169
-641.682	496.242	0.093	0.216
-640.668	124.390	0.238	0.302
-639.653	108.943	0.106	-0.128
-638.638	-200.000	0.225	0.001
-637.624	375.675	-0.028	0.057
-636.609	-88.238	0.135	0.041
-635.595	-130.641	-0.424	0.058
-634.580	800.000	0.024	-0.103
-633.565	-91.626	0.069	-0.020
-632.551	80.083	-0.146	-0.158
-631.536	-200.000	-0.004	0.028
-630.522	800.000	0.030	-0.085
-629.507	-68.506	0.136	-0.053
-628.492	-62.255	0.135	-0.057
-627.478	118.466	-0.223	-0.278
-626.463	-157.159	0.138	0.008
-625.449	17.599	-0.085	0.068
-624.434	-146.054	-0.444	-0.039
-623.419	-139.674	0.121	-0.013
-622.405	-24.617	0.246	0.147
-621.390	-84.075	0.197	0.063
-620.376	-200.000	0.036	-0.217
-619.361	-28.929	0.107	-0.062
-618.346	-103.334	0.137	-0.032
-617.332	-134.916	0.165	0.020
-616.317	134.236	-0.117	-0.153
-615.303	41.803	-0.171	0.156
-614.288	405.781	0.120	-0.255
-613.273	-46.746	-0.071	0.035
-612.259	-29.753	0.300	-0.172
-611.244	506.674	-0.123	-0.287
-610.230	39.654	0.248	-0.224
-609.215	-178.669	0.285	-0.007
-608.201	34.502	-0.134	0.118
-607.186	18.090	0.200	-0.161
-606.171	42.887	-0.031	0.028
-605.157	359.577	0.089	-0.179
-604.142	-110.530	0.093	-0.019
-603.128	18.035	0.109	0.087
-602.113	800.000	0.123	-0.410
-601.098	-37.596	-0.392	-0.210
-600.084	131.037	-0.027	-0.035
-599.069	247.761	0.188	-0.319
-598.055	800.000	0.050	0.150
-597.040	-134.855	0.063	0.008
-596.025	-195.933	0.101	0.001
-595.011	-90.130	-0.130	0.038
-593.996	76.155	-0.075	-0.080
-592.982	-116.456	-0.142	-0.026
-591.967	-160.067	0.304	-0.017
-590.952	342.493	0.150	0.296
-589.938	-116.146	-0.070	0.013
-588.923	250.230	0.041	0.070
-587.909	569.622	0.135	0.329
-586.894	-200.000	0.007	0.371
-585.879	-183.484	-0.229	0.004
-584.865	39.153	-0.106	0.095
-583.850	22.851	-0.222	0.183
-582.836	-72.514	-0.120	-0.045
-581.821	557.192	-0.050	-0.121
-580.806	246.203	-0.087	0.147
-579.792	-159.314	-0.086	0.005
-578.777	-155.239	0.246	0.016
-577.763	219.355	0.154	0.248
-576.748	13.556	0.100	-0.078
-575.733	274.663	-0.111	-0.199
-574.719	-66.575	-0.072	0.029
-573.704	800.000	-0.074	0.295
-572.690	-89.967	-0.354	-0.104
-571.675	-82.867	0.142	0.046
-570.661	-0.334	-0.156	-0.112
-569.646	-200.000	-0.010	0.252
-568.631	-200.000	0.056	-0.471
-567.617	-200.000	-0.006	0.127
-566.602	-46.677	-0.219	0.108
-565.588	27.815	0.198	-0.168
-564.573	-130.823	0.273	-0.037
-563.558	-138.568	0.332	0.037
-562.544	21.020	0.193	0.157
-561.529	-36.280	-0.124	-0.067
-560.515	47.094	0.180	0.168
-559.500	-200.000	-0.041	0.333
-558.485	-200.000	-0.009	0.271
-557.471	-200.000	0.004	0.196
-556.456	-84.952	0.122	0.038
-555.442	65.077	0.212	-0.215
-554.427	189.663	0.081	0.123
-553.412	-32.409	-0.302	-0.169
-552.398	5.286	-0.220	-0.163
-551.383	213.714	-0.255	0.405
-550.369	-43.275	-0.074	0.037
-549.354	-200.000	0.070	-0.342
-548.339	800.000	0.041	-0.123
-547.325	-200.000	-0.012	0.314
-546.310	4.025	-0.171	-0.126
-545.296	249.960	-0.265	-0.452
-544.281	-33.221	0.173	-0.096
-543.266	-61.778	-0.336	0.141
-542.252	-55.549	0.185	0.083
-541.237	-61.054	-0.043	-0.018
-540.223	170.402	0.105	0.151
-539.208	800.000	0.034	-0.120
-538.193	-200.000	0.003	-0.253
-537.179	800.000	0.090	-0.346
-536.164	-200.000	0.017	-0.174
-535.150	216.250	0.193	0.307
-534.135	800.000	0.012	0.037
-533.121	-83.758	-0.261	-0.083
-532.106	-21.248	0.092	-0.057
-531.091	-4.907	0.195	0.135
-530.077	-151.500	-0.276	-0.021
-529.062	548.564	-0.074	-0.178
-528.048	800.000	-0.024	-0.088
-527.033	145.300	-0.214	0.288
-526.018	-48.875	-0.121	0.058
-525.004	-146.882	0.362	-0.031
-523.989	251.869	0.146	-0.249
-522.975	119.621	-0.032	0.039
-521.960	73.255	0.370	0.388
-520.945	800.000	0.084	0.249
-519.931	-144.881	-0.196	0.018
-518.916	800.000	-0.004	0.013
-517.902	-8.681	0.203	0.136
-516.887	800.000	0.042	0.150
-515.872	-84.816	-0.205	0.065
-514.858	-11.670	-0.149	-0.098
-513.843	46.488	-0.223	0.207
-512.829	-200.000	0.027	0.133
-511.814	-47.742	-0.222	-0.108
-510.799	-119.796	0.154	0.027
-509.785	800.000	-0.012	-0.051
-508.770	422.545	0.100	0.215
-507.756	44.449	-0.253	-0.233
-506.741	-200.000	0.010	-0.285
-505.726	459.285	-0.086	0.192
-504.712	-42.189	-0.129	0.066
-503.697	800.000	0.038	-0.150
-502.683	27.910	-0.303	-0.256
-501.668	-37.754	0.532	0.284
-500.653	-200.000	-0.012	-0.258
-499.639	-75.838	-0.156	-0.055
-498.624	800.000	0.060	0.175
-497.610	-112.139	-0.196	-0.039
-496.595	240.082	-0.089	-0.149
-495.581	-200.000	0.019	-0.129
-494.566	-42.584	-0.327	0.167
-493.551	-200.000	0.049	-0.256
-492.537	165.250	-0.234	-0.331
-491.522	-136.803	-0.265	-0.031
-490.508	-57.891	0.060	-0.026
-489.493	290.131	0.012	-0.021
-488.478	-200.000	0.041	-0.390
-487.464	-110.043	0.314	0.066
-486.449	789.391	0.050	-0.139
-485.435	15.411	-0.132	-0.104
-484.420	-94.528	0.287	-0.078
-483.405	10.228	-0.218	-0.166
-482.391	800.000	-0.065	0.241
-481.376	-18.534	-0.077	0.048
-480.362	493.737	-0.188	0.431
-479.347	-200.000	0.009	-0.113
-478.332	800.000	-0.018	-0.077
-477.318	-121.563	0.140	-0.023
-476.303	800.000	0.082	0.288
-475.289	-200.000	0.027	0.160
-474.274	800.000	-0.138	0.392
-473.259	-200.000	0.002	-0.056
-472.245	-93.563	-0.153	0.042
-471.230	-200.000	-0.050	0.221
-470.216	-31.103	-0.252	0.142
-469.201	767.881	0.097	0.265
-468.186	-200.000	-0.073	0.513
-467.172	232.019	-0.153	-0.251
-466.157	55.109	-0.281	-0.272
-465.143	-79.787	0.182	-0.061
-464.128	-200.000	0.025	-0.355
-463.113	-68.121	0.223	0.087
-462.099	91.153	0.145	-0.163
-461.084	73.636	-0.136	0.143
-460.070	-200.000	-0.020	0.240
-459.055	152.845	-0.040	-0.055
-458.040	-79.564	-0.135	-0.046
-457.026	241.771	0.210	-0.352
-456.011	317.937	-0.121	-0.230
-454.997	132.082	0.049	-0.063
-453.982	452.706	0.019	-0.042
-452.968	-23.510	0.170	-0.102
-451.953	-200.000	-0.030	0.164
-450.938	107.103	0.035	0.042
-449.924	40.440	0.222	0.200
-448.909	22.727	0.266	-0.218
-447.895	-21.574	0.205	-0.125
-446.880	-88.129	-0.278	0.083
-445.865	547.252	0.116	-0.278
-444.851	800.000	-0.017	-0.065
-443.836	800.000	-0.027	-0.117
-442.822	-200.000	0.084	0.423
-441.807	-127.432	0.042	-0.006
-440.792	-19.698	0.146	-0.090
-439.778	20.103	0.186	-0.150
-438.763	-44.503	-0.321	-0.161
-437.749	144.319	-0.155	0.207
-436.734	16.593	0.359	0.284
-435.719	701.133	-0.096	-0.253
-434.705	12.088	-0.160	-0.123
-433.690	-121.349	0.165	-0.027
-432.676	-51.126	-0.092	0.043
-431.661	-184.223	-0.097	0.002
-430.646	124.706	-0.153	-0.193
-429.632	441.261	-0.151	-0.330
-428.617	14.652	0.043	0.034
-427.603	-33.280	0.122	0.068
-426.588	800.000	0.041	0.154
-425.573	-200.000	0.005	0.186
-424.559	337.529	-0.151	-0.293
-423.544	90.015	-0.152	0.170
-422.530	-200.000	0.010	0.501
-421.515	15.104	-0.334	0.261
-420.500	3.031	0.158	0.114
-419.486	800.000	-0.049	0.136
-418.471	-195.352	-0.206	-0.002
-417.457	800.000	-0.048	-0.157
-416.442	549.395	0.039	0.094
-415.428	-200.000	-0.021	0.139
-414.413	44.919	0.107	0.099
-413.398	800.000	-0.052	-0.183
-412.384	-36.051	0.154	-0.083
-411.369	-58.433	-0.203	0.088
-410.355	-172.991	0.227	-0.007
-409.340	800.000	-0.064	0.180
-408.325	-200.000	0.044	0.250
-407.311	-173.030	0.139	0.004
-406.296	-168.644	0.049	0.002
-405.282	-119.142	-0.177	0.031
-404.267	800.000	-0.028	-0.107
-403.252	-200.000	-0.009	0.072
-402.238	-11.489	0.355	-0.233
-401.223	86.080	-0.036	-0.039
-400.209	-200.000	0.011	0.149
-399.194	800.000	-0.040	-0.167
-398.179	406.333	-0.154	0.324
-397.165	-57.256	0.228	-0.100
-396.150	-77.853	0.311	-0.107
-395.136	-58.648	0.182	-0.079
-394.121	-70.247	-0.137	-0.052
-393.106	247.294	-0.141	0.238
-392.092	235.325	0.207	-0.341
-391.077	-75.453	0.219	0.078
-390.063	-71.080	-0.237	0.089
-389.048	-122.940	-0.282	0.045
-388.033	397.176	0.049	0.101
-387.019	233.519	-0.114	0.188
-386.004	-200.000	0.018	-0.371
-384.990	-105.231	-0.247	0.056
-383.975	-200.000	-0.001	0.174
-382.960	-200.000	-0.054	0.332
-381.946	800.000	0.031	0.133
-380.931	487.478	-0.133	0.302
-379.917	563.538	0.116	0.279
-378.902	181.217	-0.170	0.249
-377.888	-126.545	0.273	-0.040
-376.873	-10.615	-0.289	-0.191
-375.858	-9.341	0.064	-0.042
-374.844	367.959	0.136	0.275
-373.829	-45.197	-0.175	-0.087
-372.815	-200.000	0.000	0.307
-371.800	264.698	0.039	0.068
-370.785	365.489	0.101	0.202
-369.771	-200.000	-0.018	-0.210
-368.756	-15.809	0.068	-0.043
-367.742	-131.798	0.262	0.034
-366.727	-200.000	0.016	-0.154
-365.712	-200.000	0.052	0.260
-364.698	-113.428	-0.206	-0.040
-363.683	37.983	-0.215	-0.191
-362.669	776.313	-0.129	0.351
-361.654	-200.000	-0.002	-0.039
-360.639	115.138	-0.117	0.142
-359.625	-200.000	0.050	0.385
-358.610	800.000	0.048	0.153
-357.596	-200.000	-0.006	0.068
-356.581	-30.243	-0.268	-0.152
-355.566	-139.208	-0.118	-0.013
-354.552	52.928	0.143	0.136
-353.537	-86.581	-0.070	0.021
-352.523	800.000	0.027	0.086
-351.508	-200.000	0.040	0.428
-350.493	19.431	-0.228	-0.183
-349.479	594.617	0.115	-0.285
-348.464	-200.000	0.027	0.307
-347.450	-110.363	0.081	0.017
-346.435	123.655	0.199	0.249
-345.420	0.947	-0.200	-0.143
-344.406	-154.867	-0.058	0.004
-343.391	-54.853	0.126	0.056
-342.377	-100.103	0.295	-0.073
-341.362	490.029	0.042	0.095
-340.348	-62.336	-0.312	0.129
-339.333	241.631	-0.222	0.369
-338.318	800.000	-0.045	0.180
-337.304	-138.138	0.208	-0.023
-336.289	520.049	-0.132	0.307
-335.275	-200.000	-0.006	0.041
-334.260	-138.672	-0.287	0.031
-333.245	-46.302	-0.287	-0.141
-332.231	160.660	0.161	-0.223
-331.216	-70.848	0.292	-0.109
-330.202	-5.037	-0.050	-0.035
-329.187	151.574	-0.080	-0.109
-328.172	-19.033	-0.061	0.038
-327.158	-200.000	0.001	-0.058
-326.143	-86.619	-0.139	0.042
-325.129	180.460	0.064	0.094
-324.114	-134.689	0.180	-0.022
-323.099	-200.000	0.017	-0.082
-322.085	387.462	0.185	0.381
-321.070	83.198	-0.240	0.261
-320.056	-105.383	0.232	0.053
-319.041	750.538	0.028	-0.075
-318.026	-200.000	-0.090	-0.402
-317.012	118.615	0.077	-0.095
-315.997	-83.583	0.382	0.122
-314.983	356.881	-0.171	-0.340
-313.968	-40.550	0.251	-0.130
-312.953	-51.225	-0.111	0.052
-311.939	-131.032	0.130	-0.017
-310.924	-45.569	-0.229	0.113
-309.910	-158.841	0.303	0.017
-308.895	-1.467	0.025	-0.017
-307.880	-4.052	0.156	0.107
-306.866	30.110	0.091	-0.077
-305.851	-110.958	0.244	-0.050
-304.837	-45.060	0.050	0.025
-303.822	-200.000	-0.035	-0.294
-302.807	-43.418	0.140	-0.070
-301.793	547.073	-0.198	0.471
-300.778	-179.672	-0.169	0.004
-299.764	-14.058	-0.177	-0.114
-298.749	-5.235	-0.057	0.039
-297.735	455.317	-0.098	0.216
-296.720	-114.011	-0.272	-0.052
-295.705	800.000	0.060	0.188
-294.691	113.845	-0.085	-0.102
-293.676	286.552	0.109	-0.196
-292.662	-115.986	0.236	-0.044
-291.647	-200.000	0.042	-0.287
-290.632	-109.650	-0.177	0.037
-289.618	-164.482	0.259	-0.012
-288.603	8.159	0.130	0.097
-287.589	800.000	-0.035	0.151
-286.574	88.454	-0.105	0.115
-285.559	56.803	0.314	0.304
-284.545	170.870	0.113	-0.161
-283.530	325.519	0.047	-0.090
-282.516	123.630	0.155	0.193
-281.501	155.609	-0.240	-0.329
-280.486	800.000	0.129	0.501
-279.472	171.782	0.147	-0.210
-278.457	800.000	0.028	-0.095
-277.443	104.717	-0.057	-0.067
-276.428	-147.598	-0.410	-0.034
-275.413	-62.589	0.224	0.092
-274.399	-8.458	-0.163	-0.109
-273.384	171.545	0.101	0.144
-272.370	-54.411	-0.193	-0.087
-271.355	-200.000	-0.020	-0.191
-270.340	66.389	-0.066	-0.066
-269.326	-200.000	-0.025	0.211
-268.311	125.177	-0.130	0.162
-267.297	-200.000	-0.062	-0.298
-266.282	800.000	0.077	-0.274
-265.267	-95.080	-0.174	-0.047
-264.253	-180.277	0.133	0.003
-263.238	-97.912	0.062	0.016
-262.224	231.151	-0.038	-0.062
-261.209	-27.237	0.172	0.099
-260.195	642.874	0.069	-0.174
-259.180	-93.472	-0.208	-0.057
-258.165	-73.164	-0.155	0.056
-257.151	-55.261	0.137	-0.061
-256.136	152.212	-0.042	0.057
-255.122	-128.450	-0.520	-0.073
-254.107	800.000	-0.019	-0.060
-253.092	259.722	-0.129	-0.221
-252.078	596.883	0.095	0.233
-251.063	-48.073	-0.107	0.051
-250.049	153.755	-0.030	0.041
-249.034	-50.118	0.126	0.059
-248.019	-11.826	0.225	0.146
-247.005	-151.930	0.184	0.013
-245.990	-57.148	-0.173	0.076
-244.976	-43.411	0.172	-0.086
-243.961	231.615	-0.093	-0.151
-242.946	657.588	-0.018	-0.047
-241.932	300.958	-0.052	0.095
-240.917	-200.000	0.030	0.185
-239.903	87.438	-0.118	-0.130
-238.888	-99.887	0.081	0.020
-237.873	-171.713	0.342	-0.011
-236.859	-95.065	-0.362	-0.097
-235.844	421.034	-0.048	-0.102
-234.830	-200.000	-0.054	0.273
-233.815	-200.000	0.015	-0.198
-232.800	-26.846	-0.180	-0.104
-231.786	-200.000	0.017	0.149
-230.771	-200.000	0.063	-0.502
-229.757	36.838	-0.165	0.145
-228.742	-200.000	0.029	0.320
-227.727	-46.672	0.074	-0.036
-226.713	800.000	-0.095	-0.368
-225.698	800.000	0.077	-0.304
-224.684	800.000	-0.030	-0.095
-223.669	426.458	0.142	0.304
-222.655	144.256	0.106	0.141
-221.640	-161.828	-0.160	-0.008
-220.625	-106.233	-0.134	-0.030
-219.611	27.219	-0.335	-0.279
-218.596	123.231	0.103	0.128
-217.582	453.752	0.041	0.090
-216.567	-200.000	0.020	-0.156
-215.552	800.000	0.055	-0.199
-214.538	800.000	-0.061	-0.232
-213.523	-66.596	0.055	-0.022
-212.509	-200.000	0.029	-0.153
-211.494	777.184	-0.142	-0.386
-210.479	800.000	0.026	-0.095
-209.465	214.467	-0.082	-0.129
-208.450	-200.000	-0.041	-0.302
-207.436	71.778	0.177	0.182
-206.421	-126.875	0.284	0.041
-205.406	800.000	-0.084	-0.233
-204.392	29.805	-0.231	-0.195
-203.377	8.680	0.058	0.043
-202.363	-19.040	-0.133	-0.082
-201.348	102.926	-0.134	-0.156
-200.333	136.056	0.042	-0.054
-199.319	-200.000	0.055	0.247
-198.304	350.909	0.072	-0.141
-197.290	-79.656	0.090	0.030
-196.275	276.252	0.163	-0.286
-195.260	599.180	-0.045	-0.112
-194.246	-153.645	0.320	-0.022
-193.231	-113.876	-0.203	-0.039
-192.217	94.514	0.102	-0.115
-191.202	19.261	0.128	-0.102
-190.187	231.219	-0.192	-0.312
-189.173	409.023	0.142	0.297
-188.158	-200.000	-0.024	0.147
-187.144	-127.816	0.216	-0.031
-186.129	-200.000	-0.004	-0.148
-185.114	-92.020	0.463	-0.130
-184.100	150.770	-0.190	-0.255
-183.085	-200.000	0.048	-0.369
-182.071	37.981	0.179	-0.158
-181.056	-200.000	0.018	0.190
-180.042	-200.000	-0.022	0.096
-179.027	132.830	-0.152	0.194
-178.012	212.216	0.061	0.095
-176.998	-103.982	0.020	-0.005
-175.983	57.223	-0.251	0.243
-174.969	-15.030	-0.124	0.079
-173.954	-29.444	-0.138	-0.078
-172.939	-200.000	0.003	-0.022
-171.925	-136.153	0.311	0.036
-170.910	-200.000	0.017	0.176
-169.896	-48.823	-0.284	0.135
-168.881	41.072	-0.407	-0.364
-167.866	60.985	0.169	-0.166
-166.852	-200.000	-0.076	0.349
-165.837	-200.000	-0.018	0.248
-164.823	-200.000	-0.062	0.353
-163.808	159.029	0.050	-0.069
-162.793	-55.677	-0.153	-0.068
-161.779	-95.302	-0.184	-0.049
-160.764	453.489	0.025	-0.054
-159.750	-82.081	0.181	-0.058
-158.735	771.107	-0.085	-0.228
-157.720	105.606	-0.154	-0.180
-156.706	-90.688	0.408	0.117
-155.691	528.401	-0.089	-0.208
-154.677	649.558	-0.093	0.236
-153.662	38.261	-0.142	0.125
-152.647	291.582	0.041	0.074
-151.633	-95.624	0.301	0.080
-150.618	-200.000	-0.024	-0.141
-149.604	-77.352	0.263	-0.090
-148.589	7.983	0.196	-0.145
-147.574	-23.033	-0.081	-0.048
-146.560	-200.000	0.004	0.044
-145.545	273.326	0.087	-0.152
-144.531	7.162	-0.209	-0.154
-143.516	-73.648	-0.322	-0.116
-142.502	-158.345	0.450	-0.026
-141.487	-200.000	-0.007	-0.095
-140.472	-119.576	0.180	-0.031
-139.458	363.372	-0.054	-0.107
-138.443	-134.183	0.163	-0.020
-137.429	760.054	-0.094	0.251
-136.414	-32.817	0.141	0.077
-135.399	-103.343	0.301	-0.070
-134.385	500.264	0.126	0.288
-133.370	416.649	0.036	0.075
-132.356	594.723	0.142	-0.346
-131.341	-116.560	-0.142	0.026
-130.326	347.786	-0.136	-0.265
-129.312	-57.462	-0.131	-0.057
-128.297	-93.118	-0.351	-0.096
-127.283	538.129	0.172	-0.405
-126.268	159.758	0.069	-0.095
-125.253	-35.115	-0.043	-0.023
-124.239	-105.163	0.230	-0.052
-123.224	-23.850	0.207	-0.122
-122.210	9.301	0.079	0.059
