DTS Sentinel unit serial number:	SN413079Multiplexer serial number:	ORYXHardware model number:	OX4-SRSoftware version number:	ORYX F/W v4.00 Oryx Data Collector v3.7.2.0data status	okinstallation	princeton_trtdifferential loss correction	single-endedforward channel	channel 4reverse channel	N/Adate	2019/09/12time	18:33:19forward acquisition time	15.00reverse acquisition time	0.00gamma	496.2192k internal	0.2307k external	0.2307temperature offset calibration	1.0136default loss term (dB/km)	0.3790temperature slope calibration	1.0000multiplexer offset coefficient	1.0000multiplexer slope coefficient	1.0000fibre end	0.00T internal ref (°C)	33.19T ext. ref 1 (°C)	2.94T ext. ref 2 (°C)	27.79length (m)	temperature (°C)	Stokes	anti-Stokes-747.200	717.812	-0.260	0.702
-746.185	-200.000	0.081	-0.529
-745.171	-179.244	0.203	-0.005
-744.156	-200.000	-0.016	0.355
-743.142	-200.000	-0.022	-0.563
-742.127	-163.532	-0.946	0.046
-741.112	-115.630	0.787	-0.150
-740.098	-200.000	0.032	0.679
-739.083	591.621	-0.197	-0.494
-738.069	-147.666	-0.787	-0.067
-737.054	-200.000	0.102	0.626
-736.039	-58.996	-0.556	-0.244
-735.025	24.236	-0.401	0.337
-734.010	-200.000	0.094	-0.643
-732.996	117.368	-0.462	0.578
-731.981	-200.000	0.094	-0.498
-730.966	800.000	0.276	-1.205
-729.952	-87.840	0.334	0.102
-728.937	-86.103	0.336	-0.105
-727.923	164.286	-0.082	0.117
-726.908	131.182	-0.477	-0.622
-725.894	-53.677	0.681	0.316
-724.879	38.358	-0.784	0.710
-723.864	-3.159	-0.807	-0.572
-722.850	800.000	0.025	0.084
-721.835	165.105	-0.108	-0.155
-720.821	120.117	-0.243	-0.306
-719.806	-13.934	0.297	0.195
-718.791	80.776	-0.122	-0.133
-717.777	519.045	-0.208	0.494
-716.762	-102.180	0.156	0.038
-715.748	-35.063	0.675	0.374
-714.733	-200.000	0.039	0.430
-713.718	29.566	-1.088	-0.940
-712.704	-86.575	0.445	-0.139
-711.689	-71.480	-0.441	0.168
-710.675	341.305	0.031	0.062
-709.660	106.603	0.437	-0.526
-708.645	-23.914	0.508	0.309
-707.631	-142.283	0.671	-0.067
-706.616	72.868	-0.139	-0.147
-705.602	169.946	-0.186	0.270
-704.587	457.760	-0.090	0.202
-703.572	-47.399	-0.631	-0.311
-702.558	275.360	0.734	-1.321
-701.543	-200.000	0.067	-0.340
-700.529	-128.110	0.555	-0.081
-699.514	-41.453	-0.262	-0.137
-698.499	800.000	-0.273	0.970
-697.485	-200.000	0.033	-0.487
-696.470	139.769	0.163	-0.218
-695.456	-94.176	-0.185	-0.051
-694.441	-71.844	0.504	0.190
-693.426	190.755	-0.163	-0.248
-692.412	-173.858	-0.992	0.030
-691.397	-30.643	0.052	-0.030
-690.383	800.000	-0.036	-0.111
-689.368	459.990	-0.357	-0.806
-688.354	-69.790	0.141	-0.055
-687.339	291.966	-0.309	-0.571
-686.324	-200.000	0.014	0.150
-685.310	-61.667	-0.750	-0.319
-684.295	160.567	0.272	0.385
-683.281	-200.000	-0.135	-0.648
-682.266	-200.000	0.010	0.158
-681.251	-80.539	-0.412	0.139
-680.237	-87.807	-0.449	0.137
-679.222	706.346	-0.246	0.659
-678.208	44.117	0.053	-0.049
-677.193	-200.000	0.076	0.604
-676.178	124.468	0.306	-0.391
-675.164	263.170	0.310	-0.547
-674.149	87.935	-0.294	0.331
-673.135	-200.000	0.043	-0.750
-672.120	66.816	0.137	0.141
-671.105	358.257	0.457	-0.925
-670.091	-200.000	0.126	-0.891
-669.076	800.000	-0.070	0.297
-668.062	219.284	-0.334	-0.541
-667.047	56.719	0.394	-0.389
-666.032	-147.729	-0.776	0.066
-665.018	-200.000	-0.031	-0.243
-664.003	101.270	-0.312	-0.368
-662.989	-47.058	0.125	-0.062
-661.974	-54.799	0.399	-0.183
-660.959	800.000	0.130	-0.526
-659.945	609.289	0.320	0.810
-658.930	-67.360	0.275	-0.109
-657.916	586.406	-0.066	0.165
-656.901	-10.363	0.160	0.108
-655.886	232.921	-0.232	0.386
-654.872	102.042	0.821	-0.972
-653.857	800.000	0.227	-0.841
-652.843	-14.180	-0.285	-0.186
-651.828	-33.232	-0.220	0.124
-650.814	-200.000	0.170	-0.767
-649.799	-189.519	0.341	0.004
-648.784	264.893	0.212	0.375
-647.770	800.000	-0.084	0.353
-646.755	-164.832	-0.619	0.028
-645.741	193.253	-0.100	-0.154
-644.726	-101.742	-0.952	-0.234
-643.711	454.654	0.222	-0.499
-642.697	-200.000	0.106	-0.579
-641.682	-122.723	-0.570	-0.093
-640.668	136.304	0.853	-1.127
-639.653	-111.869	0.613	-0.125
-638.638	-200.000	0.094	0.450
-637.624	248.432	0.213	-0.365
-636.609	800.000	-0.059	-0.243
-635.595	136.249	-0.259	0.341
-634.580	153.458	-0.369	-0.512
-633.565	-88.049	0.722	0.220
-632.551	-103.909	-0.862	-0.204
-631.536	-107.652	-0.580	0.128
-630.522	-46.767	0.450	0.223
-629.507	-108.370	-0.567	-0.124
-628.492	252.672	0.249	-0.430
-627.478	-25.061	-0.736	0.442
-626.463	-155.522	-0.322	0.021
-625.449	-200.000	-0.072	0.462
-624.434	800.000	0.195	0.547
-623.419	-56.467	-0.660	-0.297
-622.405	-1.273	-0.805	-0.576
-621.390	330.571	-0.640	1.247
-620.376	21.134	-0.302	-0.248
-619.361	-24.663	-0.367	-0.221
-618.346	800.000	0.144	-0.540
-617.332	396.411	-0.227	-0.480
-616.317	63.569	-0.276	-0.280
-615.303	305.932	-0.140	-0.263
-614.288	66.706	0.451	-0.464
-613.273	56.188	-0.553	-0.543
-612.259	55.502	-0.221	0.217
-611.244	-165.315	-0.728	0.032
-610.230	-32.830	0.499	-0.280
-609.215	800.000	-0.217	-0.648
-608.201	-64.547	1.246	-0.512
-607.186	61.905	0.446	-0.450
-606.171	63.796	0.345	-0.350
-605.157	-122.462	0.286	-0.047
-604.142	-135.246	-0.722	0.088
-603.128	319.223	-0.205	-0.392
-602.113	-162.457	-0.158	-0.008
-601.098	-144.504	0.459	0.043
-600.084	-200.000	-0.026	-0.170
-599.069	282.536	-0.450	0.816
-598.055	-1.495	-0.285	-0.204
-597.040	-77.039	0.634	-0.224
-596.025	18.058	0.248	0.200
-595.011	-200.000	0.075	-0.942
-593.996	453.983	-0.296	-0.662
-592.982	-122.383	0.712	-0.117
-591.967	-135.399	-0.978	-0.118
-590.952	-4.576	-0.294	0.205
-589.938	-185.248	0.462	-0.007
-588.923	537.964	-0.377	0.905
-587.909	144.826	-0.093	-0.126
-586.894	141.841	0.521	0.698
-585.879	446.763	0.342	0.761
-584.865	800.000	-0.192	0.568
-583.850	800.000	-0.345	-1.004
-582.836	-58.180	-0.434	-0.191
-581.821	-200.000	0.060	0.452
-580.806	46.779	-0.444	-0.416
-579.792	180.580	-0.190	-0.282
-578.777	-121.516	-0.333	0.056
-577.763	800.000	-0.379	1.070
-576.748	345.382	0.091	0.180
-575.733	-136.240	0.303	-0.036
-574.719	-16.366	0.273	-0.175
-573.704	800.000	-0.399	-1.752
-572.690	449.974	-0.306	0.682
-571.675	97.655	0.338	0.392
-570.661	-200.000	-0.002	-0.452
-569.646	501.331	-0.306	-0.714
-568.631	-126.916	0.246	0.037
-567.617	-200.000	0.158	-0.898
-566.602	-200.000	-0.006	-0.827
-565.588	-11.171	0.176	-0.117
-564.573	800.000	0.122	-0.364
-563.558	-62.809	0.585	-0.245
-562.544	-200.000	-0.013	0.580
-561.529	800.000	0.263	0.891
-560.515	-0.601	0.824	0.590
-559.500	151.230	-0.349	0.479
-558.485	139.160	-0.328	-0.436
-557.471	-89.561	-0.763	-0.226
-556.456	128.230	-0.153	-0.197
-555.442	460.835	0.225	-0.506
-554.427	125.129	0.544	-0.692
-553.412	-132.148	-0.304	-0.040
-552.398	175.171	-0.234	0.342
-551.383	-200.000	0.030	-0.358
-550.369	-200.000	-0.050	0.491
-549.354	-200.000	0.101	-0.520
-548.339	23.772	-0.225	0.187
-547.325	397.962	-0.242	-0.511
-546.310	-200.000	-0.025	-0.118
-545.296	-55.937	0.096	-0.043
-544.281	152.399	-0.401	0.553
-543.266	-75.745	0.256	0.092
-542.252	-41.426	0.456	0.237
-541.237	-110.980	0.125	0.026
-540.223	-145.077	0.958	-0.088
-539.208	-27.175	0.823	0.484
-538.193	-108.817	0.401	0.087
-537.179	414.852	0.363	-0.780
-536.164	116.458	-0.472	-0.583
-535.150	-66.369	0.487	0.195
-534.135	-78.951	-0.337	-0.116
-533.121	179.728	-0.194	-0.286
-532.106	-8.743	-0.824	0.558
-531.091	316.375	-0.355	0.677
-530.077	800.000	0.059	0.227
-529.062	-200.000	0.026	-0.606
-528.048	-200.000	0.006	0.039
-527.033	-192.781	-0.458	-0.004
-526.018	42.722	-0.308	0.283
-525.004	250.631	0.505	-0.864
-523.989	120.072	0.340	-0.426
-522.975	-200.000	0.029	0.701
-521.960	-175.207	1.259	0.035
-520.945	204.586	-0.040	-0.062
-519.931	-14.423	0.475	-0.308
-518.916	-86.313	0.497	-0.154
-517.902	234.131	0.449	0.746
-516.887	318.964	0.298	-0.569
-515.872	800.000	-0.208	-0.714
-514.858	276.576	0.253	0.453
-513.843	749.251	-0.103	-0.281
-512.829	358.331	-0.233	0.470
-511.814	-92.332	-0.490	-0.139
-510.799	-47.148	0.193	-0.095
-509.785	-130.402	0.343	-0.047
-508.770	200.501	-0.162	0.252
-507.756	-39.438	-0.456	0.241
-506.741	-131.964	-0.748	-0.098
-505.726	195.648	0.300	0.460
-504.712	502.826	-0.178	0.414
-503.697	-97.294	-0.279	-0.073
-502.683	-85.858	0.368	0.115
-501.668	105.624	-0.258	0.307
-500.653	-200.000	0.022	0.758
-499.639	-5.386	-0.278	0.192
-498.624	800.000	-0.287	-0.906
-497.610	800.000	-0.252	-0.738
-496.595	18.845	-0.321	0.259
-495.581	403.926	-0.266	-0.564
-494.566	-64.767	0.343	-0.140
-493.551	44.300	0.492	-0.455
-492.537	-200.000	-0.089	1.013
-491.522	-5.787	-0.146	-0.101
-490.508	127.854	0.216	-0.276
-489.493	-7.988	0.238	0.162
-488.478	195.716	-0.217	-0.333
-487.464	-200.000	-0.026	0.143
-486.449	-97.039	-0.116	-0.030
-485.435	158.738	0.454	0.635
-484.420	-67.897	-0.156	0.061
-483.405	565.634	0.013	-0.031
-482.391	-2.921	-0.283	0.199
-481.376	-200.000	0.099	0.624
-480.362	-105.598	-0.282	0.064
-479.347	95.362	0.111	-0.127
-478.332	81.084	0.308	0.335
-477.318	-112.477	0.527	-0.106
-476.303	714.654	0.078	-0.208
-475.289	-124.288	0.921	-0.145
-474.274	-200.000	-0.105	-0.556
-473.259	-60.300	0.762	-0.326
-472.245	-72.996	-0.108	-0.040
-471.230	800.000	0.046	0.165
-470.216	144.540	-0.142	0.190
-469.201	66.476	-0.433	-0.443
-468.186	800.000	0.104	-0.316
-467.172	800.000	-0.084	0.287
-466.157	-200.000	0.062	-0.598
-465.143	-90.877	-0.499	-0.144
-464.128	-147.334	-0.586	0.050
-463.113	-200.000	-0.073	0.441
-462.099	217.429	-0.303	-0.485
-461.084	800.000	0.057	0.187
-460.070	472.175	-0.132	-0.299
-459.055	-93.793	-0.752	0.208
-458.040	800.000	-0.035	0.120
-457.026	382.803	-0.266	-0.551
-456.011	23.236	-0.220	0.182
-454.997	148.896	0.098	0.133
-453.982	-91.174	-0.861	0.248
-452.968	56.878	-0.267	-0.262
-451.953	285.763	-0.093	0.168
-450.938	-200.000	0.158	0.767
-449.924	379.018	-0.296	-0.610
-448.909	-41.723	-0.312	-0.161
-447.895	-76.189	-0.949	-0.337
-446.880	675.137	0.149	-0.390
-445.865	-124.770	-0.655	0.102
-444.851	800.000	0.266	-0.941
-443.836	41.631	-0.521	0.474
-442.822	800.000	0.131	-0.553
-441.807	56.339	-0.529	-0.517
-440.792	-200.000	0.031	1.055
-439.778	-200.000	-0.024	-0.538
-438.763	-200.000	-0.004	-0.092
-437.749	-156.081	0.707	0.045
-436.734	668.307	0.183	0.476
-435.719	-145.349	-0.181	0.016
-434.705	800.000	0.152	0.612
-433.690	60.760	0.401	0.399
-432.676	800.000	-0.134	0.385
-431.661	-200.000	0.045	0.437
-430.646	-11.588	0.032	0.021
-429.632	-200.000	-0.113	-0.655
-428.617	168.736	-0.169	-0.241
-427.603	-50.233	-0.320	0.152
-426.588	-103.418	1.094	0.259
-425.573	-106.487	0.297	0.067
-424.559	9.579	-0.171	0.130
-423.544	-111.416	-0.564	-0.115
-422.530	800.000	0.130	-0.389
-421.515	-114.337	0.600	-0.116
-420.500	800.000	-0.093	0.282
-419.486	-61.877	-1.164	-0.489
-418.471	-109.526	0.270	0.057
-417.457	-200.000	-0.685	-0.003
-416.442	210.803	-0.541	-0.854
-415.428	88.022	-0.060	0.067
-414.413	-139.243	0.896	0.097
-413.398	-121.440	0.783	0.131
-412.384	-200.000	-0.052	0.855
-411.369	228.318	0.438	0.717
-410.355	508.205	0.034	-0.080
-409.340	77.856	-0.317	0.339
-408.325	-44.845	0.611	0.306
-407.311	-19.437	0.211	0.131
-406.296	-68.436	-0.244	0.095
-405.282	148.289	0.274	0.371
-404.267	132.822	0.521	0.675
-403.252	-30.797	0.858	0.487
-402.238	-200.000	0.076	0.471
-401.223	-92.380	0.950	-0.268
-400.209	-1.369	-0.568	-0.402
-399.194	19.384	0.962	0.775
-398.179	104.665	0.166	-0.196
-397.165	800.000	-0.182	-0.572
-396.150	137.124	-0.282	0.370
-395.136	116.861	0.272	0.336
-394.121	-9.133	0.439	-0.294
-393.106	-97.131	-0.913	0.239
-392.092	-98.138	1.013	0.261
-391.077	-91.319	0.707	0.203
-390.063	127.858	0.344	-0.439
-389.048	-101.283	-0.626	-0.153
-388.033	-200.000	0.021	0.303
-387.019	-128.905	-0.156	0.022
-386.004	-17.163	-0.265	0.167
-384.990	97.073	0.379	0.436
-383.975	-200.000	-0.066	-0.647
-382.960	-137.421	-0.576	-0.065
-381.946	-89.693	-0.319	-0.094
-380.931	2.736	-0.502	0.365
-379.917	112.395	-0.175	0.212
-378.902	-98.887	0.487	0.124
-377.888	-57.873	0.446	0.195
-376.873	800.000	-0.369	1.125
-375.858	-200.000	-0.001	-0.177
-374.844	524.837	-0.222	-0.524
-373.829	107.437	-0.590	-0.703
-372.815	19.271	-0.578	0.465
-371.800	3.694	-0.426	-0.312
-370.785	-43.025	-0.365	-0.186
-369.771	157.063	-0.582	-0.807
-368.756	156.618	0.388	-0.537
-367.742	800.000	0.371	-1.348
-366.727	247.252	-0.120	-0.203
-365.712	800.000	-0.142	0.542
-364.698	184.109	-0.355	0.527
-363.683	121.332	-0.198	-0.247
-362.669	-74.727	0.618	0.223
-361.654	165.578	-0.241	-0.341
-360.639	-200.000	0.017	-0.421
-359.625	800.000	0.044	0.187
-358.610	-110.000	-0.527	-0.110
-357.596	-116.211	-0.323	-0.060
-356.581	-155.691	0.498	0.032
-355.566	-64.775	1.189	-0.482
-354.552	-200.000	-0.076	-0.779
-353.537	-132.798	0.297	-0.038
-352.523	39.936	-0.401	-0.361
-351.508	32.182	-0.459	0.397
-350.493	473.458	0.453	1.022
-349.479	-200.000	0.100	1.357
-348.464	-52.988	-0.870	0.401
-347.450	-200.000	-0.014	-0.381
-346.435	-200.000	0.138	0.668
-345.420	-134.833	-0.794	0.096
-344.406	800.000	-0.221	-0.892
-343.391	800.000	0.271	-0.848
-342.377	39.505	0.215	0.193
-341.362	-65.913	-0.904	-0.362
-340.348	192.260	-0.114	-0.172
-339.333	-200.000	-0.201	0.984
-338.318	-4.000	0.609	0.423
-337.304	800.000	0.075	-0.236
-336.289	-15.800	0.697	0.445
-335.275	602.128	0.199	-0.494
-334.260	60.855	0.197	0.196
-333.245	-63.950	-0.290	-0.119
-332.231	511.141	0.275	0.641
-331.216	-200.000	-0.011	0.169
-330.202	73.093	0.176	-0.184
-329.187	141.712	-0.118	0.156
-328.172	63.498	0.742	0.745
-327.158	-122.296	-0.394	0.064
-326.143	800.000	-0.160	-0.473
-325.129	3.726	0.390	-0.285
-324.114	4.411	-0.123	-0.090
-323.099	172.248	-0.354	0.509
-322.085	-91.668	0.527	0.150
-321.070	800.000	0.082	0.320
-320.056	737.983	0.075	0.202
-319.041	800.000	-0.123	0.515
-318.026	-200.000	0.047	-0.392
-317.012	-16.007	1.390	0.884
-315.997	-200.000	-0.006	0.174
-314.983	133.144	0.222	-0.287
-313.968	-200.000	0.005	1.810
-312.953	-3.900	0.348	-0.241
-311.939	-159.339	0.566	-0.032
-310.924	-196.579	-0.451	-0.003
-309.910	-200.000	-0.112	0.544
-308.895	-159.419	-0.318	-0.018
-307.880	-200.000	0.025	-0.215
-306.866	184.156	-0.337	0.499
-305.851	-20.535	0.500	0.307
-304.837	-105.810	0.787	-0.178
-303.822	-56.234	-1.015	0.451
-302.807	-200.000	-0.071	1.006
-301.793	800.000	0.283	0.974
-300.778	-200.000	-0.038	-0.572
-299.764	431.857	0.087	0.189
-298.749	-62.561	0.394	0.164
-297.735	78.642	-0.064	0.069
-296.720	16.798	-0.433	-0.342
-295.705	-102.412	0.534	0.128
-294.691	261.605	0.256	0.443
-293.676	800.000	0.140	0.557
-292.662	-101.374	-0.159	0.039
-291.647	-5.924	0.511	0.349
-290.632	428.721	-0.420	-0.906
-289.618	101.095	-0.511	0.594
-288.603	324.879	-0.133	-0.253
-287.589	-58.646	-0.390	-0.169
-286.574	-55.821	-0.552	0.246
-285.559	112.141	-0.446	0.539
-284.545	570.821	-0.071	0.173
-283.530	-2.863	0.341	0.238
-282.516	-200.000	0.197	-1.018
-281.501	-67.732	0.304	-0.119
-280.486	306.394	0.165	0.306
-279.472	-200.000	-0.081	0.377
-278.457	301.168	0.218	-0.402
-277.443	-159.396	-0.340	-0.019
-276.428	345.281	0.143	0.280
-275.413	800.000	0.056	-0.197
-274.399	-200.000	-0.089	0.421
-273.384	109.720	-0.348	0.416
-272.370	112.955	-0.483	-0.585
-271.355	-15.210	-0.314	0.201
-270.340	303.801	0.136	-0.253
-269.326	-86.472	-0.325	-0.099
-268.311	800.000	-0.232	0.732
-267.297	-68.559	0.124	0.048
-266.282	13.674	0.474	-0.368
-265.267	800.000	-0.146	0.425
-264.253	-129.284	0.498	0.069
-263.238	-64.975	0.610	-0.246
-262.224	4.098	0.062	-0.045
-261.209	212.343	0.191	0.301
-260.195	458.031	-0.118	0.261
-259.180	-81.642	0.945	-0.310
-258.165	-71.471	0.211	0.079
-257.151	-200.000	0.092	1.175
-256.136	800.000	0.247	0.962
-255.122	-19.849	0.365	-0.225
-254.107	-200.000	-0.161	-0.807
-253.092	91.670	-0.243	0.273
-252.078	181.252	-0.285	-0.418
-251.063	-164.546	0.468	-0.021
-250.049	800.000	0.321	-1.094
-249.034	-3.577	0.650	-0.451
-248.019	-30.433	0.300	-0.170
-247.005	777.035	-0.186	0.507
-245.990	-74.974	-0.248	0.089
-244.976	36.345	0.291	-0.256
-243.961	-200.000	0.016	0.625
-242.946	800.000	0.153	-0.558
-241.932	25.683	-0.114	-0.094
-240.917	-200.000	-0.114	0.603
-239.903	-200.000	-0.219	-1.164
-238.888	33.541	0.195	-0.169
-237.873	-200.000	0.006	0.252
-236.859	99.426	-0.070	-0.081
-235.844	-29.133	-0.491	-0.281
-234.830	-200.000	-0.023	0.192
-233.815	-3.036	0.677	0.471
-232.800	-2.408	-0.399	-0.279
-231.786	-18.757	0.567	-0.352
-230.771	-187.944	-0.677	0.009
-229.757	87.218	0.544	-0.599
-228.742	-144.992	0.425	0.039
-227.727	800.000	0.042	0.138
-226.713	8.918	0.021	0.016
-225.698	800.000	-0.169	-0.517
-224.684	-200.000	-0.013	-0.899
-223.669	546.491	0.140	0.334
-222.655	-200.000	0.155	-1.243
-221.640	328.901	-0.211	-0.404
-220.625	391.647	0.093	-0.194
-219.611	-105.037	0.463	0.106
-218.596	150.818	0.157	0.213
-217.582	-146.663	-0.083	0.007
-216.567	22.639	0.291	0.237
-215.552	800.000	0.148	-0.475
-214.538	-145.508	-0.374	-0.033
-213.523	800.000	0.159	-0.684
-212.509	800.000	0.222	-0.682
-211.494	-100.642	-0.462	-0.113
-210.479	138.844	0.197	-0.258
-209.465	-200.000	-0.124	-0.681
-208.450	-139.919	0.365	-0.038
-207.436	411.210	-0.435	0.919
-206.421	-200.000	0.007	0.946
-205.406	-177.752	-0.492	0.012
-204.392	800.000	0.263	-0.886
-203.377	-98.417	0.482	0.123
-202.363	-200.000	0.120	-0.680
-201.348	-200.000	-0.040	-0.229
-200.333	58.136	0.604	-0.589
-199.319	-86.518	-0.496	-0.151
-198.304	1.120	-0.226	-0.161
-197.290	-79.250	-1.357	0.458
-196.275	-200.000	-0.026	0.172
-195.260	529.717	-0.217	0.510
-194.246	-149.557	0.173	-0.014
-193.231	-200.000	-0.075	-0.354
-192.217	-134.491	0.218	-0.027
-191.202	-200.000	-0.058	-0.359
-190.187	724.297	-0.032	0.084
-189.173	-200.000	0.111	0.577
-188.158	-200.000	0.016	0.287
-187.144	38.261	-0.376	-0.333
-186.129	-0.931	0.223	-0.157
-185.114	45.768	0.812	0.747
-184.100	-10.851	0.293	0.193
-183.085	-113.768	0.717	-0.139
-182.071	-90.911	-0.356	0.102
-181.056	-85.841	0.270	-0.083
-180.042	143.033	-0.350	0.463
-179.027	108.573	-0.779	0.925
-178.012	35.732	0.455	0.398
-176.998	486.566	0.503	1.141
-175.983	20.911	0.334	0.270
-174.969	384.800	-0.440	-0.902
-173.954	-11.830	-0.517	0.337
-172.939	-142.571	0.510	0.050
-171.925	350.555	0.247	-0.485
-170.910	800.000	0.242	-0.675
-169.896	341.301	-0.279	-0.541
-168.881	-79.409	0.212	0.071
-167.866	800.000	0.264	-0.785
-166.852	-200.000	-0.114	1.622
-165.837	-183.007	-0.452	-0.008
-164.823	86.225	-0.232	0.255
-163.808	-145.465	-0.399	-0.036
-162.793	14.216	-0.690	-0.534
-161.779	-138.170	-0.310	0.034
-160.764	198.080	-0.058	-0.089
-159.750	783.947	0.250	0.681
-158.735	-118.374	0.783	0.138
-157.720	-10.859	-0.324	-0.213
-156.706	-78.458	-0.342	0.117
-155.691	75.182	0.329	0.345
-154.677	800.000	-0.149	0.625
-153.662	276.478	-0.206	0.364
-152.647	-147.776	0.271	0.023
-151.633	-200.000	0.040	-0.269
-150.618	338.794	0.171	0.331
-149.604	-88.857	0.839	0.247
-148.589	-13.687	0.182	0.117
-147.574	800.000	-0.140	-0.422
-146.560	-200.000	-0.026	0.440
-145.545	160.844	-0.417	0.579
-144.531	-57.670	-0.234	-0.102
-143.516	-45.982	0.286	-0.140
-142.502	100.099	0.237	-0.273
-141.487	-65.327	-0.552	0.221
-140.472	-184.822	0.275	0.004
-139.458	-50.281	0.431	-0.203
-138.443	-200.000	0.002	0.433
-137.429	171.001	0.197	0.280
-136.414	-59.711	1.171	0.498
-135.399	117.857	0.398	0.487
-134.385	800.000	-0.117	0.329
-133.370	688.673	0.649	-1.685
-132.356	-181.433	-0.631	0.012
-131.341	-200.000	-0.131	-1.052
-130.326	-81.910	-0.458	-0.149
-129.312	79.873	-0.639	-0.681
-128.297	-200.000	0.047	-0.314
-127.283	-144.006	-0.625	0.058
-126.268	-200.000	-0.004	-0.778
-125.253	26.405	-0.674	0.559
-124.239	-56.028	0.812	0.359
-123.224	-200.000	-0.030	0.417
-122.210	109.424	0.339	0.403
