DTS Sentinel unit serial number:	SN413079Multiplexer serial number:	ORYXHardware model number:	OX4-SRSoftware version number:	ORYX F/W v4.00 Oryx Data Collector v3.7.2.0data status	okinstallation	princeton_trtdifferential loss correction	single-endedforward channel	channel 4reverse channel	N/Adate	2019/09/12time	18:23:19forward acquisition time	15.00reverse acquisition time	0.00gamma	496.2192k internal	0.2308k external	0.2308temperature offset calibration	1.0134default loss term (dB/km)	0.3790temperature slope calibration	1.0000multiplexer offset coefficient	1.0000multiplexer slope coefficient	1.0000fibre end	0.00T internal ref (°C)	33.37T ext. ref 1 (°C)	3.00T ext. ref 2 (°C)	28.04length (m)	temperature (°C)	Stokes	anti-Stokes-747.200	800.000	-0.049	-0.156
-746.185	96.184	-0.461	0.535
-745.171	800.000	0.111	0.354
-744.156	-68.123	-0.356	-0.141
-743.142	-87.494	-1.063	0.327
-742.127	0.103	-0.382	0.277
-741.112	55.223	0.176	0.173
-740.098	-6.404	0.692	-0.479
-739.083	300.745	0.483	0.905
-738.069	800.000	0.184	0.580
-737.054	-14.392	0.711	0.465
-736.039	0.747	0.715	0.520
-735.025	-106.812	0.466	0.105
-734.010	-164.796	-1.078	-0.049
-732.996	132.484	-0.201	0.263
-731.981	-200.000	0.025	0.510
-730.966	-200.000	-0.064	-0.764
-729.952	400.855	-0.279	0.594
-728.937	201.545	0.271	0.424
-727.923	-200.000	0.047	0.536
-726.908	-112.170	0.425	0.087
-725.894	101.011	-0.601	-0.711
-724.879	-20.170	-0.266	-0.167
-723.864	800.000	-0.197	-0.726
-722.850	25.271	-0.220	-0.186
-721.835	-164.333	-0.836	0.039
-720.821	800.000	0.098	-0.289
-719.806	143.550	0.083	-0.112
-718.791	-54.536	0.346	0.159
-717.777	-200.000	0.168	-0.924
-716.762	-86.912	-1.263	-0.391
-715.748	-90.545	0.386	-0.114
-714.733	-182.113	-0.480	0.009
-713.718	-155.703	0.736	0.048
-712.704	18.458	-0.419	-0.340
-711.689	3.236	0.047	0.035
-710.675	79.340	0.434	-0.473
-709.660	182.682	0.313	0.469
-708.645	-11.338	-0.282	0.189
-707.631	69.641	-0.509	0.532
-706.616	438.527	0.105	0.232
-705.602	468.132	-0.322	-0.734
-704.587	276.781	0.193	-0.348
-703.572	442.280	-0.157	0.350
-702.558	-25.547	-0.546	-0.327
-701.543	34.295	0.303	-0.269
-700.529	800.000	0.268	0.777
-699.514	189.496	0.280	-0.426
-698.499	-81.153	0.729	-0.245
-697.485	-200.000	0.052	-0.648
-696.470	172.368	0.356	-0.520
-695.456	-77.933	-0.496	-0.173
-694.441	181.546	0.081	-0.120
-693.426	-140.151	-0.472	0.050
-692.412	-200.000	-0.090	-1.034
-691.397	21.996	0.459	0.380
-690.383	800.000	0.057	0.182
-689.368	685.187	-0.064	0.169
-688.354	-121.080	0.299	-0.051
-687.339	800.000	0.173	0.543
-686.324	25.258	-1.154	0.973
-685.310	-52.946	0.621	0.290
-684.295	413.674	0.332	0.717
-683.281	-188.722	0.831	0.010
-682.266	235.739	-0.326	-0.546
-681.251	-19.437	-0.269	-0.169
-680.237	-123.167	-0.671	0.109
-679.222	-100.133	0.273	0.069
-678.208	90.699	-0.331	0.376
-677.193	143.754	0.731	-0.988
-676.178	-200.000	0.124	0.861
-675.164	-32.041	0.685	0.388
-674.149	33.661	-0.110	-0.097
-673.135	800.000	0.079	0.297
-672.120	-46.500	0.223	0.111
-671.105	221.423	-0.356	-0.580
-670.091	-200.000	-0.230	-1.123
-669.076	438.208	0.207	-0.458
-668.062	12.097	-0.580	0.452
-667.047	185.056	0.814	-1.224
-666.032	-200.000	0.023	0.296
-665.018	-110.868	0.820	-0.171
-664.003	628.031	-0.113	0.291
-662.989	-121.160	0.902	0.153
-661.974	-9.601	-0.566	0.382
-660.959	-44.748	0.444	0.224
-659.945	800.000	-0.256	0.852
-658.930	104.745	0.389	-0.465
-657.916	-56.461	0.384	0.173
-656.901	-200.000	0.135	-0.745
-655.886	-196.074	-0.629	0.004
-654.872	-200.000	-0.105	-0.859
-653.857	-43.914	0.965	0.491
-652.843	-40.999	0.154	0.081
-651.828	-40.846	0.695	0.364
-650.814	-200.000	0.155	0.828
-649.799	-153.274	0.464	0.033
-648.784	-200.000	0.010	-0.415
-647.770	-200.000	-0.040	0.649
-646.755	282.280	0.606	1.101
-645.741	-200.000	0.683	-0.000
-644.726	82.149	-0.207	-0.227
-643.711	-36.336	-0.814	0.445
-642.697	632.404	-0.304	-0.781
-641.682	-97.493	-0.137	0.036
-640.668	294.583	0.253	-0.468
-639.653	114.583	-0.426	0.526
-638.638	203.650	-0.294	0.460
-637.624	164.691	-0.322	0.461
-636.609	-16.796	-0.280	0.179
-635.595	262.151	-0.503	0.883
-634.580	-200.000	-0.092	0.545
-633.565	-200.000	-0.016	-0.274
-632.551	67.359	0.271	0.280
-631.536	-133.186	-0.230	-0.029
-630.522	-128.400	1.259	-0.181
-629.507	-200.000	0.002	-0.888
-628.492	-200.000	-0.032	-0.154
-627.478	800.000	0.093	-0.357
-626.463	10.052	-0.296	-0.227
-625.449	-195.175	0.237	-0.002
-624.434	-64.125	0.346	0.143
-623.419	-36.940	0.406	0.220
-622.405	-146.120	0.208	0.019
-621.390	-21.054	0.213	0.132
-620.376	-200.000	0.035	-0.271
-619.361	140.543	-0.653	-0.872
-618.346	-10.925	0.142	-0.095
-617.332	45.743	-0.161	0.150
-616.317	800.000	0.095	0.366
-615.303	125.835	0.166	-0.212
-614.288	-200.000	0.190	-0.907
-613.273	800.000	-0.184	0.534
-612.259	164.776	0.404	0.577
-611.244	412.326	-0.117	0.251
-610.230	30.417	-0.376	0.325
-609.215	800.000	0.051	0.190
-608.201	-200.000	0.039	-0.239
-607.186	800.000	-0.171	-0.537
-606.171	59.798	-0.796	0.795
-605.157	-200.000	0.112	0.632
-604.142	-158.503	0.304	0.018
-603.128	18.321	0.882	0.712
-602.113	800.000	-0.038	0.120
-601.098	-200.000	-0.034	-0.755
-600.084	-200.000	-0.144	-0.655
-599.069	-200.000	0.065	-0.460
-598.055	-86.788	-0.404	0.125
-597.040	-29.797	0.442	-0.255
-596.025	-18.732	-0.436	0.275
-595.011	-8.233	-0.364	-0.248
-593.996	404.355	0.055	-0.117
-592.982	-104.106	0.516	-0.121
-591.967	800.000	0.314	-1.186
-590.952	-94.377	-0.650	0.179
-589.938	-98.451	-0.410	-0.106
-588.923	-51.694	-0.343	-0.162
-587.909	7.461	-0.491	-0.371
-586.894	800.000	0.166	0.572
-585.879	243.914	-0.182	-0.308
-584.865	-200.000	0.001	0.484
-583.850	-48.996	0.851	0.412
-582.836	48.194	0.504	-0.476
-581.821	525.469	-0.188	-0.447
-580.806	621.205	-0.131	0.332
-579.792	800.000	-0.289	1.007
-578.777	31.852	-0.599	-0.521
-577.763	703.348	-0.146	-0.389
-576.748	-17.170	0.142	-0.091
-575.733	-75.190	0.638	0.230
-574.719	539.148	0.122	-0.293
-573.704	246.025	0.332	0.564
-572.690	-200.000	-0.003	-0.257
-571.675	800.000	-0.111	-0.343
-570.661	-82.340	-1.120	0.368
-569.646	-185.053	-0.123	0.002
-568.631	24.438	0.305	0.255
-567.617	456.623	-0.200	0.447
-566.602	71.349	-0.164	0.172
-565.588	122.706	0.266	-0.337
-564.573	487.227	0.146	-0.336
-563.558	-136.129	0.723	0.086
-562.544	16.857	0.381	0.304
-561.529	-132.138	-0.150	-0.020
-560.515	185.077	-0.327	0.490
-559.500	24.454	0.729	-0.609
-558.485	10.994	0.681	-0.525
-557.471	127.192	-0.246	0.315
-556.456	-200.000	-0.113	-0.713
-555.442	800.000	-0.360	1.357
-554.427	800.000	-0.196	-0.545
-553.412	-161.930	0.249	-0.013
-552.398	-81.686	-0.277	0.092
-551.383	-85.624	-0.563	0.177
-550.369	-3.774	-0.325	0.228
-549.354	800.000	-0.042	0.171
-548.339	544.553	0.116	-0.280
-547.325	-101.321	0.048	0.012
-546.310	-200.000	0.115	-0.847
-545.296	-181.044	-0.196	0.004
-544.281	71.054	-0.703	-0.735
-543.266	-200.000	-0.050	-0.228
-542.252	113.438	-0.652	-0.798
-541.237	-200.000	0.099	0.462
-540.223	-91.394	0.190	0.055
-539.208	396.210	-0.138	0.290
-538.193	-9.661	0.269	0.181
-537.179	-28.768	0.232	-0.134
-536.164	676.619	-0.302	-0.790
-535.150	102.293	0.642	-0.756
-534.135	-163.402	-0.634	0.030
-533.121	-83.033	1.061	-0.345
-532.106	672.789	-0.080	-0.210
-531.091	-115.234	0.495	-0.094
-530.077	-124.131	-0.363	0.057
-529.062	800.000	-0.105	-0.330
-528.048	380.688	0.256	-0.530
-527.033	-137.392	-0.476	-0.054
-526.018	74.530	-0.209	0.222
-525.004	128.240	0.520	0.667
-523.989	316.015	0.236	-0.448
-522.975	-200.000	0.076	-0.696
-521.960	-200.000	-0.078	0.491
-520.945	-21.113	0.420	0.259
-519.931	106.177	-0.347	0.414
-518.916	-78.736	0.823	-0.283
-517.902	800.000	0.185	-0.676
-516.887	-65.892	-0.162	0.065
-515.872	-153.737	0.061	0.004
-514.858	-56.471	-0.588	-0.263
-513.843	-113.680	0.395	0.078
-512.829	136.531	0.201	-0.264
-511.814	-35.388	0.536	-0.293
-510.799	111.093	0.222	-0.269
-509.785	278.760	0.426	0.766
-508.770	-49.339	0.172	-0.083
-507.756	-182.434	-0.676	-0.013
-506.741	-60.260	-0.492	0.211
-505.726	154.187	0.296	-0.409
-504.712	7.936	-0.948	0.716
-503.697	24.621	-0.412	0.344
-502.683	-200.000	0.085	0.670
-501.668	-66.383	0.486	-0.194
-500.653	165.292	0.461	-0.656
-499.639	800.000	-0.314	0.886
-498.624	-24.562	0.159	0.095
-497.610	-43.254	0.456	0.232
-496.595	-94.358	0.642	-0.177
-495.581	226.766	-0.092	0.150
-494.566	48.156	-0.388	0.365
-493.551	-57.433	0.412	0.182
-492.537	-29.073	-0.207	0.119
-491.522	800.000	0.176	0.654
-490.508	281.493	0.667	1.202
-489.493	343.686	-0.087	-0.171
-488.478	-30.480	-0.891	0.508
-487.464	-62.033	0.511	-0.215
-486.449	-101.488	-0.088	0.022
-485.435	532.406	-0.146	0.348
-484.420	-200.000	-0.033	0.508
-483.405	335.471	-0.037	-0.072
-482.391	443.369	-0.249	-0.550
-481.376	-200.000	-0.003	0.423
-480.362	163.149	-0.167	0.236
-479.347	800.000	-0.106	-0.383
-478.332	-128.649	0.468	-0.067
-477.318	800.000	-0.118	0.494
-476.303	75.590	0.219	0.233
-475.289	-24.775	-0.272	-0.162
-474.274	-173.747	0.204	0.006
-473.259	142.655	-0.480	-0.641
-472.245	-200.000	-0.150	-0.933
-471.230	-46.597	0.592	0.292
-470.216	-200.000	0.108	0.515
-469.201	-200.000	-0.054	0.326
-468.186	56.049	0.205	0.200
-467.172	-200.000	0.058	-0.476
-466.157	170.047	-0.178	0.256
-465.143	-200.000	0.010	-0.671
-464.128	269.156	-0.260	-0.459
-463.113	-200.000	-0.119	-0.699
-462.099	-140.846	0.427	0.044
-461.084	-200.000	0.094	-0.555
-460.070	556.186	-0.099	-0.239
-459.055	-120.497	0.020	0.003
-458.040	-66.511	0.340	-0.136
-457.026	151.363	0.519	-0.711
-456.011	-32.549	-0.634	0.355
-454.997	2.854	0.409	-0.298
-453.982	-31.855	0.547	-0.308
-452.968	-164.705	0.838	-0.038
-451.953	47.326	-0.615	-0.576
-450.938	70.728	0.228	0.238
-449.924	-41.402	-0.356	0.184
-448.909	-66.686	0.692	-0.276
-447.895	-200.000	-0.226	1.042
-446.880	-85.941	-0.530	0.165
-445.865	800.000	0.143	0.426
-444.851	-79.100	0.326	-0.111
-443.836	184.116	-0.403	0.600
-442.822	259.374	0.313	-0.542
-441.807	129.836	0.344	-0.442
-440.792	186.816	-0.308	0.460
-439.778	-136.176	0.466	-0.055
-438.763	-49.835	0.775	-0.370
-437.749	-41.550	-0.568	-0.293
-436.734	6.119	-0.388	-0.289
-435.719	-8.444	0.260	-0.176
-434.705	10.098	-0.182	-0.139
-433.690	-174.018	0.412	-0.012
-432.676	-39.636	-0.125	-0.066
-431.661	-200.000	0.732	0.002
-430.646	-51.504	0.061	-0.028
-429.632	80.767	-0.262	0.284
-428.617	-108.935	0.208	0.045
-427.603	-147.395	1.038	0.088
-426.588	-97.298	1.016	0.266
-425.573	191.204	-0.175	0.264
-424.559	408.368	0.166	0.353
-423.544	18.830	-0.805	0.648
-422.530	58.802	0.298	-0.294
-421.515	-22.549	-0.813	-0.494
-420.500	74.049	0.117	0.124
-419.486	-115.424	-1.038	-0.196
-418.471	-111.989	0.485	0.098
-417.457	-114.268	-0.717	0.139
-416.442	200.998	-0.365	-0.563
-415.428	-24.789	-0.334	-0.199
-414.413	455.034	-0.207	-0.460
-413.398	-91.938	0.017	0.005
-412.384	-0.980	-0.172	-0.122
-411.369	-138.354	-0.351	0.039
-410.355	369.488	-0.179	-0.363
-409.340	106.370	0.468	0.556
-408.325	-73.362	-0.142	0.052
-407.311	-200.000	-0.083	0.995
-406.296	-181.282	0.560	-0.011
-405.282	95.219	-0.726	-0.829
-404.267	-23.533	0.182	-0.109
-403.252	310.698	-0.412	0.775
-402.238	-0.617	-1.042	-0.742
-401.223	-123.553	-0.384	0.061
-400.209	-134.754	-0.327	-0.040
-399.194	25.362	0.189	-0.158
-398.179	26.402	0.620	-0.520
-397.165	-65.808	-0.453	-0.182
-396.150	-103.107	-0.279	-0.066
-395.136	302.594	-0.107	0.199
-394.121	11.575	-0.793	0.610
-393.106	170.497	-0.365	0.525
-392.092	-71.537	-0.523	-0.196
-391.077	132.452	-0.111	0.143
-390.063	-200.000	0.014	-0.495
-389.048	800.000	-0.367	-1.067
-388.033	25.636	-0.200	-0.167
-387.019	-114.331	0.690	-0.133
-386.004	43.075	0.073	0.067
-384.990	-87.293	-0.754	0.229
-383.975	-89.390	0.454	0.134
-382.960	93.963	0.519	-0.590
-381.946	-94.858	0.690	-0.187
-380.931	-98.155	-1.023	-0.264
-379.917	-200.000	-0.029	-0.188
-378.902	13.167	-0.035	0.027
-377.888	407.065	0.136	0.288
-376.873	-160.943	0.664	-0.035
-375.858	211.398	-0.346	-0.545
-374.844	800.000	0.175	-0.644
-373.829	188.700	-0.437	0.655
-372.815	-200.000	0.005	0.625
-371.800	9.934	-0.313	0.238
-370.785	-4.719	-0.509	0.352
-369.771	-149.556	0.257	0.020
-368.756	-43.523	0.790	0.400
-367.742	-35.460	0.323	0.176
-366.727	-200.000	0.038	-0.427
-365.712	-200.000	-0.017	0.119
-364.698	393.466	0.194	-0.405
-363.683	-159.249	-0.794	0.045
-362.669	-200.000	-0.103	0.859
-361.654	-200.000	0.033	0.766
-360.639	459.312	-0.182	0.406
-359.625	-200.000	0.160	0.964
-358.610	23.484	-0.191	0.158
-357.596	109.220	-0.679	0.814
-356.581	146.370	0.315	-0.424
-355.566	-15.509	-0.445	-0.285
-354.552	29.705	-0.385	-0.328
-353.537	-33.684	-0.772	-0.426
-352.523	382.865	0.312	-0.643
-351.508	-75.614	0.412	0.147
-350.493	-123.689	0.750	0.119
-349.479	250.819	-0.302	-0.513
-348.464	113.008	0.297	0.360
-347.450	-45.889	0.256	0.127
-346.435	-19.557	-0.530	0.329
-345.420	-90.953	0.587	0.169
-344.406	-200.000	0.097	0.470
-343.391	800.000	-0.113	0.458
-342.377	16.324	-0.833	0.658
-341.362	-90.926	0.346	0.100
-340.348	-39.441	0.350	0.184
-339.333	-200.000	0.089	0.545
-338.318	31.539	-0.232	0.199
-337.304	-200.000	0.051	0.591
-336.289	251.508	0.364	-0.619
-335.275	19.903	0.331	-0.267
-334.260	545.273	0.286	0.684
-333.245	389.811	-0.185	0.384
-332.231	-6.650	-0.261	-0.178
-331.216	-83.239	0.204	0.066
-330.202	-50.588	-0.351	-0.165
-329.187	7.462	0.101	-0.075
-328.172	-80.951	0.111	-0.037
-327.158	800.000	0.145	-0.534
-326.143	-200.000	-0.084	-0.535
-325.129	240.077	-0.228	0.380
-324.114	-200.000	0.081	-0.982
-323.099	-95.737	0.477	-0.127
-322.085	-98.150	0.450	0.116
-321.070	-200.000	-0.000	-0.295
-320.056	263.062	0.186	0.323
-319.041	800.000	-0.243	0.786
-318.026	-51.707	-0.260	-0.121
-317.012	800.000	-0.160	-0.692
-315.997	-200.000	-0.099	-0.452
-314.983	-200.000	0.072	0.464
-313.968	-200.000	0.040	1.009
-312.953	800.000	0.277	0.858
-311.939	59.932	-0.161	-0.159
-310.924	800.000	-0.104	-0.409
-309.910	-41.848	-0.466	0.239
-308.895	-200.000	-0.051	0.803
-307.880	-72.058	0.843	0.313
-306.866	-8.818	0.356	0.238
-305.851	442.406	-0.541	-1.184
-304.837	-35.025	0.494	0.269
-303.822	52.566	-0.817	0.779
-302.807	604.867	-0.367	0.912
-301.793	-159.971	-0.493	0.027
-300.778	-113.973	-0.177	0.034
-299.764	100.628	0.706	-0.820
-298.749	-200.000	-0.102	-0.550
-297.735	-132.288	0.520	-0.067
-296.720	-179.070	0.695	-0.016
-295.705	-200.000	-0.096	-0.758
-294.691	-108.880	-0.693	-0.148
-293.676	156.593	-0.289	-0.398
-292.662	91.618	-0.848	0.952
-291.647	110.677	-0.578	0.694
-290.632	258.925	0.360	-0.620
-289.618	16.622	0.651	-0.514
-288.603	-31.057	-0.526	0.296
-287.589	-161.399	0.954	0.049
-286.574	-92.286	0.630	0.177
-285.559	800.000	0.076	0.220
-284.545	150.907	-0.135	-0.184
-283.530	204.238	-0.397	-0.615
-282.516	-5.918	0.795	0.543
-281.501	-200.000	0.060	0.753
-280.486	259.233	0.590	-1.015
-279.472	-127.327	0.100	0.014
-278.457	63.654	0.107	-0.107
-277.443	-44.347	-0.556	0.278
-276.428	19.978	0.449	0.361
-275.413	87.032	0.413	-0.456
-274.399	-67.539	-0.817	-0.320
-273.384	312.784	0.146	0.274
-272.370	-67.061	0.267	-0.105
-271.355	44.286	0.534	-0.489
-270.340	246.238	0.251	-0.423
-269.326	-3.263	-0.223	-0.155
-268.311	-40.314	0.135	0.070
-267.297	-24.109	0.265	-0.158
-266.282	-8.564	0.266	0.178
-265.267	-200.000	0.002	-0.610
-264.253	21.484	0.288	0.234
-263.238	1.871	-0.289	-0.208
-262.224	-158.564	-0.649	-0.037
-261.209	-21.545	-0.563	-0.342
-260.195	73.788	0.123	-0.129
-259.180	-180.677	1.006	0.021
-258.165	-200.000	-0.049	0.460
-257.151	-52.124	-0.407	-0.188
-256.136	-200.000	-0.078	-0.903
-255.122	-36.561	-0.411	-0.221
-254.107	253.321	0.133	0.226
-253.092	-192.230	0.514	-0.005
-252.078	800.000	-0.168	-0.556
-251.063	-137.227	0.834	0.095
-250.049	73.925	-0.640	-0.669
-249.034	-118.029	-0.646	-0.115
-248.019	465.516	0.031	-0.069
-247.005	54.558	0.318	-0.305
-245.990	-144.381	-0.742	0.069
-244.976	-111.505	-0.780	-0.158
-243.961	-164.590	0.104	0.005
-242.946	-200.000	-0.076	-0.752
-241.932	36.406	0.214	-0.188
-240.917	185.509	-0.170	0.252
-239.903	-200.000	0.089	-0.388
-238.888	-74.926	0.331	0.118
-237.873	-64.325	-0.866	0.351
-236.859	-67.681	0.849	0.331
-235.844	-32.028	1.345	0.750
-234.830	-37.875	-1.133	0.600
-233.815	-36.592	-0.554	0.297
-232.800	-147.827	0.816	-0.068
-231.786	800.000	0.241	0.685
-230.771	-57.317	-0.278	0.122
-229.757	37.693	-0.344	0.304
-228.742	62.356	-0.390	0.388
-227.727	-9.076	0.631	-0.420
-226.713	800.000	0.179	0.521
-225.698	-101.857	0.791	0.191
-224.684	-52.438	0.293	-0.135
-223.669	164.457	-0.046	-0.065
-222.655	-115.161	0.972	-0.183
-221.640	-87.390	0.229	-0.069
-220.625	-105.233	0.884	0.201
-219.611	-200.000	-0.041	-0.432
-218.596	-99.515	0.317	-0.079
-217.582	31.206	-0.725	-0.620
-216.567	-200.000	0.038	0.384
-215.552	5.300	0.358	-0.263
-214.538	800.000	-0.110	-0.431
-213.523	-66.553	-0.217	0.086
-212.509	-20.375	0.591	-0.362
-211.494	-2.390	-0.886	0.618
-210.479	800.000	0.072	-0.255
-209.465	-21.729	-0.441	-0.267
-208.450	-103.118	-1.209	0.285
-207.436	438.519	-0.324	0.704
-206.421	27.862	-0.483	-0.406
-205.406	581.048	0.299	0.730
-204.392	-50.091	-0.609	0.287
-203.377	201.881	-0.367	0.563
-202.363	800.000	-0.263	-0.958
-201.348	28.597	0.456	0.384
-200.333	-72.590	0.198	-0.073
-199.319	-110.721	0.410	0.084
-198.304	-200.000	-0.066	0.452
-197.290	0.695	0.098	0.070
-196.275	-200.000	-0.069	-0.399
-195.260	34.767	0.601	0.523
-194.246	-35.366	0.522	0.283
-193.231	-110.128	0.375	0.078
-192.217	658.414	0.222	-0.569
-191.202	-37.944	-0.096	-0.051
-190.187	-96.473	-0.402	-0.106
-189.173	-197.041	0.752	-0.005
-188.158	-167.127	0.603	-0.024
-187.144	-200.000	-0.019	-1.003
-186.129	313.482	-0.097	-0.181
-185.114	19.303	-0.249	0.199
-184.100	-81.719	0.162	0.053
-183.085	177.941	-0.354	0.513
-182.071	800.000	-0.083	-0.267
-181.056	800.000	0.149	0.447
-180.042	-105.729	-1.226	0.276
-179.027	-90.854	-0.559	-0.160
-178.012	-200.000	-0.043	1.049
-176.998	120.954	-0.389	0.481
-175.983	115.820	-0.157	0.191
-174.969	-116.742	0.083	0.015
-173.954	-36.232	-0.369	0.198
-172.939	-93.769	-0.214	0.059
-171.925	-200.000	-0.019	-0.517
-170.910	49.906	0.351	0.329
-169.896	-16.908	-0.508	0.319
-168.881	451.477	-0.231	-0.507
-167.866	571.861	-0.156	-0.378
-166.852	800.000	-0.324	-0.994
-165.837	-84.811	0.385	0.120
-164.823	800.000	-0.282	0.801
-163.808	-25.786	-0.174	-0.102
-162.793	-80.368	0.383	-0.127
-161.779	-93.664	0.099	0.027
-160.764	247.269	0.358	0.601
-159.750	-59.197	0.833	-0.357
-158.735	-173.408	-0.223	0.007
-157.720	121.818	-0.220	-0.273
-156.706	-0.151	-0.441	-0.312
-155.691	231.687	-0.266	0.433
-154.677	-33.405	-0.202	-0.111
-153.662	1.033	-0.448	-0.319
-152.647	800.000	-0.200	-0.832
-151.633	-92.870	0.989	-0.275
-150.618	800.000	0.185	0.659
-149.604	-176.526	-0.527	-0.014
-148.589	26.707	0.258	0.214
-147.574	-119.577	0.142	-0.024
-146.560	76.004	0.178	-0.187
-145.545	442.805	-0.150	-0.326
-144.531	126.848	0.043	0.054
-143.516	26.337	0.469	-0.389
-142.502	77.763	0.424	0.448
-141.487	205.148	0.181	-0.279
-140.472	-122.047	0.413	-0.067
-139.458	594.862	0.128	-0.316
-138.443	-200.000	-0.035	-0.399
-137.429	621.091	0.146	-0.365
-136.414	590.601	0.126	-0.309
-135.399	-71.327	0.376	0.140
-134.385	86.522	-0.152	0.167
-133.370	800.000	-0.022	-0.086
-132.356	-22.311	-0.205	0.123
-131.341	359.047	0.303	0.602
-130.326	622.323	-0.231	0.577
-129.312	-91.373	-0.549	-0.156
-128.297	205.989	0.060	-0.092
-127.283	31.959	-0.302	0.258
-126.268	-66.040	0.471	-0.187
-125.253	-33.417	-0.773	0.424
-124.239	660.861	-0.230	-0.587
-123.224	-72.352	0.208	-0.077
-122.210	492.756	0.197	-0.447
-121.195	-117.456	-0.382	-0.069
-120.180	362.745	-0.144	0.288
