DTS Sentinel unit serial number:	SN413079Multiplexer serial number:	ORYXHardware model number:	OX4-SRSoftware version number:	ORYX F/W v4.00 Oryx Data Collector v3.7.2.0data status	okinstallation	princeton_trtdifferential loss correction	single-endedforward channel	channel 4reverse channel	N/Adate	2019/09/18time	00:37:34forward acquisition time	60.00reverse acquisition time	0.00gamma	496.2192k internal	0.2334k external	0.2334temperature offset calibration	0.9994default loss term (dB/km)	0.3790temperature slope calibration	1.0000multiplexer offset coefficient	1.0000multiplexer slope coefficient	1.0000fibre end	0.00T internal ref (°C)	23.50T ext. ref 1 (°C)	0.16T ext. ref 2 (°C)	17.12length (m)	temperature (°C)	Stokes	anti-Stokes-747.200	-113.347	-0.260	-0.051
-746.185	421.420	-0.041	-0.089
-745.171	-200.000	-0.064	-0.301
-744.156	-16.261	-0.189	0.121
-743.142	-200.000	0.011	-0.172
-742.127	-62.935	-0.105	0.044
-741.112	553.277	0.015	-0.037
-740.098	93.251	-0.304	0.345
-739.083	225.912	0.013	0.020
-738.069	-200.000	-0.001	0.130
-737.054	241.835	-0.002	-0.003
-736.039	191.282	0.136	0.206
-735.025	-70.004	-0.175	0.067
-734.010	166.464	0.192	-0.274
-732.996	108.466	-0.130	0.156
-731.981	-5.076	-0.195	0.135
-730.966	-99.014	-0.226	-0.058
-729.952	2.283	-0.315	0.229
-728.937	2.396	0.248	-0.180
-727.923	-200.000	-0.038	-0.390
-726.908	30.203	-0.238	-0.204
-725.894	-86.198	0.273	-0.084
-724.879	237.592	-0.033	-0.055
-723.864	59.886	-0.196	0.194
-722.850	-128.785	0.127	0.018
-721.835	-37.135	0.028	-0.015
-720.821	-200.000	0.034	0.190
-719.806	-68.618	0.207	-0.081
-718.791	433.118	0.048	0.104
-717.777	-147.340	0.022	0.002
-716.762	285.039	-0.055	0.100
-715.748	101.402	-0.144	-0.169
-714.733	29.151	-0.254	-0.216
-713.718	251.585	-0.101	-0.173
-712.704	-200.000	0.005	-0.136
-711.689	378.456	-0.048	-0.099
-710.675	800.000	0.080	0.296
-709.660	170.552	-0.196	0.281
-708.645	32.352	-0.085	-0.073
-707.631	-200.000	-0.004	0.091
-706.616	24.087	0.136	-0.112
-705.602	-95.595	0.201	0.054
-704.587	800.000	-0.075	-0.296
-703.572	-54.237	-0.154	0.070
-702.558	-200.000	-0.012	0.150
-701.543	88.430	0.202	0.225
-700.529	260.404	0.127	-0.220
-699.514	89.857	-0.159	0.178
-698.499	-200.000	0.097	-0.595
-697.485	662.162	0.083	-0.214
-696.470	-135.126	-0.175	-0.021
-695.456	-74.227	-0.269	-0.098
-694.441	312.759	0.180	0.340
-693.426	-200.000	-0.005	0.060
-692.412	-68.332	0.489	-0.191
-691.397	-111.054	0.218	-0.045
-690.383	-79.278	0.222	-0.075
-689.368	33.952	0.130	-0.114
-688.354	-124.646	0.204	-0.032
-687.339	-184.799	0.235	-0.004
-686.324	800.000	-0.023	-0.064
-685.310	114.683	-0.125	-0.152
-684.295	3.877	-0.235	-0.172
-683.281	-147.231	-0.190	-0.016
-682.266	-200.000	0.001	0.374
-681.251	800.000	-0.074	0.261
-680.237	244.270	-0.158	0.266
-679.222	707.271	-0.122	0.323
-678.208	800.000	0.122	0.385
-677.193	248.526	-0.046	0.078
-676.178	576.078	-0.028	-0.067
-675.164	306.219	-0.063	-0.118
-674.149	-107.766	-0.244	-0.053
-673.135	800.000	0.044	-0.147
-672.120	-200.000	-0.054	0.260
-671.105	-70.712	-0.085	0.032
-670.091	800.000	-0.138	-0.499
-669.076	-120.690	-0.243	0.041
-668.062	-95.831	0.117	0.031
-667.047	-174.946	-0.356	-0.010
-666.032	121.088	-0.243	-0.303
-665.018	8.158	-0.184	-0.139
-664.003	109.281	0.200	0.240
-662.989	-20.190	0.156	-0.096
-661.974	-141.448	0.169	-0.017
-660.959	35.011	0.167	-0.147
-659.945	800.000	0.064	-0.204
-658.930	800.000	0.020	0.081
-657.916	91.758	-0.241	-0.271
-656.901	229.974	0.062	0.102
-655.886	-200.000	0.066	-0.298
-654.872	-137.893	-0.263	-0.029
-653.857	-73.909	0.273	-0.099
-652.843	86.818	-0.083	-0.091
-651.828	232.689	-0.124	0.203
-650.814	-61.544	-0.150	0.063
-649.799	218.163	-0.077	0.122
-648.784	186.422	0.105	-0.156
-647.770	151.186	-0.057	-0.078
-646.755	-133.384	-0.155	-0.019
-645.741	174.799	0.132	0.191
-644.726	61.361	-0.161	-0.160
-643.711	-94.404	0.254	-0.069
-642.697	128.577	0.234	0.299
-641.682	-101.602	-0.267	0.065
-640.668	454.339	-0.101	-0.224
-639.653	184.891	-0.099	0.147
-638.638	-200.000	0.015	-0.087
-637.624	-200.000	-0.011	-0.231
-636.609	205.044	-0.129	-0.200
-635.595	145.700	-0.203	-0.272
-634.580	-62.491	-0.256	0.106
-633.565	-178.558	-0.209	0.005
-632.551	472.572	-0.224	0.504
-631.536	-171.496	0.292	0.010
-630.522	-40.139	0.100	0.052
-629.507	-147.157	-0.351	-0.030
-628.492	-62.887	0.224	0.093
-627.478	-200.000	-0.050	0.234
-626.463	-104.609	0.195	0.045
-625.449	-88.406	-0.171	-0.051
-624.434	-183.726	-0.319	0.005
-623.419	-90.130	0.130	0.038
-622.405	735.188	-0.086	0.231
-621.390	-200.000	-0.029	0.287
-620.376	137.949	0.158	-0.207
-619.361	149.913	0.172	-0.233
-618.346	138.056	0.082	0.107
-617.332	-86.770	-0.093	0.028
-616.317	-132.721	0.119	-0.015
-615.303	14.722	0.078	-0.061
-614.288	800.000	-0.159	-0.524
-613.273	-90.637	-0.267	-0.077
-612.259	-48.777	0.151	-0.073
-611.244	-57.050	-0.250	-0.110
-610.230	-59.313	-0.255	0.110
-609.215	31.082	0.182	0.156
-608.201	198.199	0.157	0.240
-607.186	-200.000	0.038	-0.263
-606.171	-45.062	0.057	-0.028
-605.157	24.251	-0.144	-0.119
-604.142	63.410	0.301	-0.302
-603.128	-200.000	0.003	-0.110
-602.113	-102.561	0.184	-0.044
-601.098	-17.380	-0.167	-0.105
-600.084	-200.000	0.018	0.173
-599.069	517.547	0.069	-0.161
-598.055	-139.735	-0.296	-0.031
-597.040	-33.150	0.400	-0.222
-596.025	-96.501	-0.365	-0.096
-595.011	-98.283	0.489	0.125
-593.996	800.000	0.174	0.493
-592.982	-200.000	0.049	-0.272
-591.967	464.664	0.121	-0.270
-590.952	-200.000	-0.110	-0.534
-589.938	-200.000	-0.078	-0.498
-588.923	191.976	0.097	-0.145
-587.909	-192.884	-0.251	-0.002
-586.894	83.776	-0.085	-0.093
-585.879	64.425	0.310	-0.312
-584.865	-200.000	0.021	0.169
-583.850	-200.000	-0.000	0.162
-582.836	800.000	-0.069	-0.256
-581.821	-116.836	-0.210	0.038
-580.806	195.310	0.159	-0.241
-579.792	-52.407	-0.037	-0.017
-578.777	-152.607	0.130	-0.009
-577.763	-184.705	-0.228	0.004
-576.748	-148.712	0.326	-0.026
-575.733	387.836	0.145	-0.300
-574.719	-167.938	-0.203	0.008
-573.704	-146.239	0.177	0.016
-572.690	-86.358	0.325	0.100
-571.675	-112.711	-0.350	-0.069
-570.661	-200.000	-0.022	0.113
-569.646	-26.493	-0.218	-0.128
-568.631	-68.020	-0.195	-0.076
-567.617	-200.000	-0.019	0.110
-566.602	-200.000	0.003	-0.018
-565.588	-171.044	-0.230	0.008
-564.573	-200.000	0.023	0.358
-563.558	42.824	-0.185	0.168
-562.544	-63.883	0.210	0.086
-561.529	-34.710	0.202	0.110
-560.515	183.159	0.080	0.119
-559.500	748.131	0.029	0.079
-558.485	-20.108	-0.045	0.028
-557.471	-71.059	-0.167	-0.063
-556.456	-200.000	-0.026	-0.191
-555.442	340.955	0.061	-0.118
-554.427	79.899	-0.141	-0.152
-553.412	23.238	-0.161	0.132
-552.398	-44.147	-0.380	0.190
-551.383	641.035	0.103	0.262
-550.369	-157.778	-0.284	0.017
-549.354	107.290	0.054	-0.064
-548.339	-108.407	-0.143	-0.031
-547.325	800.000	0.093	0.264
-546.310	-10.363	-0.319	-0.211
-545.296	-58.491	-0.120	0.052
-544.281	161.792	0.087	-0.122
-543.266	262.230	0.056	0.097
-542.252	-57.355	-0.099	0.043
-541.237	-44.279	0.182	0.091
-540.223	7.824	-0.108	-0.081
-539.208	200.098	-0.174	-0.267
-538.193	2.004	-0.235	-0.169
-537.179	244.947	-0.085	0.143
-536.164	164.528	0.161	-0.226
-535.150	-30.094	0.129	0.073
-534.135	-48.233	0.118	0.057
-533.121	54.477	0.144	-0.138
-532.106	38.031	-0.283	-0.251
-531.091	7.435	0.200	0.149
-530.077	800.000	0.060	0.169
-529.062	-26.683	0.125	-0.073
-528.048	-200.000	0.017	-0.234
-527.033	-25.599	0.333	-0.196
-526.018	527.423	-0.122	-0.286
-525.004	800.000	0.128	0.401
-523.989	-8.496	0.080	0.054
-522.975	-200.000	-0.034	-0.538
-521.960	-200.000	-0.046	0.240
-520.945	-21.586	0.291	0.177
-519.931	-200.000	-0.022	-0.211
-518.916	19.481	0.265	-0.212
-517.902	-112.267	-0.329	0.066
-516.887	289.725	-0.172	0.311
-515.872	-3.076	-0.265	0.184
-514.858	57.661	-0.371	-0.361
-513.843	800.000	-0.035	0.130
-512.829	-89.630	-0.097	-0.028
-511.814	-57.882	-0.304	0.132
-510.799	142.054	0.058	-0.077
-509.785	389.474	0.055	0.113
-508.770	800.000	0.049	0.209
-507.756	800.000	-0.066	-0.212
-506.741	-200.000	0.114	-0.507
-505.726	800.000	-0.082	0.313
-504.712	16.779	0.072	-0.056
-503.697	800.000	-0.047	0.163
-502.683	-61.491	0.026	-0.011
-501.668	800.000	-0.063	-0.181
-500.653	-78.529	0.182	0.062
-499.639	-121.274	-0.113	0.019
-498.624	800.000	0.073	0.237
-497.610	39.576	-0.189	0.168
-496.595	29.028	0.062	-0.053
-495.581	288.192	-0.200	-0.360
-494.566	-92.623	0.179	-0.050
-493.551	29.722	-0.089	-0.075
-492.537	-27.607	-0.092	-0.053
-491.522	-200.000	0.000	0.235
-490.508	800.000	-0.095	0.336
-489.493	800.000	0.103	0.299
-488.478	83.880	0.172	0.187
-487.464	-85.631	-0.102	0.032
-486.449	800.000	-0.076	0.304
-485.435	248.417	-0.113	-0.190
-484.420	302.356	-0.085	0.156
-483.405	-107.756	0.295	0.064
-482.391	800.000	0.070	-0.233
-481.376	-126.678	-0.422	-0.062
-480.362	271.046	-0.068	-0.118
-479.347	-200.000	-0.022	-0.109
-478.332	-67.744	-0.376	0.146
-477.318	-84.670	-0.152	-0.047
-476.303	-76.384	0.134	0.047
-475.289	-141.097	-0.161	0.016
-474.274	-125.751	0.135	0.020
-473.259	468.357	-0.085	0.189
-472.245	-88.794	-0.558	0.165
-471.230	409.196	-0.126	-0.266
-470.216	211.427	-0.198	-0.310
-469.201	800.000	-0.015	-0.062
-468.186	-114.924	0.053	-0.010
-467.172	-127.682	0.110	0.016
-466.157	87.874	0.110	-0.121
-465.143	-91.275	0.050	0.014
-464.128	-200.000	0.075	0.559
-463.113	-42.199	0.275	-0.140
-462.099	-200.000	0.004	-0.181
-461.084	-200.000	-0.019	0.118
-460.070	570.404	0.115	-0.277
-459.055	-5.839	0.206	0.140
-458.040	-183.874	-0.209	0.004
-457.026	453.149	0.164	0.361
-456.011	-79.289	-0.138	0.046
-454.997	7.568	0.361	-0.268
-453.982	140.847	-0.146	-0.191
-452.968	528.962	-0.107	0.252
-451.953	-140.291	-0.134	-0.014
-450.938	-4.721	0.125	0.086
-449.924	-44.385	-0.339	0.169
-448.909	800.000	0.076	0.297
-447.895	-161.319	0.030	-0.002
-446.880	181.537	0.206	0.301
-445.865	33.190	-0.145	-0.125
-444.851	-76.639	0.071	-0.025
-443.836	36.206	0.150	0.131
-442.822	-139.684	-0.354	-0.037
-441.807	130.346	0.134	0.170
-440.792	213.601	0.308	0.484
-439.778	139.123	-0.183	-0.239
-438.763	454.980	0.068	-0.150
-437.749	-31.902	0.222	0.123
-436.734	-109.468	-0.267	0.056
-435.719	-56.042	-0.086	-0.038
-434.705	800.000	-0.006	-0.019
-433.690	25.367	-0.267	0.221
-432.676	-48.429	0.137	0.065
-431.661	-53.503	-0.263	0.120
-430.646	800.000	0.089	0.251
-429.632	422.854	0.155	0.330
-428.617	-122.915	-0.367	-0.059
-427.603	303.700	-0.179	-0.329
-426.588	-86.213	0.239	-0.073
-425.573	-200.000	-0.057	0.266
-424.559	59.798	-0.023	-0.023
-423.544	242.227	-0.133	-0.220
-422.530	-82.235	-0.565	-0.183
-421.515	-200.000	0.066	0.337
-420.500	-200.000	-0.012	0.097
-419.486	-200.000	-0.007	0.141
-418.471	800.000	-0.062	0.239
-417.457	-200.000	-0.044	0.442
-416.442	-101.409	-0.218	-0.053
-415.428	-200.000	0.009	-0.396
-414.413	-130.723	0.272	0.036
-413.398	-200.000	0.014	0.144
-412.384	800.000	0.108	-0.342
-411.369	635.111	0.057	-0.143
-410.355	83.774	-0.183	-0.198
-409.340	128.865	-0.153	0.194
-408.325	800.000	-0.062	-0.269
-407.311	-200.000	0.008	0.132
-406.296	-71.598	0.035	-0.013
-405.282	13.258	0.170	-0.131
-404.267	-71.807	-0.120	0.044
-403.252	800.000	0.080	0.240
-402.238	-200.000	-0.050	0.425
-401.223	-128.558	-0.170	-0.024
-400.209	-124.881	0.180	0.028
-399.194	-200.000	-0.000	0.023
-398.179	-133.200	-0.232	-0.029
-397.165	800.000	0.047	-0.181
-396.150	203.223	0.142	0.218
-395.136	-127.576	0.382	0.055
-394.121	15.791	-0.150	-0.117
-393.106	-200.000	-0.017	0.181
-392.092	-200.000	0.067	-0.365
-391.077	285.825	0.093	0.166
-390.063	32.067	0.114	-0.098
-389.048	800.000	-0.053	-0.207
-388.033	34.975	0.201	0.174
-387.019	800.000	0.012	0.048
-386.004	122.492	0.105	0.131
-384.990	399.714	0.186	0.387
-383.975	-70.136	-0.176	0.066
-382.960	143.758	-0.224	0.296
-381.946	-179.007	-0.356	0.008
-380.931	-157.478	0.163	-0.010
-379.917	-200.000	0.045	-0.298
-378.902	800.000	0.014	-0.053
-377.888	-11.401	0.170	-0.111
-376.873	-200.000	-0.069	-0.450
-375.858	-182.607	0.316	0.006
-374.844	-131.419	0.109	-0.014
-373.829	752.978	-0.136	0.363
-372.815	-200.000	-0.016	0.145
-371.800	615.230	0.090	-0.224
-370.785	-200.000	0.061	-0.306
-369.771	22.562	0.062	0.051
-368.756	25.549	-0.078	0.064
-367.742	110.200	-0.164	0.195
-366.727	429.095	0.091	0.194
-365.712	-63.268	-0.066	-0.027
-364.698	209.614	0.050	-0.078
-363.683	85.518	-0.123	-0.134
-362.669	257.390	-0.341	-0.581
-361.654	143.055	0.051	-0.067
-360.639	-163.121	-0.303	0.014
-359.625	274.485	0.036	0.064
-358.610	-83.066	0.183	-0.058
-357.596	-114.519	0.153	-0.029
-356.581	150.243	-0.135	0.182
-355.566	624.496	0.064	-0.161
-354.552	800.000	0.046	-0.171
-353.537	-84.450	-0.146	0.046
-352.523	404.073	0.074	-0.153
-351.508	-102.986	-0.110	-0.026
-350.493	-80.676	0.215	-0.071
-349.479	37.749	-0.114	0.100
-348.464	143.201	-0.198	-0.260
-347.450	32.685	-0.119	0.102
-346.435	366.047	0.082	0.164
-345.420	-112.900	-0.057	-0.011
-344.406	-97.672	0.293	0.075
-343.391	-44.386	-0.112	-0.055
-342.377	483.491	0.077	0.174
-341.362	-200.000	0.009	-0.305
-340.348	800.000	-0.081	0.301
-339.333	126.292	0.111	-0.139
-338.318	-200.000	0.004	-0.263
-337.304	-1.869	0.133	0.093
-336.289	-108.525	0.183	-0.039
-335.275	800.000	-0.088	-0.249
-334.260	-103.369	-0.279	-0.065
-333.245	-200.000	-0.036	0.212
-332.231	335.956	-0.024	0.046
-331.216	75.829	0.144	0.150
-330.202	208.507	-0.127	0.196
-329.187	-200.000	-0.037	0.253
-328.172	-200.000	0.013	0.222
-327.158	102.159	-0.036	0.042
-326.143	26.220	-0.103	0.085
-325.129	77.530	-0.150	0.158
-324.114	224.798	-0.092	0.147
-323.099	-191.859	0.404	-0.004
-322.085	-200.000	-0.029	0.138
-321.070	-67.663	-0.211	0.082
-320.056	82.464	0.024	-0.025
-319.041	-107.296	0.411	-0.089
-318.026	-26.790	-0.174	-0.101
-317.012	85.139	0.227	-0.246
-315.997	-165.618	-0.362	0.016
-314.983	85.744	-0.259	-0.282
-313.968	-98.712	-0.059	-0.015
-312.953	-200.000	-0.060	0.370
-311.939	-200.000	0.006	-0.250
-310.924	279.635	-0.132	-0.233
-309.910	-122.154	-0.080	-0.013
-308.895	-65.859	0.138	-0.054
-307.880	191.162	0.048	-0.071
-306.866	800.000	-0.074	0.202
-305.851	384.973	0.088	-0.180
-304.837	-200.000	-0.007	-0.165
-303.822	-12.268	-0.195	-0.126
-302.807	57.819	-0.183	-0.177
-301.793	48.188	-0.046	0.043
-300.778	-88.282	0.146	-0.043
-299.764	-89.739	-0.204	-0.059
-298.749	-65.767	0.344	0.136
-297.735	75.937	-0.156	-0.163
-296.720	-52.304	0.110	-0.050
-295.705	123.898	-0.096	0.119
-294.691	-119.908	0.203	-0.034
-293.676	117.628	0.163	-0.199
-292.662	-200.000	0.017	0.355
-291.647	800.000	0.074	-0.250
-290.632	-182.250	0.061	0.001
-289.618	-200.000	0.027	-0.355
-288.603	-95.793	-0.076	0.020
-287.589	102.240	0.016	-0.019
-286.574	-122.864	-0.287	0.046
-285.559	324.140	0.042	0.079
-284.545	-200.000	0.060	-0.301
-283.530	334.309	-0.194	-0.372
-282.516	800.000	-0.074	0.310
-281.501	-144.934	0.218	0.020
-280.486	49.108	-0.293	-0.271
-279.472	356.551	-0.132	-0.259
-278.457	-1.956	0.177	0.123
-277.443	89.075	0.120	0.132
-276.428	-104.091	0.170	-0.039
-275.413	588.694	-0.058	-0.140
-274.399	-108.159	0.257	0.055
-273.384	336.804	-0.043	-0.083
-272.370	12.377	-0.024	0.018
-271.355	-200.000	-0.042	0.198
-270.340	46.803	0.030	-0.028
-269.326	-177.744	-0.158	-0.004
-268.311	800.000	-0.009	-0.037
-267.297	-200.000	0.003	0.360
-266.282	-200.000	0.020	0.363
-265.267	-122.494	0.201	0.032
-264.253	186.579	0.134	0.196
-263.238	-200.000	0.029	-0.309
-262.224	148.968	-0.240	0.320
-261.209	800.000	-0.047	0.164
-260.195	800.000	-0.089	-0.266
-259.180	-73.692	0.309	0.111
-258.165	570.899	-0.022	-0.052
-257.151	800.000	0.018	-0.060
-256.136	125.857	0.128	0.159
-255.122	-200.000	0.002	-0.480
-254.107	800.000	-0.087	0.300
-253.092	-200.000	0.055	0.313
-252.078	100.175	-0.434	0.496
-251.063	-200.000	0.001	0.041
-250.049	588.381	0.147	-0.357
-249.034	337.100	0.084	0.161
-248.019	-200.000	-0.002	0.025
-247.005	68.440	0.070	0.071
-245.990	-200.000	-0.048	-0.234
-244.976	186.067	0.108	0.159
-243.961	-166.982	0.238	0.010
-242.946	-198.326	-0.113	-0.001
-241.932	79.020	0.157	-0.166
-240.917	800.000	0.071	0.293
-239.903	-200.000	0.012	-0.135
-238.888	-52.354	-0.247	-0.113
-237.873	-6.488	0.366	0.246
-236.859	800.000	-0.076	-0.313
-235.844	92.586	-0.190	0.211
-234.830	-200.000	0.004	0.144
-233.815	212.683	-0.164	-0.255
-232.800	-73.038	0.261	0.094
-231.786	-94.203	-0.156	0.042
-230.771	800.000	0.005	0.022
-229.757	-24.710	0.228	0.133
-228.742	-136.501	0.213	-0.024
-227.727	332.459	0.178	-0.339
-226.713	-65.475	0.250	0.099
-225.698	277.958	0.011	0.019
-224.684	278.208	0.032	0.057
-223.669	-200.000	-0.004	0.099
-222.655	-47.947	-0.125	-0.060
-221.640	800.000	0.130	0.389
-220.625	65.934	-0.083	0.083
-219.611	-200.000	0.063	0.326
-218.596	9.623	-0.219	0.164
-217.582	800.000	0.051	0.184
-216.567	155.977	-0.105	-0.143
-215.552	31.856	-0.154	0.131
-214.538	502.704	0.040	0.091
-213.523	-200.000	-0.037	-0.253
-212.509	-26.467	0.178	-0.103
-211.494	29.949	-0.178	0.149
-210.479	-200.000	0.018	0.158
-209.465	-54.045	0.353	-0.158
-208.450	138.181	0.109	-0.141
-207.436	1.194	-0.143	-0.101
-206.421	112.108	-0.078	-0.093
-205.406	557.428	0.116	-0.275
-204.392	-118.453	0.119	0.021
-203.377	-200.000	0.036	0.171
-202.363	800.000	0.122	-0.348
-201.348	-200.000	-0.015	-0.335
-200.333	-82.101	-0.082	-0.026
-199.319	37.052	0.178	-0.155
-198.304	-62.524	-0.345	-0.141
-197.290	230.377	0.139	0.224
-196.275	-124.569	0.144	-0.022
-195.260	-60.181	0.334	0.140
-194.246	249.299	0.102	-0.170
-193.231	-114.820	-0.261	0.049
-192.217	-102.704	0.428	0.100
-191.202	-200.000	0.016	-0.131
-190.187	-18.127	-0.012	-0.008
-189.173	47.135	-0.212	-0.194
-188.158	8.144	0.082	-0.061
-187.144	198.222	0.273	0.411
-186.129	-200.000	-0.019	0.210
-185.114	201.816	-0.231	0.350
-184.100	-200.000	0.084	-0.000
-183.085	800.000	-0.037	-0.120
-182.071	619.130	0.116	-0.286
-181.056	52.956	0.113	-0.106
-180.042	19.727	-0.230	0.182
-179.027	-100.262	0.161	0.039
-178.012	-78.716	0.240	0.080
-176.998	-200.000	-0.027	-0.129
-175.983	-142.332	0.299	0.029
-174.969	56.279	0.195	-0.186
-173.954	301.777	-0.207	-0.376
-172.939	449.423	-0.100	-0.217
-171.925	-200.000	-0.009	0.090
-170.910	-50.632	0.408	0.189
-169.896	-200.000	-0.023	-0.261
-168.881	23.497	0.126	-0.102
-167.866	-129.355	0.160	-0.022
-166.852	107.572	-0.087	-0.102
-165.837	40.146	0.117	0.103
-164.823	37.363	0.248	-0.216
-163.808	-200.000	-0.015	0.325
-162.793	-200.000	0.034	0.202
-161.779	-77.267	0.263	0.090
-160.764	-126.217	0.093	-0.014
-159.750	143.037	0.153	-0.200
-158.735	-172.167	0.213	-0.007
-157.720	-22.853	0.143	0.085
-156.706	61.604	0.230	0.225
-155.691	-200.000	-0.024	0.211
-154.677	-200.000	-0.020	0.213
-153.662	800.000	-0.037	0.132
-152.647	73.602	0.195	-0.200
-151.633	-169.823	0.124	0.004
-150.618	-182.815	0.288	-0.005
-149.604	196.022	0.083	-0.124
-148.589	-200.000	0.003	0.117
-147.574	800.000	0.122	0.335
-146.560	301.762	-0.206	0.375
-145.545	-200.000	0.000	0.090
-144.531	-200.000	0.049	0.264
-143.516	-200.000	0.036	0.229
-142.502	105.275	-0.106	-0.123
-141.487	800.000	0.026	-0.077
-140.472	32.681	0.200	-0.169
-139.458	21.878	0.204	-0.163
-138.443	277.358	-0.054	-0.095
-137.429	-200.000	-0.023	0.140
-136.414	-129.043	-0.148	-0.020
-135.399	-96.698	-0.170	0.044
-134.385	-48.851	-0.374	-0.176
-133.370	177.094	-0.118	-0.168
-132.356	313.834	-0.029	0.054
-131.341	111.562	-0.184	0.218
-130.326	800.000	-0.081	0.221
-129.312	159.286	0.217	0.296
-128.297	800.000	-0.087	0.358
-127.283	-4.606	0.203	-0.138
-126.268	-119.431	-0.164	-0.028
-125.253	496.064	-0.099	0.222
-124.239	-33.504	0.173	-0.094
-123.224	-180.858	-0.072	0.001
-122.210	-200.000	-0.011	-0.329
