DTS Sentinel unit serial number:	SN413079Multiplexer serial number:	ORYXHardware model number:	OX4-SRSoftware version number:	ORYX F/W v4.00 Oryx Data Collector v3.7.2.0data status	okinstallation	princeton_trtdifferential loss correction	single-endedforward channel	channel 4reverse channel	N/Adate	2019/09/18time	12:25:34forward acquisition time	60.00reverse acquisition time	0.00gamma	496.2192k internal	0.2306k external	0.2306temperature offset calibration	0.9987default loss term (dB/km)	0.3790temperature slope calibration	1.0000multiplexer offset coefficient	1.0000multiplexer slope coefficient	1.0000fibre end	0.00T internal ref (°C)	32.05T ext. ref 1 (°C)	0.52T ext. ref 2 (°C)	29.28length (m)	temperature (°C)	Stokes	anti-Stokes-747.200	58.131	0.103	-0.103
-746.185	-200.000	0.057	0.316
-745.171	705.315	0.083	-0.222
-744.156	-104.759	-0.194	0.045
-743.142	-200.000	-0.023	-0.238
-742.127	57.395	-0.060	0.060
-741.112	425.791	0.120	0.262
-740.098	266.611	-0.117	0.207
-739.083	-51.856	-0.145	-0.069
-738.069	-200.000	0.063	0.513
-737.054	-200.000	0.030	-0.271
-736.039	-104.173	0.229	-0.054
-735.025	521.314	-0.092	0.219
-734.010	-159.023	-0.362	-0.021
-732.996	30.742	-0.121	-0.105
-731.981	698.148	0.119	-0.318
-730.966	-24.223	0.131	0.079
-729.952	-127.215	-0.329	-0.049
-728.937	-43.403	-0.165	-0.085
-727.923	-18.453	-0.119	-0.075
-726.908	-200.000	-0.018	0.271
-725.894	-36.839	0.265	0.145
-724.879	25.009	-0.093	0.078
-723.864	324.250	-0.111	-0.215
-722.850	472.268	-0.064	-0.147
-721.835	240.619	0.139	-0.235
-720.821	228.295	0.310	-0.513
-719.806	-84.892	0.162	0.052
-718.791	800.000	-0.155	-0.454
-717.777	-62.603	-0.187	-0.079
-716.762	97.070	0.188	-0.219
-715.748	800.000	0.073	-0.237
-714.733	-35.874	-0.030	-0.016
-713.718	148.992	0.079	0.109
-712.704	-8.483	-0.182	-0.124
-711.689	-51.957	-0.221	-0.104
-710.675	133.635	-0.097	-0.127
-709.660	139.624	-0.224	-0.300
-708.645	-142.793	0.210	-0.021
-707.631	-128.045	0.462	-0.067
-706.616	-200.000	-0.014	0.148
-705.602	21.875	-0.026	0.022
-704.587	-70.539	-0.200	-0.077
-703.572	-88.244	0.352	-0.107
-702.558	-200.000	-0.009	-0.088
-701.543	-200.000	0.020	-0.169
-700.529	603.804	-0.014	0.037
-699.514	-102.521	-0.137	-0.033
-698.499	312.127	-0.090	-0.172
-697.485	268.469	0.048	0.086
-696.470	-5.180	0.122	-0.085
-695.456	800.000	0.029	0.103
-694.441	-27.601	-0.274	0.162
-693.426	28.713	0.069	0.059
-692.412	800.000	0.021	-0.084
-691.397	800.000	0.040	-0.165
-690.383	-94.857	0.299	-0.082
-689.368	55.338	-0.039	0.038
-688.354	800.000	-0.015	-0.051
-687.339	10.285	-0.111	-0.086
-686.324	181.508	0.318	0.475
-685.310	177.903	-0.055	0.081
-684.295	-57.204	-0.294	0.131
-683.281	-13.432	0.188	0.124
-682.266	-89.206	0.291	-0.087
-681.251	-200.000	0.009	-0.383
-680.237	191.683	0.168	0.256
-679.222	477.403	-0.098	0.226
-678.208	-200.000	0.029	-0.135
-677.193	-58.735	-0.243	0.107
-676.178	-111.980	0.428	-0.088
-675.164	-200.000	0.097	0.463
-674.149	-168.398	-0.195	-0.008
-673.135	-56.304	0.128	-0.058
-672.120	97.670	-0.192	0.224
-671.105	195.315	0.117	0.181
-670.091	187.139	-0.094	-0.142
-669.076	-176.529	-0.196	-0.005
-668.062	107.327	0.097	0.117
-667.047	-94.933	-0.101	-0.028
-666.032	46.453	0.279	-0.262
-665.018	-151.411	0.031	0.002
-664.003	-29.333	0.163	0.094
-662.989	-200.000	0.001	-0.385
-661.974	-133.730	0.303	-0.038
-660.959	113.755	0.106	0.130
-659.945	-12.897	0.144	0.095
-658.930	132.024	0.098	-0.128
-657.916	-200.000	0.015	0.127
-656.901	-200.000	0.012	-0.138
-655.886	-50.231	-0.218	-0.105
-654.872	-10.977	-0.115	0.077
-653.857	358.918	0.078	0.159
-652.843	-36.166	-0.344	-0.188
-651.828	800.000	-0.086	-0.301
-650.814	166.373	-0.162	-0.232
-649.799	628.035	0.072	-0.185
-648.784	-122.865	-0.490	-0.080
-647.770	-200.000	0.018	-0.117
-646.755	-62.279	-0.164	-0.069
-645.741	141.187	-0.057	0.076
-644.726	777.217	0.137	0.379
-643.711	800.000	0.132	-0.425
-642.697	-46.135	0.220	0.110
-641.682	-200.000	-0.005	-0.095
-640.668	-81.156	0.177	0.059
-639.653	-92.231	-0.022	-0.006
-638.638	-200.000	0.009	-0.153
-637.624	-58.580	0.252	0.111
-636.609	-5.501	-0.159	-0.111
-635.595	-193.880	0.321	-0.003
-634.580	-142.159	-0.185	0.019
-633.565	82.411	-0.214	-0.236
-632.551	-150.097	-0.180	-0.014
-631.536	-200.000	-0.025	-0.386
-630.522	195.434	0.133	-0.204
-629.507	-49.519	-0.149	-0.072
-628.492	25.717	0.300	-0.253
-627.478	-4.555	-0.401	-0.280
-626.463	584.668	0.093	-0.230
-625.449	125.894	0.109	0.140
-624.434	4.770	-0.456	-0.339
-623.419	112.553	-0.215	-0.263
-622.405	288.910	0.126	-0.232
-621.390	-169.212	0.366	-0.014
-620.376	-105.969	0.098	-0.022
-619.361	367.273	-0.169	0.345
-618.346	110.973	0.025	-0.031
-617.332	37.918	0.069	0.062
-616.317	800.000	0.063	0.253
-615.303	-40.561	0.411	-0.216
-614.288	790.335	-0.029	-0.081
-613.273	800.000	0.150	-0.454
-612.259	-148.725	0.277	-0.023
-611.244	-173.863	-0.195	-0.006
-610.230	-9.783	0.052	-0.035
-609.215	-108.655	-0.059	-0.013
-608.201	-47.909	0.109	-0.053
-607.186	-64.294	0.337	0.139
-606.171	-52.568	0.121	0.056
-605.157	-41.102	0.257	0.134
-604.142	-20.682	-0.080	0.050
-603.128	122.415	0.153	0.194
-602.113	-200.000	0.074	-0.412
-601.098	-20.533	-0.126	0.078
-600.084	-200.000	-0.048	0.278
-599.069	-200.000	-0.024	0.341
-598.055	-164.370	-0.034	-0.002
-597.040	-200.000	0.044	0.351
-596.025	-117.598	0.453	-0.083
-595.011	800.000	0.030	-0.123
-593.996	-86.460	0.334	-0.104
-592.982	-131.498	-0.102	-0.014
-591.967	181.710	0.128	0.190
-590.952	-118.435	0.087	-0.016
-589.938	-200.000	-0.012	-0.503
-588.923	36.146	-0.399	0.356
-587.909	59.689	0.160	-0.159
-586.894	-139.720	0.440	0.047
-585.879	-200.000	-0.019	-0.217
-584.865	800.000	0.080	0.289
-583.850	-23.988	0.089	0.054
-582.836	33.615	-0.034	0.030
-581.821	272.916	0.147	0.263
-580.806	-200.000	-0.008	-0.075
-579.792	800.000	0.044	0.176
-578.777	-20.814	-0.161	-0.100
-577.763	-200.000	0.014	0.195
-576.748	542.104	0.201	-0.484
-575.733	800.000	-0.060	0.219
-574.719	-200.000	-0.001	-0.372
-573.704	279.950	0.300	-0.542
-572.690	800.000	-0.038	-0.116
-571.675	-200.000	0.015	-0.354
-570.661	-86.913	0.167	0.052
-569.646	-200.000	-0.018	0.117
-568.631	204.694	-0.145	-0.227
-567.617	-96.244	-0.209	0.056
-566.602	-108.554	0.200	0.043
-565.588	53.221	0.071	-0.069
-564.573	17.862	0.171	0.138
-563.558	73.282	-0.100	-0.106
-562.544	-75.028	0.146	-0.053
-561.529	683.748	-0.122	0.321
-560.515	-200.000	-0.028	-0.140
-559.500	100.884	-0.088	0.103
-558.485	-200.000	-0.002	-0.012
-557.471	562.567	0.077	-0.189
-556.456	-152.342	0.196	-0.014
-555.442	396.409	-0.095	0.201
-554.427	84.577	0.257	-0.285
-553.412	-46.837	0.023	-0.011
-552.398	-108.772	-0.094	-0.020
-551.383	394.141	0.047	-0.099
-550.369	-101.006	0.050	-0.012
-549.354	138.781	-0.161	-0.214
-548.339	-76.599	-0.171	-0.060
-547.325	586.131	0.054	0.134
-546.310	-200.000	-0.004	0.222
-545.296	-200.000	-0.006	0.109
-544.281	275.438	0.057	0.102
-543.266	-200.000	0.006	0.185
-542.252	113.368	0.104	0.127
-541.237	-33.993	0.118	-0.065
-540.223	73.401	-0.142	0.150
-539.208	4.296	0.027	-0.020
-538.193	-53.154	-0.079	-0.037
-537.179	414.818	-0.136	-0.292
-536.164	780.617	-0.166	0.459
-535.150	-96.135	-0.185	-0.049
-534.135	-25.959	-0.106	0.063
-533.121	-60.139	0.194	-0.083
-532.106	-123.789	-0.067	-0.011
-531.091	14.260	0.176	0.138
-530.077	-104.520	-0.174	-0.041
-529.062	-121.777	-0.102	0.017
-528.048	175.065	0.249	-0.364
-527.033	-97.073	-0.259	-0.068
-526.018	166.820	-0.238	0.341
-525.004	-59.456	0.126	0.055
-523.989	-200.000	-0.029	-0.242
-522.975	800.000	0.110	0.327
-521.960	213.264	0.255	0.407
-520.945	34.968	-0.116	0.103
-519.931	45.678	0.166	-0.155
-518.916	-200.000	0.016	0.143
-517.902	-38.535	0.240	0.128
-516.887	26.512	-0.176	0.149
-515.872	800.000	-0.115	0.392
-514.858	-200.000	0.011	-0.244
-513.843	-200.000	-0.005	0.123
-512.829	134.456	0.114	-0.149
-511.814	800.000	-0.001	-0.003
-510.799	-200.000	0.017	0.219
-509.785	-36.145	-0.262	-0.143
-508.770	80.859	0.098	-0.106
-507.756	800.000	-0.055	0.158
-506.741	-77.420	-0.093	0.033
-505.726	-200.000	0.015	-0.291
-504.712	-40.423	-0.231	0.121
-503.697	800.000	0.025	0.072
-502.683	-112.466	0.101	-0.020
-501.668	800.000	0.052	-0.218
-500.653	-108.637	-0.094	0.020
-499.639	-200.000	-0.013	-0.136
-498.624	294.356	-0.133	-0.245
-497.610	800.000	-0.087	0.280
-496.595	-200.000	-0.016	0.084
-495.581	-78.879	-0.221	0.076
-494.566	-151.444	0.243	0.018
-493.551	546.742	-0.074	-0.178
-492.537	-110.730	-0.076	0.016
-491.522	-200.000	-0.000	0.279
-490.508	28.413	0.200	0.171
-489.493	231.709	0.067	-0.111
-488.478	-200.000	-0.119	0.000
-487.464	-140.290	-0.281	-0.030
-486.449	557.366	0.054	0.131
-485.435	-200.000	0.060	-0.349
-484.420	-200.000	-0.018	-0.125
-483.405	85.381	-0.170	0.188
-482.391	706.250	-0.112	0.297
-481.376	75.244	-0.011	-0.012
-480.362	-200.000	-0.225	-0.001
-479.347	-18.590	-0.068	-0.043
-478.332	-78.877	0.243	0.083
-477.318	-19.701	0.096	-0.060
-476.303	-168.286	-0.258	-0.010
-475.289	-23.673	-0.163	-0.098
-474.274	-35.149	-0.465	-0.255
-473.259	43.490	-0.151	0.139
-472.245	268.321	0.094	0.167
-471.230	-154.372	-0.166	0.011
-470.216	-11.319	-0.273	0.181
-469.201	272.702	0.034	-0.060
-468.186	80.223	0.060	0.065
-467.172	-43.617	-0.181	0.092
-466.157	183.109	0.073	0.109
-465.143	-30.319	-0.214	-0.122
-464.128	183.056	-0.103	0.153
-463.113	316.928	-0.072	-0.138
-462.099	89.460	-0.150	-0.168
-461.084	111.025	-0.128	0.155
-460.070	-129.932	-0.096	0.013
-459.055	-200.000	0.023	-0.156
-458.040	217.058	0.135	-0.217
-457.026	800.000	-0.012	0.042
-456.011	800.000	-0.103	-0.292
-454.997	87.355	0.098	-0.110
-453.982	558.426	-0.051	-0.123
-452.968	-65.979	-0.068	0.027
-451.953	800.000	-0.069	0.281
-450.938	520.528	0.026	0.060
-449.924	-20.613	0.311	-0.192
-448.909	-71.578	0.384	0.144
-447.895	800.000	0.049	0.181
-446.880	-154.594	0.149	-0.010
-445.865	42.519	-0.148	-0.135
-444.851	-53.512	-0.257	-0.118
-443.836	19.909	0.108	-0.088
-442.822	-141.230	-0.463	0.047
-441.807	465.137	-0.058	0.130
-440.792	-178.518	-0.240	0.006
-439.778	-50.951	-0.171	0.081
-438.763	-200.000	0.035	0.162
-437.749	-0.113	-0.205	0.147
-436.734	-200.000	0.004	-0.039
-435.719	-110.366	-0.282	-0.059
-434.705	693.246	0.094	0.246
-433.690	800.000	0.037	-0.155
-432.676	-200.000	-0.006	-0.329
-431.661	103.248	0.097	0.114
-430.646	-46.404	0.219	-0.108
-429.632	800.000	0.092	-0.257
-428.617	-89.161	-0.218	-0.065
-427.603	-200.000	-0.011	0.231
-426.588	28.664	0.346	-0.294
-425.573	-200.000	0.019	0.331
-424.559	30.220	0.038	0.033
-423.544	-39.375	-0.167	0.088
-422.530	45.490	0.246	-0.228
-421.515	122.414	0.063	-0.079
-420.500	-102.077	-0.160	-0.039
-419.486	278.764	-0.051	0.091
-418.471	800.000	-0.045	0.193
-417.457	-31.118	0.147	-0.083
-416.442	139.849	0.168	0.223
-415.428	-11.018	0.175	-0.116
-414.413	182.229	-0.045	-0.067
-413.398	189.341	-0.236	-0.355
-412.384	-69.741	0.103	-0.039
-411.369	135.234	0.228	0.298
-410.355	298.482	0.121	-0.223
-409.340	-9.043	-0.163	0.109
-408.325	238.875	0.052	-0.087
-407.311	800.000	0.053	-0.161
-406.296	-120.615	0.449	-0.076
-405.282	52.987	-0.154	-0.148
-404.267	-200.000	0.003	-0.017
-403.252	-4.118	0.263	0.183
-402.238	199.618	-0.173	0.267
-401.223	232.039	0.147	-0.243
-400.209	392.194	0.030	-0.063
-399.194	-33.755	-0.255	0.141
-398.179	770.921	-0.062	0.170
-397.165	245.566	-0.042	-0.071
-396.150	699.736	0.102	0.270
-395.136	-61.463	0.345	0.146
-394.121	-23.701	0.307	-0.185
-393.106	-41.533	-0.275	-0.142
-392.092	15.390	-0.295	0.232
-391.077	2.769	0.213	-0.155
-390.063	-77.553	-0.233	0.081
-389.048	800.000	0.057	0.161
-388.033	590.611	-0.062	0.153
-387.019	653.201	0.117	0.302
-386.004	-117.911	-0.401	0.072
-384.990	45.177	0.115	-0.107
-383.975	-19.165	0.154	0.096
-382.960	59.980	-0.095	-0.094
-381.946	-95.188	-0.085	0.023
-380.931	-200.000	0.018	0.103
-379.917	-200.000	-0.035	0.272
-378.902	457.682	0.154	-0.343
-377.888	-109.266	-0.310	0.066
-376.873	-79.032	0.346	0.118
-375.858	-104.967	0.114	0.026
-374.844	-122.156	0.091	0.015
-373.829	-146.444	0.304	-0.027
-372.815	-62.670	-0.196	-0.082
-371.800	51.422	-0.140	0.134
-370.785	8.122	-0.076	0.057
-369.771	234.732	-0.092	0.153
-368.756	-119.672	0.242	0.042
-367.742	4.326	-0.263	-0.193
-366.727	800.000	0.159	-0.444
-365.712	97.123	-0.213	-0.245
-364.698	54.549	-0.108	0.105
-363.683	800.000	-0.045	0.153
-362.669	334.460	0.066	0.127
-361.654	-200.000	-0.001	-0.127
-360.639	-108.113	-0.258	0.056
-359.625	800.000	0.067	0.265
-358.610	15.951	-0.103	-0.081
-357.596	-3.795	0.156	-0.109
-356.581	800.000	-0.200	0.586
-355.566	-200.000	0.008	-0.372
-354.552	-63.697	-0.067	0.027
-353.537	-200.000	-0.010	-0.120
-352.523	-16.815	-0.160	-0.101
-351.508	-141.555	-0.184	0.019
-350.493	619.041	-0.108	-0.271
-349.479	800.000	-0.072	0.203
-348.464	-200.000	-0.061	0.368
-347.450	110.731	-0.242	-0.292
-346.435	-158.588	0.125	-0.007
-345.420	49.775	0.265	0.250
-344.406	800.000	-0.057	0.240
-343.391	80.963	-0.044	-0.047
-342.377	75.472	0.085	0.090
-341.362	-150.626	0.046	0.004
-340.348	-107.555	-0.171	-0.038
-339.333	34.476	-0.087	-0.076
-338.318	-41.238	-0.193	0.100
-337.304	-64.607	0.044	0.018
-336.289	-200.000	-0.012	0.215
-335.275	800.000	-0.053	0.165
-334.260	-73.394	-0.168	0.061
-333.245	-200.000	-0.046	0.328
-332.231	143.932	-0.177	0.237
-331.216	-39.312	0.230	0.121
-330.202	-35.807	-0.220	0.119
-329.187	-78.318	-0.118	-0.041
-328.172	800.000	-0.029	-0.093
-327.158	22.598	-0.203	0.167
-326.143	-101.499	-0.197	-0.048
-325.129	2.108	0.222	-0.161
-324.114	-135.271	0.190	0.023
-323.099	-143.536	0.201	-0.019
-322.085	-172.467	0.096	0.003
-321.070	-200.000	0.027	-0.201
-320.056	-107.661	-0.475	-0.104
-319.041	-38.396	0.070	0.037
-318.026	-96.350	0.073	-0.019
-317.012	21.531	-0.324	-0.264
-315.997	-200.000	0.003	0.085
-314.983	-59.270	-0.101	-0.043
-313.968	800.000	-0.042	0.134
-312.953	147.446	0.380	0.512
-311.939	-102.938	0.143	-0.034
-310.924	-200.000	-0.035	0.161
-309.910	621.211	0.163	-0.410
-308.895	356.751	0.098	0.194
-307.880	-200.000	-0.002	-0.038
-306.866	674.866	-0.066	0.172
-305.851	-137.453	-0.453	0.051
-304.837	257.265	-0.102	-0.175
-303.822	-160.566	0.276	-0.015
-302.807	72.402	-0.266	0.278
-301.793	71.936	-0.303	-0.315
-300.778	-85.020	-0.297	-0.093
-299.764	-200.000	0.002	0.149
-298.749	34.897	-0.107	0.093
-297.735	-79.363	0.179	-0.061
-296.720	268.108	-0.061	0.107
-295.705	-200.000	-0.033	0.196
-294.691	-104.426	0.121	-0.028
-293.676	106.190	-0.310	-0.367
-292.662	-200.000	0.006	0.055
-291.647	-51.108	-0.143	0.067
-290.632	-21.169	-0.136	0.083
-289.618	333.965	-0.040	0.078
-288.603	-1.783	0.246	-0.173
-287.589	-36.220	0.217	-0.117
-286.574	45.515	-0.119	0.110
-285.559	-68.634	0.052	0.020
-284.545	-14.115	-0.328	-0.211
-283.530	1.816	-0.058	0.042
-282.516	-116.870	-0.213	0.039
-281.501	-69.666	-0.199	0.076
-280.486	800.000	-0.038	-0.117
-279.472	-200.000	-0.042	0.218
-278.457	-183.407	0.304	0.005
-277.443	55.121	0.234	0.226
-276.428	-57.390	-0.112	-0.049
-275.413	800.000	0.077	0.255
-274.399	55.330	-0.180	0.174
-273.384	37.473	-0.095	-0.084
-272.370	657.611	0.050	0.129
-271.355	-200.000	0.007	0.091
-270.340	-11.788	-0.165	-0.108
-269.326	333.028	0.032	0.062
-268.311	-127.422	-0.301	-0.044
-267.297	-198.485	0.249	0.001
-266.282	241.640	0.088	-0.148
-265.267	-120.937	0.209	-0.035
-264.253	-37.911	0.260	0.138
-263.238	-82.585	-0.450	-0.146
-262.224	-161.291	-0.257	0.013
-261.209	-8.237	-0.262	-0.176
-260.195	-174.472	0.387	0.011
-259.180	576.088	0.057	0.139
-258.165	113.945	0.329	-0.399
-257.151	-200.000	0.015	-0.183
-256.136	52.999	-0.076	0.073
-255.122	-147.169	0.100	-0.009
-254.107	-200.000	-0.030	0.351
-253.092	-55.346	0.098	-0.044
-252.078	800.000	-0.039	-0.126
-251.063	-200.000	-0.007	0.304
-250.049	-1.569	-0.291	0.205
-249.034	-144.273	0.079	-0.007
-248.019	-103.678	-0.182	0.043
-247.005	-170.874	0.415	0.014
-245.990	150.832	0.159	0.215
-244.976	-120.382	0.469	-0.080
-243.961	-200.000	0.017	-0.190
-242.946	-89.474	0.114	0.033
-241.932	-35.257	-0.044	0.024
-240.917	-200.000	0.023	0.445
-239.903	-103.646	-0.112	-0.026
-238.888	399.128	-0.100	0.209
-237.873	-180.953	0.108	0.002
-236.859	-157.346	0.324	-0.020
-235.844	-152.331	0.312	-0.022
-234.830	800.000	0.043	-0.123
-233.815	100.199	-0.109	0.126
-232.800	-104.980	0.261	-0.060
-231.786	3.769	-0.259	0.188
-230.771	-194.723	0.161	-0.001
-229.757	403.466	0.034	-0.071
-228.742	147.179	0.226	-0.304
-227.727	37.928	0.280	-0.248
-226.713	695.368	0.064	0.168
-225.698	-85.581	0.130	0.040
-224.684	-45.243	0.075	-0.037
-223.669	-86.988	0.321	-0.098
-222.655	-49.337	0.303	-0.144
-221.640	679.904	0.091	-0.236
-220.625	-5.205	-0.340	0.233
-219.611	217.836	0.190	-0.303
-218.596	457.584	0.036	-0.081
-217.582	-137.526	-0.203	0.023
-216.567	-38.946	0.013	0.007
-215.552	-68.499	-0.094	0.036
-214.538	-128.425	0.087	0.012
-213.523	-200.000	-0.001	-0.030
-212.509	59.183	-0.138	0.135
-211.494	7.613	-0.156	0.116
-210.479	46.082	0.233	-0.215
-209.465	774.304	0.053	0.144
-208.450	-108.707	-0.282	-0.060
-207.436	-164.130	0.191	-0.009
-206.421	800.000	0.013	0.045
-205.406	-133.918	0.553	0.068
-204.392	-200.000	-0.013	-0.382
-203.377	800.000	0.134	0.547
-202.363	-132.824	0.034	-0.004
-201.348	-51.830	0.070	0.032
-200.333	800.000	-0.082	-0.341
-199.319	107.630	0.353	-0.419
-198.304	429.472	0.114	0.245
-197.290	-200.000	0.032	-0.231
-196.275	-67.697	-0.193	-0.075
-195.260	91.610	-0.049	-0.055
-194.246	-39.468	0.440	0.230
-193.231	800.000	-0.080	-0.327
-192.217	154.641	-0.083	-0.113
-191.202	14.302	-0.119	0.093
-190.187	-88.523	-0.254	0.075
-189.173	188.821	-0.152	-0.227
-188.158	-164.750	-0.204	0.009
-187.144	-141.075	0.040	-0.004
-186.129	-87.351	-0.073	-0.022
-185.114	-107.711	0.060	0.013
-184.100	-200.000	-0.018	-0.153
-183.085	-78.243	0.227	0.078
-182.071	-113.901	0.239	-0.046
-181.056	23.259	-0.253	-0.207
-180.042	686.555	0.038	-0.099
-179.027	800.000	0.052	-0.189
-178.012	-200.000	-0.021	-0.180
-176.998	-101.330	0.278	0.067
-175.983	-55.723	-0.271	0.121
-174.969	48.855	0.143	-0.134
-173.954	139.822	0.075	0.099
-172.939	-200.000	-0.031	0.330
-171.925	-134.254	-0.360	0.044
-170.910	-200.000	0.019	-0.192
-169.896	-200.000	-0.036	-0.179
-168.881	-134.846	0.099	-0.012
-167.866	800.000	-0.072	-0.219
-166.852	-84.351	-0.225	-0.071
-165.837	-15.500	-0.086	0.055
-164.823	-200.000	0.002	-0.204
-163.808	95.019	0.159	0.180
-162.793	800.000	-0.035	0.120
-161.779	545.592	0.198	0.471
-160.764	616.104	0.047	0.117
-159.750	58.367	-0.197	-0.192
-158.735	-22.526	-0.314	0.189
-157.720	-26.648	0.098	-0.057
-156.706	800.000	-0.019	-0.065
-155.691	18.605	0.170	-0.135
-154.677	800.000	0.046	0.151
-153.662	178.809	0.113	0.164
-152.647	-200.000	-0.002	0.075
-151.633	-83.228	-0.220	-0.070
-150.618	-41.566	0.246	0.126
-149.604	57.364	-0.235	0.228
-148.589	81.926	0.093	0.100
-147.574	-200.000	0.070	0.306
-146.560	5.763	0.146	0.107
-145.545	-200.000	0.003	-0.016
-144.531	-184.864	-0.172	-0.003
-143.516	-95.004	0.091	-0.025
-142.502	-109.821	0.230	-0.048
-141.487	-88.480	-0.139	0.041
-140.472	800.000	-0.040	0.117
-139.458	501.456	0.079	-0.182
-138.443	-106.264	-0.206	-0.046
-137.429	68.808	0.322	0.328
-136.414	210.168	0.155	0.242
-135.399	-200.000	-0.031	0.172
-134.385	-200.000	-0.011	0.252
-133.370	207.384	-0.137	0.213
-132.356	540.244	0.021	-0.049
-131.341	53.657	-0.184	0.175
-130.326	-64.370	0.021	-0.008
-129.312	80.195	0.129	0.138
-128.297	46.026	0.061	-0.056
-127.283	212.221	-0.031	-0.049
-126.268	800.000	0.053	-0.158
-125.253	-29.138	0.138	0.079
-124.239	-167.029	0.199	-0.008
-123.224	-71.560	-0.152	0.056
-122.210	-108.545	0.500	-0.107
