DTS Sentinel unit serial number:	SN413079Multiplexer serial number:	ORYXHardware model number:	OX4-SRSoftware version number:	ORYX F/W v4.00 Oryx Data Collector v3.7.2.0data status	okinstallation	princeton_trtdifferential loss correction	single-endedforward channel	channel 4reverse channel	N/Adate	2019/09/10time	21:39:10forward acquisition time	60.00reverse acquisition time	0.00gamma	496.2192k internal	0.2314k external	0.2314temperature offset calibration	0.9948default loss term (dB/km)	0.3790temperature slope calibration	1.0000multiplexer offset coefficient	1.0000multiplexer slope coefficient	1.0000fibre end	0.00T internal ref (°C)	31.00T ext. ref 1 (°C)	-0.30T ext. ref 2 (°C)	24.30length (m)	temperature (°C)	Stokes	anti-Stokes-747.200	88.264	-0.340	-0.382
-746.185	-71.167	0.041	-0.016
-745.171	184.459	-0.046	0.068
-744.156	800.000	-0.099	0.331
-743.142	-120.916	0.055	-0.009
-742.127	800.000	0.024	0.080
-741.112	-96.714	-0.307	0.082
-740.098	104.103	-0.309	-0.369
-739.083	-142.350	-0.227	-0.023
-738.069	-182.266	-0.173	-0.003
-737.054	141.274	-0.139	-0.186
-736.039	-200.000	-0.002	0.039
-735.025	-62.199	-0.213	-0.090
-734.010	-106.345	-0.408	0.092
-732.996	112.816	-0.153	-0.188
-731.981	79.149	-0.181	0.197
-730.966	373.986	0.043	-0.089
-729.952	-144.104	-0.242	-0.023
-728.937	-141.140	-0.053	0.005
-727.923	-6.174	-0.170	0.118
-726.908	800.000	0.100	-0.330
-725.894	-95.888	-0.325	0.088
-724.879	-200.000	-0.012	-0.101
-723.864	-16.176	0.070	0.045
-722.850	-92.468	-0.374	0.106
-721.835	56.151	-0.110	-0.108
-720.821	-155.206	0.381	0.025
-719.806	-143.152	0.392	-0.038
-718.791	140.632	-0.176	0.236
-717.777	-200.000	-0.011	-0.361
-716.762	71.557	-0.204	0.214
-715.748	-19.294	0.120	0.075
-714.733	-61.133	-0.091	-0.039
-713.718	800.000	0.094	-0.264
-712.704	174.684	-0.035	0.052
-711.689	-200.000	0.001	-0.023
-710.675	0.709	0.134	-0.097
-709.660	-200.000	-0.066	-0.307
-708.645	800.000	-0.027	-0.083
-707.631	240.984	-0.201	0.339
-706.616	-200.000	0.007	0.202
-705.602	-42.019	0.122	0.063
-704.587	-98.080	0.369	0.096
-703.572	-128.022	0.180	0.026
-702.558	61.206	0.168	0.169
-701.543	-143.365	0.381	0.037
-700.529	-111.064	-0.220	-0.046
-699.514	-147.976	0.227	-0.019
-698.499	-52.237	-0.305	0.143
-697.485	44.896	0.171	-0.159
-696.470	-58.093	0.158	0.070
-695.456	3.699	-0.195	-0.144
-694.441	119.154	0.202	0.252
-693.426	-37.675	-0.095	-0.051
-692.412	-200.000	0.007	-0.179
-691.397	-200.000	-0.023	-0.442
-690.383	-130.438	-0.165	0.023
-689.368	151.136	-0.042	-0.057
-688.354	-101.814	0.148	-0.036
-687.339	-200.000	-0.043	0.432
-686.324	315.333	-0.180	-0.344
-685.310	-108.477	0.181	-0.039
-684.295	-137.094	-0.361	-0.042
-683.281	48.226	-0.075	-0.071
-682.266	340.216	-0.151	0.298
-681.251	49.356	0.258	0.246
-680.237	22.531	0.330	0.273
-679.222	18.258	0.267	-0.216
-678.208	163.173	-0.136	0.193
-677.193	5.145	0.084	0.063
-676.178	-19.814	0.154	-0.096
-675.164	-167.635	-0.280	-0.011
-674.149	-200.000	0.009	-0.156
-673.135	-56.797	0.307	-0.137
-672.120	-101.124	-0.264	-0.065
-671.105	-53.646	0.099	-0.046
-670.091	-60.146	-0.117	0.051
-669.076	362.097	0.102	0.207
-668.062	15.076	0.099	-0.078
-667.047	-109.352	-0.183	-0.039
-666.032	-36.709	-0.129	-0.070
-665.018	104.287	0.147	0.175
-664.003	-94.254	-0.348	-0.096
-662.989	-50.427	0.265	-0.126
-661.974	93.408	-0.081	-0.093
-660.959	-200.000	0.005	0.455
-659.945	-110.484	-0.320	0.067
-658.930	255.598	-0.137	-0.238
-657.916	235.992	0.131	0.219
-656.901	-106.393	0.319	0.072
-655.886	21.086	-0.185	0.151
-654.872	-200.000	0.016	-0.072
-653.857	168.704	-0.116	0.167
-652.843	-90.142	-0.193	0.057
-651.828	-18.616	0.210	0.132
-650.814	103.624	-0.174	-0.207
-649.799	-200.000	-0.019	0.121
-648.784	157.738	-0.136	-0.191
-647.770	253.081	-0.073	-0.126
-646.755	25.335	-0.115	-0.097
-645.741	92.386	-0.100	0.114
-644.726	430.741	-0.028	-0.062
-643.711	-150.699	-0.223	0.017
-642.697	-200.000	-0.001	-0.123
-641.682	-151.104	0.506	0.038
-640.668	800.000	0.080	-0.259
-639.653	800.000	-0.086	0.353
-638.638	-200.000	0.033	-0.376
-637.624	446.733	0.088	0.195
-636.609	298.404	0.038	0.070
-635.595	-98.426	-0.322	-0.083
-634.580	534.269	0.172	-0.411
-633.565	63.088	-0.085	0.086
-632.551	10.673	-0.221	-0.170
-631.536	-31.151	0.124	-0.071
-630.522	171.767	0.079	-0.114
-629.507	-88.959	-0.389	0.116
-628.492	20.567	0.070	-0.057
-627.478	-71.433	0.112	-0.042
-626.463	14.417	-0.184	0.145
-625.449	-200.000	-0.030	0.216
-624.434	-157.099	-0.104	-0.006
-623.419	-93.692	-0.077	0.021
-622.405	1.534	0.328	0.238
-621.390	-200.000	-0.023	-0.154
-620.376	17.792	-0.237	0.190
-619.361	37.978	-0.069	-0.062
-618.346	142.320	-0.133	0.178
-617.332	565.829	0.109	-0.267
-616.317	-200.000	0.037	0.264
-615.303	124.058	0.071	-0.090
-614.288	-200.000	0.025	0.216
-613.273	1.162	-0.033	-0.024
-612.259	-86.529	-0.102	-0.031
-611.244	-34.786	0.022	0.012
-610.230	-51.020	-0.131	-0.062
-609.215	-145.808	-0.056	0.005
-608.201	57.737	0.192	-0.190
-607.186	-35.967	-0.304	-0.166
-606.171	-57.264	-0.205	0.091
-605.157	-6.662	0.197	-0.135
-604.142	-148.107	0.238	-0.020
-603.128	800.000	-0.059	0.228
-602.113	-200.000	-0.001	0.187
-601.098	88.294	-0.182	-0.204
-600.084	357.644	-0.150	-0.302
-599.069	156.239	0.177	-0.246
-598.055	-200.000	0.027	-0.188
-597.040	60.718	0.139	0.139
-596.025	-200.000	0.022	-0.123
-595.011	-116.512	-0.177	-0.033
-593.996	650.938	0.088	-0.228
-592.982	23.020	0.144	0.119
-591.967	-200.000	0.006	0.068
-590.952	-25.948	0.099	-0.059
-589.938	1.532	-0.304	0.220
-588.923	800.000	0.019	0.056
-587.909	-59.462	-0.112	0.048
-586.894	-8.269	0.161	-0.109
-585.879	800.000	-0.026	-0.086
-584.865	412.638	0.014	-0.029
-583.850	-45.514	0.235	0.117
-582.836	-66.301	-0.235	0.094
-581.821	153.892	0.154	-0.213
-580.806	-136.195	-0.339	0.040
-579.792	-200.000	-0.024	-0.191
-578.777	513.099	-0.025	0.058
-577.763	34.978	-0.136	-0.120
-576.748	108.589	-0.199	-0.240
-575.733	268.211	-0.042	0.074
-574.719	126.058	-0.045	0.057
-573.704	-200.000	-0.002	-0.368
-572.690	-3.780	0.111	0.077
-571.675	567.387	0.072	0.175
-570.661	18.378	0.100	0.080
-569.646	-114.136	0.194	-0.038
-568.631	-200.000	0.035	0.420
-567.617	-200.000	-0.027	-0.143
-566.602	99.819	-0.074	0.087
-565.588	787.579	0.051	-0.141
-564.573	202.211	0.089	-0.138
-563.558	-200.000	0.023	0.304
-562.544	-143.605	-0.115	-0.011
-561.529	-140.831	0.243	0.025
-560.515	-57.263	-0.255	0.113
-559.500	-138.274	-0.178	0.020
-558.485	-200.000	0.048	-0.422
-557.471	800.000	-0.040	-0.139
-556.456	-70.377	0.137	-0.052
-555.442	-101.078	0.239	0.059
-554.427	-92.065	-0.126	-0.036
-553.412	143.291	0.090	-0.120
-552.398	376.875	-0.124	0.254
-551.383	23.029	-0.410	0.339
-550.369	1.646	-0.184	0.133
-549.354	484.657	0.070	0.161
-548.339	123.301	0.184	0.232
-547.325	-72.111	0.277	-0.103
-546.310	-19.049	0.142	-0.089
-545.296	-60.685	0.218	-0.093
-544.281	-178.394	-0.248	-0.006
-543.266	-52.184	-0.076	-0.035
-542.252	138.688	0.204	0.270
-541.237	-27.810	0.146	-0.085
-540.223	470.858	0.086	0.195
-539.208	-43.769	-0.383	-0.194
-538.193	800.000	0.054	-0.225
-537.179	-200.000	0.033	-0.198
-536.164	-171.105	-0.097	-0.003
-535.150	-110.215	-0.199	0.042
-534.135	-104.593	0.361	0.084
-533.121	-114.484	0.150	0.029
-532.106	800.000	0.013	-0.039
-531.091	-142.571	-0.323	-0.032
-530.077	533.320	-0.104	-0.249
-529.062	44.434	0.292	0.269
-528.048	10.891	-0.143	-0.110
-527.033	36.758	0.048	0.042
-526.018	800.000	0.011	0.046
-525.004	-61.104	-0.302	-0.128
-523.989	-145.559	0.226	-0.020
-522.975	-11.162	-0.175	-0.116
-521.960	130.506	0.065	-0.084
-520.945	-40.241	0.309	-0.162
-519.931	-54.593	0.252	0.115
-518.916	800.000	-0.016	0.071
-517.902	-6.417	0.286	-0.196
-516.887	297.371	0.107	0.197
-515.872	159.027	0.247	0.346
-514.858	-93.017	-0.417	-0.117
-513.843	-85.735	0.092	0.029
-512.829	-200.000	0.017	0.177
-511.814	-30.658	0.199	0.113
-510.799	-200.000	0.030	0.379
-509.785	-200.000	-0.046	0.291
-508.770	-64.541	0.321	-0.131
-507.756	-106.757	-0.276	0.061
-506.741	-98.850	-0.082	-0.021
-505.726	41.950	-0.090	0.082
-504.712	195.661	-0.146	0.223
-503.697	-200.000	-0.010	-0.142
-502.683	433.690	0.068	0.149
-501.668	-200.000	-0.012	-0.116
-500.653	263.296	-0.065	-0.114
-499.639	800.000	-0.031	-0.115
-498.624	-76.498	-0.134	0.047
-497.610	49.429	0.111	-0.105
-496.595	471.978	0.059	0.133
-495.581	800.000	-0.006	0.026
-494.566	157.879	0.060	0.084
-493.551	185.488	0.076	-0.114
-492.537	-96.655	-0.138	0.036
-491.522	800.000	0.080	0.294
-490.508	-4.182	-0.197	0.137
-489.493	-200.000	0.041	0.186
-488.478	-130.736	-0.283	0.038
-487.464	-9.507	0.192	-0.128
-486.449	64.572	0.077	0.078
-485.435	-57.587	-0.159	-0.070
-484.420	-71.174	-0.139	0.052
-483.405	4.578	0.207	-0.152
-482.391	-134.496	-0.060	0.007
-481.376	169.634	-0.131	-0.187
-480.362	-184.149	0.445	0.007
-479.347	800.000	0.100	0.277
-478.332	-200.000	0.018	0.111
-477.318	800.000	-0.051	-0.151
-476.303	-58.802	-0.080	0.035
-475.289	-88.704	0.295	0.088
-474.274	-200.000	0.088	0.528
-473.259	-200.000	-0.039	0.306
-472.245	-25.741	0.248	-0.147
-471.230	278.078	0.045	0.080
-470.216	223.553	0.088	-0.142
-469.201	-200.000	-0.010	-0.108
-468.186	-149.022	-0.143	-0.012
-467.172	800.000	0.013	-0.054
-466.157	-200.000	0.028	0.261
-465.143	-200.000	-0.081	-0.457
-464.128	-200.000	-0.047	-0.409
-463.113	46.761	0.124	-0.116
-462.099	169.287	-0.085	0.121
-461.084	800.000	0.028	0.105
-460.070	-200.000	0.024	-0.302
-459.055	-97.483	-0.285	0.074
-458.040	18.670	0.081	-0.065
-457.026	-39.405	-0.135	-0.071
-456.011	182.974	0.142	-0.210
-454.997	125.865	-0.107	-0.136
-453.982	-200.000	-0.023	0.174
-452.968	106.415	0.384	0.456
-451.953	210.821	0.054	0.084
-450.938	-107.640	0.105	0.023
-449.924	-53.390	-0.302	-0.138
-448.909	-65.242	-0.162	-0.066
-447.895	800.000	-0.097	0.407
-446.880	-100.384	-0.241	0.060
-445.865	171.805	0.031	-0.045
-444.851	419.851	0.092	-0.197
-443.836	-107.291	0.299	-0.066
-442.822	-115.699	-0.226	0.042
-441.807	-126.480	-0.387	-0.058
-440.792	-116.486	-0.369	-0.068
-439.778	121.378	0.090	-0.113
-438.763	-42.862	-0.150	-0.077
-437.749	70.282	-0.152	0.157
-436.734	-53.975	-0.176	-0.080
-435.719	648.967	0.057	0.145
-434.705	-68.636	0.227	0.088
-433.690	-200.000	0.022	-0.130
-432.676	-58.807	0.135	0.058
-431.661	-93.898	0.108	-0.030
-430.646	38.495	-0.198	-0.177
-429.632	800.000	-0.063	0.232
-428.617	800.000	-0.067	0.233
-427.603	-178.978	-0.112	-0.003
-426.588	46.661	0.095	0.088
-425.573	266.312	-0.119	-0.208
-424.559	-92.758	-0.454	0.127
-423.544	800.000	0.022	-0.073
-422.530	-130.703	-0.088	0.012
-421.515	315.883	0.215	-0.406
-420.500	-64.383	0.397	0.162
-419.486	-95.359	0.209	0.056
-418.471	800.000	0.041	-0.167
-417.457	68.134	-0.143	0.146
-416.442	800.000	-0.104	0.317
-415.428	-33.409	0.219	0.121
-414.413	-200.000	0.029	0.160
-413.398	-200.000	-0.053	0.237
-412.384	13.486	0.076	0.059
-411.369	800.000	-0.086	0.246
-410.355	-86.914	0.300	0.092
-409.340	309.956	-0.042	-0.079
-408.325	98.506	-0.251	-0.289
-407.311	291.060	0.078	-0.141
-406.296	-200.000	-0.006	0.294
-405.282	97.484	-0.018	0.020
-404.267	-58.081	-0.208	-0.091
-403.252	176.624	0.057	-0.084
-402.238	-200.000	-0.016	0.076
-401.223	19.788	-0.304	-0.245
-400.209	-11.979	0.191	0.125
-399.194	22.993	-0.102	0.083
-398.179	515.421	0.091	-0.212
-397.165	101.330	-0.182	-0.213
-396.150	224.009	-0.126	-0.204
-395.136	-130.352	-0.274	-0.037
-394.121	-200.000	-0.011	0.112
-393.106	358.750	0.045	-0.091
-392.092	800.000	-0.109	0.356
-391.077	247.160	-0.060	-0.101
-390.063	800.000	0.156	-0.484
-389.048	129.868	0.169	-0.216
-388.033	-200.000	0.018	0.230
-387.019	-29.108	0.180	-0.103
-386.004	-200.000	0.069	-0.336
-384.990	800.000	0.083	0.332
-383.975	-67.371	0.100	-0.039
-382.960	-130.094	-0.489	0.067
-381.946	134.202	-0.147	-0.191
-380.931	-200.000	-0.066	-0.322
-379.917	800.000	0.052	0.227
-378.902	-39.664	-0.423	0.221
-377.888	115.273	-0.077	0.094
-376.873	168.704	0.041	-0.058
-375.858	-133.483	-0.259	0.032
-374.844	426.630	-0.105	-0.227
-373.829	112.278	-0.226	-0.273
-372.815	-200.000	0.067	-0.299
-371.800	752.882	0.054	0.146
-370.785	-200.000	-0.013	-0.189
-369.771	-21.054	-0.175	-0.107
-368.756	-200.000	-0.005	0.088
-367.742	-170.681	0.270	0.009
-366.727	3.283	0.079	0.057
-365.712	-57.574	0.234	0.103
-364.698	-121.422	-0.250	-0.042
-363.683	-200.000	0.027	0.175
-362.669	-46.283	-0.253	0.124
-361.654	-200.000	0.036	-0.228
-360.639	382.263	-0.231	-0.473
-359.625	-15.066	0.252	0.161
-358.610	5.111	-0.170	0.125
-357.596	223.728	0.194	-0.313
-356.581	-200.000	0.004	0.091
-355.566	800.000	0.064	-0.270
-354.552	-89.498	-0.469	0.138
-353.537	-10.730	0.076	0.050
-352.523	-19.064	-0.158	-0.098
-351.508	-64.176	-0.147	0.060
-350.493	-67.030	0.087	0.034
-349.479	-200.000	0.067	0.304
-348.464	-87.177	0.276	0.084
-347.450	-36.331	-0.230	-0.124
-346.435	25.877	0.313	-0.261
-345.420	-200.000	0.061	-0.280
-344.406	-133.145	0.296	-0.037
-343.391	13.715	-0.085	-0.066
-342.377	127.741	0.110	-0.139
-341.362	-200.000	0.001	-0.308
-340.348	-81.124	0.175	0.058
-339.333	-20.801	0.159	0.097
-338.318	124.748	0.168	0.212
-337.304	-92.933	-0.140	0.039
-336.289	-200.000	0.023	-0.160
-335.275	195.369	0.096	-0.146
-334.260	569.713	-0.013	0.032
-333.245	-200.000	-0.010	0.080
-332.231	800.000	-0.107	0.415
-331.216	-200.000	0.013	0.158
-330.202	617.655	0.054	-0.134
-329.187	800.000	0.077	-0.278
-328.172	-161.665	0.148	-0.008
-327.158	194.315	-0.164	0.248
-326.143	-167.839	-0.298	-0.012
-325.129	10.628	-0.069	-0.053
-324.114	27.266	0.202	-0.169
-323.099	299.725	-0.054	-0.100
-322.085	317.703	-0.184	0.347
-321.070	274.470	0.060	0.105
-320.056	78.298	0.067	0.071
-319.041	437.514	0.201	-0.437
-318.026	346.536	0.029	-0.058
-317.012	-200.000	0.013	-0.384
-315.997	-108.465	-0.055	-0.012
-314.983	25.877	-0.226	-0.188
-313.968	-78.389	0.158	0.054
-312.953	213.267	0.231	0.363
-311.939	422.538	0.030	0.064
-310.924	-200.000	-0.010	-0.060
-309.910	-14.850	0.208	0.133
-308.895	-152.024	-0.327	-0.024
-307.880	-200.000	-0.039	0.216
-306.866	-100.768	0.209	0.051
-305.851	55.344	0.119	-0.115
-304.837	-145.254	-0.240	0.022
-303.822	-176.481	-0.242	-0.006
-302.807	-165.174	-0.188	0.008
-301.793	114.199	0.055	-0.066
-300.778	652.530	-0.062	0.158
-299.764	-200.000	0.068	-0.444
-298.749	-200.000	0.005	0.075
-297.735	-5.790	-0.167	-0.114
-296.720	-85.367	0.164	-0.051
-295.705	54.431	0.242	0.232
-294.691	41.521	-0.216	-0.195
-293.676	315.832	-0.077	0.144
-292.662	800.000	-0.124	-0.448
-291.647	20.407	-0.062	-0.050
-290.632	83.119	0.239	0.259
-289.618	800.000	0.069	0.269
-288.603	340.698	-0.142	0.275
-287.589	800.000	0.086	-0.323
-286.574	-57.029	0.250	-0.110
-285.559	-87.020	-0.128	0.039
-284.545	98.709	0.166	0.190
-283.530	274.370	0.074	-0.131
-282.516	-200.000	-0.002	0.143
-281.501	71.789	0.094	-0.097
-280.486	131.347	0.183	0.234
-279.472	114.485	0.207	0.251
-278.457	-200.000	-0.004	0.029
-277.443	800.000	0.063	-0.231
-276.428	-200.000	0.029	-0.130
-275.413	-26.590	0.183	-0.106
-274.399	464.304	-0.081	-0.181
-273.384	101.009	-0.060	0.069
-272.370	-23.981	0.136	0.081
-271.355	-73.557	0.117	-0.043
-270.340	800.000	-0.051	0.177
-269.326	-31.014	-0.217	-0.122
-268.311	164.336	0.082	-0.114
-267.297	556.808	0.029	0.070
-266.282	-200.000	-0.011	0.096
-265.267	-79.814	0.103	0.034
-264.253	-108.802	-0.171	0.036
-263.238	71.551	-0.266	-0.275
-262.224	-197.417	0.305	0.002
-261.209	-52.463	0.109	-0.050
-260.195	109.039	0.037	0.044
-259.180	185.031	-0.124	0.183
-258.165	41.541	-0.130	-0.117
-257.151	-200.000	-0.025	-0.111
-256.136	-200.000	-0.006	0.169
-255.122	383.488	0.036	-0.074
-254.107	-200.000	0.022	-0.332
-253.092	8.952	-0.102	0.077
-252.078	364.776	-0.111	-0.222
-251.063	-135.823	-0.143	-0.017
-250.049	97.667	-0.293	-0.335
-249.034	-123.935	0.044	0.007
-248.019	-35.400	0.059	0.032
-247.005	178.695	0.114	0.166
-245.990	-101.207	0.229	-0.056
-244.976	-63.839	0.069	0.028
-243.961	-36.551	0.112	-0.060
-242.946	-56.382	-0.156	0.069
-241.932	-126.183	-0.343	0.051
-240.917	94.530	-0.180	0.204
-239.903	191.595	0.118	0.177
-238.888	-200.000	0.044	0.221
-237.873	-200.000	0.016	0.350
-236.859	171.861	-0.144	0.205
-235.844	-188.460	0.277	-0.003
-234.830	6.090	-0.057	0.042
-233.815	-200.000	0.001	0.236
-232.800	-111.168	0.240	0.049
-231.786	32.512	0.427	-0.367
-230.771	800.000	0.051	-0.156
-229.757	6.334	-0.147	-0.108
-228.742	-73.990	-0.047	-0.017
-227.727	223.829	-0.100	0.160
-226.713	800.000	0.030	-0.103
-225.698	-74.877	-0.041	-0.015
-224.684	40.307	-0.112	-0.100
-223.669	88.313	-0.162	-0.179
-222.655	202.232	0.399	0.612
-221.640	-69.467	-0.254	-0.097
-220.625	800.000	-0.073	0.222
-219.611	800.000	-0.019	-0.060
-218.596	800.000	0.080	-0.253
-217.582	44.612	0.242	0.221
-216.567	-89.347	-0.227	-0.066
-215.552	-200.000	-0.029	0.368
-214.538	-182.623	0.246	-0.004
-213.523	-57.372	0.054	0.023
-212.509	289.349	0.032	-0.057
-211.494	294.261	0.237	-0.430
-210.479	42.700	0.136	-0.123
-209.465	717.936	0.053	-0.139
-208.450	-133.260	-0.155	0.019
-207.436	-200.000	0.012	-0.181
-206.421	364.515	0.104	0.207
-205.406	-74.088	0.389	-0.140
-204.392	-165.892	-0.247	-0.011
-203.377	800.000	-0.078	-0.284
-202.363	-158.689	0.203	-0.012
-201.348	-100.224	0.232	-0.057
-200.333	12.734	0.131	0.100
-199.319	94.185	0.049	-0.055
-198.304	-123.654	-0.449	-0.071
-197.290	-200.000	-0.020	-0.185
-196.275	26.961	0.211	-0.176
-195.260	108.236	0.242	-0.286
-194.246	-91.677	0.111	0.031
-193.231	451.688	-0.035	0.076
-192.217	142.912	0.119	0.157
-191.202	-87.319	-0.145	0.044
-190.187	-151.270	0.386	-0.029
-189.173	6.171	-0.246	-0.181
-188.158	-94.480	-0.076	-0.021
-187.144	800.000	0.037	0.152
-186.129	-172.623	0.114	0.004
-185.114	-69.145	0.341	0.130
-184.100	-186.212	-0.185	0.003
-183.085	181.706	0.148	0.216
-182.071	133.415	0.128	0.164
-181.056	-11.423	-0.560	0.366
-180.042	800.000	0.069	0.292
-179.027	800.000	-0.052	0.184
-178.012	454.101	0.137	-0.301
-176.998	-4.095	-0.133	-0.091
-175.983	26.977	0.301	0.250
-174.969	-31.397	-0.215	-0.120
-173.954	-129.128	0.189	-0.026
-172.939	-200.000	0.025	0.127
-171.925	-146.341	0.164	0.014
-170.910	800.000	-0.006	-0.021
-169.896	-112.177	-0.045	0.009
-168.881	-156.157	0.064	0.004
-167.866	-166.809	-0.316	-0.013
-166.852	646.347	-0.099	0.250
-165.837	671.680	-0.041	0.106
-164.823	-200.000	0.005	-0.237
-163.808	-200.000	0.043	0.378
-162.793	-200.000	-0.041	0.289
-161.779	93.245	-0.192	-0.216
-160.764	12.233	-0.096	0.073
-159.750	-124.886	-0.163	0.025
-158.735	252.716	-0.066	0.112
-157.720	-179.047	0.399	0.009
-156.706	319.184	-0.218	0.410
-155.691	800.000	-0.147	0.445
-154.677	272.010	-0.087	-0.152
-153.662	-18.585	0.180	-0.111
-152.647	-5.014	0.255	-0.174
-151.633	-134.037	0.233	-0.029
-150.618	-46.223	0.136	-0.066
-149.604	-41.049	-0.189	0.096
-148.589	-96.625	-0.109	-0.028
-147.574	50.145	-0.119	-0.111
-146.560	-200.000	0.006	0.038
-145.545	118.289	0.029	0.035
-144.531	28.166	0.143	-0.120
-143.516	-64.883	0.357	-0.143
-142.502	-12.605	-0.004	0.002
-141.487	-200.000	0.009	0.160
-140.472	-200.000	-0.036	0.162
-139.458	231.189	0.192	0.312
-138.443	-103.211	0.103	-0.024
-137.429	393.898	0.087	0.180
-136.414	800.000	-0.057	-0.164
-135.399	156.761	0.177	-0.242
-134.385	-33.393	-0.228	-0.125
-133.370	-200.000	-0.010	-0.096
-132.356	110.933	0.079	-0.094
-131.341	-200.000	0.002	-0.263
-130.326	-200.000	0.038	-0.329
-129.312	-132.350	-0.168	0.021
-128.297	126.800	-0.073	0.092
-127.283	-200.000	-0.024	0.532
-126.268	-200.000	-0.024	0.278
-125.253	-113.031	-0.194	0.038
-124.239	-45.394	0.282	-0.138
-123.224	-200.000	-0.020	0.298
-122.210	800.000	-0.029	-0.100
-121.195	-68.543	0.127	0.049
