DTS Sentinel unit serial number:	SN413079Multiplexer serial number:	ORYXHardware model number:	OX4-SRSoftware version number:	ORYX F/W v4.00 Oryx Data Collector v3.7.2.0data status	okinstallation	princeton_trtdifferential loss correction	single-endedforward channel	channel 4reverse channel	N/Adate	2019/09/15time	10:33:35forward acquisition time	60.00reverse acquisition time	0.00gamma	496.2192k internal	0.2299k external	0.2299temperature offset calibration	1.0019default loss term (dB/km)	0.3790temperature slope calibration	1.0000multiplexer offset coefficient	1.0000multiplexer slope coefficient	1.0000fibre end	0.00T internal ref (°C)	34.25T ext. ref 1 (°C)	5.04T ext. ref 2 (°C)	29.52length (m)	temperature (°C)	Stokes	anti-Stokes-747.200	-133.202	0.175	-0.023
-746.185	-200.000	0.007	0.516
-745.171	82.245	0.071	-0.079
-744.156	800.000	-0.122	0.445
-743.142	11.703	-0.154	0.121
-742.127	-117.048	-0.346	0.064
-741.112	90.644	-0.134	0.153
-740.098	-86.923	0.047	0.015
-739.083	-59.156	-0.157	-0.069
-738.069	-106.684	-0.099	0.022
-737.054	-200.000	-0.004	0.286
-736.039	-4.293	-0.330	-0.233
-735.025	800.000	0.026	-0.085
-734.010	-200.000	-0.019	-0.256
-732.996	-123.899	-0.188	0.030
-731.981	-120.404	-0.097	0.017
-730.966	-33.607	-0.055	0.031
-729.952	45.315	-0.297	-0.279
-728.937	9.467	-0.280	-0.216
-727.923	42.543	0.111	0.103
-726.908	-49.123	-0.178	0.087
-725.894	297.494	-0.164	0.307
-724.879	-111.788	-0.454	-0.094
-723.864	-103.483	-0.251	0.060
-722.850	291.058	-0.048	-0.090
-721.835	40.726	0.253	0.233
-720.821	-200.000	-0.003	-0.184
-719.806	382.561	0.084	-0.177
-718.791	498.750	0.077	0.180
-717.777	-200.000	-0.004	-0.154
-716.762	436.662	0.080	0.177
-715.748	-52.955	-0.131	-0.061
-714.733	-133.328	-0.372	-0.048
-713.718	-93.455	-0.105	-0.030
-712.704	-129.442	0.109	0.015
-711.689	592.694	-0.115	-0.289
-710.675	40.945	-0.109	-0.100
-709.660	-94.510	-0.226	0.063
-708.645	-75.738	0.122	-0.044
-707.631	81.819	0.225	-0.248
-706.616	602.227	-0.071	0.180
-705.602	-200.000	0.004	0.072
-704.587	-83.839	-0.237	0.077
-703.572	98.070	-0.152	0.178
-702.558	-59.820	-0.264	0.115
-701.543	-125.713	-0.169	0.026
-700.529	158.740	-0.074	0.104
-699.514	59.696	-0.164	-0.164
-698.499	-51.212	-0.212	0.101
-697.485	661.416	0.065	0.171
-696.470	268.902	0.099	-0.178
-695.456	178.060	-0.167	-0.248
-694.441	-35.668	-0.136	0.075
-693.426	205.770	-0.160	0.254
-692.412	38.674	-0.108	0.098
-691.397	-31.697	0.157	-0.090
-690.383	684.675	0.046	0.121
-689.368	-200.000	0.034	0.156
-688.354	-29.902	-0.163	0.095
-687.339	53.478	0.325	-0.318
-686.324	-33.462	-0.186	0.105
-685.310	800.000	0.086	0.282
-684.295	51.576	-0.171	0.166
-683.281	-125.411	0.315	-0.049
-682.266	758.596	-0.070	-0.192
-681.251	68.013	-0.183	0.190
-680.237	800.000	-0.087	0.380
-679.222	-17.415	0.233	0.149
-678.208	-130.326	-0.229	0.032
-677.193	-96.638	-0.117	0.031
-676.178	-200.000	-0.029	-0.185
-675.164	-35.796	0.131	0.072
-674.149	-98.928	0.101	0.026
-673.135	142.024	-0.202	-0.272
-672.120	-200.000	0.006	-0.069
-671.105	-45.245	0.238	-0.120
-670.091	-45.310	0.226	-0.114
-669.076	-142.806	0.185	0.018
-668.062	800.000	-0.042	0.177
-667.047	-82.813	-0.273	0.090
-666.032	-200.000	-0.013	0.092
-665.018	-175.772	0.235	0.006
-664.003	-40.346	-0.124	0.066
-662.989	80.370	-0.103	0.113
-661.974	100.363	0.111	0.131
-660.959	42.765	0.090	-0.083
-659.945	-4.768	-0.160	-0.112
-658.930	84.580	0.135	0.151
-657.916	-200.000	0.004	0.082
-656.901	-40.085	0.095	0.050
-655.886	317.342	0.044	-0.085
-654.872	-90.656	0.134	0.039
-653.857	-200.000	-0.025	-0.195
-652.843	-20.816	0.262	-0.164
-651.828	135.926	0.070	-0.093
-650.814	301.975	0.066	0.125
-649.799	-38.828	-0.184	0.099
-648.784	-109.208	0.124	0.027
-647.770	79.316	-0.156	0.170
-646.755	262.966	0.073	0.128
-645.741	63.893	-0.100	0.103
-644.726	-176.491	0.205	0.005
-643.711	175.166	0.136	0.201
-642.697	-84.959	-0.263	-0.084
-641.682	-105.216	0.263	-0.061
-640.668	-57.025	-0.264	0.119
-639.653	-91.160	0.480	-0.140
-638.638	-65.402	0.225	0.092
-637.624	-22.339	0.137	0.084
-636.609	146.298	-0.166	-0.226
-635.595	-35.420	-0.133	0.073
-634.580	186.546	0.107	0.162
-633.565	586.156	0.063	-0.158
-632.551	193.466	0.102	-0.157
-631.536	63.169	0.137	0.140
-630.522	-6.580	-0.274	-0.189
-629.507	92.152	-0.214	0.245
-628.492	136.654	-0.062	0.083
-627.478	-200.000	-0.007	-0.333
-626.463	14.847	-0.191	-0.152
-625.449	207.352	0.237	-0.375
-624.434	1.233	0.130	0.095
-623.419	-200.000	0.005	0.273
-622.405	-179.951	0.080	-0.002
-621.390	-72.615	0.140	0.052
-620.376	-57.510	-0.150	0.067
-619.361	697.124	0.030	0.080
-618.346	-28.630	-0.201	-0.118
-617.332	800.000	0.061	-0.230
-616.317	-200.000	-0.007	0.109
-615.303	-22.588	0.254	-0.156
-614.288	800.000	-0.101	-0.328
-613.273	23.610	-0.038	-0.031
-612.259	398.786	0.081	-0.172
-611.244	132.975	0.119	0.155
-610.230	-200.000	-0.012	-0.099
-609.215	-200.000	0.015	-0.131
-608.201	800.000	0.041	-0.161
-607.186	-129.940	-0.210	-0.029
-606.171	90.159	-0.127	-0.144
-605.157	292.311	0.086	0.159
-604.142	63.656	-0.091	-0.092
-603.128	490.025	-0.018	0.042
-602.113	62.155	0.123	0.125
-601.098	56.124	-0.178	-0.176
-600.084	-200.000	-0.007	0.055
-599.069	320.313	0.118	0.228
-598.055	-200.000	-0.031	-0.281
-597.040	217.952	0.202	-0.327
-596.025	-94.067	0.093	-0.026
-595.011	36.120	0.241	-0.215
-593.996	-124.720	0.257	-0.040
-592.982	-96.701	-0.100	0.027
-591.967	47.233	-0.062	-0.059
-590.952	-30.208	-0.058	-0.033
-589.938	-73.669	-0.346	0.128
-588.923	217.953	-0.133	0.215
-587.909	162.139	-0.186	-0.265
-586.894	-50.249	-0.148	0.071
-585.879	109.177	-0.357	0.433
-584.865	-14.050	-0.470	-0.308
-583.850	-92.453	0.073	0.021
-582.836	-200.000	-0.000	0.303
-581.821	120.670	-0.109	0.137
-580.806	-33.683	0.059	-0.033
-579.792	-22.560	0.072	0.044
-578.777	10.943	0.090	0.070
-577.763	450.107	-0.074	-0.166
-576.748	800.000	0.055	-0.170
-575.733	0.228	-0.108	-0.078
-574.719	106.733	-0.309	0.372
-573.704	126.313	0.101	0.130
-572.690	59.188	0.200	-0.200
-571.675	88.509	-0.097	0.109
-570.661	800.000	0.028	-0.104
-569.646	-75.092	0.186	-0.067
-568.631	594.669	0.099	-0.247
-567.617	-130.790	-0.615	-0.084
-566.602	-200.000	-0.011	0.120
-565.588	-152.266	-0.179	0.013
-564.573	194.122	-0.152	-0.234
-563.558	570.039	0.107	0.264
-562.544	800.000	-0.086	-0.243
-561.529	22.087	0.168	0.139
-560.515	-27.935	0.181	0.106
-559.500	800.000	0.039	-0.117
-558.485	64.883	0.307	-0.314
-557.471	211.358	0.073	0.116
-556.456	-106.235	-0.123	-0.028
-555.442	164.173	0.233	-0.332
-554.427	-3.343	0.127	-0.089
-553.412	-20.941	-0.134	-0.083
-552.398	-200.000	-0.058	0.358
-551.383	-200.000	0.020	0.241
-550.369	23.268	-0.178	-0.148
-549.354	-167.261	-0.327	0.013
-548.339	53.225	0.121	0.117
-547.325	-200.000	-0.026	0.230
-546.310	647.045	0.039	-0.101
-545.296	132.901	0.034	0.045
-544.281	-200.000	-0.014	0.304
-543.266	-18.400	-0.090	0.057
-542.252	-96.186	-0.248	0.067
-541.237	204.510	-0.038	-0.059
-540.223	323.657	-0.123	-0.237
-539.208	-94.379	-0.232	-0.064
-538.193	-176.703	-0.236	-0.006
-537.179	-112.981	-0.520	-0.104
-536.164	-200.000	0.042	0.249
-535.150	-200.000	0.019	-0.256
-534.135	-93.812	0.135	-0.038
-533.121	-121.825	-0.152	-0.025
-532.106	800.000	-0.057	-0.166
-531.091	-188.233	0.200	0.003
-530.077	8.946	-0.142	0.108
-529.062	435.060	-0.049	-0.107
-528.048	-22.739	0.211	0.129
-527.033	-200.000	-0.001	0.075
-526.018	800.000	0.048	-0.153
-525.004	-55.376	0.232	-0.105
-523.989	-4.116	0.240	0.168
-522.975	-89.405	0.186	-0.055
-521.960	-50.996	-0.208	0.099
-520.945	130.706	-0.108	0.141
-519.931	728.947	0.108	0.292
-518.916	151.575	-0.299	-0.412
-517.902	800.000	0.075	0.279
-516.887	-200.000	0.008	0.104
-515.872	-118.106	-0.166	0.030
-514.858	-81.767	-0.217	-0.072
-513.843	800.000	0.017	-0.073
-512.829	3.558	-0.099	0.073
-511.814	-101.910	0.144	0.035
-510.799	-102.055	-0.238	-0.058
-509.785	-162.714	0.245	0.012
-508.770	800.000	0.114	-0.355
-507.756	-55.705	-0.258	-0.117
-506.741	-25.167	-0.071	-0.042
-505.726	11.158	0.114	-0.088
-504.712	-70.615	0.315	-0.120
-503.697	38.919	0.321	0.290
-502.683	-100.565	0.187	0.047
-501.668	-46.198	-0.219	0.109
-500.653	-74.184	-0.302	0.110
-499.639	-17.737	-0.105	-0.067
-498.624	800.000	-0.057	-0.204
-497.610	-135.436	-0.309	-0.037
-496.595	-114.863	0.128	-0.025
-495.581	80.362	-0.140	0.152
-494.566	99.809	0.099	0.116
-493.551	266.908	0.148	-0.261
-492.537	83.609	0.237	-0.261
-491.522	-9.467	-0.228	0.154
-490.508	82.623	-0.173	-0.190
-489.493	93.503	-0.168	-0.192
-488.478	-200.000	0.009	0.092
-487.464	415.123	-0.071	-0.153
-486.449	800.000	0.038	0.123
-485.435	-68.251	0.100	-0.039
-484.420	234.648	-0.121	-0.202
-483.405	-57.389	0.331	0.147
-482.391	418.248	0.173	-0.373
-481.376	-62.779	0.332	-0.139
-480.362	29.920	-0.087	-0.075
-479.347	16.982	-0.172	0.138
-478.332	280.929	-0.197	0.357
-477.318	-110.533	-0.145	-0.030
-476.303	800.000	0.090	-0.273
-475.289	-116.162	0.102	-0.019
-474.274	-134.226	0.213	-0.026
-473.259	611.450	0.040	-0.100
-472.245	159.867	0.277	0.390
-471.230	-147.625	-0.462	0.039
-470.216	491.383	0.023	0.054
-469.201	-61.231	0.133	-0.057
-468.186	250.815	-0.075	0.129
-467.172	74.125	-0.102	-0.109
-466.157	-38.550	-0.094	-0.050
-465.143	-151.663	-0.036	-0.003
-464.128	800.000	-0.039	0.127
-463.113	-169.794	0.070	-0.003
-462.099	-0.685	-0.060	-0.043
-461.084	-67.795	-0.178	0.070
-460.070	-200.000	0.018	0.106
-459.055	-200.000	-0.005	0.030
-458.040	-200.000	-0.007	-0.235
-457.026	-40.507	0.197	-0.103
-456.011	-20.096	0.105	-0.065
-454.997	151.178	0.059	0.081
-453.982	-59.819	-0.148	-0.064
-452.968	-133.135	-0.217	0.028
-451.953	800.000	0.091	-0.271
-450.938	-200.000	-0.030	0.184
-449.924	-138.392	0.399	-0.044
-448.909	-60.316	-0.257	0.110
-447.895	19.368	0.112	0.091
-446.880	-95.352	-0.292	0.079
-445.865	118.027	-0.147	0.182
-444.851	-200.000	0.008	0.076
-443.836	-94.505	0.015	0.004
-442.822	-200.000	-0.079	-0.357
-441.807	-99.545	-0.384	0.097
-440.792	-42.766	0.207	0.106
-439.778	-200.000	0.053	0.244
-438.763	-91.318	-0.129	-0.037
-437.749	-54.235	-0.239	-0.110
-436.734	-200.000	0.019	-0.140
-435.719	-144.642	-0.294	0.027
-434.705	80.508	-0.081	0.088
-433.690	-200.000	-0.001	-0.161
-432.676	-42.858	0.162	-0.083
-431.661	-78.099	0.243	-0.084
-430.646	800.000	-0.175	-0.594
-429.632	-200.000	0.009	0.155
-428.617	91.342	-0.157	0.178
-427.603	192.160	0.107	-0.162
-426.588	350.060	0.042	0.084
-425.573	-129.344	-0.214	0.030
-424.559	-16.491	0.079	-0.050
-423.544	93.158	0.171	-0.195
-422.530	46.584	-0.112	-0.105
-421.515	-200.000	-0.012	-0.274
-420.500	-200.000	-0.000	0.035
-419.486	-37.545	0.176	0.094
-418.471	-200.000	0.026	0.317
-417.457	163.987	0.124	0.175
-416.442	53.002	-0.406	0.392
-415.428	299.475	-0.054	0.100
-414.413	-67.498	0.090	0.036
-413.398	-78.555	-0.083	-0.029
-412.384	86.318	-0.156	0.173
-411.369	84.828	-0.081	0.089
-410.355	-200.000	0.032	0.168
-409.340	-59.678	0.151	-0.065
-408.325	94.422	0.126	-0.144
-407.311	-200.000	-0.059	-0.311
-406.296	-182.055	0.107	0.002
-405.282	-200.000	-0.021	-0.184
-404.267	534.096	0.068	-0.161
-403.252	266.319	-0.032	0.056
-402.238	800.000	-0.023	-0.069
-401.223	800.000	0.097	-0.306
-400.209	-158.520	0.053	0.003
-399.194	678.170	0.018	-0.046
-398.179	2.059	0.264	-0.192
-397.165	-136.127	0.384	-0.045
-396.150	-181.213	0.451	0.009
-395.136	-57.685	-0.148	-0.065
-394.121	1.726	0.378	0.274
-393.106	800.000	0.017	0.069
-392.092	-127.025	0.028	-0.004
-391.077	-40.128	-0.251	0.132
-390.063	66.880	0.234	-0.240
-389.048	-200.000	0.014	0.188
-388.033	-42.608	-0.373	0.191
-387.019	-102.191	-0.173	-0.042
-386.004	-200.000	-0.067	-0.350
-384.990	297.773	-0.197	0.364
-383.975	712.109	-0.090	-0.241
-382.960	139.826	-0.296	0.393
-381.946	800.000	-0.117	0.340
-380.931	193.135	0.129	0.197
-379.917	-118.652	-0.275	0.049
-378.902	341.711	-0.189	-0.371
-377.888	297.208	-0.079	0.147
-376.873	-16.675	-0.350	-0.223
-375.858	27.675	-0.083	0.071
-374.844	302.788	0.067	0.126
-373.829	448.715	-0.076	-0.168
-372.815	609.670	0.099	-0.249
-371.800	78.055	0.187	0.200
-370.785	476.907	0.121	-0.275
-369.771	207.530	-0.169	0.266
-368.756	135.452	0.059	-0.077
-367.742	3.413	0.011	-0.008
-366.727	-55.865	0.232	-0.104
-365.712	-200.000	0.010	-0.306
-364.698	-134.336	0.284	0.035
-363.683	29.633	0.065	0.056
-362.669	800.000	-0.090	0.377
-361.654	800.000	-0.061	-0.222
-360.639	-73.716	0.276	0.101
-359.625	348.041	0.091	0.180
-358.610	124.603	-0.090	0.113
-357.596	-21.264	0.141	0.087
-356.581	443.657	0.060	0.132
-355.566	2.953	-0.087	0.063
-354.552	115.305	-0.107	0.131
-353.537	124.375	0.157	-0.198
-352.523	-115.316	0.098	-0.019
-351.508	190.533	0.076	0.115
-350.493	-67.527	-0.279	-0.110
-349.479	-72.848	-0.150	-0.056
-348.464	-62.318	-0.277	-0.116
-347.450	-200.000	0.004	0.301
-346.435	-64.653	-0.161	0.066
-345.420	78.515	0.065	-0.070
-344.406	-69.552	0.314	0.121
-343.391	51.128	-0.150	-0.143
-342.377	76.849	-0.157	0.168
-341.362	-43.393	-0.110	-0.056
-340.348	-44.582	-0.060	0.030
-339.333	-200.000	0.019	0.103
-338.318	0.822	-0.105	0.076
-337.304	-48.888	-0.294	-0.142
-336.289	-157.226	0.230	0.014
-335.275	295.077	0.087	-0.159
-334.260	310.360	0.085	-0.159
-333.245	533.631	-0.080	-0.191
-332.231	800.000	-0.098	0.288
-331.216	-200.000	-0.021	0.247
-330.202	-200.000	-0.156	-0.000
-329.187	361.072	0.046	0.092
-328.172	-88.641	0.112	0.033
-327.158	800.000	-0.149	0.444
-326.143	177.732	-0.021	0.031
-325.129	250.616	0.002	-0.003
-324.114	800.000	-0.051	-0.175
-323.099	277.009	0.254	-0.454
-322.085	157.929	-0.188	0.262
-321.070	800.000	-0.057	-0.161
-320.056	-98.046	-0.246	-0.064
-319.041	800.000	-0.096	-0.299
-318.026	-200.000	-0.021	0.213
-317.012	106.922	0.203	0.242
-315.997	-79.702	0.172	0.058
-314.983	800.000	-0.069	0.270
-313.968	-24.606	0.099	0.059
-312.953	-88.392	0.093	-0.028
-311.939	-44.006	0.360	0.182
-310.924	7.899	0.308	0.231
-309.910	85.640	0.109	-0.120
-308.895	-68.354	-0.228	-0.089
-307.880	-116.252	0.279	-0.052
-306.866	272.674	0.194	-0.344
-305.851	103.327	-0.127	-0.149
-304.837	-126.213	0.137	-0.020
-303.822	800.000	0.114	0.332
-302.807	-64.028	-0.187	0.076
-301.793	-200.000	0.035	0.395
-300.778	214.086	0.074	-0.118
-299.764	-21.584	0.132	-0.081
-298.749	341.387	0.053	0.103
-297.735	80.613	-0.023	0.025
-296.720	113.938	-0.094	-0.115
-295.705	63.050	-0.095	-0.095
-294.691	104.799	-0.120	0.142
-293.676	83.528	0.106	0.116
-292.662	-200.000	-0.034	0.220
-291.647	6.392	-0.112	0.083
-290.632	336.819	0.118	-0.230
-289.618	-200.000	-0.015	0.068
-288.603	-200.000	0.022	0.140
-287.589	800.000	-0.090	0.258
-286.574	-20.496	-0.115	0.071
-285.559	45.744	-0.223	-0.206
-284.545	-117.291	0.251	-0.046
-283.530	-116.858	-0.160	-0.029
-282.516	800.000	-0.071	0.252
-281.501	627.506	0.094	0.238
-280.486	-66.610	0.391	-0.155
-279.472	180.132	0.146	0.215
-278.457	-156.963	-0.017	-0.001
-277.443	-200.000	0.023	-0.175
-276.428	-133.507	-0.168	0.021
-275.413	-58.370	0.090	0.039
-274.399	562.759	0.145	-0.351
-273.384	146.702	0.143	0.193
-272.370	538.072	-0.059	-0.140
-271.355	66.295	-0.175	-0.178
-270.340	-200.000	-0.003	-0.125
-269.326	-23.018	0.235	-0.142
-268.311	62.831	-0.121	0.122
-267.297	-200.000	0.014	-0.158
-266.282	-75.202	0.152	0.054
-265.267	695.990	0.066	-0.174
-264.253	800.000	0.055	-0.181
-263.238	-21.075	-0.220	0.135
-262.224	-117.128	0.263	0.048
-261.209	130.304	0.106	-0.136
-260.195	-200.000	-0.043	-0.306
-259.180	140.262	-0.028	-0.036
-258.165	-83.561	0.154	0.049
-257.151	-33.912	0.257	0.141
-256.136	-200.000	0.062	0.347
-255.122	-120.496	0.222	0.038
-254.107	-200.000	-0.031	0.205
-253.092	-135.008	0.303	-0.037
-252.078	161.127	0.187	0.262
-251.063	17.972	-0.210	-0.167
-250.049	-200.000	-0.012	-0.087
-249.034	-200.000	0.039	-0.228
-248.019	-124.898	-0.223	0.034
-247.005	-30.464	0.128	-0.072
-245.990	-24.705	0.024	-0.014
-244.976	202.291	0.033	0.051
-243.961	137.421	0.083	-0.109
-242.946	93.446	-0.046	-0.052
-241.932	-4.471	0.313	-0.216
-240.917	800.000	0.060	0.201
-239.903	-16.049	-0.122	0.077
-238.888	9.778	0.234	0.178
-237.873	-145.522	-0.336	-0.030
-236.859	78.631	-0.212	0.226
-235.844	-99.902	-0.044	-0.011
-234.830	73.555	0.262	0.275
-233.815	-75.911	-0.263	-0.093
-232.800	-117.287	0.215	-0.039
-231.786	-85.601	-0.315	0.098
-230.771	11.524	-0.215	-0.165
-229.757	-200.000	-0.009	0.456
-228.742	-200.000	-0.024	0.195
-227.727	-200.000	0.028	-0.256
-226.713	8.234	-0.230	-0.173
-225.698	-200.000	-0.012	-0.058
-224.684	-93.982	-0.301	0.083
-223.669	101.170	0.103	-0.120
-222.655	-200.000	-0.018	0.286
-221.640	-57.604	-0.324	-0.142
-220.625	96.712	0.141	0.162
-219.611	501.231	-0.061	-0.140
-218.596	-135.168	-0.219	-0.026
-217.582	-66.719	0.050	-0.020
-216.567	-88.123	0.137	-0.041
-215.552	-145.173	0.160	0.014
-214.538	695.714	-0.121	0.319
-213.523	-84.327	-0.054	0.017
-212.509	-200.000	0.010	0.102
-211.494	99.288	0.188	-0.217
-210.479	547.353	0.050	0.121
-209.465	32.420	0.232	-0.200
-208.450	800.000	-0.123	0.485
-207.436	-200.000	-0.022	-0.146
-206.421	-89.677	-0.103	-0.030
-205.406	18.039	-0.259	0.206
-204.392	-123.051	0.329	-0.053
-203.377	3.428	0.130	-0.094
-202.363	-200.000	0.025	-0.200
-201.348	-90.067	0.169	-0.049
-200.333	-111.052	0.418	-0.086
-199.319	370.340	-0.035	0.072
-198.304	-200.000	-0.011	0.103
-197.290	-200.000	0.019	0.299
-196.275	165.782	0.247	-0.349
-195.260	-5.084	0.287	0.197
-194.246	-48.104	-0.223	-0.108
-193.231	-93.558	0.196	-0.054
-192.217	7.063	-0.065	-0.048
-191.202	-125.124	-0.257	0.039
-190.187	-200.000	0.014	0.081
-189.173	3.395	-0.128	-0.093
-188.158	800.000	0.064	0.212
-187.144	-200.000	0.014	0.077
-186.129	-173.592	0.068	-0.002
-185.114	-67.508	-0.191	0.075
-184.100	340.822	0.123	0.239
-183.085	374.088	-0.078	0.158
-182.071	-200.000	0.035	-0.308
-181.056	84.845	-0.133	0.145
-180.042	-83.015	0.297	-0.096
-179.027	163.868	0.074	-0.104
-178.012	32.854	0.302	-0.261
-176.998	-139.904	0.199	0.021
-175.983	-46.455	-0.219	-0.107
-174.969	-4.691	-0.100	-0.069
-173.954	214.965	0.153	0.242
-172.939	372.594	-0.055	-0.112
-171.925	487.754	0.098	-0.223
-170.910	-200.000	-0.004	-0.075
-169.896	-42.531	0.231	-0.118
-168.881	-108.446	0.072	-0.015
-167.866	795.245	-0.101	0.277
-166.852	-200.000	-0.002	-0.033
-165.837	106.039	0.095	-0.113
-164.823	119.829	-0.099	0.122
-163.808	-75.845	0.140	-0.049
-162.793	185.054	0.143	-0.212
-161.779	56.312	0.182	0.176
-160.764	-157.933	0.223	0.013
-159.750	-200.000	0.038	-0.192
-158.735	800.000	-0.087	0.336
-157.720	213.144	-0.278	0.437
-156.706	800.000	0.044	0.123
-155.691	70.681	0.262	-0.271
-154.677	53.958	-0.142	-0.136
-153.662	645.288	-0.045	-0.114
-152.647	158.286	-0.153	-0.212
-151.633	-100.184	0.098	-0.024
-150.618	630.806	0.087	-0.219
-149.604	-62.292	0.148	-0.062
-148.589	-129.737	-0.094	0.013
-147.574	-31.902	0.082	0.046
-146.560	-200.000	-0.016	-0.254
-145.545	-200.000	-0.055	0.402
-144.531	77.645	-0.156	0.166
-143.516	-45.976	0.322	0.158
-142.502	-70.287	0.176	0.067
-141.487	167.935	0.048	-0.069
-140.472	-200.000	0.016	0.196
-139.458	77.483	0.191	0.203
-138.443	34.759	-0.300	0.262
-137.429	30.017	0.138	0.117
-136.414	783.489	-0.074	0.201
-135.399	3.002	-0.317	-0.229
-134.385	-200.000	-0.023	-0.321
-133.370	-38.692	0.201	-0.106
-132.356	-22.754	-0.193	-0.116
-131.341	-44.920	0.013	-0.007
-130.326	-132.236	-0.244	0.032
-129.312	207.786	-0.085	-0.131
-128.297	-200.000	-0.031	0.156
-127.283	7.129	0.018	-0.013
-126.268	-111.626	0.110	-0.022
-125.253	-39.328	0.077	0.040
-124.239	26.703	0.039	-0.033
-123.224	-200.000	-0.025	-0.134
-122.210	-154.791	0.237	-0.016
-121.195	-200.000	-0.001	-0.069
-120.180	-90.819	0.134	0.039
