DTS Sentinel unit serial number:	SN413079Multiplexer serial number:	ORYXHardware model number:	OX4-SRSoftware version number:	ORYX F/W v4.00 Oryx Data Collector v3.7.2.0data status	okinstallation	princeton_trtdifferential loss correction	single-endedforward channel	channel 4reverse channel	N/Adate	2019/09/10time	17:35:11forward acquisition time	60.00reverse acquisition time	0.00gamma	496.2192k internal	0.2295k external	0.2295temperature offset calibration	0.9940default loss term (dB/km)	0.3790temperature slope calibration	1.0000multiplexer offset coefficient	1.0000multiplexer slope coefficient	1.0000fibre end	0.00T internal ref (°C)	37.66T ext. ref 1 (°C)	-0.35T ext. ref 2 (°C)	31.48length (m)	temperature (°C)	Stokes	anti-Stokes-747.200	319.307	-0.071	0.137
-746.185	233.636	0.159	-0.268
-745.171	111.243	0.303	0.373
-744.156	14.839	-0.256	-0.205
-743.142	44.419	0.230	-0.216
-742.127	800.000	0.101	-0.398
-741.112	365.331	-0.099	-0.203
-740.098	-79.175	-0.209	0.072
-739.083	-200.000	-0.014	0.073
-738.069	800.000	0.086	0.322
-737.054	195.496	0.069	0.108
-736.039	-115.894	-0.347	0.066
-735.025	64.786	0.236	0.243
-734.010	-200.000	-0.018	-0.211
-732.996	-200.000	0.009	0.049
-731.981	-200.000	-0.067	-0.358
-730.966	-53.274	0.025	-0.012
-729.952	165.105	-0.140	0.203
-728.937	254.930	-0.179	-0.314
-727.923	-99.978	0.041	0.010
-726.908	-200.000	0.036	0.250
-725.894	800.000	0.051	-0.182
-724.879	251.239	0.191	-0.331
-723.864	-33.599	0.122	-0.069
-722.850	-19.543	-0.480	-0.303
-721.835	1.913	-0.124	-0.092
-720.821	-62.053	-0.272	-0.116
-719.806	96.515	-0.152	0.178
-718.791	160.955	-0.109	-0.156
-717.777	90.962	0.101	-0.115
-716.762	251.710	0.095	-0.165
-715.748	-200.000	-0.010	0.256
-714.733	-72.359	0.255	0.096
-713.718	303.900	-0.155	0.294
-712.704	-81.558	-0.313	0.105
-711.689	390.062	0.058	0.123
-710.675	5.374	0.285	0.215
-709.660	453.854	-0.096	-0.217
-708.645	685.479	-0.094	-0.251
-707.631	-144.133	0.095	0.009
-706.616	-90.757	-0.232	-0.068
-705.602	-73.179	0.254	-0.095
-704.587	-27.344	-0.384	-0.228
-703.572	211.780	-0.180	-0.289
-702.558	135.107	-0.251	-0.333
-701.543	-64.854	0.129	-0.053
-700.529	800.000	0.074	0.307
-699.514	-200.000	-0.035	-0.208
-698.499	8.574	-0.264	0.203
-697.485	127.958	-0.165	-0.214
-696.470	-81.193	0.054	-0.018
-695.456	372.060	-0.042	-0.087
-694.441	-78.387	0.099	0.035
-693.426	322.401	-0.117	0.227
-692.412	-78.257	-0.364	-0.128
-691.397	-200.000	0.015	-0.192
-690.383	413.783	0.109	0.237
-689.368	-87.420	-0.073	-0.023
-688.354	483.860	-0.035	0.081
-687.339	-38.043	0.282	-0.153
-686.324	-200.000	0.046	-0.291
-685.310	-85.374	-0.065	-0.021
-684.295	-200.000	-0.007	0.206
-683.281	-200.000	0.000	-0.148
-682.266	431.745	0.116	-0.256
-681.251	376.707	-0.013	-0.028
-680.237	19.663	-0.328	0.269
-679.222	-200.000	-0.079	0.388
-678.208	-20.252	-0.164	-0.103
-677.193	-126.222	-0.104	0.016
-676.178	44.074	-0.087	-0.081
-675.164	8.129	-0.174	-0.133
-674.149	-74.324	-0.185	0.068
-673.135	668.321	-0.087	-0.229
-672.120	800.000	0.036	-0.103
-671.105	800.000	0.042	0.134
-670.091	-200.000	0.003	-0.233
-669.076	-98.986	-0.378	-0.098
-668.062	55.786	-0.225	0.222
-667.047	48.242	0.167	-0.159
-666.032	354.693	0.152	0.308
-665.018	-41.790	0.236	-0.123
-664.003	-53.235	-0.070	-0.033
-662.989	74.097	-0.173	-0.185
-661.974	-73.001	0.036	0.014
-660.959	800.000	-0.072	-0.267
-659.945	81.786	0.085	-0.093
-658.930	-48.913	-0.145	-0.071
-657.916	511.588	0.032	0.075
-656.901	153.203	-0.108	-0.150
-655.886	-88.639	0.240	-0.073
-654.872	342.786	0.056	0.112
-653.857	160.065	-0.194	0.276
-652.843	57.139	0.185	-0.184
-651.828	800.000	0.032	0.132
-650.814	7.044	0.084	0.064
-649.799	70.480	-0.075	-0.079
-648.784	-82.893	0.210	0.069
-647.770	-84.556	-0.171	0.055
-646.755	-88.064	0.149	0.046
-645.741	216.007	-0.051	0.082
-644.726	122.914	-0.076	0.097
-643.711	17.688	-0.123	0.100
-642.697	142.286	0.142	0.192
-641.682	-120.745	0.221	-0.038
-640.668	-200.000	-0.067	-0.338
-639.653	468.494	-0.085	-0.194
-638.638	230.671	-0.284	0.473
-637.624	13.815	0.145	0.114
-636.609	305.420	0.139	-0.262
-635.595	-57.111	0.168	-0.075
-634.580	-28.631	-0.077	0.045
-633.565	68.020	-0.049	-0.052
-632.551	151.478	0.077	0.106
-631.536	189.836	-0.256	0.391
-630.522	-172.485	-0.185	0.006
-629.507	-15.907	-0.240	-0.155
-628.492	-138.016	-0.065	-0.007
-627.478	-101.075	0.229	-0.057
-626.463	-178.424	0.118	-0.003
-625.449	-61.508	0.330	-0.141
-624.434	172.325	-0.060	-0.087
-623.419	288.507	0.015	-0.027
-622.405	36.206	-0.177	-0.159
-621.390	254.115	0.160	-0.279
-620.376	-118.880	0.170	0.030
-619.361	-60.649	-0.299	0.129
-618.346	211.026	0.193	0.308
-617.332	180.481	0.249	0.371
-616.317	-132.618	-0.254	0.033
-615.303	-200.000	-0.006	0.054
-614.288	-200.000	0.040	-0.355
-613.273	787.890	-0.031	0.086
-612.259	67.645	0.352	0.366
-611.244	180.144	-0.196	-0.293
-610.230	-200.000	0.008	0.319
-609.215	154.871	-0.158	-0.220
-608.201	63.300	-0.088	0.090
-607.186	41.319	-0.119	0.109
-606.171	320.987	-0.100	-0.193
-605.157	40.285	-0.146	-0.134
-604.142	1.283	-0.065	-0.048
-603.128	222.668	0.019	0.031
-602.113	222.518	-0.288	0.472
-601.098	213.115	0.093	-0.150
-600.084	-43.504	0.098	-0.051
-599.069	187.096	-0.023	-0.035
-598.055	123.344	0.266	0.339
-597.040	82.201	-0.219	0.241
-596.025	-4.488	-0.248	-0.174
-595.011	79.604	0.094	0.102
-593.996	-200.000	0.005	-0.300
-592.982	471.196	-0.209	-0.477
-591.967	-57.086	0.340	-0.152
-590.952	17.840	0.091	0.073
-589.938	19.924	-0.274	-0.224
-588.923	-180.005	0.208	0.004
-587.909	-67.974	0.283	0.112
-586.894	259.754	0.108	0.190
-585.879	-118.742	0.130	0.023
-584.865	-28.588	-0.231	0.135
-583.850	6.675	-0.203	-0.153
-582.836	-200.000	-0.007	0.168
-581.821	800.000	-0.052	-0.184
-580.806	280.568	-0.187	-0.340
-579.792	-200.000	0.015	0.100
-578.777	342.374	0.077	0.154
-577.763	-114.752	-0.175	-0.034
-576.748	20.898	-0.168	0.138
-575.733	-29.669	-0.197	0.114
-574.719	273.790	0.075	0.134
-573.704	800.000	0.168	0.489
-572.690	-7.015	0.213	0.147
-571.675	-46.956	-0.275	-0.136
-570.661	55.763	-0.328	0.322
-569.646	12.571	-0.267	0.209
-568.631	-143.690	0.195	-0.019
-567.617	689.718	0.074	-0.196
-566.602	-180.342	0.261	0.006
-565.588	-43.175	-0.162	0.083
-564.573	-37.326	0.215	-0.116
-563.558	313.730	-0.121	0.231
-562.544	-101.794	-0.104	-0.026
-561.529	-93.392	0.151	-0.042
-560.515	-41.212	-0.230	0.121
-559.500	83.830	0.095	-0.105
-558.485	-95.245	0.228	0.062
-557.471	267.301	-0.186	-0.330
-556.456	-200.000	0.005	0.046
-555.442	155.636	0.149	-0.209
-554.427	105.130	-0.353	-0.423
-553.412	104.265	-0.154	-0.184
-552.398	-151.215	-0.393	0.030
-551.383	463.426	0.114	-0.259
-550.369	277.850	0.150	-0.271
-549.354	-45.561	0.036	0.018
-548.339	360.196	-0.133	-0.269
-547.325	-200.000	-0.004	0.181
-546.310	-200.000	0.011	0.343
-545.296	425.104	-0.128	0.279
-544.281	-35.149	0.127	0.070
-543.266	196.416	0.082	-0.126
-542.252	132.235	-0.226	-0.296
-541.237	-0.599	-0.296	-0.213
-540.223	-200.000	-0.012	-0.355
-539.208	-14.173	0.212	0.139
-538.193	435.617	-0.070	-0.154
-537.179	34.905	-0.035	0.031
-536.164	-36.906	-0.222	0.121
-535.150	-65.518	0.130	-0.053
-534.135	31.150	-0.309	-0.269
-533.121	229.297	-0.164	-0.271
-532.106	-96.393	0.098	-0.026
-531.091	-62.826	0.301	0.126
-530.077	-136.915	-0.312	-0.036
-529.062	-28.982	-0.138	-0.080
-528.048	-82.050	0.044	0.015
-527.033	-29.356	0.141	0.082
-526.018	113.935	0.125	0.154
-525.004	199.873	-0.095	0.148
-523.989	-131.450	-0.340	-0.045
-522.975	601.414	0.160	0.402
-521.960	-108.078	0.162	-0.036
-520.945	800.000	0.046	-0.161
-519.931	48.905	0.147	0.140
-518.916	800.000	0.041	0.133
-517.902	577.866	0.049	0.121
-516.887	-199.287	-0.161	-0.001
-515.872	-188.075	-0.095	0.001
-514.858	-32.247	0.197	0.112
-513.843	1.596	0.203	-0.148
-512.829	-162.038	0.093	-0.005
-511.814	4.102	0.112	0.083
-510.799	26.440	-0.147	0.124
-509.785	-44.773	-0.024	0.012
-508.770	-99.012	-0.365	-0.094
-507.756	176.768	0.142	0.210
-506.741	71.603	0.245	-0.257
-505.726	800.000	-0.049	0.187
-504.712	48.231	0.302	-0.286
-503.697	66.566	0.127	0.130
-502.683	165.174	-0.168	-0.240
-501.668	-172.413	-0.303	-0.010
-500.653	-39.209	-0.239	0.127
-499.639	73.591	0.052	0.055
-498.624	40.865	-0.053	-0.048
-497.610	55.563	-0.192	0.188
-496.595	800.000	0.048	-0.135
-495.581	-27.217	0.080	-0.047
-494.566	587.518	-0.118	0.293
-493.551	401.432	0.039	-0.082
-492.537	49.915	-0.179	-0.171
-491.522	-138.660	0.350	0.039
-490.508	217.801	-0.151	-0.244
-489.493	-105.603	-0.120	0.027
-488.478	-147.354	-0.269	-0.023
-487.464	-81.919	-0.189	0.062
-486.449	285.934	-0.104	0.191
-485.435	12.523	0.198	-0.155
-484.420	-9.106	0.053	-0.036
-483.405	-153.849	0.194	-0.013
-482.391	-124.535	0.139	-0.022
-481.376	29.383	0.066	0.057
-480.362	-111.929	-0.168	-0.034
-479.347	-200.000	0.017	0.121
-478.332	800.000	0.102	0.310
-477.318	63.476	0.287	-0.291
-476.303	-200.000	0.001	0.154
-475.289	526.946	0.074	0.175
-474.274	800.000	0.070	-0.203
-473.259	-65.982	-0.265	0.107
-472.245	61.761	-0.201	0.202
-471.230	-12.506	-0.127	-0.084
-470.216	-200.000	0.049	-0.246
-469.201	29.195	0.067	0.057
-468.186	-51.162	0.163	-0.077
-467.172	-150.177	0.291	-0.023
-466.157	404.681	0.027	-0.057
-465.143	-200.000	0.023	-0.440
-464.128	-200.000	-0.016	-0.123
-463.113	-200.000	0.037	-0.203
-462.099	-171.544	0.212	-0.007
-461.084	-109.830	-0.072	-0.015
-460.070	113.382	0.047	0.058
-459.055	67.232	0.216	-0.222
-458.040	210.292	0.044	-0.069
-457.026	-17.317	0.256	-0.163
-456.011	81.493	-0.160	-0.175
-454.997	9.913	-0.145	-0.111
-453.982	435.114	-0.012	-0.027
-452.968	-114.739	-0.062	-0.012
-451.953	-30.518	0.251	0.144
-450.938	-200.000	0.036	0.218
-449.924	70.469	-0.301	0.314
-448.909	128.624	0.292	0.375
-447.895	-11.764	-0.028	-0.018
-446.880	-73.538	0.298	-0.110
-445.865	77.490	0.201	0.216
-444.851	3.160	0.148	-0.109
-443.836	-90.177	0.353	-0.104
-442.822	86.074	-0.099	0.110
-441.807	-109.553	0.236	0.050
-440.792	27.021	-0.201	0.171
-439.778	-14.254	0.220	0.143
-438.763	31.335	0.131	0.114
-437.749	94.869	0.132	0.152
-436.734	-200.000	-0.037	0.176
-435.719	57.309	0.231	-0.228
-434.705	-200.000	-0.019	0.129
-433.690	508.097	0.109	0.256
-432.676	-200.000	-0.019	0.084
-431.661	-49.510	0.082	0.039
-430.646	-173.477	0.110	-0.003
-429.632	-130.344	0.225	-0.031
-428.617	266.714	-0.198	0.349
-427.603	800.000	-0.075	0.309
-426.588	800.000	0.024	-0.088
-425.573	-12.666	-0.233	-0.154
-424.559	667.571	0.041	-0.108
-423.544	-93.542	-0.203	0.057
-422.530	728.672	-0.041	0.112
-421.515	317.069	-0.172	0.329
-420.500	131.713	0.124	0.161
-419.486	-200.000	0.006	0.145
-418.471	-5.602	0.316	0.219
-417.457	31.819	0.092	-0.080
-416.442	-184.862	-0.401	0.006
-415.428	221.527	-0.043	0.069
-414.413	-160.247	0.225	-0.012
-413.398	-151.013	-0.086	0.007
-412.384	174.901	-0.025	0.036
-411.369	-200.000	0.001	-0.132
-410.355	73.613	0.233	0.247
-409.340	47.306	0.155	0.145
-408.325	253.192	-0.134	-0.231
-407.311	63.696	0.030	-0.030
-406.296	29.338	0.100	0.086
-405.282	32.736	-0.385	0.336
-404.267	-101.012	-0.152	0.038
-403.252	140.454	-0.132	0.175
-402.238	800.000	0.079	-0.225
-401.223	316.754	-0.114	-0.217
-400.209	-20.229	0.374	0.232
-399.194	-76.144	0.123	-0.044
-398.179	-64.247	0.149	-0.061
-397.165	-200.000	0.008	0.281
-396.150	-88.861	0.342	0.102
-395.136	36.989	0.136	-0.122
-394.121	488.701	-0.075	-0.173
-393.106	122.351	-0.207	0.261
-392.092	390.819	0.170	0.355
-391.077	112.557	-0.253	-0.308
-390.063	-200.000	-0.038	-0.183
-389.048	-90.340	0.188	0.055
-388.033	163.606	0.100	0.141
-387.019	-118.078	0.312	0.056
-386.004	-14.106	-0.093	0.061
-384.990	-200.000	-0.002	-0.375
-383.975	387.029	0.110	0.229
-382.960	-63.940	-0.381	-0.157
-381.946	-33.862	0.248	0.138
-380.931	-200.000	-0.040	-0.362
-379.917	298.206	-0.062	-0.116
-378.902	-135.068	-0.131	0.016
-377.888	-200.000	0.044	0.201
-376.873	-200.000	0.082	0.523
-375.858	-164.187	-0.197	-0.009
-374.844	161.204	-0.061	-0.086
-373.829	-2.567	-0.154	0.108
-372.815	-97.159	-0.061	-0.016
-371.800	-200.000	0.005	0.172
-370.785	-65.064	-0.151	0.061
-369.771	294.146	0.163	0.300
-368.756	149.249	0.169	0.230
-367.742	800.000	-0.128	0.374
-366.727	-54.693	0.209	-0.095
-365.712	-103.601	-0.161	-0.038
-364.698	-200.000	-0.006	0.128
-363.683	154.663	0.168	0.232
-362.669	-200.000	-0.001	0.149
-361.654	-200.000	-0.027	-0.151
-360.639	-102.963	-0.205	0.049
-359.625	-190.131	0.190	0.002
-358.610	251.617	0.130	-0.223
-357.596	-155.971	0.179	0.011
-356.581	-200.000	0.029	-0.157
-355.566	-151.961	0.243	0.018
-354.552	-200.000	-0.054	-0.417
-353.537	-125.875	0.061	-0.009
-352.523	-12.935	0.174	0.114
-351.508	11.014	0.286	0.220
-350.493	-165.207	-0.171	0.008
-349.479	17.324	-0.190	-0.152
-348.464	-161.428	0.215	0.011
-347.450	180.557	0.102	0.150
-346.435	553.625	-0.154	-0.373
-345.420	75.964	0.145	-0.154
-344.406	561.614	-0.020	0.050
-343.391	341.990	-0.085	0.167
-342.377	221.965	-0.085	0.137
-341.362	-37.995	-0.280	0.150
-340.348	-63.072	-0.147	0.061
-339.333	91.042	-0.055	-0.062
-338.318	-7.075	0.181	-0.124
-337.304	468.497	0.113	0.255
-336.289	-154.561	-0.296	-0.020
-335.275	-94.780	-0.366	-0.100
-334.260	-153.879	0.073	-0.005
-333.245	-155.414	0.113	-0.007
-332.231	800.000	0.030	-0.104
-331.216	-127.477	-0.417	0.061
-330.202	122.860	-0.115	-0.145
-329.187	-200.000	0.022	-0.307
-328.172	-3.978	0.039	0.027
-327.158	105.297	-0.259	-0.308
-326.143	130.908	-0.086	-0.111
-325.129	-133.140	-0.175	0.022
-324.114	404.675	-0.058	0.124
-323.099	76.302	0.288	-0.306
-322.085	-200.000	0.029	-0.243
-321.070	-15.968	-0.163	0.104
-320.056	-62.000	-0.271	-0.114
-319.041	119.207	0.020	-0.025
-318.026	-200.000	-0.013	0.102
-317.012	79.887	0.116	-0.125
-315.997	463.309	0.069	0.156
-314.983	-84.284	-0.396	0.126
-313.968	16.493	-0.188	-0.149
-312.953	-179.452	0.089	0.002
-311.939	-38.126	0.309	0.165
-310.924	158.832	-0.065	-0.091
-309.910	-67.033	0.061	-0.024
-308.895	361.345	-0.090	0.181
-307.880	72.517	0.123	-0.129
-306.866	800.000	-0.065	-0.202
-305.851	-200.000	-0.004	-0.206
-304.837	-157.515	-0.008	0.000
-303.822	-113.093	-0.127	-0.025
-302.807	118.738	-0.127	-0.158
-301.793	-200.000	0.040	-0.242
-300.778	48.644	-0.191	-0.180
-299.764	800.000	0.018	0.053
-298.749	-57.991	0.180	0.079
-297.735	800.000	0.098	-0.287
-296.720	356.332	-0.140	0.280
-295.705	-52.542	0.212	0.099
-294.691	62.795	-0.221	-0.222
-293.676	800.000	0.033	-0.110
-292.662	-200.000	-0.026	0.125
-291.647	-104.170	-0.413	0.096
-290.632	-200.000	-0.010	-0.175
-289.618	-64.394	-0.352	0.144
-288.603	800.000	0.042	0.133
-287.589	82.115	-0.246	0.268
-286.574	-4.989	-0.106	0.074
-285.559	-57.703	0.080	0.035
-284.545	262.401	0.104	0.181
-283.530	-133.555	-0.150	-0.019
-282.516	32.864	-0.197	-0.171
-281.501	9.223	0.047	0.035
-280.486	800.000	0.052	-0.176
-279.472	-108.961	0.289	0.062
-278.457	-121.933	-0.200	-0.033
-277.443	-200.000	-0.016	-0.162
-276.428	-91.057	-0.295	0.085
-275.413	-122.335	0.137	-0.023
-274.399	-183.388	0.257	0.004
-273.384	-55.215	0.332	0.150
-272.370	-79.425	-0.051	-0.017
-271.355	-200.000	0.032	-0.418
-270.340	152.158	-0.274	-0.375
-269.326	450.096	0.133	0.295
-268.311	-200.000	-0.024	0.356
-267.297	-172.671	-0.311	0.010
-266.282	62.606	-0.044	-0.044
-265.267	429.179	0.106	-0.230
-264.253	-200.000	-0.013	-0.572
-263.238	111.428	-0.176	-0.213
-262.224	-200.000	0.041	-0.225
-261.209	-200.000	0.020	-0.215
-260.195	800.000	-0.015	-0.054
-259.180	-43.988	0.156	-0.078
-258.165	114.629	-0.091	-0.112
-257.151	-144.779	-0.528	0.049
-256.136	800.000	0.046	-0.171
-255.122	39.246	0.124	0.111
-254.107	16.872	0.347	-0.276
-253.092	-44.170	0.206	-0.104
-252.078	-24.379	-0.155	0.092
-251.063	-49.051	0.029	0.014
-250.049	31.650	-0.198	-0.171
-249.034	240.747	-0.059	-0.098
-248.019	262.072	-0.143	-0.248
-247.005	-200.000	0.081	-0.373
-245.990	-113.341	-0.079	0.015
-244.976	-112.689	0.197	0.039
-243.961	-142.143	0.166	-0.017
-242.946	76.951	0.203	0.216
-241.932	-114.078	-0.106	-0.021
-240.917	800.000	0.056	-0.231
-239.903	108.939	0.096	-0.115
-238.888	66.732	0.248	0.253
-237.873	165.885	0.124	-0.176
-236.859	-52.990	0.134	0.062
-235.844	241.478	-0.191	-0.320
-234.830	-33.440	0.106	0.059
-233.815	18.699	-0.101	-0.081
-232.800	-200.000	-0.020	0.425
-231.786	-26.976	0.215	-0.126
-230.771	-96.270	0.175	-0.047
-229.757	193.156	-0.119	0.180
-228.742	-57.549	0.111	0.049
-227.727	103.943	-0.096	-0.113
-226.713	371.904	0.212	0.431
-225.698	-200.000	-0.037	-0.384
-224.684	-91.515	-0.141	-0.040
-223.669	79.281	-0.191	-0.205
-222.655	-200.000	-0.006	-0.320
-221.640	94.818	0.100	-0.114
-220.625	319.006	-0.097	-0.184
-219.611	59.455	-0.210	0.207
-218.596	-180.589	-0.272	-0.006
-217.582	11.120	0.208	0.159
-216.567	-65.440	0.256	0.103
-215.552	-200.000	-0.019	-0.219
-214.538	800.000	0.040	0.137
-213.523	-71.469	-0.098	0.037
-212.509	26.925	0.174	0.146
-211.494	-170.794	0.264	0.009
-210.479	-200.000	0.011	0.088
-209.465	188.368	-0.112	-0.167
-208.450	165.877	-0.050	0.071
-207.436	800.000	0.075	0.224
-206.421	-144.299	-0.249	-0.023
-205.406	-200.000	0.051	0.395
-204.392	232.243	0.089	-0.147
-203.377	83.459	-0.043	0.047
-202.363	-116.938	-0.349	0.064
-201.348	550.867	-0.022	0.052
-200.333	22.547	-0.230	-0.189
-199.319	-56.599	-0.264	0.117
-198.304	-200.000	-0.001	-0.006
-197.290	-53.830	0.063	0.029
-196.275	-161.803	0.247	-0.013
-195.260	-134.592	-0.201	-0.025
-194.246	-50.273	0.185	-0.088
-193.231	-138.757	0.226	0.025
-192.217	-146.274	-0.225	0.020
-191.202	31.788	0.143	0.123
-190.187	-59.615	-0.331	-0.142
-189.173	-34.796	-0.153	0.084
-188.158	17.050	0.124	0.099
-187.144	173.847	0.100	-0.144
-186.129	-200.000	-0.003	0.083
-185.114	598.228	-0.092	0.227
-184.100	-88.355	-0.033	0.010
-183.085	-200.000	0.010	0.336
-182.071	-84.014	-0.096	-0.031
-181.056	119.691	0.213	0.263
-180.042	-200.000	0.009	-0.145
-179.027	346.032	-0.178	0.349
-178.012	-96.072	0.328	0.087
-176.998	-64.452	0.114	-0.046
-175.983	800.000	0.047	-0.203
-174.969	283.045	-0.054	-0.096
-173.954	107.323	0.093	-0.111
-172.939	159.243	0.100	-0.139
-171.925	78.134	0.045	0.047
-170.910	-70.931	0.307	0.116
-169.896	26.585	-0.078	-0.065
-168.881	63.423	0.289	-0.290
-167.866	-20.541	0.100	-0.062
-166.852	-200.000	0.018	-0.155
-165.837	374.675	-0.098	-0.200
-164.823	-169.465	-0.017	0.001
-163.808	800.000	0.015	-0.056
-162.793	-200.000	0.009	-0.227
-161.779	87.596	0.248	0.275
-160.764	-164.890	0.175	-0.008
-159.750	114.114	-0.088	0.107
-158.735	-106.370	0.111	0.025
-157.720	-57.032	-0.133	0.058
-156.706	-116.821	0.276	0.050
-155.691	189.014	0.240	0.358
-154.677	219.003	-0.199	-0.318
-153.662	138.185	0.076	-0.099
-152.647	800.000	0.039	0.159
-151.633	-58.466	-0.097	-0.042
-150.618	-105.099	0.091	-0.021
-149.604	-90.217	0.372	0.108
-148.589	42.454	-0.255	-0.232
-147.574	-116.598	-0.062	0.011
-146.560	-60.701	-0.390	-0.165
-145.545	-48.162	0.152	0.073
-144.531	-200.000	-0.006	0.566
-143.516	800.000	0.101	0.304
-142.502	-39.180	-0.289	0.152
-141.487	178.169	-0.085	-0.123
-140.472	87.613	0.045	0.050
-139.458	4.963	-0.418	-0.307
-138.443	-43.971	0.324	0.163
-137.429	625.574	-0.082	0.207
-136.414	281.789	-0.032	-0.058
-135.399	61.103	-0.107	0.106
-134.385	-81.359	-0.278	-0.091
-133.370	-69.707	-0.125	-0.048
-132.356	-38.809	0.223	0.117
-131.341	787.169	0.109	-0.299
-130.326	-159.752	-0.322	0.018
-129.312	800.000	0.062	0.204
-128.297	-36.875	0.199	0.106
-127.283	66.618	0.110	0.112
-126.268	463.283	0.069	0.154
-125.253	225.022	-0.179	-0.288
-124.239	176.633	-0.057	0.082
-123.224	-200.000	-0.012	-0.362
-122.210	-110.951	-0.238	0.049
-121.195	60.304	0.094	-0.093
-120.180	-200.000	0.058	0.293
