DTS Sentinel unit serial number:	SN413079Multiplexer serial number:	ORYXHardware model number:	OX4-SRSoftware version number:	ORYX F/W v4.00 Oryx Data Collector v3.7.2.0data status	okinstallation	princeton_trtdifferential loss correction	single-endedforward channel	channel 4reverse channel	N/Adate	2019/09/14time	04:41:35forward acquisition time	60.00reverse acquisition time	0.00gamma	496.2192k internal	0.2321k external	0.2321temperature offset calibration	1.0132default loss term (dB/km)	0.3790temperature slope calibration	1.0000multiplexer offset coefficient	1.0000multiplexer slope coefficient	1.0000fibre end	0.00T internal ref (°C)	26.81T ext. ref 1 (°C)	3.35T ext. ref 2 (°C)	21.99length (m)	temperature (°C)	Stokes	anti-Stokes-747.200	-125.200	0.291	0.045
-746.185	-130.411	-0.344	-0.047
-745.171	800.000	0.079	-0.293
-744.156	25.997	0.081	0.068
-743.142	800.000	0.021	0.068
-742.127	-200.000	-0.067	0.297
-741.112	-200.000	-0.010	0.086
-740.098	120.957	-0.132	0.166
-739.083	-104.372	-0.143	-0.033
-738.069	76.063	-0.233	0.249
-737.054	181.452	0.220	0.326
-736.039	-86.091	-0.382	0.119
-735.025	-135.180	0.286	-0.035
-734.010	15.771	-0.156	-0.124
-732.996	800.000	0.063	-0.243
-731.981	101.819	-0.120	0.141
-730.966	-73.390	-0.234	0.087
-729.952	9.610	-0.254	-0.195
-728.937	-196.017	-0.168	-0.001
-727.923	800.000	-0.049	-0.213
-726.908	-111.531	0.177	0.036
-725.894	800.000	-0.090	-0.285
-724.879	-67.249	-0.375	-0.149
-723.864	-84.661	-0.370	-0.118
-722.850	123.201	0.102	-0.129
-721.835	-57.640	-0.289	0.128
-720.821	-129.737	0.306	-0.043
-719.806	800.000	-0.068	-0.264
-718.791	800.000	-0.045	-0.156
-717.777	-139.284	0.233	0.025
-716.762	104.129	-0.194	0.230
-715.748	-63.386	-0.168	-0.070
-714.733	-200.000	0.018	-0.166
-713.718	-27.456	-0.129	-0.076
-712.704	287.065	-0.163	-0.297
-711.689	92.354	0.115	0.131
-710.675	24.465	0.104	-0.086
-709.660	416.840	0.061	0.131
-708.645	91.669	0.216	-0.245
-707.631	358.976	-0.084	0.169
-706.616	-200.000	0.001	0.261
-705.602	52.017	0.132	0.127
-704.587	800.000	-0.168	-0.479
-703.572	-166.672	0.331	0.014
-702.558	-97.589	0.160	0.042
-701.543	-105.018	-0.465	-0.108
-700.529	-124.558	0.142	-0.022
-699.514	319.175	0.243	-0.465
-698.499	161.091	0.234	-0.330
-697.485	17.236	-0.425	-0.341
-696.470	298.333	0.128	-0.237
-695.456	-98.634	-0.283	0.073
-694.441	76.909	0.201	0.216
-693.426	-44.018	0.184	0.093
-692.412	-200.000	0.008	-0.384
-691.397	-157.442	-0.246	0.015
-690.383	78.854	0.181	-0.195
-689.368	-200.000	0.000	-0.200
-688.354	441.648	-0.101	-0.224
-687.339	-200.000	-0.005	-0.388
-686.324	-200.000	-0.021	0.308
-685.310	101.290	-0.160	0.187
-684.295	26.508	0.042	0.036
-683.281	-6.931	0.341	-0.233
-682.266	620.062	-0.077	-0.194
-681.251	-10.003	-0.256	0.172
-680.237	-99.927	0.039	-0.010
-679.222	166.989	-0.298	0.427
-678.208	-156.853	-0.347	-0.022
-677.193	540.129	-0.040	0.097
-676.178	-0.529	-0.272	0.195
-675.164	-200.000	0.005	0.132
-674.149	402.726	0.070	-0.148
-673.135	11.034	-0.112	-0.086
-672.120	-70.616	-0.106	-0.040
-671.105	800.000	-0.054	0.182
-670.091	145.011	-0.135	-0.182
-669.076	241.633	0.134	0.225
-668.062	99.600	0.238	-0.278
-667.047	-4.509	-0.164	-0.114
-666.032	-200.000	-0.037	-0.270
-665.018	-43.810	0.150	-0.076
-664.003	-129.238	-0.139	-0.020
-662.989	-139.179	0.257	-0.028
-661.974	24.997	-0.097	-0.081
-660.959	-200.000	0.004	-0.168
-659.945	-181.371	0.337	-0.007
-658.930	-200.000	-0.032	-0.384
-657.916	19.429	-0.375	0.304
-656.901	-150.113	0.278	0.022
-655.886	800.000	-0.026	-0.074
-654.872	-157.392	-0.236	-0.014
-653.857	-183.931	0.235	0.004
-652.843	10.011	-0.100	0.076
-651.828	-168.052	-0.105	0.004
-650.814	-18.892	-0.144	0.090
-649.799	800.000	-0.046	-0.145
-648.784	-96.318	0.201	-0.054
-647.770	-99.574	-0.369	-0.093
-646.755	-103.384	0.231	-0.055
-645.741	-200.000	-0.061	-0.465
-644.726	14.250	-0.119	0.093
-643.711	14.340	-0.068	-0.053
-642.697	-32.191	-0.151	0.085
-641.682	-200.000	-0.037	-0.197
-640.668	800.000	0.009	-0.035
-639.653	71.468	-0.185	0.193
-638.638	13.948	0.071	-0.056
-637.624	338.921	0.158	0.309
-636.609	800.000	0.018	-0.064
-635.595	382.319	-0.119	-0.245
-634.580	-86.358	0.229	0.071
-633.565	120.142	0.253	-0.316
-632.551	-68.461	-0.102	-0.040
-631.536	27.888	-0.057	0.049
-630.522	800.000	-0.079	0.304
-629.507	-50.335	-0.120	0.057
-628.492	47.296	0.117	-0.110
-627.478	162.987	0.060	-0.085
-626.463	-200.000	0.000	0.119
-625.449	-128.790	-0.150	-0.021
-624.434	64.327	0.173	-0.175
-623.419	800.000	-0.045	-0.128
-622.405	800.000	0.085	-0.236
-621.390	-34.268	0.218	0.120
-620.376	800.000	0.032	0.123
-619.361	-34.779	-0.117	0.064
-618.346	127.341	-0.078	0.099
-617.332	104.302	0.274	0.324
-616.317	-93.313	0.055	0.015
-615.303	-200.000	-0.021	-0.384
-614.288	-200.000	-0.023	0.223
-613.273	203.708	-0.053	0.082
-612.259	-155.604	-0.437	0.028
-611.244	-29.411	-0.242	0.139
-610.230	29.394	-0.349	-0.298
-609.215	144.714	-0.259	-0.348
-608.201	-34.056	-0.055	-0.030
-607.186	800.000	-0.050	-0.140
-606.171	-200.000	0.015	0.120
-605.157	122.063	0.256	0.321
-604.142	-131.021	0.171	0.023
-603.128	-144.713	0.170	0.016
-602.113	-200.000	0.034	0.215
-601.098	63.107	0.058	-0.058
-600.084	-141.571	0.273	0.028
-599.069	-126.627	0.279	-0.042
-598.055	328.248	0.140	0.271
-597.040	706.748	0.121	0.322
-596.025	-71.766	0.151	0.057
-595.011	274.557	-0.100	-0.177
-593.996	231.728	0.117	0.192
-592.982	-121.920	-0.249	-0.041
-591.967	-200.000	-0.021	0.166
-590.952	-37.658	0.184	-0.099
-589.938	-150.357	-0.112	0.009
-588.923	-97.430	-0.136	-0.036
-587.909	-200.000	0.038	0.167
-586.894	343.676	-0.092	0.181
-585.879	-200.000	-0.008	0.082
-584.865	-90.954	0.184	-0.053
-583.850	-200.000	0.027	-0.334
-582.836	-200.000	0.002	-0.277
-581.821	-68.711	0.249	0.097
-580.806	-200.000	-0.043	0.453
-579.792	-183.631	-0.254	0.004
-578.777	20.874	-0.144	-0.117
-577.763	-168.510	0.307	-0.012
-576.748	246.658	-0.137	-0.232
-575.733	6.891	-0.294	-0.220
-574.719	-48.610	0.435	0.210
-573.704	-143.104	0.218	-0.021
-572.690	-92.445	0.456	-0.129
-571.675	-143.566	-0.345	0.033
-570.661	369.004	0.124	0.252
-569.646	-131.824	-0.252	-0.033
-568.631	-103.318	0.132	-0.031
-567.617	-17.403	-0.437	-0.276
-566.602	-153.502	0.181	0.013
-565.588	-17.486	-0.120	-0.076
-564.573	-54.373	-0.105	0.048
-563.558	130.772	0.095	0.123
-562.544	-89.475	0.207	0.061
-561.529	20.964	0.233	0.189
-560.515	-145.110	0.292	0.027
-559.500	23.804	-0.192	0.159
-558.485	-86.610	-0.289	0.089
-557.471	-200.000	-0.013	0.377
-556.456	-98.380	-0.216	0.055
-555.442	-200.000	-0.022	-0.202
-554.427	-62.937	0.239	-0.099
-553.412	-62.845	-0.272	0.113
-552.398	-200.000	-0.023	0.107
-551.383	-89.296	0.103	-0.031
-550.369	136.206	-0.220	0.288
-549.354	-200.000	0.041	-0.275
-548.339	195.011	0.010	-0.015
-547.325	-153.074	-0.171	-0.012
-546.310	-122.385	0.366	0.060
-545.296	61.869	-0.281	-0.281
-544.281	-79.095	-0.290	0.099
-543.266	-75.763	-0.366	0.130
-542.252	-18.423	0.217	0.136
-541.237	81.991	0.124	0.135
-540.223	232.495	-0.150	0.246
-539.208	306.862	-0.102	0.191
-538.193	-200.000	0.006	-0.078
-537.179	-107.567	0.088	0.019
-536.164	-54.694	0.069	0.031
-535.150	2.366	0.141	-0.102
-534.135	432.410	0.014	0.030
-533.121	-91.915	0.421	0.120
-532.106	33.750	0.105	-0.091
-531.091	-200.000	0.020	0.156
-530.077	-189.445	-0.267	-0.003
-529.062	-16.895	0.213	0.135
-528.048	90.346	0.267	-0.299
-527.033	800.000	-0.030	-0.096
-526.018	-145.922	0.075	0.007
-525.004	764.585	-0.118	-0.320
-523.989	138.118	-0.177	0.232
-522.975	262.129	-0.106	-0.185
-521.960	800.000	-0.129	-0.401
-520.945	248.018	-0.034	0.058
-519.931	-200.000	-0.046	0.355
-518.916	495.028	-0.006	0.013
-517.902	-200.000	-0.033	-0.250
-516.887	154.952	-0.216	-0.298
-515.872	800.000	-0.040	0.151
-514.858	45.758	0.270	-0.250
-513.843	393.248	-0.122	0.255
-512.829	266.706	0.052	0.091
-511.814	-6.750	-0.183	0.125
-510.799	145.502	0.094	0.126
-509.785	-1.627	-0.179	-0.126
-508.770	311.212	-0.097	-0.182
-507.756	36.075	-0.097	-0.086
-506.741	328.195	0.106	0.205
-505.726	-1.179	0.211	-0.149
-504.712	-200.000	-0.010	-0.279
-503.697	-80.133	-0.186	0.062
-502.683	800.000	0.011	0.036
-501.668	-154.026	-0.133	0.009
-500.653	-200.000	0.015	-0.180
-499.639	-4.037	0.090	0.063
-498.624	-152.875	0.480	-0.034
-497.610	-99.272	0.255	-0.064
-496.595	332.672	0.055	0.106
-495.581	-85.988	-0.094	-0.029
-494.566	43.379	0.204	-0.187
-493.551	-59.081	0.345	-0.149
-492.537	107.908	-0.197	-0.235
-491.522	-136.416	-0.054	-0.006
-490.508	-60.748	0.252	-0.107
-489.493	-200.000	-0.047	0.000
-488.478	106.435	-0.296	-0.352
-487.464	715.903	-0.067	0.178
-486.449	395.767	0.048	-0.099
-485.435	-42.898	-0.304	0.155
-484.420	-118.440	-0.391	0.069
-483.405	-153.822	-0.101	0.007
-482.391	122.384	0.129	0.161
-481.376	-9.859	0.197	-0.131
-480.362	133.271	0.149	0.192
-479.347	61.895	-0.213	0.212
-478.332	-181.888	-0.308	0.006
-477.318	15.987	0.256	-0.202
-476.303	-52.670	0.216	0.100
-475.289	258.080	-0.112	0.193
-474.274	-200.000	-0.021	-0.133
-473.259	255.168	-0.207	-0.354
-472.245	-200.000	-0.001	-0.104
-471.230	-47.525	0.316	-0.153
-470.216	-31.496	-0.161	0.091
-469.201	663.460	0.050	-0.130
-468.186	40.676	0.422	0.380
-467.172	-200.000	0.012	0.092
-466.157	800.000	0.032	-0.105
-465.143	63.946	-0.299	-0.300
-464.128	3.596	-0.123	-0.090
-463.113	-129.082	0.042	0.006
-462.099	16.451	0.204	-0.161
-461.084	-7.694	-0.362	-0.245
-460.070	219.868	-0.187	0.299
-459.055	800.000	0.027	0.110
-458.040	216.214	-0.038	-0.060
-457.026	289.718	0.039	0.071
-456.011	51.321	0.149	0.142
-454.997	800.000	0.055	0.198
-453.982	35.328	0.097	-0.085
-452.968	179.082	0.182	0.266
-451.953	547.669	-0.129	0.308
-450.938	-56.221	-0.371	-0.165
-449.924	800.000	-0.162	-0.472
-448.909	-91.681	-0.215	0.061
-447.895	96.482	0.047	0.054
-446.880	-44.113	0.305	0.153
-445.865	142.634	0.343	-0.455
-444.851	32.661	0.157	0.136
-443.836	11.208	0.095	0.073
-442.822	601.693	0.143	0.354
-441.807	115.660	0.224	-0.274
-440.792	-174.586	0.176	0.005
-439.778	193.437	-0.095	-0.144
-438.763	397.799	-0.137	-0.285
-437.749	2.457	-0.074	0.053
-436.734	22.065	-0.345	-0.281
-435.719	-44.532	0.107	0.054
-434.705	102.013	0.145	-0.170
-433.690	-115.115	0.210	0.040
-432.676	353.700	0.109	0.217
-431.661	-82.996	-0.143	0.046
-430.646	79.556	0.163	-0.175
-429.632	259.225	-0.064	-0.111
-428.617	800.000	-0.077	-0.217
-427.603	-103.566	-0.054	0.013
-426.588	-168.805	-0.292	-0.011
-425.573	304.815	-0.155	-0.288
-424.559	-26.259	0.151	-0.089
-423.544	-200.000	0.010	0.123
-422.530	149.136	0.259	0.350
-421.515	-66.167	-0.227	0.090
-420.500	-200.000	-0.020	-0.316
-419.486	226.914	0.113	0.182
-418.471	-181.871	-0.202	0.004
-417.457	-122.735	-0.068	0.011
-416.442	-119.742	0.378	-0.065
-415.428	800.000	-0.011	0.049
-414.413	-170.678	0.181	-0.006
-413.398	-11.377	-0.051	0.033
-412.384	-93.002	-0.067	-0.019
-411.369	181.760	0.147	0.215
-410.355	72.159	0.097	0.101
-409.340	73.522	-0.264	-0.276
-408.325	6.198	-0.166	-0.122
-407.311	-131.334	0.071	-0.009
-406.296	800.000	0.038	0.145
-405.282	23.616	-0.175	0.144
-404.267	462.058	0.126	0.281
-403.252	94.839	-0.219	0.248
-402.238	5.179	-0.148	-0.109
-401.223	-131.372	-0.052	0.007
-400.209	-200.000	-0.100	-0.437
-399.194	395.729	-0.042	0.087
-398.179	166.380	-0.157	-0.222
-397.165	800.000	-0.065	0.254
-396.150	-40.057	0.246	-0.128
-395.136	800.000	0.111	0.431
-394.121	-176.810	0.456	0.012
-393.106	48.824	0.063	-0.059
-392.092	-114.654	-0.181	0.035
-391.077	315.547	0.127	-0.239
-390.063	800.000	-0.100	0.344
-389.048	457.518	-0.080	0.177
-388.033	20.457	0.142	0.114
-387.019	13.517	0.165	-0.127
-386.004	107.964	0.163	-0.194
-384.990	333.655	0.088	-0.169
-383.975	312.013	-0.036	-0.066
-382.960	-29.995	0.048	0.028
-381.946	19.194	0.175	-0.140
-380.931	-200.000	-0.012	-0.236
-379.917	96.090	-0.096	0.110
-378.902	96.408	-0.049	0.056
-377.888	-162.716	-0.195	-0.009
-376.873	376.245	-0.198	-0.404
-375.858	153.569	0.135	-0.185
-374.844	-121.640	0.117	0.019
-373.829	144.493	0.101	0.135
-372.815	-153.245	-0.291	0.020
-371.800	-73.330	-0.313	0.114
-370.785	-43.008	0.379	0.191
-369.771	-200.000	0.009	0.195
-368.756	357.164	0.126	-0.249
-367.742	-151.654	-0.151	0.011
-366.727	-128.328	-0.458	-0.065
-365.712	-85.240	-0.276	0.086
-364.698	122.726	0.114	-0.141
-363.683	800.000	0.065	-0.231
-362.669	-200.000	-0.040	0.295
-361.654	-79.888	-0.129	-0.043
-360.639	227.511	0.012	-0.019
-359.625	-148.461	-0.163	0.013
-358.610	-145.115	0.247	0.022
-357.596	-126.049	0.258	-0.039
-356.581	-110.960	-0.231	-0.047
-355.566	31.008	0.073	-0.062
-354.552	209.476	-0.036	-0.056
-353.537	696.638	-0.058	-0.151
-352.523	800.000	0.098	-0.323
-351.508	-200.000	0.077	0.502
-350.493	-29.112	0.231	0.132
-349.479	359.677	0.112	0.224
-348.464	450.999	-0.161	0.354
-347.450	52.784	0.355	-0.338
-346.435	-28.671	0.218	0.125
-345.420	-63.280	0.197	0.081
-344.406	19.444	0.155	-0.124
-343.391	-200.000	0.003	-0.302
-342.377	72.120	0.134	-0.139
-341.362	-200.000	-0.007	0.119
-340.348	-200.000	-0.011	0.059
-339.333	199.653	0.161	-0.246
-338.318	-119.686	0.107	-0.018
-337.304	800.000	0.057	-0.180
-336.289	-200.000	0.014	0.129
-335.275	-200.000	0.005	-0.126
-334.260	800.000	0.085	-0.239
-333.245	109.827	0.209	-0.249
-332.231	32.160	-0.180	0.154
-331.216	160.839	-0.166	0.231
-330.202	800.000	0.076	-0.236
-329.187	-49.851	-0.159	-0.075
-328.172	-36.287	-0.168	0.090
-327.158	-200.000	0.057	0.387
-326.143	800.000	-0.063	0.270
-325.129	800.000	-0.013	-0.051
-324.114	36.428	0.170	-0.149
-323.099	41.409	0.159	0.143
-322.085	800.000	0.145	-0.450
-321.070	800.000	-0.083	0.261
-320.056	391.984	-0.058	0.120
-319.041	-200.000	-0.014	0.232
-318.026	190.651	0.116	0.173
-317.012	-9.433	-0.030	-0.020
-315.997	140.995	0.062	-0.081
-314.983	-58.455	-0.159	-0.069
-313.968	584.287	-0.040	0.097
-312.953	-51.952	-0.120	-0.055
-311.939	198.156	0.037	-0.056
-310.924	165.483	0.066	0.092
-309.910	800.000	-0.078	0.274
-308.895	278.576	-0.138	0.245
-307.880	-160.108	-0.402	0.022
-306.866	24.095	-0.239	0.196
-305.851	-125.671	-0.097	-0.015
-304.837	355.452	-0.232	-0.459
-303.822	800.000	0.051	-0.191
-302.807	116.575	-0.147	0.180
-301.793	189.156	0.293	0.435
-300.778	-151.019	0.355	-0.027
-299.764	256.096	0.100	-0.170
-298.749	-200.000	0.025	0.166
-297.735	-0.289	-0.197	0.139
-296.720	-200.000	-0.036	0.428
-295.705	276.239	-0.157	0.277
-294.691	-74.700	-0.176	-0.063
-293.676	79.108	0.243	0.258
-292.662	-27.428	-0.156	-0.090
-291.647	-200.000	0.051	0.277
-290.632	-22.824	-0.294	-0.176
-289.618	-200.000	-0.008	0.074
-288.603	-27.283	-0.205	-0.119
-287.589	59.827	0.266	0.261
-286.574	-200.000	0.050	0.304
-285.559	-159.380	0.108	0.006
-284.545	62.849	0.100	0.099
-283.530	183.921	-0.087	0.128
-282.516	90.690	-0.089	0.099
-281.501	-47.582	0.070	0.034
-280.486	51.073	-0.199	0.187
-279.472	-24.989	-0.073	-0.043
-278.457	-22.817	-0.140	0.084
-277.443	279.249	0.091	0.161
-276.428	-156.105	0.165	0.010
-275.413	6.114	-0.220	0.162
-274.399	27.497	0.139	-0.116
-273.384	-200.000	-0.029	-0.405
-272.370	-200.000	0.020	-0.172
-271.355	-83.747	-0.179	-0.057
-270.340	173.856	0.179	0.256
-269.326	752.648	0.117	-0.314
-268.311	75.346	0.094	-0.099
-267.297	602.411	-0.023	0.057
-266.282	800.000	0.084	-0.280
-265.267	-200.000	-0.058	0.285
-264.253	-4.172	-0.262	0.180
-263.238	292.911	0.188	-0.341
-262.224	156.422	0.081	-0.111
-261.209	-200.000	-0.007	-0.066
-260.195	-142.724	-0.215	-0.021
-259.180	-110.172	-0.163	0.034
-258.165	-67.233	0.143	-0.056
-257.151	61.641	0.121	-0.120
-256.136	-200.000	0.002	-0.205
-255.122	-81.823	0.332	0.108
-254.107	26.720	0.107	-0.089
-253.092	250.222	0.079	-0.134
-252.078	-174.013	0.285	0.008
-251.063	-71.412	0.266	-0.099
-250.049	-44.645	0.256	0.127
-249.034	-200.000	0.023	0.140
-248.019	-92.023	0.163	0.046
-247.005	-2.546	-0.173	-0.120
-245.990	134.646	0.087	0.112
-244.976	213.979	-0.068	0.106
-243.961	-141.861	0.151	-0.015
-242.946	-84.104	-0.343	-0.108
-241.932	133.541	-0.083	0.107
-240.917	78.188	-0.215	0.227
-239.903	-200.000	-0.025	0.238
-238.888	-84.952	-0.056	-0.018
-237.873	19.840	-0.343	-0.274
-236.859	-43.659	0.350	0.175
-235.844	-87.376	0.342	0.103
-234.830	-165.542	-0.053	0.002
-233.815	-25.090	-0.330	-0.194
-232.800	280.008	-0.076	-0.134
-231.786	-200.000	-0.014	-0.070
-230.771	180.457	0.176	0.256
-229.757	-149.890	0.056	-0.004
-228.742	-15.110	-0.167	0.106
-227.727	0.134	0.190	-0.134
-226.713	-121.074	-0.246	0.041
-225.698	-200.000	0.074	-0.458
-224.684	391.900	0.055	0.113
-223.669	-138.389	-0.168	0.018
-222.655	-123.450	0.296	-0.047
-221.640	-141.831	0.199	0.020
-220.625	346.598	0.096	0.188
-219.611	-143.408	-0.183	0.017
-218.596	-200.000	-0.007	-0.081
-217.582	800.000	0.047	-0.197
-216.567	-35.375	-0.217	-0.117
-215.552	800.000	-0.043	0.136
-214.538	384.880	0.099	-0.202
-213.523	20.174	-0.150	0.120
-212.509	-113.768	-0.433	0.084
-211.494	-200.000	0.002	-0.045
-210.479	-53.577	0.064	0.029
-209.465	54.061	0.112	-0.107
-208.450	800.000	0.081	-0.227
-207.436	-200.000	0.023	0.175
-206.421	-105.203	0.160	0.036
-205.406	195.929	-0.097	-0.147
-204.392	-89.043	-0.189	-0.055
-203.377	-200.000	0.082	0.418
-202.363	-200.000	-0.045	-0.314
-201.348	197.203	0.099	-0.149
-200.333	288.081	0.070	-0.125
-199.319	164.952	-0.190	0.265
-198.304	-200.000	0.001	-0.169
-197.290	-118.303	0.089	-0.016
-196.275	35.450	-0.170	0.148
-195.260	52.636	-0.185	-0.175
-194.246	-132.749	0.194	0.025
-193.231	-25.703	0.193	0.113
-192.217	-120.505	0.206	-0.035
-191.202	626.728	0.177	0.443
-190.187	-93.317	0.208	0.057
-189.173	73.829	0.139	-0.144
-188.158	-75.617	-0.072	-0.025
-187.144	121.742	0.128	0.158
-186.129	156.128	0.116	-0.159
-185.114	-99.501	-0.273	-0.068
-184.100	-101.583	-0.086	0.021
-183.085	-200.000	0.017	-0.320
-182.071	-133.695	-0.333	0.041
-181.056	-159.886	0.158	0.009
-180.042	-123.693	-0.210	0.033
-179.027	-34.596	-0.067	0.036
-178.012	157.960	-0.029	0.040
-176.998	-127.672	-0.328	-0.047
-175.983	642.432	0.060	-0.151
-174.969	481.533	-0.083	-0.186
-173.954	-130.619	0.154	0.021
-172.939	-200.000	-0.005	0.090
-171.925	-109.249	-0.222	0.046
-170.910	539.630	0.127	-0.298
-169.896	-78.935	0.153	0.052
-168.881	-200.000	-0.045	0.259
-167.866	39.976	-0.142	0.126
-166.852	-200.000	0.003	0.099
-165.837	800.000	0.025	0.109
-164.823	-200.000	-0.197	-0.001
-163.808	-139.317	-0.346	0.037
-162.793	35.528	0.097	-0.084
-161.779	792.982	-0.136	-0.371
-160.764	160.318	0.133	0.183
-159.750	-83.713	0.123	-0.039
-158.735	25.887	-0.215	-0.177
-157.720	-200.000	-0.009	0.223
-156.706	-52.077	-0.157	0.072
-155.691	-200.000	0.040	-0.178
-154.677	-31.393	0.111	0.062
-153.662	197.162	0.128	-0.192
-152.647	-67.953	-0.183	0.071
-151.633	-197.543	-0.350	-0.002
-150.618	165.387	-0.100	0.140
-149.604	110.409	0.173	0.205
-148.589	800.000	-0.028	-0.094
-147.574	-84.967	0.288	-0.089
-146.560	14.853	-0.021	0.016
-145.545	258.866	-0.151	0.257
-144.531	-200.000	-0.071	-0.393
-143.516	-175.004	0.143	0.004
-142.502	417.011	0.057	0.119
-141.487	-59.709	0.139	0.059
-140.472	-15.158	-0.084	-0.053
-139.458	138.981	0.435	-0.564
-138.443	-123.572	0.164	0.026
-137.429	-41.777	-0.045	-0.023
-136.414	-27.899	-0.290	-0.166
-135.399	-200.000	0.030	0.228
-134.385	0.027	0.378	0.266
-133.370	135.156	0.143	-0.184
-132.356	-100.889	0.283	0.069
-131.341	800.000	-0.044	0.170
-130.326	800.000	-0.092	0.310
-129.312	800.000	-0.060	0.237
-128.297	258.895	0.071	0.121
-127.283	800.000	0.033	0.127
-126.268	128.519	-0.165	-0.208
-125.253	315.104	0.077	0.143
-124.239	197.094	-0.094	0.141
-123.224	50.257	0.258	-0.241
-122.210	493.567	-0.133	-0.301
-121.195	-88.998	-0.265	0.077
