DTS Sentinel unit serial number:	SN413079Multiplexer serial number:	ORYXHardware model number:	OX4-SRSoftware version number:	ORYX F/W v4.00 Oryx Data Collector v3.7.2.0data status	okinstallation	princeton_trtdifferential loss correction	single-endedforward channel	channel 4reverse channel	N/Adate	2019/09/15time	02:57:35forward acquisition time	60.00reverse acquisition time	0.00gamma	496.2192k internal	0.2310k external	0.2310temperature offset calibration	1.0033default loss term (dB/km)	0.3790temperature slope calibration	1.0000multiplexer offset coefficient	1.0000multiplexer slope coefficient	1.0000fibre end	0.00T internal ref (°C)	31.25T ext. ref 1 (°C)	4.56T ext. ref 2 (°C)	25.66length (m)	temperature (°C)	Stokes	anti-Stokes-747.200	98.650	0.146	0.171
-746.185	-77.116	-0.206	-0.073
-745.171	14.496	-0.237	-0.188
-744.156	80.719	0.151	-0.165
-743.142	-131.355	-0.112	0.015
-742.127	-200.000	0.020	0.173
-741.112	-200.000	-0.001	0.317
-740.098	-141.454	-0.042	-0.004
-739.083	-200.000	-0.027	-0.192
-738.069	-200.000	0.030	0.229
-737.054	-43.715	0.146	-0.075
-736.039	456.554	-0.147	-0.330
-735.025	231.445	-0.110	0.183
-734.010	-200.000	-0.031	-0.285
-732.996	-86.779	-0.436	0.135
-731.981	233.450	-0.099	-0.166
-730.966	304.688	0.031	-0.059
-729.952	-188.339	-0.209	0.003
-728.937	35.075	-0.290	0.257
-727.923	112.551	-0.107	0.132
-726.908	120.023	-0.249	0.313
-725.894	-98.993	0.091	-0.023
-724.879	96.789	0.138	0.160
-723.864	800.000	-0.118	0.443
-722.850	-144.483	-0.097	-0.009
-721.835	-153.924	-0.368	-0.025
-720.821	440.905	-0.127	-0.283
-719.806	206.900	-0.154	-0.244
-718.791	2.944	-0.289	0.213
-717.777	-40.643	0.175	0.092
-716.762	800.000	-0.068	-0.289
-715.748	100.564	-0.276	-0.326
-714.733	114.257	0.325	-0.401
-713.718	-7.151	0.345	0.237
-712.704	21.372	0.137	0.113
-711.689	133.111	-0.285	0.374
-710.675	13.950	-0.294	0.232
-709.660	202.211	-0.054	-0.085
-708.645	-200.000	-0.008	0.253
-707.631	129.759	0.220	-0.285
-706.616	-200.000	-0.015	0.090
-705.602	-99.115	0.429	0.110
-704.587	76.431	-0.064	-0.069
-703.572	-178.981	0.136	-0.003
-702.558	180.069	-0.206	0.306
-701.543	-200.000	-0.026	0.220
-700.529	27.733	0.171	-0.146
-699.514	-200.000	-0.013	0.182
-698.499	92.773	0.083	-0.095
-697.485	26.249	0.184	0.156
-696.470	-87.479	-0.421	0.129
-695.456	-54.362	0.416	0.191
-694.441	148.471	0.019	-0.026
-693.426	-200.000	0.003	0.075
-692.412	447.305	0.220	-0.492
-691.397	-200.000	-0.016	-0.307
-690.383	315.548	-0.102	-0.195
-689.368	-36.236	-0.137	0.075
-688.354	-102.312	0.038	-0.009
-687.339	12.381	-0.312	-0.244
-686.324	800.000	-0.172	0.499
-685.310	-14.816	0.069	0.045
-684.295	800.000	0.048	-0.206
-683.281	-200.000	-0.034	0.398
-682.266	293.121	-0.064	-0.119
-681.251	-117.390	-0.348	0.064
-680.237	582.476	-0.054	0.134
-679.222	-8.624	0.223	-0.151
-678.208	-88.497	-0.577	0.174
-677.193	-107.626	-0.143	-0.032
-676.178	-200.000	0.004	0.434
-675.164	194.369	-0.188	-0.289
-674.149	800.000	-0.108	-0.351
-673.135	67.174	0.097	-0.101
-672.120	55.194	-0.224	-0.220
-671.105	-58.441	0.098	-0.043
-670.091	74.015	0.094	-0.100
-669.076	9.272	0.207	0.159
-668.062	27.534	0.121	0.103
-667.047	-70.474	-0.368	-0.141
-666.032	-200.000	-0.028	0.207
-665.018	-29.842	-0.230	-0.133
-664.003	94.221	0.318	0.366
-662.989	586.641	0.087	-0.217
-661.974	120.634	0.084	0.106
-660.959	187.545	0.175	-0.264
-659.945	-200.000	0.006	0.274
-658.930	-73.754	-0.162	0.060
-657.916	182.288	-0.103	0.154
-656.901	249.892	0.176	-0.303
-655.886	-200.000	-0.012	-0.265
-654.872	377.622	0.043	0.089
-653.857	-200.000	0.004	-0.329
-652.843	191.384	0.204	-0.310
-651.828	-165.439	0.092	-0.004
-650.814	-23.914	-0.418	-0.253
-649.799	-43.544	-0.165	-0.084
-648.784	-84.048	-0.035	0.011
-647.770	-200.000	0.038	0.272
-646.755	-9.153	0.315	0.213
-645.741	800.000	0.076	-0.249
-644.726	-130.550	-0.169	0.023
-643.711	-102.275	-0.211	-0.051
-642.697	-41.965	-0.174	0.090
-641.682	-84.831	0.162	-0.051
-640.668	-200.000	-0.029	0.465
-639.653	-33.174	-0.269	0.151
-638.638	-28.935	-0.143	-0.083
-637.624	-10.665	0.150	0.100
-636.609	-200.000	0.022	-0.151
-635.595	-38.986	-0.425	-0.226
-634.580	-200.000	-0.003	-0.035
-633.565	800.000	-0.054	-0.186
-632.551	289.689	0.109	0.201
-631.536	-40.565	-0.222	-0.116
-630.522	47.966	0.058	0.054
-629.507	-151.594	-0.156	-0.012
-628.492	-200.000	0.008	-0.195
-627.478	-23.387	-0.174	-0.105
-626.463	800.000	0.077	0.247
-625.449	391.340	-0.072	0.152
-624.434	93.992	-0.142	-0.163
-623.419	-200.000	0.099	-0.466
-622.405	380.329	0.100	0.207
-621.390	-200.000	-0.036	0.306
-620.376	165.268	-0.101	0.145
-619.361	-107.645	-0.269	-0.059
-618.346	-200.000	0.044	0.222
-617.332	-143.067	-0.374	0.037
-616.317	-38.234	0.230	-0.123
-615.303	348.314	0.047	-0.094
-614.288	-70.736	-0.017	0.007
-613.273	-123.881	0.197	-0.031
-612.259	-81.179	-0.218	-0.073
-611.244	-34.706	-0.323	0.179
-610.230	-200.000	0.060	-0.372
-609.215	71.093	0.158	-0.166
-608.201	215.463	0.021	0.033
-607.186	215.149	0.123	0.197
-606.171	-169.333	-0.231	-0.009
-605.157	-12.579	0.108	-0.071
-604.142	182.584	-0.163	0.243
-603.128	25.579	0.077	0.064
-602.113	-47.907	-0.044	-0.022
-601.098	800.000	-0.040	0.114
-600.084	155.954	0.116	0.161
-599.069	-92.463	0.026	0.007
-598.055	-136.509	0.196	-0.023
-597.040	131.551	0.078	0.101
-596.025	582.025	-0.075	-0.186
-595.011	20.679	0.109	0.089
-593.996	-200.000	-0.057	0.291
-592.982	28.596	-0.168	-0.143
-591.967	-19.629	-0.109	-0.068
-590.952	-200.000	-0.008	-0.392
-589.938	-182.737	0.276	0.005
-588.923	602.004	0.003	-0.009
-587.909	-200.000	0.025	0.191
-586.894	-26.936	0.144	-0.085
-585.879	-200.000	-0.004	0.024
-584.865	36.476	0.089	-0.079
-583.850	281.386	-0.166	-0.299
-582.836	-200.000	-0.039	-0.198
-581.821	-93.933	0.398	-0.110
-580.806	800.000	0.096	0.315
-579.792	800.000	-0.024	-0.081
-578.777	79.789	0.134	-0.145
-577.763	800.000	-0.143	-0.412
-576.748	88.041	-0.228	0.255
-575.733	-43.360	-0.090	-0.046
-574.719	86.959	0.075	-0.083
-573.704	101.421	-0.100	-0.118
-572.690	536.198	0.034	0.082
-571.675	-75.306	-0.197	0.071
-570.661	78.100	-0.059	0.064
-569.646	-29.181	-0.279	-0.161
-568.631	106.029	-0.199	-0.237
-567.617	90.642	0.131	-0.148
-566.602	-18.415	-0.046	-0.029
-565.588	-10.650	0.214	0.143
-564.573	-200.000	-0.008	0.140
-563.558	-200.000	0.038	0.196
-562.544	-133.369	0.316	-0.040
-561.529	-52.610	0.099	-0.046
-560.515	-75.295	0.253	0.091
-559.500	45.409	0.392	-0.365
-558.485	-200.000	0.045	-0.284
-557.471	-50.670	0.114	-0.054
-556.456	-200.000	-0.006	0.131
-555.442	-75.149	0.151	0.054
-554.427	-200.000	-0.001	0.039
-553.412	-2.766	0.036	-0.025
-552.398	325.837	0.166	-0.320
-551.383	602.661	-0.076	0.192
-550.369	396.498	0.086	-0.180
-549.354	-28.887	-0.367	-0.213
-548.339	-55.235	-0.060	0.027
-547.325	-56.665	0.351	-0.157
-546.310	-148.556	-0.082	0.007
-545.296	-200.000	-0.002	0.254
-544.281	-94.896	0.267	-0.073
-543.266	92.983	-0.173	-0.197
-542.252	81.808	0.273	-0.298
-541.237	14.674	0.159	-0.125
-540.223	75.205	0.180	-0.191
-539.208	-57.487	0.064	-0.028
-538.193	-200.000	0.031	0.226
-537.179	-72.881	-0.070	0.026
-536.164	800.000	-0.056	-0.206
-535.150	-120.906	-0.121	-0.020
-534.135	-5.992	-0.054	0.037
-533.121	-96.339	-0.182	0.048
-532.106	323.509	-0.095	0.183
-531.091	-200.000	-0.023	0.142
-530.077	50.301	-0.069	0.066
-529.062	87.405	0.178	-0.198
-528.048	315.691	-0.136	0.258
-527.033	632.486	-0.038	-0.097
-526.018	528.241	0.087	0.206
-525.004	-35.345	0.250	-0.137
-523.989	262.089	-0.114	0.198
-522.975	364.330	0.156	0.316
-521.960	-93.024	-0.107	0.030
-520.945	-200.000	-0.003	0.109
-519.931	310.352	0.040	-0.076
-518.916	166.235	0.020	0.029
-517.902	-53.688	-0.236	0.109
-516.887	-200.000	0.032	-0.142
-515.872	800.000	-0.037	-0.145
-514.858	-117.484	0.191	0.035
-513.843	155.704	-0.202	0.280
-512.829	691.489	-0.092	0.243
-511.814	64.706	-0.227	-0.230
-510.799	-200.000	-0.011	0.263
-509.785	-200.000	-0.009	0.071
-508.770	-200.000	-0.012	0.356
-507.756	-141.362	0.076	-0.008
-506.741	-115.052	0.213	-0.041
-505.726	-64.824	-0.275	0.112
-504.712	211.227	-0.155	-0.246
-503.697	-84.221	0.060	-0.019
-502.683	-45.024	-0.362	0.181
-501.668	800.000	0.096	0.293
-500.653	197.234	-0.080	0.122
-499.639	-22.703	0.569	-0.346
-498.624	140.416	0.159	0.211
-497.610	-3.914	-0.045	0.031
-496.595	186.367	0.179	0.268
-495.581	248.033	-0.055	-0.093
-494.566	-89.499	0.061	-0.018
-493.551	455.837	-0.156	0.348
-492.537	-200.000	0.034	0.370
-491.522	78.638	0.084	-0.090
-490.508	-200.000	-0.059	-0.359
-489.493	-88.281	-0.167	-0.050
-488.478	-200.000	0.002	-0.146
-487.464	-70.879	0.240	0.091
-486.449	-200.000	0.007	-0.162
-485.435	731.964	-0.030	-0.082
-484.420	-2.080	-0.182	-0.129
-483.405	264.818	-0.091	-0.159
-482.391	-117.413	-0.043	0.008
-481.376	280.080	-0.027	-0.049
-480.362	172.742	0.060	-0.087
-479.347	62.428	0.475	0.477
-478.332	-200.000	0.006	0.180
-477.318	-24.539	-0.166	0.099
-476.303	152.287	-0.087	-0.119
-475.289	141.822	-0.107	-0.142
-474.274	-127.863	-0.035	-0.005
-473.259	-98.312	0.349	-0.090
-472.245	-75.217	0.164	0.059
-471.230	-156.993	0.119	0.007
-470.216	-200.000	-0.008	-0.253
-469.201	226.017	0.153	0.250
-468.186	800.000	0.011	-0.041
-467.172	-200.000	-0.004	0.159
-466.157	88.558	-0.175	0.195
-465.143	22.458	-0.160	0.131
-464.128	193.768	0.058	-0.088
-463.113	610.880	0.077	-0.194
-462.099	-200.000	-0.008	-0.168
-461.084	-63.344	0.072	-0.030
-460.070	-95.707	-0.502	0.135
-459.055	96.543	0.116	-0.134
-458.040	-107.111	0.291	-0.064
-457.026	-200.000	-0.042	-0.380
-456.011	-147.709	0.201	-0.017
-454.997	169.004	0.128	0.183
-453.982	-9.655	-0.092	-0.061
-452.968	404.438	0.191	-0.404
-451.953	21.557	0.093	0.076
-450.938	-31.083	0.284	0.161
-449.924	222.736	0.119	-0.192
-448.909	-30.512	0.202	0.115
-447.895	-37.815	-0.051	0.027
-446.880	118.637	-0.165	0.205
-445.865	-85.943	-0.031	0.010
-444.851	-200.000	0.005	-0.194
-443.836	-167.270	-0.198	0.008
-442.822	-104.312	-0.209	-0.049
-441.807	38.747	0.101	-0.090
-440.792	-28.479	-0.272	0.158
-439.778	58.908	-0.152	-0.150
-438.763	-156.625	-0.333	0.021
-437.749	-46.334	-0.171	-0.084
-436.734	-83.268	-0.267	-0.086
-435.719	45.995	0.026	0.024
-434.705	-56.867	0.523	-0.232
-433.690	-63.908	-0.325	-0.133
-432.676	-79.324	-0.430	0.146
-431.661	107.235	-0.210	0.251
-430.646	-127.999	0.027	-0.004
-429.632	-180.079	0.488	-0.010
-428.617	184.369	0.125	0.186
-427.603	35.532	0.180	0.158
-426.588	25.119	0.252	-0.210
-425.573	445.379	0.039	-0.085
-424.559	-200.000	-0.078	0.352
-423.544	-200.000	0.005	0.450
-422.530	-200.000	-0.019	0.195
-421.515	777.089	0.090	-0.246
-420.500	-172.830	0.221	-0.007
-419.486	334.388	0.071	-0.138
-418.471	208.047	0.121	-0.190
-417.457	800.000	-0.059	-0.246
-416.442	94.212	-0.051	-0.058
-415.428	67.013	0.216	-0.221
-414.413	-81.221	-0.630	0.209
-413.398	-85.277	-0.190	-0.059
-412.384	107.784	-0.210	-0.251
-411.369	-83.497	0.356	0.114
-410.355	-5.574	0.323	-0.222
-409.340	800.000	0.085	-0.333
-408.325	86.436	-0.068	0.076
-407.311	-120.209	-0.401	-0.069
-406.296	33.563	0.145	0.127
-405.282	-4.004	-0.260	-0.181
-404.267	-200.000	-0.047	0.207
-403.252	-9.853	0.188	0.125
-402.238	-84.875	-0.214	0.067
-401.223	92.818	-0.263	-0.298
-400.209	-83.707	0.251	0.080
-399.194	-169.960	0.240	-0.009
-398.179	-3.701	-0.180	0.125
-397.165	-113.245	0.144	-0.028
-396.150	55.947	0.198	0.192
-395.136	-0.392	-0.188	-0.134
-394.121	-44.164	0.248	-0.124
-393.106	-46.996	-0.231	-0.113
-392.092	301.144	0.137	-0.253
-391.077	-87.798	-0.321	-0.097
-390.063	758.436	-0.042	-0.115
-389.048	-200.000	-0.002	0.124
-388.033	-184.419	-0.277	0.005
-387.019	12.187	-0.180	-0.139
-386.004	-49.909	0.324	0.154
-384.990	20.524	-0.174	0.141
-383.975	800.000	0.095	-0.347
-382.960	800.000	0.044	0.167
-381.946	295.293	-0.094	0.172
-380.931	-154.035	0.052	0.004
-379.917	288.493	0.054	-0.097
-378.902	-115.192	-0.503	0.095
-377.888	-200.000	0.021	0.374
-376.873	-200.000	-0.012	-0.104
-375.858	792.953	-0.044	-0.121
-374.844	-157.841	0.307	-0.018
-373.829	392.107	-0.082	0.170
-372.815	39.854	0.077	-0.069
-371.800	4.788	0.372	0.274
-370.785	175.128	-0.083	0.121
-369.771	182.418	-0.144	0.212
-368.756	-200.000	-0.005	0.078
-367.742	-200.000	-0.026	0.132
-366.727	444.235	-0.075	-0.165
-365.712	-111.932	-0.173	-0.035
-364.698	-111.085	0.164	0.034
-363.683	-200.000	0.010	-0.064
-362.669	-62.193	-0.121	0.051
-361.654	150.620	0.233	0.317
-360.639	-0.204	-0.208	-0.148
-359.625	-149.714	0.300	0.024
-358.610	-112.481	-0.110	-0.022
-357.596	-200.000	0.018	-0.126
-356.581	-69.884	-0.082	0.031
-355.566	-64.252	0.306	0.125
-354.552	61.701	-0.051	0.051
-353.537	29.066	-0.209	0.177
-352.523	-200.000	0.007	0.277
-351.508	154.166	0.150	-0.206
-350.493	-200.000	-0.034	0.150
-349.479	745.625	0.054	0.146
-348.464	-123.805	-0.231	-0.036
-347.450	98.750	0.266	0.307
-346.435	-158.770	0.073	0.004
-345.420	800.000	-0.117	0.368
-344.406	-94.334	-0.180	-0.049
-343.391	-90.275	0.021	0.006
-342.377	141.333	-0.072	0.096
-341.362	84.937	0.179	0.196
-340.348	-83.349	-0.443	0.142
-339.333	-200.000	0.083	-0.383
-338.318	-82.472	-0.285	-0.093
-337.304	-85.689	-0.249	0.077
-336.289	62.755	0.273	0.273
-335.275	194.317	-0.112	0.169
-334.260	-4.052	-0.108	0.075
-333.245	128.325	-0.125	-0.159
-332.231	-160.133	-0.197	-0.011
-331.216	91.545	0.166	0.186
-330.202	-200.000	-0.044	-0.245
-329.187	-108.518	0.152	0.033
-328.172	46.896	0.013	0.012
-327.158	-200.000	0.003	-0.060
-326.143	63.745	-0.062	0.063
-325.129	347.468	-0.128	-0.253
-324.114	213.216	0.097	-0.153
-323.099	-161.329	-0.182	0.009
-322.085	22.635	0.159	0.130
-321.070	7.881	0.333	-0.249
-320.056	-200.000	-0.023	0.104
-319.041	-200.000	-0.047	0.336
-318.026	-66.395	-0.083	-0.033
-317.012	-180.338	-0.103	0.002
-315.997	136.749	-0.115	0.150
-314.983	800.000	0.073	0.219
-313.968	-1.442	-0.576	0.406
-312.953	-200.000	0.055	0.253
-311.939	27.386	0.195	-0.164
-310.924	398.624	0.088	0.184
-309.910	38.950	0.118	-0.105
-308.895	-142.283	0.279	0.028
-307.880	-52.517	0.117	-0.054
-306.866	200.108	-0.093	0.143
-305.851	51.201	0.145	0.137
-304.837	-13.036	0.245	-0.159
-303.822	-200.000	0.000	-0.350
-302.807	-164.366	0.209	0.010
-301.793	-19.467	0.167	-0.103
-300.778	-200.000	-0.062	-0.356
-299.764	194.631	-0.092	-0.139
-298.749	-177.330	0.394	-0.010
-297.735	345.798	-0.174	0.341
-296.720	-54.729	-0.230	-0.104
-295.705	-31.231	0.198	-0.111
-294.691	255.361	-0.063	-0.107
-293.676	36.239	0.194	-0.170
-292.662	516.875	-0.042	-0.097
-291.647	-25.481	-0.119	-0.070
-290.632	-148.559	-0.238	0.019
-289.618	272.702	0.189	-0.333
-288.603	200.055	0.186	-0.285
-287.589	-46.485	0.076	-0.037
-286.574	-200.000	-0.007	0.057
-285.559	-64.086	-0.176	-0.072
-284.545	29.133	0.120	-0.102
-283.530	-200.000	0.018	0.079
-282.516	502.582	0.086	0.199
-281.501	149.209	0.152	-0.205
-280.486	-86.126	0.590	0.182
-279.472	-98.228	0.137	0.035
-278.457	-42.015	-0.174	0.089
-277.443	-119.249	0.461	0.080
-276.428	44.291	-0.097	0.089
-275.413	-99.185	-0.308	0.078
-274.399	114.001	-0.149	-0.180
-273.384	-43.315	0.057	-0.029
-272.370	-108.309	-0.158	0.034
-271.355	-68.601	0.194	-0.075
-270.340	-88.681	-0.139	-0.041
-269.326	-131.798	-0.194	-0.025
-268.311	165.649	-0.161	-0.228
-267.297	264.310	0.068	0.117
-266.282	800.000	0.020	-0.059
-265.267	-109.892	-0.122	-0.025
-264.253	-161.864	0.198	-0.010
-263.238	134.637	0.101	0.131
-262.224	-37.799	0.123	0.065
-261.209	94.381	-0.296	0.335
-260.195	657.459	0.172	-0.442
-259.180	-120.469	-0.373	0.063
-258.165	218.529	-0.255	-0.405
-257.151	80.169	-0.217	-0.233
-256.136	-66.067	0.260	0.104
-255.122	69.526	0.247	-0.253
-254.107	800.000	-0.058	0.181
-253.092	-50.648	0.337	0.158
-252.078	-140.221	0.278	-0.029
-251.063	-124.006	0.324	-0.051
-250.049	32.112	0.145	0.124
-249.034	-119.158	-0.466	-0.081
-248.019	488.759	0.062	-0.140
-247.005	89.826	-0.131	0.146
-245.990	127.102	0.233	0.294
-244.976	-184.452	0.183	0.003
-243.961	-0.731	-0.179	0.126
-242.946	-32.905	-0.103	0.057
-241.932	395.046	-0.051	0.106
-240.917	8.292	0.212	0.158
-239.903	-103.295	0.042	-0.010
-238.888	-101.937	0.079	0.019
-237.873	-148.115	-0.055	0.005
-236.859	1.251	-0.242	-0.173
-235.844	53.162	-0.152	-0.145
-234.830	-200.000	-0.019	-0.117
-233.815	-63.315	-0.333	-0.136
-232.800	-41.179	0.074	0.038
-231.786	0.089	-0.072	-0.051
-230.771	312.477	0.240	0.449
-229.757	-200.000	0.053	0.319
-228.742	152.986	0.072	-0.099
-227.727	200.608	0.197	-0.302
-226.713	13.378	-0.226	0.175
-225.698	-8.631	0.253	-0.169
-224.684	-56.209	0.233	-0.103
-223.669	686.037	-0.177	0.461
-222.655	-96.292	-0.346	-0.091
-221.640	108.827	-0.185	-0.220
-220.625	-85.851	0.099	0.031
-219.611	-200.000	-0.009	-0.090
-218.596	148.362	-0.114	0.153
-217.582	-122.224	-0.297	0.048
-216.567	321.623	0.072	-0.136
-215.552	-200.000	0.029	-0.584
-214.538	310.641	-0.134	-0.250
-213.523	49.910	-0.311	0.292
-212.509	31.444	0.014	0.012
-211.494	-182.432	-0.190	0.003
-210.479	407.151	-0.017	-0.037
-209.465	-53.944	-0.270	-0.123
-208.450	248.537	0.108	0.182
-207.436	-81.663	-0.105	0.034
-206.421	567.946	0.107	0.258
-205.406	-46.148	0.064	-0.031
-204.392	275.144	0.147	-0.259
-203.377	-200.000	0.015	0.268
-202.363	800.000	0.104	-0.436
-201.348	-200.000	0.023	0.144
-200.333	25.541	0.097	-0.081
-199.319	-140.027	-0.325	-0.034
-198.304	78.168	0.183	-0.195
-197.290	-147.097	-0.067	0.006
-196.275	-6.932	0.080	0.054
-195.260	193.241	-0.277	-0.417
-194.246	800.000	0.084	0.278
-193.231	456.211	0.065	0.143
-192.217	40.887	0.199	0.179
-191.202	-171.000	-0.432	-0.015
-190.187	-68.956	0.149	0.057
-189.173	639.554	-0.082	-0.208
-188.158	423.389	0.143	0.306
-187.144	11.746	-0.200	0.152
-186.129	270.248	0.100	-0.174
-185.114	800.000	0.136	0.486
-184.100	63.428	0.209	-0.209
-183.085	82.046	0.044	-0.047
-182.071	-200.000	-0.003	0.223
-181.056	-200.000	0.004	-0.207
-180.042	670.682	0.006	-0.017
-179.027	105.233	-0.216	-0.254
-178.012	-62.467	0.107	-0.044
-176.998	63.474	-0.117	-0.116
-175.983	247.604	0.179	0.301
-174.969	272.747	0.158	0.278
-173.954	800.000	0.118	0.464
-172.939	-64.387	0.102	0.041
-171.925	102.700	0.067	0.078
-170.910	108.304	-0.126	-0.150
-169.896	230.965	0.172	0.280
-168.881	-118.373	0.154	0.027
-167.866	-200.000	-0.070	-0.329
-166.852	-12.883	-0.019	0.012
-165.837	-200.000	0.033	-0.168
-164.823	-157.683	0.081	-0.005
-163.808	710.926	-0.045	0.119
-162.793	-36.631	0.077	0.041
-161.779	-200.000	0.032	-0.268
-160.764	112.793	0.235	-0.282
-159.750	544.975	0.066	-0.157
-158.735	-70.433	-0.317	-0.119
-157.720	358.493	-0.128	0.253
-156.706	94.025	-0.066	-0.075
-155.691	-200.000	0.011	0.302
-154.677	-200.000	0.003	-0.095
-153.662	-200.000	0.049	-0.363
-152.647	626.453	-0.084	-0.211
-151.633	-55.464	-0.203	0.090
-150.618	-27.961	0.153	0.088
-149.604	155.908	-0.033	0.046
-148.589	247.201	-0.136	0.229
-147.574	52.695	0.101	0.096
-146.560	213.226	0.091	-0.142
-145.545	-145.525	0.223	0.020
-144.531	-146.874	-0.148	0.013
-143.516	173.960	-0.033	-0.047
-142.502	-86.460	-0.209	0.064
-141.487	400.643	0.033	0.069
-140.472	800.000	0.064	0.264
-139.458	-63.690	-0.210	0.085
-138.443	71.973	0.086	-0.089
-137.429	-200.000	0.042	-0.198
-136.414	800.000	-0.085	0.321
-135.399	-10.786	-0.157	-0.103
-134.385	-200.000	-0.019	0.145
-133.370	-200.000	0.028	0.210
-132.356	233.249	-0.141	0.230
-131.341	-13.241	0.137	-0.088
-130.326	152.590	0.096	0.129
-129.312	206.571	0.185	0.286
-128.297	444.209	-0.054	0.118
-127.283	-200.000	-0.007	0.174
-126.268	108.796	0.150	0.178
-125.253	-163.046	-0.117	-0.006
-124.239	-200.000	-0.002	-0.068
-123.224	7.930	0.169	-0.126
-122.210	-116.371	0.013	-0.002
-121.195	-200.000	0.032	-0.297
