DTS Sentinel unit serial number:	SN413079Multiplexer serial number:	ORYXHardware model number:	OX4-SRSoftware version number:	ORYX F/W v4.00 Oryx Data Collector v3.7.2.0data status	okinstallation	princeton_trtdifferential loss correction	single-endedforward channel	channel 4reverse channel	N/Adate	2019/09/17time	14:25:35forward acquisition time	60.00reverse acquisition time	0.00gamma	496.2192k internal	0.2295k external	0.2295temperature offset calibration	0.9987default loss term (dB/km)	0.3790temperature slope calibration	1.0000multiplexer offset coefficient	1.0000multiplexer slope coefficient	1.0000fibre end	0.00T internal ref (°C)	36.31T ext. ref 1 (°C)	0.40T ext. ref 2 (°C)	33.29length (m)	temperature (°C)	Stokes	anti-Stokes-747.200	-200.000	-0.055	0.510
-746.185	800.000	-0.098	0.409
-745.171	-200.000	0.015	0.413
-744.156	-200.000	-0.006	0.107
-743.142	-112.602	0.350	-0.071
-742.127	-200.000	0.059	0.272
-741.112	800.000	-0.030	0.100
-740.098	-78.430	-0.136	0.048
-739.083	-39.365	-0.167	0.090
-738.069	7.376	-0.105	-0.080
-737.054	-64.281	-0.222	-0.092
-736.039	800.000	0.008	-0.029
-735.025	132.729	0.117	0.154
-734.010	-200.000	0.020	0.173
-732.996	119.074	-0.146	-0.184
-731.981	124.928	-0.078	0.101
-730.966	606.113	-0.114	0.289
-729.952	-83.005	0.200	0.066
-728.937	-200.000	-0.023	0.327
-727.923	13.629	0.229	0.181
-726.908	-111.627	0.116	0.024
-725.894	-185.295	-0.546	-0.009
-724.879	-78.870	0.483	-0.168
-723.864	220.663	0.139	-0.227
-722.850	29.941	0.150	0.130
-721.835	27.419	-0.224	0.192
-720.821	-86.516	-0.130	0.041
-719.806	-4.987	-0.090	-0.064
-718.791	-200.000	-0.047	-0.237
-717.777	-22.402	0.172	0.106
-716.762	667.122	0.069	-0.182
-715.748	-93.381	-0.161	0.046
-714.733	-200.000	0.009	-0.251
-713.718	21.854	0.060	0.050
-712.704	-85.693	0.304	-0.096
-711.689	21.422	-0.253	-0.210
-710.675	38.631	-0.136	0.124
-709.660	-175.815	0.163	0.004
-708.645	325.370	-0.109	0.213
-707.631	800.000	-0.115	0.398
-706.616	-3.824	-0.278	-0.197
-705.602	-116.006	0.252	-0.048
-704.587	-66.027	-0.232	0.095
-703.572	-64.208	-0.102	0.042
-702.558	800.000	-0.068	0.230
-701.543	8.901	-0.128	0.099
-700.529	-108.160	-0.155	-0.034
-699.514	48.875	0.236	0.226
-698.499	24.573	-0.049	-0.042
-697.485	-127.705	0.100	0.015
-696.470	-112.357	-0.199	-0.041
-695.456	-200.000	-0.004	-0.105
-694.441	-116.026	-0.285	0.054
-693.426	20.844	0.154	0.128
-692.412	-99.555	-0.099	0.025
-691.397	-71.858	0.120	-0.045
-690.383	231.498	-0.074	-0.124
-689.368	-158.354	-0.305	-0.018
-688.354	-200.000	0.014	0.206
-687.339	75.031	0.150	0.161
-686.324	-71.486	0.103	-0.039
-685.310	-63.160	-0.336	-0.141
-684.295	-114.747	-0.303	-0.059
-683.281	120.359	-0.136	-0.172
-682.266	12.549	-0.026	0.020
-681.251	115.907	-0.069	-0.086
-680.237	800.000	-0.080	-0.245
-679.222	147.142	0.250	-0.344
-678.208	314.782	-0.163	-0.313
-677.193	21.179	-0.261	-0.216
-676.178	800.000	0.041	-0.176
-675.164	-97.425	0.096	-0.026
-674.149	88.930	0.142	0.161
-673.135	-84.734	0.309	-0.099
-672.120	-200.000	-0.035	-0.213
-671.105	800.000	0.012	-0.050
-670.091	-161.216	0.225	0.012
-669.076	-123.207	-0.096	0.016
-668.062	-80.646	-0.186	-0.063
-667.047	800.000	-0.146	0.600
-666.032	-17.895	-0.221	-0.142
-665.018	98.476	-0.181	-0.213
-664.003	-61.948	-0.098	-0.042
-662.989	-85.050	0.194	0.062
-661.974	-140.553	-0.101	0.011
-660.959	-200.000	-0.013	0.163
-659.945	800.000	-0.049	-0.197
-658.930	85.605	-0.095	-0.106
-657.916	110.332	0.169	-0.207
-656.901	-200.000	-0.010	-0.166
-655.886	258.612	-0.229	-0.402
-654.872	-110.238	0.246	-0.052
-653.857	-191.153	0.349	-0.004
-652.843	-133.521	0.066	0.008
-651.828	-101.497	0.118	-0.029
-650.814	733.575	0.074	0.201
-649.799	-5.543	-0.064	0.045
-648.784	-87.613	-0.273	-0.084
-647.770	-81.497	-0.201	-0.067
-646.755	635.304	-0.043	-0.112
-645.741	410.720	-0.070	-0.151
-644.726	800.000	0.103	0.314
-643.711	368.844	0.083	-0.170
-642.697	197.853	-0.008	-0.013
-641.682	-75.561	-0.108	0.039
-640.668	11.622	-0.250	-0.196
-639.653	41.780	-0.189	-0.175
-638.638	187.217	-0.208	-0.315
-637.624	-127.420	-0.229	-0.034
-636.609	-86.306	-0.320	0.100
-635.595	136.932	0.016	0.022
-634.580	-128.915	-0.116	0.017
-633.565	256.579	-0.145	-0.254
-632.551	-77.447	0.153	0.054
-631.536	-200.000	0.009	0.198
-630.522	253.461	-0.140	-0.244
-629.507	-200.000	-0.037	-0.322
-628.492	800.000	0.015	-0.054
-627.478	-72.079	-0.067	0.025
-626.463	396.828	0.108	-0.229
-625.449	-200.000	0.250	-0.001
-624.434	-112.024	0.363	-0.074
-623.419	-12.174	-0.094	0.063
-622.405	267.563	-0.137	-0.245
-621.390	800.000	-0.072	-0.203
-620.376	-116.491	-0.319	0.060
-619.361	34.695	-0.219	-0.195
-618.346	-34.110	0.189	-0.106
-617.332	-121.206	0.202	0.034
-616.317	79.347	0.180	0.196
-615.303	800.000	0.061	0.270
-614.288	-80.612	0.061	-0.021
-613.273	36.750	-0.115	-0.103
-612.259	109.503	-0.084	0.102
-611.244	479.899	-0.037	0.085
-610.230	528.064	-0.071	-0.171
-609.215	-99.181	0.226	0.058
-608.201	107.040	-0.164	-0.198
-607.186	633.074	-0.048	-0.123
-606.171	208.946	0.191	-0.304
-605.157	244.933	-0.069	0.118
-604.142	-17.086	-0.218	-0.140
-603.128	247.280	-0.116	0.200
-602.113	-113.920	-0.315	-0.062
-601.098	19.441	0.228	0.186
-600.084	-21.350	0.391	0.243
-599.069	-200.000	-0.008	0.327
-598.055	243.630	0.209	0.356
-597.040	-46.753	0.182	0.091
-596.025	-127.449	0.521	0.077
-595.011	480.553	-0.058	0.133
-593.996	800.000	-0.089	0.319
-592.982	-98.077	-0.418	0.109
-591.967	128.973	-0.216	-0.280
-590.952	50.674	-0.209	0.201
-589.938	743.877	0.052	-0.143
-588.923	10.808	0.064	0.049
-587.909	39.664	0.355	-0.323
-586.894	82.754	-0.203	0.224
-585.879	415.919	0.057	0.124
-584.865	-36.252	0.166	-0.091
-583.850	99.039	0.314	-0.368
-582.836	800.000	-0.053	-0.188
-581.821	-136.503	0.058	0.007
-580.806	137.202	-0.102	-0.136
-579.792	-5.405	-0.217	0.151
-578.777	-63.813	0.163	-0.068
-577.763	-155.246	-0.103	0.007
-576.748	-33.406	-0.306	0.172
-575.733	-25.297	0.151	0.091
-574.719	256.779	-0.078	-0.135
-573.704	194.631	0.117	-0.181
-572.690	-41.042	0.169	0.088
-571.675	-64.021	0.256	-0.106
-570.661	-200.000	-0.024	-0.253
-569.646	-65.335	-0.554	0.226
-568.631	-54.742	-0.357	-0.164
-567.617	61.449	0.290	-0.293
-566.602	-74.228	0.432	0.159
-565.588	-4.225	-0.212	-0.149
-564.573	-129.348	0.417	0.059
-563.558	-58.713	0.290	-0.127
-562.544	34.704	0.079	-0.070
-561.529	-27.710	-0.069	-0.041
-560.515	-21.517	-0.428	-0.265
-559.500	549.520	0.247	-0.601
-558.485	-200.000	0.028	0.317
-557.471	-191.530	-0.160	-0.002
-556.456	-180.451	0.221	0.005
-555.442	352.560	0.116	0.234
-554.427	-200.000	0.003	-0.153
-553.412	-123.484	0.220	0.035
-552.398	-200.000	-0.013	-0.277
-551.383	-55.935	-0.383	0.173
-550.369	5.067	-0.060	-0.044
-549.354	-200.000	-0.003	0.372
-548.339	-87.615	0.330	-0.101
-547.325	154.308	-0.082	0.115
-546.310	-200.000	0.023	-0.255
-545.296	-200.000	-0.015	-0.143
-544.281	175.352	0.083	-0.123
-543.266	113.137	0.148	-0.182
-542.252	-95.576	0.298	0.081
-541.237	98.533	-0.106	0.123
-540.223	-200.000	-0.005	0.396
-539.208	-200.000	0.004	-0.129
-538.193	800.000	-0.080	-0.299
-537.179	122.174	-0.165	-0.209
-536.164	-18.208	-0.402	-0.255
-535.150	-151.282	0.245	-0.019
-534.135	-16.308	0.104	0.067
-533.121	-52.845	0.118	-0.055
-532.106	-11.385	-0.033	0.022
-531.091	308.384	0.081	-0.153
-530.077	-2.077	-0.117	0.083
-529.062	-200.000	0.085	-0.387
-528.048	-44.503	-0.098	-0.050
-527.033	-54.326	-0.225	-0.103
-526.018	188.509	-0.195	-0.295
-525.004	-200.000	-0.045	-0.238
-523.989	68.670	-0.255	-0.265
-522.975	-86.761	-0.322	0.100
-521.960	78.407	0.113	-0.123
-520.945	28.387	-0.098	0.084
-519.931	-200.000	-0.059	0.462
-518.916	-200.000	0.044	-0.286
-517.902	-52.429	-0.417	0.196
-516.887	4.166	0.144	-0.107
-515.872	179.679	0.100	0.148
-514.858	-19.238	-0.020	-0.012
-513.843	39.661	0.135	-0.122
-512.829	-160.779	0.166	-0.009
-511.814	-200.000	-0.002	0.186
-510.799	-156.978	-0.163	0.010
-509.785	-159.998	-0.262	-0.015
-508.770	-6.031	0.063	-0.044
-507.756	-12.578	0.227	0.150
-506.741	580.495	-0.091	0.225
-505.726	411.554	-0.094	0.202
-504.712	-101.115	0.248	-0.062
-503.697	202.491	-0.143	-0.223
-502.683	279.734	0.043	-0.077
-501.668	-45.368	-0.076	0.038
-500.653	83.814	-0.264	0.291
-499.639	-43.384	0.200	0.103
-498.624	-99.869	-0.446	0.113
-497.610	11.811	-0.213	0.166
-496.595	-51.513	-0.211	-0.100
-495.581	-81.135	0.236	-0.079
-494.566	75.868	0.056	0.060
-493.551	443.670	0.168	-0.374
-492.537	29.161	-0.204	0.175
-491.522	-114.914	-0.379	0.073
-490.508	-75.510	-0.139	0.050
-489.493	-200.000	-0.044	-0.240
-488.478	-38.940	0.202	-0.107
-487.464	-75.718	-0.268	-0.096
-486.449	-62.090	-0.367	0.155
-485.435	0.568	0.136	0.098
-484.420	-200.000	-0.011	0.145
-483.405	-42.195	0.146	0.076
-482.391	-200.000	-0.007	0.255
-481.376	-200.000	-0.010	0.280
-480.362	-155.412	0.211	-0.014
-479.347	116.946	0.056	0.070
-478.332	-200.000	-0.039	-0.366
-477.318	800.000	-0.049	-0.152
-476.303	-200.000	0.037	-0.184
-475.289	-26.391	0.366	-0.217
-474.274	-200.000	0.017	0.184
-473.259	800.000	-0.113	0.415
-472.245	-152.442	0.329	0.024
-471.230	-23.625	-0.067	-0.041
-470.216	578.790	-0.094	0.233
-469.201	12.004	-0.274	0.213
-468.186	-24.224	-0.036	0.022
-467.172	-200.000	0.124	-0.001
-466.157	-41.898	-0.116	0.060
-465.143	580.367	0.085	0.210
-464.128	194.822	-0.241	0.370
-463.113	-41.203	-0.373	-0.194
-462.099	-200.000	-0.029	-0.146
-461.084	-15.152	0.126	0.082
-460.070	800.000	0.084	0.348
-459.055	-75.943	-0.145	0.052
-458.040	-200.000	0.025	-0.242
-457.026	205.412	0.115	0.181
-456.011	-200.000	-0.005	-0.360
-454.997	-200.000	-0.011	-0.288
-453.982	289.862	-0.100	0.183
-452.968	141.257	0.255	0.340
-451.953	-200.000	-0.000	0.171
-450.938	800.000	-0.107	0.468
-449.924	-66.517	-0.296	-0.119
-448.909	800.000	-0.088	-0.338
-447.895	-112.907	0.132	-0.026
-446.880	-86.696	-0.097	-0.030
-445.865	-20.919	-0.012	0.007
-444.851	4.892	0.348	-0.259
-443.836	263.380	0.107	0.188
-442.822	30.955	0.311	0.269
-441.807	-14.122	0.175	0.114
-440.792	800.000	0.120	-0.451
-439.778	-61.530	0.193	0.082
-438.763	-27.508	-0.069	0.041
-437.749	-107.345	-0.240	-0.053
-436.734	209.479	-0.073	-0.116
-435.719	108.962	-0.223	0.270
-434.705	246.350	-0.029	0.049
-433.690	-154.559	0.354	-0.024
-432.676	131.724	-0.179	0.232
-431.661	42.117	0.069	-0.063
-430.646	146.521	0.240	-0.325
-429.632	114.559	0.089	-0.109
-428.617	590.399	-0.097	0.241
-427.603	52.442	0.194	-0.187
-426.588	-74.413	0.279	-0.102
-425.573	-200.000	-0.004	-0.025
-424.559	-107.368	-0.335	-0.074
-423.544	-59.300	-0.065	-0.028
-422.530	-22.994	0.127	0.077
-421.515	10.328	0.234	0.180
-420.500	800.000	-0.024	0.099
-419.486	88.913	0.130	0.146
-418.471	-78.388	-0.151	-0.052
-417.457	111.923	0.118	0.144
-416.442	-26.398	-0.224	-0.132
-415.428	-37.923	-0.193	-0.103
-414.413	-200.000	0.010	-0.055
-413.398	-61.167	-0.332	0.141
-412.384	-154.259	0.125	0.009
-411.369	-9.371	0.167	-0.113
-410.355	800.000	0.036	0.155
-409.340	-200.000	0.021	-0.210
-408.325	800.000	-0.014	-0.041
-407.311	499.270	-0.162	0.378
-406.296	800.000	-0.071	0.259
-405.282	-90.468	-0.288	-0.084
-404.267	-200.000	-0.076	-0.493
-403.252	-167.943	-0.195	0.008
-402.238	65.712	-0.122	0.125
-401.223	-200.000	-0.018	-0.092
-400.209	106.112	-0.026	-0.031
-399.194	301.586	-0.032	-0.059
-398.179	211.221	0.144	-0.228
-397.165	-33.903	0.245	0.136
-396.150	-61.754	0.154	0.065
-395.136	-200.000	-0.009	-0.071
-394.121	155.728	-0.151	0.209
-393.106	98.000	-0.124	0.143
-392.092	119.971	0.149	-0.187
-391.077	-77.148	0.211	-0.074
-390.063	-142.209	0.081	0.008
-389.048	385.122	-0.134	0.278
-388.033	23.097	0.275	0.228
-387.019	28.787	0.119	-0.102
-386.004	-99.135	-0.168	0.043
-384.990	458.139	-0.100	-0.224
-383.975	-200.000	-0.029	-0.251
-382.960	253.354	-0.043	-0.074
-381.946	800.000	-0.086	0.315
-380.931	-200.000	0.045	0.326
-379.917	-200.000	0.042	0.380
-378.902	183.811	0.073	0.109
-377.888	-200.000	-0.030	-0.240
-376.873	-51.278	-0.242	0.114
-375.858	-130.360	0.229	-0.031
-374.844	800.000	0.101	-0.311
-373.829	71.804	-0.206	0.216
-372.815	407.494	0.216	-0.460
-371.800	8.500	0.293	-0.222
-370.785	26.216	0.086	0.073
-369.771	-38.541	0.228	-0.122
-368.756	73.884	-0.106	-0.112
-367.742	-101.726	-0.367	0.090
-366.727	208.415	-0.061	0.096
-365.712	7.878	-0.154	0.117
-364.698	-125.645	-0.163	0.025
-363.683	25.006	-0.324	0.270
-362.669	-3.429	-0.141	0.099
-361.654	-147.189	-0.266	-0.023
-360.639	13.227	-0.280	-0.219
-359.625	800.000	0.052	-0.145
-358.610	243.358	0.122	0.206
-357.596	-8.790	0.225	-0.152
-356.581	335.800	0.041	0.079
-355.566	-16.994	-0.367	0.233
-354.552	284.375	-0.054	-0.099
-353.537	-155.203	0.044	0.003
-352.523	-200.000	0.039	0.285
-351.508	-200.000	0.073	0.506
-350.493	-200.000	0.009	0.074
-349.479	164.346	-0.343	-0.487
-348.464	-112.383	0.208	-0.042
-347.450	56.520	-0.049	0.048
-346.435	150.629	-0.183	-0.250
-345.420	-33.148	0.271	-0.151
-344.406	-200.000	-0.018	0.179
-343.391	-62.392	0.299	0.125
-342.377	182.043	-0.128	0.190
-341.362	17.159	-0.125	-0.099
-340.348	454.579	-0.180	-0.401
-339.333	-114.715	-0.185	-0.036
-338.318	-200.000	0.010	0.050
-337.304	178.001	0.255	0.374
-336.289	-16.809	0.070	-0.044
-335.275	0.668	0.230	0.165
-334.260	800.000	-0.088	-0.339
-333.245	-17.758	0.148	-0.094
-332.231	311.426	0.096	0.181
-331.216	-125.073	-0.107	-0.017
-330.202	-118.757	0.299	0.053
-329.187	190.803	-0.126	0.191
-328.172	-200.000	0.026	0.207
-327.158	800.000	0.073	-0.203
-326.143	-20.505	-0.282	0.175
-325.129	29.778	-0.092	-0.079
-324.114	-79.384	0.417	0.142
-323.099	-40.008	0.212	0.111
-322.085	34.804	0.330	0.291
-321.070	654.159	0.133	-0.342
-320.056	-161.163	-0.130	0.007
-319.041	290.933	-0.166	0.304
-318.026	-107.432	-0.177	0.039
-317.012	-53.791	0.130	0.059
-315.997	800.000	-0.014	0.047
-314.983	69.026	0.076	-0.079
-313.968	-200.000	0.050	0.302
-312.953	-33.575	0.295	-0.164
-311.939	-181.993	-0.211	0.004
-310.924	176.081	-0.075	0.109
-309.910	-73.862	-0.174	0.063
-308.895	-69.247	0.216	0.083
-307.880	373.847	-0.056	-0.114
-306.866	255.230	-0.069	-0.118
-305.851	-200.000	0.045	0.206
-304.837	-68.646	-0.266	0.104
-303.822	9.353	0.191	0.145
-302.807	276.041	0.076	-0.135
-301.793	-200.000	0.030	0.295
-300.778	-35.674	0.139	-0.076
-299.764	-126.115	0.448	0.068
-298.749	128.690	0.132	-0.169
-297.735	147.457	-0.224	0.302
-296.720	-120.298	0.073	-0.012
-295.705	8.592	0.224	-0.170
-294.691	-200.000	-0.020	0.354
-293.676	-128.073	0.172	-0.025
-292.662	94.871	0.228	0.261
-291.647	380.371	0.068	0.140
-290.632	-200.000	0.008	-0.128
-289.618	-39.725	-0.407	-0.214
-288.603	262.148	0.219	0.382
-287.589	-200.000	-0.004	-0.179
-286.574	-2.997	0.186	-0.130
-285.559	-36.580	-0.220	0.119
-284.545	-111.972	0.338	-0.068
-283.530	-26.634	0.403	-0.237
-282.516	-200.000	-0.029	-0.161
-281.501	293.856	-0.095	0.175
-280.486	-152.294	0.248	0.018
-279.472	-66.554	-0.240	-0.096
-278.457	-59.759	-0.118	0.051
-277.443	-200.000	-0.073	0.326
-276.428	800.000	0.075	-0.266
-275.413	57.352	0.092	-0.090
-274.399	-200.000	-0.026	-0.127
-273.384	-145.946	0.192	0.017
-272.370	39.165	-0.144	0.129
-271.355	109.960	-0.123	-0.148
-270.340	147.993	-0.119	-0.161
-269.326	241.687	0.139	-0.233
-268.311	800.000	-0.021	-0.062
-267.297	-19.548	-0.124	-0.077
-266.282	209.632	0.121	0.190
-265.267	-84.634	-0.180	0.057
-264.253	-10.816	-0.235	-0.156
-263.238	-119.714	-0.161	-0.028
-262.224	-84.096	-0.370	-0.118
-261.209	-70.841	0.334	0.126
-260.195	43.202	0.107	-0.098
-259.180	800.000	0.117	-0.363
-258.165	-57.363	-0.280	0.124
-257.151	2.685	-0.155	-0.113
-256.136	-9.229	0.035	-0.023
-255.122	-200.000	0.001	0.339
-254.107	-200.000	0.011	0.216
-253.092	99.719	0.120	-0.140
-252.078	800.000	-0.065	-0.211
-251.063	260.051	-0.023	0.039
-250.049	-70.677	-0.092	-0.035
-249.034	-90.157	0.102	0.030
-248.019	-200.000	-0.024	-0.185
-247.005	204.860	-0.191	-0.298
-245.990	25.904	-0.163	-0.136
-244.976	332.584	-0.109	0.212
-243.961	-200.000	0.007	-0.268
-242.946	274.089	-0.058	0.104
-241.932	-3.437	0.301	-0.210
-240.917	198.789	0.122	0.187
-239.903	-19.476	0.384	0.238
-238.888	615.663	-0.025	-0.062
-237.873	-108.136	0.335	0.073
-236.859	-93.081	0.022	-0.006
-235.844	250.202	-0.110	-0.187
-234.830	14.185	0.123	0.096
-233.815	371.223	-0.033	-0.067
-232.800	-32.598	0.197	-0.110
-231.786	-43.458	0.095	0.048
-230.771	-106.468	0.246	-0.055
-229.757	60.451	0.135	0.134
-228.742	293.732	-0.292	0.534
-227.727	-48.478	-0.103	-0.050
-226.713	233.015	0.192	-0.315
-225.698	800.000	-0.060	-0.182
-224.684	33.200	-0.228	-0.198
-223.669	50.635	-0.034	0.032
-222.655	800.000	0.049	0.178
-221.640	-56.182	0.044	-0.020
-220.625	111.641	-0.171	-0.207
-219.611	-29.848	-0.210	0.120
-218.596	-138.056	0.085	0.010
-217.582	-200.000	-0.012	0.250
-216.567	59.378	-0.249	0.246
-215.552	-87.518	-0.166	0.050
-214.538	-140.377	0.273	-0.028
-213.523	800.000	-0.082	0.353
-212.509	-83.127	-0.140	-0.045
-211.494	56.532	0.268	0.261
-210.479	-157.785	0.317	-0.019
-209.465	800.000	-0.055	-0.170
-208.450	-137.778	-0.111	0.012
-207.436	-200.000	0.360	0.000
-206.421	285.961	0.109	0.197
-205.406	-200.000	-0.019	0.122
-204.392	-101.363	0.178	0.043
-203.377	43.873	-0.174	0.160
-202.363	-187.936	0.309	0.004
-201.348	800.000	-0.042	0.121
-200.333	210.521	-0.137	-0.215
-199.319	345.661	0.109	-0.215
-198.304	800.000	-0.028	0.100
-197.290	2.592	0.244	-0.177
-196.275	-94.536	0.275	0.075
-195.260	-14.337	-0.235	0.151
-194.246	-105.521	-0.280	-0.064
-193.231	366.632	-0.072	0.145
-192.217	14.631	-0.264	-0.206
-191.202	800.000	-0.007	0.021
-190.187	-67.954	0.142	0.055
-189.173	-99.509	0.358	-0.090
-188.158	-200.000	0.012	-0.074
-187.144	38.106	-0.310	0.276
-186.129	-176.742	-0.076	-0.002
-185.114	-19.482	0.317	-0.196
-184.100	-41.376	-0.086	-0.044
-183.085	-200.000	0.007	-0.100
-182.071	-83.280	-0.261	-0.084
-181.056	-43.613	-0.037	-0.019
-180.042	-155.562	0.452	-0.029
-179.027	-1.668	-0.198	-0.139
-178.012	-200.000	0.054	-0.278
-176.998	5.085	-0.263	-0.194
-175.983	-18.549	0.066	0.041
-174.969	257.592	0.105	0.181
-173.954	-200.000	-0.002	-0.085
-172.939	-200.000	0.018	-0.425
-171.925	165.630	0.068	0.096
-170.910	800.000	0.059	0.170
-169.896	60.696	-0.182	0.180
-168.881	48.293	0.187	0.175
-167.866	117.562	0.042	0.052
-166.852	-100.217	0.045	-0.011
-165.837	-55.641	0.243	0.108
-164.823	-200.000	-0.018	0.294
-163.808	-100.519	-0.371	0.092
-162.793	-200.000	-0.015	-0.165
-161.779	-200.000	-0.014	-0.179
-160.764	736.930	0.112	-0.301
-159.750	174.487	0.018	0.026
-158.735	-5.856	-0.203	-0.139
-157.720	-62.900	0.081	-0.033
-156.706	160.424	0.130	0.181
-155.691	-184.733	0.445	-0.007
-154.677	418.238	-0.024	-0.052
-153.662	247.295	-0.128	0.217
-152.647	-33.001	0.136	-0.075
-151.633	-200.000	-0.046	0.266
-150.618	235.351	0.136	0.224
-149.604	97.482	-0.142	0.163
-148.589	-200.000	0.031	0.190
-147.574	71.158	-0.253	0.262
-146.560	800.000	0.054	0.202
-145.545	-200.000	0.034	0.275
-144.531	103.667	-0.182	0.213
-143.516	427.515	0.024	0.052
-142.502	-29.088	-0.210	-0.120
-141.487	-200.000	0.021	0.095
-140.472	14.426	-0.218	0.170
-139.458	-104.940	-0.159	0.037
-138.443	800.000	0.084	0.312
-137.429	-54.447	-0.191	-0.086
-136.414	-200.000	0.024	0.305
-135.399	85.893	-0.082	0.091
-134.385	-3.347	0.107	-0.074
-133.370	542.840	0.078	0.187
-132.356	-120.663	0.141	-0.024
-131.341	147.889	-0.144	-0.194
-130.326	-107.135	0.318	0.070
-129.312	487.345	-0.128	-0.291
-128.297	332.865	-0.131	-0.253
-127.283	98.817	-0.132	0.152
-126.268	800.000	-0.022	-0.061
-125.253	-69.919	0.109	0.041
-124.239	-200.000	0.019	0.247
-123.224	217.330	0.147	0.234
-122.210	800.000	-0.024	-0.092
-121.195	104.511	0.134	-0.157
