DTS Sentinel unit serial number:	SN413079Multiplexer serial number:	ORYXHardware model number:	OX4-SRSoftware version number:	ORYX F/W v4.00 Oryx Data Collector v3.7.2.0data status	okinstallation	princeton_trtdifferential loss correction	single-endedforward channel	channel 4reverse channel	N/Adate	2019/09/19time	09:25:34forward acquisition time	60.00reverse acquisition time	0.00gamma	496.2192k internal	0.2336k external	0.2336temperature offset calibration	1.0009default loss term (dB/km)	0.3790temperature slope calibration	1.0000multiplexer offset coefficient	1.0000multiplexer slope coefficient	1.0000fibre end	0.00T internal ref (°C)	22.61T ext. ref 1 (°C)	0.62T ext. ref 2 (°C)	19.39length (m)	temperature (°C)	Stokes	anti-Stokes-747.200	348.836	-0.203	0.402
-746.185	800.000	-0.072	0.249
-745.171	146.401	-0.100	0.135
-744.156	94.397	0.054	0.061
-743.142	-28.336	-0.363	-0.210
-742.127	95.941	0.125	0.144
-741.112	800.000	-0.066	0.286
-740.098	800.000	-0.051	0.142
-739.083	-119.249	-0.266	-0.047
-738.069	-42.836	-0.294	0.150
-737.054	4.855	0.182	-0.134
-736.039	160.544	-0.402	-0.563
-735.025	800.000	0.047	0.132
-734.010	-200.000	-0.021	0.357
-732.996	-200.000	-0.017	-0.422
-731.981	-24.499	0.222	-0.133
-730.966	34.589	0.132	0.116
-729.952	-86.835	-0.463	-0.142
-728.937	159.425	-0.104	0.145
-727.923	-200.000	-0.006	-0.249
-726.908	81.307	0.153	-0.166
-725.894	-42.639	-0.207	-0.106
-724.879	-200.000	-0.027	0.154
-723.864	539.003	-0.146	-0.348
-722.850	26.954	-0.205	0.172
-721.835	73.339	-0.108	0.114
-720.821	-78.352	0.218	-0.075
-719.806	-200.000	-0.015	-0.173
-718.791	-78.170	-0.052	0.018
-717.777	170.880	0.099	-0.142
-716.762	-83.074	-0.181	-0.059
-715.748	127.199	0.140	-0.178
-714.733	40.316	-0.031	-0.028
-713.718	-200.000	0.028	-0.148
-712.704	-62.466	0.157	-0.065
-711.689	646.679	-0.134	-0.343
-710.675	-200.000	-0.010	0.180
-709.660	-43.967	0.088	-0.045
-708.645	-200.000	0.030	-0.259
-707.631	-90.379	0.208	0.060
-706.616	-59.665	0.102	0.044
-705.602	-200.000	-0.046	-0.358
-704.587	800.000	0.065	0.222
-703.572	49.752	-0.029	0.027
-702.558	-10.658	0.033	0.022
-701.543	177.899	-0.075	-0.110
-700.529	-200.000	0.047	-0.303
-699.514	800.000	-0.092	-0.365
-698.499	-53.996	0.159	-0.073
-697.485	-94.325	-0.327	-0.090
-696.470	800.000	0.093	-0.390
-695.456	-129.748	-0.232	-0.032
-694.441	-63.731	-0.409	-0.168
-693.426	-200.000	-0.025	-0.238
-692.412	-200.000	0.056	-0.252
-691.397	800.000	-0.005	0.019
-690.383	226.677	0.145	-0.237
-689.368	109.862	-0.125	-0.150
-688.354	-3.396	-0.194	0.135
-687.339	69.382	0.217	-0.224
-686.324	181.811	-0.087	0.128
-685.310	-200.000	-0.067	-0.437
-684.295	-136.787	-0.120	-0.014
-683.281	55.332	-0.113	0.110
-682.266	319.012	-0.056	0.106
-681.251	41.194	0.174	0.157
-680.237	58.534	-0.107	0.106
-679.222	336.482	-0.043	0.084
-678.208	-152.861	0.344	0.024
-677.193	558.486	0.113	-0.274
-676.178	117.763	0.133	-0.164
-675.164	103.941	0.082	-0.096
-674.149	-58.698	0.173	0.075
-673.135	-184.399	0.211	-0.003
-672.120	-80.903	-0.350	0.116
-671.105	22.550	-0.106	-0.087
-670.091	235.541	0.129	-0.213
-669.076	-200.000	-0.001	0.186
-668.062	151.400	-0.135	0.184
-667.047	-65.620	-0.089	-0.036
-666.032	588.549	-0.054	-0.134
-665.018	321.371	0.112	-0.214
-664.003	23.520	-0.183	-0.150
-662.989	-157.174	-0.216	0.013
-661.974	36.518	0.183	-0.161
-660.959	32.601	0.260	-0.225
-659.945	-200.000	-0.024	-0.168
-658.930	288.981	0.175	-0.318
-657.916	-138.896	0.065	0.007
-656.901	64.180	-0.254	0.255
-655.886	86.326	0.226	0.249
-654.872	-200.000	0.051	-0.223
-653.857	-199.976	-0.248	-0.001
-652.843	-90.974	-0.236	0.068
-651.828	-137.693	0.112	0.013
-650.814	244.644	0.178	0.299
-649.799	-200.000	0.030	0.511
-648.784	-29.300	-0.137	0.079
-647.770	416.916	0.070	-0.149
-646.755	-200.000	0.016	-0.090
-645.741	62.073	0.146	0.146
-644.726	-88.236	-0.436	0.131
-643.711	-13.328	-0.162	0.105
-642.697	179.069	0.162	-0.237
-641.682	-77.641	-0.057	-0.020
-640.668	213.400	-0.222	-0.351
-639.653	-154.734	-0.169	0.011
-638.638	77.629	0.093	-0.099
-637.624	-64.163	0.081	-0.033
-636.609	61.934	0.229	-0.228
-635.595	-200.000	0.089	-0.588
-634.580	-51.974	0.158	0.073
-633.565	69.785	-0.113	-0.116
-632.551	-7.953	-0.083	-0.056
-631.536	-58.716	0.242	0.105
-630.522	-49.555	-0.152	0.072
-629.507	-200.000	-0.012	0.091
-628.492	36.693	0.152	-0.135
-627.478	34.383	-0.212	0.185
-626.463	-156.609	0.143	0.009
-625.449	44.214	-0.056	0.051
-624.434	-144.401	0.131	0.012
-623.419	18.109	-0.355	0.283
-622.405	800.000	0.074	0.206
-621.390	-200.000	0.000	-0.122
-620.376	-72.688	-0.165	-0.061
-619.361	-125.057	-0.095	0.015
-618.346	-36.535	0.100	-0.054
-617.332	-55.774	0.194	-0.086
-616.317	-9.126	0.045	-0.030
-615.303	-200.000	0.004	-0.018
-614.288	-55.135	0.113	-0.051
-613.273	187.662	0.220	-0.329
-612.259	55.334	0.085	-0.082
-611.244	210.745	-0.074	0.116
-610.230	29.775	-0.116	-0.099
-609.215	655.250	-0.048	-0.124
-608.201	-108.898	-0.095	-0.020
-607.186	-101.988	0.130	0.031
-606.171	13.637	-0.017	0.013
-605.157	-200.000	0.025	0.224
-604.142	-24.444	0.262	-0.156
-603.128	-200.000	-0.074	-0.457
-602.113	-200.000	-0.007	0.257
-601.098	794.028	-0.030	-0.081
-600.084	-200.000	-0.005	-0.134
-599.069	56.461	0.233	-0.227
-598.055	406.971	-0.077	-0.162
-597.040	76.441	0.276	-0.292
-596.025	110.585	-0.133	-0.160
-595.011	-67.750	0.040	0.016
-593.996	35.071	0.142	0.124
-592.982	-9.644	0.121	0.081
-591.967	-200.000	-0.005	-0.277
-590.952	-52.199	-0.263	0.122
-589.938	800.000	0.065	-0.183
-588.923	200.122	-0.043	0.065
-587.909	-200.000	0.020	0.240
-586.894	273.019	0.102	-0.180
-585.879	-200.000	0.094	-0.418
-584.865	137.723	-0.128	0.167
-583.850	395.850	0.127	0.264
-582.836	178.663	0.243	0.355
-581.821	800.000	-0.072	0.205
-580.806	-200.000	0.064	0.281
-579.792	-200.000	0.042	-0.408
-578.777	209.230	-0.117	0.182
-577.763	48.583	0.099	-0.092
-576.748	273.092	-0.106	-0.186
-575.733	800.000	0.052	0.171
-574.719	800.000	-0.074	0.240
-573.704	800.000	0.068	0.227
-572.690	221.917	-0.241	-0.387
-571.675	120.055	-0.032	0.040
-570.661	-31.068	-0.092	0.052
-569.646	-20.716	-0.077	0.047
-568.631	-200.000	0.004	-0.154
-567.617	222.392	-0.158	0.253
-566.602	395.748	0.035	-0.073
-565.588	56.448	0.094	-0.091
-564.573	165.335	-0.171	0.241
-563.558	-140.237	0.296	-0.031
-562.544	23.828	-0.271	-0.222
-561.529	29.236	-0.189	-0.160
-560.515	800.000	-0.059	-0.198
-559.500	-200.000	-0.045	0.261
-558.485	243.525	0.127	0.212
-557.471	294.746	0.109	0.199
-556.456	52.495	-0.238	-0.226
-555.442	-26.403	-0.131	-0.076
-554.427	-42.744	-0.253	0.128
-553.412	-200.000	0.089	-0.400
-552.398	13.605	0.279	-0.216
-551.383	800.000	-0.057	-0.157
-550.369	-200.000	-0.012	0.171
-549.354	-120.380	0.106	0.018
-548.339	193.683	0.073	-0.110
-547.325	349.013	0.058	-0.113
-546.310	11.127	-0.235	-0.179
-545.296	-150.661	0.183	0.014
-544.281	800.000	-0.039	0.166
-543.266	-98.219	0.228	-0.058
-542.252	70.443	-0.180	-0.186
-541.237	-64.328	0.248	-0.101
-540.223	48.696	0.110	-0.103
-539.208	-200.000	-0.029	0.206
-538.193	255.650	-0.041	0.069
-537.179	426.847	0.086	-0.185
-536.164	-91.069	-0.157	0.045
-535.150	18.560	0.089	0.071
-534.135	800.000	0.051	-0.140
-533.121	91.415	0.106	0.119
-532.106	69.266	-0.254	0.260
-531.091	-27.125	-0.107	-0.062
-530.077	314.981	-0.060	0.113
-529.062	79.437	0.307	0.328
-528.048	-132.886	0.142	0.018
-527.033	95.960	-0.168	-0.191
-526.018	-57.727	-0.138	-0.060
-525.004	466.476	0.080	0.179
-523.989	131.690	0.090	-0.116
-522.975	-45.826	-0.088	-0.043
-521.960	800.000	-0.057	0.162
-520.945	-200.000	0.058	-0.273
-519.931	483.744	0.177	-0.400
-518.916	-200.000	-0.017	-0.167
-517.902	-200.000	-0.064	0.301
-516.887	-161.770	0.055	0.003
-515.872	-30.007	0.182	0.103
-514.858	122.853	-0.141	-0.175
-513.843	-40.879	-0.133	-0.069
-512.829	138.957	-0.079	0.103
-511.814	403.855	0.017	-0.036
-510.799	248.591	0.098	0.165
-509.785	244.855	0.106	-0.178
-508.770	178.606	0.181	0.263
-507.756	194.569	-0.058	-0.088
-506.741	-107.013	-0.217	-0.048
-505.726	-60.473	-0.200	0.085
-504.712	57.720	0.136	0.132
-503.697	133.598	0.070	-0.090
-502.683	800.000	0.087	0.295
-501.668	-110.169	0.261	0.054
-500.653	-5.280	-0.223	0.152
-499.639	-200.000	-0.028	-0.173
-498.624	-7.956	0.042	-0.028
-497.610	54.372	0.128	0.123
-496.595	-200.000	0.001	-0.012
-495.581	-74.168	-0.039	0.014
-494.566	785.551	0.107	-0.291
-493.551	88.405	-0.215	-0.237
-492.537	-16.989	-0.218	-0.137
-491.522	-200.000	0.030	-0.390
-490.508	-27.300	-0.423	0.245
-489.493	602.737	0.132	0.325
-488.478	-200.000	-0.040	0.205
-487.464	75.865	0.204	-0.214
-486.449	800.000	0.015	-0.064
-485.435	544.675	0.188	-0.446
-484.420	193.359	0.035	0.052
-483.405	53.087	0.262	0.249
-482.391	-50.284	0.180	0.085
-481.376	-200.000	0.004	-0.121
-480.362	4.197	0.442	-0.321
-479.347	800.000	0.079	0.221
-478.332	-182.009	-0.097	-0.002
-477.318	91.911	0.162	0.181
-476.303	-55.328	0.223	-0.100
-475.289	-55.186	-0.264	0.118
-474.274	-200.000	0.034	0.242
-473.259	20.972	-0.152	0.122
-472.245	217.385	-0.121	-0.191
-471.230	-33.787	-0.224	-0.122
-470.216	-74.033	-0.119	-0.043
-469.201	-136.110	0.160	0.019
-468.186	800.000	0.023	0.071
-467.172	-123.677	-0.290	-0.046
-466.157	182.648	-0.206	-0.302
-465.143	-200.000	0.002	-0.175
-464.128	-200.000	-0.011	0.093
-463.113	800.000	-0.083	0.258
-462.099	-200.000	-0.006	-0.092
-461.084	-200.000	0.056	-0.269
-460.070	9.685	-0.091	-0.069
-459.055	-200.000	0.043	0.245
-458.040	-200.000	0.003	0.111
-457.026	200.708	-0.210	-0.321
-456.011	800.000	-0.079	-0.322
-454.997	800.000	0.014	-0.057
-453.982	800.000	-0.035	-0.139
-452.968	70.191	0.107	-0.109
-451.953	-62.245	0.128	-0.053
-450.938	800.000	-0.034	0.122
-449.924	111.898	0.133	0.159
-448.909	-88.903	-0.212	0.063
-447.895	253.798	-0.062	0.106
-446.880	800.000	-0.033	-0.115
-445.865	800.000	0.044	-0.131
-444.851	133.397	0.179	0.229
-443.836	-17.340	-0.085	-0.053
-442.822	-140.239	-0.228	0.024
-441.807	79.020	0.132	-0.140
-440.792	-50.406	-0.273	0.128
-439.778	-200.000	-0.003	0.087
-438.763	-51.158	0.014	-0.006
-437.749	634.414	0.114	0.287
-436.734	-151.865	0.070	-0.005
-435.719	164.283	0.107	0.150
-434.705	61.900	-0.240	-0.237
-433.690	59.910	-0.086	0.084
-432.676	800.000	0.087	0.286
-431.661	-189.297	0.098	0.001
-430.646	45.134	-0.313	0.286
-429.632	-200.000	-0.011	0.444
-428.617	248.772	0.116	-0.195
-427.603	-134.627	0.246	0.030
-426.588	-26.374	-0.099	-0.058
-425.573	144.233	-0.092	0.122
-424.559	-68.714	-0.036	-0.014
-423.544	-167.281	0.103	0.004
-422.530	800.000	0.025	-0.102
-421.515	-144.239	-0.256	0.024
-420.500	96.200	-0.059	-0.067
-419.486	-71.850	-0.251	0.093
-418.471	49.276	0.080	0.074
-417.457	-200.000	-0.050	0.470
-416.442	303.460	0.028	-0.052
-415.428	589.861	0.139	-0.340
-414.413	8.440	0.087	-0.065
-413.398	327.882	0.117	-0.222
-412.384	11.652	-0.155	0.118
-411.369	-39.303	-0.161	-0.084
-410.355	-71.108	0.179	0.067
-409.340	-200.000	0.007	-0.032
-408.325	-82.681	-0.078	0.025
-407.311	-105.326	-0.172	0.039
-406.296	-200.000	-0.035	0.218
-405.282	4.488	0.228	0.166
-404.267	60.227	0.226	0.222
-403.252	101.568	-0.198	-0.229
-402.238	52.297	0.223	0.210
-401.223	-82.621	-0.356	-0.114
-400.209	-200.000	0.006	0.111
-399.194	-30.980	-0.274	-0.153
-398.179	95.610	-0.056	0.063
-397.165	-53.968	0.367	-0.166
-396.150	65.563	-0.220	-0.221
-395.136	-78.634	-0.150	0.051
-394.121	135.629	0.054	-0.070
-393.106	800.000	-0.079	-0.243
-392.092	-200.000	-0.027	-0.168
-391.077	-131.306	0.182	-0.024
-390.063	73.670	0.123	-0.127
-389.048	-81.257	0.248	0.081
-388.033	-164.339	0.362	0.016
-387.019	93.403	-0.082	-0.092
-386.004	800.000	0.031	0.085
-384.990	57.235	0.074	0.072
-383.975	-137.231	-0.257	0.029
-382.960	78.502	0.292	0.309
-381.946	-121.582	0.338	-0.055
-380.931	66.817	-0.225	-0.227
-379.917	-169.213	0.293	-0.011
-378.902	800.000	-0.051	-0.162
-377.888	737.002	0.109	0.290
-376.873	-122.375	-0.459	-0.074
-375.858	57.666	-0.148	0.143
-374.844	-200.000	0.059	0.357
-373.829	-36.610	0.270	-0.144
-372.815	-200.000	0.024	0.188
-371.800	48.689	0.157	0.146
-370.785	147.536	-0.125	-0.167
-369.771	-5.529	0.108	0.073
-368.756	-58.074	-0.195	0.084
-367.742	-81.879	0.330	-0.107
-366.727	18.146	0.277	-0.218
-365.712	-200.000	-0.061	0.000
-364.698	-29.523	0.062	0.035
-363.683	-200.000	-0.024	0.141
-362.669	-116.411	-0.176	-0.032
-361.654	3.367	-0.189	-0.136
-360.639	119.951	0.159	-0.195
-359.625	-163.760	0.266	-0.012
-358.610	-0.826	0.142	0.100
-357.596	282.982	0.141	-0.251
-356.581	-24.662	0.298	-0.175
-355.566	162.681	-0.191	-0.265
-354.552	349.757	-0.050	-0.097
-353.537	708.869	-0.050	0.131
-352.523	-95.837	-0.261	-0.069
-351.508	-200.000	-0.003	-0.156
-350.493	800.000	0.022	0.064
-349.479	167.839	-0.078	0.109
-348.464	649.855	0.059	0.149
-347.450	129.132	-0.190	-0.240
-346.435	28.912	0.093	-0.078
-345.420	-118.808	-0.187	-0.033
-344.406	454.390	0.113	0.249
-343.391	14.808	-0.136	-0.105
-342.377	-95.352	0.097	0.026
-341.362	386.244	0.056	0.114
-340.348	800.000	-0.081	-0.328
-339.333	-200.000	0.004	0.077
-338.318	-132.140	0.126	-0.016
-337.304	-200.000	0.023	-0.444
-336.289	-168.878	-0.410	0.015
-335.275	-2.958	-0.334	-0.230
-334.260	124.949	0.095	-0.119
-333.245	-2.633	-0.409	-0.283
-332.231	11.599	0.109	-0.082
-331.216	800.000	0.070	-0.302
-330.202	160.369	0.104	0.144
-329.187	-115.857	0.293	0.054
-328.172	800.000	-0.081	-0.307
-327.158	131.727	-0.040	0.051
-326.143	35.006	-0.013	0.011
-325.129	800.000	0.109	0.349
-324.114	-94.431	-0.132	0.036
-323.099	-96.225	0.358	0.094
-322.085	-105.582	-0.297	-0.066
-321.070	-84.579	-0.167	0.052
-320.056	119.521	-0.107	-0.131
-319.041	-200.000	-0.045	0.277
-318.026	800.000	-0.119	0.334
-317.012	20.275	0.146	0.116
-315.997	-200.000	0.136	0.001
-314.983	-200.000	-0.030	0.179
-313.968	-59.871	-0.086	0.036
-312.953	-76.000	-0.463	0.162
-311.939	-61.117	-0.319	0.133
-310.924	-200.000	0.081	0.447
-309.910	312.509	0.187	0.347
-308.895	-3.565	-0.130	0.089
-307.880	-200.000	0.020	0.095
-306.866	-138.055	-0.179	0.020
-305.851	-87.164	0.241	-0.072
-304.837	800.000	0.109	-0.349
-303.822	-183.265	0.216	-0.004
-302.807	453.663	0.137	0.298
-301.793	8.222	0.206	0.152
-300.778	-144.914	0.094	-0.008
-299.764	-85.757	-0.276	0.085
-298.749	140.083	-0.124	-0.162
-297.735	-140.189	-0.189	0.020
-296.720	800.000	-0.039	0.143
-295.705	112.984	0.180	-0.215
-294.691	-121.182	-0.157	-0.026
-293.676	84.017	0.170	-0.183
-292.662	-107.736	-0.153	0.033
-291.647	800.000	-0.067	0.235
-290.632	39.236	-0.103	0.091
-289.618	-28.938	-0.235	0.133
-288.603	800.000	-0.091	-0.252
-287.589	86.702	-0.261	-0.284
-286.574	-200.000	-0.016	0.424
-285.559	154.428	-0.162	-0.220
-284.545	-200.000	-0.006	-0.165
-283.530	800.000	-0.116	0.397
-282.516	-200.000	0.001	0.304
-281.501	25.941	-0.224	0.184
-280.486	2.441	-0.312	0.223
-279.472	11.502	0.107	0.081
-278.457	425.297	-0.022	-0.047
-277.443	-132.114	-0.209	-0.027
-276.428	800.000	0.031	0.118
-275.413	88.680	-0.168	0.185
-274.399	525.522	0.043	0.100
-273.384	-200.000	0.011	0.224
-272.370	26.918	-0.066	0.055
-271.355	328.557	0.043	-0.082
-270.340	573.413	-0.027	-0.066
-269.326	-200.000	0.008	-0.064
-268.311	429.355	-0.115	-0.245
-267.297	-170.225	0.248	-0.009
-266.282	-76.531	-0.204	-0.071
-265.267	-8.890	-0.218	0.144
-264.253	-168.701	0.308	0.012
-263.238	-79.257	0.219	-0.073
-262.224	38.360	-0.161	-0.141
-261.209	-9.112	0.334	0.220
-260.195	714.206	0.049	-0.128
-259.180	800.000	0.093	-0.392
-258.165	491.179	0.138	0.311
-257.151	800.000	-0.002	0.006
-256.136	-200.000	-0.118	-0.000
-255.122	-200.000	0.011	-0.113
-254.107	779.758	0.096	-0.259
-253.092	-110.959	-0.202	-0.041
-252.078	25.634	0.120	0.098
-251.063	68.505	0.239	0.242
-250.049	-97.732	0.097	-0.025
-249.034	-90.371	-0.151	0.043
-248.019	88.767	0.194	-0.213
-247.005	-128.351	0.212	-0.030
-245.990	-94.675	-0.071	0.019
-244.976	-95.587	-0.106	0.028
-243.961	-185.971	0.150	0.002
-242.946	765.348	-0.127	0.340
-241.932	37.387	-0.065	0.057
-240.917	-200.000	-0.036	-0.234
-239.903	-200.000	-0.016	-0.292
-238.888	-138.038	-0.329	-0.036
-237.873	253.712	-0.215	-0.362
-236.859	-110.848	0.125	-0.025
-235.844	452.345	-0.116	-0.253
-234.830	34.537	-0.006	0.005
-233.815	161.256	0.089	0.123
-232.800	379.350	0.065	-0.132
-231.786	-103.132	-0.368	-0.086
-230.771	-158.029	-0.026	-0.002
-229.757	-137.876	0.031	0.003
-228.742	-200.000	-0.020	-0.111
-227.727	124.900	0.178	0.221
-226.713	-39.577	-0.108	-0.055
-225.698	-200.000	-0.002	0.247
-224.684	265.972	0.097	0.167
-223.669	-200.000	-0.034	-0.259
-222.655	-200.000	-0.030	0.307
-221.640	-91.174	0.567	-0.160
-220.625	353.058	-0.148	0.288
-219.611	235.679	0.146	0.238
-218.596	232.292	0.267	0.432
-217.582	600.585	0.026	0.064
-216.567	458.238	0.085	-0.186
-215.552	375.304	-0.086	0.172
-214.538	59.195	-0.155	-0.150
-213.523	-200.000	0.009	-0.235
-212.509	800.000	0.033	0.141
-211.494	214.701	0.108	0.168
-210.479	340.533	0.092	-0.177
-209.465	-116.574	-0.065	-0.012
-208.450	800.000	0.090	0.285
-207.436	-200.000	0.028	0.222
-206.421	-200.000	-0.046	0.230
-205.406	80.405	0.049	0.052
-204.392	158.181	0.222	-0.302
-203.377	-41.444	-0.316	-0.160
-202.363	-70.148	-0.157	-0.059
-201.348	7.007	-0.074	-0.054
-200.333	-131.554	-0.270	0.035
-199.319	190.469	0.103	0.152
-198.304	36.580	0.092	-0.080
-197.290	-30.083	0.188	0.105
-196.275	800.000	0.030	-0.086
-195.260	196.464	0.245	-0.366
-194.246	599.880	0.076	0.186
-193.231	130.251	-0.093	0.117
-192.217	-32.065	0.198	0.109
-191.202	-34.338	0.333	-0.179
-190.187	-157.602	-0.332	0.020
-189.173	291.657	-0.070	-0.125
-188.158	-200.000	-0.002	-0.018
-187.144	-7.258	0.094	0.063
-186.129	34.923	-0.212	-0.182
-185.114	-58.328	0.056	-0.024
-184.100	308.817	-0.194	0.356
-183.085	-123.858	0.219	0.034
-182.071	-149.851	-0.258	0.020
-181.056	-38.319	-0.163	0.085
-180.042	-200.000	0.003	0.134
-179.027	158.504	-0.146	0.199
-178.012	-90.612	0.339	-0.096
-176.998	281.813	-0.152	0.267
-175.983	195.374	-0.035	-0.052
-174.969	800.000	0.048	-0.181
-173.954	84.053	-0.192	-0.205
-172.939	-54.549	0.219	-0.097
-171.925	800.000	-0.096	-0.286
-170.910	800.000	-0.069	0.236
-169.896	62.293	0.200	0.196
-168.881	323.995	0.133	-0.249
-167.866	-106.855	-0.227	0.049
-166.852	-43.184	-0.086	-0.043
-165.837	308.183	0.038	-0.069
-164.823	800.000	0.128	0.369
-163.808	64.562	-0.201	-0.199
-162.793	-200.000	0.010	0.132
-161.779	-101.580	0.398	-0.095
-160.764	-125.605	0.100	0.015
-159.750	9.522	0.164	0.122
-158.735	313.652	0.055	-0.101
-157.720	82.339	0.451	0.480
-156.706	800.000	-0.052	-0.155
-155.691	-200.000	-0.064	-0.351
-154.677	-121.908	0.487	-0.079
-153.662	-200.000	-0.037	0.174
-152.647	345.009	0.169	0.325
-151.633	-158.978	-0.437	-0.024
-150.618	349.583	0.086	-0.166
-149.604	-166.632	0.272	0.011
-148.589	-200.000	-0.040	-0.186
-147.574	800.000	0.070	-0.282
-146.560	-126.475	-0.268	-0.039
-145.545	40.936	0.253	0.224
-144.531	-101.623	0.194	-0.046
-143.516	-141.735	-0.118	0.012
-142.502	-130.612	0.339	0.045
-141.487	-90.336	0.170	0.048
-140.472	-97.813	-0.294	-0.075
-139.458	-200.000	0.010	0.130
-138.443	800.000	-0.073	-0.222
-137.429	411.466	0.199	0.415
-136.414	-30.187	0.147	-0.082
-135.399	48.087	0.149	0.137
-134.385	-74.073	-0.358	-0.127
-133.370	-200.000	0.025	-0.151
-132.356	146.834	0.102	0.134
-131.341	-6.305	-0.386	0.258
-130.326	31.257	0.142	-0.120
-129.312	800.000	0.054	0.193
-128.297	51.984	-0.124	-0.116
-127.283	-200.000	0.011	0.087
-126.268	-66.171	0.315	-0.123
-125.253	-95.248	0.115	-0.030
-124.239	-118.354	-0.310	-0.054
-123.224	645.063	0.218	-0.546
-122.210	-153.433	0.134	-0.009
-121.195	-96.650	0.147	0.038
-120.180	643.110	0.104	0.260
