DTS Sentinel unit serial number:	SN413079Multiplexer serial number:	ORYXHardware model number:	OX4-SRSoftware version number:	ORYX F/W v4.00 Oryx Data Collector v3.7.2.0data status	okinstallation	princeton_trtdifferential loss correction	single-endedforward channel	channel 4reverse channel	N/Adate	2019/09/12time	13:31:11forward acquisition time	60.00reverse acquisition time	0.00gamma	496.2192k internal	0.2286k external	0.2286temperature offset calibration	1.0084default loss term (dB/km)	0.3790temperature slope calibration	1.0000multiplexer offset coefficient	1.0000multiplexer slope coefficient	1.0000fibre end	0.00T internal ref (°C)	41.08T ext. ref 1 (°C)	2.16T ext. ref 2 (°C)	36.28length (m)	temperature (°C)	Stokes	anti-Stokes-747.200	38.571	-0.450	0.412
-746.185	800.000	-0.120	0.395
-745.171	-200.000	0.016	-0.364
-744.156	571.386	0.179	0.447
-743.142	11.389	0.239	0.187
-742.127	800.000	-0.156	0.503
-741.112	-175.527	0.187	0.005
-740.098	800.000	0.023	-0.072
-739.083	-31.820	-0.284	0.163
-738.069	-14.025	0.033	-0.022
-737.054	90.642	-0.102	0.117
-736.039	642.852	-0.092	0.241
-735.025	-5.737	0.083	0.058
-734.010	64.650	-0.386	-0.399
-732.996	-120.160	-0.190	-0.033
-731.981	-183.305	-0.071	0.001
-730.966	-21.868	0.050	-0.031
-729.952	36.533	-0.207	-0.188
-728.937	322.970	-0.100	0.196
-727.923	-71.850	-0.161	0.061
-726.908	-61.166	-0.171	-0.074
-725.894	-78.147	-0.243	0.086
-724.879	-200.000	-0.070	0.327
-723.864	-25.587	-0.247	-0.149
-722.850	-200.000	0.045	-0.308
-721.835	14.822	-0.082	-0.066
-720.821	21.024	0.058	0.048
-719.806	-124.713	-0.188	-0.030
-718.791	748.944	0.071	-0.195
-717.777	687.357	0.074	-0.198
-716.762	31.468	0.084	-0.074
-715.748	-124.728	-0.265	0.042
-714.733	-54.350	0.124	-0.057
-713.718	800.000	-0.045	0.134
-712.704	728.623	-0.095	-0.260
-711.689	-200.000	-0.093	-0.455
-710.675	-200.000	-0.055	0.384
-709.660	53.299	-0.210	-0.207
-708.645	-157.299	0.043	0.003
-707.631	-2.053	-0.030	-0.022
-706.616	180.444	0.120	-0.180
-705.602	22.749	0.165	-0.138
-704.587	152.957	0.096	-0.135
-703.572	-88.324	-0.081	0.025
-702.558	-200.000	0.012	-0.291
-701.543	-200.000	-0.086	-0.496
-700.529	494.180	-0.078	0.184
-699.514	21.638	-0.230	-0.192
-698.499	-200.000	0.039	-0.229
-697.485	800.000	-0.036	0.103
-696.470	29.160	0.057	-0.050
-695.456	69.689	-0.192	0.203
-694.441	800.000	-0.063	0.266
-693.426	-200.000	0.018	-0.105
-692.412	-144.816	-0.096	-0.009
-691.397	310.442	-0.169	-0.325
-690.383	51.758	0.139	-0.135
-689.368	-200.000	-0.013	0.163
-688.354	-200.000	0.017	-0.238
-687.339	-200.000	-0.030	-0.144
-686.324	316.050	0.119	-0.230
-685.310	-81.096	-0.226	-0.077
-684.295	532.939	0.145	-0.352
-683.281	73.330	-0.053	-0.057
-682.266	131.203	-0.136	0.179
-681.251	800.000	0.096	-0.315
-680.237	234.613	-0.124	-0.209
-679.222	-188.058	-0.278	0.004
-678.208	800.000	-0.067	0.229
-677.193	-200.000	-0.020	0.186
-676.178	-102.416	0.011	0.003
-675.164	43.433	-0.208	-0.194
-674.149	209.117	0.108	-0.172
-673.135	652.352	0.084	-0.220
-672.120	-55.635	-0.332	-0.152
-671.105	-109.576	0.229	-0.049
-670.091	-200.000	0.007	-0.178
-669.076	-65.503	0.156	0.064
-668.062	-128.990	-0.111	-0.016
-667.047	-74.945	-0.141	-0.052
-666.032	325.448	-0.171	-0.334
-665.018	-95.965	-0.274	-0.075
-664.003	154.569	-0.044	0.062
-662.989	154.346	-0.222	-0.312
-661.974	200.926	-0.175	0.276
-660.959	-200.000	0.036	-0.309
-659.945	-200.000	-0.017	-0.281
-658.930	121.006	0.272	-0.346
-657.916	-97.066	-0.261	0.070
-656.901	-136.184	0.094	-0.011
-655.886	-91.546	0.157	-0.046
-654.872	-131.864	-0.118	-0.016
-653.857	-16.404	0.138	0.090
-652.843	-54.016	0.135	0.063
-651.828	-200.000	0.004	-0.244
-650.814	-49.535	0.144	-0.070
-649.799	237.432	0.118	-0.200
-648.784	-200.000	-0.005	-0.179
-647.770	-159.131	0.267	-0.015
-646.755	-134.342	0.301	-0.038
-645.741	263.998	0.029	0.052
-644.726	12.370	-0.204	0.161
-643.711	-200.000	-0.002	-0.045
-642.697	-148.747	0.140	-0.012
-641.682	-200.000	0.021	-0.241
-640.668	-84.327	0.244	-0.079
-639.653	-84.717	-0.188	0.061
-638.638	-82.747	0.121	-0.040
-637.624	-44.605	-0.496	-0.253
-636.609	-200.000	-0.029	0.287
-635.595	-57.989	-0.160	0.072
-634.580	-142.009	-0.193	0.020
-633.565	-69.047	0.083	-0.033
-632.551	44.512	-0.098	0.092
-631.536	90.625	0.087	-0.100
-630.522	81.978	0.102	0.113
-629.507	-106.009	0.222	0.051
-628.492	61.090	-0.101	0.103
-627.478	-200.000	0.013	-0.178
-626.463	638.662	0.097	-0.251
-625.449	-200.000	0.008	0.069
-624.434	800.000	-0.034	-0.119
-623.419	-200.000	0.005	0.021
-622.405	-139.735	-0.250	0.027
-621.390	-200.000	0.014	-0.127
-620.376	78.260	0.146	0.159
-619.361	17.379	0.130	0.106
-618.346	89.790	0.165	0.188
-617.332	-144.983	0.229	-0.021
-616.317	-4.278	-0.252	-0.178
-615.303	-22.136	-0.072	-0.045
-614.288	-56.851	-0.120	-0.054
-613.273	-189.531	-0.136	-0.002
-612.259	-101.138	-0.159	0.040
-611.244	-200.000	0.003	-0.192
-610.230	-27.101	-0.211	0.125
-609.215	83.879	0.177	-0.197
-608.201	-106.326	0.324	-0.074
-607.186	-89.624	0.187	0.056
-606.171	-57.149	-0.154	0.069
-605.157	692.034	0.073	-0.196
-604.142	-200.000	0.044	-0.262
-603.128	58.926	-0.053	0.053
-602.113	800.000	-0.144	-0.491
-601.098	44.055	-0.101	-0.095
-600.084	219.260	0.089	-0.145
-599.069	70.377	-0.300	-0.316
-598.055	-50.739	-0.351	0.168
-597.040	800.000	-0.033	0.116
-596.025	-114.720	-0.112	0.022
-595.011	-200.000	-0.019	-0.091
-593.996	39.007	-0.058	-0.053
-592.982	220.320	0.145	-0.238
-591.967	29.902	0.123	0.107
-590.952	-160.347	-0.297	-0.016
-589.938	-166.608	-0.194	-0.008
-588.923	-115.126	0.125	-0.024
-587.909	800.000	0.030	0.087
-586.894	-124.895	-0.152	0.024
-585.879	4.066	0.053	0.039
-584.865	167.281	0.199	0.288
-583.850	-99.612	-0.083	0.021
-582.836	-200.000	0.034	-0.371
-581.821	800.000	0.051	-0.173
-580.806	-15.382	0.196	0.128
-579.792	-80.315	-0.086	0.029
-578.777	-35.283	-0.112	-0.062
-577.763	19.123	0.043	-0.035
-576.748	126.693	0.209	-0.270
-575.733	152.395	-0.059	0.083
-574.719	22.406	0.106	-0.088
-573.704	-2.474	0.168	-0.120
-572.690	-139.886	-0.285	0.031
-571.675	117.318	-0.142	-0.177
-570.661	-141.361	-0.093	-0.010
-569.646	-162.114	-0.062	-0.003
-568.631	-175.472	0.236	0.007
-567.617	397.305	-0.156	0.332
-566.602	800.000	0.018	0.051
-565.588	-4.362	-0.061	0.043
-564.573	-59.687	-0.229	-0.100
-563.558	-41.337	0.310	0.163
-562.544	104.636	-0.142	-0.171
-561.529	98.192	0.219	-0.257
-560.515	-200.000	-0.001	0.340
-559.500	458.150	0.119	0.270
-558.485	21.555	0.287	0.238
-557.471	-133.712	0.169	-0.021
-556.456	220.883	-0.068	-0.112
-555.442	-86.907	-0.308	0.096
-554.427	-93.862	0.395	-0.111
-553.412	-200.000	-0.048	-0.383
-552.398	-147.200	0.317	0.027
-551.383	82.531	-0.182	-0.201
-550.369	21.706	-0.147	-0.122
-549.354	-173.224	0.088	-0.003
-548.339	-200.000	0.007	0.072
-547.325	76.034	0.191	0.206
-546.310	-114.280	-0.462	0.091
-545.296	-121.705	0.073	-0.012
-544.281	61.344	-0.198	-0.200
-543.266	-104.899	0.273	-0.064
-542.252	-38.999	-0.350	-0.187
-541.237	-119.421	-0.241	0.043
-540.223	-101.646	-0.133	-0.033
-539.208	15.513	-0.254	-0.203
-538.193	323.392	-0.058	-0.113
-537.179	-60.338	0.178	-0.077
-536.164	78.190	0.187	-0.203
-535.150	-200.000	0.025	0.180
-534.135	39.120	-0.064	0.058
-533.121	575.798	0.066	0.164
-532.106	232.375	0.098	0.164
-531.091	-37.535	-0.122	0.066
-530.077	-137.233	0.143	-0.017
-529.062	734.978	0.073	-0.200
-528.048	8.152	-0.335	0.256
-527.033	96.369	0.060	0.070
-526.018	-39.005	-0.280	-0.150
-525.004	800.000	-0.055	0.211
-523.989	110.031	0.261	0.318
-522.975	401.878	-0.095	0.203
-521.960	242.450	0.159	-0.271
-520.945	-46.521	0.171	-0.086
-519.931	131.405	0.120	-0.157
-518.916	13.910	-0.171	-0.135
-517.902	-134.518	-0.137	-0.017
-516.887	-27.692	0.188	-0.111
-515.872	-160.984	-0.341	-0.018
-514.858	-91.195	0.136	-0.040
-513.843	117.137	0.049	0.062
-512.829	34.818	0.232	-0.206
-511.814	-83.482	0.093	0.030
-510.799	-200.000	-0.007	-0.056
-509.785	-85.506	-0.460	-0.145
-508.770	-200.000	-0.003	0.086
-507.756	-138.885	0.142	-0.016
-506.741	-200.000	-0.027	0.279
-505.726	-78.136	0.231	0.081
-504.712	800.000	-0.052	0.168
-503.697	-24.281	0.260	0.158
-502.683	-50.777	-0.142	0.068
-501.668	-67.506	0.107	0.043
-500.653	310.169	0.056	-0.106
-499.639	-3.974	-0.214	0.151
-498.624	3.371	0.239	-0.177
-497.610	-51.317	-0.319	-0.152
-496.595	-200.000	-0.041	-0.294
-495.581	172.348	0.132	0.192
-494.566	-200.000	-0.004	0.494
-493.551	187.839	-0.306	0.464
-492.537	526.699	0.037	-0.090
-491.522	-200.000	0.059	0.322
-490.508	75.717	-0.047	-0.051
-489.493	-200.000	0.014	-0.159
-488.478	-200.000	0.010	-0.135
-487.464	223.000	0.058	0.096
-486.449	-200.000	0.032	-0.206
-485.435	-66.700	0.149	0.060
-484.420	712.989	0.079	0.212
-483.405	-46.737	-0.448	0.223
-482.391	-6.037	-0.231	-0.160
-481.376	203.807	0.088	0.139
-480.362	130.719	-0.253	0.329
-479.347	-153.854	-0.505	0.035
-478.332	324.210	0.215	0.416
-477.318	112.796	-0.138	-0.170
-476.303	-200.000	-0.014	0.182
-475.289	234.433	-0.125	-0.209
-474.274	152.328	-0.086	0.119
-473.259	-85.573	0.044	-0.014
-472.245	35.484	-0.050	-0.044
-471.230	33.399	0.367	0.323
-470.216	-200.000	0.002	-0.014
-469.201	484.400	-0.145	0.334
-468.186	-56.514	0.094	0.042
-467.172	-63.366	-0.245	0.102
-466.157	349.036	0.151	-0.302
-465.143	427.744	-0.117	-0.257
-464.128	616.320	-0.068	-0.174
-463.113	-116.557	-0.043	-0.008
-462.099	800.000	0.081	0.249
-461.084	589.174	0.034	-0.084
-460.070	265.571	-0.154	0.272
-459.055	800.000	-0.067	-0.244
-458.040	262.851	-0.092	-0.163
-457.026	-160.870	0.174	-0.009
-456.011	24.689	0.085	0.071
-454.997	-200.000	0.054	0.381
-453.982	-36.198	-0.029	-0.016
-452.968	800.000	0.149	0.429
-451.953	25.147	0.094	0.079
-450.938	30.536	-0.249	0.216
-449.924	-25.087	0.507	-0.305
-448.909	-135.138	-0.094	-0.011
-447.895	178.088	-0.061	0.090
-446.880	435.339	-0.066	0.147
-445.865	-56.623	-0.164	-0.074
-444.851	-53.480	-0.096	-0.045
-443.836	-200.000	-0.014	0.071
-442.822	714.088	0.119	0.320
-441.807	-37.222	-0.099	0.054
-440.792	800.000	0.050	-0.200
-439.778	38.087	0.120	0.109
-438.763	33.035	-0.140	-0.123
-437.749	384.180	0.120	0.251
-436.734	-116.257	0.177	-0.033
-435.719	-200.000	0.013	-0.137
-434.705	-136.393	-0.124	-0.015
-433.690	-30.263	0.070	-0.040
-432.676	800.000	0.068	-0.246
-431.661	-47.104	-0.117	0.058
-430.646	-5.643	0.348	0.242
-429.632	-200.000	-0.015	-0.136
-428.617	609.312	0.072	0.183
-427.603	97.240	0.028	-0.032
-426.588	800.000	-0.053	0.231
-425.573	-200.000	-0.319	-0.001
-424.559	-182.787	-0.169	-0.003
-423.544	800.000	0.071	-0.287
-422.530	332.122	0.090	0.177
-421.515	49.163	0.144	0.137
-420.500	267.719	0.086	-0.153
-419.486	515.786	0.173	0.409
-418.471	-200.000	0.042	0.266
-417.457	118.712	-0.084	0.105
-416.442	800.000	0.057	0.247
-415.428	-80.058	0.209	-0.071
-414.413	-19.798	-0.089	-0.056
-413.398	-104.145	0.443	-0.104
-412.384	-143.797	-0.149	-0.014
-411.369	-66.449	-0.283	0.114
-410.355	-134.421	-0.268	-0.033
-409.340	800.000	-0.100	-0.315
-408.325	-50.115	-0.328	-0.157
-407.311	-15.587	0.116	-0.075
-406.296	339.959	-0.130	0.256
-405.282	-141.279	0.068	-0.007
-404.267	-61.076	0.095	0.041
-403.252	800.000	0.071	0.208
-402.238	-200.000	-0.005	-0.296
-401.223	800.000	-0.040	-0.170
-400.209	141.390	0.076	-0.102
-399.194	-140.989	0.452	-0.047
-398.179	-0.498	-0.208	-0.149
-397.165	-200.000	0.032	-0.149
-396.150	800.000	-0.099	-0.316
-395.136	-152.675	0.114	0.008
-394.121	-169.948	-0.202	0.007
-393.106	800.000	0.077	-0.216
-392.092	691.987	-0.091	0.240
-391.077	-200.000	0.007	-0.073
-390.063	-121.686	0.266	0.045
-389.048	0.831	-0.024	-0.017
-388.033	54.083	-0.215	0.209
-387.019	-200.000	0.056	-0.399
-386.004	-72.400	-0.056	-0.021
-384.990	-142.205	-0.350	0.035
-383.975	-111.857	-0.459	0.094
-382.960	23.854	0.022	0.018
-381.946	-82.354	0.142	-0.047
-380.931	800.000	-0.044	-0.185
-379.917	-38.949	-0.254	-0.135
-378.902	-151.518	-0.326	0.024
-377.888	800.000	0.083	0.313
-376.873	-41.341	-0.196	-0.102
-375.858	215.635	-0.196	-0.314
-374.844	19.976	-0.085	0.070
-373.829	509.323	0.073	0.172
-372.815	-14.805	-0.231	-0.150
-371.800	-48.105	-0.108	0.053
-370.785	-200.000	-0.036	-0.296
-369.771	465.051	-0.104	0.235
-368.756	24.729	-0.333	0.279
-367.742	38.874	0.109	0.098
-366.727	109.737	0.143	-0.173
-365.712	-4.538	-0.066	-0.046
-364.698	800.000	0.069	0.287
-363.683	-3.420	0.185	0.130
-362.669	81.710	-0.061	0.067
-361.654	72.541	0.150	-0.158
-360.639	-146.293	0.069	-0.006
-359.625	-93.773	0.440	0.123
-358.610	168.277	-0.128	-0.184
-357.596	-200.000	-0.019	-0.153
-356.581	-60.054	-0.195	0.084
-355.566	800.000	-0.017	0.066
-354.552	201.247	-0.108	-0.168
-353.537	254.489	0.167	-0.288
-352.523	-96.747	0.232	0.062
-351.508	-116.841	0.185	-0.034
-350.493	50.294	-0.188	-0.180
-349.479	78.271	0.181	-0.195
-348.464	-82.297	0.100	0.033
-347.450	37.051	0.199	-0.178
-346.435	-200.000	-0.042	-0.252
-345.420	-39.070	0.115	-0.061
-344.406	-200.000	-0.009	0.074
-343.391	216.735	-0.144	-0.232
-342.377	196.002	-0.030	-0.046
-341.362	-84.720	0.095	0.030
-340.348	800.000	0.042	0.185
-339.333	-115.713	-0.555	0.105
-338.318	687.746	0.113	-0.298
-337.304	-45.684	0.185	-0.092
-336.289	-90.461	-0.190	-0.056
-335.275	129.389	0.034	-0.043
-334.260	267.057	0.285	0.504
-333.245	-133.167	-0.137	0.018
-332.231	628.921	0.028	-0.071
-331.216	102.559	0.204	0.241
-330.202	120.104	0.108	-0.135
-329.187	373.371	0.162	0.332
-328.172	-73.405	-0.145	0.053
-327.158	-200.000	-0.037	-0.380
-326.143	27.247	0.138	-0.117
-325.129	-200.000	0.006	-0.225
-324.114	-200.000	0.001	-0.195
-323.099	484.254	0.146	-0.336
-322.085	275.558	-0.041	-0.074
-321.070	-154.431	-0.116	-0.008
-320.056	283.894	0.057	-0.103
-319.041	531.631	-0.102	-0.243
-318.026	800.000	0.028	0.107
-317.012	-56.914	-0.051	0.023
-315.997	543.483	0.109	-0.263
-314.983	-200.000	-0.041	0.338
-313.968	-95.529	0.064	0.017
-312.953	328.121	0.106	0.204
-311.939	-4.738	-0.057	0.040
-310.924	-59.764	-0.196	-0.085
-309.910	277.629	0.152	0.273
-308.895	390.560	0.067	0.141
-307.880	800.000	0.135	-0.420
-306.866	-56.847	-0.135	0.060
-305.851	-145.798	-0.187	-0.017
-304.837	-149.815	0.212	-0.017
-303.822	14.342	0.113	0.089
-302.807	-107.086	-0.494	0.110
-301.793	377.015	-0.106	0.218
-300.778	-185.879	0.140	0.002
-299.764	-200.000	0.071	0.361
-298.749	112.868	-0.137	0.167
-297.735	206.420	-0.195	0.306
-296.720	122.864	0.103	-0.130
-295.705	800.000	-0.070	0.274
-294.691	-200.000	0.022	-0.198
-293.676	68.986	0.185	0.191
-292.662	-200.000	-0.046	0.206
-291.647	327.044	-0.082	0.158
-290.632	800.000	-0.016	-0.049
-289.618	101.670	-0.085	-0.100
-288.603	280.933	-0.047	-0.085
-287.589	426.471	0.226	-0.491
-286.574	-61.961	0.044	0.019
-285.559	462.064	-0.134	-0.301
-284.545	-118.335	0.295	0.053
-283.530	-28.353	0.146	0.085
-282.516	-39.956	0.194	-0.102
-281.501	9.598	-0.049	0.037
-280.486	-40.798	0.103	0.054
-279.472	383.279	-0.159	-0.330
-278.457	404.694	-0.009	0.019
-277.443	140.109	-0.092	-0.122
-276.428	-11.637	-0.098	0.065
-275.413	-35.690	0.057	-0.031
-274.399	-200.000	0.029	-0.163
-273.384	150.388	0.124	-0.169
-272.370	800.000	0.102	0.421
-271.355	299.009	0.156	0.290
-270.340	42.562	-0.041	-0.038
-269.326	-116.229	0.135	-0.025
-268.311	-70.150	-0.203	-0.078
-267.297	169.405	-0.195	0.280
-266.282	233.009	0.057	-0.094
-265.267	-130.762	-0.143	-0.019
-264.253	-136.315	-0.020	-0.002
-263.238	-5.390	-0.140	-0.097
-262.224	319.815	-0.081	0.155
-261.209	-106.903	0.218	-0.049
-260.195	-89.575	0.032	0.010
-259.180	91.165	0.164	0.185
-258.165	-158.026	0.096	0.006
-257.151	61.888	0.114	-0.114
-256.136	-92.103	0.392	0.112
-255.122	-200.000	-0.063	0.430
-254.107	-121.502	0.125	-0.021
-253.092	50.107	-0.201	0.191
-252.078	800.000	0.084	-0.288
-251.063	118.972	0.156	0.194
-250.049	-66.072	-0.132	0.053
-249.034	-120.809	-0.124	-0.021
-248.019	-60.763	0.113	0.048
-247.005	78.422	-0.120	-0.129
-245.990	-125.451	-0.123	-0.019
-244.976	336.791	0.025	-0.049
-243.961	-51.999	0.134	-0.062
-242.946	-200.000	-0.002	0.070
-241.932	800.000	-0.065	0.219
-240.917	-89.555	0.114	0.034
-239.903	-49.748	0.295	0.141
-238.888	800.000	0.088	0.329
-237.873	672.297	-0.070	0.182
-236.859	-173.524	0.345	-0.010
-235.844	109.464	0.261	-0.315
-234.830	-122.243	0.166	-0.027
-233.815	-79.324	0.192	0.065
-232.800	800.000	0.029	-0.098
-231.786	-121.114	-0.082	-0.014
-230.771	71.842	-0.099	-0.103
-229.757	117.591	-0.072	-0.090
-228.742	462.253	0.080	0.180
-227.727	-200.000	-0.008	0.236
-226.713	615.694	0.102	0.258
-225.698	45.835	-0.196	0.183
-224.684	27.365	-0.118	0.100
-223.669	800.000	-0.044	0.146
-222.655	15.186	0.082	0.065
-221.640	-200.000	0.019	-0.169
-220.625	56.579	0.023	0.023
-219.611	-16.050	0.147	-0.094
-218.596	-148.812	-0.132	0.011
-217.582	33.103	0.237	-0.206
-216.567	25.756	0.072	0.060
-215.552	117.669	-0.145	0.179
-214.538	41.011	-0.259	-0.235
-213.523	-106.111	0.142	-0.032
-212.509	800.000	0.064	0.260
-211.494	71.086	-0.015	0.016
-210.479	221.345	0.102	-0.164
-209.465	-53.059	0.226	0.104
-208.450	-101.590	0.104	0.025
-207.436	-54.133	0.221	-0.101
-206.421	180.845	0.094	0.139
-205.406	-101.753	0.081	0.020
-204.392	182.265	0.067	-0.098
-203.377	-43.099	0.135	-0.069
-202.363	-200.000	0.011	-0.140
-201.348	-200.000	0.015	0.196
-200.333	219.337	0.196	0.315
-199.319	78.406	0.323	-0.347
-198.304	374.578	0.044	0.090
-197.290	-185.472	-0.127	0.002
-196.275	-21.187	0.055	0.034
-195.260	24.466	0.065	-0.054
-194.246	-200.000	0.019	-0.274
-193.231	-200.000	-0.031	0.262
-192.217	113.988	0.143	0.174
-191.202	58.873	-0.113	0.111
-190.187	-163.209	-0.282	0.014
-189.173	800.000	0.088	-0.329
-188.158	-200.000	0.003	-0.342
-187.144	-150.875	0.478	-0.036
-186.129	441.336	0.046	-0.102
-185.114	70.337	0.043	-0.045
-184.100	-178.083	-0.235	0.006
-183.085	-200.000	-0.003	0.160
-182.071	-200.000	0.016	0.143
-181.056	310.164	-0.040	-0.076
-180.042	-44.173	-0.307	-0.154
-179.027	-200.000	0.032	0.242
-178.012	6.822	0.050	0.037
-176.998	133.978	0.176	0.229
-175.983	-20.570	-0.422	0.260
-174.969	-81.939	0.245	0.080
-173.954	-200.000	-0.053	-0.257
-172.939	5.294	-0.240	-0.177
-171.925	-122.097	-0.111	0.018
-170.910	477.893	0.083	-0.188
-169.896	800.000	0.009	-0.037
-168.881	-112.506	-0.104	0.021
-167.866	161.983	-0.036	0.050
-166.852	-78.371	-0.271	-0.093
-165.837	138.872	0.079	0.104
-164.823	-13.003	-0.162	-0.106
-163.808	-70.143	-0.238	-0.091
-162.793	499.355	-0.042	0.097
-161.779	-200.000	0.006	-0.344
-160.764	-106.950	-0.270	0.060
-159.750	-119.954	0.032	-0.006
-158.735	224.912	0.081	-0.132
-157.720	-81.344	-0.183	0.061
-156.706	-200.000	0.011	-0.173
-155.691	272.873	-0.016	0.028
-154.677	137.113	-0.082	-0.107
-153.662	-100.772	-0.164	0.040
-152.647	-133.488	0.199	-0.025
-151.633	-31.949	0.108	0.061
-150.618	264.558	-0.161	0.282
-149.604	277.029	0.041	-0.074
-148.589	-63.657	-0.203	-0.084
-147.574	-106.460	-0.301	-0.067
-146.560	-138.167	-0.284	-0.032
-145.545	-173.702	-0.152	0.005
-144.531	800.000	0.072	0.279
-143.516	-8.886	-0.232	-0.156
-142.502	-15.231	0.085	-0.054
-141.487	-144.517	0.209	-0.019
-140.472	7.710	-0.084	0.063
-139.458	66.437	0.140	-0.142
-138.443	-117.854	0.194	-0.035
-137.429	71.815	0.023	0.024
-136.414	-57.172	0.174	-0.077
-135.399	126.973	-0.111	0.141
-134.385	-192.421	0.203	-0.002
-133.370	-1.478	0.248	-0.175
-132.356	35.007	0.173	-0.152
-131.341	-84.237	0.088	0.028
-130.326	512.304	0.034	-0.079
-129.312	-200.000	-0.014	-0.214
-128.297	-170.111	-0.184	0.007
-127.283	40.417	0.064	-0.058
-126.268	-147.087	-0.208	-0.018
-125.253	104.719	0.184	0.217
-124.239	-89.835	0.056	-0.016
-123.224	-97.858	-0.244	0.063
-122.210	60.874	-0.128	0.127
