DTS Sentinel unit serial number:	SN413079Multiplexer serial number:	ORYXHardware model number:	OX4-SRSoftware version number:	ORYX F/W v4.00 Oryx Data Collector v3.7.2.0data status	okinstallation	princeton_trtdifferential loss correction	single-endedforward channel	channel 4reverse channel	N/Adate	2019/09/16time	02:21:35forward acquisition time	60.00reverse acquisition time	0.00gamma	496.2192k internal	0.2320k external	0.2320temperature offset calibration	0.9972default loss term (dB/km)	0.3790temperature slope calibration	1.0000multiplexer offset coefficient	1.0000multiplexer slope coefficient	1.0000fibre end	0.00T internal ref (°C)	27.59T ext. ref 1 (°C)	10.22T ext. ref 2 (°C)	22.61length (m)	temperature (°C)	Stokes	anti-Stokes-747.200	-31.335	-0.442	0.252
-746.185	144.599	0.278	0.376
-745.171	-200.000	0.058	-0.295
-744.156	80.908	-0.359	0.391
-743.142	-200.000	0.013	0.148
-742.127	250.586	-0.153	0.264
-741.112	177.364	0.100	0.147
-740.098	128.048	-0.390	0.501
-739.083	-123.774	-0.124	0.020
-738.069	148.857	-0.195	0.266
-737.054	132.824	-0.064	-0.083
-736.039	-95.305	-0.199	-0.054
-735.025	-169.120	0.287	0.011
-734.010	222.774	-0.068	-0.111
-732.996	696.759	-0.070	-0.187
-731.981	-75.722	0.292	-0.105
-730.966	8.046	0.232	-0.176
-729.952	223.060	-0.024	0.039
-728.937	115.120	0.119	-0.146
-727.923	-33.410	0.038	-0.021
-726.908	800.000	0.060	-0.206
-725.894	800.000	0.052	0.205
-724.879	-28.748	-0.352	0.205
-723.864	95.806	-0.184	-0.213
-722.850	-155.798	0.199	0.013
-721.835	45.611	-0.145	-0.135
-720.821	-63.256	0.099	-0.041
-719.806	18.468	-0.178	-0.143
-718.791	439.500	-0.089	0.197
-717.777	156.915	-0.171	0.239
-716.762	18.849	0.111	-0.090
-715.748	307.119	-0.091	0.171
-714.733	-87.005	0.173	-0.053
-713.718	-106.573	-0.267	-0.060
-712.704	-200.000	0.008	-0.321
-711.689	-142.585	-0.205	-0.020
-710.675	-161.144	-0.192	-0.010
-709.660	-89.372	-0.193	-0.058
-708.645	-9.511	0.146	-0.098
-707.631	-37.271	0.241	0.130
-706.616	-60.493	0.260	-0.112
-705.602	-9.357	0.160	0.108
-704.587	92.320	0.134	-0.153
-703.572	-79.751	-0.117	0.040
-702.558	-21.803	0.196	0.120
-701.543	432.087	0.105	0.230
-700.529	335.111	0.191	0.374
-699.514	-62.135	0.119	-0.050
-698.499	49.933	0.351	-0.334
-697.485	-200.000	0.028	-0.243
-696.470	-200.000	-0.008	0.225
-695.456	78.776	-0.100	0.108
-694.441	12.123	-0.095	-0.074
-693.426	-132.335	0.232	0.030
-692.412	79.134	-0.141	0.152
-691.397	-200.000	0.043	0.360
-690.383	-97.277	-0.222	-0.058
-689.368	21.237	0.097	0.079
-688.354	-57.911	0.070	-0.031
-687.339	266.793	0.122	0.215
-686.324	-200.000	0.037	-0.371
-685.310	102.074	-0.241	0.284
-684.295	151.466	-0.342	0.469
-683.281	-65.523	0.242	-0.098
-682.266	-40.779	-0.245	-0.128
-681.251	-87.927	-0.211	-0.064
-680.237	-55.675	0.340	-0.153
-679.222	-200.000	0.001	0.087
-678.208	-99.095	0.103	-0.026
-677.193	149.897	0.077	-0.106
-676.178	-200.000	0.006	-0.270
-675.164	-82.006	-0.207	0.068
-674.149	72.454	-0.248	-0.261
-673.135	0.575	-0.332	-0.239
-672.120	29.945	0.091	0.078
-671.105	584.192	0.031	0.077
-670.091	-75.843	-0.052	-0.019
-669.076	-200.000	0.068	0.331
-668.062	-200.000	0.012	-0.065
-667.047	673.030	0.107	-0.280
-666.032	-45.185	-0.240	-0.120
-665.018	-43.279	0.261	0.133
-664.003	-200.000	-0.014	-0.189
-662.989	425.050	-0.025	0.054
-661.974	-95.741	0.055	0.015
-660.959	800.000	-0.025	-0.105
-659.945	-200.000	0.103	-0.569
-658.930	-172.817	0.033	-0.001
-657.916	-4.721	-0.273	0.190
-656.901	-200.000	-0.036	-0.223
-655.886	-22.214	0.230	0.140
-654.872	-80.901	-0.229	0.076
-653.857	74.349	-0.252	-0.267
-652.843	-26.207	-0.106	-0.063
-651.828	-118.325	-0.320	-0.057
-650.814	392.339	-0.162	0.338
-649.799	-84.476	-0.229	0.073
-648.784	-200.000	0.000	-0.043
-647.770	-111.779	-0.159	-0.033
-646.755	397.763	0.104	0.218
-645.741	-112.585	0.090	-0.018
-644.726	-24.168	-0.215	0.130
-643.711	-200.000	-0.012	-0.421
-642.697	800.000	0.074	-0.304
-641.682	-132.685	-0.038	0.005
-640.668	35.561	0.158	-0.140
-639.653	-99.361	-0.369	-0.094
-638.638	110.553	-0.144	-0.174
-637.624	800.000	-0.111	0.361
-636.609	377.059	0.085	0.175
-635.595	-200.000	0.045	-0.373
-634.580	246.251	0.172	0.292
-633.565	-64.138	0.159	0.065
-632.551	317.465	0.053	-0.101
-631.536	-155.967	0.175	-0.011
-630.522	191.996	0.012	-0.017
-629.507	-44.117	-0.306	0.155
-628.492	-12.631	-0.357	0.234
-627.478	8.668	-0.096	-0.073
-626.463	761.816	0.116	-0.317
-625.449	800.000	0.041	0.149
-624.434	573.567	-0.149	-0.367
-623.419	800.000	-0.113	0.338
-622.405	-200.000	0.053	-0.267
-621.390	-53.146	0.189	0.088
-620.376	-103.682	-0.229	0.054
-619.361	-54.430	0.143	0.065
-618.346	25.915	-0.147	0.124
-617.332	800.000	-0.093	-0.292
-616.317	443.141	0.197	-0.433
-615.303	800.000	0.075	-0.304
-614.288	-144.565	0.225	0.021
-613.273	-171.005	-0.198	0.007
-612.259	-200.000	-0.015	0.107
-611.244	16.421	0.171	-0.136
-610.230	-1.027	0.115	0.082
-609.215	-7.138	-0.172	-0.117
-608.201	362.440	0.052	-0.105
-607.186	-200.000	-0.003	0.162
-606.171	1.045	-0.436	0.314
-605.157	37.398	-0.056	0.050
-604.142	-200.000	-0.038	0.383
-603.128	39.153	0.333	-0.299
-602.113	-15.716	-0.105	0.067
-601.098	151.781	0.255	-0.349
-600.084	-109.914	-0.096	-0.020
-599.069	507.995	-0.091	-0.211
-598.055	8.764	0.133	0.101
-597.040	-200.000	0.014	0.413
-596.025	47.823	0.214	-0.201
-595.011	113.191	-0.184	-0.225
-593.996	-114.102	0.191	-0.037
-592.982	668.077	0.089	0.231
-591.967	-138.968	0.280	-0.031
-590.952	800.000	0.079	-0.253
-589.938	67.163	0.037	0.038
-588.923	594.299	-0.115	0.285
-587.909	-31.371	-0.160	0.091
-586.894	95.961	0.153	0.175
-585.879	-200.000	0.008	0.308
-584.865	-21.679	0.069	0.042
-583.850	800.000	-0.143	-0.433
-582.836	-91.991	-0.371	-0.106
-581.821	-200.000	0.014	-0.076
-580.806	-59.761	0.193	-0.083
-579.792	800.000	-0.120	-0.362
-578.777	51.973	-0.077	-0.073
-577.763	130.315	0.031	-0.039
-576.748	-170.276	0.194	-0.007
-575.733	732.274	-0.110	-0.296
-574.719	566.535	-0.111	-0.270
-573.704	398.065	-0.021	-0.045
-572.690	31.566	0.229	0.197
-571.675	-107.395	-0.156	0.034
-570.661	157.984	0.104	-0.144
-569.646	-200.000	-0.009	0.211
-568.631	-200.000	-0.004	-0.034
-567.617	-140.405	0.345	-0.036
-566.602	290.355	0.127	0.231
-565.588	-3.984	-0.242	-0.169
-564.573	104.505	0.235	0.278
-563.558	-77.150	0.436	0.152
-562.544	17.139	-0.234	0.186
-561.529	22.976	-0.199	-0.164
-560.515	115.836	0.157	-0.192
-559.500	-36.932	0.132	-0.071
-558.485	800.000	-0.036	0.114
-557.471	800.000	0.058	0.235
-556.456	-120.121	-0.068	-0.012
-555.442	740.156	-0.041	0.110
-554.427	66.689	-0.176	0.180
-553.412	38.427	0.164	-0.146
-552.398	-75.673	0.120	0.043
-551.383	420.883	0.114	0.246
-550.369	95.531	0.150	0.172
-549.354	-200.000	-0.008	-0.278
-548.339	-117.178	-0.269	-0.049
-547.325	-75.483	0.108	0.039
-546.310	-200.000	0.058	0.518
-545.296	-200.000	-0.035	-0.300
-544.281	-56.718	-0.254	0.113
-543.266	-200.000	0.014	-0.137
-542.252	223.058	-0.168	-0.272
-541.237	-25.962	-0.095	0.056
-540.223	192.246	-0.109	-0.165
-539.208	-86.257	-0.287	-0.089
-538.193	89.567	-0.017	0.020
-537.179	-66.415	-0.354	0.141
-536.164	-83.960	-0.274	0.087
-535.150	-77.907	-0.257	-0.089
-534.135	-200.000	0.011	-0.475
-533.121	138.085	0.098	0.128
-532.106	-200.000	0.007	-0.062
-531.091	-141.357	0.025	0.003
-530.077	-120.990	-0.426	0.072
-529.062	-79.207	0.287	0.098
-528.048	-2.441	-0.355	0.250
-527.033	-123.847	0.278	0.044
-526.018	-88.662	-0.287	0.085
-525.004	-94.254	-0.322	-0.088
-523.989	-8.949	0.139	-0.094
-522.975	800.000	-0.103	-0.322
-521.960	-120.020	-0.309	0.053
-520.945	-71.869	0.484	-0.181
-519.931	35.834	-0.159	-0.140
-518.916	317.453	-0.032	-0.060
-517.902	-69.481	-0.225	0.087
-516.887	-137.002	-0.164	-0.019
-515.872	800.000	0.066	-0.285
-514.858	-37.705	0.309	0.165
-513.843	-55.411	-0.532	-0.239
-512.829	-200.000	0.072	-0.349
-511.814	-200.000	0.003	0.052
-510.799	151.565	0.129	-0.177
-509.785	-108.522	-0.088	-0.019
-508.770	-13.064	0.192	-0.125
-507.756	-200.000	0.033	-0.310
-506.741	-4.186	-0.194	-0.134
-505.726	-200.000	-0.068	0.357
-504.712	535.241	0.065	-0.155
-503.697	-200.000	0.028	-0.172
-502.683	195.961	-0.141	0.216
-501.668	-35.119	-0.177	0.096
-500.653	90.143	0.165	0.185
-499.639	800.000	0.122	-0.401
-498.624	47.805	-0.251	0.235
-497.610	-200.000	-0.015	-0.102
-496.595	-184.145	0.143	-0.002
-495.581	143.772	0.146	0.195
-494.566	139.418	0.092	0.121
-493.551	94.533	-0.237	0.269
-492.537	800.000	0.091	0.288
-491.522	800.000	-0.102	0.349
-490.508	145.305	0.111	0.149
-489.493	-200.000	-0.042	0.351
-488.478	-117.163	-0.070	-0.013
-487.464	800.000	0.029	0.100
-486.449	442.644	-0.253	0.555
-485.435	80.872	-0.318	0.344
-484.420	793.893	-0.105	0.290
-483.405	374.743	-0.089	0.182
-482.391	-57.007	0.215	-0.095
-481.376	800.000	-0.044	-0.134
-480.362	15.368	0.346	-0.272
-479.347	-200.000	-0.011	-0.251
-478.332	-77.474	0.254	0.088
-477.318	-200.000	0.073	0.337
-476.303	2.092	-0.178	0.129
-475.289	-115.011	0.020	0.004
-474.274	-183.964	0.177	-0.003
-473.259	-200.000	-0.019	0.164
-472.245	44.597	-0.197	0.182
-471.230	54.304	0.042	0.041
-470.216	-42.272	0.186	-0.095
-469.201	275.635	0.061	0.108
-468.186	-120.092	-0.153	0.026
-467.172	-131.765	-0.253	-0.033
-466.157	-180.544	0.079	0.002
-465.143	16.582	-0.230	-0.182
-464.128	127.777	0.143	0.182
-463.113	112.374	-0.131	0.158
-462.099	-111.532	0.179	0.036
-461.084	80.146	-0.118	0.127
-460.070	104.538	0.105	0.124
-459.055	-2.803	0.175	-0.122
-458.040	-25.194	-0.288	-0.170
-457.026	91.983	0.175	-0.197
-456.011	-176.533	0.098	0.003
-454.997	-163.471	0.350	-0.017
-453.982	-48.944	-0.114	0.054
-452.968	800.000	-0.060	-0.217
-451.953	-17.908	-0.392	0.246
-450.938	-200.000	-0.048	-0.328
-449.924	-127.078	0.080	0.012
-448.909	-74.649	-0.118	0.042
-447.895	-105.624	0.116	-0.026
-446.880	-59.724	0.299	-0.128
-445.865	-200.000	0.006	-0.161
-444.851	36.207	0.299	-0.263
-443.836	-66.705	0.170	-0.067
-442.822	-54.517	0.177	0.080
-441.807	-116.872	0.192	-0.035
-440.792	-200.000	-0.009	0.069
-439.778	-161.827	0.207	-0.011
-438.763	-95.675	-0.224	-0.060
-437.749	-200.000	-0.013	0.093
-436.734	297.891	0.148	-0.272
-435.719	-54.117	-0.157	-0.071
-434.705	-200.000	0.006	-0.047
-433.690	-131.551	-0.304	-0.040
-432.676	-99.340	0.208	0.052
-431.661	-200.000	0.010	0.177
-430.646	700.772	0.042	0.110
-429.632	278.599	0.102	-0.181
-428.617	-28.131	0.049	-0.028
-427.603	215.535	-0.166	0.263
-426.588	222.175	-0.128	0.206
-425.573	303.226	0.167	0.309
-424.559	-70.383	0.207	0.079
-423.544	65.058	-0.167	-0.169
-422.530	-144.479	-0.335	0.031
-421.515	335.563	-0.038	-0.074
-420.500	-200.000	-0.037	-0.173
-419.486	800.000	-0.020	-0.065
-418.471	-124.472	0.023	-0.004
-417.457	546.621	-0.098	0.233
-416.442	-189.119	0.146	0.002
-415.428	30.762	0.179	-0.153
-414.413	107.994	-0.167	0.198
-413.398	92.858	-0.136	0.153
-412.384	368.991	0.056	0.113
-411.369	800.000	-0.020	-0.068
-410.355	-35.210	-0.262	0.142
-409.340	-200.000	0.008	0.065
-408.325	-75.660	-0.202	-0.072
-407.311	-27.140	0.230	-0.134
-406.296	-74.962	0.312	-0.112
-405.282	711.893	0.065	0.173
-404.267	-193.612	-0.387	-0.003
-403.252	72.613	-0.207	-0.215
-402.238	-29.364	0.263	0.150
-401.223	-200.000	0.028	0.260
-400.209	159.606	0.177	0.246
-399.194	-78.447	-0.340	-0.116
-398.179	-34.227	-0.149	-0.082
-397.165	-122.200	0.245	0.040
-396.150	123.377	-0.031	0.038
-395.136	-140.763	0.395	-0.041
-394.121	-107.191	0.325	0.071
-393.106	-200.000	-0.007	-0.117
-392.092	-59.215	0.147	0.063
-391.077	-103.402	-0.300	0.070
-390.063	-200.000	-0.008	-0.138
-389.048	12.245	-0.111	-0.085
-388.033	-159.669	-0.241	0.013
-387.019	-200.000	0.005	0.173
-386.004	-87.628	-0.367	0.111
-384.990	-116.011	-0.267	0.050
-383.975	800.000	0.032	0.121
-382.960	-22.459	-0.160	-0.097
-381.946	-200.000	0.004	0.054
-380.931	-165.506	0.116	-0.005
-379.917	151.005	0.150	-0.204
-378.902	166.097	0.234	-0.330
-377.888	76.536	-0.232	-0.245
-376.873	-67.648	-0.433	0.169
-375.858	800.000	-0.101	0.389
-374.844	129.905	-0.157	-0.200
-373.829	-64.428	0.478	-0.194
-372.815	724.567	0.065	0.174
-371.800	63.100	0.119	0.119
-370.785	800.000	0.118	-0.502
-369.771	-133.746	0.187	-0.023
-368.756	-63.632	-0.032	0.013
-367.742	-86.348	0.150	-0.046
-366.727	143.622	0.152	0.202
-365.712	-27.976	0.287	0.166
-364.698	-166.936	-0.250	0.010
-363.683	800.000	-0.048	0.197
-362.669	800.000	-0.080	-0.274
-361.654	-94.342	0.196	-0.053
-360.639	-65.405	-0.325	-0.130
-359.625	118.172	0.191	-0.235
-358.610	-103.298	0.283	-0.067
-357.596	-92.637	0.296	0.083
-356.581	562.898	-0.129	0.311
-355.566	-123.120	0.374	0.060
-354.552	-200.000	-0.026	0.378
-353.537	-127.356	0.264	-0.038
-352.523	46.440	-0.105	-0.097
-351.508	172.793	0.063	0.090
-350.493	-23.749	-0.149	-0.089
-349.479	-75.610	-0.204	0.072
-348.464	639.085	0.156	0.395
-347.450	-13.231	0.279	0.181
-346.435	35.571	0.219	-0.191
-345.420	347.353	-0.139	-0.272
-344.406	-42.058	-0.329	0.168
-343.391	-144.775	-0.147	0.013
-342.377	227.293	-0.174	0.282
-341.362	800.000	0.080	-0.299
-340.348	127.140	-0.081	-0.103
-339.333	-60.335	0.159	-0.067
-338.318	800.000	0.021	0.086
-337.304	-146.990	0.324	0.028
-336.289	95.277	-0.166	0.188
-335.275	130.683	0.027	0.034
-334.260	-154.432	0.209	0.014
-333.245	-149.353	-0.293	-0.023
-332.231	120.476	0.225	0.278
-331.216	27.242	0.150	-0.125
-330.202	-159.412	0.157	0.009
-329.187	370.948	-0.119	-0.239
-328.172	136.690	-0.070	0.091
-327.158	60.491	0.363	-0.358
-326.143	62.677	0.020	-0.020
-325.129	5.899	-0.127	0.093
-324.114	399.063	-0.115	0.240
-323.099	-200.000	0.071	-0.000
-322.085	-200.000	0.031	-0.323
-321.070	276.093	-0.132	0.233
-320.056	-200.000	0.054	-0.425
-319.041	-200.000	-0.061	-0.407
-318.026	175.663	0.117	-0.168
-317.012	18.048	0.176	-0.139
-315.997	280.930	-0.068	0.121
-314.983	703.921	-0.037	-0.097
-313.968	526.976	-0.147	0.344
-312.953	189.115	-0.044	-0.066
-311.939	57.198	0.181	-0.175
-310.924	-48.346	0.275	-0.132
-309.910	-62.297	0.402	0.166
-308.895	-49.205	0.133	0.063
-307.880	338.964	-0.112	-0.217
-306.866	-189.620	-0.444	-0.005
-305.851	-136.273	-0.287	0.033
-304.837	226.239	-0.263	-0.425
-303.822	-71.087	0.106	-0.040
-302.807	-113.036	0.038	0.007
-301.793	-85.322	0.040	0.012
-300.778	-115.565	-0.480	0.090
-299.764	-23.087	0.183	0.110
-298.749	343.038	0.079	0.153
-297.735	-200.000	0.006	0.167
-296.720	-190.003	-0.222	0.002
-295.705	253.352	0.153	-0.259
-294.691	-200.000	0.072	0.399
-293.676	107.900	0.033	-0.039
-292.662	-200.000	0.002	0.094
-291.647	-155.009	-0.173	-0.011
-290.632	-21.500	0.167	-0.101
-289.618	-104.401	-0.340	0.078
-288.603	163.573	0.161	0.225
-287.589	353.805	-0.093	0.182
-286.574	301.247	-0.038	0.070
-285.559	-118.946	0.049	0.009
-284.545	150.681	0.117	-0.157
-283.530	-200.000	-0.014	-0.386
-282.516	-23.667	0.338	-0.201
-281.501	-62.661	0.182	-0.075
-280.486	800.000	0.037	0.114
-279.472	50.279	0.157	-0.147
-278.457	-200.000	0.015	0.257
-277.443	36.420	-0.152	0.133
-276.428	13.361	0.223	0.172
-275.413	-144.503	-0.034	0.003
-274.399	9.971	-0.216	-0.163
-273.384	-113.530	0.297	0.058
-272.370	8.136	-0.140	0.104
-271.355	-86.132	0.089	0.027
-270.340	-86.605	-0.157	0.048
-269.326	249.013	-0.146	0.245
-268.311	0.526	0.182	-0.129
-267.297	800.000	0.086	0.359
-266.282	37.201	-0.079	-0.069
-265.267	-54.999	-0.068	0.030
-264.253	187.307	0.193	0.285
-263.238	463.919	-0.069	-0.154
-262.224	-122.373	-0.184	0.030
-261.209	75.131	-0.171	0.179
-260.195	68.439	0.232	0.236
-259.180	531.608	-0.040	0.093
-258.165	-24.467	-0.051	0.030
-257.151	-200.000	-0.002	0.101
-256.136	-44.528	0.180	-0.089
-255.122	450.538	-0.081	-0.178
-254.107	-125.049	0.337	0.051
-253.092	59.811	-0.072	-0.071
-252.078	-16.136	-0.333	0.210
-251.063	38.052	0.185	-0.163
-250.049	193.374	0.180	-0.270
-249.034	-17.589	0.129	-0.081
-248.019	-73.796	0.140	0.050
-247.005	534.679	-0.084	0.197
-245.990	404.472	-0.095	-0.198
-244.976	-114.648	0.183	0.035
-243.961	108.197	-0.184	-0.218
-242.946	-97.654	-0.159	-0.041
-241.932	-200.000	-0.005	-0.120
-240.917	-119.215	-0.010	0.002
-239.903	800.000	-0.043	0.123
-238.888	-58.482	-0.194	0.084
-237.873	-92.522	0.225	0.063
-236.859	169.566	0.108	-0.154
-235.844	221.552	0.104	0.165
-234.830	-200.000	0.041	-0.408
-233.815	-200.000	0.004	-0.155
-232.800	-41.077	0.190	-0.097
-231.786	339.079	-0.081	0.156
-230.771	800.000	-0.045	-0.194
-229.757	136.467	0.156	-0.202
-228.742	-200.000	0.022	-0.216
-227.727	-200.000	-0.052	0.275
-226.713	-200.000	-0.051	-0.393
-225.698	-93.905	0.084	-0.023
-224.684	-30.554	-0.256	-0.144
-223.669	271.210	0.094	0.164
-222.655	800.000	0.043	0.119
-221.640	64.521	0.051	0.051
-220.625	-8.486	-0.018	-0.012
-219.611	151.330	0.121	-0.164
-218.596	800.000	0.086	-0.310
-217.582	3.677	-0.345	-0.249
-216.567	615.120	-0.071	0.177
-215.552	20.517	0.018	0.014
-214.538	57.707	0.172	-0.167
-213.523	800.000	-0.063	-0.212
-212.509	792.118	0.073	-0.200
-211.494	262.387	-0.140	0.241
-210.479	422.396	0.133	0.282
-209.465	-200.000	-0.024	0.239
-208.450	138.009	0.046	0.060
-207.436	-200.000	0.022	0.214
-206.421	-77.689	0.216	-0.074
-205.406	76.275	-0.347	0.363
-204.392	-200.000	0.015	0.291
-203.377	24.506	-0.112	-0.092
-202.363	-79.465	-0.150	-0.050
-201.348	-27.015	0.175	-0.101
-200.333	137.879	-0.042	0.054
-199.319	-87.138	-0.161	0.049
-198.304	-68.236	-0.229	-0.088
-197.290	65.737	-0.108	0.108
-196.275	15.083	-0.209	0.162
-195.260	-200.000	-0.005	-0.200
-194.246	800.000	0.066	0.210
-193.231	-100.685	-0.454	0.111
-192.217	319.198	-0.060	-0.113
-191.202	-54.909	0.107	-0.048
-190.187	36.062	-0.078	0.068
-189.173	56.185	-0.077	-0.074
-188.158	-200.000	0.015	0.399
-187.144	-5.162	-0.225	0.153
-186.129	751.989	-0.058	-0.156
-185.114	-6.069	-0.280	-0.189
-184.100	-9.971	0.239	-0.157
-183.085	25.047	0.181	0.149
-182.071	-67.254	0.290	0.113
-181.056	-200.000	-0.063	-0.606
-180.042	800.000	0.065	-0.239
-179.027	157.769	-0.088	0.121
-178.012	-200.000	0.018	-0.152
-176.998	-2.959	0.163	0.113
-175.983	-55.434	-0.247	0.110
-174.969	800.000	0.056	0.156
-173.954	-200.000	-0.028	-0.240
-172.939	-200.000	0.021	-0.141
-171.925	47.578	0.195	-0.180
-170.910	-83.225	0.061	-0.019
-169.896	-200.000	-0.072	0.358
-168.881	-111.074	0.208	0.042
-167.866	-63.756	-0.076	-0.031
-166.852	5.070	0.371	-0.270
-165.837	-200.000	0.020	0.214
-164.823	800.000	0.052	-0.185
-163.808	450.181	0.059	0.130
-162.793	100.542	-0.075	0.086
-161.779	6.344	-0.412	0.303
-160.764	453.764	0.030	0.066
-159.750	20.130	-0.087	-0.070
-158.735	338.592	0.090	-0.173
-157.720	-35.486	0.019	-0.010
-156.706	354.683	0.069	0.136
-155.691	51.210	-0.190	-0.178
-154.677	-109.731	0.460	-0.096
-153.662	428.113	0.078	-0.167
-152.647	-190.768	0.378	0.004
-151.633	800.000	0.078	0.226
-150.618	29.330	-0.152	-0.128
-149.604	800.000	0.125	-0.464
-148.589	-180.839	-0.390	0.008
-147.574	-95.857	-0.162	-0.043
-146.560	-155.813	0.108	0.007
-145.545	40.858	0.087	0.077
-144.531	-94.013	-0.112	0.030
-143.516	714.316	0.103	0.268
-142.502	-143.942	-0.246	-0.023
-141.487	-56.656	-0.110	0.048
-140.472	800.000	-0.031	0.106
-139.458	159.055	-0.049	0.068
-138.443	-26.882	-0.056	0.032
-137.429	-116.178	-0.381	0.070
-136.414	-200.000	-0.013	0.100
-135.399	800.000	0.095	-0.328
-134.385	341.601	0.137	0.264
-133.370	391.008	0.095	-0.195
-132.356	-71.001	0.069	0.025
-131.341	-115.314	0.475	-0.088
-130.326	-200.000	-0.020	0.097
-129.312	-200.000	-0.083	0.705
-128.297	7.652	-0.164	-0.121
-127.283	-200.000	0.048	-0.301
-126.268	158.196	0.127	-0.174
-125.253	51.027	0.124	0.116
-124.239	-30.517	-0.135	0.075
-123.224	142.051	-0.250	0.327
-122.210	-200.000	-0.034	0.265
-121.195	53.199	-0.036	-0.034
-120.180	-99.161	0.181	-0.045
