DTS Sentinel unit serial number:	SN413079Multiplexer serial number:	ORYXHardware model number:	OX4-SRSoftware version number:	ORYX F/W v4.00 Oryx Data Collector v3.7.2.0data status	okinstallation	princeton_trtdifferential loss correction	single-endedforward channel	channel 4reverse channel	N/Adate	2019/09/16time	07:17:34forward acquisition time	60.00reverse acquisition time	0.00gamma	496.2192k internal	0.2320k external	0.2320temperature offset calibration	0.9980default loss term (dB/km)	0.3790temperature slope calibration	1.0000multiplexer offset coefficient	1.0000multiplexer slope coefficient	1.0000fibre end	0.00T internal ref (°C)	27.39T ext. ref 1 (°C)	11.57T ext. ref 2 (°C)	22.44length (m)	temperature (°C)	Stokes	anti-Stokes-747.200	-200.000	0.014	0.224
-746.185	168.106	-0.234	0.337
-745.171	-102.833	0.244	-0.059
-744.156	136.786	0.060	0.079
-743.142	38.368	0.141	0.127
-742.127	557.419	0.076	-0.186
-741.112	-200.000	-0.015	-0.411
-740.098	491.394	0.028	0.066
-739.083	-200.000	-0.039	-0.213
-738.069	-161.612	-0.075	-0.004
-737.054	29.768	-0.288	0.248
-736.039	481.542	0.243	-0.557
-735.025	-56.446	0.354	-0.159
-734.010	800.000	-0.050	-0.173
-732.996	310.643	-0.131	0.249
-731.981	-52.897	-0.263	0.122
-730.966	-200.000	0.050	-0.318
-729.952	52.565	-0.109	-0.106
-728.937	-106.707	-0.172	-0.039
-727.923	573.876	0.063	-0.156
-726.908	-156.014	-0.331	0.021
-725.894	-93.792	-0.075	0.021
-724.879	-45.285	-0.225	-0.113
-723.864	-91.524	0.092	0.026
-722.850	-82.906	-0.219	0.071
-721.835	800.000	0.048	0.164
-720.821	31.257	0.177	0.153
-719.806	121.219	-0.075	0.095
-718.791	-122.751	-0.066	-0.011
-717.777	-52.547	-0.057	-0.026
-716.762	800.000	0.036	-0.101
-715.748	-92.940	-0.224	-0.063
-714.733	-50.478	-0.314	0.150
-713.718	-177.499	-0.230	-0.006
-712.704	686.867	0.158	-0.418
-711.689	-102.004	-0.135	0.033
-710.675	800.000	0.045	-0.149
-709.660	150.606	0.079	0.108
-708.645	800.000	-0.057	-0.195
-707.631	-4.866	-0.069	-0.048
-706.616	209.931	-0.155	-0.245
-705.602	-91.983	-0.103	-0.030
-704.587	-152.391	0.153	0.011
-703.572	-166.962	-0.256	-0.011
-702.558	-143.234	-0.386	-0.038
-701.543	-73.262	-0.250	-0.092
-700.529	-98.470	0.241	0.062
-699.514	-200.000	0.010	0.107
-698.499	32.908	-0.190	-0.166
-697.485	568.881	-0.107	0.264
-696.470	-34.342	0.251	-0.139
-695.456	-200.000	0.032	-0.187
-694.441	10.152	-0.398	-0.306
-693.426	155.088	0.138	0.191
-692.412	30.695	-0.054	-0.047
-691.397	84.680	0.024	-0.027
-690.383	55.698	-0.160	-0.156
-689.368	800.000	-0.039	0.137
-688.354	800.000	0.018	0.063
-687.339	241.196	-0.126	0.212
-686.324	-142.743	0.428	0.042
-685.310	-67.814	0.255	0.101
-684.295	479.471	0.069	-0.157
-683.281	-200.000	0.016	-0.352
-682.266	-4.437	-0.213	0.148
-681.251	53.179	-0.177	0.171
-680.237	-25.592	0.143	0.085
-679.222	-46.358	-0.142	-0.071
-678.208	-80.015	-0.106	0.036
-677.193	-89.255	0.031	-0.009
-676.178	-69.331	-0.300	0.116
-675.164	800.000	-0.082	0.277
-674.149	-139.202	-0.251	-0.027
-673.135	-76.556	0.159	0.056
-672.120	-43.264	0.035	-0.018
-671.105	120.262	0.052	0.065
-670.091	-60.547	-0.140	0.060
-669.076	-150.884	-0.075	0.006
-668.062	-200.000	-0.027	-0.412
-667.047	800.000	-0.070	0.304
-666.032	-93.498	-0.037	0.010
-665.018	273.060	0.045	-0.081
-664.003	-148.383	-0.509	0.042
-662.989	29.901	-0.014	0.012
-661.974	-6.229	0.173	-0.119
-660.959	146.394	0.200	-0.271
-659.945	800.000	-0.056	0.206
-658.930	800.000	0.065	-0.220
-657.916	98.527	0.066	0.076
-656.901	127.493	0.128	-0.164
-655.886	-17.670	-0.088	0.056
-654.872	-200.000	-0.048	0.240
-653.857	800.000	-0.077	0.235
-652.843	58.237	-0.226	-0.223
-651.828	-29.708	-0.206	0.119
-650.814	-138.455	-0.144	0.016
-649.799	22.674	0.168	0.138
-648.784	-200.000	0.019	-0.319
-647.770	-124.619	-0.229	-0.036
-646.755	142.028	0.104	-0.139
-645.741	24.067	0.096	-0.080
-644.726	126.626	-0.094	-0.120
-643.711	774.967	0.031	-0.085
-642.697	-5.782	-0.347	0.240
-641.682	800.000	0.027	0.114
-640.668	541.965	0.111	-0.266
-639.653	177.732	-0.104	-0.153
-638.638	800.000	0.022	-0.063
-637.624	-94.725	-0.171	0.047
-636.609	-200.000	-0.034	0.240
-635.595	-76.581	-0.062	0.022
-634.580	-0.825	0.292	0.208
-633.565	-85.957	0.086	-0.027
-632.551	-100.752	-0.013	-0.003
-631.536	-66.565	-0.143	0.057
-630.522	-67.157	0.210	-0.083
-629.507	134.630	0.126	-0.165
-628.492	-200.000	0.031	0.173
-627.478	-200.000	0.007	-0.178
-626.463	-154.146	-0.090	-0.006
-625.449	-13.913	0.120	-0.078
-624.434	15.163	-0.150	0.119
-623.419	-200.000	-0.052	0.234
-622.405	800.000	-0.023	0.074
-621.390	177.699	0.064	0.094
-620.376	-18.855	0.308	-0.193
-619.361	8.293	-0.161	0.122
-618.346	10.566	-0.220	0.169
-617.332	72.355	-0.061	0.064
-616.317	-98.375	0.160	0.041
-615.303	-200.000	-0.033	-0.229
-614.288	55.101	-0.239	-0.232
-613.273	457.819	0.049	-0.109
-612.259	-98.786	-0.231	0.059
-611.244	-150.501	-0.060	0.005
-610.230	30.695	0.175	-0.150
-609.215	-200.000	-0.019	-0.284
-608.201	-15.942	-0.065	-0.042
-607.186	800.000	0.049	0.196
-606.171	-90.921	-0.092	-0.027
-605.157	-200.000	-0.067	-0.334
-604.142	-200.000	0.031	-0.290
-603.128	-23.840	-0.251	-0.151
-602.113	-109.134	0.257	0.055
-601.098	253.211	0.154	0.265
-600.084	-56.043	-0.178	0.080
-599.069	-83.667	-0.304	0.098
-598.055	800.000	0.068	-0.212
-597.040	23.244	0.043	0.035
-596.025	-83.209	-0.116	0.037
-595.011	734.457	0.079	-0.212
-593.996	-200.000	0.003	0.032
-592.982	-53.364	0.336	0.155
-591.967	800.000	0.046	0.178
-590.952	-200.000	0.008	0.104
-589.938	-26.344	-0.024	0.014
-588.923	217.550	-0.071	-0.113
-587.909	-200.000	0.011	-0.181
-586.894	-7.897	-0.218	-0.148
-585.879	-3.249	-0.335	0.235
-584.865	-85.891	-0.245	0.076
-583.850	-29.746	0.127	0.073
-582.836	-58.618	-0.325	-0.142
-581.821	108.386	-0.090	-0.107
-580.806	-101.270	0.351	0.086
-579.792	800.000	0.033	-0.144
-578.777	-138.577	-0.241	-0.027
-577.763	26.157	-0.296	-0.248
-576.748	-56.022	0.204	-0.091
-575.733	65.191	-0.216	0.220
-574.719	61.589	0.063	-0.063
-573.704	278.979	0.082	0.146
-572.690	-20.473	0.130	0.080
-571.675	800.000	0.083	0.351
-570.661	-46.178	0.282	0.139
-569.646	308.617	0.171	-0.321
-568.631	-60.759	-0.340	-0.145
-567.617	-24.334	0.107	-0.064
-566.602	-147.058	-0.328	-0.028
-565.588	-21.299	-0.408	-0.250
-564.573	-8.615	0.122	0.082
-563.558	800.000	0.043	-0.183
-562.544	19.925	0.097	0.078
-561.529	-200.000	0.057	-0.366
-560.515	-59.641	-0.067	0.029
-559.500	-145.814	-0.446	0.040
-558.485	800.000	0.038	-0.120
-557.471	-200.000	-0.000	-0.282
-556.456	-93.338	0.271	0.076
-555.442	-48.703	-0.081	0.039
-554.427	-114.225	-0.099	0.019
-553.412	-96.682	-0.134	0.036
-552.398	-200.000	-0.025	0.263
-551.383	-64.623	-0.440	0.179
-550.369	155.005	0.173	-0.238
-549.354	-13.318	0.285	-0.185
-548.339	-124.638	0.260	-0.040
-547.325	-30.208	-0.260	-0.148
-546.310	-98.931	0.254	0.065
-545.296	-166.176	0.154	-0.007
-544.281	-200.000	-0.030	-0.229
-543.266	-114.330	0.457	-0.088
-542.252	27.389	-0.201	-0.169
-541.237	279.667	-0.191	-0.342
-540.223	465.899	0.094	0.212
-539.208	-40.635	0.129	0.067
-538.193	584.033	0.084	-0.206
-537.179	-19.750	-0.145	-0.090
-536.164	800.000	-0.024	0.081
-535.150	-200.000	0.016	0.343
-534.135	-106.129	0.259	-0.058
-533.121	-47.603	0.299	0.146
-532.106	14.496	-0.265	0.207
-531.091	114.821	0.246	0.300
-530.077	-200.000	-0.005	-0.046
-529.062	-5.720	0.072	-0.049
-528.048	348.051	0.015	0.029
-527.033	800.000	0.096	0.297
-526.018	75.857	0.172	0.183
-525.004	82.757	-0.203	0.221
-523.989	800.000	-0.071	0.282
-522.975	-162.656	-0.189	0.009
-521.960	387.185	-0.073	0.150
-520.945	319.339	-0.030	0.057
-519.931	78.441	0.307	-0.329
-518.916	29.470	0.275	-0.234
-517.902	-102.910	-0.265	-0.063
-516.887	-200.000	0.060	-0.337
-515.872	800.000	-0.106	-0.301
-514.858	-66.134	0.120	-0.048
-513.843	-200.000	0.015	0.381
-512.829	-200.000	-0.015	0.206
-511.814	157.702	0.045	-0.062
-510.799	-94.662	-0.208	-0.057
-509.785	-200.000	0.034	-0.179
-508.770	206.043	-0.041	0.064
-507.756	-67.499	-0.046	-0.018
-506.741	49.866	0.297	-0.281
-505.726	-19.247	-0.347	0.216
-504.712	196.754	-0.100	0.153
-503.697	244.633	0.150	-0.252
-502.683	321.793	-0.029	0.055
-501.668	-21.829	0.326	-0.198
-500.653	442.991	-0.060	0.131
-499.639	-0.609	0.185	0.131
-498.624	451.802	-0.060	0.132
-497.610	800.000	-0.031	-0.103
-496.595	272.140	0.078	-0.138
-495.581	-133.699	-0.276	0.035
-494.566	-200.000	0.025	-0.196
-493.551	272.324	0.112	0.198
-492.537	-200.000	-0.012	-0.060
-491.522	96.434	-0.184	-0.211
-490.508	-176.609	-0.071	-0.002
-489.493	-55.092	-0.036	-0.016
-488.478	-40.501	-0.110	0.057
-487.464	-200.000	-0.023	-0.132
-486.449	-200.000	-0.018	-0.264
-485.435	630.156	0.112	-0.284
-484.420	-140.937	-0.189	-0.019
-483.405	177.393	0.190	-0.277
-482.391	111.046	0.081	0.098
-481.376	-2.838	0.066	-0.046
-480.362	-60.051	-0.113	-0.048
-479.347	800.000	-0.048	-0.164
-478.332	292.197	-0.071	0.129
-477.318	417.547	0.091	0.195
-476.303	49.251	-0.221	0.208
-475.289	-55.335	-0.076	0.034
-474.274	800.000	0.161	0.451
-473.259	167.938	0.073	0.104
-472.245	-90.844	0.273	-0.079
-471.230	15.551	-0.162	0.127
-470.216	-54.849	-0.090	0.040
-469.201	43.665	0.130	0.119
-468.186	-105.206	-0.332	-0.076
-467.172	-13.393	0.257	-0.167
-466.157	800.000	-0.064	-0.245
-465.143	-24.386	0.076	-0.045
-464.128	27.140	-0.267	0.224
-463.113	84.813	-0.276	0.302
-462.099	-200.000	0.014	-0.278
-461.084	65.340	-0.141	-0.143
-460.070	-92.134	-0.095	0.027
-459.055	25.748	0.268	-0.224
-458.040	34.734	-0.062	0.054
-457.026	69.559	0.133	-0.137
-456.011	-200.000	0.026	-0.119
-454.997	-105.445	0.304	0.069
-453.982	142.859	-0.139	-0.185
-452.968	347.553	-0.047	0.093
-451.953	-62.518	-0.123	-0.051
-450.938	-79.862	-0.243	0.082
-449.924	-170.602	0.264	0.009
-448.909	-127.057	0.342	0.050
-447.895	-12.887	0.154	-0.100
-446.880	-200.000	-0.017	-0.124
-445.865	578.700	-0.037	0.092
-444.851	71.884	0.029	0.031
-443.836	89.824	-0.079	0.088
-442.822	550.586	0.062	0.149
-441.807	13.235	-0.133	0.103
-440.792	-67.137	0.126	0.050
-439.778	53.196	-0.206	-0.198
-438.763	-14.859	0.175	0.112
-437.749	-38.426	0.205	0.108
-436.734	207.823	-0.135	-0.211
-435.719	207.773	0.068	0.106
-434.705	-66.420	-0.307	-0.122
-433.690	18.911	0.176	0.141
-432.676	-57.828	0.144	0.063
-431.661	36.645	-0.195	-0.172
-430.646	164.480	-0.063	-0.089
-429.632	172.545	0.175	0.251
-428.617	800.000	-0.072	-0.199
-427.603	81.416	0.247	-0.267
-426.588	-99.267	-0.421	0.106
-425.573	-96.234	0.239	0.063
-424.559	-200.000	0.044	0.212
-423.544	46.180	-0.240	0.222
-422.530	-20.057	-0.244	0.150
-421.515	55.694	-0.097	0.094
-420.500	651.629	0.014	-0.036
-419.486	-38.826	0.173	-0.091
-418.471	-200.000	0.005	-0.047
-417.457	-47.922	0.152	-0.074
-416.442	228.240	0.084	0.136
-415.428	76.488	0.074	-0.079
-414.413	563.760	-0.068	-0.164
-413.398	-53.010	-0.219	0.100
-412.384	674.961	0.068	-0.176
-411.369	446.720	-0.100	-0.221
-410.355	-109.289	-0.295	-0.062
-409.340	5.159	-0.137	0.101
-408.325	-29.750	-0.236	0.134
-407.311	132.610	0.124	-0.160
-406.296	-156.226	0.276	0.017
-405.282	11.107	0.204	0.155
-404.267	310.666	0.107	-0.200
-403.252	406.526	-0.058	0.122
-402.238	139.100	-0.234	0.307
-401.223	-200.000	0.039	0.304
-400.209	-200.000	-0.029	0.258
-399.194	495.982	-0.088	0.203
-398.179	-95.017	-0.401	0.108
-397.165	-200.000	-0.034	0.175
-396.150	548.481	-0.052	-0.124
-395.136	276.780	-0.163	0.289
-394.121	591.687	-0.167	-0.411
-393.106	-200.000	-0.220	-0.001
-392.092	-24.683	-0.325	-0.193
-391.077	-185.105	0.288	-0.004
-390.063	-99.816	0.189	-0.047
-389.048	737.816	0.049	-0.132
-388.033	-84.085	-0.163	0.052
-387.019	-53.813	-0.108	0.049
-386.004	-47.825	-0.232	0.112
-384.990	-123.649	-0.167	0.026
-383.975	-80.976	0.402	-0.133
-382.960	-181.378	0.179	0.004
-381.946	787.061	-0.056	0.154
-380.931	-110.915	0.229	-0.047
-379.917	145.504	0.208	0.278
-378.902	800.000	0.057	-0.189
-377.888	-134.307	0.247	0.030
-376.873	204.070	-0.088	0.136
-375.858	-134.370	0.152	-0.019
-374.844	-74.362	-0.130	-0.047
-373.829	-200.000	0.017	-0.155
-372.815	10.555	0.202	0.153
-371.800	684.326	0.099	-0.256
-370.785	247.557	-0.039	0.065
-369.771	134.330	-0.021	0.027
-368.756	-200.000	-0.056	-0.257
-367.742	312.508	-0.050	0.094
-366.727	-200.000	0.027	0.246
-365.712	-115.531	0.081	0.015
-364.698	172.083	0.097	-0.139
-363.683	148.321	0.107	-0.144
-362.669	800.000	0.070	-0.250
-361.654	800.000	-0.109	0.402
-360.639	-79.469	-0.072	-0.024
-359.625	800.000	-0.101	-0.329
-358.610	-155.306	0.169	0.011
-357.596	50.159	-0.187	-0.176
-356.581	-145.748	0.080	0.007
-355.566	-200.000	0.001	-0.055
-354.552	313.723	0.210	-0.393
-353.537	800.000	-0.071	-0.252
-352.523	634.976	-0.088	-0.224
-351.508	-200.000	0.011	0.206
-350.493	800.000	0.095	-0.278
-349.479	800.000	-0.149	-0.509
-348.464	-60.416	-0.176	-0.074
-347.450	88.922	-0.085	-0.094
-346.435	-94.946	-0.071	-0.019
-345.420	334.569	-0.098	-0.190
-344.406	443.793	0.063	0.139
-343.391	2.283	0.094	0.068
-342.377	-86.280	-0.232	0.071
-341.362	155.320	0.399	-0.547
-340.348	-80.938	-0.233	0.077
-339.333	734.282	0.043	0.114
-338.318	-13.863	-0.178	0.115
-337.304	-200.000	0.026	0.128
-336.289	-47.916	-0.221	0.107
-335.275	-20.457	0.048	0.029
-334.260	-126.324	-0.231	0.034
-333.245	187.911	-0.052	0.078
-332.231	32.992	0.259	0.223
-331.216	-109.241	-0.175	0.037
-330.202	-200.000	-0.044	0.355
-329.187	800.000	-0.037	-0.128
-328.172	-124.668	0.389	-0.060
-327.158	-66.721	-0.131	-0.052
-326.143	-196.266	-0.080	0.001
-325.129	-200.000	0.002	0.092
-324.114	-30.822	0.110	0.062
-323.099	542.068	-0.123	0.292
-322.085	800.000	0.043	0.188
-321.070	-120.675	0.107	-0.018
-320.056	2.979	0.134	0.097
-319.041	285.040	-0.125	-0.224
-318.026	10.636	0.289	0.219
-317.012	-123.820	0.176	-0.028
-315.997	11.186	0.153	-0.116
-314.983	562.543	-0.050	0.121
-313.968	-109.111	-0.188	0.040
-312.953	114.360	0.121	0.146
-311.939	38.110	0.053	0.047
-310.924	800.000	-0.101	-0.349
-309.910	-121.699	0.221	-0.036
-308.895	-83.582	0.132	0.042
-307.880	117.694	-0.196	-0.240
-306.866	17.350	-0.087	-0.069
-305.851	-16.661	0.224	0.141
-304.837	-200.000	-0.021	0.337
-303.822	-200.000	0.040	0.181
-302.807	378.307	0.149	0.304
-301.793	800.000	0.081	0.253
-300.778	193.486	-0.288	-0.432
-299.764	92.090	0.241	0.269
-298.749	-172.757	0.062	0.002
-297.735	-138.415	-0.079	0.009
-296.720	-200.000	-0.011	0.103
-295.705	-200.000	0.020	-0.093
-294.691	-125.999	-0.343	-0.051
-293.676	-94.278	0.245	-0.066
-292.662	-200.000	0.060	-0.364
-291.647	281.851	0.139	0.247
-290.632	800.000	0.094	0.299
-289.618	-200.000	0.023	0.128
-288.603	128.550	0.141	-0.178
-287.589	487.633	0.051	-0.115
-286.574	-169.173	0.370	0.014
-285.559	-94.116	0.172	0.047
-284.545	-200.000	0.007	0.097
-283.530	290.101	0.094	0.169
-282.516	-55.519	-0.013	0.006
-281.501	-102.338	-0.186	0.044
-280.486	-69.824	0.034	-0.013
-279.472	-153.241	0.114	-0.008
-278.457	-38.279	-0.281	0.148
-277.443	66.415	0.150	-0.151
-276.428	800.000	-0.124	0.427
-275.413	800.000	0.035	0.101
-274.399	-200.000	-0.041	-0.193
-273.384	800.000	-0.058	-0.196
-272.370	220.252	-0.176	0.280
-271.355	-171.436	0.214	0.007
-270.340	800.000	0.040	0.129
-269.326	150.574	-0.075	-0.102
-268.311	-13.901	0.132	-0.085
-267.297	800.000	-0.099	-0.313
-266.282	66.353	0.050	0.050
-265.267	80.259	-0.172	0.183
-264.253	-95.419	-0.065	0.017
-263.238	-57.598	-0.140	0.061
-262.224	-200.000	0.001	0.056
-261.209	263.641	0.161	-0.277
-260.195	-74.559	0.102	-0.037
-259.180	544.685	-0.050	0.119
-258.165	589.115	-0.112	0.273
-257.151	373.150	0.047	0.095
-256.136	490.018	-0.016	0.037
-255.122	-107.507	0.149	0.032
-254.107	-200.000	0.058	-0.277
-253.092	37.979	0.169	0.149
-252.078	185.715	0.038	-0.057
-251.063	-200.000	0.004	-0.224
-250.049	160.521	0.164	0.226
-249.034	-200.000	0.031	-0.173
-248.019	-169.762	-0.108	-0.004
-247.005	-116.732	-0.221	0.040
-245.990	-23.428	0.207	0.123
-244.976	-147.984	0.249	-0.021
-243.961	-117.934	0.047	0.008
-242.946	-177.887	-0.333	-0.008
-241.932	800.000	0.132	0.370
-240.917	-200.000	0.005	0.115
-239.903	118.540	-0.100	0.122
-238.888	-200.000	-0.006	0.111
-237.873	58.260	-0.370	0.359
-236.859	406.956	-0.108	0.227
-235.844	800.000	-0.080	0.275
-234.830	800.000	-0.153	-0.467
-233.815	196.223	-0.248	-0.374
-232.800	48.819	-0.281	-0.261
-231.786	263.908	0.206	0.355
-230.771	67.661	-0.137	0.139
-229.757	800.000	-0.162	0.477
-228.742	201.518	-0.043	0.066
-227.727	-25.788	0.089	-0.052
-226.713	-147.218	0.377	0.032
-225.698	411.741	-0.059	-0.124
-224.684	-200.000	0.044	-0.289
-223.669	-50.034	0.240	-0.113
-222.655	33.143	-0.108	0.092
-221.640	121.512	0.114	0.141
-220.625	-138.959	-0.157	0.017
-219.611	354.112	0.039	-0.076
-218.596	-79.632	0.224	-0.075
-217.582	88.156	-0.114	-0.125
-216.567	800.000	-0.104	0.300
-215.552	-94.054	-0.196	-0.053
-214.538	-116.139	0.325	-0.060
-213.523	-147.983	0.257	-0.021
-212.509	-200.000	0.034	-0.201
-211.494	243.131	-0.081	0.135
-210.479	800.000	0.079	-0.222
-209.465	-81.327	0.198	-0.065
-208.450	-1.546	0.259	0.181
-207.436	154.040	0.108	0.147
-206.421	-200.000	-0.010	-0.098
-205.406	64.835	0.307	0.307
-204.392	-14.892	0.093	-0.059
-203.377	-101.290	0.131	0.032
-202.363	19.466	-0.311	-0.247
-201.348	-200.000	-0.013	0.239
-200.333	800.000	0.055	0.186
-199.319	38.564	0.166	0.147
-198.304	-200.000	0.001	0.044
-197.290	111.960	-0.231	-0.276
-196.275	144.412	-0.079	-0.105
-195.260	342.022	0.174	0.337
-194.246	50.702	0.319	0.299
-193.231	-200.000	0.024	-0.316
-192.217	800.000	0.082	0.223
-191.202	-120.899	0.038	-0.006
-190.187	-97.307	-0.188	-0.048
-189.173	-200.000	0.054	0.397
-188.158	-200.000	-0.025	-0.184
-187.144	396.290	-0.209	0.432
-186.129	800.000	0.062	-0.229
-185.114	165.559	0.031	0.044
-184.100	-200.000	-0.012	0.116
-183.085	484.361	-0.051	0.116
-182.071	-200.000	0.028	0.488
-181.056	285.224	-0.161	-0.287
-180.042	21.595	0.251	-0.202
-179.027	-63.233	0.096	-0.039
-178.012	117.861	0.311	0.379
-176.998	-77.043	0.150	-0.052
-175.983	574.341	0.168	-0.405
-174.969	780.441	0.050	-0.136
-173.954	-98.798	-0.175	0.044
-172.939	-125.345	-0.344	0.052
-171.925	-34.643	-0.129	-0.070
-170.910	7.961	0.117	-0.086
-169.896	-63.034	-0.227	0.093
-168.881	233.852	-0.053	-0.086
-167.866	800.000	0.088	0.335
-166.852	28.322	0.039	0.032
-165.837	800.000	0.062	-0.244
-164.823	395.142	-0.162	-0.334
-163.808	30.346	0.169	-0.143
-162.793	26.089	0.160	0.132
-161.779	97.043	-0.158	0.179
-160.764	-143.493	-0.184	-0.017
-159.750	79.053	-0.259	-0.274
-158.735	-95.647	0.211	-0.056
-157.720	197.325	0.190	-0.286
-156.706	-200.000	0.018	-0.137
-155.691	152.565	-0.343	0.464
-154.677	-81.362	0.079	-0.026
-153.662	-73.332	-0.139	0.050
-152.647	-200.000	0.032	-0.149
-151.633	164.040	-0.309	-0.429
-150.618	-200.000	-0.263	0.001
-149.604	86.492	0.168	0.183
-148.589	-56.064	-0.182	0.080
-147.574	-200.000	-0.001	0.292
-146.560	-107.934	0.122	-0.026
-145.545	800.000	0.027	0.079
-144.531	-173.689	0.126	-0.004
-143.516	36.573	-0.130	-0.114
-142.502	-200.000	0.053	-0.262
-141.487	600.601	-0.071	-0.173
-140.472	120.985	-0.144	-0.177
-139.458	-58.330	-0.214	-0.092
-138.443	-113.111	0.167	0.033
-137.429	800.000	-0.087	-0.341
-136.414	-12.297	0.121	-0.078
-135.399	800.000	0.031	-0.113
-134.385	-109.342	0.164	0.034
-133.370	102.441	-0.135	-0.156
-132.356	6.331	0.194	-0.142
-131.341	-142.594	-0.162	0.016
-130.326	-200.000	-0.063	0.469
-129.312	-200.000	-0.044	0.215
-128.297	-147.066	-0.139	0.012
-127.283	119.861	-0.106	0.130
-126.268	347.903	0.028	0.055
-125.253	-103.291	-0.183	0.043
-124.239	-200.000	0.013	-0.170
-123.224	-74.754	0.349	0.124
-122.210	76.432	-0.136	0.142
-121.195	-106.019	-0.304	0.068
-120.180	-14.469	0.160	0.102
