DTS Sentinel unit serial number:	SN413079Multiplexer serial number:	ORYXHardware model number:	OX4-SRSoftware version number:	ORYX F/W v4.00 Oryx Data Collector v3.7.2.0data status	okinstallation	princeton_trtdifferential loss correction	single-endedforward channel	channel 4reverse channel	N/Adate	2019/09/18time	00:53:35forward acquisition time	60.00reverse acquisition time	0.00gamma	496.2192k internal	0.2334k external	0.2334temperature offset calibration	0.9997default loss term (dB/km)	0.3790temperature slope calibration	1.0000multiplexer offset coefficient	1.0000multiplexer slope coefficient	1.0000fibre end	0.00T internal ref (°C)	23.37T ext. ref 1 (°C)	0.17T ext. ref 2 (°C)	17.07length (m)	temperature (°C)	Stokes	anti-Stokes-747.200	5.728	0.170	-0.126
-746.185	-27.927	-0.075	0.044
-745.171	-141.159	-0.205	0.021
-744.156	-14.587	-0.191	0.123
-743.142	-6.643	-0.098	0.067
-742.127	-200.000	-0.031	-0.346
-741.112	102.155	0.078	0.092
-740.098	159.573	-0.160	0.224
-739.083	-36.059	-0.398	-0.216
-738.069	-86.738	-0.312	0.096
-737.054	167.759	0.065	-0.093
-736.039	-200.000	-0.032	-0.229
-735.025	249.763	0.122	0.208
-734.010	314.169	-0.074	-0.140
-732.996	29.500	-0.084	0.072
-731.981	-85.131	-0.330	0.104
-730.966	-200.000	0.020	-0.251
-729.952	261.731	-0.115	-0.200
-728.937	-137.527	-0.269	0.031
-727.923	800.000	0.087	0.258
-726.908	-43.481	-0.166	0.084
-725.894	-200.000	0.060	0.370
-724.879	-77.344	-0.168	-0.059
-723.864	457.416	0.039	0.086
-722.850	69.561	-0.219	0.226
-721.835	135.452	-0.184	0.241
-720.821	800.000	-0.156	0.507
-719.806	-77.926	0.206	-0.071
-718.791	800.000	-0.063	-0.242
-717.777	727.036	-0.075	-0.201
-716.762	800.000	0.003	0.011
-715.748	54.909	-0.182	0.177
-714.733	-200.000	0.066	-0.315
-713.718	69.021	0.088	-0.090
-712.704	407.247	-0.052	-0.111
-711.689	292.547	0.015	-0.027
-710.675	37.041	-0.274	-0.244
-709.660	-80.024	0.201	0.068
-708.645	628.824	0.072	-0.184
-707.631	-30.853	-0.133	0.076
-706.616	580.272	0.022	0.055
-705.602	-34.424	0.198	0.109
-704.587	800.000	0.030	0.096
-703.572	-119.954	-0.249	0.043
-702.558	800.000	0.060	-0.192
-701.543	800.000	-0.077	-0.323
-700.529	408.975	-0.051	0.109
-699.514	-200.000	-0.027	-0.269
-698.499	-3.389	-0.254	0.178
-697.485	375.795	-0.172	-0.352
-696.470	105.824	-0.129	-0.153
-695.456	-137.528	-0.363	-0.041
-694.441	-173.045	-0.468	-0.014
-693.426	368.594	-0.041	0.084
-692.412	224.714	-0.116	-0.188
-691.397	-160.965	-0.069	-0.004
-690.383	-112.293	-0.206	0.041
-689.368	-200.000	0.015	-0.075
-688.354	276.555	-0.063	-0.113
-687.339	-200.000	-0.013	-0.316
-686.324	-80.538	0.120	-0.040
-685.310	5.285	-0.100	-0.074
-684.295	800.000	0.082	0.234
-683.281	538.517	-0.067	-0.160
-682.266	201.523	-0.232	-0.358
-681.251	22.579	-0.259	-0.212
-680.237	101.601	0.079	-0.093
-679.222	32.236	-0.134	0.116
-678.208	749.689	0.164	0.444
-677.193	-200.000	-0.020	0.318
-676.178	175.941	0.083	0.120
-675.164	-200.000	0.007	0.116
-674.149	-176.682	-0.113	0.003
-673.135	800.000	-0.063	0.219
-672.120	-9.402	-0.195	0.131
-671.105	87.877	-0.304	0.338
-670.091	-45.307	0.242	-0.120
-669.076	-93.643	0.252	0.070
-668.062	-73.634	0.090	0.033
-667.047	-23.409	0.333	0.200
-666.032	494.221	0.127	0.293
-665.018	-200.000	-0.013	-0.302
-664.003	-93.052	-0.262	0.073
-662.989	800.000	0.068	0.202
-661.974	19.319	0.136	0.109
-660.959	-137.224	-0.340	-0.039
-659.945	289.242	0.123	0.224
-658.930	27.244	-0.225	-0.190
-657.916	-200.000	0.074	0.000
-656.901	82.397	-0.193	-0.209
-655.886	-109.587	0.113	0.024
-654.872	-22.270	0.246	-0.149
-653.857	-64.802	0.134	-0.055
-652.843	-3.479	-0.343	-0.239
-651.828	-200.000	0.025	-0.194
-650.814	287.331	-0.100	-0.180
-649.799	512.602	-0.070	-0.164
-648.784	34.669	0.155	0.135
-647.770	-200.000	0.036	0.359
-646.755	176.066	0.124	-0.180
-645.741	800.000	-0.092	-0.302
-644.726	-200.000	-0.010	0.059
-643.711	-200.000	-0.009	0.334
-642.697	-200.000	0.062	0.357
-641.682	-131.938	-0.038	-0.005
-640.668	64.970	0.188	0.190
-639.653	-200.000	-0.021	0.203
-638.638	175.944	0.108	0.157
-637.624	-15.691	0.088	0.056
-636.609	-19.657	-0.252	-0.156
-635.595	-122.256	0.135	-0.022
-634.580	109.363	0.037	0.044
-633.565	410.038	0.167	-0.354
-632.551	-200.000	0.013	-0.511
-631.536	68.339	-0.307	-0.315
-630.522	-15.979	-0.363	0.231
-629.507	-114.772	-0.332	-0.063
-628.492	-116.116	0.375	-0.070
-627.478	-150.838	0.155	-0.012
-626.463	112.097	-0.169	-0.204
-625.449	800.000	0.106	-0.306
-624.434	109.232	-0.047	-0.056
-623.419	-200.000	-0.001	0.055
-622.405	390.338	-0.186	0.387
-621.390	9.280	0.215	0.162
-620.376	800.000	-0.038	-0.121
-619.361	-17.716	-0.131	0.082
-618.346	800.000	-0.072	0.200
-617.332	-28.377	0.399	-0.230
-616.317	73.726	-0.201	-0.210
-615.303	-8.417	-0.138	0.093
-614.288	-200.000	-0.013	-0.144
-613.273	-95.486	-0.169	0.045
-612.259	800.000	0.027	-0.087
-611.244	77.187	-0.037	0.039
-610.230	272.527	-0.155	0.274
-609.215	-156.569	-0.207	-0.013
-608.201	91.606	0.431	0.484
-607.186	-200.000	0.002	0.134
-606.171	-160.158	-0.169	0.009
-605.157	-11.080	-0.185	0.122
-604.142	800.000	-0.053	0.162
-603.128	-61.699	-0.095	0.040
-602.113	-97.047	0.172	-0.045
-601.098	-200.000	0.010	0.149
-600.084	-200.000	-0.004	-0.077
-599.069	40.104	-0.096	-0.086
-598.055	64.427	0.149	0.150
-597.040	23.398	0.175	0.144
-596.025	61.430	-0.186	-0.185
-595.011	57.732	-0.147	-0.143
-593.996	572.982	-0.120	-0.292
-592.982	800.000	0.033	0.109
-591.967	639.410	0.098	0.248
-590.952	686.002	0.170	0.444
-589.938	800.000	0.009	-0.031
-588.923	800.000	0.079	-0.219
-587.909	471.813	-0.067	-0.151
-586.894	310.343	0.171	-0.320
-585.879	199.649	0.097	0.148
-584.865	-200.000	-0.024	0.346
-583.850	-200.000	0.054	-0.293
-582.836	-168.851	-0.212	0.008
-581.821	10.048	-0.149	-0.113
-580.806	-200.000	-0.055	0.286
-579.792	143.726	0.194	0.258
-578.777	87.805	-0.166	-0.184
-577.763	-200.000	-0.014	0.132
-576.748	-89.072	0.183	0.054
-575.733	-18.553	-0.161	0.100
-574.719	-37.652	-0.251	-0.133
-573.704	-103.344	-0.302	0.071
-572.690	-84.256	-0.187	-0.059
-571.675	-200.000	-0.021	-0.160
-570.661	800.000	0.007	-0.028
-569.646	800.000	-0.074	-0.273
-568.631	-164.692	-0.133	-0.006
-567.617	-94.775	0.285	-0.077
-566.602	32.976	0.071	0.061
-565.588	800.000	-0.084	-0.330
-564.573	800.000	-0.077	0.224
-563.558	-200.000	0.010	-0.181
-562.544	-161.988	-0.237	0.012
-561.529	75.959	-0.145	0.153
-560.515	-53.562	0.431	-0.197
-559.500	-136.353	0.135	0.016
-558.485	718.199	-0.017	-0.046
-557.471	153.042	-0.205	-0.279
-556.456	9.431	-0.151	-0.114
-555.442	-200.000	0.048	0.227
-554.427	-78.084	-0.139	-0.048
-553.412	800.000	0.059	-0.229
-552.398	733.911	0.016	-0.042
-551.383	-81.756	0.044	-0.014
-550.369	180.603	-0.070	0.102
-549.354	463.039	-0.078	0.174
-548.339	430.092	-0.079	0.170
-547.325	160.671	0.113	-0.157
-546.310	-106.361	-0.304	0.068
-545.296	-59.789	0.263	-0.112
-544.281	-98.502	0.220	-0.056
-543.266	144.432	-0.069	0.091
-542.252	-200.000	0.062	0.301
-541.237	-178.040	0.265	-0.006
-540.223	-200.000	0.019	-0.171
-539.208	-160.504	-0.349	-0.019
-538.193	-197.231	0.268	-0.002
-537.179	-146.112	0.401	-0.035
-536.164	-200.000	-0.035	-0.419
-535.150	-109.389	-0.168	-0.036
-534.135	-43.959	0.230	-0.116
-533.121	240.875	0.134	0.223
-532.106	475.090	0.176	-0.395
-531.091	-25.232	-0.185	-0.109
-530.077	102.545	0.229	-0.266
-529.062	-81.980	0.169	0.055
-528.048	559.682	-0.104	-0.250
-527.033	-26.339	-0.344	-0.201
-526.018	-161.333	-0.387	0.020
-525.004	-66.570	0.147	0.058
-523.989	-200.000	-0.043	0.307
-522.975	-11.444	-0.150	-0.098
-521.960	-1.501	-0.039	-0.028
-520.945	236.557	-0.083	-0.138
-519.931	21.431	-0.088	-0.071
-518.916	211.403	0.063	-0.099
-517.902	-50.844	0.123	-0.057
-516.887	800.000	-0.009	-0.034
-515.872	800.000	0.091	0.301
-514.858	86.953	-0.132	0.145
-513.843	-111.889	0.126	-0.025
-512.829	219.125	0.100	0.159
-511.814	-68.858	-0.368	-0.141
-510.799	800.000	0.110	-0.318
-509.785	151.968	0.057	-0.078
-508.770	800.000	-0.046	0.135
-507.756	-130.895	-0.169	0.022
-506.741	800.000	-0.018	-0.079
-505.726	-130.506	-0.146	-0.020
-504.712	-184.700	-0.099	0.002
-503.697	126.284	-0.216	-0.273
-502.683	-19.783	-0.048	-0.029
-501.668	71.212	0.275	0.284
-500.653	-160.975	-0.029	-0.002
-499.639	336.562	0.044	0.084
-498.624	-107.690	-0.286	0.062
-497.610	494.465	0.173	0.395
-496.595	-58.280	-0.098	0.042
-495.581	-200.000	-0.011	-0.156
-494.566	139.383	-0.133	-0.174
-493.551	-200.000	-0.018	0.221
-492.537	-155.835	0.326	0.021
-491.522	-177.952	0.165	-0.004
-490.508	-173.812	0.340	0.010
-489.493	218.014	0.010	0.016
-488.478	-54.006	-0.369	-0.167
-487.464	401.309	0.075	0.158
-486.449	34.583	-0.217	-0.189
-485.435	-200.000	-0.005	0.056
-484.420	-74.092	0.112	-0.040
-483.405	333.185	-0.111	-0.213
-482.391	-200.000	-0.012	-0.108
-481.376	-142.499	-0.121	-0.012
-480.362	-113.104	0.182	-0.036
-479.347	451.315	-0.075	0.165
-478.332	28.812	0.149	0.126
-477.318	-68.093	-0.150	-0.058
-476.303	48.832	-0.129	-0.120
-475.289	138.443	-0.187	-0.245
-474.274	-16.494	-0.520	-0.328
-473.259	152.684	-0.172	-0.234
-472.245	206.266	0.195	-0.302
-471.230	20.439	0.179	0.144
-470.216	413.140	0.157	0.333
-469.201	68.529	-0.103	0.105
-468.186	549.000	0.198	0.472
-467.172	-91.454	0.401	-0.114
-466.157	-0.416	0.122	0.086
-465.143	-17.842	0.091	0.056
-464.128	-70.209	0.135	0.051
-463.113	95.104	-0.195	-0.221
-462.099	-88.418	-0.407	-0.121
-461.084	-148.071	-0.109	0.009
-460.070	-200.000	-0.009	0.080
-459.055	-200.000	-0.021	0.119
-458.040	141.015	-0.288	0.379
-457.026	800.000	-0.087	0.302
-456.011	100.428	0.119	-0.138
-454.997	-101.636	-0.172	0.041
-453.982	-77.671	-0.324	0.112
-452.968	-45.420	0.305	0.150
-451.953	-200.000	0.001	-0.119
-450.938	-200.000	0.026	-0.419
-449.924	-91.593	0.174	-0.049
-448.909	-16.648	0.128	-0.080
-447.895	-32.955	-0.121	0.067
-446.880	-200.000	-0.001	0.207
-445.865	56.581	0.147	0.142
-444.851	11.188	0.310	-0.236
-443.836	-200.000	0.016	-0.330
-442.822	-60.464	-0.168	-0.071
-441.807	-87.362	0.087	-0.026
-440.792	-55.667	0.342	0.152
-439.778	724.329	-0.033	0.088
-438.763	-169.927	0.144	-0.005
-437.749	800.000	-0.076	0.235
-436.734	388.378	-0.150	0.308
-435.719	-187.728	-0.166	0.002
-434.705	-200.000	-0.008	-0.129
-433.690	-54.866	0.298	0.133
-432.676	-200.000	-0.005	0.068
-431.661	372.820	-0.031	-0.062
-430.646	19.632	-0.273	-0.218
-429.632	124.018	-0.079	-0.099
-428.617	-34.042	0.319	0.174
-427.603	-200.000	0.004	0.092
-426.588	-86.474	0.234	-0.071
-425.573	-200.000	-0.002	0.182
-424.559	591.550	0.040	-0.098
-423.544	-68.773	0.137	0.052
-422.530	380.042	0.074	0.151
-421.515	-45.537	-0.198	-0.098
-420.500	4.540	0.035	-0.026
-419.486	-101.266	0.089	-0.022
-418.471	-98.724	-0.308	0.078
-417.457	-175.493	-0.128	-0.003
-416.442	-200.000	0.025	-0.368
-415.428	-200.000	-0.041	0.179
-414.413	-200.000	0.035	-0.202
-413.398	200.115	0.128	-0.195
-412.384	-159.655	0.180	0.010
-411.369	-62.394	-0.073	-0.030
-410.355	-41.917	-0.188	0.096
-409.340	-127.640	-0.267	-0.038
-408.325	-200.000	0.020	0.165
-407.311	318.071	-0.171	-0.322
-406.296	32.938	-0.125	-0.107
-405.282	71.814	0.052	0.054
-404.267	685.658	-0.058	-0.150
-403.252	96.188	0.035	-0.040
-402.238	60.312	0.101	-0.099
-401.223	-12.553	0.041	-0.027
-400.209	-14.982	0.245	0.156
-399.194	19.150	0.061	-0.048
-398.179	-76.385	0.302	-0.105
-397.165	-124.665	-0.392	-0.060
-396.150	-200.000	0.025	-0.205
-395.136	-128.482	0.160	0.023
-394.121	-132.474	-0.181	0.023
-393.106	178.103	0.077	0.112
-392.092	-183.869	0.207	-0.003
-391.077	-200.000	0.017	-0.186
-390.063	11.029	0.189	-0.143
-389.048	-159.361	0.277	0.015
-388.033	-6.281	0.324	0.219
-387.019	-49.709	-0.214	-0.101
-386.004	-147.134	-0.171	-0.014
-384.990	-68.728	0.179	-0.068
-383.975	800.000	-0.090	0.284
-382.960	384.589	-0.018	0.036
-381.946	800.000	0.051	0.217
-380.931	242.418	0.128	-0.212
-379.917	-135.940	-0.198	-0.023
-378.902	800.000	0.018	0.069
-377.888	236.952	-0.052	0.085
-376.873	800.000	-0.022	-0.090
-375.858	-166.533	-0.088	-0.004
-374.844	-200.000	-0.054	0.716
-373.829	340.110	0.143	-0.276
-372.815	51.462	0.260	0.245
-371.800	-97.864	-0.291	0.075
-370.785	-200.000	-0.044	0.201
-369.771	121.909	0.188	0.233
-368.756	157.332	0.199	0.272
-367.742	-200.000	-0.042	0.366
-366.727	-90.420	-0.268	-0.077
-365.712	-200.000	-0.040	-0.351
-364.698	-200.000	0.018	0.182
-363.683	-11.096	-0.101	-0.066
-362.669	-84.672	0.274	0.085
-361.654	27.049	-0.038	0.032
-360.639	198.666	-0.070	-0.106
-359.625	295.704	-0.036	-0.065
-358.610	-200.000	0.024	-0.180
-357.596	-169.638	-0.101	-0.004
-356.581	-36.917	-0.224	-0.119
-355.566	-200.000	0.012	0.170
-354.552	630.297	-0.154	-0.384
-353.537	-16.907	-0.158	-0.099
-352.523	282.964	-0.059	-0.106
-351.508	182.679	0.094	0.137
-350.493	800.000	0.031	-0.101
-349.479	474.331	-0.164	-0.367
-348.464	322.132	-0.094	0.176
-347.450	-3.713	0.161	-0.111
-346.435	256.324	0.213	0.362
-345.420	-79.882	0.258	0.086
-344.406	-70.028	0.361	0.136
-343.391	39.758	-0.233	0.207
-342.377	743.889	-0.046	0.122
-341.362	-155.700	-0.111	-0.007
-340.348	338.564	-0.099	0.190
-339.333	-200.000	-0.020	0.095
-338.318	112.680	0.144	-0.172
-337.304	-200.000	0.029	-0.209
-336.289	-79.914	0.302	-0.100
-335.275	78.396	0.043	-0.045
-334.260	32.503	0.216	-0.185
-333.245	278.138	-0.061	-0.108
-332.231	246.644	0.146	-0.243
-331.216	-56.728	-0.057	-0.025
-330.202	-10.944	0.346	0.226
-329.187	-51.150	-0.105	0.049
-328.172	-14.610	-0.048	0.030
-327.158	773.434	-0.054	-0.147
-326.143	-5.534	0.133	0.090
-325.129	95.154	-0.070	-0.079
-324.114	-37.935	0.142	0.074
-323.099	74.513	0.306	0.318
-322.085	-62.442	0.192	0.079
-321.070	445.382	-0.068	-0.148
-320.056	277.057	-0.053	0.094
-319.041	-21.365	-0.143	0.087
-318.026	800.000	0.059	0.180
-317.012	583.853	-0.033	0.080
-315.997	-200.000	0.113	0.000
-314.983	27.896	0.260	-0.217
-313.968	-112.751	-0.099	0.019
-312.953	50.053	0.238	-0.222
-311.939	-109.906	-0.453	0.094
-310.924	75.818	-0.162	0.169
-309.910	800.000	-0.085	0.306
-308.895	777.910	-0.058	-0.155
-307.880	-28.770	0.256	0.145
-306.866	155.142	0.148	0.201
-305.851	-106.938	0.421	-0.092
-304.837	273.441	0.067	0.116
-303.822	470.992	0.081	-0.180
-302.807	-100.662	0.157	-0.038
-301.793	-77.078	0.364	-0.125
-300.778	105.540	-0.255	0.298
-299.764	-200.000	0.008	-0.301
-298.749	373.893	0.163	-0.328
-297.735	36.914	-0.147	0.129
-296.720	-74.908	0.105	-0.037
-295.705	-32.705	-0.104	-0.057
-294.691	800.000	-0.069	-0.190
-293.676	-96.543	-0.081	0.021
-292.662	-60.775	0.235	-0.098
-291.647	-62.897	-0.214	-0.087
-290.632	123.400	-0.252	-0.312
-289.618	81.704	0.158	0.169
-288.603	-167.899	-0.254	-0.010
-287.589	237.959	0.171	-0.281
-286.574	-34.615	0.283	-0.153
-285.559	-200.000	0.018	-0.278
-284.545	-127.783	-0.088	0.013
-283.530	800.000	-0.093	0.277
-282.516	-200.000	0.059	-0.347
-281.501	800.000	0.110	-0.413
-280.486	800.000	0.062	-0.198
-279.472	-200.000	0.030	0.387
-278.457	14.912	0.066	0.051
-277.443	800.000	-0.081	-0.260
-276.428	37.523	0.176	-0.154
-275.413	153.976	0.223	-0.302
-274.399	-200.000	0.034	0.232
-273.384	-186.044	0.413	-0.006
-272.370	-200.000	-0.015	-0.260
-271.355	82.818	0.108	0.116
-270.340	-122.575	0.166	0.027
-269.326	192.003	-0.067	-0.100
-268.311	-109.836	0.454	0.094
-267.297	10.711	0.121	0.091
-266.282	-200.000	-0.010	0.306
-265.267	-76.677	-0.245	-0.085
-264.253	800.000	0.049	0.199
-263.238	20.059	0.038	0.030
-262.224	800.000	-0.053	-0.218
-261.209	509.959	-0.035	-0.080
-260.195	197.848	-0.092	0.138
-259.180	432.673	0.017	0.037
-258.165	-138.412	-0.215	0.023
-257.151	-24.853	-0.329	0.193
-256.136	14.648	-0.098	-0.075
-255.122	-70.821	-0.491	0.182
-254.107	-200.000	-0.012	0.144
-253.092	800.000	0.039	-0.120
-252.078	-200.000	0.036	-0.215
-251.063	-65.442	-0.289	-0.115
-250.049	-200.000	-0.048	0.405
-249.034	-40.268	0.347	0.178
-248.019	-25.417	0.163	0.095
-247.005	-200.000	-0.004	-0.253
-245.990	71.688	-0.218	0.223
-244.976	800.000	0.014	-0.057
-243.961	-93.210	-0.184	-0.050
-242.946	87.303	0.171	-0.186
-241.932	-99.803	0.329	-0.081
-240.917	-120.810	0.161	0.027
-239.903	-82.689	0.243	0.078
-238.888	-200.000	0.015	-0.281
-237.873	-99.974	-0.230	-0.057
-236.859	-96.705	0.091	-0.024
-235.844	13.829	-0.085	0.065
-234.830	-200.000	-0.050	0.223
-233.815	-200.000	-0.088	0.473
-232.800	22.781	-0.178	0.144
-231.786	-59.357	0.165	0.070
-230.771	-2.550	0.253	0.175
-229.757	-78.691	0.409	0.138
-228.742	-26.436	0.234	-0.135
-227.727	-91.506	-0.178	0.050
-226.713	-134.804	-0.109	0.013
-225.698	-1.352	-0.359	-0.249
-224.684	800.000	0.070	-0.200
-223.669	800.000	-0.100	-0.367
-222.655	-144.689	0.459	-0.042
-221.640	-135.350	-0.258	0.030
-220.625	515.064	-0.084	0.194
-219.611	800.000	0.083	-0.237
-218.596	356.870	0.116	-0.227
-217.582	800.000	0.021	0.073
-216.567	-109.921	-0.181	0.037
-215.552	32.107	0.085	0.072
-214.538	-174.331	-0.186	0.005
-213.523	800.000	0.043	0.158
-212.509	-130.909	-0.365	0.048
-211.494	239.200	0.035	0.058
-210.479	363.891	0.148	0.294
-209.465	-86.429	0.143	0.043
-208.450	180.630	0.052	-0.075
-207.436	-147.030	-0.420	0.035
-206.421	-200.000	0.046	-0.412
-205.406	-23.910	0.197	0.116
-204.392	-200.000	0.081	-0.365
-203.377	407.547	-0.079	0.165
-202.363	78.669	-0.166	0.174
-201.348	-78.960	-0.335	-0.112
-200.333	-200.000	-0.015	0.134
-199.319	7.301	-0.151	-0.111
-198.304	4.824	-0.242	-0.175
-197.290	-132.868	0.112	0.014
-196.275	-200.000	-0.007	0.127
-195.260	123.537	0.178	0.220
-194.246	-66.688	-0.134	0.052
-193.231	800.000	0.041	-0.112
-192.217	-61.095	-0.247	-0.103
-191.202	46.985	0.233	-0.213
-190.187	635.546	-0.097	-0.241
-189.173	-163.380	0.150	-0.007
-188.158	181.855	0.126	-0.183
-187.144	91.602	-0.136	-0.150
-186.129	-22.820	-0.483	-0.287
-185.114	800.000	-0.046	0.166
-184.100	118.699	0.220	0.267
-183.085	-148.200	-0.087	0.007
-182.071	344.714	-0.076	0.147
-181.056	800.000	-0.060	0.180
-180.042	-200.000	0.008	-0.067
-179.027	81.787	-0.200	0.213
-178.012	263.193	-0.096	-0.163
-176.998	-61.990	-0.261	0.107
-175.983	-100.825	-0.311	-0.075
-174.969	-200.000	0.015	-0.101
-173.954	383.092	-0.079	-0.160
-172.939	233.631	-0.092	-0.149
-171.925	445.782	0.282	0.609
-170.910	42.490	0.047	-0.042
-169.896	-63.886	-0.326	0.131
-168.881	-200.000	-0.002	0.132
-167.866	28.347	-0.420	0.349
-166.852	-173.212	0.171	0.005
-165.837	-200.000	-0.005	0.113
-164.823	-200.000	-0.018	-0.207
-163.808	-200.000	-0.013	0.475
-162.793	38.715	0.304	-0.266
-161.779	-53.736	0.238	0.107
-160.764	-200.000	-0.069	0.379
-159.750	800.000	0.125	0.471
-158.735	-6.684	0.269	0.180
-157.720	-200.000	0.074	-0.342
-156.706	-200.000	0.017	-0.300
-155.691	-200.000	0.066	-0.353
-154.677	-200.000	-0.052	0.238
-153.662	-200.000	0.046	0.482
-152.647	800.000	-0.086	0.272
-151.633	43.586	-0.197	-0.177
-150.618	178.469	0.170	0.244
-149.604	-200.000	0.060	-0.281
-148.589	-158.746	-0.154	-0.009
-147.574	218.435	-0.227	0.357
-146.560	-28.206	0.319	-0.181
-145.545	117.802	0.150	-0.181
-144.531	505.030	-0.074	0.169
-143.516	-62.714	-0.146	-0.059
-142.502	-164.833	0.140	-0.006
-141.487	-200.000	-0.013	0.185
-140.472	-200.000	-0.018	0.136
-139.458	263.551	0.087	0.148
-138.443	27.044	0.053	0.044
-137.429	-53.558	-0.440	0.198
-136.414	-61.439	0.451	-0.186
-135.399	-200.000	-0.009	-0.176
-134.385	-176.059	0.329	0.009
-133.370	-65.463	0.310	-0.122
-132.356	88.005	-0.068	0.074
-131.341	255.288	-0.080	-0.134
-130.326	-76.159	0.273	0.095
-129.312	800.000	-0.046	0.155
-128.297	-52.524	0.385	-0.175
-127.283	-200.000	-0.014	0.265
-126.268	-110.845	0.127	-0.026
-125.253	399.876	-0.081	-0.166
-124.239	-83.421	-0.169	-0.053
-123.224	46.218	0.223	0.203
-122.210	-200.000	0.001	0.042
