DTS Sentinel unit serial number:	SN413079Multiplexer serial number:	ORYXHardware model number:	OX4-SRSoftware version number:	ORYX F/W v4.00 Oryx Data Collector v3.7.2.0data status	okinstallation	princeton_trtdifferential loss correction	single-endedforward channel	channel 4reverse channel	N/Adate	2019/09/14time	18:13:35forward acquisition time	60.00reverse acquisition time	0.00gamma	496.2192k internal	0.2298k external	0.2298temperature offset calibration	1.0110default loss term (dB/km)	0.3790temperature slope calibration	1.0000multiplexer offset coefficient	1.0000multiplexer slope coefficient	1.0000fibre end	0.00T internal ref (°C)	37.06T ext. ref 1 (°C)	4.95T ext. ref 2 (°C)	31.25length (m)	temperature (°C)	Stokes	anti-Stokes-747.200	505.303	-0.106	0.250
-746.185	-200.000	0.013	0.061
-745.171	-44.921	-0.144	0.073
-744.156	66.005	0.076	0.079
-743.142	-147.755	-0.132	-0.011
-742.127	89.149	0.129	0.147
-741.112	-66.396	0.171	-0.070
-740.098	-115.302	0.300	0.058
-739.083	168.875	0.134	0.195
-738.069	-127.963	0.182	-0.027
-737.054	264.109	0.055	-0.098
-736.039	800.000	0.096	-0.298
-735.025	-200.000	0.016	0.362
-734.010	-200.000	-0.019	0.242
-732.996	68.465	-0.109	-0.114
-731.981	389.078	0.049	-0.103
-730.966	120.290	-0.128	-0.162
-729.952	182.936	0.390	-0.588
-728.937	344.511	-0.052	-0.104
-727.923	-73.801	0.134	-0.050
-726.908	573.501	0.067	-0.166
-725.894	-86.249	0.217	-0.068
-724.879	-200.000	-0.012	-0.162
-723.864	65.366	-0.123	-0.127
-722.850	41.576	-0.130	-0.120
-721.835	-32.436	-0.083	-0.047
-720.821	-17.546	-0.291	-0.187
-719.806	29.582	-0.188	-0.163
-718.791	70.433	0.298	-0.315
-717.777	-200.000	-0.013	-0.094
-716.762	-126.684	-0.279	0.042
-715.748	-159.657	-0.516	-0.029
-714.733	800.000	0.092	-0.281
-713.718	-121.275	0.263	0.045
-712.704	-200.000	-0.028	0.280
-711.689	107.015	0.160	-0.193
-710.675	800.000	0.034	0.126
-709.660	173.561	-0.113	0.166
-708.645	15.352	0.103	-0.083
-707.631	-200.000	0.029	-0.191
-706.616	800.000	0.093	-0.292
-705.602	-66.920	0.119	0.048
-704.587	-162.133	-0.430	-0.022
-703.572	-128.847	-0.223	-0.032
-702.558	-33.816	-0.067	-0.037
-701.543	-200.000	0.035	-0.275
-700.529	191.206	0.187	0.287
-699.514	382.452	-0.073	-0.152
-698.499	-200.000	0.034	-0.610
-697.485	-81.637	0.203	-0.068
-696.470	535.616	0.164	-0.396
-695.456	800.000	-0.101	-0.283
-694.441	-37.329	0.225	-0.122
-693.426	800.000	-0.059	-0.216
-692.412	4.097	-0.205	-0.153
-691.397	-200.000	0.004	-0.237
-690.383	-200.000	-0.020	0.111
-689.368	-200.000	0.066	-0.410
-688.354	407.376	-0.017	-0.037
-687.339	-200.000	-0.065	-0.321
-686.324	125.730	0.119	0.154
-685.310	-77.272	0.170	0.060
-684.295	34.499	0.090	0.080
-683.281	800.000	0.079	-0.327
-682.266	-2.323	-0.092	-0.066
-681.251	800.000	-0.019	0.061
-680.237	413.134	-0.134	-0.290
-679.222	-195.150	-0.182	0.001
-678.208	-64.930	-0.201	-0.083
-677.193	-60.987	0.168	0.072
-676.178	342.364	-0.104	-0.207
-675.164	645.469	0.096	0.250
-674.149	800.000	-0.134	-0.404
-673.135	249.669	0.034	0.058
-672.120	-200.000	-0.011	0.426
-671.105	-34.154	0.305	0.171
-670.091	-78.462	-0.277	0.097
-669.076	-50.532	0.299	-0.143
-668.062	429.275	0.072	-0.159
-667.047	-200.000	-0.017	0.262
-666.032	25.849	-0.230	0.195
-665.018	-30.836	0.312	0.180
-664.003	-200.000	0.043	-0.251
-662.989	-89.214	0.091	0.027
-661.974	-200.000	-0.013	0.063
-660.959	800.000	0.064	-0.221
-659.945	147.540	-0.190	0.261
-658.930	-92.164	-0.074	-0.021
-657.916	800.000	0.029	-0.089
-656.901	-177.775	-0.130	-0.003
-655.886	93.869	0.057	0.066
-654.872	-11.445	-0.100	0.067
-653.857	-78.354	-0.241	0.084
-652.843	-200.000	0.012	-0.195
-651.828	146.027	-0.205	-0.280
-650.814	3.637	-0.150	-0.111
-649.799	-200.000	-0.034	0.195
-648.784	-143.684	0.219	-0.021
-647.770	-108.407	-0.266	0.058
-646.755	-128.929	-0.084	-0.012
-645.741	800.000	-0.065	0.192
-644.726	800.000	0.051	0.187
-643.711	75.458	0.153	0.164
-642.697	342.546	0.088	-0.175
-641.682	-126.485	-0.332	0.050
-640.668	-50.678	-0.252	-0.121
-639.653	800.000	0.019	0.079
-638.638	-3.042	0.258	0.183
-637.624	185.361	0.116	0.175
-636.609	255.514	-0.159	-0.276
-635.595	-200.000	-0.035	-0.356
-634.580	61.042	0.071	-0.072
-633.565	138.348	-0.193	-0.258
-632.551	26.026	-0.075	-0.063
-631.536	-46.272	-0.085	0.042
-630.522	-93.715	0.026	-0.007
-629.507	5.935	0.149	-0.112
-628.492	-200.000	-0.014	0.074
-627.478	800.000	0.047	0.192
-626.463	38.166	-0.186	0.168
-625.449	-30.593	-0.154	0.088
-624.434	-61.879	-0.310	-0.132
-623.419	-121.075	0.085	0.014
-622.405	252.577	0.121	-0.209
-621.390	146.081	-0.187	-0.255
-620.376	214.014	-0.112	-0.181
-619.361	-132.946	0.393	-0.051
-618.346	-200.000	0.026	0.210
-617.332	-15.534	0.180	0.117
-616.317	-77.265	-0.269	0.095
-615.303	237.069	-0.208	0.350
-614.288	61.397	0.081	-0.081
-613.273	5.481	-0.189	-0.142
-612.259	-34.201	0.110	0.061
-611.244	186.940	0.130	0.197
-610.230	372.166	-0.046	0.096
-609.215	-200.000	-0.015	0.258
-608.201	-185.146	-0.080	-0.001
-607.186	145.677	-0.028	0.038
-606.171	112.876	0.193	0.238
-605.157	-75.429	-0.258	0.093
-604.142	221.190	0.106	0.173
-603.128	-109.434	-0.080	0.017
-602.113	-113.761	-0.272	-0.054
-601.098	-12.079	0.210	-0.140
-600.084	-82.140	-0.236	0.078
-599.069	129.768	0.097	-0.126
-598.055	-123.160	-0.104	-0.017
-597.040	-200.000	-0.008	-0.055
-596.025	-196.804	-0.167	-0.001
-595.011	94.351	0.081	-0.094
-593.996	-200.000	-0.018	0.102
-592.982	800.000	-0.049	0.209
-591.967	660.008	0.048	-0.126
-590.952	13.798	0.285	0.225
-589.938	800.000	-0.073	0.304
-588.923	-58.294	-0.236	0.104
-587.909	800.000	0.033	-0.127
-586.894	-200.000	-0.039	-0.267
-585.879	-54.494	-0.182	0.084
-584.865	15.821	-0.206	0.165
-583.850	-29.755	0.154	0.089
-582.836	-39.271	-0.054	0.029
-581.821	-143.674	-0.239	0.023
-580.806	-157.838	-0.255	0.015
-579.792	-200.000	0.037	0.193
-578.777	-74.870	0.164	-0.060
-577.763	249.338	0.233	-0.400
-576.748	646.062	-0.047	-0.121
-575.733	-200.000	0.042	-0.197
-574.719	-125.660	0.248	-0.038
-573.704	18.705	-0.436	-0.354
-572.690	22.107	-0.256	-0.212
-571.675	770.989	-0.090	-0.247
-570.661	-200.000	-0.032	0.310
-569.646	497.501	0.076	-0.176
-568.631	216.481	0.022	0.035
-567.617	280.492	-0.138	-0.251
-566.602	295.575	-0.159	-0.294
-565.588	-129.473	-0.219	-0.031
-564.573	-35.016	0.200	-0.111
-563.558	246.679	0.175	-0.299
-562.544	122.082	0.059	-0.075
-561.529	-46.658	-0.199	-0.099
-560.515	-200.000	0.009	-0.343
-559.500	-55.267	-0.150	-0.068
-558.485	-200.000	-0.046	0.446
-557.471	-200.000	0.022	0.120
-556.456	-40.173	-0.301	0.159
-555.442	378.267	-0.070	0.145
-554.427	-134.997	-0.170	0.021
-553.412	-200.000	0.005	-0.138
-552.398	-200.000	-0.020	-0.438
-551.383	-72.520	0.257	-0.096
-550.369	177.328	-0.028	-0.041
-549.354	452.004	-0.098	-0.218
-548.339	800.000	0.109	0.383
-547.325	-200.000	-0.008	-0.165
-546.310	-70.832	0.025	0.010
-545.296	136.656	-0.190	0.252
-544.281	164.860	0.220	0.314
-543.266	-76.772	-0.214	0.076
-542.252	125.422	0.216	-0.276
-541.237	107.547	-0.190	-0.229
-540.223	-200.000	0.031	-0.330
-539.208	118.176	0.107	-0.133
-538.193	-200.000	-0.030	0.145
-537.179	-10.538	-0.277	-0.186
-536.164	89.687	0.107	-0.120
-535.150	262.495	-0.055	0.096
-534.135	-200.000	-0.048	0.213
-533.121	-89.310	0.263	0.078
-532.106	-100.871	-0.252	0.063
-531.091	800.000	-0.031	-0.117
-530.077	-84.570	-0.262	-0.084
-529.062	592.501	0.127	0.317
-528.048	259.108	-0.056	-0.097
-527.033	-102.909	-0.104	-0.025
-526.018	-8.212	-0.301	0.205
-525.004	-200.000	0.042	-0.422
-523.989	73.515	-0.045	0.048
-522.975	-126.911	-0.376	-0.056
-521.960	800.000	0.109	-0.428
-520.945	149.357	-0.067	-0.091
-519.931	-94.265	-0.148	0.041
-518.916	-200.000	0.019	0.116
-517.902	37.118	0.056	0.050
-516.887	-75.311	-0.210	-0.076
-515.872	1.583	-0.160	-0.117
-514.858	110.006	0.103	-0.125
-513.843	-18.055	0.135	0.085
-512.829	-2.374	-0.055	-0.039
-511.814	-144.863	-0.273	0.025
-510.799	-196.314	-0.139	-0.001
-509.785	-60.341	-0.052	-0.022
-508.770	-147.942	-0.184	-0.015
-507.756	-172.931	0.040	-0.001
-506.741	800.000	0.092	-0.337
-505.726	219.166	-0.073	-0.118
-504.712	-200.000	0.005	-0.342
-503.697	557.116	0.181	0.442
-502.683	-200.000	0.004	-0.111
-501.668	-104.813	0.206	0.048
-500.653	590.411	0.088	-0.220
-499.639	800.000	-0.017	0.055
-498.624	-200.000	0.004	0.123
-497.610	-0.518	0.155	-0.111
-496.595	10.542	-0.279	0.215
-495.581	800.000	-0.012	-0.036
-494.566	-62.284	0.236	-0.099
-493.551	37.006	0.151	0.135
-492.537	-134.676	-0.102	-0.013
-491.522	-82.510	-0.133	-0.043
-490.508	800.000	0.110	0.335
-489.493	67.375	0.045	-0.047
-488.478	-54.315	-0.165	-0.076
-487.464	-11.178	-0.277	0.184
-486.449	-200.000	0.059	0.322
-485.435	-39.627	0.254	0.135
-484.420	-21.153	0.141	-0.087
-483.405	91.889	-0.110	-0.125
-482.391	195.599	-0.192	0.295
-481.376	800.000	0.029	-0.111
-480.362	61.393	0.330	-0.331
-479.347	179.919	0.101	0.149
-478.332	800.000	0.092	0.342
-477.318	226.225	-0.120	0.196
-476.303	-200.000	0.015	0.119
-475.289	57.750	-0.134	0.133
-474.274	-46.156	0.058	-0.029
-473.259	415.923	0.006	-0.012
-472.245	628.236	0.074	0.188
-471.230	72.665	0.147	-0.155
-470.216	-76.769	-0.253	0.090
-469.201	148.794	-0.069	0.094
-468.186	-82.597	0.278	-0.091
-467.172	-103.182	-0.105	-0.025
-466.157	800.000	-0.041	0.162
-465.143	600.488	0.060	-0.151
-464.128	19.907	0.068	0.056
-463.113	90.946	-0.024	-0.027
-462.099	527.302	-0.047	-0.113
-461.084	-8.417	-0.332	-0.226
-460.070	-119.777	-0.251	-0.044
-459.055	-28.768	-0.163	0.095
-458.040	-90.342	-0.163	0.048
-457.026	-88.479	-0.188	0.057
-456.011	167.179	0.136	0.195
-454.997	77.595	-0.040	0.043
-453.982	164.176	0.182	-0.259
-452.968	-200.000	-0.071	0.421
-451.953	155.819	0.064	0.089
-450.938	410.491	-0.101	0.217
-449.924	-93.919	-0.234	0.065
-448.909	298.843	-0.069	-0.128
-447.895	287.112	0.150	0.274
-446.880	800.000	-0.084	-0.311
-445.865	42.629	-0.145	0.133
-444.851	-200.000	0.070	-0.314
-443.836	-6.963	0.222	-0.152
-442.822	320.498	0.174	-0.334
-441.807	432.462	0.020	0.044
-440.792	-106.158	0.422	-0.096
-439.778	151.426	-0.060	-0.082
-438.763	-75.509	-0.215	0.077
-437.749	-61.776	0.162	-0.068
-436.734	-200.000	-0.002	-0.209
-435.719	105.781	0.115	0.138
-434.705	800.000	0.021	0.086
-433.690	-3.914	0.109	-0.077
-432.676	4.661	-0.186	0.138
-431.661	111.947	0.226	-0.276
-430.646	800.000	0.062	-0.175
-429.632	-200.000	0.070	0.453
-428.617	800.000	-0.050	0.184
-427.603	-93.346	-0.083	0.023
-426.588	-200.000	-0.014	0.072
-425.573	-4.601	-0.245	-0.170
-424.559	-102.980	0.090	-0.022
-423.544	96.248	-0.340	-0.392
-422.530	132.075	-0.156	0.203
-421.515	-53.396	0.238	0.110
-420.500	-200.000	-0.037	0.170
-419.486	317.251	-0.056	-0.106
-418.471	-3.370	0.222	-0.156
-417.457	48.732	-0.102	0.096
-416.442	800.000	0.083	-0.279
-415.428	-200.000	-0.036	-0.372
-414.413	-113.380	-0.207	0.041
-413.398	261.185	-0.169	0.294
-412.384	683.131	0.072	-0.188
-411.369	-70.723	-0.238	-0.091
-410.355	11.679	0.235	-0.182
-409.340	133.149	0.023	-0.030
-408.325	-200.000	0.035	0.636
-407.311	-86.120	0.176	-0.055
-406.296	1.584	0.042	0.030
-405.282	-200.000	0.026	0.173
-404.267	-43.780	-0.109	0.055
-403.252	567.671	0.033	-0.080
-402.238	-8.125	-0.161	-0.110
-401.223	-28.071	0.272	-0.159
-400.209	297.093	0.072	0.134
-399.194	-124.252	-0.089	-0.014
-398.179	-21.927	-0.154	-0.094
-397.165	-200.000	-0.065	0.320
-396.150	-34.530	0.436	-0.241
-395.136	298.396	-0.059	0.108
-394.121	-73.437	0.184	-0.068
-393.106	-200.000	-0.001	0.336
-392.092	131.425	0.095	-0.122
-391.077	-10.785	0.084	-0.056
-390.063	-99.913	-0.077	-0.019
-389.048	183.994	0.160	-0.239
-388.033	231.283	0.132	-0.219
-387.019	-49.962	-0.148	-0.071
-386.004	274.174	-0.024	-0.043
-384.990	-200.000	0.012	0.103
-383.975	52.358	0.068	0.065
-382.960	-108.246	-0.174	0.038
-381.946	47.381	0.221	-0.207
-380.931	310.448	-0.078	-0.146
-379.917	-200.000	-0.010	-0.303
-378.902	-57.368	-0.369	-0.163
-377.888	-51.445	0.169	0.079
-376.873	-200.000	0.042	0.208
-375.858	-106.929	0.172	-0.038
-374.844	-28.803	-0.120	-0.069
-373.829	800.000	-0.073	-0.266
-372.815	-89.975	-0.052	0.015
-371.800	-97.845	-0.060	-0.016
-370.785	-62.932	0.395	-0.164
-369.771	-200.000	0.039	0.519
-368.756	468.839	0.059	0.134
-367.742	-200.000	0.015	-0.272
-366.727	431.207	0.023	0.049
-365.712	74.316	-0.076	-0.080
-364.698	-58.364	-0.199	-0.087
-363.683	-115.996	0.122	0.023
-362.669	800.000	-0.136	0.391
-361.654	82.925	0.060	0.065
-360.639	75.517	0.212	0.225
-359.625	-55.992	0.226	-0.101
-358.610	-2.607	-0.009	0.006
-357.596	-121.349	-0.253	0.042
-356.581	628.947	0.115	0.292
-355.566	357.067	-0.082	-0.164
-354.552	-200.000	0.001	0.208
-353.537	-153.403	0.324	0.023
-352.523	-200.000	-0.001	0.395
-351.508	190.233	0.120	0.182
-350.493	5.845	0.112	-0.083
-349.479	-22.802	-0.175	-0.106
-348.464	-175.920	0.263	-0.007
-347.450	138.311	0.119	0.158
-346.435	390.270	0.069	-0.143
-345.420	-106.196	-0.343	0.077
-344.406	222.991	0.092	0.150
-343.391	-200.000	0.010	-0.049
-342.377	-56.132	0.137	0.061
-341.362	-200.000	0.002	0.279
-340.348	-131.131	0.304	-0.041
-339.333	304.818	0.052	0.097
-338.318	800.000	-0.041	-0.168
-337.304	-20.834	0.219	0.135
-336.289	164.929	-0.169	-0.239
-335.275	-150.624	-0.189	0.014
-334.260	-111.994	0.156	0.031
-333.245	40.502	-0.064	-0.058
-332.231	-7.978	0.146	-0.099
-331.216	256.809	-0.019	0.034
-330.202	288.250	-0.067	0.121
-329.187	107.409	0.154	0.184
-328.172	170.478	-0.103	0.148
-327.158	800.000	-0.074	-0.225
-326.143	334.236	0.239	-0.465
-325.129	-41.902	0.105	-0.054
-324.114	216.994	0.137	-0.219
-323.099	-145.511	-0.310	0.028
-322.085	-200.000	-0.025	0.144
-321.070	-112.080	-0.379	-0.077
-320.056	294.871	0.019	0.035
-319.041	29.421	0.206	0.175
-318.026	329.528	0.086	0.166
-317.012	-176.587	0.226	-0.006
-315.997	-137.989	0.399	0.045
-314.983	-86.894	-0.085	0.026
-313.968	-24.582	0.191	-0.114
-312.953	-146.253	0.378	0.033
-311.939	-200.000	-0.014	-0.172
-310.924	-115.464	0.170	-0.032
-309.910	-168.448	0.237	0.009
-308.895	-189.523	-0.300	0.003
-307.880	-75.218	0.171	0.061
-306.866	800.000	0.066	0.212
-305.851	-89.682	-0.192	-0.057
-304.837	744.527	-0.025	-0.066
-303.822	-89.686	-0.127	0.037
-302.807	427.508	-0.154	-0.333
-301.793	800.000	0.034	-0.110
-300.778	50.297	-0.200	-0.189
-299.764	13.350	0.167	0.130
-298.749	135.719	-0.191	0.249
-297.735	-44.409	0.288	-0.145
-296.720	-200.000	0.011	0.097
-295.705	77.468	0.145	0.155
-294.691	-128.345	0.328	0.047
-293.676	800.000	-0.050	-0.160
-292.662	-200.000	-0.018	-0.113
-291.647	-105.753	0.190	-0.043
-290.632	19.808	-0.359	-0.290
-289.618	489.726	-0.026	-0.059
-288.603	234.045	-0.090	-0.148
-287.589	-12.159	-0.190	-0.125
-286.574	-117.555	0.252	0.046
-285.559	800.000	-0.106	0.299
-284.545	304.735	-0.186	-0.346
-283.530	800.000	-0.042	-0.181
-282.516	50.869	-0.047	-0.045
-281.501	138.237	0.266	-0.350
-280.486	-103.700	0.304	-0.071
-279.472	-162.945	0.114	-0.006
-278.457	-109.934	0.042	-0.009
-277.443	-74.777	-0.119	0.043
-276.428	800.000	0.080	0.263
-275.413	8.305	0.182	-0.137
-274.399	-200.000	-0.021	-0.295
-273.384	6.129	0.281	0.209
-272.370	800.000	0.031	0.137
-271.355	-87.482	0.156	0.047
-270.340	-200.000	0.344	-0.001
-269.326	-15.971	0.024	0.015
-268.311	146.564	0.240	0.323
-267.297	-52.950	-0.048	0.022
-266.282	-200.000	-0.039	-0.249
-265.267	447.479	-0.213	0.470
-264.253	82.220	-0.163	0.177
-263.238	62.101	-0.080	-0.080
-262.224	-146.808	-0.172	-0.015
-261.209	-132.320	0.147	0.019
-260.195	-102.334	0.246	-0.059
-259.180	226.443	-0.126	0.205
-258.165	-174.133	-0.246	0.007
-257.151	-122.293	0.149	0.024
-256.136	-101.441	-0.115	-0.028
-255.122	-26.988	-0.110	-0.065
-254.107	292.747	0.164	-0.299
-253.092	150.566	0.136	0.185
-252.078	207.409	-0.097	0.152
-251.063	601.100	-0.021	-0.052
-250.049	-121.784	0.026	-0.004
-249.034	-200.000	0.009	-0.083
-248.019	-32.643	-0.112	0.062
-247.005	618.423	0.127	-0.319
-245.990	29.801	0.249	-0.212
-244.976	-200.000	0.073	0.470
-243.961	-56.251	-0.028	-0.012
-242.946	201.790	0.051	0.078
-241.932	685.933	0.053	0.139
-240.917	-114.078	-0.111	-0.022
-239.903	424.331	0.132	0.285
-238.888	343.376	-0.028	0.055
-237.873	154.138	0.232	-0.319
-236.859	-124.331	-0.302	-0.047
-235.844	-71.697	0.248	-0.093
-234.830	-94.309	-0.185	-0.050
-233.815	-87.372	0.161	-0.049
-232.800	-67.872	-0.040	-0.016
-231.786	-109.355	0.402	-0.085
-230.771	-170.895	0.093	0.003
-229.757	-74.672	-0.143	-0.051
-228.742	109.931	0.097	0.117
-227.727	387.614	-0.062	0.129
-226.713	54.548	-0.148	0.142
-225.698	-200.000	0.087	-0.387
-224.684	-141.719	-0.082	0.008
-223.669	-169.801	-0.335	-0.012
-222.655	122.961	0.199	0.249
-221.640	-84.181	-0.310	-0.098
-220.625	68.377	-0.204	0.209
-219.611	-77.219	-0.106	-0.037
-218.596	-2.489	-0.152	0.106
-217.582	-200.000	-0.012	0.078
-216.567	-155.803	0.261	0.017
-215.552	-200.000	-0.016	-0.109
-214.538	-109.700	-0.126	0.026
-213.523	-200.000	-0.036	0.181
-212.509	83.956	-0.059	0.064
-211.494	290.444	-0.027	0.050
-210.479	-104.047	0.057	0.013
-209.465	-200.000	0.006	-0.095
-208.450	800.000	0.044	0.138
-207.436	176.339	-0.154	0.224
-206.421	240.252	-0.026	0.043
-205.406	-29.398	0.261	0.149
-204.392	-1.081	0.216	0.153
-203.377	-200.000	0.005	0.050
-202.363	-89.503	0.239	0.070
-201.348	45.765	0.137	0.127
-200.333	692.738	0.009	0.023
-199.319	136.291	0.158	-0.206
-198.304	-20.521	-0.147	-0.090
-197.290	-200.000	0.076	-0.356
-196.275	136.377	-0.105	-0.137
-195.260	-46.544	0.211	-0.103
-194.246	-81.736	0.173	0.057
-193.231	-146.667	0.206	0.018
-192.217	800.000	-0.016	-0.045
-191.202	38.192	-0.308	-0.274
-190.187	-60.201	-0.168	0.072
-189.173	-200.000	0.069	0.388
-188.158	-107.934	-0.275	-0.060
-187.144	800.000	-0.092	0.291
-186.129	570.126	-0.049	0.120
-185.114	-71.682	-0.206	0.077
-184.100	-85.596	-0.129	0.040
-183.085	32.574	0.277	0.239
-182.071	-200.000	0.008	-0.193
-181.056	-136.795	0.127	-0.015
-180.042	-101.285	0.171	0.042
-179.027	800.000	-0.032	-0.111
-178.012	101.762	0.318	0.370
-176.998	-3.461	-0.298	-0.207
-175.983	800.000	-0.124	-0.472
-174.969	123.937	0.064	0.080
-173.954	-200.000	-0.039	-0.272
-172.939	65.656	0.324	0.328
-171.925	-65.432	0.117	0.047
-170.910	-97.786	0.040	-0.010
-169.896	122.579	0.194	-0.242
-168.881	-200.000	-0.025	0.146
-167.866	272.341	-0.215	0.379
-166.852	227.575	-0.179	0.290
-165.837	-118.686	0.420	0.074
-164.823	-88.630	-0.061	0.018
-163.808	-184.677	-0.023	0.000
-162.793	800.000	-0.036	-0.149
-161.779	-200.000	0.020	-0.152
-160.764	-100.195	-0.018	0.004
-159.750	-200.000	-0.048	-0.464
-158.735	24.789	-0.073	-0.060
-157.720	-9.443	-0.179	-0.119
-156.706	800.000	0.006	-0.027
-155.691	-200.000	0.019	0.249
-154.677	350.244	0.149	0.294
-153.662	29.570	-0.121	0.103
-152.647	-200.000	-0.010	-0.196
-151.633	-200.000	0.016	0.170
-150.618	42.065	0.249	-0.225
-149.604	27.081	-0.334	0.280
-148.589	285.134	-0.037	-0.066
-147.574	154.456	0.159	-0.217
-146.560	-200.000	0.006	0.106
-145.545	-27.088	0.374	-0.217
-144.531	-178.500	0.150	-0.003
-143.516	347.583	-0.098	0.193
-142.502	-21.248	-0.298	-0.181
-141.487	64.406	-0.082	0.082
-140.472	479.656	-0.090	-0.203
-139.458	-72.641	-0.156	-0.057
-138.443	17.380	-0.189	0.150
-137.429	-200.000	0.005	0.121
-136.414	-200.000	0.016	0.230
-135.399	75.522	-0.103	0.108
-134.385	-177.731	0.175	-0.004
-133.370	-200.000	-0.008	-0.289
-132.356	-75.733	-0.276	-0.098
-131.341	197.153	0.046	-0.069
-130.326	512.408	-0.046	0.107
-129.312	81.830	-0.044	-0.048
-128.297	326.928	-0.172	-0.329
-127.283	-200.000	-0.030	0.274
-126.268	182.577	-0.071	0.104
-125.253	603.705	0.093	0.232
-124.239	-90.504	0.103	0.030
-123.224	-62.523	-0.211	0.087
-122.210	800.000	0.066	0.190
