DTS Sentinel unit serial number:	SN413079Multiplexer serial number:	ORYXHardware model number:	OX4-SRSoftware version number:	ORYX F/W v4.00 Oryx Data Collector v3.7.2.0data status	okinstallation	princeton_trtdifferential loss correction	single-endedforward channel	channel 4reverse channel	N/Adate	2019/09/14time	18:49:34forward acquisition time	60.00reverse acquisition time	0.00gamma	496.2192k internal	0.2300k external	0.2300temperature offset calibration	1.0104default loss term (dB/km)	0.3790temperature slope calibration	1.0000multiplexer offset coefficient	1.0000multiplexer slope coefficient	1.0000fibre end	0.00T internal ref (°C)	35.98T ext. ref 1 (°C)	4.89T ext. ref 2 (°C)	29.75length (m)	temperature (°C)	Stokes	anti-Stokes-747.200	-200.000	0.017	-0.090
-746.185	24.390	-0.219	0.185
-745.171	800.000	0.072	0.249
-744.156	-181.828	-0.215	-0.004
-743.142	173.216	0.168	-0.247
-742.127	127.803	0.135	-0.175
-741.112	42.017	-0.101	-0.093
-740.098	31.270	0.229	0.200
-739.083	260.969	0.119	0.210
-738.069	251.089	0.061	0.106
-737.054	-200.000	-0.033	-0.427
-736.039	112.998	-0.218	-0.269
-735.025	-52.632	-0.127	0.060
-734.010	-168.938	-0.510	-0.019
-732.996	-31.094	-0.286	-0.164
-731.981	-200.000	0.005	-0.087
-730.966	-200.000	0.006	0.107
-729.952	225.620	0.087	-0.143
-728.937	-200.000	0.057	-0.377
-727.923	-200.000	-0.016	-0.301
-726.908	125.348	0.188	-0.241
-725.894	257.781	-0.056	-0.098
-724.879	-157.168	-0.316	0.020
-723.864	-100.705	0.100	-0.025
-722.850	-62.616	-0.244	0.103
-721.835	17.794	-0.267	-0.216
-720.821	89.734	0.029	0.033
-719.806	-200.000	-0.059	-0.383
-718.791	59.317	-0.176	-0.177
-717.777	60.374	0.150	-0.151
-716.762	-200.000	-0.005	0.215
-715.748	254.627	-0.107	-0.187
-714.733	57.054	-0.191	-0.190
-713.718	-107.963	-0.452	-0.100
-712.704	-65.630	-0.185	-0.076
-711.689	-32.011	0.143	0.082
-710.675	105.958	-0.160	-0.193
-709.660	-13.630	0.082	0.054
-708.645	-47.025	-0.264	-0.131
-707.631	224.260	-0.219	0.360
-706.616	261.504	0.196	0.345
-705.602	428.408	0.125	-0.275
-704.587	236.378	-0.205	-0.346
-703.572	39.337	0.080	-0.073
-702.558	-145.148	-0.226	-0.021
-701.543	-200.000	-0.063	0.285
-700.529	-59.000	-0.289	-0.127
-699.514	-49.861	0.269	-0.130
-698.499	24.362	-0.079	-0.067
-697.485	-29.186	0.112	-0.065
-696.470	279.922	0.204	0.371
-695.456	442.843	-0.061	-0.137
-694.441	281.068	0.147	-0.268
-693.426	-129.802	0.184	0.026
-692.412	16.297	-0.162	-0.130
-691.397	-50.916	-0.176	0.084
-690.383	-17.137	0.091	0.058
-689.368	-78.844	0.084	-0.029
-688.354	50.565	-0.185	0.178
-687.339	253.619	-0.036	-0.062
-686.324	800.000	-0.075	-0.221
-685.310	560.310	-0.161	-0.396
-684.295	-62.090	0.183	0.078
-683.281	-162.637	0.144	0.007
-682.266	166.546	0.074	0.107
-681.251	124.450	0.179	-0.230
-680.237	-200.000	0.042	-0.300
-679.222	-126.746	0.106	-0.016
-678.208	-103.316	-0.245	-0.059
-677.193	674.137	-0.023	0.061
-676.178	219.694	0.093	-0.151
-675.164	107.787	-0.125	-0.151
-674.149	26.320	0.128	0.109
-673.135	-105.754	0.343	-0.079
-672.120	651.733	0.066	0.172
-671.105	-68.311	-0.116	-0.046
-670.091	-84.625	0.188	-0.060
-669.076	-93.902	-0.468	0.131
-668.062	147.381	-0.014	-0.019
-667.047	214.167	-0.101	-0.163
-666.032	396.481	-0.041	0.087
-665.018	-168.002	0.383	0.015
-664.003	-123.967	0.158	-0.025
-662.989	93.142	0.059	0.068
-661.974	-88.063	-0.200	0.061
-660.959	230.362	-0.053	0.089
-659.945	-74.572	0.258	0.095
-658.930	-200.000	0.037	0.268
-657.916	800.000	0.064	-0.282
-656.901	-112.769	-0.246	0.050
-655.886	-83.540	-0.091	-0.030
-654.872	-132.873	0.093	-0.012
-653.857	-200.000	0.048	0.218
-652.843	-200.000	0.023	0.113
-651.828	-146.921	-0.222	-0.019
-650.814	-45.339	-0.039	0.020
-649.799	-94.385	0.183	-0.051
-648.784	44.767	0.338	-0.316
-647.770	800.000	-0.047	-0.181
-646.755	800.000	-0.066	-0.235
-645.741	800.000	-0.031	-0.088
-644.726	292.207	0.093	-0.172
-643.711	-64.536	-0.336	-0.139
-642.697	-200.000	0.008	0.192
-641.682	39.600	-0.157	0.143
-640.668	86.223	-0.152	0.170
-639.653	183.064	-0.169	0.253
-638.638	-179.747	-0.056	-0.001
-637.624	38.143	0.199	0.180
-636.609	800.000	0.017	-0.060
-635.595	800.000	-0.066	-0.217
-634.580	24.884	0.357	0.301
-633.565	-200.000	0.018	-0.099
-632.551	-43.939	-0.120	0.061
-631.536	75.747	0.029	-0.031
-630.522	-200.000	-0.001	0.108
-629.507	-49.396	-0.287	-0.139
-628.492	-200.000	-0.031	-0.147
-627.478	-77.763	-0.305	0.107
-626.463	434.738	-0.078	-0.171
-625.449	339.219	0.107	0.211
-624.434	158.169	-0.085	-0.119
-623.419	-112.651	-0.207	0.042
-622.405	-200.000	0.027	0.259
-621.390	800.000	-0.091	-0.281
-620.376	422.225	-0.039	-0.085
-619.361	-31.351	-0.481	-0.275
-618.346	127.762	-0.062	0.080
-617.332	-200.000	-0.038	-0.189
-616.317	-77.142	-0.199	0.071
-615.303	41.281	0.286	0.263
-614.288	-200.000	-0.038	0.322
-613.273	4.677	0.131	-0.098
-612.259	-200.000	0.012	0.197
-611.244	406.352	0.069	0.148
-610.230	132.977	-0.024	-0.031
-609.215	3.653	-0.240	-0.177
-608.201	-200.000	-0.092	0.526
-607.186	-200.000	-0.061	0.392
-606.171	-91.276	0.040	0.012
-605.157	-105.512	-0.308	0.071
-604.142	-43.803	0.058	0.030
-603.128	-200.000	-0.017	0.207
-602.113	800.000	-0.050	0.151
-601.098	-93.446	0.294	-0.083
-600.084	116.847	0.061	-0.076
-599.069	-154.792	0.252	0.017
-598.055	280.230	-0.173	-0.314
-597.040	-200.000	-0.013	0.207
-596.025	88.719	-0.158	-0.179
-595.011	277.246	-0.124	0.224
-593.996	85.632	-0.074	-0.083
-592.982	86.459	0.251	-0.281
-591.967	-97.617	-0.150	0.040
-590.952	41.945	-0.088	0.081
-589.938	-57.373	0.227	0.101
-588.923	65.935	-0.024	0.025
-587.909	344.773	0.064	-0.128
-586.894	-1.192	0.144	-0.103
-585.879	-200.000	-0.019	0.151
-584.865	558.275	0.086	-0.209
-583.850	800.000	-0.080	-0.241
-582.836	229.280	-0.071	-0.118
-581.821	-141.237	0.077	0.008
-580.806	-83.948	-0.339	0.109
-579.792	800.000	0.072	-0.255
-578.777	295.945	-0.121	-0.225
-577.763	119.617	-0.152	-0.191
-576.748	-30.747	-0.045	0.026
-575.733	178.224	0.029	0.043
-574.719	-25.452	0.274	-0.164
-573.704	800.000	0.069	0.284
-572.690	-59.121	0.101	0.044
-571.675	-72.460	-0.275	-0.103
-570.661	137.455	0.141	-0.187
-569.646	60.033	0.371	-0.371
-568.631	-154.183	0.082	-0.006
-567.617	-86.682	-0.126	0.039
-566.602	-146.697	-0.135	-0.012
-565.588	430.283	0.107	0.235
-564.573	712.186	-0.081	-0.218
-563.558	192.830	-0.051	-0.078
-562.544	228.350	-0.158	-0.260
-561.529	307.023	-0.250	-0.472
-560.515	-93.523	0.097	0.027
-559.500	-36.036	-0.185	0.102
-558.485	-126.364	0.213	0.032
-557.471	-17.178	0.035	-0.022
-556.456	8.095	-0.210	0.159
-555.442	85.717	-0.272	-0.303
-554.427	-105.825	-0.087	-0.020
-553.412	800.000	0.075	0.242
-552.398	83.827	-0.191	0.211
-551.383	-50.764	-0.090	0.043
-550.369	-129.982	0.486	-0.067
-549.354	-73.546	0.233	0.086
-548.339	-55.540	0.030	0.014
-547.325	-70.960	0.173	0.066
-546.310	-200.000	-0.016	0.366
-545.296	-200.000	0.002	-0.129
-544.281	800.000	-0.042	-0.168
-543.266	144.928	0.261	0.354
-542.252	800.000	0.034	0.097
-541.237	70.916	0.273	-0.286
-540.223	-200.000	-0.001	0.097
-539.208	10.713	0.356	-0.275
-538.193	800.000	0.020	0.087
-537.179	800.000	-0.106	0.357
-536.164	195.549	0.154	0.236
-535.150	524.669	0.130	0.308
-534.135	800.000	0.083	-0.275
-533.121	800.000	-0.086	0.340
-532.106	-7.743	0.064	-0.044
-531.091	-75.455	-0.348	0.125
-530.077	35.252	-0.076	0.068
-529.062	216.415	0.131	-0.211
-528.048	-20.245	-0.297	-0.185
-527.033	-99.922	-0.335	0.085
-526.018	-200.000	0.042	-0.197
-525.004	-52.036	-0.280	-0.132
-523.989	-200.000	-0.042	-0.350
-522.975	375.563	0.165	-0.339
-521.960	473.574	0.157	-0.358
-520.945	800.000	0.159	-0.458
-519.931	-200.000	0.005	-0.091
-518.916	-119.550	0.216	0.038
-517.902	332.430	-0.069	-0.134
-516.887	-61.176	-0.271	0.116
-515.872	-31.191	-0.102	-0.058
-514.858	-30.337	0.122	-0.070
-513.843	-140.301	0.372	0.039
-512.829	246.930	-0.008	0.014
-511.814	-200.000	-0.029	-0.181
-510.799	-104.552	-0.474	-0.110
-509.785	29.737	-0.185	-0.159
-508.770	-200.000	0.029	0.282
-507.756	73.241	-0.147	0.156
-506.741	-31.750	0.087	0.049
-505.726	-200.000	0.039	-0.222
-504.712	800.000	-0.010	-0.038
-503.697	321.749	0.120	-0.232
-502.683	79.898	-0.134	0.146
-501.668	211.966	-0.217	-0.345
-500.653	-58.244	0.109	0.048
-499.639	-28.343	-0.192	-0.112
-498.624	-111.478	-0.160	0.033
-497.610	126.111	-0.057	0.073
-496.595	-104.523	-0.330	0.077
-495.581	100.273	0.139	-0.163
-494.566	629.915	0.033	-0.084
-493.551	-8.854	0.061	0.041
-492.537	-96.112	-0.221	-0.059
-491.522	-96.212	-0.118	-0.032
-490.508	178.562	0.116	-0.171
-489.493	-200.000	-0.012	-0.082
-488.478	-200.000	0.057	-0.289
-487.464	156.516	0.068	-0.095
-486.449	421.075	0.121	-0.262
-485.435	-122.811	0.434	-0.071
-484.420	-200.000	-0.020	-0.102
-483.405	-31.720	-0.225	0.128
-482.391	36.898	-0.160	-0.143
-481.376	-54.888	0.372	0.169
-480.362	-20.695	-0.068	0.042
-479.347	497.598	-0.071	-0.164
-478.332	8.005	-0.106	0.080
-477.318	-20.122	-0.034	-0.021
-476.303	-4.898	-0.154	-0.107
-475.289	38.652	0.151	0.136
-474.274	171.164	0.147	0.213
-473.259	542.821	0.161	-0.387
-472.245	-200.000	-0.046	0.286
-471.230	-151.416	-0.118	-0.009
-470.216	81.831	0.019	0.021
-469.201	118.290	-0.148	0.185
-468.186	19.601	0.154	0.125
-467.172	-200.000	-0.017	-0.418
-466.157	-8.327	-0.098	0.066
-465.143	800.000	-0.089	-0.266
-464.128	0.469	-0.269	-0.194
-463.113	208.366	0.072	-0.113
-462.099	62.392	-0.073	0.074
-461.084	93.316	0.078	-0.089
-460.070	-97.268	0.202	-0.053
-459.055	-106.496	0.262	0.059
-458.040	-108.614	-0.204	-0.044
-457.026	34.798	0.087	0.077
-456.011	-25.875	-0.161	-0.095
-454.997	-200.000	0.001	0.407
-453.982	31.158	0.019	0.016
-452.968	800.000	-0.071	0.311
-451.953	-169.488	0.078	-0.003
-450.938	-41.075	0.151	-0.079
-449.924	-80.842	0.042	-0.014
-448.909	76.586	-0.104	-0.111
-447.895	-81.963	0.144	-0.047
-446.880	800.000	-0.063	-0.202
-445.865	162.701	0.061	-0.086
-444.851	-122.991	-0.457	-0.074
-443.836	-158.728	-0.250	-0.014
-442.822	67.727	0.048	0.049
-441.807	367.178	-0.065	-0.132
-440.792	307.705	-0.139	-0.262
-439.778	-62.803	-0.137	0.057
-438.763	-138.504	0.353	0.039
-437.749	-200.000	0.006	0.050
-436.734	-58.938	-0.164	-0.071
-435.719	39.815	0.183	0.166
-434.705	-6.143	-0.142	-0.098
-433.690	200.285	-0.278	0.430
-432.676	-54.283	-0.323	-0.148
-431.661	-200.000	0.016	-0.109
-430.646	-134.840	0.292	-0.036
-429.632	-74.565	-0.174	0.063
-428.617	-12.373	0.038	0.025
-427.603	-87.642	-0.242	-0.074
-426.588	33.286	0.073	0.064
-425.573	90.209	0.135	0.152
-424.559	30.673	-0.190	-0.163
-423.544	-70.723	0.026	0.010
-422.530	-129.312	0.257	0.036
-421.515	-57.597	-0.287	-0.127
-420.500	-162.650	0.090	0.004
-419.486	-100.946	-0.047	0.012
-418.471	-161.053	0.175	0.009
-417.457	133.693	-0.150	-0.196
-416.442	-200.000	0.045	0.384
-415.428	168.521	-0.089	-0.127
-414.413	-96.558	-0.061	-0.016
-413.398	147.800	0.105	0.142
-412.384	-44.601	-0.220	-0.111
-411.369	192.192	0.106	0.161
-410.355	-200.000	-0.047	-0.272
-409.340	639.155	0.024	0.062
-408.325	800.000	-0.056	-0.196
-407.311	-90.268	-0.048	0.014
-406.296	169.628	0.205	-0.295
-405.282	800.000	-0.029	0.100
-404.267	142.054	-0.046	-0.061
-403.252	344.101	0.136	0.268
-402.238	23.411	0.283	0.234
-401.223	5.661	-0.017	-0.013
-400.209	-200.000	-0.035	0.173
-399.194	800.000	0.051	0.210
-398.179	-40.234	0.191	0.100
-397.165	-83.899	0.079	-0.025
-396.150	800.000	0.085	0.239
-395.136	-200.000	0.084	-0.407
-394.121	388.293	-0.161	0.336
-393.106	-57.547	-0.146	0.064
-392.092	-1.215	0.223	0.158
-391.077	800.000	0.080	0.297
-390.063	-25.699	0.095	0.057
-389.048	286.803	-0.028	-0.051
-388.033	19.689	0.391	-0.317
-387.019	-200.000	0.029	-0.234
-386.004	-200.000	-0.003	0.115
-384.990	-87.904	-0.431	-0.131
-383.975	-63.248	0.166	-0.069
-382.960	-200.000	-0.006	0.136
-381.946	108.571	-0.139	-0.167
-380.931	28.342	0.199	0.169
-379.917	591.400	-0.127	0.315
-378.902	800.000	-0.046	-0.141
-377.888	183.626	-0.105	-0.155
-376.873	-138.044	-0.121	0.014
-375.858	403.180	-0.115	0.243
-374.844	800.000	0.030	0.125
-373.829	-200.000	-0.033	-0.163
-372.815	86.509	0.236	0.262
-371.800	391.188	0.072	0.151
-370.785	-143.049	0.179	-0.017
-369.771	543.688	0.087	0.209
-368.756	-23.818	-0.114	0.068
-367.742	165.672	-0.210	0.298
-366.727	355.388	0.133	-0.266
-365.712	133.607	-0.163	0.212
-364.698	633.794	-0.078	-0.199
-363.683	249.466	0.108	-0.183
-362.669	800.000	0.049	0.206
-361.654	-112.899	0.232	0.046
-360.639	-152.450	-0.245	-0.018
-359.625	-137.225	0.241	-0.028
-358.610	800.000	-0.028	-0.097
-357.596	800.000	0.016	0.065
-356.581	-200.000	0.007	-0.119
-355.566	314.631	0.046	0.088
-354.552	-200.000	-0.028	-0.135
-353.537	-200.000	-0.004	-0.084
-352.523	-125.492	-0.102	0.016
-351.508	800.000	0.057	0.195
-350.493	75.148	0.073	0.077
-349.479	36.172	0.106	0.094
-348.464	256.228	0.092	-0.158
-347.450	-59.168	-0.170	0.074
-346.435	190.012	-0.032	0.048
-345.420	-200.000	-0.023	-0.115
-344.406	14.323	0.059	-0.046
-343.391	-200.000	-0.002	0.028
-342.377	-200.000	-0.042	0.241
-341.362	333.805	0.179	0.347
-340.348	72.250	-0.135	0.141
-339.333	-200.000	0.047	0.244
-338.318	-8.922	0.230	0.155
-337.304	119.196	0.283	0.351
-336.289	-200.000	-0.079	-0.497
-335.275	288.091	-0.040	0.073
-334.260	-28.565	0.332	0.192
-333.245	343.705	-0.140	0.275
-332.231	374.059	0.069	0.140
-331.216	-16.319	-0.302	-0.192
-330.202	-200.000	0.055	-0.290
-329.187	19.742	-0.141	0.114
-328.172	661.322	-0.072	0.186
-327.158	11.130	-0.174	0.134
-326.143	47.348	0.194	0.181
-325.129	800.000	0.042	0.138
-324.114	196.394	-0.195	-0.298
-323.099	-38.512	-0.114	0.061
-322.085	-16.768	-0.117	-0.074
-321.070	37.568	-0.260	0.231
-320.056	-116.806	-0.172	-0.032
-319.041	-200.000	0.096	-0.424
-318.026	-63.793	0.126	-0.052
-317.012	-172.935	0.206	0.006
-315.997	-79.996	0.268	0.090
-314.983	-200.000	-0.032	0.148
-313.968	7.585	-0.134	-0.101
-312.953	800.000	0.016	-0.047
-311.939	-112.750	0.046	-0.009
-310.924	-158.890	-0.244	0.014
-309.910	-183.032	-0.211	-0.004
-308.895	-200.000	-0.006	0.250
-307.880	2.374	-0.033	0.024
-306.866	201.351	0.178	-0.275
-305.851	-62.960	-0.174	-0.072
-304.837	152.014	0.116	0.159
-303.822	-160.821	0.385	0.020
-302.807	104.413	-0.114	0.135
-301.793	622.195	-0.073	0.183
-300.778	143.217	-0.031	-0.042
-299.764	-7.524	0.100	0.068
-298.749	52.430	0.179	-0.172
-297.735	527.955	0.084	0.198
-296.720	-37.371	-0.376	0.201
-295.705	-3.332	0.112	-0.078
-294.691	-80.361	-0.345	0.115
-293.676	-200.000	-0.030	0.197
-292.662	-3.947	0.203	0.141
-291.647	-200.000	-0.012	0.364
-290.632	215.211	-0.044	0.069
-289.618	66.262	0.159	0.162
-288.603	-114.400	0.107	-0.021
-287.589	-200.000	-0.017	-0.242
-286.574	-66.122	-0.183	0.073
-285.559	91.466	-0.235	0.264
-284.545	-154.692	0.062	-0.004
-283.530	9.131	0.265	0.201
-282.516	286.032	0.178	0.322
-281.501	112.868	0.110	-0.133
-280.486	-41.586	0.184	0.095
-279.472	-147.401	-0.148	0.013
-278.457	-14.419	-0.091	-0.059
-277.443	-200.000	0.005	-0.032
-276.428	800.000	0.072	-0.253
-275.413	18.637	0.086	-0.069
-274.399	74.576	0.026	-0.028
-273.384	-136.543	0.241	-0.028
-272.370	734.534	0.082	-0.221
-271.355	8.590	0.153	-0.115
-270.340	529.625	0.057	0.134
-269.326	572.859	-0.185	-0.451
-268.311	114.186	-0.082	0.100
-267.297	-200.000	0.005	0.023
-266.282	-89.213	0.362	-0.107
-265.267	-111.748	0.257	0.052
-264.253	-59.442	-0.310	-0.133
-263.238	-116.034	0.118	-0.022
-262.224	-50.132	0.321	0.152
-261.209	41.116	-0.171	0.154
-260.195	47.743	-0.337	-0.315
-259.180	-158.272	0.423	-0.025
-258.165	-200.000	-0.023	-0.117
-257.151	362.194	0.105	-0.210
-256.136	-200.000	-0.009	0.046
-255.122	-200.000	0.036	0.296
-254.107	65.301	0.030	-0.031
-253.092	88.722	0.148	-0.165
-252.078	-2.614	-0.539	-0.378
-251.063	-77.408	0.102	-0.035
-250.049	13.675	-0.212	-0.165
-249.034	-142.687	-0.094	0.009
-248.019	-2.116	0.176	0.124
-247.005	274.577	-0.065	0.114
-245.990	-200.000	0.036	0.216
-244.976	-154.406	0.176	0.012
-243.961	-141.402	0.269	-0.027
-242.946	563.592	-0.077	-0.187
-241.932	800.000	-0.132	0.383
-240.917	-61.394	0.196	0.082
-239.903	-200.000	-0.005	-0.111
-238.888	-141.347	0.134	0.014
-237.873	201.720	0.068	-0.104
-236.859	-36.411	0.275	0.148
-235.844	-139.935	-0.308	0.032
-234.830	-16.868	0.263	0.166
-233.815	-28.225	0.203	-0.117
-232.800	-117.092	-0.226	-0.041
-231.786	21.326	0.214	0.174
-230.771	29.413	-0.238	-0.202
-229.757	-129.354	-0.094	0.013
-228.742	193.430	0.010	0.015
-227.727	157.006	0.066	-0.091
-226.713	-152.518	-0.220	-0.016
-225.698	-62.517	0.078	0.032
-224.684	-200.000	-0.004	0.055
-223.669	85.282	0.233	0.255
-222.655	-200.000	0.088	0.549
-221.640	82.637	0.114	0.124
-220.625	-26.493	0.196	-0.114
-219.611	-200.000	0.014	-0.171
-218.596	27.027	0.421	0.353
-217.582	-181.761	0.179	0.003
-216.567	-77.174	-0.209	0.073
-215.552	80.518	-0.143	0.154
-214.538	348.801	-0.117	-0.230
-213.523	-29.842	0.325	0.185
-212.509	235.507	-0.060	-0.100
-211.494	-200.000	-0.370	0.000
-210.479	800.000	-0.136	-0.406
-209.465	110.780	-0.288	0.346
-208.450	800.000	-0.023	0.100
-207.436	-115.718	-0.218	-0.041
-206.421	-7.172	-0.318	0.216
-205.406	800.000	-0.039	0.140
-204.392	530.039	-0.115	-0.271
-203.377	148.426	-0.126	-0.169
-202.363	358.434	0.089	-0.178
-201.348	800.000	-0.019	0.083
-200.333	-200.000	0.035	0.198
-199.319	-34.149	0.344	-0.189
-198.304	96.007	-0.161	0.183
-197.290	800.000	-0.069	-0.217
-196.275	800.000	-0.060	0.242
-195.260	24.956	0.082	0.068
-194.246	-200.000	0.001	0.216
-193.231	-139.085	0.327	0.035
-192.217	-200.000	0.130	-0.606
-191.202	340.214	-0.068	0.132
-190.187	-133.295	-0.144	-0.018
-189.173	-122.786	-0.195	0.031
-188.158	-200.000	0.009	-0.137
-187.144	15.396	0.077	0.061
-186.129	20.262	0.106	0.085
-185.114	800.000	-0.032	0.099
-184.100	-120.536	-0.065	0.011
-183.085	-200.000	0.009	0.090
-182.071	-200.000	-0.006	-0.052
-181.056	800.000	-0.040	0.132
-180.042	106.431	0.118	0.140
-179.027	-123.155	-0.364	0.058
-178.012	-200.000	-0.170	0.000
-176.998	-98.913	0.077	-0.020
-175.983	-48.607	0.077	-0.037
-174.969	-149.174	0.338	0.027
-173.954	-200.000	0.036	0.168
-172.939	800.000	0.041	-0.118
-171.925	562.056	-0.167	-0.403
-170.910	34.332	-0.175	-0.153
-169.896	-25.735	0.325	-0.191
-168.881	24.183	0.287	-0.236
-167.866	800.000	-0.035	0.126
-166.852	-28.705	-0.148	-0.085
-165.837	-70.414	-0.224	0.085
-164.823	-200.000	-0.024	0.350
-163.808	388.395	0.125	-0.258
-162.793	-200.000	0.022	-0.290
-161.779	-122.933	0.320	-0.051
-160.764	-64.370	-0.152	0.062
-159.750	350.172	0.077	-0.152
-158.735	304.661	0.170	-0.314
-157.720	-138.121	0.334	-0.037
-156.706	14.741	0.226	0.176
-155.691	612.175	-0.167	0.415
-154.677	-37.347	-0.128	-0.068
-153.662	652.039	0.140	-0.358
-152.647	800.000	-0.082	0.236
-151.633	72.115	0.037	-0.039
-150.618	293.059	0.066	0.119
-149.604	-82.073	-0.227	-0.074
-148.589	-200.000	0.004	-0.261
-147.574	-18.500	-0.268	-0.167
-146.560	121.355	0.159	0.197
-145.545	-200.000	0.025	0.291
-144.531	37.278	0.158	0.140
-143.516	185.613	0.072	0.106
-142.502	800.000	0.045	0.140
-141.487	-64.305	0.399	-0.162
-140.472	-12.605	-0.319	0.207
-139.458	123.916	0.201	0.251
-138.443	86.466	-0.152	0.167
-137.429	-200.000	0.014	-0.191
-136.414	529.348	0.064	0.151
-135.399	18.448	0.214	0.170
-134.385	-42.004	0.264	-0.134
-133.370	-186.708	0.194	-0.003
-132.356	-92.177	-0.075	0.021
-131.341	151.689	0.064	0.087
-130.326	-131.812	0.102	-0.013
-129.312	349.154	0.121	0.237
-128.297	800.000	-0.094	0.291
-127.283	-200.000	0.029	-0.219
-126.268	-138.652	-0.217	-0.024
-125.253	-126.845	-0.239	-0.035
-124.239	-200.000	-0.012	-0.099
-123.224	-12.429	0.471	0.307
-122.210	318.987	0.121	0.229
-121.195	166.421	0.094	0.132
