DTS Sentinel unit serial number:	SN413079Multiplexer serial number:	ORYXHardware model number:	OX4-SRSoftware version number:	ORYX F/W v4.00 Oryx Data Collector v3.7.2.0data status	okinstallation	princeton_trtdifferential loss correction	single-endedforward channel	channel 4reverse channel	N/Adate	2019/09/15time	11:33:35forward acquisition time	60.00reverse acquisition time	0.00gamma	496.2192k internal	0.2298k external	0.2298temperature offset calibration	1.0015default loss term (dB/km)	0.3790temperature slope calibration	1.0000multiplexer offset coefficient	1.0000multiplexer slope coefficient	1.0000fibre end	0.00T internal ref (°C)	34.31T ext. ref 1 (°C)	4.99T ext. ref 2 (°C)	29.87length (m)	temperature (°C)	Stokes	anti-Stokes-747.200	-65.326	0.288	-0.118
-746.185	-200.000	0.057	-0.352
-745.171	43.759	0.153	-0.143
-744.156	-45.142	0.080	0.041
-743.142	-131.222	0.102	0.014
-742.127	146.228	-0.183	0.251
-741.112	-126.209	-0.266	0.041
-740.098	800.000	0.054	-0.167
-739.083	-114.408	0.292	-0.057
-738.069	-124.935	0.113	0.018
-737.054	658.095	0.028	0.074
-736.039	-101.311	0.325	-0.081
-735.025	36.761	-0.110	0.099
-734.010	27.183	-0.269	0.231
-732.996	103.438	-0.320	-0.383
-731.981	328.981	-0.099	-0.195
-730.966	2.253	0.124	-0.091
-729.952	-42.702	-0.384	-0.199
-728.937	-111.524	0.272	-0.057
-727.923	-3.685	-0.252	0.179
-726.908	-200.000	-0.019	-0.125
-725.894	-57.256	-0.286	-0.129
-724.879	-119.497	-0.426	-0.075
-723.864	559.748	-0.039	0.096
-722.850	-125.516	-0.208	-0.032
-721.835	287.599	0.042	-0.078
-720.821	800.000	0.012	-0.035
-719.806	210.380	0.089	0.143
-718.791	-122.883	-0.186	-0.031
-717.777	-85.734	0.093	0.029
-716.762	-186.601	-0.056	0.001
-715.748	33.974	-0.117	-0.104
-714.733	90.095	-0.208	-0.237
-713.718	-119.318	-0.201	0.036
-712.704	-200.000	0.043	0.437
-711.689	349.409	0.087	0.176
-710.675	800.000	-0.072	-0.215
-709.660	-200.000	0.061	-0.414
-708.645	-9.011	0.226	-0.154
-707.631	167.807	-0.315	-0.457
-706.616	99.206	0.260	-0.307
-705.602	-148.934	-0.222	-0.018
-704.587	-94.464	0.027	0.008
-703.572	57.686	-0.033	0.033
-702.558	-23.233	-0.077	0.047
-701.543	800.000	0.079	0.315
-700.529	-89.949	0.157	0.047
-699.514	-152.725	0.176	-0.013
-698.499	-70.751	-0.215	0.083
-697.485	-90.607	0.385	0.113
-696.470	142.954	-0.150	0.203
-695.456	-33.959	-0.147	-0.083
-694.441	-33.360	0.224	-0.126
-693.426	-73.920	-0.344	0.127
-692.412	800.000	0.041	-0.156
-691.397	-200.000	-0.049	-0.275
-690.383	-128.183	-0.402	0.059
-689.368	-32.046	0.355	0.203
-688.354	-146.384	-0.177	0.016
-687.339	49.394	-0.142	0.136
-686.324	-19.094	0.217	-0.137
-685.310	-114.716	-0.395	0.077
-684.295	800.000	-0.109	-0.339
-683.281	-121.433	-0.151	-0.026
-682.266	-200.000	-0.014	-0.100
-681.251	153.174	0.166	-0.231
-680.237	-98.140	-0.082	-0.021
-679.222	-176.833	0.166	-0.004
-678.208	800.000	-0.022	-0.068
-677.193	-134.928	0.132	-0.016
-676.178	800.000	0.056	-0.179
-675.164	800.000	0.022	-0.082
-674.149	-200.000	-0.018	-0.360
-673.135	800.000	-0.032	-0.135
-672.120	-70.105	-0.206	-0.080
-671.105	540.695	0.093	-0.226
-670.091	281.253	0.176	-0.321
-669.076	800.000	-0.010	-0.032
-668.062	-25.594	-0.291	0.175
-667.047	279.290	-0.116	-0.210
-666.032	-161.168	0.195	-0.010
-665.018	79.803	0.302	-0.330
-664.003	249.307	0.127	0.220
-662.989	-17.757	0.414	0.264
-661.974	193.961	0.052	0.080
-660.959	-78.835	-0.093	0.032
-659.945	50.153	0.134	-0.129
-658.930	-200.000	-0.140	-0.000
-657.916	-200.000	-0.021	0.204
-656.901	-45.788	-0.586	0.295
-655.886	-85.615	0.193	0.061
-654.872	59.526	0.227	-0.228
-653.857	-135.492	-0.326	-0.040
-652.843	55.881	-0.144	-0.142
-651.828	-80.876	0.294	-0.099
-650.814	187.877	-0.088	0.133
-649.799	-195.676	-0.311	0.002
-648.784	-200.000	-0.005	-0.116
-647.770	123.203	-0.179	-0.228
-646.755	-101.148	-0.154	-0.038
-645.741	-134.578	-0.215	-0.027
-644.726	-200.000	-0.003	0.182
-643.711	-5.335	0.044	0.030
-642.697	-200.000	0.020	-0.139
-641.682	512.053	-0.205	-0.485
-640.668	-26.531	-0.434	-0.259
-639.653	36.809	-0.237	-0.213
-638.638	489.896	0.038	-0.088
-637.624	-117.616	-0.278	-0.051
-636.609	736.671	0.063	0.171
-635.595	-50.456	-0.074	0.036
-634.580	-77.252	-0.261	-0.092
-633.565	-200.000	-0.035	-0.319
-632.551	-200.000	0.018	-0.346
-631.536	210.237	0.088	0.140
-630.522	-200.000	0.018	-0.085
-629.507	-162.237	-0.147	0.007
-628.492	32.939	0.260	-0.228
-627.478	800.000	0.058	-0.251
-626.463	-92.071	0.268	-0.077
-625.449	110.782	-0.138	0.168
-624.434	188.863	0.180	-0.274
-623.419	-142.220	-0.141	-0.014
-622.405	110.981	-0.243	-0.297
-621.390	-200.000	0.188	-0.001
-620.376	630.216	0.063	0.162
-619.361	247.242	-0.086	0.148
-618.346	32.330	-0.086	-0.075
-617.332	-34.064	-0.026	0.015
-616.317	-128.577	0.041	0.006
-615.303	-200.000	0.013	-0.106
-614.288	434.962	0.139	-0.306
-613.273	-58.519	0.079	-0.035
-612.259	-78.248	-0.323	-0.113
-611.244	-200.000	0.016	-0.227
-610.230	-180.758	0.071	-0.001
-609.215	-61.014	-0.100	-0.043
-608.201	-34.267	0.271	-0.151
-607.186	800.000	-0.047	-0.132
-606.171	278.158	-0.068	-0.124
-605.157	-200.000	-0.030	-0.197
-604.142	41.498	-0.082	0.075
-603.128	-83.775	-0.064	-0.021
-602.113	-38.783	0.280	-0.150
-601.098	-121.901	-0.150	0.025
-600.084	-113.985	-0.049	0.010
-599.069	503.192	-0.033	0.078
-598.055	-114.168	-0.086	0.017
-597.040	38.635	0.205	0.186
-596.025	314.261	-0.108	0.206
-595.011	-32.817	0.135	0.076
-593.996	-38.772	-0.336	-0.180
-592.982	-9.560	0.197	-0.134
-591.967	-196.094	-0.060	-0.000
-590.952	-108.026	0.133	-0.029
-589.938	11.835	0.158	-0.124
-588.923	-153.046	-0.315	-0.023
-587.909	-30.154	0.113	-0.065
-586.894	63.649	-0.076	-0.077
-585.879	45.259	0.183	-0.171
-584.865	-200.000	0.013	0.115
-583.850	-200.000	-0.064	-0.309
-582.836	24.538	0.103	-0.086
-581.821	-116.201	0.310	0.058
-580.806	98.200	-0.148	-0.173
-579.792	-155.421	-0.353	0.023
-578.777	-132.617	0.183	-0.024
-577.763	-200.000	-0.018	0.128
-576.748	800.000	0.063	0.227
-575.733	-8.952	-0.323	-0.220
-574.719	235.081	-0.030	0.050
-573.704	-79.844	-0.430	-0.147
-572.690	221.619	0.118	-0.192
-571.675	-200.000	-0.010	0.228
-570.661	3.640	-0.088	0.065
-569.646	62.961	-0.307	0.312
-568.631	-150.511	-0.345	0.027
-567.617	-200.000	0.018	0.294
-566.602	-75.926	-0.080	0.029
-565.588	102.301	0.290	0.344
-564.573	-75.640	-0.261	0.094
-563.558	-4.141	-0.043	-0.030
-562.544	-105.466	0.177	-0.041
-561.529	-71.010	-0.074	0.028
-560.515	351.870	-0.106	-0.213
-559.500	-128.609	-0.162	0.023
-558.485	-200.000	0.003	0.096
-557.471	-151.406	-0.097	0.007
-556.456	-84.270	0.127	0.041
-555.442	6.273	-0.129	-0.097
-554.427	800.000	-0.053	-0.171
-553.412	-116.752	0.366	-0.068
-552.398	-94.317	0.101	-0.028
-551.383	38.782	-0.059	0.053
-550.369	72.329	0.148	-0.156
-549.354	-78.410	-0.339	-0.118
-548.339	-121.892	-0.139	0.023
-547.325	-134.174	-0.165	0.021
-546.310	-122.073	-0.409	0.068
-545.296	379.165	-0.076	-0.158
-544.281	-200.000	0.005	0.041
-543.266	55.851	0.117	0.115
-542.252	-127.997	0.309	0.045
-541.237	-200.000	0.002	-0.133
-540.223	786.045	0.154	-0.428
-539.208	-90.529	0.210	-0.062
-538.193	-90.926	0.294	0.086
-537.179	-194.835	-0.337	-0.003
-536.164	-55.818	-0.154	-0.070
-535.150	97.161	0.240	0.279
-534.135	549.615	0.144	0.349
-533.121	-43.251	0.209	0.107
-532.106	-42.293	0.166	-0.086
-531.091	-97.020	-0.315	-0.084
-530.077	289.427	0.152	0.279
-529.062	-41.609	-0.040	-0.021
-528.048	503.124	0.063	-0.148
-527.033	-162.767	-0.282	0.014
-526.018	17.288	0.224	-0.180
-525.004	-84.611	0.301	-0.096
-523.989	-36.963	-0.229	-0.124
-522.975	-52.992	-0.366	0.170
-521.960	800.000	0.079	-0.271
-520.945	-7.503	-0.293	-0.201
-519.931	360.527	-0.053	0.107
-518.916	800.000	-0.029	-0.126
-517.902	-79.667	0.285	0.097
-516.887	-128.774	-0.322	-0.046
-515.872	3.563	-0.306	0.226
-514.858	181.103	0.196	0.291
-513.843	-200.000	-0.003	-0.151
-512.829	-2.226	0.023	-0.016
-511.814	-87.799	-0.250	-0.076
-510.799	-85.229	-0.183	0.058
-509.785	-200.000	-0.013	0.256
-508.770	205.623	0.115	0.181
-507.756	-197.779	-0.135	-0.001
-506.741	-164.748	0.069	0.003
-505.726	48.313	0.133	0.126
-504.712	-28.776	-0.168	-0.098
-503.697	-200.000	-0.033	-0.356
-502.683	800.000	0.015	-0.049
-501.668	-104.986	0.145	0.034
-500.653	-200.000	-0.030	0.253
-499.639	432.665	0.011	-0.024
-498.624	74.204	-0.162	0.172
-497.610	176.351	-0.063	0.092
-496.595	361.613	-0.109	-0.221
-495.581	-23.823	0.277	-0.168
-494.566	406.601	0.069	-0.147
-493.551	-200.000	-0.047	0.252
-492.537	14.430	-0.126	-0.099
-491.522	-28.179	0.277	-0.162
-490.508	427.409	-0.099	-0.216
-489.493	-200.000	-0.031	-0.234
-488.478	316.831	0.086	-0.165
-487.464	426.448	0.089	0.194
-486.449	-14.835	-0.149	0.097
-485.435	83.812	-0.041	-0.046
-484.420	-53.580	0.126	-0.058
-483.405	320.143	-0.074	-0.141
-482.391	-103.763	0.228	0.054
-481.376	295.628	0.052	-0.096
-480.362	-200.000	0.015	-0.287
-479.347	-126.493	-0.372	0.056
-478.332	-200.000	-0.023	0.184
-477.318	-24.133	-0.151	-0.091
-476.303	800.000	-0.065	-0.248
-475.289	-83.051	-0.326	-0.106
-474.274	-15.402	0.213	0.138
-473.259	125.034	-0.151	0.193
-472.245	328.038	-0.146	-0.282
-471.230	69.623	0.148	0.154
-470.216	-141.508	0.281	0.029
-469.201	-151.410	0.092	-0.007
-468.186	-85.946	0.246	0.077
-467.172	-97.850	0.165	0.043
-466.157	-38.733	-0.159	0.085
-465.143	-1.364	-0.187	-0.134
-464.128	-9.280	0.347	0.234
-463.113	800.000	-0.027	0.103
-462.099	162.958	0.079	-0.113
-461.084	-54.132	-0.312	-0.143
-460.070	-200.000	0.086	0.444
-459.055	-7.035	0.477	0.327
-458.040	-88.051	-0.019	0.006
-457.026	-200.000	0.141	0.000
-456.011	-110.357	0.410	-0.086
-454.997	-200.000	0.003	0.160
-453.982	68.932	0.224	-0.232
-452.968	768.779	0.058	0.159
-451.953	-41.485	0.267	-0.139
-450.938	518.895	-0.148	-0.351
-449.924	-114.662	-0.332	-0.064
-448.909	-153.134	0.169	0.012
-447.895	-119.278	0.159	-0.028
-446.880	-49.762	0.149	-0.071
-445.865	-85.391	0.229	0.072
-444.851	80.977	0.138	-0.150
-443.836	106.854	0.122	-0.146
-442.822	428.602	0.167	0.364
-441.807	124.860	0.179	-0.227
-440.792	800.000	0.020	0.072
-439.778	125.377	0.144	-0.183
-438.763	-200.000	-0.032	-0.397
-437.749	-170.730	0.244	0.008
-436.734	103.030	-0.084	0.100
-435.719	73.052	0.279	0.295
-434.705	179.412	-0.233	0.344
-433.690	101.107	-0.113	-0.132
-432.676	265.141	-0.209	0.368
-431.661	-85.980	-0.130	0.041
-430.646	-200.000	-0.007	-0.065
-429.632	800.000	0.111	0.399
-428.617	-76.273	-0.380	0.135
-427.603	-142.618	0.235	0.023
-426.588	-0.616	-0.164	0.117
-425.573	137.989	-0.104	-0.138
-424.559	-63.566	-0.059	-0.025
-423.544	597.206	-0.078	0.195
-422.530	-46.598	-0.295	-0.146
-421.515	-74.815	0.235	-0.085
-420.500	-129.985	0.345	0.048
-419.486	-200.000	0.001	-0.208
-418.471	-42.886	-0.111	0.057
-417.457	342.823	0.040	0.079
-416.442	-100.593	-0.084	0.021
-415.428	-200.000	0.083	-0.540
-414.413	-161.229	0.115	-0.006
-413.398	42.623	0.132	-0.121
-412.384	-136.253	0.258	-0.030
-411.369	87.337	-0.208	-0.232
-410.355	141.427	-0.101	0.134
-409.340	546.053	0.138	0.332
-408.325	-33.195	0.153	-0.085
-407.311	-200.000	0.067	0.338
-406.296	165.942	0.132	-0.189
-405.282	265.067	-0.027	-0.048
-404.267	-107.943	-0.091	-0.020
-403.252	-100.949	-0.277	-0.068
-402.238	445.651	-0.165	0.364
-401.223	800.000	0.078	0.262
-400.209	241.851	-0.097	-0.163
-399.194	600.543	-0.092	-0.230
-398.179	-128.210	-0.322	-0.046
-397.165	800.000	0.109	0.334
-396.150	155.058	0.161	-0.224
-395.136	-200.000	0.014	-0.074
-394.121	-200.000	-0.007	0.115
-393.106	-154.813	-0.127	0.008
-392.092	-94.908	-0.276	-0.075
-391.077	-106.556	-0.350	0.079
-390.063	-83.296	0.114	-0.037
-389.048	97.743	-0.132	0.153
-388.033	36.595	0.178	-0.159
-387.019	224.520	0.001	-0.002
-386.004	-143.663	-0.225	-0.021
-384.990	1.393	-0.093	0.068
-383.975	121.508	0.067	-0.085
-382.960	-73.933	0.138	-0.050
-381.946	-27.225	-0.166	-0.097
-380.931	365.415	0.064	0.129
-379.917	-193.012	0.223	-0.002
-378.902	472.364	0.065	-0.148
-377.888	-143.971	0.319	0.030
-376.873	107.430	-0.194	0.232
-375.858	-107.048	0.136	0.030
-374.844	-109.844	0.330	0.070
-373.829	800.000	-0.060	0.196
-372.815	94.945	0.154	0.177
-371.800	-24.551	0.097	-0.058
-370.785	213.923	-0.269	0.427
-369.771	-200.000	-0.060	0.347
-368.756	2.922	-0.149	-0.109
-367.742	-121.878	0.189	0.031
-366.727	-200.000	0.033	-0.329
-365.712	756.954	-0.009	-0.024
-364.698	-140.501	0.149	0.016
-363.683	-200.000	0.056	-0.294
-362.669	-196.511	0.222	0.002
-361.654	123.781	0.018	-0.023
-360.639	5.599	0.059	-0.043
-359.625	-200.000	0.025	0.236
-358.610	-103.311	-0.205	0.049
-357.596	-125.595	0.263	0.040
-356.581	-46.314	0.503	-0.249
-355.566	-158.962	-0.188	0.011
-354.552	-14.678	0.163	0.105
-353.537	-200.000	0.021	0.096
-352.523	800.000	0.019	-0.057
-351.508	800.000	0.048	-0.182
-350.493	87.899	0.085	-0.095
-349.479	-200.000	-0.003	0.146
-348.464	-200.000	0.035	-0.222
-347.450	-200.000	-0.026	-0.124
-346.435	220.254	0.097	-0.156
-345.420	-41.860	-0.465	-0.239
-344.406	-200.000	0.003	-0.096
-343.391	-200.000	0.047	0.248
-342.377	800.000	0.028	0.083
-341.362	-200.000	-0.005	0.138
-340.348	376.194	-0.022	0.044
-339.333	-99.014	0.172	-0.044
-338.318	-51.806	0.166	0.078
-337.304	-73.445	0.226	0.083
-336.289	81.947	-0.247	-0.268
-335.275	-74.602	0.019	-0.007
-334.260	-200.000	-0.070	0.315
-333.245	-5.509	-0.158	0.109
-332.231	387.259	-0.201	0.417
-331.216	-126.444	-0.022	0.003
-330.202	-161.000	-0.109	-0.006
-329.187	-104.212	0.172	0.040
-328.172	66.831	-0.210	-0.215
-327.158	154.689	0.192	0.266
-326.143	-200.000	-0.396	-0.001
-325.129	239.029	-0.118	0.197
-324.114	664.307	-0.124	0.322
-323.099	-72.915	-0.158	0.058
-322.085	-155.870	0.225	-0.014
-321.070	28.234	-0.139	-0.118
-320.056	800.000	0.047	0.136
-319.041	103.776	0.078	0.092
-318.026	-118.459	-0.332	-0.059
-317.012	711.156	-0.069	-0.185
-315.997	168.898	-0.123	0.176
-314.983	2.102	0.321	-0.232
-313.968	-93.587	-0.369	-0.102
-312.953	182.724	-0.071	0.105
-311.939	-143.483	0.447	0.043
-310.924	-35.707	0.155	0.084
-309.910	-18.392	-0.144	-0.090
-308.895	-115.897	-0.196	-0.037
-307.880	-200.000	-0.002	-0.051
-306.866	435.227	0.062	0.135
-305.851	106.071	-0.092	0.110
-304.837	645.643	0.182	-0.467
-303.822	-200.000	0.036	0.260
-302.807	232.702	0.039	-0.065
-301.793	-135.380	-0.168	-0.020
-300.778	24.796	0.148	0.123
-299.764	85.612	-0.074	0.082
-298.749	-200.000	-0.061	-0.333
-297.735	-105.419	-0.247	-0.056
-296.720	1.065	0.266	0.192
-295.705	-19.029	-0.075	0.047
-294.691	20.250	-0.116	0.094
-293.676	-131.050	0.164	-0.022
-292.662	-39.333	0.239	0.126
-291.647	-32.506	0.308	0.172
-290.632	-120.662	-0.314	0.053
-289.618	190.869	-0.051	0.076
-288.603	525.692	-0.034	-0.079
-287.589	-122.963	-0.245	-0.039
-286.574	333.624	-0.109	0.212
-285.559	144.117	0.212	-0.283
-284.545	-124.301	0.110	-0.017
-283.530	-121.313	-0.166	-0.028
-282.516	546.158	-0.108	-0.258
-281.501	-200.000	-0.039	0.185
-280.486	-27.512	0.292	0.170
-279.472	153.465	0.211	0.289
-278.457	-200.000	0.052	-0.328
-277.443	779.567	-0.142	-0.390
-276.428	-114.497	0.103	-0.020
-275.413	72.857	-0.191	0.200
-274.399	97.888	0.430	0.496
-273.384	-200.000	0.040	0.262
-272.370	-119.798	-0.252	-0.043
-271.355	-28.440	0.200	-0.116
-270.340	800.000	0.099	-0.382
-269.326	12.245	-0.147	0.113
-268.311	800.000	-0.107	-0.321
-267.297	-98.364	-0.156	-0.040
-266.282	-114.642	0.161	-0.031
-265.267	27.440	-0.242	-0.204
-264.253	212.198	-0.057	0.090
-263.238	-168.006	-0.117	-0.005
-262.224	139.508	-0.171	0.225
-261.209	11.175	0.124	-0.095
-260.195	-26.922	-0.137	-0.080
-259.180	-90.207	0.184	0.053
-258.165	80.538	-0.138	0.149
-257.151	-200.000	0.019	-0.124
-256.136	74.455	-0.103	-0.108
-255.122	-200.000	-0.022	0.247
-254.107	-108.627	0.339	0.073
-253.092	-200.000	0.017	0.140
-252.078	-164.202	0.401	-0.018
-251.063	-1.656	-0.360	-0.254
-250.049	-200.000	-0.047	0.239
-249.034	57.528	-0.184	0.180
-248.019	800.000	0.019	-0.076
-247.005	182.765	0.135	0.200
-245.990	-5.676	-0.259	0.177
-244.976	-1.621	0.158	0.112
-243.961	356.353	-0.014	0.028
-242.946	95.591	-0.026	0.030
-241.932	126.323	-0.181	0.229
-240.917	-12.965	0.155	0.101
-239.903	191.185	-0.125	0.188
-238.888	-73.248	-0.292	-0.107
-237.873	93.603	0.042	0.047
-236.859	-1.743	-0.102	0.072
-235.844	800.000	-0.053	0.213
-234.830	-109.109	0.138	-0.029
-233.815	142.920	-0.091	-0.121
-232.800	800.000	-0.085	-0.277
-231.786	10.786	-0.178	0.136
-230.771	-68.776	0.463	-0.179
-229.757	-200.000	-0.038	-0.215
-228.742	-75.875	-0.171	0.060
-227.727	140.055	0.073	0.097
-226.713	-98.069	-0.090	-0.023
-225.698	-200.000	-0.001	-0.017
-224.684	-200.000	0.040	0.253
-223.669	27.275	0.258	0.217
-222.655	213.435	-0.149	0.236
-221.640	368.565	0.211	0.427
-220.625	-132.661	0.100	0.013
-219.611	3.844	-0.258	0.188
-218.596	76.742	-0.039	0.042
-217.582	301.825	-0.048	0.088
-216.567	-76.665	-0.316	0.111
-215.552	-32.390	-0.196	0.109
-214.538	-128.202	0.199	0.028
-213.523	363.353	0.022	0.044
-212.509	-40.325	-0.259	-0.135
-211.494	-190.567	0.282	0.003
-210.479	-56.152	0.055	-0.024
-209.465	-33.501	0.253	0.140
-208.450	800.000	0.026	-0.079
-207.436	-117.871	0.222	-0.040
-206.421	284.638	0.145	0.261
-205.406	430.730	0.084	-0.181
-204.392	543.594	0.106	-0.254
-203.377	27.527	-0.262	-0.220
-202.363	79.508	-0.109	0.117
-201.348	729.306	0.060	-0.159
-200.333	800.000	-0.087	-0.248
-199.319	795.518	-0.117	0.321
-198.304	348.054	0.114	0.225
-197.290	-200.000	-0.022	0.117
-196.275	-110.888	0.176	0.036
-195.260	-7.969	0.346	0.233
-194.246	207.607	0.225	0.351
-193.231	-127.672	0.255	-0.037
-192.217	-200.000	-0.003	-0.049
-191.202	800.000	0.038	-0.117
-190.187	693.455	-0.092	0.240
-189.173	-66.126	-0.126	-0.050
-188.158	-200.000	0.035	-0.155
-187.144	-200.000	0.027	-0.321
-186.129	-91.885	0.294	0.083
-185.114	117.430	-0.026	0.032
-184.100	-200.000	-0.029	0.128
-183.085	-200.000	0.038	-0.175
-182.071	-200.000	-0.013	-0.175
-181.056	-200.000	-0.045	-0.266
-180.042	77.456	0.142	-0.150
-179.027	51.236	-0.272	0.257
-178.012	-115.394	0.207	0.039
-176.998	800.000	0.023	0.097
-175.983	364.369	0.127	-0.255
-174.969	-132.445	-0.058	0.007
-173.954	-185.023	0.055	-0.001
-172.939	8.736	0.135	0.102
-171.925	-104.355	0.331	-0.077
-170.910	78.856	0.075	-0.080
-169.896	-96.448	0.254	0.067
-168.881	196.129	-0.142	0.216
-167.866	-131.170	-0.199	-0.026
-166.852	605.283	-0.094	-0.234
-165.837	236.364	0.124	0.205
-164.823	62.140	0.182	-0.181
-163.808	-126.980	0.204	0.030
-162.793	-146.538	0.276	0.024
-161.779	432.424	0.060	0.131
-160.764	448.286	-0.027	-0.059
-159.750	-49.438	0.023	-0.011
-158.735	92.583	0.103	-0.116
-157.720	-200.000	-0.028	-0.263
-156.706	-48.980	-0.135	0.064
-155.691	47.605	-0.132	0.123
-154.677	-17.468	-0.121	-0.076
-153.662	143.283	-0.195	0.259
-152.647	16.287	0.120	0.094
-151.633	48.587	0.155	0.145
-150.618	-73.230	0.218	-0.080
-149.604	178.179	-0.104	-0.151
-148.589	-200.000	-0.006	0.068
-147.574	91.972	-0.058	-0.065
-146.560	-118.979	-0.144	0.025
-145.545	609.832	0.087	0.218
-144.531	800.000	-0.123	0.377
-143.516	-168.244	0.320	0.012
-142.502	-30.226	0.358	-0.203
-141.487	67.976	-0.208	0.213
-140.472	-65.995	0.113	0.045
-139.458	262.111	0.157	0.271
-138.443	47.744	-0.033	-0.031
-137.429	322.595	-0.111	0.212
-136.414	35.420	-0.047	0.041
-135.399	-1.372	0.141	-0.099
-134.385	-34.660	0.383	0.209
-133.370	-117.077	-0.068	-0.012
-132.356	800.000	0.005	-0.016
-131.341	800.000	0.064	0.216
-130.326	24.441	-0.167	0.138
-129.312	-35.124	0.256	0.139
-128.297	-12.495	0.195	0.127
-127.283	11.227	-0.351	0.268
-126.268	223.282	0.091	-0.146
-125.253	183.927	0.184	0.271
-124.239	-140.167	0.180	-0.019
-123.224	320.198	0.124	-0.235
-122.210	-67.075	-0.146	0.058
