DTS Sentinel unit serial number:	SN413079Multiplexer serial number:	ORYXHardware model number:	OX4-SRSoftware version number:	ORYX F/W v4.00 Oryx Data Collector v3.7.2.0data status	okinstallation	princeton_trtdifferential loss correction	single-endedforward channel	channel 4reverse channel	N/Adate	2019/09/18time	10:49:34forward acquisition time	60.00reverse acquisition time	0.00gamma	496.2192k internal	0.2314k external	0.2314temperature offset calibration	0.9985default loss term (dB/km)	0.3790temperature slope calibration	1.0000multiplexer offset coefficient	1.0000multiplexer slope coefficient	1.0000fibre end	0.00T internal ref (°C)	28.98T ext. ref 1 (°C)	0.38T ext. ref 2 (°C)	25.39length (m)	temperature (°C)	Stokes	anti-Stokes-747.200	-8.335	0.364	0.249
-746.185	121.017	-0.099	0.125
-745.171	-29.735	-0.204	-0.118
-744.156	-97.075	-0.253	0.067
-743.142	-56.939	0.104	-0.047
-742.127	705.564	0.033	-0.088
-741.112	112.261	-0.126	-0.154
-740.098	-123.230	0.294	-0.048
-739.083	160.674	-0.099	0.140
-738.069	-51.259	-0.071	0.034
-737.054	-67.979	0.153	-0.061
-736.039	-200.000	-0.004	0.100
-735.025	-18.802	0.211	-0.133
-734.010	-74.555	-0.209	-0.076
-732.996	-12.288	-0.121	-0.080
-731.981	-169.397	-0.290	-0.011
-730.966	-80.002	-0.179	-0.061
-729.952	62.892	-0.159	-0.161
-728.937	69.067	-0.276	-0.288
-727.923	-200.000	0.007	-0.136
-726.908	-146.950	-0.098	0.009
-725.894	-200.000	-0.024	-0.141
-724.879	-55.129	-0.107	0.049
-723.864	76.633	0.055	-0.059
-722.850	-114.483	-0.271	-0.053
-721.835	12.269	-0.241	0.188
-720.821	491.590	0.061	0.142
-719.806	-39.074	-0.242	-0.129
-718.791	288.235	0.062	-0.114
-717.777	78.541	-0.113	-0.123
-716.762	800.000	0.084	-0.253
-715.748	-43.122	-0.412	-0.211
-714.733	13.314	-0.203	-0.160
-713.718	112.866	0.195	0.239
-712.704	-48.836	0.144	0.070
-711.689	-6.610	-0.187	0.129
-710.675	115.902	0.085	-0.106
-709.660	595.720	-0.133	-0.333
-708.645	800.000	0.086	0.323
-707.631	-185.083	-0.213	-0.003
-706.616	800.000	-0.048	-0.160
-705.602	-122.676	0.470	0.077
-704.587	-117.333	0.169	0.031
-703.572	-200.000	0.015	-0.203
-702.558	199.476	0.240	-0.373
-701.543	487.230	-0.092	0.212
-700.529	800.000	-0.120	0.364
-699.514	777.217	-0.135	-0.372
-698.499	-200.000	-0.012	0.408
-697.485	46.243	0.260	-0.243
-696.470	30.188	-0.107	0.093
-695.456	58.572	0.160	-0.159
-694.441	-114.292	-0.029	0.006
-693.426	-120.941	-0.316	0.054
-692.412	98.842	0.260	0.304
-691.397	-176.153	-0.328	-0.009
-690.383	-200.000	-0.033	0.185
-689.368	31.682	-0.078	-0.068
-688.354	-146.589	-0.307	-0.027
-687.339	104.128	0.134	0.159
-686.324	-183.499	0.311	0.005
-685.310	-57.349	-0.087	-0.039
-684.295	-169.877	-0.166	0.006
-683.281	23.915	0.269	0.224
-682.266	-89.224	0.232	0.069
-681.251	-54.966	0.132	0.060
-680.237	37.529	-0.160	-0.144
-679.222	800.000	-0.039	-0.122
-678.208	-32.528	-0.262	0.148
-677.193	-200.000	0.071	-0.380
-676.178	102.275	-0.172	-0.203
-675.164	8.554	0.054	-0.041
-674.149	-27.176	-0.281	-0.166
-673.135	-200.000	-0.009	-0.297
-672.120	-118.693	0.175	-0.031
-671.105	-130.629	-0.418	0.057
-670.091	-200.000	-0.033	-0.166
-669.076	-107.136	0.067	-0.015
-668.062	-200.000	0.039	-0.507
-667.047	-200.000	-0.046	0.246
-666.032	-183.704	0.217	-0.004
-665.018	-49.378	-0.238	0.115
-664.003	178.876	-0.175	0.258
-662.989	81.740	0.264	0.289
-661.974	-115.919	0.309	0.058
-660.959	800.000	-0.053	0.166
-659.945	6.361	-0.372	0.279
-658.930	-51.602	0.128	-0.060
-657.916	32.364	-0.197	0.172
-656.901	-56.843	0.046	-0.021
-655.886	788.362	-0.054	-0.149
-654.872	222.386	-0.058	0.094
-653.857	0.645	-0.129	-0.093
-652.843	-200.000	0.012	-0.144
-651.828	250.479	-0.123	-0.211
-650.814	640.487	0.082	-0.210
-649.799	111.484	0.079	-0.097
-648.784	-78.860	0.172	0.059
-647.770	-111.063	0.038	0.008
-646.755	-69.644	-0.466	0.180
-645.741	5.247	0.155	0.115
-644.726	63.957	-0.169	0.171
-643.711	-104.172	-0.134	0.032
-642.697	523.302	0.060	-0.142
-641.682	135.196	0.092	-0.121
-640.668	385.582	0.098	-0.204
-639.653	-17.559	-0.258	0.164
-638.638	-98.648	-0.209	-0.054
-637.624	-185.134	0.106	-0.002
-636.609	112.156	-0.200	0.244
-635.595	-55.192	0.215	-0.098
-634.580	560.575	-0.067	0.163
-633.565	-200.000	0.011	-0.066
-632.551	-200.000	-0.017	-0.102
-631.536	-111.065	-0.227	-0.047
-630.522	103.343	0.247	-0.292
-629.507	292.822	-0.046	0.084
-628.492	38.241	0.131	0.118
-627.478	108.682	-0.101	-0.122
-626.463	-200.000	-0.020	0.169
-625.449	-28.073	0.302	-0.176
-624.434	55.347	0.379	-0.370
-623.419	-76.381	0.140	-0.050
-622.405	85.142	0.142	0.157
-621.390	-200.000	-0.039	-0.295
-620.376	543.585	-0.053	0.127
-619.361	65.731	0.156	0.159
-618.346	-47.633	-0.378	-0.185
-617.332	29.670	-0.196	-0.168
-616.317	418.552	-0.142	-0.306
-615.303	-114.312	-0.419	0.081
-614.288	-200.000	0.046	0.228
-613.273	-200.000	-0.686	-0.000
-612.259	800.000	-0.049	0.140
-611.244	-147.125	-0.381	-0.033
-610.230	-143.587	0.197	-0.019
-609.215	-200.000	-0.003	0.126
-608.201	669.104	-0.069	0.181
-607.186	31.601	0.253	-0.220
-606.171	-42.021	0.245	-0.127
-605.157	-200.000	0.043	-0.238
-604.142	-36.045	-0.037	-0.020
-603.128	-83.100	-0.309	0.100
-602.113	-179.544	0.214	-0.005
-601.098	22.484	0.170	0.140
-600.084	-14.118	-0.019	0.012
-599.069	68.810	0.029	-0.030
-598.055	-173.376	-0.033	-0.001
-597.040	71.726	0.062	-0.065
-596.025	-200.000	0.042	-0.198
-595.011	-95.579	-0.309	-0.083
-593.996	220.533	-0.105	0.170
-592.982	-40.474	0.063	0.033
-591.967	585.410	0.081	-0.200
-590.952	-65.709	0.206	0.083
-589.938	571.188	-0.198	0.486
-588.923	800.000	0.026	0.104
-587.909	132.857	0.136	0.177
-586.894	-83.164	0.258	-0.083
-585.879	-14.217	-0.184	0.120
-584.865	-72.389	0.055	0.020
-583.850	227.122	0.156	0.255
-582.836	-61.415	0.012	-0.005
-581.821	-146.840	-0.315	0.027
-580.806	-200.000	-0.009	0.517
-579.792	137.415	-0.124	-0.164
-578.777	321.087	-0.202	0.386
-577.763	449.843	-0.098	-0.219
-576.748	-3.912	-0.207	0.145
-575.733	-153.551	-0.175	0.012
-574.719	152.412	0.217	0.298
-573.704	-200.000	-0.032	-0.183
-572.690	5.360	0.330	0.245
-571.675	-107.399	-0.216	0.048
-570.661	185.252	0.132	-0.198
-569.646	113.097	0.035	0.043
-568.631	-29.870	0.403	0.231
-567.617	162.021	0.177	0.249
-566.602	460.566	0.050	-0.113
-565.588	132.242	-0.265	-0.343
-564.573	-106.336	0.328	0.074
-563.558	323.658	-0.119	-0.229
-562.544	-9.223	-0.170	0.115
-561.529	-38.680	-0.338	0.180
-560.515	-200.000	0.017	0.080
-559.500	800.000	0.051	0.208
-558.485	231.233	-0.025	0.041
-557.471	-79.478	-0.229	-0.078
-556.456	-200.000	-0.017	0.159
-555.442	800.000	-0.068	-0.292
-554.427	-56.959	-0.117	-0.052
-553.412	365.403	-0.041	0.083
-552.398	43.010	0.143	-0.131
-551.383	307.900	-0.134	0.251
-550.369	-105.297	-0.144	-0.033
-549.354	-25.173	0.342	-0.204
-548.339	431.942	-0.065	-0.142
-547.325	-45.217	-0.082	-0.041
-546.310	7.336	0.064	0.048
-545.296	-200.000	-0.004	-0.172
-544.281	-128.632	0.406	0.058
-543.266	39.559	-0.270	0.244
-542.252	-200.000	0.015	-0.146
-541.237	-56.684	-0.124	0.055
-540.223	-48.330	-0.306	0.148
-539.208	-200.000	-0.006	0.099
-538.193	-36.903	-0.236	0.127
-537.179	-138.923	-0.285	-0.031
-536.164	335.391	-0.053	0.104
-535.150	85.447	0.101	0.112
-534.135	196.177	-0.081	-0.124
-533.121	464.617	0.064	0.144
-532.106	-114.174	-0.315	-0.061
-531.091	-42.966	-0.122	-0.062
-530.077	-200.000	0.091	0.519
-529.062	-200.000	0.000	-0.108
-528.048	65.459	0.092	-0.094
-527.033	-77.683	-0.258	-0.090
-526.018	-3.852	-0.233	-0.163
-525.004	703.875	-0.070	-0.186
-523.989	741.487	-0.060	0.161
-522.975	-72.664	0.144	0.053
-521.960	4.149	-0.081	0.059
-520.945	-91.827	0.215	-0.061
-519.931	-80.407	0.170	-0.057
-518.916	189.806	-0.200	0.302
-517.902	-31.746	-0.262	-0.148
-516.887	-200.000	0.318	0.000
-515.872	13.771	0.150	-0.117
-514.858	168.579	0.182	0.261
-513.843	-167.805	0.199	-0.008
-512.829	-76.921	-0.102	-0.036
-511.814	27.641	-0.118	0.100
-510.799	800.000	-0.066	0.238
-509.785	-200.000	-0.057	0.363
-508.770	800.000	0.020	-0.084
-507.756	45.220	-0.082	0.076
-506.741	-114.902	0.116	0.022
-505.726	-200.000	0.013	-0.148
-504.712	800.000	0.108	-0.302
-503.697	-139.001	0.133	0.014
-502.683	101.055	-0.102	-0.119
-501.668	800.000	0.081	0.302
-500.653	-200.000	-0.012	0.179
-499.639	-106.059	-0.372	0.084
-498.624	194.774	0.089	0.136
-497.610	416.337	-0.119	0.255
-496.595	-15.369	0.144	0.092
-495.581	-200.000	-0.030	0.211
-494.566	-144.476	-0.411	-0.038
-493.551	37.804	0.082	-0.074
-492.537	211.496	0.133	-0.210
-491.522	-182.754	-0.194	0.004
-490.508	5.083	0.275	0.204
-489.493	-200.000	0.020	0.157
-488.478	-200.000	0.011	0.065
-487.464	-39.056	0.154	-0.081
-486.449	106.523	0.218	0.259
-485.435	-96.157	0.157	0.042
-484.420	-183.331	0.306	0.005
-483.405	160.453	-0.138	0.194
-482.391	207.808	0.021	-0.033
-481.376	175.481	-0.081	-0.118
-480.362	218.171	-0.073	-0.117
-479.347	-60.061	-0.162	-0.069
-478.332	-200.000	0.000	0.041
-477.318	800.000	-0.069	-0.192
-476.303	-30.018	-0.182	0.104
-475.289	116.591	-0.074	0.091
-474.274	-22.766	0.123	-0.075
-473.259	-89.014	0.139	0.041
-472.245	93.005	-0.152	-0.173
-471.230	-148.711	-0.322	-0.026
-470.216	-65.393	0.143	-0.058
-469.201	-99.798	0.203	-0.051
-468.186	17.895	-0.245	-0.195
-467.172	122.694	-0.084	-0.105
-466.157	-200.000	-0.055	-0.244
-465.143	-200.000	-0.002	0.058
-464.128	-200.000	-0.046	0.246
-463.113	60.578	0.340	0.338
-462.099	-200.000	0.003	-0.136
-461.084	-28.301	-0.175	0.101
-460.070	-45.221	0.093	-0.046
-459.055	90.250	0.229	-0.256
-458.040	58.123	0.271	0.267
-457.026	46.086	-0.082	0.076
-456.011	-144.674	-0.304	0.028
-454.997	10.848	0.093	0.071
-453.982	-41.958	0.196	0.100
-452.968	333.965	-0.035	0.067
-451.953	-107.119	-0.260	-0.057
-450.938	76.410	-0.220	-0.234
-449.924	11.708	-0.082	-0.063
-448.909	-113.973	-0.153	-0.030
-447.895	359.709	0.137	0.275
-446.880	444.506	0.104	0.229
-445.865	-134.902	0.351	0.043
-444.851	800.000	-0.108	-0.316
-443.836	-109.297	0.348	-0.074
-442.822	19.124	-0.128	0.103
-441.807	31.375	0.212	0.183
-440.792	-36.040	-0.260	-0.141
-439.778	-14.483	-0.259	0.167
-438.763	-147.801	-0.207	0.017
-437.749	297.420	-0.061	0.113
-436.734	-18.800	0.355	-0.221
-435.719	-125.851	0.184	0.028
-434.705	-137.639	-0.020	-0.002
-433.690	-200.000	-0.005	0.243
-432.676	31.010	-0.054	0.047
-431.661	-200.000	-0.011	0.280
-430.646	-142.194	0.186	-0.018
-429.632	-200.000	-0.017	-0.140
-428.617	-139.628	-0.130	0.014
-427.603	-200.000	-0.028	-0.215
-426.588	-200.000	-0.009	0.102
-425.573	8.979	0.218	0.164
-424.559	161.055	-0.094	0.132
-423.544	-58.991	-0.174	-0.075
-422.530	398.784	-0.042	-0.089
-421.515	389.727	0.060	0.124
-420.500	-91.922	0.095	0.027
-419.486	-200.000	-0.002	0.233
-418.471	800.000	0.167	-0.493
-417.457	-11.020	-0.216	0.143
-416.442	38.043	-0.213	0.189
-415.428	800.000	-0.052	-0.214
-414.413	800.000	0.119	-0.372
-413.398	-54.810	0.245	-0.111
-412.384	-31.581	0.096	-0.054
-411.369	40.392	-0.050	0.045
-410.355	60.439	0.308	0.305
-409.340	280.672	0.078	0.140
-408.325	-36.710	-0.241	-0.130
-407.311	-91.662	0.303	0.086
-406.296	800.000	0.059	-0.164
-405.282	534.933	-0.150	-0.356
-404.267	800.000	0.067	-0.185
-403.252	-49.756	0.366	-0.174
-402.238	-47.113	0.165	-0.081
-401.223	-0.788	0.148	0.105
-400.209	-47.324	0.096	0.047
-399.194	150.506	-0.048	0.065
-398.179	15.207	-0.174	0.136
-397.165	-156.157	-0.149	0.009
-396.150	-121.564	0.446	0.074
-395.136	54.469	-0.149	0.143
-394.121	30.690	-0.082	0.070
-393.106	-85.190	0.391	-0.122
-392.092	-200.000	0.025	-0.270
-391.077	-200.000	0.003	-0.198
-390.063	-89.520	0.265	0.078
-389.048	-84.214	-0.404	-0.128
-388.033	-200.000	-0.012	-0.220
-387.019	800.000	-0.046	-0.131
-386.004	-200.000	0.009	-0.077
-384.990	-36.019	-0.237	-0.128
-383.975	-200.000	0.003	-0.128
-382.960	59.846	0.133	0.132
-381.946	74.537	0.149	0.157
-380.931	-200.000	-0.020	-0.331
-379.917	-26.355	-0.168	0.099
-378.902	-91.309	0.164	0.047
-377.888	-200.000	0.329	0.001
-376.873	15.675	-0.426	-0.335
-375.858	310.336	-0.189	0.353
-374.844	800.000	0.038	0.134
-373.829	105.926	0.055	-0.065
-372.815	-35.776	-0.145	0.078
-371.800	800.000	0.060	0.188
-370.785	-174.013	0.092	0.003
-369.771	-140.723	-0.391	-0.040
-368.756	387.367	0.128	0.264
-367.742	-200.000	-0.011	-0.081
-366.727	290.646	0.243	-0.441
-365.712	800.000	0.164	-0.475
-364.698	-200.000	0.002	-0.048
-363.683	-18.165	0.167	0.104
-362.669	-62.437	-0.111	0.046
-361.654	-200.000	-0.054	-0.373
-360.639	679.207	-0.050	0.131
-359.625	172.006	-0.251	0.360
-358.610	21.073	-0.263	-0.213
-357.596	-89.355	0.286	-0.084
-356.581	185.379	0.125	0.186
-355.566	800.000	0.032	-0.122
-354.552	86.030	-0.184	-0.203
-353.537	475.361	-0.114	0.257
-352.523	415.239	0.165	0.352
-351.508	800.000	0.106	0.317
-350.493	81.861	0.150	-0.162
-349.479	-95.393	0.315	-0.084
-348.464	482.500	0.102	-0.232
-347.450	-200.000	0.014	0.270
-346.435	-81.700	-0.356	-0.117
-345.420	800.000	0.045	-0.134
-344.406	142.244	0.146	-0.193
-343.391	5.057	-0.146	0.107
-342.377	488.511	0.074	-0.169
-341.362	-54.005	0.118	0.054
-340.348	-12.032	0.075	-0.049
-339.333	248.036	0.103	0.173
-338.318	97.357	0.346	-0.396
-337.304	-200.000	0.034	0.357
-336.289	-122.948	-0.451	-0.072
-335.275	-66.054	-0.241	-0.096
-334.260	-200.000	-0.081	-0.449
-333.245	-200.000	-0.012	-0.151
-332.231	120.330	-0.100	0.124
-331.216	-17.547	-0.090	0.056
-330.202	-141.333	-0.174	0.018
-329.187	-145.959	0.144	0.013
-328.172	-37.575	-0.179	0.095
-327.158	-62.534	-0.225	0.093
-326.143	17.446	-0.128	-0.101
-325.129	-112.056	0.204	0.041
-324.114	-126.433	0.146	-0.022
-323.099	569.749	0.124	-0.300
-322.085	-158.156	-0.152	-0.009
-321.070	-200.000	-0.003	-0.085
-320.056	184.051	0.370	-0.545
-319.041	800.000	0.121	-0.489
-318.026	272.163	0.136	-0.239
-317.012	446.063	-0.106	0.233
-315.997	-200.000	0.016	0.271
-314.983	-200.000	-0.048	-0.413
-313.968	193.484	-0.027	-0.040
-312.953	-96.052	-0.176	-0.047
-311.939	-136.164	-0.320	-0.037
-310.924	128.575	-0.228	0.290
-309.910	170.320	0.042	-0.060
-308.895	-45.064	-0.369	0.183
-307.880	-127.473	0.103	0.015
-306.866	-200.000	0.038	0.315
-305.851	-38.785	0.138	0.072
-304.837	-105.431	0.281	0.064
-303.822	-86.518	0.164	-0.050
-302.807	81.584	0.070	-0.075
-301.793	-200.000	-0.000	0.114
-300.778	-200.000	-0.009	-0.330
-299.764	-61.746	-0.226	-0.095
-298.749	136.226	-0.223	-0.290
-297.735	-11.751	0.095	0.062
-296.720	312.512	-0.165	0.309
-295.705	-99.507	0.129	0.032
-294.691	179.972	-0.120	-0.175
-293.676	279.528	-0.043	-0.077
-292.662	-110.093	-0.133	0.028
-291.647	-98.558	-0.304	0.077
-290.632	158.153	-0.223	-0.308
-289.618	6.432	-0.095	0.071
-288.603	800.000	0.059	0.179
-287.589	514.683	0.032	0.074
-286.574	201.553	0.241	0.369
-285.559	84.435	0.043	0.047
-284.545	-200.000	-0.010	-0.166
-283.530	-200.000	-0.058	-0.310
-282.516	-8.007	0.277	-0.186
-281.501	-78.929	0.259	-0.088
-280.486	-200.000	-0.012	-0.167
-279.472	60.922	-0.281	0.278
-278.457	-68.436	0.170	-0.066
-277.443	-12.654	-0.057	-0.037
-276.428	-85.330	-0.251	-0.078
-275.413	-180.450	0.368	0.008
-274.399	569.018	0.094	0.226
-273.384	132.997	-0.080	0.102
-272.370	273.481	0.132	0.233
-271.355	-150.983	0.098	-0.007
-270.340	64.265	-0.066	-0.066
-269.326	-34.158	0.296	-0.162
-268.311	-200.000	0.033	-0.171
-267.297	117.436	-0.057	0.070
-266.282	-64.740	0.210	0.084
-265.267	-146.673	-0.141	0.012
-264.253	-103.933	-0.348	0.081
-263.238	99.569	-0.072	0.083
-262.224	-200.000	-0.002	-0.092
-261.209	63.993	0.067	0.067
-260.195	-45.323	-0.046	0.023
-259.180	-200.000	0.013	0.327
-258.165	40.122	0.132	-0.118
-257.151	-100.923	-0.026	0.006
-256.136	-21.551	0.155	0.094
-255.122	-200.000	0.033	-0.200
-254.107	61.222	-0.082	0.081
-253.092	-93.506	0.252	0.069
-252.078	274.303	-0.084	-0.149
-251.063	800.000	-0.029	-0.103
-250.049	178.805	-0.175	-0.255
-249.034	255.004	0.111	0.188
-248.019	-108.514	-0.150	0.032
-247.005	253.848	0.050	-0.086
-245.990	80.360	-0.214	0.229
-244.976	-31.376	-0.205	0.115
-243.961	185.819	0.128	-0.189
-242.946	40.923	-0.092	0.082
-241.932	-200.000	0.006	-0.307
-240.917	-87.220	0.341	-0.103
-239.903	800.000	-0.044	0.131
-238.888	794.639	0.040	0.111
-237.873	360.095	0.031	0.062
-236.859	-200.000	-0.019	0.126
-235.844	219.382	-0.099	0.158
-234.830	189.537	0.035	0.052
-233.815	38.547	-0.136	-0.120
-232.800	148.105	0.200	-0.268
-231.786	-45.446	0.394	-0.194
-230.771	70.736	-0.258	0.266
-229.757	-47.246	0.310	-0.150
-228.742	-76.032	0.301	0.106
-227.727	-64.495	-0.227	-0.092
-226.713	-129.552	-0.153	-0.021
-225.698	-89.246	0.151	0.044
-224.684	-60.233	0.401	0.170
-223.669	275.716	0.046	0.082
-222.655	162.240	-0.202	-0.281
-221.640	-133.255	0.273	0.034
-220.625	-91.533	-0.351	0.099
-219.611	-151.707	0.210	0.015
-218.596	232.090	-0.056	-0.091
-217.582	-70.635	0.228	0.085
-216.567	-7.880	0.120	0.081
-215.552	-126.058	-0.324	-0.048
-214.538	-200.000	-0.001	0.127
-213.523	800.000	0.068	-0.192
-212.509	-82.604	0.224	0.072
-211.494	-87.653	-0.159	0.048
-210.479	800.000	-0.040	0.160
-209.465	19.022	0.171	-0.136
-208.450	-41.487	0.265	0.136
-207.436	446.096	-0.088	-0.193
-206.421	-200.000	0.004	0.095
-205.406	276.379	0.145	-0.256
-204.392	-122.810	0.249	-0.040
-203.377	-200.000	-0.007	-0.086
-202.363	364.558	0.099	0.198
-201.348	800.000	-0.009	0.036
-200.333	-200.000	-0.015	-0.518
-199.319	800.000	-0.021	-0.072
-198.304	5.070	-0.242	0.177
-197.290	-143.626	-0.466	-0.044
-196.275	-110.423	-0.079	-0.016
-195.260	198.170	0.162	0.245
-194.246	-85.001	0.301	-0.094
-193.231	-200.000	0.087	0.398
-192.217	57.891	-0.082	-0.080
-191.202	-200.000	-0.007	-0.120
-190.187	42.281	-0.153	0.138
-189.173	380.578	0.212	-0.431
-188.158	-36.380	-0.113	-0.061
-187.144	-96.237	-0.053	-0.014
-186.129	-84.577	-0.172	-0.054
-185.114	126.153	0.157	0.197
-184.100	-146.891	0.132	0.011
-183.085	139.182	-0.220	0.287
-182.071	37.403	0.025	-0.022
-181.056	-200.000	-0.081	-0.445
-180.042	-64.486	-0.281	-0.113
-179.027	187.904	0.093	-0.138
-178.012	80.404	0.239	-0.255
-176.998	-40.062	-0.044	0.023
-175.983	-200.000	-0.001	0.098
-174.969	-200.000	-0.014	0.159
-173.954	29.319	-0.128	-0.108
-172.939	19.764	-0.234	-0.187
-171.925	297.127	-0.187	-0.340
-170.910	-63.787	0.076	-0.031
-169.896	-126.621	-0.223	-0.033
-168.881	-111.586	-0.042	-0.008
-167.866	357.938	0.034	0.067
-166.852	-150.627	0.287	0.022
-165.837	215.531	0.047	-0.074
-164.823	150.741	-0.123	0.165
-163.808	-15.304	-0.215	-0.136
-162.793	-89.913	0.062	-0.018
-161.779	-200.000	0.055	0.330
-160.764	-135.140	0.264	-0.031
-159.750	306.020	0.122	0.224
-158.735	-79.233	0.336	0.113
-157.720	44.235	0.345	0.314
-156.706	-41.837	-0.222	-0.113
-155.691	800.000	0.058	0.215
-154.677	-61.627	0.052	-0.022
-153.662	-40.560	0.257	-0.132
-152.647	-73.073	-0.102	-0.037
-151.633	27.320	-0.083	-0.069
-150.618	22.024	0.117	-0.095
-149.604	-180.466	0.095	0.002
-148.589	-200.000	0.016	-0.349
-147.574	172.980	0.063	0.089
-146.560	570.024	0.089	0.215
-145.545	800.000	0.042	-0.147
-144.531	-70.150	0.129	0.049
-143.516	-200.000	0.042	-0.246
-142.502	-50.933	0.183	0.085
-141.487	-200.000	-0.013	0.105
-140.472	-112.812	-0.330	0.065
-139.458	-200.000	0.000	0.174
-138.443	-200.000	0.020	0.247
-137.429	293.462	-0.063	0.113
-136.414	-127.348	-0.237	0.034
-135.399	227.332	0.124	-0.199
-134.385	34.044	-0.448	0.387
-133.370	-200.000	-0.038	-0.190
-132.356	-27.106	0.228	0.131
-131.341	-9.556	-0.253	0.167
-130.326	-149.463	-0.088	0.007
-129.312	126.827	0.080	-0.101
-128.297	-200.000	0.031	-0.364
-127.283	-114.427	-0.334	-0.064
-126.268	135.601	0.351	-0.452
-125.253	188.924	-0.190	-0.281
-124.239	183.374	0.037	-0.054
-123.224	15.164	-0.371	0.288
-122.210	-96.639	0.364	-0.095
