DTS Sentinel unit serial number:	SN413079Multiplexer serial number:	ORYXHardware model number:	OX4-SRSoftware version number:	ORYX F/W v4.00 Oryx Data Collector v3.7.2.0data status	okinstallation	princeton_trtdifferential loss correction	single-endedforward channel	channel 4reverse channel	N/Adate	2019/09/18time	10:01:34forward acquisition time	60.00reverse acquisition time	0.00gamma	496.2192k internal	0.2319k external	0.2319temperature offset calibration	0.9983default loss term (dB/km)	0.3790temperature slope calibration	1.0000multiplexer offset coefficient	1.0000multiplexer slope coefficient	1.0000fibre end	0.00T internal ref (°C)	27.48T ext. ref 1 (°C)	0.31T ext. ref 2 (°C)	23.94length (m)	temperature (°C)	Stokes	anti-Stokes-747.200	-200.000	-0.001	0.028
-746.185	-100.047	-0.146	-0.037
-745.171	228.583	0.027	0.045
-744.156	-136.520	-0.312	-0.037
-743.142	67.574	-0.132	-0.137
-742.127	69.054	-0.415	-0.431
-741.112	24.211	-0.135	-0.113
-740.098	49.651	-0.098	0.093
-739.083	372.782	0.082	0.169
-738.069	194.584	0.184	0.283
-737.054	409.912	-0.084	0.181
-736.039	-81.836	-0.426	0.141
-735.025	-62.894	-0.079	-0.033
-734.010	-29.268	-0.213	-0.123
-732.996	-50.685	0.118	-0.056
-731.981	-159.661	-0.354	-0.020
-730.966	-102.753	0.152	-0.037
-729.952	41.739	-0.057	0.052
-728.937	-63.139	-0.193	0.081
-727.923	85.566	-0.119	0.132
-726.908	207.543	-0.182	-0.286
-725.894	45.148	-0.122	0.114
-724.879	-200.000	0.219	0.001
-723.864	78.643	0.202	-0.218
-722.850	-200.000	0.024	-0.131
-721.835	235.281	-0.276	-0.460
-720.821	-102.158	0.073	-0.018
-719.806	-200.000	-0.001	-0.326
-718.791	-102.750	-0.363	-0.087
-717.777	-96.403	-0.230	0.061
-716.762	200.665	-0.150	-0.233
-715.748	-101.285	-0.090	0.022
-714.733	-138.381	-0.202	0.022
-713.718	60.543	-0.179	-0.179
-712.704	-200.000	-0.039	-0.383
-711.689	-23.473	-0.107	0.065
-710.675	14.801	0.132	0.104
-709.660	-200.000	-0.065	-0.347
-708.645	-68.361	-0.364	-0.143
-707.631	764.883	0.058	0.159
-706.616	206.171	-0.166	-0.260
-705.602	222.723	-0.058	-0.094
-704.587	800.000	0.063	0.236
-703.572	-111.423	0.395	-0.081
-702.558	0.861	-0.304	-0.220
-701.543	-151.508	-0.312	0.023
-700.529	-200.000	0.028	0.145
-699.514	-200.000	0.104	-0.464
-698.499	-200.000	-0.004	-0.322
-697.485	214.719	-0.195	-0.312
-696.470	-13.547	-0.173	-0.113
-695.456	-86.962	0.050	-0.015
-694.441	-69.392	-0.065	0.025
-693.426	3.963	0.039	0.029
-692.412	-200.000	0.071	-0.418
-691.397	-200.000	-0.004	0.076
-690.383	190.683	-0.104	0.158
-689.368	212.438	-0.110	0.176
-688.354	800.000	0.143	-0.496
-687.339	147.549	-0.229	-0.311
-686.324	48.657	-0.205	-0.194
-685.310	800.000	0.026	0.103
-684.295	-125.139	-0.312	-0.048
-683.281	800.000	-0.024	0.087
-682.266	-77.762	0.302	0.105
-681.251	665.272	0.113	-0.294
-680.237	4.470	0.322	-0.238
-679.222	40.130	0.179	-0.162
-678.208	-200.000	-0.038	0.270
-677.193	155.569	-0.207	0.288
-676.178	163.420	0.176	0.249
-675.164	-200.000	0.024	-0.198
-674.149	-52.724	-0.167	-0.078
-673.135	-200.000	0.057	0.311
-672.120	-180.567	0.191	0.004
-671.105	201.263	0.161	-0.249
-670.091	3.167	-0.313	0.229
-669.076	2.798	0.130	0.095
-668.062	-117.538	0.132	0.024
-667.047	-184.587	0.205	-0.003
-666.032	-28.651	-0.229	0.133
-665.018	-152.376	0.069	-0.005
-664.003	800.000	-0.024	0.094
-662.989	313.071	-0.158	-0.300
-661.974	73.625	-0.100	0.106
-660.959	-0.479	0.086	-0.062
-659.945	-114.911	0.166	0.032
-658.930	-154.249	-0.143	0.010
-657.916	108.448	-0.209	0.252
-656.901	103.991	0.147	0.174
-655.886	568.481	0.024	0.060
-654.872	134.525	-0.306	0.400
-653.857	-200.000	0.049	0.294
-652.843	-121.477	-0.101	-0.017
-651.828	800.000	-0.100	0.341
-650.814	169.463	0.256	0.369
-649.799	-127.221	-0.302	0.044
-648.784	553.423	0.041	0.098
-647.770	-57.498	0.315	0.139
-646.755	-73.440	0.133	-0.049
-645.741	-4.481	-0.178	-0.124
-644.726	300.462	0.119	-0.221
-643.711	11.627	-0.183	0.142
-642.697	-39.380	-0.139	-0.073
-641.682	-58.045	0.150	0.066
-640.668	409.920	-0.110	-0.235
-639.653	-156.860	-0.355	-0.022
-638.638	-147.230	-0.509	-0.044
-637.624	800.000	0.066	-0.188
-636.609	-39.919	0.231	0.121
-635.595	346.930	-0.108	0.213
-634.580	-200.000	-0.036	0.198
-633.565	93.651	-0.249	-0.284
-632.551	60.176	0.179	-0.178
-631.536	97.808	0.101	0.118
-630.522	-9.639	0.190	-0.128
-629.507	-33.779	0.216	-0.120
-628.492	-39.607	0.110	0.058
-627.478	-120.302	-0.078	0.013
-626.463	-130.376	0.045	0.006
-625.449	-109.398	0.150	0.032
-624.434	104.222	0.218	0.259
-623.419	21.217	-0.227	0.185
-622.405	287.226	-0.002	-0.004
-621.390	127.272	0.142	0.182
-620.376	-200.000	0.049	0.315
-619.361	800.000	0.160	0.629
-618.346	240.751	-0.235	0.395
-617.332	-200.000	0.066	-0.321
-616.317	420.897	-0.115	-0.248
-615.303	19.179	0.477	0.385
-614.288	-13.509	0.164	0.107
-613.273	542.723	0.096	0.230
-612.259	-17.420	-0.176	0.111
-611.244	-10.221	-0.019	-0.013
-610.230	-142.123	0.219	0.022
-609.215	-200.000	0.015	0.259
-608.201	-164.393	-0.024	-0.001
-607.186	-30.523	-0.197	0.112
-606.171	800.000	-0.081	0.284
-605.157	167.522	-0.147	-0.210
-604.142	-200.000	-0.043	-0.368
-603.128	-200.000	-0.009	-0.212
-602.113	187.128	0.037	-0.056
-601.098	220.401	0.057	-0.092
-600.084	-3.465	0.237	-0.166
-599.069	24.031	-0.252	-0.209
-598.055	-200.000	0.011	0.118
-597.040	98.965	0.132	0.154
-596.025	148.346	-0.181	-0.246
-595.011	-77.533	-0.106	-0.037
-593.996	514.715	0.068	0.160
-592.982	-84.338	0.199	-0.063
-591.967	-200.000	-0.002	-0.404
-590.952	98.639	0.178	-0.206
-589.938	800.000	-0.127	-0.403
-588.923	-194.132	0.193	0.002
-587.909	792.241	0.061	0.169
-586.894	-33.405	0.235	-0.131
-585.879	129.503	0.149	-0.191
-584.865	673.823	0.103	-0.270
-583.850	14.206	0.220	-0.172
-582.836	1.439	0.068	-0.049
-581.821	-200.000	0.024	-0.198
-580.806	-200.000	-0.007	0.292
-579.792	-25.660	0.044	-0.026
-578.777	-43.950	0.166	-0.084
-577.763	-52.686	-0.135	0.062
-576.748	7.626	-0.089	-0.067
-575.733	18.326	0.132	-0.106
-574.719	88.500	0.238	0.266
-573.704	246.559	-0.074	0.126
-572.690	-144.350	0.153	0.014
-571.675	-200.000	0.008	-0.221
-570.661	-200.000	-0.038	-0.427
-569.646	-200.000	-0.035	-0.192
-568.631	17.743	0.169	-0.136
-567.617	-38.744	0.179	-0.095
-566.602	-200.000	-0.011	0.089
-565.588	800.000	-0.101	0.283
-564.573	-64.549	-0.023	-0.009
-563.558	-121.575	-0.267	0.045
-562.544	254.815	0.207	0.355
-561.529	-123.401	0.170	-0.027
-560.515	800.000	-0.043	0.181
-559.500	-200.000	0.053	-0.241
-558.485	-173.218	0.122	-0.004
-557.471	-178.632	-0.126	-0.003
-556.456	482.718	-0.068	-0.156
-555.442	-200.000	-0.045	0.301
-554.427	800.000	0.049	0.206
-553.412	-37.653	-0.480	-0.257
-552.398	-189.447	-0.079	-0.001
-551.383	-8.648	-0.230	0.155
-550.369	-22.356	-0.272	0.166
-549.354	791.786	0.067	0.186
-548.339	18.767	-0.221	-0.177
-547.325	296.178	-0.103	-0.190
-546.310	441.818	0.041	0.091
-545.296	800.000	-0.059	-0.239
-544.281	156.669	0.116	0.161
-543.266	779.643	0.105	0.289
-542.252	-72.223	-0.257	-0.096
-541.237	-200.000	0.050	0.326
-540.223	56.360	-0.265	0.258
-539.208	108.261	-0.123	0.147
-538.193	800.000	0.062	-0.193
-537.179	-39.858	0.291	0.152
-536.164	800.000	-0.112	-0.413
-535.150	-200.000	0.017	0.160
-534.135	800.000	0.018	0.080
-533.121	113.502	0.121	-0.147
-532.106	34.949	-0.182	-0.160
-531.091	-120.189	-0.283	0.049
-530.077	800.000	-0.072	0.261
-529.062	-63.930	-0.177	0.073
-528.048	800.000	-0.146	-0.535
-527.033	-100.006	0.214	0.053
-526.018	24.339	-0.232	-0.192
-525.004	-167.307	0.269	0.011
-523.989	39.058	0.202	0.181
-522.975	162.570	-0.044	-0.062
-521.960	12.555	-0.181	-0.140
-520.945	-200.000	-0.031	0.168
-519.931	800.000	0.090	-0.258
-518.916	-163.218	-0.196	-0.009
-517.902	-108.910	0.043	0.009
-516.887	800.000	0.026	0.093
-515.872	-38.407	-0.332	-0.176
-514.858	8.262	-0.072	-0.054
-513.843	-21.732	-0.187	-0.114
-512.829	800.000	0.054	-0.227
-511.814	146.792	0.163	-0.220
-510.799	550.031	-0.088	-0.211
-509.785	-200.000	0.010	-0.274
-508.770	-200.000	-0.009	0.229
-507.756	-200.000	-0.026	-0.371
-506.741	171.025	-0.080	0.115
-505.726	-49.065	-0.284	0.136
-504.712	58.472	-0.217	0.213
-503.697	-2.893	0.284	0.199
-502.683	-14.581	-0.046	0.030
-501.668	-151.132	-0.158	-0.012
-500.653	-10.297	-0.155	0.103
-499.639	-52.048	-0.172	0.080
-498.624	800.000	-0.062	0.257
-497.610	-44.138	-0.151	-0.076
-496.595	11.801	0.077	0.059
-495.581	316.023	0.222	0.419
-494.566	676.103	0.041	-0.107
-493.551	-100.571	-0.116	-0.029
-492.537	800.000	-0.118	-0.435
-491.522	800.000	-0.095	-0.402
-490.508	-200.000	-0.021	-0.211
-489.493	-159.469	-0.091	-0.005
-488.478	359.548	0.036	-0.072
-487.464	-200.000	-0.102	0.482
-486.449	-13.450	0.167	0.108
-485.435	7.114	-0.273	0.204
-484.420	-200.000	0.008	0.136
-483.405	330.181	0.157	-0.303
-482.391	80.153	0.171	-0.185
-481.376	800.000	0.066	0.225
-480.362	-200.000	-0.024	0.126
-479.347	-72.294	0.110	-0.041
-478.332	-39.356	0.114	-0.060
-477.318	211.585	-0.231	-0.364
-476.303	782.408	0.147	-0.402
-475.289	168.490	-0.022	0.032
-474.274	-144.057	0.148	-0.014
-473.259	77.635	0.346	-0.369
-472.245	-104.607	0.196	-0.045
-471.230	-58.915	-0.193	-0.083
-470.216	29.334	0.091	0.077
-469.201	325.303	-0.059	0.113
-468.186	-95.742	-0.314	0.084
-467.172	628.761	-0.062	-0.156
-466.157	-44.727	0.176	-0.088
-465.143	-117.223	0.232	0.042
-464.128	-52.477	0.255	-0.118
-463.113	-71.870	-0.175	0.065
-462.099	-25.570	0.165	-0.098
-461.084	-200.000	-0.030	-0.407
-460.070	-200.000	-0.044	-0.246
-459.055	-138.944	-0.245	-0.027
-458.040	88.234	-0.028	0.031
-457.026	-135.493	-0.251	0.030
-456.011	-92.601	-0.194	0.054
-454.997	800.000	-0.109	-0.391
-453.982	-120.234	-0.089	-0.015
-452.968	-200.000	0.013	-0.109
-451.953	-10.819	-0.171	-0.113
-450.938	537.942	0.094	0.222
-449.924	-0.290	0.162	0.115
-448.909	-140.390	-0.164	0.017
-447.895	-200.000	0.004	-0.234
-446.880	-64.080	-0.278	0.113
-445.865	-137.203	0.208	-0.024
-444.851	-105.547	0.191	0.043
-443.836	-200.000	-0.014	-0.182
-442.822	800.000	0.025	0.092
-441.807	456.713	0.158	0.352
-440.792	115.192	-0.182	-0.222
-439.778	-161.438	0.223	0.011
-438.763	381.857	-0.110	0.225
-437.749	-44.871	0.262	-0.131
-436.734	48.470	0.219	-0.205
-435.719	112.117	-0.234	-0.282
-434.705	110.275	-0.183	0.219
-433.690	-76.283	0.333	0.117
-432.676	800.000	-0.048	0.178
-431.661	-58.034	0.417	0.182
-430.646	-104.907	-0.429	-0.098
-429.632	34.988	-0.150	0.131
-428.617	800.000	0.038	0.137
-427.603	-200.000	-0.045	-0.384
-426.588	-128.362	-0.251	-0.036
-425.573	-5.473	-0.207	0.142
-424.559	-7.632	0.067	-0.045
-423.544	-200.000	0.003	-0.126
-422.530	-36.464	-0.227	-0.122
-421.515	-181.315	0.358	-0.007
-420.500	-73.347	-0.125	0.046
-419.486	-200.000	-0.013	-0.190
-418.471	-79.163	-0.175	-0.059
-417.457	18.025	-0.043	-0.034
-416.442	103.539	0.234	0.275
-415.428	240.569	-0.116	-0.194
-414.413	-84.156	0.168	0.053
-413.398	-185.597	-0.269	0.004
-412.384	388.009	-0.056	-0.117
-411.369	-47.976	0.325	0.157
-410.355	-200.000	0.119	0.527
-409.340	41.848	-0.050	-0.045
-408.325	-63.282	-0.262	0.108
-407.311	-13.452	0.280	0.181
-406.296	372.261	-0.016	-0.033
-405.282	-136.602	-0.286	-0.033
-404.267	11.842	-0.154	-0.118
-403.252	-200.000	0.088	0.417
-402.238	132.905	-0.200	0.258
-401.223	107.145	-0.342	-0.406
-400.209	-200.000	0.041	-0.521
-399.194	800.000	-0.010	0.029
-398.179	549.421	0.139	0.332
-397.165	-200.000	0.046	0.208
-396.150	-66.172	0.156	0.062
-395.136	-115.208	-0.275	-0.052
-394.121	-68.881	0.204	-0.079
-393.106	800.000	0.088	-0.373
-392.092	206.715	-0.122	0.190
-391.077	-72.017	0.245	-0.091
-390.063	201.912	0.113	-0.174
-389.048	-142.758	-0.339	-0.033
-388.033	-200.000	0.011	-0.205
-387.019	-130.221	0.492	-0.067
-386.004	245.564	0.018	-0.031
-384.990	56.029	0.101	-0.098
-383.975	87.773	0.132	-0.146
-382.960	707.408	0.073	0.192
-381.946	799.867	0.109	0.299
-380.931	-200.000	0.041	-0.274
-379.917	-190.474	-0.401	-0.004
-378.902	-136.728	-0.344	-0.040
-377.888	484.405	0.076	-0.171
-376.873	360.462	0.107	0.214
-375.858	-74.304	0.112	-0.041
-374.844	199.746	-0.090	-0.137
-373.829	-102.727	-0.130	0.031
-372.815	531.262	0.045	-0.105
-371.800	157.536	0.009	0.013
-370.785	45.164	-0.066	0.061
-369.771	60.681	0.113	-0.112
-368.756	-66.509	-0.350	-0.139
-367.742	412.937	-0.157	0.333
-366.727	175.963	-0.185	0.268
-365.712	4.160	0.070	-0.051
-364.698	365.288	-0.027	-0.053
-363.683	-152.844	0.193	0.014
-362.669	-200.000	0.017	0.399
-361.654	-129.930	-0.098	-0.013
-360.639	1.722	0.113	0.081
-359.625	-102.495	-0.156	-0.037
-358.610	211.057	0.040	-0.062
-357.596	165.320	-0.118	-0.166
-356.581	-159.494	-0.197	-0.011
-355.566	273.003	0.060	-0.106
-354.552	496.642	-0.064	-0.147
-353.537	-63.222	0.353	0.145
-352.523	-200.000	0.038	-0.372
-351.508	87.860	0.203	-0.224
-350.493	18.445	-0.259	-0.206
-349.479	800.000	0.053	0.203
-348.464	-200.000	0.055	-0.241
-347.450	318.546	0.100	-0.189
-346.435	93.395	0.127	0.143
-345.420	800.000	-0.035	-0.136
-344.406	67.200	0.048	0.049
-343.391	-200.000	-0.009	0.141
-342.377	112.925	0.054	-0.065
-341.362	-27.506	0.381	0.221
-340.348	-200.000	0.017	0.189
-339.333	-43.106	-0.301	0.152
-338.318	101.450	0.189	-0.219
-337.304	-113.413	-0.300	0.059
-336.289	-200.000	-0.001	-0.094
-335.275	-160.527	0.427	-0.023
-334.260	-200.000	0.043	-0.263
-333.245	800.000	-0.073	-0.309
-332.231	800.000	0.067	0.253
-331.216	-9.387	0.064	0.042
-330.202	-118.600	0.188	-0.033
-329.187	-69.470	-0.371	0.141
-328.172	-156.804	-0.006	0.000
-327.158	652.760	0.062	-0.159
-326.143	80.103	-0.223	0.239
-325.129	501.099	0.082	-0.189
-324.114	-17.079	0.281	0.176
-323.099	-121.179	0.160	-0.027
-322.085	800.000	-0.077	0.232
-321.070	162.485	0.021	0.029
-320.056	-200.000	0.008	-0.120
-319.041	-200.000	-0.001	0.223
-318.026	-36.088	-0.375	-0.201
-317.012	-200.000	-0.137	0.696
-315.997	206.822	0.084	0.129
-314.983	-65.836	0.325	0.130
-313.968	-141.796	0.007	0.001
-312.953	-123.251	0.349	0.056
-311.939	-200.000	-0.052	-0.274
-310.924	800.000	0.143	0.430
-309.910	-15.809	-0.195	-0.124
-308.895	-200.000	-0.044	-0.224
-307.880	-200.000	0.027	0.212
-306.866	74.405	-0.145	0.151
-305.851	800.000	-0.040	-0.157
-304.837	-22.640	0.096	0.058
-303.822	-113.742	0.039	0.008
-302.807	-200.000	0.024	0.247
-301.793	461.167	-0.061	-0.136
-300.778	161.873	-0.117	-0.162
-299.764	-90.110	-0.267	-0.077
-298.749	21.771	-0.137	0.111
-297.735	-107.205	-0.324	0.071
-296.720	-51.437	0.058	-0.027
-295.705	292.609	-0.079	0.143
-294.691	-191.009	0.097	0.001
-293.676	-142.904	0.064	0.006
-292.662	-5.528	0.034	0.023
-291.647	-123.955	0.311	-0.049
-290.632	-127.565	-0.254	-0.037
-289.618	101.967	-0.162	-0.188
-288.603	445.069	0.236	-0.516
-287.589	-200.000	-0.003	0.021
-286.574	81.235	0.337	-0.361
-285.559	-47.061	-0.063	0.030
-284.545	-200.000	0.002	0.038
-283.530	18.456	-0.151	-0.120
-282.516	4.742	0.152	0.111
-281.501	-154.648	0.102	-0.007
-280.486	94.439	0.311	-0.351
-279.472	375.231	-0.091	0.183
-278.457	423.079	-0.155	-0.330
-277.443	-96.084	-0.285	0.075
-276.428	-55.230	0.058	0.026
-275.413	370.748	-0.142	0.285
-274.399	-36.682	0.073	0.039
-273.384	181.486	-0.044	0.064
-272.370	-200.000	-0.011	0.251
-271.355	-200.000	-0.016	-0.241
-270.340	-40.190	0.096	0.050
-269.326	223.947	-0.075	-0.121
-268.311	185.006	-0.163	-0.240
-267.297	450.220	0.180	0.395
-266.282	491.717	-0.095	0.216
-265.267	-90.129	-0.067	0.019
-264.253	-200.000	0.022	-0.412
-263.238	-184.893	-0.324	0.005
-262.224	-74.212	0.208	-0.075
-261.209	-135.809	-0.325	-0.038
-260.195	67.828	0.187	-0.190
-259.180	-134.100	-0.189	0.023
-258.165	-138.089	0.188	0.021
-257.151	-155.446	0.068	0.004
-256.136	184.582	-0.212	0.312
-255.122	28.730	-0.082	-0.069
-254.107	166.815	0.185	-0.260
-253.092	-75.993	-0.261	-0.092
-252.078	-75.174	0.389	0.138
-251.063	30.192	-0.251	-0.212
-250.049	333.163	-0.162	0.310
-249.034	-117.883	-0.026	0.005
-248.019	800.000	0.077	0.225
-247.005	6.076	0.269	-0.198
-245.990	-32.539	0.162	0.089
-244.976	734.304	-0.142	0.376
-243.961	57.908	0.175	-0.170
-242.946	579.514	0.120	0.292
-241.932	247.108	0.088	0.148
-240.917	212.852	0.094	-0.147
-239.903	-10.209	-0.144	0.095
-238.888	-200.000	-0.042	-0.220
-237.873	800.000	0.080	0.244
-236.859	-200.000	-0.083	-0.369
-235.844	611.608	0.177	0.439
-234.830	410.752	-0.144	0.302
-233.815	-200.000	0.049	-0.405
-232.800	124.149	-0.064	-0.080
-231.786	-67.801	0.419	-0.162
-230.771	142.268	-0.048	0.064
-229.757	-9.483	-0.155	0.103
-228.742	800.000	0.021	-0.072
-227.727	-157.761	-0.304	0.018
-226.713	-69.366	0.163	-0.062
-225.698	-76.308	-0.103	-0.036
-224.684	-115.721	0.340	-0.063
-223.669	-200.000	0.026	0.165
-222.655	147.911	0.041	0.054
-221.640	-93.787	0.129	-0.035
-220.625	160.807	-0.057	-0.078
-219.611	357.438	0.139	-0.275
-218.596	7.985	0.047	0.035
-217.582	-120.840	-0.187	-0.031
-216.567	549.229	0.060	-0.143
-215.552	-200.000	-0.012	-0.096
-214.538	-81.440	-0.195	-0.064
-213.523	-115.708	-0.321	0.060
-212.509	218.165	0.113	0.178
-211.494	227.179	-0.185	0.297
-210.479	-33.329	0.163	0.090
-209.465	83.972	0.116	-0.125
-208.450	-123.513	0.354	0.056
-207.436	-105.931	0.064	0.014
-206.421	-145.519	0.052	0.005
-205.406	-110.009	-0.355	0.074
-204.392	271.766	-0.050	0.087
-203.377	253.508	0.242	0.410
-202.363	-67.010	0.194	0.076
-201.348	360.597	-0.080	-0.158
-200.333	-200.000	0.025	0.233
-199.319	-200.000	-0.062	0.276
-198.304	55.871	0.205	0.197
-197.290	-76.962	-0.156	0.054
-196.275	47.726	0.350	0.323
-195.260	132.597	0.175	0.224
-194.246	-87.201	0.313	-0.094
-193.231	-31.720	0.390	-0.217
-192.217	137.411	-0.069	0.090
-191.202	209.628	0.096	-0.149
-190.187	-30.605	-0.092	0.051
-189.173	562.329	-0.101	-0.241
-188.158	-51.467	0.230	0.106
-187.144	-60.642	-0.390	0.164
-186.129	11.029	-0.253	0.191
-185.114	-156.081	0.241	0.015
-184.100	127.578	-0.111	-0.139
-183.085	-48.844	-0.193	-0.092
-182.071	101.623	-0.223	0.257
-181.056	130.088	-0.087	-0.110
-180.042	800.000	-0.044	0.188
-179.027	-68.572	0.105	0.040
-178.012	-68.916	-0.170	0.065
-176.998	95.110	-0.101	0.114
-175.983	800.000	-0.032	-0.132
-174.969	-50.421	-0.259	0.121
-173.954	-42.637	0.337	0.170
-172.939	-43.575	-0.098	0.049
-171.925	-152.739	-0.094	0.007
-170.910	497.986	-0.044	-0.100
-169.896	278.157	0.052	0.092
-168.881	-113.123	0.203	0.040
-167.866	219.152	0.206	0.326
-166.852	37.883	0.194	-0.170
-165.837	-200.000	0.006	0.025
-164.823	800.000	0.066	0.185
-163.808	-200.000	0.025	0.154
-162.793	800.000	-0.116	0.345
-161.779	240.807	-0.115	0.189
-160.764	662.700	0.038	0.097
-159.750	129.075	-0.100	0.126
-158.735	639.035	0.250	-0.628
-157.720	800.000	0.051	0.188
-156.706	29.149	0.186	-0.156
-155.691	6.984	0.173	0.128
-154.677	32.722	-0.236	-0.202
-153.662	800.000	-0.052	-0.194
-152.647	-200.000	0.054	0.234
-151.633	-70.205	0.106	-0.040
-150.618	-65.465	0.248	0.099
-149.604	-200.000	-0.071	0.316
-148.589	72.082	0.092	-0.094
-147.574	-200.000	-0.067	-0.389
-146.560	-200.000	-0.010	-0.086
-145.545	189.731	-0.124	-0.184
-144.531	57.496	-0.034	0.032
-143.516	-93.771	0.215	0.058
-142.502	800.000	-0.022	0.072
-141.487	-91.682	0.105	-0.029
-140.472	800.000	-0.055	0.236
-139.458	-200.000	-0.010	-0.123
-138.443	-122.483	0.145	-0.023
-137.429	42.068	0.143	-0.129
-136.414	137.766	0.323	-0.418
-135.399	81.374	0.120	0.129
-134.385	-170.186	0.131	0.005
-133.370	-99.646	0.064	0.016
-132.356	-118.374	-0.139	0.024
-131.341	12.900	0.166	-0.127
-130.326	-80.077	-0.204	-0.067
-129.312	224.404	0.129	-0.206
-128.297	-57.259	0.253	0.110
-127.283	206.165	0.081	-0.124
-126.268	21.429	0.186	-0.149
-125.253	487.119	-0.122	-0.274
-124.239	51.554	0.061	-0.057
-123.224	-114.905	0.194	0.037
-122.210	87.417	0.247	0.270
-121.195	208.577	-0.077	0.119
