DTS Sentinel unit serial number:	SN413079Multiplexer serial number:	ORYXHardware model number:	OX4-SRSoftware version number:	ORYX F/W v4.00 Oryx Data Collector v3.7.2.0data status	okinstallation	princeton_trtdifferential loss correction	single-endedforward channel	channel 4reverse channel	N/Adate	2019/09/16time	17:49:35forward acquisition time	60.00reverse acquisition time	0.00gamma	496.2192k internal	0.2298k external	0.2298temperature offset calibration	0.9946default loss term (dB/km)	0.3790temperature slope calibration	1.0000multiplexer offset coefficient	1.0000multiplexer slope coefficient	1.0000fibre end	0.00T internal ref (°C)	37.92T ext. ref 1 (°C)	15.59T ext. ref 2 (°C)	31.81length (m)	temperature (°C)	Stokes	anti-Stokes-747.200	-52.600	-0.082	0.039
-746.185	-200.000	0.039	0.267
-745.171	-62.412	0.133	-0.056
-744.156	-101.899	-0.214	-0.053
-743.142	-53.438	-0.343	0.160
-742.127	800.000	-0.089	0.286
-741.112	-114.248	-0.117	0.023
-740.098	-200.000	0.075	0.661
-739.083	-200.000	-0.007	0.339
-738.069	211.196	0.073	0.117
-737.054	800.000	0.093	0.368
-736.039	800.000	-0.059	0.217
-735.025	-200.000	0.001	-0.056
-734.010	183.698	-0.016	-0.024
-732.996	800.000	0.012	-0.044
-731.981	-200.000	0.002	0.094
-730.966	-78.081	0.211	0.074
-729.952	257.198	-0.048	0.083
-728.937	56.515	0.130	-0.129
-727.923	-53.490	-0.109	-0.051
-726.908	65.324	-0.243	0.251
-725.894	-200.000	-0.052	0.294
-724.879	-15.139	0.194	0.127
-723.864	169.575	0.028	-0.041
-722.850	-200.000	-0.039	-0.247
-721.835	33.975	-0.274	-0.243
-720.821	-200.000	0.044	-0.252
-719.806	-177.997	-0.278	-0.007
-718.791	800.000	-0.143	-0.403
-717.777	73.699	-0.138	0.147
-716.762	800.000	-0.064	0.211
-715.748	-200.000	0.067	0.379
-714.733	133.671	0.325	-0.429
-713.718	280.692	0.110	-0.200
-712.704	68.641	-0.408	-0.427
-711.689	429.476	-0.014	0.031
-710.675	-200.000	0.023	0.114
-709.660	86.208	0.095	0.107
-708.645	80.046	0.284	-0.311
-707.631	-86.378	-0.118	-0.037
-706.616	-60.593	-0.054	-0.023
-705.602	454.324	0.101	-0.229
-704.587	-200.000	0.056	-0.302
-703.572	-200.000	0.031	-0.283
-702.558	265.110	0.152	-0.270
-701.543	-75.754	0.026	-0.010
-700.529	-111.176	-0.208	-0.043
-699.514	85.481	0.077	0.086
-698.499	-83.520	-0.096	-0.031
-697.485	-200.000	0.021	0.329
-696.470	-200.000	-0.028	0.339
-695.456	800.000	-0.068	0.289
-694.441	67.942	0.358	-0.373
-693.426	-54.273	-0.134	0.062
-692.412	-41.419	-0.204	0.107
-691.397	21.557	0.173	0.144
-690.383	36.950	-0.210	-0.189
-689.368	-200.000	-0.065	0.301
-688.354	-93.747	-0.167	0.047
-687.339	47.878	-0.065	-0.062
-686.324	-200.000	-0.011	-0.188
-685.310	-200.000	0.007	0.175
-684.295	800.000	0.024	-0.082
-683.281	-47.336	-0.134	0.067
-682.266	-200.000	-0.020	0.092
-681.251	-54.527	0.109	0.050
-680.237	165.909	0.101	-0.145
-679.222	-151.772	0.211	0.016
-678.208	-200.000	-0.014	0.151
-677.193	-77.632	-0.158	-0.056
-676.178	414.048	-0.060	0.131
-675.164	17.451	-0.142	0.115
-674.149	800.000	-0.046	-0.167
-673.135	800.000	0.042	-0.138
-672.120	-27.966	0.220	0.130
-671.105	116.907	0.119	0.149
-670.091	-200.000	-0.031	0.252
-669.076	-200.000	0.026	0.195
-668.062	-27.684	-0.152	0.090
-667.047	-143.977	0.109	-0.010
-666.032	-118.086	-0.277	-0.050
-665.018	-63.258	-0.218	-0.091
-664.003	-200.000	-0.018	0.252
-662.989	800.000	0.050	-0.159
-661.974	-74.282	-0.249	0.092
-660.959	-59.527	-0.331	-0.145
-659.945	-200.000	-0.068	-0.315
-658.930	79.222	-0.280	0.305
-657.916	204.944	0.119	-0.188
-656.901	-134.393	0.112	-0.014
-655.886	-148.010	-0.152	-0.013
-654.872	-134.331	0.174	-0.022
-653.857	408.547	-0.059	-0.127
-652.843	-33.718	0.236	0.132
-651.828	-11.324	-0.205	-0.137
-650.814	139.787	-0.077	-0.103
-649.799	519.794	-0.065	-0.155
-648.784	-200.000	-0.073	-0.344
-647.770	800.000	0.115	-0.344
-646.755	200.758	0.141	0.220
-645.741	64.868	-0.129	-0.133
-644.726	57.251	0.155	0.154
-643.711	-7.098	0.056	0.038
-642.697	-120.516	-0.213	-0.037
-641.682	251.409	0.217	-0.376
-640.668	-108.701	-0.074	-0.016
-639.653	-16.504	0.182	0.117
-638.638	-200.000	-0.016	-0.110
-637.624	102.419	-0.225	-0.267
-636.609	364.165	0.032	-0.066
-635.595	-78.011	-0.288	-0.101
-634.580	231.983	-0.045	-0.075
-633.565	-125.903	0.249	0.038
-632.551	-90.120	0.281	0.083
-631.536	-43.838	0.088	0.045
-630.522	225.952	-0.084	0.139
-629.507	127.558	0.092	-0.119
-628.492	44.225	0.127	-0.119
-627.478	-200.000	-0.030	0.162
-626.463	349.833	0.071	-0.142
-625.449	61.319	-0.211	-0.213
-624.434	-104.381	-0.305	0.072
-623.419	154.113	-0.094	0.131
-622.405	133.993	0.192	-0.253
-621.390	-163.642	0.108	-0.005
-620.376	510.252	0.091	0.216
-619.361	-200.000	0.059	0.334
-618.346	-200.000	0.107	-0.585
-617.332	-41.386	-0.163	-0.086
-616.317	-200.000	-0.009	-0.112
-615.303	300.584	0.092	0.172
-614.288	255.320	0.139	-0.242
-613.273	589.502	0.046	-0.114
-612.259	-112.668	0.186	0.038
-611.244	-200.000	-0.029	0.273
-610.230	-113.273	0.104	-0.021
-609.215	57.826	0.126	0.125
-608.201	800.000	-0.033	0.100
-607.186	-200.000	-0.026	-0.283
-606.171	-55.222	0.273	0.125
-605.157	99.767	0.209	0.246
-604.142	117.550	0.178	0.222
-603.128	24.069	0.148	0.124
-602.113	-92.893	-0.370	0.105
-601.098	-148.149	-0.226	0.019
-600.084	161.248	-0.082	-0.116
-599.069	-119.023	0.345	-0.061
-598.055	-38.152	-0.271	-0.146
-597.040	36.646	0.079	0.071
-596.025	-37.418	-0.515	0.279
-595.011	-106.471	-0.269	0.061
-593.996	293.828	0.099	-0.183
-592.982	-160.644	0.107	-0.006
-591.967	180.343	0.215	-0.321
-590.952	131.055	-0.084	-0.109
-589.938	-53.179	0.230	-0.107
-588.923	-152.520	-0.218	0.016
-587.909	-92.525	-0.092	-0.026
-586.894	182.034	-0.111	-0.166
-585.879	377.874	0.095	-0.197
-584.865	175.670	0.079	0.116
-583.850	202.514	-0.087	-0.136
-582.836	12.950	0.334	-0.262
-581.821	-156.372	-0.324	0.021
-580.806	-19.737	0.260	-0.163
-579.792	-200.000	-0.004	-0.172
-578.777	800.000	-0.047	0.162
-577.763	358.398	0.176	0.357
-576.748	-59.933	-0.262	-0.114
-575.733	-9.632	0.077	-0.052
-574.719	166.292	0.096	0.138
-573.704	423.070	0.017	0.038
-572.690	20.389	0.249	0.204
-571.675	-200.000	-0.008	-0.228
-570.661	-200.000	-0.027	0.196
-569.646	-116.125	-0.129	-0.024
-568.631	-21.419	0.258	0.160
-567.617	763.865	0.079	0.218
-566.602	-200.000	0.023	-0.163
-565.588	211.355	0.155	-0.247
-564.573	127.510	-0.096	-0.123
-563.558	-169.373	-0.141	0.005
-562.544	-200.000	0.009	0.121
-561.529	-81.361	0.259	0.087
-560.515	-15.318	-0.208	-0.135
-559.500	-200.000	-0.003	-0.397
-558.485	-24.140	0.120	-0.072
-557.471	-163.301	-0.142	-0.007
-556.456	-98.251	0.251	-0.065
-555.442	99.502	0.150	-0.176
-554.427	-19.552	0.091	-0.057
-553.412	-29.497	-0.189	0.109
-552.398	25.148	-0.065	0.055
-551.383	305.542	0.070	0.132
-550.369	-141.270	-0.216	-0.022
-549.354	-24.922	0.111	-0.067
-548.339	55.026	0.177	0.173
-547.325	800.000	-0.032	-0.120
-546.310	-76.213	-0.231	-0.083
-545.296	-104.659	0.061	0.014
-544.281	8.706	-0.033	-0.025
-543.266	-146.067	-0.356	0.032
-542.252	-8.971	0.166	0.113
-541.237	800.000	-0.080	0.327
-540.223	-200.000	0.049	-0.306
-539.208	-3.853	0.156	-0.110
-538.193	286.952	0.077	-0.140
-537.179	-200.000	-0.001	0.070
-536.164	-33.206	-0.210	-0.118
-535.150	-160.309	0.273	0.015
-534.135	92.206	-0.105	0.120
-533.121	62.813	0.217	-0.220
-532.106	-200.000	-0.042	-0.447
-531.091	11.726	0.132	-0.102
-530.077	-200.000	-0.025	0.228
-529.062	-200.000	0.030	0.234
-528.048	-110.931	-0.158	-0.033
-527.033	-3.454	-0.436	-0.307
-526.018	-200.000	0.001	0.096
-525.004	-200.000	-0.033	-0.301
-523.989	-108.069	-0.161	-0.035
-522.975	391.163	0.121	0.254
-521.960	-200.000	-0.015	0.105
-520.945	800.000	-0.053	0.156
-519.931	132.747	0.129	-0.168
-518.916	137.865	0.160	0.212
-517.902	-200.000	0.052	-0.343
-516.887	167.458	0.078	-0.112
-515.872	-200.000	0.020	-0.112
-514.858	-122.479	0.210	-0.035
-513.843	-48.150	0.073	0.036
-512.829	212.641	0.248	-0.395
-511.814	1.041	0.235	0.170
-510.799	-169.161	-0.294	0.011
-509.785	-191.828	-0.166	0.002
-508.770	-88.122	-0.251	-0.076
-507.756	8.325	-0.156	-0.119
-506.741	-123.170	0.223	0.036
-505.726	-52.433	0.065	0.031
-504.712	-200.000	-0.003	-0.014
-503.697	383.935	-0.120	-0.249
-502.683	68.249	-0.201	-0.209
-501.668	185.028	0.166	0.250
-500.653	-79.252	0.094	-0.032
-499.639	-200.000	0.034	-0.469
-498.624	-178.818	-0.080	-0.002
-497.610	217.116	0.071	-0.114
-496.595	-65.147	0.068	-0.028
-495.581	157.846	0.094	-0.132
-494.566	-200.000	0.076	0.426
-493.551	-200.000	0.066	0.315
-492.537	-55.218	0.133	-0.060
-491.522	307.991	-0.112	0.211
-490.508	142.486	-0.185	0.249
-489.493	-3.595	-0.065	0.045
-488.478	-200.000	-0.019	0.169
-487.464	-92.187	0.118	-0.034
-486.449	-54.971	-0.395	-0.180
-485.435	-154.943	0.130	0.009
-484.420	-58.233	-0.121	0.053
-483.405	423.930	-0.075	0.162
-482.391	255.424	0.122	-0.211
-481.376	79.503	-0.117	0.127
-480.362	270.082	0.227	0.404
-479.347	800.000	0.098	0.331
-478.332	-88.966	0.088	-0.026
-477.318	218.675	0.058	0.094
-476.303	-200.000	0.037	0.236
-475.289	157.859	-0.100	0.139
-474.274	118.206	0.163	0.203
-473.259	-73.071	0.189	0.070
-472.245	-152.132	0.225	-0.017
-471.230	-11.954	0.190	-0.126
-470.216	-200.000	-0.002	-0.022
-469.201	-115.785	-0.460	-0.087
-468.186	-200.000	0.023	-0.115
-467.172	-31.291	-0.128	-0.073
-466.157	-59.953	-0.120	-0.052
-465.143	-200.000	0.026	-0.369
-464.128	800.000	0.030	0.112
-463.113	-39.652	-0.359	0.190
-462.099	685.604	-0.076	0.201
-461.084	800.000	0.033	-0.141
-460.070	-51.474	-0.461	-0.217
-459.055	-6.912	0.192	0.132
-458.040	34.262	0.174	0.153
-457.026	529.060	0.127	-0.303
-456.011	-146.209	0.031	-0.003
-454.997	-105.413	-0.082	-0.019
-453.982	557.052	0.050	0.121
-452.968	-181.078	-0.251	0.005
-451.953	-111.212	0.120	0.025
-450.938	-200.000	-0.001	0.082
-449.924	9.461	-0.364	0.278
-448.909	14.210	0.237	-0.186
-447.895	4.799	-0.054	0.040
-446.880	800.000	0.024	0.097
-445.865	257.691	-0.255	-0.442
-444.851	-200.000	-0.024	-0.140
-443.836	-87.914	0.220	0.067
-442.822	-200.000	-0.026	-0.164
-441.807	504.071	-0.062	0.145
-440.792	-28.967	0.080	0.046
-439.778	586.246	0.076	0.188
-438.763	96.931	0.132	-0.153
-437.749	800.000	-0.056	-0.158
-436.734	-128.542	0.105	0.015
-435.719	-19.427	-0.261	0.163
-434.705	26.466	-0.112	-0.094
-433.690	-81.412	-0.322	0.107
-432.676	-139.229	-0.365	-0.040
-431.661	800.000	0.027	0.110
-430.646	-20.324	-0.110	0.068
-429.632	-185.844	-0.321	-0.005
-428.617	-66.802	0.275	-0.110
-427.603	-43.291	0.172	-0.088
-426.588	-94.591	-0.105	-0.029
-425.573	14.864	-0.123	0.097
-424.559	-52.130	-0.070	0.033
-423.544	-200.000	-0.010	0.112
-422.530	104.678	0.140	-0.166
-421.515	266.942	-0.100	0.177
-420.500	149.028	0.154	-0.210
-419.486	268.787	0.167	-0.295
-418.471	124.630	-0.140	0.177
-417.457	113.213	-0.182	-0.222
-416.442	-200.000	-0.025	0.210
-415.428	-161.107	-0.241	-0.013
-414.413	34.794	0.096	0.084
-413.398	163.661	-0.175	0.249
-412.384	231.704	-0.100	0.165
-411.369	-75.345	-0.104	0.037
-410.355	-112.465	0.180	-0.036
-409.340	-60.941	0.123	-0.052
-408.325	-200.000	0.084	0.449
-407.311	9.327	-0.162	-0.123
-406.296	54.332	0.147	-0.143
-405.282	800.000	-0.090	-0.272
-404.267	56.897	0.142	-0.139
-403.252	-130.545	0.186	0.025
-402.238	-115.286	-0.074	0.014
-401.223	-87.445	-0.443	-0.135
-400.209	-30.216	-0.039	-0.022
-399.194	-200.000	-0.029	0.450
-398.179	-16.002	-0.110	0.071
-397.165	-12.051	0.440	0.290
-396.150	800.000	0.121	0.476
-395.136	800.000	0.026	-0.080
-394.121	800.000	0.023	-0.070
-393.106	-123.451	0.206	-0.033
-392.092	-95.306	-0.110	0.030
-391.077	-155.614	0.226	-0.015
-390.063	5.584	0.369	-0.275
-389.048	-18.261	0.216	-0.136
-388.033	-154.666	-0.598	0.040
-387.019	269.800	-0.044	0.078
-386.004	264.191	0.135	-0.237
-384.990	-156.912	-0.030	0.002
-383.975	-115.294	0.267	0.051
-382.960	372.098	0.093	0.190
-381.946	177.820	-0.153	0.224
-380.931	-83.993	0.171	-0.055
-379.917	-104.843	-0.186	-0.043
-378.902	-2.461	0.134	-0.095
-377.888	-100.772	-0.141	0.035
-376.873	70.141	0.186	-0.193
-375.858	-103.839	-0.252	-0.059
-374.844	-82.042	-0.245	-0.081
-373.829	800.000	-0.084	0.247
-372.815	-69.144	-0.118	0.046
-371.800	123.623	-0.190	-0.240
-370.785	-118.180	-0.414	0.074
-369.771	34.041	0.212	0.186
-368.756	-47.165	0.238	-0.117
-367.742	-43.038	0.165	0.084
-366.727	-200.000	-0.010	-0.257
-365.712	54.585	-0.174	0.169
-364.698	294.424	-0.039	-0.072
-363.683	233.244	-0.106	0.176
-362.669	-104.080	-0.226	0.053
-361.654	-123.981	-0.094	0.015
-360.639	-21.477	-0.073	0.045
-359.625	67.062	0.050	-0.051
-358.610	-200.000	-0.007	-0.030
-357.596	40.548	-0.170	-0.154
-356.581	30.345	-0.085	0.073
-355.566	-200.000	-0.060	0.381
-354.552	-42.208	-0.247	0.127
-353.537	209.155	-0.138	0.218
-352.523	25.104	0.225	0.188
-351.508	800.000	0.135	-0.415
-350.493	730.331	-0.025	0.068
-349.479	-8.177	0.055	-0.037
-348.464	-99.530	0.156	-0.039
-347.450	49.994	-0.232	-0.220
-346.435	-113.274	0.396	-0.078
-345.420	800.000	0.022	-0.064
-344.406	135.093	0.107	0.140
-343.391	93.030	0.124	-0.141
-342.377	101.830	0.107	-0.125
-341.362	130.237	-0.158	0.203
-340.348	-200.000	0.003	-0.111
-339.333	-51.456	-0.468	-0.220
-338.318	62.103	0.077	0.077
-337.304	-109.113	0.243	-0.052
-336.289	282.394	-0.173	-0.312
-335.275	-137.351	-0.278	-0.032
-334.260	-12.461	0.190	0.124
-333.245	-110.518	0.104	-0.022
-332.231	315.993	0.057	-0.109
-331.216	-200.000	0.019	0.163
-330.202	124.572	-0.285	0.360
-329.187	-91.690	0.400	0.114
-328.172	74.236	-0.062	0.065
-327.158	-169.062	-0.253	-0.009
-326.143	-56.781	-0.130	0.058
-325.129	1.589	-0.066	-0.048
-324.114	-200.000	0.005	-0.135
-323.099	38.434	-0.084	0.075
-322.085	-92.230	-0.205	0.058
-321.070	19.550	0.115	-0.092
-320.056	422.081	0.038	-0.082
-319.041	14.370	0.281	0.220
-318.026	-200.000	0.002	-0.025
-317.012	78.364	-0.130	0.140
-315.997	555.949	-0.135	-0.327
-314.983	180.488	0.063	-0.093
-313.968	-200.000	-0.009	-0.289
-312.953	-200.000	0.042	-0.329
-311.939	-66.114	-0.110	0.044
-310.924	59.437	-0.051	-0.051
-309.910	233.423	0.112	0.184
-308.895	800.000	-0.119	-0.382
-307.880	3.019	0.135	-0.098
-306.866	572.517	0.036	-0.089
-305.851	-14.398	0.148	-0.096
-304.837	-69.481	0.076	0.029
-303.822	138.102	0.081	-0.107
-302.807	-129.371	-0.343	0.048
-301.793	-76.359	0.154	-0.054
-300.778	384.485	0.024	-0.050
-299.764	213.039	-0.154	0.244
-298.749	106.759	0.198	0.236
-297.735	19.492	0.063	-0.051
-296.720	-37.329	0.377	-0.202
-295.705	-49.600	-0.019	-0.009
-294.691	60.038	-0.184	-0.182
-293.676	64.683	0.139	-0.141
-292.662	118.241	0.272	-0.336
-291.647	172.484	0.014	0.021
-290.632	55.801	-0.222	0.216
-289.618	12.720	0.146	0.113
-288.603	-200.000	0.056	0.378
-287.589	101.726	-0.169	-0.198
-286.574	720.162	0.085	0.228
-285.559	-11.059	-0.166	-0.110
-284.545	254.507	0.141	-0.243
-283.530	-175.432	-0.252	0.007
-282.516	-200.000	0.003	0.239
-281.501	-62.341	-0.249	-0.104
-280.486	-5.692	0.127	0.087
-279.472	151.075	0.155	-0.212
-278.457	349.318	-0.052	-0.103
-277.443	-36.876	-0.387	-0.208
-276.428	-200.000	-0.002	0.294
-275.413	-71.901	0.159	0.059
-274.399	-200.000	0.005	0.125
-273.384	523.905	-0.199	0.468
-272.370	-49.323	-0.199	-0.095
-271.355	-147.913	0.171	0.014
-270.340	-200.000	-0.070	0.365
-269.326	800.000	-0.042	0.166
-268.311	82.724	-0.155	-0.169
-267.297	-200.000	0.011	0.213
-266.282	298.441	-0.162	0.299
-265.267	-73.520	-0.176	-0.064
-264.253	161.505	-0.153	0.214
-263.238	-107.255	0.185	0.041
-262.224	-200.000	0.011	-0.124
-261.209	800.000	0.026	-0.089
-260.195	775.434	0.075	-0.204
-259.180	-67.844	0.267	-0.104
-258.165	-3.969	0.221	-0.154
-257.151	-122.126	0.114	0.019
-256.136	-125.502	-0.104	-0.016
-255.122	-34.405	-0.255	-0.140
-254.107	-200.000	0.014	0.232
-253.092	-55.134	0.035	0.016
-252.078	52.812	0.013	-0.012
-251.063	-61.273	0.422	0.178
-250.049	-56.245	0.198	0.088
-249.034	-159.692	0.141	0.008
-248.019	-125.929	0.222	0.034
-247.005	213.806	0.215	0.341
-245.990	-200.000	0.008	0.096
-244.976	-21.247	0.210	0.129
-243.961	-163.335	-0.220	-0.011
-242.946	-49.645	0.196	0.093
-241.932	79.093	0.139	0.149
-240.917	800.000	-0.048	0.186
-239.903	-35.419	-0.081	-0.044
-238.888	800.000	-0.058	0.230
-237.873	-107.950	0.110	-0.024
-236.859	-115.472	-0.289	0.054
-235.844	5.573	-0.331	0.245
-234.830	-200.000	-0.037	0.422
-233.815	-17.308	-0.007	-0.005
-232.800	93.515	0.074	0.084
-231.786	78.531	0.138	0.148
-230.771	77.730	0.160	-0.170
-229.757	-108.030	-0.252	-0.055
-228.742	436.592	-0.080	0.175
-227.727	-157.195	-0.044	0.003
-226.713	61.675	0.179	-0.179
-225.698	194.597	0.033	0.051
-224.684	581.831	0.036	0.089
-223.669	529.924	-0.099	0.234
-222.655	160.841	0.189	-0.264
-221.640	290.345	-0.109	0.199
-220.625	-140.150	0.114	0.012
-219.611	144.258	0.168	0.225
-218.596	47.020	0.328	-0.305
-217.582	206.064	-0.081	0.127
-216.567	406.336	-0.014	0.029
-215.552	-131.900	-0.157	-0.020
-214.538	150.366	0.043	0.058
-213.523	-55.707	0.151	-0.068
-212.509	97.116	-0.218	-0.251
-211.494	209.879	-0.150	-0.235
-210.479	-30.723	-0.324	0.183
-209.465	-148.261	0.133	0.011
-208.450	-69.417	-0.250	-0.096
-207.436	505.994	-0.106	0.245
-206.421	800.000	-0.060	-0.237
-205.406	15.505	-0.069	-0.055
-204.392	800.000	-0.063	-0.233
-203.377	-18.644	0.273	-0.170
-202.363	-174.968	0.050	-0.001
-201.348	225.211	0.087	0.140
-200.333	-99.681	0.259	0.065
-199.319	800.000	0.143	0.418
-198.304	-27.355	-0.089	0.052
-197.290	487.219	-0.018	-0.041
-196.275	800.000	0.056	0.243
-195.260	-181.834	-0.288	0.006
-194.246	-23.476	0.232	-0.139
-193.231	-200.000	0.027	0.168
-192.217	193.946	-0.151	0.228
-191.202	-184.499	0.321	0.005
-190.187	-111.939	0.076	-0.015
-189.173	800.000	-0.046	0.161
-188.158	-25.382	0.208	0.123
-187.144	22.978	-0.247	0.203
-186.129	-125.482	-0.139	0.021
-185.114	275.726	0.049	0.086
-184.100	800.000	-0.019	0.052
-183.085	-108.356	0.366	0.079
-182.071	601.285	0.177	0.439
-181.056	-68.368	0.286	-0.111
-180.042	-103.646	-0.169	0.040
-179.027	-54.021	0.117	-0.053
-178.012	147.977	-0.054	-0.073
-176.998	-200.000	0.049	-0.348
-175.983	-200.000	0.010	-0.080
-174.969	167.893	-0.045	-0.063
-173.954	211.299	0.086	0.135
-172.939	800.000	-0.172	-0.494
-171.925	-200.000	-0.024	0.196
-170.910	800.000	0.037	-0.138
-169.896	484.177	-0.051	0.117
-168.881	112.030	-0.149	-0.180
-167.866	-3.304	-0.318	-0.221
-166.852	-200.000	-0.045	-0.223
-165.837	267.410	-0.092	0.160
-164.823	31.371	-0.184	0.158
-163.808	49.035	0.210	0.197
-162.793	73.886	-0.354	0.371
-161.779	-17.762	-0.176	-0.110
-160.764	621.758	0.032	0.080
-159.750	-109.492	0.148	-0.031
-158.735	47.972	0.093	-0.087
-157.720	160.145	0.023	-0.032
-156.706	-37.573	0.297	-0.158
-155.691	-130.318	-0.032	-0.004
-154.677	800.000	0.067	-0.264
-153.662	54.215	-0.246	-0.236
-152.647	-200.000	0.013	-0.197
-151.633	-136.041	-0.103	0.012
-150.618	-200.000	0.044	-0.206
-149.604	-200.000	0.051	0.439
-148.589	800.000	0.060	0.177
-147.574	-200.000	0.006	0.224
-146.560	-69.525	-0.413	0.158
-145.545	800.000	-0.020	0.057
-144.531	-59.037	0.126	0.054
-143.516	-200.000	-0.026	0.159
-142.502	-155.199	0.183	0.012
-141.487	370.962	0.058	0.118
-140.472	-72.560	-0.241	0.089
-139.458	-200.000	-0.020	-0.109
-138.443	-97.251	0.194	-0.050
-137.429	800.000	-0.037	-0.139
-136.414	0.466	-0.120	-0.086
-135.399	-121.287	-0.171	0.029
-134.385	-200.000	0.010	-0.058
-133.370	-46.663	-0.343	0.168
-132.356	127.997	0.030	-0.037
-131.341	28.624	0.176	-0.149
-130.326	-140.830	0.358	-0.037
-129.312	-200.000	0.016	0.148
-128.297	800.000	0.133	0.414
-127.283	294.736	0.092	0.168
-126.268	-200.000	-0.319	-0.001
-125.253	800.000	-0.070	0.193
-124.239	146.437	-0.163	0.219
-123.224	-60.361	0.090	0.038
-122.210	-200.000	0.018	0.087
-121.195	-200.000	-0.061	-0.296
