DTS Sentinel unit serial number:	SN413079Multiplexer serial number:	ORYXHardware model number:	OX4-SRSoftware version number:	ORYX F/W v4.00 Oryx Data Collector v3.7.2.0data status	okinstallation	princeton_trtdifferential loss correction	single-endedforward channel	channel 4reverse channel	N/Adate	2019/09/17time	19:01:34forward acquisition time	60.00reverse acquisition time	0.00gamma	496.2192k internal	0.2294k external	0.2294temperature offset calibration	0.9981default loss term (dB/km)	0.3790temperature slope calibration	1.0000multiplexer offset coefficient	1.0000multiplexer slope coefficient	1.0000fibre end	0.00T internal ref (°C)	40.52T ext. ref 1 (°C)	0.29T ext. ref 2 (°C)	28.85length (m)	temperature (°C)	Stokes	anti-Stokes-747.200	234.329	-0.163	-0.276
-746.185	189.964	-0.107	0.164
-745.171	-150.662	0.247	-0.019
-744.156	-81.724	-0.079	-0.026
-743.142	-26.156	-0.033	0.020
-742.127	56.145	-0.260	0.259
-741.112	-104.453	0.228	0.054
-740.098	-200.000	-0.010	0.301
-739.083	239.065	-0.108	0.183
-738.069	211.860	0.117	0.189
-737.054	108.968	0.234	-0.286
-736.039	27.859	-0.106	0.092
-735.025	-154.904	0.277	-0.019
-734.010	-25.764	-0.157	-0.095
-732.996	-97.154	0.029	0.008
-731.981	800.000	0.076	0.249
-730.966	-42.595	-0.343	0.178
-729.952	-66.081	-0.412	0.168
-728.937	-151.832	0.156	0.012
-727.923	45.306	-0.094	0.089
-726.908	-43.355	-0.195	0.101
-725.894	-89.795	0.209	-0.063
-724.879	63.680	0.209	0.215
-723.864	-35.084	-0.189	-0.105
-722.850	34.577	-0.300	0.268
-721.835	-200.000	0.001	0.189
-720.821	-200.000	0.005	-0.039
-719.806	212.044	0.103	-0.166
-718.791	-30.728	-0.250	-0.145
-717.777	156.094	0.210	0.297
-716.762	-25.529	0.135	-0.082
-715.748	173.433	0.119	-0.176
-714.733	101.597	0.140	0.167
-713.718	-71.874	-0.051	-0.019
-712.704	-200.000	-0.020	-0.105
-711.689	-145.247	-0.371	-0.034
-710.675	-46.341	0.035	-0.017
-709.660	-200.000	-0.010	0.132
-708.645	-200.000	0.003	0.022
-707.631	555.991	-0.080	-0.197
-706.616	-92.834	0.143	0.041
-705.602	-200.000	-0.018	-0.150
-704.587	-200.000	0.039	-0.211
-703.572	156.702	0.037	0.052
-702.558	-91.338	0.157	-0.046
-701.543	-101.823	-0.122	0.030
-700.529	38.384	-0.170	-0.154
-699.514	194.781	-0.152	-0.236
-698.499	800.000	-0.174	-0.539
-697.485	480.906	-0.100	-0.231
-696.470	-125.383	0.170	0.026
-695.456	-144.977	0.093	-0.009
-694.441	-87.956	-0.417	-0.128
-693.426	1.940	-0.094	0.069
-692.412	-200.000	0.006	-0.329
-691.397	36.532	0.130	-0.117
-690.383	-70.723	-0.111	0.043
-689.368	74.239	0.275	-0.295
-688.354	54.351	-0.077	0.076
-687.339	-200.000	-0.002	-0.049
-686.324	110.645	0.100	0.123
-685.310	403.854	0.043	0.093
-684.295	287.942	-0.060	-0.111
-683.281	-166.858	0.330	-0.014
-682.266	-200.000	-0.030	-0.268
-681.251	-38.390	-0.078	-0.042
-680.237	800.000	0.044	0.156
-679.222	-91.553	0.120	-0.035
-678.208	194.010	-0.126	-0.194
-677.193	-76.243	0.041	0.015
-676.178	-92.767	-0.143	-0.041
-675.164	-117.359	0.219	0.040
-674.149	101.395	-0.174	-0.207
-673.135	-41.384	0.216	-0.114
-672.120	-158.578	-0.169	0.010
-671.105	-200.000	-0.022	0.413
-670.091	25.120	0.172	-0.146
-669.076	-44.632	0.092	-0.047
-668.062	11.170	-0.132	-0.103
-667.047	210.064	0.097	-0.155
-666.032	-200.000	0.014	-0.268
-665.018	220.650	-0.164	-0.268
-664.003	-163.670	-0.192	0.009
-662.989	202.106	0.111	0.175
-661.974	371.619	-0.126	-0.261
-660.959	387.071	-0.210	0.442
-659.945	-28.690	0.188	-0.110
-658.930	29.587	-0.134	0.117
-657.916	46.317	-0.334	0.315
-656.901	225.158	0.180	0.297
-655.886	207.686	-0.037	-0.059
-654.872	800.000	0.082	-0.261
-653.857	-132.493	-0.146	-0.019
-652.843	-132.546	-0.244	-0.032
-651.828	-23.445	-0.172	0.105
-650.814	-163.548	0.097	-0.005
-649.799	-60.744	-0.128	-0.055
-648.784	800.000	-0.027	-0.092
-647.770	84.959	0.271	0.302
-646.755	-200.000	-0.077	0.353
-645.741	-10.469	0.117	-0.079
-644.726	234.253	-0.048	-0.081
-643.711	-124.150	0.119	-0.019
-642.697	4.910	0.113	0.084
-641.682	-200.000	-0.014	-0.146
-640.668	-200.000	-0.028	-0.219
-639.653	-99.225	0.253	0.065
-638.638	-200.000	0.078	0.363
-637.624	-200.000	0.021	0.217
-636.609	225.956	-0.068	-0.112
-635.595	341.834	0.082	0.164
-634.580	-71.103	-0.255	0.098
-633.565	-179.222	0.196	-0.004
-632.551	800.000	-0.058	0.186
-631.536	-200.000	-0.054	-0.349
-630.522	6.305	0.257	-0.194
-629.507	457.862	0.051	0.116
-628.492	-200.000	-0.020	-0.180
-627.478	17.569	0.224	-0.181
-626.463	389.839	0.160	-0.338
-625.449	-30.734	0.208	-0.120
-624.434	-65.696	-0.125	-0.051
-623.419	-65.281	-0.173	-0.071
-622.405	257.398	0.062	-0.109
-621.390	14.714	0.124	0.099
-620.376	27.459	0.149	0.127
-619.361	-200.000	-0.026	0.184
-618.346	-76.125	-0.056	-0.020
-617.332	-136.062	-0.123	-0.015
-616.317	-5.040	-0.386	-0.270
-615.303	-4.757	0.017	0.012
-614.288	606.660	0.128	-0.324
-613.273	677.688	0.010	0.026
-612.259	-200.000	-0.025	-0.209
-611.244	-200.000	-0.054	-0.350
-610.230	-127.379	-0.212	-0.031
-609.215	-5.881	-0.092	0.064
-608.201	221.645	0.294	-0.481
-607.186	67.234	-0.257	-0.266
-606.171	-200.000	0.116	-0.521
-605.157	-30.401	0.147	0.085
-604.142	-9.599	-0.034	0.023
-603.128	-200.000	0.024	0.177
-602.113	-97.817	-0.373	0.098
-601.098	-42.497	0.189	-0.098
-600.084	800.000	-0.101	-0.327
-599.069	-200.000	0.238	-0.001
-598.055	201.276	0.232	0.364
-597.040	800.000	-0.029	0.097
-596.025	127.099	-0.220	-0.284
-595.011	138.771	-0.122	0.163
-593.996	135.618	-0.149	-0.198
-592.982	-59.919	-0.267	-0.116
-591.967	-200.000	0.022	0.159
-590.952	246.412	0.073	0.124
-589.938	55.490	-0.079	-0.078
-588.923	-108.738	0.291	-0.063
-587.909	-162.579	-0.138	0.007
-586.894	73.975	0.150	-0.160
-585.879	-98.079	-0.103	0.027
-584.865	-142.294	0.294	-0.030
-583.850	-64.696	-0.043	-0.018
-582.836	566.019	-0.050	-0.124
-581.821	-200.000	-0.052	0.254
-580.806	247.199	0.149	-0.255
-579.792	450.829	-0.213	-0.478
-578.777	-10.659	0.064	0.043
-577.763	-63.145	-0.205	-0.086
-576.748	270.888	-0.093	0.166
-575.733	343.135	-0.093	0.184
-574.719	137.854	0.130	-0.174
-573.704	-31.766	-0.139	-0.079
-572.690	-200.000	-0.042	-0.308
-571.675	-200.000	-0.147	-0.001
-570.661	-85.035	-0.098	0.031
-569.646	-107.587	-0.074	-0.016
-568.631	70.776	-0.175	-0.184
-567.617	-58.223	0.351	0.155
-566.602	800.000	0.148	0.468
-565.588	-95.263	-0.230	0.063
-564.573	8.012	0.142	0.108
-563.558	128.748	0.164	0.213
-562.544	226.145	-0.046	0.076
-561.529	199.524	0.168	0.261
-560.515	-0.931	0.060	-0.043
-559.500	-200.000	0.139	-0.001
-558.485	800.000	-0.010	0.034
-557.471	-192.904	-0.104	-0.001
-556.456	-0.151	0.111	-0.080
-555.442	-65.457	-0.110	-0.045
-554.427	-144.114	0.410	0.039
-553.412	155.323	-0.143	-0.199
-552.398	-92.675	-0.288	-0.082
-551.383	-200.000	-0.002	0.175
-550.369	335.773	-0.111	-0.218
-549.354	800.000	-0.016	-0.059
-548.339	617.127	0.158	-0.403
-547.325	-200.000	0.048	0.273
-546.310	141.750	0.108	-0.146
-545.296	-200.000	0.015	-0.117
-544.281	-49.968	0.254	-0.122
-543.266	-200.000	-0.061	0.270
-542.252	-70.362	0.175	-0.067
-541.237	800.000	-0.035	0.129
-540.223	7.535	0.211	0.160
-539.208	-200.000	0.047	0.235
-538.193	-29.837	0.259	0.150
-537.179	124.258	-0.223	-0.284
-536.164	-133.963	-0.277	0.035
-535.150	146.089	0.112	0.152
-534.135	-48.440	-0.256	0.125
-533.121	-75.915	0.312	0.112
-532.106	-89.844	-0.231	-0.068
-531.091	189.424	0.018	0.027
-530.077	-43.865	-0.308	0.157
-529.062	-200.000	-0.007	0.328
-528.048	-108.003	-0.086	0.019
-527.033	-200.000	-0.058	-0.380
-526.018	-100.568	-0.194	0.049
-525.004	-200.000	-0.060	-0.307
-523.989	800.000	-0.035	0.151
-522.975	52.972	0.093	-0.090
-521.960	213.792	-0.143	-0.229
-520.945	123.935	-0.287	0.365
-519.931	-76.525	0.152	-0.054
-518.916	-200.000	-0.004	-0.057
-517.902	-175.937	-0.143	0.004
-516.887	-200.000	-0.104	-0.601
-515.872	-147.162	-0.309	-0.027
-514.858	-24.283	0.115	0.070
-513.843	207.943	-0.151	0.240
-512.829	-57.176	0.224	0.100
-511.814	13.308	-0.162	0.127
-510.799	2.675	-0.095	-0.070
-509.785	-59.834	-0.502	-0.218
-508.770	-200.000	-0.004	0.286
-507.756	-138.861	-0.304	-0.034
-506.741	-97.804	0.227	-0.059
-505.726	-37.529	0.228	0.123
-504.712	210.049	-0.105	-0.167
-503.697	-196.668	0.046	0.000
-502.683	-111.320	-0.196	-0.041
-501.668	-200.000	0.056	-0.254
-500.653	-200.000	-0.019	0.289
-499.639	67.324	0.160	0.165
-498.624	535.512	-0.094	-0.227
-497.610	-106.639	-0.295	-0.066
-496.595	-91.953	0.112	0.032
-495.581	-59.744	0.231	0.100
-494.566	-53.267	-0.264	-0.123
-493.551	30.969	-0.107	-0.093
-492.537	-58.924	0.322	-0.141
-491.522	99.764	0.020	0.023
-490.508	-32.620	0.216	0.122
-489.493	23.075	0.128	0.106
-488.478	800.000	-0.106	0.317
-487.464	278.295	0.082	-0.147
-486.449	-200.000	-0.009	-0.153
-485.435	-200.000	-0.010	0.133
-484.420	249.881	-0.159	0.273
-483.405	8.923	0.062	-0.047
-482.391	724.203	-0.125	-0.338
-481.376	-4.295	0.181	-0.127
-480.362	-25.132	0.044	-0.027
-479.347	-200.000	0.009	0.229
-478.332	-200.000	-0.058	0.308
-477.318	-167.589	0.121	-0.005
-476.303	-44.619	0.219	-0.111
-475.289	97.384	0.043	-0.050
-474.274	800.000	-0.024	0.106
-473.259	-190.578	-0.380	-0.004
-472.245	-19.286	-0.040	0.025
-471.230	-0.609	-0.124	-0.089
-470.216	319.744	0.042	0.081
-469.201	29.244	0.217	-0.186
-468.186	522.772	0.157	0.374
-467.172	-200.000	0.006	0.192
-466.157	-91.804	-0.190	-0.054
-465.143	-9.957	0.412	-0.277
-464.128	710.735	0.100	0.269
-463.113	-7.730	0.353	-0.241
-462.099	358.944	-0.149	-0.301
-461.084	421.780	-0.122	0.265
-460.070	347.384	0.106	0.211
-459.055	-200.000	0.027	0.349
-458.040	21.162	-0.104	0.085
-457.026	-145.188	0.319	0.029
-456.011	-188.461	-0.310	-0.004
-454.997	-14.796	-0.175	0.114
-453.982	-58.584	0.056	-0.025
-452.968	-200.000	0.069	0.386
-451.953	-38.539	0.312	0.167
-450.938	76.867	-0.198	0.213
-449.924	204.645	0.118	-0.185
-448.909	273.439	-0.106	0.189
-447.895	433.180	0.047	-0.104
-446.880	358.096	-0.112	-0.226
-445.865	-200.000	-0.002	0.405
-444.851	113.244	-0.103	-0.126
-443.836	-14.188	0.288	0.188
-442.822	-100.612	-0.267	0.067
-441.807	-200.000	-0.015	-0.157
-440.792	-1.719	0.216	0.153
-439.778	800.000	-0.016	-0.068
-438.763	14.100	-0.169	0.133
-437.749	291.817	0.062	0.114
-436.734	800.000	0.052	0.171
-435.719	-135.862	0.205	0.024
-434.705	-158.205	-0.316	-0.019
-433.690	-23.146	-0.229	0.139
-432.676	-46.629	0.155	-0.077
-431.661	189.757	0.093	-0.141
-430.646	23.756	-0.134	-0.111
-429.632	-200.000	0.012	-0.063
-428.617	-200.000	-0.168	0.001
-427.603	800.000	0.096	-0.353
-426.588	-33.729	0.098	0.054
-425.573	-106.166	0.347	0.079
-424.559	800.000	0.099	0.326
-423.544	-140.597	-0.533	0.056
-422.530	170.689	0.184	-0.266
-421.515	97.719	-0.277	0.322
-420.500	-159.519	0.555	0.031
-419.486	356.465	0.264	0.531
-418.471	-200.000	0.235	0.001
-417.457	-128.051	-0.603	-0.087
-416.442	127.328	0.182	-0.234
-415.428	581.376	-0.113	-0.280
-414.413	-8.666	-0.359	-0.243
-413.398	111.163	0.197	-0.240
-412.384	-75.613	0.346	-0.124
-411.369	13.292	-0.097	0.076
-410.355	800.000	0.046	-0.144
-409.340	-200.000	-0.001	0.213
-408.325	43.454	-0.317	-0.292
-407.311	-200.000	0.007	-0.166
-406.296	800.000	0.039	-0.132
-405.282	-200.000	0.039	-0.251
-404.267	-200.000	-0.040	-0.229
-403.252	72.792	-0.115	0.122
-402.238	342.845	-0.014	-0.027
-401.223	29.384	-0.087	-0.075
-400.209	133.422	0.212	0.276
-399.194	18.772	0.160	0.129
-398.179	671.870	-0.078	-0.203
-397.165	356.899	0.070	0.141
-396.150	44.935	0.104	-0.097
-395.136	245.998	-0.062	0.105
-394.121	-103.999	-0.049	-0.011
-393.106	33.893	0.190	-0.166
-392.092	20.270	-0.209	-0.170
-391.077	-0.380	0.245	-0.176
-390.063	-56.777	0.361	0.161
-389.048	62.512	-0.182	-0.184
-388.033	-200.000	-0.371	0.002
-387.019	-71.460	-0.348	0.132
-386.004	-102.839	-0.236	-0.057
-384.990	113.132	0.031	-0.038
-383.975	-28.860	0.124	-0.072
-382.960	-200.000	-0.055	-0.301
-381.946	-148.520	-0.261	-0.021
-380.931	-154.653	0.125	-0.008
-379.917	-200.000	-0.023	-0.239
-378.902	257.485	0.210	0.363
-377.888	-200.000	0.056	0.364
-376.873	171.170	-0.073	0.106
-375.858	30.106	-0.131	0.113
-374.844	-40.351	-0.281	0.147
-373.829	70.651	-0.248	0.259
-372.815	800.000	0.059	-0.205
-371.800	277.458	0.077	0.139
-370.785	-1.433	-0.110	0.078
-369.771	-125.150	0.314	0.049
-368.756	628.867	0.128	-0.327
-367.742	800.000	0.040	-0.114
-366.727	-131.415	-0.112	-0.015
-365.712	800.000	0.104	-0.291
-364.698	737.790	0.035	0.095
-363.683	46.895	-0.141	-0.132
-362.669	62.810	0.082	0.083
-361.654	60.585	0.305	0.304
-360.639	501.850	0.033	0.077
-359.625	-200.000	0.030	0.261
-358.610	14.125	-0.141	0.110
-357.596	-170.152	0.179	0.006
-356.581	-113.277	-0.325	0.064
-355.566	47.516	-0.042	-0.039
-354.552	175.988	-0.075	0.110
-353.537	800.000	-0.082	0.329
-352.523	-200.000	-0.032	0.301
-351.508	295.652	0.118	0.218
-350.493	-200.000	-0.082	-0.000
-349.479	-29.250	-0.193	0.111
-348.464	-5.121	-0.190	0.132
-347.450	-116.893	-0.224	-0.041
-346.435	-84.599	0.215	-0.068
-345.420	-107.694	-0.355	-0.078
-344.406	-0.779	0.242	-0.172
-343.391	-200.000	0.047	0.234
-342.377	-45.447	-0.083	-0.041
-341.362	-200.000	-0.001	-0.160
-340.348	-200.000	0.008	-0.143
-339.333	-61.986	0.138	0.058
-338.318	-177.550	0.129	-0.003
-337.304	591.719	0.088	-0.219
-336.289	-29.431	0.148	-0.086
-335.275	498.271	-0.114	0.264
-334.260	18.808	0.111	0.090
-333.245	-80.160	-0.205	-0.069
-332.231	-100.982	-0.114	-0.028
-331.216	674.821	-0.096	-0.250
-330.202	425.979	-0.059	-0.127
-329.187	166.856	0.161	0.230
-328.172	199.194	-0.145	-0.223
-327.158	119.639	-0.291	-0.362
-326.143	-73.416	0.185	-0.068
-325.129	-200.000	-0.064	-0.351
-324.114	-150.727	0.142	-0.011
-323.099	310.132	0.233	-0.438
-322.085	420.254	0.096	-0.207
-321.070	-126.445	0.243	0.036
-320.056	-85.235	0.240	0.076
-319.041	-27.332	-0.199	-0.117
-318.026	65.553	0.260	-0.265
-317.012	74.945	-0.304	-0.322
-315.997	-200.000	-0.067	-0.314
-314.983	4.382	-0.103	-0.076
-313.968	610.731	0.101	0.254
-312.953	430.472	-0.058	-0.126
-311.939	125.742	-0.190	0.242
-310.924	-200.000	-0.044	0.268
-309.910	212.995	-0.156	0.248
-308.895	800.000	0.112	-0.334
-307.880	-178.177	-0.160	0.004
-306.866	206.672	0.219	0.343
-305.851	-74.204	0.036	-0.013
-304.837	800.000	-0.049	0.147
-303.822	29.088	-0.017	-0.014
-302.807	-81.347	-0.226	0.075
-301.793	-40.305	0.165	-0.086
-300.778	-200.000	0.033	0.390
-299.764	-200.000	-0.006	-0.045
-298.749	-200.000	0.016	0.258
-297.735	-132.864	0.056	0.007
-296.720	-200.000	-0.001	0.224
-295.705	128.802	-0.187	0.240
-294.691	712.094	0.090	0.238
-293.676	800.000	0.036	0.103
-292.662	-200.000	-0.011	0.130
-291.647	347.708	0.159	0.315
-290.632	-137.659	0.162	0.018
-289.618	-52.244	-0.169	-0.079
-288.603	-200.000	0.030	-0.252
-287.589	-119.338	-0.160	-0.028
-286.574	418.144	-0.148	0.318
-285.559	-12.835	0.130	0.085
-284.545	-200.000	-0.007	0.174
-283.530	38.284	-0.096	0.086
-282.516	800.000	0.082	-0.310
-281.501	186.613	0.140	0.209
-280.486	55.793	-0.130	-0.127
-279.472	-65.318	-0.115	-0.047
-278.457	800.000	0.056	-0.247
-277.443	-200.000	-0.039	-0.403
-276.428	89.487	-0.119	-0.133
-275.413	295.550	0.134	0.246
-274.399	36.376	0.220	-0.195
-273.384	-200.000	0.007	0.037
-272.370	2.809	-0.110	-0.080
-271.355	-200.000	0.011	-0.272
-270.340	-31.988	0.023	0.013
-269.326	173.748	-0.130	-0.188
-268.311	-148.256	-0.129	-0.011
-267.297	800.000	0.087	0.244
-266.282	-63.989	0.276	0.113
-265.267	763.540	0.042	0.114
-264.253	-25.440	0.179	0.106
-263.238	-16.271	0.239	-0.152
-262.224	376.572	0.146	-0.298
-261.209	-137.922	0.186	0.021
-260.195	292.795	0.062	0.113
-259.180	24.699	0.133	0.111
-258.165	113.537	-0.083	-0.102
-257.151	-119.476	-0.112	-0.019
-256.136	-15.552	0.301	-0.193
-255.122	800.000	0.122	-0.522
-254.107	-172.435	-0.237	-0.008
-253.092	-200.000	0.022	-0.272
-252.078	-200.000	-0.011	0.228
-251.063	77.571	0.232	0.248
-250.049	-46.224	-0.357	0.176
-249.034	-81.706	0.203	0.067
-248.019	-200.000	-0.040	0.281
-247.005	-16.007	-0.212	-0.135
-245.990	57.384	-0.115	0.113
-244.976	-2.818	-0.086	-0.060
-243.961	13.239	-0.170	0.132
-242.946	-9.276	-0.091	-0.061
-241.932	-42.764	0.152	0.077
-240.917	-75.321	0.066	0.024
-239.903	-53.380	-0.168	0.077
-238.888	143.767	-0.068	0.091
-237.873	-25.864	-0.285	-0.168
-236.859	55.415	0.257	0.250
-235.844	176.121	0.121	-0.176
-234.830	277.931	0.073	0.130
-233.815	-200.000	-0.005	-0.112
-232.800	51.076	-0.100	0.095
-231.786	-200.000	0.019	-0.445
-230.771	-48.538	0.155	-0.075
-229.757	-73.996	0.162	0.059
-228.742	8.634	-0.023	-0.018
-227.727	524.147	0.034	-0.080
-226.713	-16.593	0.168	0.107
-225.698	251.992	0.022	-0.038
-224.684	-29.676	0.272	0.155
-223.669	293.510	0.052	-0.095
-222.655	116.132	0.227	-0.279
-221.640	103.294	-0.120	0.141
-220.625	-200.000	-0.024	0.117
-219.611	73.404	-0.116	0.121
-218.596	-29.062	-0.119	-0.068
-217.582	17.948	0.053	-0.042
-216.567	-200.000	0.030	0.282
-215.552	-51.431	0.483	0.226
-214.538	130.786	-0.150	-0.192
-213.523	-48.153	0.160	-0.077
-212.509	371.512	-0.130	-0.263
-211.494	304.581	0.083	0.154
-210.479	-83.947	0.109	0.035
-209.465	91.063	0.204	0.229
-208.450	-109.672	-0.074	0.016
-207.436	-200.000	0.010	-0.121
-206.421	144.539	0.072	0.096
-205.406	131.240	-0.133	0.171
-204.392	-139.245	-0.223	-0.024
-203.377	37.981	0.241	-0.214
-202.363	478.624	0.094	-0.214
-201.348	-200.000	-0.090	-0.416
-200.333	-200.000	0.030	-0.164
-199.319	508.869	0.071	-0.165
-198.304	47.585	-0.070	-0.066
-197.290	397.421	-0.124	-0.260
-196.275	-70.149	0.201	0.077
-195.260	-164.138	-0.346	-0.016
-194.246	-200.000	-0.033	-0.173
-193.231	-200.000	0.048	-0.348
-192.217	-40.399	0.109	-0.057
-191.202	800.000	-0.055	0.219
-190.187	46.736	0.273	0.254
-189.173	-184.544	0.193	0.003
-188.158	-65.319	0.278	-0.112
-187.144	-79.820	-0.465	-0.156
-186.129	749.092	0.159	-0.429
-185.114	-58.586	0.251	0.109
-184.100	-200.000	-0.054	0.369
-183.085	800.000	-0.062	0.268
-182.071	-44.110	-0.299	0.150
-181.056	265.632	-0.096	0.168
-180.042	150.546	-0.149	0.203
-179.027	-78.806	-0.413	0.141
-178.012	800.000	0.040	0.129
-176.998	-200.000	0.027	0.120
-175.983	684.990	-0.023	-0.060
-174.969	-54.003	0.042	-0.019
-173.954	38.335	-0.183	0.163
-172.939	-7.725	-0.330	-0.223
-171.925	626.577	0.025	-0.063
-170.910	-12.374	-0.241	0.158
-169.896	488.458	0.188	0.429
-168.881	-82.540	0.318	0.103
-167.866	296.022	0.092	-0.168
-166.852	-56.864	-0.066	0.029
-165.837	-200.000	-0.105	-0.471
-164.823	-200.000	-0.092	0.445
-163.808	-200.000	-0.010	-0.144
-162.793	-154.984	-0.246	-0.016
-161.779	-138.537	0.301	0.033
-160.764	-200.000	0.006	0.340
-159.750	-200.000	-0.039	0.377
-158.735	-200.000	-0.000	-0.069
-157.720	-200.000	0.023	0.571
-156.706	56.471	0.016	-0.015
-155.691	370.937	0.045	-0.091
-154.677	350.771	-0.046	0.090
-153.662	-139.068	-0.191	-0.021
-152.647	-36.258	0.120	0.065
-151.633	149.763	-0.123	-0.167
-150.618	-160.886	-0.352	-0.019
-149.604	-50.588	-0.227	0.107
-148.589	-133.474	-0.151	0.019
-147.574	-36.432	0.155	-0.083
-146.560	0.184	0.188	0.134
-145.545	393.629	0.131	0.272
-144.531	22.540	0.058	0.047
-143.516	504.251	-0.071	0.164
-142.502	-141.158	-0.129	-0.013
-141.487	-120.319	0.244	-0.042
-140.472	-54.401	0.170	0.077
-139.458	-200.000	-0.006	0.254
-138.443	-49.861	-0.401	-0.190
-137.429	800.000	-0.030	-0.092
-136.414	14.284	0.213	0.166
-135.399	-200.000	-0.071	-0.325
-134.385	-32.088	-0.202	-0.113
-133.370	800.000	0.014	-0.056
-132.356	-100.468	0.114	0.028
-131.341	162.650	-0.166	0.232
-130.326	-200.000	0.021	0.104
-129.312	-200.000	-0.032	0.207
-128.297	800.000	0.092	-0.370
-127.283	-117.825	-0.250	0.045
-126.268	-140.906	-0.091	-0.009
-125.253	-200.000	0.019	0.331
-124.239	-25.109	0.281	-0.166
-123.224	-104.230	0.170	-0.039
-122.210	-10.161	-0.056	-0.037
