DTS Sentinel unit serial number:	SN413079Multiplexer serial number:	ORYXHardware model number:	OX4-SRSoftware version number:	ORYX F/W v4.00 Oryx Data Collector v3.7.2.0data status	okinstallation	princeton_trtdifferential loss correction	single-endedforward channel	channel 4reverse channel	N/Adate	2019/09/12time	18:29:19forward acquisition time	15.00reverse acquisition time	0.00gamma	496.2192k internal	0.2308k external	0.2308temperature offset calibration	1.0129default loss term (dB/km)	0.3790temperature slope calibration	1.0000multiplexer offset coefficient	1.0000multiplexer slope coefficient	1.0000fibre end	0.00T internal ref (°C)	33.31T ext. ref 1 (°C)	2.95T ext. ref 2 (°C)	27.89length (m)	temperature (°C)	Stokes	anti-Stokes-747.200	-200.000	-0.089	-1.061
-746.185	800.000	-0.173	-0.695
-745.171	-88.261	0.102	-0.031
-744.156	800.000	0.095	-0.285
-743.142	-40.594	-0.449	0.237
-742.127	589.923	-0.098	0.246
-741.112	-116.986	0.535	-0.099
-740.098	-118.603	-0.281	0.051
-739.083	40.233	-0.494	0.452
-738.069	800.000	0.249	0.736
-737.054	-88.436	-0.562	-0.170
-736.039	6.717	0.201	0.152
-735.025	-16.177	0.250	0.161
-734.010	636.045	0.058	-0.150
-732.996	263.837	0.147	0.259
-731.981	90.101	-0.546	-0.620
-730.966	-103.175	0.745	-0.179
-729.952	237.526	0.177	-0.297
-728.937	-200.000	-0.048	-0.280
-727.923	178.130	-0.250	0.370
-726.908	-57.925	-0.625	0.277
-725.894	-135.725	0.264	0.032
-724.879	-7.412	0.379	0.260
-723.864	800.000	0.155	-0.643
-722.850	129.322	-0.563	0.730
-721.835	-80.827	-1.148	-0.387
-720.821	-200.000	0.029	-0.202
-719.806	-129.442	0.263	0.037
-718.791	-16.176	-0.110	-0.071
-717.777	24.755	0.476	0.400
-716.762	102.724	0.382	-0.454
-715.748	-69.401	-0.807	0.314
-714.733	-130.567	-0.559	-0.077
-713.718	800.000	0.084	-0.320
-712.704	-200.000	0.007	-0.060
-711.689	246.895	-0.322	-0.552
-710.675	-89.293	-0.543	-0.163
-709.660	-24.490	0.553	0.334
-708.645	800.000	-0.130	-0.396
-707.631	189.894	-0.083	-0.126
-706.616	597.348	0.400	1.005
-705.602	5.088	0.548	-0.409
-704.587	48.305	0.413	-0.392
-703.572	30.977	-0.253	-0.220
-702.558	82.427	0.343	0.377
-701.543	-200.000	0.086	-0.393
-700.529	-56.372	0.586	-0.264
-699.514	142.228	0.380	-0.511
-698.499	-172.023	-0.772	0.025
-697.485	271.111	0.482	-0.861
-696.470	-78.026	0.114	-0.040
-695.456	-12.038	0.362	0.241
-694.441	-200.000	0.023	-0.331
-693.426	-162.908	-0.051	-0.003
-692.412	800.000	-0.128	-0.371
-691.397	93.344	0.198	-0.228
-690.383	-200.000	0.013	-0.089
-689.368	-30.225	-0.542	0.312
-688.354	-200.000	0.036	-0.382
-687.339	64.117	0.407	0.415
-686.324	-200.000	-0.040	0.251
-685.310	-117.945	-0.382	-0.069
-684.295	37.620	-0.537	0.484
-683.281	231.126	0.197	-0.327
-682.266	0.897	0.278	-0.202
-681.251	431.686	0.336	-0.737
-680.237	29.449	-0.384	-0.331
-679.222	127.878	-0.270	0.348
-678.208	122.514	-0.339	-0.429
-677.193	-90.041	-0.503	0.149
-676.178	393.714	0.117	-0.246
-675.164	324.817	-0.119	0.230
-674.149	-142.106	-0.324	-0.033
-673.135	504.829	0.010	0.024
-672.120	800.000	-0.182	0.803
-671.105	51.829	-0.772	0.745
-670.091	-106.212	-0.102	-0.023
-669.076	-200.000	-0.153	-0.687
-668.062	-132.673	-0.199	0.026
-667.047	-200.000	0.012	-0.886
-666.032	22.517	-0.153	-0.127
-665.018	-122.450	0.488	-0.081
-664.003	-89.048	-0.289	0.087
-662.989	-128.519	0.526	0.076
-661.974	469.991	-0.287	-0.653
-660.959	800.000	0.122	0.451
-659.945	-116.971	0.330	-0.061
-658.930	93.233	-0.386	0.442
-657.916	-142.633	-0.438	0.043
-656.901	-144.622	0.840	-0.078
-655.886	-23.439	-0.286	-0.174
-654.872	3.051	-0.567	0.418
-653.857	-12.226	-0.681	-0.452
-652.843	84.559	-0.701	-0.777
-651.828	-88.528	-0.590	0.178
-650.814	-33.084	0.712	-0.400
-649.799	-140.525	0.703	-0.074
-648.784	149.160	0.215	0.295
-647.770	-159.858	-1.179	0.066
-646.755	-146.415	-0.245	-0.022
-645.741	-143.547	-0.530	-0.051
-644.726	-200.000	-0.073	-0.852
-643.711	-127.370	-0.191	0.028
-642.697	-200.000	0.089	-0.464
-641.682	-200.000	0.001	0.340
-640.668	-28.874	0.515	-0.299
-639.653	50.209	-0.327	0.312
-638.638	338.731	0.352	-0.694
-637.624	-76.071	-0.393	0.141
-636.609	-82.745	-0.657	0.215
-635.595	800.000	0.197	-0.675
-634.580	800.000	0.065	0.258
-633.565	-33.314	-0.401	-0.225
-632.551	-73.633	0.224	0.082
-631.536	800.000	-0.106	-0.370
-630.522	-79.939	0.776	-0.264
-629.507	-151.297	0.580	0.044
-628.492	13.588	0.190	0.149
-627.478	-58.814	-0.230	-0.101
-626.463	8.090	1.348	-1.024
-625.449	-43.465	0.388	0.198
-624.434	-200.000	-0.029	-0.742
-623.419	212.084	-0.377	-0.601
-622.405	-103.534	-1.076	-0.256
-621.390	-95.710	-0.444	-0.120
-620.376	-19.867	0.278	0.174
-619.361	-109.832	-0.165	0.035
-618.346	127.609	0.109	-0.141
-617.332	302.829	-0.379	0.709
-616.317	78.364	-0.205	-0.222
-615.303	237.062	-0.522	-0.875
-614.288	-188.175	-0.394	-0.005
-613.273	-120.733	0.570	-0.097
-612.259	112.770	0.225	-0.276
-611.244	-64.111	-0.437	-0.180
-610.230	-131.030	-0.593	0.080
-609.215	37.485	0.543	-0.487
-608.201	50.992	0.631	-0.605
-607.186	28.176	-0.597	0.510
-606.171	800.000	-0.222	0.736
-605.157	-129.652	-0.361	0.050
-604.142	703.071	-0.221	0.588
-603.128	-104.426	-0.235	0.055
-602.113	667.027	-0.149	-0.390
-601.098	-55.410	0.574	0.260
-600.084	-200.000	0.077	0.540
-599.069	-200.000	0.082	-0.555
-598.055	-145.562	-1.262	0.114
-597.040	591.626	-0.461	1.150
-596.025	-126.696	0.221	-0.033
-595.011	-200.000	0.007	-0.107
-593.996	-200.000	0.014	0.238
-592.982	-172.438	-0.532	0.017
-591.967	-121.904	-0.649	-0.108
-590.952	-13.475	0.480	0.315
-589.938	1.347	-0.511	-0.371
-588.923	-200.000	-0.063	0.486
-587.909	-99.941	-0.475	-0.120
-586.894	-4.517	0.328	-0.229
-585.879	800.000	0.361	-1.087
-584.865	-43.156	-0.194	-0.099
-583.850	-121.929	0.138	0.023
-582.836	193.639	-0.103	-0.158
-581.821	800.000	0.088	0.251
-580.806	-200.000	0.049	0.379
-579.792	277.370	0.153	-0.275
-578.777	166.037	-0.433	-0.619
-577.763	-73.397	-0.429	-0.158
-576.748	-22.265	0.971	-0.594
-575.733	-200.000	0.033	0.388
-574.719	135.530	-0.281	-0.369
-573.704	800.000	-0.122	-0.362
-572.690	79.364	0.261	-0.282
-571.675	45.059	0.958	-0.891
-570.661	77.343	0.412	0.443
-569.646	-200.000	0.062	0.552
-568.631	-123.402	-0.917	0.148
-567.617	-2.560	0.359	-0.254
-566.602	800.000	-0.168	0.597
-565.588	-149.011	0.258	-0.021
-564.573	800.000	-0.269	1.039
-563.558	-68.383	-0.179	-0.070
-562.544	134.139	0.619	-0.809
-561.529	-13.919	-0.540	-0.352
-560.515	-141.805	0.852	0.086
-559.500	-200.000	0.093	-0.738
-558.485	-83.605	0.331	-0.107
-557.471	-7.141	-0.137	0.094
-556.456	-47.596	0.119	-0.058
-555.442	-76.999	-0.721	-0.254
-554.427	121.876	-0.420	-0.528
-553.412	-43.399	0.404	0.206
-552.398	167.546	0.305	-0.437
-551.383	-164.053	0.287	-0.013
-550.369	-200.000	-0.176	-0.816
-549.354	-179.725	0.360	-0.008
-548.339	36.448	-0.157	-0.140
-547.325	800.000	0.148	0.460
-546.310	452.623	-0.243	-0.543
-545.296	3.938	0.275	-0.203
-544.281	-200.000	-0.005	0.316
-543.266	386.297	0.315	-0.656
-542.252	428.910	0.462	1.007
-541.237	209.776	0.207	0.328
-540.223	-50.564	0.432	0.205
-539.208	31.848	-0.455	-0.395
-538.193	-200.000	-0.133	0.601
-537.179	-200.000	-0.052	-0.447
-536.164	-73.860	0.294	0.108
-535.150	-132.264	0.857	0.112
-534.135	-200.000	0.055	0.576
-533.121	99.899	-0.458	-0.535
-532.106	112.704	0.340	0.415
-531.091	800.000	-0.303	-0.861
-530.077	-33.739	0.255	0.142
-529.062	-67.655	0.682	0.269
-528.048	-103.894	0.273	-0.064
-527.033	147.058	0.418	0.566
-526.018	378.736	-0.349	-0.720
-525.004	-103.109	0.271	0.065
-523.989	-157.357	0.624	0.038
-522.975	-98.792	-0.640	0.164
-521.960	208.575	0.422	-0.666
-520.945	-87.305	0.569	0.174
-519.931	-2.717	0.126	0.089
-518.916	-105.936	1.087	0.247
-517.902	-97.293	-0.646	-0.170
-516.887	-0.507	-0.418	0.299
-515.872	85.928	0.458	0.508
-514.858	30.916	-0.301	0.260
-513.843	800.000	-0.137	-0.403
-512.829	156.773	0.582	-0.810
-511.814	-118.578	-0.450	0.080
-510.799	-109.874	-0.357	0.076
-509.785	800.000	-0.122	-0.414
-508.770	800.000	-0.181	0.507
-507.756	-164.677	0.651	-0.030
-506.741	123.726	-0.247	0.312
-505.726	-166.054	1.826	0.078
-504.712	141.604	-0.497	0.663
-503.697	-76.387	-0.459	0.163
-502.683	-105.202	0.791	0.182
-501.668	117.600	0.410	-0.507
-500.653	48.575	0.405	-0.382
-499.639	75.047	0.332	-0.352
-498.624	-200.000	-0.076	0.412
-497.610	-15.249	-0.550	-0.354
-496.595	786.572	-0.261	-0.720
-495.581	184.983	-0.287	0.429
-494.566	-28.626	0.508	0.295
-493.551	76.608	0.751	0.802
-492.537	576.641	-0.183	0.451
-491.522	-169.318	0.292	0.011
-490.508	77.466	0.482	0.516
-489.493	242.722	0.256	0.432
-488.478	168.017	-0.285	0.408
-487.464	41.112	0.239	0.217
-486.449	-146.204	-0.424	0.037
-485.435	427.540	-0.348	-0.755
-484.420	82.551	-0.371	-0.405
-483.405	-157.633	0.413	0.025
-482.391	-32.910	-0.574	-0.320
-481.376	27.412	0.214	0.181
-480.362	126.735	-0.113	-0.144
-479.347	27.194	-0.021	0.018
-478.332	31.437	-0.182	-0.157
-477.318	-61.497	-0.515	-0.218
-476.303	-34.328	-0.512	0.283
-475.289	-96.417	1.174	0.312
-474.274	-200.000	-0.070	-0.365
-473.259	-182.898	0.749	-0.014
-472.245	374.949	-0.210	-0.431
-471.230	-141.345	-0.300	0.031
-470.216	-200.000	-0.031	-0.349
-469.201	114.012	0.554	0.678
-468.186	800.000	-0.043	-0.166
-467.172	-96.236	0.623	-0.166
-466.157	164.297	0.303	0.430
-465.143	-59.487	-0.129	0.056
-464.128	-94.453	-0.765	-0.210
-463.113	-200.000	0.081	-0.553
-462.099	316.290	-0.161	0.305
-461.084	800.000	-0.161	0.459
-460.070	-41.355	0.138	-0.071
-459.055	91.108	0.819	-0.924
-458.040	-200.000	-0.038	-0.174
-457.026	-84.720	-0.750	-0.237
-456.011	160.351	0.211	0.296
-454.997	-171.903	0.358	-0.012
-453.982	-76.175	0.691	0.245
-452.968	101.782	-0.404	0.474
-451.953	569.944	0.273	-0.667
-450.938	343.411	-0.248	0.488
-449.924	-16.089	-0.041	0.026
-448.909	16.278	-0.541	0.429
-447.895	-146.631	-0.632	0.055
-446.880	-139.003	0.975	0.106
-445.865	64.391	0.560	0.567
-444.851	58.122	-0.268	0.264
-443.836	15.668	0.218	0.172
-442.822	129.801	-0.395	-0.508
-441.807	-133.905	-0.444	-0.055
-440.792	-18.633	0.252	-0.158
-439.778	160.946	0.497	0.697
-438.763	-160.250	-0.738	-0.040
-437.749	546.896	0.271	-0.651
-436.734	59.818	0.212	-0.210
-435.719	44.897	0.270	-0.250
-434.705	-200.000	-0.082	-0.669
-433.690	800.000	-0.115	-0.321
-432.676	-200.000	0.009	-0.784
-431.661	-28.918	-0.262	-0.151
-430.646	249.735	-0.504	-0.858
-429.632	-38.131	-0.921	-0.490
-428.617	107.410	0.223	-0.266
-427.603	227.755	0.266	-0.434
-426.588	357.447	0.293	0.586
-425.573	91.419	0.117	-0.132
-424.559	-145.447	0.889	0.080
-423.544	-163.118	0.110	-0.005
-422.530	130.716	-0.246	-0.316
-421.515	48.762	0.192	0.181
-420.500	46.873	-0.439	-0.409
-419.486	253.854	-0.279	-0.479
-418.471	-200.000	-0.056	0.436
-417.457	-145.173	-0.390	0.035
-416.442	-200.000	-0.016	-0.272
-415.428	115.502	0.263	0.323
-414.413	96.837	0.350	0.402
-413.398	224.388	0.213	0.345
-412.384	-130.812	-0.657	-0.088
-411.369	3.020	0.157	-0.114
-410.355	-200.000	-0.125	0.588
-409.340	-146.409	0.430	0.038
-408.325	-177.048	-0.196	0.005
-407.311	800.000	-0.144	0.563
-406.296	191.925	0.299	-0.452
-405.282	-172.931	-0.714	-0.022
-404.267	800.000	-0.024	0.096
-403.252	467.510	-0.291	0.654
-402.238	364.981	0.223	0.451
-401.223	582.463	0.212	-0.522
-400.209	35.655	0.364	0.321
-399.194	-28.236	0.067	0.039
-398.179	120.484	-0.569	-0.708
-397.165	69.238	-0.181	-0.186
-396.150	-42.110	-0.648	-0.332
-395.136	-200.000	-0.006	0.079
-394.121	-200.000	-0.133	-0.732
-393.106	-79.551	0.295	0.100
-392.092	33.452	0.539	-0.469
-391.077	-187.628	-0.877	-0.012
-390.063	42.614	0.268	-0.245
-389.048	56.646	0.278	0.271
-388.033	39.559	-0.551	-0.495
-387.019	142.787	-0.737	0.981
-386.004	-46.970	-0.372	0.182
-384.990	31.171	-0.077	-0.066
-383.975	800.000	0.093	0.352
-382.960	167.923	-0.564	0.805
-381.946	-200.000	-0.140	-0.751
-380.931	-200.000	-0.086	-0.826
-379.917	-115.828	0.249	0.047
-378.902	550.890	-0.173	0.417
-377.888	-157.278	0.907	-0.055
-376.873	-126.772	-0.310	-0.046
-375.858	51.180	0.573	-0.545
-374.844	346.599	-0.181	-0.356
-373.829	-51.816	-0.750	-0.350
-372.815	12.870	-0.086	-0.067
-371.800	40.330	0.595	0.536
-370.785	-75.005	0.482	0.173
-369.771	-162.943	0.127	0.006
-368.756	62.391	0.190	-0.190
-367.742	-112.964	-0.690	0.137
-366.727	-50.063	-0.385	0.183
-365.712	-43.996	-0.589	0.296
-364.698	107.083	-0.298	-0.355
-363.683	42.317	-0.252	-0.230
-362.669	155.198	-0.417	0.574
-361.654	-169.308	0.486	0.018
-360.639	224.502	0.301	0.487
-359.625	-200.000	-0.073	0.391
-358.610	-200.000	-0.036	0.610
-357.596	-200.000	0.004	-0.286
-356.581	-200.000	-0.017	-0.200
-355.566	-30.701	-0.638	-0.362
-354.552	-25.031	-0.377	-0.224
-353.537	-30.544	-0.263	-0.149
-352.523	-84.480	-0.140	0.044
-351.508	241.450	-0.292	0.489
-350.493	800.000	-0.045	0.145
-349.479	59.199	-0.569	-0.561
-348.464	215.187	-0.100	-0.159
-347.450	151.943	0.538	-0.734
-346.435	-43.448	-0.357	0.180
-345.420	-200.000	-0.054	0.697
-344.406	-44.558	0.235	-0.118
-343.391	-200.000	-0.078	0.589
-342.377	800.000	0.078	0.230
-341.362	100.558	0.103	-0.120
-340.348	3.083	0.301	0.219
-339.333	19.550	0.638	0.513
-338.318	451.239	-0.113	-0.250
-337.304	327.385	0.195	-0.374
-336.289	443.205	0.387	-0.848
-335.275	102.771	0.424	-0.496
-334.260	-200.000	0.128	-0.888
-333.245	327.627	0.455	0.874
-332.231	-58.922	0.613	0.265
-331.216	150.521	0.412	0.560
-330.202	43.441	0.148	-0.136
-329.187	-8.146	0.180	-0.121
-328.172	160.104	0.266	-0.370
-327.158	-17.609	-0.243	0.153
-326.143	135.204	0.196	0.255
-325.129	-133.193	0.445	0.056
-324.114	800.000	-0.093	0.314
-323.099	800.000	0.324	1.303
-322.085	449.225	0.150	0.330
-321.070	-163.845	-0.662	-0.031
-320.056	800.000	0.263	-1.032
-319.041	340.394	-0.353	0.688
-318.026	54.337	-0.324	-0.312
-317.012	508.667	0.035	0.081
-315.997	-99.443	0.357	-0.090
-314.983	-23.122	-1.000	-0.602
-313.968	108.441	0.095	0.113
-312.953	-200.000	0.032	0.204
-311.939	-200.000	0.085	-0.509
-310.924	221.071	-0.365	-0.585
-309.910	-186.070	0.528	-0.008
-308.895	-200.000	0.005	0.217
-307.880	-200.000	-0.126	-0.688
-306.866	-200.000	0.014	-0.262
-305.851	-200.000	-0.037	-0.471
-304.837	-78.604	0.040	-0.014
-303.822	420.947	-0.026	0.055
-302.807	430.649	0.319	-0.689
-301.793	-82.566	0.223	0.072
-300.778	-65.668	-0.677	0.271
-299.764	-200.000	0.251	1.213
-298.749	199.628	0.371	0.568
-297.735	-69.932	0.574	-0.219
-296.720	112.131	-0.504	0.608
-295.705	326.551	0.232	0.445
-294.691	497.153	-0.615	1.413
-293.676	99.304	-0.131	-0.152
-292.662	-129.538	0.111	0.015
-291.647	706.307	-0.253	-0.666
-290.632	-97.246	-0.375	0.098
-289.618	800.000	-0.107	0.413
-288.603	-200.000	-0.020	-0.411
-287.589	-200.000	-0.053	0.260
-286.574	-52.369	0.868	0.401
-285.559	60.854	-0.426	0.422
-284.545	39.812	0.114	0.102
-283.530	27.179	-0.917	-0.769
-282.516	-31.093	0.139	0.078
-281.501	-99.783	-0.787	-0.197
-280.486	153.311	0.211	0.288
-279.472	-200.000	-0.012	0.119
-278.457	186.607	0.243	-0.361
-277.443	387.159	-0.490	1.012
-276.428	-129.277	-0.692	0.096
-275.413	201.474	-0.146	0.224
-274.399	786.082	-0.112	0.306
-273.384	-78.436	0.283	-0.097
-272.370	-200.000	0.035	0.237
-271.355	23.918	0.396	0.326
-270.340	154.930	0.379	0.519
-269.326	-200.000	0.076	-0.750
-268.311	-200.000	-0.174	1.052
-267.297	-62.132	-0.211	-0.088
-266.282	13.360	-0.634	0.490
-265.267	-134.397	0.519	-0.063
-264.253	-165.175	-0.498	-0.022
-263.238	-22.075	0.796	0.482
-262.224	800.000	-0.213	0.615
-261.209	-200.000	0.051	0.750
-260.195	102.408	-0.317	0.369
-259.180	129.416	-0.226	-0.288
-258.165	-200.000	0.040	-0.365
-257.151	-200.000	-0.182	1.018
-256.136	324.716	0.155	-0.295
-255.122	30.254	-0.492	-0.419
-254.107	-200.000	0.000	-0.202
-253.092	689.161	-0.385	1.004
-252.078	-172.858	0.425	-0.013
-251.063	-17.553	-0.335	0.210
-250.049	596.197	-0.292	0.720
-249.034	-57.299	-0.327	0.143
-248.019	-76.694	-0.353	-0.123
-247.005	800.000	-0.385	-1.110
-245.990	104.317	-0.441	-0.517
-244.976	800.000	0.072	-0.281
-243.961	-29.601	1.103	-0.628
-242.946	-146.196	0.385	0.034
-241.932	-135.639	-0.656	0.078
-240.917	-98.032	0.479	0.123
-239.903	800.000	0.051	0.214
-238.888	35.772	-0.053	0.047
-237.873	-57.477	0.354	-0.155
-236.859	384.874	0.526	-1.081
-235.844	144.567	-0.300	-0.400
-234.830	27.867	0.153	0.128
-233.815	105.874	0.519	-0.612
-232.800	-117.607	0.318	-0.057
-231.786	-65.891	-0.707	-0.281
-230.771	0.257	0.517	0.368
-229.757	456.628	-0.335	-0.741
-228.742	-142.293	0.227	-0.022
-227.727	-163.268	-0.993	0.047
-226.713	-75.916	0.802	0.283
-225.698	-200.000	-0.039	0.405
-224.684	11.361	0.044	0.033
-223.669	7.142	-0.195	-0.145
-222.655	175.724	0.075	0.108
-221.640	-147.775	0.336	-0.028
-220.625	-58.797	-0.836	0.360
-219.611	70.848	0.355	-0.366
-218.596	516.370	-0.217	0.506
-217.582	-103.300	-0.407	-0.096
-216.567	46.424	-0.188	0.174
-215.552	-148.946	-1.432	0.115
-214.538	-132.943	0.637	0.081
-213.523	93.594	-0.211	0.238
-212.509	-73.808	-0.314	-0.114
-211.494	-200.000	0.008	-0.665
-210.479	800.000	0.142	-0.426
-209.465	248.000	0.246	-0.415
-208.450	123.489	0.283	0.353
-207.436	102.131	-0.456	-0.530
-206.421	-200.000	0.061	0.309
-205.406	61.720	-0.060	0.059
-204.392	553.926	0.198	-0.474
-203.377	-36.235	-0.865	-0.464
-202.363	-36.934	0.348	0.186
-201.348	216.674	-0.241	0.382
-200.333	165.787	0.298	0.420
-199.319	-72.612	0.436	0.160
-198.304	800.000	0.281	0.948
-197.290	18.730	0.467	-0.372
-196.275	-200.000	0.015	0.194
-195.260	-200.000	0.259	1.280
-194.246	-48.189	-0.439	0.211
-193.231	-67.019	0.428	0.168
-192.217	26.444	0.235	0.195
-191.202	-200.000	-0.023	-0.162
-190.187	-96.174	0.207	-0.055
-189.173	191.681	0.543	0.814
-188.158	52.731	-0.516	0.491
-187.144	-200.000	-0.038	-0.402
-186.129	800.000	0.215	0.671
-185.114	126.059	0.369	0.464
-184.100	-92.063	-0.869	0.244
-183.085	102.107	-0.430	-0.499
-182.071	-79.092	1.013	0.342
-181.056	-175.119	0.188	-0.005
-180.042	43.177	-0.518	0.470
-179.027	36.334	0.107	0.093
-178.012	-4.477	0.427	-0.294
-176.998	-28.807	0.573	0.328
-175.983	-141.249	0.397	0.040
-174.969	381.136	0.381	-0.777
-173.954	-86.472	0.762	0.233
-172.939	-42.714	0.801	0.405
-171.925	22.094	-0.514	0.417
-170.910	440.847	0.257	0.560
-169.896	75.472	-0.243	0.255
-168.881	37.100	0.436	-0.383
-167.866	-200.000	-0.037	-0.398
-166.852	-151.196	-0.165	-0.012
-165.837	-15.530	-0.338	0.214
-164.823	255.122	-0.511	-0.870
-163.808	-200.000	0.038	-0.324
-162.793	62.482	0.305	0.303
-161.779	-200.000	-0.006	-0.375
-160.764	119.474	0.452	0.555
-159.750	-100.519	-0.694	0.170
-158.735	26.510	0.361	-0.300
-157.720	75.892	-0.179	-0.188
-156.706	-167.030	-1.219	-0.049
-155.691	-200.000	-0.561	0.001
-154.677	-200.000	-0.136	0.742
-153.662	-200.000	-0.125	-0.628
-152.647	281.488	-0.165	-0.293
-151.633	-200.000	0.136	0.821
-150.618	-171.617	0.875	0.029
-149.604	800.000	-0.261	-0.998
-148.589	800.000	-0.179	-0.535
-147.574	800.000	-0.315	0.992
-146.560	-182.850	0.662	0.012
-145.545	211.128	-0.470	0.735
-144.531	105.945	-0.233	-0.274
-143.516	290.542	0.317	0.572
-142.502	-200.000	-0.017	-0.094
-141.487	-44.012	-0.762	-0.380
-140.472	-200.000	-0.009	-0.209
-139.458	34.152	-0.506	0.438
-138.443	-3.934	-0.553	-0.381
-137.429	47.425	-0.102	0.094
-136.414	-200.000	0.437	-0.000
-135.399	800.000	0.088	-0.331
-134.385	-39.027	0.437	0.228
-133.370	-49.700	1.029	0.486
-132.356	-36.540	-0.640	0.342
-131.341	800.000	0.153	0.570
-130.326	-108.316	-0.557	0.119
-129.312	55.873	-0.345	-0.332
-128.297	91.074	0.653	-0.727
-127.283	662.243	-0.087	-0.223
-126.268	-1.739	0.420	0.293
-125.253	800.000	0.144	0.601
-124.239	800.000	-0.219	0.776
-123.224	567.432	0.210	-0.506
-122.210	369.128	0.166	-0.333
-121.195	-58.599	-0.132	-0.057
