DTS Sentinel unit serial number:	SN413079Multiplexer serial number:	ORYXHardware model number:	OX4-SRSoftware version number:	ORYX F/W v4.00 Oryx Data Collector v3.7.2.0data status	okinstallation	princeton_trtdifferential loss correction	single-endedforward channel	channel 4reverse channel	N/Adate	2019/09/12time	19:58:18forward acquisition time	15.00reverse acquisition time	0.00gamma	496.2192k internal	0.2310k external	0.2310temperature offset calibration	1.0157default loss term (dB/km)	0.3790temperature slope calibration	1.0000multiplexer offset coefficient	1.0000multiplexer slope coefficient	1.0000fibre end	0.00T internal ref (°C)	31.81T ext. ref 1 (°C)	3.39T ext. ref 2 (°C)	26.33length (m)	temperature (°C)	Stokes	anti-Stokes-747.200	-200.000	-0.011	0.086
-746.185	-22.947	0.440	0.269
-745.171	90.512	-0.609	-0.692
-744.156	121.026	-0.165	0.208
-743.142	-109.338	0.780	-0.168
-742.127	-200.000	0.039	0.259
-741.112	171.387	0.217	0.316
-740.098	800.000	-0.185	-0.593
-739.083	-189.110	-0.532	0.006
-738.069	-42.907	0.650	-0.335
-737.054	-164.690	-0.104	0.005
-736.039	-65.031	0.602	-0.247
-735.025	-50.831	-0.526	0.251
-734.010	24.121	0.369	-0.310
-732.996	-60.142	-0.267	-0.115
-731.981	-118.926	0.329	-0.059
-730.966	-103.869	-0.367	0.087
-729.952	46.656	-0.550	-0.518
-728.937	-200.000	-0.003	-0.216
-727.923	-200.000	-0.054	0.396
-726.908	-44.044	0.909	-0.463
-725.894	-43.197	-0.277	0.142
-724.879	-156.171	-0.604	0.039
-723.864	19.089	-0.197	-0.160
-722.850	-11.524	-0.601	-0.401
-721.835	-76.581	-0.858	-0.306
-720.821	99.562	-0.434	-0.509
-719.806	115.485	-0.257	-0.319
-718.791	-63.506	-0.234	-0.097
-717.777	203.164	0.259	0.406
-716.762	-147.100	0.874	-0.076
-715.748	54.942	0.105	-0.103
-714.733	36.385	0.779	-0.697
-713.718	43.438	-0.748	-0.694
-712.704	154.365	-0.253	0.353
-711.689	42.244	-0.168	-0.155
-710.675	-200.000	-0.026	0.396
-709.660	-89.855	0.110	0.033
-708.645	34.507	0.450	-0.398
-707.631	-75.846	0.257	-0.092
-706.616	-90.844	0.692	0.202
-705.602	-200.000	-0.024	-0.227
-704.587	407.208	-0.186	-0.398
-703.572	-138.780	-0.781	0.086
-702.558	500.679	0.056	0.130
-701.543	-166.483	-0.717	-0.030
-700.529	145.726	0.357	0.485
-699.514	27.594	-0.903	0.770
-698.499	265.200	0.167	0.295
-697.485	-200.000	-0.062	0.313
-696.470	800.000	-0.102	-0.314
-695.456	-200.000	0.004	0.617
-694.441	800.000	0.158	0.502
-693.426	100.310	-0.459	0.540
-692.412	-117.418	-0.862	0.158
-691.397	-116.209	0.920	0.173
-690.383	427.091	-0.263	-0.575
-689.368	-40.563	0.250	0.131
-688.354	-200.000	-0.148	0.677
-687.339	-85.768	-0.504	-0.158
-686.324	-131.637	-0.594	-0.079
-685.310	-7.679	-0.190	0.130
-684.295	-74.395	-0.376	0.138
-683.281	21.675	0.550	0.453
-682.266	98.843	-0.176	0.206
-681.251	-70.384	0.116	-0.044
-680.237	158.391	0.255	0.359
-679.222	20.972	0.504	-0.414
-678.208	569.976	0.242	0.597
-677.193	259.938	0.104	-0.182
-676.178	800.000	-0.341	1.160
-675.164	-11.923	-0.664	0.441
-674.149	800.000	-0.226	0.736
-673.135	-39.054	-0.031	-0.017
-672.120	123.191	0.247	-0.314
-671.105	151.266	0.682	-0.940
-670.091	52.016	0.313	-0.301
-669.076	-3.262	0.108	-0.076
-668.062	-128.453	-0.231	-0.033
-667.047	-200.000	-0.032	-0.795
-666.032	-176.485	1.025	-0.027
-665.018	777.765	-0.103	-0.284
-664.003	-66.573	-0.208	0.083
-662.989	-200.000	-0.017	0.178
-661.974	476.950	-0.283	-0.649
-660.959	-200.000	-0.036	0.352
-659.945	138.353	-0.248	0.329
-658.930	-200.000	0.009	0.114
-657.916	55.239	0.729	0.714
-656.901	475.418	-0.442	-1.010
-655.886	100.520	-0.178	0.209
-654.872	146.087	0.650	0.883
-653.857	-200.000	-0.087	0.453
-652.843	-161.915	-0.474	-0.024
-651.828	800.000	0.066	-0.220
-650.814	396.710	0.175	0.369
-649.799	-200.000	0.040	-0.356
-648.784	574.098	-0.171	0.423
-647.770	-24.158	0.994	0.601
-646.755	129.553	0.445	0.575
-645.741	800.000	0.114	0.323
-644.726	-153.727	0.616	-0.043
-643.711	-200.000	0.094	-0.732
-642.697	-200.000	-0.139	0.664
-641.682	147.699	-0.192	-0.262
-640.668	381.231	0.410	0.850
-639.653	-200.000	0.030	0.450
-638.638	24.420	-0.245	0.205
-637.624	-200.000	-0.016	-0.886
-636.609	38.954	0.221	-0.200
-635.595	477.973	0.103	-0.236
-634.580	-48.467	0.671	-0.327
-633.565	187.797	0.371	-0.560
-632.551	-1.140	-0.491	0.351
-631.536	800.000	0.145	-0.560
-630.522	94.653	0.295	0.339
-629.507	-53.324	-0.405	0.187
-628.492	200.020	-0.303	-0.470
-627.478	-39.030	0.548	0.292
-626.463	-57.924	-0.255	0.112
-625.449	123.013	0.269	0.340
-624.434	-200.000	-0.081	0.443
-623.419	-143.616	0.700	0.067
-622.405	137.811	0.235	0.311
-621.390	694.828	-0.172	0.457
-620.376	54.129	-0.544	-0.528
-619.361	640.067	-0.152	0.391
-618.346	-200.000	-0.114	-0.524
-617.332	-200.000	0.017	-0.125
-616.317	97.911	0.534	0.621
-615.303	92.553	-0.452	0.515
-614.288	699.014	0.110	0.292
-613.273	-200.000	0.027	-0.548
-612.259	-200.000	0.102	-0.602
-611.244	-15.035	-0.032	0.021
-610.230	190.278	-0.714	1.084
-609.215	541.906	-0.253	-0.608
-608.201	90.491	0.482	-0.544
-607.186	-48.990	0.436	0.211
-606.171	-57.697	-0.447	0.197
-605.157	800.000	0.149	0.521
-604.142	-200.000	0.156	0.973
-603.128	-200.000	0.162	-0.765
-602.113	220.809	-0.639	-1.036
-601.098	-21.500	-0.607	-0.374
-600.084	-91.167	-0.402	0.116
-599.069	-112.265	0.356	-0.072
-598.055	197.019	-0.170	0.262
-597.040	-200.000	-0.016	-0.276
-596.025	800.000	-0.085	0.238
-595.011	-41.894	0.192	-0.099
-593.996	800.000	-0.154	-0.589
-592.982	800.000	-0.144	-0.463
-591.967	239.594	0.309	-0.519
-590.952	-91.712	-0.626	-0.180
-589.938	-149.319	-0.279	-0.022
-588.923	49.120	-0.318	-0.302
-587.909	232.248	0.492	0.816
-586.894	209.626	0.261	0.413
-585.879	-200.000	0.085	0.750
-584.865	31.450	-0.363	0.315
-583.850	163.284	0.293	-0.416
-582.836	-27.380	0.330	-0.194
-581.821	-36.612	-0.428	0.232
-580.806	136.555	0.328	-0.432
-579.792	-106.681	0.615	0.138
-578.777	-200.000	0.092	-0.787
-577.763	33.428	-0.476	-0.417
-576.748	-72.965	-0.674	-0.250
-575.733	2.158	-0.541	0.394
-574.719	120.834	0.181	0.227
-573.704	110.471	0.062	0.075
-572.690	-17.942	-0.587	-0.371
-571.675	-86.654	-0.501	-0.155
-570.661	-150.313	0.565	-0.044
-569.646	-187.232	0.552	0.008
-568.631	-110.139	-0.733	0.154
-567.617	281.365	-0.255	0.460
-566.602	-151.544	1.404	0.105
-565.588	-200.000	0.109	-0.665
-564.573	228.345	0.103	-0.169
-563.558	139.751	0.281	0.374
-562.544	-200.000	-0.008	0.892
-561.529	44.164	-0.617	0.571
-560.515	25.844	0.724	0.608
-559.500	-200.000	0.073	-0.552
-558.485	-86.807	0.537	-0.165
-557.471	-50.133	0.506	-0.241
-556.456	365.606	0.126	0.255
-555.442	-122.865	0.869	0.141
-554.427	41.513	0.411	-0.375
-553.412	53.753	0.164	-0.159
-552.398	-200.000	-0.004	-0.868
-551.383	10.268	-0.431	0.331
-550.369	-124.099	0.364	-0.058
-549.354	-200.000	-0.070	-0.543
-548.339	27.449	-0.570	0.483
-547.325	-23.797	-0.221	0.134
-546.310	-63.875	-0.340	0.140
-545.296	-142.404	0.959	-0.095
-544.281	-200.000	0.032	0.297
-543.266	800.000	-0.241	0.874
-542.252	-71.878	0.550	-0.206
-541.237	-90.996	-0.558	-0.162
-540.223	-200.000	-0.047	-0.548
-539.208	-63.167	0.579	0.241
-538.193	152.216	-0.434	0.596
-537.179	-130.687	0.926	-0.125
-536.164	77.572	-0.390	0.418
-535.150	-53.627	-0.031	0.014
-534.135	-200.000	0.017	-0.214
-533.121	549.347	0.098	-0.237
-532.106	-47.608	-0.379	-0.185
-531.091	281.164	-0.154	-0.278
-530.077	-23.445	0.583	0.353
-529.062	396.705	0.165	0.347
-528.048	-1.672	0.592	0.420
-527.033	-200.000	-0.125	-0.684
-526.018	-65.240	-0.455	-0.184
-525.004	-173.545	-0.658	0.020
-523.989	461.243	0.498	1.117
-522.975	800.000	-0.081	-0.271
-521.960	-6.680	-0.372	0.255
-520.945	800.000	0.274	-0.849
-519.931	-200.000	-0.872	0.001
-518.916	534.693	0.267	0.636
-517.902	48.323	-0.146	-0.137
-516.887	-86.154	-0.645	0.200
-515.872	-124.401	-0.531	-0.083
-514.858	-200.000	-0.004	0.317
-513.843	8.366	-0.429	0.325
-512.829	-200.000	-0.132	0.664
-511.814	658.059	-0.388	-1.004
-510.799	-0.794	0.240	-0.171
-509.785	-155.246	-0.694	-0.046
-508.770	34.995	0.482	0.425
-507.756	-53.292	-0.690	-0.318
-506.741	-101.719	-0.655	-0.160
-505.726	574.707	0.041	-0.100
-504.712	-49.363	-0.271	0.130
-503.697	-200.000	0.082	0.398
-502.683	-96.259	1.260	-0.336
-501.668	485.842	0.070	0.161
-500.653	800.000	-0.189	-0.783
-499.639	-141.416	-0.175	0.018
-498.624	-164.995	-0.397	-0.018
-497.610	800.000	-0.103	-0.421
-496.595	0.061	0.640	0.458
-495.581	194.562	0.253	0.386
-494.566	462.021	-0.066	-0.148
-493.551	800.000	-0.417	1.560
-492.537	-61.791	-0.245	0.103
-491.522	169.968	-0.332	0.477
-490.508	-88.959	-0.490	0.146
-489.493	-155.233	0.581	0.038
-488.478	257.740	0.265	-0.458
-487.464	-200.000	0.010	-0.129
-486.449	-42.510	0.138	-0.071
-485.435	-185.521	0.611	-0.009
-484.420	260.584	0.283	-0.491
-483.405	-122.738	-0.790	0.128
-482.391	665.928	0.215	0.558
-481.376	109.355	0.131	0.158
-480.362	67.647	0.286	-0.293
-479.347	284.571	0.143	-0.259
-478.332	305.914	-0.208	-0.389
-477.318	-5.706	0.686	-0.473
-476.303	-49.197	0.170	0.082
-475.289	800.000	-0.049	0.159
-474.274	-18.140	-0.444	-0.279
-473.259	-49.306	0.235	-0.113
-472.245	-25.955	0.519	-0.307
-471.230	650.704	0.368	0.947
-470.216	-49.129	0.297	0.143
-469.201	-68.428	-0.483	0.188
-468.186	-200.000	-0.017	0.310
-467.172	176.256	-0.372	0.543
-466.157	126.200	-0.177	-0.225
-465.143	-55.648	0.612	-0.275
-464.128	13.509	0.455	-0.354
-463.113	129.421	0.535	0.687
-462.099	-11.449	0.372	-0.246
-461.084	6.244	0.677	0.505
-460.070	70.934	-0.339	0.353
-459.055	-51.353	-0.565	-0.265
-458.040	-169.593	-0.899	-0.033
-457.026	-124.892	-0.568	-0.088
-456.011	-22.162	0.790	0.481
-454.997	-106.319	0.190	-0.043
-453.982	568.660	-0.179	0.438
-452.968	510.533	0.075	0.176
-451.953	92.027	0.213	0.241
-450.938	-200.000	0.188	0.864
-449.924	64.134	-0.461	-0.466
-448.909	140.430	-0.359	-0.476
-447.895	-200.000	0.001	0.599
-446.880	-107.726	0.281	-0.062
-445.865	800.000	-0.346	0.977
-444.851	267.935	-0.193	0.339
-443.836	800.000	0.249	0.731
-442.822	-107.610	0.830	-0.182
-441.807	-14.489	0.416	-0.268
-440.792	-72.232	0.400	0.149
-439.778	-78.031	1.226	0.424
-438.763	-200.000	-0.043	-0.351
-437.749	234.177	0.598	0.988
-436.734	800.000	0.090	-0.362
-435.719	122.853	0.110	0.138
-434.705	79.448	-0.363	0.391
-433.690	800.000	0.094	0.270
-432.676	800.000	-0.184	-0.649
-431.661	-56.986	-0.519	0.230
-430.646	355.584	-0.084	-0.167
-429.632	161.286	-0.414	-0.581
-428.617	800.000	-0.230	0.713
-427.603	-12.850	0.614	0.401
-426.588	-200.000	0.022	0.127
-425.573	200.285	-0.296	0.456
-424.559	-197.099	-0.207	0.001
-423.544	800.000	-0.120	-0.394
-422.530	-200.000	-0.033	0.484
-421.515	89.479	-0.651	-0.728
-420.500	259.381	0.426	0.738
-419.486	142.026	-0.317	0.421
-418.471	149.120	0.318	0.432
-417.457	159.242	0.328	0.458
-416.442	-56.347	-0.376	0.168
-415.428	353.631	0.244	0.485
-414.413	800.000	0.184	0.586
-413.398	800.000	0.117	0.474
-412.384	-27.618	-0.104	0.060
-411.369	393.560	0.375	-0.783
-410.355	84.306	0.442	-0.484
-409.340	-89.909	-0.360	0.105
-408.325	-8.141	-0.511	0.345
-407.311	440.260	0.160	0.350
-406.296	510.340	0.341	0.795
-405.282	-163.130	0.701	-0.034
-404.267	-200.000	0.036	0.532
-403.252	772.515	-0.124	-0.338
-402.238	463.602	0.150	-0.335
-401.223	276.965	-0.390	-0.694
-400.209	-30.406	-1.050	-0.597
-399.194	668.543	0.122	-0.316
-398.179	327.234	-0.231	-0.444
-397.165	170.118	-0.196	-0.281
-396.150	-66.342	-0.453	0.180
-395.136	-72.554	-0.133	0.049
-394.121	-10.054	0.309	-0.206
-393.106	-200.000	0.024	0.381
-392.092	-11.309	0.485	0.320
-391.077	-200.000	0.123	-1.153
-390.063	122.765	-0.600	-0.751
-389.048	2.860	-0.157	-0.114
-388.033	-126.485	0.533	-0.079
-387.019	-131.731	0.399	-0.052
-386.004	-200.000	0.011	0.477
-384.990	-40.934	-0.465	0.241
-383.975	-123.622	0.435	0.069
-382.960	0.246	-0.684	-0.489
-381.946	-200.000	0.037	-0.796
-380.931	-200.000	-0.096	0.498
-379.917	225.841	-0.434	0.703
-378.902	-22.400	-0.612	0.371
-377.888	-77.434	0.409	0.142
-376.873	-200.000	-0.026	0.199
-375.858	68.265	-0.190	0.195
-374.844	-78.041	-0.392	-0.135
-373.829	-200.000	0.071	0.612
-372.815	205.653	-0.313	0.487
-371.800	83.203	-0.207	0.225
-370.785	-83.647	-0.482	0.154
-369.771	293.783	0.187	0.342
-368.756	-79.556	0.392	0.133
-367.742	476.710	-0.302	0.682
-366.727	-200.000	0.151	-0.875
-365.712	-18.867	0.463	-0.288
-364.698	800.000	-0.041	-0.114
-363.683	-10.881	-0.485	0.320
-362.669	-142.993	0.549	0.053
-361.654	-140.552	0.413	-0.043
-360.639	-20.744	-0.386	0.237
-359.625	89.141	0.603	0.672
-358.610	-42.186	-0.170	-0.087
-357.596	-82.146	-0.367	0.120
-356.581	44.120	-0.477	-0.438
-355.566	187.270	-0.298	-0.444
-354.552	-200.000	0.030	-0.322
-353.537	-93.647	-1.225	-0.338
-352.523	-38.193	0.695	0.368
-351.508	88.679	0.426	-0.474
-350.493	80.005	0.133	0.143
-349.479	227.773	0.415	0.676
-348.464	516.443	-0.343	0.801
-347.450	-200.000	-0.023	0.731
-346.435	-89.577	-1.440	0.422
-345.420	-29.834	-0.359	-0.205
-344.406	-98.051	0.978	-0.252
-343.391	-200.000	-0.032	0.148
-342.377	-200.000	-0.096	0.942
-341.362	-200.000	0.023	-0.669
-340.348	42.284	0.763	-0.693
-339.333	10.476	-0.654	0.498
-338.318	-24.064	-0.491	-0.293
-337.304	249.647	0.098	0.167
-336.289	28.853	-0.261	0.221
-335.275	800.000	0.099	-0.355
-334.260	-1.876	-0.219	0.154
-333.245	-139.811	0.249	0.026
-332.231	-40.448	-0.289	0.150
-331.216	272.478	0.123	0.216
-330.202	545.476	0.110	-0.263
-329.187	46.329	-0.410	0.379
-328.172	-200.000	0.108	-0.537
-327.158	-41.011	0.254	0.131
-326.143	-11.039	-0.093	0.061
-325.129	220.258	0.255	0.408
-324.114	-200.000	-0.067	-0.294
-323.099	251.692	-0.178	0.303
-322.085	-200.000	-0.095	-0.642
-321.070	-93.390	-1.029	-0.285
-320.056	800.000	-0.236	0.857
-319.041	144.939	0.464	-0.619
-318.026	105.055	-0.187	-0.220
-317.012	-28.931	-0.492	0.282
-315.997	-130.290	0.681	-0.092
-314.983	-200.000	-0.033	-0.387
-313.968	-32.137	-0.261	0.145
-312.953	-19.525	-0.259	0.160
-311.939	-200.000	0.177	0.890
-310.924	319.588	0.222	-0.421
-309.910	-104.872	-1.017	0.233
-308.895	-113.039	-0.904	0.178
-307.880	5.479	-0.410	0.302
-306.866	59.476	-0.366	-0.360
-305.851	-200.000	0.143	-0.966
-304.837	671.471	-0.058	-0.149
-303.822	-86.085	0.548	0.169
-302.807	8.249	0.374	-0.281
-301.793	800.000	0.100	-0.398
-300.778	-133.585	0.310	-0.039
-299.764	265.235	-0.169	0.294
-298.749	296.897	-0.214	0.391
-297.735	533.064	-0.064	0.152
-296.720	-133.313	-0.713	0.090
-295.705	-6.632	-0.191	0.130
-294.691	-200.000	0.084	0.431
-293.676	-173.762	0.386	-0.011
-292.662	-200.000	0.003	-0.014
-291.647	-121.248	-0.743	-0.124
-290.632	286.834	-0.257	-0.462
-289.618	104.922	-0.132	0.155
-288.603	-122.992	0.647	-0.104
-287.589	687.935	0.042	-0.108
-286.574	100.916	0.700	-0.812
-285.559	30.454	0.796	-0.679
-284.545	800.000	0.221	-0.870
-283.530	-200.000	-0.051	-0.313
-282.516	-116.302	-0.683	0.126
-281.501	86.271	0.189	0.208
-280.486	800.000	0.132	0.517
-279.472	800.000	-0.164	-0.476
-278.457	-200.000	-0.010	0.422
-277.443	-124.558	0.432	0.067
-276.428	-62.306	-0.307	0.127
-275.413	326.929	-0.317	-0.607
-274.399	201.068	-0.556	-0.852
-273.384	552.415	0.249	-0.597
-272.370	597.662	-0.523	-1.291
-271.355	70.912	0.409	-0.423
-270.340	334.745	-0.125	-0.241
-269.326	-200.000	0.035	-0.893
-268.311	44.172	0.336	0.307
-267.297	318.314	-0.290	-0.547
-266.282	19.769	-0.397	0.319
-265.267	-167.080	0.548	0.022
-264.253	16.281	0.617	-0.485
-263.238	800.000	-0.058	0.167
-262.224	2.045	0.102	0.073
-261.209	18.825	-0.218	-0.174
-260.195	36.652	0.191	0.168
-259.180	45.933	-0.179	-0.165
-258.165	-156.932	-0.567	0.035
-257.151	147.026	-0.090	0.120
-256.136	-200.000	-0.019	-0.985
-255.122	-43.775	0.385	0.193
-254.107	-24.461	0.210	-0.125
-253.092	244.806	0.118	-0.197
-252.078	-200.000	-0.096	-0.641
-251.063	31.327	0.570	0.487
-250.049	-109.928	0.526	-0.110
-249.034	195.491	0.375	-0.568
-248.019	7.069	-0.166	0.123
-247.005	793.592	-0.174	-0.477
-245.990	11.897	-0.429	0.328
-244.976	-20.159	0.281	0.172
-243.961	800.000	-0.152	0.480
-242.946	178.156	0.369	0.536
-241.932	207.478	-0.300	-0.466
-240.917	800.000	-0.187	-0.547
-239.903	-200.000	-0.041	-0.600
-238.888	-200.000	-0.029	-0.164
-237.873	-200.000	-0.184	-1.135
-236.859	28.636	-0.135	-0.113
-235.844	-200.000	0.030	-0.510
-234.830	316.922	0.302	-0.568
-233.815	-18.800	-0.378	0.234
-232.800	153.284	-0.634	0.864
-231.786	34.663	0.375	0.326
-230.771	483.549	-0.376	-0.852
-229.757	90.786	0.307	0.342
-228.742	-10.121	-0.482	0.318
-227.727	589.957	0.092	0.227
-226.713	-7.565	-0.245	0.165
-225.698	-177.029	0.610	0.015
-224.684	800.000	-0.149	-0.622
-223.669	-200.000	-0.059	-0.439
-222.655	-39.400	0.344	0.180
-221.640	800.000	0.207	0.810
-220.625	106.629	-0.790	-0.932
-219.611	104.385	0.426	-0.499
-218.596	-16.700	0.248	-0.156
-217.582	-22.574	-0.273	-0.164
-216.567	-200.000	0.023	0.182
-215.552	87.651	-0.060	0.066
-214.538	-57.757	0.789	0.343
-213.523	241.516	-0.298	-0.494
-212.509	-86.610	-0.421	-0.128
-211.494	206.368	0.342	-0.530
-210.479	-200.000	-0.082	-0.362
-209.465	221.077	-0.201	0.322
-208.450	-200.000	-0.089	-0.411
-207.436	232.950	-0.319	-0.522
-206.421	505.553	0.250	0.575
-205.406	239.468	0.170	-0.281
-204.392	46.010	0.157	0.144
-203.377	800.000	0.116	-0.451
-202.363	328.799	-0.047	0.090
-201.348	26.988	0.332	-0.277
-200.333	-142.316	-0.784	-0.077
-199.319	-34.104	-0.943	-0.515
-198.304	178.281	0.530	0.768
-197.290	-148.133	-0.276	0.023
-196.275	-122.945	0.811	0.130
-195.260	63.668	-0.326	0.325
-194.246	201.985	-0.137	0.210
-193.231	800.000	0.029	-0.087
-192.217	-200.000	0.129	-0.657
-191.202	-170.016	0.408	-0.014
-190.187	-18.513	0.483	0.300
-189.173	-200.000	-0.048	-0.282
-188.158	218.230	-0.256	-0.406
-187.144	-48.100	0.278	-0.133
-186.129	-147.855	0.310	-0.026
-185.114	150.362	-0.408	-0.551
-184.100	97.698	0.690	-0.788
-183.085	-200.000	0.006	-0.458
-182.071	-200.000	-0.097	-0.460
-181.056	-53.127	0.436	0.199
-180.042	-57.221	0.810	0.354
-179.027	45.909	-0.580	-0.532
-178.012	800.000	0.045	-0.175
-176.998	457.593	0.268	-0.591
-175.983	800.000	0.230	0.864
-174.969	-138.980	-0.650	0.070
-173.954	177.655	-0.793	-1.148
-172.939	-121.908	0.346	0.057
-171.925	-115.553	-0.788	-0.147
-170.910	190.281	0.737	1.099
-169.896	85.567	-0.312	0.340
-168.881	-149.847	0.465	-0.036
-167.866	-149.761	-0.401	0.031
-166.852	-162.401	0.996	0.049
-165.837	-102.742	-0.638	0.151
-164.823	-77.543	0.792	0.272
-163.808	4.117	0.730	0.530
-162.793	124.009	0.306	0.382
-161.779	-20.654	0.253	-0.154
-160.764	376.520	-0.219	0.443
-159.750	20.317	-0.590	0.473
-158.735	-53.519	0.506	-0.230
-157.720	162.801	-0.457	-0.637
-156.706	-129.745	-0.242	-0.033
-155.691	-67.344	-0.499	0.195
-154.677	800.000	0.077	0.272
-153.662	-200.000	0.034	-0.256
-152.647	82.054	-0.466	0.501
-151.633	-200.000	-0.020	-0.267
-150.618	109.093	0.294	0.349
-149.604	-7.699	-0.882	0.591
-148.589	39.261	0.528	0.469
-147.574	50.664	0.474	-0.445
-146.560	-153.368	-0.985	-0.068
-145.545	376.434	0.367	-0.743
-144.531	-200.000	-0.072	0.578
-143.516	73.448	0.561	0.582
-142.502	-173.195	-0.667	-0.020
-141.487	-70.796	-0.715	0.267
-140.472	98.623	-0.142	0.162
-139.458	-111.456	-0.435	0.088
-138.443	-200.000	0.046	-0.544
-137.429	140.581	0.308	0.403
-136.414	-200.000	-0.005	-0.505
-135.399	-200.000	0.110	-0.991
-134.385	580.736	-0.290	0.704
-133.370	26.201	0.277	0.229
-132.356	-73.288	0.803	0.291
-131.341	-13.791	-0.534	0.342
-130.326	-50.963	1.125	-0.524
-129.312	-200.000	-0.055	-0.613
-128.297	800.000	0.103	0.406
-127.283	-41.909	0.946	-0.481
-126.268	727.432	-0.088	-0.232
-125.253	218.548	-0.145	0.229
-124.239	-94.650	0.305	-0.082
-123.224	-130.928	-0.558	0.074
-122.210	-200.000	0.074	-0.532
-121.195	-185.106	-0.280	0.004
