DTS Sentinel unit serial number:	SN413079Multiplexer serial number:	ORYXHardware model number:	OX4-SRSoftware version number:	ORYX F/W v4.00 Oryx Data Collector v3.7.2.0data status	okinstallation	princeton_trtdifferential loss correction	single-endedforward channel	channel 4reverse channel	N/Adate	2019/09/18time	01:41:34forward acquisition time	60.00reverse acquisition time	0.00gamma	496.2192k internal	0.2334k external	0.2334temperature offset calibration	0.9996default loss term (dB/km)	0.3790temperature slope calibration	1.0000multiplexer offset coefficient	1.0000multiplexer slope coefficient	1.0000fibre end	0.00T internal ref (°C)	23.02T ext. ref 1 (°C)	0.17T ext. ref 2 (°C)	16.65length (m)	temperature (°C)	Stokes	anti-Stokes-747.200	153.306	0.187	-0.258
-746.185	378.768	-0.092	0.190
-745.171	-123.448	0.200	0.032
-744.156	91.505	-0.213	0.240
-743.142	635.874	-0.094	0.241
-742.127	-30.750	-0.160	0.091
-741.112	377.060	0.099	0.203
-740.098	-200.000	0.009	0.399
-739.083	800.000	0.066	-0.243
-738.069	245.362	0.045	0.077
-737.054	-10.046	0.138	-0.092
-736.039	90.043	-0.062	-0.070
-735.025	-95.439	-0.157	0.042
-734.010	187.223	0.178	0.267
-732.996	10.438	-0.142	-0.108
-731.981	-24.386	0.089	-0.053
-730.966	-84.075	-0.203	-0.065
-729.952	-134.111	-0.168	-0.021
-728.937	-200.000	-0.007	-0.082
-727.923	-103.032	-0.126	0.030
-726.908	-200.000	-0.003	-0.407
-725.894	-200.000	0.024	-0.354
-724.879	-20.506	0.153	-0.095
-723.864	-62.392	-0.299	-0.125
-722.850	-99.879	-0.245	-0.062
-721.835	800.000	-0.095	-0.371
-720.821	168.390	0.055	-0.078
-719.806	-42.297	0.225	-0.115
-718.791	-61.557	0.158	-0.067
-717.777	608.835	-0.050	0.126
-716.762	38.837	0.083	0.074
-715.748	-63.140	-0.029	-0.012
-714.733	-200.000	-0.038	-0.236
-713.718	-106.505	0.151	-0.034
-712.704	-200.000	0.052	-0.235
-711.689	333.359	0.090	-0.174
-710.675	512.349	0.112	0.261
-709.660	-200.000	0.043	-0.452
-708.645	-100.415	-0.200	-0.050
-707.631	19.937	-0.421	0.341
-706.616	-44.565	0.283	0.142
-705.602	-200.000	-0.003	-0.103
-704.587	166.380	0.240	-0.341
-703.572	51.896	-0.151	-0.144
-702.558	114.904	-0.252	-0.308
-701.543	2.967	0.226	0.165
-700.529	800.000	-0.033	0.103
-699.514	-45.701	-0.376	-0.187
-698.499	-200.000	0.022	0.233
-697.485	-14.377	0.087	-0.056
-696.470	134.335	-0.244	-0.317
-695.456	4.424	-0.239	0.176
-694.441	249.104	0.086	-0.145
-693.426	319.047	-0.023	0.043
-692.412	-200.000	-0.004	-0.143
-691.397	-144.560	-0.231	0.021
-690.383	373.631	0.094	-0.192
-689.368	17.964	-0.131	-0.105
-688.354	-72.679	0.244	-0.090
-687.339	-115.685	0.132	0.025
-686.324	290.880	0.025	-0.046
-685.310	397.742	0.134	-0.282
-684.295	-134.442	-0.304	-0.037
-683.281	254.221	-0.098	0.169
-682.266	-62.695	0.188	-0.078
-681.251	60.776	-0.084	-0.083
-680.237	-72.641	0.190	-0.070
-679.222	-5.553	0.164	0.113
-678.208	-200.000	0.037	0.190
-677.193	-200.000	0.469	-0.001
-676.178	-200.000	-0.014	-0.412
-675.164	64.156	-0.180	-0.182
-674.149	-92.847	0.214	-0.060
-673.135	544.653	0.105	-0.250
-672.120	-130.402	0.267	-0.036
-671.105	136.534	-0.125	0.164
-670.091	800.000	0.047	0.141
-669.076	337.772	-0.101	-0.196
-668.062	-104.423	-0.264	-0.061
-667.047	-200.000	0.038	-0.238
-666.032	-182.131	0.309	0.006
-665.018	-200.000	0.035	-0.254
-664.003	34.401	-0.394	-0.344
-662.989	186.697	0.142	-0.212
-661.974	437.227	0.039	-0.086
-660.959	114.222	-0.117	-0.142
-659.945	216.502	0.077	-0.123
-658.930	-88.360	-0.280	0.084
-657.916	77.052	0.061	0.065
-656.901	290.729	0.083	-0.152
-655.886	-163.695	0.233	0.011
-654.872	24.173	-0.180	-0.149
-653.857	190.314	0.111	-0.167
-652.843	-160.039	-0.407	-0.022
-651.828	42.792	0.312	-0.285
-650.814	-200.000	0.007	-0.041
-649.799	89.041	-0.353	-0.394
-648.784	107.807	0.077	-0.092
-647.770	-101.228	-0.099	-0.024
-646.755	134.104	0.167	0.217
-645.741	67.062	0.133	0.136
-644.726	50.771	-0.118	-0.112
-643.711	156.801	0.149	0.206
-642.697	90.745	-0.072	0.081
-641.682	1.200	-0.298	0.214
-640.668	-142.037	-0.156	-0.016
-639.653	-32.846	-0.235	0.131
-638.638	64.447	-0.241	0.243
-637.624	-200.000	-0.008	0.053
-636.609	55.226	-0.207	0.200
-635.595	-83.226	-0.252	-0.081
-634.580	52.230	0.112	0.107
-633.565	242.710	-0.133	0.224
-632.551	466.737	0.044	-0.099
-631.536	800.000	-0.076	-0.265
-630.522	107.306	-0.263	-0.313
-629.507	76.299	-0.148	-0.157
-628.492	293.944	-0.160	-0.292
-627.478	51.765	-0.163	0.155
-626.463	-200.000	-0.028	0.159
-625.449	800.000	-0.042	-0.152
-624.434	-81.477	0.149	0.049
-623.419	-105.381	0.083	0.019
-622.405	67.524	0.069	-0.071
-621.390	800.000	-0.028	0.105
-620.376	456.467	-0.115	-0.255
-619.361	-193.236	-0.088	0.001
-618.346	436.504	0.009	-0.020
-617.332	-200.000	-0.007	-0.277
-616.317	23.878	0.173	0.142
-615.303	35.243	-0.032	0.028
-614.288	-79.236	0.452	0.153
-613.273	-200.000	0.036	0.231
-612.259	-108.606	-0.178	0.038
-611.244	800.000	-0.109	-0.335
-610.230	379.166	0.122	-0.250
-609.215	-113.232	0.366	0.072
-608.201	30.071	0.239	-0.203
-607.186	120.703	0.071	-0.089
-606.171	13.850	0.304	-0.237
-605.157	26.785	-0.273	-0.229
-604.142	375.215	-0.106	0.216
-603.128	109.970	-0.119	-0.143
-602.113	25.570	-0.062	-0.052
-601.098	322.920	0.135	0.258
-600.084	413.766	0.149	0.317
-599.069	-161.104	0.362	-0.019
-598.055	137.906	0.031	0.040
-597.040	-79.600	0.162	0.055
-596.025	80.879	-0.047	-0.051
-595.011	-75.034	0.190	0.068
-593.996	342.283	-0.147	-0.287
-592.982	194.438	0.042	-0.064
-591.967	-200.000	0.011	0.294
-590.952	197.622	-0.182	0.278
-589.938	454.144	-0.162	0.359
-588.923	250.052	-0.226	0.384
-587.909	-61.831	-0.469	0.196
-586.894	126.390	0.136	0.172
-585.879	-97.275	0.143	-0.037
-584.865	40.506	-0.169	-0.152
-583.850	98.662	0.080	0.092
-582.836	711.452	-0.147	-0.390
-581.821	-112.557	0.336	-0.067
-580.806	8.554	-0.439	0.330
-579.792	491.104	-0.118	-0.269
-578.777	225.567	0.049	-0.080
-577.763	-157.340	-0.445	0.027
-576.748	-162.078	0.078	0.004
-575.733	-96.204	-0.045	-0.012
-574.719	-200.000	0.019	-0.270
-573.704	-5.151	-0.211	-0.145
-572.690	432.934	-0.051	0.110
-571.675	800.000	0.055	0.175
-570.661	194.261	0.196	-0.296
-569.646	-74.108	0.160	0.058
-568.631	23.668	0.040	-0.033
-567.617	-66.700	-0.119	0.047
-566.602	24.058	0.040	-0.033
-565.588	800.000	0.053	-0.155
-564.573	-200.000	-0.032	-0.159
-563.558	-200.000	-0.004	-0.285
-562.544	117.281	0.202	-0.248
-561.529	800.000	0.060	-0.229
-560.515	116.901	-0.201	-0.246
-559.500	-42.399	0.175	0.089
-558.485	-24.703	-0.066	0.039
-557.471	110.305	-0.266	0.319
-556.456	234.754	-0.074	0.122
-555.442	48.353	-0.115	0.107
-554.427	560.954	-0.072	-0.173
-553.412	700.511	-0.031	0.083
-552.398	-200.000	0.053	0.443
-551.383	-200.000	-0.018	0.104
-550.369	-200.000	-0.009	0.050
-549.354	-200.000	-0.020	0.176
-548.339	242.829	0.122	0.204
-547.325	339.417	0.068	-0.133
-546.310	-200.000	-0.003	-0.056
-545.296	-200.000	-0.027	-0.291
-544.281	-200.000	-0.058	-0.492
-543.266	-20.979	0.154	-0.094
-542.252	706.974	0.030	0.080
-541.237	640.324	-0.136	-0.345
-540.223	-200.000	0.007	0.280
-539.208	131.684	0.108	0.138
-538.193	-200.000	0.009	0.159
-537.179	-200.000	0.039	-0.249
-536.164	-66.727	0.177	-0.070
-535.150	424.930	0.131	0.280
-534.135	160.231	-0.099	-0.138
-533.121	-200.000	0.043	-0.236
-532.106	-84.514	0.116	-0.036
-531.091	-200.000	0.019	0.217
-530.077	-200.000	-0.013	-0.123
-529.062	800.000	0.044	-0.146
-528.048	-200.000	0.012	0.386
-527.033	1.696	0.325	0.233
-526.018	-107.929	-0.063	-0.014
-525.004	5.238	-0.189	0.139
-523.989	34.464	0.101	0.088
-522.975	800.000	0.072	-0.222
-521.960	-200.000	-0.016	-0.236
-520.945	777.901	-0.043	-0.118
-519.931	23.836	-0.265	-0.217
-518.916	238.062	-0.201	-0.332
-517.902	-146.604	-0.172	0.015
-516.887	82.565	-0.103	0.112
-515.872	21.451	0.320	-0.259
-514.858	-182.641	0.197	0.004
-513.843	-35.562	0.150	-0.081
-512.829	36.421	-0.272	0.239
-511.814	-200.000	-0.385	0.001
-510.799	-200.000	-0.000	0.126
-509.785	800.000	-0.163	-0.455
-508.770	507.506	-0.070	-0.162
-507.756	-130.032	-0.146	0.020
-506.741	32.416	-0.163	0.140
-505.726	-200.000	0.012	-0.095
-504.712	392.214	-0.023	0.048
-503.697	-86.786	-0.185	0.056
-502.683	42.813	0.140	0.127
-501.668	119.942	-0.190	0.234
-500.653	-200.000	0.003	0.072
-499.639	-22.286	0.020	0.012
-498.624	-126.426	0.218	0.032
-497.610	800.000	-0.096	-0.290
-496.595	-191.700	0.063	0.001
-495.581	685.184	-0.067	0.175
-494.566	-200.000	0.012	0.086
-493.551	-39.925	-0.173	0.090
-492.537	127.784	-0.051	-0.064
-491.522	-69.480	-0.195	0.074
-490.508	96.490	-0.153	-0.174
-489.493	-200.000	-0.009	0.200
-488.478	-33.225	-0.080	-0.044
-487.464	235.222	-0.251	0.413
-486.449	5.752	0.173	0.127
-485.435	70.596	0.077	0.079
-484.420	-95.006	0.179	0.048
-483.405	-179.016	-0.267	0.006
-482.391	-79.612	0.395	-0.132
-481.376	-200.000	0.066	-0.306
-480.362	-107.217	0.095	-0.021
-479.347	749.066	0.079	-0.211
-478.332	410.034	0.058	0.123
-477.318	366.557	0.187	0.374
-476.303	800.000	0.033	0.119
-475.289	508.944	0.216	-0.499
-474.274	201.873	0.073	0.112
-473.259	335.246	-0.060	-0.116
-472.245	28.286	0.197	0.166
-471.230	415.697	0.097	-0.206
-470.216	-104.416	-0.083	0.019
-469.201	5.840	-0.198	-0.146
-468.186	311.245	0.105	0.196
-467.172	-200.000	-0.020	-0.135
-466.157	-42.638	-0.329	0.167
-465.143	800.000	0.068	0.203
-464.128	42.955	0.163	0.148
-463.113	183.463	-0.062	0.091
-462.099	93.741	0.109	-0.123
-461.084	-200.000	0.019	-0.149
-460.070	-183.885	-0.072	0.001
-459.055	-64.035	0.176	0.071
-458.040	-200.000	0.020	0.106
-457.026	-200.000	0.011	0.412
-456.011	-55.409	-0.178	0.079
-454.997	-96.449	-0.106	0.028
-453.982	-53.775	-0.247	0.112
-452.968	-190.684	-0.024	-0.000
-451.953	56.293	-0.117	-0.113
-450.938	-6.942	0.189	-0.128
-449.924	-200.000	-0.033	0.152
-448.909	31.867	0.318	-0.272
-447.895	67.401	0.085	-0.086
-446.880	85.350	0.164	0.179
-445.865	741.708	-0.053	-0.141
-444.851	156.644	-0.170	-0.233
-443.836	-85.274	0.146	0.045
-442.822	-15.004	0.119	0.076
-441.807	55.314	-0.170	0.164
-440.792	-21.369	0.149	0.090
-439.778	42.696	0.353	0.319
-438.763	114.215	-0.080	-0.097
-437.749	800.000	0.063	-0.191
-436.734	36.076	0.035	-0.030
-435.719	-100.793	-0.347	0.085
-434.705	673.462	0.115	0.295
-433.690	-200.000	-0.016	0.139
-432.676	486.371	0.014	0.031
-431.661	-110.316	0.155	-0.032
-430.646	-88.972	0.271	0.080
-429.632	-200.000	-0.012	-0.273
-428.617	24.910	0.081	0.067
-427.603	800.000	0.061	-0.249
-426.588	-33.043	-0.186	0.103
-425.573	-200.000	-0.017	-0.081
-424.559	-70.137	0.172	0.065
-423.544	-200.000	-0.032	-0.180
-422.530	-200.000	0.068	-0.344
-421.515	76.366	0.107	-0.112
-420.500	800.000	-0.148	-0.463
-419.486	15.784	0.195	-0.153
-418.471	36.136	0.102	-0.089
-417.457	-200.000	0.007	-0.475
-416.442	455.676	0.196	0.432
-415.428	800.000	-0.017	0.053
-414.413	19.684	0.079	0.063
-413.398	487.243	-0.108	0.244
-412.384	-200.000	0.000	0.073
-411.369	-68.817	0.193	-0.074
-410.355	-72.973	-0.255	-0.093
-409.340	-76.522	-0.122	0.042
-408.325	-200.000	0.027	0.207
-407.311	-104.319	-0.196	-0.045
-406.296	247.798	-0.085	-0.142
-405.282	-200.000	-0.053	-0.245
-404.267	-131.487	0.237	0.031
-403.252	-107.129	0.154	-0.034
-402.238	-80.897	-0.144	-0.047
-401.223	46.315	0.051	-0.047
-400.209	-98.110	0.050	-0.013
-399.194	800.000	0.061	-0.183
-398.179	-200.000	0.031	-0.162
-397.165	-31.543	-0.237	0.132
-396.150	77.350	-0.229	0.241
-395.136	-89.127	0.053	-0.016
-394.121	800.000	-0.040	-0.170
-393.106	262.676	-0.096	0.165
-392.092	278.794	-0.135	0.239
-391.077	110.442	-0.160	0.190
-390.063	15.732	-0.076	0.060
-389.048	-100.318	0.180	-0.044
-388.033	-145.554	0.553	-0.049
-387.019	-26.758	-0.421	-0.244
-386.004	126.171	-0.151	0.189
-384.990	-101.982	0.269	-0.064
-383.975	800.000	-0.100	0.285
-382.960	88.111	-0.127	0.139
-381.946	-128.003	-0.140	0.020
-380.931	-25.361	0.142	0.083
-379.917	-127.860	0.543	0.077
-378.902	-54.453	-0.252	-0.113
-377.888	24.417	-0.148	0.121
-376.873	105.836	-0.089	0.104
-375.858	-8.804	0.319	0.212
-374.844	-200.000	-0.012	0.162
-373.829	274.516	0.141	-0.248
-372.815	393.949	-0.049	0.101
-371.800	-116.901	-0.141	-0.026
-370.785	241.884	-0.077	0.127
-369.771	-122.377	-0.251	-0.041
-368.756	11.427	0.099	-0.075
-367.742	-98.331	0.347	-0.088
-366.727	45.808	0.131	0.120
-365.712	119.998	-0.129	0.159
-364.698	-1.538	-0.115	-0.080
-363.683	-181.876	0.190	0.004
-362.669	194.296	-0.145	0.217
-361.654	-94.799	-0.234	0.063
-360.639	23.166	-0.166	-0.135
-359.625	-135.709	0.352	-0.041
-358.610	50.202	0.023	-0.021
-357.596	-122.428	0.203	-0.033
-356.581	108.793	-0.055	0.065
-355.566	-200.000	0.008	0.130
-354.552	317.034	0.063	0.117
-353.537	-107.588	0.277	-0.060
-352.523	-200.000	0.028	-0.313
-351.508	338.664	0.098	-0.190
-350.493	-65.585	-0.125	-0.050
-349.479	-200.000	0.036	0.181
-348.464	-200.000	-0.015	-0.069
-347.450	270.210	0.110	-0.191
-346.435	-124.827	-0.257	0.039
-345.420	800.000	0.090	0.305
-344.406	-20.860	-0.003	-0.002
-343.391	-38.144	0.133	-0.070
-342.377	-153.291	0.208	-0.014
-341.362	800.000	0.047	0.170
-340.348	-200.000	-0.052	-0.265
-339.333	-89.761	0.295	0.086
-338.318	-200.000	-0.026	0.281
-337.304	-124.002	-0.294	-0.046
-336.289	-151.216	0.098	0.007
-335.275	-200.000	0.016	-0.169
-334.260	-200.000	0.004	-0.135
-333.245	-58.416	-0.087	-0.037
-332.231	147.870	-0.207	-0.276
-331.216	184.784	-0.111	0.163
-330.202	314.180	-0.106	0.198
-329.187	13.571	0.077	-0.059
-328.172	672.671	0.058	0.149
-327.158	-87.983	-0.132	-0.039
-326.143	24.368	-0.063	0.052
-325.129	800.000	-0.026	0.101
-324.114	449.329	-0.132	0.287
-323.099	-154.240	-0.265	0.018
-322.085	-94.247	-0.156	-0.042
-321.070	-200.000	-0.331	0.000
-320.056	-55.439	0.106	-0.047
-319.041	-200.000	0.007	0.487
-318.026	591.166	-0.090	0.220
-317.012	108.988	0.172	0.203
-315.997	-200.000	-0.020	0.103
-314.983	800.000	0.114	0.313
-313.968	-55.759	-0.269	-0.119
-312.953	-39.718	0.293	0.152
-311.939	521.394	-0.033	-0.077
-310.924	-77.504	-0.282	0.097
-309.910	-81.503	0.242	0.079
-308.895	-200.000	0.001	-0.101
-307.880	38.840	-0.257	0.227
-306.866	-84.098	-0.037	-0.012
-305.851	-200.000	-0.032	0.304
-304.837	800.000	0.050	-0.193
-303.822	-123.736	0.102	-0.016
-302.807	-200.000	-0.007	-0.045
-301.793	-93.441	0.236	-0.065
-300.778	133.547	0.046	0.058
-299.764	38.842	0.141	-0.124
-298.749	-48.912	0.381	0.180
-297.735	268.954	0.274	-0.476
-296.720	208.163	-0.219	-0.337
-295.705	800.000	-0.139	0.559
-294.691	42.014	0.193	0.173
-293.676	-62.678	-0.223	-0.091
-292.662	800.000	0.047	0.198
-291.647	142.459	0.231	0.303
-290.632	-200.000	0.053	0.243
-289.618	-200.000	0.007	-0.202
-288.603	-200.000	-0.001	0.183
-287.589	800.000	-0.126	0.414
-286.574	-101.648	-0.378	-0.091
-285.559	393.738	-0.060	-0.123
-284.545	-151.788	-0.174	0.013
-283.530	800.000	-0.078	-0.221
-282.516	-200.000	0.030	0.404
-281.501	7.955	0.166	0.123
-280.486	128.218	0.012	0.015
-279.472	800.000	0.119	-0.468
-278.457	800.000	-0.035	0.102
-277.443	-200.000	0.000	0.286
-276.428	-200.000	0.044	-0.209
-275.413	-200.000	0.017	0.251
-274.399	672.452	-0.058	0.148
-273.384	51.150	0.253	-0.237
-272.370	-200.000	-0.005	-0.356
-271.355	230.273	0.085	-0.137
-270.340	-77.488	-0.037	0.013
-269.326	-11.698	-0.256	0.166
-268.311	-39.454	0.326	0.169
-267.297	-200.000	0.080	0.361
-266.282	-79.011	-0.337	0.113
-265.267	-174.228	0.289	-0.008
-264.253	535.177	-0.022	0.052
-263.238	-45.696	-0.167	-0.081
-262.224	-87.051	-0.260	0.078
-261.209	44.404	0.216	-0.195
-260.195	71.788	0.110	-0.112
-259.180	-200.000	0.013	0.076
-258.165	111.562	0.139	-0.165
-257.151	-119.511	-0.050	0.009
-256.136	-27.084	-0.332	-0.191
-255.122	-140.844	0.244	-0.025
-254.107	-1.357	-0.295	-0.205
-253.092	107.766	0.270	-0.318
-252.078	49.262	0.091	0.084
-251.063	-200.000	0.001	-0.141
-250.049	-200.000	-0.021	0.113
-249.034	800.000	0.122	-0.364
-248.019	-62.734	0.034	-0.014
-247.005	-76.170	0.009	0.003
-245.990	442.344	0.092	-0.199
-244.976	64.427	-0.136	-0.135
-243.961	47.940	-0.132	-0.121
-242.946	75.991	-0.176	-0.184
-241.932	-43.174	-0.224	0.112
-240.917	206.739	0.094	0.144
-239.903	584.192	-0.083	-0.200
-238.888	-27.980	-0.113	-0.064
-237.873	-105.556	0.489	-0.109
-236.859	-200.000	0.073	0.402
-235.844	-81.515	0.231	0.075
-234.830	340.950	0.128	0.247
-233.815	56.935	0.268	-0.258
-232.800	-200.000	0.031	-0.170
-231.786	-3.824	0.433	-0.296
-230.771	800.000	0.086	-0.288
-229.757	783.820	-0.088	-0.238
-228.742	-86.000	0.115	0.035
-227.727	-130.633	-0.113	-0.015
-226.713	800.000	-0.030	0.115
-225.698	214.370	0.243	-0.379
-224.684	52.350	-0.034	0.032
-223.669	-200.000	-0.011	0.244
-222.655	-97.776	0.391	-0.100
-221.640	-141.655	0.176	-0.017
-220.625	-134.926	0.101	-0.012
-219.611	-87.122	-0.228	-0.068
-218.596	800.000	-0.087	-0.248
-217.582	-128.910	-0.251	-0.035
-216.567	-105.411	0.285	0.064
-215.552	51.246	0.134	-0.125
-214.538	-179.726	0.189	0.004
-213.523	707.485	-0.070	-0.183
-212.509	-200.000	0.003	0.133
-211.494	-83.604	0.174	-0.055
-210.479	-41.834	-0.268	-0.135
-209.465	-200.000	-0.003	0.050
-208.450	513.147	0.168	0.386
-207.436	800.000	-0.058	0.170
-206.421	-59.890	-0.142	0.060
-205.406	800.000	-0.083	0.243
-204.392	-159.589	0.117	0.006
-203.377	800.000	-0.063	-0.237
-202.363	88.711	0.159	-0.174
-201.348	735.532	-0.046	0.121
-200.333	184.205	-0.086	0.126
-199.319	216.979	-0.046	-0.072
-198.304	64.932	0.068	-0.067
-197.290	800.000	-0.021	-0.061
-196.275	115.587	-0.211	0.254
-195.260	-200.000	0.015	0.300
-194.246	800.000	0.027	0.092
-193.231	-200.000	0.001	0.299
-192.217	311.638	0.090	-0.165
-191.202	-200.000	0.008	-0.293
-190.187	-82.746	-0.448	-0.142
-189.173	-48.626	0.227	0.107
-188.158	-48.354	-0.179	0.085
-187.144	-200.000	0.011	0.202
-186.129	-159.638	-0.484	-0.026
-185.114	-200.000	0.012	0.176
-184.100	-200.000	-0.028	-0.184
-183.085	-94.218	0.085	-0.023
-182.071	-132.401	-0.062	0.008
-181.056	800.000	-0.030	-0.104
-180.042	-183.817	-0.417	-0.007
-179.027	800.000	-0.040	-0.123
-178.012	-104.537	0.115	0.026
-176.998	-146.262	0.214	-0.018
-175.983	-158.595	0.309	0.018
-174.969	169.481	-0.125	0.176
-173.954	2.985	-0.096	-0.069
-172.939	-127.073	0.406	-0.059
-171.925	301.831	-0.110	-0.199
-170.910	-99.751	-0.225	-0.055
-169.896	-200.000	-0.017	0.351
-168.881	18.427	-0.370	0.291
-167.866	-37.920	0.186	-0.097
-166.852	189.194	0.163	-0.241
-165.837	-49.689	0.084	-0.039
-164.823	344.961	0.237	-0.457
-163.808	-37.613	-0.249	-0.130
-162.793	36.916	-0.197	-0.171
-161.779	132.764	0.050	-0.064
-160.764	45.912	-0.304	0.276
-159.750	343.513	0.177	0.341
-158.735	-129.141	0.135	-0.018
-157.720	-159.516	-0.136	0.007
-156.706	-152.740	0.038	-0.003
-155.691	763.803	0.098	-0.262
-154.677	-127.744	0.127	0.018
-153.662	-200.000	0.002	-0.212
-152.647	118.079	-0.106	-0.128
-151.633	-28.398	0.328	-0.186
-150.618	-174.758	-0.121	-0.003
-149.604	157.462	0.153	0.208
-148.589	528.865	0.018	-0.042
-147.574	143.956	0.088	0.116
-146.560	-39.129	-0.217	-0.112
-145.545	-58.270	-0.201	-0.086
-144.531	240.763	0.159	-0.260
-143.516	153.502	0.329	0.442
-142.502	800.000	0.072	0.268
-141.487	-12.978	0.223	0.142
-140.472	260.593	-0.116	0.197
-139.458	397.750	0.071	-0.145
-138.443	-7.226	0.078	-0.052
-137.429	-200.000	-0.012	-0.078
-136.414	-129.522	0.097	0.013
-135.399	677.972	0.064	-0.165
-134.385	96.825	0.155	0.174
-133.370	800.000	-0.047	-0.200
-132.356	-158.307	0.334	-0.019
-131.341	-7.487	-0.152	-0.101
-130.326	-200.000	0.004	0.227
-129.312	-127.089	-0.479	0.069
-128.297	138.479	0.132	-0.170
-127.283	283.393	-0.048	0.085
-126.268	20.383	-0.189	0.150
-125.253	800.000	-0.026	-0.091
-124.239	-70.813	0.115	0.043
-123.224	153.850	-0.113	-0.151
-122.210	-32.816	0.219	0.119
-121.195	137.854	-0.129	-0.166
