DTS Sentinel unit serial number:	SN413079Multiplexer serial number:	ORYXHardware model number:	OX4-SRSoftware version number:	ORYX F/W v4.00 Oryx Data Collector v3.7.2.0data status	okinstallation	princeton_trtdifferential loss correction	single-endedforward channel	channel 4reverse channel	N/Adate	2019/09/17time	11:05:34forward acquisition time	60.00reverse acquisition time	0.00gamma	496.2192k internal	0.2309k external	0.2309temperature offset calibration	0.9977default loss term (dB/km)	0.3790temperature slope calibration	1.0000multiplexer offset coefficient	1.0000multiplexer slope coefficient	1.0000fibre end	0.00T internal ref (°C)	30.37T ext. ref 1 (°C)	0.20T ext. ref 2 (°C)	25.97length (m)	temperature (°C)	Stokes	anti-Stokes-747.200	-108.071	0.188	-0.041
-746.185	-83.281	0.148	0.048
-745.171	800.000	-0.166	-0.531
-744.156	72.716	-0.140	0.148
-743.142	74.225	0.154	0.165
-742.127	103.092	0.060	-0.072
-741.112	-200.000	0.027	0.127
-740.098	800.000	0.052	0.200
-739.083	-85.306	-0.059	0.019
-738.069	800.000	-0.088	0.278
-737.054	-200.000	0.006	-0.071
-736.039	-200.000	0.047	0.229
-735.025	139.668	-0.197	-0.263
-734.010	-26.270	-0.053	-0.031
-732.996	-143.413	0.564	-0.055
-731.981	375.931	-0.119	0.246
-730.966	-126.502	0.295	-0.044
-729.952	294.578	0.127	-0.237
-728.937	151.996	-0.047	-0.065
-727.923	513.884	-0.071	0.167
-726.908	114.845	-0.164	0.203
-725.894	-66.291	-0.322	-0.130
-724.879	-120.372	-0.350	-0.061
-723.864	-132.805	0.364	-0.047
-722.850	154.846	-0.137	-0.192
-721.835	-107.135	-0.200	-0.045
-720.821	41.174	-0.015	0.013
-719.806	44.951	-0.321	-0.300
-718.791	-200.000	-0.014	-0.255
-717.777	-124.362	0.104	0.016
-716.762	496.909	0.079	-0.185
-715.748	29.150	-0.330	0.285
-714.733	-200.000	-0.049	0.236
-713.718	-83.115	0.088	-0.029
-712.704	-200.000	0.009	0.357
-711.689	-57.451	0.237	-0.105
-710.675	94.059	0.012	0.014
-709.660	145.976	-0.282	0.383
-708.645	-103.570	0.358	-0.085
-707.631	-86.319	0.329	-0.103
-706.616	-200.000	0.030	0.324
-705.602	-22.207	0.082	-0.051
-704.587	47.389	-0.113	-0.107
-703.572	-135.966	0.095	0.011
-702.558	26.759	0.230	-0.195
-701.543	-100.049	-0.264	-0.067
-700.529	118.120	-0.048	-0.060
-699.514	96.600	0.205	-0.238
-698.499	800.000	0.067	-0.202
-697.485	185.582	0.126	-0.189
-696.470	327.052	0.153	-0.297
-695.456	-200.000	-0.019	-0.221
-694.441	111.705	-0.024	0.030
-693.426	10.026	0.239	0.184
-692.412	-31.363	0.206	-0.118
-691.397	800.000	0.058	-0.187
-690.383	370.462	0.097	-0.200
-689.368	540.291	0.072	0.174
-688.354	42.065	0.235	0.216
-687.339	-116.215	0.356	-0.067
-686.324	-82.992	0.148	0.048
-685.310	291.787	-0.161	-0.297
-684.295	-200.000	-0.038	0.367
-683.281	184.602	0.333	0.500
-682.266	0.971	-0.430	0.312
-681.251	10.977	-0.227	-0.176
-680.237	-7.762	-0.063	0.043
-679.222	512.149	0.044	0.103
-678.208	-137.399	-0.224	-0.026
-677.193	767.876	0.042	0.115
-676.178	-100.576	-0.129	0.032
-675.164	-200.000	-0.056	0.364
-674.149	-54.571	-0.473	-0.217
-673.135	-102.215	0.259	-0.063
-672.120	39.463	0.159	-0.144
-671.105	-10.829	-0.086	-0.058
-670.091	-200.000	-0.016	0.093
-669.076	233.894	-0.090	0.149
-668.062	-72.107	-0.217	0.081
-667.047	-200.000	0.014	-0.264
-666.032	-200.000	-0.038	-0.217
-665.018	11.881	0.137	0.107
-664.003	70.039	0.189	0.198
-662.989	92.071	-0.259	-0.296
-661.974	-60.241	-0.182	-0.079
-660.959	38.821	-0.113	0.103
-659.945	60.658	-0.056	-0.056
-658.930	472.796	-0.111	-0.253
-657.916	-32.257	0.046	0.026
-656.901	-200.000	0.014	0.153
-655.886	-121.391	-0.274	0.046
-654.872	-101.295	0.160	0.039
-653.857	800.000	-0.078	0.308
-652.843	161.492	0.106	0.150
-651.828	-40.758	-0.044	-0.023
-650.814	-176.340	-0.410	-0.011
-649.799	-38.703	0.308	-0.165
-648.784	101.633	-0.014	-0.017
-647.770	800.000	-0.049	0.205
-646.755	134.065	0.112	0.146
-645.741	-129.511	0.151	0.021
-644.726	-52.315	-0.191	-0.090
-643.711	96.870	0.172	-0.199
-642.697	-107.050	-0.054	0.012
-641.682	114.967	-0.127	-0.156
-640.668	35.927	0.096	-0.085
-639.653	-200.000	0.040	0.219
-638.638	400.672	0.041	0.087
-637.624	-44.725	-0.157	-0.079
-636.609	-200.000	0.046	-0.236
-635.595	382.623	-0.043	0.089
-634.580	48.300	0.125	-0.118
-633.565	15.872	-0.259	-0.207
-632.551	38.392	0.090	-0.081
-631.536	-168.905	0.366	0.014
-630.522	16.651	-0.099	0.079
-629.507	184.802	-0.059	-0.088
-628.492	195.853	0.130	0.200
-627.478	-98.593	-0.072	-0.019
-626.463	-106.616	0.236	0.053
-625.449	10.520	-0.082	0.063
-624.434	-200.000	-0.082	-0.380
-623.419	-145.320	0.120	0.011
-622.405	304.615	0.060	0.113
-621.390	-140.364	-0.481	-0.051
-620.376	800.000	-0.048	0.168
-619.361	-178.245	-0.305	0.007
-618.346	800.000	0.054	-0.208
-617.332	15.780	0.040	-0.032
-616.317	800.000	-0.079	-0.236
-615.303	314.747	0.024	0.045
-614.288	42.278	-0.263	-0.241
-613.273	-97.171	-0.414	-0.109
-612.259	-3.357	-0.175	0.123
-611.244	-195.845	0.025	-0.000
-610.230	372.584	0.126	-0.259
-609.215	120.226	-0.272	-0.342
-608.201	228.612	-0.059	0.097
-607.186	-158.442	0.293	0.017
-606.171	168.542	0.091	-0.131
-605.157	-26.103	-0.128	0.076
-604.142	-71.555	0.317	0.120
-603.128	-34.482	-0.254	-0.141
-602.113	-81.507	0.150	-0.050
-601.098	-34.669	0.232	0.128
-600.084	772.820	0.087	0.239
-599.069	-115.685	-0.050	-0.010
-598.055	-200.000	-0.016	0.135
-597.040	800.000	0.087	0.287
-596.025	-86.789	0.290	0.090
-595.011	800.000	-0.059	-0.239
-593.996	-124.968	0.333	0.052
-592.982	779.429	-0.147	0.407
-591.967	-73.090	0.166	-0.062
-590.952	409.805	-0.219	-0.468
-589.938	-90.497	0.463	-0.135
-588.923	800.000	-0.109	0.384
-587.909	-200.000	-0.003	-0.062
-586.894	-100.144	-0.197	-0.049
-585.879	-140.428	-0.261	0.027
-584.865	149.037	0.073	0.100
-583.850	107.543	0.159	0.190
-582.836	-1.675	-0.074	-0.053
-581.821	-200.000	-0.043	-0.325
-580.806	-75.315	0.126	-0.046
-579.792	125.800	-0.084	-0.107
-578.777	88.239	-0.140	0.157
-577.763	-63.058	-0.062	0.026
-576.748	-200.000	0.066	0.397
-575.733	-200.000	-0.043	0.295
-574.719	-14.844	0.202	0.131
-573.704	333.443	-0.225	-0.439
-572.690	605.032	0.045	-0.113
-571.675	11.794	-0.067	-0.052
-570.661	208.057	0.054	-0.086
-569.646	346.503	0.071	0.141
-568.631	-200.000	0.008	-0.143
-567.617	220.943	-0.108	0.175
-566.602	-16.575	-0.160	0.102
-565.588	-59.634	0.104	-0.045
-564.573	160.935	-0.111	-0.156
-563.558	34.491	-0.143	-0.126
-562.544	-114.184	-0.225	0.044
-561.529	-200.000	0.018	0.113
-560.515	651.139	0.082	-0.213
-559.500	-148.243	-0.231	-0.019
-558.485	-161.707	0.316	0.016
-557.471	-49.088	-0.107	0.051
-556.456	-199.343	0.284	-0.002
-555.442	-160.348	-0.219	0.012
-554.427	472.836	-0.066	0.150
-553.412	549.346	0.150	-0.363
-552.398	-200.000	0.029	0.132
-551.383	128.769	-0.228	-0.293
-550.369	-20.431	0.240	0.149
-549.354	-200.000	0.008	0.448
-548.339	35.330	0.041	0.037
-547.325	-149.907	-0.152	-0.012
-546.310	31.223	0.302	0.261
-545.296	233.770	-0.178	0.296
-544.281	-200.000	0.007	-0.367
-543.266	-200.000	0.027	-0.257
-542.252	285.197	-0.124	0.225
-541.237	-82.642	0.204	0.067
-540.223	-40.645	-0.088	0.046
-539.208	230.130	-0.094	0.155
-538.193	-6.238	-0.240	0.165
-537.179	-158.077	-0.231	0.014
-536.164	-6.753	0.221	0.151
-535.150	191.594	0.053	-0.080
-534.135	95.371	0.243	-0.279
-533.121	44.420	-0.130	0.120
-532.106	-153.532	0.045	-0.003
-531.091	6.035	-0.100	0.074
-530.077	800.000	-0.077	0.234
-529.062	-60.598	0.145	0.062
-528.048	-68.452	0.420	-0.164
-527.033	220.157	0.228	0.368
-526.018	-140.481	-0.210	-0.022
-525.004	-100.453	-0.118	0.030
-523.989	245.392	-0.045	-0.077
-522.975	293.867	-0.092	0.169
-521.960	-15.310	-0.269	-0.173
-520.945	328.608	0.055	0.106
-519.931	-34.380	-0.138	-0.076
-518.916	301.625	0.136	-0.253
-517.902	-200.000	-0.023	-0.244
-516.887	-177.243	-0.131	0.003
-515.872	-79.920	0.161	0.054
-514.858	519.427	0.132	-0.310
-513.843	-200.000	-0.007	0.040
-512.829	-21.050	-0.063	0.039
-511.814	-200.000	-0.011	-0.133
-510.799	-144.330	-0.304	-0.028
-509.785	196.107	0.114	0.174
-508.770	-75.312	-0.073	-0.026
-507.756	800.000	-0.043	0.119
-506.741	228.682	0.091	0.150
-505.726	-85.128	-0.259	-0.082
-504.712	260.376	-0.081	0.140
-503.697	-200.000	0.028	-0.221
-502.683	721.325	0.070	0.188
-501.668	34.686	-0.262	-0.231
-500.653	-0.707	0.290	0.207
-499.639	-200.000	-0.022	0.221
-498.624	-17.101	0.351	-0.223
-497.610	162.294	0.101	-0.143
-496.595	-12.434	-0.267	-0.176
-495.581	-100.736	-0.273	-0.068
-494.566	-123.545	0.212	-0.034
-493.551	-200.000	-0.036	0.176
-492.537	-200.000	-0.005	-0.203
-491.522	107.496	-0.225	0.269
-490.508	33.642	0.126	-0.110
-489.493	800.000	0.109	-0.369
-488.478	208.786	-0.147	0.232
-487.464	-200.000	-0.034	0.321
-486.449	-200.000	0.002	0.165
-485.435	318.117	-0.072	0.138
-484.420	353.808	0.068	-0.137
-483.405	-200.000	-0.000	-0.067
-482.391	-32.931	-0.152	0.085
-481.376	-200.000	0.038	0.355
-480.362	-120.601	-0.533	0.091
-479.347	112.561	0.055	-0.067
-478.332	-42.086	0.288	-0.148
-477.318	-82.406	0.110	0.036
-476.303	-200.000	0.006	0.243
-475.289	196.037	-0.119	-0.182
-474.274	80.748	-0.017	0.019
-473.259	78.459	0.218	0.234
-472.245	462.701	-0.091	-0.205
-471.230	764.424	0.092	-0.251
-470.216	154.256	0.174	-0.241
-469.201	-68.443	0.057	-0.022
-468.186	548.604	-0.037	0.088
-467.172	-200.000	-0.029	0.241
-466.157	-111.340	0.080	-0.016
-465.143	-200.000	0.013	-0.070
-464.128	-172.241	0.160	-0.005
-463.113	-200.000	0.009	0.092
-462.099	81.244	-0.124	0.135
-461.084	-200.000	0.027	0.138
-460.070	-83.553	-0.145	0.047
-459.055	594.672	-0.055	-0.137
-458.040	3.371	-0.207	0.152
-457.026	98.966	0.056	0.065
-456.011	461.281	0.242	-0.541
-454.997	38.441	-0.054	0.048
-453.982	318.091	-0.207	0.394
-452.968	-1.064	-0.105	-0.074
-451.953	-7.536	0.097	-0.066
-450.938	199.004	0.081	0.125
-449.924	17.735	0.191	-0.153
-448.909	-200.000	0.030	-0.349
-447.895	124.791	0.090	0.114
-446.880	76.230	0.188	-0.200
-445.865	-200.000	0.044	0.376
-444.851	-45.983	-0.220	0.109
-443.836	-84.194	-0.478	0.152
-442.822	60.735	-0.148	-0.147
-441.807	203.972	0.075	-0.117
-440.792	-70.381	0.125	0.047
-439.778	-200.000	0.132	-0.000
-438.763	75.186	-0.143	-0.151
-437.749	14.213	0.258	0.202
-436.734	-48.136	0.222	0.107
-435.719	4.328	-0.117	-0.086
-434.705	800.000	-0.055	-0.198
-433.690	-149.548	0.069	-0.005
-432.676	63.927	-0.163	0.165
-431.661	-200.000	-0.049	-0.238
-430.646	-86.495	-0.153	0.047
-429.632	-87.796	0.527	0.159
-428.617	-117.631	0.387	0.070
-427.603	-61.936	0.276	0.116
-426.588	-143.899	0.260	0.025
-425.573	791.547	-0.028	-0.078
-424.559	499.381	0.044	0.102
-423.544	173.122	-0.196	0.283
-422.530	-110.253	-0.113	0.024
-421.515	-78.621	-0.213	-0.073
-420.500	113.325	-0.040	-0.049
-419.486	-45.590	-0.207	-0.103
-418.471	-117.610	0.030	-0.005
-417.457	178.093	0.097	0.142
-416.442	36.882	0.136	-0.121
-415.428	800.000	0.031	0.103
-414.413	-85.098	0.324	0.102
-413.398	106.745	-0.162	0.193
-412.384	49.604	0.166	0.157
-411.369	669.396	0.057	0.149
-410.355	-200.000	-0.149	-0.000
-409.340	115.706	0.246	-0.301
-408.325	292.159	0.136	0.249
-407.311	-200.000	-0.051	-0.300
-406.296	-20.235	-0.299	-0.185
-405.282	142.308	0.142	-0.189
-404.267	-63.330	0.212	0.087
-403.252	800.000	0.022	-0.065
-402.238	-85.264	0.326	-0.102
-401.223	89.220	0.199	0.222
-400.209	-40.248	0.282	-0.147
-399.194	220.507	-0.047	-0.075
-398.179	422.144	-0.050	-0.108
-397.165	-200.000	-0.013	0.207
-396.150	-8.004	0.066	0.045
-395.136	98.172	-0.148	0.171
-394.121	-200.000	-0.007	0.147
-393.106	-200.000	0.033	0.204
-392.092	-136.043	-0.340	-0.040
-391.077	-186.174	0.110	-0.002
-390.063	-200.000	-0.026	0.121
-389.048	-72.086	-0.422	0.157
-388.033	124.646	0.082	-0.103
-387.019	-63.858	-0.261	0.107
-386.004	298.569	-0.148	0.273
-384.990	-28.381	0.143	-0.082
-383.975	330.789	-0.224	-0.432
-382.960	-28.111	-0.074	0.043
-381.946	-42.297	0.074	0.038
-380.931	-200.000	0.035	0.351
-379.917	11.456	0.107	0.082
-378.902	-95.063	-0.295	-0.080
-377.888	-198.761	-0.112	-0.001
-376.873	-50.268	0.094	0.044
-375.858	27.800	-0.149	0.126
-374.844	743.564	-0.122	0.328
-373.829	222.126	-0.040	-0.064
-372.815	271.279	-0.237	-0.418
-371.800	41.487	-0.128	-0.116
-370.785	-200.000	0.016	-0.159
-369.771	800.000	0.043	-0.140
-368.756	21.018	0.146	-0.118
-367.742	-12.717	-0.096	0.063
-366.727	-200.000	0.054	-0.242
-365.712	-79.340	0.328	0.111
-364.698	228.834	-0.133	-0.218
-363.683	214.942	-0.162	0.257
-362.669	-200.000	-0.010	-0.133
-361.654	278.134	-0.064	-0.114
-360.639	-200.000	-0.000	0.034
-359.625	-64.181	0.080	-0.033
-358.610	-58.329	0.177	-0.077
-357.596	-7.429	-0.044	0.030
-356.581	264.101	-0.128	0.223
-355.566	663.415	-0.053	-0.137
-354.552	-25.471	0.182	-0.108
-353.537	-66.053	0.255	-0.102
-352.523	226.676	-0.115	-0.186
-351.508	-200.000	0.003	-0.056
-350.493	-200.000	-0.002	0.131
-349.479	-200.000	-0.024	0.186
-348.464	69.796	-0.206	-0.212
-347.450	46.158	0.081	-0.075
-346.435	-102.377	0.352	0.085
-345.420	-200.000	0.000	-0.214
-344.406	3.119	0.111	-0.081
-343.391	-54.938	0.264	0.119
-342.377	315.990	0.058	0.110
-341.362	432.041	0.069	-0.149
-340.348	152.819	0.135	0.185
-339.333	64.010	0.342	-0.344
-338.318	800.000	0.069	-0.295
-337.304	-7.439	-0.244	-0.165
-336.289	-200.000	0.011	-0.222
-335.275	36.327	-0.161	-0.142
-334.260	-49.705	-0.139	0.066
-333.245	35.974	0.064	0.057
-332.231	800.000	0.129	-0.436
-331.216	-200.000	-0.058	-0.442
-330.202	121.403	0.211	-0.263
-329.187	-117.940	-0.317	0.057
-328.172	-39.241	0.199	-0.105
-327.158	6.905	0.216	-0.161
-326.143	-117.489	-0.169	-0.031
-325.129	-146.304	-0.202	-0.018
-324.114	-101.100	-0.269	-0.066
-323.099	-200.000	-0.044	0.265
-322.085	50.367	0.143	0.135
-321.070	800.000	-0.080	0.260
-320.056	66.620	-0.234	0.237
-319.041	-13.596	-0.181	0.117
-318.026	800.000	-0.136	0.407
-317.012	42.290	0.129	-0.117
-315.997	212.756	-0.085	0.134
-314.983	800.000	0.012	0.040
-313.968	-95.600	0.358	-0.096
-312.953	2.835	-0.018	-0.013
-311.939	-200.000	0.026	0.185
-310.924	-200.000	0.021	0.139
-309.910	-200.000	0.012	-0.073
-308.895	-0.529	0.187	-0.133
-307.880	-31.267	0.082	-0.046
-306.866	800.000	-0.005	-0.016
-305.851	270.961	0.052	-0.091
-304.837	220.343	0.178	-0.285
-303.822	365.236	-0.161	-0.324
-302.807	-103.056	0.159	-0.038
-301.793	800.000	0.091	0.294
-300.778	-92.611	-0.171	-0.048
-299.764	557.314	-0.039	-0.094
-298.749	-200.000	0.000	-0.035
-297.735	151.030	-0.129	-0.175
-296.720	-6.593	0.087	-0.059
-295.705	-155.611	-0.130	0.008
-294.691	-144.463	-0.384	0.036
-293.676	-117.933	0.373	-0.067
-292.662	401.707	-0.137	-0.288
-291.647	60.498	-0.118	0.116
-290.632	307.508	0.253	-0.471
-289.618	51.230	0.133	0.126
-288.603	-200.000	0.019	-0.261
-287.589	800.000	0.062	-0.187
-286.574	800.000	0.034	-0.132
-285.559	97.989	-0.334	0.383
-284.545	105.014	-0.108	-0.127
-283.530	800.000	0.032	0.090
-282.516	60.733	-0.226	-0.224
-281.501	-104.748	0.091	-0.021
-280.486	43.847	-0.156	-0.142
-279.472	-200.000	0.012	0.278
-278.457	-62.851	-0.086	-0.035
-277.443	800.000	-0.146	0.425
-276.428	-187.718	-0.262	-0.003
-275.413	270.228	-0.172	0.301
-274.399	-3.535	0.367	0.254
-273.384	111.609	0.118	-0.142
-272.370	71.025	0.075	-0.078
-271.355	800.000	-0.045	-0.153
-270.340	583.100	0.135	-0.331
-269.326	800.000	-0.016	0.058
-268.311	-117.609	-0.020	0.004
-267.297	551.002	0.042	0.101
-266.282	-10.158	0.249	0.165
-265.267	-29.783	0.290	0.165
-264.253	-67.457	0.226	0.088
-263.238	175.985	-0.177	-0.256
-262.224	14.721	0.390	-0.304
-261.209	-200.000	-0.019	0.468
-260.195	-102.610	0.170	0.040
-259.180	50.672	-0.177	-0.167
-258.165	85.784	-0.102	-0.112
-257.151	800.000	-0.033	0.101
-256.136	665.569	-0.079	0.203
-255.122	-144.618	-0.142	0.013
-254.107	-68.368	-0.174	0.067
-253.092	-162.797	-0.121	-0.006
-252.078	-200.000	-0.032	-0.309
-251.063	-28.159	-0.112	-0.065
-250.049	-120.143	-0.197	-0.034
-249.034	-200.000	0.062	0.278
-248.019	800.000	-0.095	0.279
-247.005	-68.141	0.275	-0.107
-245.990	104.298	0.045	-0.053
-244.976	184.131	0.077	-0.114
-243.961	-132.139	-0.237	0.031
-242.946	-27.910	-0.324	-0.187
-241.932	800.000	0.044	0.147
-240.917	78.681	-0.190	0.203
-239.903	800.000	0.058	0.198
-238.888	-200.000	0.035	0.163
-237.873	-31.682	0.222	0.124
-236.859	29.531	-0.174	-0.147
-235.844	-125.611	0.320	-0.048
-234.830	-28.614	-0.233	0.133
-233.815	58.634	-0.186	-0.182
-232.800	-59.522	0.169	-0.072
-231.786	-200.000	0.032	-0.221
-230.771	-48.844	0.300	-0.143
-229.757	656.980	0.047	0.119
-228.742	-200.000	0.025	-0.248
-227.727	0.903	-0.235	-0.168
-226.713	246.026	0.201	-0.336
-225.698	55.424	0.151	0.146
-224.684	-200.000	0.010	0.130
-223.669	-69.876	-0.213	0.081
-222.655	-2.601	-0.257	-0.179
-221.640	109.603	-0.131	0.156
-220.625	-189.540	0.358	-0.004
-219.611	-80.341	0.369	0.123
-218.596	-200.000	0.005	0.168
-217.582	-200.000	0.018	0.251
-216.567	246.349	-0.204	0.342
-215.552	800.000	-0.042	-0.149
-214.538	-140.835	-0.064	0.007
-213.523	-140.432	0.193	0.020
-212.509	44.806	-0.176	0.161
-211.494	-200.000	0.010	0.104
-210.479	-166.666	0.240	-0.010
-209.465	-80.208	-0.245	0.081
-208.450	53.161	-0.215	-0.205
-207.436	-46.888	-0.067	0.032
-206.421	-73.147	0.163	-0.059
-205.406	158.055	0.130	-0.179
-204.392	-95.704	-0.299	0.080
-203.377	134.664	0.085	0.110
-202.363	-96.776	0.309	-0.081
-201.348	800.000	0.113	0.321
-200.333	-200.000	0.091	-0.414
-199.319	-118.256	0.191	0.034
-198.304	-200.000	-0.053	-0.398
-197.290	-200.000	-0.274	0.001
-196.275	162.406	0.026	0.037
-195.260	-200.000	-0.001	0.106
-194.246	-181.949	-0.054	-0.001
-193.231	42.097	-0.164	-0.148
-192.217	-106.891	0.070	-0.015
-191.202	99.857	0.187	0.216
-190.187	-75.406	-0.067	-0.024
-189.173	-178.730	-0.188	0.004
-188.158	-18.999	-0.076	0.047
-187.144	-80.678	-0.046	0.015
-186.129	80.105	0.127	-0.136
-185.114	-200.000	-0.042	-0.189
-184.100	800.000	-0.092	-0.354
-183.085	449.942	0.104	0.227
-182.071	800.000	0.023	0.065
-181.056	294.787	0.063	-0.114
-180.042	800.000	-0.031	0.116
-179.027	-49.521	0.077	0.036
-178.012	-200.000	-0.010	-0.484
-176.998	164.232	-0.217	0.304
-175.983	97.988	-0.077	0.088
-174.969	-44.656	-0.222	0.110
-173.954	-123.591	-0.323	-0.051
-172.939	-131.614	0.164	0.021
-171.925	-154.930	-0.050	-0.003
-170.910	21.589	0.023	0.019
-169.896	-200.000	0.008	0.235
-168.881	-193.892	-0.057	-0.000
-167.866	800.000	-0.048	0.134
-166.852	-78.836	0.059	0.020
-165.837	126.306	-0.089	-0.111
-164.823	800.000	0.036	0.146
-163.808	-200.000	0.013	-0.203
-162.793	13.389	0.166	0.128
-161.779	117.908	0.122	0.149
-160.764	590.077	0.072	0.177
-159.750	-75.268	0.101	-0.036
-158.735	-73.974	0.105	0.038
-157.720	194.341	0.063	0.094
-156.706	-50.974	0.137	0.064
-155.691	-26.883	-0.133	-0.077
-154.677	126.807	-0.245	0.308
-153.662	30.094	0.330	0.279
-152.647	106.000	-0.204	0.240
-151.633	459.351	0.040	0.089
-150.618	-36.113	-0.432	-0.232
-149.604	-200.000	0.032	0.251
-148.589	-200.000	-0.022	0.117
-147.574	206.623	-0.089	0.138
-146.560	204.413	0.114	0.176
-145.545	212.664	0.027	0.043
-144.531	-200.000	0.012	0.189
-143.516	-156.787	-0.199	-0.012
-142.502	49.523	-0.286	0.267
-141.487	5.971	0.179	-0.132
-140.472	800.000	0.059	-0.171
-139.458	-112.510	0.168	-0.033
-138.443	283.907	0.216	0.386
-137.429	-200.000	0.037	-0.202
-136.414	-200.000	0.089	0.418
-135.399	95.959	-0.076	-0.086
-134.385	-200.000	0.060	-0.268
-133.370	-69.588	0.279	0.106
-132.356	-21.643	-0.312	0.188
-131.341	-183.016	-0.177	0.003
-130.326	-92.224	0.078	0.022
-129.312	98.448	0.166	0.190
-128.297	-200.000	0.001	0.278
-127.283	72.296	-0.203	-0.210
-126.268	38.421	-0.087	0.077
-125.253	-127.993	-0.092	-0.013
-124.239	-200.000	-0.039	0.458
-123.224	800.000	0.112	-0.338
-122.210	25.688	0.020	-0.017
-121.195	-144.565	-0.133	0.012
