DTS Sentinel unit serial number:	SN413079Multiplexer serial number:	ORYXHardware model number:	OX4-SRSoftware version number:	ORYX F/W v4.00 Oryx Data Collector v3.7.2.0data status	okinstallation	princeton_trtdifferential loss correction	single-endedforward channel	channel 4reverse channel	N/Adate	2019/09/18time	18:21:34forward acquisition time	60.00reverse acquisition time	0.00gamma	496.2192k internal	0.2292k external	0.2292temperature offset calibration	1.0018default loss term (dB/km)	0.3790temperature slope calibration	1.0000multiplexer offset coefficient	1.0000multiplexer slope coefficient	1.0000fibre end	0.00T internal ref (°C)	38.69T ext. ref 1 (°C)	0.93T ext. ref 2 (°C)	31.79length (m)	temperature (°C)	Stokes	anti-Stokes-747.200	-200.000	0.005	0.120
-746.185	-200.000	0.018	0.198
-745.171	-11.277	-0.160	-0.108
-744.156	-200.000	-0.048	0.346
-743.142	213.443	0.129	0.209
-742.127	-162.423	0.449	0.023
-741.112	-25.167	-0.174	0.105
-740.098	607.725	-0.050	-0.128
-739.083	140.782	-0.164	-0.221
-738.069	548.138	0.133	0.327
-737.054	-200.000	-0.060	-0.283
-736.039	196.002	-0.043	-0.067
-735.025	-199.236	-0.161	-0.001
-734.010	-68.209	0.313	-0.125
-732.996	800.000	0.072	0.226
-731.981	-200.000	-0.001	0.100
-730.966	-200.000	-0.096	-0.000
-729.952	-37.759	-0.194	0.106
-728.937	800.000	0.061	0.181
-727.923	-200.000	0.033	0.212
-726.908	-200.000	0.008	-0.147
-725.894	-200.000	0.026	-0.403
-724.879	-123.795	-0.128	-0.021
-723.864	-129.764	0.263	0.037
-722.850	48.033	0.128	0.122
-721.835	177.044	0.213	-0.317
-720.821	-16.476	-0.113	0.073
-719.806	-115.113	0.074	-0.014
-718.791	-97.140	-0.221	0.059
-717.777	-110.134	-0.262	-0.056
-716.762	-200.000	-0.010	-0.141
-715.748	491.203	-0.142	0.331
-714.733	-200.000	-0.027	-0.283
-713.718	96.251	-0.121	-0.141
-712.704	-26.810	-0.151	0.090
-711.689	-54.556	0.158	-0.073
-710.675	-200.000	-0.021	-0.242
-709.660	54.995	-0.039	0.038
-708.645	39.695	-0.197	-0.181
-707.631	-53.842	-0.309	-0.144
-706.616	322.958	-0.078	-0.152
-705.602	-200.000	0.088	0.477
-704.587	-200.000	0.012	-0.260
-703.572	800.000	-0.081	0.263
-702.558	-2.495	0.034	0.024
-701.543	-139.559	-0.366	-0.040
-700.529	100.774	-0.104	-0.123
-699.514	-113.687	0.303	-0.060
-698.499	-200.000	-0.052	-0.315
-697.485	-200.000	-0.037	-0.209
-696.470	126.411	-0.104	-0.134
-695.456	170.400	0.191	-0.279
-694.441	800.000	-0.018	-0.053
-693.426	312.150	-0.060	-0.115
-692.412	-37.715	-0.079	0.043
-691.397	441.421	-0.171	-0.382
-690.383	-200.000	0.025	0.156
-689.368	-154.700	0.250	-0.017
-688.354	28.217	-0.160	-0.138
-687.339	-200.000	-0.015	-0.138
-686.324	198.980	-0.088	0.138
-685.310	-69.064	0.376	0.148
-684.295	800.000	-0.073	0.328
-683.281	31.284	-0.339	0.297
-682.266	-63.672	-0.187	0.078
-681.251	46.471	-0.282	-0.267
-680.237	-200.000	-0.018	-0.163
-679.222	-16.968	0.104	0.067
-678.208	212.107	-0.125	-0.202
-677.193	67.877	0.120	-0.125
-676.178	140.067	-0.076	0.102
-675.164	151.193	-0.014	-0.020
-674.149	-42.561	0.186	0.097
-673.135	8.121	-0.054	-0.041
-672.120	-121.289	-0.112	0.019
-671.105	17.024	-0.259	-0.209
-670.091	72.435	0.171	-0.182
-669.076	187.853	0.089	-0.136
-668.062	-47.787	-0.169	0.083
-667.047	-87.573	-0.121	-0.037
-666.032	800.000	0.050	0.160
-665.018	-68.011	0.212	0.084
-664.003	43.914	-0.192	-0.180
-662.989	-178.077	0.278	-0.007
-661.974	-48.640	0.284	-0.139
-660.959	63.966	-0.131	0.134
-659.945	-24.755	-0.233	-0.141
-658.930	-131.315	0.384	0.052
-657.916	-66.807	0.111	-0.045
-656.901	-159.902	-0.134	-0.007
-655.886	800.000	0.058	0.246
-654.872	114.358	0.042	0.052
-653.857	-25.537	-0.196	-0.118
-652.843	433.581	-0.127	-0.281
-651.828	-72.773	0.054	-0.020
-650.814	363.306	0.130	0.266
-649.799	-200.000	-0.020	-0.095
-648.784	5.484	-0.266	0.200
-647.770	263.273	0.021	-0.036
-646.755	-80.350	0.061	0.021
-645.741	-121.378	-0.091	-0.015
-644.726	-195.785	-0.337	0.002
-643.711	-200.000	-0.008	0.127
-642.697	800.000	-0.046	-0.169
-641.682	-70.213	0.110	-0.042
-640.668	57.722	0.215	-0.215
-639.653	-200.000	-0.003	0.113
-638.638	-185.807	0.367	0.006
-637.624	-138.259	0.294	-0.033
-636.609	-200.000	-0.013	-0.198
-635.595	757.406	-0.105	0.290
-634.580	16.097	0.098	0.079
-633.565	96.595	-0.142	-0.165
-632.551	78.679	-0.065	-0.071
-631.536	164.788	0.189	0.272
-630.522	-44.903	-0.103	-0.052
-629.507	-177.944	0.304	-0.007
-628.492	128.948	0.099	-0.129
-627.478	-56.436	0.199	-0.090
-626.463	-34.455	-0.231	-0.129
-625.449	23.092	0.131	0.110
-624.434	56.835	0.088	-0.087
-623.419	-200.000	0.035	-0.209
-622.405	-91.378	0.167	0.049
-621.390	255.947	0.081	0.141
-620.376	182.522	0.143	-0.215
-619.361	-95.389	0.088	0.024
-618.346	-200.000	-0.027	-0.188
-617.332	-180.310	0.090	-0.002
-616.317	305.707	0.038	-0.073
-615.303	253.461	-0.266	-0.462
-614.288	-0.443	-0.192	-0.139
-613.273	-16.220	-0.206	0.133
-612.259	-54.015	-0.222	-0.103
-611.244	513.706	0.082	-0.194
-610.230	-96.183	0.381	-0.103
-609.215	-22.241	0.277	-0.171
-608.201	-111.469	-0.310	-0.064
-607.186	217.956	-0.038	-0.062
-606.171	-26.955	0.266	-0.158
-605.157	627.744	-0.061	-0.156
-604.142	-44.084	0.145	-0.074
-603.128	-143.754	-0.239	0.023
-602.113	800.000	0.100	-0.411
-601.098	-200.000	0.001	-0.096
-600.084	344.851	0.086	0.171
-599.069	175.419	0.157	-0.232
-598.055	-43.318	0.188	0.097
-597.040	-200.000	-0.020	0.147
-596.025	-163.177	-0.235	0.012
-595.011	-80.275	-0.292	-0.099
-593.996	-91.470	0.175	-0.051
-592.982	-46.780	-0.102	-0.051
-591.967	-114.805	0.361	-0.070
-590.952	-123.825	0.151	-0.024
-589.938	597.224	-0.071	-0.180
-588.923	-36.756	-0.106	0.058
-587.909	133.758	-0.179	-0.236
-586.894	-200.000	0.008	-0.472
-585.879	755.388	-0.059	0.163
-584.865	-200.000	0.001	-0.146
-583.850	-200.000	-0.080	-0.371
-582.836	5.275	0.197	-0.148
-581.821	-135.883	-0.221	-0.026
-580.806	-3.873	0.068	0.048
-579.792	38.861	0.235	0.213
-578.777	-11.243	-0.237	0.159
-577.763	39.065	-0.362	-0.329
-576.748	357.636	-0.045	0.090
-575.733	439.684	-0.097	0.216
-574.719	6.667	0.105	0.079
-573.704	-200.000	0.003	0.350
-572.690	347.203	-0.055	0.110
-571.675	800.000	0.049	-0.150
-570.661	-99.808	0.172	-0.044
-569.646	118.596	-0.018	-0.022
-568.631	-44.066	0.042	0.021
-567.617	-100.340	0.324	0.082
-566.602	276.080	-0.082	0.148
-565.588	-200.000	-0.027	-0.213
-564.573	151.826	0.075	0.104
-563.558	553.337	0.124	0.303
-562.544	-200.000	-0.005	0.108
-561.529	-200.000	-0.041	0.188
-560.515	-199.372	0.058	0.000
-559.500	-200.000	0.036	-0.362
-558.485	364.801	0.041	0.084
-557.471	-62.928	0.104	-0.044
-556.456	207.692	-0.086	0.137
-555.442	350.533	0.157	-0.315
-554.427	-52.385	0.174	0.082
-553.412	-151.832	-0.419	0.031
-552.398	492.763	-0.075	-0.175
-551.383	538.975	-0.016	-0.039
-550.369	88.780	0.068	0.077
-549.354	-72.981	-0.046	0.017
-548.339	167.774	0.220	-0.318
-547.325	-28.485	-0.112	0.066
-546.310	-66.838	0.076	-0.030
-545.296	-200.000	-0.003	-0.020
-544.281	0.822	-0.177	-0.129
-543.266	156.575	-0.037	-0.052
-542.252	45.328	0.139	-0.130
-541.237	744.167	-0.037	0.102
-540.223	800.000	-0.030	0.101
-539.208	-95.907	0.204	-0.055
-538.193	800.000	0.055	-0.221
-537.179	-92.342	0.054	0.016
-536.164	-41.417	-0.346	0.181
-535.150	-200.000	-0.006	0.249
-534.135	557.538	0.077	-0.188
-533.121	-144.181	0.140	0.013
-532.106	800.000	0.159	-0.475
-531.091	74.795	-0.131	-0.140
-530.077	-97.932	0.035	0.009
-529.062	42.559	-0.175	0.162
-528.048	134.033	-0.041	0.054
-527.033	-200.000	0.057	-0.266
-526.018	-57.119	-0.199	-0.089
-525.004	-64.998	0.198	-0.081
-523.989	-190.250	-0.251	-0.003
-522.975	207.520	-0.107	0.169
-521.960	149.075	-0.021	-0.029
-520.945	-49.661	-0.140	0.067
-519.931	-57.322	0.300	-0.134
-518.916	800.000	-0.047	0.177
-517.902	14.798	-0.095	-0.075
-516.887	129.159	0.129	-0.167
-515.872	-100.887	0.147	-0.037
-514.858	-74.322	-0.127	-0.047
-513.843	113.373	-0.074	-0.091
-512.829	-98.911	0.238	0.061
-511.814	230.099	-0.108	0.178
-510.799	-105.202	-0.318	-0.074
-509.785	52.395	0.167	-0.161
-508.770	285.612	-0.030	0.054
-507.756	475.131	-0.147	0.335
-506.741	-200.000	-0.009	0.425
-505.726	-200.000	-0.013	0.119
-504.712	625.528	0.004	-0.009
-503.697	276.189	-0.184	-0.331
-502.683	-31.543	-0.080	-0.045
-501.668	-22.360	0.021	-0.013
-500.653	140.355	0.079	-0.105
-499.639	406.068	0.054	0.115
-498.624	-134.312	-0.114	0.014
-497.610	-164.706	-0.055	-0.003
-496.595	-200.000	0.005	0.131
-495.581	-200.000	0.038	0.393
-494.566	288.038	-0.114	0.209
-493.551	-7.630	0.416	0.285
-492.537	-200.000	0.011	0.059
-491.522	154.043	0.079	0.110
-490.508	-200.000	-0.010	-0.304
-489.493	8.844	-0.314	0.240
-488.478	22.956	0.224	0.186
-487.464	-181.424	0.261	-0.005
-486.449	39.130	0.050	0.045
-485.435	200.729	0.080	0.125
-484.420	39.227	-0.180	0.163
-483.405	-10.175	0.147	0.099
-482.391	-2.068	-0.157	-0.112
-481.376	800.000	0.135	-0.397
-480.362	-139.242	-0.172	-0.019
-479.347	758.624	-0.044	-0.120
-478.332	800.000	0.013	-0.043
-477.318	91.086	-0.054	-0.061
-476.303	500.364	0.066	0.155
-475.289	-200.000	-0.003	0.078
-474.274	-40.141	-0.238	0.126
-473.259	-104.927	-0.509	-0.118
-472.245	-78.095	-0.121	-0.042
-471.230	105.102	0.046	-0.055
-470.216	28.822	0.318	0.273
-469.201	-18.134	-0.133	0.084
-468.186	800.000	0.067	-0.213
-467.172	45.367	-0.218	0.203
-466.157	81.977	0.229	-0.251
-465.143	6.358	-0.060	-0.045
-464.128	598.156	0.111	0.280
-463.113	85.277	-0.150	-0.167
-462.099	800.000	0.107	-0.372
-461.084	50.596	0.141	0.135
-460.070	143.658	-0.039	-0.053
-459.055	-200.000	0.026	0.129
-458.040	800.000	-0.032	0.092
-457.026	692.534	-0.131	0.348
-456.011	13.760	0.032	0.025
-454.997	251.688	-0.046	0.079
-453.982	-58.312	0.098	0.043
-452.968	192.926	0.217	0.332
-451.953	199.863	0.103	0.160
-450.938	-166.890	-0.103	-0.004
-449.924	8.316	-0.166	0.126
-448.909	593.174	0.068	0.170
-447.895	44.728	-0.199	0.185
-446.880	11.001	0.146	-0.113
-445.865	-200.000	-0.035	-0.319
-444.851	800.000	0.078	-0.218
-443.836	-163.240	-0.488	0.024
-442.822	-73.619	-0.301	0.111
-441.807	-82.693	0.166	0.054
-440.792	104.681	0.004	-0.004
-439.778	-36.588	0.156	0.085
-438.763	434.340	-0.052	0.115
-437.749	-60.827	0.140	0.060
-436.734	-122.873	0.198	0.032
-435.719	42.104	0.102	-0.094
-434.705	-8.807	-0.212	-0.144
-433.690	92.750	-0.186	-0.212
-432.676	-125.146	0.211	-0.033
-431.661	600.766	0.009	0.024
-430.646	43.542	-0.229	0.212
-429.632	-42.311	-0.511	0.264
-428.617	36.289	0.209	-0.186
-427.603	-14.808	0.346	0.225
-426.588	414.681	-0.059	-0.126
-425.573	660.487	-0.114	0.297
-424.559	281.587	-0.142	-0.257
-423.544	800.000	0.066	-0.260
-422.530	745.023	-0.073	0.198
-421.515	-200.000	-0.011	0.118
-420.500	11.512	-0.230	-0.178
-419.486	78.663	-0.097	0.105
-418.471	-200.000	0.001	0.145
-417.457	10.989	0.148	-0.114
-416.442	-23.659	-0.312	0.189
-415.428	419.921	-0.032	-0.069
-414.413	763.361	0.114	0.313
-413.398	-98.828	-0.212	0.054
-412.384	485.157	0.065	-0.150
-411.369	-200.000	-0.040	-0.284
-410.355	-200.000	0.039	-0.213
-409.340	160.064	0.147	-0.208
-408.325	-96.141	0.359	-0.096
-407.311	800.000	-0.097	0.277
-406.296	-40.795	0.305	-0.160
-405.282	-19.582	0.148	-0.092
-404.267	-158.770	-0.446	-0.026
-403.252	800.000	-0.088	-0.320
-402.238	-106.301	0.234	-0.053
-401.223	800.000	0.106	-0.380
-400.209	-183.200	-0.276	0.005
-399.194	-200.000	-0.001	0.010
-398.179	588.911	0.064	-0.159
-397.165	-200.000	-0.010	-0.119
-396.150	30.403	0.219	-0.189
-395.136	800.000	-0.016	-0.046
-394.121	800.000	-0.033	0.147
-393.106	113.627	0.018	-0.022
-392.092	-112.796	0.275	0.055
-391.077	-99.453	-0.167	-0.042
-390.063	-130.339	-0.394	-0.054
-389.048	234.455	-0.071	0.118
-388.033	167.340	-0.099	-0.141
-387.019	-17.839	-0.409	-0.259
-386.004	41.267	0.139	-0.127
-384.990	565.533	0.176	0.430
-383.975	-92.658	0.022	0.006
-382.960	-160.716	0.073	-0.004
-381.946	739.769	0.126	-0.342
-380.931	97.506	0.166	0.192
-379.917	-200.000	0.009	0.107
-378.902	-83.846	0.137	-0.044
-377.888	216.398	-0.046	0.074
-376.873	-15.254	0.114	0.074
-375.858	-47.752	0.217	0.106
-374.844	-38.724	0.034	-0.018
-373.829	763.798	-0.039	0.108
-372.815	-200.000	0.052	-0.432
-371.800	-68.436	-0.395	0.154
-370.785	433.856	-0.057	-0.125
-369.771	-104.094	-0.272	-0.064
-368.756	42.398	0.238	0.218
-367.742	31.048	0.090	0.078
-366.727	-200.000	0.046	0.302
-365.712	144.319	0.134	0.180
-364.698	-127.259	0.243	0.036
-363.683	-120.245	0.119	-0.020
-362.669	33.066	-0.225	0.197
-361.654	-27.146	0.068	0.040
-360.639	800.000	-0.080	0.280
-359.625	726.760	-0.040	0.108
-358.610	-34.751	0.268	-0.148
-357.596	-43.965	0.258	-0.131
-356.581	45.675	0.038	0.035
-355.566	-200.000	0.049	-0.240
-354.552	176.013	-0.053	-0.077
-353.537	800.000	0.151	0.466
-352.523	-200.000	0.010	0.351
-351.508	326.865	-0.040	0.077
-350.493	-88.877	0.260	0.078
-349.479	-40.376	-0.324	-0.170
-348.464	-200.000	-0.054	0.273
-347.450	800.000	-0.043	0.147
-346.435	800.000	-0.088	-0.340
-345.420	-144.963	0.284	0.026
-344.406	29.580	-0.244	-0.209
-343.391	16.130	0.190	-0.151
-342.377	-15.539	0.145	-0.093
-341.362	-12.518	-0.092	-0.060
-340.348	-8.110	0.196	0.133
-339.333	-142.806	-0.172	-0.017
-338.318	-127.426	-0.268	-0.039
-337.304	33.264	-0.143	0.125
-336.289	415.176	0.099	0.213
-335.275	682.166	-0.126	0.330
-334.260	163.355	0.086	-0.121
-333.245	29.893	0.245	-0.210
-332.231	504.423	0.187	-0.436
-331.216	87.374	-0.058	0.064
-330.202	800.000	-0.148	0.451
-329.187	800.000	0.182	0.510
-328.172	-115.496	0.309	-0.059
-327.158	-31.775	-0.133	-0.075
-326.143	800.000	-0.018	0.066
-325.129	130.240	0.074	0.095
-324.114	-6.042	0.220	-0.151
-323.099	-63.320	0.186	0.077
-322.085	800.000	-0.012	0.055
-321.070	-150.768	-0.276	0.021
-320.056	130.685	0.061	-0.079
-319.041	-145.986	0.281	-0.025
-318.026	255.094	-0.144	0.248
-317.012	50.591	-0.177	-0.168
-315.997	-200.000	-0.055	-0.249
-314.983	-200.000	-0.077	0.373
-313.968	678.907	0.085	0.222
-312.953	80.379	-0.125	0.136
-311.939	-8.088	0.259	-0.176
-310.924	-25.531	0.284	0.169
-309.910	196.029	-0.169	-0.258
-308.895	289.832	0.241	-0.440
-307.880	-200.000	-0.001	0.328
-306.866	-184.978	0.467	-0.007
-305.851	-133.485	-0.160	-0.020
-304.837	-4.559	-0.146	-0.102
-303.822	-43.820	0.298	-0.151
-302.807	64.200	0.151	-0.153
-301.793	464.045	-0.036	-0.081
-300.778	-117.685	-0.239	-0.043
-299.764	-53.515	0.268	0.123
-298.749	-38.150	0.231	0.123
-297.735	-65.501	-0.085	0.035
-296.720	-200.000	-0.023	0.212
-295.705	282.344	0.138	0.250
-294.691	-200.000	0.017	-0.320
-293.676	800.000	-0.058	-0.245
-292.662	10.931	-0.183	0.140
-291.647	19.077	-0.010	0.008
-290.632	-66.013	-0.317	-0.127
-289.618	-193.662	-0.058	-0.000
-288.603	-25.005	0.269	0.161
-287.589	-200.000	0.031	-0.269
-286.574	91.472	-0.042	0.047
-285.559	-200.000	0.043	0.284
-284.545	-200.000	-0.002	0.111
-283.530	-15.345	0.238	0.153
-282.516	-67.644	0.132	-0.052
-281.501	85.731	0.050	-0.055
-280.486	-200.000	-0.001	0.151
-279.472	113.519	-0.084	-0.103
-278.457	-200.000	-0.025	-0.201
-277.443	-200.000	-0.041	0.326
-276.428	10.799	0.058	0.045
-275.413	68.043	-0.145	0.149
-274.399	-37.808	-0.159	-0.085
-273.384	281.589	-0.042	-0.076
-272.370	-200.000	-0.033	0.192
-271.355	-55.683	-0.284	-0.127
-270.340	-200.000	0.002	0.047
-269.326	471.436	0.081	0.182
-268.311	4.594	-0.363	-0.268
-267.297	234.803	0.082	0.136
-266.282	-52.210	-0.050	-0.023
-265.267	800.000	-0.023	0.090
-264.253	591.943	-0.098	0.242
-263.238	-163.183	0.121	-0.006
-262.224	-163.466	-0.286	0.014
-261.209	800.000	0.079	0.229
-260.195	-137.312	-0.144	-0.016
-259.180	-141.349	0.217	-0.022
-258.165	24.429	-0.173	0.143
-257.151	309.640	0.084	0.158
-256.136	-25.836	0.216	0.128
-255.122	-200.000	-0.033	-0.169
-254.107	236.475	-0.228	-0.379
-253.092	27.820	-0.114	0.096
-252.078	347.695	0.058	-0.114
-251.063	-170.512	0.044	-0.002
-250.049	800.000	0.078	-0.241
-249.034	-200.000	-0.057	0.253
-248.019	-200.000	-0.045	0.301
-247.005	148.318	-0.073	0.099
-245.990	-44.371	0.270	-0.136
-244.976	267.258	-0.096	0.169
-243.961	-134.424	0.023	0.003
-242.946	800.000	-0.043	0.162
-241.932	272.237	-0.124	0.219
-240.917	800.000	0.035	-0.120
-239.903	47.213	-0.365	-0.341
-238.888	-38.106	-0.172	0.092
-237.873	-17.906	0.210	0.132
-236.859	91.300	-0.187	-0.210
-235.844	-84.061	-0.148	-0.047
-234.830	800.000	-0.064	0.265
-233.815	415.597	-0.165	0.354
-232.800	617.954	-0.045	0.113
-231.786	-200.000	-0.011	0.139
-230.771	159.562	-0.091	0.127
-229.757	108.336	0.179	-0.214
-228.742	299.602	-0.081	0.150
-227.727	-68.682	-0.192	0.074
-226.713	172.173	-0.101	-0.146
-225.698	800.000	0.044	-0.189
-224.684	800.000	-0.021	-0.064
-223.669	90.728	0.281	0.315
-222.655	-176.801	0.398	-0.010
-221.640	191.682	0.106	0.161
-220.625	50.095	-0.162	0.153
-219.611	-26.444	-0.082	0.048
-218.596	62.748	-0.089	0.090
-217.582	52.366	0.110	-0.106
-216.567	-64.657	-0.192	0.078
-215.552	-200.000	-0.025	-0.219
-214.538	-97.476	-0.047	-0.012
-213.523	-3.149	0.296	0.207
-212.509	470.359	0.088	0.199
-211.494	-74.186	-0.248	-0.090
-210.479	-200.000	0.004	-0.446
-209.465	800.000	0.150	0.465
-208.450	186.510	-0.040	-0.060
-207.436	-78.955	0.441	0.151
-206.421	85.573	0.111	-0.122
-205.406	-200.000	0.017	0.237
-204.392	207.368	-0.028	-0.043
-203.377	134.169	0.194	0.252
-202.363	-92.431	-0.271	-0.076
-201.348	-200.000	-0.012	-0.144
-200.333	136.748	0.093	0.121
-199.319	-200.000	-0.009	0.119
-198.304	-200.000	-0.012	0.101
-197.290	135.524	-0.108	-0.140
-196.275	-17.013	0.254	-0.161
-195.260	-200.000	-0.005	0.506
-194.246	555.702	0.110	-0.266
-193.231	271.244	0.045	-0.079
-192.217	-200.000	-0.005	-0.082
-191.202	296.625	-0.116	-0.213
-190.187	-200.000	0.067	-0.343
-189.173	-128.515	-0.279	-0.040
-188.158	611.030	0.063	-0.157
-187.144	92.595	-0.043	0.048
-186.129	-111.456	-0.185	0.038
-185.114	384.941	-0.114	-0.236
-184.100	-28.967	-0.123	-0.071
-183.085	256.872	-0.143	-0.247
-182.071	46.758	0.008	-0.007
-181.056	-200.000	0.004	-0.277
-180.042	369.440	-0.116	0.234
-179.027	-200.000	-0.004	-0.039
-178.012	-133.658	0.061	0.008
-176.998	-106.042	0.092	0.021
-175.983	-1.562	-0.057	0.040
-174.969	800.000	0.055	-0.219
-173.954	20.939	-0.078	-0.063
-172.939	-152.199	0.438	-0.032
-171.925	127.661	-0.167	0.212
-170.910	440.468	0.075	-0.163
-169.896	-200.000	0.022	0.128
-168.881	161.885	0.215	0.301
-167.866	-112.410	0.105	0.021
-166.852	800.000	0.067	0.202
-165.837	115.338	-0.105	0.128
-164.823	-131.901	-0.256	0.033
-163.808	-129.680	-0.223	-0.031
-162.793	121.675	-0.182	-0.228
-161.779	-76.572	0.191	-0.067
-160.764	-132.799	-0.074	0.010
-159.750	-94.792	0.289	-0.079
-158.735	-5.395	-0.084	-0.058
-157.720	-81.336	0.153	0.051
-156.706	29.027	-0.220	-0.186
-155.691	-8.876	-0.236	-0.158
-154.677	-200.000	0.069	-0.368
-153.662	-26.616	-0.251	0.147
-152.647	-59.203	-0.470	-0.202
-151.633	718.338	-0.058	0.153
-150.618	-125.935	0.039	0.006
-149.604	800.000	0.059	0.198
-148.589	-200.000	0.010	0.206
-147.574	19.649	-0.241	-0.194
-146.560	-30.197	-0.292	0.166
-145.545	156.384	-0.110	0.151
-144.531	800.000	-0.060	0.256
-143.516	-200.000	0.006	-0.136
-142.502	668.606	0.110	0.285
-141.487	82.768	0.138	-0.150
-140.472	0.543	0.186	0.133
-139.458	89.400	0.207	0.231
-138.443	462.976	-0.163	0.364
-137.429	-147.767	0.116	-0.010
-136.414	-200.000	0.004	0.238
-135.399	302.617	-0.124	0.229
-134.385	800.000	-0.049	0.148
-133.370	-200.000	0.010	-0.213
-132.356	-77.986	0.243	-0.084
-131.341	278.313	0.060	0.106
-130.326	-120.008	-0.327	-0.056
-129.312	-200.000	-0.016	-0.079
-128.297	-137.222	0.175	0.020
-127.283	-21.801	0.203	-0.123
-126.268	-1.471	-0.237	-0.167
-125.253	297.452	0.141	0.258
-124.239	-87.026	0.115	-0.035
-123.224	137.857	-0.068	-0.089
-122.210	93.090	0.134	-0.151
