DTS Sentinel unit serial number:	SN413079Multiplexer serial number:	ORYXHardware model number:	OX4-SRSoftware version number:	ORYX F/W v4.00 Oryx Data Collector v3.7.2.0data status	okinstallation	princeton_trtdifferential loss correction	single-endedforward channel	channel 4reverse channel	N/Adate	2019/09/18time	02:21:35forward acquisition time	60.00reverse acquisition time	0.00gamma	496.2192k internal	0.2334k external	0.2334temperature offset calibration	0.9995default loss term (dB/km)	0.3790temperature slope calibration	1.0000multiplexer offset coefficient	1.0000multiplexer slope coefficient	1.0000fibre end	0.00T internal ref (°C)	22.81T ext. ref 1 (°C)	0.16T ext. ref 2 (°C)	16.80length (m)	temperature (°C)	Stokes	anti-Stokes-747.200	149.261	-0.084	0.114
-746.185	-80.313	-0.416	0.140
-745.171	26.380	0.293	-0.246
-744.156	-200.000	0.028	0.224
-743.142	-24.319	0.220	-0.132
-742.127	-171.557	-0.189	-0.006
-741.112	-200.000	-0.040	0.178
-740.098	-8.312	-0.342	0.231
-739.083	-200.000	0.007	-0.260
-738.069	188.346	-0.082	0.124
-737.054	-57.379	0.344	-0.152
-736.039	34.186	-0.282	-0.247
-735.025	-200.000	-0.026	0.149
-734.010	-200.000	0.018	-0.136
-732.996	336.296	-0.148	-0.288
-731.981	252.703	-0.127	-0.218
-730.966	-61.188	-0.196	-0.083
-729.952	184.676	0.244	0.364
-728.937	104.668	-0.154	0.182
-727.923	-149.488	0.076	0.006
-726.908	-2.226	0.143	0.101
-725.894	-78.564	0.111	0.038
-724.879	-13.840	-0.287	-0.186
-723.864	-87.246	-0.244	-0.074
-722.850	38.402	-0.112	0.100
-721.835	-200.000	-0.019	-0.103
-720.821	-58.049	-0.106	0.047
-719.806	-143.053	0.323	-0.031
-718.791	800.000	-0.079	-0.224
-717.777	65.162	-0.239	0.242
-716.762	531.812	-0.016	0.039
-715.748	-200.000	0.059	0.346
-714.733	726.657	0.068	-0.182
-713.718	0.544	0.099	0.071
-712.704	-200.000	0.040	0.248
-711.689	-65.600	0.026	0.010
-710.675	-11.447	0.103	-0.068
-709.660	163.304	0.123	-0.173
-708.645	159.477	-0.168	0.235
-707.631	-84.609	-0.250	0.079
-706.616	-104.899	-0.194	-0.045
-705.602	-103.696	-0.394	0.093
-704.587	-200.000	0.021	-0.143
-703.572	-200.000	0.005	-0.028
-702.558	-93.030	0.250	-0.070
-701.543	-59.833	-0.388	-0.167
-700.529	-200.000	0.034	-0.289
-699.514	215.190	0.166	0.264
-698.499	112.608	-0.167	0.203
-697.485	800.000	-0.119	0.393
-696.470	0.647	-0.171	-0.123
-695.456	230.016	-0.041	-0.068
-694.441	-65.734	0.288	0.116
-693.426	-137.207	-0.273	0.031
-692.412	69.857	0.178	0.185
-691.397	-135.990	-0.099	0.012
-690.383	-120.532	0.055	0.009
-689.368	283.968	0.028	0.051
-688.354	253.912	-0.149	-0.255
-687.339	94.085	0.116	0.132
-686.324	-200.000	0.324	-0.000
-685.310	-200.000	0.004	0.138
-684.295	152.064	0.197	0.269
-683.281	-200.000	0.027	-0.323
-682.266	-17.998	-0.299	-0.188
-681.251	-56.427	-0.154	-0.069
-680.237	-63.849	-0.200	0.082
-679.222	-200.000	-0.014	0.182
-678.208	705.558	0.104	-0.276
-677.193	37.381	0.196	0.174
-676.178	626.385	0.099	-0.249
-675.164	-170.348	0.172	0.006
-674.149	81.874	-0.153	-0.166
-673.135	277.700	0.101	-0.180
-672.120	310.997	0.123	0.231
-671.105	-124.859	-0.099	0.015
-670.091	-89.753	-0.119	0.035
-669.076	87.387	-0.132	-0.146
-668.062	234.006	-0.091	-0.151
-667.047	800.000	0.019	-0.069
-666.032	-62.231	-0.306	-0.128
-665.018	-200.000	-0.076	-0.488
-664.003	-70.944	0.162	-0.061
-662.989	53.774	-0.158	0.152
-661.974	-13.234	-0.104	-0.068
-660.959	-3.560	0.092	-0.064
-659.945	182.428	0.195	-0.288
-658.930	800.000	-0.134	-0.432
-657.916	-200.000	-0.048	-0.352
-656.901	-15.657	-0.092	-0.059
-655.886	163.271	0.227	0.319
-654.872	92.310	-0.107	0.121
-653.857	22.222	0.227	0.186
-652.843	197.659	0.124	0.190
-651.828	-174.832	-0.055	-0.002
-650.814	-177.627	-0.151	0.004
-649.799	47.061	-0.258	-0.241
-648.784	-54.036	0.161	-0.074
-647.770	-31.629	0.174	-0.098
-646.755	-200.000	-0.000	0.050
-645.741	176.611	0.156	-0.227
-644.726	800.000	-0.032	-0.111
-643.711	-68.078	0.031	-0.012
-642.697	173.873	-0.025	0.036
-641.682	132.722	-0.085	0.110
-640.668	800.000	-0.137	-0.402
-639.653	-35.197	0.084	0.046
-638.638	-200.000	-0.007	0.184
-637.624	63.492	-0.169	0.170
-636.609	-132.658	-0.187	-0.024
-635.595	-200.000	0.018	0.292
-634.580	209.886	-0.167	-0.262
-633.565	208.159	-0.139	-0.218
-632.551	121.664	0.074	-0.092
-631.536	-105.368	0.284	0.065
-630.522	84.503	-0.119	0.130
-629.507	2.279	0.284	-0.205
-628.492	106.937	-0.110	-0.131
-627.478	-30.353	0.070	-0.040
-626.463	20.586	-0.091	0.073
-625.449	-70.688	0.083	-0.032
-624.434	38.963	0.131	0.117
-623.419	41.757	0.141	0.128
-622.405	1.253	0.356	-0.256
-621.390	-60.062	0.095	0.040
-620.376	87.904	-0.087	0.096
-619.361	196.164	0.181	0.275
-618.346	-58.881	-0.218	-0.094
-617.332	-200.000	0.303	0.000
-616.317	-7.485	-0.187	0.126
-615.303	-156.852	-0.569	-0.035
-614.288	140.393	-0.003	0.004
-613.273	324.839	-0.083	0.158
-612.259	-88.430	-0.258	-0.077
-611.244	314.742	-0.047	0.089
-610.230	-87.616	-0.230	0.070
-609.215	800.000	-0.050	0.190
-608.201	21.226	-0.047	0.038
-607.186	213.056	0.212	0.335
-606.171	-25.788	-0.267	0.158
-605.157	-94.583	0.060	0.016
-604.142	45.436	0.139	0.128
-603.128	-80.998	-0.156	-0.052
-602.113	-123.983	-0.305	0.048
-601.098	-138.665	-0.172	0.019
-600.084	-200.000	-0.011	-0.388
-599.069	-42.278	-0.217	0.111
-598.055	800.000	0.076	0.331
-597.040	-200.000	0.012	0.229
-596.025	28.005	0.065	0.055
-595.011	-178.131	-0.148	0.003
-593.996	118.473	-0.083	0.103
-592.982	22.033	0.277	-0.226
-591.967	399.167	-0.078	-0.162
-590.952	800.000	0.005	-0.021
-589.938	172.467	-0.291	-0.418
-588.923	687.930	0.062	-0.162
-587.909	800.000	-0.045	-0.154
-586.894	-178.058	0.291	0.007
-585.879	-200.000	0.003	0.136
-584.865	-200.000	-0.025	-0.390
-583.850	341.225	0.112	-0.218
-582.836	-101.085	0.141	0.035
-581.821	-14.579	0.123	0.079
-580.806	-35.528	0.102	0.055
-579.792	36.669	0.135	-0.119
-578.777	-89.957	0.088	0.026
-577.763	-200.000	0.000	0.070
-576.748	-119.809	0.183	-0.032
-575.733	800.000	-0.115	0.389
-574.719	151.832	-0.202	0.275
-573.704	-12.658	-0.130	-0.084
-572.690	-129.146	-0.219	-0.031
-571.675	800.000	-0.036	0.130
-570.661	4.031	-0.153	-0.112
-569.646	-200.000	0.053	0.286
-568.631	-200.000	-0.059	-0.326
-567.617	-145.934	-0.147	0.013
-566.602	181.126	-0.112	0.165
-565.588	-200.000	-0.040	0.495
-564.573	-200.000	-0.059	0.304
-563.558	800.000	-0.117	0.426
-562.544	-30.993	-0.269	-0.151
-561.529	102.620	-0.156	-0.183
-560.515	-137.187	-0.019	0.002
-559.500	-200.000	0.023	0.229
-558.485	-126.799	0.083	0.012
-557.471	130.320	-0.117	0.149
-556.456	356.845	-0.089	0.178
-555.442	800.000	0.139	-0.406
-554.427	-100.983	-0.256	0.063
-553.412	51.774	0.199	0.189
-552.398	98.914	-0.096	-0.110
-551.383	-200.000	-0.027	-0.142
-550.369	78.638	0.184	-0.196
-549.354	-15.259	0.066	0.042
-548.339	115.684	-0.067	-0.081
-547.325	57.973	-0.184	0.180
-546.310	-200.000	0.005	-0.217
-545.296	-145.510	-0.243	0.022
-544.281	148.036	0.301	-0.405
-543.266	452.847	0.054	-0.118
-542.252	-108.008	-0.117	0.025
-541.237	106.722	0.141	0.167
-540.223	-33.219	-0.066	-0.036
-539.208	-126.084	-0.196	-0.029
-538.193	-97.710	0.266	-0.069
-537.179	800.000	0.017	0.069
-536.164	56.705	-0.051	0.050
-535.150	380.326	-0.059	-0.120
-534.135	339.543	-0.154	-0.299
-533.121	31.075	0.111	0.095
-532.106	61.388	0.143	-0.142
-531.091	-200.000	0.046	0.367
-530.077	-146.789	-0.142	-0.012
-529.062	-115.389	-0.142	-0.027
-528.048	-117.315	0.173	0.031
-527.033	-200.000	-0.052	-0.349
-526.018	551.453	0.059	-0.142
-525.004	-200.000	0.070	0.403
-523.989	168.167	-0.099	0.140
-522.975	-144.156	0.097	0.009
-521.960	-200.000	-0.014	-0.297
-520.945	191.319	0.142	-0.213
-519.931	-16.740	0.330	0.208
-518.916	330.896	0.121	0.232
-517.902	-200.000	0.002	0.055
-516.887	145.131	0.085	-0.113
-515.872	799.488	-0.121	0.333
-514.858	16.952	0.289	0.228
-513.843	-38.814	0.218	-0.114
-512.829	-35.896	0.060	0.032
-511.814	800.000	-0.059	0.167
-510.799	494.969	-0.126	-0.288
-509.785	99.307	0.247	0.285
-508.770	-153.734	0.430	-0.029
-507.756	11.315	0.099	-0.075
-506.741	91.466	0.123	-0.138
-505.726	42.250	0.193	-0.174
-504.712	-106.928	-0.264	0.058
-503.697	-97.849	0.157	-0.040
-502.683	114.029	-0.188	-0.228
-501.668	800.000	-0.044	0.150
-500.653	-55.915	0.435	-0.193
-499.639	-100.645	0.441	-0.108
-498.624	-33.998	0.107	-0.059
-497.610	40.450	0.133	-0.119
-496.595	800.000	0.016	-0.060
-495.581	-39.552	-0.096	0.050
-494.566	-176.676	0.301	0.008
-493.551	426.332	0.065	-0.140
-492.537	4.341	-0.178	0.130
-491.522	-200.000	0.007	-0.175
-490.508	220.078	0.088	0.140
-489.493	-200.000	0.031	0.233
-488.478	-62.598	-0.127	0.052
-487.464	-66.061	0.091	-0.036
-486.449	800.000	0.063	-0.192
-485.435	-77.911	-0.094	-0.032
-484.420	49.794	0.096	0.090
-483.405	-91.521	-0.334	0.095
-482.391	148.895	0.160	0.216
-481.376	-82.047	0.092	-0.030
-480.362	117.555	-0.123	-0.150
-479.347	-137.640	-0.099	0.011
-478.332	800.000	-0.041	-0.165
-477.318	183.697	-0.183	-0.269
-476.303	300.052	0.099	0.182
-475.289	-76.409	-0.272	-0.095
-474.274	-14.262	0.221	0.142
-473.259	800.000	0.115	0.320
-472.245	-44.603	0.301	0.149
-471.230	-129.803	-0.124	0.017
-470.216	438.858	-0.047	-0.101
-469.201	-200.000	-0.045	-0.259
-468.186	-200.000	0.005	0.064
-467.172	-53.254	-0.233	-0.106
-466.157	-121.877	0.133	-0.022
-465.143	-98.301	-0.248	0.063
-464.128	304.624	-0.036	-0.067
-463.113	345.239	0.149	0.292
-462.099	77.516	0.190	-0.201
-461.084	-200.000	0.002	-0.115
-460.070	120.454	0.284	0.351
-459.055	-132.129	-0.039	0.005
-458.040	-153.203	-0.182	-0.013
-457.026	-200.000	0.003	-0.198
-456.011	185.461	-0.114	-0.168
-454.997	-171.032	0.218	-0.007
-453.982	-114.247	-0.178	0.034
-452.968	30.696	0.057	-0.049
-451.953	-142.037	-0.197	-0.019
-450.938	17.099	0.033	0.026
-449.924	-124.595	-0.117	0.018
-448.909	99.496	-0.097	0.112
-447.895	-200.000	0.012	0.278
-446.880	-9.897	-0.093	0.061
-445.865	-4.691	0.071	0.049
-444.851	266.829	-0.027	-0.047
-443.836	186.696	-0.041	0.061
-442.822	-194.395	-0.492	-0.004
-441.807	417.433	-0.194	-0.411
-440.792	10.891	0.307	-0.233
-439.778	-200.000	-0.018	0.125
-438.763	-114.413	0.108	0.021
-437.749	274.064	-0.185	0.325
-436.734	-48.991	-0.293	0.139
-435.719	482.239	0.082	0.184
-434.705	141.682	0.189	0.248
-433.690	-132.078	-0.151	0.020
-432.676	-200.000	-0.007	-0.293
-431.661	494.493	0.050	0.115
-430.646	1.411	0.130	-0.093
-429.632	-200.000	-0.000	-0.235
-428.617	326.163	-0.086	-0.164
-427.603	469.921	-0.073	-0.163
-426.588	-10.041	-0.120	-0.079
-425.573	-200.000	-0.045	0.414
-424.559	240.375	-0.169	0.279
-423.544	211.042	0.068	-0.106
-422.530	26.686	-0.278	0.231
-421.515	800.000	0.058	-0.213
-420.500	261.645	0.120	-0.206
-419.486	-200.000	-0.003	-0.056
-418.471	9.222	0.116	-0.087
-417.457	273.172	0.063	-0.110
-416.442	-36.753	0.280	0.149
-415.428	-45.501	0.091	-0.045
-414.413	317.716	0.077	-0.145
-413.398	544.793	-0.166	-0.393
-412.384	-200.000	0.015	-0.311
-411.369	305.367	-0.101	-0.186
-410.355	752.365	-0.040	0.106
-409.340	800.000	-0.013	0.054
-408.325	-35.714	0.222	-0.120
-407.311	-37.368	0.368	-0.195
-406.296	-9.005	0.095	0.063
-405.282	55.706	0.098	-0.094
-404.267	-40.020	-0.036	0.019
-403.252	-111.560	0.167	-0.034
-402.238	435.455	-0.028	0.061
-401.223	-200.000	-0.011	-0.235
-400.209	78.832	0.088	0.094
-399.194	-55.797	0.096	-0.042
-398.179	79.715	-0.199	0.212
-397.165	-200.000	-0.007	-0.064
-396.150	44.811	0.165	0.151
-395.136	21.813	-0.071	0.058
-394.121	62.979	-0.024	-0.024
-393.106	-54.365	0.252	-0.113
-392.092	296.018	-0.233	-0.424
-391.077	800.000	-0.033	-0.103
-390.063	111.613	0.340	-0.407
-389.048	210.094	0.091	-0.141
-388.033	280.145	-0.084	-0.149
-387.019	35.030	0.080	0.070
-386.004	-200.000	0.027	-0.117
-384.990	235.916	-0.186	0.304
-383.975	115.061	0.151	-0.183
-382.960	-200.000	0.010	0.385
-381.946	-132.166	0.238	-0.031
-380.931	-106.325	-0.401	-0.089
-379.917	423.583	0.061	0.129
-378.902	-200.000	0.018	-0.203
-377.888	800.000	-0.133	0.399
-376.873	-84.308	0.115	0.036
-375.858	229.293	0.136	0.219
-374.844	-32.355	0.399	-0.220
-373.829	305.854	-0.100	-0.183
-372.815	-200.000	-0.029	-0.238
-371.800	-200.000	-0.004	0.173
-370.785	-81.157	0.149	0.049
-369.771	399.483	-0.081	-0.168
-368.756	21.863	0.299	-0.241
-367.742	-138.433	-0.429	0.047
-366.727	-200.000	0.014	0.147
-365.712	800.000	0.116	0.331
-364.698	800.000	0.052	0.155
-363.683	35.811	0.258	-0.225
-362.669	171.957	-0.122	0.173
-361.654	315.148	0.133	-0.249
-360.639	447.825	0.093	0.203
-359.625	50.769	-0.095	0.089
-358.610	-200.000	-0.025	0.140
-357.596	51.790	0.099	-0.093
-356.581	-119.415	-0.206	0.035
-355.566	26.593	-0.098	-0.081
-354.552	-36.081	0.253	0.135
-353.537	-113.881	0.368	-0.071
-352.523	-17.425	-0.305	0.190
-351.508	128.812	-0.209	0.264
-350.493	-109.451	0.114	-0.024
-349.479	-200.000	0.053	-0.316
-348.464	-53.204	0.157	0.071
-347.450	403.461	0.045	-0.093
-346.435	-1.836	0.094	-0.065
-345.420	800.000	-0.049	0.202
-344.406	221.308	-0.165	0.263
-343.391	128.476	0.336	0.424
-342.377	457.384	0.105	0.230
-341.362	-16.417	0.305	-0.191
-340.348	-104.859	-0.369	-0.084
-339.333	99.946	0.130	0.149
-338.318	-100.798	0.082	0.020
-337.304	-200.000	0.004	0.143
-336.289	135.078	0.103	0.132
-335.275	800.000	-0.067	-0.222
-334.260	-20.298	-0.136	-0.083
-333.245	295.336	0.081	-0.146
-332.231	24.509	-0.045	0.037
-331.216	202.858	0.081	-0.123
-330.202	-171.618	-0.106	-0.003
-329.187	31.355	-0.147	-0.125
-328.172	-92.331	-0.449	-0.125
-327.158	478.308	-0.074	0.166
-326.143	-119.031	-0.252	-0.044
-325.129	800.000	0.106	0.333
-324.114	-17.771	0.100	0.062
-323.099	-25.235	-0.185	0.108
-322.085	-184.335	-0.287	-0.005
-321.070	-44.581	-0.270	0.133
-320.056	-3.292	0.160	-0.110
-319.041	33.359	-0.256	-0.220
-318.026	800.000	-0.146	-0.440
-317.012	-24.928	-0.221	0.129
-315.997	-36.577	-0.056	-0.030
-314.983	800.000	0.071	-0.261
-313.968	-200.000	-0.039	0.298
-312.953	-115.410	-0.413	-0.077
-311.939	255.723	-0.083	-0.140
-310.924	-47.467	-0.067	-0.032
-309.910	273.774	0.098	-0.171
-308.895	-87.731	0.225	-0.067
-307.880	161.950	0.086	0.119
-306.866	-49.190	-0.338	0.160
-305.851	193.027	-0.024	-0.036
-304.837	-122.880	-0.234	-0.037
-303.822	518.397	-0.077	0.179
-302.807	-56.920	-0.102	0.044
-301.793	800.000	-0.064	-0.175
-300.778	800.000	-0.104	-0.451
-299.764	-115.955	-0.236	-0.043
-298.749	800.000	-0.047	0.150
-297.735	-83.856	0.143	-0.045
-296.720	-200.000	-0.034	0.290
-295.705	-200.000	0.048	-0.250
-294.691	-83.991	0.388	-0.122
-293.676	-38.044	-0.350	0.184
-292.662	-21.677	-0.242	-0.145
-291.647	-64.481	0.257	0.103
-290.632	70.588	-0.320	0.326
-289.618	-91.751	0.144	-0.040
-288.603	-200.000	-0.013	0.305
-287.589	800.000	-0.022	-0.069
-286.574	800.000	0.136	0.374
-285.559	-92.616	-0.044	0.012
-284.545	-17.128	-0.066	0.041
-283.530	-200.000	0.002	-0.250
-282.516	44.092	0.222	0.200
-281.501	-69.968	0.227	0.085
-280.486	397.863	0.016	-0.033
-279.472	-115.714	0.143	0.027
-278.457	-200.000	0.008	0.205
-277.443	119.829	0.048	0.058
-276.428	42.178	0.090	-0.081
-275.413	119.504	0.125	-0.152
-274.399	30.198	0.211	-0.178
-273.384	659.180	0.077	-0.196
-272.370	79.266	0.277	0.293
-271.355	-151.320	-0.081	-0.006
-270.340	308.358	-0.222	0.408
-269.326	-134.833	0.290	0.035
-268.311	-155.617	-0.200	0.013
-267.297	137.360	-0.063	0.082
-266.282	36.924	0.144	0.126
-265.267	-200.000	0.008	0.374
-264.253	800.000	0.066	0.227
-263.238	786.803	0.097	-0.262
-262.224	219.672	0.124	-0.196
-261.209	-72.136	-0.089	-0.033
-260.195	194.396	0.044	-0.065
-259.180	800.000	0.099	-0.420
-258.165	-200.000	-0.024	-0.389
-257.151	35.852	-0.268	-0.232
-256.136	95.063	-0.173	0.194
-255.122	83.976	0.156	0.168
-254.107	-36.738	-0.187	-0.099
-253.092	800.000	0.072	0.304
-252.078	-108.876	-0.384	-0.081
-251.063	-56.217	0.257	0.113
-250.049	-89.484	0.230	0.067
-249.034	800.000	0.045	0.177
-248.019	622.864	-0.040	0.099
-247.005	-200.000	0.031	0.180
-245.990	369.155	-0.156	0.312
-244.976	-134.812	-0.053	0.006
-243.961	33.684	0.040	-0.035
-242.946	-95.393	0.297	0.079
-241.932	-53.067	-0.206	-0.093
-240.917	-2.915	-0.270	0.186
-239.903	-107.386	-0.283	0.061
-238.888	800.000	0.051	-0.173
-237.873	-200.000	0.003	-0.403
-236.859	-30.939	0.343	-0.191
-235.844	47.763	0.236	0.217
-234.830	-200.000	0.001	0.061
-233.815	-64.252	-0.049	0.020
-232.800	493.609	0.050	-0.113
-231.786	-137.104	0.138	0.016
-230.771	147.158	0.225	-0.298
-229.757	455.906	-0.060	-0.132
-228.742	-159.826	-0.172	0.009
-227.727	212.149	-0.105	0.163
-226.713	20.112	-0.172	-0.136
-225.698	24.061	0.127	-0.104
-224.684	446.025	-0.100	-0.216
-223.669	800.000	0.054	-0.163
-222.655	79.435	0.329	-0.347
-221.640	800.000	0.035	-0.150
-220.625	-63.220	-0.233	-0.094
-219.611	-34.751	0.169	0.091
-218.596	51.521	-0.093	0.087
-217.582	291.904	-0.142	-0.255
-216.567	-67.732	0.084	0.032
-215.552	-200.000	-0.006	-0.385
-214.538	-96.019	-0.251	0.066
-213.523	-200.000	-0.021	0.130
-212.509	-36.129	-0.049	-0.026
-211.494	-56.326	0.395	-0.173
-210.479	-152.345	-0.309	0.022
-209.465	-91.118	0.152	0.043
-208.450	-75.488	-0.126	-0.044
-207.436	-200.000	-0.049	-0.318
-206.421	212.920	-0.169	0.262
-205.406	800.000	0.074	-0.294
-204.392	-200.000	-0.001	0.009
-203.377	-173.931	-0.407	0.012
-202.363	800.000	-0.058	-0.180
-201.348	463.069	-0.115	0.253
-200.333	-13.431	0.274	-0.175
-199.319	-200.000	-0.070	0.308
-198.304	-200.000	0.005	0.270
-197.290	-8.565	0.150	0.099
-196.275	158.169	-0.032	-0.044
-195.260	-79.028	0.276	-0.092
-194.246	-117.921	0.111	0.020
-193.231	-91.566	0.133	0.037
-192.217	207.238	0.324	0.497
-191.202	-174.215	-0.070	-0.002
-190.187	-12.240	0.368	0.237
-189.173	263.511	-0.088	-0.151
-188.158	800.000	-0.077	-0.233
-187.144	800.000	-0.015	0.043
-186.129	-78.388	0.116	-0.039
-185.114	736.377	0.074	0.195
-184.100	39.080	0.063	0.055
-183.085	-15.013	0.023	-0.015
-182.071	5.069	0.099	0.071
-181.056	-35.843	0.073	-0.039
-180.042	690.139	0.087	-0.223
-179.027	45.130	0.169	0.153
-178.012	800.000	-0.053	0.209
-176.998	389.073	0.108	0.219
-175.983	-116.937	-0.085	-0.015
-174.969	254.388	-0.102	0.172
-173.954	800.000	0.083	0.236
-172.939	-165.287	-0.139	-0.006
-171.925	-129.724	-0.292	0.040
-170.910	-200.000	-0.021	0.113
-169.896	163.074	0.188	0.259
-168.881	800.000	-0.051	0.144
-167.866	711.364	0.070	0.182
-166.852	-35.602	0.172	0.092
-165.837	-21.910	0.071	-0.043
-164.823	-133.011	0.206	-0.026
-163.808	-98.645	0.102	0.025
-162.793	50.108	-0.043	0.040
-161.779	-200.000	0.039	-0.237
-160.764	-115.914	-0.239	0.044
-159.750	15.917	0.126	-0.098
-158.735	-56.166	-0.328	-0.143
-157.720	82.427	-0.248	-0.265
-156.706	24.595	0.146	-0.119
-155.691	-91.644	-0.564	-0.158
-154.677	3.394	-0.325	-0.233
-153.662	-23.253	-0.251	0.149
-152.647	800.000	-0.044	0.188
-151.633	541.169	0.098	-0.229
-150.618	-15.496	-0.087	0.055
-149.604	800.000	0.118	-0.361
-148.589	-200.000	-0.002	-0.114
-147.574	-155.064	-0.185	-0.012
-146.560	61.245	-0.255	-0.248
-145.545	-118.642	-0.253	0.044
-144.531	47.796	0.199	-0.182
-143.516	-200.000	0.005	0.230
-142.502	215.475	-0.104	-0.162
-141.487	-200.000	-0.054	0.235
-140.472	-200.000	0.025	-0.360
-139.458	76.393	-0.185	0.192
-138.443	-86.159	-0.138	0.042
-137.429	784.341	-0.041	-0.111
-136.414	93.483	0.205	-0.228
-135.399	800.000	-0.086	0.248
-134.385	220.048	0.168	0.264
-133.370	55.438	-0.387	0.368
-132.356	800.000	0.019	-0.080
-131.341	-200.000	-0.016	-0.236
-130.326	186.225	-0.274	-0.400
-129.312	-0.819	0.021	-0.014
-128.297	-84.058	0.244	-0.076
-127.283	61.709	-0.078	0.076
-126.268	48.526	0.025	0.023
-125.253	379.512	0.145	-0.291
-124.239	-200.000	0.002	-0.208
-123.224	-200.000	-0.014	0.092
-122.210	507.046	-0.067	0.154
-121.195	241.856	0.151	-0.247
