DTS Sentinel unit serial number:	SN413079Multiplexer serial number:	ORYXHardware model number:	OX4-SRSoftware version number:	ORYX F/W v4.00 Oryx Data Collector v3.7.2.0data status	okinstallation	princeton_trtdifferential loss correction	single-endedforward channel	channel 4reverse channel	N/Adate	2019/09/13time	00:21:35forward acquisition time	60.00reverse acquisition time	0.00gamma	496.2192k internal	0.2317k external	0.2317temperature offset calibration	1.0171default loss term (dB/km)	0.3790temperature slope calibration	1.0000multiplexer offset coefficient	1.0000multiplexer slope coefficient	1.0000fibre end	0.00T internal ref (°C)	28.45T ext. ref 1 (°C)	3.74T ext. ref 2 (°C)	23.10length (m)	temperature (°C)	Stokes	anti-Stokes-747.200	37.448	0.235	-0.211
-746.185	-200.000	-0.050	0.305
-745.171	7.714	0.182	-0.138
-744.156	102.940	-0.211	0.250
-743.142	47.937	0.081	-0.077
-742.127	336.347	0.174	-0.341
-741.112	-103.619	0.161	0.038
-740.098	-70.763	0.107	-0.041
-739.083	-124.108	0.324	-0.051
-738.069	-120.591	-0.105	0.018
-737.054	468.266	-0.058	-0.132
-736.039	800.000	0.049	0.214
-735.025	319.328	0.153	-0.294
-734.010	-16.346	-0.397	-0.255
-732.996	-68.008	-0.236	0.093
-731.981	-200.000	-0.012	0.136
-730.966	-163.138	0.335	-0.016
-729.952	-200.000	0.006	0.098
-728.937	-89.664	-0.371	-0.110
-727.923	-103.352	-0.194	-0.046
-726.908	800.000	0.131	-0.431
-725.894	-200.000	0.254	-0.000
-724.879	-200.000	-0.026	-0.172
-723.864	-84.905	0.134	-0.043
-722.850	-40.065	0.231	-0.122
-721.835	-76.881	0.329	0.116
-720.821	-200.000	0.050	0.252
-719.806	-200.000	-0.031	0.151
-718.791	-82.158	0.203	-0.067
-717.777	800.000	-0.078	-0.321
-716.762	-88.622	0.146	0.044
-715.748	251.878	0.124	0.213
-714.733	-17.189	-0.125	0.080
-713.718	9.308	-0.129	0.098
-712.704	331.384	0.149	-0.291
-711.689	218.509	-0.101	0.163
-710.675	89.396	0.145	-0.163
-709.660	20.148	0.027	0.022
-708.645	53.276	0.198	-0.192
-707.631	66.156	0.098	0.100
-706.616	304.089	-0.188	-0.352
-705.602	-79.518	-0.057	0.020
-704.587	366.107	-0.082	-0.167
-703.572	-110.565	-0.144	-0.030
-702.558	137.350	-0.194	-0.257
-701.543	65.452	0.086	0.088
-700.529	55.486	-0.058	-0.056
-699.514	800.000	-0.024	0.085
-698.499	-200.000	-0.037	0.167
-697.485	21.684	-0.077	-0.063
-696.470	-58.806	0.045	-0.020
-695.456	-110.907	0.020	0.004
-694.441	800.000	-0.043	-0.175
-693.426	800.000	0.095	-0.321
-692.412	-37.541	0.173	0.094
-691.397	800.000	-0.074	-0.229
-690.383	-200.000	-0.049	0.259
-689.368	171.402	-0.046	-0.066
-688.354	753.700	-0.067	0.184
-687.339	-200.000	0.048	0.256
-686.324	800.000	0.022	-0.067
-685.310	-28.327	0.307	-0.179
-684.295	-94.651	0.183	0.050
-683.281	66.439	-0.155	0.159
-682.266	-13.830	-0.128	0.084
-681.251	-50.202	-0.135	0.065
-680.237	204.608	0.112	-0.175
-679.222	-172.873	0.216	0.007
-678.208	51.142	0.077	0.074
-677.193	-163.836	0.261	-0.012
-676.178	162.310	-0.168	0.238
-675.164	-14.105	-0.116	0.075
-674.149	-25.908	-0.060	0.036
-673.135	178.795	-0.042	0.062
-672.120	-200.000	-0.005	-0.054
-671.105	-142.190	0.290	0.029
-670.091	-200.000	0.042	-0.249
-669.076	250.342	0.166	-0.285
-668.062	800.000	-0.058	-0.221
-667.047	775.736	0.017	-0.048
-666.032	-27.753	0.286	-0.168
-665.018	800.000	-0.039	-0.143
-664.003	-81.382	0.302	-0.100
-662.989	19.025	0.113	0.092
-661.974	-56.774	0.155	-0.069
-660.959	36.077	-0.184	-0.164
-659.945	300.637	-0.024	0.044
-658.930	-132.796	0.051	-0.007
-657.916	39.141	0.101	-0.091
-656.901	243.729	0.143	-0.241
-655.886	69.615	0.095	0.098
-654.872	-143.634	-0.435	-0.042
-653.857	-200.000	0.004	-0.064
-652.843	704.222	0.097	0.257
-651.828	112.514	0.139	-0.170
-650.814	-23.625	-0.165	0.100
-649.799	188.598	-0.190	-0.287
-648.784	-42.427	-0.263	-0.135
-647.770	-143.353	0.170	0.016
-646.755	452.972	0.074	0.166
-645.741	-81.280	0.092	0.031
-644.726	-53.075	0.220	-0.102
-643.711	293.977	0.132	0.243
-642.697	-42.436	-0.194	0.100
-641.682	-125.630	-0.252	0.039
-640.668	157.404	0.226	0.315
-639.653	128.578	-0.066	0.085
-638.638	-62.024	-0.293	0.123
-637.624	-200.000	0.034	-0.195
-636.609	-70.071	-0.190	0.073
-635.595	374.792	0.076	0.155
-634.580	800.000	-0.013	0.056
-633.565	-34.496	0.334	0.185
-632.551	-149.752	0.169	-0.013
-631.536	481.571	0.044	0.101
-630.522	800.000	-0.124	0.408
-629.507	347.324	0.223	-0.443
-628.492	91.091	0.127	0.144
-627.478	784.683	0.079	0.219
-626.463	-105.932	-0.121	0.028
-625.449	800.000	-0.056	0.160
-624.434	45.172	0.057	-0.052
-623.419	537.585	-0.085	0.204
-622.405	-97.103	0.024	-0.006
-621.390	-200.000	0.010	-0.115
-620.376	800.000	0.132	-0.384
-619.361	-36.656	-0.283	0.154
-618.346	-120.499	-0.435	0.074
-617.332	120.030	0.067	0.084
-616.317	-200.000	0.012	-0.093
-615.303	545.126	-0.038	-0.092
-614.288	180.624	-0.137	0.202
-613.273	-200.000	0.026	-0.136
-612.259	-99.128	-0.308	0.079
-611.244	-58.595	-0.102	-0.045
-610.230	-50.717	0.134	-0.064
-609.215	-200.000	-0.018	-0.102
-608.201	-60.529	-0.257	-0.110
-607.186	-24.612	-0.080	0.048
-606.171	800.000	-0.027	-0.095
-605.157	101.635	0.215	0.252
-604.142	108.775	-0.132	-0.159
-603.128	-28.018	0.168	0.098
-602.113	114.517	-0.428	-0.525
-601.098	146.342	0.183	-0.248
-600.084	-165.158	-0.292	0.013
-599.069	3.557	-0.407	0.299
-598.055	3.071	0.110	-0.081
-597.040	-105.979	-0.323	-0.073
-596.025	33.962	0.118	0.104
-595.011	319.450	0.100	-0.191
-593.996	-67.493	0.134	-0.053
-592.982	541.249	-0.081	-0.194
-591.967	-24.126	0.119	-0.072
-590.952	0.392	-0.145	-0.104
-589.938	241.984	0.133	-0.223
-588.923	-154.795	0.476	-0.032
-587.909	800.000	0.063	0.253
-586.894	616.554	-0.071	0.180
-585.879	-48.704	-0.192	0.093
-584.865	142.431	0.132	0.176
-583.850	-67.381	-0.374	0.148
-582.836	-38.249	0.029	0.016
-581.821	-200.000	0.018	-0.173
-580.806	-47.234	0.155	-0.076
-579.792	800.000	-0.061	0.211
-578.777	372.447	0.101	-0.206
-577.763	783.218	-0.031	-0.085
-576.748	800.000	0.095	0.273
-575.733	-200.000	-0.040	-0.542
-574.719	-200.000	-0.011	0.239
-573.704	-200.000	-0.029	-0.181
-572.690	278.997	0.159	-0.286
-571.675	-22.056	0.260	0.159
-570.661	-152.752	0.377	0.027
-569.646	-56.090	0.111	-0.050
-568.631	-125.581	-0.399	0.061
-567.617	97.017	-0.222	-0.256
-566.602	35.842	-0.221	-0.195
-565.588	-59.256	-0.002	-0.001
-564.573	-9.825	0.230	0.154
-563.558	800.000	-0.021	0.082
-562.544	-126.457	-0.245	0.037
-561.529	800.000	0.048	0.190
-560.515	-50.308	-0.193	0.092
-559.500	-41.452	0.022	0.012
-558.485	514.393	0.072	-0.168
-557.471	-167.462	0.225	-0.009
-556.456	104.308	-0.195	-0.231
-555.442	-22.909	0.211	0.128
-554.427	136.877	-0.252	-0.331
-553.412	-143.172	-0.085	-0.008
-552.398	-28.023	0.258	0.150
-551.383	-2.246	-0.061	-0.043
-550.369	-185.913	-0.178	0.003
-549.354	524.318	0.044	-0.104
-548.339	-200.000	-0.081	0.374
-547.325	-16.529	-0.141	0.090
-546.310	8.491	0.084	0.064
-545.296	-200.000	-0.032	0.192
-544.281	-200.000	-0.038	-0.280
-543.266	-200.000	0.010	-0.121
-542.252	38.446	-0.074	0.067
-541.237	-77.150	-0.259	0.091
-540.223	-99.437	-0.150	-0.038
-539.208	10.931	-0.176	0.135
-538.193	51.147	0.090	-0.086
-537.179	-111.476	0.165	-0.034
-536.164	79.167	0.228	0.246
-535.150	-31.194	-0.172	0.098
-534.135	800.000	0.040	0.128
-533.121	-200.000	-0.007	0.272
-532.106	-7.731	0.282	0.191
-531.091	-106.005	-0.140	0.032
-530.077	187.264	0.092	0.138
-529.062	693.357	-0.061	-0.160
-528.048	-56.548	-0.219	-0.098
-527.033	-31.512	-0.275	0.155
-526.018	-37.406	-0.037	-0.020
-525.004	800.000	0.035	0.131
-523.989	-105.311	0.257	-0.059
-522.975	78.493	-0.311	-0.333
-521.960	-160.103	-0.122	-0.007
-520.945	-98.113	0.258	0.067
-519.931	-61.417	-0.244	0.103
-518.916	-147.175	0.193	-0.016
-517.902	652.055	0.083	0.213
-516.887	109.154	-0.131	0.158
-515.872	-200.000	-0.013	0.290
-514.858	409.026	0.108	-0.229
-513.843	800.000	-0.142	0.413
-512.829	-71.871	-0.143	-0.054
-511.814	800.000	0.074	-0.263
-510.799	-143.987	-0.354	-0.033
-509.785	93.923	-0.128	0.145
-508.770	-117.389	0.077	0.014
-507.756	-167.386	-0.132	0.005
-506.741	64.642	0.100	-0.101
-505.726	800.000	-0.035	0.141
-504.712	-200.000	0.003	0.183
-503.697	323.164	0.033	0.063
-502.683	-11.132	0.107	0.071
-501.668	254.702	-0.142	-0.244
-500.653	21.356	0.307	0.251
-499.639	75.293	0.191	-0.202
-498.624	-19.505	0.227	0.141
-497.610	112.939	-0.157	-0.191
-496.595	-130.483	0.233	-0.032
-495.581	-200.000	-0.009	-0.291
-494.566	243.738	-0.131	0.220
-493.551	32.023	-0.218	0.188
-492.537	160.062	0.020	-0.029
-491.522	433.756	0.137	-0.298
-490.508	-171.051	-0.243	0.008
-489.493	-2.732	0.122	-0.085
-488.478	-200.000	-0.020	-0.164
-487.464	-54.270	-0.370	0.168
-486.449	-122.040	0.182	-0.030
-485.435	-33.829	0.036	-0.020
-484.420	-106.722	-0.307	-0.068
-483.405	414.391	-0.086	-0.185
-482.391	-30.838	-0.282	-0.160
-481.376	265.192	-0.159	0.277
-480.362	-146.219	0.313	0.028
-479.347	-105.963	0.018	0.004
-478.332	-113.458	-0.179	0.035
-477.318	-70.151	-0.254	-0.097
-476.303	18.992	-0.151	0.122
-475.289	49.190	0.025	0.023
-474.274	-200.000	-0.015	-0.297
-473.259	317.584	-0.102	-0.193
-472.245	-18.477	0.179	-0.112
-471.230	-111.024	-0.401	0.083
-470.216	-103.869	0.276	-0.065
-469.201	747.563	0.071	-0.193
-468.186	-200.000	0.046	-0.281
-467.172	800.000	0.072	0.207
-466.157	800.000	-0.088	-0.312
-465.143	800.000	-0.042	-0.123
-464.128	55.074	0.076	0.073
-463.113	21.062	-0.288	-0.234
-462.099	-164.473	-0.390	-0.018
-461.084	-30.984	-0.238	0.135
-460.070	70.150	0.237	0.245
-459.055	-8.279	-0.040	0.027
-458.040	-200.000	-0.035	-0.214
-457.026	-175.644	0.169	0.005
-456.011	-41.490	0.172	-0.089
-454.997	-200.000	-0.014	0.392
-453.982	163.142	0.087	0.122
-452.968	288.701	0.116	-0.211
-451.953	123.455	0.171	0.215
-450.938	-62.938	0.237	0.098
-449.924	-136.282	0.082	0.010
-448.909	-99.587	0.150	-0.038
-447.895	-124.772	-0.084	-0.013
-446.880	527.300	-0.008	-0.020
-445.865	-122.253	0.129	-0.021
-444.851	150.612	0.118	0.161
-443.836	48.833	0.046	-0.043
-442.822	-200.000	0.052	-0.269
-441.807	-151.955	-0.126	-0.009
-440.792	215.384	-0.139	-0.221
-439.778	800.000	-0.046	-0.179
-438.763	-200.000	0.038	-0.365
-437.749	-200.000	-0.051	0.238
-436.734	-11.636	-0.093	-0.061
-435.719	-200.000	0.061	-0.381
-434.705	-92.345	0.124	0.035
-433.690	800.000	-0.052	0.185
-432.676	-53.984	0.304	-0.138
-431.661	-131.160	0.139	-0.019
-430.646	-160.351	0.110	-0.006
-429.632	-38.427	0.059	-0.031
-428.617	-200.000	0.014	-0.278
-427.603	-110.992	0.127	0.026
-426.588	-200.000	-0.012	-0.323
-425.573	-96.877	0.281	-0.074
-424.559	169.355	0.150	0.214
-423.544	590.700	-0.079	0.195
-422.530	-35.664	0.094	-0.051
-421.515	-37.270	-0.313	-0.167
-420.500	-200.000	-0.016	-0.076
-419.486	332.581	0.208	0.402
-418.471	800.000	0.048	0.136
-417.457	-200.000	-0.016	0.086
-416.442	48.791	0.114	0.107
-415.428	41.312	0.287	-0.260
-414.413	-174.509	-0.160	0.005
-413.398	205.329	0.130	-0.202
-412.384	-78.894	0.195	0.066
-411.369	286.644	0.174	0.314
-410.355	800.000	-0.057	0.245
-409.340	600.103	0.081	0.202
-408.325	196.515	0.209	-0.319
-407.311	-51.350	-0.247	0.115
-406.296	-200.000	0.002	0.222
-405.282	162.328	-0.045	0.063
-404.267	345.827	-0.110	-0.217
-403.252	273.965	-0.037	0.066
-402.238	-4.198	-0.060	-0.041
-401.223	-109.791	-0.111	0.023
-400.209	-130.596	-0.256	0.035
-399.194	186.758	-0.136	-0.203
-398.179	-200.000	-0.023	0.141
-397.165	-22.025	-0.268	0.163
-396.150	104.159	0.076	-0.089
-395.136	800.000	0.033	0.115
-394.121	-100.572	0.213	-0.053
-393.106	-200.000	0.029	0.194
-392.092	260.958	0.218	0.377
-391.077	-9.496	-0.207	0.138
-390.063	170.560	0.101	-0.145
-389.048	48.276	-0.085	-0.079
-388.033	0.459	-0.218	0.156
-387.019	-196.977	0.188	-0.001
-386.004	-66.535	0.204	-0.081
-384.990	-200.000	-0.001	-0.036
-383.975	-200.000	-0.002	-0.066
-382.960	390.392	-0.120	0.248
-381.946	-149.842	0.267	0.021
-380.931	-133.323	-0.281	-0.035
-379.917	68.942	0.095	0.097
-378.902	-124.635	-0.355	0.055
-377.888	800.000	0.032	0.093
-376.873	320.593	0.055	-0.104
-375.858	-53.302	-0.374	-0.171
-374.844	-76.589	0.535	0.188
-373.829	-83.330	-0.099	-0.032
-372.815	706.446	0.017	0.045
-371.800	111.851	-0.053	-0.063
-370.785	800.000	0.084	-0.327
-369.771	-200.000	0.016	0.246
-368.756	-200.000	-0.012	0.582
-367.742	-200.000	0.043	-0.226
-366.727	-200.000	0.043	-0.524
-365.712	313.995	-0.120	-0.225
-364.698	-180.984	-0.253	-0.005
-363.683	-200.000	0.016	-0.330
-362.669	251.259	0.191	-0.325
-361.654	-144.489	0.424	-0.039
-360.639	60.906	-0.050	-0.049
-359.625	800.000	-0.089	-0.285
-358.610	314.611	-0.048	-0.090
-357.596	70.071	0.028	-0.028
-356.581	-174.964	0.246	-0.007
-355.566	-200.000	0.072	0.368
-354.552	106.345	-0.072	0.085
-353.537	-200.000	0.014	0.179
-352.523	347.036	-0.043	0.085
-351.508	-144.262	0.160	-0.015
-350.493	12.390	0.304	-0.233
-349.479	-200.000	-0.024	0.288
-348.464	116.457	-0.173	0.212
-347.450	-92.255	0.251	-0.071
-346.435	-200.000	0.078	0.451
-345.420	-2.958	0.254	0.176
-344.406	281.413	-0.117	-0.210
-343.391	-181.318	0.091	-0.002
-342.377	-200.000	-0.020	0.148
-341.362	800.000	-0.089	0.313
-340.348	388.002	0.057	-0.117
-339.333	800.000	0.039	0.139
-338.318	162.126	-0.098	-0.137
-337.304	129.385	0.088	0.112
-336.289	-148.630	0.082	0.007
-335.275	490.308	-0.059	-0.136
-334.260	-200.000	0.296	-0.000
-333.245	-200.000	-0.046	0.311
-332.231	-73.020	-0.125	0.046
-331.216	800.000	-0.118	0.355
-330.202	-48.908	-0.301	0.144
-329.187	107.187	-0.088	-0.104
-328.172	454.469	-0.115	-0.254
-327.158	177.102	0.124	-0.180
-326.143	487.182	0.131	-0.297
-325.129	800.000	-0.025	-0.079
-324.114	-126.215	0.051	0.008
-323.099	132.328	-0.236	0.303
-322.085	199.572	-0.140	-0.213
-321.070	12.717	0.194	0.150
-320.056	43.230	0.097	-0.088
-319.041	-200.000	0.044	0.320
-318.026	-200.000	0.040	-0.383
-317.012	127.115	0.149	0.188
-315.997	800.000	-0.118	0.413
-314.983	206.747	-0.032	-0.049
-313.968	-149.336	-0.238	-0.019
-312.953	793.190	-0.106	0.290
-311.939	-91.348	-0.189	0.054
-310.924	480.124	-0.116	0.262
-309.910	-40.237	0.160	0.083
-308.895	-113.961	0.122	0.024
-307.880	-15.579	0.109	-0.069
-306.866	-72.078	-0.427	-0.158
-305.851	-200.000	-0.008	-0.209
-304.837	800.000	-0.089	-0.306
-303.822	333.910	0.043	-0.082
-302.807	-200.000	0.035	-0.192
-301.793	800.000	-0.021	0.060
-300.778	155.946	-0.038	0.053
-299.764	800.000	-0.049	0.136
-298.749	91.287	-0.142	0.159
-297.735	384.915	0.157	0.321
-296.720	-55.724	-0.196	-0.087
-295.705	125.269	0.174	0.219
-294.691	-200.000	0.015	-0.097
-293.676	-200.000	-0.045	0.423
-292.662	-150.320	-0.176	-0.014
-291.647	800.000	-0.090	-0.315
-290.632	-24.620	0.056	-0.033
-289.618	800.000	0.072	-0.267
-288.603	25.770	0.035	0.029
-287.589	-138.574	0.163	0.018
-286.574	-173.920	-0.394	-0.012
-285.559	29.894	0.136	0.115
-284.545	-200.000	-0.002	-0.050
-283.530	-108.250	0.318	0.068
-282.516	339.007	-0.111	0.215
-281.501	258.920	-0.108	0.186
-280.486	292.407	0.096	-0.174
-279.472	45.977	-0.099	-0.091
-278.457	-77.415	0.243	-0.084
-277.443	800.000	0.065	-0.253
-276.428	407.759	0.186	-0.390
-275.413	800.000	-0.125	-0.414
-274.399	-200.000	-0.003	0.091
-273.384	-95.190	0.255	0.068
-272.370	-31.654	-0.291	-0.162
-271.355	-68.826	0.218	0.084
-270.340	-200.000	-0.030	-0.231
-269.326	11.651	-0.148	-0.113
-268.311	800.000	0.052	-0.196
-267.297	24.502	0.331	0.272
-266.282	-200.000	-0.019	-0.093
-265.267	800.000	-0.025	-0.092
-264.253	70.129	0.138	0.142
-263.238	594.814	0.039	0.096
-262.224	322.441	0.013	-0.024
-261.209	158.421	-0.169	0.234
-260.195	-200.000	-0.054	-0.339
-259.180	800.000	0.059	-0.224
-258.165	342.998	0.180	-0.351
-257.151	61.574	-0.369	-0.364
-256.136	316.447	0.020	0.037
-255.122	-68.836	-0.125	0.048
-254.107	25.114	0.264	-0.218
-253.092	1.747	-0.111	-0.079
-252.078	544.506	-0.067	0.159
-251.063	180.154	0.137	0.199
-250.049	-86.012	-0.129	0.040
-249.034	-62.035	0.466	-0.193
-248.019	-161.893	-0.109	0.005
-247.005	-55.842	0.098	0.044
-245.990	1.893	-0.294	0.211
-244.976	800.000	0.059	0.254
-243.961	61.101	0.079	-0.078
-242.946	-137.855	0.182	-0.020
-241.932	392.316	0.106	-0.219
-240.917	-16.197	0.157	-0.099
-239.903	-103.274	0.173	0.041
-238.888	-44.905	0.136	0.067
-237.873	-200.000	0.034	0.258
-236.859	-165.035	0.105	-0.005
-235.844	-200.000	0.021	0.338
-234.830	-70.465	-0.237	0.089
-233.815	128.188	-0.092	0.116
-232.800	-200.000	-0.021	-0.155
-231.786	-200.000	0.037	-0.199
-230.771	294.040	-0.146	-0.265
-229.757	77.831	-0.168	0.178
-228.742	800.000	-0.011	0.046
-227.727	20.678	0.117	0.094
-226.713	-119.181	0.226	0.039
-225.698	-76.186	-0.110	0.039
-224.684	-88.352	-0.309	-0.092
-223.669	168.345	-0.086	-0.122
-222.655	383.723	0.109	0.222
-221.640	-151.345	-0.323	-0.024
-220.625	11.575	0.161	-0.122
-219.611	-76.648	0.111	-0.039
-218.596	-20.566	-0.155	0.094
-217.582	-71.226	0.164	-0.061
-216.567	-200.000	0.022	-0.149
-215.552	220.851	0.109	-0.173
-214.538	800.000	0.139	0.425
-213.523	-159.860	-0.090	0.005
-212.509	70.329	-0.236	-0.242
-211.494	-200.000	-0.012	0.196
-210.479	163.451	-0.062	0.086
-209.465	-73.304	0.024	0.009
-208.450	-37.639	-0.240	-0.127
-207.436	800.000	-0.065	0.231
-206.421	246.623	-0.052	-0.087
-205.406	-146.862	-0.217	0.019
-204.392	-200.000	-0.004	-0.046
-203.377	-171.547	0.211	0.007
-202.363	800.000	0.047	0.167
-201.348	-10.479	-0.268	-0.176
-200.333	-43.534	0.045	0.022
-199.319	-27.984	-0.224	-0.129
-198.304	-200.000	-0.008	0.056
-197.290	8.174	0.040	0.030
-196.275	-35.964	0.260	0.139
-195.260	-147.019	0.169	0.014
-194.246	-138.650	0.235	-0.026
-193.231	-149.923	0.025	0.002
-192.217	-86.102	0.057	-0.017
-191.202	19.849	-0.182	-0.145
-190.187	-109.806	-0.302	0.063
-189.173	-100.883	-0.219	0.053
-188.158	-64.965	-0.205	-0.082
-187.144	-200.000	0.012	0.097
-186.129	-71.437	0.157	-0.058
-185.114	63.571	-0.223	-0.221
-184.100	88.973	0.177	0.195
-183.085	-36.384	0.326	-0.174
-182.071	30.757	0.195	0.165
-181.056	122.923	0.053	0.066
-180.042	-200.000	-0.035	-0.162
-179.027	-200.000	0.013	-0.144
-178.012	453.420	-0.094	-0.206
-176.998	800.000	0.124	0.382
-175.983	-166.859	-0.123	0.005
-174.969	134.803	0.111	-0.143
-173.954	-200.000	0.039	-0.190
-172.939	60.188	0.191	0.187
-171.925	89.592	-0.113	0.125
-170.910	113.351	-0.161	-0.194
-169.896	-154.067	0.379	0.025
-168.881	25.433	0.122	0.101
-167.866	-164.373	0.354	-0.016
-166.852	-17.930	0.303	0.188
-165.837	-56.308	0.038	0.017
-164.823	1.509	-0.190	-0.135
-163.808	52.848	0.121	0.114
-162.793	-200.000	-0.033	0.174
-161.779	493.590	0.064	-0.145
-160.764	515.434	-0.106	-0.244
-159.750	-157.024	-0.040	-0.002
-158.735	-55.579	0.296	-0.131
-157.720	-67.391	-0.081	0.032
-156.706	-107.192	0.230	0.050
-155.691	600.963	-0.028	-0.070
-154.677	510.415	-0.065	-0.150
-153.662	-200.000	-0.007	0.348
-152.647	597.755	-0.021	0.051
-151.633	-200.000	-0.047	-0.226
-150.618	292.182	-0.182	-0.328
-149.604	83.585	0.110	0.119
-148.589	-38.470	0.489	0.256
-147.574	4.976	0.195	0.142
-146.560	-123.774	0.484	0.076
-145.545	40.571	0.210	-0.187
-144.531	21.838	0.197	0.159
-143.516	205.178	-0.158	0.242
-142.502	396.148	-0.039	-0.082
-141.487	-69.205	0.108	0.041
-140.472	239.899	-0.033	-0.054
-139.458	-200.000	0.014	-0.074
-138.443	-200.000	0.022	0.243
-137.429	-36.912	-0.144	0.076
-136.414	35.949	0.022	0.020
-135.399	800.000	-0.078	0.255
-134.385	3.717	0.145	-0.104
-133.370	-52.526	0.470	0.215
-132.356	195.464	0.117	0.176
-131.341	-81.975	0.056	-0.018
-130.326	35.047	-0.242	-0.210
-129.312	2.793	-0.275	0.197
-128.297	-6.271	-0.287	0.194
-127.283	596.497	0.045	0.111
-126.268	474.779	-0.141	0.315
-125.253	70.403	0.198	-0.203
-124.239	-57.490	0.036	-0.016
-123.224	28.665	-0.112	0.094
-122.210	-200.000	-0.006	-0.103
-121.195	699.812	-0.134	0.347
