DTS Sentinel unit serial number:	SN413079Multiplexer serial number:	ORYXHardware model number:	OX4-SRSoftware version number:	ORYX F/W v4.00 Oryx Data Collector v3.7.2.0data status	okinstallation	princeton_trtdifferential loss correction	single-endedforward channel	channel 4reverse channel	N/Adate	2019/09/12time	18:30:19forward acquisition time	15.00reverse acquisition time	0.00gamma	496.2192k internal	0.2307k external	0.2307temperature offset calibration	1.0131default loss term (dB/km)	0.3790temperature slope calibration	1.0000multiplexer offset coefficient	1.0000multiplexer slope coefficient	1.0000fibre end	0.00T internal ref (°C)	33.25T ext. ref 1 (°C)	2.94T ext. ref 2 (°C)	27.82length (m)	temperature (°C)	Stokes	anti-Stokes-747.200	33.889	0.563	-0.498
-746.185	671.783	-0.243	-0.641
-745.171	-98.264	-0.871	-0.227
-744.156	-112.153	-0.865	0.177
-743.142	195.550	0.258	0.399
-742.127	-86.950	1.005	-0.312
-741.112	-200.000	-0.007	-0.062
-740.098	-144.998	0.667	-0.062
-739.083	-92.163	-0.261	0.075
-738.069	-88.547	0.326	0.099
-737.054	800.000	-0.127	0.420
-736.039	327.075	-0.435	0.847
-735.025	464.268	0.308	0.699
-734.010	-149.700	-0.897	0.072
-732.996	1.004	-0.875	-0.638
-731.981	-21.164	0.300	0.187
-730.966	-38.411	-0.249	0.134
-729.952	-70.026	-0.511	-0.198
-728.937	800.000	-0.129	0.443
-727.923	508.752	0.330	-0.779
-726.908	191.748	-0.513	0.785
-725.894	246.726	-0.520	0.891
-724.879	-4.822	-0.402	0.282
-723.864	-200.000	-0.041	0.536
-722.850	-200.000	-0.035	-0.389
-721.835	61.116	0.305	0.308
-720.821	3.960	0.359	0.266
-719.806	-111.915	-0.850	0.174
-718.791	222.181	-0.117	0.191
-717.777	51.701	0.347	0.335
-716.762	75.556	-0.365	-0.392
-715.748	-200.000	0.042	0.753
-714.733	-81.467	0.412	0.138
-713.718	-18.925	-0.707	-0.447
-712.704	81.939	0.234	-0.258
-711.689	60.212	0.079	-0.080
-710.675	800.000	0.074	0.320
-709.660	-45.176	0.309	-0.156
-708.645	413.472	0.220	0.476
-707.631	-42.558	0.314	-0.162
-706.616	-79.401	-1.287	-0.442
-705.602	-20.640	-0.448	-0.279
-704.587	800.000	0.025	-0.080
-703.572	-59.802	0.527	-0.229
-702.558	208.872	-0.529	-0.840
-701.543	457.940	0.260	-0.588
-700.529	-200.000	-0.015	-0.217
-699.514	-174.632	-0.445	0.013
-698.499	-200.000	-0.069	-0.931
-697.485	-155.755	0.808	-0.052
-696.470	-127.982	-0.145	-0.021
-695.456	800.000	-0.213	-0.826
-694.441	715.917	-0.162	0.436
-693.426	-84.233	0.457	0.147
-692.412	478.471	0.557	1.281
-691.397	-49.759	0.906	0.437
-690.383	139.656	0.189	-0.253
-689.368	-0.675	0.216	-0.155
-688.354	490.300	0.186	0.433
-687.339	223.364	0.866	1.418
-686.324	165.106	-0.319	0.458
-685.310	-200.000	-0.095	-0.797
-684.295	-97.435	0.919	-0.242
-683.281	339.119	0.438	-0.866
-682.266	38.468	-0.686	-0.620
-681.251	330.124	0.212	-0.414
-680.237	199.438	-0.347	0.540
-679.222	17.724	0.306	-0.247
-678.208	-200.000	0.204	0.978
-677.193	-95.440	-0.263	0.072
-676.178	10.265	0.757	0.584
-675.164	-44.146	0.759	-0.387
-674.149	98.107	0.318	-0.371
-673.135	-57.723	0.388	0.172
-672.120	-12.884	-0.632	0.417
-671.105	-25.311	-0.436	-0.262
-670.091	647.605	-0.085	0.219
-669.076	243.277	-0.275	0.467
-668.062	-75.598	-0.487	-0.175
-667.047	696.515	-0.132	-0.351
-666.032	-200.000	0.078	-0.361
-665.018	233.411	0.382	0.637
-664.003	-154.213	-0.061	0.004
-662.989	-75.424	-0.715	0.258
-661.974	-200.000	0.052	0.236
-660.959	-114.087	0.253	-0.050
-659.945	-200.000	-0.003	-0.218
-658.930	-200.000	-0.011	-0.058
-657.916	137.252	-0.251	0.332
-656.901	-63.498	0.403	-0.168
-655.886	594.346	-0.263	-0.660
-654.872	-171.527	-0.306	0.010
-653.857	-29.143	-0.186	0.108
-652.843	-200.000	-0.060	-0.451
-651.828	-10.731	-0.518	0.347
-650.814	47.551	-0.085	0.081
-649.799	800.000	-0.294	-0.870
-648.784	-134.324	0.987	-0.123
-647.770	-200.000	-0.006	-1.046
-646.755	241.494	-0.281	-0.475
-645.741	169.680	0.064	0.092
-644.726	-200.000	0.024	0.280
-643.711	49.482	0.331	0.316
-642.697	-90.174	-0.949	0.280
-641.682	-200.000	-0.080	0.506
-640.668	174.167	0.462	0.676
-639.653	-200.000	-0.095	-0.422
-638.638	800.000	-0.207	-0.816
-637.624	328.294	-0.365	-0.710
-636.609	-200.000	-0.080	-0.510
-635.595	154.408	0.226	0.314
-634.580	8.258	0.076	-0.058
-633.565	-68.849	0.289	0.113
-632.551	-160.634	-0.365	-0.020
-631.536	263.861	-0.487	-0.857
-630.522	-82.802	0.609	-0.199
-629.507	67.851	-0.659	-0.682
-628.492	-2.954	0.536	0.379
-627.478	255.640	-0.226	0.392
-626.463	-103.456	-0.658	-0.157
-625.449	-164.516	-0.246	0.011
-624.434	-90.580	0.206	0.060
-623.419	351.006	0.433	-0.867
-622.405	364.080	-0.254	0.517
-621.390	-200.000	0.123	0.547
-620.376	-169.598	-0.289	0.011
-619.361	16.993	0.817	-0.655
-618.346	348.265	-0.291	0.580
-617.332	-71.396	-1.056	0.400
-616.317	183.232	0.193	0.288
-615.303	-12.978	-0.683	0.450
-614.288	-117.115	0.505	-0.093
-613.273	647.612	-0.193	0.500
-612.259	-200.000	-0.103	-0.585
-611.244	-200.000	-0.005	-0.730
-610.230	-83.050	-0.042	-0.014
-609.215	-119.932	-0.705	-0.122
-608.201	800.000	0.106	0.329
-607.186	800.000	0.246	-0.835
-606.171	-112.235	-0.424	-0.086
-605.157	202.729	0.150	-0.234
-604.142	-60.694	-0.814	0.349
-603.128	-150.921	-1.067	0.082
-602.113	393.328	0.318	-0.669
-601.098	800.000	0.101	-0.327
-600.084	312.606	-0.147	0.279
-599.069	-200.000	0.003	-0.530
-598.055	116.452	0.044	-0.054
-597.040	-134.868	-0.986	-0.121
-596.025	19.298	0.488	0.396
-595.011	-124.614	-0.680	-0.107
-593.996	-76.640	-0.416	0.147
-592.982	450.374	-0.169	-0.377
-591.967	19.730	-0.070	0.057
-590.952	-200.000	-0.012	0.235
-589.938	-200.000	0.017	0.189
-588.923	800.000	0.139	0.597
-587.909	57.759	0.489	-0.484
-586.894	800.000	-0.130	0.386
-585.879	64.012	-0.829	-0.843
-584.865	-18.282	-0.500	-0.316
-583.850	-128.685	0.259	0.037
-582.836	-76.289	-0.974	-0.347
-581.821	-200.000	-0.045	0.644
-580.806	-89.106	-0.452	-0.135
-579.792	442.629	0.206	0.456
-578.777	143.930	-0.471	0.635
-577.763	-2.203	-0.647	0.459
-576.748	-100.100	0.558	-0.140
-575.733	182.533	-0.246	-0.367
-574.719	375.879	-0.184	0.379
-573.704	206.280	-0.079	-0.124
-572.690	541.401	-0.110	0.266
-571.675	-200.000	-0.123	-0.675
-570.661	800.000	0.219	-0.870
-569.646	-200.000	-0.011	-0.517
-568.631	800.000	-0.108	0.360
-567.617	295.899	-0.337	0.623
-566.602	-200.000	-0.035	0.657
-565.588	178.331	0.344	-0.507
-564.573	141.650	-0.406	0.543
-563.558	191.223	-0.225	0.341
-562.544	199.160	-0.129	-0.199
-561.529	449.780	-0.084	0.186
-560.515	-29.858	0.494	-0.285
-559.500	-16.105	0.348	0.224
-558.485	238.085	0.387	0.648
-557.471	-33.645	0.569	0.317
-556.456	-63.518	0.576	-0.239
-555.442	-118.441	-0.662	-0.118
-554.427	-112.890	-0.844	-0.169
-553.412	92.584	-0.608	-0.692
-552.398	800.000	0.066	0.234
-551.383	-83.747	0.831	-0.268
-550.369	-9.079	0.959	0.648
-549.354	-32.780	-0.540	0.303
-548.339	33.796	0.284	0.250
-547.325	-200.000	-0.061	0.356
-546.310	-57.484	-0.737	-0.326
-545.296	800.000	-0.109	0.474
-544.281	-165.970	-0.315	0.014
-543.266	-200.000	-0.496	0.001
-542.252	214.147	0.333	0.532
-541.237	29.397	0.436	-0.374
-540.223	-91.202	-0.708	-0.205
-539.208	115.029	-0.104	0.129
-538.193	149.167	0.148	0.202
-537.179	800.000	-0.136	0.416
-536.164	-34.073	0.484	-0.268
-535.150	-46.018	-0.631	0.314
-534.135	186.448	0.442	-0.663
-533.121	-200.000	-0.134	-0.780
-532.106	-76.245	0.967	0.344
-531.091	-8.041	-0.217	0.147
-530.077	-195.258	0.880	-0.007
-529.062	-200.000	0.083	0.603
-528.048	95.027	-0.692	0.795
-527.033	103.881	-0.341	0.403
-526.018	2.923	-0.675	0.494
-525.004	66.230	0.603	0.617
-523.989	-43.081	0.325	-0.166
-522.975	-200.000	0.020	-0.098
-521.960	32.649	0.437	0.381
-520.945	-200.000	0.051	-0.418
-519.931	-99.586	-0.616	-0.156
-518.916	340.716	0.125	-0.246
-517.902	-200.000	0.119	-0.678
-516.887	-200.000	-0.051	0.387
-515.872	-56.161	-0.973	-0.437
-514.858	-200.000	-0.031	-0.184
-513.843	800.000	-0.228	0.798
-512.829	45.292	0.537	-0.500
-511.814	-118.024	0.609	0.110
-510.799	119.223	-0.583	0.727
-509.785	-200.000	-0.003	-0.031
-508.770	-200.000	-0.061	-0.404
-507.756	353.778	-0.131	-0.262
-506.741	-36.047	0.372	-0.203
-505.726	108.726	-0.694	-0.835
-504.712	-120.664	-0.875	-0.149
-503.697	-7.956	-0.851	-0.578
-502.683	-200.000	-0.154	0.915
-501.668	-200.000	-0.031	-0.876
-500.653	-200.000	0.144	-0.724
-499.639	128.259	0.506	0.648
-498.624	-200.000	0.021	-0.821
-497.610	-200.000	-0.038	0.550
-496.595	560.001	0.257	0.625
-495.581	13.610	-0.210	0.164
-494.566	-7.255	0.472	0.322
-493.551	800.000	0.143	0.632
-492.537	3.561	-0.636	0.467
-491.522	459.230	0.366	0.819
-490.508	-120.731	-0.392	-0.067
-489.493	-24.263	-0.625	0.376
-488.478	81.441	0.499	-0.543
-487.464	-49.699	-0.797	0.381
-486.449	-54.407	-0.178	0.081
-485.435	-145.441	0.794	0.072
-484.420	-73.155	0.667	0.246
-483.405	756.050	-0.086	-0.235
-482.391	-53.384	-0.274	0.126
-481.376	-58.678	0.408	-0.178
-480.362	-97.382	-0.804	-0.211
-479.347	249.258	0.517	0.881
-478.332	-78.615	-0.552	-0.190
-477.318	-200.000	0.037	-0.176
-476.303	-74.103	0.627	-0.228
-475.289	-15.601	0.177	0.114
-474.274	51.244	-0.669	0.639
-473.259	-151.779	-0.512	0.038
-472.245	-0.320	-0.379	-0.271
-471.230	-200.000	0.101	-0.713
-470.216	-29.763	0.676	-0.388
-469.201	800.000	0.100	0.396
-468.186	157.003	-0.662	0.921
-467.172	800.000	-0.133	-0.417
-466.157	-98.716	0.543	0.139
-465.143	-30.254	-0.362	0.207
-464.128	195.530	0.327	-0.499
-463.113	-123.567	0.544	0.087
-462.099	-14.978	-0.615	-0.397
-461.084	125.368	0.159	-0.201
-460.070	800.000	0.064	0.244
-459.055	41.255	0.509	0.462
-458.040	693.334	0.064	-0.170
-457.026	-18.130	0.542	0.341
-456.011	-117.716	0.256	0.046
-454.997	430.757	-0.052	-0.114
-453.982	800.000	0.128	-0.400
-452.968	-200.000	0.023	0.466
-451.953	-136.685	0.142	-0.016
-450.938	237.224	-0.094	0.157
-449.924	800.000	-0.080	0.343
-448.909	170.700	-0.236	-0.340
-447.895	-31.380	-0.045	-0.025
-446.880	-164.066	0.364	0.017
-445.865	6.423	-0.851	-0.636
-444.851	-69.371	-0.422	0.163
-443.836	55.057	-0.297	0.289
-442.822	291.587	-0.151	-0.275
-441.807	-60.060	-0.482	-0.207
-440.792	556.889	-0.171	0.414
-439.778	-200.000	0.044	0.368
-438.763	-194.965	-0.312	-0.002
-437.749	-101.453	-0.175	-0.043
-436.734	5.495	0.366	0.271
-435.719	172.534	0.317	0.458
-434.705	-200.000	0.117	0.935
-433.690	-162.120	0.454	-0.023
-432.676	248.068	0.244	0.415
-431.661	-133.199	-0.481	0.061
-430.646	-127.181	0.668	0.098
-429.632	800.000	0.212	-0.689
-428.617	-48.278	1.190	-0.576
-427.603	-200.000	0.039	0.170
-426.588	800.000	0.062	-0.206
-425.573	229.463	0.318	0.522
-424.559	463.828	-0.336	-0.755
-423.544	151.924	-0.375	-0.514
-422.530	-45.622	0.121	-0.060
-421.515	267.731	-0.283	0.497
-420.500	-98.303	-0.275	0.071
-419.486	-200.000	0.042	-0.831
-418.471	-4.967	-0.338	-0.234
-417.457	-200.000	0.016	-0.329
-416.442	-200.000	0.037	-0.770
-415.428	-200.000	-0.058	0.647
-414.413	-161.983	0.460	0.023
-413.398	399.052	0.145	0.304
-412.384	-140.510	-0.416	0.043
-411.369	-40.959	0.546	0.284
-410.355	311.303	-0.309	0.582
-409.340	-134.482	-0.363	0.045
-408.325	-69.884	0.211	0.081
-407.311	182.572	0.164	0.243
-406.296	-115.800	-0.373	0.070
-405.282	-17.399	-0.381	-0.240
-404.267	-97.640	-0.155	0.040
-403.252	313.382	0.267	0.504
-402.238	24.881	0.796	0.662
-401.223	-30.362	0.300	0.171
-400.209	20.912	0.929	-0.756
-399.194	55.372	-0.173	-0.168
-398.179	-148.504	0.814	-0.067
-397.165	-200.000	0.013	0.338
-396.150	-22.014	-0.413	0.252
-395.136	-85.284	0.434	-0.136
-394.121	391.580	0.381	-0.794
-393.106	-153.297	0.441	-0.031
-392.092	-77.361	0.360	0.126
-391.077	509.981	-0.219	0.511
-390.063	-109.951	0.281	-0.059
-389.048	-49.260	-0.714	0.342
-388.033	60.959	-0.408	0.406
-387.019	-200.000	-0.059	-0.316
-386.004	54.091	0.334	0.322
-384.990	193.560	-0.644	-0.977
-383.975	67.152	-0.459	-0.469
-382.960	-200.000	0.958	-0.005
-381.946	587.883	-0.299	-0.739
-380.931	-49.318	0.459	-0.220
-379.917	800.000	-0.350	-1.002
-378.902	649.408	-0.228	0.585
-377.888	561.551	0.204	-0.494
-376.873	-200.000	-0.141	0.860
-375.858	-28.316	0.211	0.122
-374.844	65.246	0.483	-0.489
-373.829	-113.500	-0.842	-0.165
-372.815	141.465	-0.274	-0.363
-371.800	800.000	0.131	0.486
-370.785	-129.959	1.318	-0.181
-369.771	45.390	0.092	0.085
-368.756	-91.944	-0.154	-0.044
-367.742	28.038	0.288	-0.243
-366.727	39.807	-0.105	-0.094
-365.712	322.620	0.153	0.292
-364.698	-127.798	0.643	-0.093
-363.683	40.724	0.609	-0.550
-362.669	-109.033	0.424	0.091
-361.654	444.430	-0.321	0.705
-360.639	-11.469	0.293	0.193
-359.625	-200.000	-0.033	-0.568
-358.610	-56.539	-0.486	-0.216
-357.596	-143.873	-0.816	0.077
-356.581	608.392	-0.313	0.782
-355.566	-139.109	-0.470	0.051
-354.552	302.818	-0.243	0.450
-353.537	800.000	0.163	0.453
-352.523	-129.697	-0.970	-0.134
-351.508	112.786	0.172	0.208
-350.493	296.268	-0.193	-0.354
-349.479	45.543	-0.226	-0.209
-348.464	-56.788	0.491	-0.217
-347.450	172.497	-0.156	-0.225
-346.435	-200.000	0.018	-0.599
-345.420	66.277	-0.187	-0.190
-344.406	-200.000	0.051	0.701
-343.391	117.219	-0.322	0.396
-342.377	-17.372	-0.783	0.493
-341.362	475.309	-0.236	0.534
-340.348	135.357	-0.588	-0.765
-339.333	-43.374	0.422	0.214
-338.318	102.399	-0.327	0.383
-337.304	-92.600	0.299	0.084
-336.289	-66.135	0.815	-0.325
-335.275	34.724	0.382	-0.334
-334.260	74.271	-0.045	-0.048
-333.245	71.719	0.684	-0.711
-332.231	800.000	0.025	-0.109
-331.216	-166.769	0.811	0.033
-330.202	-26.424	-0.323	-0.190
-329.187	-26.625	-0.218	0.127
-328.172	45.170	0.282	0.260
-327.158	192.217	0.261	0.394
-326.143	-200.000	0.050	-0.269
-325.129	-200.000	0.032	-0.293
-324.114	484.560	0.242	-0.552
-323.099	-133.189	0.070	-0.009
-322.085	-200.000	0.291	-0.001
-321.070	800.000	0.114	0.367
-320.056	800.000	0.446	-1.302
-319.041	-200.000	0.895	0.003
-318.026	-200.000	0.058	0.416
-317.012	-200.000	-0.107	0.797
-315.997	-186.457	0.195	-0.003
-314.983	9.577	0.691	0.523
-313.968	-148.409	0.495	0.041
-312.953	-180.687	0.866	-0.018
-311.939	-152.441	0.551	0.040
-310.924	204.180	0.128	-0.198
-309.910	50.227	-0.842	-0.795
-308.895	-131.781	0.337	-0.044
-307.880	101.030	-0.147	0.171
-306.866	-104.035	0.449	-0.105
-305.851	-9.508	0.190	-0.127
-304.837	13.060	0.351	-0.272
-303.822	-108.646	0.409	-0.088
-302.807	-65.635	0.342	0.137
-301.793	-200.000	0.152	0.736
-300.778	-117.575	-0.806	0.145
-299.764	86.100	-0.324	-0.357
-298.749	203.177	0.337	-0.520
-297.735	-142.561	0.083	0.008
-296.720	42.233	0.268	0.244
-295.705	402.957	-0.182	0.383
-294.691	-104.699	-0.157	0.036
-293.676	314.687	0.298	-0.560
-292.662	-161.721	-0.264	0.013
-291.647	40.582	0.388	0.350
-290.632	-200.000	0.140	0.652
-289.618	136.616	-0.144	-0.187
-288.603	-87.526	-0.130	-0.039
-287.589	800.000	-0.114	0.447
-286.574	-32.233	-0.186	0.104
-285.559	790.416	0.291	-0.798
-284.545	-200.000	-0.558	0.002
-283.530	21.735	0.221	0.180
-282.516	164.171	-0.439	-0.618
-281.501	-200.000	-0.065	-0.648
-280.486	-178.023	0.817	-0.019
-279.472	800.000	0.158	-0.624
-278.457	120.920	-0.222	-0.275
-277.443	407.108	-0.193	-0.408
-276.428	233.654	-0.107	0.175
-275.413	-200.000	-0.140	0.742
-274.399	149.267	0.196	0.265
-273.384	31.997	-0.518	0.445
-272.370	73.550	-0.362	0.378
-271.355	-76.752	0.728	0.255
-270.340	800.000	-0.097	-0.279
-269.326	-41.512	-0.202	-0.104
-268.311	302.801	-0.487	0.900
-267.297	211.178	0.366	0.575
-266.282	-110.551	0.474	-0.098
-265.267	-200.000	-0.019	-0.186
-264.253	33.561	0.480	0.416
-263.238	419.989	0.238	-0.509
-262.224	194.212	0.365	-0.552
-261.209	-200.000	0.024	0.357
-260.195	47.975	0.728	0.679
-259.180	-40.808	0.463	0.239
-258.165	800.000	0.251	0.789
-257.151	82.544	-0.214	0.232
-256.136	432.212	0.160	0.346
-255.122	321.056	-0.207	-0.392
-254.107	-58.597	0.201	0.087
-253.092	-141.199	-0.361	-0.037
-252.078	-38.400	-0.895	0.472
-251.063	-200.000	-0.023	0.201
-250.049	57.976	0.277	0.271
-249.034	-104.023	-0.250	0.058
-248.019	-200.000	0.028	0.472
-247.005	-4.180	0.347	-0.240
-245.990	-1.411	0.689	-0.485
-244.976	475.290	-0.130	-0.294
-243.961	182.975	0.432	-0.636
-242.946	-172.162	-0.115	0.004
-241.932	151.443	-0.355	0.482
-240.917	-58.101	0.137	0.059
-239.903	-200.000	0.021	-0.159
-238.888	-200.000	-0.300	-1.360
-237.873	551.339	0.189	0.452
-236.859	7.917	-0.325	-0.243
-235.844	144.590	-0.231	0.307
-234.830	314.095	-0.299	0.560
-233.815	-67.678	-0.519	0.202
-232.800	-36.920	0.828	-0.442
-231.786	379.015	-0.376	-0.767
-230.771	-76.334	-0.582	0.204
-229.757	-52.553	-0.491	-0.226
-228.742	-36.117	-0.226	-0.122
-227.727	723.380	0.304	-0.806
-226.713	800.000	0.106	-0.413
-225.698	293.738	-0.355	-0.645
-224.684	442.547	0.062	-0.135
-223.669	494.042	-0.042	0.097
-222.655	371.724	0.241	0.488
-221.640	800.000	-0.206	-0.621
-220.625	-105.238	-0.754	-0.171
-219.611	-200.000	0.048	-1.105
-218.596	-200.000	0.012	0.176
-217.582	800.000	0.087	0.268
-216.567	308.803	-0.407	-0.757
-215.552	391.289	-0.321	-0.663
-214.538	640.674	0.233	0.592
-213.523	115.648	-0.432	-0.526
-212.509	-200.000	0.077	0.613
-211.494	-69.234	0.150	-0.057
-210.479	20.405	0.203	-0.164
-209.465	-200.000	0.184	0.826
-208.450	278.459	0.253	-0.449
-207.436	31.066	-0.132	-0.113
-206.421	527.331	-0.132	-0.309
-205.406	-10.967	-0.382	0.251
-204.392	-88.763	0.407	-0.120
-203.377	446.468	0.120	-0.262
-202.363	40.334	0.175	-0.157
-201.348	343.190	0.546	1.065
-200.333	558.220	0.230	0.553
-199.319	-200.000	0.019	-0.636
-198.304	-25.184	-0.235	0.139
-197.290	-57.963	0.416	0.181
-196.275	-200.000	-0.184	0.829
-195.260	4.284	-0.342	-0.250
-194.246	800.000	0.201	-0.674
-193.231	111.851	-0.092	-0.111
-192.217	-83.500	0.037	0.012
-191.202	148.233	0.610	0.820
-190.187	-200.000	0.038	-0.178
-189.173	-152.677	-0.023	0.002
-188.158	-19.634	-0.185	0.114
-187.144	-200.000	0.095	-0.732
-186.129	-64.752	0.131	0.053
-185.114	-191.413	-0.283	0.003
-184.100	103.381	-0.123	-0.144
-183.085	800.000	0.357	-1.076
-182.071	-139.374	0.764	-0.082
-181.056	-5.906	-0.087	0.059
-180.042	-29.551	0.450	0.256
-179.027	800.000	-0.043	0.147
-178.012	276.048	-0.198	0.349
-176.998	71.747	-0.337	0.349
-175.983	-18.541	0.576	0.357
-174.969	-16.650	-0.650	0.409
-173.954	-200.000	0.225	-0.001
-172.939	-200.000	-0.041	-0.544
-171.925	67.377	0.344	0.349
-170.910	523.577	0.088	0.206
-169.896	278.602	-0.240	-0.426
-168.881	-200.000	-0.090	-0.688
-167.866	-61.908	0.799	-0.332
-166.852	-200.000	0.087	-0.821
-165.837	449.170	-0.492	1.078
-164.823	800.000	0.183	0.527
-163.808	393.188	0.171	0.353
-162.793	-124.729	-0.436	0.067
-161.779	-200.000	-0.045	-0.543
-160.764	-200.000	0.031	0.235
-159.750	-84.314	0.189	-0.059
-158.735	-127.117	-0.312	-0.045
-157.720	232.321	0.317	-0.517
-156.706	615.592	0.198	0.494
-155.691	623.243	0.155	0.387
-154.677	-89.238	0.080	-0.023
-153.662	380.112	-0.225	0.459
-152.647	-200.000	-0.117	0.848
-151.633	-6.728	0.177	0.120
-150.618	-142.641	-0.331	0.032
-149.604	800.000	0.161	0.533
-148.589	-200.000	-0.135	0.629
-147.574	-64.477	0.867	-0.350
-146.560	33.158	-0.247	0.213
-145.545	-200.000	0.024	-0.150
-144.531	56.095	0.532	0.513
-143.516	-190.308	0.400	-0.004
-142.502	24.135	-0.886	-0.727
-141.487	-94.187	0.648	-0.176
-140.472	-133.329	0.253	-0.032
-139.458	-200.000	0.226	0.001
-138.443	-200.000	-0.035	-0.532
-137.429	187.866	-0.223	0.331
-136.414	52.633	-0.133	-0.126
-135.399	121.287	-0.284	-0.351
-134.385	-6.953	-0.407	-0.274
-133.370	-200.000	-0.042	-0.669
-132.356	800.000	0.266	0.786
-131.341	-59.020	0.262	-0.112
-130.326	-12.025	-0.494	-0.321
-129.312	-14.223	-0.229	-0.146
-128.297	172.849	0.416	0.595
-127.283	-60.042	-0.392	-0.166
-126.268	172.866	-0.455	-0.651
-125.253	9.965	0.299	0.225
-124.239	-200.000	-0.009	-0.130
-123.224	6.753	-0.232	-0.171
-122.210	-200.000	-0.149	0.958
-121.195	106.586	-0.436	-0.513
