DTS Sentinel unit serial number:	SN413079Multiplexer serial number:	ORYXHardware model number:	OX4-SRSoftware version number:	ORYX F/W v4.00 Oryx Data Collector v3.7.2.0data status	okinstallation	princeton_trtdifferential loss correction	single-endedforward channel	channel 4reverse channel	N/Adate	2019/09/17time	20:01:35forward acquisition time	60.00reverse acquisition time	0.00gamma	496.2192k internal	0.2315k external	0.2315temperature offset calibration	0.9986default loss term (dB/km)	0.3790temperature slope calibration	1.0000multiplexer offset coefficient	1.0000multiplexer slope coefficient	1.0000fibre end	0.00T internal ref (°C)	33.14T ext. ref 1 (°C)	0.23T ext. ref 2 (°C)	22.92length (m)	temperature (°C)	Stokes	anti-Stokes-747.200	223.346	-0.113	0.185
-746.185	-200.000	-0.005	-0.319
-745.171	189.341	0.177	-0.269
-744.156	-91.342	0.265	-0.077
-743.142	-21.751	-0.198	-0.122
-742.127	775.511	-0.070	0.194
-741.112	-168.380	-0.236	-0.009
-740.098	-39.296	-0.309	0.164
-739.083	-200.000	-0.004	0.164
-738.069	-52.839	-0.230	-0.108
-737.054	702.814	0.047	-0.126
-736.039	54.215	-0.159	-0.155
-735.025	-71.064	-0.306	-0.117
-734.010	68.505	-0.089	0.092
-732.996	265.600	0.250	0.441
-731.981	-18.037	0.141	0.089
-730.966	-22.056	0.202	-0.124
-729.952	800.000	0.026	0.107
-728.937	139.309	0.256	-0.342
-727.923	531.996	-0.027	0.065
-726.908	143.568	-0.093	0.126
-725.894	800.000	-0.073	0.214
-724.879	42.998	0.097	0.090
-723.864	-115.584	-0.265	0.050
-722.850	-23.689	-0.054	0.033
-721.835	-200.000	0.001	-0.332
-720.821	-200.000	-0.014	-0.132
-719.806	11.259	-0.236	0.183
-718.791	-137.098	0.122	-0.014
-717.777	800.000	0.014	0.046
-716.762	-55.386	0.251	-0.114
-715.748	-114.312	0.221	-0.043
-714.733	-108.163	-0.265	-0.058
-713.718	-141.026	0.229	0.024
-712.704	-124.156	0.104	0.016
-711.689	-104.983	-0.175	-0.041
-710.675	-93.362	0.059	-0.017
-709.660	-200.000	-0.007	-0.221
-708.645	-28.969	0.327	0.190
-707.631	-72.326	0.215	0.081
-706.616	-200.000	-0.017	0.086
-705.602	127.539	0.286	0.367
-704.587	308.909	0.098	0.185
-703.572	-200.000	-0.053	0.393
-702.558	-200.000	-0.259	-0.000
-701.543	-6.130	0.168	-0.116
-700.529	-48.075	0.227	-0.111
-699.514	96.104	-0.369	-0.426
-698.499	800.000	0.075	0.243
-697.485	800.000	0.027	0.082
-696.470	-60.291	0.035	-0.015
-695.456	-49.388	0.137	-0.066
-694.441	-169.919	-0.102	0.004
-693.426	55.714	-0.096	-0.094
-692.412	617.681	0.093	0.236
-691.397	16.312	-0.074	-0.059
-690.383	-191.093	-0.284	-0.003
-689.368	-72.991	-0.185	0.069
-688.354	-68.386	0.325	0.127
-687.339	117.519	0.331	0.412
-686.324	106.262	-0.066	-0.079
-685.310	89.109	-0.040	0.045
-684.295	77.285	-0.323	-0.347
-683.281	-161.553	-0.198	0.010
-682.266	412.782	0.101	0.217
-681.251	-200.000	-0.008	0.286
-680.237	504.883	-0.183	-0.429
-679.222	-200.000	-0.036	-0.308
-678.208	-48.890	-0.342	-0.166
-677.193	-200.000	0.009	0.041
-676.178	-159.712	0.250	0.014
-675.164	-200.000	-0.010	0.169
-674.149	10.882	-0.117	0.091
-673.135	204.958	0.212	0.333
-672.120	-200.000	0.015	-0.255
-671.105	-93.467	-0.240	0.067
-670.091	138.076	0.202	-0.267
-669.076	195.865	-0.031	0.048
-668.062	800.000	0.037	-0.144
-667.047	180.205	-0.113	-0.168
-666.032	-17.007	0.123	0.078
-665.018	-42.396	-0.157	0.081
-664.003	800.000	0.070	-0.261
-662.989	-73.726	-0.241	0.089
-661.974	431.071	0.090	-0.198
-660.959	47.500	0.087	0.081
-659.945	102.401	-0.114	-0.135
-658.930	-200.000	-0.020	-0.199
-657.916	-18.194	0.339	-0.214
-656.901	90.121	-0.106	-0.120
-655.886	-47.513	-0.030	0.015
-654.872	-59.837	-0.207	-0.089
-653.857	-41.056	-0.111	-0.058
-652.843	539.415	0.068	-0.163
-651.828	-78.302	-0.435	-0.151
-650.814	-91.766	-0.107	-0.031
-649.799	-48.323	0.129	-0.063
-648.784	358.215	-0.110	0.221
-647.770	800.000	0.042	0.169
-646.755	26.624	-0.072	0.061
-645.741	725.699	0.060	-0.161
-644.726	487.139	-0.039	-0.091
-643.711	-28.980	0.245	0.142
-642.697	-200.000	-0.014	-0.261
-641.682	-6.618	0.008	0.005
-640.668	23.853	-0.229	0.191
-639.653	-200.000	-0.005	0.187
-638.638	-131.126	-0.049	-0.007
-637.624	-35.293	0.361	0.198
-636.609	167.765	0.189	-0.271
-635.595	121.364	-0.121	0.153
-634.580	-120.915	0.177	0.030
-633.565	794.979	0.149	0.414
-632.551	-200.000	0.008	0.246
-631.536	60.001	-0.211	-0.211
-630.522	49.242	0.178	-0.169
-629.507	99.554	0.153	-0.179
-628.492	-29.732	0.325	0.187
-627.478	-44.125	-0.131	0.067
-626.463	-104.147	0.373	-0.087
-625.449	196.327	0.230	0.353
-624.434	604.999	-0.128	0.321
-623.419	-101.969	-0.096	0.023
-622.405	-200.000	0.087	-0.448
-621.390	399.315	-0.105	-0.222
-620.376	57.180	-0.118	-0.116
-619.361	-200.000	-0.001	-0.058
-618.346	800.000	-0.057	-0.186
-617.332	-75.167	-0.160	-0.058
-616.317	35.699	-0.385	-0.341
-615.303	437.495	-0.122	-0.268
-614.288	-62.274	-0.275	0.116
-613.273	-28.623	0.161	-0.093
-612.259	235.520	-0.026	0.044
-611.244	647.776	-0.058	0.150
-610.230	-200.000	0.028	0.216
-609.215	-22.226	-0.127	-0.078
-608.201	-21.263	0.147	-0.091
-607.186	-55.721	-0.112	0.051
-606.171	53.346	0.345	0.333
-605.157	13.122	0.281	0.219
-604.142	-16.134	0.229	-0.147
-603.128	317.272	0.108	0.205
-602.113	-200.000	-0.091	0.466
-601.098	800.000	0.032	-0.131
-600.084	800.000	0.012	-0.035
-599.069	-123.821	-0.329	-0.052
-598.055	441.387	-0.093	-0.206
-597.040	9.847	-0.182	-0.139
-596.025	197.812	0.120	-0.185
-595.011	-150.564	0.240	0.019
-593.996	191.149	-0.087	-0.132
-592.982	415.607	0.173	0.372
-591.967	-200.000	-0.042	0.277
-590.952	-20.034	-0.164	-0.102
-589.938	-175.462	-0.499	-0.014
-588.923	-200.000	-0.035	0.331
-587.909	-123.546	-0.251	-0.040
-586.894	-200.000	0.007	-0.109
-585.879	143.135	0.174	0.233
-584.865	-120.284	0.055	0.009
-583.850	-123.478	0.333	-0.053
-582.836	-45.992	-0.187	0.093
-581.821	302.073	0.155	0.289
-580.806	-135.797	-0.329	0.039
-579.792	433.056	0.076	0.165
-578.777	66.644	0.293	0.300
-577.763	-200.000	-0.055	-0.329
-576.748	-106.084	0.212	-0.048
-575.733	-60.980	0.186	-0.079
-574.719	639.704	0.041	-0.105
-573.704	-200.000	0.014	0.330
-572.690	186.499	-0.231	0.346
-571.675	17.147	-0.213	0.170
-570.661	71.049	0.047	-0.049
-569.646	-200.000	0.041	-0.251
-568.631	359.458	-0.114	0.229
-567.617	-101.766	-0.110	0.027
-566.602	-200.000	0.050	0.325
-565.588	-65.704	0.136	-0.055
-564.573	58.125	0.169	-0.167
-563.558	48.177	0.076	0.071
-562.544	574.796	0.021	-0.051
-561.529	78.465	0.230	-0.247
-560.515	552.834	0.141	-0.341
-559.500	290.457	-0.213	0.389
-558.485	2.790	-0.115	0.084
-557.471	-63.273	-0.107	-0.044
-556.456	-200.000	-0.015	-0.299
-555.442	-72.549	-0.161	-0.060
-554.427	79.619	0.225	0.243
-553.412	60.360	0.066	0.065
-552.398	111.927	0.170	-0.207
-551.383	307.484	-0.124	0.232
-550.369	-70.833	-0.186	0.071
-549.354	322.292	0.170	0.325
-548.339	-200.000	-0.001	0.560
-547.325	-200.000	-0.053	0.408
-546.310	50.774	-0.098	0.094
-545.296	-49.897	-0.138	0.066
-544.281	120.804	0.105	0.132
-543.266	-200.000	-0.088	0.565
-542.252	-85.627	-0.229	0.071
-541.237	-33.935	-0.156	-0.086
-540.223	-200.000	-0.002	0.447
-539.208	292.131	0.227	-0.416
-538.193	800.000	-0.054	-0.214
-537.179	-200.000	0.008	0.046
-536.164	70.844	0.105	-0.109
-535.150	184.034	0.146	0.217
-534.135	-65.597	0.165	-0.067
-533.121	800.000	-0.072	-0.226
-532.106	202.276	-0.311	-0.482
-531.091	-200.000	-0.002	0.097
-530.077	-200.000	-0.010	0.237
-529.062	-200.000	0.032	0.156
-528.048	800.000	-0.121	0.391
-527.033	-71.133	0.115	-0.044
-526.018	-200.000	0.002	0.072
-525.004	4.805	0.088	-0.065
-523.989	396.268	0.081	-0.170
-522.975	137.974	0.055	-0.072
-521.960	-20.340	0.145	-0.090
-520.945	-49.495	0.318	-0.152
-519.931	171.543	0.088	-0.127
-518.916	756.709	0.036	0.099
-517.902	-81.202	0.138	0.046
-516.887	-52.919	-0.243	-0.112
-515.872	-200.000	-0.010	-0.142
-514.858	-200.000	0.048	0.261
-513.843	93.683	-0.217	-0.247
-512.829	11.339	0.252	0.194
-511.814	800.000	0.018	0.056
-510.799	-134.615	0.284	0.035
-509.785	-200.000	-0.014	-0.222
-508.770	-120.219	-0.269	0.046
-507.756	-158.622	-0.229	-0.013
-506.741	355.319	-0.126	-0.252
-505.726	-200.000	0.030	-0.183
-504.712	-130.678	0.028	0.004
-503.697	-27.632	0.198	-0.115
-502.683	-200.000	-0.001	0.131
-501.668	8.393	0.330	-0.249
-500.653	426.194	0.042	-0.091
-499.639	800.000	0.042	0.140
-498.624	299.470	-0.080	-0.147
-497.610	121.077	-0.075	-0.094
-496.595	800.000	0.096	0.397
-495.581	-129.914	-0.234	0.032
-494.566	148.273	0.233	0.315
-493.551	-5.310	-0.262	-0.181
-492.537	163.807	-0.026	-0.036
-491.522	250.080	-0.140	-0.238
-490.508	-200.000	0.018	0.152
-489.493	43.699	0.173	0.158
-488.478	-5.899	0.091	-0.062
-487.464	109.885	0.070	0.085
-486.449	30.701	-0.135	0.116
-485.435	-103.205	-0.251	-0.059
-484.420	-93.943	-0.203	-0.056
-483.405	-200.000	-0.016	0.350
-482.391	629.402	0.062	-0.158
-481.376	-200.000	-0.044	0.283
-480.362	-200.000	-0.014	0.117
-479.347	800.000	0.040	0.142
-478.332	-160.253	0.097	0.005
-477.318	122.815	-0.079	0.099
-476.303	378.032	0.089	-0.183
-475.289	-200.000	0.117	0.000
-474.274	-61.101	-0.162	-0.069
-473.259	-93.012	-0.120	-0.034
-472.245	-29.456	0.192	-0.110
-471.230	-15.506	-0.245	-0.157
-470.216	-54.795	0.164	-0.074
-469.201	-200.000	0.017	-0.112
-468.186	800.000	-0.121	-0.441
-467.172	343.822	0.180	-0.354
-466.157	-200.000	0.015	-0.290
-465.143	800.000	-0.035	-0.102
-464.128	-98.630	0.094	-0.024
-463.113	-200.000	0.008	0.198
-462.099	299.144	0.131	-0.241
-461.084	-200.000	-0.026	-0.383
-460.070	-200.000	-0.091	-0.410
-459.055	-130.806	-0.066	-0.009
-458.040	-200.000	0.003	-0.069
-457.026	-79.381	-0.253	-0.086
-456.011	-128.987	-0.054	0.008
-454.997	-108.958	-0.362	0.077
-453.982	158.742	-0.161	0.224
-452.968	-54.383	0.149	-0.068
-451.953	57.616	-0.163	-0.160
-450.938	-67.342	-0.180	0.071
-449.924	89.934	0.075	0.084
-448.909	-200.000	0.015	-0.075
-447.895	-27.206	-0.135	0.079
-446.880	109.825	0.012	-0.014
-445.865	38.659	0.185	-0.166
-444.851	-48.297	0.114	0.055
-443.836	-15.433	-0.071	0.045
-442.822	584.270	0.134	-0.329
-441.807	-67.984	-0.116	0.045
-440.792	-200.000	-0.034	-0.189
-439.778	-99.359	-0.265	0.067
-438.763	13.706	0.058	0.045
-437.749	346.487	-0.158	0.311
-436.734	242.868	-0.190	0.318
-435.719	-81.637	-0.183	0.060
-434.705	-200.000	-0.046	-0.387
-433.690	-155.871	-0.089	0.006
-432.676	51.996	-0.171	0.163
-431.661	-89.119	0.282	-0.083
-430.646	83.497	0.058	-0.064
-429.632	800.000	-0.031	0.093
-428.617	-135.922	0.107	-0.013
-427.603	-200.000	0.006	-0.308
-426.588	-155.867	-0.477	0.030
-425.573	150.403	-0.118	0.160
-424.559	-43.063	0.300	-0.152
-423.544	15.132	-0.174	-0.136
-422.530	-124.651	-0.566	-0.088
-421.515	-95.423	0.118	-0.032
-420.500	-134.380	0.266	0.033
-419.486	113.790	0.168	-0.204
-418.471	-63.781	0.122	0.050
-417.457	123.926	0.107	0.134
-416.442	-115.490	0.079	-0.015
-415.428	-36.905	0.336	0.180
-414.413	104.710	0.090	-0.106
-413.398	-200.000	-0.016	0.274
-412.384	800.000	-0.024	0.084
-411.369	-200.000	0.074	-0.356
-410.355	800.000	0.052	0.144
-409.340	-45.948	-0.228	0.113
-408.325	276.511	-0.093	0.166
-407.311	-145.192	0.382	-0.035
-406.296	-175.050	-0.351	0.010
-405.282	-84.637	0.203	-0.064
-404.267	585.543	0.155	-0.381
-403.252	179.226	-0.132	0.194
-402.238	35.551	0.200	0.175
-401.223	10.215	-0.278	-0.212
-400.209	317.600	-0.078	0.148
-399.194	-110.195	-0.263	-0.055
-398.179	-200.000	-0.004	0.186
-397.165	-9.442	-0.432	-0.289
-396.150	-142.592	0.331	0.032
-395.136	-200.000	-0.010	-0.126
-394.121	123.717	-0.046	0.057
-393.106	-31.867	-0.181	-0.101
-392.092	282.937	0.101	0.180
-391.077	-200.000	-0.000	0.252
-390.063	225.189	-0.045	-0.072
-389.048	48.958	0.233	-0.218
-388.033	18.614	-0.339	-0.271
-387.019	28.267	0.198	0.167
-386.004	416.825	-0.059	-0.125
-384.990	-200.000	-0.001	-0.087
-383.975	-200.000	-0.013	0.231
-382.960	-200.000	-0.001	-0.234
-381.946	-35.930	-0.284	0.154
-380.931	-104.159	0.089	0.021
-379.917	193.312	0.209	-0.316
-378.902	-14.511	0.328	0.211
-377.888	-90.548	0.330	-0.095
-376.873	-200.000	-0.009	-0.331
-375.858	261.979	0.091	-0.158
-374.844	12.482	-0.091	0.070
-373.829	-73.337	-0.274	-0.100
-372.815	151.440	-0.085	-0.116
-371.800	182.071	0.043	-0.063
-370.785	-39.096	-0.293	0.154
-369.771	-69.450	-0.260	-0.099
-368.756	465.630	0.074	-0.166
-367.742	183.894	-0.069	0.102
-366.727	25.532	0.250	0.208
-365.712	-74.710	-0.366	0.131
-364.698	-43.196	0.194	-0.098
-363.683	-200.000	-0.014	0.218
-362.669	-137.378	-0.124	-0.014
-361.654	-200.000	0.057	-0.468
-360.639	-200.000	0.039	0.182
-359.625	-129.052	0.277	-0.039
-358.610	33.297	0.200	0.174
-357.596	321.751	-0.093	0.177
-356.581	-200.000	0.062	0.383
-355.566	800.000	0.070	0.243
-354.552	64.812	-0.230	-0.232
-353.537	-56.113	-0.147	-0.066
-352.523	67.147	-0.198	-0.202
-351.508	53.738	0.086	-0.082
-350.493	46.416	0.183	0.169
-349.479	-164.995	0.110	-0.005
-348.464	203.857	0.156	0.241
-347.450	12.614	-0.064	0.050
-346.435	-76.799	0.249	-0.087
-345.420	-76.785	-0.435	0.152
-344.406	27.584	-0.226	0.190
-343.391	-151.121	0.334	0.025
-342.377	169.960	-0.134	-0.191
-341.362	-200.000	-0.051	0.232
-340.348	-39.389	-0.367	0.192
-339.333	-140.951	-0.337	0.035
-338.318	-72.223	0.246	-0.091
-337.304	-19.211	0.181	0.112
-336.289	-163.171	-0.073	0.003
-335.275	-125.008	0.194	0.030
-334.260	123.541	-0.093	0.116
-333.245	-56.137	-0.108	-0.048
-332.231	19.953	0.218	-0.175
-331.216	-200.000	-0.032	-0.241
-330.202	-200.000	-0.040	-0.295
-329.187	-24.240	0.271	-0.161
-328.172	96.059	-0.129	0.147
-327.158	81.503	-0.145	-0.156
-326.143	-8.705	-0.333	-0.222
-325.129	-122.285	0.317	-0.052
-324.114	-164.647	0.186	0.008
-323.099	440.548	-0.053	-0.115
-322.085	117.232	-0.318	-0.390
-321.070	493.636	-0.049	-0.112
-320.056	-63.944	-0.313	0.128
-319.041	-8.391	0.107	-0.072
-318.026	-58.750	0.240	-0.103
-317.012	24.549	0.242	-0.199
-315.997	-200.000	-0.023	0.135
-314.983	9.951	0.073	0.055
-313.968	-41.789	-0.314	0.161
-312.953	800.000	-0.045	-0.124
-311.939	-200.000	0.052	0.500
-310.924	-200.000	0.054	0.267
-309.910	67.386	-0.144	-0.146
-308.895	18.927	0.201	-0.160
-307.880	-149.705	-0.113	-0.009
-306.866	-200.000	0.002	-0.097
-305.851	14.642	0.455	-0.354
-304.837	-200.000	-0.007	-0.229
-303.822	252.912	0.038	-0.064
-302.807	-200.000	0.021	0.105
-301.793	753.591	-0.062	-0.168
-300.778	800.000	0.093	0.393
-299.764	-195.860	0.115	-0.001
-298.749	18.740	-0.287	-0.229
-297.735	33.216	-0.287	0.248
-296.720	-119.142	0.194	0.034
-295.705	-200.000	0.052	-0.279
-294.691	-200.000	0.018	0.093
-293.676	-132.638	0.509	-0.065
-292.662	220.038	0.109	0.173
-291.647	800.000	-0.038	-0.127
-290.632	-200.000	-0.004	0.279
-289.618	190.635	-0.121	-0.181
-288.603	558.251	-0.128	-0.308
-287.589	-82.475	0.136	-0.044
-286.574	-13.647	-0.074	-0.047
-285.559	-200.000	-0.004	-0.029
-284.545	-84.165	0.361	-0.114
-283.530	800.000	-0.101	0.287
-282.516	-200.000	-0.019	-0.154
-281.501	38.911	0.031	-0.027
-280.486	85.166	-0.104	0.114
-279.472	262.927	-0.123	0.213
-278.457	-67.334	-0.231	0.090
-277.443	-124.563	-0.031	-0.005
-276.428	-75.848	-0.300	-0.106
-275.413	-102.747	0.463	0.110
-274.399	800.000	-0.112	-0.348
-273.384	-85.363	0.152	-0.047
-272.370	800.000	0.093	0.266
-271.355	137.813	-0.040	0.052
-270.340	24.088	0.064	-0.052
-269.326	-200.000	0.019	-0.411
-268.311	68.783	-0.136	0.139
-267.297	64.791	0.122	-0.123
-266.282	248.978	-0.073	-0.124
-265.267	-136.371	0.141	-0.016
-264.253	487.031	-0.024	-0.055
-263.238	52.195	-0.239	-0.227
-262.224	271.368	0.128	-0.224
-261.209	197.100	0.090	0.137
-260.195	439.661	-0.081	0.175
-259.180	54.714	0.051	0.049
-258.165	60.266	0.164	0.162
-257.151	-200.000	0.004	-0.128
-256.136	567.764	-0.063	0.152
-255.122	-59.401	-0.181	0.077
-254.107	-95.031	0.362	-0.097
-253.092	800.000	-0.034	-0.120
-252.078	722.994	0.082	0.217
-251.063	-112.370	-0.262	-0.052
-250.049	473.935	-0.109	0.244
-249.034	-200.000	0.001	0.041
-248.019	459.182	0.159	-0.351
-247.005	140.733	0.118	0.155
-245.990	438.755	0.181	-0.394
-244.976	534.869	-0.055	0.130
-243.961	-96.421	-0.178	0.047
-242.946	-32.870	-0.167	0.092
-241.932	157.810	-0.385	0.530
-240.917	-159.287	-0.318	-0.018
-239.903	-67.520	-0.312	-0.122
-238.888	-38.341	0.215	0.113
-237.873	58.573	0.254	0.247
-236.859	-72.592	-0.165	0.060
-235.844	-200.000	-0.042	-0.455
-234.830	-200.000	-0.013	-0.059
-233.815	-50.102	-0.032	0.015
-232.800	-175.785	-0.108	0.003
-231.786	800.000	0.094	-0.285
-230.771	129.619	-0.094	-0.119
-229.757	-37.742	0.043	-0.023
-228.742	125.679	0.068	0.085
-227.727	291.251	-0.098	0.177
-226.713	16.739	-0.214	-0.168
-225.698	226.432	0.155	0.250
-224.684	-59.240	0.008	0.003
-223.669	12.930	-0.063	-0.048
-222.655	341.615	0.112	0.216
-221.640	224.686	0.023	0.037
-220.625	800.000	-0.093	0.266
-219.611	-146.409	0.356	-0.031
-218.596	189.379	-0.176	-0.262
-217.582	-152.778	-0.252	0.018
-216.567	2.077	-0.348	0.249
-215.552	-200.000	0.024	0.115
-214.538	-161.451	0.329	0.017
-213.523	-75.712	-0.189	-0.067
-212.509	-200.000	0.108	-0.489
-211.494	800.000	0.086	-0.237
-210.479	26.684	-0.196	0.163
-209.465	42.477	-0.036	-0.032
-208.450	66.176	0.282	0.284
-207.436	-66.138	0.163	-0.064
-206.421	202.864	0.242	-0.371
-205.406	-63.592	0.144	0.059
-204.392	-132.536	0.185	0.024
-203.377	-200.000	0.004	0.201
-202.363	-200.000	-0.011	0.111
-201.348	800.000	0.069	0.198
-200.333	-0.427	-0.135	0.095
-199.319	-110.920	0.201	0.041
-198.304	96.917	-0.316	-0.359
-197.290	-117.378	-0.166	-0.030
-196.275	122.465	-0.116	-0.143
-195.260	800.000	-0.058	0.164
-194.246	-48.030	0.279	-0.134
-193.231	85.244	-0.167	0.182
-192.217	-56.552	-0.069	0.030
-191.202	-49.826	-0.224	0.106
-190.187	301.099	-0.141	-0.257
-189.173	-68.635	0.291	-0.112
-188.158	55.972	-0.132	0.127
-187.144	-13.454	0.078	0.050
-186.129	-115.647	0.217	0.040
-185.114	105.459	0.163	0.191
-184.100	-28.491	0.390	0.223
-183.085	-120.079	-0.110	0.019
-182.071	296.547	0.059	0.107
-181.056	-167.648	0.561	-0.022
-180.042	-55.668	0.026	-0.011
-179.027	47.727	0.283	-0.262
-178.012	-131.131	-0.077	-0.010
-176.998	-18.567	-0.356	-0.220
-175.983	188.045	-0.188	-0.279
-174.969	-50.587	0.178	-0.083
-173.954	20.471	-0.073	-0.058
-172.939	324.533	-0.101	-0.192
-171.925	-200.000	0.148	0.000
-170.910	-200.000	-0.001	-0.204
-169.896	-200.000	-0.011	0.269
-168.881	-1.150	0.251	0.176
-167.866	-200.000	0.009	0.043
-166.852	417.962	0.088	-0.186
-165.837	-59.753	-0.163	0.069
-164.823	-156.297	-0.312	0.019
-163.808	800.000	0.032	0.101
-162.793	800.000	0.023	0.089
-161.779	800.000	0.043	0.178
-160.764	-45.034	-0.079	-0.039
-159.750	-24.888	0.062	-0.036
-158.735	-120.120	0.122	-0.021
-157.720	-93.533	0.294	0.080
-156.706	-51.263	0.135	0.063
-155.691	80.513	-0.312	-0.332
-154.677	9.424	-0.168	-0.126
-153.662	800.000	0.069	0.235
-152.647	-200.000	-0.006	0.247
-151.633	800.000	0.012	0.036
-150.618	800.000	0.073	-0.280
-149.604	140.706	-0.080	0.105
-148.589	335.671	-0.182	0.350
-147.574	-87.717	0.192	-0.057
-146.560	166.257	0.196	0.275
-145.545	-200.000	0.007	0.221
-144.531	-147.636	0.168	-0.014
-143.516	797.265	0.096	0.262
-142.502	800.000	0.042	0.124
-141.487	-200.000	-0.008	0.205
-140.472	-200.000	-0.001	-0.128
-139.458	122.283	0.105	0.129
-138.443	-42.273	0.090	0.045
-137.429	180.208	0.056	-0.081
-136.414	142.112	-0.089	-0.117
-135.399	137.814	0.083	-0.108
-134.385	-200.000	0.025	0.252
-133.370	-200.000	-0.002	-0.029
-132.356	-29.476	-0.215	-0.122
-131.341	-143.541	-0.190	0.018
-130.326	-144.219	0.385	-0.036
-129.312	-102.840	-0.207	-0.049
-128.297	-200.000	0.029	-0.156
-127.283	392.130	0.158	0.325
-126.268	-100.813	-0.273	-0.067
-125.253	381.787	-0.064	0.130
-124.239	-200.000	-0.017	-0.182
-123.224	-200.000	-0.005	0.074
-122.210	327.303	-0.046	0.088
