DTS Sentinel unit serial number:	SN413079Multiplexer serial number:	ORYXHardware model number:	OX4-SRSoftware version number:	ORYX F/W v4.00 Oryx Data Collector v3.7.2.0data status	okinstallation	princeton_trtdifferential loss correction	single-endedforward channel	channel 4reverse channel	N/Adate	2019/09/13time	04:41:34forward acquisition time	60.00reverse acquisition time	0.00gamma	496.2192k internal	0.2322k external	0.2322temperature offset calibration	1.0192default loss term (dB/km)	0.3790temperature slope calibration	1.0000multiplexer offset coefficient	1.0000multiplexer slope coefficient	1.0000fibre end	0.00T internal ref (°C)	26.62T ext. ref 1 (°C)	4.05T ext. ref 2 (°C)	21.23length (m)	temperature (°C)	Stokes	anti-Stokes-747.200	-55.380	-0.261	0.118
-746.185	64.876	-0.113	0.115
-745.171	-102.247	0.275	0.067
-744.156	33.701	-0.158	0.139
-743.142	38.033	-0.072	-0.064
-742.127	41.140	-0.129	0.118
-741.112	300.988	-0.045	-0.085
-740.098	199.007	-0.321	0.497
-739.083	-177.980	-0.249	0.006
-738.069	42.881	-0.136	0.125
-737.054	-65.036	-0.082	0.033
-736.039	37.675	-0.261	0.234
-735.025	96.086	0.246	-0.284
-734.010	-6.934	-0.132	0.090
-732.996	-81.260	-0.215	0.072
-731.981	-32.363	-0.332	-0.187
-730.966	633.770	0.128	-0.327
-729.952	55.558	-0.045	-0.044
-728.937	-89.440	-0.293	0.087
-727.923	-123.888	0.386	-0.061
-726.908	800.000	-0.063	0.259
-725.894	800.000	0.055	0.192
-724.879	15.145	-0.061	-0.048
-723.864	-25.481	0.095	-0.057
-722.850	-60.717	0.137	0.059
-721.835	800.000	-0.066	-0.211
-720.821	-139.595	-0.109	-0.012
-719.806	-171.446	-0.178	0.006
-718.791	230.033	-0.213	-0.351
-717.777	153.254	-0.102	-0.140
-716.762	41.575	0.250	0.229
-715.748	800.000	-0.023	-0.103
-714.733	45.934	-0.222	-0.207
-713.718	568.010	-0.075	-0.184
-712.704	-37.313	-0.297	-0.160
-711.689	-57.466	-0.189	0.084
-710.675	-21.482	0.089	0.055
-709.660	-176.005	0.058	0.002
-708.645	-200.000	-0.021	0.166
-707.631	-69.993	-0.117	-0.045
-706.616	-104.518	0.344	0.080
-705.602	-10.008	0.182	-0.122
-704.587	-64.388	0.324	-0.133
-703.572	-91.152	-0.148	-0.043
-702.558	177.212	-0.093	-0.136
-701.543	-101.693	-0.188	-0.046
-700.529	-92.719	0.137	0.039
-699.514	800.000	-0.050	0.142
-698.499	5.410	0.187	-0.139
-697.485	-200.000	0.026	0.165
-696.470	85.536	-0.117	-0.129
-695.456	800.000	0.046	-0.162
-694.441	-200.000	-0.002	0.133
-693.426	-6.607	-0.165	0.114
-692.412	800.000	-0.024	0.090
-691.397	-155.166	0.127	0.008
-690.383	72.262	0.115	-0.120
-689.368	92.912	-0.316	0.360
-688.354	124.496	0.044	0.056
-687.339	-72.254	0.130	0.048
-686.324	16.166	-0.185	-0.147
-685.310	289.457	0.036	0.065
-684.295	-70.594	-0.323	-0.123
-683.281	637.840	0.124	-0.319
-682.266	-139.560	-0.137	0.015
-681.251	1.835	-0.183	0.133
-680.237	-53.363	0.157	-0.072
-679.222	293.097	-0.161	-0.297
-678.208	-64.826	-0.280	-0.114
-677.193	44.029	0.205	0.189
-676.178	152.458	0.106	-0.146
-675.164	-146.645	0.223	0.019
-674.149	-73.930	0.253	-0.092
-673.135	170.851	-0.079	0.114
-672.120	-185.023	-0.323	0.005
-671.105	-34.762	0.228	0.126
-670.091	174.647	-0.046	-0.067
-669.076	444.869	0.009	-0.020
-668.062	-200.000	-0.007	-0.135
-667.047	-109.101	0.072	0.015
-666.032	-200.000	-0.003	0.337
-665.018	800.000	0.037	-0.109
-664.003	178.313	-0.116	-0.170
-662.989	61.763	-0.162	-0.163
-661.974	-104.460	-0.229	-0.053
-660.959	685.909	0.071	0.187
-659.945	112.977	-0.128	0.156
-658.930	-93.011	-0.189	-0.053
-657.916	23.179	-0.371	-0.306
-656.901	708.905	-0.098	0.262
-655.886	-50.434	0.089	-0.042
-654.872	-200.000	0.046	-0.249
-653.857	-35.217	0.115	0.063
-652.843	6.085	-0.093	-0.069
-651.828	-200.000	0.003	-0.100
-650.814	-25.415	-0.112	-0.067
-649.799	-184.224	-0.058	-0.001
-648.784	-84.368	0.037	-0.012
-647.770	-57.438	-0.400	-0.177
-646.755	-200.000	-0.003	-0.256
-645.741	-200.000	0.032	0.143
-644.726	-113.001	0.212	0.042
-643.711	-93.778	-0.218	-0.060
-642.697	-117.229	-0.243	-0.044
-641.682	688.811	-0.036	0.094
-640.668	-139.490	0.240	-0.026
-639.653	-109.333	-0.433	-0.092
-638.638	-155.908	0.217	0.014
-637.624	1.661	0.158	-0.114
-636.609	274.015	0.126	-0.223
-635.595	-0.095	-0.135	-0.097
-634.580	0.561	-0.307	-0.221
-633.565	-76.438	0.135	-0.048
-632.551	-200.000	-0.017	-0.253
-631.536	-200.000	-0.051	-0.313
-630.522	26.157	-0.072	-0.060
-629.507	13.609	-0.028	0.022
-628.492	-162.448	-0.141	-0.007
-627.478	67.926	-0.109	0.112
-626.463	-200.000	-0.003	-0.172
-625.449	-29.489	-0.059	-0.034
-624.434	-150.796	0.084	0.006
-623.419	800.000	0.069	0.229
-622.405	-18.004	-0.341	-0.215
-621.390	2.334	0.152	-0.111
-620.376	-93.029	0.285	0.080
-619.361	-164.027	-0.227	0.011
-618.346	87.281	-0.067	0.074
-617.332	800.000	0.012	-0.042
-616.317	-200.000	-0.058	-0.340
-615.303	800.000	-0.062	0.261
-614.288	420.580	0.021	-0.045
-613.273	-74.502	-0.264	0.096
-612.259	-145.517	0.170	-0.015
-611.244	-14.137	-0.028	-0.018
-610.230	45.855	0.258	0.240
-609.215	71.482	-0.065	-0.068
-608.201	-57.804	-0.365	-0.160
-607.186	174.745	-0.070	0.102
-606.171	77.553	0.161	-0.172
-605.157	-200.000	0.005	-0.147
-604.142	800.000	-0.092	-0.274
-603.128	174.422	0.219	0.318
-602.113	800.000	-0.103	-0.384
-601.098	62.714	-0.096	-0.097
-600.084	-165.072	0.503	0.022
-599.069	-82.862	-0.233	-0.076
-598.055	-51.983	-0.321	0.150
-597.040	-75.361	-0.271	-0.097
-596.025	800.000	-0.062	0.237
-595.011	800.000	-0.033	0.097
-593.996	91.469	0.034	0.039
-592.982	446.350	-0.029	0.064
-591.967	260.793	-0.121	0.210
-590.952	0.275	0.182	0.130
-589.938	-114.163	-0.275	-0.053
-588.923	-200.000	-0.032	-0.197
-587.909	-32.349	-0.217	0.121
-586.894	260.043	0.149	0.259
-585.879	-200.000	0.014	0.140
-584.865	-53.821	0.126	-0.058
-583.850	486.039	-0.150	-0.343
-582.836	389.489	-0.044	-0.091
-581.821	-200.000	-0.001	-0.124
-580.806	800.000	0.024	-0.075
-579.792	800.000	-0.065	-0.267
-578.777	-200.000	-0.013	0.086
-577.763	-132.599	0.286	0.037
-576.748	290.913	-0.077	-0.141
-575.733	180.708	-0.081	-0.120
-574.719	-171.930	0.075	0.002
-573.704	-200.000	-0.072	-0.324
-572.690	120.482	0.113	0.141
-571.675	-100.111	0.411	-0.103
-570.661	324.278	-0.084	-0.161
-569.646	-200.000	-0.001	0.038
-568.631	-66.138	-0.253	0.101
-567.617	-41.936	-0.224	0.115
-566.602	-126.766	-0.102	0.015
-565.588	10.026	0.283	-0.216
-564.573	800.000	0.044	0.176
-563.558	616.460	-0.182	-0.457
-562.544	-111.484	0.048	0.010
-561.529	336.113	0.084	0.164
-560.515	-120.707	-0.652	-0.111
-559.500	-40.231	0.212	0.111
-558.485	54.849	0.108	-0.104
-557.471	-200.000	0.029	0.192
-556.456	48.641	0.122	0.115
-555.442	67.202	-0.158	0.162
-554.427	-24.064	-0.139	-0.083
-553.412	-200.000	-0.041	-0.350
-552.398	21.947	0.174	-0.142
-551.383	-18.464	-0.293	0.183
-550.369	383.583	-0.069	-0.142
-549.354	250.493	-0.115	0.196
-548.339	711.908	-0.041	0.108
-547.325	-200.000	-0.031	0.143
-546.310	364.573	-0.073	-0.147
-545.296	113.048	-0.188	-0.228
-544.281	800.000	-0.086	0.369
-543.266	-9.462	-0.353	0.236
-542.252	-91.522	0.257	0.074
-541.237	411.767	0.055	0.118
-540.223	332.430	0.080	0.155
-539.208	-200.000	0.033	-0.205
-538.193	-9.296	0.166	0.111
-537.179	-200.000	0.001	-0.202
-536.164	-13.259	-0.072	-0.047
-535.150	-153.361	-0.058	-0.004
-534.135	-121.713	0.153	-0.025
-533.121	800.000	0.042	-0.177
-532.106	800.000	0.042	0.165
-531.091	61.805	0.250	0.250
-530.077	-64.023	-0.137	-0.056
-529.062	503.471	0.047	0.109
-528.048	-24.136	-0.442	0.265
-527.033	108.570	-0.089	0.107
-526.018	-184.231	-0.345	0.006
-525.004	-120.723	0.182	0.031
-523.989	290.641	0.129	-0.235
-522.975	576.605	-0.040	-0.097
-521.960	19.587	-0.124	-0.100
-520.945	284.103	0.083	-0.149
-519.931	161.417	0.128	-0.179
-518.916	-0.614	-0.296	0.211
-517.902	-190.734	0.466	0.005
-516.887	-80.922	-0.065	0.021
-515.872	-111.552	-0.276	-0.056
-514.858	-26.057	0.075	-0.044
-513.843	26.719	0.354	-0.297
-512.829	77.797	0.241	0.257
-511.814	-43.555	0.214	-0.108
-510.799	-200.000	0.022	0.283
-509.785	61.718	0.238	-0.237
-508.770	168.569	0.264	-0.376
-507.756	-200.000	-0.153	-0.001
-506.741	107.421	0.063	-0.075
-505.726	-6.246	-0.129	-0.088
-504.712	-200.000	0.014	0.193
-503.697	-95.703	-0.433	0.116
-502.683	286.224	0.147	0.266
-501.668	-21.111	0.064	-0.039
-500.653	6.455	0.338	-0.251
-499.639	-144.559	0.262	0.024
-498.624	-200.000	-0.006	-0.075
-497.610	800.000	-0.025	-0.090
-496.595	-200.000	-0.022	0.152
-495.581	-19.478	0.215	-0.133
-494.566	77.579	-0.232	-0.247
-493.551	800.000	0.040	0.123
-492.537	-93.793	0.042	0.012
-491.522	-200.000	-0.028	0.146
-490.508	81.847	-0.136	0.147
-489.493	-200.000	0.025	0.202
-488.478	-51.902	-0.214	-0.100
-487.464	136.397	-0.038	0.050
-486.449	-200.000	-0.037	-0.172
-485.435	403.247	0.053	0.111
-484.420	92.205	-0.187	0.211
-483.405	-154.072	0.366	-0.025
-482.391	405.822	0.048	-0.102
-481.376	-155.178	-0.160	0.010
-480.362	-60.201	-0.357	0.152
-479.347	1.869	0.130	0.094
-478.332	3.448	0.070	0.051
-477.318	174.886	0.111	-0.161
-476.303	-17.706	0.161	0.101
-475.289	177.965	0.055	0.080
-474.274	-164.131	-0.335	0.015
-473.259	800.000	0.037	-0.155
-472.245	-93.139	-0.273	-0.076
-471.230	66.690	-0.139	0.142
-470.216	55.568	0.090	-0.087
-469.201	-200.000	0.006	-0.063
-468.186	-15.833	-0.114	-0.072
-467.172	-48.215	-0.132	0.064
-466.157	314.015	-0.086	-0.161
-465.143	-200.000	0.025	0.158
-464.128	29.255	0.101	0.086
-463.113	-5.813	0.057	-0.039
-462.099	-61.962	0.205	0.086
-461.084	-200.000	0.043	0.236
-460.070	467.280	-0.134	0.300
-459.055	800.000	0.106	-0.299
-458.040	-200.000	-0.036	-0.206
-457.026	-180.917	0.290	0.006
-456.011	63.303	-0.376	-0.377
-454.997	-115.174	0.194	0.037
-453.982	-200.000	0.067	0.296
-452.968	47.671	0.212	-0.198
-451.953	177.695	-0.117	-0.171
-450.938	-92.613	-0.155	0.044
-449.924	-200.000	-0.002	0.126
-448.909	305.137	-0.317	0.589
-447.895	82.832	0.271	-0.294
-446.880	214.636	-0.228	-0.360
-445.865	-79.016	0.194	0.066
-444.851	-76.749	-0.085	-0.030
-443.836	800.000	-0.051	-0.164
-442.822	-34.932	0.093	0.051
-441.807	-39.058	0.346	0.182
-440.792	800.000	-0.038	0.147
-439.778	-200.000	0.047	0.417
-438.763	-132.662	0.211	-0.027
-437.749	2.802	0.431	0.312
-436.734	800.000	0.062	-0.190
-435.719	360.874	0.225	-0.450
-434.705	-82.295	-0.187	0.061
-433.690	2.884	0.168	-0.121
-432.676	44.867	0.237	-0.218
-431.661	17.770	-0.290	0.231
-430.646	194.180	0.203	0.307
-429.632	-2.888	0.277	0.193
-428.617	478.441	0.089	0.202
-427.603	-143.940	-0.099	-0.009
-426.588	-200.000	0.055	0.376
-425.573	132.457	-0.199	0.256
-424.559	-35.539	0.170	0.092
-423.544	-63.410	-0.089	0.036
-422.530	50.943	0.194	-0.183
-421.515	-200.000	0.050	-0.252
-420.500	-0.346	0.083	-0.059
-419.486	-51.792	-0.180	0.084
-418.471	-70.680	-0.230	0.087
-417.457	-140.609	0.320	-0.033
-416.442	-200.000	0.021	-0.535
-415.428	747.858	0.102	-0.275
-414.413	-200.000	0.044	-0.255
-413.398	243.659	-0.148	-0.248
-412.384	138.316	0.058	0.075
-411.369	-128.203	-0.036	0.005
-410.355	-200.000	0.034	0.175
-409.340	493.100	-0.112	0.257
-408.325	69.768	0.222	0.228
-407.311	-200.000	-0.003	-0.041
-406.296	-104.179	0.208	-0.048
-405.282	484.595	-0.159	-0.362
-404.267	571.884	0.085	0.207
-403.252	76.441	-0.192	0.203
-402.238	-200.000	-0.005	-0.054
-401.223	-106.168	0.130	0.029
-400.209	-29.331	0.209	-0.119
-399.194	8.740	0.251	-0.189
-398.179	-108.907	-0.426	-0.091
-397.165	-200.000	0.024	0.194
-396.150	331.607	0.135	-0.260
-395.136	-53.623	0.100	0.045
-394.121	800.000	0.070	0.282
-393.106	-142.780	-0.123	0.012
-392.092	-200.000	0.026	0.197
-391.077	361.716	-0.088	-0.175
-390.063	291.972	0.105	-0.191
-389.048	130.544	-0.121	0.155
-388.033	566.617	0.123	-0.298
-387.019	-41.981	0.210	-0.107
-386.004	-143.138	0.066	-0.006
-384.990	26.676	-0.334	0.279
-383.975	-78.422	0.291	0.099
-382.960	800.000	-0.044	-0.181
-381.946	12.799	-0.185	0.143
-380.931	257.610	-0.195	-0.334
-379.917	-200.000	-0.074	0.359
-378.902	-200.000	0.006	-0.041
-377.888	800.000	-0.022	-0.084
-376.873	800.000	0.049	-0.167
-375.858	800.000	0.060	0.193
-374.844	-185.729	0.233	0.003
-373.829	-101.213	0.044	0.011
-372.815	1.983	-0.336	0.242
-371.800	-171.086	-0.152	-0.005
-370.785	352.386	0.114	0.224
-369.771	314.542	-0.149	-0.279
-368.756	800.000	-0.030	0.116
-367.742	-2.703	0.148	-0.103
-366.727	-133.497	0.173	-0.022
-365.712	-84.386	0.216	-0.068
-364.698	-200.000	-0.019	-0.324
-363.683	-200.000	0.030	0.215
-362.669	-200.000	0.028	0.124
-361.654	-200.000	-0.005	-0.036
-360.639	63.600	0.063	-0.063
-359.625	-179.677	0.024	0.001
-358.610	-177.574	0.510	0.012
-357.596	-200.000	0.004	0.075
-356.581	186.935	0.203	0.302
-355.566	5.508	-0.232	0.171
-354.552	-200.000	-0.057	0.266
-353.537	-7.998	0.082	0.055
-352.523	-177.562	-0.333	0.008
-351.508	428.838	0.090	-0.194
-350.493	-200.000	-0.008	-0.146
-349.479	-121.309	0.217	0.036
-348.464	-152.566	0.034	-0.002
-347.450	800.000	-0.089	0.327
-346.435	292.102	-0.136	0.247
-345.420	86.985	0.082	0.090
-344.406	94.151	0.076	-0.085
-343.391	-122.776	-0.258	0.041
-342.377	-85.764	-0.053	0.016
-341.362	-148.324	-0.135	0.011
-340.348	-100.039	0.178	0.044
-339.333	-62.430	0.260	-0.108
-338.318	-46.812	0.060	-0.029
-337.304	37.426	0.139	-0.123
-336.289	-11.527	-0.293	0.192
-335.275	330.913	0.088	0.169
-334.260	-200.000	-0.007	-0.149
-333.245	356.549	0.077	0.152
-332.231	-115.945	0.048	0.009
-331.216	78.073	0.149	0.158
-330.202	-60.235	-0.107	-0.045
-329.187	523.585	0.046	0.107
-328.172	-122.928	0.049	-0.008
-327.158	-126.687	-0.045	0.007
-326.143	800.000	-0.117	-0.418
-325.129	60.685	0.101	-0.099
-324.114	451.336	-0.099	0.216
-323.099	474.368	-0.128	-0.288
-322.085	149.695	-0.083	0.112
-321.070	800.000	-0.053	0.156
-320.056	-125.158	0.181	-0.027
-319.041	176.463	-0.203	-0.294
-318.026	63.075	0.041	-0.041
-317.012	-74.658	0.367	0.131
-315.997	800.000	-0.027	0.112
-314.983	83.219	-0.031	-0.034
-313.968	-97.041	-0.098	-0.026
-312.953	308.760	-0.213	-0.395
-311.939	16.165	-0.132	0.103
-310.924	-9.119	-0.152	-0.101
-309.910	-119.885	0.295	-0.050
-308.895	-24.545	-0.237	-0.140
-307.880	800.000	-0.096	-0.350
-306.866	-200.000	0.009	0.217
-305.851	800.000	-0.044	0.174
-304.837	-125.300	0.021	0.003
-303.822	5.731	-0.118	0.086
-302.807	-200.000	-0.028	-0.159
-301.793	643.763	-0.072	-0.183
-300.778	-114.650	0.500	0.095
-299.764	800.000	-0.059	0.211
-298.749	-200.000	0.031	0.228
-297.735	-200.000	0.055	0.243
-296.720	-143.423	0.337	-0.032
-295.705	43.659	0.179	-0.162
-294.691	-79.476	-0.156	0.052
-293.676	53.011	0.126	-0.119
-292.662	655.773	-0.133	-0.339
-291.647	-55.997	0.134	0.059
-290.632	-200.000	0.031	0.447
-289.618	800.000	0.102	0.286
-288.603	-154.422	-0.284	-0.019
-287.589	526.900	0.016	0.038
-286.574	67.425	-0.207	-0.209
-285.559	254.570	0.015	-0.025
-284.545	5.419	0.092	-0.067
-283.530	-102.325	-0.303	-0.072
-282.516	-140.868	-0.623	-0.064
-281.501	371.700	0.072	0.145
-280.486	-200.000	0.009	0.369
-279.472	-200.000	0.023	0.181
-278.457	-1.613	0.093	-0.065
-277.443	251.871	-0.079	0.134
-276.428	597.131	-0.047	-0.117
-275.413	-200.000	-0.009	0.086
-274.399	-36.574	-0.244	0.130
-273.384	-86.330	0.118	0.036
-272.370	-200.000	0.022	-0.128
-271.355	-200.000	0.021	0.094
-270.340	-128.449	0.225	0.032
-269.326	-5.854	0.144	-0.098
-268.311	208.740	-0.148	0.230
-267.297	276.376	-0.150	0.265
-266.282	356.105	-0.096	-0.190
-265.267	-118.570	0.231	-0.041
-264.253	62.367	-0.014	0.013
-263.238	171.500	-0.132	-0.188
-262.224	85.278	-0.151	0.165
-261.209	329.688	0.164	0.312
-260.195	-91.972	0.056	0.016
-259.180	43.591	0.296	-0.269
-258.165	439.067	-0.144	-0.312
-257.151	-200.000	-0.037	-0.164
-256.136	-105.467	-0.119	-0.027
-255.122	104.042	0.282	0.329
-254.107	-114.459	0.336	-0.064
-253.092	-200.000	-0.069	0.365
-252.078	-200.000	0.029	-0.248
-251.063	-99.447	-0.173	-0.043
-250.049	12.960	0.099	-0.076
-249.034	268.893	0.018	-0.032
-248.019	-114.227	-0.054	-0.010
-247.005	800.000	0.070	-0.213
-245.990	227.644	0.024	-0.039
-244.976	109.708	0.217	0.257
-243.961	268.200	-0.146	0.253
-242.946	-33.255	0.171	0.094
-241.932	-136.196	-0.259	-0.030
-240.917	-167.429	-0.147	0.006
-239.903	-158.328	0.246	0.014
-238.888	293.575	-0.122	-0.221
-237.873	-88.987	-0.030	0.009
-236.859	100.422	-0.087	0.100
-235.844	-200.000	0.054	-0.406
-234.830	-127.926	-0.082	-0.012
-233.815	128.213	-0.092	0.116
-232.800	-200.000	0.017	-0.167
-231.786	205.409	0.039	-0.060
-230.771	800.000	-0.060	-0.186
-229.757	64.418	-0.122	-0.122
-228.742	642.605	0.090	-0.227
-227.727	-119.262	-0.061	-0.011
-226.713	-72.199	-0.247	0.091
-225.698	53.836	-0.133	-0.127
-224.684	-200.000	-0.007	0.263
-223.669	195.407	-0.048	-0.072
-222.655	9.654	-0.152	-0.114
-221.640	661.448	-0.136	0.346
-220.625	-124.767	0.061	-0.009
-219.611	800.000	0.020	-0.058
-218.596	188.982	-0.081	0.120
-217.582	115.776	0.125	-0.151
-216.567	29.068	-0.047	-0.039
-215.552	-200.000	0.031	0.167
-214.538	-200.000	0.042	0.265
-213.523	-165.749	0.265	0.011
-212.509	269.505	-0.216	-0.375
-211.494	-200.000	0.002	-0.083
-210.479	-122.480	0.195	-0.031
-209.465	101.373	-0.141	-0.163
-208.450	-64.533	0.161	0.065
-207.436	-31.587	0.317	0.176
-206.421	147.075	-0.261	-0.348
-205.406	-59.692	-0.097	0.041
-204.392	-200.000	0.059	0.381
-203.377	433.913	0.136	-0.292
-202.363	-200.000	0.019	-0.149
-201.348	67.730	-0.110	-0.111
-200.333	518.919	-0.035	0.080
-199.319	-200.000	-0.014	0.163
-198.304	-200.000	-0.006	-0.036
-197.290	166.761	-0.062	0.087
-196.275	-156.878	-0.111	-0.007
-195.260	-59.571	-0.105	-0.045
-194.246	-171.671	0.107	-0.003
-193.231	-22.809	-0.319	0.191
-192.217	-32.597	-0.120	0.066
-191.202	-133.430	0.420	0.052
-190.187	-141.514	-0.038	-0.004
-189.173	-65.290	0.376	-0.149
-188.158	210.510	0.194	0.302
-187.144	-200.000	-0.007	0.041
-186.129	518.380	0.156	-0.360
-185.114	-40.194	-0.300	0.155
-184.100	-200.000	-0.075	0.362
-183.085	-119.318	0.354	0.061
-182.071	-79.392	-0.143	-0.048
-181.056	-200.000	0.011	0.056
-180.042	800.000	-0.054	0.197
-179.027	-200.000	0.015	-0.096
-178.012	-84.549	0.347	-0.108
-176.998	-135.069	-0.273	0.033
-175.983	-104.403	0.211	0.048
-174.969	-149.145	0.231	0.018
-173.954	-156.030	0.148	0.009
-172.939	63.171	-0.297	-0.294
-171.925	-28.347	-0.193	0.110
-170.910	690.140	0.040	0.104
-169.896	433.585	-0.051	-0.110
-168.881	-100.460	0.141	-0.034
-167.866	-120.295	-0.356	0.060
-166.852	-145.509	0.265	0.023
-165.837	-87.028	0.089	-0.027
-164.823	-38.485	-0.118	-0.062
-163.808	154.649	0.164	0.223
-162.793	-138.534	0.334	0.036
-161.779	43.015	-0.152	0.137
-160.764	800.000	-0.066	0.276
-159.750	-81.048	-0.113	-0.037
-158.735	-200.000	0.000	0.325
-157.720	-169.389	0.362	0.013
-156.706	392.594	-0.124	-0.255
-155.691	-19.167	-0.275	0.168
-154.677	74.501	-0.168	-0.174
-153.662	134.618	0.107	0.137
-152.647	-41.688	-0.207	-0.105
-151.633	-36.792	0.168	-0.089
-150.618	32.356	0.149	-0.127
-149.604	-24.019	-0.422	-0.249
-148.589	-200.000	-0.041	-0.207
-147.574	111.371	-0.118	0.140
-146.560	-105.725	-0.263	0.059
-145.545	149.635	-0.046	0.061
-144.531	545.940	-0.067	-0.158
-143.516	587.510	0.242	0.589
-142.502	-178.439	-0.210	0.005
-141.487	-200.000	-0.007	0.296
-140.472	-117.980	-0.198	-0.035
-139.458	-200.000	0.017	0.089
-138.443	245.102	-0.173	-0.287
-137.429	204.891	0.177	-0.271
-136.414	246.167	-0.058	0.096
-135.399	8.698	0.091	0.068
-134.385	-200.000	0.005	-0.078
-133.370	63.876	0.147	0.145
-132.356	202.281	0.124	0.189
-131.341	-110.078	-0.170	0.035
-130.326	800.000	-0.016	0.060
-129.312	498.488	0.178	0.403
-128.297	-79.918	-0.339	0.112
-127.283	169.298	-0.030	-0.043
-126.268	-136.355	0.230	0.026
-125.253	-64.347	-0.329	-0.132
-124.239	-200.000	-0.063	-0.312
-123.224	-6.213	-0.118	0.080
-122.210	352.340	-0.096	0.187
