DTS Sentinel unit serial number:	SN413079Multiplexer serial number:	ORYXHardware model number:	OX4-SRSoftware version number:	ORYX F/W v4.00 Oryx Data Collector v3.7.2.0data status	okinstallation	princeton_trtdifferential loss correction	single-endedforward channel	channel 4reverse channel	N/Adate	2019/09/11time	04:27:10forward acquisition time	60.00reverse acquisition time	0.00gamma	496.2192k internal	0.2316k external	0.2316temperature offset calibration	0.9945default loss term (dB/km)	0.3790temperature slope calibration	1.0000multiplexer offset coefficient	1.0000multiplexer slope coefficient	1.0000fibre end	0.00T internal ref (°C)	29.56T ext. ref 1 (°C)	-0.28T ext. ref 2 (°C)	23.40length (m)	temperature (°C)	Stokes	anti-Stokes-747.200	-99.573	0.065	0.017
-746.185	-200.000	-0.008	0.145
-745.171	251.238	-0.194	-0.335
-744.156	87.700	0.189	-0.213
-743.142	-63.998	0.193	0.080
-742.127	-37.834	-0.080	0.043
-741.112	800.000	0.032	0.102
-740.098	800.000	-0.182	0.569
-739.083	-200.000	-0.027	-0.374
-738.069	32.175	-0.096	-0.084
-737.054	-18.083	0.100	-0.063
-736.039	-200.000	-0.035	-0.230
-735.025	-94.483	0.271	0.075
-734.010	774.976	0.066	-0.183
-732.996	-33.997	-0.089	0.050
-731.981	-128.637	-0.077	-0.011
-730.966	-117.975	-0.104	-0.019
-729.952	55.807	-0.194	-0.191
-728.937	-116.224	-0.082	-0.015
-727.923	9.856	-0.232	-0.178
-726.908	-111.600	-0.224	-0.046
-725.894	54.868	-0.319	-0.312
-724.879	-200.000	0.036	-0.335
-723.864	-82.905	-0.114	0.037
-722.850	800.000	-0.050	-0.194
-721.835	-116.295	-0.283	0.053
-720.821	800.000	-0.092	0.290
-719.806	-33.947	0.159	-0.088
-718.791	727.584	0.168	-0.454
-717.777	-200.000	-0.041	-0.232
-716.762	-15.980	-0.159	0.103
-715.748	13.443	-0.215	0.168
-714.733	452.687	-0.106	-0.237
-713.718	-200.000	0.055	0.302
-712.704	177.959	-0.126	0.186
-711.689	56.451	-0.093	0.092
-710.675	7.050	0.054	-0.041
-709.660	-109.913	0.222	-0.047
-708.645	-200.000	0.055	-0.250
-707.631	-44.440	-0.103	0.052
-706.616	-100.729	0.070	-0.018
-705.602	-200.000	-0.037	0.211
-704.587	23.937	-0.220	-0.183
-703.572	-200.000	0.016	0.154
-702.558	111.299	-0.186	-0.227
-701.543	122.123	0.148	0.187
-700.529	-105.984	-0.130	-0.030
-699.514	800.000	-0.076	0.237
-698.499	185.983	0.021	-0.032
-697.485	-17.635	-0.290	-0.184
-696.470	-77.701	-0.109	0.038
-695.456	-167.811	0.126	0.005
-694.441	-200.000	-0.010	0.090
-693.426	-200.000	0.010	0.214
-692.412	498.662	0.144	-0.336
-691.397	-200.000	0.009	-0.346
-690.383	101.882	-0.191	-0.225
-689.368	509.883	-0.110	-0.259
-688.354	-108.613	-0.219	0.048
-687.339	-101.876	0.357	0.087
-686.324	257.102	-0.127	-0.220
-685.310	-85.323	-0.244	0.077
-684.295	-165.716	-0.284	0.012
-683.281	228.060	-0.042	0.068
-682.266	-101.000	-0.347	-0.086
-681.251	153.458	0.107	-0.149
-680.237	45.773	-0.079	0.074
-679.222	-200.000	0.022	0.133
-678.208	46.069	0.060	-0.056
-677.193	-182.957	0.132	-0.002
-676.178	-46.159	-0.331	-0.164
-675.164	-200.000	-0.031	0.176
-674.149	8.886	-0.106	0.081
-673.135	-200.000	0.004	-0.263
-672.120	78.312	0.160	-0.173
-671.105	53.910	-0.118	0.114
-670.091	-101.423	0.363	-0.089
-669.076	-5.480	-0.169	-0.117
-668.062	-126.093	-0.231	0.035
-667.047	216.531	-0.194	0.311
-666.032	-130.448	-0.277	-0.038
-665.018	459.179	0.125	0.280
-664.003	84.439	0.258	-0.285
-662.989	-200.000	-0.014	-0.109
-661.974	154.290	0.136	0.189
-660.959	29.999	0.263	0.227
-659.945	800.000	-0.063	-0.266
-658.930	311.244	0.103	-0.195
-657.916	-65.817	-0.413	0.167
-656.901	800.000	0.073	0.208
-655.886	-121.692	-0.110	0.018
-654.872	-36.698	0.267	0.145
-653.857	-200.000	0.009	-0.119
-652.843	161.449	0.095	0.134
-651.828	-140.083	0.243	0.026
-650.814	180.083	-0.094	0.139
-649.799	63.819	-0.305	-0.309
-648.784	-40.085	0.274	-0.144
-647.770	-126.624	0.155	0.023
-646.755	720.220	-0.082	0.219
-645.741	142.533	-0.273	-0.366
-644.726	-145.391	-0.160	0.015
-643.711	-200.000	0.060	-0.395
-642.697	-77.417	-0.101	0.035
-641.682	679.458	-0.063	0.165
-640.668	-78.744	-0.317	0.109
-639.653	35.011	0.076	-0.067
-638.638	-200.000	-0.033	0.290
-637.624	-200.000	-0.324	0.002
-636.609	-200.000	0.015	0.120
-635.595	21.572	0.266	0.218
-634.580	155.135	0.105	0.146
-633.565	-70.743	0.260	-0.099
-632.551	-4.973	0.170	-0.118
-631.536	-141.660	-0.291	-0.030
-630.522	-16.787	-0.182	-0.116
-629.507	564.313	0.137	0.334
-628.492	70.903	0.060	0.063
-627.478	-91.374	-0.191	-0.055
-626.463	67.316	-0.087	-0.090
-625.449	-200.000	-0.027	-0.156
-624.434	-87.982	0.322	-0.098
-623.419	-112.320	-0.136	0.028
-622.405	150.373	-0.181	-0.248
-621.390	-85.206	0.152	0.048
-620.376	-200.000	-0.025	0.288
-619.361	-200.000	-0.005	-0.207
-618.346	-34.470	-0.104	0.058
-617.332	163.568	-0.174	0.247
-616.317	-131.829	0.273	-0.036
-615.303	-79.065	-0.213	-0.073
-614.288	297.770	-0.127	-0.236
-613.273	203.012	0.156	-0.242
-612.259	-181.041	0.359	0.007
-611.244	-10.841	-0.368	-0.245
-610.230	-200.000	0.012	-0.092
-609.215	-8.711	-0.279	0.189
-608.201	-167.224	-0.385	0.016
-607.186	-200.000	-0.015	-0.140
-606.171	491.413	-0.104	0.240
-605.157	-200.000	-0.070	-0.368
-604.142	282.719	-0.102	-0.185
-603.128	-124.253	0.432	0.068
-602.113	-200.000	0.027	0.176
-601.098	-12.704	-0.255	-0.168
-600.084	148.880	-0.117	0.160
-599.069	-71.293	0.392	-0.148
-598.055	-131.658	-0.259	0.034
-597.040	244.521	0.065	0.110
-596.025	-79.166	-0.109	0.037
-595.011	-72.346	0.174	0.065
-593.996	800.000	-0.065	0.217
-592.982	256.839	-0.142	0.246
-591.967	-178.688	0.250	0.006
-590.952	-200.000	-0.000	0.263
-589.938	-82.287	0.284	0.093
-588.923	73.590	0.114	-0.120
-587.909	56.401	0.202	0.198
-586.894	-142.349	0.137	0.014
-585.879	11.875	-0.162	0.126
-584.865	-144.861	-0.266	-0.024
-583.850	-6.029	0.167	0.115
-582.836	-33.719	-0.169	0.094
-581.821	-78.084	-0.115	0.040
-580.806	5.761	-0.126	-0.094
-579.792	206.233	0.175	-0.275
-578.777	271.896	0.262	-0.466
-577.763	-5.539	-0.043	-0.030
-576.748	-70.329	0.213	0.081
-575.733	-63.509	0.186	-0.077
-574.719	-12.794	0.170	0.112
-573.704	-200.000	0.018	-0.097
-572.690	-23.247	0.401	-0.243
-571.675	365.610	0.130	0.264
-570.661	-33.662	0.085	0.047
-569.646	-92.545	0.177	-0.050
-568.631	115.145	0.205	-0.251
-567.617	-200.000	-0.008	0.145
-566.602	440.294	-0.041	-0.091
-565.588	24.223	0.200	0.166
-564.573	800.000	-0.053	0.218
-563.558	28.510	0.165	0.140
-562.544	800.000	0.043	-0.155
-561.529	-200.000	-0.014	-0.176
-560.515	-108.908	0.174	0.037
-559.500	-133.119	0.084	0.011
-558.485	106.602	0.101	-0.120
-557.471	84.091	0.214	-0.235
-556.456	74.012	0.104	0.110
-555.442	-72.780	-0.030	0.011
-554.427	718.073	0.121	0.323
-553.412	-200.000	-0.059	-0.355
-552.398	800.000	-0.076	-0.254
-551.383	-108.701	0.242	0.052
-550.369	180.190	-0.090	-0.133
-549.354	-85.972	0.128	0.040
-548.339	-154.053	0.109	-0.007
-547.325	-200.000	0.003	-0.071
-546.310	800.000	0.065	0.202
-545.296	-124.348	0.018	0.003
-544.281	-158.884	-0.093	0.005
-543.266	483.129	0.100	-0.230
-542.252	-37.981	-0.257	-0.137
-541.237	-150.005	-0.184	0.014
-540.223	213.171	0.087	0.139
-539.208	15.915	0.058	-0.046
-538.193	-58.801	-0.421	-0.183
-537.179	133.966	-0.141	0.183
-536.164	-134.658	0.123	-0.015
-535.150	-77.037	-0.323	-0.113
-534.135	-68.119	0.163	-0.064
-533.121	-51.833	0.293	-0.137
-532.106	60.432	0.202	0.201
-531.091	-88.628	0.141	0.042
-530.077	-134.034	-0.114	-0.014
-529.062	-138.865	-0.054	-0.006
-528.048	800.000	0.045	0.140
-527.033	55.279	0.191	-0.186
-526.018	-133.633	-0.186	-0.023
-525.004	-90.207	0.175	0.051
-523.989	-14.391	-0.055	0.036
-522.975	-200.000	-0.092	0.417
-521.960	90.508	-0.164	0.185
-520.945	-200.000	-0.007	0.169
-519.931	-48.884	0.119	-0.057
-518.916	695.235	-0.047	-0.123
-517.902	163.100	-0.013	0.019
-516.887	-101.757	-0.606	0.147
-515.872	142.158	0.193	0.257
-514.858	-43.004	-0.292	0.149
-513.843	466.912	0.066	0.147
-512.829	-200.000	-0.069	0.402
-511.814	-141.802	-0.415	0.042
-510.799	99.669	-0.209	-0.243
-509.785	189.437	-0.015	0.023
-508.770	800.000	0.113	0.417
-507.756	800.000	0.038	0.148
-506.741	234.847	-0.094	-0.156
-505.726	5.065	0.146	0.108
-504.712	-194.472	-0.389	-0.003
-503.697	125.014	-0.311	0.394
-502.683	-200.000	0.005	-0.089
-501.668	-130.895	-0.335	-0.045
-500.653	-129.940	-0.263	0.036
-499.639	-143.169	-0.568	-0.055
-498.624	206.138	-0.168	-0.262
-497.610	104.406	0.126	0.148
-496.595	117.719	0.141	0.174
-495.581	-168.085	0.357	-0.014
-494.566	-155.445	-0.192	-0.012
-493.551	-20.476	-0.124	0.077
-492.537	-32.259	0.221	0.124
-491.522	-52.238	0.160	-0.075
-490.508	285.954	-0.065	0.117
-489.493	-148.879	0.069	0.006
-488.478	-95.695	0.202	-0.054
-487.464	416.608	0.055	0.119
-486.449	195.238	-0.090	0.138
-485.435	121.000	-0.025	-0.031
-484.420	800.000	-0.080	-0.221
-483.405	159.778	-0.185	0.258
-482.391	25.278	-0.057	-0.047
-481.376	-79.729	0.091	0.031
-480.362	-141.024	-0.257	0.026
-479.347	800.000	0.066	0.205
-478.332	7.529	-0.069	-0.052
-477.318	-1.661	0.117	-0.082
-476.303	212.917	0.049	-0.077
-475.289	140.609	-0.062	-0.083
-474.274	50.378	0.059	-0.056
-473.259	70.784	-0.327	-0.339
-472.245	3.949	-0.186	0.136
-471.230	22.830	0.114	-0.094
-470.216	-47.819	0.292	0.142
-469.201	-35.851	0.044	-0.024
-468.186	-182.767	0.270	0.005
-467.172	406.809	-0.103	0.218
-466.157	-76.536	0.102	-0.036
-465.143	-173.184	-0.136	-0.004
-464.128	201.945	0.241	-0.373
-463.113	241.464	-0.138	-0.230
-462.099	-200.000	0.067	-0.322
-461.084	-91.534	-0.166	0.048
-460.070	-29.940	-0.146	-0.083
-459.055	6.643	0.267	0.199
-458.040	-86.476	-0.131	-0.040
-457.026	-112.538	-0.153	0.031
-456.011	800.000	-0.032	0.136
-454.997	-84.589	0.262	0.083
-453.982	-86.936	0.026	-0.008
-452.968	-56.893	-0.326	0.144
-451.953	504.487	-0.100	0.232
-450.938	-65.578	0.185	0.074
-449.924	231.748	-0.016	0.026
-448.909	-139.024	0.110	-0.012
-447.895	743.936	0.033	-0.089
-446.880	418.231	0.070	0.150
-445.865	-160.720	-0.008	-0.000
-444.851	-103.575	0.175	-0.041
-443.836	-200.000	-0.013	-0.286
-442.822	-200.000	-0.015	-0.140
-441.807	514.983	-0.064	-0.149
-440.792	-200.000	0.018	-0.246
-439.778	61.151	-0.286	0.284
-438.763	-200.000	0.051	0.353
-437.749	800.000	-0.009	0.025
-436.734	10.901	0.177	-0.136
-435.719	51.600	-0.209	0.199
-434.705	794.968	-0.083	-0.228
-433.690	-158.081	0.217	-0.013
-432.676	1.165	-0.134	-0.096
-431.661	800.000	0.189	-0.537
-430.646	15.094	0.175	0.137
-429.632	457.194	-0.170	-0.377
-428.617	588.545	0.105	-0.258
-427.603	-128.927	0.055	0.008
-426.588	56.677	0.147	-0.143
-425.573	520.100	0.161	-0.378
-424.559	285.864	-0.100	0.181
-423.544	-200.000	-0.036	-0.216
-422.530	-30.022	-0.148	-0.084
-421.515	-2.896	0.060	-0.042
-420.500	358.510	-0.075	0.149
-419.486	-50.255	-0.190	0.090
-418.471	-163.808	-0.275	0.013
-417.457	800.000	0.021	-0.079
-416.442	800.000	-0.076	-0.285
-415.428	800.000	-0.058	0.180
-414.413	36.765	0.157	-0.138
-413.398	-16.850	-0.182	-0.115
-412.384	800.000	0.102	-0.360
-411.369	182.403	-0.064	-0.095
-410.355	346.673	-0.066	-0.131
-409.340	-84.501	0.307	-0.097
-408.325	-200.000	-0.017	-0.099
-407.311	85.445	-0.249	0.274
-406.296	136.129	0.169	0.220
-405.282	-118.829	-0.134	0.024
-404.267	-154.444	0.438	0.029
-403.252	-69.950	0.158	0.060
-402.238	316.892	-0.015	-0.029
-401.223	408.689	0.099	-0.210
-400.209	106.173	-0.067	0.079
-399.194	463.947	-0.078	-0.175
-398.179	-200.000	-0.320	0.001
-397.165	133.903	0.100	-0.129
-396.150	31.407	0.130	-0.112
-395.136	628.981	0.050	-0.127
-394.121	-27.283	0.190	0.111
-393.106	-200.000	0.002	0.073
-392.092	800.000	0.029	0.080
-391.077	-200.000	0.027	-0.215
-390.063	-15.066	0.190	0.121
-389.048	342.817	-0.116	-0.226
-388.033	160.900	-0.048	0.066
-387.019	-77.541	-0.262	-0.091
-386.004	21.676	-0.108	0.088
-384.990	2.249	-0.263	-0.190
-383.975	-200.000	0.008	-0.171
-382.960	101.509	0.039	0.045
-381.946	-200.000	-0.037	0.318
-380.931	800.000	-0.065	0.209
-379.917	800.000	-0.027	-0.074
-378.902	-200.000	-0.007	-0.339
-377.888	-24.373	0.080	0.048
-376.873	-78.884	-0.166	-0.056
-375.858	122.647	0.196	0.245
-374.844	91.164	-0.045	0.051
-373.829	-53.663	0.319	-0.146
-372.815	84.703	-0.224	-0.245
-371.800	-200.000	-0.004	-0.176
-370.785	396.756	0.073	-0.153
-369.771	-66.413	-0.462	-0.183
-368.756	-200.000	-0.022	-0.116
-367.742	209.721	-0.152	-0.238
-366.727	-120.713	0.205	0.035
-365.712	60.109	-0.169	0.166
-364.698	68.124	0.096	0.098
-363.683	583.436	0.042	0.103
-362.669	242.830	-0.143	-0.239
-361.654	-96.099	-0.366	0.097
-360.639	22.549	0.109	-0.089
-359.625	-61.139	0.142	0.060
-358.610	-200.000	0.016	0.255
-357.596	249.910	-0.164	0.277
-356.581	357.121	0.053	-0.105
-355.566	65.274	-0.137	-0.138
-354.552	-85.249	-0.252	0.079
-353.537	-200.000	-0.007	0.373
-352.523	800.000	0.028	-0.107
-351.508	-128.112	-0.163	-0.023
-350.493	15.385	0.075	-0.059
-349.479	-200.000	0.053	-0.271
-348.464	19.708	0.244	0.196
-347.450	-119.708	0.203	0.035
-346.435	336.232	-0.040	-0.077
-345.420	-72.724	0.163	-0.060
-344.406	313.398	-0.060	-0.112
-343.391	-40.808	0.197	0.102
-342.377	-100.314	-0.208	-0.051
-341.362	531.012	-0.062	-0.147
-340.348	-170.786	-0.238	-0.008
-339.333	756.201	0.056	-0.151
-338.318	-73.139	0.072	0.026
-337.304	-200.000	-0.008	-0.334
-336.289	-94.812	-0.181	0.049
-335.275	-63.462	0.262	-0.107
-334.260	736.669	0.034	0.091
-333.245	764.687	0.099	-0.267
-332.231	699.737	0.090	0.237
-331.216	800.000	-0.093	-0.278
-330.202	291.285	-0.188	-0.341
-329.187	444.839	-0.107	0.234
-328.172	800.000	0.098	-0.378
-327.158	591.612	-0.058	-0.142
-326.143	-110.685	-0.225	-0.046
-325.129	270.351	-0.105	0.184
-324.114	173.311	-0.123	-0.176
-323.099	-125.313	0.502	-0.076
-322.085	72.464	-0.118	-0.122
-321.070	-89.776	-0.277	0.081
-320.056	82.725	-0.148	0.161
-319.041	-200.000	0.059	0.407
-318.026	-200.000	-0.011	0.296
-317.012	-4.867	-0.068	0.047
-315.997	-200.000	-0.036	-0.161
-314.983	145.839	-0.087	0.117
-313.968	624.865	0.092	-0.232
-312.953	90.834	-0.260	-0.290
-311.939	-62.726	0.307	0.127
-310.924	-200.000	-0.019	-0.146
-309.910	102.355	0.304	0.354
-308.895	-71.323	0.125	0.047
-307.880	-11.178	0.150	0.099
-306.866	-10.279	0.334	0.221
-305.851	463.091	0.080	0.177
-304.837	-41.123	-0.209	0.107
-303.822	731.419	0.114	-0.305
-302.807	104.583	0.049	-0.057
-301.793	315.214	-0.092	0.173
-300.778	-200.000	0.033	0.262
-299.764	-187.654	-0.282	-0.004
-298.749	800.000	-0.078	0.221
-297.735	-117.995	-0.295	-0.053
-296.720	-28.057	-0.293	-0.169
-295.705	-200.000	0.001	0.294
-294.691	508.873	0.117	0.272
-293.676	800.000	0.058	-0.224
-292.662	-113.331	-0.118	-0.023
-291.647	-143.744	0.330	0.031
-290.632	36.418	-0.075	-0.066
-289.618	282.892	-0.013	-0.024
-288.603	800.000	-0.014	-0.057
-287.589	330.387	0.173	-0.331
-286.574	-7.715	-0.135	0.091
-285.559	-137.834	-0.181	-0.020
-284.545	-108.687	-0.433	0.092
-283.530	800.000	-0.090	-0.287
-282.516	25.488	0.070	-0.058
-281.501	-200.000	-0.034	0.191
-280.486	445.970	0.086	-0.188
-279.472	-59.496	-0.186	-0.079
-278.457	-31.934	0.129	0.072
-277.443	-21.086	-0.132	-0.080
-276.428	-52.731	0.199	0.091
-275.413	-60.340	-0.232	0.098
-274.399	-92.878	-0.136	0.038
-273.384	255.514	0.113	-0.192
-272.370	-200.000	0.026	-0.232
-271.355	800.000	0.073	-0.241
-270.340	199.957	0.195	-0.298
-269.326	-149.050	0.219	-0.017
-268.311	-111.352	0.254	0.052
-267.297	129.219	0.059	-0.075
-266.282	-200.000	-0.004	0.142
-265.267	-156.527	-0.347	0.021
-264.253	-23.704	0.171	0.102
-263.238	-200.000	0.041	-0.232
-262.224	-32.901	0.175	-0.097
-261.209	689.176	-0.058	0.151
-260.195	800.000	0.086	0.240
-259.180	204.070	-0.202	0.311
-258.165	-179.359	0.312	-0.007
-257.151	-13.330	0.043	0.028
-256.136	170.609	-0.265	0.377
-255.122	-150.175	-0.179	0.014
-254.107	-11.518	-0.223	0.146
-253.092	-200.000	-0.007	0.059
-252.078	-200.000	0.042	-0.209
-251.063	-155.493	0.483	0.031
-250.049	364.455	-0.131	-0.263
-249.034	-125.376	0.090	0.014
-248.019	800.000	-0.043	-0.147
-247.005	-87.595	-0.357	0.107
-245.990	-123.013	-0.347	0.055
-244.976	800.000	-0.045	0.132
-243.961	-140.460	0.219	0.023
-242.946	626.082	-0.090	0.225
-241.932	-7.920	0.278	0.186
-240.917	108.151	0.160	0.189
-239.903	137.462	0.122	-0.159
-238.888	348.932	-0.068	0.133
-237.873	115.449	-0.181	-0.220
-236.859	-200.000	-0.014	-0.131
-235.844	8.294	-0.119	-0.089
-234.830	310.542	0.082	0.153
-233.815	75.198	-0.145	0.151
-232.800	103.800	0.208	0.243
-231.786	-200.000	-0.065	0.289
-230.771	-200.000	0.012	-0.075
-229.757	-200.000	0.007	-0.204
-228.742	-75.962	-0.121	-0.043
-227.727	800.000	-0.021	-0.062
-226.713	400.438	0.078	-0.162
-225.698	800.000	0.103	0.290
-224.684	700.575	-0.102	0.268
-223.669	-99.557	0.433	-0.108
-222.655	-200.000	-0.028	-0.192
-221.640	-200.000	-0.003	-0.316
-220.625	-116.860	0.298	0.054
-219.611	-200.000	0.008	0.122
-218.596	81.692	-0.086	0.092
-217.582	-153.297	0.366	0.025
-216.567	-20.888	0.349	0.212
-215.552	12.735	0.247	0.189
-214.538	37.050	-0.061	-0.054
-213.523	-22.142	-0.032	0.019
-212.509	-52.428	-0.029	0.013
-211.494	18.090	0.073	0.057
-210.479	143.027	-0.166	-0.218
-209.465	205.097	-0.221	-0.340
-208.450	-6.141	0.277	0.188
-207.436	-86.097	0.089	0.027
-206.421	-124.074	0.368	0.057
-205.406	-103.361	0.190	0.044
-204.392	-85.662	0.371	-0.114
-203.377	-200.000	-0.019	0.111
-202.363	-148.270	0.087	0.007
-201.348	-200.000	0.033	-0.198
-200.333	-144.012	-0.271	-0.025
-199.319	-89.635	0.108	-0.031
-198.304	-132.828	0.312	0.039
-197.290	11.153	-0.135	-0.103
-196.275	-200.000	-0.014	0.366
-195.260	800.000	-0.085	0.259
-194.246	800.000	-0.119	0.471
-193.231	10.773	0.271	0.205
-192.217	-17.566	0.111	-0.069
-191.202	529.462	0.022	0.052
-190.187	154.387	0.137	0.187
-189.173	-8.612	-0.189	-0.126
-188.158	800.000	0.098	-0.311
-187.144	-151.627	-0.403	-0.030
-186.129	70.087	-0.031	0.032
-185.114	202.141	0.147	0.224
-184.100	142.215	0.293	0.386
-183.085	368.091	0.075	0.151
-182.071	-82.455	0.421	0.135
-181.056	-31.983	0.229	-0.127
-180.042	-125.840	-0.100	0.015
-179.027	-145.829	-0.185	0.016
-178.012	48.905	-0.168	0.156
-176.998	800.000	-0.060	-0.217
-175.983	32.495	-0.098	-0.084
-174.969	-126.675	-0.270	-0.040
-173.954	239.636	-0.105	-0.173
-172.939	31.783	-0.131	-0.111
-171.925	13.221	0.420	0.322
-170.910	319.119	-0.080	-0.149
-169.896	-200.000	-0.007	0.062
-168.881	-17.560	0.437	-0.272
-167.866	-75.165	-0.122	-0.043
-166.852	113.047	-0.104	0.125
-165.837	152.025	0.109	0.147
-164.823	-146.393	-0.045	-0.004
-163.808	-33.562	-0.088	0.048
-162.793	-133.509	0.136	0.017
-161.779	187.287	0.169	0.249
-160.764	-69.190	-0.350	0.133
-159.750	71.467	-0.079	-0.081
-158.735	-200.000	0.067	0.414
-157.720	135.213	0.144	0.185
-156.706	63.346	-0.187	0.186
-155.691	738.057	0.053	-0.140
-154.677	800.000	-0.043	-0.137
-153.662	-200.000	-0.024	-0.127
-152.647	-200.000	0.003	0.123
-151.633	27.095	-0.061	-0.051
-150.618	9.135	0.259	-0.193
-149.604	4.109	0.096	0.070
-148.589	-200.000	-0.044	0.274
-147.574	54.840	0.142	0.136
-146.560	800.000	-0.013	-0.044
-145.545	-152.567	0.071	-0.005
-144.531	-200.000	-0.036	-0.258
-143.516	125.794	0.107	-0.134
-142.502	800.000	-0.128	-0.373
-141.487	122.948	0.171	-0.212
-140.472	800.000	0.124	-0.345
-139.458	800.000	0.029	-0.117
-138.443	144.794	0.045	-0.059
-137.429	-17.943	0.395	-0.245
-136.414	-97.410	0.199	0.051
-135.399	-200.000	-0.003	-0.102
-134.385	-200.000	0.004	-0.326
-133.370	-87.966	-0.388	-0.115
-132.356	-25.941	0.172	0.100
-131.341	-32.183	0.130	-0.072
-130.326	6.507	0.171	-0.126
-129.312	33.305	-0.197	-0.169
-128.297	-91.257	-0.350	0.099
-127.283	800.000	0.078	-0.231
-126.268	148.891	-0.116	0.156
-125.253	-23.529	-0.074	-0.044
-124.239	361.597	0.009	-0.018
-123.224	209.737	-0.101	0.156
-122.210	-151.018	-0.069	0.005
