DTS Sentinel unit serial number:	SN413079Multiplexer serial number:	ORYXHardware model number:	OX4-SRSoftware version number:	ORYX F/W v4.00 Oryx Data Collector v3.7.2.0data status	okinstallation	princeton_trtdifferential loss correction	single-endedforward channel	channel 4reverse channel	N/Adate	2019/09/16time	08:37:35forward acquisition time	60.00reverse acquisition time	0.00gamma	496.2192k internal	0.2312k external	0.2312temperature offset calibration	0.9975default loss term (dB/km)	0.3790temperature slope calibration	1.0000multiplexer offset coefficient	1.0000multiplexer slope coefficient	1.0000fibre end	0.00T internal ref (°C)	29.55T ext. ref 1 (°C)	11.93T ext. ref 2 (°C)	26.24length (m)	temperature (°C)	Stokes	anti-Stokes-747.200	-74.822	-0.146	0.053
-746.185	-120.723	-0.147	0.025
-745.171	110.443	-0.130	0.159
-744.156	-200.000	-0.046	0.231
-743.142	800.000	-0.052	-0.183
-742.127	-160.533	0.058	-0.003
-741.112	-82.519	0.165	0.054
-740.098	35.081	0.192	0.171
-739.083	-200.000	-0.021	-0.401
-738.069	800.000	-0.134	-0.388
-737.054	-101.448	-0.086	0.021
-736.039	296.672	-0.052	0.096
-735.025	18.249	0.328	0.266
-734.010	-84.780	-0.266	-0.085
-732.996	-75.265	0.107	0.039
-731.981	-61.166	-0.239	-0.102
-730.966	-102.269	-0.115	0.028
-729.952	9.574	-0.188	-0.144
-728.937	182.182	-0.170	-0.254
-727.923	293.210	-0.135	-0.249
-726.908	-135.270	-0.259	0.032
-725.894	-147.423	-0.263	-0.023
-724.879	800.000	0.084	0.272
-723.864	-72.264	0.243	0.091
-722.850	-200.000	0.050	-0.247
-721.835	132.095	0.131	0.171
-720.821	796.142	0.143	0.399
-719.806	223.664	0.102	-0.166
-718.791	-200.000	0.042	-0.212
-717.777	-114.527	-0.043	0.008
-716.762	-66.794	-0.200	0.080
-715.748	-63.212	0.161	-0.067
-714.733	-158.141	-0.390	-0.023
-713.718	-107.228	-0.326	0.073
-712.704	224.177	-0.066	0.109
-711.689	160.595	-0.126	-0.178
-710.675	93.123	-0.116	-0.133
-709.660	-51.832	-0.224	-0.106
-708.645	262.337	0.010	-0.018
-707.631	-200.000	-0.094	-0.479
-706.616	140.284	0.256	0.343
-705.602	-120.692	0.454	0.078
-704.587	403.311	-0.086	-0.183
-703.572	-84.823	0.037	0.012
-702.558	98.249	-0.017	-0.020
-701.543	-200.000	-0.034	0.199
-700.529	178.513	0.148	0.219
-699.514	14.378	0.146	-0.115
-698.499	-200.000	0.019	0.155
-697.485	-200.000	0.040	-0.192
-696.470	-40.289	-0.173	0.091
-695.456	-124.638	-0.080	-0.013
-694.441	-174.327	-0.297	0.009
-693.426	-200.000	-0.002	-0.032
-692.412	-187.924	-0.098	0.001
-691.397	-118.542	0.229	0.041
-690.383	-200.000	-0.003	0.295
-689.368	-45.481	-0.148	-0.074
-688.354	503.930	-0.148	-0.348
-687.339	-124.721	0.242	0.038
-686.324	102.325	-0.250	0.296
-685.310	312.090	-0.072	0.137
-684.295	-20.773	-0.169	0.105
-683.281	443.732	0.049	-0.110
-682.266	800.000	-0.042	-0.187
-681.251	77.107	-0.102	-0.110
-680.237	-53.805	-0.121	0.056
-679.222	459.542	0.092	-0.208
-678.208	135.224	-0.112	-0.148
-677.193	-89.310	0.312	0.093
-676.178	-200.000	-0.011	-0.082
-675.164	800.000	-0.054	-0.237
-674.149	800.000	-0.071	0.249
-673.135	147.600	0.072	0.099
-672.120	121.787	-0.131	0.166
-671.105	220.511	-0.216	-0.350
-670.091	-6.857	-0.168	-0.116
-669.076	-110.239	0.035	-0.007
-668.062	463.155	0.064	-0.145
-667.047	18.165	0.330	-0.267
-666.032	800.000	-0.023	0.093
-665.018	-200.000	-0.003	0.193
-664.003	-166.592	-0.343	-0.014
-662.989	249.653	0.091	0.156
-661.974	1.715	0.151	0.110
-660.959	508.042	0.048	-0.113
-659.945	-144.031	-0.118	-0.011
-658.930	-170.585	-0.188	0.007
-657.916	-126.391	-0.194	0.029
-656.901	593.905	0.030	-0.076
-655.886	-1.659	0.111	0.079
-654.872	-200.000	-0.010	-0.042
-653.857	-200.000	-0.002	-0.081
-652.843	800.000	0.070	-0.265
-651.828	152.329	-0.133	-0.183
-650.814	-189.932	-0.122	-0.001
-649.799	-200.000	0.012	0.317
-648.784	322.855	0.211	0.407
-647.770	800.000	-0.080	0.227
-646.755	12.564	0.172	-0.134
-645.741	-200.000	-0.030	0.318
-644.726	800.000	-0.091	0.255
-643.711	-200.000	-0.054	-0.307
-642.697	-200.000	0.009	-0.401
-641.682	-200.000	0.022	0.324
-640.668	721.351	-0.040	-0.109
-639.653	319.782	-0.069	-0.133
-638.638	800.000	0.043	0.122
-637.624	520.472	-0.144	-0.342
-636.609	-200.000	-0.089	-0.000
-635.595	611.860	-0.093	-0.235
-634.580	-19.179	0.264	-0.165
-633.565	800.000	0.041	0.155
-632.551	-91.209	-0.247	-0.072
-631.536	-46.329	0.183	0.091
-630.522	-68.814	-0.112	-0.044
-629.507	-123.469	0.226	-0.036
-628.492	-200.000	-0.020	-0.091
-627.478	-118.890	-0.375	-0.067
-626.463	-149.919	-0.406	-0.032
-625.449	-188.943	-0.538	-0.007
-624.434	-49.139	-0.139	0.067
-623.419	-120.858	-0.221	0.038
-622.405	-11.849	0.291	0.192
-621.390	58.728	-0.192	-0.191
-620.376	-37.197	-0.139	-0.075
-619.361	-122.414	0.182	0.030
-618.346	-65.026	-0.151	-0.061
-617.332	145.248	-0.077	-0.104
-616.317	477.721	-0.138	-0.316
-615.303	-200.000	0.000	-0.070
-614.288	168.084	0.095	0.136
-613.273	800.000	-0.032	0.091
-612.259	-9.827	-0.272	0.183
-611.244	-75.159	-0.163	0.059
-610.230	-112.961	0.120	-0.024
-609.215	303.432	-0.113	-0.211
-608.201	51.032	0.056	0.054
-607.186	78.862	0.200	0.216
-606.171	-200.000	0.027	-0.168
-605.157	-99.783	-0.180	0.045
-604.142	-157.822	0.024	0.001
-603.128	69.384	0.194	-0.202
-602.113	-98.549	0.173	0.045
-601.098	30.110	0.032	-0.028
-600.084	-58.121	-0.081	-0.035
-599.069	-85.675	0.433	0.136
-598.055	692.837	0.107	0.284
-597.040	-123.279	0.201	0.032
-596.025	798.935	-0.034	-0.095
-595.011	-124.849	0.069	-0.011
-593.996	-55.940	-0.078	-0.035
-592.982	-21.432	-0.130	-0.080
-591.967	800.000	0.064	0.228
-590.952	-183.767	-0.064	-0.001
-589.938	-39.833	0.312	0.164
-588.923	-135.456	0.235	0.028
-587.909	-200.000	-0.009	-0.178
-586.894	-76.234	-0.285	-0.101
-585.879	-99.683	0.196	-0.050
-584.865	630.199	0.119	-0.304
-583.850	-48.595	0.037	0.018
-582.836	-200.000	-0.056	0.300
-581.821	19.049	-0.102	0.082
-580.806	-59.955	-0.276	-0.119
-579.792	11.337	0.125	-0.096
-578.777	-4.605	0.081	0.057
-577.763	70.638	0.056	-0.059
-576.748	-200.000	-0.050	0.246
-575.733	-123.251	-0.152	0.025
-574.719	-200.000	-0.027	-0.411
-573.704	249.320	0.067	0.115
-572.690	-4.523	-0.060	0.042
-571.675	-78.260	-0.069	-0.024
-570.661	4.061	0.239	-0.177
-569.646	-96.942	0.300	0.079
-568.631	-51.452	-0.081	-0.038
-567.617	-107.908	-0.356	-0.078
-566.602	257.047	-0.189	-0.328
-565.588	-156.145	0.176	0.011
-564.573	-137.368	0.144	-0.017
-563.558	-20.469	0.170	0.105
-562.544	128.803	-0.249	0.320
-561.529	800.000	0.081	-0.304
-560.515	27.271	-0.245	0.207
-559.500	800.000	0.049	0.151
-558.485	-139.653	0.101	-0.011
-557.471	-106.119	-0.154	-0.035
-556.456	10.502	-0.319	-0.245
-555.442	84.510	-0.151	-0.167
-554.427	673.830	-0.126	-0.330
-553.412	-14.918	0.076	-0.049
-552.398	-200.000	0.012	0.130
-551.383	-147.334	0.072	-0.006
-550.369	-57.335	0.102	-0.045
-549.354	67.458	0.088	0.091
-548.339	-13.962	0.031	0.020
-547.325	-200.000	0.019	0.116
-546.310	206.205	0.125	0.196
-545.296	-76.964	0.048	0.017
-544.281	-200.000	0.002	0.075
-543.266	800.000	-0.092	0.273
-542.252	-21.519	-0.344	0.211
-541.237	-200.000	-0.009	-0.174
-540.223	72.754	-0.076	0.080
-539.208	-59.648	-0.171	-0.074
-538.193	-53.338	0.210	0.097
-537.179	-196.074	-0.113	-0.001
-536.164	-200.000	0.061	-0.329
-535.150	-16.979	-0.320	0.203
-534.135	19.837	0.098	0.079
-533.121	-92.958	-0.104	0.029
-532.106	-67.915	-0.111	-0.043
-531.091	-87.061	0.178	0.055
-530.077	287.820	-0.027	0.048
-529.062	800.000	-0.138	-0.409
-528.048	79.376	-0.155	-0.168
-527.033	17.515	0.088	-0.070
-526.018	800.000	0.076	0.229
-525.004	75.225	-0.200	0.213
-523.989	-121.591	0.274	0.046
-522.975	-200.000	-0.033	0.251
-521.960	-131.438	-0.281	0.037
-520.945	24.540	0.008	-0.007
-519.931	-162.705	0.169	-0.008
-518.916	-98.355	-0.106	-0.027
-517.902	-40.798	-0.394	0.205
-516.887	800.000	-0.080	-0.270
-515.872	130.417	-0.089	0.115
-514.858	-124.337	0.179	-0.028
-513.843	-120.231	0.630	0.108
-512.829	800.000	0.056	0.244
-511.814	-200.000	0.013	-0.123
-510.799	-43.920	0.209	0.106
-509.785	-41.329	-0.269	0.139
-508.770	102.121	0.092	0.108
-507.756	-91.360	0.126	0.036
-506.741	-200.000	0.003	0.113
-505.726	-200.000	-0.067	-0.336
-504.712	-34.238	-0.188	-0.104
-503.697	-81.021	0.173	-0.058
-502.683	-87.896	0.163	-0.049
-501.668	-104.068	0.075	0.017
-500.653	-200.000	0.017	-0.331
-499.639	467.874	0.048	-0.108
-498.624	226.004	0.081	-0.132
-497.610	133.128	-0.133	-0.172
-496.595	295.624	-0.161	-0.296
-495.581	341.841	-0.073	0.144
-494.566	60.111	0.188	0.187
-493.551	272.536	0.166	-0.295
-492.537	800.000	-0.082	0.286
-491.522	800.000	0.137	-0.486
-490.508	223.198	0.173	-0.280
-489.493	261.394	-0.106	-0.185
-488.478	-167.705	0.173	-0.007
-487.464	-50.666	-0.258	0.122
-486.449	-37.216	-0.112	-0.060
-485.435	-200.000	-0.023	0.389
-484.420	94.835	0.075	0.086
-483.405	320.952	-0.176	-0.335
-482.391	520.399	0.049	-0.116
-481.376	-119.202	0.300	-0.053
-480.362	-200.000	-0.005	-0.216
-479.347	5.351	0.054	-0.040
-478.332	116.719	-0.326	0.401
-477.318	-140.104	-0.472	0.050
-476.303	800.000	-0.026	0.106
-475.289	800.000	-0.063	0.221
-474.274	-48.358	-0.237	-0.115
-473.259	94.863	-0.104	0.119
-472.245	182.126	-0.047	0.069
-471.230	3.486	-0.089	0.065
-470.216	130.552	0.171	-0.220
-469.201	-200.000	-0.071	0.384
-468.186	-200.000	-0.000	0.175
-467.172	-87.635	-0.076	0.023
-466.157	-96.412	-0.178	0.047
-465.143	-129.567	-0.021	-0.003
-464.128	-200.000	0.024	0.192
-463.113	288.794	0.049	0.089
-462.099	214.103	-0.103	-0.163
-461.084	368.475	-0.100	0.203
-460.070	-105.936	0.173	-0.039
-459.055	-28.183	-0.078	-0.045
-458.040	-200.000	0.004	-0.021
-457.026	-180.490	-0.105	0.002
-456.011	141.811	0.108	-0.144
-454.997	-70.742	-0.058	0.022
-453.982	395.839	0.064	0.135
-452.968	305.662	-0.156	-0.291
-451.953	-33.566	0.090	0.050
-450.938	-91.626	-0.143	0.041
-449.924	-13.192	-0.027	-0.017
-448.909	-105.223	-0.209	-0.048
-447.895	169.305	-0.027	0.039
-446.880	30.558	0.344	0.295
-445.865	130.981	-0.228	-0.293
-444.851	-166.135	-0.225	0.010
-443.836	-29.635	-0.178	-0.102
-442.822	-200.000	0.031	0.179
-441.807	-30.745	0.274	-0.155
-440.792	-200.000	0.012	-0.081
-439.778	96.585	-0.102	0.117
-438.763	-46.860	0.302	0.148
-437.749	-130.819	-0.265	-0.036
-436.734	800.000	0.090	-0.372
-435.719	61.058	0.041	0.041
-434.705	144.089	-0.229	0.306
-433.690	21.318	-0.168	0.137
-432.676	701.157	0.077	0.203
-431.661	142.832	-0.080	-0.106
-430.646	449.080	0.017	0.038
-429.632	-25.236	0.150	-0.089
-428.617	-21.622	-0.132	0.080
-427.603	149.057	0.073	-0.099
-426.588	77.160	0.123	0.131
-425.573	-200.000	0.020	-0.201
-424.559	-74.094	-0.327	-0.119
-423.544	-131.473	-0.053	-0.007
-422.530	-85.140	0.134	-0.042
-421.515	170.473	-0.175	0.251
-420.500	-111.023	0.282	0.058
-419.486	-187.561	0.249	-0.003
-418.471	-99.162	0.247	0.063
-417.457	168.267	0.047	-0.068
-416.442	-33.104	0.464	0.258
-415.428	-200.000	0.032	0.381
-414.413	40.715	0.139	0.126
-413.398	800.000	0.069	-0.206
-412.384	53.201	0.311	0.299
-411.369	800.000	-0.072	0.245
-410.355	349.625	0.054	-0.107
-409.340	-111.380	0.162	0.033
-408.325	31.757	0.157	-0.136
-407.311	113.363	-0.081	-0.098
-406.296	-200.000	0.001	0.300
-405.282	-31.153	0.103	-0.058
-404.267	297.923	-0.048	-0.088
-403.252	-109.077	0.328	-0.070
-402.238	-200.000	-0.010	-0.101
-401.223	-200.000	-0.002	0.104
-400.209	-200.000	-0.024	0.174
-399.194	-200.000	0.008	-0.213
-398.179	-200.000	0.007	0.037
-397.165	-200.000	-0.059	0.316
-396.150	2.800	-0.221	0.160
-395.136	800.000	0.159	0.447
-394.121	509.016	0.087	-0.202
-393.106	-34.503	-0.341	-0.187
-392.092	49.141	0.070	-0.066
-391.077	112.527	-0.133	-0.162
-390.063	-200.000	-0.037	0.281
-389.048	-79.217	0.185	0.063
-388.033	-11.880	0.203	-0.133
-387.019	591.499	0.011	0.026
-386.004	34.877	-0.166	-0.145
-384.990	66.740	-0.061	0.062
-383.975	79.847	-0.093	-0.100
-382.960	340.490	-0.081	0.158
-381.946	342.414	-0.110	0.215
-380.931	464.597	-0.034	-0.076
-379.917	-155.524	0.433	0.028
-378.902	-135.782	0.269	-0.032
-377.888	117.973	-0.266	0.328
-376.873	22.887	-0.308	0.253
-375.858	159.908	0.068	-0.094
-374.844	496.786	0.107	-0.246
-373.829	360.088	0.168	-0.337
-372.815	800.000	0.055	-0.210
-371.800	800.000	0.044	-0.128
-370.785	181.870	0.032	-0.048
-369.771	37.148	0.034	0.030
-368.756	-31.623	0.114	-0.064
-367.742	85.165	0.070	0.077
-366.727	-129.039	0.272	-0.038
-365.712	-141.576	0.239	0.024
-364.698	164.201	-0.122	-0.171
-363.683	728.616	-0.110	-0.295
-362.669	-6.099	0.131	0.090
-361.654	45.202	-0.184	-0.169
-360.639	-1.947	-0.297	0.209
-359.625	-158.756	-0.068	-0.004
-358.610	-107.332	0.200	-0.044
-357.596	800.000	0.063	-0.199
-356.581	166.979	-0.093	-0.132
-355.566	357.813	-0.128	-0.254
-354.552	-200.000	0.040	0.418
-353.537	800.000	0.164	-0.467
-352.523	-200.000	-0.001	0.071
-351.508	-154.253	-0.348	-0.023
-350.493	-9.709	-0.226	-0.150
-349.479	-122.602	0.080	0.013
-348.464	800.000	-0.074	-0.236
-347.450	-200.000	0.047	0.241
-346.435	705.338	-0.054	0.143
-345.420	292.127	0.047	-0.085
-344.406	-124.798	0.051	0.008
-343.391	82.442	0.084	-0.091
-342.377	-173.505	-0.308	0.009
-341.362	274.348	-0.056	0.099
-340.348	122.407	-0.024	-0.030
-339.333	3.077	0.185	-0.134
-338.318	-133.063	-0.119	0.015
-337.304	231.104	-0.141	-0.231
-336.289	-58.241	-0.213	0.092
-335.275	-120.603	-0.114	-0.019
-334.260	800.000	-0.124	-0.384
-333.245	-200.000	0.045	-0.246
-332.231	-95.413	0.277	0.074
-331.216	-200.000	0.001	-0.095
-330.202	-200.000	-0.029	0.233
-329.187	-91.243	-0.064	0.018
-328.172	678.447	0.032	-0.084
-327.158	274.312	0.062	-0.110
-326.143	76.990	0.210	-0.222
-325.129	800.000	-0.097	-0.321
-324.114	-158.001	0.230	-0.014
-323.099	-200.000	0.103	0.517
-322.085	65.772	-0.296	-0.300
-321.070	40.272	-0.090	-0.081
-320.056	-81.448	-0.042	-0.014
-319.041	-121.249	-0.122	0.020
-318.026	216.229	-0.130	-0.206
-317.012	-196.335	-0.079	0.001
-315.997	-120.810	0.362	-0.061
-314.983	430.470	0.059	-0.128
-313.968	61.583	0.111	0.110
-312.953	229.402	0.087	0.141
-311.939	116.432	0.100	0.122
-310.924	-121.381	0.087	-0.014
-309.910	28.267	0.269	-0.227
-308.895	55.508	0.066	-0.064
-307.880	-65.598	-0.118	0.047
-306.866	-106.523	-0.261	0.058
-305.851	-102.633	-0.170	-0.041
-304.837	-121.300	0.377	0.063
-303.822	419.453	0.063	0.135
-302.807	-200.000	-0.050	0.447
-301.793	-44.529	-0.143	-0.071
-300.778	-200.000	-0.070	0.330
-299.764	-200.000	0.004	-0.049
-298.749	-200.000	-0.025	-0.114
-297.735	340.261	-0.084	0.163
-296.720	-117.918	-0.220	0.039
-295.705	-132.629	-0.141	0.018
-294.691	-200.000	-0.008	0.316
-293.676	-62.421	-0.346	-0.144
-292.662	-96.314	-0.134	-0.035
-291.647	800.000	0.027	-0.080
-290.632	335.967	0.063	-0.122
-289.618	-200.000	0.032	-0.192
-288.603	-36.220	0.083	0.045
-287.589	-111.533	-0.099	0.020
-286.574	-200.000	-0.053	-0.260
-285.559	114.239	0.182	-0.220
-284.545	-75.755	0.099	-0.035
-283.530	-200.000	0.015	-0.228
-282.516	104.984	0.101	-0.119
-281.501	-35.758	-0.090	-0.049
-280.486	-200.000	0.024	-0.187
-279.472	800.000	0.050	0.171
-278.457	-117.625	-0.073	0.013
-277.443	496.571	-0.075	-0.173
-276.428	-34.026	0.461	-0.252
-275.413	117.967	-0.243	0.298
-274.399	-10.982	-0.199	0.131
-273.384	-14.196	0.141	0.090
-272.370	-30.261	0.247	0.140
-271.355	800.000	-0.069	0.193
-270.340	124.790	0.112	-0.140
-269.326	-200.000	0.078	0.392
-268.311	-24.661	0.169	0.100
-267.297	-200.000	0.011	0.541
-266.282	-70.693	0.118	-0.044
-265.267	56.647	0.137	0.132
-264.253	-174.444	0.157	-0.004
-263.238	-3.267	-0.240	-0.167
-262.224	485.375	0.172	0.390
-261.209	-200.000	0.028	0.311
-260.195	-98.943	0.103	-0.026
-259.180	800.000	0.042	-0.155
-258.165	84.925	-0.357	-0.390
-257.151	-141.216	-0.274	0.028
-256.136	-200.000	0.039	0.248
-255.122	-44.972	-0.208	0.103
-254.107	-100.749	0.341	-0.084
-253.092	-142.589	0.363	0.035
-252.078	800.000	0.073	0.217
-251.063	143.608	0.140	-0.186
-250.049	-77.989	0.195	-0.067
-249.034	584.087	0.060	-0.147
-248.019	-101.682	-0.371	0.090
-247.005	362.288	0.067	0.134
-245.990	-200.000	0.006	0.056
-244.976	-14.404	-0.069	-0.044
-243.961	245.237	0.175	-0.293
-242.946	-44.078	-0.111	-0.055
-241.932	-102.751	-0.237	-0.056
-240.917	390.138	0.104	-0.215
-239.903	280.678	-0.102	0.181
-238.888	45.323	0.248	-0.228
-237.873	132.671	0.097	0.124
-236.859	35.202	0.159	0.139
-235.844	-200.000	-0.004	0.053
-234.830	800.000	-0.040	-0.143
-233.815	-111.065	0.128	0.026
-232.800	800.000	0.119	0.398
-231.786	46.581	-0.101	-0.093
-230.771	68.449	-0.273	-0.279
-229.757	-200.000	0.055	-0.330
-228.742	800.000	0.075	0.257
-227.727	-148.217	-0.355	0.029
-226.713	-43.484	-0.087	-0.044
-225.698	153.921	-0.058	0.079
-224.684	23.495	0.240	0.196
-223.669	545.231	0.116	-0.276
-222.655	58.464	0.051	0.049
-221.640	146.497	0.199	-0.266
-220.625	29.086	-0.114	0.096
-219.611	800.000	0.143	0.503
-218.596	-193.363	-0.246	-0.002
-217.582	-135.340	0.174	-0.021
-216.567	350.439	0.092	-0.182
-215.552	299.612	0.034	-0.063
-214.538	-200.000	-0.027	0.156
-213.523	173.536	-0.159	0.227
-212.509	2.898	-0.284	0.205
-211.494	-78.310	0.161	-0.055
-210.479	-16.365	-0.158	-0.099
-209.465	409.947	0.137	0.290
-208.450	-170.008	-0.107	0.004
-207.436	-3.045	-0.072	0.050
-206.421	187.660	0.167	0.248
-205.406	-41.729	0.213	-0.109
-204.392	-15.577	-0.096	-0.061
-203.377	-84.087	-0.104	-0.033
-202.363	301.718	0.055	0.100
-201.348	182.553	-0.170	-0.249
-200.333	-71.266	0.206	-0.077
-199.319	109.501	0.241	-0.286
-198.304	-65.655	-0.395	0.157
-197.290	798.432	-0.090	0.247
-196.275	63.200	0.149	-0.148
-195.260	-200.000	0.007	-0.055
-194.246	-117.968	0.333	-0.059
-193.231	-54.119	-0.106	0.048
-192.217	-200.000	0.025	-0.166
-191.202	575.349	0.127	0.308
-190.187	83.455	0.260	-0.282
-189.173	19.330	-0.067	0.054
-188.158	-200.000	-0.030	-0.194
-187.144	195.425	0.198	-0.299
-186.129	-118.622	-0.371	0.065
-185.114	-113.304	-0.419	-0.082
-184.100	-200.000	-0.008	-0.156
-183.085	-170.633	-0.226	-0.008
-182.071	133.140	0.133	0.171
-181.056	-4.292	-0.171	0.117
-180.042	-200.000	0.052	-0.290
-179.027	66.103	0.061	0.061
-178.012	161.734	0.066	0.092
-176.998	-76.101	0.185	0.065
-175.983	-23.227	0.260	0.155
-174.969	-39.161	-0.352	0.184
-173.954	374.558	-0.121	0.245
-172.939	800.000	0.041	-0.140
-171.925	-98.434	0.171	-0.043
-170.910	186.515	-0.153	0.227
-169.896	-104.208	0.501	0.115
-168.881	25.722	0.273	0.226
-167.866	20.737	-0.203	0.163
-166.852	800.000	0.049	-0.175
-165.837	54.301	0.140	0.134
-164.823	-200.000	-0.030	-0.182
-163.808	-48.395	0.083	0.040
-162.793	800.000	0.036	-0.148
-161.779	-90.373	-0.255	0.073
-160.764	-181.342	0.331	0.006
-159.750	800.000	0.063	-0.209
-158.735	-200.000	-0.040	0.195
-157.720	29.842	0.201	-0.170
-156.706	-70.947	0.242	0.090
-155.691	388.489	0.145	-0.297
-154.677	800.000	-0.040	-0.160
-153.662	88.797	-0.188	0.207
-152.647	51.114	-0.190	-0.179
-151.633	-98.421	-0.233	-0.059
-150.618	-67.894	-0.109	0.042
-149.604	800.000	-0.052	-0.218
-148.589	93.250	-0.082	-0.092
-147.574	-114.300	-0.236	0.045
-146.560	27.690	-0.243	0.203
-145.545	9.449	0.068	-0.051
-144.531	-200.000	-0.007	-0.202
-143.516	-7.647	0.357	0.239
-142.502	800.000	0.103	0.380
-141.487	-200.000	0.022	0.174
-140.472	-183.622	0.075	0.001
-139.458	64.419	0.029	0.029
-138.443	-200.000	0.023	0.167
-137.429	-151.327	0.132	0.010
-136.414	-66.346	-0.183	-0.072
-135.399	105.600	-0.083	0.098
-134.385	-200.000	-0.010	0.261
-133.370	-141.957	-0.374	0.037
-132.356	-200.000	0.294	0.000
-131.341	429.833	0.095	-0.203
-130.326	-200.000	0.033	0.287
-129.312	-88.072	0.253	-0.075
-128.297	-16.097	0.039	0.025
-127.283	28.374	0.229	0.192
-126.268	-31.817	-0.243	-0.135
-125.253	77.793	-0.290	0.306
-124.239	-10.913	0.120	-0.078
-123.224	800.000	0.056	-0.185
-122.210	-94.944	-0.479	0.128
