DTS Sentinel unit serial number:	SN413079Multiplexer serial number:	ORYXHardware model number:	OX4-SRSoftware version number:	ORYX F/W v4.00 Oryx Data Collector v3.7.2.0data status	okinstallation	princeton_trtdifferential loss correction	single-endedforward channel	channel 4reverse channel	N/Adate	2019/09/14time	15:53:34forward acquisition time	60.00reverse acquisition time	0.00gamma	496.2192k internal	0.2292k external	0.2292temperature offset calibration	1.0137default loss term (dB/km)	0.3790temperature slope calibration	1.0000multiplexer offset coefficient	1.0000multiplexer slope coefficient	1.0000fibre end	0.00T internal ref (°C)	38.69T ext. ref 1 (°C)	5.12T ext. ref 2 (°C)	33.39length (m)	temperature (°C)	Stokes	anti-Stokes-747.200	45.885	0.213	0.202
-746.185	117.771	0.120	-0.151
-745.171	-45.002	-0.162	0.083
-744.156	-58.880	0.069	-0.031
-743.142	85.974	-0.081	-0.092
-742.127	-127.347	-0.449	-0.067
-741.112	24.997	-0.236	0.201
-740.098	-125.623	-0.045	-0.007
-739.083	-41.253	-0.297	-0.157
-738.069	361.756	0.146	0.300
-737.054	-200.000	0.008	0.198
-736.039	-129.468	-0.505	0.072
-735.025	-36.230	0.268	0.148
-734.010	-200.000	0.031	-0.418
-732.996	-81.711	0.267	0.090
-731.981	12.153	-0.231	-0.182
-730.966	800.000	-0.036	-0.151
-729.952	15.971	-0.311	-0.250
-728.937	800.000	0.142	0.513
-727.923	131.394	-0.361	-0.475
-726.908	54.008	0.080	-0.079
-725.894	76.582	-0.052	0.057
-724.879	75.193	0.149	0.161
-723.864	800.000	0.074	0.278
-722.850	214.541	-0.107	0.174
-721.835	-96.515	-0.392	0.106
-720.821	222.757	-0.088	-0.144
-719.806	13.508	-0.108	0.085
-718.791	-34.362	-0.206	0.115
-717.777	-104.303	-0.316	0.075
-716.762	800.000	0.088	0.288
-715.748	-200.000	-0.008	0.262
-714.733	-37.548	-0.172	0.094
-713.718	128.590	0.171	-0.223
-712.704	-56.870	-0.078	0.035
-711.689	-200.000	0.039	0.488
-710.675	-99.580	0.140	-0.036
-709.660	-38.994	-0.368	-0.198
-708.645	800.000	-0.083	-0.325
-707.631	542.502	-0.114	-0.277
-706.616	-141.896	-0.098	-0.010
-705.602	-200.000	-0.056	0.286
-704.587	-200.000	-0.025	0.141
-703.572	30.266	-0.120	0.105
-702.558	152.531	0.170	0.237
-701.543	-54.667	-0.182	-0.084
-700.529	-25.837	-0.174	0.104
-699.514	-35.987	0.088	0.049
-698.499	390.234	0.184	-0.391
-697.485	587.263	0.075	-0.188
-696.470	37.350	0.172	-0.156
-695.456	117.297	-0.108	-0.136
-694.441	-200.000	0.175	0.001
-693.426	-174.544	-0.227	0.007
-692.412	-76.097	0.246	-0.089
-691.397	246.494	-0.148	0.256
-690.383	489.796	-0.049	-0.115
-689.368	-61.037	0.241	0.104
-688.354	800.000	-0.073	0.320
-687.339	24.112	-0.169	-0.143
-686.324	800.000	0.022	-0.095
-685.310	800.000	0.054	0.183
-684.295	113.074	0.097	-0.120
-683.281	-100.891	0.191	-0.048
-682.266	261.685	-0.095	0.168
-681.251	-8.488	0.159	-0.109
-680.237	-200.000	0.012	0.078
-679.222	-200.000	-0.030	0.185
-678.208	-38.785	0.090	0.048
-677.193	-136.478	0.045	0.005
-676.178	58.324	-0.059	-0.059
-675.164	38.157	-0.237	-0.215
-674.149	-78.170	0.172	-0.060
-673.135	-59.824	0.127	-0.056
-672.120	-29.897	-0.084	-0.049
-671.105	-79.834	0.212	0.073
-670.091	271.366	0.096	-0.173
-669.076	-42.440	0.190	-0.099
-668.062	-8.506	-0.255	0.175
-667.047	-64.538	-0.244	0.101
-666.032	22.097	-0.118	0.098
-665.018	800.000	-0.100	0.330
-664.003	63.533	0.016	0.017
-662.989	-61.904	-0.039	-0.016
-661.974	-27.131	0.128	0.076
-660.959	92.452	0.248	0.285
-659.945	-200.000	0.024	0.165
-658.930	800.000	0.050	0.199
-657.916	800.000	-0.035	0.105
-656.901	600.885	-0.054	0.137
-655.886	-200.000	0.034	-0.172
-654.872	-23.891	-0.017	0.010
-653.857	-77.545	0.287	-0.101
-652.843	-0.231	-0.196	-0.142
-651.828	-200.000	-0.011	0.063
-650.814	635.447	0.086	0.221
-649.799	86.049	0.196	-0.220
-648.784	-16.834	-0.174	0.112
-647.770	-200.000	-0.006	0.150
-646.755	-58.688	0.173	-0.076
-645.741	14.554	-0.386	0.307
-644.726	-105.918	0.160	0.037
-643.711	3.127	0.307	0.228
-642.697	-107.101	-0.123	0.028
-641.682	-200.000	-0.003	0.036
-640.668	-2.376	-0.178	0.127
-639.653	446.693	-0.126	-0.283
-638.638	107.101	0.081	0.098
-637.624	101.950	0.114	-0.136
-636.609	204.918	0.132	0.209
-635.595	-200.000	-0.018	0.112
-634.580	-99.246	0.088	0.023
-633.565	292.929	0.018	0.034
-632.551	-149.070	-0.054	0.004
-631.536	800.000	0.069	-0.237
-630.522	510.119	0.034	-0.080
-629.507	800.000	0.061	0.262
-628.492	-136.915	0.199	0.023
-627.478	-16.429	-0.053	0.034
-626.463	750.263	-0.162	0.444
-625.449	-200.000	-0.040	-0.234
-624.434	-40.127	-0.287	-0.152
-623.419	378.802	0.169	-0.352
-622.405	-200.000	0.007	0.152
-621.390	32.261	-0.105	-0.092
-620.376	-95.429	0.197	-0.054
-619.361	4.965	-0.198	0.148
-618.346	-200.000	-0.004	0.067
-617.332	-200.000	-0.009	0.092
-616.317	-25.184	0.297	0.179
-615.303	-59.676	-0.120	0.053
-614.288	-139.265	0.087	0.010
-613.273	397.384	-0.152	0.324
-612.259	54.330	-0.122	0.120
-611.244	-200.000	0.027	-0.327
-610.230	-104.854	-0.139	-0.033
-609.215	-200.000	-0.027	0.121
-608.201	-200.000	-0.031	-0.156
-607.186	-133.460	-0.547	0.070
-606.171	-200.000	-0.001	0.350
-605.157	-149.080	-0.355	0.029
-604.142	-147.828	-0.111	0.009
-603.128	241.805	0.114	-0.195
-602.113	-62.456	-0.219	-0.093
-601.098	307.738	-0.030	0.057
-600.084	342.489	-0.131	-0.260
-599.069	-52.304	-0.069	-0.032
-598.055	-200.000	-0.043	0.508
-597.040	138.298	0.115	0.154
-596.025	289.016	-0.101	0.186
-595.011	-76.636	0.372	0.133
-593.996	-168.228	0.093	0.004
-592.982	154.932	0.196	-0.274
-591.967	-50.419	0.131	0.063
-590.952	101.881	0.063	-0.074
-589.938	103.173	0.136	-0.162
-588.923	48.488	-0.066	0.063
-587.909	192.372	0.171	0.262
-586.894	-200.000	-0.032	-0.272
-585.879	-32.587	0.287	0.162
-584.865	-158.166	0.354	-0.021
-583.850	529.055	0.124	0.297
-582.836	62.965	0.119	0.122
-581.821	90.359	-0.083	-0.095
-580.806	-37.704	0.160	0.086
-579.792	-161.949	-0.440	0.023
-578.777	59.283	0.162	0.162
-577.763	-47.232	0.143	0.071
-576.748	-200.000	0.044	0.251
-575.733	290.375	-0.055	-0.101
-574.719	800.000	0.083	0.335
-573.704	367.551	-0.096	-0.198
-572.690	123.908	-0.097	-0.124
-571.675	-23.162	0.111	0.068
-570.661	-200.000	-0.033	-0.384
-569.646	-200.000	0.006	-0.181
-568.631	374.587	-0.117	-0.243
-567.617	535.707	-0.022	0.054
-566.602	129.885	0.216	-0.281
-565.588	-86.853	-0.228	0.071
-564.573	800.000	0.031	-0.111
-563.558	25.081	0.274	-0.231
-562.544	800.000	0.050	0.213
-561.529	-200.000	0.020	-0.366
-560.515	199.199	0.174	-0.272
-559.500	-45.522	0.233	-0.117
-558.485	1.060	0.281	0.205
-557.471	-67.588	0.084	0.033
-556.456	275.339	0.126	-0.226
-555.442	800.000	-0.048	-0.211
-554.427	53.132	-0.226	-0.220
-553.412	-23.183	-0.094	0.057
-552.398	800.000	-0.091	0.272
-551.383	-141.448	-0.305	-0.031
-550.369	800.000	0.107	-0.304
-549.354	377.106	0.072	0.149
-548.339	-77.483	0.328	0.115
-547.325	-200.000	-0.022	-0.117
-546.310	151.018	0.063	-0.086
-545.296	-200.000	0.008	-0.059
-544.281	-43.619	-0.194	0.099
-543.266	778.821	0.060	-0.166
-542.252	227.814	0.091	-0.151
-541.237	-83.793	0.140	-0.045
-540.223	-5.577	0.072	-0.050
-539.208	800.000	-0.057	0.166
-538.193	-137.903	-0.140	-0.016
-537.179	789.624	-0.064	0.178
-536.164	584.290	-0.087	0.217
-535.150	345.710	-0.057	0.114
-534.135	800.000	0.015	0.062
-533.121	-96.553	0.121	-0.032
-532.106	800.000	0.063	0.261
-531.091	800.000	-0.047	-0.204
-530.077	189.177	0.210	-0.320
-529.062	800.000	0.047	0.142
-528.048	-200.000	0.026	-0.241
-527.033	19.731	-0.238	-0.194
-526.018	-128.154	-0.336	0.049
-525.004	-116.885	0.213	-0.040
-523.989	197.898	-0.100	-0.155
-522.975	800.000	0.028	0.120
-521.960	-200.000	-0.017	-0.291
-520.945	-7.830	0.217	-0.149
-519.931	-125.647	0.153	-0.024
-518.916	-200.000	0.040	0.231
-517.902	-150.683	0.283	0.022
-516.887	800.000	0.058	-0.183
-515.872	800.000	-0.068	-0.205
-514.858	-200.000	0.037	0.330
-513.843	137.844	0.177	0.236
-512.829	-119.662	0.369	-0.065
-511.814	-200.000	0.001	0.226
-510.799	76.416	0.306	-0.329
-509.785	356.997	0.114	-0.231
-508.770	-62.438	-0.231	-0.097
-507.756	19.076	-0.185	-0.150
-506.741	183.436	0.104	-0.156
-505.726	800.000	0.088	-0.307
-504.712	-200.000	0.054	-0.310
-503.697	-123.967	-0.296	-0.047
-502.683	221.397	-0.143	0.233
-501.668	376.703	0.109	0.225
-500.653	-200.000	-0.026	0.302
-499.639	-200.000	-0.034	-0.219
-498.624	-34.903	0.214	0.119
-497.610	157.107	-0.111	-0.155
-496.595	-200.000	-0.019	-0.099
-495.581	172.437	-0.155	-0.226
-494.566	-200.000	-0.063	0.304
-493.551	354.256	0.118	-0.237
-492.537	40.336	0.092	0.084
-491.522	-13.529	0.118	-0.077
-490.508	-200.000	-0.067	-0.344
-489.493	-200.000	-0.193	0.000
-488.478	-3.341	0.292	-0.206
-487.464	-200.000	-0.093	-0.413
-486.449	226.015	0.023	-0.038
-485.435	-37.640	0.423	-0.228
-484.420	53.092	-0.160	-0.155
-483.405	92.448	0.161	-0.184
-482.391	-137.640	-0.230	0.026
-481.376	-111.655	-0.206	0.042
-480.362	-118.644	0.198	-0.035
-479.347	665.993	0.086	-0.225
-478.332	239.264	0.102	-0.171
-477.318	-200.000	0.023	-0.147
-476.303	-103.061	-0.281	0.067
-475.289	800.000	-0.060	0.245
-474.274	-146.505	0.127	0.011
-473.259	-54.033	-0.200	-0.092
-472.245	55.780	0.133	0.130
-471.230	800.000	0.040	0.165
-470.216	-35.216	-0.043	-0.024
-469.201	-200.000	0.023	-0.323
-468.186	-6.218	-0.145	-0.100
-467.172	123.521	-0.102	0.129
-466.157	-74.256	-0.132	-0.048
-465.143	-200.000	-0.008	-0.100
-464.128	-193.491	0.215	0.002
-463.113	-144.559	0.106	-0.010
-462.099	-40.394	0.271	0.142
-461.084	421.631	0.038	0.083
-460.070	-38.078	-0.249	-0.134
-459.055	177.933	-0.080	0.118
-458.040	-200.000	-0.012	0.224
-457.026	27.199	-0.093	0.079
-456.011	-200.000	-0.204	-0.001
-454.997	-99.575	0.359	0.091
-453.982	98.967	-0.066	-0.078
-452.968	161.854	-0.189	-0.268
-451.953	-129.383	-0.427	0.060
-450.938	203.484	0.047	0.073
-449.924	46.422	0.122	-0.115
-448.909	115.155	-0.138	-0.170
-447.895	-184.381	-0.101	-0.002
-446.880	99.538	-0.151	0.177
-445.865	-9.714	0.135	0.091
-444.851	545.522	0.050	0.120
-443.836	76.469	0.163	-0.175
-442.822	800.000	-0.071	-0.299
-441.807	139.015	0.050	-0.067
-440.792	36.491	0.129	0.115
-439.778	-200.000	-0.005	-0.100
-438.763	-200.000	0.007	-0.092
-437.749	47.721	0.112	0.106
-436.734	174.688	0.070	0.103
-435.719	168.639	-0.053	-0.076
-434.705	-200.000	0.043	0.253
-433.690	-200.000	-0.014	-0.106
-432.676	30.831	-0.096	0.083
-431.661	-71.501	-0.328	0.124
-430.646	-111.565	-0.082	-0.017
-429.632	0.435	-0.091	-0.066
-428.617	-200.000	-0.018	-0.206
-427.603	-61.750	-0.269	0.114
-426.588	586.522	-0.086	0.214
-425.573	-49.495	-0.095	0.046
-424.559	-200.000	-0.005	-0.186
-423.544	-25.328	-0.261	0.156
-422.530	162.818	-0.071	-0.101
-421.515	-200.000	0.076	-0.357
-420.500	800.000	-0.083	0.269
-419.486	800.000	0.072	0.255
-418.471	417.873	0.110	0.238
-417.457	-101.392	-0.411	0.101
-416.442	-158.545	-0.254	0.015
-415.428	-123.474	0.114	0.018
-414.413	45.048	-0.145	-0.135
-413.398	356.386	0.140	-0.281
-412.384	105.658	0.178	-0.213
-411.369	-120.839	-0.447	0.076
-410.355	82.958	-0.158	-0.174
-409.340	-200.000	0.029	0.195
-408.325	800.000	-0.048	0.168
-407.311	-64.405	0.154	0.063
-406.296	632.282	-0.060	-0.154
-405.282	287.414	0.164	-0.299
-404.267	-51.856	-0.018	-0.009
-403.252	-200.000	-0.003	-0.134
-402.238	249.047	-0.167	0.286
-401.223	800.000	0.050	0.187
-400.209	421.448	0.103	0.224
-399.194	-200.000	0.006	0.191
-398.179	-200.000	0.023	-0.532
-397.165	800.000	-0.106	-0.327
-396.150	-37.857	0.147	-0.079
-395.136	-36.474	0.259	-0.141
-394.121	-144.383	-0.067	-0.006
-393.106	-160.437	0.236	-0.013
-392.092	537.531	0.164	-0.394
-391.077	293.974	0.056	-0.103
-390.063	413.785	-0.032	-0.068
-389.048	-94.784	-0.184	-0.050
-388.033	-104.551	0.160	0.037
-387.019	-196.349	-0.221	-0.002
-386.004	-133.687	0.098	-0.012
-384.990	94.331	-0.186	0.213
-383.975	334.866	0.156	-0.304
-382.960	-193.665	-0.167	0.001
-381.946	-139.482	-0.216	-0.023
-380.931	800.000	0.037	0.111
-379.917	35.600	-0.117	0.104
-378.902	144.599	0.151	0.204
-377.888	287.829	0.161	0.294
-376.873	-59.695	0.191	0.082
-375.858	-64.269	0.108	0.044
-374.844	202.529	0.151	0.235
-373.829	-200.000	0.008	0.251
-372.815	791.322	0.079	-0.220
-371.800	-60.392	0.336	0.144
-370.785	800.000	-0.021	0.090
-369.771	-200.000	-0.042	0.235
-368.756	13.771	0.245	-0.192
-367.742	36.695	-0.198	-0.176
-366.727	-200.000	0.031	-0.361
-365.712	-67.074	0.247	0.098
-364.698	100.300	0.277	0.324
-363.683	-1.060	0.280	0.200
-362.669	528.728	-0.099	-0.235
-361.654	76.890	-0.089	-0.095
-360.639	-200.000	-0.027	-0.203
-359.625	110.899	-0.126	0.153
-358.610	-33.708	-0.179	-0.100
-357.596	43.287	-0.106	-0.097
-356.581	-179.422	-0.149	-0.003
-355.566	199.025	-0.083	0.127
-354.552	55.722	-0.084	0.082
-353.537	314.490	-0.059	0.113
-352.523	639.368	0.057	-0.145
-351.508	-14.515	0.283	0.183
-350.493	-194.350	0.250	0.002
-349.479	-200.000	-0.011	0.287
-348.464	-200.000	0.018	0.120
-347.450	-200.000	0.001	-0.060
-346.435	111.304	-0.248	0.301
-345.420	-124.296	0.291	0.046
-344.406	-200.000	0.031	0.276
-343.391	-53.353	-0.171	-0.079
-342.377	-102.237	0.021	0.005
-341.362	-20.771	0.184	-0.113
-340.348	103.119	-0.045	0.053
-339.333	-108.990	-0.361	0.077
-338.318	-200.000	0.011	-0.067
-337.304	-108.150	-0.383	0.084
-336.289	-43.250	-0.367	0.187
-335.275	-64.194	0.245	0.101
-334.260	-200.000	-0.057	0.310
-333.245	-144.380	-0.330	-0.031
-332.231	80.631	0.290	-0.315
-331.216	-71.012	-0.127	0.048
-330.202	-61.190	-0.263	0.112
-329.187	130.628	-0.084	-0.108
-328.172	-200.000	-0.001	0.312
-327.158	800.000	-0.057	0.233
-326.143	-52.463	-0.215	0.100
-325.129	800.000	-0.117	-0.362
-324.114	39.433	-0.132	-0.119
-323.099	800.000	-0.025	-0.084
-322.085	-200.000	0.010	-0.232
-321.070	24.734	0.498	0.415
-320.056	-152.342	-0.292	0.021
-319.041	-200.000	-0.015	-0.124
-318.026	524.511	0.023	-0.053
-317.012	44.619	-0.155	0.143
-315.997	-37.872	0.298	0.159
-314.983	-200.000	0.011	0.150
-313.968	91.919	0.211	0.239
-312.953	-200.000	0.012	-0.325
-311.939	7.873	-0.047	0.035
-310.924	49.055	0.181	-0.171
-309.910	-116.958	0.292	0.054
-308.895	-174.963	-0.143	-0.004
-307.880	-41.425	-0.160	-0.083
-306.866	27.046	0.121	0.102
-305.851	15.543	0.184	-0.145
-304.837	-94.158	-0.389	0.107
-303.822	-49.835	0.178	-0.085
-302.807	223.655	0.155	-0.251
-301.793	-200.000	0.025	-0.128
-300.778	-109.311	-0.070	0.015
-299.764	-126.973	0.298	0.044
-298.749	-24.340	-0.068	-0.041
-297.735	207.998	-0.174	-0.273
-296.720	-200.000	-0.028	0.142
-295.705	-66.577	-0.217	-0.087
-294.691	137.102	-0.104	-0.137
-293.676	-10.168	-0.154	-0.103
-292.662	688.386	-0.045	-0.119
-291.647	125.274	-0.201	0.254
-290.632	-49.764	-0.235	0.112
-289.618	35.137	-0.208	0.183
-288.603	430.034	0.100	-0.217
-287.589	800.000	-0.011	0.044
-286.574	4.081	0.149	0.110
-285.559	85.224	0.186	0.206
-284.545	121.180	0.258	-0.322
-283.530	180.462	0.148	-0.219
-282.516	188.062	-0.122	-0.183
-281.501	-200.000	-0.058	0.453
-280.486	108.707	-0.082	0.098
-279.472	188.616	0.271	-0.408
-278.457	121.585	0.167	0.209
-277.443	584.078	-0.058	0.142
-276.428	79.358	0.171	0.185
-275.413	-90.263	-0.142	0.041
-274.399	-94.258	0.169	0.046
-273.384	420.061	0.147	0.316
-272.370	800.000	0.057	0.227
-271.355	619.917	-0.059	0.148
-270.340	-85.164	0.074	-0.023
-269.326	-200.000	0.036	0.208
-268.311	293.135	0.174	-0.318
-267.297	82.775	-0.117	-0.128
-266.282	-200.000	-0.000	0.071
-265.267	-200.000	0.003	0.305
-264.253	233.315	0.145	-0.239
-263.238	-125.259	-0.074	-0.011
-262.224	341.747	-0.091	-0.179
-261.209	-200.000	-0.009	-0.176
-260.195	-135.163	0.430	0.052
-259.180	-86.190	0.217	-0.067
-258.165	26.563	0.178	0.149
-257.151	-41.549	-0.257	0.132
-256.136	-175.844	-0.123	-0.003
-255.122	-65.214	-0.148	0.060
-254.107	-51.395	-0.102	0.048
-253.092	-200.000	-0.036	0.264
-252.078	-112.548	0.239	-0.048
-251.063	800.000	-0.086	-0.286
-250.049	-30.716	-0.106	-0.060
-249.034	-57.610	0.165	0.073
-248.019	66.209	-0.142	-0.145
-247.005	114.464	-0.011	0.014
-245.990	692.802	-0.125	-0.329
-244.976	56.612	-0.153	0.149
-243.961	-54.972	-0.178	0.080
-242.946	-200.000	-0.003	-0.273
-241.932	284.850	0.119	0.215
-240.917	-200.000	-0.009	0.142
-239.903	196.746	-0.179	0.274
-238.888	154.508	-0.164	-0.226
-237.873	-200.000	-0.065	0.465
-236.859	-42.548	0.089	-0.046
-235.844	152.416	-0.084	-0.115
-234.830	63.777	-0.054	0.054
-233.815	-90.834	-0.221	0.064
-232.800	-200.000	0.004	-0.479
-231.786	205.383	-0.074	-0.115
-230.771	-16.429	-0.131	-0.083
-229.757	19.226	-0.348	0.281
-228.742	-200.000	-0.030	-0.158
-227.727	-157.784	-0.179	0.011
-226.713	141.536	-0.021	0.028
-225.698	-118.133	-0.335	-0.060
-224.684	-127.489	0.373	0.054
-223.669	279.622	-0.108	0.194
-222.655	-136.119	0.094	-0.011
-221.640	-76.031	-0.058	0.020
-220.625	219.009	-0.156	-0.250
-219.611	40.202	0.326	0.294
-218.596	-51.931	-0.143	-0.067
-217.582	-139.161	-0.052	-0.006
-216.567	-135.741	0.398	0.047
-215.552	153.639	0.076	0.104
-214.538	500.648	0.160	-0.371
-213.523	-200.000	0.008	-0.132
-212.509	-94.045	-0.063	-0.017
-211.494	142.319	-0.210	0.280
-210.479	14.217	-0.185	0.144
-209.465	-121.225	-0.115	0.019
-208.450	800.000	0.050	-0.197
-207.436	101.863	-0.049	0.057
-206.421	-154.274	0.289	0.020
-205.406	-174.841	0.162	0.005
-204.392	69.716	0.118	-0.122
-203.377	23.609	-0.077	-0.064
-202.363	-200.000	-0.009	-0.145
-201.348	-69.717	0.107	-0.041
-200.333	800.000	-0.069	0.202
-199.319	-200.000	0.031	0.165
-198.304	-97.972	0.242	0.063
-197.290	-74.448	-0.157	0.057
-196.275	-28.105	0.201	-0.117
-195.260	-200.000	-0.002	0.142
-194.246	496.942	0.041	-0.095
-193.231	-58.270	-0.070	0.030
-192.217	-121.347	0.150	0.025
-191.202	-200.000	0.059	0.294
-190.187	-30.813	0.212	-0.120
-189.173	60.128	-0.194	0.192
-188.158	224.907	0.182	0.294
-187.144	-97.671	0.146	-0.038
-186.129	486.195	0.053	-0.121
-185.114	-32.758	-0.059	-0.033
-184.100	-96.657	-0.214	-0.057
-183.085	-27.196	0.125	-0.073
-182.071	143.941	-0.084	0.112
-181.056	800.000	-0.069	0.240
-180.042	-43.636	-0.165	-0.083
-179.027	542.443	0.114	0.272
-178.012	651.098	0.032	-0.082
-176.998	-194.215	-0.112	-0.001
-175.983	218.950	0.045	-0.072
-174.969	-176.731	-0.231	0.006
-173.954	799.501	0.097	0.269
-172.939	-115.830	-0.214	0.040
-171.925	-200.000	0.023	0.214
-170.910	-56.243	0.246	0.110
-169.896	-88.766	-0.226	-0.067
-168.881	144.365	-0.043	0.057
-167.866	-118.697	-0.197	-0.035
-166.852	161.630	-0.201	0.282
-165.837	-114.362	-0.146	0.028
-164.823	800.000	0.042	0.131
-163.808	444.765	-0.144	-0.316
-162.793	475.146	0.120	-0.272
-161.779	-84.152	-0.145	0.046
-160.764	-171.568	-0.131	-0.004
-159.750	-200.000	0.059	-0.263
-158.735	15.362	-0.187	0.147
-157.720	42.459	-0.024	-0.022
-156.706	800.000	0.110	-0.320
-155.691	531.493	0.055	0.131
-154.677	-60.429	0.359	0.153
-153.662	778.473	0.077	-0.210
-152.647	-31.700	0.369	0.207
-151.633	-43.751	-0.213	-0.108
-150.618	349.563	0.080	0.159
-149.604	-108.234	-0.309	-0.067
-148.589	-200.000	0.005	-0.229
-147.574	-65.953	0.161	0.064
-146.560	297.512	-0.216	0.397
-145.545	-128.327	0.139	-0.020
-144.531	800.000	-0.051	0.174
-143.516	-52.516	0.134	-0.062
-142.502	-166.760	0.144	-0.006
-141.487	-65.231	-0.108	-0.044
-140.472	-75.568	-0.201	0.071
-139.458	-200.000	0.017	-0.252
-138.443	-66.294	-0.180	-0.072
-137.429	795.286	0.091	0.250
-136.414	800.000	0.072	-0.207
-135.399	130.581	-0.177	0.227
-134.385	-16.691	0.123	0.078
-133.370	-80.567	-0.102	-0.034
-132.356	-122.443	-0.055	0.009
-131.341	-89.086	-0.064	0.019
-130.326	283.726	-0.118	0.212
-129.312	-87.432	0.031	0.009
-128.297	-200.000	-0.002	0.058
-127.283	-133.493	0.125	0.016
-126.268	107.381	0.136	0.162
-125.253	-95.808	0.346	0.092
-124.239	800.000	0.099	0.338
-123.224	-81.479	-0.318	0.104
-122.210	339.043	0.069	-0.134
-121.195	800.000	0.006	-0.023
