DTS Sentinel unit serial number:	SN413079Multiplexer serial number:	ORYXHardware model number:	OX4-SRSoftware version number:	ORYX F/W v4.00 Oryx Data Collector v3.7.2.0data status	okinstallation	princeton_trtdifferential loss correction	single-endedforward channel	channel 4reverse channel	N/Adate	2019/09/12time	08:59:11forward acquisition time	60.00reverse acquisition time	0.00gamma	496.2192k internal	0.2299k external	0.2299temperature offset calibration	1.0065default loss term (dB/km)	0.3790temperature slope calibration	1.0000multiplexer offset coefficient	1.0000multiplexer slope coefficient	1.0000fibre end	0.00T internal ref (°C)	34.19T ext. ref 1 (°C)	1.76T ext. ref 2 (°C)	31.24length (m)	temperature (°C)	Stokes	anti-Stokes-747.200	-116.610	0.262	0.049
-746.185	-62.122	0.137	0.058
-745.171	-16.388	0.050	-0.032
-744.156	-65.681	-0.170	0.069
-743.142	-200.000	-0.011	-0.160
-742.127	-200.000	-0.056	0.397
-741.112	507.402	0.076	0.180
-740.098	54.284	0.132	0.130
-739.083	-42.603	0.226	-0.117
-738.069	421.995	-0.193	0.422
-737.054	25.961	-0.150	0.128
-736.039	39.531	-0.042	-0.038
-735.025	652.513	-0.047	-0.122
-734.010	76.835	-0.110	0.119
-732.996	-87.701	0.214	0.066
-731.981	1.108	-0.157	-0.115
-730.966	-53.334	0.063	-0.029
-729.952	800.000	-0.058	0.252
-728.937	-61.423	-0.175	0.075
-727.923	-60.691	0.301	0.130
-726.908	-8.018	-0.069	-0.048
-725.894	514.266	-0.139	-0.331
-724.879	-21.129	-0.117	0.073
-723.864	102.121	-0.251	0.299
-722.850	800.000	0.046	-0.181
-721.835	61.204	-0.349	-0.354
-720.821	-60.635	-0.341	-0.147
-719.806	158.921	-0.148	-0.209
-718.791	-86.161	-0.143	0.045
-717.777	-97.905	-0.078	-0.020
-716.762	-150.024	-0.132	-0.010
-715.748	-39.268	-0.114	-0.061
-714.733	399.218	-0.016	-0.034
-713.718	89.011	0.167	-0.189
-712.704	153.423	0.095	-0.133
-711.689	247.710	0.198	-0.341
-710.675	-4.573	-0.120	-0.085
-709.660	1.987	0.100	-0.074
-708.645	685.195	-0.062	-0.164
-707.631	157.797	0.076	0.107
-706.616	-196.869	0.279	0.002
-705.602	800.000	-0.046	0.134
-704.587	670.455	-0.043	0.114
-703.572	-200.000	-0.027	0.129
-702.558	468.844	-0.145	-0.332
-701.543	78.951	0.244	0.266
-700.529	125.406	0.270	0.347
-699.514	531.042	-0.029	-0.070
-698.499	640.739	-0.050	-0.131
-697.485	-4.618	-0.170	0.120
-696.470	53.585	0.065	-0.064
-695.456	-200.000	-0.072	-0.386
-694.441	-122.312	-0.439	-0.073
-693.426	59.193	0.061	0.061
-692.412	800.000	-0.017	0.069
-691.397	-200.000	0.017	-0.253
-690.383	-19.686	0.137	0.087
-689.368	-31.416	-0.151	-0.086
-688.354	800.000	-0.030	0.112
-687.339	132.064	0.211	-0.277
-686.324	52.479	-0.211	0.205
-685.310	-200.000	-0.011	-0.354
-684.295	265.897	0.051	-0.090
-683.281	-200.000	0.010	-0.216
-682.266	-9.223	0.062	-0.042
-681.251	292.290	0.100	-0.185
-680.237	239.891	-0.069	0.117
-679.222	-200.000	0.056	0.293
-678.208	305.476	-0.012	0.022
-677.193	131.157	0.165	-0.216
-676.178	-74.382	-0.208	-0.076
-675.164	169.243	-0.063	-0.091
-674.149	115.248	0.142	0.177
-673.135	157.774	-0.177	-0.249
-672.120	40.485	0.110	-0.101
-671.105	800.000	0.084	0.263
-670.091	-39.320	0.305	0.163
-669.076	138.428	0.121	0.161
-668.062	83.551	-0.058	0.065
-667.047	15.335	-0.236	-0.189
-666.032	-12.881	-0.145	-0.096
-665.018	105.660	0.085	-0.102
-664.003	44.360	-0.189	-0.176
-662.989	223.075	0.172	0.282
-661.974	800.000	-0.044	-0.160
-660.959	-91.369	-0.283	0.082
-659.945	40.200	-0.129	-0.118
-658.930	-102.027	0.262	0.064
-657.916	-58.561	-0.309	-0.136
-656.901	-187.081	0.178	0.002
-655.886	-73.972	0.469	-0.173
-654.872	457.562	0.078	-0.175
-653.857	-39.877	-0.033	0.017
-652.843	14.854	-0.077	-0.061
-651.828	-23.374	-0.216	0.132
-650.814	-86.869	-0.243	-0.075
-649.799	75.509	0.105	-0.113
-648.784	-103.102	0.118	0.028
-647.770	2.538	0.120	0.088
-646.755	-151.275	-0.143	-0.011
-645.741	-200.000	0.034	-0.342
-644.726	127.001	0.128	-0.164
-643.711	262.525	-0.089	0.156
-642.697	18.282	-0.075	0.061
-641.682	800.000	0.088	-0.261
-640.668	-157.360	0.251	0.015
-639.653	444.492	0.089	-0.198
-638.638	-200.000	0.037	-0.530
-637.624	-86.700	-0.190	0.059
-636.609	-182.614	0.270	0.005
-635.595	-73.136	-0.171	0.064
-634.580	-18.190	-0.366	-0.233
-633.565	-200.000	0.140	-0.674
-632.551	-119.184	-0.371	-0.066
-631.536	193.292	0.032	0.049
-630.522	508.202	-0.145	0.342
-629.507	800.000	0.027	0.102
-628.492	59.627	0.038	-0.038
-627.478	74.497	-0.284	-0.303
-626.463	315.025	0.099	-0.189
-625.449	25.153	-0.294	-0.248
-624.434	474.658	0.044	0.100
-623.419	-200.000	-0.042	0.213
-622.405	271.878	-0.057	0.102
-621.390	-119.844	-0.297	-0.052
-620.376	21.145	-0.188	0.155
-619.361	-101.476	-0.153	-0.038
-618.346	-180.052	-0.215	-0.005
-617.332	-78.854	0.229	-0.079
-616.317	-123.190	0.250	0.041
-615.303	-67.802	0.310	-0.123
-614.288	-114.387	-0.136	0.027
-613.273	31.878	-0.090	0.078
-612.259	800.000	0.124	0.478
-611.244	76.673	-0.367	0.395
-610.230	80.270	0.082	0.090
-609.215	124.872	0.184	0.235
-608.201	26.232	-0.086	0.073
-607.186	-11.941	0.135	-0.090
-606.171	23.785	0.067	-0.056
-605.157	-173.860	-0.264	-0.008
-604.142	117.430	0.011	0.014
-603.128	-34.468	-0.145	0.081
-602.113	800.000	0.068	0.260
-601.098	77.286	0.090	-0.097
-600.084	-30.903	-0.157	-0.090
-599.069	-200.000	0.031	-0.185
-598.055	92.105	0.044	0.050
-597.040	800.000	0.041	0.138
-596.025	24.754	-0.210	-0.176
-595.011	-22.214	0.148	0.091
-593.996	31.494	0.154	0.134
-592.982	172.834	0.130	-0.190
-591.967	228.501	0.108	0.179
-590.952	-43.572	0.073	0.037
-589.938	12.764	-0.239	-0.187
-588.923	-55.011	-0.115	-0.052
-587.909	-147.550	-0.071	-0.006
-586.894	24.659	-0.375	-0.315
-585.879	14.545	0.226	0.179
-584.865	41.110	-0.334	0.306
-583.850	-56.723	-0.159	0.071
-582.836	-118.041	-0.148	-0.027
-581.821	33.528	0.146	-0.129
-580.806	89.896	0.110	0.124
-579.792	7.745	0.179	0.136
-578.777	48.998	-0.235	0.223
-577.763	554.627	0.118	0.288
-576.748	4.407	-0.267	-0.199
-575.733	-65.802	0.160	-0.065
-574.719	310.619	0.117	-0.223
-573.704	-97.758	-0.210	-0.055
-572.690	-125.103	-0.322	-0.050
-571.675	158.613	-0.107	0.151
-570.661	84.614	0.306	0.340
-569.646	-3.241	-0.092	-0.065
-568.631	-70.867	-0.156	-0.060
-567.617	-39.361	-0.364	0.193
-566.602	-6.401	-0.187	-0.129
-565.588	800.000	0.037	-0.106
-564.573	-113.409	-0.251	0.050
-563.558	-200.000	0.036	-0.547
-562.544	8.900	-0.194	0.148
-561.529	34.025	0.147	-0.130
-560.515	800.000	0.018	0.066
-559.500	-200.000	0.042	-0.298
-558.485	-122.887	0.075	0.012
-557.471	4.562	0.198	0.147
-556.456	-7.463	0.090	0.062
-555.442	-200.000	-0.021	-0.122
-554.427	-114.847	0.175	0.034
-553.412	125.770	-0.120	-0.153
-552.398	800.000	0.059	0.167
-551.383	-10.097	-0.046	0.031
-550.369	-10.883	-0.219	-0.147
-549.354	-200.000	-0.015	-0.326
-548.339	-20.951	-0.196	0.122
-547.325	-46.577	0.384	0.191
-546.310	31.684	-0.331	-0.289
-545.296	-45.608	-0.080	-0.040
-544.281	-84.146	-0.252	0.081
-543.266	-200.000	0.043	-0.277
-542.252	-200.000	-0.045	-0.413
-541.237	742.105	-0.080	-0.218
-540.223	-200.000	0.002	-0.179
-539.208	123.178	-0.136	-0.172
-538.193	734.073	-0.134	-0.363
-537.179	2.053	-0.085	0.062
-536.164	-200.000	0.056	-0.440
-535.150	-66.399	-0.270	-0.109
-534.135	-14.516	0.311	-0.203
-533.121	-125.641	0.170	0.026
-532.106	-200.000	0.011	0.146
-531.091	800.000	0.031	-0.097
-530.077	-200.000	0.088	-0.419
-529.062	136.430	0.158	0.209
-528.048	-152.980	-0.367	0.026
-527.033	107.850	-0.239	-0.288
-526.018	-72.075	-0.307	-0.115
-525.004	203.793	0.166	-0.260
-523.989	189.704	0.217	-0.329
-522.975	-129.487	0.399	-0.056
-521.960	800.000	-0.032	0.122
-520.945	-200.000	0.055	0.255
-519.931	800.000	-0.034	0.149
-518.916	84.620	0.237	0.262
-517.902	42.637	-0.164	0.151
-516.887	319.659	0.105	0.202
-515.872	698.380	-0.057	-0.152
-514.858	-142.384	-0.281	0.028
-513.843	478.237	0.021	0.048
-512.829	800.000	-0.050	0.215
-511.814	90.759	0.221	0.250
-510.799	-30.432	-0.385	0.221
-509.785	18.456	-0.090	-0.072
-508.770	25.470	0.097	-0.082
-507.756	0.879	0.115	-0.083
-506.741	-17.224	-0.313	0.199
-505.726	799.397	-0.159	0.443
-504.712	64.672	0.057	-0.058
-503.697	26.305	0.193	0.163
-502.683	800.000	0.109	-0.404
-501.668	105.123	0.176	-0.210
-500.653	34.725	0.120	0.106
-499.639	-65.576	-0.209	-0.085
-498.624	529.042	0.091	-0.218
-497.610	-80.021	-0.112	0.038
-496.595	-200.000	0.007	-0.167
-495.581	-39.537	0.199	0.105
-494.566	-174.991	-0.314	0.009
-493.551	-101.140	-0.254	0.063
-492.537	22.002	0.271	-0.223
-491.522	-200.000	0.026	-0.159
-490.508	395.463	-0.070	-0.147
-489.493	-200.000	0.006	-0.357
-488.478	800.000	-0.080	-0.260
-487.464	-58.077	0.260	-0.115
-486.449	692.017	0.119	0.315
-485.435	47.978	-0.135	-0.127
-484.420	-18.828	0.241	0.152
-483.405	119.650	0.087	0.109
-482.391	226.054	0.070	-0.115
-481.376	-197.247	0.149	-0.001
-480.362	355.767	0.105	0.212
-479.347	-26.565	0.072	0.042
-478.332	76.364	-0.338	-0.361
-477.318	785.087	-0.072	-0.200
-476.303	-200.000	0.043	-0.282
-475.289	-200.000	-0.001	-0.227
-474.274	8.947	0.149	-0.114
-473.259	149.896	-0.096	-0.131
-472.245	-158.616	-0.161	-0.009
-471.230	-117.138	0.262	0.048
-470.216	800.000	-0.072	-0.261
-469.201	421.330	-0.021	0.046
-468.186	205.225	0.139	-0.217
-467.172	-88.463	0.341	0.103
-466.157	-128.211	0.175	0.025
-465.143	564.956	0.182	0.444
-464.128	-200.000	-0.004	0.277
-463.113	214.107	-0.136	-0.217
-462.099	-64.812	0.301	0.123
-461.084	239.988	0.017	-0.029
-460.070	800.000	-0.068	-0.202
-459.055	271.284	0.093	0.165
-458.040	-95.770	-0.309	-0.083
-457.026	-178.948	0.153	0.003
-456.011	119.845	0.127	-0.159
-454.997	740.672	0.111	0.301
-453.982	-200.000	0.006	0.137
-452.968	-200.000	0.028	0.202
-451.953	55.686	0.135	-0.132
-450.938	-89.215	-0.182	-0.054
-449.924	384.338	-0.096	-0.200
-448.909	145.325	0.172	0.232
-447.895	422.817	-0.082	-0.177
-446.880	-117.456	0.102	-0.019
-445.865	-200.000	-0.244	-0.001
-444.851	59.693	0.091	-0.090
-443.836	-200.000	0.042	-0.187
-442.822	114.567	-0.130	0.159
-441.807	-178.678	0.181	-0.004
-440.792	-82.622	-0.327	0.107
-439.778	76.208	0.057	0.061
-438.763	26.672	-0.157	-0.133
-437.749	-87.417	0.321	0.098
-436.734	-139.233	0.222	0.024
-435.719	-85.310	0.020	0.006
-434.705	385.347	-0.072	0.150
-433.690	-37.913	0.091	-0.049
-432.676	-200.000	0.022	0.263
-431.661	-33.314	-0.274	-0.153
-430.646	62.055	0.121	0.121
-429.632	-140.164	0.242	0.026
-428.617	-102.268	-0.337	0.082
-427.603	800.000	0.036	0.119
-426.588	38.681	-0.091	0.082
-425.573	29.969	-0.109	-0.094
-424.559	26.440	-0.072	-0.060
-423.544	23.291	-0.259	-0.215
-422.530	-82.048	0.147	0.048
-421.515	-200.000	0.033	-0.190
-420.500	21.707	0.022	-0.018
-419.486	-129.558	-0.100	-0.014
-418.471	-26.627	0.241	-0.142
-417.457	-137.145	0.202	-0.023
-416.442	-39.936	0.165	-0.087
-415.428	547.535	0.099	0.238
-414.413	115.665	-0.169	-0.208
-413.398	-152.475	-0.082	0.006
-412.384	-200.000	0.006	0.239
-411.369	800.000	-0.047	0.158
-410.355	-200.000	-0.005	-0.694
-409.340	111.892	0.102	-0.124
-408.325	441.721	0.105	0.231
-407.311	41.456	-0.106	0.097
-406.296	32.766	-0.058	0.050
-405.282	-11.723	-0.178	-0.118
-404.267	-91.071	0.219	0.063
-403.252	169.306	-0.089	0.128
-402.238	-87.981	0.118	0.036
-401.223	-194.883	-0.062	-0.000
-400.209	800.000	0.095	-0.308
-399.194	800.000	0.080	-0.310
-398.179	315.512	0.109	0.206
-397.165	298.262	-0.087	-0.161
-396.150	-26.070	-0.303	-0.180
-395.136	800.000	-0.074	-0.229
-394.121	194.127	-0.111	-0.169
-393.106	303.972	0.047	0.088
-392.092	-52.328	0.246	-0.115
-391.077	800.000	0.033	-0.144
-390.063	-117.322	-0.123	-0.022
-389.048	800.000	0.042	0.120
-388.033	-44.847	0.242	-0.121
-387.019	343.403	0.079	-0.156
-386.004	33.779	0.222	-0.195
-384.990	-200.000	0.027	0.243
-383.975	-68.151	0.256	0.100
-382.960	-200.000	0.003	-0.129
-381.946	-127.512	-0.055	0.008
-380.931	47.542	0.178	-0.167
-379.917	-40.859	-0.232	-0.121
-378.902	-106.277	-0.162	0.037
-377.888	-88.323	-0.159	0.048
-376.873	38.477	-0.040	-0.036
-375.858	26.378	-0.167	-0.140
-374.844	15.704	0.052	0.041
-373.829	-101.558	-0.096	0.023
-372.815	-200.000	-0.029	-0.258
-371.800	86.260	0.038	-0.043
-370.785	-108.141	0.292	0.064
-369.771	-115.221	-0.433	-0.082
-368.756	344.639	0.179	-0.353
-367.742	253.817	0.162	0.278
-366.727	-43.752	-0.231	-0.117
-365.712	-200.000	-0.053	-0.234
-364.698	136.337	-0.105	0.137
-363.683	-200.000	0.007	-0.099
-362.669	52.645	0.224	0.216
-361.654	-76.477	0.208	0.074
-360.639	-159.833	-0.305	0.017
-359.625	800.000	-0.021	0.085
-358.610	-200.000	0.021	0.113
-357.596	800.000	0.026	0.105
-356.581	-30.273	-0.206	0.118
-355.566	-200.000	-0.002	0.090
-354.552	-101.344	0.151	-0.037
-353.537	-98.221	-0.099	0.026
-352.523	29.280	0.016	-0.013
-351.508	-181.705	-0.134	0.003
-350.493	-72.754	-0.230	-0.085
-349.479	116.015	0.021	0.025
-348.464	-200.000	-0.027	0.187
-347.450	-155.203	0.476	0.031
-346.435	-53.994	0.371	0.170
-345.420	800.000	-0.065	-0.271
-344.406	-200.000	-0.002	0.260
-343.391	-97.365	-0.191	0.050
-342.377	-62.771	0.174	-0.073
-341.362	235.514	0.270	-0.449
-340.348	800.000	0.024	-0.072
-339.333	-148.495	-0.427	-0.035
-338.318	211.861	0.052	-0.082
-337.304	-40.636	-0.273	-0.142
-336.289	108.649	0.106	0.127
-335.275	64.936	0.085	-0.086
-334.260	-200.000	-0.017	0.145
-333.245	-137.284	0.340	0.039
-332.231	39.070	0.095	-0.085
-331.216	488.862	-0.097	0.222
-330.202	-74.980	-0.338	0.122
-329.187	-17.054	0.161	-0.102
-328.172	533.025	0.099	0.235
-327.158	-162.424	-0.386	-0.019
-326.143	-164.784	-0.249	0.011
-325.129	754.012	-0.099	0.269
-324.114	-119.961	0.441	0.076
-323.099	-63.974	0.171	0.070
-322.085	-200.000	-0.006	0.227
-321.070	-2.113	0.086	0.061
-320.056	454.102	0.014	0.032
-319.041	190.787	0.114	0.172
-318.026	-200.000	-0.074	0.384
-317.012	87.379	0.316	0.351
-315.997	-53.112	-0.329	0.151
-314.983	-64.128	-0.051	-0.021
-313.968	-130.298	0.230	-0.031
-312.953	529.605	-0.129	-0.305
-311.939	800.000	-0.061	-0.203
-310.924	-200.000	-0.011	-0.229
-309.910	159.840	0.183	0.256
-308.895	12.194	0.153	0.118
-307.880	36.112	0.101	-0.089
-306.866	133.751	-0.153	0.198
-305.851	24.284	0.080	0.067
-304.837	21.260	0.140	0.114
-303.822	641.118	-0.083	-0.211
-302.807	-136.648	0.239	0.028
-301.793	17.227	-0.289	0.230
-300.778	348.429	-0.024	-0.048
-299.764	-83.351	-0.176	-0.057
-298.749	-3.234	-0.140	-0.098
-297.735	399.599	0.105	-0.221
-296.720	-200.000	-0.027	0.438
-295.705	316.411	-0.085	0.160
-294.691	18.106	-0.129	-0.103
-293.676	800.000	-0.086	0.251
-292.662	-112.074	0.402	-0.081
-291.647	-50.412	0.259	0.123
-290.632	41.070	0.072	0.065
-289.618	247.408	-0.042	-0.071
-288.603	195.516	-0.156	0.238
-287.589	-200.000	-0.004	0.255
-286.574	282.378	-0.088	0.157
-285.559	-200.000	0.061	-0.268
-284.545	191.112	-0.171	0.258
-283.530	800.000	-0.115	0.458
-282.516	-108.936	-0.188	0.040
-281.501	492.589	-0.018	-0.041
-280.486	-200.000	-0.010	-0.144
-279.472	7.793	-0.123	-0.092
-278.457	-73.786	0.191	0.070
-277.443	95.482	-0.178	0.204
-276.428	-39.839	0.021	0.011
-275.413	-97.272	0.218	0.057
-274.399	15.511	0.126	0.099
-273.384	800.000	-0.104	0.374
-272.370	-29.818	-0.164	0.094
-271.355	371.976	0.082	-0.167
-270.340	-200.000	0.000	-0.033
-269.326	800.000	0.127	0.513
-268.311	51.555	0.154	-0.147
-267.297	164.930	-0.227	-0.321
-266.282	16.814	-0.303	0.240
-265.267	-179.172	0.406	-0.009
-264.253	-3.715	0.178	-0.124
-263.238	559.139	-0.088	0.212
-262.224	-133.474	0.186	0.023
-261.209	-200.000	0.000	-0.023
-260.195	163.131	-0.316	0.445
-259.180	-2.899	0.224	-0.156
-258.165	-77.497	0.199	0.069
-257.151	57.716	0.176	0.173
-256.136	-60.955	-0.104	-0.044
-255.122	-200.000	0.051	0.236
-254.107	417.896	0.218	0.467
-253.092	-83.116	0.190	-0.061
-252.078	-91.083	0.212	-0.061
-251.063	-200.000	0.006	0.070
-250.049	-23.010	0.336	0.203
-249.034	-2.570	0.301	-0.211
-248.019	141.839	0.023	0.030
-247.005	800.000	-0.092	0.330
-245.990	-200.000	-0.030	0.412
-244.976	209.812	0.126	0.197
-243.961	-126.061	-0.228	-0.034
-242.946	-37.808	-0.271	-0.144
-241.932	-200.000	0.001	-0.249
-240.917	125.307	-0.190	-0.239
-239.903	-200.000	-0.017	-0.221
-238.888	-43.688	-0.335	-0.169
-237.873	-25.885	-0.113	-0.067
-236.859	217.859	0.173	-0.277
-235.844	-21.542	-0.182	-0.111
-234.830	174.385	0.228	0.330
-233.815	169.644	0.115	-0.165
-232.800	185.541	0.096	-0.143
-231.786	105.622	0.073	-0.086
-230.771	-110.259	0.162	-0.034
-229.757	88.046	0.145	0.161
-228.742	76.769	-0.068	-0.072
-227.727	-18.836	-0.213	0.132
-226.713	-161.390	-0.301	0.016
-225.698	-85.147	-0.292	-0.091
-224.684	102.004	0.026	0.030
-223.669	70.358	0.098	-0.101
-222.655	483.205	0.013	-0.031
-221.640	140.324	-0.034	-0.045
-220.625	-200.000	-0.007	0.196
-219.611	55.870	0.213	0.206
-218.596	264.354	0.152	-0.264
-217.582	-51.558	0.103	0.048
-216.567	-91.299	0.085	-0.024
-215.552	11.447	0.216	0.165
-214.538	-200.000	0.076	-0.360
-213.523	-200.000	-0.009	-0.041
-212.509	-170.948	0.299	0.010
-211.494	-88.353	0.087	0.026
-210.479	-200.000	-0.001	-0.221
-209.465	153.989	0.045	-0.061
-208.450	-200.000	-0.006	0.499
-207.436	-33.642	0.029	-0.016
-206.421	175.614	0.171	0.247
-205.406	-0.999	0.122	-0.086
-204.392	124.041	-0.079	0.099
-203.377	395.509	0.128	0.267
-202.363	420.521	0.131	-0.279
-201.348	30.111	0.314	0.268
-200.333	-26.753	0.268	0.157
-199.319	553.341	0.104	-0.249
-198.304	-76.646	-0.575	-0.202
-197.290	-169.322	0.280	-0.010
-196.275	-96.366	-0.288	0.076
-195.260	290.637	-0.038	0.069
-194.246	-93.901	-0.165	0.045
-193.231	151.608	-0.106	-0.144
-192.217	800.000	-0.007	-0.030
-191.202	7.775	-0.142	-0.107
-190.187	124.764	-0.076	0.095
-189.173	590.562	0.105	0.258
-188.158	-200.000	0.026	0.207
-187.144	235.953	-0.121	-0.199
-186.129	800.000	-0.054	0.178
-185.114	169.805	-0.040	-0.057
-184.100	632.314	-0.062	-0.158
-183.085	-84.722	-0.124	-0.039
-182.071	-80.955	-0.148	-0.049
-181.056	94.442	0.148	0.168
-180.042	-51.435	0.179	0.084
-179.027	-32.348	0.133	-0.074
-178.012	252.042	0.101	-0.172
-176.998	-179.532	-0.085	0.002
-175.983	-189.229	0.116	-0.001
-174.969	-200.000	-0.047	-0.353
-173.954	127.336	-0.154	0.196
-172.939	130.871	0.164	0.210
-171.925	800.000	-0.133	0.392
-170.910	-110.964	0.244	-0.050
-169.896	-100.866	-0.226	-0.055
-168.881	87.470	-0.202	0.223
-167.866	130.553	-0.022	0.028
-166.852	482.584	0.115	-0.261
-165.837	800.000	-0.023	-0.075
-164.823	129.476	-0.059	-0.076
-163.808	-88.528	-0.126	-0.037
-162.793	-200.000	-0.032	0.210
-161.779	-128.019	-0.283	0.040
-160.764	491.328	-0.183	0.419
-159.750	-117.025	-0.065	-0.012
-158.735	21.269	0.320	0.259
-157.720	573.587	-0.137	0.332
-156.706	800.000	-0.071	0.203
-155.691	-200.000	0.012	0.151
-154.677	-200.000	0.017	-0.114
-153.662	800.000	-0.037	-0.117
-152.647	-24.179	0.125	0.074
-151.633	-200.000	0.016	-0.191
-150.618	17.486	-0.100	0.079
-149.604	0.926	0.198	-0.141
-148.589	281.929	0.062	-0.111
-147.574	44.890	0.166	-0.153
-146.560	800.000	0.087	-0.340
-145.545	-124.601	-0.179	0.028
-144.531	-200.000	0.008	0.122
-143.516	-172.673	0.210	-0.007
-142.502	-155.105	-0.194	-0.013
-141.487	-94.199	0.166	0.045
-140.472	-75.992	0.126	-0.045
-139.458	-93.546	0.063	0.017
-138.443	-52.875	0.483	0.222
-137.429	84.932	-0.241	0.263
-136.414	-154.343	0.196	0.013
-135.399	-200.000	0.013	0.203
-134.385	310.874	-0.201	-0.375
-133.370	-83.490	0.213	-0.068
-132.356	248.897	-0.184	0.311
-131.341	-200.000	0.006	0.118
-130.326	-200.000	-0.007	0.265
-129.312	43.810	0.086	0.078
-128.297	775.248	0.009	0.026
-127.283	126.955	0.133	0.167
-126.268	-200.000	-0.077	0.378
-125.253	3.048	0.048	0.035
-124.239	800.000	-0.108	0.414
-123.224	39.495	0.189	0.168
-122.210	800.000	0.163	0.473
-121.195	-175.436	0.274	-0.007
-120.180	-2.101	-0.150	0.105
-119.166	139.657	-0.143	-0.187
