DTS Sentinel unit serial number:	SN413079Multiplexer serial number:	ORYXHardware model number:	OX4-SRSoftware version number:	ORYX F/W v4.00 Oryx Data Collector v3.7.2.0data status	okinstallation	princeton_trtdifferential loss correction	single-endedforward channel	channel 4reverse channel	N/Adate	2019/09/10time	19:27:11forward acquisition time	60.00reverse acquisition time	0.00gamma	496.2192k internal	0.2309k external	0.2309temperature offset calibration	0.9945default loss term (dB/km)	0.3790temperature slope calibration	1.0000multiplexer offset coefficient	1.0000multiplexer slope coefficient	1.0000fibre end	0.00T internal ref (°C)	33.56T ext. ref 1 (°C)	-0.32T ext. ref 2 (°C)	26.09length (m)	temperature (°C)	Stokes	anti-Stokes-747.200	77.462	-0.051	-0.055
-746.185	-76.294	-0.256	0.092
-745.171	-155.990	-0.102	0.007
-744.156	-200.000	0.013	0.063
-743.142	-104.674	-0.132	-0.031
-742.127	-101.189	0.141	0.035
-741.112	470.039	0.093	0.212
-740.098	78.934	0.170	-0.185
-739.083	56.103	0.245	0.241
-738.069	388.972	-0.058	0.121
-737.054	237.139	-0.128	0.216
-736.039	-200.000	0.021	0.204
-735.025	311.870	-0.142	-0.271
-734.010	-63.923	-0.466	-0.194
-732.996	-66.782	-0.173	-0.069
-731.981	-200.000	0.045	0.359
-730.966	-200.000	-0.005	-0.385
-729.952	171.626	-0.164	-0.239
-728.937	-87.905	-0.372	-0.114
-727.923	-82.115	-0.315	-0.104
-726.908	-3.128	-0.427	-0.302
-725.894	-15.365	-0.191	0.124
-724.879	800.000	-0.050	-0.209
-723.864	38.266	0.181	-0.164
-722.850	694.100	-0.076	-0.202
-721.835	-165.191	-0.160	0.007
-720.821	-61.748	-0.707	-0.301
-719.806	11.176	-0.172	-0.134
-718.791	-183.019	0.042	0.001
-717.777	-200.000	0.019	0.223
-716.762	-44.217	0.265	0.135
-715.748	-12.042	-0.166	-0.111
-714.733	-183.601	-0.112	0.002
-713.718	-87.129	-0.339	-0.105
-712.704	-200.000	0.023	0.270
-711.689	185.497	-0.015	-0.022
-710.675	377.068	0.068	0.140
-709.660	7.830	-0.205	0.156
-708.645	50.848	-0.062	-0.060
-707.631	-200.000	-0.120	-0.576
-706.616	-2.415	-0.164	0.116
-705.602	748.911	-0.073	-0.200
-704.587	464.773	-0.204	0.464
-703.572	273.297	0.135	-0.242
-702.558	518.286	0.110	-0.262
-701.543	-34.362	-0.203	-0.113
-700.529	282.321	0.134	-0.245
-699.514	358.474	0.066	-0.134
-698.499	-130.259	0.154	0.021
-697.485	-200.000	-0.064	-0.311
-696.470	66.161	0.207	0.213
-695.456	-200.000	0.008	0.178
-694.441	107.177	-0.085	0.102
-693.426	-29.491	-0.163	0.095
-692.412	-165.673	0.483	0.021
-691.397	-27.910	-0.043	0.025
-690.383	-54.649	-0.185	-0.085
-689.368	302.057	0.108	-0.203
-688.354	118.058	0.106	-0.133
-687.339	-55.574	-0.282	-0.128
-686.324	-6.534	-0.237	0.164
-685.310	-171.622	-0.184	-0.006
-684.295	-148.496	0.053	-0.004
-683.281	-54.648	0.181	-0.083
-682.266	-200.000	0.001	0.198
-681.251	177.899	0.152	-0.225
-680.237	-3.473	-0.265	-0.187
-679.222	-12.508	-0.149	-0.098
-678.208	136.501	0.234	0.309
-677.193	800.000	-0.053	-0.169
-676.178	-50.245	-0.209	-0.100
-675.164	182.902	-0.151	-0.226
-674.149	-87.266	0.389	0.120
-673.135	68.078	0.186	-0.193
-672.120	167.558	-0.102	-0.147
-671.105	528.379	-0.085	-0.203
-670.091	800.000	0.110	-0.362
-669.076	-200.000	0.038	-0.258
-668.062	293.985	0.132	-0.244
-667.047	119.980	-0.157	-0.197
-666.032	-67.443	0.260	-0.103
-665.018	6.592	-0.340	-0.256
-664.003	154.736	0.161	0.224
-662.989	800.000	0.087	0.249
-661.974	-97.722	0.143	-0.038
-660.959	-137.913	-0.008	0.001
-659.945	-31.158	-0.201	-0.115
-658.930	-85.892	-0.167	-0.052
-657.916	-200.000	0.017	0.130
-656.901	-145.864	0.457	0.041
-655.886	286.781	-0.142	0.260
-654.872	-2.994	0.128	-0.090
-653.857	47.881	-0.205	-0.194
-652.843	41.135	0.075	-0.069
-651.828	-200.000	-0.079	0.500
-650.814	-74.376	-0.035	0.013
-649.799	438.382	-0.160	-0.354
-648.784	41.099	-0.079	-0.072
-647.770	-74.419	0.188	0.069
-646.755	682.668	0.056	-0.148
-645.741	-200.000	0.008	-0.142
-644.726	-5.140	-0.173	-0.121
-643.711	124.068	0.194	-0.246
-642.697	32.111	-0.078	-0.068
-641.682	16.597	-0.105	-0.084
-640.668	100.613	-0.200	0.236
-639.653	-66.911	-0.344	-0.137
-638.638	-61.241	-0.384	-0.164
-637.624	-52.368	-0.284	0.133
-636.609	-58.064	0.194	0.086
-635.595	-118.093	0.120	0.022
-634.580	80.256	0.154	0.168
-633.565	-48.770	-0.115	-0.056
-632.551	-69.337	-0.089	-0.034
-631.536	-200.000	-0.016	-0.107
-630.522	321.562	0.054	-0.103
-629.507	620.214	0.060	-0.153
-628.492	-146.177	-0.279	-0.025
-627.478	-5.207	0.251	0.175
-626.463	149.899	0.165	0.226
-625.449	149.897	0.056	0.076
-624.434	-163.653	-0.105	-0.005
-623.419	-30.554	-0.048	0.027
-622.405	-173.302	-0.172	-0.005
-621.390	800.000	-0.025	0.075
-620.376	49.042	0.095	-0.091
-619.361	583.074	-0.125	-0.311
-618.346	506.582	0.070	-0.163
-617.332	-130.151	-0.237	0.033
-616.317	367.242	0.192	0.391
-615.303	29.865	0.232	-0.200
-614.288	-172.073	-0.287	0.009
-613.273	800.000	-0.077	-0.253
-612.259	531.391	-0.104	-0.248
-611.244	340.431	0.016	-0.032
-610.230	-44.336	0.124	0.063
-609.215	-50.593	-0.204	0.097
-608.201	-200.000	0.001	0.106
-607.186	-21.625	-0.108	0.066
-606.171	-200.000	0.016	-0.340
-605.157	-2.165	-0.241	-0.171
-604.142	321.351	0.188	-0.362
-603.128	265.083	0.263	-0.462
-602.113	-111.328	-0.367	0.076
-601.098	-100.721	0.142	-0.035
-600.084	91.409	-0.085	0.096
-599.069	-78.526	-0.192	-0.066
-598.055	63.693	-0.260	-0.263
-597.040	-200.000	0.004	0.160
-596.025	282.891	-0.051	0.092
-595.011	25.597	-0.198	-0.166
-593.996	145.900	-0.103	-0.140
-592.982	-94.105	0.111	-0.031
-591.967	-21.947	-0.312	-0.191
-590.952	-200.000	-0.067	-0.421
-589.938	173.975	-0.168	-0.245
-588.923	-200.000	-0.047	0.261
-587.909	5.670	-0.311	0.232
-586.894	-70.169	-0.229	0.088
-585.879	-152.424	-0.187	-0.014
-584.865	-123.937	-0.501	-0.080
-583.850	7.086	0.099	0.074
-582.836	45.901	-0.171	0.160
-581.821	-75.687	-0.165	0.059
-580.806	-200.000	0.070	-0.366
-579.792	-70.691	0.097	-0.037
-578.777	-200.000	0.012	-0.443
-577.763	112.091	0.341	-0.416
-576.748	-200.000	0.098	0.465
-575.733	-7.752	-0.419	0.286
-574.719	800.000	-0.080	-0.224
-573.704	-7.747	-0.150	-0.102
-572.690	-200.000	0.077	-0.371
-571.675	27.741	0.275	-0.234
-570.661	18.155	-0.206	0.166
-569.646	53.091	0.115	-0.112
-568.631	16.925	-0.081	-0.065
-567.617	-44.892	0.068	0.034
-566.602	-103.184	0.212	0.051
-565.588	576.235	0.037	0.091
-564.573	800.000	-0.055	-0.206
-563.558	58.377	-0.262	-0.259
-562.544	3.129	-0.165	-0.121
-561.529	-105.907	0.232	-0.053
-560.515	-200.000	0.016	-0.119
-559.500	42.511	-0.214	0.196
-558.485	-200.000	0.008	-0.219
-557.471	-77.369	0.109	-0.038
-556.456	-200.000	-0.004	-0.202
-555.442	300.142	0.066	-0.123
-554.427	-40.719	-0.048	-0.025
-553.412	417.284	-0.051	0.111
-552.398	-200.000	0.018	0.225
-551.383	95.902	0.070	-0.081
-550.369	-70.216	-0.180	0.069
-549.354	-54.620	0.288	0.131
-548.339	140.644	-0.093	-0.124
-547.325	-200.000	0.016	-0.151
-546.310	-122.376	-0.133	0.022
-545.296	132.016	0.118	0.153
-544.281	138.911	0.213	0.282
-543.266	-92.488	0.167	0.047
-542.252	-30.686	-0.111	0.064
-541.237	-200.000	-0.036	-0.229
-540.223	96.217	0.243	-0.280
-539.208	510.603	-0.069	-0.161
-538.193	341.993	-0.088	0.173
-537.179	800.000	0.157	0.454
-536.164	-164.240	0.163	0.008
-535.150	-109.467	0.158	-0.034
-534.135	-4.914	-0.040	-0.028
-533.121	800.000	0.073	-0.255
-532.106	-149.048	0.157	-0.013
-531.091	-200.000	0.062	-0.475
-530.077	-200.000	0.006	0.118
-529.062	110.970	0.203	0.246
-528.048	-171.160	0.117	-0.004
-527.033	99.546	-0.060	-0.069
-526.018	800.000	-0.053	-0.149
-525.004	-73.875	-0.230	-0.084
-523.989	286.876	-0.078	-0.143
-522.975	-102.375	-0.023	-0.006
-521.960	20.121	-0.203	0.165
-520.945	-200.000	0.004	-0.216
-519.931	-102.636	0.299	-0.072
-518.916	299.275	0.146	-0.271
-517.902	800.000	0.029	-0.097
-516.887	-78.856	0.135	-0.046
-515.872	-63.252	0.118	-0.049
-514.858	69.737	0.153	0.159
-513.843	800.000	0.035	-0.144
-512.829	74.778	-0.263	0.279
-511.814	800.000	-0.079	0.316
-510.799	79.738	-0.171	-0.185
-509.785	419.568	0.035	0.075
-508.770	-166.939	-0.199	0.008
-507.756	50.738	0.205	0.196
-506.741	-100.976	-0.392	0.097
-505.726	6.234	0.024	0.018
-504.712	46.036	-0.144	-0.134
-503.697	221.423	-0.292	-0.473
-502.683	-200.000	-0.014	0.205
-501.668	800.000	0.043	0.168
-500.653	-20.632	-0.111	-0.068
-499.639	51.047	0.107	-0.102
-498.624	-123.473	0.305	0.049
-497.610	-100.532	0.301	0.075
-496.595	-58.221	-0.164	-0.072
-495.581	-126.529	-0.032	-0.005
-494.566	6.210	0.185	-0.138
-493.551	441.703	0.049	0.109
-492.537	-114.436	-0.327	-0.063
-491.522	-118.811	-0.330	-0.058
-490.508	-156.890	0.354	0.022
-489.493	116.085	0.138	0.169
-488.478	800.000	-0.023	0.094
-487.464	-200.000	0.040	0.237
-486.449	37.576	-0.134	-0.120
-485.435	188.647	-0.090	0.136
-484.420	-200.000	0.010	0.270
-483.405	20.794	0.329	0.268
-482.391	388.272	-0.195	-0.405
-481.376	800.000	0.036	-0.134
-480.362	-81.311	0.393	0.130
-479.347	-13.586	-0.167	0.109
-478.332	-159.231	0.059	0.003
-477.318	-150.156	-0.405	-0.032
-476.303	-51.121	-0.081	0.038
-475.289	-152.634	0.163	-0.012
-474.274	-85.453	-0.238	0.075
-473.259	52.312	-0.130	0.125
-472.245	448.049	0.086	-0.190
-471.230	-200.000	0.014	0.152
-470.216	-200.000	-0.008	0.168
-469.201	478.215	0.091	-0.208
-468.186	800.000	0.116	0.423
-467.172	-57.416	0.107	-0.047
-466.157	165.015	-0.127	0.180
-465.143	-200.000	0.021	-0.115
-464.128	633.319	-0.117	0.298
-463.113	152.222	-0.090	-0.123
-462.099	224.959	-0.118	0.192
-461.084	21.477	-0.088	-0.072
-460.070	800.000	0.043	-0.160
-459.055	526.413	0.031	0.073
-458.040	108.971	0.047	0.057
-457.026	-88.384	0.272	0.082
-456.011	-178.236	-0.360	0.008
-454.997	-200.000	0.022	0.194
-453.982	102.885	-0.023	-0.027
-452.968	-138.020	0.224	-0.025
-451.953	-99.724	-0.288	-0.073
-450.938	-169.689	0.138	-0.005
-449.924	-5.202	-0.123	-0.085
-448.909	-87.961	0.084	-0.025
-447.895	-133.173	-0.250	0.032
-446.880	110.583	0.087	0.105
-445.865	-200.000	-0.041	-0.357
-444.851	800.000	0.059	-0.163
-443.836	471.077	-0.111	-0.250
-442.822	247.176	0.079	-0.134
-441.807	35.029	-0.181	-0.159
-440.792	375.178	0.051	-0.104
-439.778	94.315	-0.104	0.119
-438.763	-25.936	-0.112	0.066
-437.749	-45.299	0.490	-0.244
-436.734	256.380	-0.046	-0.080
-435.719	-33.752	-0.154	-0.085
-434.705	-105.080	-0.220	0.050
-433.690	-145.454	-0.138	0.013
-432.676	800.000	-0.047	0.181
-431.661	-78.255	-0.380	-0.131
-430.646	-200.000	0.028	-0.234
-429.632	6.317	-0.199	-0.148
-428.617	-200.000	0.049	-0.270
-427.603	156.425	0.143	-0.198
-426.588	-200.000	-0.008	-0.527
-425.573	-172.886	0.284	-0.009
-424.559	-84.629	-0.166	-0.053
-423.544	82.751	0.155	-0.169
-422.530	-15.877	-0.374	-0.239
-421.515	-148.141	-0.236	0.020
-420.500	-45.614	0.219	-0.109
-419.486	-100.971	-0.266	0.065
-418.471	-123.989	-0.085	0.013
-417.457	263.837	0.054	0.095
-416.442	25.534	0.048	-0.040
-415.428	-104.283	-0.331	0.077
-414.413	-61.087	-0.038	-0.016
-413.398	-8.692	0.231	-0.155
-412.384	47.950	0.235	0.220
-411.369	398.730	-0.012	0.026
-410.355	295.706	0.132	0.243
-409.340	24.781	0.144	0.120
-408.325	202.701	0.194	0.300
-407.311	-200.000	-0.010	0.207
-406.296	69.002	0.060	0.062
-405.282	20.120	0.070	0.057
-404.267	57.605	0.125	0.122
-403.252	-41.420	0.076	0.039
-402.238	475.546	-0.051	-0.115
-401.223	-59.608	0.106	-0.045
-400.209	-124.939	0.203	-0.031
-399.194	436.585	0.042	0.091
-398.179	-200.000	-0.024	-0.122
-397.165	302.976	0.069	0.128
-396.150	-78.180	0.195	0.067
-395.136	99.801	0.291	-0.337
-394.121	-80.209	-0.307	-0.103
-393.106	-52.365	-0.298	-0.138
-392.092	24.811	0.154	0.128
-391.077	300.367	-0.057	0.106
-390.063	-99.609	0.130	0.033
-389.048	304.636	0.167	-0.310
-388.033	177.012	-0.050	0.072
-387.019	89.258	-0.095	-0.106
-386.004	313.168	0.060	-0.112
-384.990	-92.788	-0.362	-0.101
-383.975	66.012	-0.082	0.083
-382.960	586.103	-0.019	0.047
-381.946	-166.206	-0.259	0.011
-380.931	800.000	0.075	0.251
-379.917	-133.472	-0.052	0.007
-378.902	51.527	-0.113	0.108
-377.888	59.306	-0.157	-0.155
-376.873	-25.130	-0.267	0.158
-375.858	800.000	0.064	0.214
-374.844	56.987	0.091	0.089
-373.829	-200.000	-0.020	-0.200
-372.815	-123.616	-0.238	0.038
-371.800	-200.000	0.022	0.290
-370.785	-200.000	-0.155	0.000
-369.771	-134.821	0.306	-0.037
-368.756	-38.524	-0.261	-0.138
-367.742	74.740	0.205	0.216
-366.727	99.670	0.138	0.160
-365.712	-43.353	0.052	0.026
-364.698	-10.106	-0.214	-0.143
-363.683	-200.000	0.012	0.244
-362.669	-139.335	-0.356	-0.038
-361.654	-200.000	-0.008	0.101
-360.639	-14.556	0.198	-0.128
-359.625	800.000	0.023	0.095
-358.610	-200.000	-0.013	-0.101
-357.596	72.724	-0.195	-0.204
-356.581	380.359	0.070	-0.143
-355.566	351.321	0.117	-0.231
-354.552	800.000	-0.034	-0.101
-353.537	-113.975	-0.075	-0.015
-352.523	-68.110	0.214	0.084
-351.508	-38.942	-0.164	-0.086
-350.493	-66.466	0.072	0.029
-349.479	97.064	-0.151	0.173
-348.464	800.000	0.019	0.074
-347.450	312.118	0.048	-0.091
-346.435	92.518	-0.159	-0.179
-345.420	-67.237	0.506	-0.199
-344.406	101.517	-0.049	0.057
-343.391	47.999	-0.093	0.087
-342.377	-200.000	0.004	-0.169
-341.362	-200.000	-0.042	0.268
-340.348	60.504	-0.020	-0.020
-339.333	-99.420	0.421	0.106
-338.318	130.450	-0.214	-0.274
-337.304	-14.846	-0.311	0.199
-336.289	-200.000	0.038	0.240
-335.275	785.905	0.038	-0.104
-334.260	-200.000	-0.186	0.000
-333.245	800.000	-0.064	-0.234
-332.231	715.715	0.126	0.335
-331.216	15.888	0.050	0.039
-330.202	-63.232	0.211	0.087
-329.187	-200.000	0.004	-0.094
-328.172	-186.024	-0.315	0.005
-327.158	-166.526	0.082	0.003
-326.143	-200.000	-0.038	0.268
-325.129	600.515	-0.038	0.093
-324.114	-84.086	-0.121	-0.038
-323.099	-160.944	-0.184	0.010
-322.085	16.725	0.163	0.129
-321.070	168.969	-0.087	0.125
-320.056	96.221	0.082	-0.093
-319.041	562.401	-0.082	0.199
-318.026	-200.000	-0.008	0.150
-317.012	-63.367	-0.262	-0.108
-315.997	126.083	-0.114	-0.143
-314.983	-89.129	-0.215	0.063
-313.968	-44.586	0.079	-0.040
-312.953	12.195	-0.130	0.100
-311.939	800.000	-0.068	-0.233
-310.924	64.366	-0.167	0.168
-309.910	141.917	-0.203	-0.269
-308.895	205.720	0.104	0.162
-307.880	502.196	0.043	-0.100
-306.866	-200.000	0.027	0.311
-305.851	-200.000	0.076	0.372
-304.837	-68.413	0.079	-0.031
-303.822	800.000	0.088	0.251
-302.807	108.820	-0.051	0.060
-301.793	553.358	0.095	-0.229
-300.778	-8.150	0.129	-0.087
-299.764	-135.982	-0.474	-0.056
-298.749	8.593	-0.206	-0.155
-297.735	-181.578	0.094	0.002
-296.720	-19.978	-0.344	0.212
-295.705	130.294	-0.191	0.244
-294.691	-200.000	-0.055	-0.362
-293.676	402.044	-0.014	0.030
-292.662	-125.780	0.209	0.032
-291.647	165.821	-0.057	0.080
-290.632	-6.304	-0.083	-0.056
-289.618	800.000	-0.023	0.073
-288.603	800.000	0.093	0.320
-287.589	68.554	0.148	-0.152
-286.574	-36.912	-0.166	0.089
-285.559	-32.272	0.183	-0.102
-284.545	800.000	-0.033	-0.144
-283.530	386.293	0.122	-0.251
-282.516	-200.000	0.017	0.107
-281.501	-200.000	-0.031	0.237
-280.486	-152.522	0.207	-0.015
-279.472	800.000	0.096	0.272
-278.457	800.000	0.102	-0.316
-277.443	233.283	0.129	-0.212
-276.428	78.972	-0.218	0.233
-275.413	800.000	0.097	-0.356
-274.399	-41.109	-0.244	-0.126
-273.384	-27.578	-0.286	0.166
-272.370	649.555	0.092	0.236
-271.355	800.000	0.005	-0.023
-270.340	-167.397	-0.163	0.007
-269.326	800.000	0.102	0.286
-268.311	170.838	-0.189	0.270
-267.297	-200.000	-0.033	-0.209
-266.282	-200.000	0.014	-0.077
-265.267	15.884	0.151	-0.119
-264.253	-86.226	0.482	-0.148
-263.238	-26.178	0.100	-0.059
-262.224	800.000	0.051	0.160
-261.209	-142.323	-0.270	0.027
-260.195	-136.172	0.455	0.053
-259.180	304.302	0.015	0.027
-258.165	-113.573	-0.174	-0.034
-257.151	192.344	0.192	-0.289
-256.136	-200.000	0.012	-0.101
-255.122	-44.454	0.213	0.106
-254.107	83.715	-0.165	0.179
-253.092	-110.824	-0.294	0.060
-252.078	-200.000	0.027	0.256
-251.063	-69.732	-0.074	-0.028
-250.049	-200.000	-0.080	0.399
-249.034	-200.000	0.004	-0.070
-248.019	-200.000	-0.020	0.250
-247.005	-200.000	0.125	0.582
-245.990	10.718	0.112	0.085
-244.976	800.000	0.082	0.341
-243.961	666.139	-0.177	0.454
-242.946	185.935	0.184	0.272
-241.932	10.044	-0.326	-0.247
-240.917	674.382	0.031	-0.081
-239.903	576.743	0.067	-0.163
-238.888	-131.469	-0.135	-0.018
-237.873	37.887	0.153	-0.135
-236.859	-83.676	0.334	-0.106
-235.844	78.861	-0.159	-0.170
-234.830	-139.205	0.356	-0.038
-233.815	-200.000	0.028	0.270
-232.800	800.000	-0.026	0.090
-231.786	177.876	0.036	0.053
-230.771	-200.000	-0.002	-0.053
-229.757	79.284	0.031	0.033
-228.742	-137.066	0.341	-0.039
-227.727	751.058	0.033	0.089
-226.713	800.000	0.026	-0.083
-225.698	800.000	-0.023	0.065
-224.684	-34.479	0.214	-0.117
-223.669	-88.566	0.287	0.085
-222.655	563.161	-0.149	0.360
-221.640	-96.325	0.184	-0.048
-220.625	57.755	-0.041	-0.040
-219.611	-161.646	-0.279	-0.014
-218.596	-82.633	0.478	-0.154
-217.582	-200.000	0.019	-0.094
-216.567	505.286	0.054	-0.124
-215.552	-43.957	-0.293	-0.147
-214.538	240.414	0.096	-0.160
-213.523	-200.000	-0.028	0.241
-212.509	-183.870	0.279	-0.005
-211.494	36.160	0.178	-0.156
-210.479	480.880	-0.180	0.407
-209.465	-200.000	-0.000	0.205
-208.450	468.759	0.007	0.015
-207.436	-3.136	0.260	-0.181
-206.421	-81.884	0.237	0.077
-205.406	-88.494	-0.280	-0.083
-204.392	800.000	0.058	0.233
-203.377	-109.750	0.184	0.038
-202.363	250.474	0.128	0.217
-201.348	277.259	0.136	0.241
-200.333	-0.891	0.113	0.079
-199.319	-154.691	0.112	0.007
-198.304	-131.820	0.041	-0.005
-197.290	17.734	-0.089	0.070
-196.275	92.093	0.156	0.175
-195.260	20.291	-0.173	-0.139
-194.246	-86.753	0.205	0.062
-193.231	-154.190	0.288	-0.019
-192.217	-79.327	0.560	0.188
-191.202	-106.222	0.065	-0.015
-190.187	82.293	0.101	0.108
-189.173	-200.000	0.063	-0.407
-188.158	-49.970	0.247	-0.116
-187.144	-140.616	-0.012	0.001
-186.129	539.437	0.040	0.094
-185.114	436.359	0.122	0.264
-184.100	126.582	-0.211	-0.265
-183.085	-31.614	-0.185	-0.103
-182.071	11.738	0.254	-0.194
-181.056	-104.468	0.304	-0.070
-180.042	-3.791	0.293	0.202
-179.027	-55.016	-0.091	-0.041
-178.012	-131.372	0.130	0.017
-176.998	-97.280	0.325	-0.084
-175.983	-200.000	-0.001	-0.205
-174.969	-123.049	-0.053	-0.008
-173.954	-63.760	0.369	-0.150
-172.939	21.072	0.090	-0.072
-171.925	285.803	0.115	0.206
-170.910	800.000	0.025	0.080
-169.896	749.095	-0.170	0.455
-168.881	-93.850	-0.057	-0.016
-167.866	-200.000	-0.009	0.213
-166.852	-171.793	0.072	-0.002
-165.837	-89.867	0.334	0.097
-164.823	-181.155	-0.141	-0.003
-163.808	-90.897	0.311	0.089
-162.793	-142.166	0.024	-0.002
-161.779	-120.528	-0.266	0.045
-160.764	800.000	-0.132	0.396
-159.750	223.145	-0.102	0.163
-158.735	-18.674	0.304	0.188
-157.720	-200.000	-0.017	0.093
-156.706	-79.211	0.108	-0.036
-155.691	254.053	0.138	0.234
-154.677	151.033	-0.164	0.221
-153.662	-200.000	0.012	0.277
-152.647	-137.024	0.256	-0.029
-151.633	92.234	0.149	-0.167
-150.618	143.584	0.123	-0.162
-149.604	-36.331	-0.174	0.093
-148.589	-149.599	-0.038	0.003
-147.574	-46.041	-0.129	-0.063
-146.560	247.740	-0.176	-0.295
-145.545	-200.000	0.053	-0.300
-144.531	-200.000	-0.009	0.106
-143.516	-200.000	-0.010	-0.093
-142.502	-200.000	0.004	0.177
-141.487	-70.251	0.261	0.098
-140.472	-194.310	-0.219	-0.002
-139.458	-112.524	-0.108	0.021
-138.443	-76.045	0.249	0.087
-137.429	-5.192	-0.170	-0.116
-136.414	-200.000	-0.005	0.085
-135.399	185.085	-0.119	-0.175
-134.385	800.000	-0.055	-0.184
-133.370	-146.329	-0.136	-0.012
-132.356	-65.109	0.119	0.048
-131.341	86.561	-0.311	0.340
-130.326	-172.312	-0.126	-0.004
-129.312	-122.775	0.328	0.053
-128.297	-200.000	-0.010	0.064
-127.283	800.000	-0.010	0.031
-126.268	143.877	0.028	0.037
-125.253	-160.482	-0.153	-0.008
-124.239	-200.000	-0.044	0.330
-123.224	-157.519	-0.225	0.013
-122.210	-191.458	-0.136	0.001
-121.195	-200.000	0.005	-0.280
