DTS Sentinel unit serial number:	SN413079Multiplexer serial number:	ORYXHardware model number:	OX4-SRSoftware version number:	ORYX F/W v4.00 Oryx Data Collector v3.7.2.0data status	okinstallation	princeton_trtdifferential loss correction	single-endedforward channel	channel 4reverse channel	N/Adate	2019/09/10time	22:47:10forward acquisition time	60.00reverse acquisition time	0.00gamma	496.2192k internal	0.2316k external	0.2316temperature offset calibration	0.9947default loss term (dB/km)	0.3790temperature slope calibration	1.0000multiplexer offset coefficient	1.0000multiplexer slope coefficient	1.0000fibre end	0.00T internal ref (°C)	30.19T ext. ref 1 (°C)	-0.32T ext. ref 2 (°C)	23.54length (m)	temperature (°C)	Stokes	anti-Stokes-747.200	47.266	0.162	-0.153
-746.185	-64.479	-0.158	0.065
-745.171	764.948	-0.079	0.218
-744.156	233.403	0.085	0.142
-743.142	161.305	-0.010	-0.015
-742.127	-200.000	-0.082	0.386
-741.112	-113.519	-0.335	-0.066
-740.098	-147.813	-0.236	0.020
-739.083	-96.262	0.097	-0.026
-738.069	-95.688	-0.432	0.117
-737.054	-9.097	0.044	0.030
-736.039	370.102	-0.043	-0.088
-735.025	-52.856	0.440	-0.205
-734.010	-109.822	-0.136	0.029
-732.996	-75.324	-0.212	-0.077
-731.981	20.431	0.232	-0.190
-730.966	800.000	-0.048	0.214
-729.952	-183.276	0.209	-0.004
-728.937	-48.712	-0.241	-0.117
-727.923	-126.216	-0.424	0.064
-726.908	223.300	-0.060	0.099
-725.894	-200.000	0.048	-0.270
-724.879	800.000	0.011	0.040
-723.864	60.009	-0.168	-0.168
-722.850	-81.120	-0.269	-0.090
-721.835	-8.612	-0.142	0.096
-720.821	-27.443	-0.146	0.086
-719.806	52.513	0.100	-0.097
-718.791	-147.733	-0.359	-0.030
-717.777	-200.000	0.004	-0.028
-716.762	26.236	0.251	-0.212
-715.748	-59.283	0.056	-0.024
-714.733	-97.869	0.154	-0.040
-713.718	-45.606	-0.197	0.099
-712.704	800.000	0.137	-0.443
-711.689	-2.382	0.244	-0.173
-710.675	-6.264	-0.273	-0.188
-709.660	-200.000	0.033	-0.281
-708.645	-200.000	-0.007	0.224
-707.631	-80.728	0.072	-0.024
-706.616	-154.080	-0.109	-0.007
-705.602	-200.000	0.014	0.241
-704.587	103.433	-0.067	0.079
-703.572	176.866	0.083	-0.123
-702.558	-178.720	0.101	0.002
-701.543	-200.000	-0.023	0.170
-700.529	800.000	-0.070	0.284
-699.514	51.770	-0.191	-0.184
-698.499	800.000	0.033	-0.093
-697.485	73.051	-0.081	-0.086
-696.470	-200.000	-0.019	0.107
-695.456	-200.000	-0.010	0.193
-694.441	-69.604	0.126	0.049
-693.426	-133.701	-0.243	-0.031
-692.412	-19.845	0.124	-0.077
-691.397	-200.000	0.023	0.366
-690.383	-200.000	0.042	-0.300
-689.368	800.000	-0.076	-0.277
-688.354	-131.714	-0.094	-0.012
-687.339	-200.000	0.020	-0.172
-686.324	692.504	-0.073	0.193
-685.310	-91.835	-0.106	0.031
-684.295	800.000	0.083	0.234
-683.281	-150.529	0.063	-0.005
-682.266	214.626	-0.078	-0.125
-681.251	800.000	0.053	0.201
-680.237	162.358	0.070	-0.099
-679.222	185.890	0.174	0.261
-678.208	800.000	-0.047	-0.135
-677.193	388.549	-0.055	-0.115
-676.178	43.402	0.065	-0.060
-675.164	114.628	-0.190	-0.234
-674.149	16.097	0.166	-0.132
-673.135	-200.000	-0.031	-0.219
-672.120	-131.949	0.081	0.011
-671.105	159.821	-0.095	-0.134
-670.091	-200.000	-0.010	0.051
-669.076	-127.788	0.236	-0.034
-668.062	-200.000	-0.037	-0.202
-667.047	-100.269	0.090	0.023
-666.032	-155.027	-0.162	-0.011
-665.018	-80.789	-0.171	-0.057
-664.003	-135.849	0.257	0.031
-662.989	800.000	-0.046	-0.153
-661.974	-95.748	-0.192	-0.052
-660.959	75.628	0.244	-0.260
-659.945	62.892	0.267	0.270
-658.930	-126.850	-0.174	-0.026
-657.916	-200.000	0.002	0.124
-656.901	165.982	-0.060	-0.086
-655.886	-89.493	0.295	-0.088
-654.872	421.446	-0.106	0.229
-653.857	-56.857	-0.290	-0.129
-652.843	-200.000	-0.093	-0.448
-651.828	-111.331	0.254	-0.052
-650.814	51.801	0.190	0.183
-649.799	587.688	0.131	0.326
-648.784	42.598	0.074	0.068
-647.770	-30.437	0.193	0.110
-646.755	-200.000	0.298	0.000
-645.741	-96.331	0.144	0.038
-644.726	-30.092	0.282	0.162
-643.711	-128.190	0.098	-0.014
-642.697	-135.583	-0.182	-0.022
-641.682	129.316	0.074	-0.096
-640.668	72.830	0.259	0.273
-639.653	-173.896	-0.178	0.005
-638.638	-64.039	-0.291	-0.120
-637.624	-200.000	-0.035	0.298
-636.609	-68.830	-0.243	0.095
-635.595	-30.332	-0.128	-0.074
-634.580	645.204	-0.117	-0.302
-633.565	-98.753	0.142	-0.037
-632.551	371.629	0.077	0.157
-631.536	-6.057	0.355	0.245
-630.522	-151.596	-0.227	0.017
-629.507	168.168	0.213	-0.305
-628.492	-162.730	-0.135	-0.007
-627.478	800.000	-0.082	0.250
-626.463	-93.224	-0.281	0.079
-625.449	-21.712	0.115	0.071
-624.434	132.157	-0.261	-0.339
-623.419	-200.000	0.023	-0.142
-622.405	-200.000	-0.022	-0.146
-621.390	754.660	0.045	0.123
-620.376	-10.814	0.197	0.131
-619.361	-78.908	-0.126	0.043
-618.346	-200.000	0.022	-0.164
-617.332	229.221	-0.195	-0.321
-616.317	-200.000	0.032	-0.382
-615.303	-200.000	0.011	-0.194
-614.288	16.083	-0.036	-0.029
-613.273	-96.404	0.226	0.060
-612.259	-98.704	-0.301	-0.077
-611.244	-117.709	0.278	0.050
-610.230	233.278	-0.095	-0.158
-609.215	386.171	-0.254	-0.528
-608.201	84.176	0.068	-0.075
-607.186	-13.715	0.292	-0.191
-606.171	800.000	-0.078	-0.258
-605.157	800.000	-0.110	-0.378
-604.142	42.588	-0.082	0.075
-603.128	24.631	-0.099	0.083
-602.113	76.791	0.097	0.104
-601.098	474.943	-0.053	-0.122
-600.084	193.743	0.220	0.336
-599.069	-200.000	-0.015	0.156
-598.055	-22.387	-0.204	0.125
-597.040	-34.754	-0.175	-0.096
-596.025	-127.849	0.337	0.049
-595.011	-200.000	0.010	-0.200
-593.996	466.517	-0.016	-0.035
-592.982	-200.000	0.022	-0.185
-591.967	-123.577	0.181	-0.029
-590.952	-152.897	-0.115	-0.008
-589.938	-21.480	-0.346	-0.213
-588.923	-200.000	-0.049	-0.260
-587.909	76.397	-0.236	-0.252
-586.894	79.723	-0.138	-0.149
-585.879	598.873	0.077	-0.193
-584.865	-200.000	-0.041	-0.295
-583.850	411.405	-0.054	-0.116
-582.836	787.361	0.032	-0.088
-581.821	-56.012	0.065	-0.029
-580.806	180.039	-0.087	-0.128
-579.792	-5.540	-0.381	0.263
-578.777	-102.692	0.348	0.083
-577.763	736.473	0.053	-0.143
-576.748	-65.041	-0.251	-0.102
-575.733	-89.585	-0.135	0.040
-574.719	-64.998	-0.285	0.116
-573.704	-200.000	0.049	0.310
-572.690	-200.000	-0.005	-0.059
-571.675	800.000	-0.065	-0.246
-570.661	-56.047	-0.134	-0.060
-569.646	-200.000	0.002	-0.236
-568.631	-68.966	-0.234	-0.091
-567.617	80.039	0.220	-0.238
-566.602	-58.643	0.127	-0.055
-565.588	763.755	-0.033	-0.089
-564.573	-200.000	-0.053	0.438
-563.558	-19.447	-0.360	0.224
-562.544	-27.952	-0.222	0.129
-561.529	-200.000	-0.052	-0.246
-560.515	-80.136	-0.208	-0.070
-559.500	69.684	0.082	-0.085
-558.485	800.000	0.031	0.104
-557.471	53.197	-0.233	-0.224
-556.456	-109.716	-0.161	0.034
-555.442	-200.000	0.007	0.126
-554.427	-132.430	-0.303	0.039
-553.412	-182.840	-0.262	-0.005
-552.398	128.544	-0.007	0.009
-551.383	18.381	-0.029	-0.023
-550.369	800.000	-0.073	-0.271
-549.354	-99.050	-0.030	0.008
-548.339	-120.111	0.142	0.024
-547.325	188.579	0.068	0.102
-546.310	-200.000	0.031	0.271
-545.296	46.726	-0.212	0.198
-544.281	-78.388	-0.146	-0.050
-543.266	52.607	-0.052	-0.050
-542.252	90.111	-0.098	-0.110
-541.237	527.784	0.043	0.102
-540.223	-155.763	0.317	-0.020
-539.208	196.284	-0.156	0.239
-538.193	-52.193	-0.301	0.140
-537.179	516.603	-0.096	0.225
-536.164	-65.055	-0.240	-0.097
-535.150	800.000	-0.028	0.097
-534.135	-107.324	0.130	0.029
-533.121	-24.908	0.264	0.157
-532.106	-70.596	-0.255	-0.097
-531.091	-111.790	0.195	-0.040
-530.077	42.792	0.160	-0.147
-529.062	8.028	0.237	-0.178
-528.048	-179.185	0.077	0.002
-527.033	800.000	-0.111	0.366
-526.018	-51.583	-0.140	-0.066
-525.004	800.000	-0.166	0.466
-523.989	-58.006	0.232	-0.102
-522.975	-200.000	0.031	0.322
-521.960	91.817	-0.121	0.137
-520.945	223.050	0.040	0.064
-519.931	-38.452	0.025	-0.013
-518.916	800.000	-0.093	-0.313
-517.902	214.520	0.317	0.505
-516.887	131.066	0.063	-0.081
-515.872	-124.372	-0.237	0.037
-514.858	-200.000	-0.005	0.363
-513.843	98.433	-0.051	-0.058
-512.829	-34.033	0.096	-0.053
-511.814	-7.880	0.137	0.093
-510.799	-128.391	0.185	0.026
-509.785	-44.087	0.046	-0.023
-508.770	-200.000	0.012	0.059
-507.756	-1.339	-0.077	0.055
-506.741	72.278	0.196	0.205
-505.726	2.563	-0.244	0.177
-504.712	330.859	-0.014	-0.026
-503.697	111.121	-0.282	-0.341
-502.683	-37.469	0.316	-0.169
-501.668	-200.000	-0.164	-0.000
-500.653	10.441	-0.118	0.090
-499.639	53.444	0.240	0.231
-498.624	152.474	-0.078	-0.107
-497.610	352.808	0.065	0.129
-496.595	800.000	-0.074	-0.241
-495.581	-48.255	0.228	0.111
-494.566	68.037	0.344	-0.353
-493.551	-200.000	-0.001	-0.282
-492.537	422.918	0.052	0.112
-491.522	-8.314	0.145	0.098
-490.508	43.603	0.222	-0.204
-489.493	-186.964	0.093	0.001
-488.478	-110.260	-0.358	0.075
-487.464	464.658	-0.070	-0.157
-486.449	-32.249	-0.102	-0.057
-485.435	-93.779	0.172	0.047
-484.420	-114.633	-0.199	-0.038
-483.405	800.000	-0.066	-0.274
-482.391	-118.321	0.153	-0.027
-481.376	183.940	0.111	-0.164
-480.362	17.609	0.213	0.170
-479.347	-200.000	-0.043	0.272
-478.332	-6.234	-0.338	-0.231
-477.318	202.767	0.231	0.357
-476.303	94.638	0.194	0.221
-475.289	-82.976	-0.076	0.025
-474.274	-200.000	-0.013	0.101
-473.259	800.000	-0.070	0.204
-472.245	-186.502	0.186	0.003
-471.230	-153.217	-0.152	0.011
-470.216	-79.117	0.243	-0.083
-469.201	-105.051	0.212	0.049
-468.186	-200.000	-0.008	0.140
-467.172	-200.000	-0.016	-0.144
-466.157	-72.951	0.233	-0.086
-465.143	800.000	-0.019	-0.080
-464.128	157.149	0.109	0.151
-463.113	-200.000	-0.008	0.155
-462.099	-200.000	0.035	-0.309
-461.084	-200.000	-0.006	-0.135
-460.070	-72.441	0.248	0.092
-459.055	227.408	0.215	0.350
-458.040	593.526	0.023	0.057
-457.026	-200.000	0.001	0.020
-456.011	-115.956	0.094	0.018
-454.997	499.023	0.093	-0.215
-453.982	800.000	-0.031	-0.106
-452.968	340.603	0.179	0.350
-451.953	58.906	0.075	-0.074
-450.938	67.889	0.298	-0.305
-449.924	-133.566	0.322	0.040
-448.909	19.461	0.110	0.089
-447.895	93.762	-0.044	-0.050
-446.880	-200.000	-0.057	0.352
-445.865	238.891	0.077	0.129
-444.851	-114.540	-0.254	0.049
-443.836	24.996	-0.150	-0.125
-442.822	-42.444	0.365	-0.186
-441.807	42.718	-0.367	0.335
-440.792	800.000	0.041	0.113
-439.778	82.378	0.212	0.230
-438.763	-6.433	-0.083	-0.057
-437.749	18.845	-0.304	-0.244
-436.734	53.177	-0.168	0.161
-435.719	-200.000	0.012	0.300
-434.705	800.000	-0.024	-0.079
-433.690	-60.902	0.385	-0.163
-432.676	800.000	-0.101	0.280
-431.661	-87.481	0.040	-0.012
-430.646	-200.000	-0.044	-0.224
-429.632	-200.000	-0.066	-0.306
-428.617	-103.010	0.077	0.018
-427.603	-58.256	-0.160	-0.070
-426.588	174.689	0.089	-0.128
-425.573	-83.815	0.157	0.050
-424.559	-120.047	0.101	-0.017
-423.544	-181.922	0.257	-0.005
-422.530	-175.675	0.240	0.006
-421.515	-200.000	-0.009	0.254
-420.500	121.905	-0.103	-0.129
-419.486	-5.213	0.196	-0.135
-418.471	-78.146	-0.173	0.060
-417.457	800.000	0.061	0.188
-416.442	800.000	0.035	-0.137
-415.428	7.988	-0.149	-0.112
-414.413	-36.816	-0.062	-0.033
-413.398	-77.162	-0.330	-0.115
-412.384	-99.301	-0.208	0.052
-411.369	800.000	-0.119	0.458
-410.355	42.077	0.172	0.156
-409.340	90.953	0.255	-0.286
-408.325	-2.919	-0.312	-0.218
-407.311	370.702	0.102	0.206
-406.296	-200.000	0.002	-0.087
-405.282	543.999	-0.144	0.342
-404.267	-80.995	-0.038	0.013
-403.252	94.880	0.088	0.100
-402.238	-98.154	0.008	0.002
-401.223	333.027	-0.080	0.155
-400.209	247.756	-0.219	0.370
-399.194	257.698	0.197	0.339
-398.179	-200.000	-0.049	0.329
-397.165	800.000	-0.057	0.216
-396.150	-67.409	0.157	0.062
-395.136	178.110	-0.097	-0.141
-394.121	-12.031	-0.059	0.039
-393.106	-115.691	-0.192	0.036
-392.092	-148.941	0.243	-0.020
-391.077	800.000	0.079	0.320
-390.063	718.818	0.138	0.367
-389.048	-200.000	-0.076	-0.336
-388.033	800.000	-0.085	-0.278
-387.019	800.000	-0.094	0.305
-386.004	-139.017	-0.257	0.028
-384.990	-101.481	-0.407	0.099
-383.975	-200.000	0.059	0.274
-382.960	800.000	0.037	-0.117
-381.946	-112.788	0.278	-0.055
-380.931	-66.744	0.124	-0.049
-379.917	-44.058	0.059	0.029
-378.902	579.109	0.072	-0.176
-377.888	574.698	0.075	-0.183
-376.873	102.354	0.319	-0.372
-375.858	757.213	-0.105	-0.284
-374.844	-200.000	-0.036	-0.167
-373.829	-200.000	0.016	0.134
-372.815	-200.000	-0.015	0.438
-371.800	-22.654	0.198	-0.119
-370.785	800.000	0.087	-0.266
-369.771	59.133	0.259	-0.254
-368.756	236.255	-0.051	-0.085
-367.742	-139.008	0.115	-0.012
-366.727	800.000	-0.063	-0.176
-365.712	800.000	0.074	0.267
-364.698	-200.000	0.017	-0.104
-363.683	79.541	0.095	-0.101
-362.669	487.400	-0.057	0.129
-361.654	-110.415	-0.246	-0.051
-360.639	-162.327	-0.075	-0.004
-359.625	-90.386	-0.208	0.060
-358.610	-200.000	0.041	-0.207
-357.596	-15.616	0.128	0.082
-356.581	-35.635	0.053	-0.028
-355.566	-137.003	0.152	-0.017
-354.552	800.000	-0.071	-0.195
-353.537	110.559	0.173	-0.207
-352.523	-200.000	0.049	-0.333
-351.508	-12.660	0.503	-0.327
-350.493	99.492	-0.223	-0.258
-349.479	-200.000	0.052	-0.326
-348.464	-41.118	0.085	0.044
-347.450	-105.214	0.171	0.039
-346.435	119.605	0.151	-0.186
-345.420	-172.785	0.282	-0.009
-344.406	800.000	-0.100	-0.287
-343.391	-13.676	0.251	0.162
-342.377	-200.000	-0.003	-0.014
-341.362	-133.824	-0.257	0.032
-340.348	16.422	0.024	-0.019
-339.333	167.923	0.042	-0.059
-338.318	-64.943	-0.385	-0.155
-337.304	-106.789	0.160	-0.035
-336.289	800.000	-0.009	-0.031
-335.275	-8.183	0.210	-0.141
-334.260	116.844	0.151	-0.184
-333.245	-137.673	0.104	0.012
-332.231	92.093	-0.274	-0.307
-331.216	456.133	-0.022	0.048
-330.202	134.436	0.028	-0.037
-329.187	800.000	-0.054	0.185
-328.172	-200.000	-0.015	0.151
-327.158	-74.212	-0.095	0.034
-326.143	-159.343	-0.205	-0.011
-325.129	-72.365	0.039	-0.014
-324.114	-97.231	-0.125	0.032
-323.099	-200.000	0.062	-0.555
-322.085	-200.000	0.011	-0.113
-321.070	-6.642	0.110	-0.074
-320.056	800.000	-0.043	0.143
-319.041	-200.000	0.039	-0.192
-318.026	70.962	0.093	0.096
-317.012	292.660	0.091	0.164
-315.997	-200.000	0.036	0.206
-314.983	-200.000	0.013	0.305
-313.968	-24.550	0.518	0.307
-312.953	629.448	-0.035	-0.087
-311.939	309.755	-0.051	-0.095
-310.924	-66.734	-0.161	-0.063
-309.910	-200.000	-0.044	-0.266
-308.895	138.341	-0.061	0.080
-307.880	-52.829	0.262	-0.120
-306.866	-84.574	0.185	-0.058
-305.851	176.568	0.178	0.258
-304.837	153.911	-0.189	0.258
-303.822	800.000	0.058	0.169
-302.807	-200.000	-0.001	-0.110
-301.793	181.916	-0.164	0.240
-300.778	27.945	-0.169	-0.142
-299.764	-200.000	0.026	-0.201
-298.749	117.428	-0.098	-0.119
-297.735	-75.390	0.065	-0.023
-296.720	175.778	-0.103	0.149
-295.705	203.098	0.068	0.105
-294.691	-36.320	-0.046	0.025
-293.676	-64.548	-0.232	0.094
-292.662	316.705	-0.063	-0.119
-291.647	0.200	0.120	0.086
-290.632	-200.000	-0.021	-0.145
-289.618	-200.000	-0.022	-0.112
-288.603	800.000	0.043	-0.166
-287.589	800.000	-0.114	0.326
-286.574	147.328	0.219	0.293
-285.559	262.306	0.167	-0.288
-284.545	10.898	-0.197	-0.149
-283.530	-82.524	0.032	-0.010
-282.516	-200.000	-0.025	-0.208
-281.501	177.027	0.163	0.236
-280.486	-8.373	0.255	0.171
-279.472	43.587	-0.086	0.078
-278.457	-200.000	-0.115	0.529
-277.443	-74.351	-0.071	-0.026
-276.428	-1.151	-0.221	0.155
-275.413	86.099	0.189	0.207
-274.399	329.900	0.018	0.035
-273.384	402.279	-0.005	0.010
-272.370	547.798	-0.078	0.186
-271.355	-177.227	-0.114	-0.003
-270.340	-99.623	-0.319	-0.079
-269.326	-200.000	-0.009	0.250
-268.311	87.597	-0.149	-0.164
-267.297	-91.219	-0.159	-0.045
-266.282	-72.928	0.146	-0.053
-265.267	-179.764	0.422	-0.009
-264.253	25.932	-0.115	0.096
-263.238	-190.225	0.108	0.001
-262.224	148.295	0.038	0.051
-261.209	42.731	0.150	0.136
-260.195	-200.000	-0.032	-0.228
-259.180	-194.813	0.114	0.001
-258.165	-200.000	-0.001	0.014
-257.151	800.000	-0.042	-0.144
-256.136	-41.924	-0.230	0.117
-255.122	364.909	0.078	-0.156
-254.107	-200.000	-0.024	-0.146
-253.092	800.000	-0.145	0.484
-252.078	9.318	0.138	0.104
-251.063	-190.030	-0.227	-0.003
-250.049	-200.000	0.023	-0.179
-249.034	-39.606	-0.459	0.239
-248.019	358.645	-0.067	0.132
-247.005	-57.182	0.086	0.038
-245.990	800.000	0.039	-0.114
-244.976	-76.481	-0.135	-0.047
-243.961	8.593	0.038	-0.029
-242.946	741.382	0.076	0.202
-241.932	410.911	0.054	-0.114
-240.917	-200.000	-0.001	0.012
-239.903	-78.880	-0.311	0.105
-238.888	800.000	0.024	0.101
-237.873	323.901	0.160	-0.303
-236.859	-36.725	0.236	-0.126
-235.844	800.000	0.025	0.085
-234.830	56.404	0.174	0.168
-233.815	-56.008	-0.210	0.093
-232.800	800.000	-0.052	0.177
-231.786	-95.619	-0.103	0.027
-230.771	137.374	-0.210	-0.273
-229.757	-127.754	-0.112	-0.016
-228.742	800.000	0.095	0.288
-227.727	-74.871	-0.096	-0.034
-226.713	-10.912	-0.209	-0.137
-225.698	26.250	-0.088	-0.073
-224.684	-152.630	0.255	-0.018
-223.669	222.553	0.074	0.118
-222.655	-200.000	0.047	-0.395
-221.640	5.162	-0.402	-0.294
-220.625	98.229	-0.119	0.136
-219.611	330.520	0.083	0.158
-218.596	105.861	-0.177	0.208
-217.582	47.402	0.177	-0.163
-216.567	-200.000	0.071	0.317
-215.552	-200.000	0.037	-0.220
-214.538	-200.000	-0.030	0.136
-213.523	124.854	-0.234	-0.293
-212.509	-145.392	0.227	-0.020
-211.494	-169.602	-0.307	0.011
-210.479	800.000	0.027	-0.084
-209.465	295.272	-0.058	-0.105
-208.450	339.831	-0.158	-0.306
-207.436	295.649	0.111	0.202
-206.421	705.730	-0.063	-0.165
-205.406	255.926	0.137	0.233
-204.392	800.000	0.062	-0.201
-203.377	-167.493	-0.330	-0.013
-202.363	-125.916	-0.428	0.064
-201.348	-200.000	-0.026	0.380
-200.333	24.441	0.196	-0.161
-199.319	800.000	-0.033	0.109
-198.304	401.879	0.196	-0.407
-197.290	-0.020	-0.324	0.229
-196.275	-49.384	-0.082	-0.039
-195.260	769.636	0.007	-0.019
-194.246	-59.917	0.200	0.085
-193.231	-200.000	0.056	0.281
-192.217	492.942	-0.073	0.165
-191.202	424.937	-0.124	0.266
-190.187	-96.420	0.013	-0.003
-189.173	745.250	0.076	-0.203
-188.158	33.826	0.017	0.015
-187.144	800.000	0.036	0.130
-186.129	-89.309	-0.197	-0.058
-185.114	-200.000	-0.090	-0.403
-184.100	106.361	0.057	-0.067
-183.085	-200.000	-0.001	-0.073
-182.071	-37.682	0.297	-0.157
-181.056	-45.762	-0.303	0.148
-180.042	-46.371	-0.151	-0.074
-179.027	82.036	0.203	0.217
-178.012	11.056	-0.134	0.102
-176.998	302.624	-0.015	0.028
-175.983	-93.191	-0.392	0.108
-174.969	-112.130	-0.314	-0.063
-173.954	279.020	-0.179	-0.317
-172.939	-14.117	0.134	0.086
-171.925	-99.842	0.094	-0.023
-170.910	-6.966	-0.084	-0.057
-169.896	-78.251	0.327	-0.111
-168.881	15.697	-0.080	-0.062
-167.866	-200.000	-0.011	-0.273
-166.852	118.063	0.223	0.272
-165.837	-29.416	-0.458	0.260
-164.823	305.822	0.119	-0.218
-163.808	34.501	0.128	0.111
-162.793	-200.000	0.069	0.379
-161.779	800.000	0.089	0.312
-160.764	-200.000	0.041	0.195
-159.750	-200.000	-0.080	-0.351
-158.735	351.902	0.040	0.079
-157.720	-66.056	0.385	0.152
-156.706	3.095	0.290	-0.209
-155.691	334.265	0.028	-0.053
-154.677	-95.691	0.430	0.114
-153.662	49.059	-0.085	0.079
-152.647	793.082	0.035	-0.095
-151.633	-164.791	0.190	-0.008
-150.618	800.000	0.058	0.162
-149.604	800.000	-0.031	-0.110
-148.589	-200.000	-0.008	-0.137
-147.574	-104.529	-0.354	-0.081
-146.560	-161.535	0.141	-0.007
-145.545	800.000	-0.090	-0.377
-144.531	140.557	0.192	-0.251
-143.516	-133.067	0.226	0.028
-142.502	12.922	0.151	-0.115
-141.487	-107.134	0.352	0.077
-140.472	712.430	0.021	0.056
-139.458	-200.000	0.013	0.553
-138.443	51.043	-0.270	0.253
-137.429	-29.917	-0.267	0.151
-136.414	-177.281	-0.068	-0.002
-135.399	266.333	0.020	-0.035
-134.385	-200.000	0.011	0.120
-133.370	-92.025	-0.132	0.037
-132.356	-125.942	0.193	-0.029
-131.341	-106.890	0.199	0.044
-130.326	151.623	-0.178	0.240
-129.312	-63.600	-0.297	-0.120
-128.297	-64.999	0.179	-0.072
-127.283	-200.000	-0.005	0.120
-126.268	112.869	0.132	0.158
-125.253	-182.318	-0.056	0.001
-124.239	-200.000	-0.036	0.192
-123.224	-46.144	0.345	-0.168
-122.210	127.289	0.104	-0.131
