DTS Sentinel unit serial number:	SN413079Multiplexer serial number:	ORYXHardware model number:	OX4-SRSoftware version number:	ORYX F/W v4.00 Oryx Data Collector v3.7.2.0data status	okinstallation	princeton_trtdifferential loss correction	single-endedforward channel	channel 4reverse channel	N/Adate	2019/09/14time	05:13:34forward acquisition time	60.00reverse acquisition time	0.00gamma	496.2192k internal	0.2320k external	0.2320temperature offset calibration	1.0134default loss term (dB/km)	0.3790temperature slope calibration	1.0000multiplexer offset coefficient	1.0000multiplexer slope coefficient	1.0000fibre end	0.00T internal ref (°C)	26.91T ext. ref 1 (°C)	3.39T ext. ref 2 (°C)	21.99length (m)	temperature (°C)	Stokes	anti-Stokes-747.200	800.000	-0.043	0.174
-746.185	800.000	-0.097	0.355
-745.171	-81.867	-0.195	-0.065
-744.156	-55.621	-0.392	0.178
-743.142	-94.204	0.269	0.074
-742.127	-133.324	-0.552	-0.070
-741.112	135.441	0.271	-0.356
-740.098	-91.828	-0.198	-0.057
-739.083	-20.665	-0.214	0.133
-738.069	5.842	0.449	0.336
-737.054	217.263	-0.061	0.099
-736.039	555.854	-0.078	-0.191
-735.025	-200.000	0.040	-0.203
-734.010	-200.000	0.074	-0.671
-732.996	90.532	-0.238	-0.269
-731.981	800.000	0.074	-0.213
-730.966	287.493	0.043	0.078
-729.952	-45.104	-0.179	0.090
-728.937	22.255	-0.243	-0.200
-727.923	-67.146	-0.239	-0.095
-726.908	-173.367	-0.099	-0.003
-725.894	-74.851	0.156	-0.057
-724.879	-159.632	-0.086	0.005
-723.864	-8.162	0.147	0.100
-722.850	-179.718	-0.227	0.005
-721.835	-200.000	0.001	-0.458
-720.821	-156.131	-0.313	-0.020
-719.806	776.648	-0.111	0.306
-718.791	171.348	0.184	0.266
-717.777	-4.189	0.165	-0.116
-716.762	305.234	0.036	-0.068
-715.748	26.708	-0.159	-0.135
-714.733	-141.069	-0.088	-0.009
-713.718	548.788	-0.067	-0.162
-712.704	-69.797	0.235	-0.090
-711.689	405.954	0.195	-0.415
-710.675	-76.273	0.442	-0.157
-709.660	-5.066	-0.274	-0.191
-708.645	-200.000	-0.001	-0.138
-707.631	-4.392	0.064	-0.044
-706.616	759.819	0.040	-0.110
-705.602	61.938	-0.179	-0.180
-704.587	73.039	-0.061	-0.065
-703.572	89.076	0.160	-0.179
-702.558	225.360	-0.134	-0.219
-701.543	800.000	-0.028	-0.093
-700.529	327.813	-0.108	-0.209
-699.514	-24.513	0.039	0.024
-698.499	178.801	-0.187	0.276
-697.485	-200.000	-0.006	0.071
-696.470	-200.000	-0.001	-0.118
-695.456	74.733	0.138	-0.146
-694.441	29.988	0.315	-0.271
-693.426	800.000	0.055	-0.238
-692.412	-200.000	-0.035	-0.330
-691.397	349.723	0.178	-0.355
-690.383	800.000	0.094	-0.268
-689.368	800.000	0.091	-0.271
-688.354	114.376	-0.193	0.237
-687.339	-200.000	0.049	-0.397
-686.324	-82.603	0.122	-0.040
-685.310	-88.127	-0.197	0.060
-684.295	501.524	-0.030	0.070
-683.281	-200.000	-0.019	0.324
-682.266	-116.469	0.085	0.016
-681.251	-154.997	0.330	0.022
-680.237	248.972	-0.229	-0.391
-679.222	-200.000	0.009	-0.087
-678.208	94.520	0.089	0.102
-677.193	-200.000	0.019	0.151
-676.178	28.678	-0.179	-0.153
-675.164	220.826	0.174	-0.281
-674.149	24.206	0.205	-0.171
-673.135	800.000	0.009	-0.029
-672.120	370.028	0.074	0.151
-671.105	-200.000	0.033	0.302
-670.091	-200.000	-0.017	0.143
-669.076	-167.814	-0.438	-0.017
-668.062	466.100	-0.038	0.086
-667.047	262.015	0.025	0.044
-666.032	17.932	0.280	-0.225
-665.018	-150.339	-0.146	0.011
-664.003	-31.651	-0.304	-0.172
-662.989	175.021	-0.066	0.096
-661.974	105.226	-0.135	0.161
-660.959	-161.151	-0.218	-0.011
-659.945	640.556	-0.099	0.255
-658.930	800.000	-0.063	0.186
-657.916	-31.704	-0.054	0.030
-656.901	-200.000	0.029	0.418
-655.886	-21.269	-0.050	0.031
-654.872	51.734	0.012	0.011
-653.857	173.734	0.121	-0.176
-652.843	-46.395	-0.292	-0.144
-651.828	-200.000	-0.001	-0.135
-650.814	367.374	-0.010	0.021
-649.799	-143.768	0.116	-0.011
-648.784	-200.000	-0.026	0.299
-647.770	-200.000	0.026	-0.133
-646.755	-166.841	-0.130	-0.005
-645.741	-42.070	-0.092	-0.048
-644.726	800.000	0.061	0.207
-643.711	-111.068	-0.323	-0.067
-642.697	-60.109	0.122	-0.053
-641.682	459.636	-0.101	-0.227
-640.668	97.047	-0.084	0.097
-639.653	-200.000	-0.019	0.331
-638.638	-83.956	-0.189	-0.061
-637.624	-76.210	0.050	-0.018
-636.609	96.838	0.198	-0.229
-635.595	0.158	-0.186	-0.134
-634.580	-200.000	-0.010	-0.137
-633.565	342.864	0.077	0.151
-632.551	-71.323	0.155	-0.059
-631.536	148.168	0.062	-0.084
-630.522	-23.836	0.316	0.190
-629.507	199.003	0.075	0.116
-628.492	-200.000	0.050	0.244
-627.478	66.826	-0.114	0.116
-626.463	190.149	0.049	-0.073
-625.449	113.882	-0.136	0.166
-624.434	800.000	0.052	0.176
-623.419	-93.079	-0.098	-0.027
-622.405	-200.000	0.019	0.257
-621.390	-46.684	0.231	-0.114
-620.376	-172.828	0.049	-0.002
-619.361	183.022	0.147	-0.218
-618.346	-114.525	0.153	-0.030
-617.332	408.467	0.154	-0.329
-616.317	800.000	-0.122	0.403
-615.303	1.084	0.321	0.231
-614.288	-30.124	0.181	-0.104
-613.273	800.000	0.039	-0.125
-612.259	800.000	-0.106	-0.395
-611.244	-57.475	0.275	0.121
-610.230	-200.000	0.033	0.233
-609.215	-200.000	0.035	-0.292
-608.201	28.547	0.054	-0.046
-607.186	-200.000	0.033	0.213
-606.171	100.615	-0.134	0.157
-605.157	-151.366	0.407	0.030
-604.142	-122.075	-0.128	0.021
-603.128	-39.737	0.141	0.074
-602.113	108.218	-0.067	0.080
-601.098	-200.000	-0.019	-0.281
-600.084	257.407	0.108	0.187
-599.069	800.000	-0.045	-0.165
-598.055	47.166	0.049	-0.046
-597.040	147.794	0.077	0.104
-596.025	800.000	-0.143	-0.400
-595.011	-200.000	-0.007	0.064
-593.996	-96.137	-0.132	0.035
-592.982	-92.602	-0.112	0.032
-591.967	35.750	0.332	0.293
-590.952	-40.767	-0.106	-0.055
-589.938	-85.936	0.365	-0.114
-588.923	-200.000	0.019	0.137
-587.909	-138.159	0.365	-0.041
-586.894	-200.000	-0.065	-0.324
-585.879	17.645	-0.153	-0.122
-584.865	380.159	-0.045	-0.092
-583.850	7.493	0.053	0.040
-582.836	-81.949	-0.085	-0.028
-581.821	81.153	0.059	-0.064
-580.806	-54.604	-0.200	-0.091
-579.792	61.622	0.136	0.136
-578.777	-92.172	0.106	-0.030
-577.763	-200.000	0.050	-0.249
-576.748	-17.957	-0.325	-0.205
-575.733	-159.404	0.258	0.014
-574.719	-200.000	0.015	-0.168
-573.704	800.000	-0.040	0.120
-572.690	-105.470	0.328	-0.075
-571.675	-173.117	-0.093	-0.003
-570.661	-21.582	0.090	-0.055
-569.646	-62.749	-0.079	-0.033
-568.631	83.405	0.127	0.139
-567.617	-130.912	-0.160	-0.022
-566.602	-137.865	0.352	0.040
-565.588	-102.163	-0.384	-0.093
-564.573	-86.144	-0.153	-0.048
-563.558	35.583	0.178	-0.157
-562.544	285.141	-0.116	0.210
-561.529	22.937	-0.078	-0.064
-560.515	-46.376	0.101	-0.050
-559.500	-184.992	0.051	-0.001
-558.485	-200.000	0.047	0.297
-557.471	-114.635	-0.220	0.042
-556.456	258.063	0.062	0.106
-555.442	154.408	0.224	-0.308
-554.427	5.079	-0.292	0.216
-553.412	-114.105	-0.092	-0.018
-552.398	-67.272	0.104	-0.041
-551.383	-133.780	-0.338	0.042
-550.369	167.442	0.156	-0.223
-549.354	-137.381	-0.078	0.009
-548.339	-200.000	-0.047	0.314
-547.325	-89.654	-0.225	0.066
-546.310	30.879	0.160	0.137
-545.296	134.250	0.030	-0.039
-544.281	571.741	0.042	-0.103
-543.266	-10.605	-0.350	-0.232
-542.252	230.829	-0.064	0.105
-541.237	80.944	0.113	-0.122
-540.223	-150.432	0.145	-0.011
-539.208	-58.579	-0.188	0.082
-538.193	-200.000	-0.013	0.347
-537.179	608.076	0.126	0.314
-536.164	14.815	-0.081	-0.063
-535.150	-69.008	0.312	0.121
-534.135	748.137	0.077	-0.208
-533.121	-26.275	-0.077	0.045
-532.106	-133.914	0.190	-0.024
-531.091	654.914	0.103	0.266
-530.077	-36.627	-0.409	0.220
-529.062	800.000	0.094	-0.266
-528.048	-29.704	0.142	0.081
-527.033	144.534	0.156	-0.209
-526.018	800.000	0.019	0.060
-525.004	567.044	-0.154	-0.375
-523.989	-40.399	0.332	-0.173
-522.975	-8.508	0.255	0.172
-521.960	-87.214	0.268	0.082
-520.945	522.294	-0.045	-0.107
-519.931	152.045	-0.285	0.389
-518.916	195.980	-0.199	-0.303
-517.902	-108.814	-0.475	-0.102
-516.887	-200.000	0.057	-0.339
-515.872	396.151	0.058	-0.121
-514.858	800.000	0.038	-0.142
-513.843	-6.696	0.221	-0.151
-512.829	131.277	0.233	-0.300
-511.814	127.869	-0.126	-0.160
-510.799	-97.005	-0.138	0.036
-509.785	19.060	-0.135	-0.109
-508.770	800.000	-0.063	-0.246
-507.756	-41.140	-0.062	0.032
-506.741	493.328	-0.068	-0.156
-505.726	116.171	-0.293	-0.360
-504.712	133.770	-0.141	0.183
-503.697	-200.000	0.004	0.259
-502.683	-200.000	-0.070	-0.488
-501.668	-176.149	0.228	-0.006
-500.653	800.000	-0.062	-0.187
-499.639	-38.298	-0.047	0.025
-498.624	-200.000	-0.016	0.288
-497.610	-94.036	-0.265	-0.073
-496.595	-200.000	-0.010	-0.187
-495.581	9.303	-0.081	-0.061
-494.566	111.162	0.153	0.184
-493.551	461.950	0.066	-0.147
-492.537	-98.333	-0.125	-0.032
-491.522	-78.083	-0.280	0.096
-490.508	-15.723	-0.162	0.103
-489.493	88.489	-0.334	-0.372
-488.478	-19.315	-0.141	0.088
-487.464	282.433	-0.222	0.399
-486.449	-26.947	-0.354	0.207
-485.435	129.933	-0.026	-0.033
-484.420	-200.000	0.012	0.225
-483.405	-200.000	-0.010	-0.107
-482.391	26.968	0.482	-0.404
-481.376	50.900	0.451	0.428
-480.362	-200.000	-0.042	0.357
-479.347	-200.000	-0.034	-0.158
-478.332	-10.503	-0.204	-0.135
-477.318	-93.064	-0.152	-0.042
-476.303	-33.807	-0.090	-0.050
-475.289	-130.887	0.258	0.035
-474.274	172.820	0.116	0.167
-473.259	323.001	-0.149	0.285
-472.245	-166.542	-0.400	0.017
-471.230	-200.000	-0.009	0.188
-470.216	479.223	0.070	0.158
-469.201	-105.167	-0.318	-0.073
-468.186	-119.793	-0.032	0.006
-467.172	-43.820	-0.154	-0.077
-466.157	69.136	0.072	0.074
-465.143	365.346	0.114	0.229
-464.128	-200.000	0.002	0.033
-463.113	-67.573	-0.085	0.033
-462.099	243.286	0.185	0.309
-461.084	217.669	0.034	-0.054
-460.070	-80.002	-0.351	-0.118
-459.055	-114.620	-0.116	-0.022
-458.040	-28.260	-0.300	0.174
-457.026	-25.876	-0.272	0.160
-456.011	-190.493	0.362	-0.004
-454.997	114.115	0.111	-0.135
-453.982	146.961	-0.269	-0.362
-452.968	-200.000	0.045	-0.452
-451.953	7.149	-0.444	0.331
-450.938	800.000	-0.065	0.206
-449.924	63.146	0.080	0.080
-448.909	176.047	0.084	-0.122
-447.895	45.227	-0.164	-0.151
-446.880	-110.118	-0.272	-0.057
-445.865	200.942	0.153	-0.236
-444.851	-200.000	-0.045	0.359
-443.836	-200.000	0.007	0.063
-442.822	-138.699	0.151	-0.017
-441.807	-200.000	-0.000	0.602
-440.792	-144.774	0.255	0.023
-439.778	-103.900	-0.161	-0.038
-438.763	194.044	0.073	-0.111
-437.749	-200.000	-0.022	-0.393
-436.734	-86.867	-0.237	0.072
-435.719	40.477	-0.066	-0.059
-434.705	-200.000	0.041	-0.224
-433.690	6.660	-0.371	0.276
-432.676	-101.716	0.115	-0.028
-431.661	-57.688	-0.042	-0.018
-430.646	71.917	0.112	0.116
-429.632	95.221	0.221	0.252
-428.617	-136.269	-0.251	-0.029
-427.603	-73.848	0.254	0.092
-426.588	-92.194	0.414	0.117
-425.573	-123.922	-0.269	0.042
-424.559	-200.000	0.005	0.194
-423.544	244.014	0.047	-0.079
-422.530	-140.244	-0.362	-0.038
-421.515	17.026	0.068	-0.054
-420.500	48.621	-0.250	-0.234
-419.486	-200.000	-0.061	0.283
-418.471	102.375	-0.245	0.286
-417.457	19.834	0.302	0.243
-416.442	-105.905	-0.150	-0.034
-415.428	-122.686	0.277	0.045
-414.413	800.000	0.072	0.215
-413.398	-200.000	0.022	0.130
-412.384	132.630	-0.205	0.264
-411.369	114.507	0.028	-0.034
-410.355	-200.000	-0.050	-0.371
-409.340	657.545	0.069	0.177
-408.325	-89.404	-0.163	0.048
-407.311	-200.000	0.002	-0.235
-406.296	12.778	0.182	0.140
-405.282	57.304	0.126	0.123
-404.267	54.767	-0.064	0.062
-403.252	-200.000	0.031	0.167
-402.238	-134.980	-0.280	0.034
-401.223	-159.119	-0.130	-0.007
-400.209	54.493	-0.238	0.228
-399.194	800.000	0.056	0.174
-398.179	-99.185	-0.255	-0.064
-397.165	-9.259	-0.023	-0.015
-396.150	-87.179	0.453	0.137
-395.136	336.660	0.164	0.318
-394.121	198.135	0.130	0.198
-393.106	364.516	0.148	-0.297
-392.092	690.366	-0.080	-0.208
-391.077	-64.711	-0.136	-0.055
-390.063	-68.378	0.383	-0.148
-389.048	-200.000	0.018	0.116
-388.033	126.994	0.038	-0.048
-387.019	-39.352	0.332	0.174
-386.004	18.799	0.023	0.019
-384.990	-200.000	-0.046	-0.258
-383.975	-24.406	0.180	-0.107
-382.960	-131.322	-0.033	0.004
-381.946	-200.000	-0.003	-0.126
-380.931	-200.000	0.034	-0.309
-379.917	495.914	-0.049	0.113
-378.902	-47.262	0.148	-0.072
-377.888	-111.159	-0.156	-0.032
-376.873	-32.876	-0.080	0.044
-375.858	355.685	-0.054	-0.107
-374.844	-38.578	0.397	-0.209
-373.829	-39.704	0.339	-0.177
-372.815	-19.380	-0.111	0.068
-371.800	-200.000	-0.012	0.064
-370.785	-200.000	-0.036	0.371
-369.771	-92.455	0.313	-0.088
-368.756	310.881	0.133	0.249
-367.742	-200.000	-0.023	-0.251
-366.727	511.480	0.109	0.253
-365.712	47.189	0.091	0.085
-364.698	88.577	-0.137	-0.152
-363.683	800.000	0.116	-0.359
-362.669	-200.000	0.002	-0.074
-361.654	20.469	0.128	0.103
-360.639	-66.255	0.390	-0.155
-359.625	-8.119	-0.240	0.161
-358.610	11.796	0.175	0.134
-357.596	72.319	0.032	-0.034
-356.581	-200.000	-0.057	-0.365
-355.566	227.014	-0.059	-0.095
-354.552	-77.078	-0.089	-0.031
-353.537	-21.203	-0.066	0.040
-352.523	-172.664	0.301	0.009
-351.508	4.030	-0.138	-0.101
-350.493	138.097	-0.192	-0.251
-349.479	5.154	-0.150	0.110
-348.464	-123.051	0.206	0.033
-347.450	800.000	0.030	0.123
-346.435	-118.369	0.151	0.027
-345.420	-40.482	0.174	-0.090
-344.406	124.194	0.009	-0.011
-343.391	-62.356	0.348	-0.144
-342.377	-200.000	-0.071	-0.349
-341.362	800.000	0.047	-0.136
-340.348	-82.828	-0.035	0.011
-339.333	147.180	-0.192	-0.257
-338.318	-79.225	-0.404	0.136
-337.304	-200.000	-0.038	0.257
-336.289	408.029	0.240	-0.505
-335.275	238.269	-0.062	0.102
-334.260	-125.520	0.109	0.017
-333.245	800.000	0.074	-0.310
-332.231	306.114	0.095	0.175
-331.216	-200.000	-0.021	0.182
-330.202	-200.000	-0.018	-0.201
-329.187	327.059	0.067	0.127
-328.172	25.063	-0.125	-0.104
-327.158	-200.000	0.016	-0.110
-326.143	388.253	-0.037	0.075
-325.129	-200.000	-0.010	-0.181
-324.114	-143.743	-0.323	-0.030
-323.099	-69.141	-0.210	-0.080
-322.085	7.169	-0.065	0.048
-321.070	40.082	-0.144	-0.129
-320.056	-72.098	0.111	-0.041
-319.041	-182.041	0.028	0.001
-318.026	12.330	-0.131	0.101
-317.012	-200.000	-0.032	0.262
-315.997	-101.250	-0.149	-0.036
-314.983	-200.000	-0.000	-0.017
-313.968	-187.866	-0.199	-0.003
-312.953	164.358	0.322	0.452
-311.939	7.357	-0.146	0.108
-310.924	800.000	0.100	-0.352
-309.910	-147.779	0.266	-0.022
-308.895	74.358	-0.076	0.080
-307.880	549.229	-0.045	-0.107
-306.866	-81.428	-0.215	-0.070
-305.851	359.517	-0.129	-0.257
-304.837	257.362	0.062	-0.106
-303.822	-200.000	0.010	-0.122
-302.807	-93.988	-0.264	-0.072
-301.793	771.972	-0.025	0.067
-300.778	-136.214	0.234	-0.027
-299.764	-3.407	-0.062	0.043
-298.749	-30.650	0.021	-0.012
-297.735	-30.441	0.209	0.118
-296.720	190.344	-0.202	0.301
-295.705	800.000	-0.075	0.286
-294.691	-72.262	0.282	0.104
-293.676	-143.368	-0.152	-0.014
-292.662	-64.291	-0.206	0.083
-291.647	130.888	-0.168	-0.214
-290.632	800.000	-0.020	0.067
-289.618	-96.447	-0.230	0.060
-288.603	89.050	0.128	-0.141
-287.589	-200.000	0.013	-0.076
-286.574	168.057	-0.028	0.040
-285.559	800.000	0.092	0.259
-284.545	-146.989	0.347	-0.030
-283.530	-200.000	0.037	0.318
-282.516	-12.898	-0.168	0.108
-281.501	-200.000	-0.027	-0.142
-280.486	-40.600	0.083	0.043
-279.472	-56.289	-0.201	0.089
-278.457	-12.063	-0.195	0.127
-277.443	-200.000	-0.015	0.104
-276.428	248.832	0.118	0.198
-275.413	273.462	0.093	-0.163
-274.399	-117.758	-0.295	-0.053
-273.384	-31.186	-0.122	0.068
-272.370	-200.000	-0.081	0.362
-271.355	625.469	-0.012	0.031
-270.340	-64.304	0.159	-0.064
-269.326	104.452	0.090	0.105
-268.311	167.780	-0.064	-0.091
-267.297	22.618	-0.222	-0.181
-266.282	-64.199	0.193	0.078
-265.267	-76.793	-0.094	0.033
-264.253	332.405	-0.009	0.017
-263.238	-179.485	-0.153	-0.003
-262.224	-8.295	0.096	-0.064
-261.209	800.000	-0.146	0.430
-260.195	800.000	0.048	-0.201
-259.180	40.692	0.047	0.042
-258.165	-145.077	0.291	-0.026
-257.151	-101.808	0.252	-0.060
-256.136	800.000	-0.017	0.073
-255.122	-200.000	0.040	0.277
-254.107	-200.000	0.061	0.337
-253.092	-73.075	0.311	0.113
-252.078	800.000	-0.070	0.260
-251.063	202.309	0.045	0.070
-250.049	-26.929	-0.165	0.096
-249.034	-129.351	-0.395	0.054
-248.019	-200.000	0.026	-0.128
-247.005	46.654	-0.117	-0.108
-245.990	356.687	-0.092	0.182
-244.976	244.518	-0.132	-0.219
-243.961	-135.587	0.193	-0.023
-242.946	202.257	0.119	0.182
-241.932	-94.340	0.376	0.102
-240.917	-5.823	-0.098	-0.067
-239.903	-33.768	-0.233	-0.127
-238.888	-77.805	-0.291	0.100
-237.873	-200.000	-0.030	0.378
-236.859	-200.000	0.003	0.502
-235.844	5.373	0.145	-0.106
-234.830	40.969	-0.093	-0.083
-233.815	-38.206	-0.342	-0.180
-232.800	36.441	-0.061	-0.053
-231.786	41.277	0.209	-0.187
-230.771	612.629	-0.021	-0.052
-229.757	-134.208	-0.224	0.027
-228.742	-200.000	-0.022	0.156
-227.727	-82.917	-0.219	-0.070
-226.713	-19.263	0.414	-0.254
-225.698	-22.159	0.102	0.062
-224.684	144.642	-0.161	0.213
-223.669	295.539	0.109	-0.198
-222.655	-200.000	-0.053	-0.366
-221.640	-200.000	-0.043	0.225
-220.625	-147.353	0.257	0.022
-219.611	86.626	-0.187	-0.204
-218.596	-200.000	0.019	0.311
-217.582	82.280	0.072	-0.078
-216.567	327.490	-0.039	0.075
-215.552	-104.317	0.320	0.073
-214.538	39.717	-0.135	-0.120
-213.523	176.670	-0.076	0.110
-212.509	-74.601	0.290	-0.103
-211.494	800.000	-0.090	-0.348
-210.479	800.000	0.006	-0.022
-209.465	29.469	-0.233	-0.196
-208.450	-103.457	0.086	-0.020
-207.436	-88.501	0.168	-0.050
-206.421	344.875	-0.055	-0.106
-205.406	-161.755	-0.237	-0.012
-204.392	152.897	-0.118	-0.160
-203.377	-1.543	0.298	-0.208
-202.363	128.308	-0.288	-0.363
-201.348	-98.704	-0.234	-0.059
-200.333	800.000	-0.050	-0.145
-199.319	168.566	-0.100	-0.141
-198.304	131.947	0.141	0.180
-197.290	453.604	-0.093	0.204
-196.275	-72.310	-0.184	0.068
-195.260	122.342	0.145	0.179
-194.246	641.946	-0.070	0.175
-193.231	-48.479	-0.242	0.115
-192.217	-36.798	0.235	-0.125
-191.202	651.816	-0.016	0.039
-190.187	800.000	-0.048	-0.157
-189.173	-200.000	0.005	0.030
-188.158	457.285	-0.141	0.311
-187.144	-85.442	-0.089	0.027
-186.129	-4.545	0.101	0.069
-185.114	-88.643	0.371	-0.109
-184.100	-51.832	0.136	0.063
-183.085	26.529	0.172	0.143
-182.071	22.084	-0.044	0.036
-181.056	-22.871	-0.239	0.143
-180.042	-96.385	0.386	-0.101
-179.027	-82.170	-0.190	0.061
-178.012	100.437	0.145	-0.166
-176.998	-134.082	0.339	0.041
-175.983	131.893	0.173	-0.220
-174.969	800.000	-0.041	-0.145
-173.954	4.247	-0.269	-0.195
-172.939	-51.367	0.347	-0.161
-171.925	171.197	-0.010	0.014
-170.910	-200.000	-0.032	-0.314
-169.896	-200.000	-0.027	-0.397
-168.881	-200.000	0.006	-0.086
-167.866	105.681	0.120	-0.140
-166.852	-54.526	0.492	-0.220
-165.837	328.225	0.099	0.187
-164.823	-200.000	0.143	0.001
-163.808	-49.114	-0.183	-0.086
-162.793	16.192	-0.093	0.073
-161.779	-172.111	0.044	-0.001
-160.764	274.971	0.169	-0.296
-159.750	-143.356	0.324	0.031
-158.735	461.082	0.055	0.121
-157.720	315.427	0.119	0.223
-156.706	212.249	-0.145	0.226
-155.691	-200.000	-0.004	-0.207
-154.677	-17.324	0.031	-0.019
-153.662	-159.831	0.184	-0.010
-152.647	-72.861	-0.437	0.159
-151.633	394.682	0.014	-0.029
-150.618	-17.132	0.180	-0.112
-149.604	-48.406	-0.148	-0.070
-148.589	302.215	0.110	0.202
-147.574	-200.000	0.001	0.217
-146.560	-46.553	-0.160	-0.078
-145.545	55.331	-0.155	-0.148
-144.531	-156.338	0.267	-0.017
-143.516	444.848	-0.139	0.301
-142.502	282.481	0.042	0.075
-141.487	252.382	-0.158	0.266
-140.472	-132.694	-0.339	-0.043
-139.458	34.669	-0.123	-0.106
-138.443	52.375	-0.187	-0.177
-137.429	-200.000	0.005	-0.117
-136.414	18.384	-0.196	0.154
-135.399	-200.000	0.017	0.125
-134.385	-3.029	-0.396	0.273
-133.370	800.000	-0.022	0.066
-132.356	37.444	0.251	-0.219
-131.341	-136.073	-0.103	-0.012
-130.326	-69.329	0.169	0.064
-129.312	-129.260	0.146	-0.020
-128.297	-121.704	0.205	0.033
-127.283	-72.734	0.033	-0.012
-126.268	13.439	0.211	-0.161
-125.253	800.000	0.027	-0.099
-124.239	108.303	-0.161	-0.190
-123.224	425.720	0.009	-0.019
-122.210	241.150	0.167	-0.274
