DTS Sentinel unit serial number:	SN413079Multiplexer serial number:	ORYXHardware model number:	OX4-SRSoftware version number:	ORYX F/W v4.00 Oryx Data Collector v3.7.2.0data status	okinstallation	princeton_trtdifferential loss correction	single-endedforward channel	channel 4reverse channel	N/Adate	2019/09/13time	02:25:35forward acquisition time	60.00reverse acquisition time	0.00gamma	496.2192k internal	0.2319k external	0.2319temperature offset calibration	1.0189default loss term (dB/km)	0.3790temperature slope calibration	1.0000multiplexer offset coefficient	1.0000multiplexer slope coefficient	1.0000fibre end	0.00T internal ref (°C)	27.50T ext. ref 1 (°C)	3.95T ext. ref 2 (°C)	22.25length (m)	temperature (°C)	Stokes	anti-Stokes-747.200	800.000	-0.058	-0.216
-746.185	-167.540	-0.150	0.006
-745.171	-97.421	-0.316	0.083
-744.156	-45.410	-0.262	-0.131
-743.142	206.242	-0.055	-0.087
-742.127	-80.713	0.237	-0.080
-741.112	422.197	-0.036	0.079
-740.098	-200.000	0.000	0.226
-739.083	-147.583	0.270	0.023
-738.069	-126.395	-0.554	-0.083
-737.054	-200.000	-0.018	0.126
-736.039	-200.000	0.011	-0.059
-735.025	-41.137	-0.340	-0.178
-734.010	105.165	-0.099	-0.119
-732.996	-200.000	-0.018	-0.280
-731.981	-81.528	-0.376	-0.125
-730.966	-200.000	-0.004	0.169
-729.952	18.156	-0.245	-0.197
-728.937	800.000	-0.069	-0.272
-727.923	-121.922	-0.170	0.028
-726.908	110.763	-0.298	0.363
-725.894	482.313	0.058	-0.133
-724.879	642.855	0.090	-0.231
-723.864	367.110	-0.170	-0.348
-722.850	125.034	-0.099	-0.126
-721.835	42.227	-0.269	0.247
-720.821	-74.337	0.361	0.132
-719.806	793.083	-0.055	-0.152
-718.791	800.000	0.055	-0.187
-717.777	800.000	0.037	0.131
-716.762	85.977	-0.180	-0.200
-715.748	-5.564	0.067	-0.046
-714.733	104.191	-0.148	-0.176
-713.718	-108.150	-0.167	0.036
-712.704	179.056	-0.047	0.070
-711.689	-27.419	-0.115	0.067
-710.675	107.140	0.039	0.046
-709.660	91.732	0.002	0.003
-708.645	-90.014	0.605	-0.178
-707.631	-14.332	0.431	0.281
-706.616	-115.941	-0.044	-0.008
-705.602	43.815	0.140	0.129
-704.587	50.985	0.066	-0.063
-703.572	157.520	0.165	0.230
-702.558	-167.040	0.306	0.013
-701.543	-97.915	-0.103	0.027
-700.529	361.631	-0.016	-0.033
-699.514	131.452	-0.164	-0.212
-698.499	800.000	0.115	-0.485
-697.485	206.435	-0.055	-0.086
-696.470	-94.200	-0.335	0.093
-695.456	771.221	-0.034	0.095
-694.441	-58.566	-0.086	-0.038
-693.426	165.348	0.124	-0.178
-692.412	16.267	-0.138	-0.110
-691.397	-94.390	0.057	-0.016
-690.383	800.000	-0.170	-0.594
-689.368	-120.171	0.306	0.053
-688.354	1.992	-0.052	-0.038
-687.339	-31.989	-0.086	-0.049
-686.324	41.743	0.234	-0.214
-685.310	-200.000	0.025	0.190
-684.295	-200.000	0.050	-0.295
-683.281	-200.000	0.021	-0.231
-682.266	-100.549	-0.223	-0.056
-681.251	762.110	-0.025	-0.068
-680.237	142.408	0.169	-0.227
-679.222	50.683	-0.117	-0.111
-678.208	92.093	-0.298	-0.338
-677.193	-200.000	0.025	0.190
-676.178	800.000	-0.092	0.271
-675.164	103.355	-0.140	-0.165
-674.149	7.394	-0.217	0.164
-673.135	-153.988	-0.272	-0.019
-672.120	5.895	0.041	-0.031
-671.105	31.710	-0.206	-0.179
-670.091	-200.000	-0.037	-0.184
-669.076	-168.461	-0.138	-0.005
-668.062	139.437	0.267	-0.354
-667.047	247.610	0.074	-0.127
-666.032	12.558	0.248	0.193
-665.018	-75.431	-0.341	-0.123
-664.003	-110.999	-0.270	0.056
-662.989	-101.046	-0.258	0.064
-661.974	800.000	-0.070	-0.195
-660.959	-84.135	0.069	-0.022
-659.945	2.249	0.265	0.193
-658.930	-200.000	0.060	-0.308
-657.916	32.188	0.078	-0.068
-656.901	800.000	-0.066	-0.206
-655.886	800.000	-0.022	-0.091
-654.872	-200.000	0.007	-0.082
-653.857	-135.467	-0.359	0.043
-652.843	-200.000	0.050	-0.326
-651.828	36.360	-0.191	-0.170
-650.814	-32.756	0.144	0.080
-649.799	800.000	-0.064	-0.223
-648.784	-200.000	-0.067	-0.392
-647.770	-196.152	0.084	-0.001
-646.755	65.066	0.149	0.152
-645.741	-77.725	-0.048	0.017
-644.726	-200.000	-0.010	-0.229
-643.711	-200.000	-0.061	0.273
-642.697	-200.000	-0.074	0.417
-641.682	-173.777	0.213	-0.006
-640.668	-40.573	0.154	0.080
-639.653	764.638	-0.095	-0.261
-638.638	-98.610	0.220	0.056
-637.624	-22.146	0.098	0.060
-636.609	-200.000	-0.541	-0.000
-635.595	16.130	-0.122	-0.097
-634.580	-97.557	-0.353	0.092
-633.565	-200.000	-0.003	0.038
-632.551	-6.760	-0.191	-0.131
-631.536	-127.892	-0.307	0.044
-630.522	16.316	-0.254	-0.202
-629.507	620.529	-0.083	0.210
-628.492	-34.575	0.512	-0.282
-627.478	460.065	0.034	0.077
-626.463	-12.285	0.153	-0.101
-625.449	-35.977	-0.121	0.066
-624.434	-50.111	0.175	0.084
-623.419	729.346	-0.072	-0.194
-622.405	77.929	-0.157	0.169
-621.390	-200.000	-0.025	0.147
-620.376	-87.862	-0.325	0.098
-619.361	158.386	-0.064	-0.090
-618.346	-200.000	0.065	0.398
-617.332	-133.296	0.068	-0.009
-616.317	-200.000	0.012	-0.165
-615.303	-75.172	0.193	-0.070
-614.288	442.996	-0.085	-0.187
-613.273	-200.000	-0.007	-0.064
-612.259	664.074	-0.086	0.223
-611.244	-136.164	0.160	-0.019
-610.230	525.046	0.084	0.199
-609.215	-168.605	-0.550	-0.021
-608.201	800.000	0.078	-0.232
-607.186	505.839	0.036	-0.084
-606.171	800.000	-0.153	-0.517
-605.157	-134.671	0.132	-0.016
-604.142	14.738	-0.253	0.199
-603.128	133.245	-0.093	0.121
-602.113	7.779	0.061	-0.046
-601.098	37.526	-0.203	0.181
-600.084	-123.278	-0.329	-0.053
-599.069	-175.316	-0.193	0.005
-598.055	-200.000	0.044	-0.311
-597.040	-112.950	-0.523	0.104
-596.025	-200.000	0.005	0.068
-595.011	-100.834	-0.394	-0.097
-593.996	800.000	-0.042	-0.162
-592.982	137.381	0.060	-0.079
-591.967	-109.343	0.289	-0.062
-590.952	-200.000	0.035	-0.177
-589.938	290.605	-0.056	0.103
-588.923	666.987	0.091	-0.237
-587.909	-200.000	0.003	-0.069
-586.894	17.453	-0.129	-0.103
-585.879	-83.597	0.434	-0.139
-584.865	-41.627	-0.160	-0.083
-583.850	-7.387	0.358	0.244
-582.836	64.001	-0.121	0.122
-581.821	176.968	0.224	0.328
-580.806	-35.792	-0.272	0.148
-579.792	-200.000	-0.013	0.191
-578.777	90.535	-0.160	-0.180
-577.763	462.312	0.028	0.064
-576.748	30.958	-0.052	0.045
-575.733	800.000	0.070	0.217
-574.719	-116.831	0.134	-0.025
-573.704	800.000	-0.103	-0.324
-572.690	111.400	0.095	0.115
-571.675	-200.000	0.007	0.354
-570.661	-67.075	-0.175	-0.069
-569.646	-157.896	-0.202	0.012
-568.631	150.992	0.107	-0.146
-567.617	-104.109	0.209	-0.049
-566.602	-200.000	-0.023	-0.154
-565.588	-200.000	-0.020	0.249
-564.573	-14.580	0.102	-0.066
-563.558	800.000	-0.080	-0.267
-562.544	-64.929	-0.239	0.097
-561.529	520.891	-0.101	0.238
-560.515	800.000	0.028	-0.092
-559.500	-200.000	-0.004	0.096
-558.485	0.148	-0.230	0.165
-557.471	-200.000	-0.069	-0.570
-556.456	-152.284	-0.155	0.011
-555.442	-96.230	0.253	-0.067
-554.427	679.654	0.130	0.339
-553.412	61.561	-0.187	0.186
-552.398	-200.000	0.029	0.353
-551.383	-49.448	0.273	-0.131
-550.369	-78.886	0.434	-0.149
-549.354	-146.322	0.084	-0.007
-548.339	449.980	0.134	-0.297
-547.325	-36.501	0.159	0.086
-546.310	115.971	-0.107	-0.132
-545.296	-107.615	0.399	-0.088
-544.281	4.254	0.044	-0.032
-543.266	8.985	-0.276	-0.209
-542.252	214.719	0.083	-0.132
-541.237	-200.000	-0.171	0.001
-540.223	-30.258	-0.337	0.192
-539.208	-120.373	0.186	-0.032
-538.193	289.485	-0.004	0.008
-537.179	-200.000	0.004	-0.311
-536.164	187.599	0.233	0.348
-535.150	-118.911	-0.156	-0.027
-534.135	381.475	-0.234	0.482
-533.121	32.468	0.118	0.102
-532.106	289.889	0.027	0.049
-531.091	-102.784	-0.227	0.054
-530.077	794.223	-0.127	-0.350
-529.062	-200.000	0.008	-0.052
-528.048	-28.883	0.087	0.050
-527.033	-200.000	0.032	-0.147
-526.018	-200.000	0.014	-0.171
-525.004	-136.442	0.100	0.012
-523.989	623.468	-0.065	0.164
-522.975	69.817	0.180	0.186
-521.960	186.382	-0.102	-0.153
-520.945	-62.760	-0.097	-0.040
-519.931	-76.480	-0.116	-0.041
-518.916	-100.786	0.164	-0.040
-517.902	800.000	-0.079	0.287
-516.887	318.437	-0.114	-0.216
-515.872	10.879	-0.262	-0.201
-514.858	-61.933	-0.374	0.157
-513.843	-200.000	0.029	0.174
-512.829	306.410	-0.122	0.228
-511.814	-200.000	-0.040	0.218
-510.799	-93.124	0.112	-0.031
-509.785	-136.819	-0.144	-0.017
-508.770	-196.976	-0.091	0.001
-507.756	-82.997	0.028	-0.009
-506.741	-96.874	-0.229	0.060
-505.726	628.337	-0.120	0.303
-504.712	-130.809	0.553	-0.074
-503.697	126.699	-0.060	-0.076
-502.683	-200.000	-0.020	-0.159
-501.668	-143.282	-0.265	-0.025
-500.653	-51.059	-0.261	0.123
-499.639	175.499	0.148	-0.215
-498.624	414.039	-0.098	-0.209
-497.610	-45.336	0.100	0.050
-496.595	72.086	-0.383	0.399
-495.581	575.096	0.059	0.144
-494.566	-98.619	0.278	-0.071
-493.551	-162.517	0.087	-0.004
-492.537	441.005	0.094	0.205
-491.522	94.063	-0.213	-0.242
-490.508	-75.184	0.480	-0.172
-489.493	613.801	-0.113	-0.283
-488.478	68.639	-0.209	0.214
-487.464	266.975	0.171	-0.300
-486.449	-200.000	0.025	-0.259
-485.435	275.464	-0.044	0.079
-484.420	-30.310	0.178	-0.101
-483.405	-13.086	0.172	-0.112
-482.391	470.198	-0.159	0.359
-481.376	169.447	0.245	-0.350
-480.362	16.119	0.098	0.078
-479.347	800.000	0.095	0.271
-478.332	-8.953	-0.145	0.097
-477.318	162.002	-0.211	0.296
-476.303	605.762	-0.080	-0.199
-475.289	-200.000	-0.041	-0.319
-474.274	34.289	0.161	-0.141
-473.259	-200.000	0.010	-0.158
-472.245	31.172	0.100	-0.086
-471.230	-50.332	0.052	0.024
-470.216	45.894	0.327	-0.303
-469.201	-76.778	0.154	0.054
-468.186	332.540	-0.032	-0.062
-467.172	-6.913	0.190	0.129
-466.157	-184.570	-0.055	-0.001
-465.143	-35.632	-0.211	0.115
-464.128	64.089	-0.263	-0.264
-463.113	-200.000	0.016	-0.237
-462.099	43.030	-0.175	-0.160
-461.084	-6.957	-0.427	-0.290
-460.070	-100.280	-0.101	0.025
-459.055	731.633	-0.071	0.191
-458.040	-157.270	0.154	-0.009
-457.026	-133.190	-0.173	-0.022
-456.011	-94.619	0.160	-0.044
-454.997	-146.214	0.290	0.025
-453.982	-200.000	0.047	0.353
-452.968	429.682	-0.102	-0.220
-451.953	216.498	0.172	-0.274
-450.938	-200.000	-0.029	-0.272
-449.924	292.872	-0.094	0.171
-448.909	-85.316	0.272	0.085
-447.895	1.769	0.174	-0.126
-446.880	-68.196	0.188	0.073
-445.865	124.758	-0.153	-0.192
-444.851	49.061	-0.107	-0.101
-443.836	526.861	-0.146	-0.345
-442.822	2.269	0.068	-0.049
-441.807	-200.000	0.028	0.315
-440.792	-90.371	0.168	-0.049
-439.778	-130.272	0.103	0.014
-438.763	-200.000	0.007	-0.206
-437.749	-49.792	0.159	-0.075
-436.734	-37.401	0.084	0.045
-435.719	-133.761	0.155	0.019
-434.705	-140.322	-0.295	-0.031
-433.690	-108.977	0.291	-0.062
-432.676	3.404	-0.196	-0.142
-431.661	122.997	-0.259	-0.325
-430.646	-48.757	0.255	-0.122
-429.632	-63.060	0.168	-0.070
-428.617	-3.405	0.132	0.092
-427.603	99.454	-0.130	0.150
-426.588	-124.035	0.133	0.021
-425.573	39.709	-0.175	0.157
-424.559	-80.831	-0.295	-0.098
-423.544	378.236	0.118	0.241
-422.530	-67.426	-0.198	0.078
-421.515	-140.945	0.144	0.015
-420.500	-89.627	0.230	0.067
-419.486	207.599	-0.178	0.278
-418.471	-28.590	-0.176	-0.101
-417.457	208.714	0.055	0.087
-416.442	-100.504	-0.369	0.091
-415.428	43.779	-0.234	-0.214
-414.413	800.000	-0.095	-0.370
-413.398	-70.279	0.243	0.092
-412.384	400.551	-0.176	-0.370
-411.369	-34.935	0.235	0.128
-410.355	14.312	-0.295	-0.230
-409.340	24.173	0.068	0.056
-408.325	-167.195	-0.073	-0.003
-407.311	44.059	-0.046	0.042
-406.296	-61.596	0.166	-0.069
-405.282	800.000	-0.095	0.272
-404.267	503.849	0.079	-0.183
-403.252	525.249	-0.167	-0.393
-402.238	259.780	-0.080	0.138
-401.223	-200.000	0.005	0.279
-400.209	24.616	0.184	-0.152
-399.194	-165.250	-0.165	0.007
-398.179	143.335	-0.156	-0.207
-397.165	-47.289	-0.297	-0.144
-396.150	-68.037	-0.314	0.122
-395.136	-80.184	0.141	0.047
-394.121	92.857	0.210	-0.237
-393.106	-98.862	0.330	-0.084
-392.092	111.571	-0.115	-0.138
-391.077	194.650	0.104	0.157
-390.063	12.613	0.064	0.049
-389.048	-172.061	-0.446	-0.014
-388.033	204.363	0.148	0.229
-387.019	-66.254	0.130	0.052
-386.004	-200.000	-0.041	-0.193
-384.990	188.626	0.098	0.146
-383.975	-200.000	0.027	0.126
-382.960	28.281	-0.360	0.303
-381.946	-39.403	-0.212	0.111
-380.931	-100.137	0.142	0.035
-379.917	-138.640	0.313	-0.034
-378.902	28.251	-0.160	-0.135
-377.888	-83.870	-0.264	-0.084
-376.873	800.000	-0.007	0.024
-375.858	157.858	-0.240	0.332
-374.844	-90.079	-0.125	-0.036
-373.829	251.190	0.093	0.158
-372.815	-174.780	-0.163	-0.005
-371.800	-66.931	0.579	0.228
-370.785	-28.089	-0.405	0.233
-369.771	-200.000	0.003	-0.029
-368.756	-200.000	-0.005	0.036
-367.742	126.728	-0.158	0.199
-366.727	21.531	-0.332	-0.269
-365.712	126.379	-0.063	-0.080
-364.698	273.847	0.032	0.056
-363.683	0.054	0.199	-0.141
-362.669	-149.535	-0.211	0.017
-361.654	160.122	-0.200	0.277
-360.639	-95.657	0.074	0.020
-359.625	354.709	-0.056	0.112
-358.610	-164.538	-0.160	-0.007
-357.596	-144.465	-0.366	0.034
-356.581	-62.849	0.331	-0.137
-355.566	-107.245	0.237	0.052
-354.552	124.792	-0.136	0.170
-353.537	36.540	-0.168	-0.148
-352.523	102.460	0.249	-0.291
-351.508	-200.000	0.023	-0.259
-350.493	-100.209	-0.146	-0.036
-349.479	-136.402	-0.297	0.034
-348.464	72.399	0.250	-0.259
-347.450	-34.957	0.244	-0.133
-346.435	11.821	-0.097	0.074
-345.420	800.000	-0.007	-0.027
-344.406	-200.000	0.001	-0.159
-343.391	207.421	0.021	0.033
-342.377	-20.296	-0.251	0.154
-341.362	329.429	0.045	0.086
-340.348	-67.099	0.197	0.077
-339.333	-172.342	0.191	0.006
-338.318	571.412	-0.137	-0.333
-337.304	-200.000	-0.034	0.328
-336.289	604.683	-0.106	-0.262
-335.275	0.934	0.184	0.131
-334.260	-200.000	0.033	0.313
-333.245	-128.322	0.355	0.050
-332.231	-29.333	-0.097	0.055
-331.216	-68.136	0.216	0.084
-330.202	800.000	-0.053	-0.168
-329.187	-12.192	-0.117	-0.076
-328.172	213.565	-0.034	-0.053
-327.158	517.238	0.019	-0.043
-326.143	481.062	-0.085	0.192
-325.129	-60.489	0.098	0.041
-324.114	137.967	0.103	0.134
-323.099	181.185	0.137	-0.200
-322.085	511.849	-0.055	0.127
-321.070	-69.900	0.284	-0.108
-320.056	800.000	-0.076	-0.319
-319.041	67.476	0.134	-0.136
-318.026	800.000	-0.074	-0.315
-317.012	-67.834	0.148	0.058
-315.997	89.085	-0.200	0.222
-314.983	422.581	-0.074	-0.158
-313.968	91.548	-0.275	-0.307
-312.953	-91.073	-0.186	0.053
-311.939	31.476	-0.034	0.029
-310.924	-200.000	0.007	0.131
-309.910	-200.000	-0.108	0.491
-308.895	-68.165	-0.183	0.071
-307.880	384.551	-0.059	0.120
-306.866	-34.408	0.018	-0.010
-305.851	61.159	0.402	-0.397
-304.837	-69.793	0.171	-0.065
-303.822	-94.407	-0.104	-0.028
-302.807	-197.401	0.309	-0.002
-301.793	536.819	-0.142	0.335
-300.778	74.838	0.280	0.293
-299.764	-56.143	0.403	0.178
-298.749	415.069	0.088	0.187
-297.735	-200.000	-0.005	0.031
-296.720	521.476	0.012	-0.027
-295.705	400.947	-0.089	0.185
-294.691	754.072	-0.084	-0.225
-293.676	-15.733	-0.111	-0.071
-292.662	-6.334	0.200	0.136
-291.647	88.279	0.264	-0.292
-290.632	-76.540	0.202	0.071
-289.618	312.044	0.124	-0.232
-288.603	-115.843	-0.160	0.030
-287.589	800.000	-0.118	0.357
-286.574	-13.714	-0.238	0.153
-285.559	-119.189	0.279	0.048
-284.545	-4.165	-0.209	0.144
-283.530	137.736	-0.183	-0.238
-282.516	99.177	0.024	0.028
-281.501	-142.486	-0.120	0.012
-280.486	260.271	0.129	-0.222
-279.472	-81.547	0.306	0.100
-278.457	-120.732	0.327	0.055
-277.443	-200.000	-0.031	0.199
-276.428	-30.050	0.260	0.147
-275.413	-200.000	0.009	0.368
-274.399	31.603	0.163	-0.140
-273.384	-145.605	0.147	-0.013
-272.370	36.578	0.130	-0.114
-271.355	-200.000	-0.009	0.139
-270.340	-90.614	-0.325	-0.093
-269.326	-159.502	0.150	-0.008
-268.311	-200.000	-0.009	-0.223
-267.297	-44.468	-0.099	0.049
-266.282	-200.000	0.008	0.225
-265.267	27.637	0.088	0.074
-264.253	55.164	0.110	-0.105
-263.238	-105.783	0.209	0.047
-262.224	-29.674	-0.319	0.181
-261.209	0.918	0.159	-0.113
-260.195	243.188	0.249	-0.415
-259.180	-75.311	-0.095	-0.034
-258.165	-200.000	-0.014	-0.122
-257.151	-113.121	0.194	0.038
-256.136	-200.000	-0.051	0.299
-255.122	236.442	-0.029	0.048
-254.107	800.000	-0.113	0.384
-253.092	327.913	0.072	-0.137
-252.078	-200.000	-0.003	0.197
-251.063	-200.000	-0.021	0.113
-250.049	172.858	0.090	0.128
-249.034	-151.907	-0.237	0.017
-248.019	-200.000	-0.009	0.106
-247.005	-200.000	-0.037	-0.171
-245.990	-133.189	-0.209	0.026
-244.976	12.141	0.093	0.071
-243.961	215.187	0.068	0.107
-242.946	332.002	-0.029	-0.055
-241.932	-200.000	0.072	0.314
-240.917	-171.143	-0.212	0.007
-239.903	-82.335	0.124	-0.040
-238.888	-170.008	0.147	-0.005
-237.873	22.635	0.129	-0.105
-236.859	63.374	0.157	0.156
-235.844	29.456	-0.195	0.164
-234.830	244.242	0.191	0.318
-233.815	209.515	-0.157	0.244
-232.800	800.000	0.089	-0.258
-231.786	194.137	0.076	-0.114
-230.771	800.000	-0.016	-0.062
-229.757	-31.762	-0.143	0.079
-228.742	45.889	0.185	-0.170
-227.727	-42.381	-0.164	0.083
-226.713	-200.000	0.002	0.024
-225.698	28.127	-0.205	-0.172
-224.684	-87.789	-0.077	0.023
-223.669	50.603	0.207	0.194
-222.655	50.719	0.170	0.160
-221.640	52.364	0.133	0.126
-220.625	172.447	-0.172	0.245
-219.611	-8.985	-0.314	0.209
-218.596	800.000	-0.108	-0.346
-217.582	34.911	0.129	0.112
-216.567	288.267	-0.102	0.183
-215.552	-40.952	0.151	0.077
-214.538	447.683	-0.175	0.381
-213.523	19.284	-0.279	0.222
-212.509	-135.409	-0.112	-0.013
-211.494	-92.107	0.070	-0.020
-210.479	-161.097	-0.255	-0.013
-209.465	371.303	0.154	-0.310
-208.450	147.309	-0.229	0.306
-207.436	-1.710	-0.158	0.110
-206.421	-63.573	0.234	0.095
-205.406	-200.000	-0.024	0.145
-204.392	99.034	-0.332	-0.380
-203.377	800.000	-0.021	-0.086
-202.363	-65.762	0.046	-0.018
-201.348	-155.748	-0.105	-0.007
-200.333	-128.850	0.278	-0.039
-199.319	-78.710	0.115	-0.039
-198.304	-190.905	0.256	0.003
-197.290	-80.039	0.256	-0.085
-196.275	-108.472	0.208	0.044
-195.260	702.385	0.043	0.113
-194.246	-131.295	-0.097	-0.013
-193.231	-200.000	0.037	0.160
-192.217	740.293	-0.049	-0.131
-191.202	3.689	0.129	-0.093
-190.187	547.112	0.078	0.185
-189.173	-127.763	0.170	-0.024
-188.158	-113.351	-0.080	-0.016
-187.144	800.000	0.079	-0.303
-186.129	-86.070	0.105	-0.032
-185.114	-200.000	0.016	-0.161
-184.100	159.391	-0.117	-0.161
-183.085	-122.360	0.112	0.018
-182.071	283.509	-0.173	0.307
-181.056	173.811	-0.254	0.363
-180.042	-141.071	0.228	-0.023
-179.027	-56.284	0.301	-0.132
-178.012	-22.963	-0.360	-0.215
-176.998	-176.582	0.426	0.011
-175.983	185.858	-0.158	-0.233
-174.969	-1.220	-0.114	0.080
-173.954	135.218	-0.039	-0.050
-172.939	107.798	0.228	-0.269
-171.925	-200.000	0.013	-0.161
-170.910	-111.425	0.328	-0.066
-169.896	-146.010	-0.041	0.004
-168.881	800.000	-0.110	0.333
-167.866	668.849	-0.091	0.233
-166.852	59.539	0.137	-0.133
-165.837	-200.000	-0.009	-0.154
-164.823	-98.511	0.186	0.047
-163.808	-95.284	-0.141	-0.038
-162.793	25.918	0.090	0.074
-161.779	-60.885	0.025	0.011
-160.764	-59.022	0.107	0.046
-159.750	-75.160	0.070	0.025
-158.735	-139.358	0.359	-0.038
-157.720	-83.828	0.237	0.075
-156.706	-38.481	0.212	0.111
-155.691	25.946	0.073	-0.060
-154.677	455.354	0.079	-0.173
-153.662	-170.007	0.433	-0.015
-152.647	322.878	-0.129	-0.243
-151.633	-102.897	0.210	-0.049
-150.618	-200.000	-0.012	-0.056
-149.604	216.859	0.066	0.103
-148.589	404.495	0.062	-0.129
-147.574	-200.000	-0.010	-0.048
-146.560	571.263	-0.078	-0.187
-145.545	13.847	-0.172	-0.132
-144.531	7.637	-0.338	-0.250
-143.516	-200.000	-0.021	0.117
-142.502	105.336	0.186	-0.217
-141.487	17.808	-0.313	-0.247
-140.472	-170.709	0.457	0.016
-139.458	-104.328	-0.361	-0.083
-138.443	-105.211	0.340	0.077
-137.429	68.936	-0.198	-0.201
-136.414	-34.522	0.186	0.101
-135.399	-115.139	0.125	0.023
-134.385	-37.158	0.236	-0.125
-133.370	800.000	-0.065	-0.248
-132.356	800.000	-0.010	0.035
-131.341	196.178	0.130	0.195
-130.326	-200.000	-0.039	0.297
-129.312	-3.818	-0.283	-0.194
-128.297	180.586	-0.099	0.143
-127.283	-200.000	-0.039	0.335
-126.268	6.139	-0.056	-0.041
-125.253	85.210	-0.257	0.279
-124.239	800.000	0.070	-0.274
-123.224	556.137	-0.052	-0.123
-122.210	46.521	0.141	-0.129
