DTS Sentinel unit serial number:	SN413079Multiplexer serial number:	ORYXHardware model number:	OX4-SRSoftware version number:	ORYX F/W v4.00 Oryx Data Collector v3.7.2.0data status	okinstallation	princeton_trtdifferential loss correction	single-endedforward channel	channel 4reverse channel	N/Adate	2019/09/11time	22:51:11forward acquisition time	60.00reverse acquisition time	0.00gamma	496.2192k internal	0.2308k external	0.2308temperature offset calibration	1.0076default loss term (dB/km)	0.3790temperature slope calibration	1.0000multiplexer offset coefficient	1.0000multiplexer slope coefficient	1.0000fibre end	0.00T internal ref (°C)	34.72T ext. ref 1 (°C)	1.82T ext. ref 2 (°C)	29.40length (m)	temperature (°C)	Stokes	anti-Stokes-747.200	-180.408	-0.216	-0.005
-746.185	800.000	0.056	0.176
-745.171	-47.594	0.047	0.023
-744.156	154.117	-0.089	0.124
-743.142	-116.073	0.381	0.072
-742.127	-200.000	0.030	0.181
-741.112	-91.666	-0.154	0.045
-740.098	-52.704	0.245	0.115
-739.083	15.326	-0.265	-0.212
-738.069	-59.729	-0.336	0.146
-737.054	59.868	0.096	-0.096
-736.039	165.289	-0.133	-0.190
-735.025	255.737	0.080	-0.140
-734.010	422.998	0.140	-0.306
-732.996	50.680	0.181	-0.175
-731.981	-55.093	0.227	0.104
-730.966	-169.927	-0.089	-0.003
-729.952	520.963	0.124	-0.296
-728.937	20.215	0.263	-0.216
-727.923	128.755	0.233	0.302
-726.908	-95.568	-0.290	-0.079
-725.894	-110.793	-0.118	-0.025
-724.879	-166.438	-0.315	0.013
-723.864	800.000	-0.059	-0.182
-722.850	-32.574	-0.307	-0.174
-721.835	-116.123	-0.614	0.116
-720.821	800.000	0.034	0.149
-719.806	-200.000	0.000	0.048
-718.791	-176.303	-0.038	-0.001
-717.777	-175.800	0.033	0.001
-716.762	-137.339	0.380	-0.044
-715.748	-200.000	0.025	0.152
-714.733	-73.699	0.192	0.071
-713.718	176.478	-0.048	-0.071
-712.704	-200.000	-0.028	0.257
-711.689	618.214	-0.148	-0.378
-710.675	-64.818	0.130	-0.053
-709.660	-156.527	0.294	-0.019
-708.645	-117.705	-0.202	-0.037
-707.631	43.935	-0.128	0.119
-706.616	-7.213	0.056	-0.038
-705.602	-200.000	0.020	0.191
-704.587	376.551	-0.051	-0.106
-703.572	178.743	0.221	-0.327
-702.558	-91.452	-0.229	-0.066
-701.543	-200.000	0.030	0.202
-700.529	-21.550	-0.145	-0.090
-699.514	-24.635	0.334	-0.202
-698.499	768.845	0.052	0.143
-697.485	445.436	-0.170	0.379
-696.470	-55.443	0.106	0.048
-695.456	-88.591	-0.329	-0.099
-694.441	800.000	0.080	0.253
-693.426	147.986	-0.064	-0.087
-692.412	-14.164	-0.190	-0.125
-691.397	530.930	-0.137	0.328
-690.383	-7.453	0.303	0.208
-689.368	-144.940	0.125	0.012
-688.354	156.308	-0.017	0.024
-687.339	-98.498	0.505	0.131
-686.324	800.000	-0.051	-0.153
-685.310	-15.545	-0.240	-0.156
-684.295	15.547	0.126	-0.100
-683.281	-65.947	-0.226	-0.091
-682.266	-85.586	0.175	0.055
-681.251	800.000	0.121	0.400
-680.237	800.000	-0.059	-0.249
-679.222	-70.072	0.165	0.064
-678.208	34.137	0.083	0.074
-677.193	-7.037	0.191	0.131
-676.178	167.577	-0.056	0.081
-675.164	-30.442	0.232	-0.133
-674.149	200.157	-0.115	-0.179
-673.135	321.559	0.204	0.393
-672.120	210.351	-0.021	-0.034
-671.105	338.586	-0.070	-0.139
-670.091	-69.748	-0.072	0.028
-669.076	213.161	-0.321	-0.514
-668.062	249.086	-0.145	-0.249
-667.047	2.412	-0.060	-0.044
-666.032	215.662	0.118	-0.189
-665.018	389.487	0.136	0.286
-664.003	13.542	0.088	0.069
-662.989	-200.000	-0.023	-0.258
-661.974	26.051	0.291	0.246
-660.959	-200.000	-0.017	0.088
-659.945	667.416	-0.117	0.308
-658.930	660.057	0.019	-0.051
-657.916	7.403	0.071	-0.054
-656.901	-89.681	-0.324	-0.096
-655.886	1.642	0.008	-0.006
-654.872	105.256	-0.377	-0.450
-653.857	-129.614	-0.180	-0.025
-652.843	-174.888	0.167	-0.005
-651.828	439.504	0.072	-0.159
-650.814	260.074	0.036	0.063
-649.799	-129.242	-0.063	-0.009
-648.784	-76.268	-0.100	0.036
-647.770	-125.713	0.373	0.057
-646.755	-16.609	-0.262	-0.168
-645.741	-200.000	-0.024	-0.135
-644.726	29.786	-0.132	-0.114
-643.711	185.307	-0.098	-0.147
-642.697	-114.144	0.152	0.030
-641.682	-19.506	-0.349	-0.219
-640.668	-53.414	0.155	-0.072
-639.653	800.000	0.052	-0.153
-638.638	-200.000	-0.026	-0.215
-637.624	-13.419	-0.225	0.147
-636.609	341.911	0.133	-0.264
-635.595	-45.066	0.063	-0.032
-634.580	-60.827	-0.335	0.144
-633.565	-147.254	-0.059	0.005
-632.551	195.362	0.137	-0.211
-631.536	39.786	-0.223	-0.202
-630.522	239.557	-0.159	-0.267
-629.507	-53.532	-0.194	-0.090
-628.492	183.289	-0.116	0.174
-627.478	-49.411	-0.255	-0.123
-626.463	54.789	-0.228	-0.222
-625.449	-47.010	0.112	-0.055
-624.434	-159.400	0.045	-0.003
-623.419	-63.992	-0.197	-0.081
-622.405	-93.703	0.216	0.060
-621.390	632.709	-0.056	0.145
-620.376	-163.899	-0.302	0.014
-619.361	-190.933	0.171	0.002
-618.346	7.523	-0.332	-0.251
-617.332	2.211	0.125	-0.091
-616.317	137.841	0.101	-0.134
-615.303	81.572	0.272	-0.297
-614.288	800.000	-0.033	0.147
-613.273	542.225	-0.058	-0.141
-612.259	-46.309	-0.085	0.042
-611.244	28.996	-0.404	-0.346
-610.230	180.523	-0.013	0.019
-609.215	-200.000	0.060	0.547
-608.201	12.123	0.230	0.179
-607.186	-200.000	-0.061	-0.442
-606.171	318.717	-0.200	-0.382
-605.157	-17.032	0.246	-0.157
-604.142	280.338	0.124	-0.225
-603.128	-200.000	0.026	-0.304
-602.113	224.856	-0.157	0.256
-601.098	-56.533	0.140	-0.063
-600.084	201.576	-0.188	-0.293
-599.069	800.000	0.083	-0.365
-598.055	-77.428	-0.196	0.069
-597.040	-92.355	-0.147	-0.042
-596.025	-200.000	-0.026	0.136
-595.011	175.614	0.142	-0.208
-593.996	-88.681	-0.080	-0.024
-592.982	-200.000	0.033	-0.160
-591.967	-162.790	-0.084	0.004
-590.952	800.000	-0.149	0.477
-589.938	-200.000	0.011	-0.159
-588.923	800.000	0.040	0.133
-587.909	800.000	0.080	-0.266
-586.894	-200.000	-0.036	-0.194
-585.879	387.368	-0.060	-0.124
-584.865	163.579	0.075	-0.107
-583.850	-200.000	0.021	0.186
-582.836	269.801	-0.087	0.154
-581.821	-84.608	-0.203	-0.065
-580.806	-61.548	0.154	0.065
-579.792	-33.632	0.287	-0.160
-578.777	-53.024	-0.232	0.108
-577.763	-200.000	-0.014	0.156
-576.748	800.000	-0.076	-0.305
-575.733	14.277	-0.280	0.220
-574.719	234.201	0.209	0.347
-573.704	-200.000	0.001	-0.181
-572.690	477.671	0.157	-0.358
-571.675	800.000	0.130	0.370
-570.661	-67.320	-0.130	-0.052
-569.646	151.878	-0.026	0.036
-568.631	70.095	0.135	-0.140
-567.617	-44.336	0.197	-0.100
-566.602	286.855	0.068	-0.125
-565.588	79.848	0.037	-0.040
-564.573	-26.742	-0.042	-0.025
-563.558	-96.889	-0.381	0.101
-562.544	595.038	0.159	-0.396
-561.529	800.000	-0.093	-0.258
-560.515	-8.607	0.082	-0.056
-559.500	-143.879	0.165	0.016
-558.485	-127.865	0.337	-0.049
-557.471	493.001	-0.063	0.145
-556.456	-200.000	0.006	0.216
-555.442	-200.000	0.012	0.207
-554.427	-133.906	0.160	0.020
-553.412	-108.501	-0.159	-0.035
-552.398	208.740	0.110	-0.174
-551.383	-200.000	0.025	-0.262
-550.369	-57.200	0.447	-0.199
-549.354	-137.447	0.214	-0.024
-548.339	-40.309	-0.138	-0.073
-547.325	534.826	0.059	-0.142
-546.310	-97.103	-0.039	-0.010
-545.296	-134.404	-0.180	0.022
-544.281	195.588	-0.056	-0.086
-543.266	353.667	-0.093	0.186
-542.252	76.653	0.287	0.307
-541.237	-200.000	0.019	0.240
-540.223	-200.000	-0.024	-0.234
-539.208	-157.572	0.076	0.005
-538.193	102.845	-0.151	0.178
-537.179	-14.674	0.130	0.084
-536.164	-22.706	-0.381	0.232
-535.150	800.000	0.060	0.217
-534.135	-200.000	0.063	0.404
-533.121	-38.258	-0.134	-0.071
-532.106	-90.367	-0.171	0.050
-531.091	-200.000	-0.004	0.145
-530.077	-200.000	0.000	0.429
-529.062	626.199	0.180	0.458
-528.048	-98.633	0.225	0.058
-527.033	356.930	-0.215	0.432
-526.018	-18.158	-0.396	0.250
-525.004	280.383	0.007	-0.013
-523.989	788.590	-0.025	0.069
-522.975	-14.102	-0.128	0.083
-521.960	704.560	-0.032	-0.085
-520.945	327.999	-0.093	0.181
-519.931	297.931	-0.086	-0.160
-518.916	46.099	0.103	-0.097
-517.902	-8.881	-0.048	-0.033
-516.887	46.681	0.078	-0.073
-515.872	-150.423	0.282	0.022
-514.858	-109.557	0.114	-0.024
-513.843	-200.000	-0.001	-0.105
-512.829	358.841	0.063	-0.128
-511.814	-124.978	-0.166	0.026
-510.799	-200.000	0.108	0.559
-509.785	-200.000	-0.021	0.413
-508.770	-200.000	-0.046	0.274
-507.756	18.039	-0.084	0.068
-506.741	393.458	0.036	0.076
-505.726	-126.588	0.159	-0.024
-504.712	-40.132	0.287	-0.151
-503.697	613.722	0.030	0.077
-502.683	244.422	-0.101	0.170
-501.668	-39.122	-0.404	0.214
-500.653	-200.000	-0.004	-0.017
-499.639	278.230	0.220	0.394
-498.624	-200.000	0.033	-0.177
-497.610	-52.593	0.272	0.126
-496.595	-200.000	-0.013	0.059
-495.581	7.871	0.168	-0.127
-494.566	-167.422	0.250	-0.010
-493.551	-169.206	-0.168	0.006
-492.537	200.207	0.135	-0.209
-491.522	-135.907	0.360	0.043
-490.508	-75.673	0.266	0.095
-489.493	-200.000	0.027	-0.238
-488.478	-2.907	0.197	0.138
-487.464	-161.918	-0.289	0.015
-486.449	455.852	-0.022	-0.049
-485.435	7.578	0.138	-0.104
-484.420	-200.000	-0.032	0.474
-483.405	344.637	0.116	0.229
-482.391	-28.760	-0.081	0.047
-481.376	800.000	0.095	0.271
-480.362	112.518	-0.237	-0.289
-479.347	2.075	-0.236	0.172
-478.332	-29.456	-0.086	-0.050
-477.318	62.234	-0.184	0.184
-476.303	16.182	0.239	0.189
-475.289	-43.433	-0.297	0.151
-474.274	800.000	-0.154	0.506
-473.259	-14.609	-0.446	0.288
-472.245	-175.457	0.151	-0.004
-471.230	172.953	0.071	-0.103
-470.216	118.401	0.286	-0.355
-469.201	-200.000	-0.037	-0.243
-468.186	-200.000	-0.001	-0.309
-467.172	-168.630	0.125	0.005
-466.157	800.000	0.079	-0.244
-465.143	387.895	0.118	0.244
-464.128	-200.000	0.039	0.260
-463.113	-200.000	-0.012	0.310
-462.099	354.247	0.142	0.284
-461.084	117.068	-0.346	0.427
-460.070	751.046	-0.029	-0.080
-459.055	147.384	0.048	0.065
-458.040	-108.055	-0.133	-0.029
-457.026	-72.682	-0.095	0.035
-456.011	-24.963	0.109	0.065
-454.997	-200.000	-0.017	0.105
-453.982	-14.885	-0.053	-0.034
-452.968	61.778	0.124	0.124
-451.953	-33.650	0.097	0.054
-450.938	-109.994	0.194	0.041
-449.924	1.498	0.111	0.080
-448.909	-133.600	0.092	-0.012
-447.895	248.134	-0.046	-0.078
-446.880	-67.781	-0.110	-0.043
-445.865	-112.174	0.332	0.067
-444.851	-13.581	0.083	-0.054
-443.836	53.290	-0.140	0.135
-442.822	-40.994	-0.258	0.134
-441.807	-107.718	-0.141	0.031
-440.792	-200.000	-0.013	0.101
-439.778	192.946	0.062	0.094
-438.763	-176.706	-0.270	-0.007
-437.749	-161.590	-0.320	-0.016
-436.734	-200.000	-0.009	-0.454
-435.719	20.611	0.209	0.170
-434.705	-200.000	-0.024	0.279
-433.690	541.252	-0.021	0.050
-432.676	-21.168	0.281	-0.172
-431.661	-200.000	0.014	-0.099
-430.646	30.091	0.126	0.108
-429.632	-14.135	-0.077	-0.050
-428.617	56.817	0.226	-0.221
-427.603	-200.000	-0.014	0.247
-426.588	29.138	0.114	0.097
-425.573	800.000	-0.070	0.236
-424.559	147.283	-0.038	0.051
-423.544	-200.000	0.010	-0.410
-422.530	65.739	0.335	0.341
-421.515	202.862	-0.092	-0.143
-420.500	-107.709	0.170	-0.037
-419.486	285.595	0.158	-0.287
-418.471	39.671	0.303	-0.272
-417.457	-65.099	0.118	-0.048
-416.442	-152.460	-0.048	0.003
-415.428	-200.000	-0.013	-0.303
-414.413	373.581	0.144	0.294
-413.398	153.891	-0.189	0.261
-412.384	-200.000	-0.007	0.119
-411.369	195.489	0.011	0.017
-410.355	379.546	0.106	-0.218
-409.340	131.352	0.188	-0.242
-408.325	52.467	-0.349	-0.335
-407.311	800.000	-0.124	-0.498
-406.296	-200.000	-0.039	0.238
-405.282	-74.515	0.317	-0.115
-404.267	497.141	0.162	-0.373
-403.252	-53.826	-0.205	-0.094
-402.238	-200.000	-0.040	0.203
-401.223	207.137	-0.102	0.160
-400.209	-118.574	0.459	0.081
-399.194	-51.678	-0.145	-0.068
-398.179	-56.575	-0.222	-0.098
-397.165	800.000	-0.011	-0.039
-396.150	-200.000	0.044	-0.261
-395.136	125.232	-0.100	0.126
-394.121	-0.180	0.052	-0.037
-393.106	-89.890	-0.071	0.021
-392.092	-42.471	0.472	-0.241
-391.077	800.000	0.081	-0.284
-390.063	40.370	-0.186	-0.168
-389.048	272.219	0.127	-0.225
-388.033	76.106	0.054	-0.058
-387.019	674.294	-0.047	-0.123
-386.004	194.407	-0.162	0.246
-384.990	5.084	0.200	0.147
-383.975	81.355	-0.180	-0.195
-382.960	613.100	0.020	-0.050
-381.946	-30.140	-0.186	-0.106
-380.931	-42.762	-0.122	0.062
-379.917	170.710	0.184	0.265
-378.902	69.635	0.244	0.252
-377.888	-173.314	-0.598	-0.018
-376.873	210.986	0.124	0.195
-375.858	294.719	-0.090	-0.166
-374.844	666.362	0.118	-0.306
-373.829	-122.108	-0.169	0.028
-372.815	148.320	-0.266	0.360
-371.800	-107.291	-0.361	-0.079
-370.785	-177.541	-0.158	0.004
-369.771	-100.870	-0.217	0.053
-368.756	29.709	-0.161	-0.138
-367.742	-200.000	-0.012	0.067
-366.727	-40.806	0.249	0.129
-365.712	160.077	0.048	0.067
-364.698	131.358	-0.222	0.285
-363.683	-178.886	-0.096	-0.002
-362.669	-90.464	0.237	0.069
-361.654	32.829	-0.067	-0.058
-360.639	-172.219	-0.429	-0.014
-359.625	-150.397	0.283	-0.022
-358.610	-46.961	-0.234	0.115
-357.596	113.514	0.134	0.163
-356.581	-176.478	-0.206	0.005
-355.566	-141.787	0.269	0.027
-354.552	43.101	-0.047	-0.043
-353.537	-10.531	0.212	-0.141
-352.523	-57.234	-0.289	0.127
-351.508	-177.437	-0.234	-0.006
-350.493	363.528	0.120	-0.241
-349.479	232.376	0.035	-0.057
-348.464	-68.313	-0.309	0.120
-347.450	-200.000	0.005	0.056
-346.435	-200.000	-0.002	0.300
-345.420	-200.000	-0.007	-0.212
-344.406	-82.298	0.140	0.046
-343.391	-38.107	-0.311	0.165
-342.377	-61.370	0.407	-0.171
-341.362	-5.603	-0.125	-0.086
-340.348	61.101	-0.165	-0.164
-339.333	158.617	-0.091	0.126
-338.318	68.539	0.081	0.084
-337.304	-200.000	0.022	0.109
-336.289	-200.000	-0.056	0.308
-335.275	800.000	-0.055	-0.166
-334.260	-158.768	-0.244	0.014
-333.245	335.902	0.046	-0.089
-332.231	-200.000	-0.000	-0.342
-331.216	105.651	0.051	0.060
-330.202	182.412	-0.186	0.275
-329.187	-115.838	-0.260	0.049
-328.172	800.000	-0.032	-0.129
-327.158	9.446	-0.035	-0.027
-326.143	-200.000	-0.026	-0.348
-325.129	2.043	-0.052	-0.038
-324.114	48.888	-0.206	-0.193
-323.099	-84.078	0.363	0.115
-322.085	-45.671	-0.113	0.056
-321.070	800.000	-0.095	0.297
-320.056	800.000	0.079	0.341
-319.041	86.392	0.257	-0.283
-318.026	155.724	0.276	0.380
-317.012	263.971	-0.202	0.351
-315.997	-76.884	-0.253	0.088
-314.983	-26.713	0.053	0.031
-313.968	-200.000	0.012	-0.266
-312.953	248.426	0.017	-0.029
-311.939	-41.100	0.043	0.022
-310.924	-88.388	0.145	0.043
-309.910	-200.000	-0.046	-0.250
-308.895	33.395	0.098	0.085
-307.880	-200.000	-0.048	-0.425
-306.866	-72.201	-0.238	0.088
-305.851	62.585	0.081	-0.081
-304.837	603.577	-0.126	-0.313
-303.822	-99.402	0.049	0.012
-302.807	-10.433	0.091	0.061
-301.793	383.801	0.192	-0.395
-300.778	214.064	0.069	-0.109
-299.764	800.000	-0.046	0.175
-298.749	-65.184	0.221	-0.089
-297.735	294.565	-0.109	-0.199
-296.720	-200.000	0.005	-0.092
-295.705	256.301	-0.207	-0.355
-294.691	-80.266	0.120	-0.040
-293.676	800.000	-0.016	-0.061
-292.662	-138.513	0.115	0.013
-291.647	-46.433	0.044	-0.022
-290.632	-200.000	-0.033	0.180
-289.618	-200.000	0.026	-0.208
-288.603	135.647	0.123	0.159
-287.589	74.885	0.050	0.052
-286.574	800.000	-0.181	-0.591
-285.559	-6.649	0.245	-0.166
-284.545	-70.417	-0.342	-0.129
-283.530	-126.372	0.147	0.022
-282.516	-200.000	0.045	0.520
-281.501	-159.613	0.255	0.014
-280.486	116.605	-0.208	-0.255
-279.472	800.000	0.043	0.185
-278.457	224.612	-0.066	-0.106
-277.443	-200.000	0.265	-0.001
-276.428	160.351	-0.157	-0.218
-275.413	800.000	0.090	0.272
-274.399	-169.511	0.231	-0.008
-273.384	152.326	-0.087	0.119
-272.370	10.675	-0.005	-0.004
-271.355	-141.416	-0.342	-0.035
-270.340	25.984	0.141	-0.118
-269.326	-128.736	-0.253	-0.036
-268.311	-40.120	0.231	0.120
-267.297	-92.155	-0.325	-0.092
-266.282	-200.000	0.011	0.356
-265.267	-130.961	0.285	-0.038
-264.253	-200.000	0.016	0.237
-263.238	800.000	-0.031	-0.087
-262.224	-135.751	-0.317	0.037
-261.209	-74.540	0.128	-0.046
-260.195	9.207	0.168	-0.127
-259.180	-23.909	0.181	0.108
-258.165	-118.690	0.056	0.010
-257.151	328.861	0.047	0.090
-256.136	-53.099	-0.355	0.163
-255.122	-200.000	-0.011	0.098
-254.107	190.021	-0.068	0.102
-253.092	220.504	-0.036	0.058
-252.078	725.111	0.063	0.169
-251.063	57.798	-0.110	-0.108
-250.049	-159.250	0.113	-0.006
-249.034	-200.000	0.041	-0.202
-248.019	-106.970	-0.119	-0.026
-247.005	195.890	-0.135	-0.205
-245.990	70.407	-0.304	-0.313
-244.976	202.874	0.299	0.461
-243.961	645.820	-0.146	0.371
-242.946	-115.239	-0.180	-0.034
-241.932	24.796	0.173	0.143
-240.917	800.000	0.058	-0.229
-239.903	127.178	0.125	0.158
-238.888	-177.303	0.289	0.007
-237.873	-56.257	-0.381	0.169
-236.859	-200.000	-0.014	0.066
-235.844	-200.000	-0.008	-0.059
-234.830	-44.634	-0.310	0.154
-233.815	124.188	-0.056	0.070
-232.800	50.337	0.086	-0.081
-231.786	-42.646	0.114	0.058
-230.771	-8.608	-0.075	0.050
-229.757	2.548	-0.290	0.209
-228.742	800.000	-0.085	-0.362
-227.727	9.862	-0.078	-0.059
-226.713	-200.000	0.030	-0.228
-225.698	90.648	0.137	-0.153
-224.684	-39.643	-0.079	-0.041
-223.669	86.588	0.133	0.147
-222.655	-200.000	-0.008	-0.292
-221.640	-155.097	0.096	0.006
-220.625	-37.172	0.143	0.076
-219.611	-32.350	-0.134	0.075
-218.596	-89.482	-0.116	0.034
-217.582	46.555	-0.024	0.022
-216.567	434.303	-0.084	0.181
-215.552	-200.000	0.012	-0.121
-214.538	717.401	-0.028	0.075
-213.523	-200.000	0.032	0.375
-212.509	800.000	-0.067	0.257
-211.494	-200.000	-0.011	-0.270
-210.479	354.904	0.047	0.092
-209.465	74.082	0.226	-0.236
-208.450	290.939	-0.026	0.047
-207.436	345.495	-0.089	0.175
-206.421	311.306	-0.086	0.160
-205.406	-98.203	0.211	-0.054
-204.392	25.905	0.116	0.096
-203.377	-200.000	-0.018	0.130
-202.363	-85.902	-0.582	0.179
-201.348	-31.748	0.102	0.057
-200.333	107.061	0.111	0.131
-199.319	800.000	0.068	-0.201
-198.304	113.887	0.045	-0.054
-197.290	86.196	0.140	0.154
-196.275	103.273	0.132	-0.154
-195.260	800.000	0.079	-0.264
-194.246	-102.295	0.148	-0.035
-193.231	86.779	0.169	0.185
-192.217	-92.199	0.227	0.064
-191.202	25.784	-0.092	-0.076
-190.187	-200.000	0.006	0.202
-189.173	95.744	-0.201	0.229
-188.158	-95.759	0.159	-0.042
-187.144	-109.075	0.175	-0.037
-186.129	757.565	0.156	0.420
-185.114	225.335	0.080	0.129
-184.100	-119.798	0.112	-0.019
-183.085	-200.000	0.040	-0.195
-182.071	305.220	-0.094	0.174
-181.056	-200.000	-0.002	-0.233
-180.042	-200.000	-0.008	0.097
-179.027	222.233	0.039	0.063
-178.012	15.888	0.232	-0.181
-176.998	-200.000	-0.057	0.418
-175.983	76.991	-0.092	-0.097
-174.969	-200.000	0.024	-0.435
-173.954	-200.000	-0.019	0.227
-172.939	-101.211	0.157	-0.038
-171.925	800.000	-0.036	0.118
-170.910	252.720	-0.258	-0.438
-169.896	-200.000	0.002	-0.110
-168.881	-200.000	-0.051	-0.376
-167.866	239.837	-0.114	-0.189
-166.852	800.000	-0.060	-0.177
-165.837	-24.237	0.117	-0.070
-164.823	-126.324	-0.082	0.012
-163.808	-200.000	-0.034	-0.200
-162.793	116.893	0.108	0.132
-161.779	-111.259	0.367	-0.075
-160.764	-178.420	0.284	0.007
-159.750	-150.077	0.083	-0.006
-158.735	-99.124	-0.041	-0.010
-157.720	56.585	0.318	-0.307
-156.706	800.000	-0.065	-0.183
-155.691	-92.540	0.309	0.086
-154.677	-200.000	0.013	0.307
-153.662	-200.000	-0.010	0.083
-152.647	77.571	0.241	-0.255
-151.633	134.322	0.114	0.146
-150.618	317.979	0.012	0.023
-149.604	-4.745	0.165	-0.113
-148.589	-200.000	-0.008	-0.259
-147.574	717.511	-0.033	0.088
-146.560	220.543	0.108	-0.172
-145.545	259.121	-0.089	0.152
-144.531	36.973	-0.075	0.066
-143.516	-200.000	0.023	0.124
-142.502	-200.000	-0.021	-0.353
-141.487	-73.797	0.381	-0.138
-140.472	-19.820	-0.065	0.040
-139.458	-154.949	0.095	0.006
-138.443	-43.129	-0.174	-0.088
-137.429	-74.529	-0.185	-0.066
-136.414	246.756	-0.175	0.294
-135.399	-91.000	0.176	-0.050
-134.385	-200.000	-0.056	-0.346
-133.370	80.009	0.109	0.116
-132.356	65.614	-0.138	0.139
-131.341	-200.000	0.010	0.325
-130.326	-79.673	0.032	-0.011
-129.312	72.594	-0.138	-0.143
-128.297	-133.881	0.169	0.021
-127.283	-47.714	0.397	-0.191
-126.268	-200.000	-0.016	-0.275
-125.253	-161.436	0.145	-0.007
-124.239	-33.496	0.329	0.180
-123.224	71.073	-0.114	-0.117
-122.210	130.606	0.087	0.111
