DTS Sentinel unit serial number:	SN413079Multiplexer serial number:	ORYXHardware model number:	OX4-SRSoftware version number:	ORYX F/W v4.00 Oryx Data Collector v3.7.2.0data status	okinstallation	princeton_trtdifferential loss correction	single-endedforward channel	channel 4reverse channel	N/Adate	2019/09/13time	07:01:35forward acquisition time	60.00reverse acquisition time	0.00gamma	496.2192k internal	0.2324k external	0.2324temperature offset calibration	1.0199default loss term (dB/km)	0.3790temperature slope calibration	1.0000multiplexer offset coefficient	1.0000multiplexer slope coefficient	1.0000fibre end	0.00T internal ref (°C)	26.00T ext. ref 1 (°C)	4.14T ext. ref 2 (°C)	21.10length (m)	temperature (°C)	Stokes	anti-Stokes-747.200	-200.000	-0.032	-0.151
-746.185	181.084	-0.325	0.482
-745.171	-43.065	0.135	0.069
-744.156	201.666	-0.189	0.294
-743.142	-200.000	0.011	-0.094
-742.127	140.453	0.200	0.266
-741.112	619.772	-0.066	-0.167
-740.098	459.699	-0.033	0.075
-739.083	473.736	0.080	0.183
-738.069	457.920	-0.141	-0.316
-737.054	119.343	-0.255	-0.318
-736.039	-200.000	-0.031	-0.381
-735.025	-78.436	-0.045	-0.016
-734.010	800.000	-0.107	0.429
-732.996	633.411	0.057	-0.146
-731.981	-149.819	-0.455	-0.036
-730.966	66.873	-0.208	-0.214
-729.952	93.754	-0.301	0.344
-728.937	-113.549	-0.250	-0.049
-727.923	-72.040	-0.124	-0.046
-726.908	72.096	-0.116	0.122
-725.894	454.126	0.035	0.078
-724.879	23.500	-0.051	0.042
-723.864	800.000	-0.108	0.468
-722.850	116.314	-0.182	0.225
-721.835	-93.981	-0.177	-0.049
-720.821	149.741	0.045	-0.062
-719.806	303.571	0.211	-0.394
-718.791	67.420	0.074	-0.077
-717.777	800.000	-0.082	-0.289
-716.762	-136.030	0.272	0.032
-715.748	26.014	-0.155	0.131
-714.733	107.517	-0.161	0.193
-713.718	316.804	0.286	-0.544
-712.704	-119.634	-0.010	0.002
-711.689	29.826	-0.142	-0.122
-710.675	160.514	0.084	0.119
-709.660	-34.068	0.251	-0.139
-708.645	-149.508	-0.279	0.022
-707.631	-174.915	0.259	0.007
-706.616	-27.409	-0.169	-0.099
-705.602	147.407	0.190	-0.258
-704.587	-16.836	-0.014	-0.009
-703.572	169.573	0.084	-0.121
-702.558	-129.205	-0.332	0.047
-701.543	110.487	0.083	-0.101
-700.529	-156.650	-0.195	0.012
-699.514	440.150	-0.052	-0.115
-698.499	159.440	-0.190	-0.266
-697.485	3.112	-0.414	-0.303
-696.470	-141.536	0.229	-0.023
-695.456	-176.309	-0.268	0.007
-694.441	-145.168	-0.212	0.019
-693.426	72.029	0.197	-0.207
-692.412	800.000	0.057	0.199
-691.397	317.430	-0.116	0.221
-690.383	-156.510	-0.184	0.012
-689.368	96.137	-0.065	0.075
-688.354	-96.356	0.109	-0.029
-687.339	216.784	-0.046	0.074
-686.324	-125.280	-0.392	0.060
-685.310	32.992	0.159	0.139
-684.295	-6.003	-0.111	0.077
-683.281	140.815	0.107	0.142
-682.266	-58.293	-0.067	-0.029
-681.251	-200.000	0.015	0.199
-680.237	-16.838	-0.068	0.043
-679.222	-41.285	-0.087	-0.045
-678.208	-200.000	-0.034	-0.304
-677.193	-24.186	-0.093	0.056
-676.178	-63.551	-0.052	0.021
-675.164	-128.198	-0.134	0.019
-674.149	41.756	0.156	-0.143
-673.135	-98.803	0.263	0.067
-672.120	-87.005	-0.158	0.048
-671.105	-11.667	0.191	0.126
-670.091	800.000	0.089	-0.290
-669.076	219.571	0.320	-0.516
-668.062	-188.794	-0.301	0.004
-667.047	-141.095	0.254	0.026
-666.032	-184.056	-0.212	-0.004
-665.018	-200.000	0.013	0.142
-664.003	-200.000	0.082	0.399
-662.989	800.000	0.074	0.286
-661.974	98.014	0.028	0.032
-660.959	-8.102	0.041	-0.028
-659.945	-200.000	-0.010	0.190
-658.930	-21.581	-0.151	-0.092
-657.916	-48.044	-0.264	0.128
-656.901	-12.969	0.246	0.161
-655.886	-19.507	0.202	0.126
-654.872	235.901	-0.124	-0.206
-653.857	-124.378	-0.232	-0.036
-652.843	-200.000	-0.039	-0.273
-651.828	-193.938	0.248	-0.002
-650.814	261.779	0.129	0.225
-649.799	-129.150	-0.376	-0.053
-648.784	-92.008	0.262	-0.075
-647.770	-131.175	-0.185	0.025
-646.755	743.465	-0.060	-0.163
-645.741	-200.000	0.011	0.145
-644.726	290.530	0.126	0.230
-643.711	800.000	-0.024	0.091
-642.697	-152.286	0.393	0.029
-641.682	9.147	-0.189	0.143
-640.668	-44.923	-0.114	-0.057
-639.653	-85.208	0.019	0.006
-638.638	-98.785	-0.130	-0.033
-637.624	-200.000	-0.031	0.549
-636.609	-98.241	0.167	0.043
-635.595	-98.945	-0.262	-0.067
-634.580	-21.490	-0.146	0.090
-633.565	591.457	0.158	-0.392
-632.551	-47.847	0.075	0.036
-631.536	380.189	0.187	0.385
-630.522	53.213	-0.152	-0.146
-629.507	727.860	-0.057	-0.153
-628.492	36.426	-0.177	-0.157
-627.478	258.559	-0.070	0.121
-626.463	262.851	0.160	0.278
-625.449	-92.028	-0.238	-0.068
-624.434	-180.052	0.261	-0.006
-623.419	-200.000	0.021	0.224
-622.405	216.470	0.182	-0.291
-621.390	242.145	-0.071	-0.120
-620.376	-136.616	-0.094	0.011
-619.361	-200.000	0.008	-0.119
-618.346	-70.340	-0.095	-0.036
-617.332	800.000	0.035	-0.107
-616.317	785.148	-0.075	0.206
-615.303	-31.547	0.550	-0.310
-614.288	-200.000	-0.019	-0.090
-613.273	54.602	-0.110	-0.107
-612.259	-200.000	-0.034	-0.447
-611.244	168.965	0.162	-0.232
-610.230	171.215	0.127	-0.184
-609.215	-30.682	0.232	-0.132
-608.201	-57.439	-0.254	-0.112
-607.186	210.002	-0.066	-0.104
-606.171	-28.265	0.121	-0.070
-605.157	42.471	0.149	-0.136
-604.142	131.059	0.171	-0.221
-603.128	-42.186	0.105	-0.054
-602.113	-103.899	0.143	-0.033
-601.098	-24.015	-0.139	0.083
-600.084	447.676	-0.040	-0.087
-599.069	-200.000	0.017	0.076
-598.055	234.096	0.076	-0.125
-597.040	199.238	0.159	0.244
-596.025	323.067	0.083	-0.159
-595.011	237.354	0.011	-0.019
-593.996	-54.298	-0.174	-0.079
-592.982	142.782	0.226	0.301
-591.967	-200.000	0.037	-0.336
-590.952	-132.198	-0.194	0.025
-589.938	-200.000	-0.020	-0.174
-588.923	-61.119	-0.312	-0.132
-587.909	47.378	-0.067	-0.062
-586.894	-200.000	0.010	-0.266
-585.879	-71.063	0.252	0.095
-584.865	2.719	-0.244	0.178
-583.850	-148.370	-0.156	0.013
-582.836	532.623	0.044	-0.105
-581.821	-171.962	-0.266	-0.009
-580.806	348.652	-0.197	0.390
-579.792	-90.998	0.235	0.068
-578.777	-127.814	-0.314	-0.045
-577.763	-105.257	0.330	0.076
-576.748	58.707	0.283	-0.279
-575.733	-20.571	-0.062	0.038
-574.719	-200.000	-0.002	0.068
-573.704	-200.000	0.013	-0.077
-572.690	-12.589	-0.117	0.077
-571.675	-150.293	0.202	-0.016
-570.661	49.572	0.271	-0.256
-569.646	26.114	-0.213	0.178
-568.631	-76.421	-0.255	-0.090
-567.617	-27.061	-0.152	-0.089
-566.602	82.403	-0.210	0.228
-565.588	-139.071	-0.312	-0.034
-564.573	-3.674	0.252	-0.175
-563.558	319.354	-0.011	0.021
-562.544	-153.383	-0.204	-0.014
-561.529	-97.705	0.149	0.039
-560.515	20.627	-0.114	-0.093
-559.500	-83.705	-0.365	-0.117
-558.485	723.153	-0.051	-0.136
-557.471	800.000	-0.033	0.118
-556.456	800.000	-0.038	-0.157
-555.442	31.378	-0.361	0.311
-554.427	-193.945	-0.035	0.000
-553.412	800.000	-0.063	0.216
-552.398	-27.595	-0.331	-0.192
-551.383	-136.301	-0.244	-0.029
-550.369	-116.179	-0.309	-0.057
-549.354	800.000	-0.020	-0.084
-548.339	377.441	-0.159	-0.326
-547.325	-47.035	0.252	0.123
-546.310	-65.834	0.057	-0.023
-545.296	-87.608	-0.293	-0.089
-544.281	-200.000	0.034	-0.391
-543.266	800.000	0.104	-0.299
-542.252	261.847	-0.028	0.048
-541.237	109.816	-0.111	-0.134
-540.223	-86.144	-0.356	0.110
-539.208	-61.245	0.264	0.112
-538.193	-200.000	0.009	-0.156
-537.179	-200.000	0.040	-0.400
-536.164	-24.362	0.218	-0.130
-535.150	744.459	0.085	-0.230
-534.135	-200.000	0.071	-0.576
-533.121	800.000	0.096	0.324
-532.106	134.590	0.158	0.205
-531.091	326.225	0.110	-0.211
-530.077	-200.000	0.035	-0.166
-529.062	-105.782	0.376	0.085
-528.048	702.500	0.117	0.308
-527.033	61.072	0.155	-0.154
-526.018	800.000	-0.049	-0.137
-525.004	-34.242	0.081	-0.044
-523.989	-116.221	0.185	-0.034
-522.975	11.039	0.200	0.153
-521.960	-85.177	-0.147	-0.046
-520.945	-58.813	-0.051	-0.022
-519.931	202.974	0.101	0.156
-518.916	-200.000	0.007	0.150
-517.902	-200.000	-0.017	-0.087
-516.887	236.425	0.135	-0.224
-515.872	-36.656	0.033	0.017
-514.858	-157.012	0.290	-0.018
-513.843	73.865	0.174	0.183
-512.829	800.000	0.054	0.151
-511.814	800.000	-0.062	-0.259
-510.799	50.731	-0.130	0.123
-509.785	-137.232	-0.229	-0.026
-508.770	-123.533	-0.233	-0.037
-507.756	345.386	0.138	-0.270
-506.741	800.000	0.124	0.351
-505.726	605.366	-0.068	0.171
-504.712	209.381	0.104	-0.162
-503.697	-20.522	0.268	0.164
-502.683	466.918	-0.021	-0.047
-501.668	244.462	-0.131	-0.220
-500.653	800.000	0.097	-0.275
-499.639	-185.964	-0.060	0.001
-498.624	25.441	-0.073	-0.061
-497.610	800.000	-0.105	0.354
-496.595	159.675	0.167	0.232
-495.581	-91.821	0.474	-0.135
-494.566	800.000	-0.059	0.182
-493.551	800.000	0.053	0.217
-492.537	-114.222	0.254	-0.049
-491.522	50.095	-0.138	0.130
-490.508	37.168	-0.110	0.097
-489.493	-48.038	0.310	0.150
-488.478	-2.588	-0.281	0.197
-487.464	-200.000	0.018	0.107
-486.449	-54.320	-0.248	-0.112
-485.435	800.000	-0.014	0.060
-484.420	-4.554	-0.195	-0.135
-483.405	-199.908	-0.207	0.001
-482.391	26.964	0.191	-0.160
-481.376	-143.265	0.340	0.033
-480.362	337.368	-0.088	0.170
-479.347	17.504	0.194	0.154
-478.332	800.000	0.068	0.197
-477.318	12.339	0.201	-0.155
-476.303	-200.000	-0.021	0.172
-475.289	14.658	0.083	-0.065
-474.274	-131.409	0.085	0.011
-473.259	364.837	0.143	-0.288
-472.245	-200.000	-0.002	-0.076
-471.230	800.000	0.085	0.353
-470.216	305.896	-0.099	0.184
-469.201	456.815	0.163	-0.360
-468.186	-200.000	-0.049	-0.229
-467.172	45.725	-0.163	0.150
-466.157	800.000	-0.099	-0.325
-465.143	-200.000	0.047	0.341
-464.128	-200.000	0.001	-0.029
-463.113	-35.418	0.264	0.143
-462.099	27.078	-0.107	-0.090
-461.084	-3.760	-0.403	0.279
-460.070	124.034	-0.111	-0.139
-459.055	305.861	-0.086	0.160
-458.040	207.279	-0.025	0.039
-457.026	-200.000	-0.010	0.052
-456.011	-108.618	-0.241	0.052
-454.997	315.424	0.071	-0.134
-453.982	800.000	-0.101	-0.289
-452.968	-91.918	0.209	-0.059
-451.953	800.000	0.058	-0.243
-450.938	-188.890	-0.147	-0.002
-449.924	83.448	-0.215	-0.234
-448.909	43.627	-0.306	-0.279
-447.895	623.830	-0.173	0.435
-446.880	27.980	-0.152	-0.128
-445.865	-131.043	-0.139	0.018
-444.851	-5.099	0.252	-0.173
-443.836	-200.000	-0.011	-0.332
-442.822	-200.000	0.025	-0.256
-441.807	-102.981	-0.166	-0.039
-440.792	-200.000	-0.003	-0.226
-439.778	-94.506	0.185	0.050
-438.763	36.653	0.324	0.286
-437.749	30.735	-0.114	-0.097
-436.734	-106.880	0.270	0.060
-435.719	-2.763	-0.218	0.152
-434.705	103.585	0.351	0.411
-433.690	28.445	-0.170	0.143
-432.676	334.549	0.159	0.307
-431.661	476.013	0.099	0.223
-430.646	-117.262	-0.134	-0.024
-429.632	-59.835	0.153	-0.065
-428.617	259.541	-0.034	0.059
-427.603	800.000	-0.072	0.206
-426.588	-52.279	-0.266	-0.123
-425.573	-49.992	0.054	-0.026
-424.559	162.243	0.113	0.158
-423.544	-132.382	-0.234	-0.030
-422.530	-87.958	0.110	-0.033
-421.515	-67.661	-0.336	-0.131
-420.500	-200.000	-0.084	-0.382
-419.486	88.676	0.107	0.119
-418.471	-133.925	-0.372	-0.046
-417.457	-35.920	0.155	-0.084
-416.442	324.778	0.156	0.297
-415.428	-94.444	0.089	-0.024
-414.413	-66.803	-0.254	0.100
-413.398	-38.950	0.207	-0.108
-412.384	-200.000	0.008	-0.098
-411.369	-142.837	0.282	0.027
-410.355	-64.023	-0.126	0.051
-409.340	-47.773	0.183	0.089
-408.325	-200.000	-0.063	-0.318
-407.311	-200.000	0.012	-0.232
-406.296	-24.145	0.232	-0.138
-405.282	-138.494	-0.289	-0.032
-404.267	-54.826	0.430	-0.194
-403.252	-62.284	0.181	0.075
-402.238	126.544	0.160	0.202
-401.223	-77.793	-0.116	0.040
-400.209	-130.286	0.078	0.011
-399.194	-128.452	0.076	-0.011
-398.179	19.619	-0.253	-0.202
-397.165	-106.790	-0.539	-0.119
-396.150	209.999	-0.166	0.260
-395.136	-200.000	0.053	0.282
-394.121	14.465	-0.100	0.077
-393.106	216.916	0.094	-0.149
-392.092	-58.151	0.250	-0.109
-391.077	103.685	-0.281	0.329
-390.063	102.401	0.127	0.148
-389.048	-14.650	-0.204	-0.130
-388.033	-71.553	0.257	-0.096
-387.019	145.331	0.199	-0.266
-386.004	277.697	-0.113	0.200
-384.990	-0.941	-0.304	0.214
-383.975	3.241	-0.089	-0.065
-382.960	-149.857	0.197	-0.015
-381.946	-173.064	0.179	-0.005
-380.931	553.846	-0.029	0.070
-379.917	-200.000	-0.019	-0.143
-378.902	-121.499	0.108	0.018
-377.888	-127.980	0.253	0.036
-376.873	-12.539	0.187	0.122
-375.858	108.870	-0.226	0.268
-374.844	-22.543	0.211	0.127
-373.829	-23.419	0.353	0.211
-372.815	-66.213	0.146	0.058
-371.800	-38.708	-0.164	0.086
-370.785	-62.180	-0.240	-0.100
-369.771	-200.000	0.062	0.303
-368.756	-172.166	0.257	-0.008
-367.742	150.904	0.055	0.075
-366.727	800.000	0.119	0.374
-365.712	94.725	-0.209	-0.236
-364.698	-11.441	0.347	0.227
-363.683	-94.372	-0.276	0.075
-362.669	-110.854	-0.117	-0.024
-361.654	-32.419	0.265	-0.147
-360.639	49.094	0.276	-0.258
-359.625	-9.792	0.114	-0.076
-358.610	-200.000	-0.053	-0.250
-357.596	800.000	0.070	-0.235
-356.581	-67.746	0.261	-0.101
-355.566	-200.000	-0.000	0.097
-354.552	537.986	0.084	0.198
-353.537	209.964	-0.144	0.225
-352.523	782.453	-0.110	0.299
-351.508	154.289	0.068	-0.093
-350.493	800.000	0.038	0.117
-349.479	-48.291	-0.286	0.137
-348.464	-200.000	0.016	-0.119
-347.450	15.486	-0.422	0.329
-346.435	-33.012	0.233	0.128
-345.420	9.214	0.128	-0.096
-344.406	380.826	0.039	-0.079
-343.391	39.181	-0.143	0.127
-342.377	-31.437	-0.227	-0.127
-341.362	306.185	0.062	-0.116
-340.348	-38.185	0.234	0.123
-339.333	-113.617	0.332	-0.065
-338.318	508.869	0.078	-0.179
-337.304	-25.503	-0.054	-0.032
-336.289	61.468	0.218	-0.216
-335.275	29.924	-0.225	0.191
-334.260	2.279	-0.224	-0.161
-333.245	-200.000	0.023	-0.227
-332.231	-200.000	0.028	0.278
-331.216	-58.666	-0.065	0.028
-330.202	-86.528	0.105	0.032
-329.187	-120.861	-0.206	-0.035
-328.172	800.000	0.076	0.264
-327.158	2.851	-0.207	-0.149
-326.143	-186.386	-0.222	0.003
-325.129	-64.843	0.296	-0.119
-324.114	-102.051	0.184	-0.044
-323.099	-113.405	-0.326	-0.063
-322.085	-35.822	0.169	-0.091
-321.070	800.000	0.066	0.185
-320.056	177.652	-0.109	0.157
-319.041	-73.727	0.155	0.056
-318.026	-125.498	-0.240	0.036
-317.012	272.825	0.110	-0.192
-315.997	529.694	-0.154	0.361
-314.983	729.823	-0.082	0.217
-313.968	-147.966	0.087	-0.007
-312.953	-200.000	-0.039	-0.199
-311.939	-106.281	0.102	0.023
-310.924	800.000	0.037	-0.110
-309.910	800.000	-0.092	-0.341
-308.895	-130.452	-0.305	0.041
-307.880	-126.541	0.366	0.054
-306.866	-200.000	-0.022	-0.101
-305.851	143.439	0.094	-0.124
-304.837	-60.714	-0.106	0.045
-303.822	-200.000	0.040	-0.354
-302.807	-166.773	-0.065	0.003
-301.793	800.000	-0.070	-0.271
-300.778	800.000	-0.068	-0.196
-299.764	53.637	-0.218	-0.207
-298.749	138.798	0.050	0.065
-297.735	-64.299	-0.282	-0.114
-296.720	-200.000	0.275	0.001
-295.705	201.191	-0.186	0.284
-294.691	89.001	-0.113	0.125
-293.676	11.247	-0.145	-0.110
-292.662	199.696	-0.106	0.162
-291.647	-200.000	-0.008	0.158
-290.632	-142.483	0.128	-0.012
-289.618	2.113	-0.125	-0.089
-288.603	-62.394	-0.307	-0.127
-287.589	-65.381	0.202	0.080
-286.574	385.957	0.071	0.145
-285.559	-173.914	0.139	0.004
-284.545	218.289	0.086	0.136
-283.530	-104.625	0.379	0.087
-282.516	302.461	-0.131	0.240
-281.501	-75.670	-0.137	-0.048
-280.486	-50.716	0.283	0.132
-279.472	37.311	-0.080	0.070
-278.457	-89.944	-0.157	0.046
-277.443	188.145	-0.109	0.162
-276.428	-44.500	0.198	-0.098
-275.413	-200.000	-0.002	-0.163
-274.399	-27.666	0.129	0.074
-273.384	158.167	-0.018	0.025
-272.370	-70.312	0.090	-0.034
-271.355	501.225	-0.093	-0.213
-270.340	-200.000	-0.042	-0.221
-269.326	-200.000	-0.035	-0.348
-268.311	800.000	-0.053	0.153
-267.297	800.000	-0.028	-0.082
-266.282	-59.112	-0.105	0.045
-265.267	-81.140	-0.226	0.074
-264.253	519.934	-0.054	-0.125
-263.238	-114.675	0.224	0.042
-262.224	-137.705	0.087	-0.010
-261.209	64.111	-0.195	0.194
-260.195	-135.983	-0.092	0.011
-259.180	7.746	-0.135	0.100
-258.165	-104.567	-0.067	-0.015
-257.151	800.000	-0.048	-0.152
-256.136	-89.689	-0.259	0.075
-255.122	219.464	-0.191	0.303
-254.107	136.303	0.166	-0.214
-253.092	-200.000	0.048	-0.283
-252.078	652.296	-0.112	0.285
-251.063	-20.107	-0.232	-0.142
-250.049	273.663	0.018	0.031
-249.034	-200.000	0.010	-0.068
-248.019	-168.892	0.060	-0.002
-247.005	-28.253	0.105	0.060
-245.990	792.602	-0.066	0.181
-244.976	-158.978	-0.329	-0.018
-243.961	204.186	-0.174	-0.266
-242.946	800.000	0.023	-0.099
-241.932	17.040	0.104	0.082
-240.917	-8.973	0.034	-0.023
-239.903	-76.817	-0.233	-0.081
-238.888	800.000	0.087	0.297
-237.873	44.588	0.227	-0.207
-236.859	800.000	-0.085	0.362
-235.844	50.407	0.120	-0.113
-234.830	800.000	-0.068	0.264
-233.815	-158.281	0.113	0.007
-232.800	-200.000	-0.006	0.378
-231.786	57.901	-0.106	0.103
-230.771	-132.344	0.114	0.015
-229.757	800.000	-0.046	-0.171
-228.742	-200.000	0.030	0.227
-227.727	86.602	0.134	0.146
-226.713	-200.000	0.038	0.178
-225.698	-41.792	0.391	0.198
-224.684	-80.754	-0.475	0.156
-223.669	-200.000	0.050	-0.275
-222.655	-200.000	0.051	-0.391
-221.640	-126.109	-0.215	-0.032
-220.625	800.000	0.033	-0.128
-219.611	446.322	0.187	-0.406
-218.596	-16.129	0.144	0.091
-217.582	-115.448	-0.184	0.034
-216.567	116.373	0.175	0.212
-215.552	135.940	0.232	0.299
-214.538	-200.000	-0.006	-0.184
-213.523	-200.000	0.010	-0.109
-212.509	-134.322	-0.185	0.022
-211.494	401.712	-0.096	0.200
-210.479	-14.574	-0.080	0.051
-209.465	5.515	-0.101	-0.074
-208.450	-143.862	-0.117	-0.011
-207.436	-81.507	-0.270	-0.088
-206.421	194.297	0.153	0.229
-205.406	-49.058	-0.090	0.043
-204.392	-149.347	-0.167	-0.013
-203.377	800.000	0.104	0.308
-202.363	44.641	0.134	-0.122
-201.348	-21.500	-0.160	0.097
-200.333	800.000	-0.103	-0.371
-199.319	-200.000	-0.101	0.460
-198.304	166.231	-0.056	-0.078
-197.290	-200.000	-0.050	-0.270
-196.275	32.963	-0.135	0.116
-195.260	70.897	-0.041	-0.042
-194.246	-200.000	-0.074	0.000
-193.231	-25.611	0.196	0.114
-192.217	-200.000	-0.008	0.035
-191.202	44.779	0.173	0.157
-190.187	-156.003	-0.340	-0.021
-189.173	-133.258	0.294	-0.037
-188.158	55.749	-0.067	-0.064
-187.144	127.619	0.105	-0.132
-186.129	418.171	-0.056	0.118
-185.114	-109.337	0.351	0.073
-184.100	800.000	0.089	0.297
-183.085	662.464	0.037	0.095
-182.071	172.245	-0.207	0.293
-181.056	-152.153	0.221	0.016
-180.042	251.762	0.112	-0.189
-179.027	356.495	-0.096	-0.189
-178.012	-2.451	0.224	0.155
-176.998	800.000	0.098	-0.292
-175.983	71.716	0.206	0.211
-174.969	-125.699	-0.512	-0.077
-173.954	82.194	0.219	0.235
-172.939	-121.633	-0.238	0.039
-171.925	-200.000	0.005	-0.160
-170.910	-76.330	-0.303	-0.105
-169.896	504.815	-0.150	-0.342
-168.881	153.189	-0.163	0.220
-167.866	487.235	-0.089	0.201
-166.852	-163.087	0.156	-0.007
-165.837	-200.000	0.025	-0.176
-164.823	-8.249	0.412	0.274
-163.808	800.000	-0.079	0.245
-162.793	-18.848	0.182	-0.112
-161.779	-102.562	0.229	-0.054
-160.764	-200.000	0.025	-0.154
-159.750	-49.775	0.132	0.062
-158.735	-200.000	-0.024	0.107
-157.720	-91.657	0.495	-0.139
-156.706	157.851	0.067	0.091
-155.691	-136.753	0.151	0.017
-154.677	-200.000	-0.014	0.080
-153.662	-200.000	0.004	0.363
-152.647	-103.543	-0.345	-0.080
-151.633	800.000	0.087	0.312
-150.618	-153.809	0.066	-0.004
-149.604	59.781	0.200	0.195
-148.589	247.744	0.033	0.055
-147.574	-102.621	-0.265	0.062
-146.560	-133.917	0.158	-0.019
-145.545	-169.784	-0.140	-0.005
-144.531	-71.571	0.254	-0.094
-143.516	314.327	0.076	-0.142
-142.502	-200.000	-0.038	0.236
-141.487	-200.000	-0.036	0.185
-140.472	163.568	-0.152	0.211
-139.458	-200.000	-0.026	-0.239
-138.443	-150.585	-0.148	-0.011
-137.429	20.633	0.259	0.207
-136.414	46.942	0.210	0.193
-135.399	800.000	0.077	0.211
-134.385	103.026	0.078	0.090
-133.370	134.522	-0.058	0.074
-132.356	359.540	0.122	0.241
-131.341	336.028	-0.139	-0.265
-130.326	17.807	0.179	-0.141
-129.312	486.985	0.076	-0.171
-128.297	65.738	0.231	-0.231
-127.283	352.323	0.132	-0.257
-126.268	549.546	0.008	-0.019
-125.253	45.461	0.113	0.103
-124.239	-131.062	-0.316	-0.042
-123.224	-38.770	-0.275	0.143
-122.210	268.806	-0.212	-0.367
