DTS Sentinel unit serial number:	SN413079Multiplexer serial number:	ORYXHardware model number:	OX4-SRSoftware version number:	ORYX F/W v4.00 Oryx Data Collector v3.7.2.0data status	okinstallation	princeton_trtdifferential loss correction	single-endedforward channel	channel 4reverse channel	N/Adate	2019/09/15time	16:33:34forward acquisition time	60.00reverse acquisition time	0.00gamma	496.2192k internal	0.2276k external	0.2276temperature offset calibration	0.9938default loss term (dB/km)	0.3790temperature slope calibration	1.0000multiplexer offset coefficient	1.0000multiplexer slope coefficient	1.0000fibre end	0.00T internal ref (°C)	44.00T ext. ref 1 (°C)	5.61T ext. ref 2 (°C)	40.40length (m)	temperature (°C)	Stokes	anti-Stokes-747.200	20.242	0.197	-0.164
-746.185	63.547	-0.072	0.075
-745.171	73.204	-0.075	-0.080
-744.156	624.311	-0.137	0.355
-743.142	-113.752	-0.123	-0.025
-742.127	457.605	-0.112	0.256
-741.112	-200.000	-0.002	0.053
-740.098	559.298	0.104	-0.259
-739.083	-148.345	0.076	-0.006
-738.069	800.000	0.099	0.415
-737.054	-69.556	0.116	-0.046
-736.039	-103.336	-0.261	0.063
-735.025	-144.668	-0.300	-0.028
-734.010	270.700	-0.246	-0.446
-732.996	-93.859	-0.183	0.052
-731.981	18.453	0.187	-0.154
-730.966	800.000	-0.043	0.130
-729.952	89.250	-0.195	0.224
-728.937	169.724	-0.021	0.031
-727.923	800.000	0.106	0.307
-726.908	-66.395	0.199	0.081
-725.894	-142.587	-0.024	-0.002
-724.879	465.752	-0.057	-0.131
-723.864	69.796	0.295	0.314
-722.850	-200.000	-0.001	-0.380
-721.835	-51.813	-0.357	0.171
-720.821	-43.359	0.009	0.005
-719.806	-180.118	-0.396	-0.009
-718.791	212.190	-0.118	0.191
-717.777	-139.286	-0.206	0.023
-716.762	175.298	-0.053	-0.079
-715.748	100.801	0.105	-0.126
-714.733	-155.435	-0.186	0.012
-713.718	-31.049	-0.202	-0.117
-712.704	309.212	-0.076	-0.146
-711.689	-131.158	0.224	-0.031
-710.675	79.497	0.244	-0.269
-709.660	-200.000	-0.022	-0.301
-708.645	498.284	-0.107	-0.254
-707.631	84.437	0.154	0.174
-706.616	-54.712	0.285	0.133
-705.602	-200.000	-0.381	-0.001
-704.587	54.752	0.145	0.144
-703.572	127.166	-0.135	0.176
-702.558	-200.000	-0.020	0.177
-701.543	253.207	0.107	-0.188
-700.529	-15.346	-0.340	-0.224
-699.514	-4.463	0.398	-0.283
-698.499	17.124	-0.023	0.019
-697.485	-200.000	-0.287	-0.000
-696.470	-12.718	0.171	0.115
-695.456	186.092	0.191	0.292
-694.441	-50.474	0.144	-0.070
-693.426	139.249	0.202	-0.274
-692.412	-200.000	-0.006	0.245
-691.397	-54.366	0.330	0.154
-690.383	800.000	0.085	0.263
-689.368	-88.267	0.026	-0.008
-688.354	800.000	-0.072	-0.281
-687.339	-49.251	-0.334	-0.164
-686.324	585.814	-0.119	-0.302
-685.310	199.031	0.088	-0.139
-684.295	-4.987	-0.064	-0.045
-683.281	11.642	-0.138	0.109
-682.266	-105.723	-0.212	-0.049
-681.251	261.285	-0.163	0.290
-680.237	249.675	-0.075	0.132
-679.222	-16.891	-0.416	-0.270
-678.208	201.511	0.065	0.103
-677.193	267.064	-0.043	-0.078
-676.178	-85.396	0.382	0.123
-675.164	321.769	0.094	0.184
-674.149	172.122	0.149	0.220
-673.135	-105.912	-0.260	0.060
-672.120	-200.000	-0.020	-0.172
-671.105	-152.491	-0.374	0.028
-670.091	-200.000	0.011	0.231
-669.076	415.616	0.059	-0.130
-668.062	32.599	0.172	-0.153
-667.047	47.004	-0.133	-0.127
-666.032	-159.473	-0.205	-0.012
-665.018	-200.000	0.020	0.292
-664.003	-101.007	-0.341	0.086
-662.989	-13.745	-0.161	-0.107
-661.974	9.461	-0.178	-0.138
-660.959	236.053	0.221	-0.375
-659.945	-200.000	-0.035	-0.420
-658.930	-120.704	0.323	0.056
-657.916	131.600	0.105	-0.138
-656.901	800.000	0.069	0.261
-655.886	-49.756	-0.110	0.054
-654.872	-105.264	-0.140	0.033
-653.857	800.000	-0.040	-0.142
-652.843	784.610	0.110	0.311
-651.828	181.179	0.133	-0.200
-650.814	800.000	0.073	-0.267
-649.799	-200.000	0.007	0.161
-648.784	328.210	-0.176	0.348
-647.770	-200.000	-0.051	0.254
-646.755	800.000	0.017	0.064
-645.741	485.724	-0.074	-0.174
-644.726	89.001	-0.125	0.143
-643.711	-200.000	-0.063	-0.300
-642.697	81.138	0.124	0.138
-641.682	144.466	-0.167	0.229
-640.668	-166.942	-0.147	0.006
-639.653	175.329	-0.294	0.437
-638.638	-89.363	-0.134	-0.041
-637.624	12.118	0.104	-0.082
-636.609	19.227	-0.062	0.051
-635.595	6.345	-0.024	-0.018
-634.580	-200.000	0.060	-0.274
-633.565	-147.341	-0.162	-0.014
-632.551	225.497	0.142	0.236
-631.536	-159.365	0.064	0.004
-630.522	74.126	0.047	-0.050
-629.507	2.785	-0.207	0.154
-628.492	-69.646	0.219	0.086
-627.478	301.807	0.138	-0.262
-626.463	-200.000	-0.013	-0.111
-625.449	67.857	0.272	0.286
-624.434	71.741	0.161	0.172
-623.419	-51.263	0.260	-0.125
-622.405	-115.524	0.359	-0.069
-621.390	-86.169	-0.207	-0.065
-620.376	616.465	0.032	-0.083
-619.361	56.449	0.059	0.059
-618.346	-128.243	0.115	0.017
-617.332	-138.209	-0.250	0.028
-616.317	-117.171	-0.274	0.051
-615.303	-110.206	-0.263	-0.056
-614.288	8.096	-0.226	-0.174
-613.273	-19.304	0.229	0.146
-612.259	-200.000	0.012	0.137
-611.244	-51.270	0.201	-0.096
-610.230	48.522	-0.098	0.094
-609.215	381.083	-0.060	-0.126
-608.201	21.627	0.201	-0.168
-607.186	188.040	-0.076	-0.116
-606.171	-200.000	0.023	-0.157
-605.157	-131.479	0.139	0.019
-604.142	-200.000	0.014	-0.090
-603.128	-78.778	0.251	-0.088
-602.113	33.569	-0.041	0.036
-601.098	-57.445	-0.171	-0.077
-600.084	-39.472	0.179	0.096
-599.069	-96.945	0.377	-0.101
-598.055	-200.000	0.004	0.029
-597.040	6.979	-0.064	0.049
-596.025	-147.523	0.364	-0.031
-595.011	88.033	0.098	0.111
-593.996	800.000	0.116	0.512
-592.982	393.689	0.128	0.273
-591.967	62.724	-0.096	0.098
-590.952	571.027	0.079	-0.198
-589.938	55.380	0.253	0.251
-588.923	-30.334	0.350	0.203
-587.909	74.680	-0.265	-0.286
-586.894	-196.197	-0.286	0.002
-585.879	-134.068	-0.149	-0.019
-584.865	22.713	-0.174	-0.146
-583.850	83.104	-0.176	0.196
-582.836	271.885	-0.067	0.122
-581.821	59.929	0.102	0.103
-580.806	18.244	-0.203	-0.166
-579.792	118.134	0.164	0.207
-578.777	-42.550	-0.094	-0.049
-577.763	-90.319	-0.184	-0.055
-576.748	-30.002	-0.243	0.142
-575.733	719.229	0.045	0.121
-574.719	38.924	0.290	0.266
-573.704	800.000	-0.025	-0.071
-572.690	-26.706	0.214	0.128
-571.675	173.542	0.084	0.124
-570.661	-90.102	0.108	0.032
-569.646	152.409	-0.167	0.234
-568.631	-200.000	-0.038	-0.221
-567.617	-70.737	-0.208	-0.080
-566.602	800.000	-0.039	-0.160
-565.588	800.000	0.020	0.088
-564.573	-119.227	-0.074	0.013
-563.558	457.855	0.064	0.145
-562.544	-84.504	-0.218	-0.070
-561.529	176.859	-0.041	0.061
-560.515	21.911	0.189	0.157
-559.500	-26.549	0.145	-0.087
-558.485	35.330	0.048	0.043
-557.471	-200.000	0.041	0.253
-556.456	-42.672	0.085	-0.044
-555.442	504.380	0.057	-0.135
-554.427	800.000	0.004	0.016
-553.412	-200.000	-0.060	0.317
-552.398	-16.216	-0.202	-0.131
-551.383	-200.000	0.009	0.266
-550.369	30.856	-0.191	-0.167
-549.354	-22.833	-0.291	-0.179
-548.339	800.000	0.051	0.164
-547.325	131.868	0.032	0.043
-546.310	-159.103	-0.015	0.001
-545.296	-39.212	0.205	0.110
-544.281	52.651	0.184	-0.179
-543.266	-114.037	-0.090	0.018
-542.252	800.000	-0.054	-0.184
-541.237	-94.007	0.310	0.087
-540.223	3.921	0.182	-0.136
-539.208	497.221	0.025	-0.060
-538.193	34.310	-0.090	-0.081
-537.179	714.042	-0.017	-0.047
-536.164	-41.034	-0.185	0.098
-535.150	252.589	0.199	0.347
-534.135	-152.278	-0.238	0.018
-533.121	402.524	0.153	-0.328
-532.106	88.298	-0.196	-0.222
-531.091	466.525	0.053	0.122
-530.077	-67.092	-0.276	0.111
-529.062	-200.000	-0.008	-0.121
-528.048	-200.000	0.059	0.313
-527.033	-200.000	-0.051	-0.289
-526.018	137.752	0.143	-0.191
-525.004	179.982	-0.108	0.162
-523.989	0.870	-0.283	-0.207
-522.975	-200.000	0.032	0.345
-521.960	171.504	-0.064	-0.094
-520.945	8.582	0.079	-0.061
-519.931	-84.404	0.127	0.041
-518.916	-24.623	0.189	-0.115
-517.902	-90.200	-0.287	-0.085
-516.887	-16.869	0.175	-0.113
-515.872	-200.000	0.002	0.157
-514.858	-5.707	-0.242	0.169
-513.843	17.811	0.156	-0.127
-512.829	-156.182	0.256	-0.016
-511.814	66.003	0.068	-0.070
-510.799	32.685	-0.225	-0.198
-509.785	800.000	-0.043	-0.176
-508.770	440.996	-0.096	0.214
-507.756	-103.804	-0.117	0.028
-506.741	-77.510	0.161	0.057
-505.726	8.736	-0.074	-0.057
-504.712	-200.000	0.021	-0.319
-503.697	-200.000	0.017	-0.078
-502.683	208.995	0.058	0.093
-501.668	100.455	-0.247	-0.292
-500.653	74.086	0.222	-0.238
-499.639	-8.480	0.154	0.106
-498.624	-136.484	-0.129	0.015
-497.610	256.286	0.102	-0.179
-496.595	-112.689	-0.052	0.010
-495.581	-200.000	-0.118	-0.610
-494.566	646.529	-0.021	-0.056
-493.551	-174.109	0.195	-0.006
-492.537	255.415	0.244	-0.427
-491.522	800.000	-0.060	-0.211
-490.508	549.898	-0.032	-0.078
-489.493	301.315	0.057	0.107
-488.478	338.160	0.092	0.183
-487.464	800.000	0.061	0.185
-486.449	-200.000	0.019	-0.408
-485.435	66.470	-0.018	0.019
-484.420	-95.533	-0.245	-0.067
-483.405	-127.399	0.173	-0.026
-482.391	124.157	0.104	0.133
-481.376	-200.000	-0.025	0.176
-480.362	-200.000	0.033	-0.261
-479.347	-112.601	0.165	0.033
-478.332	-200.000	0.008	0.047
-477.318	-165.362	0.191	0.009
-476.303	299.587	-0.106	0.198
-475.289	-83.588	0.290	0.095
-474.274	5.798	0.210	-0.159
-473.259	-197.880	-0.224	-0.001
-472.245	800.000	-0.117	-0.393
-471.230	-14.743	-0.064	-0.042
-470.216	-121.988	0.305	0.051
-469.201	-200.000	0.016	-0.177
-468.186	225.805	0.077	-0.128
-467.172	-138.671	-0.126	0.014
-466.157	129.272	0.184	-0.240
-465.143	-145.623	-0.122	-0.011
-464.128	-30.089	-0.040	0.023
-463.113	130.443	0.096	-0.125
-462.099	434.809	-0.095	0.211
-461.084	466.561	0.190	-0.434
-460.070	-49.169	0.077	0.037
-459.055	-132.686	-0.074	-0.010
-458.040	-200.000	-0.010	-0.271
-457.026	187.602	0.038	0.058
-456.011	-110.412	0.087	0.019
-454.997	-103.159	-0.187	0.045
-453.982	-183.844	0.293	-0.005
-452.968	381.917	0.146	0.306
-451.953	800.000	0.088	0.334
-450.938	-106.229	0.034	0.008
-449.924	-26.932	-0.151	0.090
-448.909	-6.519	-0.088	0.061
-447.895	-137.260	-0.386	0.045
-446.880	800.000	-0.035	0.119
-445.865	-64.301	-0.325	-0.135
-444.851	-64.453	0.196	-0.081
-443.836	-200.000	-0.029	0.175
-442.822	-200.000	0.007	0.252
-441.807	-200.000	-0.039	-0.357
-440.792	-128.266	-0.097	0.014
-439.778	467.315	-0.053	-0.121
-438.763	800.000	0.052	-0.209
-437.749	768.445	-0.057	-0.158
-436.734	800.000	-0.065	0.232
-435.719	47.647	-0.131	0.124
-434.705	272.882	0.151	0.272
-433.690	-111.900	-0.235	0.048
-432.676	85.114	-0.245	-0.274
-431.661	800.000	-0.083	0.303
-430.646	-132.304	-0.388	0.051
-429.632	32.631	-0.267	-0.235
-428.617	-200.000	0.079	-0.509
-427.603	364.296	-0.142	0.291
-426.588	-200.000	-0.002	-0.107
-425.573	-200.000	0.028	-0.207
-424.559	-200.000	-0.030	-0.158
-423.544	67.840	0.157	0.163
-422.530	-66.334	0.214	-0.086
-421.515	-32.535	-0.217	-0.123
-420.500	800.000	-0.050	0.182
-419.486	677.522	0.150	-0.398
-418.471	53.613	-0.236	0.230
-417.457	-29.838	0.077	0.044
-416.442	52.398	-0.188	-0.182
-415.428	4.642	-0.209	-0.156
-414.413	197.496	0.179	0.279
-413.398	-6.071	-0.111	0.077
-412.384	-200.000	-0.026	0.277
-411.369	-200.000	0.046	0.229
-410.355	316.367	-0.147	0.282
-409.340	-55.570	0.137	0.063
-408.325	-124.419	-0.174	-0.028
-407.311	-59.788	0.243	-0.106
-406.296	33.034	-0.235	-0.207
-405.282	-130.409	-0.259	0.036
-404.267	296.155	-0.083	0.155
-403.252	-200.000	-0.040	-0.205
-402.238	12.783	0.047	0.037
-401.223	315.300	-0.127	-0.243
-400.209	800.000	-0.081	-0.248
-399.194	65.544	0.090	0.093
-398.179	-183.638	0.053	-0.001
-397.165	-8.339	0.019	-0.013
-396.150	74.204	-0.277	-0.295
-395.136	287.811	-0.103	-0.190
-394.121	800.000	0.035	-0.115
-393.106	-9.275	-0.209	0.142
-392.092	-149.646	0.137	-0.011
-391.077	65.984	-0.177	-0.183
-390.063	-200.000	0.005	0.025
-389.048	57.181	0.346	-0.343
-388.033	800.000	0.042	-0.151
-387.019	800.000	-0.089	-0.293
-386.004	800.000	-0.077	-0.257
-384.990	-71.544	0.092	-0.035
-383.975	-134.769	-0.137	-0.017
-382.960	266.356	0.179	-0.318
-381.946	8.947	0.276	-0.212
-380.931	800.000	-0.071	-0.229
-379.917	-64.971	-0.299	-0.123
-378.902	148.015	0.081	-0.111
-377.888	-102.574	0.183	0.044
-376.873	-200.000	-0.224	0.001
-375.858	23.005	-0.139	0.116
-374.844	155.765	0.300	-0.420
-373.829	800.000	0.093	0.306
-372.815	155.571	-0.038	-0.053
-371.800	-155.002	-0.110	0.007
-370.785	493.035	-0.125	0.291
-369.771	-156.024	-0.200	0.013
-368.756	-78.423	0.230	0.080
-367.742	-52.341	0.173	-0.081
-366.727	-51.185	-0.183	-0.087
-365.712	184.270	0.119	-0.179
-364.698	-120.016	-0.184	0.032
-363.683	180.284	0.091	0.136
-362.669	27.603	0.211	-0.180
-361.654	-139.654	0.200	-0.022
-360.639	-23.046	-0.150	0.092
-359.625	800.000	0.052	0.194
-358.610	159.247	0.107	0.151
-357.596	-143.179	0.158	-0.015
-356.581	-200.000	-0.004	-0.095
-355.566	350.563	-0.050	0.101
-354.552	800.000	0.081	0.261
-353.537	224.024	0.222	-0.364
-352.523	-24.262	0.073	-0.044
-351.508	-3.609	-0.161	0.114
-350.493	85.111	0.325	-0.362
-349.479	800.000	-0.082	-0.337
-348.464	45.925	0.096	-0.091
-347.450	800.000	-0.045	0.127
-346.435	722.194	-0.115	0.312
-345.420	-200.000	0.027	-0.381
-344.406	529.281	-0.081	-0.195
-343.391	478.508	0.057	0.132
-342.377	73.970	0.168	0.179
-341.362	-73.302	-0.265	-0.098
-340.348	15.048	-0.156	0.124
-339.333	99.693	0.156	0.183
-338.318	-200.000	-0.015	0.129
-337.304	190.353	-0.176	0.268
-336.289	158.375	-0.207	0.291
-335.275	102.159	0.096	-0.114
-334.260	121.913	0.076	-0.096
-333.245	-200.000	0.024	0.407
-332.231	800.000	-0.020	-0.065
-331.216	65.345	-0.214	-0.219
-330.202	-4.582	-0.067	0.047
-329.187	110.121	-0.157	-0.191
-328.172	-2.248	-0.077	0.055
-327.158	89.913	0.191	0.216
-326.143	264.547	-0.112	-0.197
-325.129	-171.231	0.242	0.008
-324.114	68.967	0.150	0.156
-323.099	-93.041	-0.187	0.053
-322.085	-72.180	0.304	0.114
-321.070	-106.831	0.126	0.028
-320.056	800.000	-0.075	-0.220
-319.041	8.436	0.168	0.128
-318.026	-168.568	0.326	0.013
-317.012	800.000	0.043	-0.127
-315.997	-146.566	-0.300	-0.026
-314.983	172.902	-0.249	-0.363
-313.968	103.668	-0.026	0.031
-312.953	469.764	-0.156	0.355
-311.939	-113.890	-0.288	-0.057
-310.924	-200.000	-0.020	-0.151
-309.910	800.000	0.081	0.258
-308.895	228.500	-0.071	0.117
-307.880	-109.388	0.254	-0.054
-306.866	-89.552	0.193	0.057
-305.851	-128.252	-0.552	0.080
-304.837	-56.120	0.198	-0.089
-303.822	684.171	0.085	-0.224
-302.807	-125.422	0.089	0.014
-301.793	800.000	-0.025	-0.079
-300.778	-73.089	-0.199	-0.074
-299.764	-50.542	0.329	0.157
-298.749	797.288	0.106	0.295
-297.735	-66.240	0.202	0.082
-296.720	800.000	0.079	0.282
-295.705	-155.978	0.316	0.020
-294.691	-74.888	-0.367	-0.133
-293.676	-200.000	-0.000	-0.259
-292.662	-200.000	-0.059	0.386
-291.647	700.638	-0.060	0.161
-290.632	-90.632	-0.221	0.065
-289.618	235.367	0.159	0.265
-288.603	-124.688	0.206	-0.032
-287.589	-200.000	-0.010	0.132
-286.574	31.795	0.088	-0.077
-285.559	65.690	-0.024	-0.024
-284.545	57.589	0.127	0.125
-283.530	-73.580	-0.189	-0.070
-282.516	29.245	0.063	0.054
-281.501	240.813	-0.086	0.145
-280.486	164.731	0.199	0.285
-279.472	25.768	-0.103	-0.087
-278.457	485.373	0.007	0.016
-277.443	61.597	0.089	-0.090
-276.428	293.289	-0.120	-0.221
-275.413	137.174	0.173	0.229
-274.399	-8.837	0.176	0.120
-273.384	170.143	0.249	0.361
-272.370	125.836	-0.182	-0.233
-271.355	-149.578	-0.128	-0.010
-270.340	-11.829	0.313	0.208
-269.326	-72.359	0.121	-0.045
-268.311	-15.733	-0.032	0.021
-267.297	-200.000	0.071	0.439
-266.282	-43.714	-0.110	-0.056
-265.267	325.285	0.222	-0.429
-264.253	511.312	0.200	-0.471
-263.238	800.000	-0.044	-0.145
-262.224	-113.924	-0.153	-0.030
-261.209	42.954	0.154	-0.142
-260.195	289.452	-0.250	0.458
-259.180	-39.183	0.102	-0.054
-258.165	57.710	-0.151	0.149
-257.151	257.420	-0.382	-0.665
-256.136	-200.000	0.007	0.187
-255.122	72.089	0.150	0.157
-254.107	43.410	0.071	-0.066
-253.092	-200.000	-0.019	-0.194
-252.078	129.177	-0.113	0.146
-251.063	426.752	0.138	0.300
-250.049	71.064	0.110	-0.115
-249.034	-122.061	0.234	0.039
-248.019	800.000	0.054	-0.201
-247.005	-21.836	-0.135	-0.083
-245.990	-94.583	0.125	-0.034
-244.976	80.841	-0.098	0.107
-243.961	10.198	0.149	0.114
-242.946	800.000	0.025	-0.092
-241.932	37.513	-0.074	0.066
-240.917	-200.000	-0.013	0.079
-239.903	-48.819	0.288	0.140
-238.888	-75.915	-0.267	0.095
-237.873	-86.204	0.281	0.088
-236.859	13.449	-0.115	0.090
-235.844	27.927	-0.082	-0.070
-234.830	800.000	0.050	-0.172
-233.815	233.880	-0.116	0.193
-232.800	800.000	-0.045	0.128
-231.786	-115.437	0.420	-0.080
-230.771	-200.000	-0.058	-0.299
-229.757	800.000	-0.046	-0.195
-228.742	-200.000	-0.003	0.071
-227.727	800.000	0.053	-0.234
-226.713	36.508	-0.250	0.222
-225.698	800.000	0.066	-0.205
-224.684	-58.814	-0.063	0.027
-223.669	-73.698	-0.249	-0.091
-222.655	493.130	-0.096	0.222
-221.640	-100.850	0.176	-0.044
-220.625	-12.634	-0.181	-0.119
-219.611	-129.600	0.162	0.023
-218.596	136.222	0.071	-0.093
-217.582	-122.248	0.502	0.083
-216.567	10.775	0.221	-0.170
-215.552	-34.492	-0.288	0.159
-214.538	-5.798	-0.215	-0.149
-213.523	-129.676	0.544	0.076
-212.509	-10.364	-0.273	0.183
-211.494	-95.361	0.446	0.121
-210.479	52.023	0.085	0.082
-209.465	-64.063	-0.235	0.097
-208.450	-172.878	0.056	0.002
-207.436	-200.000	-0.241	-0.000
-206.421	-200.000	-0.055	0.384
-205.406	-200.000	-0.039	0.382
-204.392	80.486	0.099	0.107
-203.377	-200.000	-0.044	-0.230
-202.363	-43.970	-0.212	0.108
-201.348	-125.133	0.232	-0.036
-200.333	11.629	0.367	-0.284
-199.319	267.378	0.101	-0.178
-198.304	288.768	0.106	-0.193
-197.290	800.000	-0.063	-0.204
-196.275	12.040	0.087	-0.068
-195.260	-200.000	-0.189	0.000
-194.246	122.843	-0.103	-0.131
-193.231	370.511	-0.030	-0.062
-192.217	-96.259	-0.283	-0.076
-191.202	261.763	-0.107	-0.187
-190.187	-99.699	-0.161	0.041
-189.173	-80.287	-0.154	0.052
-188.158	-25.272	0.256	-0.153
-187.144	768.050	-0.031	0.085
-186.129	-48.873	-0.138	-0.067
-185.114	114.845	0.097	-0.119
-184.100	289.126	-0.128	-0.234
-183.085	-200.000	0.003	0.105
-182.071	800.000	0.025	0.071
-181.056	-44.051	-0.259	0.131
-180.042	112.224	-0.215	0.262
-179.027	-200.000	0.558	0.002
-178.012	800.000	-0.006	0.027
-176.998	285.793	-0.049	0.089
-175.983	-200.000	0.005	0.140
-174.969	-200.000	-0.013	0.085
-173.954	-200.000	0.028	0.483
-172.939	-82.123	0.148	0.049
-171.925	800.000	0.057	0.183
-170.910	-200.000	-0.021	0.364
-169.896	270.552	0.116	-0.206
-168.881	183.761	0.147	0.219
-167.866	-119.962	-0.516	0.089
-166.852	76.687	-0.096	0.103
-165.837	800.000	0.086	-0.270
-164.823	122.556	-0.059	-0.074
-163.808	347.197	0.061	-0.122
-162.793	322.338	-0.120	-0.230
-161.779	800.000	-0.041	0.115
-160.764	-200.000	-0.045	0.261
-159.750	-1.214	-0.043	0.031
-158.735	-111.810	0.181	0.037
-157.720	121.957	-0.262	0.329
-156.706	75.006	-0.200	0.213
-155.691	-200.000	0.009	0.161
-154.677	164.424	-0.032	-0.046
-153.662	236.899	-0.013	0.023
-152.647	-100.897	-0.223	-0.055
-151.633	-200.000	0.023	-0.215
-150.618	275.097	-0.123	0.219
-149.604	55.740	0.166	0.162
-148.589	-200.000	-0.039	0.200
-147.574	-147.679	0.339	-0.029
-146.560	-104.480	0.292	0.068
-145.545	-89.310	-0.218	0.065
-144.531	-43.213	0.173	0.088
-143.516	-124.210	0.212	0.033
-142.502	800.000	-0.034	0.098
-141.487	-200.000	-0.054	0.297
-140.472	-55.330	-0.404	0.182
-139.458	245.849	0.227	0.384
-138.443	43.891	0.195	-0.179
-137.429	-79.257	0.306	-0.104
-136.414	72.286	0.157	-0.165
-135.399	-24.225	0.216	-0.130
-134.385	319.298	-0.123	0.236
-133.370	201.089	-0.138	0.214
-132.356	3.120	-0.305	-0.223
-131.341	599.933	-0.165	-0.412
-130.326	-85.530	0.272	0.085
-129.312	537.445	0.134	-0.320
-128.297	-35.335	0.072	-0.039
-127.283	-200.000	-0.007	0.258
-126.268	701.987	-0.085	0.225
-125.253	800.000	0.028	0.080
-124.239	-200.000	-0.007	-0.060
-123.224	717.223	-0.069	0.185
-122.210	-13.293	0.117	0.076
-121.195	748.739	-0.057	0.155
-120.180	-61.674	-0.228	0.096
