DTS Sentinel unit serial number:	SN413079Multiplexer serial number:	ORYXHardware model number:	OX4-SRSoftware version number:	ORYX F/W v4.00 Oryx Data Collector v3.7.2.0data status	okinstallation	princeton_trtdifferential loss correction	single-endedforward channel	channel 4reverse channel	N/Adate	2019/09/12time	19:37:19forward acquisition time	15.00reverse acquisition time	0.00gamma	496.2192k internal	0.2310k external	0.2310temperature offset calibration	1.0153default loss term (dB/km)	0.3790temperature slope calibration	1.0000multiplexer offset coefficient	1.0000multiplexer slope coefficient	1.0000fibre end	0.00T internal ref (°C)	32.12T ext. ref 1 (°C)	3.34T ext. ref 2 (°C)	26.66length (m)	temperature (°C)	Stokes	anti-Stokes-747.200	-200.000	0.076	-0.359
-746.185	-0.714	-0.542	0.390
-745.171	-200.000	0.009	0.338
-744.156	99.490	0.376	-0.442
-743.142	800.000	-0.124	-0.349
-742.127	-149.182	0.328	0.027
-741.112	-127.953	-0.461	-0.067
-740.098	-0.033	0.169	0.122
-739.083	-62.521	-0.298	-0.126
-738.069	51.039	-0.289	0.278
-737.054	15.960	-0.471	0.377
-736.039	-18.303	-0.737	0.468
-735.025	800.000	-0.123	-0.509
-734.010	-63.801	0.080	-0.033
-732.996	-50.883	-0.695	0.332
-731.981	800.000	-0.165	0.481
-730.966	-33.595	-0.145	0.081
-729.952	800.000	-0.195	-0.628
-728.937	800.000	-0.076	0.311
-727.923	800.000	0.286	0.851
-726.908	-24.369	-0.795	-0.481
-725.894	-20.938	-1.180	-0.734
-724.879	57.466	-0.253	0.251
-723.864	-69.369	-0.512	0.199
-722.850	33.037	-0.848	-0.746
-721.835	-169.927	0.872	0.032
-720.821	-108.395	-0.165	0.036
-719.806	-60.460	-0.437	0.189
-718.791	-13.197	-0.671	-0.442
-717.777	800.000	0.155	0.669
-716.762	-22.406	-0.736	0.453
-715.748	220.631	-0.045	0.072
-714.733	-11.038	0.177	-0.119
-713.718	800.000	-0.080	-0.269
-712.704	90.218	-0.229	-0.260
-711.689	1.432	-0.406	-0.296
-710.675	-200.000	-0.116	0.575
-709.660	-121.764	0.649	-0.109
-708.645	-77.127	0.568	0.201
-707.631	47.104	-0.149	0.141
-706.616	171.602	0.084	0.122
-705.602	-140.280	-0.037	0.004
-704.587	19.373	0.573	-0.467
-703.572	34.662	-0.575	0.510
-702.558	-31.985	0.511	0.290
-701.543	37.128	0.470	-0.422
-700.529	-132.443	-0.633	-0.083
-699.514	-93.418	-0.786	0.221
-698.499	-200.000	-0.031	0.166
-697.485	-83.330	0.498	0.162
-696.470	-122.821	-0.498	0.081
-695.456	-200.000	-0.063	0.539
-694.441	-200.000	0.070	-0.625
-693.426	39.790	-0.247	-0.225
-692.412	-105.443	0.273	-0.063
-691.397	-200.000	-0.105	-0.850
-690.383	-47.941	-0.518	-0.254
-689.368	49.448	0.313	-0.299
-688.354	-200.000	0.000	-0.181
-687.339	-21.070	0.365	0.226
-686.324	101.246	0.663	-0.783
-685.310	800.000	-0.156	-0.648
-684.295	43.135	0.337	-0.312
-683.281	245.554	0.236	-0.403
-682.266	-115.089	0.205	0.039
-681.251	198.002	0.309	-0.478
-680.237	-69.957	0.504	-0.194
-679.222	136.176	0.352	0.466
-678.208	-60.903	-0.113	-0.048
-677.193	-6.930	-0.568	-0.391
-676.178	-48.226	0.694	0.339
-675.164	270.724	-0.172	0.307
-674.149	-27.751	0.329	0.193
-673.135	800.000	0.031	-0.096
-672.120	-191.376	1.034	0.011
-671.105	-52.889	-0.430	-0.200
-670.091	58.692	-0.545	-0.542
-669.076	40.034	-0.112	-0.102
-668.062	518.379	-0.206	0.488
-667.047	-146.116	0.082	-0.007
-666.032	-200.000	0.111	-0.886
-665.018	107.969	0.212	-0.256
-664.003	314.186	0.288	-0.549
-662.989	153.985	0.112	0.155
-661.974	389.949	0.294	-0.616
-660.959	-42.661	0.597	-0.307
-659.945	140.603	0.112	-0.150
-658.930	418.152	0.310	-0.670
-657.916	-100.764	-0.460	-0.115
-656.901	83.738	0.175	-0.193
-655.886	-200.000	0.055	-0.621
-654.872	-65.799	0.284	-0.115
-653.857	800.000	0.297	-1.253
-652.843	49.943	-0.193	-0.184
-651.828	-34.356	-0.426	-0.236
-650.814	800.000	0.132	0.503
-649.799	34.404	0.492	0.435
-648.784	800.000	-0.100	0.438
-647.770	-134.449	0.780	0.097
-646.755	48.970	-0.191	-0.181
-645.741	-13.984	0.054	0.035
-644.726	800.000	0.060	0.252
-643.711	-101.533	0.946	-0.233
-642.697	201.211	0.227	0.353
-641.682	-200.000	-0.006	-0.090
-640.668	-200.000	0.095	0.603
-639.653	263.746	0.202	-0.356
-638.638	-67.204	-0.656	-0.261
-637.624	76.364	-0.107	-0.115
-636.609	-184.034	0.458	0.008
-635.595	264.823	0.104	0.183
-634.580	-101.128	-0.835	-0.207
-633.565	260.383	-0.231	-0.404
-632.551	-200.000	0.081	-0.403
-631.536	-200.000	-0.072	-0.431
-630.522	800.000	0.210	0.633
-629.507	89.891	-0.078	-0.088
-628.492	800.000	-0.146	0.436
-627.478	-200.000	0.043	0.219
-626.463	255.964	-0.322	-0.559
-625.449	800.000	-0.033	-0.097
-624.434	58.865	-0.098	-0.097
-623.419	-117.076	-0.185	-0.034
-622.405	-200.000	0.003	-0.017
-621.390	141.854	-0.622	-0.833
-620.376	161.409	-0.355	-0.502
-619.361	-96.736	0.687	-0.183
-618.346	149.284	0.417	-0.570
-617.332	476.825	-0.463	1.059
-616.317	50.897	0.101	0.097
-615.303	534.744	-0.287	0.687
-614.288	-33.708	-0.305	-0.170
-613.273	-82.837	-0.422	-0.138
-612.259	482.701	-0.334	0.766
-611.244	562.766	-0.178	0.436
-610.230	-20.233	-0.473	-0.294
-609.215	-128.143	0.873	-0.126
-608.201	241.420	0.038	0.065
-607.186	-200.000	-0.029	-0.549
-606.171	-37.880	0.934	0.502
-605.157	22.277	-0.792	-0.653
-604.142	-20.100	-0.218	0.136
-603.128	-132.777	-0.402	0.052
-602.113	-153.785	-0.221	-0.015
-601.098	648.843	0.281	-0.725
-600.084	541.405	0.412	-0.992
-599.069	-39.797	-0.408	-0.215
-598.055	800.000	-0.228	-0.920
-597.040	337.418	-0.137	0.269
-596.025	-16.817	0.016	-0.010
-595.011	31.054	0.370	0.321
-593.996	428.848	-0.170	-0.371
-592.982	-176.628	-0.118	0.003
-591.967	800.000	0.318	0.909
-590.952	41.898	-0.285	0.261
-589.938	15.227	0.090	-0.071
-588.923	144.892	-0.219	-0.296
-587.909	249.457	0.024	-0.041
-586.894	-200.000	0.074	-0.522
-585.879	-21.087	0.276	0.171
-584.865	-200.000	-0.109	-0.522
-583.850	-109.004	0.849	0.183
-582.836	-84.679	-0.225	0.071
-581.821	-200.000	-0.006	-0.319
-580.806	-156.972	1.113	0.069
-579.792	-144.437	0.479	0.045
-578.777	18.461	-0.379	-0.306
-577.763	-200.000	0.074	0.432
-576.748	-89.288	-0.331	0.098
-575.733	244.584	0.073	-0.124
-574.719	-200.000	-0.038	-0.939
-573.704	-54.127	0.362	0.166
-572.690	492.131	0.263	0.607
-571.675	-89.661	0.976	-0.289
-570.661	-190.679	0.356	0.004
-569.646	-200.000	-0.026	0.472
-568.631	-73.560	-0.467	-0.172
-567.617	595.328	-0.233	0.581
-566.602	-157.474	0.907	-0.055
-565.588	-19.248	-0.587	0.367
-564.573	-141.628	0.407	0.041
-563.558	800.000	0.094	-0.265
-562.544	-162.283	0.181	-0.009
-561.529	121.116	0.596	-0.749
-560.515	126.571	0.198	-0.253
-559.500	-79.983	-1.814	0.614
-558.485	-114.112	-0.561	0.109
-557.471	-107.301	-1.086	0.241
-556.456	368.853	-0.103	0.210
-555.442	800.000	0.231	0.723
-554.427	49.776	-0.335	0.318
-553.412	-85.831	-0.347	0.109
-552.398	-200.000	-0.109	-0.615
-551.383	-129.093	0.934	-0.132
-550.369	433.194	0.112	-0.245
-549.354	13.975	-0.632	0.496
-548.339	-174.097	-0.379	0.011
-547.325	800.000	0.097	0.417
-546.310	120.337	0.276	-0.345
-545.296	425.560	0.108	0.235
-544.281	-138.920	-0.083	-0.009
-543.266	77.346	-0.301	-0.323
-542.252	143.082	-0.166	0.223
-541.237	548.994	-0.294	-0.709
-540.223	-130.641	-0.958	-0.130
-539.208	-200.000	0.031	0.370
-538.193	-149.250	0.989	0.080
-537.179	271.669	0.082	-0.146
-536.164	-200.000	-0.016	0.178
-535.150	25.854	-0.485	0.407
-534.135	121.338	-0.404	0.507
-533.121	193.467	-0.371	-0.566
-532.106	-107.643	-0.819	-0.180
-531.091	-200.000	0.005	-0.121
-530.077	329.515	0.124	0.241
-529.062	12.217	-0.539	0.418
-528.048	-200.000	-0.039	0.337
-527.033	-137.048	-0.604	0.070
-526.018	92.242	-0.190	-0.215
-525.004	-18.580	-0.437	0.274
-523.989	800.000	0.092	-0.321
-522.975	800.000	0.171	-0.501
-521.960	145.331	-0.249	-0.336
-520.945	59.720	0.748	-0.743
-519.931	61.259	-0.193	-0.193
-518.916	-200.000	-0.174	1.221
-517.902	800.000	-0.046	0.167
-516.887	330.122	-0.217	0.421
-515.872	-18.167	0.344	-0.217
-514.858	800.000	0.086	0.271
-513.843	-120.676	-0.344	0.059
-512.829	41.631	0.630	0.575
-511.814	31.928	-0.952	0.825
-510.799	800.000	-0.249	0.693
-509.785	44.463	0.299	0.277
-508.770	-103.242	0.364	0.087
-507.756	418.726	-0.267	0.575
-506.741	800.000	0.114	-0.445
-505.726	14.520	-0.426	0.335
-504.712	-200.000	0.093	0.439
-503.697	-57.255	0.271	-0.120
-502.683	-25.745	-0.227	-0.135
-501.668	390.061	-0.361	0.753
-500.653	62.602	0.261	-0.262
-499.639	-49.941	-0.291	-0.139
-498.624	-22.736	-0.862	-0.524
-497.610	141.213	-0.472	-0.628
-496.595	800.000	0.125	-0.377
-495.581	-200.000	-0.014	0.491
-494.566	-106.244	0.308	-0.069
-493.551	800.000	0.254	0.744
-492.537	-38.447	0.733	0.390
-491.522	12.415	0.237	0.184
-490.508	-200.000	-0.029	-0.142
-489.493	-200.000	0.320	-0.001
-488.478	37.255	0.844	0.752
-487.464	-200.000	-0.003	-0.242
-486.449	-91.191	-0.935	-0.269
-485.435	26.339	0.627	-0.527
-484.420	127.113	0.222	-0.283
-483.405	-200.000	0.016	-0.330
-482.391	12.179	-0.526	-0.407
-481.376	-200.000	-0.057	0.306
-480.362	-77.882	0.758	-0.263
-479.347	-200.000	-0.058	-0.322
-478.332	133.454	0.438	-0.569
-477.318	-200.000	-0.023	-0.103
-476.303	-109.898	-0.584	-0.123
-475.289	800.000	0.144	-0.400
-474.274	111.105	-0.557	0.675
-473.259	256.316	-0.299	0.517
-472.245	-200.000	0.301	0.001
-471.230	-45.479	0.370	0.184
-470.216	307.875	-0.115	0.216
-469.201	-200.000	-0.091	0.460
-468.186	-200.000	0.137	0.847
-467.172	-187.837	1.016	-0.013
-466.157	800.000	0.102	-0.447
-465.143	13.043	-0.620	-0.482
-464.128	-200.000	0.015	-0.150
-463.113	-83.441	0.571	-0.184
-462.099	-200.000	-0.031	-0.628
-461.084	-112.858	0.761	-0.152
-460.070	655.250	0.422	-1.088
-459.055	613.304	0.150	-0.377
-458.040	800.000	0.190	0.602
-457.026	-200.000	0.054	-0.541
-456.011	-126.719	-0.375	-0.056
-454.997	-66.203	-1.001	-0.400
-453.982	-1.334	-0.497	-0.353
-452.968	415.119	0.131	0.280
-451.953	9.976	-0.438	0.334
-450.938	193.494	0.160	0.243
-449.924	-200.000	0.039	0.892
-448.909	206.348	-0.445	0.696
-447.895	-142.759	-1.442	0.141
-446.880	-200.000	-0.011	-0.067
-445.865	-200.000	-0.034	0.487
-444.851	-117.311	0.733	0.134
-443.836	800.000	0.094	0.317
-442.822	-52.317	0.272	0.127
-441.807	-6.205	0.979	-0.671
-440.792	-200.000	-0.042	0.247
-439.778	31.429	-0.220	-0.190
-438.763	326.726	-0.216	-0.415
-437.749	-200.000	-0.746	0.002
-436.734	-21.210	0.941	0.577
-435.719	-77.403	-0.828	-0.289
-434.705	27.761	-0.674	-0.570
-433.690	-200.000	0.040	-0.177
-432.676	800.000	0.151	0.610
-431.661	100.479	0.373	-0.435
-430.646	57.955	-0.323	0.318
-429.632	-143.627	0.400	-0.038
-428.617	159.870	0.383	0.535
-427.603	39.267	-0.317	-0.285
-426.588	800.000	-0.194	-0.589
-425.573	-4.729	0.674	-0.467
-424.559	281.843	0.283	-0.509
-423.544	-31.443	0.544	-0.307
-422.530	30.024	-0.413	-0.353
-421.515	215.731	0.483	0.770
-420.500	-2.932	0.384	0.269
-419.486	221.301	-0.228	-0.368
-418.471	-89.620	-0.304	-0.089
-417.457	-59.593	0.473	-0.204
-416.442	-200.000	-0.034	-0.626
-415.428	23.370	-0.378	0.312
-414.413	-1.143	0.426	-0.302
-413.398	391.763	0.349	-0.726
-412.384	-39.207	0.343	0.181
-411.369	-49.996	-0.373	-0.178
-410.355	138.674	-0.263	0.346
-409.340	-139.540	0.366	0.039
-408.325	-23.935	0.232	0.139
-407.311	800.000	0.074	0.274
-406.296	-200.000	-0.001	-0.253
-405.282	-200.000	-0.122	-0.871
-404.267	800.000	0.070	-0.295
-403.252	5.418	0.323	-0.239
-402.238	55.492	-0.323	-0.313
-401.223	593.556	0.152	-0.376
-400.209	55.526	-0.669	0.649
-399.194	-104.910	1.007	-0.232
-398.179	1.137	-0.186	0.134
-397.165	-114.182	-1.089	0.211
-396.150	-70.196	0.470	0.179
-395.136	-18.702	0.351	-0.219
-394.121	23.550	-0.157	-0.130
-393.106	606.332	0.260	0.649
-392.092	132.035	0.795	1.026
-391.077	800.000	-0.152	-0.521
-390.063	34.220	-0.566	-0.495
-389.048	83.424	0.343	-0.375
-388.033	331.152	0.171	0.329
-387.019	57.150	-0.597	0.583
-386.004	-46.056	-0.380	-0.188
-384.990	137.812	-0.150	-0.196
-383.975	-81.920	0.512	0.168
-382.960	-200.000	0.017	0.495
-381.946	-200.000	-0.138	-0.740
-380.931	-200.000	0.017	-0.136
-379.917	800.000	0.157	-0.520
-378.902	20.623	0.931	0.754
-377.888	-75.014	-0.539	-0.193
-376.873	720.182	0.211	-0.563
-375.858	2.121	-0.600	-0.434
-374.844	-200.000	-0.030	0.132
-373.829	107.802	0.488	0.582
-372.815	351.275	0.149	0.296
-371.800	52.237	-0.780	0.745
-370.785	-58.185	-0.132	-0.057
-369.771	57.430	-0.325	0.318
-368.756	-192.659	-0.270	-0.002
-367.742	-23.878	0.527	-0.316
-366.727	412.409	-0.237	-0.503
-365.712	26.908	-0.505	-0.423
-364.698	-52.787	-0.728	0.336
-363.683	-78.305	0.497	0.171
-362.669	800.000	0.102	-0.365
-361.654	125.966	0.292	-0.369
-360.639	273.098	-0.101	0.179
-359.625	16.956	0.377	-0.299
-358.610	503.626	-0.140	-0.324
-357.596	296.485	0.147	-0.269
-356.581	-164.228	-0.412	-0.019
-355.566	131.898	-0.257	0.330
-354.552	317.473	-0.190	0.359
-353.537	-200.000	0.001	0.041
-352.523	325.220	-0.265	-0.507
-351.508	-200.000	0.041	0.585
-350.493	206.499	-0.247	0.384
-349.479	159.289	0.131	-0.182
-348.464	549.940	0.053	0.127
-347.450	-144.918	-0.439	0.040
-346.435	-200.000	0.004	-0.246
-345.420	-70.012	1.378	0.525
-344.406	800.000	0.364	-1.414
-343.391	238.067	-0.090	-0.149
-342.377	-36.333	-0.128	-0.069
-341.362	800.000	-0.136	0.476
-340.348	-30.522	-0.281	-0.159
-339.333	223.906	-0.114	-0.184
-338.318	-2.995	-0.337	0.235
-337.304	-38.291	0.370	0.196
-336.289	-80.719	0.613	0.204
-335.275	-25.145	1.129	0.669
-334.260	-95.297	-0.430	0.116
-333.245	308.717	0.341	0.636
-332.231	-98.972	0.342	0.087
-331.216	-121.840	-0.624	0.103
-330.202	-200.000	0.022	-0.193
-329.187	-156.640	0.738	0.046
-328.172	-36.953	-0.537	-0.288
-327.158	800.000	-0.297	0.897
-326.143	800.000	-0.109	0.324
-325.129	24.935	-0.222	-0.184
-324.114	128.302	0.453	-0.576
-323.099	170.147	-0.117	-0.167
-322.085	-64.034	-0.848	-0.346
-321.070	-70.013	0.664	-0.253
-320.056	-41.344	0.504	0.260
-319.041	97.257	-0.637	-0.730
-318.026	-20.995	0.299	-0.183
-317.012	-200.000	-0.041	0.200
-315.997	13.754	0.543	-0.422
-314.983	-200.000	0.039	0.594
-313.968	-106.585	0.777	0.173
-312.953	382.239	0.157	0.323
-311.939	281.453	0.094	-0.168
-310.924	366.177	0.206	-0.415
-309.910	-200.000	0.022	-0.281
-308.895	-89.445	0.763	-0.224
-307.880	-200.000	0.015	0.498
-306.866	-8.871	0.330	-0.221
-305.851	269.327	0.253	-0.444
-304.837	-122.062	-0.783	-0.128
-303.822	268.218	-0.209	-0.366
-302.807	-98.508	-0.747	-0.191
-301.793	-41.995	0.801	-0.410
-300.778	800.000	-0.173	0.508
-299.764	-200.000	0.088	0.880
-298.749	800.000	-0.037	-0.124
-297.735	76.831	-0.080	0.085
-296.720	97.904	-0.296	0.339
-295.705	-117.973	-0.641	-0.115
-294.691	4.200	-0.197	0.144
-293.676	221.372	-0.400	-0.641
-292.662	-41.160	0.459	0.236
-291.647	96.462	0.198	-0.226
-290.632	257.781	0.160	-0.275
-289.618	-200.000	0.001	-0.042
-288.603	-95.045	0.844	0.227
-287.589	-200.000	0.100	0.516
-286.574	234.936	-0.024	0.039
-285.559	-200.000	0.066	0.576
-284.545	-186.675	-0.495	-0.007
-283.530	800.000	0.185	0.567
-282.516	-61.257	0.643	0.270
-281.501	-36.098	-0.701	-0.378
-280.486	-43.250	-0.382	-0.193
-279.472	-200.000	-0.085	-0.396
-278.457	-38.128	-0.698	-0.370
-277.443	-200.000	0.046	-0.244
-276.428	-200.000	0.135	0.880
-275.413	384.467	-0.157	0.322
-274.399	421.311	-0.367	-0.785
-273.384	-175.068	1.062	0.029
-272.370	-72.538	0.977	0.360
-271.355	394.482	-0.259	-0.538
-270.340	-6.437	0.107	0.073
-269.326	-87.453	-0.493	-0.149
-268.311	92.528	-0.282	0.317
-267.297	-200.000	0.030	-0.530
-266.282	385.771	-0.647	1.331
-265.267	800.000	-0.219	0.874
-264.253	162.179	0.078	-0.109
-263.238	31.567	0.515	-0.441
-262.224	800.000	0.091	0.283
-261.209	-111.486	-0.719	-0.146
-260.195	-67.521	-0.647	0.253
-259.180	-8.765	-0.382	0.255
-258.165	-57.302	-0.332	-0.145
-257.151	-134.763	-0.609	-0.074
-256.136	-137.067	-0.113	-0.013
-255.122	95.316	0.195	0.221
-254.107	-119.093	-0.228	-0.040
-253.092	-200.000	0.024	0.114
-252.078	-200.000	-0.097	0.451
-251.063	-127.699	-0.271	-0.039
-250.049	488.718	-0.125	-0.285
-249.034	-46.492	0.451	0.221
-248.019	398.673	0.119	-0.248
-247.005	-154.006	-1.274	0.086
-245.990	139.942	-0.453	-0.595
-244.976	678.345	-0.004	-0.009
-243.961	-146.812	0.414	-0.036
-242.946	800.000	-0.122	0.433
-241.932	-62.599	-0.483	0.200
-240.917	-46.400	0.270	-0.132
-239.903	452.316	-0.089	0.196
-238.888	-200.000	-0.006	0.618
-237.873	-200.000	0.030	-0.225
-236.859	-48.056	-0.563	-0.271
-235.844	128.419	0.392	0.497
-234.830	-200.000	0.083	0.656
-233.815	-94.785	-0.417	0.113
-232.800	-68.054	0.280	0.109
-231.786	-190.778	0.460	-0.005
-230.771	-200.000	0.087	0.501
-229.757	800.000	0.150	-0.618
-228.742	2.642	-0.080	0.058
-227.727	421.851	-0.345	-0.737
-226.713	-200.000	0.118	-0.598
-225.698	261.716	0.218	-0.376
-224.684	-133.805	0.616	0.076
-223.669	800.000	-0.084	0.232
-222.655	-167.814	-0.932	-0.037
-221.640	-40.357	-0.392	-0.203
-220.625	-117.049	0.898	0.163
-219.611	31.126	0.638	-0.545
-218.596	-120.028	-0.426	-0.073
-217.582	228.981	-0.213	0.346
-216.567	491.996	-0.285	0.650
-215.552	154.959	-0.549	-0.751
-214.538	-55.122	-0.619	0.277
-213.523	-85.916	-0.250	-0.077
-212.509	800.000	-0.186	0.692
-211.494	252.572	-0.331	-0.561
-210.479	800.000	0.169	-0.699
-209.465	-200.000	0.031	0.653
-208.450	155.476	0.382	-0.523
-207.436	-119.762	0.112	-0.019
-206.421	-200.000	-0.083	0.490
-205.406	-200.000	-0.158	-0.763
-204.392	12.684	0.281	0.216
-203.377	-127.089	0.753	0.110
-202.363	218.169	0.621	0.985
-201.348	62.848	-0.165	0.164
-200.333	144.073	-0.150	0.200
-199.319	57.652	0.661	-0.642
-198.304	-148.671	0.724	0.059
-197.290	94.174	-0.779	0.879
-196.275	800.000	-0.128	0.491
-195.260	41.520	0.220	0.198
-194.246	-200.000	-0.018	0.463
-193.231	80.666	-0.333	-0.357
-192.217	-21.404	0.657	-0.399
-191.202	-30.641	-0.201	-0.113
-190.187	95.675	0.465	-0.527
-189.173	-181.133	-0.402	-0.008
-188.158	-200.000	0.064	-0.387
-187.144	287.661	0.333	0.599
-186.129	467.976	-0.279	0.622
-185.114	-107.365	-0.262	-0.057
-184.100	-124.016	1.027	0.160
-183.085	-97.238	0.575	-0.149
-182.071	-42.755	0.160	0.081
-181.056	-27.501	-0.532	-0.307
-180.042	-200.000	0.110	-0.946
-179.027	-136.381	0.708	0.082
-178.012	-200.000	0.020	-0.267
-176.998	68.515	0.563	-0.573
-175.983	460.761	-0.099	-0.219
-174.969	17.252	-0.276	-0.217
-173.954	31.978	0.119	-0.102
-172.939	16.838	-0.223	0.175
-171.925	-200.000	0.061	-0.442
-170.910	-23.938	0.387	-0.230
-169.896	45.437	-0.464	-0.426
-168.881	16.192	0.389	0.305
-167.866	349.957	0.130	0.254
-166.852	-14.096	-0.649	0.416
-165.837	208.551	0.391	-0.607
-164.823	-21.429	0.259	-0.157
-163.808	-106.866	0.248	-0.055
-162.793	-48.474	-1.001	-0.478
-161.779	8.548	-0.300	0.224
-160.764	53.496	0.330	-0.315
-159.750	-101.502	-0.883	0.213
-158.735	-45.142	0.803	0.396
-157.720	-81.920	0.462	-0.150
-156.706	198.831	0.243	0.370
-155.691	78.892	0.603	0.640
-154.677	-200.000	0.066	0.395
-153.662	-164.954	0.825	-0.037
-152.647	361.598	-0.068	-0.136
-151.633	800.000	-0.102	0.305
-150.618	-200.000	0.053	0.604
-149.604	-200.000	-0.016	0.093
-148.589	119.597	0.560	0.688
-147.574	-168.788	-0.700	-0.026
-146.560	-200.000	0.028	0.305
-145.545	800.000	-0.388	-1.278
-144.531	86.020	-0.285	-0.312
-143.516	-55.198	0.693	-0.309
-142.502	398.768	0.233	-0.483
-141.487	49.349	-0.146	-0.136
-140.472	-44.470	-0.360	-0.179
-139.458	75.837	-0.153	0.160
-138.443	-46.727	0.206	-0.100
-137.429	800.000	0.110	-0.376
-136.414	680.316	0.279	0.722
-135.399	31.380	-0.145	-0.123
-134.385	773.707	0.212	-0.574
-133.370	800.000	-0.121	-0.375
-132.356	214.349	-0.206	-0.323
-131.341	10.557	0.326	0.246
-130.326	800.000	-0.153	-0.537
-129.312	424.333	-0.379	-0.808
-128.297	-160.937	1.079	-0.056
-127.283	-200.000	-0.006	-0.197
-126.268	115.958	0.463	0.562
-125.253	-1.910	-0.560	0.390
-124.239	-61.140	0.843	-0.353
-123.224	642.518	0.050	-0.126
-122.210	-123.221	-0.530	-0.084
