DTS Sentinel unit serial number:	SN413079Multiplexer serial number:	ORYXHardware model number:	OX4-SRSoftware version number:	ORYX F/W v4.00 Oryx Data Collector v3.7.2.0data status	okinstallation	princeton_trtdifferential loss correction	single-endedforward channel	channel 4reverse channel	N/Adate	2019/09/19time	08:21:35forward acquisition time	60.00reverse acquisition time	0.00gamma	496.2192k internal	0.2340k external	0.2340temperature offset calibration	1.0018default loss term (dB/km)	0.3790temperature slope calibration	1.0000multiplexer offset coefficient	1.0000multiplexer slope coefficient	1.0000fibre end	0.00T internal ref (°C)	20.42T ext. ref 1 (°C)	0.57T ext. ref 2 (°C)	15.99length (m)	temperature (°C)	Stokes	anti-Stokes-747.200	-153.002	0.309	-0.022
-746.185	-49.222	-0.147	0.070
-745.171	-200.000	0.028	-0.196
-744.156	400.373	-0.169	0.355
-743.142	-15.606	-0.267	0.171
-742.127	64.843	0.117	0.119
-741.112	-200.000	-0.017	0.177
-740.098	350.684	0.105	-0.209
-739.083	-56.595	0.354	-0.157
-738.069	-46.967	-0.356	-0.174
-737.054	-81.300	0.147	-0.049
-736.039	76.615	-0.220	-0.234
-735.025	-64.665	-0.146	-0.059
-734.010	-200.000	0.017	0.147
-732.996	-58.586	-0.233	-0.101
-731.981	66.600	0.135	0.137
-730.966	-133.627	-0.331	-0.041
-729.952	156.039	0.085	-0.118
-728.937	-28.055	-0.092	-0.053
-727.923	-16.856	-0.207	-0.131
-726.908	-81.931	-0.141	0.046
-725.894	78.255	0.221	0.236
-724.879	-13.440	0.160	0.104
-723.864	-119.930	0.194	-0.033
-722.850	-77.201	-0.113	-0.039
-721.835	424.375	0.064	-0.138
-720.821	107.009	-0.092	0.109
-719.806	-56.425	0.338	0.151
-718.791	-84.417	-0.312	-0.099
-717.777	800.000	0.032	0.119
-716.762	253.322	-0.209	-0.357
-715.748	214.714	-0.102	-0.162
-714.733	293.500	0.159	-0.291
-713.718	41.529	0.123	0.112
-712.704	-14.369	-0.165	0.106
-711.689	149.769	-0.143	-0.194
-710.675	-200.000	-0.021	-0.182
-709.660	800.000	-0.055	-0.166
-708.645	13.334	-0.237	-0.184
-707.631	79.433	-0.314	-0.338
-706.616	800.000	0.096	-0.286
-705.602	-28.312	-0.234	-0.136
-704.587	-200.000	-0.066	-0.337
-703.572	-25.413	-0.425	-0.251
-702.558	70.901	0.163	-0.169
-701.543	142.864	0.276	0.368
-700.529	95.711	0.169	-0.194
-699.514	665.124	0.142	-0.368
-698.499	800.000	-0.042	0.129
-697.485	800.000	-0.157	0.462
-696.470	-155.647	0.169	-0.011
-695.456	800.000	0.143	-0.582
-694.441	548.791	0.088	0.210
-693.426	800.000	-0.089	-0.337
-692.412	-119.509	-0.211	-0.037
-691.397	63.720	0.073	0.073
-690.383	624.901	-0.167	-0.422
-689.368	-39.816	-0.122	-0.064
-688.354	110.413	0.233	0.280
-687.339	800.000	-0.044	-0.158
-686.324	71.196	0.222	0.230
-685.310	-200.000	0.006	-0.340
-684.295	-200.000	-0.037	0.224
-683.281	-146.755	0.170	-0.015
-682.266	322.718	0.180	-0.343
-681.251	-118.565	-0.592	-0.105
-680.237	800.000	-0.060	-0.231
-679.222	168.362	0.061	0.087
-678.208	-18.770	-0.117	0.073
-677.193	800.000	-0.080	-0.267
-676.178	9.584	0.127	-0.096
-675.164	-97.037	-0.114	-0.030
-674.149	82.253	0.166	-0.180
-673.135	800.000	0.130	-0.369
-672.120	18.402	-0.193	-0.154
-671.105	68.770	-0.195	-0.200
-670.091	-23.054	-0.225	0.135
-669.076	-200.000	0.020	-0.251
-668.062	127.098	0.169	-0.215
-667.047	-200.000	-0.008	0.387
-666.032	-55.999	0.397	-0.177
-665.018	7.374	-0.229	-0.171
-664.003	123.307	-0.074	0.092
-662.989	-105.720	-0.097	0.022
-661.974	-142.978	-0.156	0.015
-660.959	800.000	0.058	-0.242
-659.945	-200.000	0.046	-0.468
-658.930	-155.915	-0.280	-0.018
-657.916	663.174	0.022	0.057
-656.901	800.000	-0.074	0.226
-655.886	-51.754	-0.217	0.101
-654.872	-91.902	0.182	-0.051
-653.857	-200.000	-0.006	-0.267
-652.843	800.000	-0.017	0.070
-651.828	49.260	0.154	0.145
-650.814	-119.152	-0.263	-0.046
-649.799	-117.992	0.088	0.016
-648.784	-178.626	-0.206	-0.005
-647.770	80.355	0.239	0.257
-646.755	242.501	-0.001	0.001
-645.741	-140.634	-0.334	0.035
-644.726	-166.976	0.254	-0.010
-643.711	-200.000	0.046	0.307
-642.697	67.341	0.231	0.235
-641.682	-17.679	-0.227	0.142
-640.668	-141.377	0.410	0.042
-639.653	20.844	-0.123	0.099
-638.638	-200.000	0.032	0.289
-637.624	59.427	0.283	-0.278
-636.609	38.252	-0.235	-0.209
-635.595	483.911	-0.189	-0.429
-634.580	29.150	0.197	0.167
-633.565	-99.577	-0.120	-0.030
-632.551	800.000	0.044	-0.133
-631.536	430.565	-0.102	0.221
-630.522	95.350	-0.157	-0.178
-629.507	800.000	0.015	-0.061
-628.492	-101.573	-0.395	0.096
-627.478	17.349	-0.167	0.132
-626.463	-88.218	-0.180	0.054
-625.449	444.499	-0.199	-0.435
-624.434	368.137	-0.167	0.338
-623.419	538.620	-0.072	-0.171
-622.405	-58.902	0.142	-0.061
-621.390	800.000	0.026	0.094
-620.376	-38.735	-0.156	-0.082
-619.361	-185.599	-0.091	-0.001
-618.346	49.522	-0.336	0.315
-617.332	-200.000	-0.041	0.420
-616.317	-79.740	0.139	0.047
-615.303	7.512	-0.122	-0.091
-614.288	557.104	0.090	-0.217
-613.273	-32.154	-0.099	-0.055
-612.259	20.376	-0.192	-0.155
-611.244	440.416	-0.087	0.190
-610.230	-23.566	0.109	0.065
-609.215	8.001	-0.099	0.074
-608.201	-12.547	-0.138	-0.090
-607.186	250.040	0.143	-0.243
-606.171	-39.080	-0.223	0.117
-605.157	421.340	0.079	0.168
-604.142	72.160	-0.060	-0.062
-603.128	-164.321	0.186	-0.008
-602.113	-186.957	0.248	0.003
-601.098	72.262	-0.105	0.110
-600.084	-80.803	-0.116	0.038
-599.069	436.932	-0.076	-0.166
-598.055	800.000	-0.127	0.494
-597.040	42.553	-0.130	-0.118
-596.025	22.841	-0.201	0.164
-595.011	119.766	0.148	-0.183
-593.996	800.000	0.060	0.208
-592.982	39.934	-0.130	0.116
-591.967	-136.022	0.219	-0.026
-590.952	33.772	-0.288	0.249
-589.938	91.991	-0.020	0.023
-588.923	-200.000	0.057	0.282
-587.909	135.334	0.152	0.197
-586.894	-25.246	-0.187	0.110
-585.879	6.883	-0.274	-0.204
-584.865	-16.123	-0.339	0.215
-583.850	-200.000	0.024	0.180
-582.836	-45.821	-0.092	0.045
-581.821	-200.000	0.007	0.063
-580.806	-70.635	-0.210	0.079
-579.792	800.000	0.073	0.249
-578.777	800.000	0.008	0.033
-577.763	-95.151	-0.176	0.047
-576.748	76.446	-0.161	0.170
-575.733	-41.518	0.038	-0.019
-574.719	332.899	0.079	-0.152
-573.704	-200.000	0.026	-0.127
-572.690	-96.624	0.055	0.014
-571.675	-48.526	-0.244	-0.117
-570.661	26.564	-0.098	0.081
-569.646	-200.000	-0.012	0.187
-568.631	401.819	0.127	-0.267
-567.617	-131.464	-0.135	-0.018
-566.602	800.000	-0.031	-0.127
-565.588	-96.542	-0.224	0.059
-564.573	-6.538	0.133	-0.090
-563.558	-14.723	0.119	-0.076
-562.544	124.196	0.367	-0.459
-561.529	352.682	0.064	-0.126
-560.515	178.922	-0.170	-0.248
-559.500	-200.000	0.039	0.343
-558.485	-200.000	0.024	0.180
-557.471	-98.978	0.062	-0.016
-556.456	-200.000	-0.020	-0.116
-555.442	-200.000	-0.047	0.416
-554.427	800.000	0.132	-0.457
-553.412	388.505	0.155	-0.320
-552.398	-200.000	-0.063	-0.286
-551.383	22.082	0.166	-0.135
-550.369	72.841	0.130	0.135
-549.354	-163.862	-0.539	0.025
-548.339	-7.190	0.361	-0.243
-547.325	-122.286	-0.173	-0.028
-546.310	-200.000	-0.010	0.137
-545.296	-200.000	-0.002	0.069
-544.281	-200.000	0.005	-0.056
-543.266	-56.919	-0.147	-0.065
-542.252	-155.666	0.182	-0.012
-541.237	-42.522	0.339	0.172
-540.223	48.585	-0.237	-0.221
-539.208	800.000	-0.036	-0.111
-538.193	36.571	0.225	0.198
-537.179	-12.892	-0.348	0.225
-536.164	-200.000	0.003	-0.173
-535.150	-98.394	0.327	0.083
-534.135	37.686	0.059	0.053
-533.121	-82.994	0.381	0.122
-532.106	-200.000	0.031	0.303
-531.091	-200.000	0.003	-0.149
-530.077	-135.836	0.051	-0.006
-529.062	117.469	-0.240	-0.293
-528.048	-200.000	-0.023	0.113
-527.033	65.180	0.071	-0.071
-526.018	-162.002	0.107	-0.005
-525.004	-200.000	0.024	0.251
-523.989	-102.027	-0.254	-0.061
-522.975	-44.217	-0.167	0.083
-521.960	9.113	0.179	-0.134
-520.945	722.152	-0.085	-0.224
-519.931	-54.154	0.277	-0.125
-518.916	800.000	0.020	-0.068
-517.902	-17.485	0.292	-0.183
-516.887	-122.812	0.430	0.069
-515.872	-200.000	0.041	-0.400
-514.858	-54.590	-0.189	-0.085
-513.843	-148.624	0.213	-0.017
-512.829	-200.000	-0.033	0.163
-511.814	-23.120	0.198	0.118
-510.799	19.762	-0.145	-0.116
-509.785	338.575	0.141	0.274
-508.770	-57.700	-0.518	-0.225
-507.756	148.591	0.133	0.178
-506.741	-200.000	0.027	-0.223
-505.726	-85.632	0.131	0.040
-504.712	-200.000	0.232	-0.001
-503.697	27.398	0.139	0.116
-502.683	800.000	0.109	-0.392
-501.668	-35.034	0.160	-0.087
-500.653	-19.098	0.140	-0.087
-499.639	-200.000	-0.029	-0.146
-498.624	264.841	0.158	-0.274
-497.610	-55.534	-0.323	-0.144
-496.595	-154.956	0.157	0.010
-495.581	39.909	0.333	0.297
-494.566	-93.080	-0.315	-0.087
-493.551	594.945	-0.126	-0.310
-492.537	273.396	0.079	0.138
-491.522	-73.090	0.353	-0.129
-490.508	-67.023	-0.412	0.161
-489.493	31.985	0.047	0.040
-488.478	-74.176	-0.270	-0.097
-487.464	-37.471	0.027	0.014
-486.449	-200.000	0.032	0.152
-485.435	-10.821	0.276	-0.181
-484.420	-200.000	0.013	-0.182
-483.405	220.757	-0.130	-0.207
-482.391	-151.839	0.137	0.010
-481.376	-18.077	0.049	0.031
-480.362	275.565	-0.112	-0.197
-479.347	-34.797	0.292	-0.158
-478.332	-101.156	-0.133	-0.032
-477.318	-200.000	0.008	0.054
-476.303	13.870	0.173	-0.134
-475.289	-106.958	-0.220	0.048
-474.274	130.320	-0.137	-0.174
-473.259	-168.025	0.206	0.008
-472.245	-9.341	-0.037	-0.024
-471.230	131.940	0.299	0.381
-470.216	213.740	0.199	0.313
-469.201	19.948	-0.103	0.083
-468.186	9.737	0.052	-0.039
-467.172	-82.861	-0.179	0.057
-466.157	800.000	0.068	-0.232
-465.143	622.882	0.095	-0.238
-464.128	-112.428	0.250	-0.050
-463.113	85.449	-0.151	0.164
-462.099	59.700	-0.265	0.259
-461.084	285.057	0.114	0.204
-460.070	78.470	0.104	0.110
-459.055	800.000	-0.136	-0.379
-458.040	78.794	-0.180	0.191
-457.026	310.082	0.074	0.138
-456.011	258.468	0.092	0.157
-454.997	97.549	0.165	-0.188
-453.982	216.019	0.156	-0.246
-452.968	65.389	-0.022	0.022
-451.953	-111.584	0.015	0.003
-450.938	800.000	-0.121	-0.374
-449.924	92.591	-0.273	-0.305
-448.909	-2.732	0.246	0.171
-447.895	-200.000	0.048	-0.279
-446.880	-64.990	-0.042	-0.017
-445.865	-109.357	-0.283	-0.059
-444.851	-40.847	0.189	0.097
-443.836	800.000	-0.098	0.352
-442.822	195.439	-0.083	-0.125
-441.807	-200.000	0.013	0.138
-440.792	-118.441	0.173	-0.030
-439.778	-128.520	0.268	0.038
-438.763	17.002	-0.284	0.223
-437.749	-160.747	0.254	-0.013
-436.734	218.957	-0.071	-0.113
-435.719	-42.012	0.180	0.091
-434.705	139.174	-0.298	0.389
-433.690	-3.367	0.152	0.105
-432.676	-200.000	-0.048	0.247
-431.661	-31.075	0.467	-0.261
-430.646	-87.727	-0.212	-0.063
-429.632	86.914	-0.139	0.152
-428.617	-124.597	0.211	-0.032
-427.603	152.595	-0.155	-0.210
-426.588	-119.300	0.282	0.049
-425.573	14.086	-0.233	-0.180
-424.559	-143.924	-0.367	0.034
-423.544	-143.897	-0.151	0.014
-422.530	-89.425	-0.080	-0.023
-421.515	-60.347	-0.192	-0.081
-420.500	-200.000	-0.045	-0.236
-419.486	-200.000	0.021	0.357
-418.471	800.000	-0.061	0.228
-417.457	112.543	0.059	-0.071
-416.442	-4.635	0.167	-0.114
-415.428	16.850	0.126	-0.099
-414.413	-9.948	-0.232	0.153
-413.398	-8.447	0.112	0.074
-412.384	-88.404	0.130	-0.038
-411.369	89.404	-0.083	0.091
-410.355	-188.747	0.193	0.002
-409.340	328.458	0.203	-0.387
-408.325	-200.000	0.030	-0.278
-407.311	800.000	0.072	-0.209
-406.296	-200.000	-0.003	-0.155
-405.282	372.831	-0.137	0.275
-404.267	170.600	0.129	0.183
-403.252	321.557	0.054	0.102
-402.238	-58.647	-0.123	-0.053
-401.223	-120.682	-0.264	0.044
-400.209	-93.611	0.204	-0.056
-399.194	-82.274	-0.077	-0.025
-398.179	-23.002	0.166	0.099
-397.165	215.844	0.158	-0.248
-396.150	-63.682	-0.344	-0.140
-395.136	-192.883	-0.183	0.002
-394.121	-14.919	0.152	-0.097
-393.106	-200.000	0.059	-0.494
-392.092	101.396	-0.260	0.300
-391.077	-200.000	-0.022	-0.207
-390.063	-113.190	0.134	-0.026
-389.048	-79.464	-0.440	-0.147
-388.033	-8.112	0.360	0.240
-387.019	-118.094	-0.196	-0.035
-386.004	-200.000	0.002	-0.036
-384.990	-86.277	0.237	-0.072
-383.975	-67.082	0.161	-0.063
-382.960	-200.000	0.003	-0.380
-381.946	800.000	-0.012	0.033
-380.931	551.103	-0.105	-0.250
-379.917	124.900	0.048	0.060
-378.902	800.000	0.049	0.134
-377.888	800.000	-0.032	-0.101
-376.873	-79.626	0.182	-0.061
-375.858	122.397	-0.249	-0.307
-374.844	109.644	-0.105	-0.124
-373.829	-200.000	0.008	-0.274
-372.815	-200.000	-0.026	0.264
-371.800	182.455	0.113	0.165
-370.785	-200.000	0.017	0.073
-369.771	-92.972	-0.169	-0.046
-368.756	-51.505	0.381	-0.176
-367.742	-94.854	0.128	-0.034
-366.727	77.191	0.274	0.287
-365.712	-200.000	-0.032	0.221
-364.698	-200.000	-0.020	0.344
-363.683	190.884	-0.199	0.295
-362.669	22.585	0.097	-0.079
-361.654	-66.437	-0.037	-0.015
-360.639	96.713	0.276	-0.312
-359.625	-82.340	-0.131	0.042
-358.610	-200.000	0.008	-0.171
-357.596	79.062	-0.211	-0.223
-356.581	278.842	-0.134	0.236
-355.566	-200.000	0.018	-0.136
-354.552	696.679	0.073	-0.190
-353.537	252.578	-0.168	0.283
-352.523	130.763	0.070	0.089
-351.508	-129.960	-0.264	0.036
-350.493	-200.000	0.037	0.161
-349.479	233.462	-0.205	0.334
-348.464	-200.000	0.020	0.318
-347.450	-99.201	0.224	-0.056
-346.435	-108.157	-0.302	0.065
-345.420	800.000	0.098	-0.337
-344.406	800.000	0.064	0.252
-343.391	-200.000	0.002	0.149
-342.377	-50.236	0.237	-0.111
-341.362	800.000	-0.053	0.169
-340.348	800.000	-0.086	0.254
-339.333	-85.987	0.253	-0.077
-338.318	-158.345	0.210	0.012
-337.304	46.071	-0.319	0.291
-336.289	136.025	-0.161	-0.207
-335.275	-17.593	0.083	0.052
-334.260	45.675	-0.206	-0.188
-333.245	-200.000	-0.033	0.339
-332.231	-192.604	-0.422	-0.004
-331.216	182.288	-0.112	-0.163
-330.202	103.155	-0.099	0.115
-329.187	482.023	-0.063	0.141
-328.172	-200.000	-0.069	-0.445
-327.158	83.286	-0.211	0.226
-326.143	345.473	0.156	0.302
-325.129	-4.654	-0.219	0.149
-324.114	-32.080	0.216	0.119
-323.099	631.743	0.083	-0.206
-322.085	800.000	0.135	-0.413
-321.070	10.108	-0.075	0.056
-320.056	-54.658	0.192	-0.085
-319.041	518.520	-0.159	-0.368
-318.026	-164.662	0.359	-0.016
-317.012	3.387	-0.223	-0.160
-315.997	188.417	0.228	0.336
-314.983	335.417	-0.064	0.122
-313.968	-26.777	0.191	-0.110
-312.953	-16.240	0.285	0.179
-311.939	-81.610	0.242	0.078
-310.924	428.227	-0.164	-0.349
-309.910	-37.625	-0.017	0.009
-308.895	-200.000	0.018	0.350
-307.880	7.121	0.097	0.072
-306.866	-200.000	-0.001	-0.051
-305.851	299.536	0.142	0.258
-304.837	800.000	-0.047	0.174
-303.822	-61.277	-0.125	-0.052
-302.807	-60.885	0.130	-0.054
-301.793	800.000	0.123	-0.452
-300.778	-200.000	0.000	0.170
-299.764	-200.000	-0.093	0.406
-298.749	-106.016	0.115	0.025
-297.735	-200.000	0.005	-0.061
-296.720	187.174	0.028	0.040
-295.705	384.783	-0.151	-0.306
-294.691	-137.641	-0.220	-0.024
-293.676	-53.338	0.116	-0.052
-292.662	-200.000	-0.030	0.279
-291.647	-71.158	-0.296	-0.110
-290.632	-19.330	0.272	0.166
-289.618	-142.795	-0.381	-0.037
-288.603	710.851	0.057	-0.149
-287.589	-94.670	-0.170	0.045
-286.574	47.613	0.161	-0.148
-285.559	-125.680	-0.205	0.031
-284.545	24.632	0.227	-0.185
-283.530	800.000	-0.039	0.163
-282.516	-43.635	0.243	-0.121
-281.501	-3.775	0.101	0.069
-280.486	2.295	-0.147	0.104
-279.472	-135.594	-0.380	-0.045
-278.457	178.387	0.132	-0.190
-277.443	-124.089	-0.109	0.017
-276.428	-85.246	0.080	0.024
-275.413	92.338	0.141	-0.157
-274.399	-37.992	-0.228	0.119
-273.384	-47.828	0.310	-0.148
-272.370	-200.000	-0.014	0.094
-271.355	-14.795	0.167	-0.105
-270.340	800.000	0.035	0.132
-269.326	-129.000	0.294	-0.041
-268.311	-13.175	-0.305	-0.195
-267.297	800.000	0.028	-0.117
-266.282	-41.381	0.205	-0.104
-265.267	-170.278	-0.210	-0.007
-264.253	-200.000	0.004	-0.120
-263.238	-27.510	-0.046	-0.026
-262.224	82.945	-0.206	0.221
-261.209	67.401	0.089	0.090
-260.195	522.483	0.043	-0.100
-259.180	96.248	0.142	0.160
-258.165	-3.375	0.229	0.157
-257.151	-97.786	-0.269	-0.069
-256.136	75.732	-0.263	-0.273
-255.122	-48.675	0.050	0.024
-254.107	67.738	-0.012	0.012
-253.092	-120.787	-0.062	-0.010
-252.078	-125.859	0.157	0.023
-251.063	800.000	0.026	-0.088
-250.049	-200.000	-0.026	-0.205
-249.034	-200.000	-0.018	0.309
-248.019	800.000	-0.052	0.153
-247.005	-110.166	-0.620	0.127
-245.990	3.666	0.114	-0.082
-244.976	54.988	-0.166	-0.158
-243.961	-200.000	0.010	0.201
-242.946	-54.955	-0.135	-0.060
-241.932	-200.000	-0.024	0.223
-240.917	290.740	-0.159	-0.285
-239.903	137.305	0.257	-0.331
-238.888	464.501	0.028	-0.061
-237.873	-115.229	-0.475	0.088
-236.859	100.254	-0.186	0.212
-235.844	800.000	0.039	0.127
-234.830	-108.051	0.274	-0.058
-233.815	611.539	-0.055	-0.134
-232.800	522.803	0.122	0.282
-231.786	-200.000	0.029	0.212
-230.771	115.689	0.109	0.131
-229.757	-95.498	-0.149	-0.039
-228.742	800.000	0.055	0.204
-227.727	-6.120	0.251	0.168
-226.713	184.656	0.076	0.111
-225.698	-32.439	0.246	-0.135
-224.684	-94.478	0.091	0.024
-223.669	38.295	-0.153	0.134
-222.655	-82.803	0.084	-0.027
-221.640	-132.812	-0.267	0.034
-220.625	132.170	0.107	0.136
-219.611	800.000	-0.009	0.024
-218.596	16.563	-0.266	0.206
-217.582	167.136	0.063	0.088
-216.567	207.475	0.171	0.262
-215.552	800.000	0.067	-0.235
-214.538	-69.558	-0.228	-0.086
-213.523	25.958	0.173	-0.141
-212.509	-47.657	0.119	-0.057
-211.494	160.667	-0.016	-0.022
-210.479	60.375	0.167	-0.162
-209.465	-60.082	-0.368	-0.154
-208.450	88.730	0.212	-0.232
-207.436	-200.000	0.010	-0.083
-206.421	-200.000	0.006	-0.207
-205.406	159.053	-0.116	-0.158
-204.392	-37.586	-0.199	0.104
-203.377	-73.853	0.299	-0.107
-202.363	-61.607	0.080	0.033
-201.348	-200.000	-0.029	0.419
-200.333	17.587	0.065	0.051
-199.319	-51.450	0.174	0.080
-198.304	-134.942	0.158	-0.019
-197.290	-158.402	0.087	-0.005
-196.275	-200.000	0.039	-0.313
-195.260	389.417	-0.036	0.073
-194.246	-99.403	-0.056	0.014
-193.231	-144.747	-0.142	-0.013
-192.217	-111.678	0.111	-0.022
-191.202	-126.649	0.290	-0.042
-190.187	190.757	-0.103	-0.151
-189.173	182.826	0.035	-0.051
-188.158	-8.441	0.145	0.096
-187.144	-19.604	-0.201	-0.122
-186.129	-200.000	-0.001	0.023
-185.114	-35.955	0.203	-0.108
-184.100	-200.000	-0.081	-0.419
-183.085	631.808	-0.116	-0.287
-182.071	-106.985	-0.309	-0.067
-181.056	-48.043	0.172	0.082
-180.042	-102.364	-0.104	-0.024
-179.027	800.000	0.094	0.274
-178.012	137.217	-0.047	0.060
-176.998	-83.047	0.191	0.060
-175.983	-129.156	0.405	0.056
-174.969	-200.000	-0.017	0.121
-173.954	-80.771	0.129	-0.042
-172.939	94.927	0.144	0.160
-171.925	235.604	0.167	0.270
-170.910	-200.000	0.106	-0.459
-169.896	-15.183	0.464	0.291
-168.881	177.574	0.205	0.293
-167.866	-149.687	0.317	0.024
-166.852	-129.505	-0.241	0.033
-165.837	125.869	0.052	-0.064
-164.823	245.063	0.079	0.131
-163.808	-71.354	-0.225	-0.083
-162.793	-106.842	-0.106	-0.023
-161.779	-46.554	0.210	-0.101
-160.764	-167.517	-0.261	0.010
-159.750	-200.000	-0.033	0.283
-158.735	306.360	-0.135	-0.246
-157.720	-83.848	-0.203	-0.063
-156.706	-121.063	-0.333	-0.055
-155.691	-200.000	0.014	0.353
-154.677	-123.734	-0.012	0.002
-153.662	45.729	0.175	0.159
-152.647	-119.882	-0.375	0.063
-151.633	-174.842	-0.215	-0.006
-150.618	800.000	0.027	0.113
-149.604	-153.987	-0.307	0.020
-148.589	-65.653	0.147	-0.058
-147.574	580.054	0.130	-0.311
-146.560	-36.597	0.030	-0.016
-145.545	-89.200	-0.371	0.107
-144.531	-114.116	0.089	-0.017
-143.516	96.453	0.254	0.284
-142.502	-47.881	-0.111	0.053
-141.487	-200.000	0.007	0.307
-140.472	63.049	-0.250	0.245
-139.458	-68.564	-0.423	-0.161
-138.443	-175.889	0.257	-0.007
-137.429	-200.000	0.028	0.211
-136.414	800.000	-0.039	0.136
-135.399	15.411	0.047	0.036
-134.385	216.917	0.243	0.379
-133.370	-46.493	-0.495	-0.238
-132.356	-31.832	0.195	0.107
-131.341	-200.000	0.017	0.146
-130.326	92.684	-0.142	0.157
-129.312	-200.000	0.031	0.154
-128.297	211.514	-0.149	-0.230
-127.283	27.241	0.120	0.098
-126.268	69.423	-0.288	0.290
-125.253	-200.000	-0.019	-0.122
-124.239	-49.219	0.186	-0.087
-123.224	130.153	0.155	-0.194
-122.210	-200.000	0.025	0.310
-121.195	-92.821	0.450	-0.123
