DTS Sentinel unit serial number:	SN413079Multiplexer serial number:	ORYXHardware model number:	OX4-SRSoftware version number:	ORYX F/W v4.00 Oryx Data Collector v3.7.2.0data status	okinstallation	princeton_trtdifferential loss correction	single-endedforward channel	channel 4reverse channel	N/Adate	2019/09/15time	04:05:35forward acquisition time	60.00reverse acquisition time	0.00gamma	496.2192k internal	0.2309k external	0.2309temperature offset calibration	1.0031default loss term (dB/km)	0.3790temperature slope calibration	1.0000multiplexer offset coefficient	1.0000multiplexer slope coefficient	1.0000fibre end	0.00T internal ref (°C)	30.94T ext. ref 1 (°C)	4.64T ext. ref 2 (°C)	25.84length (m)	temperature (°C)	Stokes	anti-Stokes-747.200	-86.762	0.231	0.072
-746.185	52.543	-0.131	0.127
-745.171	-200.000	-0.025	-0.355
-744.156	-200.000	0.012	-0.256
-743.142	392.563	-0.089	-0.187
-742.127	190.809	0.130	-0.199
-741.112	-164.902	-0.166	-0.008
-740.098	-81.605	0.179	-0.060
-739.083	800.000	-0.020	0.089
-738.069	-109.923	0.117	0.025
-737.054	-200.000	0.032	0.171
-736.039	-200.000	-0.069	0.343
-735.025	-200.000	0.087	0.658
-734.010	-200.000	-0.042	-0.199
-732.996	83.470	-0.115	-0.128
-731.981	173.691	-0.050	0.073
-730.966	-81.051	-0.386	0.130
-729.952	55.284	-0.094	-0.092
-728.937	800.000	-0.134	-0.408
-727.923	-87.874	-0.333	-0.102
-726.908	43.560	-0.271	-0.252
-725.894	800.000	-0.078	-0.277
-724.879	800.000	0.054	-0.179
-723.864	-117.628	-0.463	-0.085
-722.850	171.386	-0.139	0.203
-721.835	17.932	0.201	-0.163
-720.821	696.653	0.195	-0.520
-719.806	49.574	-0.292	-0.279
-718.791	-58.285	-0.311	-0.137
-717.777	-124.677	0.131	-0.021
-716.762	49.957	-0.135	-0.129
-715.748	126.057	-0.197	0.253
-714.733	-86.445	0.160	-0.050
-713.718	800.000	0.037	-0.109
-712.704	-200.000	-0.016	-0.189
-711.689	-142.371	0.111	0.011
-710.675	167.794	0.077	-0.111
-709.660	-38.153	-0.056	0.030
-708.645	-188.487	-0.433	-0.005
-707.631	800.000	-0.050	0.215
-706.616	116.280	0.205	0.255
-705.602	-68.180	0.181	-0.071
-704.587	-87.602	0.279	0.086
-703.572	-31.501	-0.067	-0.038
-702.558	300.025	-0.115	0.214
-701.543	-200.000	-0.037	0.234
-700.529	-73.766	0.219	-0.081
-699.514	376.545	-0.102	0.211
-698.499	-200.000	0.017	-0.214
-697.485	45.032	-0.154	0.143
-696.470	-34.742	0.191	0.106
-695.456	94.623	0.132	-0.153
-694.441	8.918	-0.160	0.122
-693.426	763.520	-0.071	0.195
-692.412	186.121	-0.210	0.317
-691.397	171.131	-0.153	-0.222
-690.383	136.682	0.147	-0.195
-689.368	213.298	0.119	-0.191
-688.354	365.333	0.124	0.253
-687.339	-200.000	0.025	0.208
-686.324	800.000	0.032	-0.133
-685.310	181.095	0.091	-0.136
-684.295	-133.335	-0.177	0.023
-683.281	-200.000	-0.041	0.255
-682.266	800.000	0.125	-0.362
-681.251	-200.000	-0.014	-0.111
-680.237	-35.313	0.187	-0.103
-679.222	-151.425	-0.246	0.019
-678.208	-200.000	-0.062	0.369
-677.193	-200.000	0.031	-0.149
-676.178	-81.277	-0.349	-0.117
-675.164	232.233	0.042	-0.070
-674.149	-200.000	-0.004	-0.241
-673.135	204.855	-0.140	-0.220
-672.120	134.060	0.103	0.136
-671.105	-127.975	0.437	-0.064
-670.091	-46.363	0.031	0.015
-669.076	0.953	-0.179	-0.130
-668.062	-169.753	0.401	-0.015
-667.047	-177.341	-0.112	-0.003
-666.032	-70.933	-0.180	0.069
-665.018	-200.000	0.001	0.165
-664.003	291.109	0.072	-0.133
-662.989	-144.477	-0.220	0.021
-661.974	-200.000	-0.017	-0.132
-660.959	119.860	-0.269	-0.337
-659.945	20.669	-0.158	0.130
-658.930	104.367	0.289	-0.345
-657.916	193.774	0.020	-0.030
-656.901	800.000	-0.037	0.136
-655.886	-59.580	-0.362	-0.157
-654.872	16.595	0.182	0.146
-653.857	498.450	-0.038	0.089
-652.843	46.009	0.091	-0.085
-651.828	800.000	0.053	0.150
-650.814	-119.521	-0.079	-0.014
-649.799	343.975	0.145	0.287
-648.784	82.117	0.242	-0.265
-647.770	-80.986	-0.598	0.201
-646.755	538.904	-0.024	0.057
-645.741	21.001	0.184	-0.151
-644.726	-94.819	0.330	0.090
-643.711	135.607	-0.258	-0.339
-642.697	800.000	0.109	-0.376
-641.682	-200.000	0.055	-0.291
-640.668	-200.000	-0.033	-0.233
-639.653	-200.000	0.011	0.102
-638.638	-48.349	-0.228	0.111
-637.624	-64.394	-0.271	-0.112
-636.609	800.000	0.174	0.498
-635.595	-34.839	0.278	-0.154
-634.580	2.746	-0.192	-0.141
-633.565	29.949	0.224	0.193
-632.551	347.282	-0.139	0.276
-631.536	-87.770	0.262	-0.080
-630.522	-17.205	-0.136	-0.087
-629.507	-200.000	-0.019	0.133
-628.492	69.824	-0.086	0.089
-627.478	-121.580	-0.463	0.078
-626.463	-200.000	0.020	-0.130
-625.449	44.085	-0.097	0.090
-624.434	-69.986	-0.291	-0.112
-623.419	-118.350	0.257	0.046
-622.405	-108.148	-0.277	0.061
-621.390	-85.934	0.147	-0.046
-620.376	800.000	0.060	-0.210
-619.361	777.229	-0.049	-0.135
-618.346	-101.339	-0.139	-0.034
-617.332	-33.603	0.113	-0.063
-616.317	-35.528	-0.279	0.153
-615.303	800.000	-0.016	0.046
-614.288	-47.534	0.228	-0.112
-613.273	-200.000	0.032	-0.157
-612.259	-200.000	-0.080	0.365
-611.244	-92.055	-0.057	0.016
-610.230	-33.796	0.121	-0.068
-609.215	-11.284	0.199	-0.132
-608.201	-163.248	0.220	0.011
-607.186	243.420	0.124	0.209
-606.171	-99.549	-0.121	0.031
-605.157	226.016	-0.120	-0.196
-604.142	-168.183	0.121	0.005
-603.128	-132.320	-0.302	-0.039
-602.113	-113.904	0.183	0.036
-601.098	-74.283	-0.280	-0.102
-600.084	64.700	-0.082	-0.084
-599.069	-97.779	-0.066	0.017
-598.055	-141.068	-0.202	-0.021
-597.040	68.418	0.126	-0.130
-596.025	-200.000	0.024	0.309
-595.011	226.042	-0.233	-0.382
-593.996	-200.000	-0.004	-0.093
-592.982	34.164	-0.219	-0.193
-591.967	1.993	0.206	0.150
-590.952	-79.582	-0.291	0.099
-589.938	-25.998	-0.167	0.099
-588.923	800.000	-0.114	0.442
-587.909	46.407	0.187	0.176
-586.894	-19.991	-0.221	-0.138
-585.879	26.136	-0.066	0.056
-584.865	-200.000	-0.042	0.506
-583.850	654.985	-0.090	-0.233
-582.836	33.845	0.195	0.171
-581.821	-159.394	-0.257	-0.015
-580.806	164.886	0.141	-0.201
-579.792	779.734	0.071	-0.196
-578.777	588.008	-0.028	0.071
-577.763	166.007	0.241	0.344
-576.748	-200.000	0.034	0.196
-575.733	34.760	0.124	-0.110
-574.719	-98.351	0.097	-0.025
-573.704	-200.000	0.010	-0.212
-572.690	-200.000	-0.031	0.265
-571.675	800.000	-0.099	0.281
-570.661	800.000	0.055	0.221
-569.646	-200.000	0.069	0.426
-568.631	214.732	0.122	0.194
-567.617	179.631	-0.185	-0.274
-566.602	57.010	-0.196	-0.193
-565.588	-82.296	0.053	0.017
-564.573	-99.166	-0.281	-0.072
-563.558	118.631	0.112	0.139
-562.544	-89.358	0.376	0.112
-561.529	191.236	0.255	0.388
-560.515	-200.000	0.000	-0.105
-559.500	-145.014	-0.208	-0.019
-558.485	-81.837	0.320	0.106
-557.471	-99.567	-0.195	0.050
-556.456	28.796	-0.196	0.167
-555.442	543.290	0.062	-0.148
-554.427	-91.104	-0.300	-0.087
-553.412	800.000	0.049	-0.146
-552.398	-82.805	-0.025	0.008
-551.383	800.000	-0.097	0.271
-550.369	-146.023	0.178	-0.016
-549.354	38.685	0.236	0.212
-548.339	-200.000	0.006	-0.349
-547.325	80.194	-0.252	0.273
-546.310	-200.000	-0.009	-0.150
-545.296	-93.525	-0.256	-0.071
-544.281	152.445	-0.130	0.180
-543.266	-80.314	0.106	0.036
-542.252	-2.950	0.117	-0.082
-541.237	273.463	-0.190	0.339
-540.223	74.762	-0.142	0.151
-539.208	-200.000	0.020	0.279
-538.193	800.000	0.118	-0.408
-537.179	150.142	0.171	-0.234
-536.164	-200.000	-0.030	-0.271
-535.150	273.620	0.081	0.145
-534.135	-52.792	-0.090	-0.042
-533.121	142.068	-0.183	0.245
-532.106	513.405	-0.087	0.205
-531.091	-50.615	-0.392	-0.186
-530.077	155.117	-0.033	0.046
-529.062	-27.364	-0.194	-0.114
-528.048	-200.000	0.036	0.163
-527.033	552.702	-0.098	-0.238
-526.018	-200.000	0.022	-0.179
-525.004	800.000	-0.010	-0.037
-523.989	-77.391	0.410	-0.143
-522.975	800.000	0.072	0.259
-521.960	72.873	-0.089	0.094
-520.945	-200.000	0.015	-0.303
-519.931	353.474	0.133	-0.265
-518.916	-195.473	-0.138	-0.001
-517.902	-200.000	-0.035	-0.389
-516.887	-108.294	0.164	0.036
-515.872	49.106	-0.186	-0.176
-514.858	357.735	-0.068	-0.136
-513.843	-173.252	-0.236	-0.007
-512.829	-19.298	-0.255	-0.159
-511.814	-59.484	-0.096	0.042
-510.799	-47.974	0.185	-0.090
-509.785	-128.976	0.130	-0.018
-508.770	-21.228	0.120	0.074
-507.756	-51.331	0.272	0.128
-506.741	800.000	0.095	-0.274
-505.726	52.998	0.201	-0.194
-504.712	-200.000	0.010	0.088
-503.697	-91.863	-0.129	-0.037
-502.683	-200.000	-0.011	-0.161
-501.668	-195.145	0.215	0.002
-500.653	-129.736	-0.083	-0.012
-499.639	-96.102	-0.121	-0.032
-498.624	-74.706	-0.089	0.032
-497.610	-155.753	-0.249	0.016
-496.595	45.176	-0.103	0.095
-495.581	475.046	-0.099	0.224
-494.566	800.000	-0.065	-0.212
-493.551	258.275	-0.173	0.299
-492.537	-36.965	0.135	0.073
-491.522	31.936	0.248	-0.215
-490.508	800.000	0.014	-0.042
-489.493	100.319	0.106	0.124
-488.478	639.208	0.070	-0.179
-487.464	491.944	-0.091	0.209
-486.449	-42.183	0.361	0.185
-485.435	-200.000	-0.026	0.135
-484.420	-182.423	0.095	-0.002
-483.405	-77.751	-0.156	0.054
-482.391	-200.000	0.002	-0.139
-481.376	800.000	-0.068	-0.263
-480.362	360.213	0.033	-0.066
-479.347	800.000	0.042	-0.131
-478.332	348.573	0.142	-0.281
-477.318	6.339	-0.127	-0.095
-476.303	17.681	-0.093	-0.074
-475.289	800.000	-0.041	0.123
-474.274	800.000	-0.050	-0.165
-473.259	-85.614	-0.149	-0.047
-472.245	-31.294	0.050	0.028
-471.230	-102.073	-0.326	0.079
-470.216	102.328	0.234	-0.275
-469.201	731.401	-0.074	-0.198
-468.186	100.530	0.110	-0.129
-467.172	-153.391	0.059	-0.004
-466.157	4.312	-0.196	-0.144
-465.143	780.521	0.084	-0.231
-464.128	-135.992	0.483	-0.057
-463.113	800.000	-0.021	0.084
-462.099	233.727	-0.096	0.159
-461.084	24.204	0.265	0.220
-460.070	28.523	-0.251	0.213
-459.055	147.833	-0.113	-0.154
-458.040	21.906	0.327	-0.268
-457.026	-200.000	-0.065	0.341
-456.011	-48.607	-0.265	0.128
-454.997	800.000	0.039	0.130
-453.982	-200.000	0.066	-0.598
-452.968	-167.654	-0.231	0.009
-451.953	-71.917	-0.099	0.037
-450.938	378.640	-0.191	0.393
-449.924	-49.092	0.124	-0.060
-448.909	356.509	0.161	-0.322
-447.895	297.004	-0.069	-0.127
-446.880	37.080	-0.089	0.079
-445.865	-27.297	0.156	0.091
-444.851	-69.381	-0.198	-0.076
-443.836	-200.000	-0.015	-0.145
-442.822	106.091	-0.096	0.114
-441.807	-32.027	-0.194	-0.109
-440.792	202.951	0.092	0.143
-439.778	-26.235	0.279	0.164
-438.763	-138.170	0.296	0.033
-437.749	-26.387	0.157	0.092
-436.734	5.570	-0.185	-0.137
-435.719	-200.000	-0.392	0.000
-434.705	-8.815	0.271	0.182
-433.690	-118.865	0.198	0.035
-432.676	-102.336	-0.191	0.046
-431.661	-200.000	0.011	0.299
-430.646	-46.741	0.289	-0.142
-429.632	-200.000	-0.001	-0.037
-428.617	22.600	0.221	-0.181
-427.603	436.382	-0.089	0.193
-426.588	127.624	0.206	-0.263
-425.573	-2.759	0.152	0.106
-424.559	-200.000	-0.005	-0.343
-423.544	-113.468	0.216	0.042
-422.530	103.379	0.237	0.278
-421.515	-32.973	-0.070	-0.039
-420.500	181.425	0.082	-0.121
-419.486	164.775	-0.178	-0.252
-418.471	194.114	0.106	0.160
-417.457	113.531	-0.222	0.271
-416.442	-200.000	0.006	-0.083
-415.428	-200.000	0.011	0.181
-414.413	-164.981	-0.093	-0.004
-413.398	-117.319	0.369	-0.067
-412.384	5.856	0.228	0.169
-411.369	22.742	0.296	-0.243
-410.355	-200.000	0.025	-0.135
-409.340	-88.455	0.231	-0.069
-408.325	800.000	0.062	-0.202
-407.311	-109.596	0.080	0.017
-406.296	-135.167	0.162	0.020
-405.282	378.367	-0.109	0.223
-404.267	3.989	-0.151	0.111
-403.252	-54.584	-0.377	0.171
-402.238	64.211	0.232	0.234
-401.223	32.195	-0.163	-0.141
-400.209	-200.000	-0.014	-0.163
-399.194	34.700	0.331	-0.290
-398.179	172.998	-0.058	0.083
-397.165	488.096	0.045	0.102
-396.150	30.440	0.113	-0.096
-395.136	-148.889	-0.183	-0.015
-394.121	596.049	-0.045	-0.112
-393.106	297.750	0.050	-0.091
-392.092	-130.545	0.215	0.029
-391.077	-34.826	0.274	0.150
-390.063	176.037	0.238	-0.346
-389.048	-33.508	0.119	-0.066
-388.033	-20.035	-0.242	-0.149
-387.019	124.786	-0.151	0.190
-386.004	8.055	0.045	0.034
-384.990	800.000	0.044	-0.157
-383.975	55.847	-0.154	0.149
-382.960	-84.803	0.164	0.052
-381.946	284.101	-0.077	-0.138
-380.931	-200.000	-0.001	-0.308
-379.917	-200.000	-0.008	0.459
-378.902	800.000	0.031	-0.095
-377.888	-108.045	-0.283	-0.062
-376.873	358.511	-0.142	-0.284
-375.858	-16.238	-0.031	-0.019
-374.844	-137.926	0.159	-0.018
-373.829	-144.350	0.339	-0.032
-372.815	37.244	0.420	-0.373
-371.800	-115.481	-0.221	0.042
-370.785	49.630	-0.068	0.064
-369.771	38.086	-0.028	0.025
-368.756	224.989	-0.014	0.022
-367.742	752.414	-0.109	-0.295
-366.727	233.218	0.060	0.098
-365.712	122.030	-0.092	0.115
-364.698	38.286	-0.376	-0.335
-363.683	581.943	-0.086	-0.211
-362.669	15.455	0.332	0.261
-361.654	130.228	0.165	-0.212
-360.639	-136.661	-0.231	0.027
-359.625	-53.575	-0.124	0.057
-358.610	-134.797	0.476	-0.058
-357.596	-200.000	0.042	0.249
-356.581	-115.169	-0.156	0.030
-355.566	-200.000	0.008	0.108
-354.552	9.668	-0.138	0.105
-353.537	-200.000	0.019	-0.410
-352.523	143.530	0.128	-0.171
-351.508	-125.352	0.397	-0.061
-350.493	-200.000	0.027	0.365
-349.479	49.329	0.040	-0.038
-348.464	82.763	0.212	-0.230
-347.450	-200.000	-0.012	-0.366
-346.435	800.000	-0.084	0.307
-345.420	12.409	-0.157	0.121
-344.406	-5.724	0.091	0.062
-343.391	-92.099	-0.136	-0.038
-342.377	143.093	-0.022	0.030
-341.362	-85.593	-0.074	0.023
-340.348	-200.000	0.044	0.231
-339.333	-130.494	0.487	-0.066
-338.318	-200.000	0.012	-0.126
-337.304	218.811	-0.074	-0.119
-336.289	230.985	-0.076	-0.124
-335.275	113.565	-0.188	-0.228
-334.260	-47.404	0.176	-0.086
-333.245	73.547	0.051	0.053
-332.231	229.827	-0.083	-0.135
-331.216	-160.752	-0.179	0.009
-330.202	-88.127	-0.274	0.082
-329.187	-11.710	-0.271	0.178
-328.172	223.065	0.077	0.124
-327.158	-43.302	-0.388	0.196
-326.143	80.216	-0.239	-0.257
-325.129	318.160	0.124	-0.234
-324.114	64.260	0.183	0.184
-323.099	45.435	-0.139	0.128
-322.085	205.569	-0.104	0.161
-321.070	283.151	0.131	0.235
-320.056	-65.427	-0.089	-0.036
-319.041	47.555	0.295	0.275
-318.026	146.633	0.063	-0.084
-317.012	-144.313	-0.139	0.013
-315.997	-162.748	-0.373	0.018
-314.983	222.854	-0.124	0.200
-313.968	192.322	-0.204	0.308
-312.953	238.039	0.155	-0.257
-311.939	800.000	0.092	0.288
-310.924	-182.429	0.120	-0.002
-309.910	-200.000	-0.016	0.176
-308.895	156.072	0.170	-0.234
-307.880	-94.244	-0.171	-0.047
-306.866	79.772	-0.201	0.215
-305.851	800.000	0.086	-0.262
-304.837	-133.500	-0.259	-0.032
-303.822	-72.352	-0.216	-0.080
-302.807	-160.400	0.144	0.008
-301.793	-200.000	-0.008	-0.202
-300.778	32.221	-0.292	-0.252
-299.764	18.998	-0.067	0.054
-298.749	189.445	0.104	0.155
-297.735	18.997	0.121	0.097
-296.720	-22.914	-0.191	0.115
-295.705	-136.896	-0.132	-0.015
-294.691	-83.194	0.302	-0.097
-293.676	226.802	0.141	0.229
-292.662	170.082	0.288	0.412
-291.647	-52.466	-0.192	-0.089
-290.632	-200.000	-0.054	0.326
-289.618	-70.372	0.026	0.010
-288.603	-162.291	-0.319	-0.016
-287.589	147.141	-0.293	-0.394
-286.574	-200.000	0.002	0.209
-285.559	691.928	0.103	-0.269
-284.545	-109.101	0.294	0.062
-283.530	800.000	0.081	-0.255
-282.516	92.929	0.198	0.224
-281.501	-200.000	-0.015	0.130
-280.486	-33.735	0.145	-0.080
-279.472	800.000	0.096	0.368
-278.457	-63.852	-0.097	-0.040
-277.443	-194.190	0.108	-0.001
-276.428	800.000	0.032	-0.109
-275.413	481.144	-0.109	-0.247
-274.399	318.183	-0.034	0.065
-273.384	256.346	0.162	-0.277
-272.370	290.347	-0.151	0.273
-271.355	307.513	0.097	-0.180
-270.340	-61.508	0.347	0.146
-269.326	15.228	0.088	0.069
-268.311	95.766	-0.119	0.136
-267.297	-200.000	0.014	-0.246
-266.282	42.615	-0.197	0.179
-265.267	126.181	0.172	0.217
-264.253	800.000	0.048	0.189
-263.238	102.435	0.163	0.189
-262.224	-200.000	0.007	0.248
-261.209	-200.000	0.007	0.358
-260.195	-5.852	-0.102	0.069
-259.180	3.284	0.333	0.242
-258.165	-19.316	-0.164	0.102
-257.151	47.440	-0.111	0.103
-256.136	-151.589	-0.157	-0.012
-255.122	800.000	0.185	-0.528
-254.107	-200.000	-0.059	-0.352
-253.092	-81.454	-0.453	-0.149
-252.078	-54.101	0.147	0.067
-251.063	-200.000	-0.028	-0.183
-250.049	-66.139	0.271	-0.108
-249.034	-33.465	-0.244	0.134
-248.019	-96.207	-0.192	0.051
-247.005	800.000	-0.053	0.222
-245.990	-200.000	-0.012	0.090
-244.976	307.255	-0.057	0.105
-243.961	-157.915	0.179	0.011
-242.946	362.820	-0.059	-0.118
-241.932	-103.297	0.086	0.020
-240.917	-12.166	0.164	0.107
-239.903	800.000	-0.122	-0.381
-238.888	-44.607	-0.103	0.051
-237.873	70.964	0.125	-0.129
-236.859	-170.041	0.138	-0.005
-235.844	-200.000	-0.026	-0.140
-234.830	522.134	0.022	0.052
-233.815	86.830	-0.155	0.171
-232.800	-131.066	-0.182	0.024
-231.786	-69.076	0.138	0.053
-230.771	-91.749	0.244	-0.069
-229.757	-68.462	-0.215	0.083
-228.742	103.454	-0.201	0.234
-227.727	-200.000	0.043	0.406
-226.713	-56.321	0.150	-0.066
-225.698	-54.392	0.220	-0.099
-224.684	-160.760	-0.230	-0.012
-223.669	-132.043	0.252	-0.033
-222.655	-43.682	-0.106	-0.053
-221.640	-200.000	-0.064	0.305
-220.625	216.579	0.090	0.143
-219.611	-85.493	0.249	-0.077
-218.596	372.818	-0.021	0.043
-217.582	43.908	0.164	0.150
-216.567	189.031	-0.070	-0.105
-215.552	-11.857	-0.364	0.237
-214.538	126.939	-0.197	0.249
-213.523	-200.000	0.232	0.000
-212.509	-190.160	0.080	-0.001
-211.494	800.000	0.024	-0.075
-210.479	-165.771	0.124	-0.005
-209.465	48.905	-0.078	-0.073
-208.450	-121.976	0.138	-0.023
-207.436	316.478	0.069	-0.129
-206.421	-22.793	0.311	0.187
-205.406	-3.117	0.038	0.027
-204.392	-131.094	-0.250	0.033
-203.377	231.163	0.066	-0.108
-202.363	-200.000	0.020	-0.128
-201.348	-200.000	0.026	-0.398
-200.333	-200.000	0.041	0.274
-199.319	-8.083	0.067	-0.045
-198.304	56.129	-0.331	0.320
-197.290	252.647	0.102	-0.173
-196.275	-22.558	0.348	0.209
-195.260	-90.962	-0.236	0.068
-194.246	800.000	-0.033	-0.109
-193.231	-78.261	0.340	-0.116
-192.217	-5.706	-0.030	-0.021
-191.202	-142.503	0.334	0.033
-190.187	-75.357	0.240	-0.085
-189.173	109.604	-0.137	0.163
-188.158	-200.000	-0.023	0.136
-187.144	-125.185	0.376	-0.057
-186.129	-50.444	-0.350	-0.164
-185.114	-200.000	0.043	-0.310
-184.100	-200.000	0.015	0.272
-183.085	38.093	0.289	0.256
-182.071	-200.000	-0.025	0.157
-181.056	800.000	-0.066	0.238
-180.042	341.066	-0.073	-0.141
-179.027	41.918	0.068	0.061
-178.012	-36.833	-0.215	-0.115
-176.998	-28.521	-0.471	-0.270
-175.983	-200.000	-0.029	-0.200
-174.969	39.355	-0.141	0.125
-173.954	-200.000	-0.012	-0.091
-172.939	-87.436	0.198	0.059
-171.925	-9.425	0.194	0.129
-170.910	-122.965	-0.194	-0.031
-169.896	-8.257	-0.010	0.007
-168.881	-111.540	-0.212	-0.043
-167.866	800.000	-0.065	0.202
-166.852	800.000	0.096	-0.319
-165.837	-124.645	0.076	-0.012
-164.823	-162.194	0.322	-0.016
-163.808	39.127	-0.226	-0.201
-162.793	54.125	-0.103	-0.098
-161.779	138.040	-0.060	0.078
-160.764	-74.652	-0.276	-0.098
-159.750	-200.000	0.043	-0.196
-158.735	-43.238	-0.260	-0.131
-157.720	-200.000	-0.017	-0.205
-156.706	-200.000	-0.033	0.497
-155.691	-103.259	0.101	0.024
-154.677	-69.972	0.309	0.117
-153.662	90.591	0.116	0.129
-152.647	121.715	-0.191	-0.236
-151.633	273.876	-0.110	-0.194
-150.618	418.050	0.078	0.166
-149.604	-108.615	-0.082	-0.017
-148.589	1.088	-0.104	-0.074
-147.574	-200.000	-0.011	0.416
-146.560	260.157	0.152	-0.261
-145.545	87.197	0.091	0.100
-144.531	387.074	0.047	0.096
-143.516	-200.000	0.029	-0.375
-142.502	800.000	0.072	-0.254
-141.487	590.585	0.110	-0.270
-140.472	-200.000	-0.038	-0.214
-139.458	800.000	-0.077	-0.258
-138.443	35.990	-0.079	0.069
-137.429	99.266	-0.146	0.167
-136.414	-150.935	-0.490	-0.037
-135.399	-77.279	0.369	0.127
-134.385	-87.110	-0.178	0.054
-133.370	-110.909	0.202	0.041
-132.356	-200.000	0.017	0.449
-131.341	-108.091	0.092	0.020
-130.326	632.549	0.069	-0.174
-129.312	36.162	-0.199	-0.174
-128.297	-68.968	0.093	-0.036
-127.283	-200.000	0.045	-0.227
-126.268	-82.527	-0.268	-0.086
-125.253	106.543	0.164	0.193
-124.239	-45.463	-0.085	0.042
-123.224	-87.138	0.234	-0.071
-122.210	-4.760	-0.283	0.194
