DTS Sentinel unit serial number:	SN413079Multiplexer serial number:	ORYXHardware model number:	OX4-SRSoftware version number:	ORYX F/W v4.00 Oryx Data Collector v3.7.2.0data status	okinstallation	princeton_trtdifferential loss correction	single-endedforward channel	channel 4reverse channel	N/Adate	2019/09/16time	22:21:35forward acquisition time	60.00reverse acquisition time	0.00gamma	496.2192k internal	0.2313k external	0.2313temperature offset calibration	0.9967default loss term (dB/km)	0.3790temperature slope calibration	1.0000multiplexer offset coefficient	1.0000multiplexer slope coefficient	1.0000fibre end	0.00T internal ref (°C)	30.94T ext. ref 1 (°C)	0.08T ext. ref 2 (°C)	24.69length (m)	temperature (°C)	Stokes	anti-Stokes-747.200	800.000	-0.059	0.192
-746.185	86.479	-0.058	-0.065
-745.171	89.820	0.095	0.107
-744.156	800.000	0.075	0.248
-743.142	240.557	-0.169	0.285
-742.127	-2.394	-0.102	0.072
-741.112	-16.303	0.145	0.093
-740.098	75.568	-0.217	0.232
-739.083	-73.237	-0.232	0.086
-738.069	800.000	-0.054	-0.176
-737.054	800.000	-0.066	0.254
-736.039	-96.249	-0.097	0.026
-735.025	-125.343	-0.117	-0.018
-734.010	160.872	-0.202	-0.287
-732.996	35.613	-0.118	0.105
-731.981	-200.000	0.041	-0.233
-730.966	372.987	0.145	0.300
-729.952	-121.971	0.288	0.048
-728.937	-200.000	-0.044	-0.289
-727.923	-200.000	0.048	0.241
-726.908	7.166	-0.353	0.267
-725.894	800.000	-0.073	-0.273
-724.879	205.666	-0.089	0.140
-723.864	386.482	0.188	0.394
-722.850	800.000	0.078	0.299
-721.835	780.477	-0.033	0.090
-720.821	115.506	0.179	-0.221
-719.806	-1.082	0.164	-0.118
-718.791	-42.337	0.091	0.047
-717.777	480.115	0.096	-0.221
-716.762	-15.211	-0.042	-0.027
-715.748	-200.000	0.030	-0.303
-714.733	-200.000	-0.023	0.172
-713.718	254.304	-0.062	0.108
-712.704	22.759	-0.199	0.165
-711.689	-200.000	0.288	-0.001
-710.675	-54.321	0.061	-0.028
-709.660	199.072	0.120	0.186
-708.645	53.939	-0.276	-0.269
-707.631	-188.501	-0.072	0.001
-706.616	-115.388	-0.106	-0.020
-705.602	81.688	-0.136	-0.149
-704.587	140.875	-0.228	0.305
-703.572	147.643	-0.206	0.282
-702.558	-200.000	-0.012	0.141
-701.543	-34.770	-0.150	-0.083
-700.529	-39.557	0.164	-0.087
-699.514	139.368	-0.156	-0.207
-698.499	302.606	-0.134	0.251
-697.485	-89.880	0.366	-0.108
-696.470	-105.475	0.175	0.040
-695.456	181.933	0.072	-0.108
-694.441	-200.000	0.007	0.070
-693.426	17.075	-0.191	0.153
-692.412	-121.383	-0.339	0.057
-691.397	-104.015	0.264	0.062
-690.383	150.006	-0.121	0.166
-689.368	78.214	0.103	-0.111
-688.354	-35.093	0.283	-0.156
-687.339	37.181	0.310	0.277
-686.324	-62.994	-0.276	-0.116
-685.310	-200.000	0.030	0.159
-684.295	550.221	-0.143	-0.348
-683.281	266.963	-0.178	-0.315
-682.266	-87.546	-0.242	0.074
-681.251	-103.753	0.227	0.054
-680.237	-200.000	0.045	0.392
-679.222	800.000	-0.039	0.120
-678.208	-102.111	0.385	0.094
-677.193	-200.000	-0.013	-0.176
-676.178	-88.878	0.382	-0.115
-675.164	-125.103	-0.349	0.054
-674.149	-96.238	-0.380	-0.102
-673.135	-89.969	-0.455	-0.134
-672.120	-108.336	0.044	0.010
-671.105	61.782	-0.210	-0.211
-670.091	-100.622	-0.165	-0.041
-669.076	-119.055	0.188	-0.033
-668.062	203.281	-0.040	-0.062
-667.047	202.964	0.081	-0.126
-666.032	30.152	0.067	0.058
-665.018	-200.000	-0.023	-0.207
-664.003	-3.968	-0.266	-0.186
-662.989	503.338	-0.036	-0.083
-661.974	163.910	0.200	0.284
-660.959	-40.997	-0.154	0.080
-659.945	-59.955	-0.184	-0.080
-658.930	-200.000	-0.017	-0.118
-657.916	800.000	-0.011	-0.044
-656.901	56.645	0.167	-0.164
-655.886	170.575	-0.042	0.060
-654.872	-200.000	0.015	0.156
-653.857	-74.297	0.079	-0.029
-652.843	-126.887	0.257	0.038
-651.828	46.659	-0.058	0.055
-650.814	124.624	-0.122	-0.155
-649.799	54.532	-0.077	-0.075
-648.784	520.118	-0.030	0.071
-647.770	-58.190	0.266	0.117
-646.755	180.743	-0.148	0.220
-645.741	-131.096	-0.188	-0.025
-644.726	-96.083	0.220	-0.059
-643.711	-200.000	-0.021	0.197
-642.697	-174.254	0.340	0.010
-641.682	800.000	-0.038	-0.160
-640.668	-74.516	-0.366	0.133
-639.653	714.229	-0.122	-0.328
-638.638	66.562	-0.397	0.408
-637.624	-200.000	-0.021	-0.202
-636.609	-40.854	-0.350	-0.183
-635.595	-63.590	0.298	0.124
-634.580	-200.000	-0.002	0.182
-633.565	-20.515	-0.088	-0.054
-632.551	43.778	-0.176	-0.163
-631.536	18.464	0.076	0.062
-630.522	231.977	-0.049	0.082
-629.507	450.903	-0.086	0.191
-628.492	-138.846	-0.230	-0.025
-627.478	197.652	-0.069	-0.106
-626.463	-200.000	0.036	0.238
-625.449	-200.000	-0.011	-0.148
-624.434	-56.484	0.204	-0.091
-623.419	-93.604	0.175	-0.049
-622.405	568.696	0.071	0.174
-621.390	-96.768	0.512	0.136
-620.376	-200.000	0.014	0.122
-619.361	800.000	-0.085	0.245
-618.346	-58.288	-0.266	0.117
-617.332	-33.447	0.043	-0.024
-616.317	-56.874	0.247	-0.110
-615.303	202.011	-0.117	0.182
-614.288	-61.362	-0.109	-0.046
-613.273	324.441	0.145	0.280
-612.259	272.660	0.107	0.191
-611.244	-200.000	-0.008	0.136
-610.230	-172.908	-0.223	0.007
-609.215	127.221	0.081	-0.103
-608.201	257.679	-0.129	-0.223
-607.186	-200.000	-0.038	-0.258
-606.171	-200.000	-0.029	-0.293
-605.157	800.000	0.086	-0.299
-604.142	86.175	-0.088	0.097
-603.128	-200.000	0.016	0.298
-602.113	15.179	-0.166	0.131
-601.098	136.703	0.203	-0.268
-600.084	-86.438	-0.339	-0.105
-599.069	92.619	-0.281	-0.320
-598.055	526.949	0.060	-0.143
-597.040	800.000	0.065	-0.183
-596.025	357.410	0.109	-0.220
-595.011	-38.224	-0.264	-0.141
-593.996	-47.583	0.078	0.038
-592.982	-82.905	0.188	0.061
-591.967	-116.544	-0.120	-0.022
-590.952	240.728	-0.036	0.061
-589.938	-121.247	-0.129	-0.022
-588.923	45.167	-0.194	-0.180
-587.909	107.162	0.254	-0.305
-586.894	800.000	0.016	-0.066
-585.879	146.941	-0.174	0.235
-584.865	-32.321	0.029	0.016
-583.850	800.000	-0.092	-0.375
-582.836	-94.437	-0.439	0.121
-581.821	-12.562	0.115	-0.076
-580.806	59.709	-0.224	-0.223
-579.792	33.216	0.185	0.162
-578.777	255.492	0.196	0.339
-577.763	11.312	0.164	0.126
-576.748	-110.086	-0.119	0.025
-575.733	-116.788	0.053	-0.010
-574.719	106.715	0.207	0.247
-573.704	126.963	-0.133	-0.170
-572.690	-97.973	-0.173	-0.045
-571.675	-200.000	-0.041	-0.558
-570.661	800.000	-0.056	-0.170
-569.646	-37.583	-0.194	-0.104
-568.631	113.334	-0.100	0.123
-567.617	-50.522	0.119	0.056
-566.602	-200.000	-0.019	-0.199
-565.588	-162.529	0.266	0.013
-564.573	-200.000	0.033	0.265
-563.558	-200.000	-0.005	-0.150
-562.544	195.749	0.095	0.145
-561.529	-200.000	0.023	-0.110
-560.515	-65.768	-0.227	-0.091
-559.500	-200.000	-0.041	-0.315
-558.485	-200.000	-0.020	-0.328
-557.471	-89.317	-0.205	-0.061
-556.456	-72.426	-0.158	0.059
-555.442	427.936	-0.121	0.263
-554.427	-12.595	0.280	-0.184
-553.412	153.713	-0.072	-0.099
-552.398	114.832	-0.075	-0.092
-551.383	506.184	0.126	0.294
-550.369	-200.000	-0.028	0.138
-549.354	-88.080	0.245	0.074
-548.339	-5.952	0.070	-0.048
-547.325	-130.529	0.332	-0.045
-546.310	394.745	0.157	0.330
-545.296	-86.072	0.205	0.064
-544.281	-158.279	-0.125	-0.007
-543.266	-97.673	0.138	-0.036
-542.252	-200.000	0.018	0.092
-541.237	-200.000	0.048	-0.214
-540.223	459.585	0.147	-0.329
-539.208	46.073	0.168	-0.156
-538.193	385.456	-0.102	-0.211
-537.179	-14.483	-0.219	0.142
-536.164	1.249	-0.254	0.183
-535.150	-3.377	-0.160	0.112
-534.135	800.000	0.112	0.434
-533.121	-200.000	0.059	-0.374
-532.106	43.790	-0.104	-0.096
-531.091	-83.708	0.156	0.050
-530.077	67.122	0.245	0.251
-529.062	-76.967	0.326	-0.115
-528.048	-88.361	0.077	-0.023
-527.033	277.625	0.131	0.235
-526.018	-200.000	0.036	-0.296
-525.004	575.859	-0.084	0.207
-523.989	55.876	-0.376	0.367
-522.975	-200.000	0.188	0.001
-521.960	-53.569	-0.210	-0.097
-520.945	78.678	0.033	0.036
-519.931	46.691	-0.164	0.153
-518.916	138.554	0.162	-0.213
-517.902	800.000	0.090	-0.260
-516.887	-200.000	0.027	0.301
-515.872	800.000	-0.053	0.185
-514.858	156.107	-0.174	-0.241
-513.843	559.259	-0.030	-0.073
-512.829	-73.849	-0.147	0.054
-511.814	40.046	0.151	-0.136
-510.799	599.703	0.106	-0.265
-509.785	45.851	0.285	-0.265
-508.770	-182.456	0.081	0.002
-507.756	-13.751	-0.341	-0.222
-506.741	74.528	0.059	-0.063
-505.726	32.169	-0.048	0.042
-504.712	266.051	0.235	0.412
-503.697	-200.000	-0.001	0.010
-502.683	191.093	0.259	0.391
-501.668	262.658	0.120	0.209
-500.653	-41.585	0.154	0.080
-499.639	-200.000	0.025	-0.140
-498.624	-200.000	-0.002	0.041
-497.610	477.855	0.154	-0.351
-496.595	800.000	0.116	0.324
-495.581	176.842	-0.102	0.148
-494.566	204.730	-0.250	-0.389
-493.551	507.785	-0.098	0.228
-492.537	800.000	0.102	0.311
-491.522	242.457	-0.092	0.155
-490.508	800.000	0.078	0.287
-489.493	133.316	0.186	0.241
-488.478	-160.399	0.249	-0.013
-487.464	244.469	0.206	-0.348
-486.449	105.921	-0.210	-0.250
-485.435	-77.857	-0.360	0.125
-484.420	451.048	0.053	-0.117
-483.405	201.090	0.177	0.273
-482.391	-200.000	-0.008	-0.245
-481.376	241.994	-0.139	-0.233
-480.362	28.998	0.113	-0.096
-479.347	144.317	-0.126	-0.169
-478.332	-200.000	0.031	0.433
-477.318	29.972	-0.108	-0.093
-476.303	800.000	0.061	-0.265
-475.289	-13.730	-0.116	-0.075
-474.274	73.654	-0.091	0.095
-473.259	800.000	0.049	-0.180
-472.245	-139.041	-0.267	-0.029
-471.230	91.860	0.195	0.220
-470.216	-200.000	-0.039	-0.194
-469.201	106.847	0.169	-0.201
-468.186	-154.643	0.127	0.008
-467.172	0.715	-0.226	-0.162
-466.157	-76.018	0.149	-0.053
-465.143	115.592	-0.184	-0.226
-464.128	-69.513	-0.101	0.039
-463.113	-200.000	-0.026	0.137
-462.099	423.997	0.077	0.166
-461.084	-151.917	-0.292	0.021
-460.070	-90.068	-0.215	0.063
-459.055	-148.906	-0.312	0.025
-458.040	-109.325	0.255	-0.054
-457.026	526.600	-0.036	0.085
-456.011	-155.570	-0.170	0.011
-454.997	0.869	-0.353	-0.254
-453.982	-200.000	-0.032	0.514
-452.968	19.555	-0.047	-0.038
-451.953	-124.149	-0.072	-0.011
-450.938	-200.000	0.035	0.164
-449.924	399.413	0.105	-0.221
-448.909	284.883	0.109	0.197
-447.895	-132.987	-0.253	-0.032
-446.880	-200.000	-0.016	-0.254
-445.865	256.256	-0.117	0.201
-444.851	800.000	0.092	-0.275
-443.836	26.644	-0.156	0.131
-442.822	321.870	0.091	-0.173
-441.807	-56.800	0.354	0.157
-440.792	-200.000	0.061	0.320
-439.778	-65.652	0.360	-0.144
-438.763	-200.000	0.012	-0.137
-437.749	-46.511	0.062	0.030
-436.734	-200.000	-0.045	-0.215
-435.719	-200.000	0.009	-0.198
-434.705	116.317	0.171	-0.209
-433.690	42.872	-0.373	0.341
-432.676	530.484	-0.086	-0.204
-431.661	-174.075	0.127	0.004
-430.646	-55.658	-0.248	0.111
-429.632	800.000	0.075	0.235
-428.617	-140.397	0.088	-0.009
-427.603	213.109	0.069	0.110
-426.588	800.000	-0.033	-0.114
-425.573	1.298	-0.151	-0.109
-424.559	449.534	0.235	-0.518
-423.544	-10.519	-0.431	-0.286
-422.530	46.117	0.217	0.202
-421.515	-13.066	-0.111	-0.072
-420.500	122.870	0.146	-0.183
-419.486	43.836	0.213	-0.196
-418.471	-200.000	0.046	0.315
-417.457	800.000	0.063	0.234
-416.442	800.000	-0.019	0.078
-415.428	-105.301	-0.507	0.116
-414.413	-200.000	-0.035	-0.171
-413.398	460.266	0.047	0.106
-412.384	219.477	-0.142	-0.228
-411.369	50.810	-0.070	0.067
-410.355	800.000	0.093	-0.330
-409.340	-35.270	0.096	0.052
-408.325	-200.000	0.064	0.413
-407.311	627.806	-0.078	0.196
-406.296	12.524	0.298	-0.230
-405.282	186.438	-0.083	-0.123
-404.267	131.895	0.120	-0.155
-403.252	392.173	0.038	0.080
-402.238	-50.325	-0.284	0.134
-401.223	-110.401	-0.125	0.026
-400.209	-200.000	0.001	-0.278
-399.194	-146.411	-0.226	0.020
-398.179	-55.255	-0.244	-0.110
-397.165	5.117	-0.163	0.120
-396.150	-84.387	-0.114	0.036
-395.136	-141.981	0.088	0.009
-394.121	425.967	0.111	0.239
-393.106	-200.000	-0.020	0.121
-392.092	-200.000	-0.019	-0.161
-391.077	665.725	-0.014	0.036
-390.063	-105.097	-0.135	-0.031
-389.048	-156.886	0.050	-0.003
-388.033	-135.967	-0.109	0.013
-387.019	-43.947	-0.093	0.047
-386.004	-200.000	-0.015	0.153
-384.990	204.863	-0.051	-0.079
-383.975	-60.968	0.164	0.069
-382.960	-76.597	-0.182	0.064
-381.946	-32.574	0.181	0.101
-380.931	-34.835	-0.175	-0.096
-379.917	382.588	-0.103	-0.211
-378.902	-98.084	-0.104	-0.027
-377.888	-200.000	-0.081	0.415
-376.873	-187.390	0.443	0.006
-375.858	800.000	-0.101	-0.319
-374.844	-40.102	0.124	0.065
-373.829	-31.916	-0.094	-0.053
-372.815	199.731	-0.205	0.315
-371.800	-200.000	0.010	0.211
-370.785	-69.833	0.363	0.138
-369.771	-115.575	0.224	-0.042
-368.756	-86.993	0.111	-0.034
-367.742	13.779	0.128	-0.099
-366.727	-84.961	-0.232	0.073
-365.712	-64.238	0.206	-0.084
-364.698	-162.781	-0.312	-0.015
-363.683	-200.000	-0.037	0.172
-362.669	-200.000	-0.002	0.152
-361.654	-56.774	0.227	0.100
-360.639	-29.583	-0.316	-0.180
-359.625	-200.000	0.034	0.345
-358.610	-144.337	-0.215	-0.020
-357.596	-44.983	0.108	0.054
-356.581	-40.539	0.310	0.161
-355.566	70.884	-0.126	-0.131
-354.552	-46.598	0.150	0.073
-353.537	68.331	-0.201	0.206
-352.523	-200.000	-0.022	0.273
-351.508	149.590	-0.151	0.204
-350.493	-15.612	0.065	0.042
-349.479	104.931	0.201	0.237
-348.464	800.000	0.084	-0.282
-347.450	-16.649	0.059	-0.037
-346.435	-23.243	0.088	0.053
-345.420	268.264	0.176	0.308
-344.406	32.084	0.078	0.067
-343.391	-200.000	-0.003	-0.043
-342.377	102.348	-0.138	0.161
-341.362	71.579	0.295	0.306
-340.348	56.329	-0.151	0.147
-339.333	-108.176	0.223	0.048
-338.318	-136.712	0.143	0.016
-337.304	-141.976	0.403	0.040
-336.289	-126.922	-0.086	0.013
-335.275	18.912	-0.362	0.290
-334.260	800.000	0.109	-0.384
-333.245	60.244	-0.027	0.026
-332.231	-33.836	0.207	-0.114
-331.216	-34.321	-0.240	-0.131
-330.202	-200.000	0.007	-0.348
-329.187	519.134	0.107	0.251
-328.172	-67.713	0.294	0.115
-327.158	-110.868	-0.404	0.083
-326.143	-26.327	0.194	0.114
-325.129	437.363	0.096	0.210
-324.114	-200.000	-0.024	-0.312
-323.099	-200.000	-0.024	-0.191
-322.085	-158.427	0.177	0.010
-321.070	800.000	0.074	0.233
-320.056	-200.000	-0.024	-0.138
-319.041	-200.000	-0.016	-0.126
-318.026	39.602	-0.341	0.305
-317.012	159.803	0.132	0.183
-315.997	-200.000	-0.046	-0.274
-314.983	-109.279	0.144	0.030
-313.968	-200.000	-0.000	-0.178
-312.953	52.635	0.240	-0.229
-311.939	-102.847	0.166	0.039
-310.924	-200.000	-0.022	-0.120
-309.910	-121.671	-0.214	0.035
-308.895	104.525	-0.078	-0.091
-307.880	509.394	-0.103	-0.238
-306.866	261.193	-0.238	-0.411
-305.851	-53.831	0.310	-0.141
-304.837	-106.805	-0.307	0.068
-303.822	-90.423	0.092	-0.027
-302.807	108.320	-0.175	-0.208
-301.793	-200.000	0.011	0.161
-300.778	71.030	0.056	0.058
-299.764	152.673	0.154	0.209
-298.749	171.193	-0.076	-0.108
-297.735	228.247	-0.072	0.116
-296.720	-22.735	0.288	0.173
-295.705	-122.106	-0.404	0.066
-294.691	319.426	-0.027	0.052
-293.676	-135.861	-0.210	-0.025
-292.662	138.553	-0.154	-0.201
-291.647	-200.000	-0.054	-0.279
-290.632	-200.000	0.036	0.312
-289.618	591.024	-0.081	0.198
-288.603	8.111	-0.108	0.081
-287.589	299.128	-0.062	-0.114
-286.574	-4.416	-0.157	-0.108
-285.559	800.000	-0.031	0.106
-284.545	-123.636	-0.479	-0.076
-283.530	94.285	-0.176	0.199
-282.516	18.738	-0.106	-0.084
-281.501	-144.903	-0.315	-0.029
-280.486	9.937	0.104	0.079
-279.472	-128.213	0.301	0.043
-278.457	-200.000	-0.003	0.152
-277.443	-200.000	-0.039	-0.295
-276.428	128.415	0.259	-0.328
-275.413	-200.000	-0.007	-0.281
-274.399	800.000	0.091	0.360
-273.384	-106.738	-0.205	-0.045
-272.370	-99.731	0.115	0.029
-271.355	-81.230	0.201	0.066
-270.340	7.387	0.241	0.179
-269.326	800.000	-0.017	0.064
-268.311	29.506	0.046	0.039
-267.297	27.613	-0.057	-0.048
-266.282	493.138	-0.047	-0.107
-265.267	-98.181	-0.140	0.036
-264.253	-135.716	-0.225	0.026
-263.238	85.811	0.172	-0.188
-262.224	-200.000	0.015	-0.246
-261.209	-200.000	0.003	0.117
-260.195	31.257	-0.145	-0.124
-259.180	-200.000	-0.003	-0.060
-258.165	-119.723	0.232	0.040
-257.151	587.668	0.083	0.202
-256.136	123.179	0.244	0.305
-255.122	-17.606	0.216	0.135
-254.107	800.000	-0.087	-0.269
-253.092	-200.000	0.045	-0.275
-252.078	46.268	0.301	0.277
-251.063	800.000	0.088	0.356
-250.049	-55.534	0.211	-0.094
-249.034	208.906	0.113	-0.176
-248.019	662.769	-0.050	0.128
-247.005	-112.601	-0.218	-0.043
-245.990	-101.124	-0.054	-0.013
-244.976	347.404	0.062	0.122
-243.961	-161.586	0.152	-0.008
-242.946	199.896	0.063	0.097
-241.932	-125.925	0.182	-0.027
-240.917	-126.693	-0.215	0.032
-239.903	219.896	-0.181	0.287
-238.888	-200.000	-0.033	-0.198
-237.873	800.000	-0.022	0.088
-236.859	-200.000	0.052	0.255
-235.844	31.376	0.167	0.143
-234.830	3.129	0.230	-0.166
-233.815	-74.581	-0.227	-0.081
-232.800	26.958	-0.115	0.096
-231.786	341.738	-0.077	0.149
-230.771	-102.864	-0.103	0.024
-229.757	-133.951	-0.127	-0.016
-228.742	45.096	0.350	-0.320
-227.727	163.633	-0.092	0.129
-226.713	-0.462	-0.138	0.097
-225.698	-200.000	0.017	0.116
-224.684	-200.000	0.010	0.095
-223.669	-200.000	-0.254	0.001
-222.655	1.468	0.232	0.166
-221.640	800.000	0.059	-0.183
-220.625	-93.762	0.099	-0.027
-219.611	-114.263	-0.280	-0.054
-218.596	800.000	0.067	-0.282
-217.582	-40.087	0.078	-0.040
-216.567	-200.000	0.009	0.136
-215.552	320.961	-0.010	-0.019
-214.538	86.013	0.153	-0.168
-213.523	-104.198	-0.203	-0.047
-212.509	308.372	0.060	-0.111
-211.494	800.000	-0.052	0.210
-210.479	326.712	-0.077	-0.147
-209.465	-133.861	0.145	0.018
-208.450	0.616	-0.261	-0.186
-207.436	800.000	-0.080	-0.225
-206.421	-7.249	0.204	0.137
-205.406	28.641	-0.132	0.111
-204.392	-2.133	-0.211	-0.147
-203.377	-82.972	0.244	-0.078
-202.363	-200.000	0.007	-0.338
-201.348	240.427	0.156	0.258
-200.333	-62.014	0.316	0.131
-199.319	103.796	0.118	-0.138
-198.304	261.479	0.139	-0.239
-197.290	323.815	0.147	0.278
-196.275	-8.113	0.226	0.151
-195.260	800.000	-0.027	0.087
-194.246	168.251	0.081	0.115
-193.231	-104.406	0.138	-0.032
-192.217	-82.399	-0.171	0.055
-191.202	-5.266	0.175	0.119
-190.187	-64.346	-0.074	-0.030
-189.173	800.000	-0.058	0.231
-188.158	51.229	-0.182	0.172
-187.144	370.964	0.087	-0.175
-186.129	-62.127	-0.246	0.102
-185.114	-19.686	0.323	0.198
-184.100	342.794	-0.078	0.152
-183.085	182.828	0.098	-0.144
-182.071	-106.451	-0.047	-0.010
-181.056	-132.429	0.071	-0.009
-180.042	-21.522	-0.130	0.078
-179.027	-56.186	-0.182	0.080
-178.012	-71.603	-0.171	0.063
-176.998	-47.546	-0.237	-0.114
-175.983	311.554	0.185	-0.344
-174.969	-72.565	0.074	-0.027
-173.954	193.102	0.041	0.061
-172.939	800.000	0.142	-0.559
-171.925	-200.000	-0.022	-0.140
-170.910	78.194	0.108	0.114
-169.896	159.786	0.114	0.158
-168.881	56.170	0.170	0.163
-167.866	149.871	-0.245	-0.329
-166.852	-101.282	-0.134	-0.032
-165.837	-95.709	0.394	0.104
-164.823	-90.187	0.173	0.050
-163.808	74.707	0.187	-0.195
-162.793	183.088	-0.059	0.086
-161.779	-200.000	-0.021	-0.115
-160.764	800.000	-0.025	0.082
-159.750	800.000	0.053	-0.225
-158.735	37.596	-0.171	-0.150
-157.720	60.425	0.027	-0.027
-156.706	-200.000	-0.024	0.263
-155.691	-5.895	0.077	-0.052
-154.677	-200.000	0.004	-0.181
-153.662	-4.416	-0.118	-0.081
-152.647	50.183	0.147	-0.138
-151.633	143.320	-0.084	0.111
-150.618	-120.898	0.293	0.049
-149.604	-190.342	-0.216	-0.002
-148.589	224.261	0.112	0.180
-147.574	-200.000	-0.028	-0.145
-146.560	800.000	-0.034	0.105
-145.545	-108.226	-0.348	0.075
-144.531	-81.258	-0.389	0.127
-143.516	53.584	0.229	-0.218
-142.502	335.306	-0.116	0.222
-141.487	-109.052	-0.152	-0.032
-140.472	-200.000	-0.050	0.362
-139.458	-200.000	0.065	0.326
-138.443	185.812	-0.248	0.365
-137.429	491.067	0.048	-0.109
-136.414	204.437	-0.035	0.053
-135.399	-25.124	0.236	-0.138
-134.385	10.863	0.213	0.161
-133.370	-0.939	0.138	0.097
-132.356	-109.981	0.210	-0.044
-131.341	-89.120	0.176	-0.051
-130.326	11.861	0.147	-0.112
-129.312	800.000	-0.053	0.194
-128.297	181.900	-0.115	0.168
-127.283	-200.000	0.030	-0.326
-126.268	76.155	0.209	-0.219
-125.253	-200.000	-0.012	-0.263
-124.239	-162.087	0.436	-0.022
-123.224	-95.070	-0.262	-0.070
-122.210	-2.112	0.111	0.077
-121.195	-130.600	0.141	-0.019
