DTS Sentinel unit serial number:	SN413079Multiplexer serial number:	ORYXHardware model number:	OX4-SRSoftware version number:	ORYX F/W v4.00 Oryx Data Collector v3.7.2.0data status	okinstallation	princeton_trtdifferential loss correction	single-endedforward channel	channel 4reverse channel	N/Adate	2019/09/11time	03:47:11forward acquisition time	60.00reverse acquisition time	0.00gamma	496.2192k internal	0.2316k external	0.2316temperature offset calibration	0.9944default loss term (dB/km)	0.3790temperature slope calibration	1.0000multiplexer offset coefficient	1.0000multiplexer slope coefficient	1.0000fibre end	0.00T internal ref (°C)	29.55T ext. ref 1 (°C)	-0.28T ext. ref 2 (°C)	23.79length (m)	temperature (°C)	Stokes	anti-Stokes-747.200	-12.954	0.025	-0.017
-746.185	-62.557	0.208	-0.088
-745.171	-70.205	-0.124	0.048
-744.156	-200.000	-0.007	0.125
-743.142	-88.129	0.120	-0.036
-742.127	27.723	-0.230	-0.197
-741.112	-153.941	0.200	-0.014
-740.098	69.741	-0.174	0.182
-739.083	-42.867	0.086	-0.044
-738.069	-39.174	-0.209	0.111
-737.054	-121.911	0.432	-0.072
-736.039	403.490	0.112	0.238
-735.025	800.000	-0.076	0.221
-734.010	405.711	-0.035	-0.075
-732.996	233.569	0.139	-0.231
-731.981	96.600	-0.173	-0.200
-730.966	-157.328	0.484	0.030
-729.952	-141.599	0.173	0.018
-728.937	35.366	0.161	-0.143
-727.923	448.560	0.072	-0.160
-726.908	800.000	-0.108	0.309
-725.894	44.075	-0.048	0.045
-724.879	719.469	-0.040	-0.106
-723.864	-200.000	-0.086	-0.444
-722.850	245.284	0.124	-0.211
-721.835	475.238	0.201	-0.459
-720.821	800.000	0.096	-0.387
-719.806	-128.718	-0.448	0.064
-718.791	-200.000	-0.029	0.258
-717.777	-200.000	-0.002	-0.164
-716.762	-13.969	-0.283	-0.185
-715.748	-111.117	-0.100	0.021
-714.733	169.457	-0.101	-0.147
-713.718	5.589	0.387	-0.289
-712.704	321.348	-0.042	-0.081
-711.689	-75.549	-0.221	-0.079
-710.675	-31.010	-0.302	0.172
-709.660	786.680	0.083	-0.229
-708.645	12.127	-0.194	0.151
-707.631	-146.037	0.091	-0.008
-706.616	-87.528	0.100	0.030
-705.602	-39.792	0.283	-0.150
-704.587	268.120	-0.126	-0.223
-703.572	543.610	-0.115	-0.279
-702.558	102.807	-0.226	-0.267
-701.543	52.222	0.136	-0.131
-700.529	4.909	0.171	-0.127
-699.514	-200.000	-0.015	0.142
-698.499	311.889	0.047	-0.089
-697.485	-144.526	0.131	-0.012
-696.470	-200.000	0.003	0.254
-695.456	-34.080	0.242	-0.134
-694.441	193.968	-0.016	-0.025
-693.426	89.652	0.221	0.250
-692.412	111.475	0.014	0.017
-691.397	-47.839	0.161	0.079
-690.383	392.304	0.140	0.294
-689.368	147.622	0.129	0.175
-688.354	369.931	0.143	0.292
-687.339	148.540	-0.047	0.065
-686.324	-39.741	0.088	-0.047
-685.310	55.321	0.296	-0.290
-684.295	-78.786	-0.164	0.056
-683.281	-200.000	0.039	-0.174
-682.266	36.502	0.168	0.150
-681.251	653.381	0.027	-0.071
-680.237	-200.000	-0.053	-0.250
-679.222	58.264	0.088	0.087
-678.208	800.000	0.043	-0.182
-677.193	14.486	0.026	-0.020
-676.178	800.000	-0.106	-0.306
-675.164	-9.246	0.068	0.046
-674.149	-200.000	-0.005	-0.104
-673.135	126.260	-0.081	-0.103
-672.120	-21.271	0.060	0.037
-671.105	-91.011	0.260	-0.076
-670.091	-13.783	0.247	-0.161
-669.076	-116.675	-0.122	0.023
-668.062	760.502	-0.127	0.347
-667.047	587.855	-0.113	-0.282
-666.032	-78.611	0.340	-0.117
-665.018	-105.569	-0.382	0.088
-664.003	-200.000	-0.014	-0.082
-662.989	186.130	-0.215	-0.323
-661.974	298.293	0.150	-0.278
-660.959	-200.000	-0.009	-0.184
-659.945	800.000	0.028	0.093
-658.930	-200.000	-0.014	-0.078
-657.916	800.000	-0.071	-0.257
-656.901	-200.000	-0.007	-0.272
-655.886	412.730	-0.096	0.206
-654.872	397.040	-0.176	0.372
-653.857	-200.000	0.022	0.349
-652.843	800.000	0.051	0.191
-651.828	-8.027	0.188	0.128
-650.814	155.323	0.155	0.215
-649.799	9.457	-0.245	-0.187
-648.784	96.280	0.092	0.106
-647.770	-127.859	-0.255	-0.037
-646.755	10.688	-0.130	0.100
-645.741	-85.763	0.310	-0.097
-644.726	431.261	0.036	-0.080
-643.711	-200.000	-0.012	0.070
-642.697	39.041	0.069	-0.062
-641.682	-76.669	-0.234	0.083
-640.668	488.138	-0.031	-0.072
-639.653	-78.201	0.273	-0.095
-638.638	-126.008	0.279	0.042
-637.624	647.842	-0.022	0.056
-636.609	147.068	0.016	0.022
-635.595	-96.000	-0.148	-0.040
-634.580	-127.956	-0.196	-0.028
-633.565	563.605	0.103	-0.252
-632.551	57.566	0.120	0.118
-631.536	-200.000	-0.006	0.164
-630.522	10.438	-0.376	-0.289
-629.507	114.607	0.265	-0.326
-628.492	-200.000	0.004	0.199
-627.478	123.133	0.041	-0.052
-626.463	549.844	0.034	-0.081
-625.449	93.718	-0.102	0.116
-624.434	-69.842	-0.263	-0.101
-623.419	-102.614	-0.314	0.076
-622.405	-200.000	0.024	-0.222
-621.390	800.000	0.133	-0.547
-620.376	800.000	-0.068	0.271
-619.361	-36.819	0.285	0.154
-618.346	279.417	-0.127	-0.228
-617.332	800.000	-0.046	-0.167
-616.317	-4.557	0.436	-0.303
-615.303	-51.327	-0.243	-0.115
-614.288	-144.748	0.229	0.021
-613.273	-160.094	-0.248	0.014
-612.259	-8.184	-0.190	0.129
-611.244	66.878	-0.150	0.154
-610.230	800.000	-0.099	0.304
-609.215	324.021	-0.098	-0.189
-608.201	-200.000	0.130	0.001
-607.186	-50.424	0.436	0.207
-606.171	-62.694	0.271	-0.113
-605.157	-17.462	0.086	0.055
-604.142	7.358	-0.050	-0.038
-603.128	52.466	0.153	-0.147
-602.113	116.033	0.180	-0.222
-601.098	-50.142	0.115	0.055
-600.084	141.029	0.100	-0.133
-599.069	363.008	-0.112	0.227
-598.055	-117.002	0.275	-0.051
-597.040	37.656	-0.076	0.068
-596.025	800.000	0.029	-0.100
-595.011	-33.620	0.269	0.150
-593.996	155.540	-0.186	-0.258
-592.982	800.000	0.165	0.463
-591.967	-147.679	0.174	0.015
-590.952	-32.044	0.403	-0.227
-589.938	-118.622	0.280	0.050
-588.923	800.000	0.038	0.130
-587.909	800.000	-0.074	0.216
-586.894	-106.550	0.299	-0.067
-585.879	800.000	0.038	-0.154
-584.865	596.464	-0.111	-0.276
-583.850	387.151	-0.072	0.151
-582.836	60.217	-0.188	-0.187
-581.821	-107.615	-0.158	-0.035
-580.806	395.225	-0.102	-0.214
-579.792	19.205	-0.188	0.152
-578.777	-88.654	0.292	0.088
-577.763	258.284	-0.141	-0.245
-576.748	-163.185	0.124	0.006
-575.733	-28.576	-0.064	-0.037
-574.719	104.525	-0.134	-0.159
-573.704	-128.349	0.268	-0.038
-572.690	55.096	0.116	-0.112
-571.675	-132.046	-0.238	-0.031
-570.661	252.435	-0.050	0.085
-569.646	-7.723	-0.363	0.247
-568.631	-2.898	0.140	0.099
-567.617	196.623	-0.112	-0.172
-566.602	161.384	-0.038	-0.053
-565.588	51.207	0.041	-0.040
-564.573	265.932	-0.127	-0.222
-563.558	782.210	0.073	0.201
-562.544	-85.264	-0.278	-0.087
-561.529	43.816	0.035	-0.032
-560.515	277.918	0.052	0.093
-559.500	-179.685	0.340	0.007
-558.485	-119.366	0.044	0.008
-557.471	346.407	-0.189	-0.373
-556.456	-62.879	0.365	-0.152
-555.442	323.888	-0.056	0.108
-554.427	-200.000	0.002	-0.300
-553.412	431.652	0.074	0.162
-552.398	74.998	0.084	-0.089
-551.383	800.000	-0.077	-0.249
-550.369	9.498	-0.200	-0.152
-549.354	350.543	-0.122	-0.242
-548.339	89.925	-0.092	-0.103
-547.325	-200.000	-0.071	0.381
-546.310	176.538	0.200	0.292
-545.296	-133.532	-0.077	0.010
-544.281	283.794	-0.137	0.247
-543.266	37.439	0.213	0.190
-542.252	-41.319	-0.166	0.086
-541.237	289.916	0.246	0.450
-540.223	800.000	-0.036	-0.130
-539.208	-200.000	-0.017	-0.200
-538.193	-115.120	-0.091	0.017
-537.179	-99.819	0.067	0.017
-536.164	7.027	0.099	-0.074
-535.150	76.036	-0.131	-0.139
-534.135	205.253	-0.148	-0.231
-533.121	194.667	0.123	-0.187
-532.106	-134.583	-0.110	0.013
-531.091	-7.232	0.115	-0.078
-530.077	97.929	0.133	-0.153
-529.062	-70.135	0.083	-0.032
-528.048	800.000	-0.033	0.128
-527.033	61.788	-0.226	-0.226
-526.018	-6.229	-0.117	-0.080
-525.004	-80.866	-0.122	0.041
-523.989	-105.799	-0.271	-0.062
-522.975	149.313	-0.093	-0.126
-521.960	-40.219	0.231	-0.121
-520.945	581.802	0.060	-0.148
-519.931	-200.000	-0.001	0.453
-518.916	800.000	-0.024	0.072
-517.902	-164.380	0.267	0.012
-516.887	133.047	0.053	0.069
-515.872	16.695	-0.241	0.192
-514.858	80.565	0.102	0.111
-513.843	114.108	0.093	0.113
-512.829	304.863	-0.160	0.299
-511.814	152.968	-0.069	0.094
-510.799	-103.958	-0.146	0.034
-509.785	479.300	0.092	0.208
-508.770	-200.000	0.089	-0.429
-507.756	400.130	-0.134	0.282
-506.741	800.000	0.092	0.335
-505.726	410.295	0.103	-0.219
-504.712	-200.000	-0.025	-0.204
-503.697	90.917	-0.121	0.137
-502.683	55.840	0.141	-0.137
-501.668	-200.000	-0.006	0.184
-500.653	62.501	-0.101	0.101
-499.639	30.201	-0.189	-0.161
-498.624	-91.827	-0.147	-0.042
-497.610	310.812	0.144	0.271
-496.595	529.070	-0.065	0.153
-495.581	10.424	-0.099	0.076
-494.566	-32.962	-0.176	-0.098
-493.551	-32.667	-0.207	-0.116
-492.537	-200.000	-0.064	-0.472
-491.522	-33.249	0.254	-0.141
-490.508	-71.388	-0.142	0.053
-489.493	800.000	-0.149	0.458
-488.478	800.000	0.072	-0.240
-487.464	-200.000	0.015	0.403
-486.449	113.977	0.103	-0.125
-485.435	-200.000	-0.045	0.234
-484.420	-49.552	-0.130	0.062
-483.405	232.014	0.056	0.092
-482.391	-200.000	0.010	0.101
-481.376	-14.927	0.175	-0.113
-480.362	50.073	0.231	-0.219
-479.347	782.059	0.040	0.111
-478.332	-40.164	-0.313	-0.163
-477.318	800.000	-0.071	-0.276
-476.303	-125.992	-0.247	0.037
-475.289	28.117	-0.061	-0.052
-474.274	-172.676	-0.146	-0.005
-473.259	300.079	-0.079	0.147
-472.245	-191.577	-0.223	0.002
-471.230	-20.662	0.287	-0.176
-470.216	-54.903	-0.089	-0.040
-469.201	-200.000	-0.075	-0.350
-468.186	-200.000	-0.006	-0.321
-467.172	136.312	-0.088	-0.114
-466.157	-142.883	0.271	0.026
-465.143	132.019	0.188	0.242
-464.128	147.927	-0.126	0.171
-463.113	-200.000	-0.031	-0.204
-462.099	150.712	-0.191	-0.260
-461.084	-6.675	-0.187	0.128
-460.070	-86.555	0.140	-0.043
-459.055	-120.125	0.194	0.033
-458.040	311.620	0.059	0.111
-457.026	152.266	0.041	-0.057
-456.011	800.000	0.044	-0.188
-454.997	-22.234	-0.144	0.087
-453.982	-171.621	-0.582	-0.019
-452.968	209.418	0.187	0.294
-451.953	-34.614	-0.314	0.172
-450.938	-39.138	0.174	0.092
-449.924	-114.421	-0.303	0.058
-448.909	-11.959	0.294	0.193
-447.895	-117.567	-0.144	-0.026
-446.880	273.635	-0.186	-0.329
-445.865	-32.218	0.185	0.104
-444.851	289.071	0.157	0.284
-443.836	-38.959	0.314	-0.166
-442.822	-104.973	-0.082	0.019
-441.807	-64.588	-0.120	0.049
-440.792	-83.086	-0.185	0.060
-439.778	-200.000	0.012	-0.092
-438.763	35.267	-0.254	0.223
-437.749	75.175	-0.152	0.160
-436.734	13.525	0.327	0.254
-435.719	239.720	-0.025	-0.042
-434.705	197.451	-0.167	-0.255
-433.690	-200.000	-0.014	0.224
-432.676	69.877	0.210	0.217
-431.661	-117.318	0.189	0.034
-430.646	199.811	-0.088	0.135
-429.632	111.964	-0.116	0.140
-428.617	-200.000	0.017	-0.171
-427.603	20.356	0.240	-0.194
-426.588	-200.000	0.016	-0.289
-425.573	15.972	0.091	0.072
-424.559	800.000	0.091	0.302
-423.544	-200.000	-0.052	-0.236
-422.530	12.472	-0.032	-0.025
-421.515	136.520	-0.151	0.197
-420.500	-56.242	-0.086	0.038
-419.486	800.000	0.096	0.310
-418.471	-157.835	-0.422	0.025
-417.457	91.333	-0.141	-0.159
-416.442	265.565	0.095	-0.167
-415.428	800.000	0.016	0.071
-414.413	800.000	0.103	0.355
-413.398	381.013	0.062	-0.126
-412.384	40.296	0.181	-0.163
-411.369	-19.394	-0.232	0.144
-410.355	800.000	0.038	0.117
-409.340	115.666	0.157	-0.192
-408.325	341.130	-0.201	-0.393
-407.311	-55.173	0.322	-0.145
-406.296	105.584	-0.094	0.111
-405.282	800.000	-0.131	0.400
-404.267	51.904	0.345	0.328
-403.252	-119.143	0.071	-0.012
-402.238	-2.321	-0.246	-0.173
-401.223	50.606	0.239	0.227
-400.209	64.638	-0.272	0.274
-399.194	33.689	0.084	0.073
-398.179	-69.724	0.217	-0.083
-397.165	747.113	-0.071	0.192
-396.150	800.000	-0.145	0.429
-395.136	-56.127	-0.096	0.043
-394.121	445.655	-0.103	-0.227
-393.106	201.342	0.018	0.027
-392.092	111.658	-0.170	-0.205
-391.077	214.842	0.246	0.389
-390.063	-200.000	0.001	0.159
-389.048	800.000	-0.032	-0.109
-388.033	-200.000	-0.000	-0.305
-387.019	-28.734	0.108	0.062
-386.004	107.055	-0.061	-0.072
-384.990	97.315	0.141	-0.161
-383.975	-32.663	-0.198	-0.110
-382.960	-200.000	-0.083	0.375
-381.946	800.000	0.038	-0.107
-380.931	82.728	0.020	-0.021
-379.917	-57.672	0.153	0.067
-378.902	800.000	-0.121	-0.392
-377.888	-200.000	-0.028	0.185
-376.873	-127.673	-0.257	0.037
-375.858	-48.884	-0.331	-0.159
-374.844	69.173	0.163	-0.167
-373.829	-23.221	0.157	-0.094
-372.815	800.000	0.021	0.061
-371.800	-8.632	-0.135	0.090
-370.785	-200.000	0.029	-0.130
-369.771	185.721	-0.026	0.039
-368.756	-12.829	0.300	0.195
-367.742	99.671	0.248	-0.287
-366.727	-200.000	-0.103	0.517
-365.712	800.000	-0.010	0.035
-364.698	-200.000	0.042	0.213
-363.683	-36.160	0.054	0.029
-362.669	277.381	-0.047	0.084
-361.654	10.464	0.169	0.128
-360.639	-200.000	0.004	0.081
-359.625	312.429	-0.178	-0.334
-358.610	800.000	0.076	-0.268
-357.596	-42.408	0.232	0.118
-356.581	-200.000	0.055	-0.295
-355.566	-70.997	-0.082	-0.031
-354.552	133.579	0.124	0.160
-353.537	320.539	-0.135	0.256
-352.523	800.000	-0.031	0.099
-351.508	-117.211	-0.300	0.054
-350.493	-200.000	-0.031	0.255
-349.479	217.381	-0.065	0.103
-348.464	-10.022	-0.121	-0.080
-347.450	800.000	0.027	-0.085
-346.435	713.972	-0.007	-0.018
-345.420	235.228	0.139	-0.230
-344.406	-34.131	-0.082	-0.045
-343.391	-200.000	0.019	0.148
-342.377	800.000	-0.083	0.261
-341.362	-200.000	-0.040	0.251
-340.348	225.718	-0.031	-0.050
-339.333	-41.781	-0.154	0.079
-338.318	-200.000	0.017	-0.258
-337.304	-200.000	0.098	-0.475
-336.289	56.420	0.123	0.119
-335.275	800.000	-0.046	-0.142
-334.260	255.778	0.111	0.189
-333.245	-18.975	0.204	-0.127
-332.231	-200.000	-0.031	-0.334
-331.216	169.261	-0.129	-0.183
-330.202	-96.086	-0.288	0.076
-329.187	-123.919	0.112	0.018
-328.172	77.251	-0.208	-0.220
-327.158	-200.000	0.004	-0.419
-326.143	-73.560	-0.054	0.020
-325.129	800.000	-0.066	-0.197
-324.114	315.326	-0.098	-0.184
-323.099	-46.390	0.403	-0.197
-322.085	-105.624	0.112	0.025
-321.070	554.475	-0.053	-0.127
-320.056	-128.350	0.128	0.018
-319.041	3.354	0.049	-0.035
-318.026	123.851	-0.132	-0.165
-317.012	115.888	-0.134	0.164
-315.997	605.378	-0.094	0.234
-314.983	-169.606	-0.235	-0.009
-313.968	-200.000	0.015	-0.190
-312.953	27.545	0.077	0.065
-311.939	18.298	0.157	0.125
-310.924	72.832	-0.199	0.207
-309.910	-151.262	-0.311	0.023
-308.895	-121.791	-0.151	0.025
-307.880	27.032	0.186	0.156
-306.866	173.015	0.057	-0.082
-305.851	693.964	0.156	-0.407
-304.837	-13.164	0.205	-0.133
-303.822	66.551	0.124	0.125
-302.807	529.290	-0.050	0.118
-301.793	-200.000	0.056	0.246
-300.778	-3.235	0.461	-0.320
-299.764	33.362	-0.157	-0.135
-298.749	-130.532	-0.235	-0.032
-297.735	-28.079	-0.282	-0.162
-296.720	-142.340	0.259	0.025
-295.705	-11.247	0.198	-0.130
-294.691	-200.000	-0.047	-0.210
-293.676	165.010	0.139	0.196
-292.662	-72.139	-0.102	-0.038
-291.647	-20.379	-0.368	-0.226
-290.632	-158.338	0.101	0.006
-289.618	-198.714	-0.399	-0.002
-288.603	-200.000	0.005	-0.383
-287.589	-135.516	0.334	0.040
-286.574	-108.308	0.136	0.029
-285.559	-200.000	-0.043	-0.221
-284.545	35.907	0.235	0.205
-283.530	-32.020	-0.206	0.115
-282.516	30.024	0.218	-0.185
-281.501	-200.000	-0.030	-0.160
-280.486	107.719	0.302	0.357
-279.472	68.825	0.100	0.102
-278.457	-200.000	-0.057	0.312
-277.443	138.579	0.165	-0.216
-276.428	43.988	-0.187	0.170
-275.413	81.586	0.176	0.190
-274.399	111.013	-0.113	0.135
-273.384	-146.196	0.249	0.022
-272.370	-10.582	-0.193	0.127
-271.355	800.000	-0.041	0.120
-270.340	485.810	0.020	-0.046
-269.326	-200.000	-0.004	0.209
-268.311	177.771	0.157	0.228
-267.297	-149.984	-0.224	-0.017
-266.282	486.169	-0.083	-0.187
-265.267	800.000	0.066	0.240
-264.253	-139.424	0.211	-0.022
-263.238	800.000	0.094	-0.271
-262.224	78.888	-0.092	0.098
-261.209	78.665	-0.100	-0.107
-260.195	-58.171	-0.122	0.053
-259.180	296.098	-0.159	-0.289
-258.165	133.381	-0.030	0.038
-257.151	17.106	0.098	-0.078
-256.136	-35.201	0.328	-0.177
-255.122	-124.257	0.150	-0.023
-254.107	76.308	0.371	0.391
-253.092	-200.000	0.019	0.122
-252.078	-71.446	-0.166	0.062
-251.063	-200.000	0.016	0.072
-250.049	170.532	0.091	0.129
-249.034	-127.886	-0.188	-0.027
-248.019	-13.724	0.282	-0.181
-247.005	550.501	-0.095	-0.227
-245.990	-108.086	0.133	-0.029
-244.976	658.419	0.072	0.185
-243.961	4.418	-0.041	0.030
-242.946	-31.842	-0.293	0.163
-241.932	-55.873	-0.152	0.067
-240.917	-200.000	0.009	-0.129
-239.903	-22.109	-0.101	0.061
-238.888	-1.657	-0.186	0.130
-237.873	-70.256	0.413	0.156
-236.859	-200.000	0.026	-0.327
-235.844	91.345	-0.160	-0.178
-234.830	-200.000	0.037	-0.322
-233.815	159.419	0.161	0.223
-232.800	-49.540	0.070	0.033
-231.786	50.472	0.152	-0.143
-230.771	89.082	-0.204	0.226
-229.757	194.207	-0.148	0.223
-228.742	-77.881	0.283	0.097
-227.727	-44.743	0.067	-0.033
-226.713	-104.606	-0.116	-0.027
-225.698	-13.811	-0.195	-0.125
-224.684	-47.954	0.415	0.199
-223.669	-76.947	0.069	0.024
-222.655	539.854	-0.069	0.164
-221.640	-200.000	0.028	0.127
-220.625	800.000	-0.083	0.231
-219.611	-105.120	-0.354	0.080
-218.596	800.000	0.057	0.241
-217.582	-99.393	-0.193	0.048
-216.567	-85.517	0.257	0.079
-215.552	30.689	-0.069	0.059
-214.538	60.358	0.226	0.222
-213.523	800.000	0.060	0.174
-212.509	-35.444	0.240	0.129
-211.494	86.027	0.172	-0.187
-210.479	299.943	-0.031	0.056
-209.465	-55.658	-0.088	0.039
-208.450	53.897	0.218	0.207
-207.436	194.362	-0.231	-0.347
-206.421	-63.175	0.308	0.126
-205.406	-168.359	-0.220	0.008
-204.392	800.000	-0.062	0.237
-203.377	-78.677	0.365	-0.124
-202.363	-143.008	-0.198	0.019
-201.348	-65.026	0.005	-0.002
-200.333	94.484	0.061	0.069
-199.319	800.000	-0.137	-0.462
-198.304	-200.000	-0.080	-0.402
-197.290	-36.495	-0.110	0.059
-196.275	49.486	0.135	0.126
-195.260	328.826	0.032	0.061
-194.246	-23.754	-0.082	-0.048
-193.231	-29.754	0.047	-0.027
-192.217	186.838	-0.203	0.300
-191.202	-146.921	-0.189	0.016
-190.187	-200.000	0.007	0.059
-189.173	-119.840	-0.497	0.085
-188.158	26.082	-0.087	0.072
-187.144	282.286	-0.056	0.099
-186.129	-200.000	0.078	0.341
-185.114	59.054	-0.200	-0.195
-184.100	276.351	-0.089	0.157
-183.085	3.482	0.144	0.104
-182.071	295.606	-0.156	-0.283
-181.056	-11.464	0.251	0.164
-180.042	-142.364	0.202	-0.020
-179.027	800.000	-0.044	-0.128
-178.012	800.000	0.101	-0.326
-176.998	-31.710	-0.130	0.072
-175.983	-200.000	0.022	-0.108
-174.969	-115.040	0.346	-0.065
-173.954	419.499	-0.132	-0.280
-172.939	-200.000	0.015	0.174
-171.925	-58.168	-0.252	0.109
-170.910	800.000	-0.030	0.111
-169.896	-200.000	0.056	-0.518
-168.881	373.843	-0.146	-0.295
-167.866	15.648	0.229	-0.178
-166.852	-200.000	-0.023	-0.112
-165.837	416.795	0.086	0.181
-164.823	786.551	-0.125	0.339
-163.808	694.200	0.070	0.181
-162.793	-200.000	-0.040	-0.221
-161.779	800.000	-0.056	0.188
-160.764	-65.836	-0.253	-0.100
-159.750	135.815	0.154	0.199
-158.735	-133.940	0.133	-0.016
-157.720	125.815	0.229	0.287
-156.706	-117.349	-0.190	0.034
-155.691	2.601	0.298	-0.214
-154.677	-89.723	-0.040	0.012
-153.662	-71.136	-0.130	-0.048
-152.647	-57.261	-0.012	0.005
-151.633	12.325	0.200	-0.152
-150.618	800.000	-0.018	-0.076
-149.604	-51.955	0.122	0.056
-148.589	-132.515	-0.384	-0.049
-147.574	217.613	0.159	0.250
-146.560	-69.434	-0.355	0.135
-145.545	-124.352	0.255	0.039
-144.531	-145.424	0.255	-0.023
-143.516	-200.000	0.003	0.057
-142.502	67.544	-0.020	-0.020
-141.487	-200.000	0.015	0.297
-140.472	-62.129	-0.189	0.078
-139.458	-61.520	0.103	-0.043
-138.443	-15.397	-0.283	0.179
-137.429	78.184	0.200	-0.211
-136.414	-200.000	0.005	-0.045
-135.399	88.482	0.186	-0.205
-134.385	67.861	-0.212	-0.215
-133.370	-200.000	-0.004	0.451
-132.356	-81.226	-0.280	0.092
-131.341	676.855	-0.069	0.177
-130.326	3.858	0.121	-0.087
-129.312	-39.333	-0.151	-0.078
-128.297	81.408	0.211	-0.226
-127.283	644.322	-0.166	0.419
-126.268	-63.943	0.383	-0.155
-125.253	-118.254	-0.302	0.053
-124.239	-53.545	-0.116	0.053
-123.224	129.095	0.179	-0.226
-122.210	800.000	0.015	-0.063
-121.195	111.469	0.134	-0.160
-120.180	-78.016	0.042	-0.014
