DTS Sentinel unit serial number:	SN413079Multiplexer serial number:	ORYXHardware model number:	OX4-SRSoftware version number:	ORYX F/W v4.00 Oryx Data Collector v3.7.2.0data status	okinstallation	princeton_trtdifferential loss correction	single-endedforward channel	channel 4reverse channel	N/Adate	2019/09/13time	02:41:34forward acquisition time	60.00reverse acquisition time	0.00gamma	496.2192k internal	0.2319k external	0.2319temperature offset calibration	1.0193default loss term (dB/km)	0.3790temperature slope calibration	1.0000multiplexer offset coefficient	1.0000multiplexer slope coefficient	1.0000fibre end	0.00T internal ref (°C)	27.44T ext. ref 1 (°C)	3.99T ext. ref 2 (°C)	22.26length (m)	temperature (°C)	Stokes	anti-Stokes-747.200	599.912	0.028	-0.072
-746.185	38.612	-0.107	0.097
-745.171	121.664	-0.301	0.380
-744.156	621.136	-0.189	0.481
-743.142	159.894	0.206	0.290
-742.127	-200.000	0.014	0.222
-741.112	-142.518	0.079	0.008
-740.098	800.000	-0.098	0.359
-739.083	71.411	0.127	-0.133
-738.069	-24.814	-0.230	-0.138
-737.054	257.181	0.159	0.276
-736.039	-162.035	-0.372	0.019
-735.025	-200.000	0.009	0.041
-734.010	25.973	-0.071	-0.060
-732.996	-200.000	0.001	-0.173
-731.981	-64.749	-0.138	-0.056
-730.966	-22.202	0.150	-0.092
-729.952	-151.025	0.288	-0.022
-728.937	446.739	0.088	0.196
-727.923	187.632	-0.165	0.249
-726.908	800.000	-0.099	-0.309
-725.894	-200.000	0.012	0.230
-724.879	-73.431	0.280	-0.103
-723.864	-23.019	0.084	-0.051
-722.850	800.000	0.051	-0.152
-721.835	-200.000	-0.010	0.056
-720.821	-200.000	0.004	0.333
-719.806	-111.822	-0.270	0.055
-718.791	-16.699	0.101	-0.064
-717.777	800.000	-0.053	0.189
-716.762	-126.468	-0.390	0.059
-715.748	40.790	-0.067	-0.061
-714.733	55.049	-0.111	-0.109
-713.718	424.305	-0.142	0.309
-712.704	-200.000	-0.041	-0.375
-711.689	800.000	-0.006	-0.017
-710.675	382.379	-0.199	-0.412
-709.660	800.000	0.068	-0.197
-708.645	-55.493	-0.449	-0.203
-707.631	-27.139	0.223	0.132
-706.616	-162.452	-0.130	-0.006
-705.602	800.000	-0.136	-0.444
-704.587	-200.000	-0.047	-0.489
-703.572	84.030	-0.265	0.293
-702.558	61.897	-0.404	-0.407
-701.543	220.926	0.195	-0.316
-700.529	-45.576	-0.267	0.133
-699.514	38.323	0.273	-0.246
-698.499	-111.495	0.152	0.031
-697.485	-38.571	-0.275	0.147
-696.470	-200.000	0.000	0.278
-695.456	-44.123	0.226	-0.114
-694.441	-8.173	0.055	-0.037
-693.426	-60.333	0.257	-0.111
-692.412	82.576	0.033	-0.036
-691.397	-119.140	0.070	-0.012
-690.383	-58.440	-0.303	0.133
-689.368	-200.000	-0.027	-0.127
-688.354	-136.548	0.123	-0.014
-687.339	-200.000	0.008	-0.168
-686.324	344.541	-0.111	-0.220
-685.310	245.171	-0.163	-0.277
-684.295	-26.674	-0.183	-0.108
-683.281	-200.000	-0.043	-0.267
-682.266	-38.797	-0.108	-0.057
-681.251	-54.187	-0.114	0.052
-680.237	-200.000	-0.356	0.001
-679.222	251.682	-0.137	-0.236
-678.208	151.336	0.130	-0.178
-677.193	-102.152	-0.016	0.004
-676.178	-200.000	0.049	-0.253
-675.164	272.060	0.026	0.046
-674.149	-93.952	0.366	0.101
-673.135	-95.095	0.208	0.057
-672.120	70.769	0.111	0.115
-671.105	-37.910	0.076	0.041
-670.091	-31.500	-0.055	-0.031
-669.076	-178.458	-0.197	-0.005
-668.062	-2.921	0.216	0.152
-667.047	-73.534	-0.228	0.084
-666.032	708.597	0.121	-0.321
-665.018	800.000	-0.112	0.336
-664.003	-53.700	-0.235	0.108
-662.989	5.246	0.164	0.122
-661.974	-108.138	0.319	0.070
-660.959	-132.495	0.336	-0.044
-659.945	-200.000	-0.065	-0.446
-658.930	-5.453	-0.179	-0.124
-657.916	-200.000	0.010	-0.122
-656.901	800.000	0.064	0.283
-655.886	769.910	-0.022	-0.060
-654.872	78.220	0.217	0.233
-653.857	-85.152	0.172	0.054
-652.843	743.335	-0.079	0.214
-651.828	40.079	-0.081	0.073
-650.814	-85.544	0.198	-0.062
-649.799	800.000	0.075	-0.269
-648.784	800.000	-0.082	0.280
-647.770	74.610	0.063	-0.067
-646.755	-128.271	0.191	-0.027
-645.741	435.462	0.033	-0.073
-644.726	-136.516	0.153	0.018
-643.711	58.378	-0.171	0.169
-642.697	800.000	-0.055	-0.184
-641.682	-158.274	0.213	0.012
-640.668	401.937	-0.138	0.291
-639.653	-81.070	0.114	-0.038
-638.638	-9.622	0.226	-0.152
-637.624	127.958	0.097	0.124
-636.609	120.562	0.067	0.084
-635.595	-97.333	-0.319	0.084
-634.580	-19.051	-0.067	0.042
-633.565	-200.000	0.001	-0.198
-632.551	172.740	-0.204	0.296
-631.536	35.851	-0.031	-0.028
-630.522	9.204	0.171	0.130
-629.507	-113.233	-0.204	0.040
-628.492	-1.301	-0.429	-0.305
-627.478	25.582	-0.084	0.070
-626.463	501.500	-0.016	0.036
-625.449	295.453	-0.031	-0.057
-624.434	382.042	0.131	-0.272
-623.419	315.210	-0.119	-0.225
-622.405	225.291	-0.321	-0.523
-621.390	34.813	0.087	-0.077
-620.376	138.523	-0.148	0.195
-619.361	396.065	-0.160	-0.336
-618.346	233.694	-0.242	-0.400
-617.332	-200.000	-0.006	0.224
-616.317	87.123	-0.103	0.115
-615.303	-200.000	-0.065	0.384
-614.288	62.933	0.163	0.164
-613.273	63.820	-0.066	-0.067
-612.259	-133.644	0.235	-0.030
-611.244	-43.854	0.165	-0.083
-610.230	800.000	-0.083	-0.260
-609.215	800.000	-0.039	0.160
-608.201	-47.157	-0.102	-0.050
-607.186	-200.000	0.036	-0.172
-606.171	123.873	-0.138	-0.175
-605.157	135.961	0.143	-0.188
-604.142	169.298	0.078	0.112
-603.128	102.360	-0.058	0.068
-602.113	-63.724	-0.318	-0.131
-601.098	-200.000	0.026	0.132
-600.084	-200.000	-0.009	0.322
-599.069	19.535	0.064	0.052
-598.055	53.802	0.214	0.206
-597.040	-200.000	0.001	-0.246
-596.025	-200.000	-0.016	-0.322
-595.011	55.134	-0.119	0.115
-593.996	56.261	-0.157	0.154
-592.982	84.587	0.012	0.013
-591.967	-12.683	-0.241	-0.158
-590.952	-135.078	0.139	-0.017
-589.938	-27.631	0.132	0.077
-588.923	800.000	0.069	0.240
-587.909	800.000	-0.060	0.202
-586.894	574.079	-0.069	0.169
-585.879	-200.000	0.011	-0.071
-584.865	135.855	-0.085	-0.112
-583.850	-153.338	0.311	0.022
-582.836	-50.646	-0.238	-0.113
-581.821	-44.991	-0.242	0.121
-580.806	-77.761	-0.313	-0.109
-579.792	-38.294	-0.106	0.056
-578.777	-200.000	0.020	-0.151
-577.763	-200.000	-0.062	0.288
-576.748	286.326	-0.013	-0.024
-575.733	-72.639	-0.147	0.055
-574.719	414.719	-0.139	-0.297
-573.704	86.769	0.169	0.187
-572.690	434.613	0.041	-0.088
-571.675	-25.326	0.282	0.168
-570.661	354.592	-0.181	-0.361
-569.646	39.048	-0.111	0.100
-568.631	-170.335	0.240	0.008
-567.617	-132.085	0.218	-0.028
-566.602	-78.455	-0.343	0.118
-565.588	-33.157	0.039	0.022
-564.573	-111.219	-0.136	-0.028
-563.558	-120.618	0.131	0.022
-562.544	800.000	-0.038	-0.153
-561.529	-200.000	-0.030	0.191
-560.515	415.707	0.117	0.251
-559.500	-88.001	-0.446	-0.134
-558.485	-200.000	0.049	-0.259
-557.471	358.304	-0.063	0.126
-556.456	519.428	0.196	0.461
-555.442	800.000	0.081	0.304
-554.427	696.110	-0.092	-0.241
-553.412	-200.000	0.016	0.284
-552.398	120.846	-0.092	0.114
-551.383	-82.958	-0.319	-0.103
-550.369	69.292	0.066	-0.068
-549.354	-170.023	-0.190	0.007
-548.339	197.222	-0.240	0.368
-547.325	-26.961	-0.222	-0.130
-546.310	-95.803	-0.124	-0.033
-545.296	-90.654	-0.242	-0.070
-544.281	-35.285	-0.389	-0.213
-543.266	-168.273	0.219	-0.008
-542.252	180.832	-0.110	0.162
-541.237	459.327	-0.098	-0.218
-540.223	10.285	-0.150	0.115
-539.208	-33.934	-0.098	-0.054
-538.193	91.554	0.126	-0.142
-537.179	-72.019	0.221	-0.082
-536.164	15.245	0.161	0.126
-535.150	-200.000	-0.021	-0.345
-534.135	218.850	-0.123	-0.197
-533.121	-15.472	-0.214	0.137
-532.106	458.956	-0.099	0.221
-531.091	95.725	-0.116	0.133
-530.077	95.392	-0.163	0.186
-529.062	84.502	-0.079	-0.087
-528.048	-74.515	-0.210	-0.076
-527.033	19.147	-0.181	0.146
-526.018	-174.031	0.215	-0.006
-525.004	-134.612	-0.434	0.053
-523.989	-200.000	0.006	0.128
-522.975	-25.341	-0.258	-0.153
-521.960	139.608	0.028	0.037
-520.945	121.621	0.198	-0.248
-519.931	737.037	0.100	0.268
-518.916	-200.000	-0.005	0.028
-517.902	-200.000	-0.020	-0.114
-516.887	-86.254	-0.445	0.137
-515.872	800.000	-0.065	0.229
-514.858	-116.059	-0.040	0.008
-513.843	481.973	0.097	-0.220
-512.829	-148.476	0.139	-0.011
-511.814	240.264	-0.096	0.161
-510.799	-68.006	0.212	-0.083
-509.785	-200.000	-0.008	-0.063
-508.770	210.366	-0.124	-0.196
-507.756	-200.000	-0.003	0.156
-506.741	-22.266	0.031	0.019
-505.726	181.918	-0.258	-0.381
-504.712	-111.405	-0.081	-0.017
-503.697	-122.026	0.241	0.040
-502.683	-64.416	-0.197	0.080
-501.668	-53.791	0.129	-0.059
-500.653	307.048	0.082	0.153
-499.639	61.177	0.046	-0.045
-498.624	-86.995	0.205	-0.063
-497.610	800.000	0.184	-0.560
-496.595	-107.586	-0.215	-0.047
-495.581	-200.000	0.008	0.088
-494.566	-130.239	0.207	-0.028
-493.551	390.816	-0.104	-0.217
-492.537	391.887	0.083	0.173
-491.522	470.682	0.062	-0.141
-490.508	-156.555	-0.108	-0.007
-489.493	-138.363	0.012	-0.001
-488.478	800.000	0.168	-0.505
-487.464	719.304	-0.049	0.129
-486.449	-15.014	-0.107	-0.069
-485.435	-156.794	-0.208	-0.013
-484.420	38.013	0.285	0.254
-483.405	-124.461	0.227	0.035
-482.391	-64.956	-0.387	0.157
-481.376	0.390	-0.048	-0.034
-480.362	241.633	0.125	-0.209
-479.347	-128.178	-0.149	-0.021
-478.332	581.236	0.090	-0.222
-477.318	-200.000	-0.005	-0.068
-476.303	-200.000	-0.002	0.024
-475.289	78.493	-0.189	0.202
-474.274	-45.434	0.255	0.127
-473.259	460.281	0.078	0.174
-472.245	64.037	0.234	-0.236
-471.230	-105.916	0.310	0.070
-470.216	800.000	0.068	0.198
-469.201	-21.499	-0.102	-0.062
-468.186	-66.955	-0.175	-0.069
-467.172	162.215	0.086	0.121
-466.157	-200.000	-0.020	-0.122
-465.143	62.495	-0.171	0.171
-464.128	-200.000	-0.062	-0.274
-463.113	-90.706	0.172	0.050
-462.099	174.792	0.157	-0.228
-461.084	98.114	0.070	-0.080
-460.070	35.946	-0.166	-0.146
-459.055	42.689	-0.017	0.016
-458.040	223.168	-0.100	0.161
-457.026	-123.983	-0.185	0.029
-456.011	33.569	0.176	-0.153
-454.997	-34.461	0.356	0.195
-453.982	-87.729	-0.140	0.042
-452.968	-77.450	-0.111	0.039
-451.953	-149.616	0.296	0.023
-450.938	800.000	0.027	0.099
-449.924	230.501	0.062	-0.102
-448.909	-23.944	-0.007	-0.004
-447.895	-200.000	0.025	-0.259
-446.880	-15.948	0.083	0.053
-445.865	453.722	-0.158	0.351
-444.851	-200.000	0.004	-0.038
-443.836	-100.870	0.279	0.069
-442.822	-93.882	-0.331	-0.091
-441.807	45.962	0.194	0.179
-440.792	-64.202	0.062	0.025
-439.778	-14.417	-0.134	0.087
-438.763	101.545	-0.174	-0.202
-437.749	453.705	0.101	-0.223
-436.734	28.159	-0.119	-0.101
-435.719	-166.784	0.101	-0.004
-434.705	-21.416	0.282	0.172
-433.690	800.000	0.051	0.216
-432.676	156.520	0.116	0.160
-431.661	20.398	-0.274	-0.221
-430.646	-71.204	0.241	-0.091
-429.632	442.578	0.109	-0.239
-428.617	-76.333	-0.173	-0.061
-427.603	505.279	-0.017	0.040
-426.588	55.694	-0.239	0.231
-425.573	-118.746	-0.244	-0.043
-424.559	-132.745	0.134	-0.017
-423.544	800.000	0.021	-0.059
-422.530	277.218	-0.220	-0.391
-421.515	800.000	-0.092	-0.300
-420.500	-200.000	-0.025	0.119
-419.486	-2.359	-0.167	0.117
-418.471	139.461	0.162	0.212
-417.457	-93.496	-0.259	-0.072
-416.442	-14.564	-0.096	0.062
-415.428	800.000	0.063	0.219
-414.413	179.378	-0.140	0.204
-413.398	213.569	-0.083	0.131
-412.384	-4.106	-0.149	-0.103
-411.369	-38.672	-0.045	0.024
-410.355	-200.000	0.004	-0.178
-409.340	71.855	0.068	-0.070
-408.325	57.994	-0.056	0.055
-407.311	52.724	0.129	0.123
-406.296	-104.022	-0.016	-0.004
-405.282	-60.390	0.156	0.066
-404.267	117.610	-0.176	0.216
-403.252	133.253	-0.126	-0.162
-402.238	385.639	-0.095	0.195
-401.223	800.000	0.093	0.298
-400.209	-200.000	-0.025	-0.146
-399.194	85.194	0.023	-0.025
-398.179	-124.578	0.269	-0.042
-397.165	276.812	-0.149	0.265
-396.150	-70.661	0.378	-0.143
-395.136	-200.000	0.027	0.155
-394.121	359.984	-0.162	-0.323
-393.106	-100.242	-0.116	-0.029
-392.092	488.256	-0.111	0.252
-391.077	74.989	-0.339	0.356
-390.063	351.904	0.104	-0.206
-389.048	-85.162	0.569	-0.177
-388.033	258.009	0.131	0.225
-387.019	58.611	-0.044	-0.043
-386.004	368.476	-0.126	-0.255
-384.990	422.005	-0.097	-0.207
-383.975	-200.000	0.021	0.233
-382.960	181.713	0.154	-0.226
-381.946	-200.000	-0.003	0.266
-380.931	322.481	0.097	0.184
-379.917	7.859	0.081	-0.060
-378.902	-4.935	0.217	-0.149
-377.888	311.757	-0.107	0.200
-376.873	-58.613	0.296	-0.128
-375.858	-53.974	-0.063	-0.029
-374.844	-200.000	-0.046	-0.435
-373.829	61.639	-0.133	-0.132
-372.815	-123.077	-0.236	-0.038
-371.800	-68.782	0.214	0.083
-370.785	33.702	0.033	-0.028
-369.771	-115.693	0.152	0.028
-368.756	107.510	0.398	-0.472
-367.742	222.182	0.173	0.277
-366.727	-200.000	-0.022	0.182
-365.712	-200.000	-0.040	-0.431
-364.698	-106.669	0.447	0.099
-363.683	167.224	0.044	0.062
-362.669	800.000	-0.050	-0.189
-361.654	117.677	-0.258	-0.316
-360.639	-130.163	0.277	-0.038
-359.625	-108.098	0.185	0.040
-358.610	-163.713	-0.320	-0.015
-357.596	800.000	-0.013	-0.049
-356.581	266.121	-0.124	-0.215
-355.566	800.000	-0.085	0.274
-354.552	53.295	-0.229	-0.219
-353.537	-200.000	-0.011	0.090
-352.523	22.175	0.166	-0.135
-351.508	-200.000	0.032	-0.220
-350.493	533.085	0.080	0.188
-349.479	-52.673	-0.254	0.117
-348.464	-35.506	0.210	0.114
-347.450	283.114	-0.033	-0.059
-346.435	-32.545	-0.087	-0.048
-345.420	448.114	0.125	-0.273
-344.406	99.024	-0.040	-0.046
-343.391	-108.202	0.416	-0.090
-342.377	-49.121	0.206	0.098
-341.362	724.461	-0.082	-0.218
-340.348	-54.372	0.084	0.038
-339.333	-60.522	0.182	0.077
-338.318	800.000	-0.052	0.204
-337.304	800.000	-0.106	-0.404
-336.289	-200.000	-0.022	0.098
-335.275	-200.000	-0.038	0.180
-334.260	-200.000	0.023	0.183
-333.245	-200.000	-0.016	-0.267
-332.231	-200.000	-0.097	-0.480
-331.216	-175.642	0.225	-0.006
-330.202	8.484	-0.067	-0.050
-329.187	-86.377	0.333	-0.102
-328.172	800.000	0.075	0.290
-327.158	-200.000	0.080	-0.595
-326.143	337.856	0.206	0.399
-325.129	348.767	0.229	-0.450
-324.114	800.000	-0.036	0.150
-323.099	800.000	-0.090	0.317
-322.085	-94.654	-0.208	0.056
-321.070	-7.936	-0.112	0.075
-320.056	-200.000	0.032	-0.166
-319.041	-70.207	-0.203	-0.077
-318.026	-72.810	0.389	0.143
-317.012	-200.000	-0.029	-0.156
-315.997	304.151	0.184	-0.340
-314.983	-122.787	0.211	-0.034
-313.968	178.969	-0.132	-0.192
-312.953	-26.174	-0.103	-0.060
-311.939	75.131	0.169	0.177
-310.924	9.357	-0.169	0.127
-309.910	582.731	0.097	0.236
-308.895	-75.881	-0.098	-0.035
-307.880	164.894	-0.182	-0.256
-306.866	-136.854	0.144	0.016
-305.851	2.602	0.241	0.174
-304.837	2.550	-0.227	0.164
-303.822	800.000	-0.110	0.396
-302.807	783.244	0.057	0.156
-301.793	79.069	0.116	-0.123
-300.778	139.979	0.059	0.078
-299.764	95.639	-0.164	0.186
-298.749	800.000	-0.008	-0.023
-297.735	800.000	-0.123	-0.347
-296.720	196.894	-0.117	0.177
-295.705	-0.363	-0.090	0.063
-294.691	800.000	-0.017	0.069
-293.676	800.000	0.095	-0.330
-292.662	15.469	-0.195	0.152
-291.647	60.156	-0.349	-0.343
-290.632	-47.717	-0.267	0.129
-289.618	-200.000	0.008	-0.182
-288.603	142.926	0.243	0.321
-287.589	800.000	-0.048	0.179
-286.574	-48.100	-0.079	0.038
-285.559	-136.616	0.253	0.029
-284.545	-34.397	-0.255	0.139
-283.530	-43.251	0.367	0.185
-282.516	-113.699	-0.273	0.053
-281.501	-200.000	0.050	-0.259
-280.486	800.000	0.036	0.107
-279.472	-200.000	-0.020	-0.249
-278.457	31.942	0.074	0.063
-277.443	-200.000	-0.142	-0.000
-276.428	-84.253	0.176	0.055
-275.413	-68.633	0.250	-0.096
-274.399	4.722	-0.166	-0.121
-273.384	800.000	-0.042	0.182
-272.370	104.153	0.146	0.170
-271.355	-173.976	0.227	0.007
-270.340	-10.883	0.073	0.048
-269.326	270.226	0.065	0.114
-268.311	110.085	0.180	-0.214
-267.297	-200.000	0.010	0.050
-266.282	-85.941	0.172	-0.053
-265.267	-97.509	-0.126	0.032
-264.253	800.000	-0.059	-0.185
-263.238	-200.000	-0.009	-0.282
-262.224	-114.378	0.076	0.015
-261.209	784.185	-0.098	0.267
-260.195	-104.640	0.158	-0.036
-259.180	-163.931	0.067	0.003
-258.165	92.080	-0.329	-0.368
-257.151	-200.000	0.024	0.372
-256.136	800.000	0.090	-0.319
-255.122	-17.206	0.301	0.188
-254.107	-13.983	0.291	0.186
-253.092	14.692	0.059	-0.046
-252.078	110.364	0.255	0.303
-251.063	-68.560	0.278	-0.107
-250.049	-200.000	-0.017	-0.278
-249.034	81.782	-0.297	0.319
-248.019	-109.730	-0.056	0.012
-247.005	25.041	-0.122	-0.100
-245.990	127.458	0.116	-0.146
-244.976	-139.745	-0.303	-0.032
-243.961	-156.833	0.307	0.019
-242.946	800.000	-0.068	-0.187
-241.932	236.429	-0.056	0.092
-240.917	800.000	0.085	0.349
-239.903	-200.000	-0.018	0.081
-238.888	143.741	0.043	-0.057
-237.873	-95.055	-0.278	-0.075
-236.859	-144.541	-0.165	0.015
-235.844	24.750	-0.112	0.092
-234.830	310.160	0.071	-0.132
-233.815	-105.087	-0.049	0.011
-232.800	800.000	0.109	0.401
-231.786	-51.794	0.187	-0.086
-230.771	800.000	0.082	-0.250
-229.757	-34.564	0.406	0.220
-228.742	-77.630	-0.180	0.062
-227.727	800.000	-0.112	0.314
-226.713	509.482	0.086	-0.199
-225.698	-74.979	-0.258	-0.092
-224.684	-64.129	0.113	-0.046
-223.669	-65.946	0.248	0.098
-222.655	-165.235	-0.211	-0.009
-221.640	-34.698	0.414	-0.224
-220.625	0.341	0.079	-0.056
-219.611	603.181	-0.019	0.048
-218.596	-200.000	-0.018	0.374
-217.582	-111.083	-0.272	0.055
-216.567	-200.000	0.004	-0.060
-215.552	-200.000	0.001	0.026
-214.538	-4.472	0.277	-0.189
-213.523	313.875	-0.040	0.074
-212.509	31.940	-0.059	0.051
-211.494	800.000	0.014	0.044
-210.479	-74.126	-0.222	0.080
-209.465	-200.000	0.121	0.594
-208.450	-87.825	-0.174	-0.052
-207.436	-96.225	0.195	0.051
-206.421	17.165	0.233	-0.183
-205.406	134.768	0.202	0.259
-204.392	20.353	-0.454	0.363
-203.377	325.479	-0.073	0.139
-202.363	339.567	0.117	0.225
-201.348	-180.949	0.477	0.010
-200.333	398.574	-0.160	-0.332
-199.319	800.000	0.044	-0.159
-198.304	66.788	0.059	0.059
-197.290	-200.000	-0.009	-0.096
-196.275	274.741	0.156	-0.274
-195.260	109.224	-0.170	0.201
-194.246	526.805	-0.042	-0.097
-193.231	-200.000	-0.026	-0.163
-192.217	-79.784	0.137	0.046
-191.202	-56.498	0.168	0.074
-190.187	-63.473	0.150	0.061
-189.173	-131.530	0.203	-0.026
-188.158	-104.264	-0.182	0.042
-187.144	65.578	0.205	0.206
-186.129	-144.637	-0.102	0.009
-185.114	-156.954	-0.198	-0.012
-184.100	41.400	0.036	-0.032
-183.085	-11.198	0.235	0.153
-182.071	800.000	0.039	0.160
-181.056	800.000	-0.118	-0.340
-180.042	118.197	0.074	-0.090
-179.027	800.000	-0.069	0.216
-178.012	-161.005	0.329	-0.017
-176.998	157.742	-0.180	-0.247
-175.983	-117.529	0.188	-0.034
-174.969	-90.384	-0.260	0.075
-173.954	800.000	-0.080	0.242
-172.939	33.365	-0.137	-0.118
-171.925	-126.641	-0.276	-0.040
-170.910	-200.000	-0.015	0.087
-169.896	-200.000	0.040	0.483
-168.881	-200.000	0.014	-0.174
-167.866	186.314	-0.108	0.158
-166.852	5.454	-0.211	0.154
-165.837	-200.000	0.078	0.403
-164.823	-200.000	0.119	-0.001
-163.808	297.870	-0.146	0.265
-162.793	89.999	0.265	-0.293
-161.779	196.161	-0.038	-0.056
-160.764	800.000	0.066	-0.243
-159.750	209.796	0.203	-0.315
-158.735	-200.000	0.033	0.289
-157.720	200.567	0.040	0.060
-156.706	-154.135	-0.119	-0.008
-155.691	-200.000	0.015	-0.167
-154.677	-143.802	0.178	0.017
-153.662	488.384	0.215	-0.485
-152.647	180.172	0.033	0.047
-151.633	800.000	0.153	0.448
-150.618	800.000	-0.112	-0.356
-149.604	800.000	-0.068	-0.229
-148.589	346.246	-0.100	0.195
-147.574	-39.280	0.275	-0.142
-146.560	168.799	-0.071	0.100
-145.545	-200.000	0.020	0.133
-144.531	420.016	-0.080	-0.168
-143.516	93.017	0.093	-0.104
-142.502	-96.682	-0.180	0.047
-141.487	-200.000	-0.012	-0.108
-140.472	-200.000	-0.001	0.125
-139.458	188.400	-0.043	0.064
-138.443	219.672	-0.108	0.170
-137.429	92.205	0.205	0.228
-136.414	-106.563	-0.481	-0.106
-135.399	178.861	-0.137	0.198
-134.385	-91.971	0.221	-0.062
-133.370	800.000	-0.092	0.290
-132.356	120.494	-0.098	0.121
-131.341	262.937	0.094	0.162
-130.326	27.183	-0.054	-0.045
-129.312	164.866	0.249	-0.347
-128.297	-137.764	0.298	-0.033
-127.283	152.080	0.178	-0.239
-126.268	-200.000	-0.025	-0.275
-125.253	-169.199	0.131	-0.005
-124.239	-65.323	0.141	-0.056
-123.224	-172.640	0.144	-0.004
-122.210	-92.573	0.091	-0.025
-121.195	383.222	0.123	-0.251
