DTS Sentinel unit serial number:	SN413079Multiplexer serial number:	ORYXHardware model number:	OX4-SRSoftware version number:	ORYX F/W v4.00 Oryx Data Collector v3.7.2.0data status	okinstallation	princeton_trtdifferential loss correction	single-endedforward channel	channel 4reverse channel	N/Adate	2019/09/19time	12:01:35forward acquisition time	60.00reverse acquisition time	0.00gamma	496.2192k internal	0.2325k external	0.2325temperature offset calibration	1.0018default loss term (dB/km)	0.3790temperature slope calibration	1.0000multiplexer offset coefficient	1.0000multiplexer slope coefficient	1.0000fibre end	0.00T internal ref (°C)	26.06T ext. ref 1 (°C)	0.83T ext. ref 2 (°C)	22.02length (m)	temperature (°C)	Stokes	anti-Stokes-747.200	178.036	0.211	0.311
-746.185	-12.110	0.112	-0.074
-745.171	583.266	0.069	0.171
-744.156	-67.772	-0.132	0.052
-743.142	800.000	-0.066	0.252
-742.127	-109.238	-0.152	-0.033
-741.112	-82.811	0.342	0.111
-740.098	-73.138	-0.404	0.150
-739.083	-184.519	0.094	0.002
-738.069	303.866	-0.254	0.475
-737.054	365.616	-0.176	0.357
-736.039	104.713	0.178	-0.211
-735.025	800.000	-0.097	-0.421
-734.010	98.893	0.087	0.101
-732.996	-200.000	-0.040	-0.206
-731.981	-128.915	0.261	0.037
-730.966	-200.000	0.001	0.045
-729.952	448.518	0.098	0.217
-728.937	-34.416	-0.093	-0.051
-727.923	39.259	0.219	-0.197
-726.908	23.929	0.073	-0.061
-725.894	-200.000	0.019	0.111
-724.879	215.692	-0.107	-0.172
-723.864	800.000	0.132	0.413
-722.850	-133.323	0.185	0.023
-721.835	172.172	0.060	0.087
-720.821	265.016	0.166	-0.292
-719.806	108.028	-0.178	-0.214
-718.791	118.412	-0.189	0.236
-717.777	-121.490	-0.139	-0.023
-716.762	-144.722	-0.142	-0.013
-715.748	-65.837	-0.223	-0.090
-714.733	546.608	0.054	-0.130
-713.718	37.091	-0.158	0.141
-712.704	-15.014	0.095	-0.061
-711.689	71.258	0.122	0.127
-710.675	-200.000	-0.002	0.116
-709.660	15.086	-0.329	0.260
-708.645	136.194	0.251	-0.329
-707.631	-82.743	-0.287	-0.094
-706.616	110.229	0.119	0.144
-705.602	576.962	-0.015	0.037
-704.587	44.123	-0.052	0.048
-703.572	800.000	-0.034	0.143
-702.558	-2.695	0.128	-0.090
-701.543	-104.757	-0.183	-0.042
-700.529	530.252	0.055	0.132
-699.514	16.065	-0.176	0.140
-698.499	800.000	-0.014	0.039
-697.485	-4.684	0.212	-0.147
-696.470	-86.421	-0.089	-0.028
-695.456	273.726	0.083	-0.147
-694.441	-92.392	-0.150	0.043
-693.426	800.000	-0.058	0.217
-692.412	-14.602	-0.110	-0.071
-691.397	-119.121	-0.218	0.038
-690.383	16.686	0.131	0.104
-689.368	10.493	-0.148	-0.114
-688.354	-125.650	-0.270	0.041
-687.339	-200.000	-0.024	-0.143
-686.324	-72.880	0.023	-0.008
-685.310	-131.764	-0.428	0.056
-684.295	800.000	0.113	-0.375
-683.281	739.787	0.096	-0.259
-682.266	579.373	0.030	-0.073
-681.251	-200.000	-0.010	-0.149
-680.237	164.619	-0.051	0.072
-679.222	-63.257	0.183	-0.076
-678.208	-200.000	-0.011	-0.076
-677.193	800.000	-0.121	-0.411
-676.178	-200.000	0.001	-0.143
-675.164	-74.394	0.128	0.047
-674.149	80.499	-0.055	0.060
-673.135	800.000	0.020	-0.068
-672.120	282.670	-0.121	-0.219
-671.105	254.540	0.105	-0.181
-670.091	-34.815	-0.208	-0.114
-669.076	449.751	-0.031	-0.070
-668.062	-45.071	0.161	0.081
-667.047	-130.136	-0.421	-0.058
-666.032	800.000	0.136	-0.428
-665.018	-200.000	0.082	-0.437
-664.003	755.553	-0.104	-0.284
-662.989	-100.859	0.109	-0.027
-661.974	229.222	0.089	0.147
-660.959	-200.000	-0.009	-0.209
-659.945	-200.000	-0.034	-0.196
-658.930	692.093	-0.043	0.113
-657.916	-74.804	-0.275	0.099
-656.901	26.588	0.142	0.119
-655.886	-155.086	-0.233	-0.015
-654.872	253.315	0.156	-0.268
-653.857	641.684	-0.084	-0.215
-652.843	-133.024	0.384	-0.049
-651.828	26.697	-0.088	0.074
-650.814	116.241	0.132	0.163
-649.799	800.000	0.036	-0.116
-648.784	226.594	-0.108	-0.176
-647.770	-160.934	0.225	0.012
-646.755	-89.528	0.073	-0.022
-645.741	68.937	-0.108	-0.111
-644.726	-200.000	0.011	-0.056
-643.711	43.858	-0.130	0.119
-642.697	-44.402	0.139	0.070
-641.682	200.533	-0.077	-0.118
-640.668	742.578	-0.036	0.098
-639.653	82.545	0.081	-0.088
-638.638	-200.000	0.008	-0.245
-637.624	-200.000	0.041	-0.398
-636.609	-200.000	-0.047	-0.313
-635.595	-200.000	-0.012	-0.192
-634.580	-88.895	-0.352	-0.105
-633.565	-200.000	-0.016	-0.408
-632.551	-141.988	0.175	-0.018
-631.536	105.443	0.135	-0.160
-630.522	-200.000	0.088	0.434
-629.507	519.247	0.043	0.100
-628.492	-200.000	-0.029	0.140
-627.478	800.000	0.084	0.314
-626.463	102.397	-0.299	0.351
-625.449	120.391	-0.132	0.165
-624.434	-126.307	0.046	-0.007
-623.419	-110.349	0.179	-0.037
-622.405	130.644	0.093	0.120
-621.390	-54.022	-0.328	0.150
-620.376	-95.750	-0.203	0.054
-619.361	-78.704	0.161	-0.055
-618.346	-99.837	-0.193	0.049
-617.332	281.106	-0.146	-0.262
-616.317	-200.000	0.005	0.253
-615.303	48.972	-0.043	0.041
-614.288	84.907	0.166	-0.183
-613.273	800.000	0.078	0.232
-612.259	235.467	-0.083	0.138
-611.244	-200.000	0.002	-0.171
-610.230	-166.923	0.132	0.005
-609.215	-170.448	-0.391	0.014
-608.201	-99.202	-0.090	0.023
-607.186	-129.256	-0.244	0.034
-606.171	33.743	0.168	-0.147
-605.157	75.047	-0.130	0.138
-604.142	478.201	-0.117	0.266
-603.128	90.352	-0.183	-0.206
-602.113	81.351	-0.081	-0.087
-601.098	-106.404	0.239	0.054
-600.084	-110.545	-0.115	-0.024
-599.069	800.000	-0.075	-0.325
-598.055	-83.233	-0.402	0.130
-597.040	-200.000	0.047	-0.282
-596.025	724.507	-0.109	0.292
-595.011	461.505	-0.162	-0.362
-593.996	23.822	0.177	-0.146
-592.982	-98.553	-0.294	-0.075
-591.967	-59.824	0.245	-0.105
-590.952	-132.213	-0.404	0.053
-589.938	800.000	-0.110	-0.310
-588.923	197.086	-0.143	-0.219
-587.909	2.663	-0.191	-0.139
-586.894	-104.360	-0.073	-0.017
-585.879	-124.091	0.170	0.027
-584.865	-33.394	-0.094	-0.052
-583.850	-63.765	0.028	-0.011
-582.836	-130.811	0.232	-0.031
-581.821	55.487	0.141	-0.136
-580.806	5.992	0.125	-0.092
-579.792	237.841	-0.223	-0.371
-578.777	313.741	0.078	-0.147
-577.763	378.245	-0.214	0.438
-576.748	-200.000	-0.005	-0.416
-575.733	361.702	-0.079	-0.160
-574.719	79.434	-0.200	0.215
-573.704	-37.188	0.045	0.024
-572.690	410.995	0.027	0.056
-571.675	-149.075	0.355	0.029
-570.661	-112.037	0.033	0.007
-569.646	372.164	0.091	-0.186
-568.631	-7.769	0.046	0.031
-567.617	-200.000	0.000	-0.160
-566.602	-75.655	0.434	-0.155
-565.588	-73.493	-0.097	0.035
-564.573	70.742	-0.179	-0.185
-563.558	599.412	0.038	-0.094
-562.544	-200.000	0.034	0.161
-561.529	683.107	0.108	0.281
-560.515	800.000	0.068	-0.244
-559.500	79.903	0.184	-0.199
-558.485	-200.000	0.004	-0.132
-557.471	-132.543	-0.201	0.026
-556.456	369.039	-0.160	-0.325
-555.442	121.810	-0.064	0.080
-554.427	26.051	-0.099	0.083
-553.412	-90.425	0.547	0.159
-552.398	-143.790	-0.268	0.025
-551.383	-200.000	-0.052	0.256
-550.369	-90.183	-0.241	0.070
-549.354	-200.000	-0.014	0.304
-548.339	182.278	-0.159	0.235
-547.325	-53.891	0.047	-0.021
-546.310	-200.000	0.019	0.221
-545.296	800.000	0.116	-0.342
-544.281	-103.955	0.334	0.078
-543.266	-48.198	0.177	0.085
-542.252	-39.816	0.411	-0.215
-541.237	461.894	-0.164	-0.367
-540.223	-52.412	-0.196	0.091
-539.208	251.643	0.075	0.127
-538.193	-26.811	-0.447	-0.261
-537.179	143.482	-0.075	-0.100
-536.164	269.430	-0.122	-0.215
-535.150	-11.100	-0.163	-0.107
-534.135	249.844	-0.110	0.186
-533.121	503.375	-0.063	-0.147
-532.106	674.595	0.051	0.133
-531.091	159.858	0.071	-0.099
-530.077	-200.000	-0.014	-0.259
-529.062	-6.226	0.218	-0.149
-528.048	-68.243	0.272	0.106
-527.033	22.068	0.063	0.051
-526.018	541.999	0.059	-0.141
-525.004	-86.977	0.078	0.024
-523.989	-53.391	-0.144	-0.066
-522.975	31.326	0.082	0.070
-521.960	645.938	-0.078	-0.199
-520.945	40.516	-0.071	-0.064
-519.931	-89.038	0.126	-0.037
-518.916	472.279	-0.147	-0.330
-517.902	-101.528	-0.215	0.052
-516.887	-114.577	0.369	0.071
-515.872	-30.676	-0.082	-0.046
-514.858	-119.305	-0.207	0.036
-513.843	800.000	-0.036	-0.145
-512.829	-200.000	-0.003	-0.066
-511.814	-72.052	-0.163	-0.061
-510.799	-9.546	0.140	-0.093
-509.785	103.848	0.321	0.377
-508.770	236.461	-0.193	-0.320
-507.756	184.063	-0.148	-0.219
-506.741	-29.692	-0.286	-0.163
-505.726	213.670	0.181	-0.287
-504.712	-127.857	0.420	-0.060
-503.697	-43.059	-0.244	-0.123
-502.683	66.150	0.102	-0.104
-501.668	273.769	-0.235	-0.415
-500.653	284.280	0.119	-0.214
-499.639	-65.342	0.146	0.059
-498.624	20.438	-0.225	-0.182
-497.610	-108.899	0.371	0.079
-496.595	-200.000	0.068	-0.330
-495.581	123.665	0.090	-0.113
-494.566	129.934	-0.021	-0.026
-493.551	-200.000	-0.066	-0.377
-492.537	-157.025	-0.120	-0.007
-491.522	-52.430	0.043	-0.020
-490.508	-89.045	0.230	-0.068
-489.493	712.219	0.053	0.141
-488.478	65.609	-0.204	-0.206
-487.464	58.413	-0.189	0.185
-486.449	83.916	0.148	0.161
-485.435	209.292	0.142	0.223
-484.420	-6.375	0.204	0.139
-483.405	92.020	0.151	-0.170
-482.391	-200.000	0.065	0.483
-481.376	-45.442	0.040	-0.020
-480.362	251.132	-0.073	-0.124
-479.347	156.652	0.046	0.063
-478.332	538.900	-0.100	-0.237
-477.318	-15.864	0.117	-0.074
-476.303	93.375	0.123	0.138
-475.289	-44.188	0.168	0.084
-474.274	3.666	0.086	0.062
-473.259	170.398	0.031	0.045
-472.245	-102.798	0.140	0.033
-471.230	-62.177	-0.062	-0.026
-470.216	-58.189	-0.138	0.060
-469.201	-28.363	-0.136	0.078
-468.186	-169.823	0.154	-0.006
-467.172	800.000	-0.062	0.182
-466.157	800.000	-0.019	0.078
-465.143	749.721	0.102	0.274
-464.128	-121.890	-0.323	-0.053
-463.113	-164.712	-0.071	-0.003
-462.099	-200.000	-0.038	-0.253
-461.084	-158.404	0.541	0.031
-460.070	51.586	-0.161	0.153
-459.055	-200.000	0.018	0.183
-458.040	49.693	0.108	0.102
-457.026	-200.000	-0.015	-0.092
-456.011	800.000	-0.077	-0.280
-454.997	800.000	0.044	-0.189
-453.982	117.365	0.109	-0.133
-452.968	-200.000	0.036	-0.351
-451.953	716.470	-0.061	-0.161
-450.938	254.065	0.083	0.142
-449.924	-200.000	-0.051	0.343
-448.909	-80.566	0.273	-0.091
-447.895	224.718	-0.124	-0.199
-446.880	-62.736	0.110	-0.045
-445.865	-80.671	-0.258	-0.086
-444.851	-16.646	-0.147	0.093
-443.836	-109.533	-0.210	-0.044
-442.822	205.477	0.078	0.121
-441.807	-23.972	-0.021	0.013
-440.792	-108.075	-0.125	-0.027
-439.778	100.528	0.260	0.301
-438.763	-88.631	-0.291	0.086
-437.749	-36.067	0.147	-0.079
-436.734	-200.000	-0.003	-0.108
-435.719	-200.000	-0.084	-0.369
-434.705	-6.687	-0.085	0.057
-433.690	-87.705	-0.162	0.049
-432.676	116.298	0.101	0.123
-431.661	32.789	0.159	-0.137
-430.646	800.000	0.073	0.224
-429.632	-200.000	-0.012	0.288
-428.617	-12.419	0.059	0.038
-427.603	-200.000	-0.013	-0.174
-426.588	-152.870	0.264	-0.019
-425.573	-25.912	-0.260	-0.153
-424.559	33.221	-0.102	0.088
-423.544	67.885	-0.179	-0.183
-422.530	-26.606	-0.212	-0.124
-421.515	-93.339	0.100	-0.028
-420.500	-131.413	-0.438	0.058
-419.486	93.633	0.063	0.071
-418.471	63.777	0.094	0.094
-417.457	434.802	-0.103	0.222
-416.442	-68.823	0.257	0.099
-415.428	78.421	-0.296	-0.315
-414.413	-74.954	-0.082	0.029
-413.398	-74.129	0.126	-0.046
-412.384	-19.513	-0.119	-0.074
-411.369	-78.210	-0.309	-0.106
-410.355	-74.639	0.218	-0.078
-409.340	-200.000	-0.037	0.295
-408.325	800.000	-0.051	-0.147
-407.311	800.000	0.034	-0.143
-406.296	297.095	0.032	0.059
-405.282	-143.769	-0.204	-0.019
-404.267	129.736	0.103	0.132
-403.252	-42.689	0.357	-0.181
-402.238	66.403	0.099	-0.100
-401.223	-200.000	-0.010	-0.137
-400.209	-165.316	0.114	-0.005
-399.194	415.586	-0.075	0.159
-398.179	-52.807	0.176	0.081
-397.165	-62.383	0.177	0.073
-396.150	551.581	0.080	0.192
-395.136	-200.000	0.038	-0.261
-394.121	800.000	-0.127	0.426
-393.106	800.000	-0.049	0.151
-392.092	-139.153	0.160	-0.017
-391.077	-200.000	0.001	-0.116
-390.063	16.890	0.136	0.107
-389.048	-8.686	0.064	-0.043
-388.033	-144.395	-0.205	-0.019
-387.019	-200.000	0.017	0.075
-386.004	454.949	-0.132	-0.291
-384.990	627.265	0.084	-0.210
-383.975	-200.000	-0.009	0.179
-382.960	800.000	-0.066	-0.249
-381.946	227.890	0.075	0.121
-380.931	115.239	0.137	-0.166
-379.917	231.424	-0.126	-0.205
-378.902	800.000	0.108	-0.321
-377.888	110.379	0.132	-0.158
-376.873	145.785	-0.012	-0.017
-375.858	119.316	-0.133	0.164
-374.844	800.000	0.108	0.405
-373.829	424.003	-0.138	-0.295
-372.815	800.000	0.090	-0.276
-371.800	-67.648	-0.304	-0.119
-370.785	800.000	-0.082	0.244
-369.771	-200.000	-0.005	-0.101
-368.756	424.260	-0.172	0.368
-367.742	-120.135	0.099	-0.017
-366.727	-200.000	0.009	-0.130
-365.712	633.549	0.121	0.304
-364.698	210.147	-0.121	-0.189
-363.683	-64.904	-0.166	0.067
-362.669	-152.201	-0.230	0.017
-361.654	-200.000	-0.050	-0.471
-360.639	-85.518	-0.082	0.025
-359.625	800.000	-0.046	0.188
-358.610	-200.000	-0.050	-0.225
-357.596	516.263	0.082	0.190
-356.581	-43.538	0.274	0.137
-355.566	-200.000	0.019	0.093
-354.552	-74.683	0.103	-0.037
-353.537	-85.175	-0.213	-0.066
-352.523	-65.599	0.081	-0.032
-351.508	-200.000	-0.022	0.187
-350.493	-74.608	-0.323	0.115
-349.479	650.417	0.096	-0.245
-348.464	145.984	0.207	-0.276
-347.450	-113.850	0.203	-0.039
-346.435	-167.662	-0.138	0.005
-345.420	-144.534	0.302	0.028
-344.406	62.866	-0.053	-0.052
-343.391	728.302	0.166	0.439
-342.377	47.332	-0.339	-0.314
-341.362	146.493	0.124	-0.166
-340.348	-200.000	0.012	0.182
-339.333	-83.663	0.158	0.050
-338.318	-26.625	0.065	0.038
-337.304	-140.186	0.160	-0.017
-336.289	2.634	-0.272	-0.196
-335.275	-97.212	0.183	-0.048
-334.260	-200.000	-0.039	-0.272
-333.245	-96.148	-0.208	0.055
-332.231	-200.000	-0.099	0.441
-331.216	-34.103	0.045	0.025
-330.202	6.019	0.086	0.063
-329.187	18.171	0.288	-0.228
-328.172	-189.249	0.194	-0.002
-327.158	369.823	-0.062	0.125
-326.143	-64.801	0.328	-0.132
-325.129	-42.918	0.265	0.134
-324.114	-17.947	-0.266	0.165
-323.099	87.510	-0.085	-0.093
-322.085	668.998	-0.044	-0.112
-321.070	-200.000	0.029	0.361
-320.056	-70.034	-0.278	0.105
-319.041	727.391	-0.017	0.044
-318.026	-95.944	-0.085	-0.023
-317.012	-200.000	0.008	0.058
-315.997	-185.748	-0.203	-0.003
-314.983	478.947	-0.028	0.064
-313.968	-122.604	-0.233	0.037
-312.953	-200.000	0.016	0.116
-311.939	329.827	0.058	-0.110
-310.924	-64.722	-0.456	0.183
-309.910	-26.263	-0.099	0.057
-308.895	-11.851	-0.293	0.190
-307.880	-4.607	0.158	0.108
-306.866	-42.366	0.076	-0.039
-305.851	629.744	0.042	-0.106
-304.837	-116.239	-0.324	0.060
-303.822	-26.119	0.112	0.065
-302.807	190.524	-0.089	-0.133
-301.793	-103.968	0.259	-0.060
-300.778	-60.384	0.121	0.051
-299.764	-200.000	0.005	-0.092
-298.749	152.632	0.071	0.097
-297.735	470.357	0.110	-0.245
-296.720	15.994	0.082	0.064
-295.705	147.643	0.209	0.280
-294.691	-137.031	0.385	-0.044
-293.676	-68.771	-0.078	0.030
-292.662	408.468	0.070	-0.146
-291.647	66.153	0.247	0.248
-290.632	-52.925	-0.173	0.079
-289.618	800.000	-0.060	0.214
-288.603	-58.754	0.158	0.068
-287.589	-60.103	-0.026	-0.011
-286.574	713.175	-0.050	-0.132
-285.559	-28.002	0.206	-0.118
-284.545	151.794	0.040	-0.055
-283.530	800.000	0.056	0.238
-282.516	-184.636	-0.294	-0.005
-281.501	800.000	0.054	0.185
-280.486	46.849	-0.190	0.175
-279.472	393.833	0.119	-0.246
-278.457	-119.156	0.399	-0.069
-277.443	-54.492	0.142	0.064
-276.428	81.801	-0.054	0.058
-275.413	-44.650	0.116	0.057
-274.399	-9.702	0.139	-0.092
-273.384	-35.959	-0.221	-0.118
-272.370	-139.274	-0.279	-0.030
-271.355	73.144	-0.289	0.299
-270.340	-200.000	0.102	0.521
-269.326	452.514	0.105	0.230
-268.311	-200.000	0.054	0.252
-267.297	264.343	-0.058	0.100
-266.282	-200.000	-0.001	0.142
-265.267	-144.169	0.201	-0.019
-264.253	800.000	-0.104	-0.450
-263.238	800.000	-0.084	0.293
-262.224	72.566	-0.111	0.114
-261.209	521.937	-0.100	0.233
-260.195	4.474	-0.398	0.289
-259.180	-87.418	-0.289	0.087
-258.165	-99.755	0.442	-0.109
-257.151	-200.000	-0.007	-0.073
-256.136	141.134	-0.254	0.332
-255.122	149.023	-0.091	-0.121
-254.107	-114.336	0.287	-0.055
-253.092	20.938	0.043	0.034
-252.078	-67.094	-0.208	-0.081
-251.063	53.821	-0.018	0.017
-250.049	-102.221	-0.230	0.055
-249.034	486.420	-0.095	0.214
-248.019	78.473	0.188	0.199
-247.005	632.372	0.066	-0.165
-245.990	800.000	-0.059	-0.228
-244.976	78.112	0.174	0.184
-243.961	-14.677	0.237	-0.151
-242.946	78.531	0.254	-0.268
-241.932	40.191	0.249	0.222
-240.917	747.082	0.019	0.050
-239.903	-200.000	0.048	0.223
-238.888	-15.552	-0.168	0.106
-237.873	-11.533	0.111	0.072
-236.859	31.461	-0.126	0.107
-235.844	265.394	-0.119	0.206
-234.830	-200.000	0.006	0.271
-233.815	800.000	0.039	-0.134
-232.800	222.451	0.098	0.156
-231.786	-54.421	-0.166	-0.074
-230.771	399.671	0.098	0.203
-229.757	-139.252	-0.176	-0.019
-228.742	-75.061	-0.238	-0.084
-227.727	496.120	-0.102	0.233
-226.713	-171.724	-0.225	-0.007
-225.698	612.656	0.085	0.209
-224.684	-23.192	0.236	0.141
-223.669	73.301	0.154	0.159
-222.655	-56.750	-0.408	0.178
-221.640	34.043	0.193	0.166
-220.625	-58.963	0.377	0.161
-219.611	-200.000	-0.007	0.139
-218.596	214.294	-0.091	0.143
-217.582	99.496	0.068	-0.078
-216.567	800.000	0.069	-0.198
-215.552	-200.000	-0.035	-0.185
-214.538	70.570	0.261	-0.267
-213.523	-13.900	0.147	0.094
-212.509	412.085	-0.077	-0.162
-211.494	-55.596	0.132	-0.058
-210.479	800.000	0.009	0.031
-209.465	-128.759	0.270	-0.038
-208.450	-200.000	-0.002	0.315
-207.436	453.514	-0.073	0.160
-206.421	428.654	-0.010	0.022
-205.406	-33.537	-0.360	0.196
-204.392	237.118	-0.131	-0.215
-203.377	-11.687	0.186	0.121
-202.363	-200.000	-0.058	0.439
-201.348	-24.813	0.158	-0.093
-200.333	-133.388	0.604	0.075
-199.319	-23.921	0.228	-0.135
-198.304	-66.906	-0.200	0.078
-197.290	44.188	-0.141	0.128
-196.275	-200.000	0.029	-0.161
-195.260	-200.000	-0.072	-0.372
-194.246	-141.400	0.230	-0.023
-193.231	-81.707	0.151	0.049
-192.217	-200.000	0.010	0.179
-191.202	-148.851	-0.120	-0.010
-190.187	-200.000	-0.004	0.241
-189.173	-116.951	-0.058	0.010
-188.158	103.556	0.137	0.158
-187.144	-200.000	0.026	0.117
-186.129	138.951	0.097	0.126
-185.114	-62.753	0.099	0.041
-184.100	638.331	-0.109	0.273
-183.085	624.797	-0.111	-0.276
-182.071	-138.821	0.138	-0.015
-181.056	-200.000	-0.050	0.234
-180.042	-53.244	0.461	-0.209
-179.027	-56.548	-0.172	-0.075
-178.012	390.974	-0.081	-0.166
-176.998	118.380	-0.035	0.043
-175.983	-54.130	-0.250	0.112
-174.969	-200.000	0.029	0.143
-173.954	-200.000	-0.014	0.128
-172.939	-107.369	-0.177	0.038
-171.925	800.000	-0.078	0.296
-170.910	310.148	-0.036	-0.067
-169.896	-46.344	-0.299	0.145
-168.881	136.940	0.092	0.118
-167.866	800.000	-0.101	-0.341
-166.852	-75.400	-0.166	-0.058
-165.837	12.217	0.376	0.285
-164.823	800.000	-0.072	-0.225
-163.808	-45.457	0.203	-0.099
-162.793	-150.762	-0.335	-0.025
-161.779	-49.013	-0.228	-0.108
-160.764	-122.491	0.119	-0.019
-159.750	-79.879	-0.264	0.088
-158.735	198.226	0.071	-0.107
-157.720	-42.747	0.179	-0.090
-156.706	-46.016	0.131	-0.064
-155.691	-200.000	-0.010	-0.097
-154.677	-9.027	0.123	0.081
-153.662	-59.563	0.155	0.066
-152.647	-200.000	0.023	0.299
-151.633	172.736	0.069	0.098
-150.618	190.882	-0.133	0.196
-149.604	7.617	-0.165	0.122
-148.589	-200.000	0.013	0.058
-147.574	800.000	-0.042	-0.148
-146.560	97.538	-0.220	0.249
-145.545	-168.421	-0.264	-0.010
-144.531	342.846	-0.077	-0.148
-143.516	81.157	0.289	-0.307
-142.502	-200.000	-0.008	-0.195
-141.487	800.000	-0.060	0.208
-140.472	-200.000	0.012	-0.203
-139.458	144.345	0.155	-0.203
-138.443	-68.094	0.188	-0.072
-137.429	-66.168	0.370	-0.145
-136.414	-37.337	0.067	0.035
-135.399	-83.092	-0.349	-0.111
-134.385	130.146	-0.047	0.060
-133.370	92.610	0.194	-0.216
-132.356	-147.075	-0.425	0.036
-131.341	-59.115	-0.095	-0.041
-130.326	172.129	0.212	-0.301
-129.312	132.714	0.146	-0.185
-128.297	-5.783	-0.175	-0.118
-127.283	-200.000	-0.020	-0.120
-126.268	27.159	0.035	0.029
-125.253	-74.509	-0.141	0.050
-124.239	-169.603	-0.064	0.002
-123.224	-139.456	-0.148	-0.016
-122.210	211.678	-0.039	0.061
-121.195	539.234	0.124	-0.291
