DTS Sentinel unit serial number:	SN413079Multiplexer serial number:	ORYXHardware model number:	OX4-SRSoftware version number:	ORYX F/W v4.00 Oryx Data Collector v3.7.2.0data status	okinstallation	princeton_trtdifferential loss correction	single-endedforward channel	channel 4reverse channel	N/Adate	2019/09/18time	21:21:35forward acquisition time	60.00reverse acquisition time	0.00gamma	496.2192k internal	0.2330k external	0.2330temperature offset calibration	1.0034default loss term (dB/km)	0.3790temperature slope calibration	1.0000multiplexer offset coefficient	1.0000multiplexer slope coefficient	1.0000fibre end	0.00T internal ref (°C)	25.58T ext. ref 1 (°C)	0.82T ext. ref 2 (°C)	18.12length (m)	temperature (°C)	Stokes	anti-Stokes-747.200	-81.310	0.147	-0.049
-746.185	129.779	-0.273	0.352
-745.171	49.366	-0.166	0.157
-744.156	-108.925	-0.055	0.012
-743.142	-44.079	-0.326	-0.165
-742.127	800.000	-0.085	0.291
-741.112	3.281	-0.030	0.022
-740.098	-179.567	-0.238	0.005
-739.083	-90.762	0.042	-0.012
-738.069	107.348	-0.098	0.117
-737.054	-200.000	0.021	-0.188
-736.039	-200.000	0.014	0.273
-735.025	727.745	0.023	-0.062
-734.010	-200.000	-0.406	-0.000
-732.996	167.262	-0.089	-0.127
-731.981	-200.000	0.006	-0.146
-730.966	-98.532	-0.337	-0.087
-729.952	-40.522	0.134	0.070
-728.937	-8.163	-0.141	0.095
-727.923	74.387	-0.217	0.230
-726.908	-14.718	-0.069	-0.045
-725.894	133.773	0.331	-0.431
-724.879	800.000	0.084	0.323
-723.864	287.093	-0.094	0.171
-722.850	-126.354	-0.069	0.010
-721.835	213.877	-0.070	0.111
-720.821	16.990	-0.144	-0.115
-719.806	30.527	0.263	-0.226
-718.791	207.722	-0.313	0.492
-717.777	-15.776	-0.302	-0.194
-716.762	198.294	0.179	0.275
-715.748	-36.445	0.123	-0.067
-714.733	37.464	0.144	-0.129
-713.718	-14.905	0.142	0.092
-712.704	-157.005	-0.269	0.017
-711.689	264.969	0.071	-0.125
-710.675	-200.000	0.022	0.161
-709.660	264.721	0.129	0.226
-708.645	800.000	0.056	0.231
-707.631	352.327	0.099	0.197
-706.616	110.337	0.110	-0.133
-705.602	118.317	-0.027	-0.033
-704.587	-47.108	0.565	0.277
-703.572	-200.000	-0.007	-0.058
-702.558	-99.914	0.121	-0.030
-701.543	-200.000	0.004	-0.132
-700.529	-134.652	0.527	-0.065
-699.514	-64.868	0.171	-0.070
-698.499	565.435	-0.021	0.052
-697.485	-134.866	-0.440	0.054
-696.470	800.000	0.073	-0.305
-695.456	79.838	-0.064	0.069
-694.441	260.591	-0.184	0.320
-693.426	-37.781	-0.078	-0.041
-692.412	-121.630	0.172	0.029
-691.397	-200.000	-0.027	-0.185
-690.383	-200.000	-0.000	-0.033
-689.368	236.119	-0.098	0.164
-688.354	-200.000	0.019	0.327
-687.339	-21.512	-0.158	0.097
-686.324	-158.010	-0.316	-0.019
-685.310	152.757	0.116	0.159
-684.295	-48.219	0.179	-0.087
-683.281	-200.000	0.034	-0.202
-682.266	252.827	-0.055	-0.095
-681.251	-132.177	0.398	-0.052
-680.237	632.615	0.073	-0.185
-679.222	320.239	-0.106	0.203
-678.208	24.815	-0.229	-0.191
-677.193	41.204	0.158	-0.143
-676.178	315.018	0.124	-0.234
-675.164	-61.784	-0.103	0.043
-674.149	13.771	0.086	-0.067
-673.135	-50.834	-0.345	-0.163
-672.120	-200.000	-0.024	0.188
-671.105	13.207	0.121	0.094
-670.091	92.299	0.150	-0.169
-669.076	565.661	0.054	0.131
-668.062	576.927	-0.171	-0.421
-667.047	56.944	-0.029	-0.029
-666.032	-60.919	-0.089	0.038
-665.018	-123.164	0.115	0.019
-664.003	9.544	-0.372	-0.283
-662.989	-200.000	0.031	-0.149
-661.974	-126.937	-0.501	-0.074
-660.959	-56.732	0.133	-0.059
-659.945	301.753	-0.141	0.261
-658.930	168.024	0.054	-0.077
-657.916	800.000	0.142	-0.537
-656.901	-180.882	-0.119	0.002
-655.886	-112.450	0.196	0.039
-654.872	-200.000	0.047	0.405
-653.857	-159.971	0.151	0.008
-652.843	800.000	-0.017	-0.066
-651.828	-200.000	0.040	-0.464
-650.814	-177.327	-0.148	-0.004
-649.799	376.095	0.024	-0.049
-648.784	-24.962	-0.134	0.079
-647.770	241.355	0.092	0.155
-646.755	91.737	-0.230	-0.259
-645.741	581.453	-0.111	-0.272
-644.726	800.000	-0.006	-0.028
-643.711	88.248	0.120	0.133
-642.697	-60.186	-0.253	-0.108
-641.682	37.134	0.169	0.150
-640.668	-200.000	0.057	-0.293
-639.653	-200.000	-0.015	-0.134
-638.638	-27.672	0.128	0.074
-637.624	-200.000	-0.134	0.001
-636.609	-200.000	-0.016	-0.137
-635.595	-17.198	-0.102	0.064
-634.580	-105.280	-0.156	-0.036
-633.565	-89.650	0.151	-0.045
-632.551	198.365	-0.061	0.094
-631.536	50.538	0.065	0.061
-630.522	-72.623	0.031	-0.012
-629.507	13.598	0.131	-0.102
-628.492	-50.591	-0.031	-0.015
-627.478	-200.000	-0.016	0.127
-626.463	-146.884	0.092	0.008
-625.449	-79.466	-0.194	0.066
-624.434	50.854	-0.169	0.161
-623.419	210.272	-0.087	0.138
-622.405	-120.502	0.220	0.037
-621.390	323.286	0.075	-0.144
-620.376	-200.000	0.015	0.248
-619.361	-110.429	-0.121	-0.025
-618.346	-119.558	0.201	-0.035
-617.332	-7.236	0.048	-0.032
-616.317	-55.736	-0.085	-0.038
-615.303	-49.748	-0.265	-0.126
-614.288	54.979	0.020	-0.019
-613.273	51.786	-0.093	-0.089
-612.259	325.646	-0.113	0.216
-611.244	-200.000	-0.029	-0.150
-610.230	363.197	0.091	-0.183
-609.215	800.000	0.049	0.156
-608.201	-200.000	0.023	-0.237
-607.186	-40.244	0.283	0.148
-606.171	-81.364	0.365	-0.121
-605.157	210.090	0.063	-0.099
-604.142	67.975	-0.113	-0.116
-603.128	-141.841	-0.279	0.028
-602.113	-42.202	-0.268	0.137
-601.098	800.000	0.047	-0.177
-600.084	361.640	-0.122	0.245
-599.069	800.000	-0.072	0.274
-598.055	12.557	0.217	-0.168
-597.040	-137.022	0.158	-0.018
-596.025	780.690	0.069	0.190
-595.011	-31.731	-0.296	-0.166
-593.996	800.000	-0.026	0.097
-592.982	-72.856	-0.173	0.064
-591.967	28.648	-0.077	-0.065
-590.952	447.247	-0.098	-0.216
-589.938	384.705	-0.003	0.007
-588.923	52.943	-0.091	0.087
-587.909	199.582	-0.212	-0.326
-586.894	800.000	0.039	0.163
-585.879	311.897	0.100	-0.187
-584.865	-72.571	-0.245	-0.091
-583.850	800.000	0.055	-0.216
-582.836	322.410	-0.112	-0.213
-581.821	123.318	-0.131	0.164
-580.806	6.860	0.182	-0.136
-579.792	337.266	0.106	0.206
-578.777	-200.000	-0.015	-0.179
-577.763	-200.000	0.019	0.237
-576.748	54.972	0.070	-0.068
-575.733	800.000	0.035	0.151
-574.719	51.284	0.126	-0.120
-573.704	-200.000	-0.042	0.255
-572.690	-156.069	-0.378	-0.024
-571.675	-69.146	0.150	-0.058
-570.661	241.270	0.147	0.245
-569.646	800.000	0.127	0.436
-568.631	-72.313	-0.385	0.143
-567.617	-8.569	-0.080	0.054
-566.602	110.073	0.046	-0.055
-565.588	-108.460	0.253	0.054
-564.573	305.410	-0.077	-0.144
-563.558	136.463	0.081	0.106
-562.544	244.804	-0.115	0.194
-561.529	20.127	-0.134	-0.108
-560.515	-200.000	0.011	-0.168
-559.500	163.473	-0.040	0.056
-558.485	-85.670	0.437	-0.136
-557.471	-115.904	0.236	-0.044
-556.456	305.545	-0.053	0.098
-555.442	-78.769	0.212	-0.072
-554.427	-37.937	-0.268	0.143
-553.412	112.022	-0.137	0.165
-552.398	23.383	0.072	0.059
-551.383	366.744	0.110	0.223
-550.369	87.955	-0.109	-0.121
-549.354	11.073	-0.079	-0.060
-548.339	-173.924	-0.064	0.002
-547.325	-200.000	-0.008	0.313
-546.310	69.890	-0.248	0.255
-545.296	159.503	0.137	-0.190
-544.281	56.235	-0.198	-0.192
-543.266	-63.534	0.199	-0.082
-542.252	280.088	0.065	-0.116
-541.237	32.323	0.169	0.146
-540.223	-200.000	-0.009	-0.196
-539.208	800.000	0.070	0.197
-538.193	628.663	0.045	-0.114
-537.179	-124.007	-0.106	0.017
-536.164	153.353	-0.053	-0.072
-535.150	-91.357	-0.081	0.023
-534.135	-200.000	-0.008	-0.159
-533.121	49.401	-0.126	-0.118
-532.106	-18.118	-0.119	0.075
-531.091	176.924	-0.070	0.101
-530.077	-25.144	0.062	0.036
-529.062	72.991	0.098	-0.102
-528.048	-107.017	-0.127	0.028
-527.033	-168.719	0.268	0.010
-526.018	567.997	-0.145	-0.353
-525.004	-200.000	-0.012	0.104
-523.989	800.000	0.084	0.311
-522.975	-60.050	0.208	-0.088
-521.960	-59.305	0.160	0.069
-520.945	555.851	0.071	-0.170
-519.931	-5.582	-0.076	-0.052
-518.916	-29.983	-0.339	-0.193
-517.902	108.200	0.030	-0.035
-516.887	57.878	0.049	0.048
-515.872	85.274	-0.392	-0.429
-514.858	-200.000	0.025	0.152
-513.843	-80.749	-0.574	-0.191
-512.829	-200.000	-0.010	-0.142
-511.814	222.378	0.157	-0.252
-510.799	-200.000	-0.008	-0.152
-509.785	-79.005	-0.456	0.155
-508.770	-200.000	0.220	-0.001
-507.756	3.476	-0.095	-0.069
-506.741	-8.344	0.356	-0.239
-505.726	800.000	0.080	0.276
-504.712	226.377	-0.082	0.133
-503.697	-167.191	-0.155	-0.006
-502.683	181.778	0.071	0.105
-501.668	-200.000	-0.069	-0.381
-500.653	-200.000	-0.002	-0.054
-499.639	800.000	-0.035	0.141
-498.624	291.584	0.147	0.267
-497.610	-200.000	-0.187	0.000
-496.595	664.792	-0.076	0.197
-495.581	55.623	-0.191	0.185
-494.566	-25.933	0.281	0.165
-493.551	319.577	0.113	0.214
-492.537	-200.000	0.019	0.252
-491.522	800.000	-0.137	-0.549
-490.508	212.936	-0.253	-0.398
-489.493	-60.924	0.139	0.059
-488.478	-123.433	-0.154	0.025
-487.464	17.495	0.127	0.101
-486.449	-25.413	-0.397	-0.234
-485.435	-200.000	-0.004	0.121
-484.420	-33.397	-0.295	-0.163
-483.405	181.544	0.218	0.319
-482.391	245.291	0.138	0.232
-481.376	92.934	-0.157	0.176
-480.362	4.737	-0.062	0.045
-479.347	-102.340	0.323	0.077
-478.332	320.852	0.170	0.322
-477.318	-2.191	-0.309	-0.216
-476.303	67.556	-0.062	0.063
-475.289	-200.000	-0.056	-0.388
-474.274	-131.329	-0.081	0.011
-473.259	-200.000	0.031	-0.238
-472.245	257.370	-0.117	-0.200
-471.230	19.612	0.299	-0.240
-470.216	-130.703	-0.117	0.016
-469.201	-111.949	-0.091	0.018
-468.186	160.353	-0.163	0.227
-467.172	-200.000	0.022	0.305
-466.157	423.002	-0.063	0.135
-465.143	-127.519	-0.054	0.008
-464.128	-87.926	0.069	-0.021
-463.113	145.976	0.160	-0.214
-462.099	-8.486	-0.229	0.153
-461.084	313.187	-0.050	0.095
-460.070	-39.269	0.322	-0.168
-459.055	599.723	-0.152	0.375
-458.040	-200.000	-0.003	0.096
-457.026	-149.952	-0.097	0.008
-456.011	431.372	-0.084	-0.181
-454.997	261.580	0.096	-0.165
-453.982	-62.047	0.213	0.089
-452.968	69.863	0.133	-0.137
-451.953	-114.803	-0.052	-0.010
-450.938	-200.000	0.068	-0.474
-449.924	105.378	-0.136	-0.160
-448.909	-103.718	-0.068	0.016
-447.895	158.551	-0.190	-0.263
-446.880	-130.900	-0.050	0.007
-445.865	3.074	0.265	-0.192
-444.851	146.118	-0.090	0.120
-443.836	-16.654	-0.054	-0.034
-442.822	-46.976	-0.070	0.034
-441.807	572.914	-0.039	-0.095
-440.792	-15.815	0.301	0.191
-439.778	594.502	-0.146	0.360
-438.763	241.247	-0.166	0.276
-437.749	-154.173	0.210	0.014
-436.734	800.000	-0.055	0.160
-435.719	5.264	-0.050	-0.036
-434.705	-141.353	-0.137	-0.014
-433.690	263.322	-0.158	0.272
-432.676	195.614	-0.100	-0.151
-431.661	16.675	-0.289	0.227
-430.646	-92.101	-0.076	0.021
-429.632	-101.689	-0.252	0.061
-428.617	141.464	-0.050	-0.066
-427.603	800.000	-0.129	-0.359
-426.588	800.000	0.078	-0.338
-425.573	-200.000	-0.010	-0.152
-424.559	0.835	0.421	-0.300
-423.544	59.505	0.148	0.145
-422.530	655.710	0.134	0.341
-421.515	-116.591	-0.336	-0.061
-420.500	83.100	0.201	-0.217
-419.486	-90.746	-0.173	0.050
-418.471	484.783	-0.143	-0.323
-417.457	92.720	-0.034	0.039
-416.442	-200.000	0.022	0.180
-415.428	-14.926	-0.566	-0.361
-414.413	-91.068	-0.102	-0.029
-413.398	291.893	-0.111	-0.201
-412.384	182.304	-0.058	-0.085
-411.369	-200.000	0.045	0.211
-410.355	-24.382	0.097	-0.058
-409.340	-87.924	-0.194	0.058
-408.325	-109.856	0.254	0.053
-407.311	536.325	-0.047	-0.111
-406.296	-200.000	0.004	-0.547
-405.282	16.088	-0.214	0.168
-404.267	-73.669	0.169	0.061
-403.252	-101.105	0.203	-0.049
-402.238	112.075	0.031	0.038
-401.223	148.957	-0.169	-0.227
-400.209	-51.848	0.169	0.078
-399.194	10.294	-0.249	-0.188
-398.179	25.457	-0.231	0.191
-397.165	87.041	-0.221	-0.243
-396.150	800.000	-0.034	-0.096
-395.136	96.949	0.160	0.182
-394.121	-65.169	-0.142	-0.057
-393.106	-39.477	-0.028	0.014
-392.092	173.409	0.070	-0.100
-391.077	-95.477	-0.131	0.035
-390.063	-200.000	0.111	0.522
-389.048	800.000	-0.015	-0.051
-388.033	313.113	0.109	-0.204
-387.019	-200.000	-0.002	0.096
-386.004	-185.073	0.146	-0.002
-384.990	-63.769	-0.139	-0.056
-383.975	-200.000	-0.017	-0.246
-382.960	5.713	0.156	-0.115
-381.946	402.745	0.190	0.396
-380.931	14.710	-0.185	-0.144
-379.917	582.280	-0.251	-0.612
-378.902	88.935	0.161	-0.178
-377.888	-200.000	0.011	-0.302
-376.873	-137.122	-0.214	-0.024
-375.858	-76.727	-0.069	-0.024
-374.844	-31.040	-0.284	-0.159
-373.829	215.637	-0.184	-0.290
-372.815	176.669	-0.073	0.105
-371.800	-26.211	-0.133	-0.078
-370.785	-138.717	0.117	-0.013
-369.771	11.352	0.029	0.022
-368.756	362.286	0.029	0.058
-367.742	-116.163	-0.304	-0.056
-366.727	0.093	0.147	-0.104
-365.712	-153.446	0.030	0.002
-364.698	138.566	-0.033	0.044
-363.683	368.603	0.050	0.099
-362.669	-200.000	-0.017	0.304
-361.654	800.000	0.132	0.505
-360.639	-73.494	0.215	0.078
-359.625	-200.000	0.004	0.143
-358.610	466.933	-0.067	0.150
-357.596	307.698	0.087	0.160
-356.581	50.985	0.264	0.248
-355.566	-200.000	-0.031	0.141
-354.552	52.361	0.326	-0.308
-353.537	-7.628	0.106	-0.071
-352.523	103.907	0.097	0.113
-351.508	42.373	0.201	0.181
-350.493	-200.000	-0.022	-0.356
-349.479	470.523	-0.096	-0.215
-348.464	648.509	0.045	0.113
-347.450	259.037	-0.091	0.156
-346.435	-200.000	0.031	0.308
-345.420	263.446	0.136	-0.234
-344.406	135.918	-0.140	-0.180
-343.391	-7.677	-0.102	0.068
-342.377	-35.550	-0.177	0.095
-341.362	800.000	0.052	0.157
-340.348	32.908	0.118	-0.101
-339.333	8.652	-0.105	-0.078
-338.318	-144.830	-0.109	-0.010
-337.304	-76.169	-0.080	0.028
-336.289	-158.078	0.147	-0.009
-335.275	120.189	0.217	-0.267
-334.260	245.689	0.052	-0.086
-333.245	407.413	0.039	0.083
-332.231	-28.742	-0.063	-0.036
-331.216	352.657	-0.136	0.268
-330.202	-44.516	-0.236	0.117
-329.187	711.243	0.027	0.071
-328.172	70.151	0.244	-0.249
-327.158	800.000	-0.055	0.185
-326.143	-5.752	0.124	0.084
-325.129	196.093	0.093	0.141
-324.114	82.881	0.320	0.345
-323.099	-110.431	-0.194	0.040
-322.085	800.000	0.016	0.047
-321.070	-200.000	0.001	0.037
-320.056	101.738	0.316	-0.365
-319.041	-200.000	-0.062	0.317
-318.026	-200.000	-0.078	0.414
-317.012	-93.058	0.055	0.015
-315.997	-149.129	0.240	-0.019
-314.983	76.517	0.188	-0.197
-313.968	800.000	0.150	-0.523
-312.953	340.450	0.105	0.203
-311.939	83.373	-0.184	-0.199
-310.924	-200.000	-0.051	-0.224
-309.910	235.792	-0.073	-0.119
-308.895	51.568	-0.182	-0.171
-307.880	-146.238	-0.381	0.033
-306.866	-49.743	0.407	-0.191
-305.851	-25.195	-0.036	-0.021
-304.837	800.000	-0.084	0.281
-303.822	-154.250	0.266	-0.018
-302.807	218.376	-0.025	-0.040
-301.793	200.266	-0.142	0.215
-300.778	-200.000	-0.005	0.248
-299.764	136.265	0.134	-0.172
-298.749	174.779	0.059	0.085
-297.735	-128.427	0.138	0.019
-296.720	-200.000	0.007	-0.120
-295.705	-139.106	0.299	-0.032
-294.691	-127.020	0.283	-0.041
-293.676	-200.000	-0.015	0.092
-292.662	34.738	-0.196	-0.169
-291.647	-69.616	-0.309	-0.117
-290.632	33.120	0.132	-0.113
-289.618	104.319	-0.056	-0.065
-288.603	-19.559	0.177	0.109
-287.589	-57.582	-0.024	-0.010
-286.574	107.667	0.126	-0.148
-285.559	87.388	-0.224	-0.246
-284.545	-137.143	0.245	0.028
-283.530	45.534	0.157	0.143
-282.516	30.046	0.071	0.060
-281.501	0.875	0.157	0.111
-280.486	-200.000	-0.026	-0.140
-279.472	-59.078	-0.117	0.050
-278.457	800.000	-0.099	-0.291
-277.443	-7.303	-0.134	-0.090
-276.428	193.366	0.087	-0.130
-275.413	800.000	-0.008	-0.028
-274.399	800.000	0.039	-0.128
-273.384	0.523	0.142	-0.100
-272.370	5.441	0.125	-0.091
-271.355	-200.000	0.001	0.125
-270.340	-169.195	0.163	-0.006
-269.326	-168.098	-0.190	0.007
-268.311	-69.794	0.206	0.078
-267.297	-200.000	0.002	0.264
-266.282	125.920	0.113	-0.141
-265.267	136.752	0.232	-0.299
-264.253	423.070	0.213	0.453
-263.238	-200.000	0.027	0.169
-262.224	412.645	0.053	-0.111
-261.209	-27.033	0.030	0.017
-260.195	0.037	0.219	0.154
-259.180	229.880	-0.142	0.230
-258.165	438.919	-0.146	0.315
-257.151	-200.000	-0.030	-0.530
-256.136	-63.617	-0.100	-0.040
-255.122	91.559	-0.199	0.221
-254.107	800.000	0.099	0.410
-253.092	800.000	-0.066	0.184
-252.078	556.103	0.112	0.267
-251.063	-52.431	0.202	0.092
-250.049	-147.815	-0.290	0.024
-249.034	-200.000	-0.060	0.327
-248.019	1.129	-0.128	0.091
-247.005	-200.000	-0.028	-0.200
-245.990	-200.000	-0.026	0.341
-244.976	-200.000	-0.036	-0.261
-243.961	72.332	0.146	0.150
-242.946	-14.891	-0.224	-0.142
-241.932	-1.213	0.085	-0.059
-240.917	-128.916	0.267	0.037
-239.903	-93.728	0.083	-0.023
-238.888	-136.338	0.163	0.019
-237.873	-85.812	-0.075	0.023
-236.859	224.947	0.266	-0.425
-235.844	-200.000	-0.002	0.023
-234.830	187.015	0.040	0.058
-233.815	110.319	0.051	-0.061
-232.800	-200.000	0.111	-0.001
-231.786	39.602	0.144	0.127
-230.771	72.395	-0.247	-0.254
-229.757	-166.088	-0.139	-0.006
-228.742	57.391	-0.083	-0.080
-227.727	121.645	0.065	0.080
-226.713	96.656	-0.028	-0.032
-225.698	-31.293	-0.028	0.015
-224.684	-73.990	0.090	0.032
-223.669	301.629	0.148	-0.270
-222.655	-140.147	0.130	-0.013
-221.640	468.518	-0.047	0.103
-220.625	-200.000	-0.031	-0.215
-219.611	-61.515	-0.210	-0.087
-218.596	-79.129	0.272	0.091
-217.582	169.908	-0.083	-0.117
-216.567	28.673	-0.046	0.039
-215.552	484.353	0.133	-0.299
-214.538	-153.534	0.390	0.027
-213.523	-131.578	0.197	0.026
-212.509	-108.648	-0.220	-0.047
-211.494	-55.803	0.081	0.036
-210.479	270.848	-0.134	0.233
-209.465	-148.587	0.195	0.016
-208.450	-57.113	-0.074	-0.032
-207.436	5.939	-0.226	-0.165
-206.421	61.437	0.381	-0.374
-205.406	-106.723	0.168	0.037
-204.392	-200.000	0.020	0.227
-203.377	-60.695	0.177	0.074
-202.363	-200.000	0.005	0.085
-201.348	205.701	0.157	0.240
-200.333	98.852	-0.195	-0.222
-199.319	131.023	0.071	-0.090
-198.304	-34.075	-0.255	-0.138
-197.290	51.395	-0.105	-0.099
-196.275	608.727	0.026	-0.063
-195.260	68.290	-0.164	-0.165
-194.246	271.535	0.032	0.056
-193.231	-200.000	-0.019	-0.164
-192.217	800.000	0.078	0.309
-191.202	4.025	0.114	-0.082
-190.187	380.060	0.087	-0.175
-189.173	393.641	0.126	-0.259
-188.158	150.592	0.113	0.151
-187.144	135.359	0.228	0.292
-186.129	-200.000	0.012	0.116
-185.114	800.000	0.099	0.393
-184.100	-104.756	0.089	-0.020
-183.085	-198.011	-0.145	0.001
-182.071	136.152	0.164	0.210
-181.056	-61.913	0.143	-0.059
-180.042	800.000	-0.141	0.551
-179.027	-107.666	0.420	-0.090
-178.012	800.000	-0.040	-0.164
-176.998	-31.499	-0.456	0.252
-175.983	-200.000	0.008	-0.223
-174.969	-200.000	-0.037	0.235
-173.954	48.118	0.250	0.230
-172.939	-185.750	-0.057	0.001
-171.925	-200.000	0.024	-0.119
-170.910	109.508	0.037	-0.044
-169.896	-133.198	0.193	-0.024
-168.881	-94.692	-0.154	-0.041
-167.866	-112.223	0.202	-0.040
-166.852	-70.129	-0.057	-0.021
-165.837	-75.141	0.196	0.069
-164.823	32.038	0.245	0.208
-163.808	-122.846	-0.108	0.017
-162.793	189.962	-0.112	0.166
-161.779	5.107	-0.227	0.164
-160.764	46.898	-0.160	0.147
-159.750	-200.000	0.055	-0.238
-158.735	-200.000	0.003	0.346
-157.720	800.000	0.062	-0.184
-156.706	493.384	-0.127	0.287
-155.691	432.061	0.076	0.162
-154.677	800.000	0.021	0.083
-153.662	27.581	-0.335	0.277
-152.647	160.688	0.128	0.175
-151.633	-87.953	0.146	0.043
-150.618	289.766	0.151	-0.269
-149.604	-99.070	0.271	0.068
-148.589	704.995	0.089	-0.232
-147.574	-52.680	-0.220	-0.100
-146.560	-59.529	-0.099	0.042
-145.545	-98.337	0.319	-0.080
-144.531	208.132	-0.039	-0.060
-143.516	123.206	-0.090	-0.111
-142.502	40.089	0.231	0.204
-141.487	301.635	-0.038	-0.070
-140.472	34.603	-0.229	0.196
-139.458	-14.115	-0.259	-0.164
-138.443	70.659	0.203	-0.206
-137.429	-82.523	-0.321	0.102
-136.414	94.012	0.145	0.161
-135.399	372.322	-0.140	0.280
-134.385	-64.899	0.152	-0.060
-133.370	-19.683	0.165	0.100
-132.356	-160.243	-0.328	0.017
-131.341	21.199	0.089	0.071
-130.326	-28.926	0.092	0.052
-129.312	97.694	0.075	-0.085
-128.297	-2.035	0.337	-0.233
-127.283	14.839	-0.207	0.159
-126.268	3.719	0.238	-0.171
-125.253	-200.000	-0.013	-0.444
-124.239	181.446	0.117	0.168
-123.224	-149.437	-0.160	0.012
-122.210	-200.000	-0.030	-0.229
-121.195	318.970	0.111	-0.208
-120.180	-144.447	-0.083	0.008
