DTS Sentinel unit serial number:	SN413079Multiplexer serial number:	ORYXHardware model number:	OX4-SRSoftware version number:	ORYX F/W v4.00 Oryx Data Collector v3.7.2.0data status	okinstallation	princeton_trtdifferential loss correction	single-endedforward channel	channel 4reverse channel	N/Adate	2019/09/18time	04:09:35forward acquisition time	60.00reverse acquisition time	0.00gamma	496.2192k internal	0.2332k external	0.2332temperature offset calibration	0.9996default loss term (dB/km)	0.3790temperature slope calibration	1.0000multiplexer offset coefficient	1.0000multiplexer slope coefficient	1.0000fibre end	0.00T internal ref (°C)	23.28T ext. ref 1 (°C)	0.17T ext. ref 2 (°C)	17.84length (m)	temperature (°C)	Stokes	anti-Stokes-747.200	-50.658	0.101	0.048
-746.185	565.038	0.080	-0.195
-745.171	-64.965	0.065	0.026
-744.156	-200.000	-0.013	0.360
-743.142	-33.633	-0.202	-0.112
-742.127	89.720	-0.136	-0.153
-741.112	-200.000	0.012	0.158
-740.098	-48.481	-0.229	0.111
-739.083	-151.460	-0.154	-0.011
-738.069	-200.000	-0.011	-0.050
-737.054	-74.968	-0.257	-0.092
-736.039	-200.000	0.030	-0.149
-735.025	68.736	0.415	0.428
-734.010	-133.813	-0.151	0.019
-732.996	-47.937	-0.145	0.070
-731.981	-36.195	-0.057	0.031
-730.966	800.000	0.074	-0.251
-729.952	800.000	0.031	0.092
-728.937	58.523	-0.210	0.207
-727.923	-200.000	-0.014	-0.342
-726.908	105.208	-0.166	-0.197
-725.894	-200.000	-0.008	-0.186
-724.879	52.757	0.179	-0.172
-723.864	-46.648	-0.596	-0.294
-722.850	67.656	-0.195	0.200
-721.835	6.305	0.073	-0.054
-720.821	-200.000	0.021	-0.130
-719.806	36.940	0.077	-0.069
-718.791	365.926	0.087	-0.175
-717.777	126.839	0.085	-0.108
-716.762	-56.898	-0.247	0.110
-715.748	301.345	0.061	0.113
-714.733	-200.000	-0.017	-0.277
-713.718	40.810	0.082	0.075
-712.704	-56.287	-0.219	-0.098
-711.689	60.682	0.207	-0.206
-710.675	-200.000	0.006	-0.140
-709.660	-142.001	-0.325	0.032
-708.645	-109.175	-0.018	-0.004
-707.631	-200.000	0.031	0.349
-706.616	-200.000	-0.083	0.394
-705.602	-200.000	0.009	-0.129
-704.587	-70.711	0.178	-0.068
-703.572	800.000	0.119	0.405
-702.558	-49.508	0.133	0.064
-701.543	-200.000	-0.008	-0.084
-700.529	-111.701	-0.243	-0.049
-699.514	95.206	0.186	-0.213
-698.499	-12.219	-0.061	0.040
-697.485	-143.473	0.415	-0.040
-696.470	588.999	-0.015	0.038
-695.456	-105.995	-0.277	-0.063
-694.441	-200.000	-0.046	0.256
-693.426	-167.660	-0.182	-0.007
-692.412	800.000	0.059	-0.211
-691.397	-200.000	-0.015	0.093
-690.383	169.598	-0.164	-0.235
-689.368	766.067	0.045	-0.122
-688.354	-58.403	-0.370	-0.162
-687.339	-200.000	-0.041	-0.224
-686.324	-83.545	-0.477	-0.153
-685.310	-36.990	0.151	0.081
-684.295	228.152	-0.056	-0.092
-683.281	-69.430	-0.193	-0.074
-682.266	191.114	0.050	-0.075
-681.251	-40.115	0.240	0.126
-680.237	106.833	-0.177	-0.211
-679.222	-29.527	0.114	0.065
-678.208	214.555	-0.013	0.020
-677.193	-200.000	-0.058	-0.360
-676.178	-33.484	0.058	0.032
-675.164	800.000	0.123	-0.393
-674.149	-170.263	-0.166	0.006
-673.135	-145.464	0.245	0.022
-672.120	-26.506	0.417	-0.245
-671.105	-90.046	-0.164	0.048
-670.091	-2.160	-0.138	0.097
-669.076	20.970	-0.199	-0.162
-668.062	340.555	-0.099	-0.194
-667.047	-130.246	0.187	0.026
-666.032	107.908	-0.143	-0.171
-665.018	-200.000	-0.049	-0.311
-664.003	-200.000	-0.005	0.223
-662.989	-67.444	0.118	0.046
-661.974	-132.746	-0.242	0.031
-660.959	307.085	-0.065	-0.122
-659.945	61.352	0.056	-0.055
-658.930	-71.644	-0.381	0.143
-657.916	681.289	-0.065	0.169
-656.901	-13.614	0.090	0.059
-655.886	-200.000	-0.001	-0.028
-654.872	-144.148	0.451	0.042
-653.857	150.576	-0.007	-0.010
-652.843	83.130	-0.085	0.093
-651.828	50.165	0.111	0.105
-650.814	-82.537	-0.277	-0.090
-649.799	-78.192	0.167	0.058
-648.784	194.859	-0.131	0.199
-647.770	-53.170	-0.274	0.126
-646.755	800.000	-0.108	-0.359
-645.741	-68.188	0.446	0.174
-644.726	-101.202	0.119	0.029
-643.711	-200.000	-0.020	-0.341
-642.697	800.000	0.066	-0.197
-641.682	-35.421	-0.103	-0.056
-640.668	-31.602	-0.325	0.183
-639.653	667.736	-0.083	-0.215
-638.638	800.000	-0.044	-0.175
-637.624	125.853	-0.068	0.086
-636.609	800.000	0.034	-0.118
-635.595	-89.568	0.293	-0.086
-634.580	-137.092	-0.096	0.011
-633.565	-86.835	0.145	0.044
-632.551	800.000	-0.072	0.242
-631.536	189.489	-0.059	-0.088
-630.522	-77.058	0.040	-0.014
-629.507	-15.928	0.110	-0.070
-628.492	-200.000	0.013	-0.087
-627.478	-44.528	-0.165	-0.083
-626.463	-53.254	-0.309	0.142
-625.449	60.704	-0.153	-0.152
-624.434	-200.000	-0.000	-0.362
-623.419	1.103	-0.322	-0.231
-622.405	2.094	0.251	0.181
-621.390	-200.000	0.018	-0.114
-620.376	-17.895	0.139	0.087
-619.361	33.911	0.116	0.101
-618.346	91.375	-0.217	0.244
-617.332	570.074	0.036	-0.088
-616.317	82.136	-0.180	0.195
-615.303	-200.000	0.002	-0.126
-614.288	800.000	-0.058	-0.204
-613.273	69.330	0.118	-0.122
-612.259	7.846	-0.194	-0.146
-611.244	800.000	0.021	-0.083
-610.230	414.316	-0.038	0.080
-609.215	-65.046	0.349	-0.141
-608.201	800.000	0.042	-0.171
-607.186	-79.930	-0.163	0.055
-606.171	173.936	-0.097	0.140
-605.157	110.695	0.146	-0.176
-604.142	-79.460	0.203	0.069
-603.128	800.000	-0.052	0.169
-602.113	47.021	-0.149	0.139
-601.098	-40.282	-0.213	-0.111
-600.084	-29.781	0.327	-0.187
-599.069	800.000	0.151	-0.484
-598.055	-200.000	-0.060	-0.267
-597.040	-200.000	-0.015	-0.137
-596.025	-136.709	-0.135	0.016
-595.011	15.983	-0.052	0.041
-593.996	737.571	0.042	0.114
-592.982	-200.000	0.048	0.264
-591.967	148.358	0.133	-0.179
-590.952	31.410	0.137	0.118
-589.938	800.000	0.051	-0.159
-588.923	-106.056	-0.090	0.020
-587.909	278.014	0.139	-0.248
-586.894	800.000	0.067	0.229
-585.879	-9.738	0.059	0.039
-584.865	713.648	-0.093	0.246
-583.850	-71.640	0.193	0.072
-582.836	124.291	0.040	-0.050
-581.821	128.702	-0.048	-0.061
-580.806	125.370	-0.104	-0.131
-579.792	45.742	-0.183	-0.169
-578.777	-143.456	0.245	-0.023
-577.763	55.900	-0.281	-0.272
-576.748	-27.268	-0.144	0.084
-575.733	117.379	-0.049	0.061
-574.719	-72.213	0.322	-0.119
-573.704	-200.000	-0.022	0.230
-572.690	-200.000	-0.008	0.288
-571.675	65.174	-0.148	-0.150
-570.661	706.764	0.114	0.302
-569.646	-200.000	0.030	-0.184
-568.631	93.307	-0.056	0.063
-567.617	-200.000	-0.011	0.299
-566.602	800.000	0.167	0.557
-565.588	500.250	0.025	0.058
-564.573	16.056	-0.121	-0.095
-563.558	-27.170	0.235	-0.137
-562.544	-200.000	0.031	-0.327
-561.529	273.663	-0.115	0.204
-560.515	-52.769	-0.326	-0.150
-559.500	800.000	0.078	0.262
-558.485	225.307	-0.077	-0.124
-557.471	236.736	0.217	0.359
-556.456	34.166	-0.034	-0.030
-555.442	196.589	-0.069	-0.105
-554.427	332.269	-0.134	-0.257
-553.412	2.410	-0.231	-0.167
-552.398	-200.000	0.003	-0.027
-551.383	800.000	-0.018	0.069
-550.369	-87.312	0.161	-0.049
-549.354	-200.000	-0.068	-0.450
-548.339	124.304	0.256	-0.321
-547.325	-30.969	-0.186	-0.105
-546.310	221.860	-0.067	0.107
-545.296	-41.587	0.170	0.087
-544.281	-151.619	-0.140	0.010
-543.266	-200.000	0.018	-0.371
-542.252	147.271	0.112	0.150
-541.237	-200.000	-0.008	-0.065
-540.223	800.000	-0.052	-0.173
-539.208	188.213	0.079	-0.118
-538.193	5.754	0.109	-0.080
-537.179	38.278	-0.116	0.103
-536.164	137.515	0.176	-0.230
-535.150	210.264	0.136	-0.214
-534.135	-85.424	0.197	-0.061
-533.121	10.917	0.280	0.213
-532.106	-200.000	-0.021	0.346
-531.091	3.102	0.166	0.121
-530.077	-200.000	0.012	-0.387
-529.062	-200.000	0.069	0.313
-528.048	-138.895	-0.258	-0.028
-527.033	-25.962	0.264	0.155
-526.018	-200.000	-0.008	-0.156
-525.004	-153.567	-0.187	-0.013
-523.989	800.000	-0.128	0.436
-522.975	800.000	-0.032	0.105
-521.960	-98.084	0.073	-0.019
-520.945	-81.289	0.320	-0.105
-519.931	458.927	0.042	0.092
-518.916	-97.446	-0.167	0.043
-517.902	-200.000	-0.003	0.178
-516.887	66.452	-0.310	-0.314
-515.872	-97.622	-0.125	0.032
-514.858	233.197	-0.111	0.182
-513.843	-7.281	0.066	-0.044
-512.829	724.593	0.082	0.217
-511.814	-56.289	0.088	0.039
-510.799	5.152	0.076	-0.056
-509.785	-104.068	-0.044	-0.010
-508.770	-95.608	-0.086	0.023
-507.756	-42.347	0.198	0.101
-506.741	-163.172	0.213	-0.010
-505.726	-74.391	0.208	0.075
-504.712	-153.632	0.190	0.013
-503.697	543.154	-0.094	0.222
-502.683	-140.229	-0.294	-0.031
-501.668	-61.800	0.174	0.072
-500.653	-200.000	0.007	-0.284
-499.639	135.512	-0.073	-0.095
-498.624	-200.000	0.011	0.222
-497.610	-200.000	-0.057	-0.444
-496.595	5.875	0.217	-0.160
-495.581	111.518	0.246	0.296
-494.566	800.000	-0.020	0.070
-493.551	-200.000	0.042	0.297
-492.537	37.301	0.243	-0.214
-491.522	634.349	-0.050	0.127
-490.508	-80.497	-0.161	0.053
-489.493	2.149	-0.243	-0.175
-488.478	45.031	-0.180	0.165
-487.464	311.758	0.077	-0.143
-486.449	108.398	0.065	0.077
-485.435	-102.104	0.131	-0.031
-484.420	-96.325	-0.192	-0.051
-483.405	640.510	-0.136	-0.345
-482.391	-200.000	-0.014	-0.172
-481.376	88.775	-0.249	-0.276
-480.362	-17.138	0.444	-0.279
-479.347	-55.638	-0.308	0.137
-478.332	161.719	-0.065	0.090
-477.318	-29.606	-0.161	0.091
-476.303	-200.000	-0.001	0.294
-475.289	102.268	0.068	0.079
-474.274	-168.296	-0.421	0.016
-473.259	-200.000	-0.013	-0.173
-472.245	800.000	0.037	-0.130
-471.230	-200.000	-0.049	0.239
-470.216	800.000	-0.081	-0.322
-469.201	114.002	0.120	-0.146
-468.186	-113.998	-0.155	0.030
-467.172	74.924	0.330	-0.345
-466.157	-7.733	0.317	-0.213
-465.143	-56.790	0.148	0.065
-464.128	-200.000	-0.059	0.380
-463.113	-33.044	-0.112	0.062
-462.099	64.421	0.062	-0.062
-461.084	15.894	-0.215	0.169
-460.070	800.000	0.053	0.226
-459.055	-192.596	0.331	0.003
-458.040	-84.473	-0.312	0.098
-457.026	-53.554	-0.312	0.142
-456.011	-96.940	-0.282	0.073
-454.997	143.071	0.126	-0.167
-453.982	237.401	-0.039	0.064
-452.968	2.994	-0.104	0.075
-451.953	-15.551	-0.197	-0.125
-450.938	185.621	-0.183	-0.271
-449.924	-200.000	-0.031	-0.277
-448.909	153.600	0.149	-0.202
-447.895	-104.307	0.164	0.038
-446.880	800.000	-0.051	-0.142
-445.865	-129.578	0.259	-0.036
-444.851	188.295	0.049	0.073
-443.836	-200.000	-0.001	0.129
-442.822	-181.629	-0.258	0.005
-441.807	203.225	-0.062	-0.095
-440.792	407.064	0.018	0.038
-439.778	-70.974	-0.115	0.043
-438.763	-15.403	-0.128	-0.081
-437.749	-50.571	0.212	0.100
-436.734	47.964	0.157	-0.145
-435.719	-68.098	0.103	-0.040
-434.705	32.257	-0.331	-0.284
-433.690	800.000	0.031	-0.120
-432.676	-148.294	-0.204	0.017
-431.661	169.361	-0.101	0.144
-430.646	38.660	0.110	0.098
-429.632	-128.753	-0.337	0.047
-428.617	-114.894	-0.097	-0.018
-427.603	-200.000	-0.075	-0.347
-426.588	25.041	-0.178	-0.147
-425.573	-200.000	-0.043	0.423
-424.559	-200.000	0.003	0.144
-423.544	336.188	0.117	0.226
-422.530	140.416	0.084	-0.110
-421.515	-31.345	0.124	-0.069
-420.500	190.869	0.123	-0.183
-419.486	108.111	-0.104	0.123
-418.471	800.000	-0.020	-0.061
-417.457	200.347	0.209	-0.319
-416.442	-113.128	-0.147	0.029
-415.428	-153.413	-0.099	0.007
-414.413	-200.000	-0.005	0.211
-413.398	223.573	-0.113	-0.181
-412.384	116.158	0.130	0.158
-411.369	800.000	0.089	-0.259
-410.355	150.604	0.082	0.110
-409.340	-17.219	0.131	0.082
-408.325	258.691	-0.101	0.173
-407.311	272.172	-0.131	-0.229
-406.296	-22.848	0.193	-0.116
-405.282	800.000	-0.151	-0.460
-404.267	-200.000	-0.027	0.350
-403.252	-200.000	0.185	-0.000
-402.238	96.871	0.207	0.235
-401.223	-200.000	0.061	0.286
-400.209	-14.651	0.442	0.282
-399.194	-8.662	-0.180	0.120
-398.179	800.000	-0.045	-0.189
-397.165	-30.023	0.042	-0.024
-396.150	-200.000	0.004	-0.121
-395.136	-68.408	0.098	0.038
-394.121	-67.426	0.210	0.082
-393.106	-79.421	0.085	-0.029
-392.092	-60.178	0.224	-0.095
-391.077	-77.891	0.229	-0.078
-390.063	-200.000	-0.024	-0.218
-389.048	-144.934	-0.095	0.009
-388.033	-51.862	-0.149	0.069
-387.019	800.000	0.052	0.186
-386.004	-58.049	-0.338	0.146
-384.990	205.155	-0.161	-0.247
-383.975	39.803	0.283	-0.252
-382.960	-200.000	0.265	-0.001
-381.946	678.290	-0.155	-0.400
-380.931	190.823	0.120	-0.179
-379.917	-120.330	0.182	-0.031
-378.902	107.653	0.256	0.303
-377.888	800.000	-0.097	0.364
-376.873	-178.674	0.019	-0.000
-375.858	-27.749	0.136	0.078
-374.844	60.194	-0.038	-0.038
-373.829	788.231	-0.142	0.385
-372.815	18.293	-0.078	-0.061
-371.800	378.423	0.157	-0.318
-370.785	49.897	0.164	0.153
-369.771	-158.577	0.154	-0.009
-368.756	-200.000	0.010	-0.148
-367.742	-180.903	-0.160	0.003
-366.727	-200.000	0.058	-0.335
-365.712	-48.105	0.178	-0.085
-364.698	-200.000	-0.027	0.125
-363.683	-145.627	0.270	-0.024
-362.669	800.000	0.061	0.244
-361.654	28.381	0.185	0.155
-360.639	-191.372	-0.236	0.002
-359.625	455.389	-0.019	-0.041
-358.610	15.690	0.249	0.194
-357.596	196.788	0.164	0.248
-356.581	63.082	0.039	0.038
-355.566	20.158	0.169	0.135
-354.552	-92.101	0.255	0.072
-353.537	-88.942	-0.115	-0.034
-352.523	280.966	0.174	-0.309
-351.508	628.570	-0.161	0.402
-350.493	-200.000	0.000	0.024
-349.479	-127.847	-0.245	-0.035
-348.464	293.177	0.088	-0.160
-347.450	-39.820	-0.246	0.127
-346.435	-10.874	-0.281	-0.184
-345.420	-200.000	-0.012	-0.116
-344.406	-55.747	0.047	0.021
-343.391	174.752	0.061	-0.088
-342.377	-146.972	0.157	0.013
-341.362	64.053	0.235	-0.234
-340.348	67.078	-0.049	0.049
-339.333	285.600	-0.103	0.184
-338.318	49.943	0.202	0.189
-337.304	-133.593	0.306	-0.038
-336.289	-14.207	-0.304	0.194
-335.275	800.000	0.053	0.179
-334.260	800.000	-0.082	-0.287
-333.245	202.302	-0.160	-0.244
-332.231	-11.551	0.143	-0.093
-331.216	451.032	-0.141	0.309
-330.202	-118.241	0.404	-0.071
-329.187	-200.000	0.001	0.165
-328.172	-200.000	0.030	0.220
-327.158	438.983	-0.009	0.020
-326.143	-135.499	-0.191	-0.023
-325.129	-114.337	-0.259	-0.049
-324.114	43.398	0.045	-0.041
-323.099	800.000	0.118	0.346
-322.085	-200.000	0.031	0.173
-321.070	-200.000	-0.002	0.033
-320.056	800.000	-0.096	0.362
-319.041	-200.000	-0.018	0.283
-318.026	-68.135	-0.151	0.058
-317.012	432.122	0.004	-0.009
-315.997	7.172	0.113	0.083
-314.983	267.614	-0.148	-0.256
-313.968	36.906	-0.366	0.320
-312.953	-110.889	-0.339	-0.069
-311.939	493.504	-0.087	0.198
-310.924	-173.039	-0.309	-0.009
-309.910	-200.000	-0.012	0.057
-308.895	312.680	0.120	-0.223
-307.880	-113.708	-0.472	0.091
-306.866	-4.007	0.180	-0.123
-305.851	696.047	0.054	-0.139
-304.837	-48.376	-0.272	-0.129
-303.822	217.649	0.060	-0.095
-302.807	-157.142	-0.241	0.014
-301.793	437.633	-0.120	-0.259
-300.778	-200.000	0.008	0.075
-299.764	-200.000	0.067	-0.310
-298.749	-116.918	0.222	-0.040
-297.735	-83.738	0.193	-0.061
-296.720	25.469	-0.162	0.133
-295.705	-28.366	0.153	-0.087
-294.691	325.044	-0.047	-0.089
-293.676	-194.032	-0.109	0.001
-292.662	-200.000	0.009	0.126
-291.647	-200.000	-0.026	0.241
-290.632	-87.496	0.240	-0.072
-289.618	-200.000	-0.041	-0.193
-288.603	-68.911	0.089	-0.034
-287.589	-200.000	-0.001	0.027
-286.574	-118.510	0.181	0.032
-285.559	-200.000	-0.177	-0.000
-284.545	123.550	-0.057	-0.071
-283.530	53.256	-0.025	-0.024
-282.516	-53.535	0.345	-0.156
-281.501	-26.728	-0.070	0.040
-280.486	-69.543	-0.143	-0.054
-279.472	800.000	0.006	0.024
-278.457	-4.897	-0.512	0.348
-277.443	-157.975	0.257	-0.015
-276.428	-200.000	-0.038	0.307
-275.413	-200.000	0.016	-0.103
-274.399	800.000	-0.034	0.101
-273.384	-200.000	-0.001	0.315
-272.370	6.012	-0.275	0.201
-271.355	-200.000	0.021	0.201
-270.340	24.056	0.235	-0.191
-269.326	-3.463	0.126	0.086
-268.311	-148.758	-0.114	-0.009
-267.297	-29.139	-0.289	0.164
-266.282	66.835	-0.266	0.268
-265.267	-200.000	-0.026	0.315
-264.253	-173.566	0.037	-0.001
-263.238	-200.000	-0.035	-0.245
-262.224	-70.661	0.023	-0.009
-261.209	371.191	-0.059	-0.118
-260.195	800.000	-0.067	-0.204
-259.180	-159.236	0.294	0.016
-258.165	306.454	-0.076	-0.139
-257.151	-47.315	-0.365	0.175
-256.136	-189.071	-0.182	0.002
-255.122	6.784	0.082	-0.060
-254.107	417.448	0.146	0.308
-253.092	222.548	0.032	-0.052
-252.078	-200.000	-0.029	-0.276
-251.063	-59.433	0.236	0.100
-250.049	155.330	0.052	0.070
-249.034	-145.311	-0.211	0.019
-248.019	-63.012	0.227	0.093
-247.005	-11.839	-0.109	0.071
-245.990	-200.000	0.028	0.310
-244.976	44.401	-0.221	0.200
-243.961	-101.764	0.218	-0.052
-242.946	-147.512	-0.198	-0.016
-241.932	47.514	-0.278	0.256
-240.917	-45.467	-0.173	-0.085
-239.903	-63.073	0.284	-0.115
-238.888	-36.391	-0.428	-0.227
-237.873	-200.000	0.056	-0.487
-236.859	-48.170	-0.158	0.075
-235.844	-200.000	0.023	-0.160
-234.830	156.988	-0.114	0.156
-233.815	-26.021	-0.105	-0.061
-232.800	142.847	-0.105	0.137
-231.786	344.753	0.167	0.324
-230.771	176.959	-0.180	-0.259
-229.757	287.051	0.064	-0.115
-228.742	79.271	0.102	0.108
-227.727	-200.000	-0.000	-0.059
-226.713	-68.802	0.257	-0.098
-225.698	72.246	-0.073	0.075
-224.684	181.496	-0.132	0.192
-223.669	-72.794	-0.305	-0.111
-222.655	685.375	0.030	-0.078
-221.640	146.088	-0.153	0.203
-220.625	-76.198	-0.052	-0.018
-219.611	261.153	-0.094	-0.161
-218.596	80.203	0.165	-0.175
-217.582	-200.000	0.006	0.041
-216.567	-32.786	0.217	-0.119
-215.552	-104.292	-0.107	0.025
-214.538	16.791	0.405	0.316
-213.523	-115.340	-0.496	0.092
-212.509	800.000	0.133	-0.429
-211.494	800.000	0.088	-0.346
-210.479	-117.854	0.428	0.076
-209.465	542.408	0.159	0.374
-208.450	142.525	0.100	0.131
-207.436	-137.315	-0.043	-0.005
-206.421	33.872	0.381	-0.326
-205.406	-75.065	0.170	0.060
-204.392	67.973	-0.039	0.039
-203.377	401.778	0.089	0.183
-202.363	243.135	-0.104	0.171
-201.348	556.526	0.012	0.028
-200.333	-4.787	-0.219	0.149
-199.319	230.269	0.157	0.252
-198.304	800.000	-0.111	0.343
-197.290	81.571	-0.187	-0.199
-196.275	-40.392	0.437	0.224
-195.260	-200.000	-0.040	0.244
-194.246	-73.511	-0.252	0.091
-193.231	251.550	0.163	0.273
-192.217	800.000	-0.058	0.163
-191.202	-135.202	0.328	0.039
-190.187	-73.661	0.171	0.061
-189.173	37.778	0.068	-0.059
-188.158	-176.527	0.275	0.007
-187.144	-146.632	-0.489	-0.042
-186.129	-10.305	-0.208	0.136
-185.114	80.033	-0.090	-0.095
-184.100	48.122	0.125	0.115
-183.085	-88.857	-0.167	0.049
-182.071	45.238	0.130	-0.118
-181.056	-158.142	0.148	-0.009
-180.042	-200.000	-0.263	0.001
-179.027	-47.619	-0.392	0.187
-178.012	115.946	0.111	0.134
-176.998	2.294	0.141	-0.100
-175.983	83.155	-0.119	-0.128
-174.969	-137.042	-0.304	-0.034
-173.954	-176.625	0.247	-0.006
-172.939	-200.000	-0.029	-0.230
-171.925	800.000	0.050	-0.154
-170.910	-107.276	0.072	-0.015
-169.896	45.533	0.104	-0.094
-168.881	4.849	0.302	-0.218
-167.866	45.335	-0.053	0.048
-166.852	-58.157	0.243	-0.104
-165.837	297.705	0.023	0.042
-164.823	614.288	0.072	0.178
-163.808	-35.189	0.092	-0.049
-162.793	-17.788	0.241	0.149
-161.779	-20.796	-0.370	-0.223
-160.764	800.000	-0.053	-0.176
-159.750	-47.935	-0.251	0.119
-158.735	307.568	0.062	0.114
-157.720	-127.210	-0.068	-0.010
-156.706	351.188	-0.096	0.186
-155.691	-52.036	-0.263	0.120
-154.677	173.546	0.086	-0.123
-153.662	122.355	0.290	-0.357
-152.647	800.000	-0.094	-0.261
-151.633	-120.124	0.254	-0.043
-150.618	-19.138	0.094	0.057
-149.604	-25.090	-0.342	0.199
-148.589	156.171	0.070	0.095
-147.574	238.062	0.161	0.262
-146.560	-27.742	-0.190	0.109
-145.545	182.211	0.097	0.141
-144.531	603.910	0.062	0.151
-143.516	800.000	0.069	-0.285
-142.502	135.998	0.213	-0.272
-141.487	700.037	0.108	0.278
-140.472	-120.708	-0.143	-0.024
-139.458	800.000	0.029	-0.117
-138.443	-182.618	-0.145	0.003
-137.429	13.786	0.298	0.228
-136.414	233.869	-0.033	0.053
-135.399	-151.261	0.198	0.015
-134.385	-27.572	-0.247	-0.141
-133.370	-200.000	-0.027	0.183
-132.356	-70.643	-0.165	0.061
-131.341	490.271	-0.142	-0.319
-130.326	3.043	-0.096	0.068
-129.312	-127.111	-0.217	-0.031
-128.297	-95.302	-0.213	0.056
-127.283	91.671	-0.165	0.182
-126.268	-79.252	0.363	-0.121
-125.253	800.000	-0.050	0.137
-124.239	580.221	0.066	-0.159
-123.224	-18.517	-0.204	0.125
-122.210	-87.435	0.370	-0.110
-121.195	-3.651	-0.127	0.086
