DTS Sentinel unit serial number:	SN413079Multiplexer serial number:	ORYXHardware model number:	OX4-SRSoftware version number:	ORYX F/W v4.00 Oryx Data Collector v3.7.2.0data status	okinstallation	princeton_trtdifferential loss correction	single-endedforward channel	channel 4reverse channel	N/Adate	2019/09/14time	09:29:35forward acquisition time	60.00reverse acquisition time	0.00gamma	496.2192k internal	0.2306k external	0.2306temperature offset calibration	1.0133default loss term (dB/km)	0.3790temperature slope calibration	1.0000multiplexer offset coefficient	1.0000multiplexer slope coefficient	1.0000fibre end	0.00T internal ref (°C)	31.42T ext. ref 1 (°C)	3.86T ext. ref 2 (°C)	29.15length (m)	temperature (°C)	Stokes	anti-Stokes-747.200	-19.869	0.202	-0.127
-746.185	655.458	-0.104	0.271
-745.171	-147.676	-0.162	0.014
-744.156	-29.033	-0.077	-0.045
-743.142	-149.392	0.163	-0.013
-742.127	-65.097	-0.314	0.129
-741.112	214.569	0.088	-0.142
-740.098	37.284	-0.290	0.261
-739.083	202.283	-0.046	-0.073
-738.069	-98.728	-0.037	0.010
-737.054	199.819	0.100	0.157
-736.039	-172.949	-0.600	-0.019
-735.025	158.413	-0.142	0.200
-734.010	-126.533	0.061	0.009
-732.996	-200.000	-0.025	0.161
-731.981	-178.850	-0.118	0.003
-730.966	53.271	0.164	0.160
-729.952	-37.316	0.062	0.034
-728.937	168.104	-0.093	-0.135
-727.923	456.300	-0.112	0.253
-726.908	-78.172	-0.101	0.035
-725.894	800.000	0.042	0.136
-724.879	347.113	-0.104	-0.209
-723.864	709.172	0.087	-0.233
-722.850	-16.848	-0.200	-0.128
-721.835	800.000	0.024	0.075
-720.821	-52.342	0.246	0.116
-719.806	-126.467	-0.232	-0.035
-718.791	396.333	-0.021	0.045
-717.777	11.088	-0.186	-0.145
-716.762	324.216	0.015	0.030
-715.748	654.638	-0.022	-0.057
-714.733	145.442	-0.158	0.215
-713.718	-75.441	-0.323	-0.117
-712.704	-111.014	0.274	0.057
-711.689	-200.000	0.032	-0.254
-710.675	15.726	0.160	-0.128
-709.660	-21.003	-0.259	0.161
-708.645	78.205	-0.205	-0.222
-707.631	304.126	0.080	0.151
-706.616	53.769	0.338	0.330
-705.602	-78.437	0.164	0.057
-704.587	-93.632	-0.257	-0.072
-703.572	800.000	-0.080	-0.289
-702.558	1.848	-0.037	-0.027
-701.543	800.000	-0.032	0.097
-700.529	-200.000	0.075	-0.383
-699.514	-200.000	0.066	-0.307
-698.499	45.248	0.066	0.062
-697.485	76.110	0.125	-0.135
-696.470	-200.000	-0.017	0.130
-695.456	254.414	0.147	0.255
-694.441	-200.000	0.030	-0.418
-693.426	-160.759	-0.219	0.012
-692.412	169.850	0.088	0.127
-691.397	-17.924	-0.334	-0.213
-690.383	800.000	0.143	-0.412
-689.368	-200.000	0.006	-0.071
-688.354	-200.000	-0.050	-0.254
-687.339	301.838	0.232	0.436
-686.324	-200.000	-0.026	-0.191
-685.310	247.406	0.086	0.147
-684.295	6.509	-0.274	0.207
-683.281	-71.779	-0.181	0.068
-682.266	-200.000	-0.041	0.198
-681.251	370.051	-0.088	-0.182
-680.237	-109.780	0.178	-0.038
-679.222	165.016	-0.198	-0.284
-678.208	484.426	-0.126	0.290
-677.193	-200.000	-0.046	-0.220
-676.178	800.000	0.236	-0.674
-675.164	-200.000	-0.039	0.233
-674.149	-9.274	-0.290	0.196
-673.135	-200.000	-0.035	-0.163
-672.120	66.720	0.047	-0.048
-671.105	-97.392	0.280	0.074
-670.091	47.329	-0.220	-0.208
-669.076	-60.422	0.099	0.043
-668.062	357.968	-0.086	0.174
-667.047	-200.000	-0.008	0.351
-666.032	-44.616	0.095	0.048
-665.018	334.764	-0.062	0.121
-664.003	-200.000	-0.034	-0.276
-662.989	103.890	-0.204	-0.243
-661.974	-165.472	-0.103	-0.005
-660.959	-200.000	0.011	0.089
-659.945	406.021	0.113	-0.242
-658.930	189.210	-0.075	-0.114
-657.916	-200.000	-0.043	-0.201
-656.901	9.303	-0.012	-0.009
-655.886	-25.267	-0.137	0.082
-654.872	158.751	-0.124	0.175
-653.857	60.427	0.256	-0.257
-652.843	-200.000	-0.057	0.266
-651.828	-200.000	-0.002	0.335
-650.814	36.261	0.446	0.399
-649.799	392.797	0.172	0.363
-648.784	59.079	0.055	0.055
-647.770	-200.000	-0.018	-0.132
-646.755	47.159	-0.113	0.106
-645.741	-96.715	0.242	0.065
-644.726	-200.000	0.025	0.146
-643.711	-64.296	-0.125	-0.052
-642.697	100.151	-0.217	-0.255
-641.682	225.029	-0.148	-0.243
-640.668	-183.264	0.045	0.001
-639.653	47.262	0.194	-0.183
-638.638	-6.280	-0.164	-0.113
-637.624	-149.826	-0.315	-0.025
-636.609	378.301	0.071	-0.147
-635.595	-108.450	-0.314	-0.069
-634.580	255.409	0.061	0.107
-633.565	-36.382	-0.212	-0.116
-632.551	-29.932	0.081	0.047
-631.536	-58.027	0.491	0.217
-630.522	800.000	-0.132	0.504
-629.507	-68.476	-0.248	-0.098
-628.492	151.166	0.107	0.147
-627.478	-130.841	0.142	0.019
-626.463	800.000	0.076	-0.288
-625.449	-64.937	-0.236	-0.097
-624.434	15.817	0.077	0.062
-623.419	-200.000	-0.063	-0.431
-622.405	-17.874	-0.262	-0.167
-621.390	-96.135	0.115	-0.031
-620.376	-25.306	0.170	0.102
-619.361	-75.402	-0.402	0.145
-618.346	-22.460	-0.098	0.060
-617.332	800.000	-0.065	0.198
-616.317	-21.599	0.126	0.078
-615.303	-178.701	0.312	-0.007
-614.288	55.735	0.327	-0.321
-613.273	800.000	0.012	0.045
-612.259	-30.014	0.283	-0.163
-611.244	404.058	0.032	-0.069
-610.230	101.080	0.145	-0.171
-609.215	-200.000	0.066	-0.324
-608.201	-167.823	-0.088	-0.003
-607.186	117.840	0.026	0.032
-606.171	-200.000	0.020	0.343
-605.157	-33.249	-0.164	-0.092
-604.142	-36.816	0.285	-0.155
-603.128	800.000	0.027	0.116
-602.113	357.479	0.061	0.124
-601.098	-200.000	-0.023	0.366
-600.084	-200.000	-0.024	-0.149
-599.069	-140.975	0.338	-0.035
-598.055	-200.000	-0.010	-0.336
-597.040	-7.460	0.102	-0.070
-596.025	70.599	0.068	-0.071
-595.011	277.741	-0.075	0.135
-593.996	6.734	0.229	0.172
-592.982	206.125	0.065	-0.103
-591.967	-63.193	-0.056	0.023
-590.952	-61.184	-0.187	0.080
-589.938	-111.052	-0.155	-0.032
-588.923	-135.370	0.229	-0.028
-587.909	800.000	-0.066	-0.207
-586.894	-200.000	0.000	-0.210
-585.879	-143.774	0.198	-0.019
-584.865	116.606	-0.153	0.190
-583.850	395.716	0.105	0.221
-582.836	55.180	-0.030	-0.029
-581.821	107.617	-0.108	-0.130
-580.806	88.693	0.135	-0.152
-579.792	160.341	-0.080	-0.112
-578.777	616.651	0.080	-0.202
-577.763	800.000	0.035	0.148
-576.748	34.209	0.258	-0.228
-575.733	-200.000	-0.001	0.018
-574.719	163.182	-0.123	0.175
-573.704	18.157	-0.193	-0.155
-572.690	232.136	0.119	-0.198
-571.675	-18.686	0.199	-0.126
-570.661	800.000	0.018	0.067
-569.646	-13.861	-0.167	-0.109
-568.631	-150.912	0.326	0.025
-567.617	-200.000	-0.051	0.234
-566.602	103.618	-0.120	-0.142
-565.588	137.038	0.169	-0.223
-564.573	1.802	0.318	0.231
-563.558	625.029	0.045	-0.115
-562.544	251.683	-0.082	0.141
-561.529	415.980	-0.093	-0.199
-560.515	-200.000	0.026	0.178
-559.500	-200.000	-0.023	-0.264
-558.485	131.322	0.205	-0.266
-557.471	285.457	-0.080	0.145
-556.456	-115.962	0.194	-0.037
-555.442	794.312	-0.034	0.094
-554.427	-59.353	0.199	0.087
-553.412	-172.275	-0.378	0.012
-552.398	138.844	-0.098	-0.130
-551.383	252.009	-0.035	0.060
-550.369	127.353	-0.250	-0.321
-549.354	-66.417	0.274	0.110
-548.339	-114.610	-0.242	0.047
-547.325	-145.215	-0.270	0.025
-546.310	-200.000	0.018	-0.324
-545.296	40.332	-0.036	-0.032
-544.281	800.000	-0.072	0.220
-543.266	-0.221	0.056	-0.040
-542.252	-71.731	0.411	0.155
-541.237	-200.000	-0.046	-0.239
-540.223	-37.451	-0.211	0.113
-539.208	-168.507	0.214	-0.008
-538.193	23.276	-0.229	0.190
-537.179	-139.420	0.109	0.012
-536.164	13.772	0.071	-0.055
-535.150	59.425	-0.323	-0.321
-534.135	-44.083	-0.114	-0.058
-533.121	370.494	0.202	0.413
-532.106	-104.736	0.251	-0.058
-531.091	-45.888	-0.280	-0.139
-530.077	-200.000	0.009	0.097
-529.062	162.160	-0.144	-0.204
-528.048	-80.625	0.196	0.066
-527.033	211.539	0.183	-0.290
-526.018	-200.000	-0.008	-0.076
-525.004	-173.231	0.267	-0.008
-523.989	79.489	-0.129	-0.140
-522.975	92.834	-0.032	-0.036
-521.960	-200.000	-0.044	-0.206
-520.945	-45.769	-0.160	-0.080
-519.931	-200.000	0.003	0.077
-518.916	139.660	0.097	-0.128
-517.902	-46.020	-0.105	0.052
-516.887	-35.752	0.180	0.098
-515.872	-25.089	-0.168	-0.100
-514.858	-112.273	-0.264	-0.053
-513.843	-200.000	0.023	-0.211
-512.829	800.000	0.106	0.326
-511.814	123.555	-0.065	0.083
-510.799	-200.000	-0.061	0.560
-509.785	717.776	-0.078	0.208
-508.770	-118.705	0.284	0.050
-507.756	-59.465	0.308	0.134
-506.741	-23.542	0.164	-0.099
-505.726	13.776	-0.154	-0.121
-504.712	800.000	0.038	-0.123
-503.697	-61.607	0.057	-0.024
-502.683	-197.675	-0.085	-0.001
-501.668	466.432	-0.174	0.393
-500.653	137.894	0.185	0.244
-499.639	800.000	-0.062	0.216
-498.624	-77.060	0.161	-0.057
-497.610	800.000	0.028	0.081
-496.595	746.492	0.051	-0.137
-495.581	-200.000	0.005	-0.115
-494.566	33.399	-0.050	-0.044
-493.551	-200.000	0.017	-0.190
-492.537	119.752	0.306	-0.382
-491.522	285.546	0.210	0.381
-490.508	167.279	-0.053	-0.076
-489.493	-25.701	0.328	-0.195
-488.478	-27.777	0.102	-0.060
-487.464	-200.000	0.013	-0.168
-486.449	-39.945	-0.091	0.048
-485.435	800.000	0.069	-0.234
-484.420	800.000	-0.058	0.187
-483.405	94.509	0.029	0.034
-482.391	800.000	0.039	-0.167
-481.376	800.000	-0.004	0.016
-480.362	800.000	-0.032	0.116
-479.347	56.765	-0.034	-0.034
-478.332	800.000	0.021	0.075
-477.318	48.406	-0.084	-0.079
-476.303	-200.000	0.005	0.110
-475.289	-72.087	0.278	0.104
-474.274	147.351	0.067	-0.091
-473.259	-22.557	-0.280	-0.170
-472.245	288.806	-0.119	-0.218
-471.230	-35.171	0.012	-0.007
-470.216	-7.432	-0.337	0.230
-469.201	-4.364	0.180	0.125
-468.186	132.910	-0.115	0.149
-467.172	-200.000	0.019	0.166
-466.157	-17.560	0.277	-0.175
-465.143	-200.000	0.002	0.080
-464.128	620.899	0.101	0.257
-463.113	-34.502	-0.162	0.089
-462.099	342.559	0.191	0.376
-461.084	125.083	-0.161	0.204
-460.070	-28.939	0.076	-0.044
-459.055	552.434	0.148	-0.359
-458.040	-200.000	-0.045	0.514
-457.026	104.222	-0.159	-0.188
-456.011	1.619	-0.112	-0.081
-454.997	482.642	-0.063	-0.143
-453.982	15.113	0.146	0.115
-452.968	186.213	0.211	-0.315
-451.953	-126.468	0.023	-0.003
-450.938	-200.000	-0.007	-0.080
-449.924	79.905	0.299	-0.324
-448.909	-104.023	-0.171	-0.040
-447.895	-78.860	-0.458	0.157
-446.880	162.698	-0.175	0.248
-445.865	-94.044	0.087	-0.024
-444.851	800.000	0.051	-0.181
-443.836	-70.913	-0.159	-0.060
-442.822	264.807	-0.092	-0.161
-441.807	201.183	0.116	0.180
-440.792	-1.828	-0.192	-0.136
-439.778	800.000	-0.053	0.166
-438.763	-200.000	-0.035	-0.195
-437.749	-86.909	0.251	-0.077
-436.734	606.114	0.032	0.079
-435.719	-119.030	0.258	-0.045
-434.705	-29.998	-0.115	-0.066
-433.690	29.052	-0.115	-0.098
-432.676	-37.755	-0.212	0.113
-431.661	-162.720	0.122	0.006
-430.646	-54.608	-0.250	-0.114
-429.632	800.000	0.062	0.222
-428.617	-59.556	0.199	-0.086
-427.603	-72.271	-0.156	-0.058
-426.588	35.940	0.217	0.192
-425.573	20.843	-0.174	0.142
-424.559	-200.000	0.007	-0.538
-423.544	-200.000	0.032	-0.236
-422.530	-200.000	0.000	0.130
-421.515	46.025	-0.370	-0.344
-420.500	-200.000	-0.009	-0.167
-419.486	-103.526	-0.519	-0.123
-418.471	336.017	-0.019	0.037
-417.457	-43.861	0.345	0.174
-416.442	-24.832	0.080	0.048
-415.428	-200.000	0.002	0.071
-414.413	-71.984	0.189	0.071
-413.398	-72.053	-0.389	0.145
-412.384	-86.329	-0.231	-0.071
-411.369	31.918	0.207	0.179
-410.355	-40.609	-0.398	0.207
-409.340	-31.009	-0.240	0.136
-408.325	-41.210	-0.194	0.100
-407.311	-149.307	0.183	-0.015
-406.296	157.672	0.113	-0.157
-405.282	119.884	0.142	0.177
-404.267	-42.049	0.089	0.046
-403.252	-200.000	0.030	0.365
-402.238	101.685	-0.130	-0.152
-401.223	-200.000	-0.010	-0.081
-400.209	-155.821	-0.144	0.009
-399.194	18.061	-0.048	-0.038
-398.179	-200.000	0.031	-0.186
-397.165	526.599	-0.164	0.389
-396.150	-68.775	0.205	0.080
-395.136	800.000	-0.101	0.305
-394.121	-19.672	-0.142	0.088
-393.106	-118.567	-0.256	-0.045
-392.092	800.000	0.084	0.274
-391.077	-200.000	-0.028	0.170
-390.063	-200.000	-0.460	0.002
-389.048	-97.422	0.140	-0.037
-388.033	3.436	0.142	-0.103
-387.019	-200.000	-0.086	0.408
-386.004	100.042	-0.153	0.178
-384.990	50.179	0.093	0.088
-383.975	-95.052	0.252	0.068
-382.960	800.000	0.077	0.240
-381.946	-67.485	0.089	-0.035
-380.931	-86.831	-0.094	0.029
-379.917	66.069	0.163	0.166
-378.902	130.024	-0.178	-0.229
-377.888	-200.000	0.004	-0.387
-376.873	800.000	0.048	0.189
-375.858	5.490	0.168	-0.124
-374.844	508.324	-0.018	0.041
-373.829	25.079	0.198	-0.165
-372.815	-44.235	-0.325	0.163
-371.800	56.952	0.115	-0.113
-370.785	369.854	-0.026	0.052
-369.771	-87.950	-0.365	0.110
-368.756	-112.865	0.224	-0.045
-367.742	-200.000	0.009	0.084
-366.727	-155.988	0.081	-0.005
-365.712	439.894	0.103	0.225
-364.698	26.341	0.180	-0.151
-363.683	193.134	0.077	-0.116
-362.669	-200.000	-0.021	0.112
-361.654	34.435	0.245	0.214
-360.639	36.554	0.080	-0.070
-359.625	149.063	-0.037	0.051
-358.610	-200.000	0.001	-0.050
-357.596	110.158	-0.060	0.073
-356.581	436.959	-0.076	0.165
-355.566	446.655	-0.140	-0.308
-354.552	-13.256	-0.030	0.020
-353.537	-65.760	0.097	-0.039
-352.523	-200.000	0.045	-0.201
-351.508	-83.956	-0.074	0.024
-350.493	-48.724	0.291	-0.140
-349.479	800.000	-0.077	-0.216
-348.464	111.700	0.148	-0.179
-347.450	592.334	0.113	0.281
-346.435	16.832	0.181	0.144
-345.420	800.000	0.034	0.131
-344.406	33.121	0.065	0.057
-343.391	45.223	0.150	0.139
-342.377	731.640	-0.082	-0.220
-341.362	45.480	-0.171	0.158
-340.348	-63.747	0.301	-0.124
-339.333	-100.241	0.230	-0.057
-338.318	-29.684	0.190	0.109
-337.304	-200.000	0.014	0.163
-336.289	232.199	0.027	0.045
-335.275	223.342	0.177	0.286
-334.260	277.367	-0.105	-0.187
-333.245	-166.133	0.589	-0.025
-332.231	-123.991	0.287	-0.045
-331.216	800.000	0.050	0.166
-330.202	-55.011	0.076	-0.034
-329.187	203.592	0.151	-0.234
-328.172	37.001	-0.137	0.122
-327.158	-43.375	-0.214	-0.108
-326.143	-73.806	-0.371	-0.135
-325.129	-69.080	-0.312	0.120
-324.114	176.325	-0.050	0.072
-323.099	52.547	0.200	-0.191
-322.085	-89.470	-0.052	0.015
-321.070	800.000	-0.107	-0.321
-320.056	40.553	-0.093	-0.084
-319.041	120.004	0.279	-0.346
-318.026	69.160	-0.154	-0.159
-317.012	175.245	-0.167	-0.242
-315.997	-158.515	-0.078	-0.005
-314.983	-200.000	0.006	0.088
-313.968	-35.832	-0.152	0.082
-312.953	-200.000	-0.004	-0.152
-311.939	-200.000	-0.024	-0.214
-310.924	3.213	-0.010	-0.007
-309.910	100.765	0.076	-0.088
-308.895	-200.000	-0.010	-0.170
-307.880	306.048	0.150	-0.279
-306.866	-200.000	-0.047	-0.354
-305.851	41.589	0.111	-0.101
-304.837	-182.261	0.237	-0.004
-303.822	18.065	0.171	0.136
-302.807	800.000	-0.019	-0.070
-301.793	138.518	-0.187	-0.246
-300.778	216.486	-0.037	0.059
-299.764	-200.000	0.007	0.271
-298.749	33.629	-0.166	0.144
-297.735	-70.265	-0.111	-0.042
-296.720	335.497	-0.048	-0.093
-295.705	-111.969	0.174	-0.035
-294.691	-65.888	-0.093	0.037
-293.676	-110.252	0.079	0.016
-292.662	-192.478	0.368	0.003
-291.647	-181.554	0.148	0.003
-290.632	-49.271	0.186	-0.089
-289.618	-46.340	-0.225	0.110
-288.603	-95.727	-0.374	-0.100
-287.589	-167.695	-0.204	0.008
-286.574	213.031	0.104	0.164
-285.559	217.530	0.103	0.164
-284.545	221.107	0.113	0.182
-283.530	-98.154	-0.367	-0.094
-282.516	120.723	0.138	0.172
-281.501	453.639	0.063	-0.139
-280.486	11.006	-0.227	-0.174
-279.472	178.766	-0.176	-0.256
-278.457	90.100	-0.093	-0.104
-277.443	67.028	0.265	0.270
-276.428	104.959	-0.189	0.222
-275.413	-200.000	0.001	0.048
-274.399	181.301	-0.158	0.233
-273.384	91.857	0.073	-0.082
-272.370	-53.358	-0.301	-0.138
-271.355	50.395	0.108	-0.102
-270.340	98.195	-0.143	0.164
-269.326	179.225	0.165	0.240
-268.311	-79.147	0.120	0.041
-267.297	-127.822	-0.302	-0.044
-266.282	-200.000	-0.033	0.166
-265.267	-200.000	-0.016	0.502
-264.253	-200.000	0.041	0.242
-263.238	454.425	0.100	-0.221
-262.224	800.000	0.062	0.239
-261.209	50.244	0.067	-0.064
-260.195	-57.045	-0.227	-0.100
-259.180	-98.102	-0.243	0.062
-258.165	4.497	0.218	0.160
-257.151	39.389	-0.211	-0.189
-256.136	105.255	-0.172	0.202
-255.122	57.766	-0.225	-0.220
-254.107	683.625	0.063	0.164
-253.092	39.113	0.341	-0.304
-252.078	84.916	0.138	0.151
-251.063	29.903	0.065	-0.056
-250.049	-17.186	0.224	0.141
-249.034	101.236	0.078	-0.091
-248.019	-144.962	-0.201	-0.018
-247.005	-94.520	-0.112	-0.030
-245.990	49.725	0.207	0.194
-244.976	-200.000	-0.015	0.085
-243.961	9.173	-0.098	-0.074
-242.946	-200.000	-0.021	0.095
-241.932	255.172	-0.133	0.228
-240.917	614.197	-0.104	-0.261
-239.903	-70.017	-0.215	-0.082
-238.888	-188.723	0.140	-0.002
-237.873	160.459	-0.086	-0.120
-236.859	113.292	0.118	0.143
-235.844	-181.812	-0.053	-0.001
-234.830	-31.787	0.142	0.079
-233.815	800.000	-0.048	0.170
-232.800	-166.640	-0.141	0.006
-231.786	256.729	-0.142	-0.243
-230.771	-200.000	0.012	0.068
-229.757	-157.429	-0.240	0.014
-228.742	249.921	0.148	-0.250
-227.727	-89.906	-0.480	-0.140
-226.713	0.890	-0.175	-0.125
-225.698	-10.097	0.191	-0.126
-224.684	217.070	0.142	0.226
-223.669	-88.083	-0.176	-0.053
-222.655	800.000	-0.052	-0.216
-221.640	24.457	-0.361	0.298
-220.625	64.533	0.095	0.095
-219.611	800.000	-0.090	0.256
-218.596	150.668	0.125	-0.169
-217.582	343.771	0.039	0.076
-216.567	800.000	0.037	-0.128
-215.552	152.257	-0.148	0.201
-214.538	414.096	-0.078	-0.165
-213.523	145.779	-0.063	0.084
-212.509	7.750	-0.269	0.201
-211.494	-101.597	0.094	-0.023
-210.479	-25.760	0.343	-0.202
-209.465	-105.127	-0.065	0.015
-208.450	-200.000	-0.050	0.246
-207.436	-149.609	-0.137	-0.011
-206.421	65.604	-0.148	0.150
-205.406	-73.164	0.302	0.110
-204.392	41.768	-0.185	0.167
-203.377	-112.803	0.184	-0.036
-202.363	800.000	0.107	-0.327
-201.348	-72.374	-0.193	0.071
-200.333	-46.012	0.178	0.087
-199.319	800.000	0.019	0.055
-198.304	-200.000	0.037	0.199
-197.290	385.206	0.013	-0.026
-196.275	-200.000	0.009	-0.058
-195.260	-110.376	0.498	-0.103
-194.246	669.330	-0.050	-0.129
-193.231	189.716	-0.043	0.064
-192.217	-117.596	0.452	-0.081
-191.202	-200.000	-0.006	-0.327
-190.187	800.000	-0.071	0.255
-189.173	-100.802	0.702	-0.172
-188.158	-52.306	0.104	-0.048
-187.144	-20.761	-0.073	-0.044
-186.129	129.958	-0.074	-0.095
-185.114	-91.012	0.042	-0.012
-184.100	37.141	-0.227	0.200
-183.085	230.463	0.060	0.097
-182.071	-31.843	0.266	0.148
-181.056	-60.971	0.146	0.061
-180.042	-115.273	-0.380	-0.072
-179.027	550.646	-0.103	0.246
-178.012	-74.722	0.024	0.009
-176.998	-200.000	0.030	-0.133
-175.983	-80.244	-0.341	-0.114
-174.969	1.076	0.097	0.069
-173.954	97.290	0.061	0.069
-172.939	-200.000	-0.020	0.398
-171.925	-63.587	-0.135	0.055
-170.910	191.693	0.084	-0.127
-169.896	21.095	-0.225	-0.181
-168.881	-143.293	-0.244	0.023
-167.866	138.360	0.084	-0.110
-166.852	800.000	-0.029	0.110
-165.837	-142.855	-0.081	-0.008
-164.823	800.000	0.069	0.267
-163.808	-176.924	-0.304	0.008
-162.793	-50.482	-0.209	-0.098
-161.779	-52.044	-0.069	0.032
-160.764	32.534	0.238	-0.205
-159.750	-200.000	0.002	0.244
-158.735	1.207	-0.277	0.198
-157.720	-168.109	-0.205	0.008
-156.706	-95.314	-0.269	0.072
-155.691	225.876	-0.170	-0.274
-154.677	-190.076	0.309	0.003
-153.662	72.613	-0.063	0.066
-152.647	145.623	0.034	-0.045
-151.633	-153.655	0.116	0.008
-150.618	450.323	-0.058	0.127
-149.604	-69.328	0.117	-0.045
-148.589	27.336	-0.220	-0.184
-147.574	800.000	0.143	0.513
-146.560	-41.842	0.487	0.248
-145.545	153.755	0.192	-0.261
-144.531	-200.000	-0.031	-0.140
-143.516	66.593	-0.220	0.223
-142.502	18.686	0.361	0.287
-141.487	800.000	-0.011	-0.043
-140.472	-120.935	-0.455	-0.076
-139.458	800.000	0.068	0.281
-138.443	29.760	0.097	-0.082
-137.429	-59.724	-0.283	0.120
-136.414	98.508	0.182	-0.208
-135.399	-78.164	0.184	0.063
-134.385	800.000	0.028	-0.093
-133.370	-36.020	0.085	0.046
-132.356	-200.000	-0.031	0.310
-131.341	-200.000	0.033	-0.156
-130.326	386.919	0.078	-0.161
-129.312	107.964	0.290	-0.343
-128.297	-67.841	-0.207	-0.080
-127.283	-111.783	0.115	0.023
-126.268	-93.055	0.191	-0.053
-125.253	51.099	0.048	0.046
-124.239	-200.000	-0.022	-0.159
-123.224	237.445	-0.055	0.090
-122.210	222.867	-0.061	0.098
-121.195	-49.705	-0.217	0.103
-120.180	6.457	0.058	-0.043
