DTS Sentinel unit serial number:	SN413079Multiplexer serial number:	ORYXHardware model number:	OX4-SRSoftware version number:	ORYX F/W v4.00 Oryx Data Collector v3.7.2.0data status	okinstallation	princeton_trtdifferential loss correction	single-endedforward channel	channel 4reverse channel	N/Adate	2019/09/12time	09:55:10forward acquisition time	60.00reverse acquisition time	0.00gamma	496.2192k internal	0.2296k external	0.2296temperature offset calibration	1.0066default loss term (dB/km)	0.3790temperature slope calibration	1.0000multiplexer offset coefficient	1.0000multiplexer slope coefficient	1.0000fibre end	0.00T internal ref (°C)	36.12T ext. ref 1 (°C)	1.84T ext. ref 2 (°C)	32.50length (m)	temperature (°C)	Stokes	anti-Stokes-747.200	-20.613	-0.137	-0.086
-746.185	-200.000	0.011	0.458
-745.171	800.000	-0.033	0.131
-744.156	800.000	-0.050	0.209
-743.142	184.166	0.065	-0.098
-742.127	-200.000	-0.063	0.364
-741.112	-92.567	0.233	0.067
-740.098	-200.000	-0.053	0.740
-739.083	143.382	0.201	0.273
-738.069	-103.870	-0.205	-0.049
-737.054	-200.000	-0.030	0.277
-736.039	800.000	0.041	-0.160
-735.025	109.109	-0.235	0.287
-734.010	-200.000	-0.040	-0.367
-732.996	-25.355	0.031	-0.019
-731.981	144.627	0.071	0.096
-730.966	-114.591	0.093	0.018
-729.952	132.184	-0.060	0.079
-728.937	-0.177	0.199	0.145
-727.923	794.044	0.029	-0.082
-726.908	-67.428	-0.217	0.087
-725.894	174.291	-0.144	-0.212
-724.879	80.618	-0.067	-0.074
-723.864	-200.000	-0.060	-0.297
-722.850	-57.453	-0.366	0.164
-721.835	474.556	0.095	-0.218
-720.821	-126.315	-0.320	0.049
-719.806	-200.000	-0.005	0.120
-718.791	-200.000	0.009	0.101
-717.777	-200.000	0.041	-0.289
-716.762	-68.777	0.015	-0.006
-715.748	-39.979	0.106	0.057
-714.733	77.300	0.094	0.102
-713.718	-141.329	0.198	0.021
-712.704	-57.269	-0.639	0.287
-711.689	559.935	0.046	-0.114
-710.675	19.218	0.093	-0.076
-709.660	-85.314	0.219	0.070
-708.645	-200.000	-0.021	0.174
-707.631	-69.149	-0.054	0.021
-706.616	-62.810	0.188	0.080
-705.602	318.162	0.025	-0.048
-704.587	557.728	-0.080	0.197
-703.572	380.298	-0.103	-0.215
-702.558	-120.227	0.215	0.037
-701.543	-54.776	0.191	-0.088
-700.529	-154.895	0.071	-0.005
-699.514	-146.703	-0.115	0.010
-698.499	-120.391	0.196	0.034
-697.485	-118.824	-0.068	-0.012
-696.470	-200.000	-0.019	0.102
-695.456	-200.000	0.021	0.158
-694.441	-200.000	-0.019	-0.329
-693.426	129.719	-0.070	0.091
-692.412	-200.000	-0.007	0.037
-691.397	186.906	-0.119	-0.181
-690.383	-197.100	-0.228	-0.001
-689.368	66.932	-0.358	-0.372
-688.354	-81.690	0.265	-0.089
-687.339	-200.000	0.017	-0.227
-686.324	-200.000	-0.036	-0.287
-685.310	51.245	0.124	0.120
-684.295	-41.724	0.051	-0.027
-683.281	192.821	0.048	-0.074
-682.266	-200.000	-0.005	-0.118
-681.251	195.083	-0.058	0.090
-680.237	-200.000	-0.001	-0.139
-679.222	-2.316	-0.125	-0.089
-678.208	170.032	0.067	0.097
-677.193	30.876	0.114	-0.099
-676.178	800.000	0.021	0.070
-675.164	-200.000	-0.001	-0.341
-674.149	-53.238	0.264	-0.123
-673.135	-82.504	0.090	0.030
-672.120	56.624	-0.166	-0.165
-671.105	800.000	-0.092	0.270
-670.091	-0.394	0.120	-0.087
-669.076	-196.435	0.122	0.001
-668.062	154.345	-0.201	0.281
-667.047	129.455	0.255	-0.331
-666.032	-80.815	-0.152	0.051
-665.018	-20.894	0.236	0.147
-664.003	143.097	-0.184	0.249
-662.989	-35.687	-0.298	0.164
-661.974	3.297	-0.119	0.088
-660.959	35.605	0.142	0.127
-659.945	88.555	-0.070	-0.079
-658.930	-63.430	-0.276	-0.115
-657.916	47.373	0.338	-0.320
-656.901	57.245	-0.175	-0.174
-655.886	-113.511	-0.301	0.060
-654.872	-200.000	0.044	0.209
-653.857	130.076	-0.226	0.294
-652.843	-82.027	-0.179	-0.060
-651.828	-46.039	0.249	0.125
-650.814	384.720	-0.078	-0.163
-649.799	-151.645	-0.211	-0.016
-648.784	-142.169	0.126	0.013
-647.770	-97.010	-0.080	0.021
-646.755	-30.396	-0.057	-0.033
-645.741	-11.758	-0.108	0.072
-644.726	84.188	-0.047	-0.052
-643.711	-6.339	-0.067	-0.047
-642.697	29.245	-0.153	0.132
-641.682	263.581	-0.140	0.247
-640.668	800.000	-0.027	0.080
-639.653	104.845	-0.051	-0.062
-638.638	-200.000	-0.033	-0.367
-637.624	0.778	0.333	-0.243
-636.609	65.110	-0.214	-0.220
-635.595	-7.670	0.227	-0.156
-634.580	-200.000	-0.013	-0.194
-633.565	-12.641	-0.068	-0.045
-632.551	57.852	-0.022	-0.022
-631.536	212.777	-0.037	0.060
-630.522	-129.767	0.359	0.050
-629.507	10.714	-0.171	0.132
-628.492	-26.329	-0.059	-0.035
-627.478	74.841	-0.292	-0.313
-626.463	55.065	0.146	0.144
-625.449	-15.220	-0.230	-0.150
-624.434	-129.843	-0.131	-0.018
-623.419	69.888	0.264	0.277
-622.405	290.103	-0.041	0.075
-621.390	-66.649	0.226	-0.091
-620.376	134.722	-0.065	-0.086
-619.361	-200.000	0.003	-0.023
-618.346	-92.509	-0.155	-0.044
-617.332	800.000	0.077	0.227
-616.317	-20.418	-0.114	0.072
-615.303	350.515	-0.140	-0.281
-614.288	800.000	-0.058	-0.234
-613.273	800.000	-0.012	0.045
-612.259	800.000	-0.008	-0.028
-611.244	-55.354	-0.231	-0.106
-610.230	-200.000	-0.038	-0.282
-609.215	107.080	-0.102	0.123
-608.201	205.189	0.105	0.166
-607.186	43.641	-0.059	-0.054
-606.171	-153.343	0.135	-0.010
-605.157	-200.000	0.004	0.170
-604.142	-117.635	-0.219	0.040
-603.128	39.444	-0.119	0.108
-602.113	800.000	-0.033	-0.138
-601.098	-80.028	-0.081	-0.028
-600.084	-117.361	-0.206	-0.038
-599.069	335.096	-0.183	0.360
-598.055	-119.118	-0.229	0.041
-597.040	-31.369	-0.146	-0.084
-596.025	-94.620	0.202	0.056
-595.011	-200.000	0.064	0.324
-593.996	-200.000	0.005	0.245
-592.982	-149.845	0.310	-0.025
-591.967	49.207	-0.233	0.222
-590.952	142.621	0.087	0.117
-589.938	28.719	0.031	0.027
-588.923	97.246	0.172	0.200
-587.909	-200.000	-0.027	-0.306
-586.894	-200.000	-0.012	-0.114
-585.879	800.000	-0.050	0.149
-584.865	-85.288	0.123	-0.039
-583.850	-2.185	0.148	-0.106
-582.836	800.000	0.132	0.513
-581.821	800.000	0.040	-0.124
-580.806	94.428	-0.036	0.041
-579.792	-86.077	0.243	-0.076
-578.777	-200.000	0.014	0.107
-577.763	-200.000	-0.003	-0.272
-576.748	58.782	-0.326	0.325
-575.733	-200.000	0.042	-0.216
-574.719	800.000	0.058	0.162
-573.704	151.580	0.115	0.159
-572.690	31.451	-0.131	-0.114
-571.675	71.173	-0.008	0.008
-570.661	-79.476	0.188	0.064
-569.646	-118.866	0.285	-0.051
-568.631	-83.483	-0.202	-0.066
-567.617	195.207	0.099	0.152
-566.602	-200.000	0.003	-0.314
-565.588	73.169	0.257	-0.273
-564.573	-141.528	0.470	0.048
-563.558	-31.729	0.573	0.326
-562.544	-200.000	-0.019	-0.382
-561.529	645.466	0.023	-0.059
-560.515	-104.703	-0.041	0.010
-559.500	-121.867	-0.133	-0.022
-558.485	373.642	-0.085	0.175
-557.471	-200.000	0.003	0.166
-556.456	-92.387	0.225	0.064
-555.442	800.000	-0.042	-0.118
-554.427	-200.000	-0.015	0.173
-553.412	702.115	-0.054	-0.143
-552.398	423.079	-0.146	0.319
-551.383	69.822	0.079	-0.083
-550.369	-82.044	-0.114	0.038
-549.354	-148.010	0.112	0.009
-548.339	-10.212	0.063	-0.043
-547.325	-2.008	-0.258	0.184
-546.310	140.245	0.040	0.054
-545.296	124.010	-0.165	-0.209
-544.281	135.500	0.172	0.226
-543.266	-138.701	0.062	-0.007
-542.252	-77.885	-0.228	0.080
-541.237	-161.570	-0.386	-0.020
-540.223	-137.279	-0.293	0.034
-539.208	-21.233	-0.289	0.179
-538.193	201.625	-0.165	0.257
-537.179	-200.000	0.058	0.368
-536.164	80.326	-0.039	0.043
-535.150	-116.001	-0.311	0.059
-534.135	-91.314	-0.090	0.026
-533.121	173.833	0.073	0.107
-532.106	-70.513	0.162	-0.062
-531.091	241.111	0.185	0.312
-530.077	221.888	-0.092	-0.150
-529.062	-31.568	0.271	-0.154
-528.048	130.327	-0.195	-0.253
-527.033	-31.448	-0.087	0.049
-526.018	137.532	0.196	-0.259
-525.004	-90.941	-0.196	-0.057
-523.989	-53.732	-0.175	-0.081
-522.975	-200.000	0.028	0.186
-521.960	343.206	0.094	0.187
-520.945	-200.000	0.009	0.172
-519.931	-83.595	0.082	-0.026
-518.916	-172.856	-0.133	-0.004
-517.902	69.006	-0.085	-0.089
-516.887	800.000	-0.064	-0.192
-515.872	-51.111	0.112	0.053
-514.858	-200.000	-0.116	0.584
-513.843	8.178	-0.087	0.066
-512.829	-114.169	-0.193	-0.038
-511.814	800.000	-0.057	-0.202
-510.799	-92.774	0.200	0.057
-509.785	800.000	0.044	-0.161
-508.770	-131.428	0.139	-0.019
-507.756	-105.212	-0.255	-0.059
-506.741	226.170	-0.085	-0.140
-505.726	39.835	-0.126	0.115
-504.712	-120.224	0.176	-0.030
-503.697	179.310	-0.112	0.166
-502.683	354.028	0.159	0.320
-501.668	-157.648	-0.243	-0.015
-500.653	800.000	0.047	-0.167
-499.639	144.168	-0.180	-0.243
-498.624	-127.108	0.382	0.057
-497.610	-93.099	-0.271	-0.076
-496.595	352.859	0.053	-0.107
-495.581	800.000	0.059	-0.235
-494.566	-93.833	0.132	-0.037
-493.551	-200.000	-0.030	-0.165
-492.537	58.173	0.039	0.039
-491.522	-13.508	-0.156	0.102
-490.508	-31.256	0.198	-0.113
-489.493	800.000	0.057	-0.200
-488.478	-63.263	-0.138	0.057
-487.464	-104.915	-0.360	0.083
-486.449	-77.905	-0.158	0.055
-485.435	-96.610	-0.178	0.048
-484.420	800.000	-0.005	-0.016
-483.405	-200.000	0.006	-0.277
-482.391	-14.533	0.176	0.114
-481.376	800.000	0.043	0.180
-480.362	-120.338	-0.168	0.029
-479.347	-200.000	0.078	-0.457
-478.332	-104.023	0.190	-0.045
-477.318	-77.242	-0.132	-0.046
-476.303	-200.000	0.001	0.226
-475.289	16.806	0.103	0.083
-474.274	173.905	0.099	0.144
-473.259	-98.650	0.158	-0.041
-472.245	424.982	0.044	-0.096
-471.230	-198.646	-0.212	-0.001
-470.216	-200.000	-0.010	-0.060
-469.201	28.971	-0.082	0.070
-468.186	67.166	0.129	-0.133
-467.172	-80.486	0.298	-0.100
-466.157	-4.122	0.262	0.183
-465.143	650.214	-0.111	-0.286
-464.128	-200.000	0.032	0.315
-463.113	93.278	-0.139	0.159
-462.099	-126.137	0.240	-0.036
-461.084	-36.230	-0.169	0.092
-460.070	-200.000	-0.039	-0.188
-459.055	480.251	0.088	-0.202
-458.040	-159.209	-0.082	-0.005
-457.026	-98.671	0.241	-0.062
-456.011	-82.966	0.143	0.046
-454.997	71.165	0.068	0.071
-453.982	-200.000	0.008	0.152
-452.968	131.236	-0.140	-0.182
-451.953	529.189	0.189	0.450
-450.938	-200.000	0.044	0.249
-449.924	-200.000	-0.004	0.021
-448.909	-200.000	-0.000	-0.033
-447.895	-200.000	-0.009	-0.063
-446.880	-54.032	-0.182	0.083
-445.865	296.957	-0.217	0.402
-444.851	800.000	-0.042	-0.142
-443.836	227.835	-0.149	-0.244
-442.822	-138.896	-0.472	0.052
-441.807	-186.182	-0.249	0.004
-440.792	-70.300	0.355	0.136
-439.778	-87.739	0.089	-0.027
-438.763	416.687	-0.135	0.290
-437.749	-154.520	-0.311	0.021
-436.734	13.790	-0.181	-0.142
-435.719	-76.293	0.382	0.136
-434.705	167.693	-0.135	-0.193
-433.690	800.000	0.046	0.132
-432.676	22.259	-0.088	0.072
-431.661	-5.517	-0.175	0.121
-430.646	-200.000	-0.002	-0.031
-429.632	35.497	-0.112	0.099
-428.617	-67.294	-0.069	0.027
-427.603	-200.000	-0.019	0.115
-426.588	-200.000	0.071	-0.347
-425.573	-162.355	-0.285	-0.014
-424.559	-84.759	0.072	0.023
-423.544	45.765	0.249	0.233
-422.530	50.169	0.275	-0.262
-421.515	-180.956	-0.214	-0.004
-420.500	-6.194	0.232	-0.160
-419.486	31.079	0.231	0.200
-418.471	-109.890	-0.123	0.026
-417.457	-47.387	-0.148	0.073
-416.442	99.386	0.126	-0.146
-415.428	-17.986	-0.130	0.082
-414.413	243.465	0.087	0.148
-413.398	-36.329	0.179	0.097
-412.384	-43.188	0.091	-0.046
-411.369	110.649	-0.282	-0.342
-410.355	-200.000	0.004	-0.237
-409.340	167.571	0.127	-0.183
-408.325	169.758	-0.205	0.296
-407.311	800.000	-0.126	-0.357
-406.296	-200.000	-0.013	-0.139
-405.282	207.879	-0.174	-0.274
-404.267	182.910	0.087	-0.130
-403.252	800.000	0.037	0.130
-402.238	-31.099	0.307	-0.175
-401.223	667.494	-0.061	-0.160
-400.209	708.841	0.048	0.129
-399.194	800.000	-0.077	0.298
-398.179	38.965	0.114	0.102
-397.165	-200.000	0.004	0.042
-396.150	800.000	-0.096	0.386
-395.136	-70.872	0.286	0.109
-394.121	800.000	0.100	0.282
-393.106	142.823	-0.133	0.178
-392.092	56.234	0.176	0.172
-391.077	-66.177	-0.209	-0.084
-390.063	25.298	-0.220	0.184
-389.048	-123.056	-0.052	-0.008
-388.033	380.766	0.080	-0.165
-387.019	-137.290	-0.124	0.014
-386.004	-62.266	0.010	0.004
-384.990	100.829	0.121	0.142
-383.975	-142.344	-0.043	0.004
-382.960	-200.000	0.019	0.219
-381.946	-200.000	0.010	-0.280
-380.931	181.840	-0.098	0.145
-379.917	-28.236	-0.142	0.083
-378.902	-52.308	-0.515	0.240
-377.888	-155.511	0.102	0.007
-376.873	800.000	0.074	0.205
-375.858	774.542	-0.144	-0.396
-374.844	-21.386	0.125	-0.077
-373.829	-200.000	-0.008	0.098
-372.815	-200.000	-0.005	0.070
-371.800	-200.000	0.010	0.348
-370.785	-160.246	-0.152	0.008
-369.771	-200.000	0.001	-0.154
-368.756	-46.522	-0.274	0.135
-367.742	-15.466	0.062	0.040
-366.727	-4.084	-0.101	-0.070
-365.712	-200.000	-0.004	0.176
-364.698	-40.939	0.164	0.085
-363.683	-64.506	0.246	0.100
-362.669	615.049	0.199	-0.501
-361.654	218.815	-0.098	-0.158
-360.639	-27.377	-0.153	0.089
-359.625	39.874	-0.043	-0.039
-358.610	-200.000	0.021	0.407
-357.596	102.354	0.165	0.194
-356.581	84.030	0.339	-0.373
-355.566	-114.772	0.360	0.069
-354.552	-53.198	0.156	-0.072
-353.537	183.146	-0.177	0.263
-352.523	800.000	-0.100	-0.301
-351.508	105.925	-0.199	-0.237
-350.493	800.000	-0.036	-0.138
-349.479	-178.270	-0.213	0.005
-348.464	203.097	0.150	-0.233
-347.450	199.395	-0.121	-0.186
-346.435	-90.321	-0.123	0.036
-345.420	-200.000	0.002	-0.123
-344.406	91.908	0.045	-0.051
-343.391	0.812	0.274	0.197
-342.377	-24.038	-0.035	0.021
-341.362	27.825	0.035	0.030
-340.348	-200.000	0.062	-0.326
-339.333	-168.765	0.125	-0.005
-338.318	230.046	-0.064	-0.105
-337.304	-39.153	0.273	0.144
-336.289	197.859	-0.016	-0.024
-335.275	645.020	-0.178	-0.458
-334.260	16.768	0.321	-0.255
-333.245	-127.298	0.380	-0.056
-332.231	179.270	-0.073	0.107
-331.216	388.392	0.073	0.152
-330.202	55.849	0.343	-0.334
-329.187	690.715	0.086	0.225
-328.172	-133.344	-0.205	-0.026
-327.158	-185.219	-0.218	0.003
-326.143	800.000	-0.053	0.175
-325.129	452.683	0.092	-0.204
-324.114	-9.931	0.256	-0.171
-323.099	483.609	0.130	0.297
-322.085	-33.049	-0.222	0.124
-321.070	-34.318	-0.345	0.190
-320.056	-10.485	0.383	0.255
-319.041	-154.477	0.176	0.012
-318.026	146.956	-0.217	-0.293
-317.012	-41.169	0.101	-0.052
-315.997	-82.966	0.327	0.106
-314.983	22.377	0.246	-0.202
-313.968	-64.995	-0.141	0.057
-312.953	265.100	-0.184	-0.322
-311.939	800.000	0.114	0.328
-310.924	335.965	0.145	-0.282
-309.910	-118.366	-0.157	0.028
-308.895	-200.000	-0.014	-0.153
-307.880	-75.939	-0.284	0.101
-306.866	35.464	0.202	-0.178
-305.851	800.000	0.084	0.315
-304.837	19.022	0.164	0.132
-303.822	-200.000	0.009	-0.049
-302.807	-200.000	-0.016	0.240
-301.793	-40.043	-0.179	-0.094
-300.778	518.070	0.111	-0.260
-299.764	63.889	0.233	-0.235
-298.749	581.403	-0.131	0.323
-297.735	-78.074	-0.253	-0.088
-296.720	105.625	0.139	0.165
-295.705	490.920	-0.103	-0.237
-294.691	-32.616	0.117	0.065
-293.676	453.792	0.171	0.380
-292.662	272.934	-0.089	-0.158
-291.647	10.043	0.347	0.264
-290.632	167.801	0.101	0.145
-289.618	800.000	-0.033	0.105
-288.603	-153.332	0.369	-0.026
-287.589	9.466	-0.187	0.142
-286.574	-21.145	0.251	-0.154
-285.559	-200.000	-0.018	-0.116
-284.545	800.000	0.034	-0.103
-283.530	-120.732	0.071	0.012
-282.516	800.000	0.072	-0.261
-281.501	-155.328	-0.126	-0.008
-280.486	-39.865	0.149	-0.078
-279.472	-89.420	-0.154	0.045
-278.457	-129.147	0.334	-0.047
-277.443	-57.936	-0.186	-0.082
-276.428	800.000	-0.075	0.288
-275.413	106.790	0.176	0.210
-274.399	-12.320	-0.095	0.062
-273.384	283.017	0.131	-0.236
-272.370	-64.381	0.191	-0.078
-271.355	-138.029	0.230	-0.026
-270.340	-19.627	-0.125	-0.078
-269.326	-129.764	-0.343	-0.047
-268.311	44.365	-0.265	-0.244
-267.297	-200.000	-0.005	0.099
-266.282	-200.000	0.009	0.175
-265.267	-68.455	0.349	-0.136
-264.253	-128.557	0.294	0.042
-263.238	800.000	-0.040	0.175
-262.224	-2.259	-0.397	-0.279
-261.209	-200.000	0.087	-0.385
-260.195	-15.325	-0.276	-0.177
-259.180	-53.238	-0.123	0.057
-258.165	800.000	0.082	-0.257
-257.151	3.826	-0.035	-0.025
-256.136	-46.550	-0.234	-0.115
-255.122	-151.055	0.060	-0.004
-254.107	-200.000	0.029	0.231
-253.092	150.403	-0.108	-0.147
-252.078	306.417	-0.154	0.287
-251.063	-30.936	-0.267	-0.151
-250.049	-103.083	-0.094	0.022
-249.034	219.100	0.077	0.124
-248.019	-200.000	0.024	-0.134
-247.005	5.902	-0.171	-0.127
-245.990	-80.995	0.193	-0.064
-244.976	800.000	0.090	0.352
-243.961	90.762	-0.189	0.212
-242.946	33.681	0.123	-0.107
-241.932	72.296	0.207	0.216
-240.917	169.402	-0.014	-0.020
-239.903	492.005	0.069	0.158
-238.888	-47.181	0.361	-0.176
-237.873	-121.985	-0.167	-0.027
-236.859	111.196	0.114	0.137
-235.844	-86.131	0.077	-0.024
-234.830	-14.482	-0.217	0.140
-233.815	-200.000	-0.053	0.257
-232.800	-28.359	-0.082	-0.048
-231.786	268.553	-0.139	-0.244
-230.771	-110.468	0.183	-0.038
-229.757	112.801	0.109	0.132
-228.742	-200.000	-0.080	-0.358
-227.727	482.006	0.091	-0.207
-226.713	800.000	0.088	-0.253
-225.698	27.392	-0.104	-0.087
-224.684	-200.000	0.016	-0.284
-223.669	-59.821	-0.132	-0.057
-222.655	-200.000	0.018	-0.096
-221.640	204.826	0.022	0.034
-220.625	79.013	-0.187	-0.200
-219.611	-200.000	-0.004	0.328
-218.596	291.232	-0.125	-0.228
-217.582	-84.981	0.343	0.108
-216.567	219.460	0.181	-0.290
-215.552	272.349	0.136	0.240
-214.538	413.446	0.179	0.380
-213.523	439.915	0.042	0.092
-212.509	800.000	0.096	-0.304
-211.494	-96.978	0.220	-0.058
-210.479	22.080	-0.064	0.052
-209.465	40.543	-0.073	-0.066
-208.450	-78.150	-0.037	0.013
-207.436	-34.012	-0.104	0.057
-206.421	-133.607	-0.317	0.040
-205.406	-30.208	0.133	-0.076
-204.392	800.000	-0.070	-0.247
-203.377	-200.000	-0.027	-0.161
-202.363	-3.849	0.101	-0.070
-201.348	-7.014	0.105	0.072
-200.333	399.655	0.060	0.126
-199.319	190.552	-0.111	0.166
-198.304	800.000	-0.036	-0.107
-197.290	331.934	-0.102	-0.198
-196.275	109.091	0.088	-0.105
-195.260	-200.000	-0.017	0.116
-194.246	232.159	0.038	-0.063
-193.231	-200.000	-0.230	0.000
-192.217	122.930	-0.129	-0.161
-191.202	460.607	0.096	-0.215
-190.187	-111.341	0.218	0.044
-189.173	31.247	0.311	-0.267
-188.158	-200.000	-0.013	-0.345
-187.144	-200.000	-0.033	0.183
-186.129	713.567	0.098	0.260
-185.114	101.712	-0.080	0.093
-184.100	-111.228	-0.355	-0.073
-183.085	800.000	0.047	-0.173
-182.071	125.090	0.221	0.278
-181.056	87.891	0.258	0.286
-180.042	-34.761	0.108	0.059
-179.027	653.823	0.059	-0.152
-178.012	55.255	-0.317	0.306
-176.998	-76.436	0.276	0.097
-175.983	800.000	-0.080	-0.309
-174.969	19.232	0.120	-0.096
-173.954	542.566	-0.165	-0.393
-172.939	-33.341	0.085	0.047
-171.925	726.699	0.022	-0.060
-170.910	-126.595	-0.035	-0.005
-169.896	-129.407	0.210	-0.029
-168.881	-58.977	-0.222	-0.096
-167.866	-200.000	-0.010	-0.159
-166.852	800.000	-0.041	0.170
-165.837	-200.000	0.018	0.150
-164.823	291.815	-0.084	-0.154
-163.808	98.239	-0.189	0.218
-162.793	800.000	0.038	-0.108
-161.779	-200.000	0.014	0.147
-160.764	-122.052	-0.159	0.026
-159.750	800.000	0.098	0.276
-158.735	-122.623	-0.126	-0.020
-157.720	-200.000	-0.040	0.389
-156.706	800.000	-0.068	0.222
-155.691	-72.432	0.313	-0.116
-154.677	800.000	0.055	0.175
-153.662	-75.833	-0.123	-0.044
-152.647	60.357	0.122	-0.120
-151.633	53.403	-0.161	-0.154
-150.618	134.359	-0.032	-0.041
-149.604	20.257	0.291	0.235
-148.589	-0.765	-0.325	0.230
-147.574	-200.000	-0.001	0.184
-146.560	73.163	-0.058	0.061
-145.545	800.000	-0.055	-0.208
-144.531	-38.594	-0.148	-0.078
-143.516	18.588	0.138	-0.110
-142.502	-115.039	0.325	-0.062
-141.487	399.061	-0.083	-0.174
-140.472	257.580	0.200	0.344
-139.458	-178.804	-0.076	0.002
-138.443	-44.281	0.158	-0.079
-137.429	-106.195	-0.073	-0.016
-136.414	-200.000	-0.047	0.206
-135.399	64.029	-0.347	0.349
-134.385	-200.000	-0.021	0.236
-133.370	326.033	-0.017	-0.033
-132.356	-30.174	-0.185	-0.105
-131.341	-130.275	0.152	0.021
-130.326	210.255	0.151	0.236
-129.312	70.839	0.176	0.181
-128.297	61.241	0.145	-0.143
-127.283	-20.990	-0.077	-0.047
-126.268	-20.057	0.288	0.177
-125.253	-85.716	-0.180	-0.056
-124.239	-200.000	0.038	0.327
-123.224	177.867	-0.078	0.114
-122.210	583.099	0.015	-0.036
-121.195	32.966	0.245	0.211
