DTS Sentinel unit serial number:	SN413079Multiplexer serial number:	ORYXHardware model number:	OX4-SRSoftware version number:	ORYX F/W v4.00 Oryx Data Collector v3.7.2.0data status	okinstallation	princeton_trtdifferential loss correction	single-endedforward channel	channel 4reverse channel	N/Adate	2019/09/16time	22:57:35forward acquisition time	60.00reverse acquisition time	0.00gamma	496.2192k internal	0.2314k external	0.2314temperature offset calibration	0.9974default loss term (dB/km)	0.3790temperature slope calibration	1.0000multiplexer offset coefficient	1.0000multiplexer slope coefficient	1.0000fibre end	0.00T internal ref (°C)	30.37T ext. ref 1 (°C)	0.08T ext. ref 2 (°C)	23.99length (m)	temperature (°C)	Stokes	anti-Stokes-747.200	-172.728	-0.334	-0.011
-746.185	-100.986	-0.312	-0.078
-745.171	-200.000	-0.003	-0.254
-744.156	-200.000	-0.007	0.228
-743.142	51.962	-0.098	-0.094
-742.127	-200.000	-0.044	-0.432
-741.112	-58.482	-0.211	0.093
-740.098	132.607	0.080	0.104
-739.083	-200.000	-0.010	-0.110
-738.069	-42.870	0.009	0.005
-737.054	-200.000	0.023	0.152
-736.039	122.922	-0.176	-0.223
-735.025	-65.726	-0.133	-0.054
-734.010	138.591	-0.072	-0.096
-732.996	800.000	0.041	-0.162
-731.981	800.000	-0.035	-0.155
-730.966	606.507	0.045	-0.115
-729.952	-118.387	0.146	0.026
-728.937	-200.000	-0.034	-0.222
-727.923	156.292	-0.095	0.133
-726.908	-52.527	-0.173	0.081
-725.894	43.165	-0.160	0.148
-724.879	285.766	-0.049	0.090
-723.864	-200.000	0.005	0.204
-722.850	309.543	-0.200	-0.380
-721.835	800.000	-0.148	0.419
-720.821	334.974	0.078	-0.153
-719.806	46.401	-0.129	-0.121
-718.791	29.629	0.146	-0.125
-717.777	-200.000	0.018	-0.193
-716.762	-200.000	-0.009	0.055
-715.748	-200.000	0.079	0.357
-714.733	-71.459	-0.299	-0.113
-713.718	476.199	0.095	-0.217
-712.704	202.321	0.144	-0.225
-711.689	800.000	-0.028	-0.116
-710.675	-178.047	-0.287	0.007
-709.660	-84.443	0.084	0.027
-708.645	436.360	-0.060	-0.133
-707.631	-200.000	0.002	0.023
-706.616	-26.623	-0.272	0.162
-705.602	55.976	0.027	-0.026
-704.587	-58.159	0.182	-0.080
-703.572	38.137	-0.136	0.122
-702.558	237.032	-0.104	-0.174
-701.543	-112.150	-0.312	-0.064
-700.529	665.120	0.096	-0.252
-699.514	89.508	0.291	0.329
-698.499	-64.919	0.420	0.172
-697.485	340.754	-0.035	-0.070
-696.470	-28.032	0.143	-0.084
-695.456	108.255	-0.259	-0.313
-694.441	146.347	0.121	0.164
-693.426	-131.225	0.088	-0.012
-692.412	-200.000	0.008	-0.131
-691.397	283.023	-0.109	0.199
-690.383	32.615	-0.233	-0.204
-689.368	1.436	-0.113	0.082
-688.354	127.629	-0.152	-0.196
-687.339	66.106	0.121	-0.124
-686.324	-200.000	-0.008	-0.348
-685.310	-135.540	-0.522	0.063
-684.295	800.000	-0.049	-0.174
-683.281	-105.008	-0.140	0.032
-682.266	-142.448	-0.138	-0.014
-681.251	-40.912	0.129	-0.068
-680.237	-84.199	-0.222	-0.071
-679.222	-200.000	0.049	0.407
-678.208	392.419	-0.018	-0.037
-677.193	-200.000	-0.009	-0.134
-676.178	-113.025	-0.417	0.083
-675.164	800.000	-0.075	-0.217
-674.149	-200.000	0.007	-0.423
-673.135	-200.000	-0.009	0.121
-672.120	800.000	-0.144	0.614
-671.105	387.807	0.139	0.291
-670.091	377.164	-0.134	0.277
-669.076	-200.000	0.008	-0.184
-668.062	-200.000	-0.029	-0.128
-667.047	394.437	-0.124	0.261
-666.032	-200.000	0.003	-0.088
-665.018	-63.437	0.123	-0.051
-664.003	-75.572	-0.279	-0.100
-662.989	-19.515	-0.231	0.144
-661.974	-127.041	0.411	0.061
-660.959	-200.000	0.029	-0.221
-659.945	-200.000	0.005	-0.242
-658.930	100.205	0.159	0.186
-657.916	-200.000	0.028	-0.281
-656.901	-3.891	-0.068	-0.048
-655.886	5.234	0.087	-0.065
-654.872	-25.546	0.001	-0.001
-653.857	-149.551	0.116	0.009
-652.843	-48.579	-0.270	0.131
-651.828	451.494	0.114	-0.254
-650.814	-40.480	-0.182	0.095
-649.799	-200.000	0.222	-0.000
-648.784	18.957	-0.244	-0.198
-647.770	128.684	-0.066	-0.085
-646.755	174.085	0.089	0.130
-645.741	-200.000	0.017	-0.297
-644.726	-19.292	0.388	0.243
-643.711	800.000	0.019	0.055
-642.697	-52.746	-0.114	-0.053
-641.682	45.631	0.150	-0.140
-640.668	800.000	0.065	-0.266
-639.653	43.527	-0.224	0.206
-638.638	-108.556	0.091	-0.020
-637.624	-100.513	-0.226	-0.057
-636.609	-200.000	0.074	-0.333
-635.595	-132.374	-0.071	0.009
-634.580	137.929	-0.215	-0.285
-633.565	800.000	0.076	0.215
-632.551	647.619	-0.174	-0.449
-631.536	191.926	0.021	0.032
-630.522	-200.000	-0.015	0.169
-629.507	402.083	-0.120	0.255
-628.492	-14.258	0.082	-0.053
-627.478	-104.350	-0.042	-0.010
-626.463	800.000	0.013	-0.052
-625.449	188.359	0.261	-0.393
-624.434	-84.126	0.125	0.040
-623.419	-85.838	-0.035	-0.011
-622.405	415.542	0.093	-0.200
-621.390	-35.748	-0.242	-0.132
-620.376	-99.312	0.180	0.046
-619.361	-200.000	0.000	-0.141
-618.346	-80.796	0.225	0.075
-617.332	3.754	0.223	-0.164
-616.317	12.523	-0.315	-0.245
-615.303	-121.799	-0.198	0.033
-614.288	583.566	0.126	-0.311
-613.273	150.740	-0.039	0.053
-612.259	797.753	0.080	-0.224
-611.244	57.658	0.081	-0.080
-610.230	176.163	0.137	0.200
-609.215	492.684	0.111	0.258
-608.201	101.342	-0.107	0.126
-607.186	22.143	0.151	0.125
-606.171	670.504	0.090	-0.235
-605.157	25.738	0.112	0.095
-604.142	-200.000	0.002	0.219
-603.128	-200.000	0.005	-0.103
-602.113	108.531	-0.061	-0.073
-601.098	448.283	0.027	-0.059
-600.084	-45.551	0.130	0.065
-599.069	-200.000	-0.021	-0.197
-598.055	-72.535	-0.219	0.081
-597.040	-61.650	-0.072	0.030
-596.025	-200.000	0.039	0.186
-595.011	14.188	-0.184	-0.145
-593.996	-152.357	0.005	-0.000
-592.982	180.027	0.136	-0.201
-591.967	377.858	-0.152	-0.312
-590.952	-200.000	0.057	0.353
-589.938	-85.442	0.169	0.053
-588.923	-107.344	-0.176	0.039
-587.909	-200.000	-0.052	0.314
-586.894	-21.284	-0.229	0.141
-585.879	34.326	-0.387	-0.341
-584.865	147.781	-0.140	-0.191
-583.850	-200.000	0.011	0.228
-582.836	-181.803	-0.150	0.003
-581.821	11.828	0.146	-0.113
-580.806	-46.504	-0.201	-0.099
-579.792	-200.000	0.041	0.231
-578.777	44.522	0.145	0.134
-577.763	24.959	0.235	-0.197
-576.748	24.477	-0.170	-0.142
-575.733	-43.854	0.296	0.150
-574.719	-42.466	-0.228	-0.117
-573.704	-200.000	-0.015	0.108
-572.690	-127.395	0.151	0.022
-571.675	-121.591	-0.051	0.008
-570.661	235.531	0.126	-0.210
-569.646	18.651	-0.155	0.125
-568.631	-15.657	-0.436	0.280
-567.617	254.009	-0.073	-0.126
-566.602	-200.000	0.059	-0.275
-565.588	-156.025	0.219	0.014
-564.573	-14.921	0.034	0.022
-563.558	-11.130	-0.244	-0.162
-562.544	-45.935	0.202	0.100
-561.529	614.979	-0.216	-0.546
-560.515	-127.752	0.358	0.052
-559.500	-44.218	-0.219	0.111
-558.485	-21.221	0.381	0.234
-557.471	58.090	0.123	0.121
-556.456	27.781	0.078	-0.066
-555.442	-108.130	-0.242	-0.053
-554.427	-95.046	0.370	0.101
-553.412	-187.613	-0.226	0.003
-552.398	566.172	0.075	-0.182
-551.383	163.459	-0.179	-0.254
-550.369	-106.484	-0.237	-0.053
-549.354	-200.000	0.029	0.372
-548.339	138.552	0.106	-0.141
-547.325	115.465	-0.214	-0.263
-546.310	-61.283	0.088	0.037
-545.296	196.346	0.044	0.068
-544.281	55.722	-0.122	-0.119
-543.266	329.284	0.106	-0.206
-542.252	-200.000	0.017	-0.124
-541.237	-139.205	0.311	-0.034
-540.223	158.248	-0.065	-0.090
-539.208	60.641	-0.266	0.265
-538.193	-78.056	-0.358	0.124
-537.179	-73.774	-0.134	-0.049
-536.164	-142.435	0.206	0.020
-535.150	-18.687	0.238	-0.150
-534.135	6.703	0.023	-0.017
-533.121	-200.000	-0.040	0.237
-532.106	-122.846	0.127	0.021
-531.091	87.045	-0.114	0.126
-530.077	508.173	-0.118	0.274
-529.062	6.647	0.118	-0.088
-528.048	-138.662	-0.298	-0.033
-527.033	134.321	0.208	0.271
-526.018	-150.262	-0.169	0.013
-525.004	-200.000	0.042	-0.211
-523.989	800.000	-0.074	0.243
-522.975	107.340	0.076	-0.091
-521.960	103.443	0.096	0.114
-520.945	800.000	0.048	0.136
-519.931	-31.549	-0.058	0.033
-518.916	-166.581	0.171	0.007
-517.902	-200.000	0.022	0.349
-516.887	135.773	0.119	0.156
-515.872	292.832	0.187	0.343
-514.858	-83.271	0.116	-0.037
-513.843	800.000	0.082	0.295
-512.829	-200.000	0.029	-0.197
-511.814	-71.555	-0.311	-0.117
-510.799	140.908	-0.026	0.034
-509.785	58.910	0.129	-0.127
-508.770	114.489	-0.205	0.251
-507.756	800.000	-0.032	-0.131
-506.741	-200.000	-0.001	0.216
-505.726	-140.797	-0.134	0.014
-504.712	229.668	-0.095	0.156
-503.697	703.717	-0.025	-0.066
-502.683	-72.651	-0.065	0.024
-501.668	-200.000	0.000	-0.108
-500.653	-102.665	-0.091	-0.022
-499.639	-200.000	-0.020	0.280
-498.624	17.756	0.116	0.093
-497.610	-200.000	-0.015	0.172
-496.595	125.075	0.059	0.075
-495.581	-200.000	0.032	0.218
-494.566	-200.000	0.071	-0.645
-493.551	-48.237	-0.216	-0.104
-492.537	-176.541	-0.308	-0.008
-491.522	-58.926	0.048	-0.021
-490.508	517.702	0.073	0.171
-489.493	-62.677	-0.078	-0.033
-488.478	-200.000	0.007	-0.407
-487.464	57.665	0.317	-0.311
-486.449	800.000	-0.056	0.231
-485.435	800.000	0.156	0.519
-484.420	261.582	-0.051	-0.089
-483.405	-77.107	-0.069	-0.024
-482.391	783.209	-0.132	-0.364
-481.376	209.161	0.184	-0.289
-480.362	800.000	-0.078	0.238
-479.347	800.000	0.049	-0.204
-478.332	-98.215	-0.283	-0.073
-477.318	-103.475	-0.271	0.064
-476.303	-69.649	-0.187	0.072
-475.289	800.000	0.055	-0.209
-474.274	223.693	0.131	-0.212
-473.259	-98.150	-0.084	0.022
-472.245	-200.000	-0.011	-0.052
-471.230	-200.000	-0.059	0.267
-470.216	800.000	0.089	0.324
-469.201	-200.000	-0.019	-0.273
-468.186	-200.000	-0.002	0.119
-467.172	-200.000	0.009	-0.056
-466.157	255.134	0.134	-0.229
-465.143	-124.166	0.197	-0.031
-464.128	87.137	0.260	-0.289
-463.113	-69.999	0.223	0.085
-462.099	345.408	-0.144	0.284
-461.084	800.000	0.050	-0.146
-460.070	4.037	0.045	0.033
-459.055	-172.417	-0.118	-0.004
-458.040	-200.000	-0.016	0.197
-457.026	570.840	0.016	0.038
-456.011	90.077	0.173	-0.194
-454.997	-200.000	0.024	-0.110
-453.982	-144.174	-0.202	-0.019
-452.968	26.693	0.187	0.157
-451.953	211.223	0.283	-0.446
-450.938	-19.222	-0.151	-0.094
-449.924	-106.830	-0.106	0.023
-448.909	89.731	-0.153	0.171
-447.895	116.898	0.167	0.205
-446.880	-200.000	0.064	-0.451
-445.865	-38.677	-0.182	0.096
-444.851	75.650	0.141	0.149
-443.836	295.975	-0.104	-0.191
-442.822	67.483	-0.112	-0.114
-441.807	297.931	0.065	-0.121
-440.792	-200.000	0.016	0.235
-439.778	800.000	0.078	0.319
-438.763	-30.631	0.199	0.113
-437.749	-200.000	-0.014	0.110
-436.734	-109.673	0.117	-0.025
-435.719	-200.000	-0.043	0.201
-434.705	223.547	-0.256	-0.413
-433.690	13.931	0.178	0.138
-432.676	800.000	0.019	0.066
-431.661	-136.907	0.098	0.011
-430.646	229.827	0.147	0.241
-429.632	248.363	0.075	-0.128
-428.617	800.000	0.056	-0.204
-427.603	-200.000	0.008	0.366
-426.588	800.000	0.070	0.252
-425.573	-200.000	-0.003	0.064
-424.559	-1.108	0.242	0.171
-423.544	82.005	0.215	0.234
-422.530	-108.999	-0.013	-0.003
-421.515	191.325	0.021	0.032
-420.500	173.664	0.101	-0.146
-419.486	-35.569	0.145	0.079
-418.471	139.889	0.084	-0.110
-417.457	777.787	-0.085	0.232
-416.442	214.997	-0.098	-0.156
-415.428	237.837	-0.172	-0.286
-414.413	90.236	0.099	-0.110
-413.398	6.761	-0.177	-0.132
-412.384	-200.000	-0.004	-0.259
-411.369	116.410	-0.174	-0.214
-410.355	8.604	-0.339	0.255
-409.340	-200.000	-0.010	0.135
-408.325	-200.000	0.003	0.160
-407.311	101.117	-0.213	-0.248
-406.296	-119.328	-0.229	0.040
-405.282	-144.684	0.249	-0.023
-404.267	415.827	-0.138	0.294
-403.252	88.466	0.091	-0.102
-402.238	800.000	0.107	-0.301
-401.223	303.342	-0.210	0.389
-400.209	9.246	-0.094	0.071
-399.194	-52.636	-0.071	0.033
-398.179	-45.524	0.233	-0.115
-397.165	76.612	-0.201	-0.213
-396.150	800.000	0.084	0.251
-395.136	-158.796	0.118	-0.007
-394.121	-195.433	-0.350	-0.003
-393.106	-174.893	0.281	0.008
-392.092	-64.756	0.042	-0.017
-391.077	331.102	0.076	-0.146
-390.063	-76.898	0.202	-0.070
-389.048	233.516	0.064	0.105
-388.033	-200.000	-0.026	-0.130
-387.019	152.826	-0.012	-0.017
-386.004	59.411	-0.066	0.065
-384.990	191.083	0.019	0.029
-383.975	800.000	0.048	0.184
-382.960	-130.400	0.148	0.020
-381.946	-35.058	-0.166	-0.090
-380.931	-34.890	0.422	-0.230
-379.917	113.889	0.188	0.228
-378.902	-66.540	-0.398	0.158
-377.888	-138.218	-0.683	-0.076
-376.873	-137.770	0.321	-0.036
-375.858	35.887	0.043	0.038
-374.844	-105.790	0.140	-0.032
-373.829	313.870	0.038	-0.071
-372.815	361.377	0.118	0.237
-371.800	-30.110	0.159	-0.090
-370.785	-95.160	-0.410	0.111
-369.771	9.407	-0.087	-0.066
-368.756	161.830	-0.240	0.335
-367.742	-16.382	0.382	-0.242
-366.727	800.000	0.091	-0.303
-365.712	93.317	-0.345	-0.390
-364.698	12.207	0.153	-0.118
-363.683	296.859	-0.064	-0.117
-362.669	-83.415	-0.286	-0.092
-361.654	791.148	0.086	0.236
-360.639	5.190	0.101	-0.074
-359.625	23.706	-0.214	-0.176
-358.610	800.000	-0.055	0.156
-357.596	-200.000	0.006	0.356
-356.581	59.376	-0.240	0.236
-355.566	699.160	-0.119	-0.314
-354.552	800.000	-0.038	-0.156
-353.537	613.775	-0.058	-0.146
-352.523	-117.816	-0.113	0.020
-351.508	327.712	-0.098	0.187
-350.493	-200.000	0.008	0.068
-349.479	-200.000	0.014	0.145
-348.464	800.000	0.103	0.348
-347.450	-110.661	-0.135	-0.028
-346.435	1.790	-0.337	-0.242
-345.420	234.454	0.033	0.055
-344.406	-109.828	0.169	0.035
-343.391	69.755	0.085	0.087
-342.377	-145.391	-0.039	-0.004
-341.362	-139.934	-0.207	0.022
-340.348	-97.813	0.370	0.095
-339.333	800.000	0.056	-0.156
-338.318	48.274	-0.184	0.172
-337.304	800.000	0.049	0.157
-336.289	430.565	0.226	0.489
-335.275	173.406	0.212	0.305
-334.260	-84.557	0.202	0.064
-333.245	602.982	0.088	-0.219
-332.231	-94.301	0.332	0.090
-331.216	255.405	-0.060	-0.102
-330.202	16.107	-0.122	-0.096
-329.187	-200.000	0.031	0.236
-328.172	50.294	0.073	-0.069
-327.158	-184.074	0.066	-0.001
-326.143	800.000	0.009	-0.029
-325.129	-200.000	0.001	0.105
-324.114	350.907	0.069	0.136
-323.099	-96.968	0.168	-0.044
-322.085	44.311	-0.121	0.111
-321.070	-200.000	0.010	-0.252
-320.056	-60.981	-0.160	-0.068
-319.041	-51.636	-0.098	0.045
-318.026	-52.880	-0.437	-0.201
-317.012	116.281	0.138	0.169
-315.997	227.304	-0.134	0.218
-314.983	-81.073	0.178	0.059
-313.968	-127.561	-0.311	-0.045
-312.953	800.000	0.058	0.172
-311.939	46.246	-0.354	0.327
-310.924	-200.000	0.092	0.419
-309.910	-200.000	0.003	0.199
-308.895	-62.228	-0.211	-0.088
-307.880	42.618	0.150	0.136
-306.866	180.433	0.129	-0.189
-305.851	-90.373	0.260	0.075
-304.837	43.932	0.190	-0.174
-303.822	-27.866	0.034	0.020
-302.807	-62.086	-0.132	0.055
-301.793	781.420	0.033	-0.089
-300.778	-200.000	-0.010	-0.142
-299.764	48.894	0.037	-0.035
-298.749	800.000	0.101	-0.354
-297.735	-19.633	-0.187	0.115
-296.720	800.000	-0.153	-0.442
-295.705	-65.513	-0.348	0.139
-294.691	-42.178	0.245	-0.125
-293.676	-200.000	0.042	-0.186
-292.662	-200.000	0.040	0.266
-291.647	-133.374	-0.120	0.015
-290.632	-152.020	0.285	-0.021
-289.618	427.449	-0.119	-0.256
-288.603	362.070	-0.147	0.293
-287.589	256.190	0.134	0.230
-286.574	-78.782	0.367	0.125
-285.559	800.000	-0.026	-0.105
-284.545	36.355	0.213	0.187
-283.530	-66.579	0.250	0.099
-282.516	284.599	0.092	-0.166
-281.501	800.000	-0.056	-0.166
-280.486	610.716	-0.074	0.184
-279.472	-9.803	-0.097	0.064
-278.457	-29.135	-0.192	-0.110
-277.443	-200.000	-0.021	-0.134
-276.428	-103.289	0.065	-0.015
-275.413	-59.060	0.211	0.091
-274.399	163.721	0.018	-0.025
-273.384	-75.536	-0.268	-0.095
-272.370	-50.762	0.356	0.167
-271.355	-134.962	-0.207	-0.025
-270.340	102.364	0.240	0.279
-269.326	16.523	0.238	-0.187
-268.311	-200.000	0.056	0.309
-267.297	115.237	-0.216	-0.263
-266.282	-39.957	-0.314	-0.163
-265.267	213.473	0.095	-0.150
-264.253	201.459	-0.194	-0.297
-263.238	-40.402	0.194	0.100
-262.224	-130.204	0.301	-0.041
-261.209	116.980	-0.181	-0.221
-260.195	-56.561	-0.358	-0.158
-259.180	111.667	-0.156	0.187
-258.165	180.785	-0.181	0.265
-257.151	56.712	0.026	0.025
-256.136	-200.000	0.009	-0.081
-255.122	800.000	0.043	-0.165
-254.107	-77.859	0.036	-0.012
-253.092	45.630	0.226	0.208
-252.078	-200.000	0.077	0.428
-251.063	800.000	-0.026	-0.111
-250.049	-170.058	-0.266	0.009
-249.034	-200.000	0.026	0.191
-248.019	170.214	0.277	-0.394
-247.005	-29.380	0.197	-0.112
-245.990	800.000	0.040	-0.163
-244.976	-162.652	0.196	-0.010
-243.961	-32.960	-0.239	0.132
-242.946	5.164	0.056	0.041
-241.932	259.977	-0.186	0.319
-240.917	-183.536	-0.037	0.001
-239.903	204.252	-0.140	0.216
-238.888	392.712	-0.107	0.222
-237.873	-200.000	0.029	-0.165
-236.859	-35.271	0.188	0.102
-235.844	135.212	-0.071	-0.091
-234.830	800.000	0.045	0.141
-233.815	664.163	-0.060	0.154
-232.800	-101.825	-0.138	-0.033
-231.786	-200.000	0.044	-0.209
-230.771	-200.000	0.010	0.263
-229.757	23.676	0.170	0.139
-228.742	18.997	0.193	0.154
-227.727	-164.669	-0.319	0.014
-226.713	-87.022	-0.183	0.055
-225.698	-94.938	0.149	-0.040
-224.684	-88.465	-0.306	-0.091
-223.669	57.807	0.071	0.069
-222.655	-200.000	0.005	-0.064
-221.640	-123.964	0.206	0.032
-220.625	-166.454	-0.241	-0.010
-219.611	143.472	0.081	0.107
-218.596	102.251	0.044	-0.051
-217.582	25.223	0.192	0.158
-216.567	800.000	0.011	0.036
-215.552	405.788	0.204	-0.428
-214.538	-200.000	-0.036	0.198
-213.523	-73.855	-0.128	-0.046
-212.509	-200.000	-0.002	0.440
-211.494	800.000	-0.046	0.151
-210.479	-142.698	0.010	-0.001
-209.465	300.641	0.048	-0.088
-208.450	3.171	0.201	-0.145
-207.436	-116.760	-0.105	0.019
-206.421	-200.000	-0.060	0.434
-205.406	-200.000	-0.019	0.165
-204.392	-4.435	-0.180	0.124
-203.377	515.460	0.168	0.389
-202.363	144.965	-0.135	-0.179
-201.348	-118.406	0.181	0.032
-200.333	800.000	0.046	-0.151
-199.319	785.267	-0.139	-0.379
-198.304	120.269	0.082	-0.101
-197.290	-89.139	0.143	0.042
-196.275	-53.130	-0.074	-0.034
-195.260	-85.109	-0.566	0.176
-194.246	-200.000	-0.060	-0.379
-193.231	722.500	0.054	-0.143
-192.217	-175.887	0.049	-0.001
-191.202	800.000	0.050	-0.185
-190.187	-135.465	0.076	0.009
-189.173	678.594	-0.017	0.044
-188.158	137.605	0.064	0.083
-187.144	-48.131	0.339	-0.162
-186.129	-9.942	-0.133	-0.088
-185.114	-1.645	-0.039	0.027
-184.100	-155.402	0.447	-0.029
-183.085	158.539	-0.091	-0.125
-182.071	-120.325	-0.269	-0.045
-181.056	800.000	-0.077	-0.214
-180.042	84.459	-0.199	0.216
-179.027	229.341	-0.152	-0.246
-178.012	-100.532	-0.152	-0.037
-176.998	-74.688	0.307	0.110
-175.983	-163.999	0.329	0.015
-174.969	800.000	0.098	-0.351
-173.954	-200.000	0.045	0.237
-172.939	161.126	-0.244	0.338
-171.925	-200.000	0.045	-0.477
-170.910	-64.108	-0.419	-0.169
-169.896	143.747	-0.200	-0.264
-168.881	245.270	-0.036	-0.061
-167.866	-200.000	-0.003	-0.110
-166.852	-128.950	-0.419	-0.058
-165.837	-29.377	0.230	-0.130
-164.823	-83.604	0.172	0.054
-163.808	333.619	-0.128	-0.246
-162.793	-157.028	0.197	-0.012
-161.779	6.664	-0.046	-0.034
-160.764	88.892	-0.031	0.034
-159.750	-200.000	0.000	-0.157
-158.735	-101.361	0.050	-0.012
-157.720	-41.674	0.295	0.150
-156.706	-52.553	-0.226	-0.103
-155.691	-200.000	0.015	-0.093
-154.677	-200.000	-0.035	0.300
-153.662	-31.246	0.479	0.267
-152.647	-200.000	-0.002	0.110
-151.633	121.934	0.135	-0.167
-150.618	-200.000	0.055	0.440
-149.604	114.558	0.278	0.336
-148.589	-200.000	-0.009	0.150
-147.574	-200.000	0.004	0.326
-146.560	-97.293	0.319	0.082
-145.545	755.818	-0.037	0.098
-144.531	-200.000	-0.041	0.245
-143.516	-152.080	-0.094	-0.007
-142.502	-126.625	-0.119	-0.017
-141.487	141.733	0.207	-0.272
-140.472	110.664	-0.257	-0.306
-139.458	132.239	-0.188	0.240
-138.443	-72.973	0.210	-0.076
-137.429	-122.017	0.150	0.024
-136.414	-102.144	-0.163	-0.039
-135.399	293.124	0.138	0.249
-134.385	7.266	0.294	-0.218
-133.370	273.598	-0.121	-0.212
-132.356	239.872	-0.098	-0.161
-131.341	-200.000	-0.016	0.120
-130.326	-200.000	-0.045	-0.315
-129.312	-200.000	0.016	-0.085
-128.297	-157.593	-0.082	0.005
-127.283	11.682	0.470	-0.357
-126.268	228.693	-0.089	0.143
-125.253	-200.000	0.025	0.134
-124.239	-200.000	-0.004	0.205
-123.224	800.000	0.117	0.357
-122.210	78.467	-0.164	0.174
