DTS Sentinel unit serial number:	SN413079Multiplexer serial number:	ORYXHardware model number:	OX4-SRSoftware version number:	ORYX F/W v4.00 Oryx Data Collector v3.7.2.0data status	okinstallation	princeton_trtdifferential loss correction	single-endedforward channel	channel 4reverse channel	N/Adate	2019/09/13time	13:45:35forward acquisition time	60.00reverse acquisition time	0.00gamma	496.2192k internal	0.2296k external	0.2296temperature offset calibration	1.0212default loss term (dB/km)	0.3790temperature slope calibration	1.0000multiplexer offset coefficient	1.0000multiplexer slope coefficient	1.0000fibre end	0.00T internal ref (°C)	35.12T ext. ref 1 (°C)	4.58T ext. ref 2 (°C)	31.00length (m)	temperature (°C)	Stokes	anti-Stokes-747.200	137.268	0.232	-0.310
-746.185	-200.000	-0.042	0.321
-745.171	-152.857	0.353	0.026
-744.156	-46.458	0.136	-0.068
-743.142	800.000	-0.071	-0.290
-742.127	-22.864	-0.449	0.277
-741.112	-98.038	-0.083	-0.022
-740.098	-145.233	0.152	0.014
-739.083	-200.000	0.008	-0.238
-738.069	47.974	-0.080	0.077
-737.054	110.383	0.067	-0.083
-736.039	-172.331	-0.558	-0.018
-735.025	-100.866	-0.260	-0.065
-734.010	-20.864	0.257	-0.161
-732.996	-200.000	0.016	-0.105
-731.981	-200.000	0.003	-0.388
-730.966	15.620	-0.169	0.136
-729.952	-18.177	-0.051	-0.033
-728.937	38.490	-0.255	-0.232
-727.923	-200.000	0.073	-0.000
-726.908	-200.000	-0.008	0.121
-725.894	-33.267	-0.215	0.122
-724.879	415.569	0.093	0.202
-723.864	136.233	0.066	0.088
-722.850	200.932	0.140	0.219
-721.835	800.000	-0.069	-0.285
-720.821	87.289	-0.200	-0.226
-719.806	-200.000	-0.003	-0.115
-718.791	-54.276	0.170	-0.079
-717.777	1.286	-0.170	-0.125
-716.762	800.000	0.067	0.187
-715.748	8.066	-0.328	-0.251
-714.733	-51.066	-0.250	0.120
-713.718	44.319	0.043	-0.041
-712.704	-79.212	-0.103	-0.036
-711.689	-200.000	-0.032	-0.286
-710.675	54.193	-0.103	0.101
-709.660	41.000	0.022	-0.020
-708.645	-200.000	0.016	-0.178
-707.631	-95.447	-0.297	-0.081
-706.616	-78.191	0.239	0.084
-705.602	-43.784	-0.161	-0.083
-704.587	-116.272	-0.323	-0.061
-703.572	-163.098	0.215	0.011
-702.558	-4.430	-0.213	0.150
-701.543	-6.960	0.046	-0.032
-700.529	-14.691	-0.060	0.039
-699.514	-31.578	-0.416	-0.239
-698.499	-200.000	0.010	0.072
-697.485	-200.000	-0.032	-0.356
-696.470	12.137	0.224	0.176
-695.456	800.000	-0.038	0.116
-694.441	-38.743	-0.132	-0.071
-693.426	-105.091	0.091	0.021
-692.412	-108.826	-0.485	-0.106
-691.397	-172.384	0.327	0.011
-690.383	-200.000	-0.037	-0.242
-689.368	-200.000	-0.004	-0.449
-688.354	475.240	0.041	0.095
-687.339	-43.030	0.091	-0.047
-686.324	800.000	-0.079	0.246
-685.310	-48.002	-0.267	-0.132
-684.295	-200.000	0.003	0.238
-683.281	30.897	0.106	-0.093
-682.266	-138.069	-0.212	-0.024
-681.251	-40.652	0.348	0.184
-680.237	-0.424	-0.210	-0.152
-679.222	505.415	-0.062	0.147
-678.208	-200.000	-0.279	0.001
-677.193	-120.622	0.305	-0.053
-676.178	-93.076	0.084	-0.024
-675.164	-34.876	-0.100	-0.056
-674.149	-200.000	0.022	-0.329
-673.135	-17.620	0.091	-0.059
-672.120	8.097	0.169	0.129
-671.105	68.977	-0.156	-0.164
-670.091	136.124	-0.213	-0.284
-669.076	736.369	-0.162	-0.444
-668.062	147.193	-0.061	-0.084
-667.047	800.000	-0.032	0.125
-666.032	-26.301	0.289	-0.173
-665.018	65.435	-0.170	0.175
-664.003	-144.704	0.388	-0.036
-662.989	-66.972	0.139	0.056
-661.974	45.627	-0.082	0.077
-660.959	280.808	-0.063	-0.115
-659.945	36.344	0.050	-0.045
-658.930	600.513	0.064	-0.162
-657.916	-200.000	-0.003	0.122
-656.901	-121.259	0.194	-0.033
-655.886	206.152	-0.156	-0.247
-654.872	800.000	0.071	-0.210
-653.857	338.125	-0.076	-0.150
-652.843	-96.460	0.120	0.032
-651.828	158.447	0.073	-0.103
-650.814	11.534	0.347	-0.271
-649.799	-200.000	0.012	0.121
-648.784	-200.000	0.001	-0.088
-647.770	800.000	-0.025	-0.095
-646.755	-81.034	-0.099	0.033
-645.741	-169.014	0.344	0.013
-644.726	-46.077	0.281	0.141
-643.711	-88.242	-0.400	-0.122
-642.697	571.634	-0.165	-0.409
-641.682	-89.493	-0.284	0.085
-640.668	-10.148	0.174	-0.117
-639.653	800.000	0.066	-0.185
-638.638	-20.784	-0.200	0.125
-637.624	333.992	-0.070	-0.138
-636.609	-56.810	0.031	0.014
-635.595	-200.000	0.020	-0.128
-634.580	475.932	0.088	-0.203
-633.565	800.000	-0.093	-0.328
-632.551	430.872	-0.056	0.123
-631.536	-145.762	-0.514	0.047
-630.522	-103.105	-0.223	-0.054
-629.507	104.269	-0.049	0.058
-628.492	664.659	-0.098	-0.258
-627.478	23.420	0.186	0.156
-626.463	-109.662	-0.418	-0.090
-625.449	-169.417	-0.083	-0.003
-624.434	365.577	-0.073	0.150
-623.419	-52.370	0.333	-0.157
-622.405	-117.241	-0.165	-0.030
-621.390	-200.000	0.033	0.291
-620.376	-52.220	-0.081	0.038
-619.361	-200.000	0.107	0.503
-618.346	-81.217	0.427	-0.143
-617.332	800.000	0.003	-0.012
-616.317	-19.607	-0.184	0.116
-615.303	-109.948	-0.300	0.064
-614.288	-200.000	-0.108	0.529
-613.273	443.719	-0.090	-0.201
-612.259	-3.298	0.262	0.185
-611.244	-117.136	-0.065	0.012
-610.230	800.000	-0.026	-0.108
-609.215	507.830	-0.094	0.223
-608.201	122.814	-0.131	-0.167
-607.186	-200.000	-0.011	0.103
-606.171	-37.043	-0.068	0.037
-605.157	-200.000	-0.043	0.277
-604.142	-7.051	0.156	-0.108
-603.128	-17.865	0.393	-0.250
-602.113	-200.000	0.007	0.241
-601.098	35.906	-0.073	0.066
-600.084	-200.000	0.006	0.133
-599.069	-70.976	0.407	0.156
-598.055	650.203	-0.054	-0.141
-597.040	-138.796	-0.189	-0.021
-596.025	726.720	0.087	-0.235
-595.011	59.169	-0.192	-0.192
-593.996	597.368	0.026	-0.065
-592.982	-89.968	0.333	-0.099
-591.967	-49.397	-0.202	0.098
-590.952	800.000	0.099	0.308
-589.938	22.824	-0.139	0.116
-588.923	-8.304	0.152	0.104
-587.909	-200.000	0.008	-0.173
-586.894	311.396	-0.028	0.053
-585.879	344.549	0.138	0.274
-584.865	-70.807	0.383	-0.147
-583.850	513.779	-0.055	-0.131
-582.836	-86.028	0.182	0.057
-581.821	371.346	-0.112	-0.231
-580.806	26.595	-0.187	-0.159
-579.792	-6.240	-0.062	0.043
-578.777	-200.000	0.117	0.000
-577.763	19.549	-0.365	-0.298
-576.748	-47.272	-0.095	-0.047
-575.733	30.522	-0.232	-0.202
-574.719	-134.095	-0.129	0.016
-573.704	-200.000	0.023	-0.349
-572.690	119.932	0.038	0.048
-571.675	-200.000	0.035	-0.301
-570.661	-24.278	0.311	-0.188
-569.646	-108.083	-0.067	0.015
-568.631	-4.205	0.208	0.146
-567.617	45.068	-0.276	0.258
-566.602	-16.831	-0.274	-0.176
-565.588	124.889	0.144	0.184
-564.573	-41.120	-0.310	-0.163
-563.558	-200.000	0.036	-0.218
-562.544	800.000	-0.070	-0.197
-561.529	204.531	0.009	-0.014
-560.515	-75.861	-0.305	-0.109
-559.500	29.665	0.269	-0.232
-558.485	-55.880	-0.046	-0.021
-557.471	-185.059	-0.248	-0.004
-556.456	-43.695	-0.170	-0.087
-555.442	-64.819	-0.122	-0.050
-554.427	58.087	-0.231	-0.230
-553.412	-29.329	0.097	-0.057
-552.398	315.207	0.117	-0.223
-551.383	-200.000	0.055	0.373
-550.369	398.819	0.035	0.075
-549.354	642.580	-0.116	-0.301
-548.339	241.646	-0.117	0.198
-547.325	800.000	-0.037	-0.159
-546.310	-200.000	-0.026	0.300
-545.296	166.496	-0.026	-0.037
-544.281	339.397	0.229	0.453
-543.266	91.070	0.246	0.280
-542.252	577.709	-0.133	0.330
-541.237	-200.000	0.059	0.268
-540.223	62.742	-0.027	0.028
-539.208	-65.377	0.182	0.074
-538.193	-88.707	0.449	-0.135
-537.179	46.819	0.198	0.187
-536.164	134.739	0.135	0.178
-535.150	-82.990	0.154	-0.050
-534.135	177.968	-0.121	-0.179
-533.121	20.046	-0.363	-0.297
-532.106	-60.856	-0.701	-0.301
-531.091	408.977	0.047	-0.102
-530.077	598.827	-0.095	-0.239
-529.062	-200.000	-0.056	-0.254
-528.048	-86.222	0.167	-0.052
-527.033	-200.000	-0.018	0.092
-526.018	-200.000	0.061	0.275
-525.004	267.690	-0.126	0.224
-523.989	-172.727	-0.216	0.007
-522.975	147.548	-0.213	0.291
-521.960	-200.000	0.013	0.060
-520.945	22.797	0.188	0.156
-519.931	-93.723	-0.073	-0.020
-518.916	719.443	0.047	-0.128
-517.902	800.000	-0.146	-0.538
-516.887	-94.388	-0.297	-0.082
-515.872	83.101	0.205	-0.226
-514.858	-200.000	-0.060	-0.347
-513.843	19.043	-0.133	-0.108
-512.829	79.034	-0.148	-0.161
-511.814	-156.492	0.103	-0.006
-510.799	6.994	0.040	-0.030
-509.785	-110.795	-0.450	0.094
-508.770	-75.283	0.321	-0.116
-507.756	163.945	-0.145	0.207
-506.741	-200.000	-0.029	-0.198
-505.726	189.257	-0.086	-0.131
-504.712	783.789	-0.137	0.380
-503.697	800.000	0.066	0.213
-502.683	-166.095	0.257	0.011
-501.668	-125.490	0.126	-0.019
-500.653	29.092	-0.152	0.131
-499.639	-21.377	-0.076	-0.047
-498.624	-8.988	0.113	0.077
-497.610	-158.825	-0.111	0.006
-496.595	-78.203	-0.312	-0.108
-495.581	-90.299	-0.083	0.024
-494.566	-160.233	0.318	0.017
-493.551	-200.000	-0.002	-0.135
-492.537	198.131	-0.064	0.100
-491.522	-200.000	0.002	0.075
-490.508	488.965	0.022	-0.050
-489.493	121.909	0.113	-0.143
-488.478	-200.000	-0.000	0.066
-487.464	425.384	0.053	-0.116
-486.449	35.721	0.144	0.128
-485.435	800.000	-0.056	0.244
-484.420	-120.364	-0.054	-0.009
-483.405	-40.735	0.262	0.137
-482.391	-73.774	0.357	-0.131
-481.376	-200.000	-0.033	-0.161
-480.362	-200.000	0.009	0.091
-479.347	-200.000	0.250	0.001
-478.332	84.265	0.162	-0.179
-477.318	19.146	0.162	0.132
-476.303	-60.455	0.022	0.010
-475.289	-68.105	0.251	-0.099
-474.274	-115.999	-0.093	-0.018
-473.259	328.652	0.097	0.188
-472.245	-200.000	-0.020	-0.165
-471.230	3.705	-0.246	-0.181
-470.216	800.000	0.064	0.206
-469.201	-75.697	-0.156	-0.056
-468.186	-142.303	-0.238	0.024
-467.172	40.331	0.372	0.338
-466.157	284.671	0.071	0.130
-465.143	511.954	-0.079	0.185
-464.128	-200.000	-0.006	0.272
-463.113	-200.000	0.328	-0.000
-462.099	115.967	-0.224	-0.277
-461.084	-95.131	0.210	-0.057
-460.070	79.394	-0.210	0.227
-459.055	-88.605	-0.032	-0.010
-458.040	-166.461	-0.279	0.012
-457.026	271.120	-0.023	-0.040
-456.011	-6.421	-0.150	-0.103
-454.997	-169.957	0.192	-0.007
-453.982	-200.000	0.032	0.390
-452.968	-121.250	0.172	0.029
-451.953	219.071	-0.141	-0.228
-450.938	-16.239	0.212	-0.136
-449.924	800.000	-0.065	-0.241
-448.909	-34.761	0.087	0.048
-447.895	800.000	0.040	0.150
-446.880	-200.000	0.000	0.043
-445.865	800.000	-0.059	-0.233
-444.851	-200.000	0.030	-0.224
-443.836	-7.146	0.231	0.158
-442.822	-78.507	-0.338	0.117
-441.807	-59.761	0.266	-0.115
-440.792	800.000	0.029	0.089
-439.778	49.515	0.230	0.219
-438.763	-123.771	-0.526	-0.084
-437.749	-9.157	0.157	-0.106
-436.734	-95.764	0.287	-0.077
-435.719	248.730	-0.126	0.215
-434.705	248.877	0.089	0.152
-433.690	224.762	0.146	0.239
-432.676	233.542	0.098	-0.162
-431.661	-127.586	0.204	0.030
-430.646	-173.857	-0.312	-0.009
-429.632	-90.510	0.161	-0.047
-428.617	-111.403	0.194	0.040
-427.603	-92.504	-0.306	-0.087
-426.588	121.272	-0.237	-0.298
-425.573	16.321	-0.342	-0.273
-424.559	800.000	-0.021	0.066
-423.544	-200.000	0.012	0.108
-422.530	-107.158	0.084	-0.019
-421.515	-200.000	0.016	0.155
-420.500	23.200	0.024	0.020
-419.486	-200.000	0.024	0.262
-418.471	-15.883	-0.075	-0.048
-417.457	-100.327	0.223	-0.056
-416.442	181.983	0.051	0.076
-415.428	-105.322	0.086	-0.020
-414.413	-136.253	0.272	-0.032
-413.398	-16.646	0.121	-0.077
-412.384	-88.606	-0.158	-0.047
-411.369	-106.591	-0.311	0.070
-410.355	-62.697	-0.075	0.031
-409.340	449.145	0.109	-0.242
-408.325	800.000	0.034	-0.138
-407.311	-32.687	0.383	-0.215
-406.296	446.799	0.067	-0.148
-405.282	-153.170	0.186	-0.013
-404.267	2.336	-0.183	0.133
-403.252	-90.510	0.130	0.038
-402.238	550.398	0.125	0.301
-401.223	183.071	0.093	-0.139
-400.209	136.077	-0.080	-0.105
-399.194	-40.152	0.033	-0.017
-398.179	-200.000	-0.002	-0.072
-397.165	77.594	0.199	0.214
-396.150	90.150	-0.070	0.078
-395.136	58.990	-0.166	-0.165
-394.121	-131.279	0.148	0.020
-393.106	800.000	0.040	-0.137
-392.092	-159.075	0.235	0.013
-391.077	-36.623	0.145	0.079
-390.063	800.000	-0.088	0.249
-389.048	188.229	0.105	-0.158
-388.033	-104.209	0.285	-0.067
-387.019	48.767	0.056	0.053
-386.004	19.003	-0.043	-0.035
-384.990	-198.716	0.040	-0.000
-383.975	-71.638	-0.286	0.107
-382.960	-113.147	0.362	0.072
-381.946	588.300	0.083	0.206
-380.931	-200.000	-0.033	-0.229
-379.917	-104.485	0.361	0.084
-378.902	-5.239	0.369	0.256
-377.888	-33.405	0.379	-0.211
-376.873	398.156	-0.126	0.266
-375.858	144.100	0.075	-0.101
-374.844	800.000	0.023	0.067
-373.829	101.527	0.178	0.209
-372.815	-199.714	-0.303	0.002
-371.800	267.180	-0.204	-0.359
-370.785	81.375	0.093	-0.101
-369.771	-200.000	-0.114	0.000
-368.756	-200.000	-0.037	0.216
-367.742	-200.000	0.087	0.430
-366.727	69.416	-0.234	0.242
-365.712	-71.600	-0.085	-0.032
-364.698	10.016	0.270	0.206
-363.683	-74.914	-0.093	0.034
-362.669	-200.000	0.052	-0.342
-361.654	-168.880	-0.180	-0.007
-360.639	-30.328	-0.383	0.219
-359.625	-145.221	-0.240	-0.022
-358.610	21.301	-0.211	-0.173
-357.596	-47.188	0.238	0.117
-356.581	-43.441	-0.305	-0.155
-355.566	-15.398	0.207	0.133
-354.552	800.000	0.062	-0.180
-353.537	-114.243	0.350	0.068
-352.523	145.047	-0.087	-0.117
-351.508	-200.000	-0.064	-0.354
-350.493	-142.517	0.125	0.012
-349.479	-47.360	0.286	-0.140
-348.464	-200.000	-0.024	0.528
-347.450	-200.000	0.028	-0.270
-346.435	220.932	0.067	-0.109
-345.420	40.828	0.156	0.142
-344.406	-178.684	0.261	-0.006
-343.391	-102.139	-0.276	-0.067
-342.377	102.359	-0.114	-0.133
-341.362	138.236	0.114	-0.150
-340.348	-118.434	-0.378	0.067
-339.333	3.295	-0.256	-0.187
-338.318	800.000	0.102	-0.404
-337.304	-165.133	0.465	-0.021
-336.289	-148.433	-0.122	-0.010
-335.275	183.560	0.206	-0.306
-334.260	21.320	-0.221	0.181
-333.245	-74.292	-0.237	0.086
-332.231	800.000	0.061	0.263
-331.216	202.770	0.072	-0.111
-330.202	-200.000	-0.015	0.161
-329.187	-87.589	0.100	0.030
-328.172	-29.858	0.184	0.105
-327.158	-170.108	-0.184	0.007
-326.143	505.901	0.095	0.222
-325.129	-200.000	0.004	0.207
-324.114	-102.677	0.166	-0.040
-323.099	164.895	0.301	0.427
-322.085	-200.000	-0.093	-0.000
-321.070	359.617	0.035	0.070
-320.056	-141.803	0.281	0.028
-319.041	-155.503	0.025	-0.002
-318.026	240.004	0.068	-0.113
-317.012	97.317	0.025	-0.028
-315.997	85.950	0.092	0.102
-314.983	800.000	-0.118	-0.392
-313.968	286.272	-0.104	-0.188
-312.953	-13.998	-0.194	0.126
-311.939	-68.458	-0.089	-0.035
-310.924	7.413	0.043	-0.032
-309.910	-200.000	-0.018	-0.165
-308.895	586.011	-0.035	0.086
-307.880	-146.568	-0.308	0.027
-306.866	296.284	0.116	-0.214
-305.851	-200.000	0.012	-0.179
-304.837	532.668	0.022	-0.052
-303.822	-102.099	-0.070	0.017
-302.807	127.983	0.191	-0.244
-301.793	-100.351	-0.174	0.043
-300.778	396.383	-0.185	-0.389
-299.764	-106.948	0.095	0.021
-298.749	-38.558	0.061	-0.032
-297.735	-147.260	-0.326	-0.028
-296.720	-74.572	-0.204	-0.074
-295.705	95.442	-0.077	-0.089
-294.691	-200.000	0.005	-0.044
-293.676	-125.764	0.206	-0.031
-292.662	38.513	0.219	-0.196
-291.647	-200.000	0.004	-0.158
-290.632	-37.310	-0.323	0.173
-289.618	-153.613	0.125	-0.009
-288.603	-88.752	0.054	-0.016
-287.589	-105.960	-0.113	-0.026
-286.574	153.228	0.037	-0.050
-285.559	63.398	0.229	0.230
-284.545	295.293	0.114	-0.209
-283.530	5.505	0.438	0.324
-282.516	-200.000	-0.065	0.304
-281.501	-200.000	-0.066	0.361
-280.486	-200.000	-0.029	0.264
-279.472	251.543	0.068	0.116
-278.457	220.343	0.288	0.463
-277.443	-99.689	-0.180	0.045
-276.428	-59.963	0.134	-0.058
-275.413	-24.125	0.114	-0.068
-274.399	-112.650	-0.365	-0.073
-273.384	-48.415	0.216	-0.105
-272.370	151.863	0.042	0.057
-271.355	-200.000	-0.035	-0.403
-270.340	-200.000	-0.022	0.118
-269.326	-143.157	0.125	0.012
-268.311	173.210	-0.151	0.218
-267.297	800.000	-0.069	0.285
-266.282	29.821	0.043	-0.037
-265.267	-68.788	-0.232	0.090
-264.253	88.882	-0.049	0.055
-263.238	84.088	0.223	0.244
-262.224	91.823	-0.162	-0.183
-261.209	36.150	0.264	-0.233
-260.195	12.989	-0.130	-0.101
-259.180	127.539	-0.088	0.112
-258.165	800.000	-0.101	0.309
-257.151	-52.204	0.244	0.113
-256.136	186.506	-0.274	-0.408
-255.122	800.000	-0.081	0.228
-254.107	-200.000	0.056	0.296
-253.092	-25.503	-0.264	0.156
-252.078	-20.735	-0.091	0.056
-251.063	800.000	0.042	0.145
-250.049	-150.249	-0.260	-0.020
-249.034	-33.095	0.310	-0.172
-248.019	-130.652	-0.135	-0.018
-247.005	800.000	-0.034	0.136
-245.990	-200.000	-0.018	-0.132
-244.976	227.681	0.111	-0.181
-243.961	612.869	-0.086	-0.216
-242.946	6.478	-0.202	-0.151
-241.932	170.273	0.157	-0.225
-240.917	56.718	-0.136	0.133
-239.903	-173.378	-0.277	-0.008
-238.888	81.141	-0.381	-0.412
-237.873	-200.000	0.012	0.089
-236.859	-107.980	-0.049	0.011
-235.844	-32.770	-0.310	0.173
-234.830	434.048	0.096	0.210
-233.815	-172.402	-0.113	0.004
-232.800	22.098	0.184	0.151
-231.786	-12.112	-0.268	0.176
-230.771	800.000	-0.057	-0.160
-229.757	-52.261	0.126	0.059
-228.742	800.000	0.059	-0.177
-227.727	-34.876	0.440	0.241
-226.713	800.000	-0.033	-0.098
-225.698	800.000	-0.086	-0.317
-224.684	-200.000	-0.047	0.325
-223.669	34.074	-0.045	-0.039
-222.655	-143.538	-0.276	-0.026
-221.640	-125.204	0.106	0.016
-220.625	57.598	-0.038	0.038
-219.611	7.441	-0.299	0.224
-218.596	80.552	-0.252	0.272
-217.582	-87.541	-0.587	-0.178
-216.567	-34.720	-0.241	-0.132
-215.552	-111.760	0.241	0.049
-214.538	-79.636	0.099	-0.033
-213.523	-134.168	-0.309	0.038
-212.509	-125.009	-0.269	-0.041
-211.494	-23.718	0.217	-0.130
-210.479	131.934	-0.076	0.098
-209.465	-23.882	-0.176	0.105
-208.450	93.463	-0.197	0.223
-207.436	-135.333	0.053	-0.006
-206.421	140.836	-0.138	-0.183
-205.406	140.322	-0.134	0.176
-204.392	-200.000	0.027	-0.156
-203.377	-24.762	0.262	0.156
-202.363	-73.090	0.466	0.171
-201.348	-2.862	0.107	0.075
-200.333	-200.000	-0.001	-0.099
-199.319	11.546	-0.180	0.138
-198.304	-30.522	0.322	-0.183
-197.290	767.033	0.116	0.316
-196.275	-17.276	0.143	0.090
-195.260	36.789	0.147	-0.130
-194.246	-33.959	0.085	-0.047
-193.231	-63.056	0.295	0.122
-192.217	-149.775	0.286	-0.022
-191.202	-15.585	0.312	-0.199
-190.187	-17.039	0.167	-0.105
-189.173	-117.030	0.257	-0.047
-188.158	71.245	0.158	-0.163
-187.144	800.000	-0.104	-0.325
-186.129	-200.000	0.003	-0.057
-185.114	-78.140	0.233	-0.080
-184.100	-200.000	-0.004	0.155
-183.085	-97.804	0.130	-0.034
-182.071	-200.000	-0.066	-0.000
-181.056	800.000	0.012	-0.038
-180.042	-134.225	-0.168	0.021
-179.027	-42.155	-0.240	-0.123
-178.012	800.000	0.037	-0.119
-176.998	11.083	-0.148	0.113
-175.983	10.870	-0.042	-0.032
-174.969	101.797	0.161	0.188
-173.954	-200.000	-0.009	-0.078
-172.939	257.680	0.094	0.162
-171.925	348.316	-0.053	0.105
-170.910	141.851	0.066	0.088
-169.896	-167.668	-0.260	0.010
-168.881	159.481	-0.092	0.128
-167.866	426.929	-0.015	-0.032
-166.852	800.000	-0.072	-0.244
-165.837	117.705	0.053	-0.066
-164.823	-45.544	0.181	-0.090
-163.808	-200.000	0.003	0.143
-162.793	284.627	-0.027	0.048
-161.779	47.892	-0.081	-0.075
-160.764	-59.811	-0.071	-0.030
-159.750	-59.385	0.147	-0.063
-158.735	98.763	-0.071	0.081
-157.720	-200.000	-0.043	0.240
-156.706	19.373	-0.106	0.085
-155.691	756.312	-0.070	-0.189
-154.677	-152.970	-0.127	0.009
-153.662	-85.477	0.211	-0.066
-152.647	0.531	-0.123	0.088
-151.633	-41.998	0.242	0.124
-150.618	-126.452	-0.426	0.063
-149.604	-72.759	-0.278	-0.102
-148.589	-54.040	0.042	0.019
-147.574	171.815	-0.064	0.092
-146.560	800.000	0.076	0.286
-145.545	800.000	-0.038	-0.149
-144.531	198.162	-0.104	-0.158
-143.516	-83.557	0.094	0.030
-142.502	153.356	0.151	0.207
-141.487	-200.000	0.046	0.207
-140.472	305.497	0.186	-0.346
-139.458	-182.404	0.374	-0.007
-138.443	-200.000	-0.010	0.100
-137.429	-200.000	-0.075	-0.384
-136.414	-200.000	0.013	0.180
-135.399	-145.710	0.137	0.012
-134.385	234.072	-0.310	0.509
-133.370	5.074	-0.306	-0.225
-132.356	-167.753	-0.308	-0.012
-131.341	-114.897	0.506	0.096
-130.326	-200.000	0.011	-0.195
-129.312	-109.734	-0.258	-0.054
-128.297	-47.978	-0.285	-0.138
-127.283	-159.028	0.201	-0.011
-126.268	-200.000	0.005	-0.256
-125.253	373.641	0.043	-0.088
-124.239	-7.554	-0.253	0.171
-123.224	504.813	-0.055	-0.127
-122.210	800.000	0.023	-0.092
