DTS Sentinel unit serial number:	SN413079Multiplexer serial number:	ORYXHardware model number:	OX4-SRSoftware version number:	ORYX F/W v4.00 Oryx Data Collector v3.7.2.0data status	okinstallation	princeton_trtdifferential loss correction	single-endedforward channel	channel 4reverse channel	N/Adate	2019/09/17time	20:45:35forward acquisition time	60.00reverse acquisition time	0.00gamma	496.2192k internal	0.2322k external	0.2322temperature offset calibration	0.9989default loss term (dB/km)	0.3790temperature slope calibration	1.0000multiplexer offset coefficient	1.0000multiplexer slope coefficient	1.0000fibre end	0.00T internal ref (°C)	29.55T ext. ref 1 (°C)	0.20T ext. ref 2 (°C)	20.80length (m)	temperature (°C)	Stokes	anti-Stokes-747.200	-98.960	0.200	0.051
-746.185	10.127	-0.467	0.359
-745.171	-131.456	0.323	0.043
-744.156	-65.286	-0.231	0.094
-743.142	-116.187	0.403	-0.076
-742.127	-200.000	0.018	-0.312
-741.112	25.700	0.276	0.232
-740.098	-200.000	0.124	0.619
-739.083	146.386	-0.101	0.136
-738.069	86.010	-0.309	0.343
-737.054	800.000	-0.057	0.172
-736.039	-94.946	0.155	-0.042
-735.025	-75.894	-0.324	-0.116
-734.010	-93.816	0.102	-0.028
-732.996	-200.000	0.003	0.209
-731.981	298.814	0.143	-0.266
-730.966	184.573	0.079	-0.118
-729.952	800.000	0.105	-0.455
-728.937	-200.000	0.000	-0.189
-727.923	1.108	0.070	0.051
-726.908	-5.992	-0.293	0.203
-725.894	59.538	-0.099	-0.099
-724.879	-200.000	0.004	-0.072
-723.864	-16.357	0.254	-0.163
-722.850	161.554	-0.139	-0.196
-721.835	70.224	0.058	0.061
-720.821	1.862	-0.139	0.101
-719.806	-115.342	-0.190	0.036
-718.791	24.681	-0.137	0.114
-717.777	-138.798	-0.533	0.059
-716.762	206.187	0.155	-0.244
-715.748	-38.669	-0.252	-0.134
-714.733	69.967	-0.244	-0.254
-713.718	-200.000	0.001	-0.230
-712.704	-200.000	0.004	-0.079
-711.689	-200.000	0.007	0.091
-710.675	-27.097	-0.080	-0.047
-709.660	40.548	-0.243	-0.221
-708.645	193.632	0.127	-0.193
-707.631	-90.939	0.208	0.060
-706.616	-200.000	0.007	-0.114
-705.602	-200.000	-0.008	-0.096
-704.587	255.275	-0.061	0.105
-703.572	-31.761	0.365	-0.207
-702.558	800.000	0.113	-0.325
-701.543	196.217	-0.041	-0.063
-700.529	-49.168	-0.111	-0.054
-699.514	-200.000	0.023	-0.201
-698.499	790.692	-0.059	0.165
-697.485	-80.888	-0.431	0.144
-696.470	-95.393	-0.268	0.073
-695.456	136.551	0.077	-0.102
-694.441	-200.000	-0.024	-0.357
-693.426	-84.136	-0.036	-0.012
-692.412	800.000	-0.063	0.181
-691.397	-110.209	-0.091	-0.019
-690.383	349.119	0.136	-0.271
-689.368	170.230	-0.048	-0.070
-688.354	12.926	-0.213	-0.166
-687.339	-94.455	-0.157	0.043
-686.324	-200.000	0.040	-0.245
-685.310	-200.000	0.074	0.000
-684.295	-61.468	0.152	0.064
-683.281	-138.168	-0.307	0.034
-682.266	-49.010	-0.152	0.073
-681.251	-200.000	-0.008	0.278
-680.237	44.398	-0.087	-0.081
-679.222	312.880	-0.137	0.260
-678.208	-120.186	-0.104	0.018
-677.193	140.520	-0.155	-0.206
-676.178	12.492	-0.243	0.189
-675.164	39.364	0.170	0.154
-674.149	-19.626	0.067	0.042
-673.135	-81.776	0.149	0.049
-672.120	226.714	0.099	-0.162
-671.105	-133.735	0.136	-0.017
-670.091	762.748	-0.111	0.304
-669.076	-67.869	0.130	0.051
-668.062	-200.000	0.020	-0.238
-667.047	269.456	-0.129	0.227
-666.032	-115.552	0.067	-0.013
-665.018	800.000	0.026	0.081
-664.003	-119.578	-0.350	0.061
-662.989	-99.547	-0.102	-0.026
-661.974	564.203	0.076	-0.186
-660.959	-200.000	0.024	0.181
-659.945	-89.666	-0.178	-0.053
-658.930	371.326	-0.108	0.220
-657.916	-7.048	-0.214	-0.146
-656.901	694.373	0.022	-0.058
-655.886	-200.000	-0.057	-0.272
-654.872	-62.224	-0.119	-0.050
-653.857	-100.049	-0.111	0.028
-652.843	-58.761	-0.211	-0.092
-651.828	-200.000	0.020	0.195
-650.814	19.534	0.097	-0.078
-649.799	216.373	-0.239	-0.383
-648.784	113.941	0.092	0.112
-647.770	-144.918	0.413	-0.038
-646.755	-54.615	-0.169	0.077
-645.741	-79.266	-0.362	-0.124
-644.726	800.000	-0.125	-0.381
-643.711	303.310	-0.306	-0.570
-642.697	-125.837	0.258	-0.039
-641.682	-200.000	-0.008	-0.138
-640.668	150.235	-0.044	-0.060
-639.653	-200.000	-0.022	-0.172
-638.638	800.000	0.092	0.358
-637.624	421.011	0.088	0.191
-636.609	-200.000	-0.027	0.226
-635.595	199.914	-0.099	-0.153
-634.580	-115.349	0.145	0.028
-633.565	-141.984	-0.163	-0.016
-632.551	-87.581	-0.270	0.082
-631.536	-63.769	0.318	-0.131
-630.522	-51.286	-0.250	-0.118
-629.507	88.696	-0.070	0.078
-628.492	800.000	0.021	0.065
-627.478	-89.654	-0.267	-0.079
-626.463	153.117	-0.033	0.046
-625.449	99.431	0.228	0.266
-624.434	-110.317	0.289	-0.060
-623.419	675.512	-0.039	-0.103
-622.405	643.683	0.101	0.258
-621.390	-143.627	-0.242	0.023
-620.376	-200.000	0.036	0.162
-619.361	558.083	-0.049	0.120
-618.346	153.481	-0.156	-0.215
-617.332	193.910	-0.132	0.201
-616.317	30.524	-0.152	0.131
-615.303	114.915	0.139	0.170
-614.288	-200.000	0.002	-0.028
-613.273	-112.789	-0.357	0.071
-612.259	22.193	0.140	-0.115
-611.244	193.603	-0.082	0.124
-610.230	-200.000	-0.093	-0.477
-609.215	-177.573	0.159	-0.004
-608.201	-200.000	-0.014	0.112
-607.186	800.000	0.002	-0.005
-606.171	-115.975	-0.397	0.074
-605.157	-121.217	0.029	0.005
-604.142	157.832	-0.115	-0.160
-603.128	-69.038	0.165	0.064
-602.113	393.265	0.171	-0.358
-601.098	-0.865	0.176	0.125
-600.084	-89.159	-0.361	-0.107
-599.069	-99.372	-0.202	-0.051
-598.055	290.318	-0.162	0.296
-597.040	-6.698	-0.218	0.149
-596.025	149.988	-0.034	-0.046
-595.011	189.191	0.170	-0.256
-593.996	-146.039	-0.059	0.005
-592.982	-49.090	0.354	-0.170
-591.967	800.000	-0.126	0.460
-590.952	-176.566	-0.090	0.002
-589.938	165.961	0.205	-0.291
-588.923	-119.662	-0.088	0.015
-587.909	148.892	0.160	0.218
-586.894	-200.000	-0.001	0.004
-585.879	139.503	-0.273	-0.361
-584.865	621.212	0.049	-0.124
-583.850	-102.341	-0.019	0.005
-582.836	-27.813	0.166	0.097
-581.821	307.195	-0.100	-0.188
-580.806	-200.000	0.052	0.576
-579.792	-200.000	-0.045	-0.305
-578.777	-71.752	-0.276	0.103
-577.763	800.000	-0.081	0.227
-576.748	-48.137	-0.178	0.087
-575.733	800.000	-0.116	0.338
-574.719	-200.000	-0.080	0.427
-573.704	136.443	0.172	-0.226
-572.690	-200.000	-0.012	-0.143
-571.675	-113.487	0.120	-0.024
-570.661	95.176	0.292	-0.334
-569.646	345.731	-0.045	-0.088
-568.631	-200.000	-0.048	0.250
-567.617	-57.989	0.230	0.101
-566.602	-118.926	-0.103	0.018
-565.588	303.807	-0.128	0.238
-564.573	229.076	-0.023	0.038
-563.558	113.688	-0.177	-0.216
-562.544	143.974	-0.129	0.172
-561.529	707.047	0.088	-0.234
-560.515	-45.011	0.560	-0.280
-559.500	707.334	-0.084	0.222
-558.485	-101.953	0.138	-0.034
-557.471	336.100	-0.157	0.305
-556.456	-33.804	0.200	-0.110
-555.442	8.828	0.158	0.120
-554.427	131.555	0.091	-0.117
-553.412	-21.868	0.048	-0.029
-552.398	33.632	-0.078	0.068
-551.383	178.987	0.130	-0.190
-550.369	31.742	0.037	0.032
-549.354	106.366	0.154	0.183
-548.339	-179.756	0.238	0.005
-547.325	-200.000	0.003	0.209
-546.310	-200.000	-0.016	0.159
-545.296	800.000	0.150	0.460
-544.281	27.933	0.094	-0.079
-543.266	-29.273	0.250	-0.144
-542.252	110.995	-0.169	0.204
-541.237	-20.277	-0.190	0.117
-540.223	-85.540	-0.197	-0.061
-539.208	-91.144	-0.247	-0.071
-538.193	-32.272	-0.097	-0.054
-537.179	800.000	0.030	-0.116
-536.164	-200.000	-0.095	-0.515
-535.150	117.504	-0.129	-0.159
-534.135	-150.311	-0.382	-0.030
-533.121	-200.000	-0.000	-0.094
-532.106	-200.000	0.019	-0.263
-531.091	197.077	-0.163	0.249
-530.077	-114.642	0.139	0.027
-529.062	102.628	-0.208	0.244
-528.048	-33.856	-0.436	0.240
-527.033	-2.543	0.318	0.223
-526.018	-200.000	0.023	0.353
-525.004	800.000	-0.053	0.165
-523.989	800.000	0.045	0.139
-522.975	-161.653	0.080	-0.004
-521.960	-30.575	0.330	-0.187
-520.945	86.578	-0.117	0.130
-519.931	11.951	0.196	-0.151
-518.916	-44.483	-0.179	-0.090
-517.902	607.063	0.074	-0.184
-516.887	-57.158	-0.154	-0.068
-515.872	-197.832	-0.227	-0.001
-514.858	800.000	0.038	-0.162
-513.843	-200.000	0.154	-0.000
-512.829	575.478	0.096	-0.234
-511.814	2.091	0.201	-0.145
-510.799	1.559	-0.261	-0.188
-509.785	-200.000	0.019	-0.388
-508.770	-66.207	-0.275	0.110
-507.756	-61.937	0.157	0.066
-506.741	-200.000	0.040	-0.377
-505.726	-168.599	0.283	0.011
-504.712	-50.130	-0.190	0.090
-503.697	116.821	-0.160	-0.196
-502.683	-140.659	0.191	-0.020
-501.668	619.538	0.036	-0.090
-500.653	-200.000	0.025	-0.141
-499.639	800.000	0.073	-0.281
-498.624	800.000	0.056	-0.163
-497.610	411.988	0.009	-0.018
-496.595	258.246	0.191	-0.329
-495.581	-96.560	-0.106	0.028
-494.566	387.040	-0.135	0.278
-493.551	360.478	-0.192	0.385
-492.537	-7.159	-0.067	0.046
-491.522	149.235	-0.113	-0.153
-490.508	-123.883	0.092	0.014
-489.493	16.803	-0.177	-0.140
-488.478	-100.022	-0.270	0.067
-487.464	474.136	-0.050	0.113
-486.449	54.146	-0.173	-0.167
-485.435	288.284	-0.050	0.090
-484.420	486.089	0.207	0.472
-483.405	-200.000	-0.266	0.000
-482.391	-149.947	0.200	0.016
-481.376	-12.872	-0.214	0.139
-480.362	-111.755	-0.157	-0.032
-479.347	327.351	0.147	-0.283
-478.332	-1.925	0.184	-0.130
-477.318	-200.000	0.000	-0.002
-476.303	-121.627	0.388	0.064
-475.289	-126.646	-0.199	-0.030
-474.274	-122.729	-0.183	-0.030
-473.259	-18.562	0.149	-0.093
-472.245	-200.000	-0.014	-0.219
-471.230	-13.604	0.064	0.041
-470.216	-12.197	0.196	-0.128
-469.201	800.000	0.058	-0.169
-468.186	213.037	-0.043	0.068
-467.172	-200.000	0.006	0.197
-466.157	189.424	0.076	0.114
-465.143	31.827	-0.195	0.168
-464.128	-100.662	-0.277	-0.068
-463.113	221.254	0.048	-0.076
-462.099	-146.736	0.044	-0.004
-461.084	-87.964	-0.182	0.055
-460.070	800.000	0.060	-0.174
-459.055	-92.221	-0.169	0.048
-458.040	-64.887	-0.056	-0.023
-457.026	-35.818	0.324	0.175
-456.011	660.416	0.084	-0.217
-454.997	-65.311	0.127	-0.051
-453.982	-115.724	-0.148	-0.028
-452.968	-58.386	-0.116	0.050
-451.953	41.737	0.097	-0.088
-450.938	-12.305	-0.131	0.085
-449.924	96.839	0.138	0.158
-448.909	800.000	-0.015	-0.052
-447.895	161.433	0.104	0.145
-446.880	-24.783	-0.134	0.080
-445.865	-55.363	-0.141	0.063
-444.851	-84.776	-0.425	-0.133
-443.836	800.000	0.039	0.127
-442.822	800.000	0.090	-0.326
-441.807	-102.103	0.323	0.078
-440.792	168.192	-0.089	0.127
-439.778	69.598	0.103	-0.106
-438.763	-200.000	-0.003	0.198
-437.749	-200.000	-0.018	0.140
-436.734	23.913	-0.121	0.100
-435.719	-77.895	-0.163	0.056
-434.705	293.531	0.026	-0.047
-433.690	102.405	0.220	-0.257
-432.676	604.501	0.067	-0.166
-431.661	177.934	0.198	0.288
-430.646	204.481	-0.142	0.220
-429.632	45.410	0.126	0.116
-428.617	800.000	-0.034	-0.131
-427.603	184.105	-0.074	0.109
-426.588	9.902	-0.210	0.159
-425.573	29.409	0.310	-0.263
-424.559	-161.440	-0.152	0.008
-423.544	-169.447	-0.229	0.008
-422.530	144.022	0.126	-0.167
-421.515	28.805	0.151	0.127
-420.500	209.125	-0.086	0.134
-419.486	-166.901	0.451	-0.018
-418.471	800.000	-0.064	0.261
-417.457	-200.000	-0.006	-0.044
-416.442	-107.208	0.159	-0.035
-415.428	-200.000	-0.003	0.210
-414.413	-160.941	0.238	-0.012
-413.398	-200.000	-0.050	-0.481
-412.384	-15.648	0.073	0.046
-411.369	-200.000	-0.006	0.299
-410.355	-114.956	0.360	0.068
-409.340	-53.220	0.085	-0.039
-408.325	-25.967	-0.115	0.067
-407.311	32.288	0.316	0.272
-406.296	97.256	-0.154	-0.176
-405.282	-41.954	0.202	-0.103
-404.267	643.321	0.069	-0.175
-403.252	277.767	0.093	-0.166
-402.238	-14.611	-0.282	0.181
-401.223	-42.285	0.228	0.116
-400.209	148.637	-0.133	0.179
-399.194	74.672	-0.140	-0.147
-398.179	318.745	0.063	0.119
-397.165	-200.000	0.055	0.406
-396.150	578.395	0.032	0.078
-395.136	42.833	-0.275	-0.250
-394.121	-200.000	0.006	0.213
-393.106	14.358	-0.102	-0.080
-392.092	37.978	0.043	0.038
-391.077	800.000	0.019	0.078
-390.063	-42.731	-0.123	-0.063
-389.048	-107.299	0.119	0.026
-388.033	-156.742	-0.183	0.011
-387.019	542.612	-0.097	-0.230
-386.004	-200.000	-0.035	-0.291
-384.990	639.912	-0.067	-0.169
-383.975	800.000	0.075	-0.218
-382.960	-70.842	-0.137	-0.051
-381.946	373.646	-0.062	-0.125
-380.931	800.000	0.040	0.123
-379.917	320.799	-0.133	-0.251
-378.902	315.197	0.149	0.280
-377.888	-93.989	-0.284	0.078
-376.873	-114.022	0.195	-0.038
-375.858	-169.617	0.202	-0.007
-374.844	-83.901	-0.161	-0.051
-373.829	261.602	-0.044	0.076
-372.815	-11.316	-0.120	-0.079
-371.800	0.363	-0.146	0.104
-370.785	-200.000	-0.019	-0.241
-369.771	366.530	-0.164	0.329
-368.756	-146.280	0.262	0.023
-367.742	-179.636	0.330	-0.007
-366.727	-200.000	0.030	-0.156
-365.712	-162.748	-0.089	-0.004
-364.698	-60.069	-0.207	0.088
-363.683	-200.000	0.050	0.335
-362.669	56.251	-0.189	0.183
-361.654	-63.647	0.276	0.113
-360.639	-149.536	-0.084	0.007
-359.625	-120.603	0.096	0.016
-358.610	800.000	-0.056	-0.157
-357.596	-15.623	0.257	-0.163
-356.581	-145.583	-0.214	-0.019
-355.566	91.865	0.024	0.027
-354.552	484.066	0.059	-0.134
-353.537	-142.873	-0.230	0.022
-352.523	-200.000	0.049	-0.488
-351.508	-200.000	-0.007	-0.218
-350.493	51.643	0.066	-0.063
-349.479	266.415	-0.200	-0.348
-348.464	-112.637	0.324	-0.064
-347.450	-97.070	0.237	0.062
-346.435	44.545	0.481	-0.440
-345.420	-164.947	-0.191	-0.008
-344.406	2.075	0.066	-0.048
-343.391	327.119	-0.007	0.013
-342.377	120.721	-0.364	-0.450
-341.362	-200.000	-0.025	-0.191
-340.348	-90.166	0.359	-0.104
-339.333	-183.346	0.164	-0.003
-338.318	108.109	0.078	0.093
-337.304	78.666	0.072	0.076
-336.289	800.000	0.004	0.014
-335.275	-0.009	0.363	0.257
-334.260	-138.993	0.266	0.029
-333.245	-162.668	0.382	0.019
-332.231	60.786	-0.179	0.176
-331.216	-47.443	-0.056	0.027
-330.202	-126.640	-0.488	0.072
-329.187	-200.000	-0.001	0.222
-328.172	-175.615	0.168	0.005
-327.158	-200.000	0.059	0.413
-326.143	-80.814	0.277	0.091
-325.129	-57.404	-0.256	0.112
-324.114	142.664	0.037	-0.049
-323.099	264.883	-0.102	-0.177
-322.085	-200.000	-0.030	0.239
-321.070	-200.000	0.096	0.551
-320.056	64.668	-0.307	0.308
-319.041	204.534	-0.221	0.341
-318.026	800.000	-0.067	0.214
-317.012	758.335	-0.105	0.284
-315.997	800.000	0.110	0.326
-314.983	80.538	0.280	-0.300
-313.968	800.000	-0.029	0.110
-312.953	800.000	-0.031	0.108
-311.939	-13.495	0.376	0.242
-310.924	8.708	-0.265	-0.199
-309.910	663.618	-0.030	-0.078
-308.895	-153.228	0.249	0.017
-307.880	-75.762	0.223	0.078
-306.866	282.605	0.062	0.111
-305.851	144.055	-0.089	-0.118
-304.837	-41.043	-0.076	-0.039
-303.822	-96.534	-0.178	0.047
-302.807	-182.820	-0.068	-0.001
-301.793	-94.698	0.219	0.059
-300.778	800.000	0.058	0.188
-299.764	575.555	-0.109	0.264
-298.749	77.737	0.264	-0.280
-297.735	389.522	-0.025	-0.051
-296.720	695.501	-0.033	0.086
-295.705	-67.757	-0.281	0.109
-294.691	45.836	0.144	0.132
-293.676	-183.784	-0.655	-0.011
-292.662	-84.410	0.134	0.042
-291.647	-79.703	0.204	-0.068
-290.632	-79.681	-0.440	-0.147
-289.618	90.173	0.026	-0.028
-288.603	-74.072	0.309	-0.111
-287.589	693.355	0.081	0.210
-286.574	239.614	0.112	-0.185
-285.559	-12.047	-0.336	-0.219
-284.545	800.000	0.107	0.403
-283.530	539.455	-0.061	-0.144
-282.516	453.828	-0.061	0.135
-281.501	-108.125	-0.228	-0.049
-280.486	-200.000	-0.194	0.001
-279.472	228.650	0.034	-0.056
-278.457	479.664	-0.089	0.200
-277.443	800.000	-0.171	-0.539
-276.428	-200.000	-0.011	0.148
-275.413	-200.000	0.062	0.465
-274.399	7.263	-0.249	0.184
-273.384	-145.351	0.325	-0.029
-272.370	-102.476	-0.053	-0.013
-271.355	-8.546	0.126	0.084
-270.340	141.745	-0.110	-0.145
-269.326	-200.000	0.011	0.168
-268.311	-78.351	0.369	-0.126
-267.297	-200.000	0.001	0.201
-266.282	800.000	-0.021	0.066
-265.267	-89.078	-0.099	0.029
-264.253	-200.000	-0.021	-0.145
-263.238	-200.000	0.021	0.132
-262.224	25.383	0.180	0.148
-261.209	-45.141	-0.341	-0.168
-260.195	88.999	0.205	-0.226
-259.180	800.000	-0.091	0.338
-258.165	-200.000	0.007	-0.190
-257.151	225.947	0.067	0.108
-256.136	-200.000	0.031	-0.282
-255.122	-101.886	0.062	-0.015
-254.107	-200.000	0.026	-0.144
-253.092	-99.311	-0.112	0.028
-252.078	800.000	-0.025	-0.080
-251.063	-108.139	-0.192	-0.041
-250.049	-17.398	-0.111	-0.070
-249.034	555.669	-0.076	-0.181
-248.019	-65.768	-0.123	0.049
-247.005	-154.615	0.133	0.009
-245.990	543.761	0.087	0.205
-244.976	-200.000	-0.001	0.265
-243.961	-81.394	0.153	-0.050
-242.946	125.805	-0.058	0.072
-241.932	800.000	0.094	-0.272
-240.917	245.310	-0.046	-0.077
-239.903	1.809	0.158	-0.113
-238.888	-117.316	-0.326	-0.059
-237.873	-200.000	-0.014	0.127
-236.859	-99.516	0.357	-0.089
-235.844	-147.600	-0.040	0.003
-234.830	-59.628	0.268	-0.114
-233.815	80.061	-0.212	-0.226
-232.800	-107.381	-0.415	0.090
-231.786	-200.000	0.011	-0.219
-230.771	-200.000	-0.007	-0.356
-229.757	71.133	-0.109	0.112
-228.742	-200.000	-0.035	0.279
-227.727	23.001	0.026	0.021
-226.713	-200.000	0.003	-0.183
-225.698	698.107	-0.122	-0.317
-224.684	-150.772	-0.056	-0.004
-223.669	38.980	0.099	-0.087
-222.655	-133.392	0.132	-0.016
-221.640	-200.000	-0.005	-0.256
-220.625	-200.000	0.059	0.384
-219.611	-200.000	0.029	0.226
-218.596	800.000	-0.067	0.273
-217.582	-63.365	0.124	0.051
-216.567	5.630	0.191	-0.140
-215.552	-10.523	0.247	-0.162
-214.538	283.926	-0.086	-0.154
-213.523	-47.391	-0.130	0.063
-212.509	800.000	0.061	0.229
-211.494	-136.920	0.181	0.021
-210.479	30.216	0.159	-0.134
-209.465	541.443	-0.067	-0.158
-208.450	-42.107	-0.125	0.063
-207.436	-121.581	0.221	-0.036
-206.421	-200.000	-0.020	0.110
-205.406	-74.045	-0.163	-0.059
-204.392	244.745	0.071	-0.117
-203.377	-65.770	0.273	-0.108
-202.363	39.766	-0.334	0.297
-201.348	-81.111	0.174	0.057
-200.333	800.000	-0.059	-0.172
-199.319	15.122	0.160	0.124
-198.304	81.259	-0.207	-0.222
-197.290	-200.000	-0.000	-0.041
-196.275	-200.000	0.002	0.211
-195.260	-67.717	-0.145	0.056
-194.246	-200.000	0.091	-0.415
-193.231	147.674	-0.060	0.079
-192.217	6.354	0.189	0.139
-191.202	-3.078	0.117	0.081
-190.187	304.986	0.117	0.214
-189.173	-177.546	-0.164	0.004
-188.158	34.197	-0.107	-0.093
-187.144	-111.686	0.271	-0.054
-186.129	117.334	0.159	0.193
-185.114	-200.000	-0.008	-0.319
-184.100	456.455	0.107	-0.235
-183.085	55.037	0.039	-0.037
-182.071	-85.459	0.080	0.025
-181.056	-200.000	-0.086	0.372
-180.042	198.929	-0.254	-0.385
-179.027	-115.106	-0.352	0.066
-178.012	-153.662	0.149	0.010
-176.998	-74.657	0.273	0.097
-175.983	150.279	0.057	-0.076
-174.969	-24.998	-0.067	-0.039
-173.954	-200.000	-0.018	0.320
-172.939	-8.117	0.132	-0.088
-171.925	-77.028	-0.095	-0.033
-170.910	115.772	-0.203	-0.246
-169.896	100.157	-0.107	-0.122
-168.881	-29.079	-0.169	0.096
-167.866	418.598	0.100	0.212
-166.852	246.422	0.138	0.231
-165.837	-83.436	0.245	0.077
-164.823	34.076	-0.114	-0.098
-163.808	800.000	0.060	0.175
-162.793	-30.531	0.250	0.140
-161.779	97.017	-0.355	-0.403
-160.764	-25.877	-0.300	0.174
-159.750	800.000	-0.085	-0.283
-158.735	800.000	0.084	-0.234
-157.720	-200.000	-0.050	-0.358
-156.706	-200.000	0.030	-0.156
-155.691	92.945	0.160	-0.179
-154.677	-17.684	0.251	0.156
-153.662	-157.933	0.217	0.013
-152.647	-12.964	0.206	0.132
-151.633	-28.070	0.299	0.171
-150.618	-108.642	-0.065	-0.014
-149.604	456.102	-0.102	-0.223
-148.589	212.666	-0.129	0.201
-147.574	71.244	0.271	0.278
-146.560	-126.604	0.345	0.051
-145.545	-48.138	0.263	0.125
-144.531	-93.149	-0.519	-0.142
-143.516	72.784	0.175	0.180
-142.502	800.000	0.113	0.347
-141.487	800.000	0.030	0.125
-140.472	-96.100	0.378	-0.099
-139.458	-139.505	0.072	0.008
-138.443	800.000	0.062	0.203
-137.429	31.480	-0.235	0.199
-136.414	10.625	0.297	0.223
-135.399	-200.000	-0.041	0.221
-134.385	-123.468	-0.333	-0.052
-133.370	111.277	-0.339	0.403
-132.356	-200.000	-0.015	-0.121
-131.341	-9.289	0.322	-0.212
-130.326	-110.795	0.201	-0.041
-129.312	254.148	0.091	-0.153
-128.297	-24.182	0.191	-0.113
-127.283	800.000	0.047	0.193
-126.268	800.000	-0.074	0.247
-125.253	13.293	-0.185	-0.141
-124.239	-200.000	0.033	0.145
-123.224	716.997	-0.072	-0.189
-122.210	76.640	0.170	0.178
