DTS Sentinel unit serial number:	SN413079Multiplexer serial number:	ORYXHardware model number:	OX4-SRSoftware version number:	ORYX F/W v4.00 Oryx Data Collector v3.7.2.0data status	okinstallation	princeton_trtdifferential loss correction	single-endedforward channel	channel 4reverse channel	N/Adate	2019/09/15time	04:09:35forward acquisition time	60.00reverse acquisition time	0.00gamma	496.2192k internal	0.2310k external	0.2310temperature offset calibration	1.0033default loss term (dB/km)	0.3790temperature slope calibration	1.0000multiplexer offset coefficient	1.0000multiplexer slope coefficient	1.0000fibre end	0.00T internal ref (°C)	30.94T ext. ref 1 (°C)	4.63T ext. ref 2 (°C)	25.78length (m)	temperature (°C)	Stokes	anti-Stokes-747.200	40.967	0.293	-0.269
-746.185	800.000	-0.035	-0.123
-745.171	18.769	0.102	-0.083
-744.156	-200.000	0.055	0.302
-743.142	-18.483	0.176	0.111
-742.127	-143.283	0.087	0.009
-741.112	377.044	-0.142	0.295
-740.098	-16.160	-0.319	0.206
-739.083	481.174	0.090	0.206
-738.069	218.208	-0.132	0.214
-737.054	-174.333	-0.179	-0.005
-736.039	-29.289	-0.268	0.156
-735.025	-84.513	0.175	-0.056
-734.010	5.128	-0.270	0.202
-732.996	800.000	-0.027	0.100
-731.981	-66.078	-0.164	-0.066
-730.966	145.888	-0.095	0.130
-729.952	42.420	-0.057	-0.053
-728.937	147.640	-0.116	0.158
-727.923	255.745	-0.137	0.239
-726.908	355.808	0.170	-0.344
-725.894	-200.000	0.033	0.257
-724.879	67.194	-0.166	0.172
-723.864	618.804	-0.172	-0.438
-722.850	800.000	0.082	-0.274
-721.835	-200.000	0.041	-0.234
-720.821	729.200	0.041	0.110
-719.806	-97.444	-0.420	0.111
-718.791	89.341	-0.081	-0.092
-717.777	-138.549	0.387	0.043
-716.762	-106.073	-0.306	0.070
-715.748	-200.000	0.044	0.360
-714.733	-13.873	0.234	-0.153
-713.718	-200.000	0.019	-0.204
-712.704	-77.097	-0.188	0.066
-711.689	4.375	0.081	0.060
-710.675	-200.000	0.041	0.189
-709.660	-72.933	0.108	-0.040
-708.645	-78.830	0.122	0.042
-707.631	-92.806	0.328	-0.093
-706.616	250.381	0.117	-0.202
-705.602	68.676	-0.119	-0.123
-704.587	-106.620	0.122	0.028
-703.572	-200.000	-0.012	-0.108
-702.558	121.065	0.018	0.022
-701.543	800.000	0.009	0.033
-700.529	-81.648	0.277	0.092
-699.514	-63.563	0.308	-0.128
-698.499	538.252	0.088	-0.213
-697.485	34.629	0.317	0.281
-696.470	65.153	-0.179	-0.183
-695.456	-200.000	0.002	-0.048
-694.441	-57.385	-0.232	-0.103
-693.426	-63.039	0.414	-0.173
-692.412	-200.000	0.021	-0.201
-691.397	-200.000	0.023	-0.223
-690.383	500.761	-0.059	0.138
-689.368	70.809	-0.104	-0.109
-688.354	33.551	0.268	0.236
-687.339	-113.024	-0.105	0.021
-686.324	-200.000	0.005	0.165
-685.310	310.256	-0.080	-0.152
-684.295	-78.220	0.172	0.060
-683.281	-152.634	-0.103	0.007
-682.266	644.612	-0.125	-0.322
-681.251	-114.054	-0.418	0.082
-680.237	-160.388	0.306	-0.017
-679.222	-128.852	-0.297	-0.042
-678.208	800.000	-0.044	-0.147
-677.193	-200.000	0.069	-0.505
-676.178	272.918	0.026	-0.047
-675.164	800.000	0.049	-0.169
-674.149	47.747	0.157	0.148
-673.135	115.360	-0.153	0.189
-672.120	-115.666	0.543	0.103
-671.105	-200.000	0.006	0.062
-670.091	5.987	0.106	-0.080
-669.076	377.848	-0.074	0.153
-668.062	153.692	0.149	-0.207
-667.047	-147.430	-0.193	0.017
-666.032	67.156	-0.132	-0.136
-665.018	-132.183	0.028	0.004
-664.003	-113.626	0.180	-0.036
-662.989	713.236	0.152	-0.409
-661.974	-64.896	-0.178	-0.073
-660.959	-105.744	-0.072	-0.016
-659.945	147.882	0.177	0.242
-658.930	-80.420	-0.061	-0.021
-657.916	-128.611	-0.123	0.018
-656.901	21.914	-0.080	0.066
-655.886	-200.000	-0.028	-0.157
-654.872	-16.466	-0.307	0.197
-653.857	20.199	0.251	-0.205
-652.843	-200.000	0.040	-0.346
-651.828	-134.550	0.106	0.013
-650.814	-60.680	-0.032	-0.014
-649.799	-200.000	-0.018	-0.108
-648.784	-28.326	0.295	0.172
-647.770	-10.785	-0.106	-0.071
-646.755	-87.827	-0.248	-0.075
-645.741	-32.991	0.019	0.011
-644.726	-159.677	-0.195	-0.011
-643.711	-200.000	-0.030	0.222
-642.697	31.149	0.330	-0.287
-641.682	174.095	-0.053	0.078
-640.668	-79.097	0.182	-0.063
-639.653	134.341	0.080	-0.106
-638.638	-200.000	0.003	-0.087
-637.624	-135.000	0.252	-0.031
-636.609	324.210	-0.084	0.162
-635.595	146.949	-0.173	-0.235
-634.580	182.558	0.051	0.076
-633.565	-200.000	-0.001	0.022
-632.551	-13.285	0.039	-0.025
-631.536	201.639	0.206	-0.321
-630.522	159.895	-0.225	-0.317
-629.507	95.392	-0.161	-0.186
-628.492	800.000	0.085	-0.255
-627.478	-114.763	-0.186	0.036
-626.463	265.939	-0.202	-0.357
-625.449	585.049	-0.099	-0.245
-624.434	-200.000	0.038	0.245
-623.419	-200.000	-0.024	-0.152
-622.405	127.883	-0.127	0.163
-621.390	-200.000	-0.016	-0.153
-620.376	-4.142	0.294	-0.206
-619.361	369.812	-0.087	0.178
-618.346	147.971	0.255	-0.347
-617.332	82.881	-0.253	-0.278
-616.317	-41.867	0.263	-0.136
-615.303	-55.627	0.218	-0.098
-614.288	800.000	0.048	0.157
-613.273	80.431	0.126	-0.137
-612.259	-111.146	-0.268	0.055
-611.244	122.722	-0.096	-0.121
-610.230	-200.000	0.033	0.217
-609.215	-200.000	0.010	-0.215
-608.201	-5.482	-0.305	-0.211
-607.186	-117.501	-0.069	0.013
-606.171	66.398	-0.098	-0.100
-605.157	-82.600	-0.480	-0.157
-604.142	414.149	0.076	-0.163
-603.128	13.391	-0.371	0.291
-602.113	-58.776	-0.151	-0.066
-601.098	-40.527	0.146	0.077
-600.084	-192.630	0.264	-0.002
-599.069	-120.375	0.332	0.057
-598.055	-200.000	-0.041	0.269
-597.040	-125.100	-0.022	-0.003
-596.025	348.446	0.213	-0.424
-595.011	273.582	-0.312	0.557
-593.996	800.000	-0.046	0.194
-592.982	-138.099	-0.022	-0.002
-591.967	-107.300	-0.253	-0.056
-590.952	-200.000	-0.012	0.222
-589.938	91.382	0.145	-0.164
-588.923	-59.984	-0.037	0.016
-587.909	-32.900	0.142	0.079
-586.894	-200.000	-0.014	-0.238
-585.879	201.305	0.057	-0.088
-584.865	60.271	0.202	-0.202
-583.850	293.261	0.149	-0.275
-582.836	800.000	-0.058	-0.222
-581.821	-200.000	-0.013	-0.229
-580.806	-112.821	0.129	0.026
-579.792	-54.810	0.091	-0.042
-578.777	-124.032	-0.156	0.025
-577.763	358.389	-0.118	0.238
-576.748	-142.051	0.076	-0.008
-575.733	3.361	-0.383	-0.281
-574.719	-200.000	0.011	0.132
-573.704	43.232	0.234	-0.215
-572.690	-26.468	-0.093	-0.055
-571.675	134.662	-0.095	0.125
-570.661	154.643	-0.064	-0.088
-569.646	-6.407	-0.072	0.050
-568.631	12.487	-0.276	0.215
-567.617	-160.915	-0.273	-0.014
-566.602	-82.016	0.238	0.079
-565.588	419.181	-0.231	-0.498
-564.573	57.895	-0.149	0.147
-563.558	598.874	-0.126	-0.315
-562.544	36.314	0.091	-0.081
-561.529	46.152	-0.138	-0.129
-560.515	738.657	-0.232	-0.627
-559.500	-64.781	-0.116	-0.048
-558.485	-200.000	-0.058	0.398
-557.471	-200.000	0.015	-0.147
-556.456	-200.000	0.008	0.126
-555.442	-200.000	-0.001	-0.156
-554.427	-186.361	0.139	0.002
-553.412	-200.000	0.034	-0.233
-552.398	-81.886	0.223	0.074
-551.383	84.928	-0.051	0.057
-550.369	-200.000	0.007	0.255
-549.354	800.000	-0.111	0.338
-548.339	-17.246	0.102	0.065
-547.325	-134.025	-0.329	-0.041
-546.310	-200.000	-0.035	-0.286
-545.296	79.341	0.156	-0.169
-544.281	800.000	0.025	-0.070
-543.266	-136.381	0.217	-0.025
-542.252	-200.000	0.016	0.283
-541.237	-96.235	0.497	-0.133
-540.223	-200.000	-0.091	0.418
-539.208	59.463	0.118	0.117
-538.193	156.753	0.240	0.334
-537.179	27.544	0.080	-0.068
-536.164	-122.260	-0.108	0.018
-535.150	800.000	0.031	-0.110
-534.135	2.837	-0.091	-0.067
-533.121	-200.000	0.007	-0.270
-532.106	31.124	-0.263	-0.227
-531.091	177.361	-0.066	-0.096
-530.077	52.301	-0.227	-0.219
-529.062	800.000	0.064	-0.188
-528.048	25.285	-0.365	0.306
-527.033	124.418	-0.189	-0.239
-526.018	-63.142	0.183	0.076
-525.004	17.101	-0.171	0.137
-523.989	384.982	0.148	-0.307
-522.975	594.748	-0.044	-0.109
-521.960	-67.468	0.334	0.132
-520.945	255.437	-0.134	-0.231
-519.931	248.750	0.056	0.095
-518.916	-64.389	-0.236	0.097
-517.902	-56.794	0.060	-0.027
-516.887	-200.000	0.003	0.020
-515.872	800.000	-0.053	0.213
-514.858	49.163	-0.167	0.158
-513.843	15.369	-0.068	0.053
-512.829	-87.313	-0.308	-0.094
-511.814	-200.000	-0.007	-0.138
-510.799	-75.628	0.125	0.045
-509.785	-200.000	-0.050	-0.382
-508.770	800.000	0.069	-0.255
-507.756	238.731	-0.076	-0.126
-506.741	631.756	0.052	-0.133
-505.726	-200.000	0.023	-0.127
-504.712	800.000	-0.059	0.201
-503.697	-165.224	0.265	-0.012
-502.683	-108.489	-0.269	-0.058
-501.668	-95.072	-0.034	0.009
-500.653	534.437	0.074	-0.176
-499.639	-63.966	-0.243	-0.100
-498.624	800.000	0.116	-0.356
-497.610	-107.901	0.013	-0.003
-496.595	700.740	0.019	-0.050
-495.581	21.024	-0.116	0.095
-494.566	58.462	-0.120	-0.118
-493.551	-16.496	0.205	-0.130
-492.537	-117.604	-0.157	0.028
-491.522	-200.000	-0.018	-0.087
-490.508	-200.000	0.010	0.057
-489.493	-75.991	0.476	-0.169
-488.478	190.150	0.126	-0.191
-487.464	-16.050	-0.149	-0.096
-486.449	117.606	-0.266	-0.329
-485.435	183.030	-0.305	0.452
-484.420	-32.640	0.117	0.065
-483.405	800.000	0.035	0.108
-482.391	-71.035	0.126	0.048
-481.376	511.778	-0.122	0.287
-480.362	-200.000	-0.017	-0.239
-479.347	116.970	-0.176	-0.218
-478.332	-171.069	0.028	0.001
-477.318	401.231	0.074	0.156
-476.303	-200.000	-0.015	-0.266
-475.289	261.217	0.149	-0.259
-474.274	-91.898	0.281	-0.080
-473.259	-200.000	0.074	-0.336
-472.245	800.000	0.056	-0.215
-471.230	-200.000	0.012	-0.055
-470.216	-106.940	0.225	-0.050
-469.201	-166.390	0.381	-0.016
-468.186	-70.917	0.354	-0.134
-467.172	-200.000	0.042	-0.277
-466.157	-78.330	0.248	0.086
-465.143	-76.449	-0.215	-0.076
-464.128	57.764	0.286	0.281
-463.113	25.630	-0.186	-0.156
-462.099	-107.729	0.237	-0.052
-461.084	-15.265	0.256	-0.165
-460.070	157.207	-0.178	0.247
-459.055	-200.000	-0.010	-0.311
-458.040	-18.789	0.429	0.269
-457.026	160.043	0.046	0.064
-456.011	567.167	0.107	0.261
-454.997	240.253	-0.095	0.160
-453.982	-64.388	-0.496	0.203
-452.968	-13.724	0.131	-0.085
-451.953	309.028	-0.169	0.316
-450.938	-54.565	-0.228	-0.104
-449.924	-200.000	-0.077	0.423
-448.909	-200.000	0.019	0.165
-447.895	800.000	-0.042	0.171
-446.880	800.000	-0.059	-0.213
-445.865	161.083	0.150	0.211
-444.851	-166.678	-0.532	-0.022
-443.836	-44.623	0.163	-0.082
-442.822	-82.341	-0.271	-0.088
-441.807	-200.000	0.035	0.218
-440.792	-40.386	-0.041	-0.022
-439.778	-81.478	-0.209	0.069
-438.763	10.643	-0.217	-0.166
-437.749	-153.037	0.247	-0.017
-436.734	-33.750	-0.179	0.099
-435.719	-200.000	0.030	0.247
-434.705	-1.928	-0.104	0.073
-433.690	800.000	-0.079	0.247
-432.676	207.120	0.089	-0.139
-431.661	-200.000	-0.039	-0.182
-430.646	-200.000	-0.006	-0.071
-429.632	283.082	-0.079	-0.142
-428.617	0.965	0.123	-0.088
-427.603	470.265	-0.107	-0.241
-426.588	-151.566	0.189	0.014
-425.573	188.729	-0.124	-0.186
-424.559	-31.400	-0.259	0.146
-423.544	-120.592	0.072	0.012
-422.530	-20.262	0.227	0.140
-421.515	-31.654	-0.074	-0.042
-420.500	800.000	0.068	0.240
-419.486	168.215	0.086	0.123
-418.471	800.000	0.083	0.284
-417.457	-14.390	0.141	-0.091
-416.442	-64.033	0.202	-0.083
-415.428	-200.000	-0.019	-0.268
-414.413	6.039	0.466	-0.346
-413.398	293.470	0.074	0.136
-412.384	-108.884	-0.547	-0.117
-411.369	219.077	0.051	0.081
-410.355	9.842	-0.121	0.092
-409.340	-45.750	-0.103	0.051
-408.325	-107.338	-0.054	0.012
-407.311	-200.000	0.015	0.325
-406.296	800.000	-0.042	-0.146
-405.282	-122.445	0.031	-0.005
-404.267	-200.000	-0.053	-0.267
-403.252	-30.627	0.075	0.042
-402.238	-66.373	0.355	0.141
-401.223	800.000	-0.088	-0.329
-400.209	-47.679	0.196	-0.095
-399.194	86.711	-0.086	0.095
-398.179	177.868	-0.186	0.272
-397.165	-200.000	0.002	0.258
-396.150	-170.820	0.381	-0.013
-395.136	-113.464	-0.153	0.030
-394.121	117.708	-0.057	0.070
-393.106	800.000	0.039	0.134
-392.092	-79.866	-0.174	-0.059
-391.077	-200.000	0.053	-0.260
-390.063	800.000	-0.098	-0.412
-389.048	298.903	-0.049	-0.090
-388.033	-200.000	0.045	0.354
-387.019	-47.092	0.203	0.099
-386.004	-87.881	-0.157	-0.047
-384.990	301.601	-0.085	0.158
-383.975	-200.000	-0.040	-0.387
-382.960	-101.159	0.304	-0.074
-381.946	-183.533	-0.177	0.003
-380.931	800.000	0.067	-0.250
-379.917	40.057	0.007	-0.007
-378.902	338.521	0.161	-0.314
-377.888	-47.213	-0.186	0.091
-376.873	121.228	0.073	0.090
-375.858	27.483	0.046	0.039
-374.844	-7.905	-0.064	-0.043
-373.829	101.905	0.218	-0.254
-372.815	12.912	-0.036	0.028
-371.800	613.751	-0.093	0.233
-370.785	-33.722	0.209	0.116
-369.771	-54.323	-0.082	-0.037
-368.756	137.059	0.107	0.139
-367.742	431.332	-0.147	0.318
-366.727	-167.796	0.193	0.008
-365.712	-17.655	-0.191	-0.120
-364.698	-5.733	-0.185	0.127
-363.683	44.784	-0.155	0.143
-362.669	-200.000	0.006	0.139
-361.654	281.078	-0.117	0.210
-360.639	-73.821	-0.241	0.088
-359.625	-200.000	0.004	-0.204
-358.610	139.993	0.133	-0.175
-357.596	-80.126	0.352	0.118
-356.581	-119.648	-0.246	0.042
-355.566	-192.508	0.101	-0.001
-354.552	565.962	0.092	-0.223
-353.537	-0.461	0.195	0.138
-352.523	-183.757	0.282	0.005
-351.508	-148.034	0.607	0.050
-350.493	-162.918	-0.103	-0.005
-349.479	-125.526	0.039	-0.006
-348.464	-200.000	-0.043	-0.198
-347.450	363.069	-0.143	0.287
-346.435	-27.599	0.237	0.138
-345.420	-66.599	-0.076	0.030
-344.406	15.177	0.311	0.244
-343.391	-86.577	0.141	0.043
-342.377	29.097	0.132	-0.112
-341.362	61.901	0.068	0.068
-340.348	304.865	0.108	-0.200
-339.333	236.752	0.126	0.209
-338.318	-112.565	-0.175	-0.035
-337.304	-85.946	0.241	-0.075
-336.289	-200.000	-0.003	0.259
-335.275	52.090	0.277	0.264
-334.260	235.072	-0.115	0.189
-333.245	82.064	-0.244	-0.264
-332.231	-200.000	-0.007	-0.251
-331.216	-24.885	0.222	-0.132
-330.202	-200.000	-0.001	0.101
-329.187	-70.069	-0.066	-0.025
-328.172	-15.736	-0.033	0.021
-327.158	-41.375	-0.188	-0.097
-326.143	547.561	-0.038	-0.091
-325.129	-158.864	0.184	0.010
-324.114	30.622	-0.181	-0.155
-323.099	403.127	-0.117	0.246
-322.085	-200.000	0.001	-0.173
-321.070	800.000	0.093	-0.353
-320.056	49.151	-0.094	0.088
-319.041	-200.000	-0.008	-0.127
-318.026	301.112	-0.146	0.269
-317.012	-58.612	-0.174	-0.075
-315.997	103.166	0.107	-0.125
-314.983	-5.351	0.110	-0.076
-313.968	-200.000	0.388	0.000
-312.953	-61.747	0.138	-0.058
-311.939	736.901	-0.141	0.377
-310.924	355.844	0.138	0.273
-309.910	800.000	0.095	0.309
-308.895	115.942	0.085	-0.104
-307.880	-160.619	-0.311	0.017
-306.866	800.000	-0.056	0.165
-305.851	10.300	0.225	0.171
-304.837	29.757	-0.161	-0.137
-303.822	-174.754	0.250	-0.007
-302.807	198.434	-0.129	0.197
-301.793	339.335	0.118	0.229
-300.778	-13.350	0.218	-0.141
-299.764	60.504	-0.138	0.136
-298.749	-200.000	0.042	0.242
-297.735	37.507	0.244	-0.216
-296.720	-200.000	0.039	0.188
-295.705	537.079	0.034	-0.082
-294.691	-71.200	0.269	0.101
-293.676	800.000	0.140	0.386
-292.662	-200.000	0.044	-0.361
-291.647	-200.000	-0.031	0.203
-290.632	726.721	-0.019	0.050
-289.618	-65.809	-0.306	0.122
-288.603	-156.535	0.198	0.012
-287.589	-47.588	-0.144	0.070
-286.574	-24.634	-0.313	-0.186
-285.559	-200.000	0.046	-0.201
-284.545	-104.574	-0.094	0.022
-283.530	39.435	0.099	-0.089
-282.516	800.000	0.076	-0.328
-281.501	92.813	-0.253	0.285
-280.486	800.000	0.055	0.200
-279.472	59.626	-0.052	0.052
-278.457	-159.236	0.469	-0.026
-277.443	-200.000	-0.015	0.253
-276.428	-200.000	-0.013	-0.198
-275.413	-184.334	0.103	0.002
-274.399	-21.895	-0.096	0.058
-273.384	53.850	0.185	0.177
-272.370	-200.000	0.012	0.054
-271.355	-70.072	-0.012	0.005
-270.340	17.354	0.319	0.253
-269.326	-93.369	-0.493	0.136
-268.311	60.232	0.210	0.207
-267.297	26.916	-0.289	0.241
-266.282	300.668	0.074	0.136
-265.267	60.669	0.125	-0.124
-264.253	446.424	-0.096	0.211
-263.238	-200.000	0.034	-0.190
-262.224	-25.219	-0.079	-0.047
-261.209	377.091	0.040	0.081
-260.195	-112.701	0.173	-0.034
-259.180	-30.256	0.311	0.176
-258.165	800.000	-0.046	-0.182
-257.151	183.534	0.147	-0.217
-256.136	-70.732	0.054	-0.020
-255.122	-200.000	0.039	0.269
-254.107	-200.000	0.048	0.312
-253.092	800.000	-0.084	0.238
-252.078	73.457	0.042	0.044
-251.063	-149.583	-0.316	0.025
-250.049	-44.270	0.086	-0.043
-249.034	-154.484	0.230	-0.015
-248.019	-133.099	-0.420	-0.053
-247.005	-146.073	-0.197	-0.017
-245.990	-200.000	0.051	-0.427
-244.976	-49.149	-0.222	-0.106
-243.961	24.417	0.207	0.170
-242.946	-200.000	0.014	0.121
-241.932	55.891	-0.134	0.130
-240.917	158.593	-0.037	-0.052
-239.903	-141.731	-0.535	0.053
-238.888	237.550	-0.070	-0.116
-237.873	-75.335	-0.135	0.048
-236.859	-99.246	0.037	-0.009
-235.844	-118.123	-0.284	0.050
-234.830	-55.825	-0.223	0.099
-233.815	477.503	0.061	-0.137
-232.800	-19.469	-0.247	0.153
-231.786	-200.000	0.005	0.267
-230.771	-64.906	0.201	-0.081
-229.757	481.681	-0.037	0.083
-228.742	30.529	-0.210	-0.179
-227.727	163.779	-0.104	0.146
-226.713	-44.777	-0.221	0.110
-225.698	140.245	-0.113	0.149
-224.684	-151.243	-0.057	-0.004
-223.669	50.040	-0.024	0.023
-222.655	-140.508	-0.085	0.009
-221.640	-200.000	0.040	0.402
-220.625	-200.000	0.060	0.263
-219.611	44.355	-0.190	0.174
-218.596	-200.000	0.025	0.167
-217.582	-165.862	0.022	-0.001
-216.567	-47.957	-0.183	-0.088
-215.552	175.096	0.099	0.143
-214.538	-12.305	-0.069	-0.045
-213.523	-65.163	0.069	0.028
-212.509	-23.643	0.168	-0.101
-211.494	312.314	-0.136	-0.255
-210.479	-74.578	-0.145	-0.052
-209.465	-44.452	0.068	0.034
-208.450	-4.667	-0.151	-0.104
-207.436	-200.000	0.025	0.174
-206.421	-142.862	-0.266	-0.026
-205.406	311.790	0.056	0.105
-204.392	-200.000	0.010	-0.147
-203.377	299.861	-0.077	-0.141
-202.363	-200.000	0.074	0.000
-201.348	-67.855	-0.202	0.078
-200.333	32.008	-0.095	0.081
-199.319	-84.903	-0.141	-0.044
-198.304	-111.474	0.438	0.089
-197.290	17.351	0.079	0.062
-196.275	12.687	0.095	0.073
-195.260	-84.676	0.218	0.068
-194.246	163.113	-0.043	-0.060
-193.231	-175.138	-0.187	0.005
-192.217	492.672	0.192	0.438
-191.202	-45.360	-0.193	-0.095
-190.187	-43.263	0.098	0.049
-189.173	-11.118	-0.221	-0.145
-188.158	124.385	0.146	0.183
-187.144	800.000	-0.025	0.071
-186.129	-54.023	0.139	0.063
-185.114	-54.040	-0.158	-0.072
-184.100	-16.086	-0.302	-0.191
-183.085	-50.948	-0.182	-0.085
-182.071	-122.716	0.154	0.025
-181.056	-200.000	-0.023	-0.355
-180.042	-35.558	0.197	0.106
-179.027	109.477	0.112	-0.134
-178.012	-88.274	-0.281	0.083
-176.998	-10.948	0.202	0.132
-175.983	14.977	0.106	-0.082
-174.969	47.813	0.094	0.087
-173.954	-200.000	0.019	0.210
-172.939	-69.154	0.298	-0.114
-171.925	-183.459	-0.169	-0.003
-170.910	-200.000	0.032	-0.212
-169.896	800.000	0.113	0.314
-168.881	37.835	0.374	0.330
-167.866	-200.000	-0.028	0.206
-166.852	294.935	0.100	0.182
-165.837	-164.740	0.273	0.012
-164.823	277.647	0.032	-0.056
-163.808	459.867	-0.118	0.260
-162.793	-81.571	0.137	0.045
-161.779	59.721	-0.092	-0.090
-160.764	334.858	0.163	-0.314
-159.750	-81.700	-0.190	-0.062
-158.735	71.169	-0.192	0.198
-157.720	-106.972	-0.329	0.072
-156.706	-41.128	0.221	0.113
-155.691	-32.003	-0.046	0.026
-154.677	521.347	0.150	0.350
-153.662	-101.537	0.121	0.029
-152.647	-47.145	0.204	0.099
-151.633	222.834	0.027	-0.044
-150.618	89.305	0.093	0.103
-149.604	-200.000	-0.019	0.140
-148.589	-107.723	-0.009	-0.002
-147.574	-65.292	0.151	-0.060
-146.560	-55.264	0.184	-0.082
-145.545	-200.000	0.007	-0.046
-144.531	800.000	0.045	0.157
-143.516	-200.000	-0.199	-0.000
-142.502	800.000	0.056	0.156
-141.487	133.826	0.051	-0.066
-140.472	-184.467	-0.300	0.005
-139.458	-137.646	0.026	0.003
-138.443	-137.976	0.177	-0.020
-137.429	-35.740	0.170	0.091
-136.414	-47.844	-0.102	-0.049
-135.399	61.972	-0.307	0.303
-134.385	355.434	-0.038	-0.075
-133.370	-88.100	-0.271	0.081
-132.356	-64.734	-0.175	-0.070
-131.341	-18.822	0.013	0.008
-130.326	-17.837	0.160	0.099
-129.312	-200.000	0.008	0.103
-128.297	112.440	0.150	0.179
-127.283	-142.284	0.285	0.028
-126.268	-78.062	0.151	-0.052
-125.253	-109.042	-0.299	-0.063
-124.239	113.584	-0.246	-0.297
-123.224	-28.552	-0.154	0.088
-122.210	-169.194	0.229	0.008
-121.195	-149.687	-0.098	-0.008
