DTS Sentinel unit serial number:	SN413079Multiplexer serial number:	ORYXHardware model number:	OX4-SRSoftware version number:	ORYX F/W v4.00 Oryx Data Collector v3.7.2.0data status	okinstallation	princeton_trtdifferential loss correction	single-endedforward channel	channel 4reverse channel	N/Adate	2019/09/18time	07:17:34forward acquisition time	60.00reverse acquisition time	0.00gamma	496.2192k internal	0.2333k external	0.2333temperature offset calibration	0.9997default loss term (dB/km)	0.3790temperature slope calibration	1.0000multiplexer offset coefficient	1.0000multiplexer slope coefficient	1.0000fibre end	0.00T internal ref (°C)	23.19T ext. ref 1 (°C)	0.19T ext. ref 2 (°C)	17.48length (m)	temperature (°C)	Stokes	anti-Stokes-747.200	578.400	0.030	-0.074
-746.185	330.047	-0.093	0.180
-745.171	27.234	-0.325	0.275
-744.156	-200.000	0.015	0.070
-743.142	-94.114	0.314	-0.087
-742.127	288.807	-0.069	0.125
-741.112	492.857	0.038	-0.089
-740.098	254.459	-0.166	0.285
-739.083	-88.884	0.442	-0.132
-738.069	-70.790	-0.240	0.091
-737.054	800.000	0.051	-0.169
-736.039	5.942	-0.207	-0.154
-735.025	24.744	0.194	0.162
-734.010	-42.877	-0.340	-0.173
-732.996	707.813	-0.055	-0.146
-731.981	-200.000	-0.004	0.169
-730.966	131.268	-0.126	0.163
-729.952	-123.139	0.009	-0.001
-728.937	-20.762	0.054	-0.034
-727.923	-128.237	0.016	0.002
-726.908	-63.596	-0.194	-0.080
-725.894	-200.000	0.011	-0.144
-724.879	-200.000	-0.002	0.180
-723.864	24.411	-0.239	0.199
-722.850	-200.000	0.017	-0.414
-721.835	25.481	-0.259	-0.216
-720.821	-123.178	-0.141	-0.023
-719.806	-118.801	0.264	-0.047
-718.791	41.742	-0.076	0.069
-717.777	113.523	-0.118	-0.144
-716.762	-101.623	-0.231	0.056
-715.748	-116.320	0.216	0.040
-714.733	51.519	-0.265	-0.253
-713.718	137.241	-0.060	0.079
-712.704	89.386	-0.172	-0.192
-711.689	62.834	-0.122	-0.123
-710.675	310.873	-0.062	0.117
-709.660	-54.573	-0.116	-0.052
-708.645	-98.281	0.112	-0.029
-707.631	-97.870	0.038	-0.010
-706.616	800.000	0.067	0.274
-705.602	4.749	0.231	0.170
-704.587	-96.036	0.084	0.022
-703.572	26.715	-0.145	0.122
-702.558	-137.955	0.016	-0.002
-701.543	800.000	0.088	0.248
-700.529	115.556	-0.179	-0.219
-699.514	-200.000	-0.014	-0.181
-698.499	800.000	-0.179	-0.500
-697.485	36.485	-0.257	-0.227
-696.470	-200.000	-0.026	-0.182
-695.456	-160.003	0.217	-0.012
-694.441	-200.000	0.046	0.304
-693.426	-165.885	-0.457	0.020
-692.412	-158.320	0.130	-0.008
-691.397	505.483	0.134	0.310
-690.383	-173.192	-0.311	-0.010
-689.368	-105.477	-0.105	0.024
-688.354	-161.546	0.197	-0.010
-687.339	135.587	-0.115	-0.150
-686.324	298.971	0.038	-0.070
-685.310	-200.000	-0.002	0.087
-684.295	0.170	0.192	0.138
-683.281	-200.000	0.005	-0.109
-682.266	800.000	0.051	0.147
-681.251	-49.633	-0.021	0.010
-680.237	6.274	-0.204	-0.152
-679.222	-58.185	0.182	-0.079
-678.208	473.452	0.042	0.094
-677.193	272.320	-0.073	-0.129
-676.178	50.520	0.209	0.198
-675.164	-200.000	-0.024	0.125
-674.149	-200.000	-0.294	0.001
-673.135	-65.032	-0.208	-0.084
-672.120	-96.737	-0.032	0.008
-671.105	-200.000	-0.045	-0.340
-670.091	72.276	-0.182	-0.190
-669.076	-60.855	0.164	-0.070
-668.062	221.209	0.007	-0.011
-667.047	-95.612	-0.077	-0.021
-666.032	63.603	-0.278	0.280
-665.018	107.764	-0.363	-0.434
-664.003	-102.661	0.057	-0.014
-662.989	9.034	0.294	0.223
-661.974	27.630	-0.140	-0.118
-660.959	257.034	-0.113	-0.194
-659.945	-200.000	0.042	-0.238
-658.930	129.640	0.048	0.061
-657.916	-200.000	-0.007	-0.033
-656.901	465.362	0.139	-0.312
-655.886	-200.000	0.043	-0.200
-654.872	91.196	-0.247	0.278
-653.857	286.914	0.101	-0.182
-652.843	89.660	-0.156	-0.174
-651.828	800.000	-0.104	-0.299
-650.814	-200.000	0.011	0.051
-649.799	66.332	-0.091	0.093
-648.784	-102.898	-0.138	-0.033
-647.770	-200.000	-0.000	-0.274
-646.755	120.759	-0.037	-0.046
-645.741	-94.052	-0.249	0.068
-644.726	-200.000	-0.040	0.333
-643.711	-200.000	0.022	-0.130
-642.697	-99.228	-0.259	0.066
-641.682	597.688	0.133	-0.329
-640.668	25.395	-0.230	-0.192
-639.653	-200.000	0.018	-0.137
-638.638	348.398	-0.107	-0.212
-637.624	-151.532	-0.067	0.005
-636.609	383.593	0.075	-0.154
-635.595	-98.345	-0.122	0.031
-634.580	89.098	-0.246	-0.275
-633.565	-200.000	0.016	0.164
-632.551	481.379	0.102	-0.231
-631.536	430.838	0.125	0.271
-630.522	310.502	-0.146	0.273
-629.507	4.594	0.222	-0.163
-628.492	330.184	0.127	0.245
-627.478	-48.387	0.120	0.058
-626.463	-182.889	-0.224	-0.004
-625.449	49.390	0.148	0.140
-624.434	752.997	-0.063	-0.171
-623.419	152.531	-0.094	0.129
-622.405	337.582	-0.157	-0.305
-621.390	87.455	-0.147	0.163
-620.376	325.621	0.107	0.204
-619.361	278.053	-0.065	-0.117
-618.346	-40.734	-0.390	0.202
-617.332	-7.806	-0.307	-0.207
-616.317	-94.387	0.091	0.025
-615.303	-41.645	-0.286	-0.147
-614.288	800.000	0.046	0.157
-613.273	-200.000	-0.017	-0.136
-612.259	116.930	-0.139	0.171
-611.244	69.599	-0.175	0.180
-610.230	-5.107	-0.167	-0.115
-609.215	211.367	-0.051	0.080
-608.201	18.479	0.252	0.201
-607.186	-200.000	-0.013	-0.147
-606.171	-74.101	0.316	-0.114
-605.157	53.498	0.085	0.082
-604.142	-26.018	0.159	0.094
-603.128	136.705	0.197	0.257
-602.113	-104.785	-0.112	0.026
-601.098	-93.250	-0.328	-0.091
-600.084	40.593	-0.243	0.219
-599.069	-200.000	-0.043	-0.270
-598.055	-200.000	-0.008	-0.116
-597.040	50.926	0.173	0.164
-596.025	-200.000	-0.012	0.264
-595.011	25.451	0.425	0.353
-593.996	-54.533	-0.438	-0.198
-592.982	-96.351	0.372	-0.098
-591.967	-30.460	0.187	0.106
-590.952	59.890	0.124	-0.122
-589.938	-134.056	0.222	0.027
-588.923	774.226	0.021	0.057
-587.909	-19.323	-0.201	0.124
-586.894	-52.503	-0.211	-0.097
-585.879	-139.112	0.063	0.007
-584.865	-128.347	0.096	-0.014
-583.850	145.248	0.121	0.162
-582.836	328.542	-0.026	-0.050
-581.821	-200.000	0.010	0.049
-580.806	-110.401	-0.130	-0.027
-579.792	41.210	-0.317	0.286
-578.777	-121.990	-0.141	-0.023
-577.763	179.018	-0.304	0.444
-576.748	800.000	0.090	-0.262
-575.733	286.048	-0.080	-0.144
-574.719	127.417	0.309	-0.392
-573.704	-65.371	-0.208	-0.084
-572.690	800.000	-0.062	-0.172
-571.675	98.256	0.053	-0.060
-570.661	-185.077	0.186	0.003
-569.646	231.037	0.041	0.068
-568.631	-37.628	-0.127	-0.067
-567.617	-200.000	0.003	-0.313
-566.602	510.866	-0.068	0.159
-565.588	-42.290	0.116	-0.059
-564.573	-76.997	-0.039	0.014
-563.558	-187.207	0.187	-0.003
-562.544	40.303	0.198	-0.178
-561.529	-59.922	-0.090	0.038
-560.515	-75.818	-0.131	0.046
-559.500	118.418	-0.119	-0.146
-558.485	-92.286	-0.270	0.076
-557.471	-97.205	0.355	0.093
-556.456	-149.560	0.145	-0.011
-555.442	-162.686	0.287	0.014
-554.427	800.000	-0.115	-0.321
-553.412	-200.000	0.053	-0.418
-552.398	-200.000	-0.141	-0.000
-551.383	-200.000	0.046	-0.215
-550.369	-125.016	0.355	-0.054
-549.354	191.319	-0.121	-0.182
-548.339	-31.818	-0.038	0.021
-547.325	164.673	0.052	0.073
-546.310	-123.654	0.175	0.028
-545.296	124.939	-0.045	-0.056
-544.281	-200.000	0.007	0.074
-543.266	422.416	-0.043	0.093
-542.252	-81.443	-0.381	-0.125
-541.237	-200.000	0.033	-0.217
-540.223	-200.000	0.005	-0.382
-539.208	-94.176	0.155	-0.042
-538.193	-200.000	0.015	0.107
-537.179	800.000	-0.058	-0.205
-536.164	-27.734	0.254	-0.147
-535.150	-200.000	-0.029	-0.167
-534.135	-88.721	0.105	-0.031
-533.121	253.697	-0.046	-0.078
-532.106	-200.000	-0.028	-0.129
-531.091	182.740	-0.213	0.314
-530.077	-131.843	0.079	0.010
-529.062	402.781	-0.061	-0.127
-528.048	800.000	0.125	0.408
-527.033	800.000	0.051	-0.203
-526.018	-87.965	0.394	-0.118
-525.004	348.815	0.208	-0.410
-523.989	800.000	-0.041	-0.147
-522.975	80.962	-0.249	-0.267
-521.960	171.213	-0.094	-0.134
-520.945	7.376	-0.016	-0.012
-519.931	-200.000	0.118	0.526
-518.916	-60.604	-0.202	-0.085
-517.902	-200.000	0.081	0.445
-516.887	-129.991	0.046	-0.006
-515.872	14.246	-0.090	-0.070
-514.858	100.471	-0.081	-0.094
-513.843	506.207	-0.166	0.382
-512.829	-14.674	-0.142	-0.091
-511.814	-200.000	-0.048	-0.244
-510.799	101.699	0.120	-0.140
-509.785	420.919	-0.153	-0.326
-508.770	-153.093	0.383	0.027
-507.756	-73.778	-0.147	-0.053
-506.741	196.996	-0.184	-0.280
-505.726	-53.161	-0.180	-0.082
-504.712	-127.099	-0.483	0.071
-503.697	222.048	0.156	0.249
-502.683	800.000	-0.046	0.185
-501.668	-29.995	0.155	-0.088
-500.653	480.102	0.124	0.280
-499.639	429.420	-0.079	0.171
-498.624	800.000	-0.032	-0.116
-497.610	36.471	-0.260	0.229
-496.595	37.797	-0.252	0.223
-495.581	-59.460	0.150	-0.064
-494.566	-59.062	-0.307	-0.132
-493.551	800.000	0.084	-0.245
-492.537	800.000	0.071	-0.204
-491.522	-121.729	0.245	0.040
-490.508	-133.462	0.282	-0.035
-489.493	-3.498	-0.357	0.247
-488.478	-200.000	-0.043	-0.288
-487.464	-76.465	0.122	-0.043
-486.449	-200.000	0.051	0.321
-485.435	187.522	-0.016	0.024
-484.420	-153.118	0.102	-0.007
-483.405	335.095	0.065	-0.124
-482.391	-78.906	0.450	0.152
-481.376	800.000	0.056	-0.211
-480.362	313.529	0.051	-0.096
-479.347	69.286	-0.249	0.255
-478.332	-23.965	0.158	-0.094
-477.318	-54.062	-0.190	0.086
-476.303	-55.400	-0.281	-0.125
-475.289	280.497	0.066	-0.118
-474.274	538.356	0.109	-0.257
-473.259	-149.857	-0.172	-0.013
-472.245	-96.256	0.086	0.023
-471.230	800.000	0.034	0.127
-470.216	-139.193	0.340	-0.036
-469.201	214.662	0.183	-0.288
-468.186	-32.798	0.018	0.010
-467.172	73.615	-0.200	-0.208
-466.157	281.931	-0.111	-0.199
-465.143	251.389	-0.025	0.042
-464.128	-93.094	-0.088	-0.024
-463.113	-163.702	0.012	0.001
-462.099	30.802	0.119	0.101
-461.084	-119.220	0.342	0.059
-460.070	91.322	-0.179	0.200
-459.055	411.416	-0.145	-0.305
-458.040	82.170	0.048	-0.052
-457.026	469.897	-0.123	0.274
-456.011	19.450	-0.308	0.246
-454.997	496.954	0.150	0.344
-453.982	-200.000	0.037	-0.231
-452.968	-42.175	-0.161	-0.082
-451.953	-158.285	-0.149	-0.009
-450.938	56.009	-0.211	-0.203
-449.924	800.000	-0.040	-0.162
-448.909	800.000	0.020	0.066
-447.895	-58.368	0.280	0.121
-446.880	1.760	0.161	0.115
-445.865	800.000	-0.110	0.330
-444.851	96.978	-0.153	0.174
-443.836	55.635	-0.093	0.089
-442.822	54.521	0.017	-0.016
-441.807	-25.487	0.075	-0.044
-440.792	193.408	-0.155	-0.234
-439.778	-200.000	0.034	-0.244
-438.763	132.466	-0.113	0.145
-437.749	155.577	0.096	0.131
-436.734	456.618	-0.148	-0.326
-435.719	-74.859	-0.112	0.040
-434.705	800.000	-0.077	0.267
-433.690	-29.358	-0.162	-0.092
-432.676	144.500	-0.133	-0.176
-431.661	-124.694	0.064	-0.010
-430.646	-68.377	0.224	0.087
-429.632	-185.216	0.049	-0.001
-428.617	-200.000	-0.004	0.165
-427.603	-109.421	-0.548	-0.115
-426.588	161.247	0.092	0.127
-425.573	-7.800	-0.392	-0.263
-424.559	47.177	0.199	-0.184
-423.544	95.499	-0.032	-0.037
-422.530	800.000	-0.049	-0.160
-421.515	-114.105	0.272	0.052
-420.500	-26.691	0.250	-0.145
-419.486	57.829	0.170	0.165
-418.471	134.432	0.158	0.203
-417.457	129.702	-0.212	0.269
-416.442	-200.000	-0.052	0.317
-415.428	351.139	0.139	-0.273
-414.413	98.583	0.153	-0.175
-413.398	-24.629	0.043	0.026
-412.384	-200.000	-0.006	0.064
-411.369	800.000	-0.036	-0.113
-410.355	-104.499	0.202	0.046
-409.340	-118.997	-0.425	-0.074
-408.325	-101.082	0.275	-0.067
-407.311	263.047	-0.110	-0.190
-406.296	-200.000	0.050	0.280
-405.282	-178.052	-0.056	0.001
-404.267	-48.729	-0.179	-0.085
-403.252	0.386	0.272	0.192
-402.238	30.613	-0.187	-0.158
-401.223	-200.000	0.032	-0.186
-400.209	100.003	-0.239	-0.275
-399.194	-88.603	0.400	0.118
-398.179	-46.415	0.074	0.036
-397.165	-94.777	0.220	-0.059
-396.150	-200.000	-0.013	0.143
-395.136	-200.000	0.002	-0.267
-394.121	-118.700	-0.238	0.042
-393.106	-50.771	-0.232	0.108
-392.092	-200.000	-0.012	-0.064
-391.077	800.000	0.036	0.148
-390.063	18.100	-0.096	0.076
-389.048	-200.000	0.009	0.104
-388.033	800.000	0.063	-0.210
-387.019	-200.000	-0.021	0.231
-386.004	98.953	-0.187	0.214
-384.990	-200.000	0.005	0.139
-383.975	-200.000	-0.031	0.225
-382.960	-13.417	0.093	0.060
-381.946	220.252	-0.170	-0.269
-380.931	-55.532	0.180	-0.080
-379.917	78.461	0.229	-0.242
-378.902	112.083	-0.079	-0.094
-377.888	-200.000	-0.001	-0.003
-376.873	-200.000	-0.020	0.129
-375.858	-200.000	0.052	-0.268
-374.844	-33.297	0.326	-0.179
-373.829	9.531	0.302	0.226
-372.815	-136.745	-0.336	-0.038
-371.800	-166.980	-0.151	-0.006
-370.785	-200.000	0.039	-0.176
-369.771	-83.482	-0.252	0.080
-368.756	-78.602	0.341	-0.116
-367.742	43.541	0.091	-0.083
-366.727	-18.025	0.474	0.294
-365.712	800.000	0.122	0.403
-364.698	-200.000	0.031	-0.193
-363.683	-121.210	-0.092	-0.015
-362.669	-94.531	-0.117	-0.031
-361.654	800.000	0.028	-0.083
-360.639	23.697	0.097	0.079
-359.625	-43.943	-0.343	-0.171
-358.610	-107.831	-0.325	-0.070
-357.596	-200.000	0.023	0.130
-356.581	-200.000	0.003	0.146
-355.566	-29.007	-0.078	-0.044
-354.552	-200.000	0.039	-0.211
-353.537	-179.892	0.331	-0.007
-352.523	-99.074	-0.241	0.060
-351.508	766.706	0.044	-0.118
-350.493	-200.000	0.073	0.318
-349.479	-146.942	0.135	-0.011
-348.464	800.000	0.091	0.286
-347.450	-200.000	-0.000	-0.099
-346.435	81.187	0.110	0.117
-345.420	-40.012	-0.054	-0.028
-344.406	-6.484	-0.404	0.273
-343.391	-180.486	0.133	-0.003
-342.377	109.050	0.165	0.195
-341.362	-72.794	-0.172	-0.063
-340.348	-59.993	0.130	-0.055
-339.333	359.468	0.161	0.319
-338.318	-200.000	0.046	0.202
-337.304	201.897	-0.081	0.123
-336.289	800.000	-0.012	-0.034
-335.275	-49.596	0.396	0.187
-334.260	262.097	0.081	0.138
-333.245	-54.571	0.187	0.084
-332.231	-117.974	0.314	0.056
-331.216	-200.000	-0.003	-0.045
-330.202	631.946	-0.091	0.229
-329.187	-26.798	-0.056	0.033
-328.172	-131.824	0.276	-0.036
-327.158	357.867	-0.031	-0.060
-326.143	86.600	-0.141	0.154
-325.129	-48.000	-0.316	0.151
-324.114	-156.656	0.121	0.007
-323.099	304.879	-0.172	-0.315
-322.085	200.782	-0.089	0.135
-321.070	-5.553	-0.242	-0.164
-320.056	-67.169	0.071	-0.028
-319.041	-11.758	0.367	0.238
-318.026	101.645	0.103	-0.119
-317.012	96.299	0.266	-0.301
-315.997	-200.000	0.003	0.134
-314.983	-137.925	0.335	-0.037
-313.968	199.971	0.267	-0.405
-312.953	102.576	-0.228	-0.264
-311.939	-123.537	0.167	0.026
-310.924	800.000	-0.083	0.229
-309.910	26.799	-0.251	0.208
-308.895	-200.000	0.056	-0.260
-307.880	157.163	0.092	0.125
-306.866	497.505	0.074	-0.169
-305.851	498.537	-0.112	-0.255
-304.837	191.682	0.278	-0.413
-303.822	-200.000	0.030	0.237
-302.807	-61.353	0.241	-0.100
-301.793	-200.000	0.017	-0.262
-300.778	156.619	0.248	-0.338
-299.764	-11.901	-0.140	0.090
-298.749	-153.783	-0.307	-0.021
-297.735	-147.507	0.270	-0.023
-296.720	-0.397	-0.143	-0.101
-295.705	218.679	-0.114	0.181
-294.691	-20.316	0.055	-0.034
-293.676	748.240	0.112	0.299
-292.662	-200.000	-0.023	-0.259
-291.647	45.748	0.430	0.393
-290.632	16.444	0.234	0.183
-289.618	149.097	-0.156	-0.209
-288.603	59.960	-0.204	-0.199
-287.589	228.768	0.207	0.333
-286.574	-200.000	0.000	0.116
-285.559	71.306	-0.064	0.066
-284.545	800.000	-0.079	0.314
-283.530	212.322	0.039	-0.061
-282.516	-85.621	0.527	0.162
-281.501	-176.135	0.370	0.010
-280.486	122.350	-0.111	-0.137
-279.472	-44.607	-0.100	-0.050
-278.457	-98.168	-0.054	-0.014
-277.443	-86.705	-0.245	-0.074
-276.428	738.062	-0.058	0.153
-275.413	-200.000	-0.012	-0.079
-274.399	-200.000	0.010	-0.216
-273.384	-159.225	-0.229	0.013
-272.370	318.395	0.089	0.167
-271.355	195.448	0.141	-0.212
-270.340	2.617	-0.218	-0.156
-269.326	-88.579	0.277	-0.081
-268.311	-91.517	-0.410	-0.116
-267.297	-200.000	-0.002	-0.122
-266.282	-127.285	0.094	-0.014
-265.267	71.059	0.224	-0.229
-264.253	800.000	0.050	-0.164
-263.238	-3.752	0.201	-0.138
-262.224	24.538	0.137	0.112
-261.209	-200.000	0.011	-0.367
-260.195	800.000	0.085	0.235
-259.180	-200.000	0.064	0.277
-258.165	-200.000	0.016	-0.082
-257.151	25.721	0.203	0.167
-256.136	115.806	0.248	0.299
-255.122	-140.632	-0.550	0.056
-254.107	-87.112	-0.146	0.044
-253.092	-30.321	-0.125	0.070
-252.078	800.000	-0.014	0.046
-251.063	-183.073	-0.187	-0.003
-250.049	800.000	-0.062	0.210
-249.034	-102.318	0.148	-0.035
-248.019	-200.000	0.042	0.245
-247.005	494.736	0.067	0.152
-245.990	-200.000	-0.094	-0.460
-244.976	55.289	0.258	0.246
-243.961	1.960	-0.110	0.078
-242.946	38.825	0.016	0.014
-241.932	51.950	0.034	-0.031
-240.917	467.309	0.094	-0.208
-239.903	547.171	-0.083	-0.196
-238.888	-50.530	0.043	-0.020
-237.873	-9.658	-0.303	0.199
-236.859	-74.025	-0.147	0.052
-235.844	-87.838	0.331	0.098
-234.830	265.069	-0.155	-0.266
-233.815	-200.000	0.024	-0.147
-232.800	-108.413	-0.085	-0.018
-231.786	800.000	-0.090	0.332
-230.771	456.221	-0.124	0.271
-229.757	-62.887	0.371	-0.151
-228.742	-200.000	-0.012	0.138
-227.727	-200.000	-0.056	0.314
-226.713	237.087	0.054	-0.089
-225.698	-66.658	-0.246	0.096
-224.684	91.330	0.076	-0.084
-223.669	-38.292	-0.145	-0.076
-222.655	800.000	0.035	-0.119
-221.640	255.094	-0.048	0.081
-220.625	-61.744	-0.450	0.186
-219.611	-108.771	0.101	0.021
-218.596	-200.000	-0.003	0.236
-217.582	613.571	-0.149	0.366
-216.567	66.363	0.246	0.246
-215.552	310.235	0.086	0.158
-214.538	3.434	0.198	0.142
-213.523	109.752	-0.200	0.236
-212.509	-79.864	0.190	-0.063
-211.494	-26.178	0.138	-0.080
-210.479	297.923	0.073	-0.133
-209.465	800.000	-0.098	0.295
-208.450	-6.870	-0.151	-0.101
-207.436	800.000	0.073	-0.205
-206.421	-70.704	0.355	-0.132
-205.406	-200.000	0.026	0.226
-204.392	800.000	0.052	-0.159
-203.377	-52.159	0.068	-0.031
-202.363	-48.418	-0.170	0.081
-201.348	187.169	-0.123	-0.181
-200.333	626.746	0.112	0.279
-199.319	126.663	-0.213	0.266
-198.304	-32.336	0.406	-0.223
-197.290	-200.000	-0.002	0.241
-196.275	332.123	-0.107	-0.203
-195.260	-18.410	0.321	0.197
-194.246	-64.664	0.271	-0.108
-193.231	-200.000	-0.014	-0.210
-192.217	-6.869	0.087	-0.058
-191.202	-133.978	-0.269	0.033
-190.187	443.336	0.135	0.290
-189.173	-114.285	-0.237	0.045
-188.158	-156.968	-0.212	-0.013
-187.144	-22.750	-0.295	0.175
-186.129	-200.000	-0.005	0.131
-185.114	800.000	0.064	-0.271
-184.100	-200.000	-0.012	0.303
-183.085	526.384	0.110	-0.255
-182.071	229.433	-0.160	-0.257
-181.056	-100.155	0.152	0.037
-180.042	-46.156	-0.254	-0.123
-179.027	158.050	0.166	-0.227
-178.012	20.884	-0.183	0.146
-176.998	-62.625	-0.044	-0.018
-175.983	-0.583	-0.236	0.164
-174.969	-124.735	0.167	0.025
-173.954	174.770	-0.176	-0.250
-172.939	64.900	-0.165	0.164
-171.925	-169.615	-0.079	-0.003
-170.910	33.710	0.325	-0.278
-169.896	148.112	-0.240	-0.318
-168.881	-187.354	0.116	-0.002
-167.866	800.000	0.045	-0.172
-166.852	-192.149	-0.289	-0.003
-165.837	124.249	0.076	0.093
-164.823	261.528	-0.165	0.281
-163.808	-200.000	0.038	0.311
-162.793	526.003	-0.139	0.321
-161.779	47.838	0.270	-0.248
-160.764	5.398	-0.301	-0.218
-159.750	-200.000	-0.037	-0.223
-158.735	-14.972	0.216	0.136
-157.720	-200.000	-0.024	0.337
-156.706	-104.034	0.019	0.004
-155.691	142.679	-0.088	-0.115
-154.677	-76.510	-0.038	-0.013
-153.662	800.000	-0.049	0.133
-152.647	800.000	0.117	0.392
-151.633	-35.619	0.142	0.076
-150.618	370.333	-0.144	0.286
-149.604	800.000	0.044	0.154
-148.589	-200.000	0.004	-0.031
-147.574	-143.913	-0.173	-0.016
-146.560	800.000	-0.101	-0.280
-145.545	576.001	0.053	-0.128
-144.531	-200.000	-0.016	0.128
-143.516	43.944	0.213	0.192
-142.502	120.082	0.108	-0.132
-141.487	-60.115	0.187	0.079
-140.472	141.900	-0.102	0.133
-139.458	-200.000	-0.014	-0.164
-138.443	105.301	-0.303	-0.351
-137.429	-200.000	0.016	-0.209
-136.414	74.945	0.187	-0.194
-135.399	-200.000	-0.018	-0.112
-134.385	159.825	0.163	-0.222
-133.370	497.310	-0.088	-0.199
-132.356	133.730	-0.182	-0.231
-131.341	-200.000	0.006	-0.302
-130.326	-113.909	-0.235	-0.045
-129.312	-64.852	-0.354	0.141
-128.297	64.027	0.264	-0.261
-127.283	-4.636	-0.140	-0.095
-126.268	11.169	0.037	-0.028
-125.253	63.036	-0.115	0.113
-124.239	200.072	0.056	-0.084
-123.224	206.030	-0.126	0.192
-122.210	-96.889	-0.276	0.071
