DTS Sentinel unit serial number:	SN413079Multiplexer serial number:	ORYXHardware model number:	OX4-SRSoftware version number:	ORYX F/W v4.00 Oryx Data Collector v3.7.2.0data status	okinstallation	princeton_trtdifferential loss correction	single-endedforward channel	channel 4reverse channel	N/Adate	2019/09/17time	23:41:34forward acquisition time	60.00reverse acquisition time	0.00gamma	496.2192k internal	0.2332k external	0.2332temperature offset calibration	0.9996default loss term (dB/km)	0.3790temperature slope calibration	1.0000multiplexer offset coefficient	1.0000multiplexer slope coefficient	1.0000fibre end	0.00T internal ref (°C)	24.12T ext. ref 1 (°C)	0.16T ext. ref 2 (°C)	17.48length (m)	temperature (°C)	Stokes	anti-Stokes-747.200	-107.508	0.153	-0.034
-746.185	25.412	-0.241	0.201
-745.171	-200.000	-0.017	0.095
-744.156	119.365	-0.301	0.375
-743.142	-200.000	-0.044	-0.257
-742.127	-136.672	0.221	0.026
-741.112	-200.000	0.004	0.126
-740.098	-200.000	0.022	0.246
-739.083	-68.903	0.281	0.109
-738.069	-54.019	-0.038	-0.018
-737.054	-70.492	0.114	0.043
-736.039	-4.327	-0.076	-0.053
-735.025	136.384	0.090	0.118
-734.010	800.000	-0.080	-0.228
-732.996	148.030	-0.189	-0.257
-731.981	199.140	-0.228	0.352
-730.966	58.085	-0.011	0.010
-729.952	-118.407	-0.300	0.053
-728.937	-79.995	0.097	-0.033
-727.923	366.852	-0.054	0.110
-726.908	800.000	0.041	0.173
-725.894	-45.350	0.063	0.032
-724.879	189.169	0.056	-0.085
-723.864	-200.000	-0.013	0.367
-722.850	-69.205	-0.029	0.011
-721.835	439.462	0.100	0.220
-720.821	800.000	0.084	0.291
-719.806	-182.039	0.036	-0.001
-718.791	-114.585	0.080	-0.015
-717.777	-84.931	-0.311	-0.098
-716.762	22.637	-0.051	0.042
-715.748	-121.820	-0.328	0.054
-714.733	215.142	0.095	0.152
-713.718	111.889	0.087	-0.105
-712.704	800.000	0.088	0.387
-711.689	93.182	0.171	0.194
-710.675	-59.913	0.162	-0.070
-709.660	-95.795	-0.206	-0.055
-708.645	240.694	0.047	-0.078
-707.631	-41.030	-0.097	0.050
-706.616	674.077	-0.101	-0.264
-705.602	-103.374	-0.322	-0.076
-704.587	-84.031	-0.098	-0.031
-703.572	-155.449	0.289	0.019
-702.558	170.420	0.193	0.278
-701.543	-21.447	0.312	-0.191
-700.529	163.769	0.139	0.196
-699.514	-200.000	-0.031	0.139
-698.499	39.830	0.190	0.172
-697.485	-147.799	-0.338	-0.028
-696.470	-200.000	-0.013	-0.107
-695.456	-17.087	0.309	-0.196
-694.441	202.115	-0.088	0.137
-693.426	-21.549	-0.132	-0.081
-692.412	-200.000	-0.020	0.239
-691.397	94.159	-0.158	0.180
-690.383	-30.282	0.273	0.156
-689.368	241.979	-0.056	0.094
-688.354	-200.000	-0.037	-0.188
-687.339	-200.000	0.023	0.189
-686.324	91.138	0.227	-0.255
-685.310	18.317	-0.141	0.113
-684.295	-78.161	0.403	-0.139
-683.281	22.625	-0.191	-0.157
-682.266	23.730	0.207	0.171
-681.251	81.937	0.163	0.177
-680.237	7.341	0.286	-0.214
-679.222	-142.657	0.282	-0.028
-678.208	271.743	0.167	0.296
-677.193	188.856	-0.125	0.187
-676.178	159.219	0.212	0.295
-675.164	-102.225	0.390	-0.094
-674.149	-200.000	-0.005	-0.243
-673.135	66.794	-0.223	-0.227
-672.120	800.000	-0.058	-0.206
-671.105	-200.000	-0.039	0.235
-670.091	-74.928	0.096	0.035
-669.076	-57.330	-0.468	-0.206
-668.062	33.069	0.117	-0.101
-667.047	298.140	-0.130	0.240
-666.032	-37.265	-0.260	-0.140
-665.018	72.019	0.226	0.236
-664.003	-13.156	0.051	0.034
-662.989	-200.000	0.005	-0.053
-661.974	573.996	0.069	-0.169
-660.959	73.355	-0.128	0.134
-659.945	-200.000	0.012	-0.190
-658.930	71.963	0.254	-0.265
-657.916	-200.000	-0.002	0.202
-656.901	-200.000	-0.003	-0.021
-655.886	-75.228	-0.313	-0.112
-654.872	60.021	0.288	0.285
-653.857	26.299	0.128	-0.107
-652.843	-67.741	0.158	0.062
-651.828	-70.237	0.141	-0.054
-650.814	-200.000	0.001	-0.095
-649.799	-74.440	-0.312	-0.113
-648.784	181.167	0.074	-0.109
-647.770	798.477	0.106	0.292
-646.755	106.729	0.076	0.090
-645.741	114.699	0.145	-0.177
-644.726	-122.707	-0.263	-0.043
-643.711	226.532	0.091	-0.148
-642.697	800.000	0.024	0.098
-641.682	-8.171	-0.139	-0.094
-640.668	36.389	-0.315	-0.278
-639.653	-176.447	0.126	0.003
-638.638	-58.267	-0.131	-0.057
-637.624	-200.000	0.003	0.133
-636.609	-61.565	-0.212	-0.089
-635.595	69.216	-0.206	-0.213
-634.580	-111.127	-0.436	-0.089
-633.565	-157.605	0.087	0.005
-632.551	800.000	0.092	-0.344
-631.536	-73.622	-0.300	-0.110
-630.522	39.390	0.143	-0.128
-629.507	-22.059	-0.142	-0.086
-628.492	467.706	-0.157	-0.353
-627.478	-109.366	0.150	-0.032
-626.463	-77.699	-0.245	-0.085
-625.449	-94.141	-0.222	-0.061
-624.434	342.744	-0.150	0.294
-623.419	-31.726	0.290	0.163
-622.405	470.802	0.065	-0.145
-621.390	-200.000	0.002	0.199
-620.376	793.504	-0.110	-0.302
-619.361	-200.000	-0.014	0.175
-618.346	427.790	-0.043	0.093
-617.332	-200.000	0.021	0.160
-616.317	28.495	0.061	-0.052
-615.303	354.870	-0.017	0.035
-614.288	80.377	0.133	0.143
-613.273	-25.463	-0.301	0.178
-612.259	553.302	-0.201	0.482
-611.244	-200.000	-0.000	0.125
-610.230	104.780	-0.160	0.188
-609.215	-147.453	0.349	-0.029
-608.201	-135.520	-0.349	0.042
-607.186	407.274	0.055	0.116
-606.171	-200.000	-0.024	0.222
-605.157	49.419	0.136	0.128
-604.142	-104.644	-0.271	-0.062
-603.128	-103.644	-0.391	0.092
-602.113	-62.877	0.121	-0.050
-601.098	-157.467	-0.439	0.026
-600.084	800.000	0.038	-0.133
-599.069	-200.000	-0.029	-0.183
-598.055	-200.000	0.029	0.163
-597.040	122.371	0.078	-0.097
-596.025	73.113	0.024	0.025
-595.011	9.036	-0.123	-0.093
-593.996	-200.000	-0.028	-0.198
-592.982	-148.152	-0.202	-0.017
-591.967	-27.856	0.202	-0.117
-590.952	-110.562	-0.209	-0.043
-589.938	-200.000	-0.039	0.217
-588.923	-106.882	0.062	0.014
-587.909	183.658	0.204	-0.302
-586.894	141.687	-0.047	-0.062
-585.879	800.000	0.007	0.027
-584.865	33.078	-0.163	0.141
-583.850	68.421	-0.203	-0.208
-582.836	-31.805	-0.427	0.239
-581.821	-136.383	0.243	-0.028
-580.806	800.000	0.136	0.429
-579.792	-200.000	-0.039	0.226
-578.777	-96.287	-0.155	-0.041
-577.763	5.569	-0.079	0.058
-576.748	245.442	0.015	0.025
-575.733	-93.110	0.225	-0.063
-574.719	9.447	-0.162	-0.122
-573.704	-200.000	0.029	-0.272
-572.690	800.000	-0.089	0.264
-571.675	-200.000	-0.007	-0.457
-570.661	-200.000	0.095	-0.723
-569.646	131.162	-0.295	-0.379
-568.631	-200.000	-0.026	0.165
-567.617	120.092	0.273	0.338
-566.602	-96.872	-0.218	-0.057
-565.588	64.626	0.030	0.030
-564.573	-56.025	0.220	0.098
-563.558	-37.590	0.185	0.098
-562.544	70.380	-0.230	0.237
-561.529	-160.527	-0.176	0.009
-560.515	-104.257	0.216	-0.050
-559.500	68.763	-0.074	-0.076
-558.485	-136.328	0.196	-0.023
-557.471	-121.790	0.116	0.019
-556.456	65.362	-0.160	-0.161
-555.442	572.115	0.057	-0.138
-554.427	-8.250	0.284	-0.191
-553.412	1.703	0.052	0.037
-552.398	800.000	0.084	-0.310
-551.383	77.529	0.103	-0.110
-550.369	-120.055	0.050	-0.009
-549.354	-51.557	0.322	0.150
-548.339	219.148	0.113	-0.180
-547.325	-68.039	-0.250	-0.097
-546.310	33.619	0.129	-0.112
-545.296	800.000	0.020	-0.080
-544.281	303.600	-0.050	0.092
-543.266	-109.561	0.382	0.080
-542.252	-200.000	-0.000	-0.153
-541.237	-83.420	-0.116	0.037
-540.223	67.523	0.354	0.361
-539.208	116.249	0.053	0.065
-538.193	700.274	-0.059	0.155
-537.179	800.000	-0.072	0.314
-536.164	800.000	-0.083	0.335
-535.150	-200.000	0.009	0.077
-534.135	427.657	-0.178	-0.383
-533.121	-70.777	0.314	-0.118
-532.106	153.587	0.041	-0.056
-531.091	-57.165	-0.244	-0.107
-530.077	24.849	-0.264	0.218
-529.062	-175.278	0.165	-0.005
-528.048	78.501	-0.209	-0.223
-527.033	-98.176	0.089	-0.023
-526.018	-73.803	-0.059	-0.021
-525.004	-72.735	0.035	0.013
-523.989	-200.000	-0.014	0.204
-522.975	800.000	-0.125	-0.358
-521.960	-200.000	-0.003	-0.090
-520.945	261.212	-0.050	-0.085
-519.931	189.602	0.070	0.105
-518.916	-43.150	-0.205	-0.104
-517.902	105.644	0.256	-0.301
-516.887	-7.797	0.108	0.073
-515.872	-62.069	0.221	-0.092
-514.858	20.126	0.164	0.132
-513.843	-200.000	-0.004	0.097
-512.829	142.931	-0.047	0.062
-511.814	-200.000	-0.026	-0.169
-510.799	73.406	-0.187	-0.195
-509.785	-86.382	0.323	-0.099
-508.770	-170.210	-0.111	0.004
-507.756	-134.405	0.181	0.022
-506.741	-200.000	0.004	0.155
-505.726	298.565	-0.094	0.173
-504.712	-95.633	0.192	0.051
-503.697	182.053	0.091	0.134
-502.683	-19.353	-0.261	0.161
-501.668	-26.909	-0.229	-0.133
-500.653	633.342	0.076	0.192
-499.639	16.232	-0.138	0.109
-498.624	687.556	0.085	0.222
-497.610	-8.295	0.057	0.038
-496.595	-34.487	0.393	0.215
-495.581	114.777	-0.190	-0.231
-494.566	-200.000	0.046	0.383
-493.551	-35.851	-0.297	0.160
-492.537	-42.829	0.108	0.055
-491.522	-200.000	-0.022	-0.098
-490.508	800.000	0.025	0.098
-489.493	-87.417	-0.122	0.037
-488.478	178.031	0.290	0.422
-487.464	-200.000	0.009	0.094
-486.449	-84.992	0.230	-0.072
-485.435	383.490	0.091	0.186
-484.420	-156.905	-0.137	-0.008
-483.405	-63.386	0.312	0.128
-482.391	-79.259	0.258	-0.087
-481.376	367.001	0.082	0.165
-480.362	124.187	0.150	0.188
-479.347	-139.512	-0.304	-0.032
-478.332	45.629	-0.403	-0.371
-477.318	-200.000	-0.054	-0.301
-476.303	800.000	0.023	-0.065
-475.289	-67.760	0.292	0.114
-474.274	468.229	0.097	0.216
-473.259	800.000	0.020	0.075
-472.245	92.032	-0.176	0.198
-471.230	3.412	0.148	-0.107
-470.216	300.880	-0.098	-0.179
-469.201	-170.533	-0.120	0.004
-468.186	323.640	0.012	-0.023
-467.172	576.177	-0.062	-0.150
-466.157	94.567	0.107	0.121
-465.143	315.579	0.085	0.160
-464.128	236.204	-0.177	-0.291
-463.113	-50.156	0.176	-0.083
-462.099	-8.077	-0.277	0.186
-461.084	-200.000	0.034	-0.169
-460.070	-92.151	0.089	0.025
-459.055	-140.914	0.154	0.016
-458.040	116.231	-0.191	-0.233
-457.026	-124.148	0.046	0.007
-456.011	-200.000	-0.052	0.267
-454.997	-169.276	0.117	-0.004
-453.982	-167.755	-0.104	-0.004
-452.968	-200.000	0.044	-0.204
-451.953	-200.000	0.028	-0.242
-450.938	-141.234	0.234	0.024
-449.924	-200.000	0.088	0.491
-448.909	-33.278	-0.086	-0.048
-447.895	254.459	-0.133	0.226
-446.880	199.500	-0.062	-0.095
-445.865	-52.525	-0.141	-0.065
-444.851	177.197	-0.103	0.149
-443.836	-159.374	0.289	-0.016
-442.822	108.114	0.110	-0.130
-441.807	-78.654	-0.225	-0.076
-440.792	201.771	-0.094	0.145
-439.778	133.333	0.140	-0.180
-438.763	-200.000	0.007	0.215
-437.749	775.299	-0.058	0.158
-436.734	782.772	-0.065	-0.176
-435.719	-165.426	0.090	0.004
-434.705	35.426	-0.228	0.199
-433.690	73.217	-0.195	-0.202
-432.676	685.555	0.044	-0.115
-431.661	-100.175	-0.259	-0.064
-430.646	-19.790	-0.264	-0.162
-429.632	140.138	0.091	-0.119
-428.617	-55.760	-0.316	-0.140
-427.603	-200.000	0.006	-0.151
-426.588	-9.719	-0.154	-0.102
-425.573	-118.587	0.181	-0.032
-424.559	251.546	-0.098	-0.166
-423.544	93.120	-0.156	0.175
-422.530	531.915	-0.061	-0.143
-421.515	33.453	-0.255	-0.220
-420.500	109.915	0.166	-0.197
-419.486	13.716	-0.199	-0.154
-418.471	-15.875	-0.146	-0.092
-417.457	-121.476	0.122	-0.020
-416.442	800.000	0.041	0.120
-415.428	-86.431	0.456	0.139
-414.413	78.195	-0.166	0.176
-413.398	205.502	0.107	-0.166
-412.384	68.390	-0.083	-0.085
-411.369	-200.000	0.050	0.356
-410.355	-200.000	-0.010	0.105
-409.340	800.000	0.046	0.180
-408.325	-169.467	0.417	0.015
-407.311	-14.886	-0.143	0.091
-406.296	-145.994	0.375	0.033
-405.282	-200.000	0.029	-0.523
-404.267	129.848	-0.154	-0.196
-403.252	800.000	0.132	0.405
-402.238	-120.109	0.145	-0.025
-401.223	-200.000	0.031	0.351
-400.209	150.258	0.226	-0.304
-399.194	800.000	0.103	0.391
-398.179	75.171	0.113	-0.118
-397.165	-200.000	-0.001	-0.140
-396.150	337.450	0.121	-0.233
-395.136	-30.762	-0.289	-0.162
-394.121	115.579	0.132	-0.160
-393.106	102.983	0.064	-0.074
-392.092	-87.891	0.221	0.066
-391.077	-31.585	-0.145	-0.081
-390.063	-181.685	-0.224	-0.004
-389.048	-200.000	-0.051	-0.412
-388.033	-200.000	-0.030	-0.212
-387.019	-70.241	-0.091	0.034
-386.004	800.000	-0.083	0.245
-384.990	63.556	-0.015	-0.015
-383.975	659.338	-0.047	0.121
-382.960	800.000	0.104	-0.353
-381.946	4.096	0.331	-0.240
-380.931	382.915	-0.095	0.195
-379.917	-200.000	0.096	0.453
-378.902	-25.120	-0.151	-0.089
-377.888	105.418	-0.033	-0.038
-376.873	800.000	-0.111	-0.338
-375.858	295.691	0.035	-0.064
-374.844	165.797	-0.115	0.161
-373.829	299.838	-0.104	0.190
-372.815	-200.000	-0.009	0.093
-371.800	-147.833	-0.095	0.008
-370.785	-200.000	0.033	0.246
-369.771	24.303	0.150	-0.123
-368.756	800.000	-0.157	-0.611
-367.742	-14.066	-0.268	0.171
-366.727	-200.000	-0.015	-0.175
-365.712	17.255	0.146	-0.115
-364.698	800.000	-0.036	-0.140
-363.683	505.062	-0.114	-0.263
-362.669	-85.663	-0.208	0.064
-361.654	-129.230	0.233	-0.032
-360.639	479.929	-0.102	-0.229
-359.625	-55.341	0.304	0.135
-358.610	-91.633	0.390	0.110
-357.596	384.595	0.122	0.249
-356.581	-167.311	-0.094	0.004
-355.566	38.825	-0.081	0.072
-354.552	-200.000	0.005	0.047
-353.537	800.000	0.013	0.038
-352.523	-27.820	-0.203	-0.116
-351.508	771.782	-0.092	-0.249
-350.493	-200.000	0.003	-0.273
-349.479	-0.844	-0.221	-0.155
-348.464	509.284	-0.052	-0.119
-347.450	779.529	-0.101	-0.273
-346.435	6.616	0.044	0.033
-345.420	-19.065	0.312	-0.192
-344.406	-54.348	-0.152	0.068
-343.391	-200.000	-0.004	0.314
-342.377	800.000	-0.069	0.298
-341.362	-20.438	0.144	-0.087
-340.348	-133.922	0.379	-0.047
-339.333	-22.813	-0.253	0.151
-338.318	149.015	0.092	-0.123
-337.304	-200.000	-0.004	0.160
-336.289	-85.053	0.140	0.043
-335.275	135.768	0.239	-0.308
-334.260	-33.665	0.531	0.290
-333.245	0.084	0.095	0.067
-332.231	-200.000	0.332	-0.001
-331.216	-200.000	-0.020	-0.177
-330.202	-200.000	0.064	0.376
-329.187	31.940	-0.116	-0.099
-328.172	-74.179	-0.178	0.064
-327.158	-81.130	0.095	0.031
-326.143	-200.000	-0.023	-0.136
-325.129	-8.199	0.244	0.163
-324.114	146.768	-0.097	0.129
-323.099	800.000	0.070	-0.297
-322.085	-84.828	-0.036	-0.011
-321.070	-5.438	-0.216	-0.147
-320.056	800.000	-0.042	-0.164
-319.041	-128.046	0.244	0.035
-318.026	-151.854	-0.263	0.019
-317.012	-61.190	0.138	-0.057
-315.997	-36.045	0.255	0.136
-314.983	162.366	-0.199	0.276
-313.968	450.183	-0.065	0.143
-312.953	-200.000	-0.030	0.220
-311.939	193.951	0.098	-0.147
-310.924	-109.497	-0.253	0.053
-309.910	1.475	0.500	0.356
-308.895	-200.000	-0.012	-0.126
-307.880	416.121	-0.151	0.319
-306.866	235.128	0.138	-0.225
-305.851	-200.000	-0.003	-0.056
-304.837	-153.438	0.369	0.025
-303.822	800.000	-0.016	-0.048
-302.807	2.825	0.364	-0.261
-301.793	-141.318	-0.309	0.031
-300.778	-29.111	0.193	0.109
-299.764	-14.150	-0.052	0.033
-298.749	-200.000	0.002	-0.185
-297.735	-50.609	-0.234	0.109
-296.720	454.677	0.051	0.111
-295.705	-200.000	-0.028	0.333
-294.691	-3.335	0.078	0.054
-293.676	800.000	-0.095	0.275
-292.662	356.435	0.108	0.213
-291.647	-128.511	0.110	-0.015
-290.632	-200.000	0.020	0.215
-289.618	203.505	-0.162	0.248
-288.603	34.924	0.131	-0.114
-287.589	327.906	-0.091	-0.172
-286.574	-112.721	0.254	-0.050
-285.559	-113.358	-0.256	-0.050
-284.545	321.167	0.106	0.198
-283.530	116.278	0.059	-0.071
-282.516	-86.327	-0.163	-0.050
-281.501	420.021	0.075	0.159
-280.486	36.109	0.178	0.154
-279.472	41.486	-0.180	0.161
-278.457	496.146	0.101	0.229
-277.443	-116.194	0.456	0.084
-276.428	54.022	-0.265	0.252
-275.413	-3.369	0.102	0.070
-274.399	-141.183	-0.143	0.014
-273.384	-99.618	0.466	0.116
-272.370	-200.000	-0.022	-0.180
-271.355	-13.151	-0.202	0.130
-270.340	-96.521	-0.139	0.036
-269.326	398.177	0.073	0.151
-268.311	800.000	0.108	-0.369
-267.297	-144.682	-0.271	0.025
-266.282	19.815	0.176	-0.140
-265.267	29.117	-0.235	-0.197
-264.253	-143.026	-0.348	-0.033
-263.238	-200.000	0.037	0.219
-262.224	-84.942	0.117	0.036
-261.209	-200.000	-0.032	-0.227
-260.195	134.827	0.097	-0.124
-259.180	-8.337	0.248	0.165
-258.165	648.634	0.096	0.244
-257.151	-85.054	-0.130	0.040
-256.136	800.000	0.029	0.116
-255.122	42.083	-0.166	0.149
-254.107	-82.865	0.262	0.083
-253.092	251.390	0.079	0.133
-252.078	798.535	-0.109	0.295
-251.063	-200.000	0.020	-0.102
-250.049	800.000	-0.042	-0.166
-249.034	76.329	0.090	0.094
-248.019	-192.935	-0.233	-0.002
-247.005	-57.202	-0.055	-0.024
-245.990	-60.581	-0.398	-0.166
-244.976	192.171	-0.042	-0.063
-243.961	-113.747	0.238	0.046
-242.946	-115.958	0.071	-0.013
-241.932	-49.149	0.282	-0.133
-240.917	-69.443	-0.119	0.045
-239.903	256.913	0.098	-0.167
-238.888	93.874	-0.099	-0.110
-237.873	-76.436	0.169	-0.059
-236.859	-74.329	0.248	-0.088
-235.844	71.931	0.145	-0.148
-234.830	204.910	0.249	-0.381
-233.815	-27.223	0.238	-0.137
-232.800	-41.861	-0.324	-0.164
-231.786	-140.336	0.060	0.006
-230.771	-200.000	0.008	0.151
-229.757	-177.971	-0.385	-0.009
-228.742	-101.860	-0.137	-0.033
-227.727	-52.421	-0.049	0.022
-226.713	-157.564	-0.071	0.004
-225.698	431.010	-0.047	0.101
-224.684	5.453	0.322	-0.234
-223.669	305.069	-0.181	0.331
-222.655	588.165	0.016	-0.039
-221.640	146.626	0.030	-0.040
-220.625	-200.000	0.029	-0.159
-219.611	-135.899	-0.254	0.030
-218.596	-200.000	-0.023	0.196
-217.582	-12.634	0.057	0.037
-216.567	-116.853	0.091	0.016
-215.552	-40.432	0.194	-0.099
-214.538	137.477	-0.211	-0.273
-213.523	800.000	-0.078	0.231
-212.509	-200.000	-0.027	-0.324
-211.494	800.000	0.053	-0.191
-210.479	-113.218	0.157	-0.030
-209.465	-200.000	-0.066	0.332
-208.450	-43.884	-0.282	-0.140
-207.436	33.515	-0.036	0.031
-206.421	-170.018	0.205	-0.007
-205.406	-150.208	-0.212	0.016
-204.392	-200.000	0.021	-0.259
-203.377	-200.000	-0.042	0.448
-202.363	-149.490	0.271	-0.021
-201.348	71.934	0.122	0.125
-200.333	-134.059	-0.307	-0.037
-199.319	-32.741	-0.249	0.136
-198.304	-80.237	0.276	0.091
-197.290	131.467	-0.233	-0.295
-196.275	250.475	0.092	0.153
-195.260	-13.206	-0.173	0.110
-194.246	41.386	-0.058	0.051
-193.231	109.596	-0.164	0.194
-192.217	312.722	-0.008	-0.015
-191.202	310.808	0.070	-0.129
-190.187	-15.173	0.257	-0.162
-189.173	-19.578	-0.247	0.150
-188.158	-46.910	-0.148	-0.071
-187.144	800.000	-0.099	-0.309
-186.129	800.000	-0.058	-0.182
-185.114	318.127	0.114	0.213
-184.100	4.053	-0.145	-0.104
-183.085	-69.293	-0.116	0.044
-182.071	-165.763	0.291	0.012
-181.056	800.000	0.050	-0.194
-180.042	-200.000	-0.017	-0.219
-179.027	-133.506	-0.324	0.040
-178.012	311.435	0.188	0.346
-176.998	-200.000	0.055	0.311
-175.983	-129.550	-0.113	-0.015
-174.969	-200.000	0.012	0.124
-173.954	151.570	0.138	0.184
-172.939	32.150	0.194	-0.165
-171.925	261.143	-0.146	0.249
-170.910	-167.560	0.110	0.004
-169.896	-200.000	-0.064	-0.281
-168.881	-28.612	0.108	-0.061
-167.866	20.612	0.155	-0.123
-166.852	7.125	-0.175	-0.128
-165.837	104.987	0.177	0.206
-164.823	800.000	-0.037	-0.117
-163.808	-200.000	0.025	0.223
-162.793	-80.590	-0.445	0.146
-161.779	111.243	-0.223	-0.264
-160.764	661.253	-0.129	-0.327
-159.750	357.970	0.053	0.105
-158.735	-200.000	-0.053	0.252
-157.720	800.000	0.037	-0.128
-156.706	42.356	0.394	0.352
-155.691	-98.844	0.117	0.029
-154.677	110.652	0.160	0.189
-153.662	395.731	0.071	0.146
-152.647	61.300	-0.083	-0.082
-151.633	-110.451	0.354	0.072
-150.618	-200.000	0.052	0.383
-149.604	-129.586	0.133	-0.018
-148.589	-200.000	0.026	-0.147
-147.574	-200.000	0.005	-0.136
-146.560	-156.923	-0.273	0.016
-145.545	42.358	0.209	0.187
-144.531	-81.758	0.246	0.079
-143.516	39.409	-0.028	0.025
-142.502	272.427	-0.141	0.245
-141.487	-163.913	0.141	0.006
-140.472	800.000	0.095	-0.398
-139.458	-200.000	0.020	-0.285
-138.443	175.720	-0.171	0.244
-137.429	400.050	0.083	0.172
-136.414	107.329	-0.101	0.117
-135.399	-28.895	0.289	0.163
-134.385	800.000	-0.062	-0.267
-133.370	-200.000	0.005	-0.321
-132.356	-17.110	0.255	-0.158
-131.341	93.720	0.110	0.122
-130.326	-25.577	-0.181	-0.105
-129.312	181.978	0.133	-0.193
-128.297	393.592	-0.171	0.350
-127.283	105.466	-0.258	0.299
-126.268	5.225	-0.107	-0.078
-125.253	-41.616	-0.427	-0.216
-124.239	278.884	0.110	-0.193
-123.224	-81.370	0.329	-0.107
-122.210	-75.036	0.284	-0.100
-121.195	187.166	0.102	-0.149
