DTS Sentinel unit serial number:	SN413079Multiplexer serial number:	ORYXHardware model number:	OX4-SRSoftware version number:	ORYX F/W v4.00 Oryx Data Collector v3.7.2.0data status	okinstallation	princeton_trtdifferential loss correction	single-endedforward channel	channel 4reverse channel	N/Adate	2019/09/13time	12:09:35forward acquisition time	60.00reverse acquisition time	0.00gamma	496.2192k internal	0.2299k external	0.2299temperature offset calibration	1.0215default loss term (dB/km)	0.3790temperature slope calibration	1.0000multiplexer offset coefficient	1.0000multiplexer slope coefficient	1.0000fibre end	0.00T internal ref (°C)	33.87T ext. ref 1 (°C)	4.62T ext. ref 2 (°C)	31.18length (m)	temperature (°C)	Stokes	anti-Stokes-747.200	103.102	0.225	-0.269
-746.185	-28.067	0.075	-0.044
-745.171	241.688	-0.125	-0.213
-744.156	-97.570	0.203	-0.054
-743.142	-197.981	0.166	0.001
-742.127	-200.000	-0.023	0.256
-741.112	-32.195	-0.491	0.280
-740.098	317.626	0.084	-0.163
-739.083	-64.531	0.326	-0.135
-738.069	238.576	-0.151	-0.256
-737.054	-66.563	-0.220	0.089
-736.039	-122.367	-0.256	-0.043
-735.025	-143.379	0.064	-0.006
-734.010	3.924	-0.073	0.054
-732.996	225.332	-0.163	-0.269
-731.981	499.529	-0.158	-0.372
-730.966	-98.113	-0.215	-0.056
-729.952	264.709	-0.135	-0.240
-728.937	800.000	-0.030	-0.092
-727.923	-43.225	-0.124	-0.064
-726.908	-200.000	0.054	-0.473
-725.894	-53.361	0.080	-0.037
-724.879	97.501	-0.112	0.131
-723.864	30.322	-0.076	-0.066
-722.850	-77.366	-0.075	0.027
-721.835	800.000	0.080	-0.350
-720.821	-138.263	0.122	-0.014
-719.806	7.940	-0.215	-0.165
-718.791	515.242	0.051	0.121
-717.777	440.259	-0.006	0.014
-716.762	-16.075	-0.080	0.052
-715.748	-150.419	0.290	-0.023
-714.733	-200.000	-0.009	0.071
-713.718	-200.000	0.051	0.259
-712.704	-12.247	-0.014	-0.009
-711.689	-85.802	-0.248	-0.078
-710.675	-200.000	0.003	-0.510
-709.660	313.302	0.107	-0.205
-708.645	488.111	0.021	0.048
-707.631	-200.000	-0.006	0.068
-706.616	72.624	-0.146	0.155
-705.602	24.885	0.127	0.108
-704.587	-44.202	-0.296	0.151
-703.572	-76.481	-0.177	-0.063
-702.558	-199.206	-0.158	0.001
-701.543	-61.508	-0.224	-0.096
-700.529	134.910	-0.088	0.117
-699.514	22.981	-0.056	0.047
-698.499	4.961	0.222	-0.167
-697.485	-200.000	-0.037	-0.488
-696.470	-65.915	0.166	-0.068
-695.456	64.229	0.026	0.027
-694.441	94.664	0.225	0.261
-693.426	421.994	0.170	-0.371
-692.412	-81.103	-0.184	-0.062
-691.397	371.899	-0.075	-0.154
-690.383	74.867	0.042	0.045
-689.368	-200.000	-0.013	0.093
-688.354	-105.499	0.160	-0.037
-687.339	-104.876	0.295	-0.069
-686.324	-200.000	0.057	0.267
-685.310	36.999	0.142	0.128
-684.295	-62.541	0.201	-0.085
-683.281	800.000	-0.026	0.110
-682.266	-153.647	-0.291	0.020
-681.251	351.028	-0.104	-0.210
-680.237	57.426	0.392	-0.390
-679.222	-53.153	-0.182	-0.085
-678.208	53.093	0.069	-0.067
-677.193	-200.000	-0.078	-0.401
-676.178	85.641	-0.152	0.170
-675.164	800.000	-0.092	-0.313
-674.149	27.121	-0.098	-0.084
-673.135	-122.970	0.335	0.055
-672.120	-118.212	-0.107	0.019
-671.105	800.000	-0.093	0.384
-670.091	145.235	0.093	-0.126
-669.076	-186.144	0.096	0.001
-668.062	-55.493	-0.383	0.174
-667.047	-200.000	0.010	0.268
-666.032	-94.639	0.227	-0.063
-665.018	778.279	-0.016	-0.043
-664.003	-76.984	0.232	0.082
-662.989	-85.850	-0.132	0.042
-661.974	289.841	0.064	-0.117
-660.959	-200.000	-0.009	0.038
-659.945	-184.907	-0.223	-0.004
-658.930	-87.675	-0.420	-0.129
-657.916	192.786	-0.124	0.191
-656.901	311.757	-0.045	-0.086
-655.886	201.211	0.032	0.050
-654.872	-200.000	-0.006	-0.083
-653.857	-141.725	-0.190	-0.019
-652.843	640.574	0.124	-0.320
-651.828	16.474	-0.138	0.111
-650.814	-82.073	-0.219	-0.073
-649.799	140.426	-0.095	0.127
-648.784	-3.276	0.147	0.104
-647.770	-111.587	0.091	0.019
-646.755	-200.000	-0.011	-0.068
-645.741	26.597	-0.112	-0.095
-644.726	-156.055	0.239	0.015
-643.711	156.929	-0.047	-0.066
-642.697	-139.868	0.078	0.008
-641.682	-72.979	0.086	-0.032
-640.668	-200.000	0.004	-0.112
-639.653	225.036	0.043	-0.071
-638.638	0.329	0.141	-0.102
-637.624	-200.000	0.037	0.333
-636.609	-80.053	-0.274	-0.093
-635.595	750.748	0.142	-0.389
-634.580	84.983	-0.074	-0.082
-633.565	800.000	0.131	-0.397
-632.551	-200.000	0.003	0.121
-631.536	209.245	-0.051	0.082
-630.522	800.000	0.040	0.172
-629.507	42.511	-0.138	-0.127
-628.492	-200.000	-0.020	0.102
-627.478	175.274	-0.078	-0.115
-626.463	-200.000	-0.031	-0.176
-625.449	-200.000	-0.028	-0.222
-624.434	-200.000	-0.016	-0.401
-623.419	-133.803	-0.681	-0.086
-622.405	-46.834	-0.156	-0.077
-621.390	180.251	-0.234	-0.349
-620.376	-127.093	0.152	0.023
-619.361	-200.000	-0.008	0.337
-618.346	18.507	-0.033	-0.026
-617.332	-48.639	-0.142	0.069
-616.317	41.951	-0.048	-0.044
-615.303	-27.865	-0.180	0.106
-614.288	254.866	0.121	-0.210
-613.273	112.018	0.056	0.069
-612.259	-68.463	0.130	0.051
-611.244	-42.899	0.392	0.202
-610.230	127.157	-0.066	-0.085
-609.215	31.815	-0.202	0.176
-608.201	325.368	0.055	-0.107
-607.186	-80.216	0.136	-0.046
-606.171	405.151	0.136	-0.291
-605.157	-163.951	-0.192	-0.009
-604.142	420.497	0.023	-0.050
-603.128	-62.300	0.089	-0.038
-602.113	36.068	0.108	-0.097
-601.098	19.292	-0.169	0.138
-600.084	-200.000	-0.034	0.262
-599.069	800.000	0.044	-0.134
-598.055	216.553	-0.073	0.118
-597.040	-200.000	-0.010	0.094
-596.025	130.802	-0.139	-0.180
-595.011	78.254	-0.018	0.019
-593.996	-71.297	-0.315	-0.120
-592.982	609.869	0.019	-0.047
-591.967	-153.378	0.069	0.005
-590.952	-20.899	0.039	-0.024
-589.938	800.000	0.072	0.214
-588.923	-123.439	0.530	0.086
-587.909	-135.935	-0.512	-0.061
-586.894	-97.310	-0.052	-0.014
-585.879	800.000	-0.024	0.081
-584.865	-200.000	0.005	0.107
-583.850	114.608	0.117	0.144
-582.836	113.087	-0.204	0.250
-581.821	485.912	-0.144	0.333
-580.806	293.518	-0.120	0.222
-579.792	246.417	0.103	0.177
-578.777	643.404	-0.110	0.284
-577.763	-200.000	0.024	-0.193
-576.748	108.925	-0.152	-0.184
-575.733	192.341	-0.017	0.026
-574.719	166.451	0.098	0.140
-573.704	58.816	-0.045	0.045
-572.690	-94.940	0.451	0.124
-571.675	710.041	0.037	0.098
-570.661	-73.327	-0.334	-0.124
-569.646	-34.785	0.075	-0.042
-568.631	-15.422	0.185	-0.119
-567.617	487.130	-0.131	0.303
-566.602	-95.607	0.347	0.094
-565.588	176.859	-0.136	0.201
-564.573	-200.000	-0.033	0.153
-563.558	-58.146	0.295	0.130
-562.544	-104.544	-0.546	0.128
-561.529	-120.765	-0.203	0.035
-560.515	1.660	0.315	-0.229
-559.500	-10.884	0.209	0.140
-558.485	-10.017	0.343	0.231
-557.471	-64.705	-0.145	-0.059
-556.456	604.310	-0.059	0.148
-555.442	800.000	-0.068	0.232
-554.427	427.947	-0.057	-0.124
-553.412	149.758	-0.077	0.106
-552.398	-47.263	-0.268	-0.132
-551.383	-54.830	0.245	0.112
-550.369	-200.000	0.000	-0.121
-549.354	333.558	0.095	0.186
-548.339	-30.374	-0.108	-0.062
-547.325	-23.108	-0.072	0.044
-546.310	297.101	0.107	0.199
-545.296	-200.000	-0.014	-0.099
-544.281	54.267	0.232	-0.226
-543.266	-163.773	0.164	-0.008
-542.252	74.760	0.245	-0.261
-541.237	29.901	-0.251	0.217
-540.223	8.100	-0.209	0.159
-539.208	8.506	-0.207	0.158
-538.193	19.823	0.263	0.215
-537.179	-21.395	0.198	0.122
-536.164	536.930	0.061	-0.146
-535.150	-162.091	0.051	0.003
-534.135	800.000	0.078	-0.263
-533.121	-69.191	0.209	0.081
-532.106	-58.693	-0.118	-0.052
-531.091	125.153	-0.162	0.206
-530.077	-200.000	0.033	0.255
-529.062	-62.518	-0.252	0.106
-528.048	16.288	0.112	0.089
-527.033	800.000	0.061	0.237
-526.018	-51.053	0.209	0.099
-525.004	-4.220	0.181	0.127
-523.989	-76.881	0.280	0.099
-522.975	-200.000	-0.274	0.001
-521.960	-200.000	0.031	-0.180
-520.945	374.677	0.089	0.184
-519.931	-59.273	0.065	0.028
-518.916	-31.025	-0.247	-0.141
-517.902	-157.903	-0.381	0.023
-516.887	-61.577	-0.132	0.056
-515.872	391.446	0.084	-0.177
-514.858	493.777	-0.011	0.025
-513.843	-50.951	0.111	-0.053
-512.829	-166.077	-0.239	-0.010
-511.814	-0.461	-0.124	0.089
-510.799	25.851	-0.124	0.104
-509.785	800.000	-0.080	-0.224
-508.770	-200.000	0.005	0.068
-507.756	-200.000	-0.055	-0.357
-506.741	171.647	-0.046	0.067
-505.726	404.564	-0.051	0.108
-504.712	118.304	-0.187	0.234
-503.697	212.997	-0.095	0.151
-502.683	486.100	-0.111	-0.255
-501.668	-76.462	0.393	-0.140
-500.653	-63.221	0.064	0.027
-499.639	73.807	0.082	-0.087
-498.624	-14.548	-0.178	-0.116
-497.610	153.252	-0.082	-0.114
-496.595	-62.983	-0.156	-0.065
-495.581	-78.257	-0.128	0.045
-494.566	-200.000	-0.033	-0.185
-493.551	71.866	0.029	-0.031
-492.537	-58.959	0.335	0.146
-491.522	24.041	0.144	-0.120
-490.508	88.165	0.113	-0.127
-489.493	259.577	0.093	-0.163
-488.478	-89.782	0.056	-0.017
-487.464	-89.521	-0.139	-0.041
-486.449	147.760	0.080	-0.109
-485.435	-20.019	0.126	0.079
-484.420	800.000	0.118	-0.414
-483.405	-115.927	0.234	0.044
-482.391	800.000	0.085	-0.248
-481.376	60.034	-0.114	-0.113
-480.362	-200.000	0.021	0.222
-479.347	-45.954	-0.172	-0.086
-478.332	-161.105	0.229	-0.012
-477.318	-168.273	0.224	0.009
-476.303	-200.000	0.087	0.407
-475.289	-61.742	-0.443	-0.187
-474.274	-200.000	0.005	-0.131
-473.259	-103.669	0.298	0.071
-472.245	-200.000	-0.004	0.209
-471.230	111.535	0.119	-0.145
-470.216	800.000	-0.084	-0.319
-469.201	-200.000	-0.033	-0.187
-468.186	-18.790	0.222	0.139
-467.172	195.410	-0.192	0.295
-466.157	-200.000	0.002	0.390
-465.143	800.000	-0.006	0.019
-464.128	22.289	0.209	0.172
-463.113	351.653	0.018	-0.035
-462.099	-200.000	0.013	-0.221
-461.084	415.305	-0.116	-0.249
-460.070	-51.889	-0.145	-0.068
-459.055	-68.632	-0.154	0.060
-458.040	-57.346	-0.115	-0.051
-457.026	33.619	-0.131	0.115
-456.011	166.552	-0.103	0.147
-454.997	519.193	-0.101	0.239
-453.982	-119.288	0.162	0.029
-452.968	-11.742	0.298	-0.198
-451.953	227.504	0.084	-0.138
-450.938	46.384	-0.208	0.195
-449.924	-85.245	-0.213	-0.067
-448.909	-149.189	0.234	-0.019
-447.895	-52.358	-0.084	0.039
-446.880	92.485	0.092	0.105
-445.865	-0.201	-0.135	-0.097
-444.851	-173.274	0.216	0.007
-443.836	401.515	-0.049	-0.104
-442.822	690.879	-0.093	0.245
-441.807	13.509	0.040	-0.031
-440.792	248.033	-0.070	0.120
-439.778	-30.666	-0.202	-0.115
-438.763	-200.000	-0.274	0.001
-437.749	-76.717	-0.042	0.015
-436.734	-200.000	-0.050	0.362
-435.719	-200.000	-0.031	-0.267
-434.705	-103.159	-0.255	0.061
-433.690	-138.289	0.256	-0.029
-432.676	800.000	0.059	-0.209
-431.661	-198.592	-0.407	0.002
-430.646	-200.000	-0.177	0.001
-429.632	800.000	-0.085	-0.342
-428.617	389.597	-0.167	-0.348
-427.603	489.925	0.124	0.285
-426.588	-140.695	0.224	0.023
-425.573	-15.912	0.154	0.099
-424.559	590.056	0.017	-0.043
-423.544	-173.258	-0.383	-0.012
-422.530	-168.995	-0.119	-0.004
-421.515	12.288	-0.143	-0.111
-420.500	-5.825	-0.398	-0.274
-419.486	-5.752	0.270	-0.186
-418.471	18.686	0.099	0.080
-417.457	40.481	0.188	0.170
-416.442	-95.625	0.174	-0.047
-415.428	-200.000	-0.013	-0.130
-414.413	-39.732	0.140	0.074
-413.398	-200.000	-0.002	0.341
-412.384	442.708	0.074	-0.163
-411.369	-98.994	0.323	-0.083
-410.355	181.098	0.033	0.049
-409.340	-77.220	-0.056	-0.019
-408.325	-93.478	-0.207	-0.058
-407.311	-137.879	0.227	-0.026
-406.296	-200.000	-0.058	-0.356
-405.282	176.873	-0.139	0.203
-404.267	0.633	0.056	0.041
-403.252	-31.145	0.189	-0.107
-402.238	-27.941	-0.114	0.067
-401.223	800.000	0.031	0.123
-400.209	104.726	-0.310	-0.367
-399.194	234.682	-0.164	-0.273
-398.179	-135.092	-0.197	0.024
-397.165	-200.000	-0.006	-0.064
-396.150	9.519	0.270	0.206
-395.136	-94.556	0.093	-0.026
-394.121	83.386	0.095	0.104
-393.106	357.928	-0.185	-0.371
-392.092	800.000	-0.129	-0.492
-391.077	-58.717	-0.190	-0.083
-390.063	-46.805	0.160	0.079
-389.048	9.925	-0.160	0.122
-388.033	-107.122	-0.285	0.063
-387.019	-200.000	-0.012	-0.216
-386.004	527.322	-0.081	-0.193
-384.990	-200.000	-0.012	-0.267
-383.975	35.822	0.128	0.113
-382.960	-147.251	0.126	0.011
-381.946	525.425	-0.081	0.193
-380.931	28.241	-0.151	0.128
-379.917	384.502	-0.089	-0.185
-378.902	-66.207	0.162	-0.065
-377.888	-69.954	-0.118	-0.045
-376.873	800.000	0.057	-0.173
-375.858	-1.858	-0.143	-0.101
-374.844	-139.961	0.163	0.017
-373.829	800.000	0.029	0.106
-372.815	129.998	-0.237	-0.304
-371.800	171.984	0.236	-0.342
-370.785	44.258	0.092	-0.085
-369.771	-200.000	0.036	0.285
-368.756	296.355	-0.144	-0.265
-367.742	-200.000	-0.020	-0.168
-366.727	56.554	0.207	-0.202
-365.712	800.000	-0.075	0.225
-364.698	30.963	-0.296	0.255
-363.683	565.055	0.153	-0.372
-362.669	-127.780	0.084	-0.012
-361.654	18.524	0.027	0.022
-360.639	-23.904	-0.173	0.104
-359.625	800.000	-0.036	-0.129
-358.610	44.587	0.287	-0.265
-357.596	-7.723	-0.304	0.206
-356.581	-0.424	-0.146	-0.104
-355.566	291.286	0.056	0.102
-354.552	366.073	0.116	0.235
-353.537	-200.000	0.028	0.405
-352.523	84.327	0.109	-0.119
-351.508	-63.571	0.199	0.082
-350.493	154.131	-0.215	0.297
-349.479	800.000	0.019	-0.078
-348.464	154.006	-0.051	-0.071
-347.450	178.747	0.118	0.173
-346.435	-41.939	-0.194	0.100
-345.420	800.000	-0.021	0.067
-344.406	800.000	-0.129	-0.424
-343.391	-200.000	0.034	0.245
-342.377	-0.272	-0.186	-0.133
-341.362	-200.000	-0.002	-0.289
-340.348	318.900	-0.126	0.239
-339.333	-70.685	-0.203	0.077
-338.318	-200.000	0.004	0.026
-337.304	-8.617	-0.097	0.066
-336.289	-33.247	0.148	0.082
-335.275	-87.040	-0.363	0.111
-334.260	-141.739	0.255	-0.026
-333.245	565.549	-0.108	-0.264
-332.231	-74.668	-0.360	0.130
-331.216	-200.000	0.009	0.103
-330.202	800.000	0.053	-0.157
-329.187	800.000	-0.085	0.336
-328.172	-138.765	0.273	0.030
-327.158	-13.225	0.076	-0.050
-326.143	31.898	0.282	-0.244
-325.129	109.175	-0.118	0.142
-324.114	199.374	0.066	0.102
-323.099	-159.259	-0.018	0.001
-322.085	-200.000	-0.007	0.238
-321.070	-117.070	0.328	0.060
-320.056	-104.111	0.157	0.037
-319.041	-80.119	0.375	-0.126
-318.026	-66.683	0.088	-0.035
-317.012	-99.825	-0.123	0.031
-315.997	-200.000	0.086	0.526
-314.983	-200.000	-0.003	0.180
-313.968	-32.170	-0.030	0.017
-312.953	800.000	0.042	-0.118
-311.939	-200.000	-0.018	-0.257
-310.924	-5.710	-0.122	-0.084
-309.910	17.898	0.164	0.131
-308.895	-49.212	-0.380	0.182
-307.880	-107.176	0.126	0.028
-306.866	-18.058	0.164	-0.103
-305.851	190.386	-0.128	-0.192
-304.837	236.822	0.137	-0.228
-303.822	-51.855	0.201	-0.094
-302.807	-200.000	-0.015	0.125
-301.793	-200.000	0.042	-0.269
-300.778	221.548	0.200	0.322
-299.764	73.870	0.119	0.125
-298.749	800.000	-0.112	-0.392
-297.735	-32.472	-0.197	0.110
-296.720	-200.000	-0.053	0.266
-295.705	-200.000	0.011	0.081
-294.691	127.423	-0.078	-0.099
-293.676	-30.567	-0.064	-0.037
-292.662	-78.720	0.186	-0.064
-291.647	85.713	-0.062	-0.068
-290.632	-85.777	0.094	0.029
-289.618	-77.239	-0.170	-0.059
-288.603	-0.081	-0.293	0.209
-287.589	-72.614	0.230	0.085
-286.574	-130.320	0.223	0.030
-285.559	800.000	-0.111	-0.407
-284.545	-142.592	-0.095	-0.009
-283.530	-144.170	0.390	0.037
-282.516	338.484	0.028	-0.054
-281.501	-117.496	-0.122	-0.022
-280.486	-110.355	-0.126	0.026
-279.472	-95.079	0.316	-0.086
-278.457	-54.932	-0.205	-0.093
-277.443	-140.420	0.110	-0.011
-276.428	-3.772	0.193	-0.134
-275.413	-15.260	-0.192	-0.123
-274.399	800.000	-0.087	-0.274
-273.384	-92.876	-0.142	0.040
-272.370	513.699	0.117	0.273
-271.355	-19.396	-0.038	0.023
-270.340	-200.000	-0.026	-0.198
-269.326	22.815	-0.044	-0.036
-268.311	-67.885	-0.150	-0.059
-267.297	-200.000	0.061	0.410
-266.282	138.551	0.085	-0.111
-265.267	116.860	0.383	-0.471
-264.253	90.115	0.128	-0.143
-263.238	-46.744	0.241	0.118
-262.224	-29.930	-0.188	-0.107
-261.209	-9.717	-0.218	0.145
-260.195	-200.000	0.007	0.244
-259.180	-200.000	0.007	0.147
-258.165	-200.000	-0.019	-0.109
-257.151	-164.259	0.475	0.022
-256.136	-200.000	0.015	0.086
-255.122	-124.088	-0.343	0.054
-254.107	-98.528	-0.159	-0.041
-253.092	110.196	0.145	0.174
-252.078	-195.100	-0.062	-0.000
-251.063	72.207	0.117	0.122
-250.049	102.899	0.315	0.369
-249.034	800.000	-0.057	-0.175
-248.019	-65.708	0.086	0.034
-247.005	-15.504	0.198	-0.127
-245.990	800.000	-0.076	0.268
-244.976	14.419	0.098	0.076
-243.961	-48.340	-0.168	-0.081
-242.946	-200.000	0.011	-0.371
-241.932	-49.351	-0.123	-0.059
-240.917	-168.885	0.022	0.001
-239.903	-200.000	0.016	0.456
-238.888	-200.000	0.010	-0.063
-237.873	-42.613	-0.100	-0.051
-236.859	66.505	-0.095	0.097
-235.844	-7.417	-0.173	-0.117
-234.830	70.110	0.107	0.110
-233.815	-200.000	0.003	-0.200
-232.800	191.908	-0.023	-0.035
-231.786	-70.133	-0.060	0.023
-230.771	-28.695	0.065	0.037
-229.757	532.178	0.056	0.133
-228.742	66.977	0.153	-0.156
-227.727	-45.396	0.136	0.067
-226.713	-200.000	-0.032	0.222
-225.698	120.657	0.148	0.183
-224.684	29.241	-0.174	0.148
-223.669	-200.000	-0.013	-0.134
-222.655	83.815	-0.071	0.078
-221.640	689.156	0.034	0.088
-220.625	18.593	-0.115	0.092
-219.611	221.649	0.038	0.061
-218.596	800.000	0.049	-0.184
-217.582	-200.000	0.008	0.066
-216.567	79.512	-0.077	0.083
-215.552	-154.283	0.253	-0.017
-214.538	90.694	0.060	-0.067
-213.523	38.374	0.227	-0.202
-212.509	36.256	-0.116	-0.102
-211.494	800.000	-0.037	-0.112
-210.479	-37.198	-0.166	0.089
-209.465	294.387	-0.034	-0.061
-208.450	-9.824	0.067	-0.044
-207.436	177.219	0.061	-0.088
-206.421	168.485	-0.152	0.216
-205.406	-71.876	0.049	-0.018
-204.392	391.080	0.048	-0.100
-203.377	-160.501	0.291	0.016
-202.363	99.202	-0.072	-0.083
-201.348	-144.700	0.226	-0.021
-200.333	132.481	0.126	-0.163
-199.319	-196.367	-0.048	-0.000
-198.304	436.201	-0.087	0.189
-197.290	153.640	-0.199	-0.273
-196.275	-155.885	0.285	-0.018
-195.260	-158.726	0.208	-0.012
-194.246	155.224	-0.097	0.133
-193.231	47.081	0.185	0.171
-192.217	-200.000	-0.007	-0.397
-191.202	18.496	0.224	0.179
-190.187	-101.738	-0.163	0.039
-189.173	-126.557	-0.236	-0.035
-188.158	437.678	-0.076	0.166
-187.144	-200.000	-0.031	-0.231
-186.129	-48.629	0.236	-0.113
-185.114	272.771	-0.181	0.320
-184.100	301.430	-0.112	0.207
-183.085	-200.000	-0.001	-0.041
-182.071	800.000	-0.073	-0.249
-181.056	-87.844	-0.423	0.127
-180.042	77.002	-0.145	0.154
-179.027	83.809	0.214	0.233
-178.012	148.260	0.077	0.103
-176.998	-200.000	0.051	-0.268
-175.983	-98.826	0.277	0.070
-174.969	-122.830	0.156	0.025
-173.954	-77.648	-0.176	0.061
-172.939	-36.663	-0.104	0.056
-171.925	475.182	-0.047	0.106
-170.910	123.259	-0.158	-0.198
-169.896	121.360	-0.084	0.104
-168.881	-144.042	0.247	0.023
-167.866	20.063	-0.275	-0.221
-166.852	79.772	-0.117	-0.126
-165.837	-72.388	0.336	0.124
-164.823	-156.505	0.404	-0.025
-163.808	269.547	0.163	-0.286
-162.793	678.493	0.076	-0.197
-161.779	363.469	-0.132	-0.266
-160.764	-22.855	0.275	0.165
-159.750	-44.566	0.068	-0.034
-158.735	158.785	0.267	0.370
-157.720	800.000	-0.153	0.425
-156.706	-80.680	-0.036	-0.012
-155.691	197.804	-0.041	0.062
-154.677	18.985	0.063	0.050
-153.662	-171.960	-0.195	0.006
-152.647	14.593	-0.234	0.182
-151.633	-147.099	0.091	0.008
-150.618	-200.000	0.012	-0.135
-149.604	148.601	0.050	-0.067
-148.589	499.343	-0.044	0.102
-147.574	-82.668	-0.233	0.075
-146.560	228.306	0.156	-0.253
-145.545	-85.821	0.215	0.066
-144.531	-45.076	-0.353	0.175
-143.516	-36.380	0.319	0.171
-142.502	-68.029	0.170	-0.066
-141.487	-162.585	0.415	0.020
-140.472	-200.000	-0.002	-0.019
-139.458	-11.241	-0.241	-0.158
-138.443	321.126	-0.034	-0.065
-137.429	-46.306	0.262	0.128
-136.414	-138.773	0.134	-0.015
-135.399	-200.000	0.071	0.507
-134.385	-1.763	0.268	-0.188
-133.370	-102.619	0.182	0.043
-132.356	-111.884	-0.400	-0.081
-131.341	6.273	0.272	0.201
-130.326	-33.275	-0.401	0.221
-129.312	-200.000	0.023	0.300
-128.297	-141.563	0.201	-0.020
-127.283	114.902	0.084	-0.102
-126.268	92.928	-0.137	-0.154
-125.253	783.749	-0.103	-0.280
-124.239	352.951	0.111	0.220
-123.224	114.279	-0.166	0.201
-122.210	800.000	0.051	0.185
-121.195	-62.189	0.038	0.016
