DTS Sentinel unit serial number:	SN413079Multiplexer serial number:	ORYXHardware model number:	OX4-SRSoftware version number:	ORYX F/W v4.00 Oryx Data Collector v3.7.2.0data status	okinstallation	princeton_trtdifferential loss correction	single-endedforward channel	channel 4reverse channel	N/Adate	2019/09/14time	21:45:35forward acquisition time	60.00reverse acquisition time	0.00gamma	496.2192k internal	0.2306k external	0.2306temperature offset calibration	1.0071default loss term (dB/km)	0.3790temperature slope calibration	1.0000multiplexer offset coefficient	1.0000multiplexer slope coefficient	1.0000fibre end	0.00T internal ref (°C)	32.77T ext. ref 1 (°C)	4.74T ext. ref 2 (°C)	27.71length (m)	temperature (°C)	Stokes	anti-Stokes-747.200	44.154	-0.151	0.141
-746.185	31.907	0.174	0.152
-745.171	-109.160	0.420	-0.091
-744.156	242.580	0.182	0.309
-743.142	95.056	-0.206	-0.239
-742.127	165.215	-0.305	0.439
-741.112	-42.969	-0.118	-0.061
-740.098	800.000	-0.091	0.347
-739.083	-30.395	0.300	-0.173
-738.069	14.599	0.017	-0.014
-737.054	-2.593	0.280	0.200
-736.039	-170.397	-0.262	0.009
-735.025	518.585	-0.021	-0.050
-734.010	-200.000	0.028	-0.324
-732.996	312.751	0.068	-0.130
-731.981	-45.645	-0.370	-0.186
-730.966	-142.647	-0.356	-0.035
-729.952	248.102	0.135	-0.232
-728.937	25.121	-0.180	-0.152
-727.923	59.936	0.175	0.176
-726.908	191.021	0.088	0.135
-725.894	-75.059	-0.189	-0.069
-724.879	226.251	-0.132	-0.217
-723.864	233.908	-0.111	0.185
-722.850	-89.832	-0.319	-0.095
-721.835	-62.579	0.128	0.054
-720.821	35.400	-0.102	-0.091
-719.806	-111.734	-0.200	-0.041
-718.791	-200.000	-0.171	-0.001
-717.777	121.117	0.076	-0.096
-716.762	-197.845	-0.353	-0.002
-715.748	370.250	0.086	0.177
-714.733	-162.275	0.247	0.013
-713.718	198.342	0.093	-0.145
-712.704	-125.692	-0.349	0.054
-711.689	-1.142	0.238	0.171
-710.675	-200.000	-0.057	-0.370
-709.660	800.000	-0.018	-0.067
-708.645	-106.125	0.371	-0.085
-707.631	192.161	0.163	-0.250
-706.616	84.500	-0.133	-0.148
-705.602	-79.575	0.135	-0.046
-704.587	-81.820	-0.298	-0.099
-703.572	272.102	0.079	0.141
-702.558	-121.942	-0.157	-0.026
-701.543	272.339	0.156	-0.279
-700.529	295.914	-0.205	-0.382
-699.514	800.000	0.065	-0.213
-698.499	-52.802	-0.233	0.109
-697.485	-144.671	0.068	-0.006
-696.470	-90.122	0.266	0.079
-695.456	141.595	-0.132	-0.177
-694.441	224.548	-0.050	-0.082
-693.426	102.395	0.128	0.152
-692.412	-62.234	-0.124	-0.052
-691.397	800.000	-0.065	0.269
-690.383	-47.982	0.138	-0.068
-689.368	-28.763	0.114	0.067
-688.354	-115.367	-0.364	-0.070
-687.339	-172.200	-0.286	0.009
-686.324	199.393	-0.032	-0.050
-685.310	97.203	0.311	-0.363
-684.295	329.330	0.013	0.025
-683.281	-200.000	-0.032	-0.167
-682.266	-29.851	-0.154	0.089
-681.251	-46.499	0.297	-0.148
-680.237	-82.602	0.108	0.035
-679.222	23.833	0.394	-0.330
-678.208	-2.522	0.271	-0.193
-677.193	70.517	-0.092	-0.097
-676.178	666.763	0.041	-0.108
-675.164	-200.000	0.011	0.131
-674.149	6.647	0.063	-0.048
-673.135	800.000	-0.061	-0.171
-672.120	0.533	-0.342	-0.248
-671.105	-200.000	-0.010	0.173
-670.091	58.265	-0.269	0.268
-669.076	-66.069	0.194	0.079
-668.062	-200.000	-0.008	-0.304
-667.047	-200.000	-0.024	-0.181
-666.032	151.448	-0.099	-0.137
-665.018	-116.882	-0.251	-0.047
-664.003	-200.000	0.012	0.057
-662.989	178.191	0.215	-0.318
-661.974	15.542	-0.016	-0.013
-660.959	233.272	0.072	-0.120
-659.945	800.000	-0.051	-0.179
-658.930	-63.494	0.309	0.129
-657.916	79.055	-0.043	0.047
-656.901	224.948	0.107	0.175
-655.886	-2.184	-0.210	-0.149
-654.872	-77.585	0.207	-0.073
-653.857	-87.257	-0.146	-0.045
-652.843	-78.888	-0.303	-0.105
-651.828	800.000	-0.084	-0.339
-650.814	-5.847	-0.157	-0.109
-649.799	-122.456	-0.293	0.048
-648.784	800.000	0.064	-0.235
-647.770	56.138	0.096	-0.094
-646.755	800.000	0.045	-0.137
-645.741	166.723	-0.145	-0.208
-644.726	46.442	-0.208	-0.196
-643.711	-131.341	-0.199	0.027
-642.697	2.593	0.178	-0.131
-641.682	57.541	-0.027	0.027
-640.668	-37.408	-0.086	-0.047
-639.653	261.524	-0.122	0.215
-638.638	238.300	0.114	-0.192
-637.624	-200.000	0.002	0.189
-636.609	800.000	-0.003	-0.014
-635.595	128.486	0.291	-0.376
-634.580	800.000	0.090	0.315
-633.565	677.189	0.028	-0.073
-632.551	-200.000	0.001	0.106
-631.536	-66.068	0.293	0.118
-630.522	-200.000	-0.024	-0.149
-629.507	309.811	0.100	-0.190
-628.492	703.355	-0.051	-0.135
-627.478	-200.000	0.001	-0.069
-626.463	-140.239	0.352	0.037
-625.449	131.146	-0.158	-0.206
-624.434	-102.228	0.285	0.069
-623.419	800.000	0.063	0.231
-622.405	25.930	0.123	0.104
-621.390	239.805	-0.240	-0.405
-620.376	-13.907	-0.221	-0.145
-619.361	-200.000	0.018	-0.267
-618.346	-200.000	0.030	0.210
-617.332	-60.362	0.379	0.163
-616.317	198.803	0.138	0.214
-615.303	-200.000	-0.018	0.160
-614.288	306.819	-0.145	0.274
-613.273	-33.404	0.326	0.182
-612.259	-76.301	0.060	0.021
-611.244	320.655	0.041	0.079
-610.230	39.504	-0.279	-0.253
-609.215	-10.378	-0.219	-0.147
-608.201	369.495	-0.114	-0.234
-607.186	-16.154	0.053	0.034
-606.171	-55.627	-0.168	0.076
-605.157	-79.374	0.277	0.095
-604.142	63.041	-0.042	0.043
-603.128	-200.000	-0.032	-0.319
-602.113	-53.106	-0.172	-0.080
-601.098	289.440	0.155	-0.284
-600.084	466.580	0.175	0.396
-599.069	-155.562	-0.238	-0.016
-598.055	-48.516	-0.097	0.047
-597.040	-200.000	-0.007	0.134
-596.025	-101.452	0.159	-0.039
-595.011	0.038	-0.328	-0.237
-593.996	-200.000	-0.032	-0.201
-592.982	-130.808	-0.190	-0.026
-591.967	-63.478	0.199	-0.083
-590.952	-108.546	0.162	0.035
-589.938	7.094	-0.149	0.112
-588.923	-7.793	0.240	-0.164
-587.909	-47.450	0.230	-0.113
-586.894	-79.559	0.098	-0.033
-585.879	21.690	0.116	-0.095
-584.865	229.107	-0.066	0.109
-583.850	-63.295	-0.138	-0.058
-582.836	-71.972	0.178	0.067
-581.821	-125.278	-0.259	-0.040
-580.806	329.752	0.057	0.112
-579.792	124.709	0.018	-0.023
-578.777	-200.000	-0.062	-0.382
-577.763	115.404	-0.172	0.212
-576.748	-88.094	0.195	0.059
-575.733	-200.000	-0.006	0.083
-574.719	-163.148	-0.239	-0.012
-573.704	-32.863	-0.156	-0.088
-572.690	800.000	-0.057	0.174
-571.675	102.784	-0.037	0.044
-570.661	-72.936	-0.102	-0.038
-569.646	-200.000	-0.028	0.288
-568.631	-8.111	-0.277	0.189
-567.617	467.394	0.155	0.351
-566.602	361.273	-0.018	0.036
-565.588	-200.000	0.009	-0.165
-564.573	-103.646	-0.042	0.010
-563.558	96.984	0.284	0.329
-562.544	128.998	-0.123	0.158
-561.529	375.494	-0.063	-0.131
-560.515	179.371	-0.039	-0.058
-559.500	-38.608	-0.183	-0.098
-558.485	800.000	-0.135	-0.416
-557.471	-91.329	0.070	-0.020
-556.456	-35.572	0.103	0.057
-555.442	41.601	-0.183	-0.167
-554.427	800.000	-0.020	-0.066
-553.412	800.000	0.067	-0.208
-552.398	-132.143	0.413	-0.054
-551.383	800.000	0.100	-0.304
-550.369	800.000	0.038	-0.123
-549.354	225.605	-0.117	-0.192
-548.339	-1.949	0.205	0.146
-547.325	-93.450	0.068	-0.019
-546.310	-200.000	0.034	-0.393
-545.296	235.883	0.111	-0.186
-544.281	424.486	-0.061	-0.131
-543.266	-200.000	0.051	-0.288
-542.252	-200.000	-0.005	-0.184
-541.237	-98.980	-0.054	-0.014
-540.223	35.469	0.012	-0.011
-539.208	-20.273	0.107	-0.066
-538.193	-200.000	-0.155	-0.000
-537.179	-158.078	-0.155	-0.009
-536.164	74.785	0.114	-0.121
-535.150	-55.209	0.179	-0.081
-534.135	800.000	-0.086	-0.330
-533.121	391.817	-0.090	-0.189
-532.106	800.000	-0.006	-0.024
-531.091	704.326	0.058	0.155
-530.077	-138.205	0.312	-0.035
-529.062	-200.000	0.019	0.191
-528.048	-54.832	-0.152	0.069
-527.033	22.219	-0.073	0.060
-526.018	35.335	-0.148	-0.131
-525.004	-200.000	0.010	-0.355
-523.989	93.352	0.152	0.173
-522.975	-67.364	0.205	-0.081
-521.960	111.873	-0.070	-0.086
-520.945	-200.000	0.007	0.113
-519.931	152.776	-0.031	-0.042
-518.916	670.150	-0.078	0.205
-517.902	106.382	0.147	-0.176
-516.887	800.000	-0.031	0.094
-515.872	-122.047	-0.158	0.026
-514.858	-180.558	0.364	0.008
-513.843	-49.526	-0.349	0.167
-512.829	-200.000	-0.000	-0.109
-511.814	236.842	-0.061	-0.103
-510.799	650.930	0.097	-0.251
-509.785	-2.507	0.157	-0.111
-508.770	20.896	0.091	0.075
-507.756	-25.112	0.075	0.045
-506.741	-200.000	0.001	0.070
-505.726	-153.448	-0.319	0.022
-504.712	-143.282	0.552	-0.053
-503.697	678.446	-0.055	-0.144
-502.683	169.417	0.199	-0.287
-501.668	380.141	0.222	-0.458
-500.653	11.098	-0.096	-0.074
-499.639	-39.609	-0.248	-0.131
-498.624	783.279	0.102	0.281
-497.610	-39.805	-0.027	0.014
-496.595	-120.101	0.152	0.026
-495.581	-28.570	0.249	-0.144
-494.566	-2.963	-0.156	-0.110
-493.551	351.065	0.124	0.247
-492.537	800.000	0.110	0.386
-491.522	17.790	-0.200	0.160
-490.508	-73.862	0.085	-0.031
-489.493	157.218	0.144	0.200
-488.478	70.648	-0.231	-0.240
-487.464	-103.724	0.349	0.082
-486.449	12.239	-0.128	0.099
-485.435	-94.043	-0.157	-0.044
-484.420	800.000	-0.022	0.076
-483.405	800.000	-0.108	0.453
-482.391	-200.000	-0.037	-0.238
-481.376	800.000	0.065	-0.252
-480.362	-8.440	-0.209	0.141
-479.347	800.000	-0.015	-0.052
-478.332	-161.701	-0.098	0.005
-477.318	-46.100	-0.148	-0.073
-476.303	75.753	0.037	0.040
-475.289	534.308	0.014	0.035
-474.274	28.319	0.236	-0.201
-473.259	139.023	0.161	0.213
-472.245	-200.000	0.000	-0.023
-471.230	228.273	-0.092	-0.150
-470.216	62.376	-0.052	0.052
-469.201	-93.201	-0.199	-0.056
-468.186	-200.000	0.011	0.056
-467.172	22.593	0.137	-0.113
-466.157	-200.000	0.020	-0.162
-465.143	-95.797	0.171	-0.046
-464.128	29.816	-0.234	-0.200
-463.113	800.000	-0.066	0.194
-462.099	78.835	0.170	0.183
-461.084	94.055	0.278	0.318
-460.070	459.716	-0.109	0.244
-459.055	221.407	0.111	-0.179
-458.040	-200.000	0.016	-0.285
-457.026	349.718	-0.092	-0.183
-456.011	-200.000	0.027	-0.158
-454.997	-123.061	-0.106	0.017
-453.982	-200.000	0.098	0.561
-452.968	119.584	-0.148	0.185
-451.953	-112.918	0.171	-0.034
-450.938	-116.404	-0.339	-0.063
-449.924	110.719	-0.059	-0.072
-448.909	-65.251	-0.102	-0.041
-447.895	-109.980	0.191	-0.040
-446.880	57.552	0.098	0.097
-445.865	372.706	0.110	-0.224
-444.851	-109.172	-0.136	-0.029
-443.836	-128.257	0.074	0.011
-442.822	-200.000	-0.021	-0.200
-441.807	-30.438	0.195	-0.111
-440.792	800.000	-0.053	-0.167
-439.778	-118.416	0.309	0.055
-438.763	-109.992	-0.309	0.065
-437.749	172.003	-0.211	0.305
-436.734	-126.139	0.050	-0.007
-435.719	800.000	-0.060	0.186
-434.705	415.625	-0.044	-0.094
-433.690	-79.749	-0.074	-0.025
-432.676	83.468	-0.090	0.099
-431.661	454.947	-0.121	-0.271
-430.646	15.657	-0.240	-0.190
-429.632	27.432	0.167	-0.141
-428.617	-200.000	-0.016	0.338
-427.603	-200.000	-0.057	0.382
-426.588	-33.471	0.232	-0.129
-425.573	-13.959	-0.325	0.211
-424.559	-31.122	-0.238	-0.135
-423.544	-200.000	-0.009	-0.133
-422.530	800.000	-0.081	0.350
-421.515	-113.694	0.095	0.019
-420.500	-6.917	0.116	0.079
-419.486	-148.058	0.354	-0.029
-418.471	-200.000	-0.026	-0.266
-417.457	-39.124	-0.228	0.121
-416.442	-200.000	-0.038	0.169
-415.428	121.004	0.169	0.212
-414.413	185.650	-0.032	-0.048
-413.398	-79.820	0.130	0.044
-412.384	109.102	0.095	-0.115
-411.369	123.635	0.070	-0.088
-410.355	-200.000	0.010	-0.061
-409.340	-0.495	0.133	0.095
-408.325	-200.000	-0.009	-0.067
-407.311	800.000	-0.048	-0.134
-406.296	-70.747	-0.211	-0.080
-405.282	-97.921	-0.319	-0.083
-404.267	-19.387	-0.278	-0.173
-403.252	16.907	0.013	-0.010
-402.238	-1.437	0.047	0.033
-401.223	-51.318	0.017	0.008
-400.209	540.085	-0.172	0.411
-399.194	26.989	0.298	-0.251
-398.179	-185.301	0.195	0.003
-397.165	-100.346	0.319	-0.079
-396.150	800.000	0.025	-0.092
-395.136	-19.120	0.145	0.091
-394.121	255.100	-0.068	-0.117
-393.106	184.032	0.174	0.259
-392.092	195.832	-0.078	-0.118
-391.077	512.684	-0.083	-0.194
-390.063	-200.000	-0.008	-0.035
-389.048	85.360	-0.220	0.242
-388.033	-117.736	0.287	0.052
-387.019	93.807	-0.073	0.083
-386.004	295.746	0.037	0.068
-384.990	-200.000	-0.027	0.169
-383.975	373.187	-0.100	0.204
-382.960	-26.323	0.336	0.198
-381.946	119.285	-0.066	-0.082
-380.931	165.891	0.372	0.529
-379.917	-26.874	-0.296	-0.174
-378.902	800.000	0.079	-0.245
-377.888	31.556	0.199	0.171
-376.873	52.593	0.112	0.107
-375.858	494.247	0.042	0.096
-374.844	-133.281	0.026	0.003
-373.829	-31.963	0.073	-0.041
-372.815	171.522	-0.176	-0.253
-371.800	-26.900	-0.221	-0.130
-370.785	10.016	-0.230	0.175
-369.771	326.129	0.135	-0.258
-368.756	-57.752	-0.166	-0.073
-367.742	-49.120	-0.225	-0.108
-366.727	59.363	-0.256	-0.253
-365.712	96.257	0.102	0.117
-364.698	189.875	0.135	0.203
-363.683	122.223	0.204	0.256
-362.669	-141.516	-0.274	0.028
-361.654	-10.473	0.230	-0.153
-360.639	-200.000	-0.019	0.118
-359.625	23.933	0.153	-0.127
-358.610	-200.000	-0.075	-0.430
-357.596	-200.000	0.002	-0.217
-356.581	-107.966	-0.225	-0.049
-355.566	-61.504	-0.187	-0.079
-354.552	-15.698	0.204	-0.131
-353.537	-84.466	0.301	0.095
-352.523	780.415	-0.061	0.167
-351.508	191.358	-0.132	0.200
-350.493	-109.501	0.604	0.128
-349.479	476.561	0.109	0.247
-348.464	-104.896	0.159	0.036
-347.450	-200.000	-0.081	0.403
-346.435	-1.379	-0.176	0.124
-345.420	-50.660	-0.145	-0.068
-344.406	800.000	0.024	-0.103
-343.391	407.489	-0.091	0.193
-342.377	91.797	0.091	0.103
-341.362	242.428	0.284	0.477
-340.348	-5.748	-0.152	-0.104
-339.333	19.447	-0.302	0.243
-338.318	32.620	0.193	0.167
-337.304	-117.327	0.252	-0.046
-336.289	705.380	0.088	-0.234
-335.275	-200.000	-0.011	0.130
-334.260	-200.000	-0.127	-0.001
-333.245	-200.000	0.042	0.190
-332.231	-135.616	0.148	-0.018
-331.216	-200.000	0.017	0.231
-330.202	-200.000	0.030	-0.162
-329.187	-127.777	0.107	0.015
-328.172	118.436	0.214	-0.264
-327.158	-127.367	-0.193	-0.028
-326.143	-25.622	-0.311	-0.184
-325.129	121.411	0.205	-0.255
-324.114	-178.522	-0.365	0.008
-323.099	-200.000	0.060	-0.277
-322.085	139.820	-0.043	-0.057
-321.070	-200.000	-0.078	0.425
-320.056	557.658	-0.047	-0.113
-319.041	436.601	0.164	0.358
-318.026	272.102	0.099	0.174
-317.012	-200.000	0.005	0.219
-315.997	-29.530	-0.101	0.058
-314.983	-8.337	-0.272	-0.183
-313.968	-200.000	0.025	-0.309
-312.953	-200.000	-0.038	0.181
-311.939	-51.209	-0.234	0.110
-310.924	-200.000	-0.094	-0.428
-309.910	800.000	-0.104	0.437
-308.895	581.310	-0.126	0.309
-307.880	92.870	-0.146	-0.165
-306.866	52.104	-0.227	-0.216
-305.851	192.990	-0.080	-0.121
-304.837	272.799	0.112	0.197
-303.822	703.102	-0.123	-0.325
-302.807	193.913	0.275	-0.417
-301.793	87.121	0.113	-0.125
-300.778	-169.018	-0.407	-0.015
-299.764	-200.000	-0.013	-0.302
-298.749	25.706	0.141	-0.117
-297.735	197.600	-0.112	-0.170
-296.720	19.521	0.148	-0.119
-295.705	-14.429	0.273	-0.176
-294.691	-181.862	0.339	-0.006
-293.676	151.672	-0.100	-0.136
-292.662	-153.364	0.246	0.017
-291.647	-200.000	0.018	-0.184
-290.632	-129.497	-0.079	0.011
-289.618	800.000	-0.041	0.130
-288.603	132.087	-0.179	0.231
-287.589	193.783	0.173	-0.261
-286.574	-200.000	-0.023	0.145
-285.559	-106.338	-0.080	-0.018
-284.545	-151.517	-0.215	0.016
-283.530	57.425	-0.192	-0.188
-282.516	-19.048	0.152	-0.094
-281.501	161.407	-0.317	0.443
-280.486	-52.767	0.228	0.105
-279.472	800.000	-0.154	0.547
-278.457	800.000	-0.045	0.153
-277.443	-200.000	0.012	0.092
-276.428	-200.000	0.034	0.174
-275.413	50.305	-0.141	0.133
-274.399	-91.404	-0.101	0.029
-273.384	75.408	-0.090	-0.095
-272.370	80.740	0.238	-0.257
-271.355	-8.641	-0.163	-0.109
-270.340	663.817	-0.066	0.171
-269.326	53.907	-0.159	-0.153
-268.311	-166.543	0.368	0.015
-267.297	349.122	-0.090	-0.177
-266.282	-200.000	0.008	-0.091
-265.267	-9.349	0.230	-0.153
-264.253	218.259	-0.061	0.097
-263.238	-200.000	-0.010	0.108
-262.224	-82.656	-0.146	-0.047
-261.209	488.934	-0.129	-0.295
-260.195	-200.000	0.000	-0.130
-259.180	-113.161	-0.423	0.083
-258.165	-200.000	-0.038	-0.204
-257.151	448.126	0.129	0.283
-256.136	324.240	0.104	0.199
-255.122	-75.929	0.154	-0.054
-254.107	-82.676	-0.340	0.110
-253.092	800.000	-0.027	0.093
-252.078	-164.344	0.355	-0.016
-251.063	-53.916	-0.125	-0.057
-250.049	-13.106	0.174	0.113
-249.034	-53.169	-0.036	0.016
-248.019	-70.666	0.146	-0.055
-247.005	-86.312	0.020	-0.006
-245.990	-200.000	0.004	-0.223
-244.976	219.509	-0.034	0.054
-243.961	-146.610	0.283	-0.025
-242.946	-40.761	0.262	-0.135
-241.932	60.843	-0.292	0.289
-240.917	-72.571	0.184	0.068
-239.903	-27.067	-0.291	0.169
-238.888	-200.000	0.048	-0.333
-237.873	-200.000	-0.003	-0.415
-236.859	-200.000	-0.017	0.223
-235.844	365.063	0.070	-0.140
-234.830	-137.270	-0.458	-0.052
-233.815	0.885	-0.198	-0.142
-232.800	76.675	0.175	0.185
-231.786	-3.356	-0.260	0.181
-230.771	-200.000	-0.066	0.336
-229.757	-200.000	0.020	0.247
-228.742	526.955	-0.052	-0.123
-227.727	327.228	-0.052	0.100
-226.713	-49.545	-0.083	0.040
-225.698	-200.000	-0.002	-0.160
-224.684	-21.171	-0.338	0.206
-223.669	800.000	-0.127	0.479
-222.655	-200.000	0.008	0.273
-221.640	-64.193	-0.355	0.144
-220.625	228.682	0.090	-0.146
-219.611	-200.000	-0.012	0.055
-218.596	-45.300	0.097	0.048
-217.582	102.128	0.114	-0.132
-216.567	41.301	0.341	0.307
-215.552	-75.920	0.123	0.043
-214.538	-56.266	0.251	-0.111
-213.523	-161.780	-0.247	-0.013
-212.509	-191.859	-0.152	0.001
-211.494	-200.000	-0.039	0.260
-210.479	51.300	-0.179	0.169
-209.465	241.054	-0.070	0.116
-208.450	69.430	-0.195	0.200
-207.436	-26.046	0.065	0.038
-206.421	-43.871	0.240	-0.120
-205.406	-200.000	-0.014	0.095
-204.392	157.457	0.053	0.073
-203.377	-162.109	0.316	-0.016
-202.363	88.912	0.045	0.050
-201.348	-63.990	0.238	0.097
-200.333	-38.542	-0.255	-0.134
-199.319	-200.000	-0.062	-0.386
-198.304	-159.222	-0.405	0.023
-197.290	58.065	0.292	-0.285
-196.275	144.400	-0.038	0.051
-195.260	615.554	0.049	0.123
-194.246	-200.000	-0.031	0.167
-193.231	46.927	0.092	-0.085
-192.217	-60.205	-0.231	-0.098
-191.202	-200.000	0.115	-0.000
-190.187	-200.000	-0.016	0.115
-189.173	228.531	0.137	-0.222
-188.158	22.990	0.085	-0.070
-187.144	82.347	0.238	0.257
-186.129	-24.531	0.218	-0.129
-185.114	119.148	-0.298	0.367
-184.100	356.125	-0.138	0.274
-183.085	703.022	0.104	0.274
-182.071	75.847	0.188	0.198
-181.056	459.013	-0.045	-0.100
-180.042	-45.933	-0.440	-0.216
-179.027	-200.000	-0.036	-0.250
-178.012	55.402	0.091	-0.088
-176.998	34.324	0.334	-0.290
-175.983	213.929	0.145	-0.229
-174.969	-5.466	0.079	-0.054
-173.954	-61.010	0.292	-0.123
-172.939	-200.000	0.054	0.243
-171.925	-13.731	-0.083	0.053
-170.910	-88.656	0.301	-0.089
-169.896	2.864	-0.188	-0.136
-168.881	-68.496	0.064	-0.025
-167.866	-200.000	0.059	0.478
-166.852	61.322	-0.206	0.204
-165.837	-200.000	0.039	0.179
-164.823	-21.403	0.318	0.193
-163.808	-140.644	-0.206	-0.021
-162.793	227.187	0.091	-0.147
-161.779	-10.693	0.116	-0.076
-160.764	-68.196	0.033	0.013
-159.750	-80.993	0.199	0.066
-158.735	-89.043	-0.263	-0.077
-157.720	-200.000	0.101	0.455
-156.706	122.278	-0.339	0.421
-155.691	341.229	0.090	0.174
-154.677	382.399	-0.164	-0.334
-153.662	-94.364	-0.484	-0.131
-152.647	464.917	-0.111	0.247
-151.633	-200.000	0.027	0.119
-150.618	22.429	0.268	0.218
-149.604	-129.113	-0.273	0.038
-148.589	133.490	-0.217	0.278
-147.574	-41.831	0.145	0.074
-146.560	-104.731	0.070	0.016
-145.545	679.945	-0.044	-0.114
-144.531	-45.170	0.172	0.085
-143.516	214.523	0.055	0.086
-142.502	47.687	0.148	0.137
-141.487	-102.068	0.264	0.063
-140.472	-200.000	-0.015	0.172
-139.458	-200.000	0.011	0.106
-138.443	94.288	-0.065	-0.074
-137.429	-120.144	0.331	-0.056
-136.414	-42.262	0.344	0.175
-135.399	29.418	-0.095	0.081
-134.385	-78.969	-0.283	0.096
-133.370	-7.655	-0.077	-0.052
-132.356	800.000	-0.055	0.206
-131.341	475.375	0.109	0.244
-130.326	-61.802	-0.192	-0.080
-129.312	-125.805	0.184	0.028
-128.297	-146.581	0.355	-0.031
-127.283	-130.015	0.075	0.010
-126.268	-112.899	-0.065	-0.013
-125.253	-73.131	0.390	0.142
-124.239	-162.840	-0.118	-0.006
-123.224	26.396	0.103	0.085
-122.210	146.372	0.023	0.031
