DTS Sentinel unit serial number:	SN413079Multiplexer serial number:	ORYXHardware model number:	OX4-SRSoftware version number:	ORYX F/W v4.00 Oryx Data Collector v3.7.2.0data status	okinstallation	princeton_trtdifferential loss correction	single-endedforward channel	channel 4reverse channel	N/Adate	2019/09/15time	06:29:35forward acquisition time	60.00reverse acquisition time	0.00gamma	496.2192k internal	0.2311k external	0.2311temperature offset calibration	1.0034default loss term (dB/km)	0.3790temperature slope calibration	1.0000multiplexer offset coefficient	1.0000multiplexer slope coefficient	1.0000fibre end	0.00T internal ref (°C)	30.50T ext. ref 1 (°C)	4.82T ext. ref 2 (°C)	25.36length (m)	temperature (°C)	Stokes	anti-Stokes-747.200	-200.000	0.018	-0.265
-746.185	51.753	0.089	-0.086
-745.171	101.181	0.201	0.237
-744.156	-167.612	-0.249	-0.010
-743.142	-200.000	-0.012	0.228
-742.127	40.925	-0.118	0.108
-741.112	-63.172	0.300	-0.126
-740.098	263.990	-0.173	-0.305
-739.083	-37.502	-0.047	0.026
-738.069	714.515	0.028	0.077
-737.054	17.982	-0.102	0.083
-736.039	-30.642	-0.288	0.165
-735.025	-200.000	-0.024	0.125
-734.010	101.011	-0.289	0.341
-732.996	-103.228	-0.230	-0.055
-731.981	-117.649	-0.216	-0.039
-730.966	307.858	0.164	0.310
-729.952	323.236	-0.064	0.124
-728.937	40.050	-0.156	0.142
-727.923	-57.723	-0.093	-0.041
-726.908	-200.000	-0.026	-0.206
-725.894	-48.725	-0.121	-0.059
-724.879	800.000	-0.058	-0.213
-723.864	-29.386	0.238	-0.138
-722.850	293.373	-0.070	0.129
-721.835	-159.240	-0.201	0.011
-720.821	-200.000	-0.034	-0.224
-719.806	-10.131	-0.431	-0.291
-718.791	-85.480	-0.091	-0.029
-717.777	24.037	0.313	-0.262
-716.762	800.000	-0.099	-0.346
-715.748	275.424	0.019	-0.034
-714.733	-75.361	0.194	0.070
-713.718	-64.649	-0.195	0.080
-712.704	-15.713	-0.140	0.090
-711.689	7.583	-0.131	-0.100
-710.675	375.681	-0.110	0.227
-709.660	29.941	0.173	0.150
-708.645	-74.711	0.204	-0.074
-707.631	800.000	-0.042	-0.144
-706.616	800.000	0.031	-0.092
-705.602	800.000	-0.072	-0.248
-704.587	162.439	0.367	-0.521
-703.572	110.508	0.097	0.118
-702.558	135.734	-0.173	0.228
-701.543	-29.614	-0.253	0.146
-700.529	50.581	0.102	0.097
-699.514	-77.176	0.182	-0.064
-698.499	206.516	-0.217	0.342
-697.485	40.586	-0.085	-0.078
-696.470	250.344	-0.130	-0.223
-695.456	96.976	-0.037	-0.043
-694.441	558.776	0.039	-0.096
-693.426	193.219	0.112	-0.171
-692.412	-200.000	0.054	-0.486
-691.397	-119.943	-0.249	-0.043
-690.383	-164.410	-0.315	0.015
-689.368	-101.799	-0.221	-0.054
-688.354	68.371	-0.094	0.098
-687.339	-14.575	-0.089	0.058
-686.324	-52.284	0.156	0.073
-685.310	-48.626	-0.269	-0.131
-684.295	331.903	0.087	0.170
-683.281	800.000	-0.047	-0.168
-682.266	331.076	-0.205	-0.401
-681.251	31.302	0.293	0.255
-680.237	263.195	0.090	0.159
-679.222	-200.000	0.035	-0.227
-678.208	-122.787	-0.104	0.017
-677.193	-200.000	0.014	-0.108
-676.178	800.000	-0.071	0.204
-675.164	-93.376	0.201	0.057
-674.149	-113.743	-0.057	-0.011
-673.135	-138.708	-0.279	0.031
-672.120	-174.754	-0.137	0.004
-671.105	-100.105	-0.092	0.023
-670.091	51.771	0.233	-0.224
-669.076	-73.795	0.209	0.077
-668.062	103.108	-0.202	-0.239
-667.047	283.135	-0.025	0.045
-666.032	-200.000	-0.012	-0.112
-665.018	57.524	-0.138	0.137
-664.003	17.773	-0.193	0.155
-662.989	150.632	-0.038	0.052
-661.974	800.000	0.018	-0.077
-660.959	-200.000	-0.007	-0.496
-659.945	-30.446	-0.198	-0.113
-658.930	-67.929	0.174	-0.069
-657.916	-64.150	-0.123	0.051
-656.901	-122.541	-0.372	-0.061
-655.886	154.397	-0.112	-0.155
-654.872	-200.000	0.053	-0.437
-653.857	-12.565	0.027	-0.018
-652.843	117.758	0.103	-0.128
-651.828	-81.932	-0.164	-0.054
-650.814	176.178	0.142	-0.209
-649.799	-200.000	0.067	-0.297
-648.784	800.000	0.070	-0.247
-647.770	114.807	-0.111	0.137
-646.755	346.167	-0.042	0.083
-645.741	-37.906	0.221	-0.119
-644.726	-117.284	-0.355	-0.065
-643.711	367.572	0.156	-0.318
-642.697	800.000	0.064	0.266
-641.682	-133.037	0.062	-0.008
-640.668	-91.366	0.318	-0.092
-639.653	352.249	0.052	-0.104
-638.638	-133.100	0.140	0.018
-637.624	-82.485	-0.099	-0.033
-636.609	89.199	0.246	0.277
-635.595	69.189	0.089	0.093
-634.580	23.470	-0.364	-0.303
-633.565	-104.951	0.296	0.069
-632.551	-89.760	-0.307	-0.091
-631.536	-92.235	-0.257	-0.073
-630.522	232.571	-0.209	0.347
-629.507	-115.548	0.415	0.079
-628.492	0.989	0.144	0.104
-627.478	-10.775	0.126	-0.084
-626.463	-188.637	-0.342	-0.004
-625.449	-40.782	-0.149	0.078
-624.434	42.454	0.022	0.020
-623.419	-143.343	-0.163	-0.016
-622.405	800.000	0.024	-0.078
-621.390	-86.597	-0.370	-0.115
-620.376	-118.828	0.230	0.041
-619.361	12.632	-0.223	0.174
-618.346	620.195	0.068	-0.173
-617.332	-200.000	0.023	-0.105
-616.317	193.499	-0.101	0.154
-615.303	-60.223	0.227	-0.098
-614.288	231.216	-0.086	-0.142
-613.273	800.000	-0.099	-0.354
-612.259	186.932	0.151	0.227
-611.244	430.110	0.082	-0.179
-610.230	800.000	0.072	-0.319
-609.215	-6.952	-0.097	0.066
-608.201	800.000	0.048	0.159
-607.186	444.091	-0.084	0.186
-606.171	-107.744	-0.220	0.049
-605.157	529.583	0.066	0.156
-604.142	-200.000	0.013	-0.344
-603.128	594.590	0.085	0.213
-602.113	73.469	-0.205	0.217
-601.098	-200.000	-0.008	0.219
-600.084	99.338	-0.189	-0.221
-599.069	-75.947	-0.011	-0.004
-598.055	-84.046	-0.255	-0.082
-597.040	-149.644	-0.266	-0.021
-596.025	-110.981	-0.098	0.020
-595.011	-200.000	-0.006	0.041
-593.996	-79.813	0.192	-0.065
-592.982	251.689	0.098	-0.168
-591.967	227.436	0.023	-0.037
-590.952	-200.000	0.044	0.290
-589.938	-46.413	0.060	-0.030
-588.923	-1.858	0.166	-0.117
-587.909	-66.332	0.082	0.033
-586.894	158.273	-0.135	0.189
-585.879	-118.169	0.115	-0.021
-584.865	-33.824	-0.425	0.237
-583.850	-200.000	0.016	-0.112
-582.836	-18.295	-0.197	0.124
-581.821	231.801	0.055	-0.091
-580.806	-3.683	-0.093	-0.065
-579.792	234.150	-0.033	-0.055
-578.777	8.138	-0.311	0.235
-577.763	237.868	0.078	0.130
-576.748	-15.904	-0.174	-0.112
-575.733	800.000	0.066	0.192
-574.719	-25.920	-0.159	-0.094
-573.704	-200.000	0.144	0.000
-572.690	-200.000	0.001	0.319
-571.675	202.830	0.099	-0.154
-570.661	160.556	0.017	0.024
-569.646	800.000	-0.089	0.346
-568.631	-25.088	-0.095	0.057
-567.617	-109.121	-0.270	0.058
-566.602	222.823	0.216	-0.351
-565.588	800.000	-0.049	0.144
-564.573	229.347	-0.102	-0.168
-563.558	534.608	-0.060	0.144
-562.544	-177.968	-0.502	0.012
-561.529	-181.239	0.217	0.004
-560.515	-6.039	0.296	-0.204
-559.500	157.286	0.075	-0.105
-558.485	-200.000	0.003	0.352
-557.471	-178.300	-0.347	0.008
-556.456	-18.329	0.191	0.120
-555.442	-30.134	-0.257	-0.147
-554.427	-153.683	-0.324	0.022
-553.412	-200.000	0.029	0.252
-552.398	-151.475	-0.283	-0.021
-551.383	119.233	0.101	-0.126
-550.369	496.658	-0.107	0.247
-549.354	-200.000	-0.054	0.369
-548.339	-37.699	-0.230	-0.123
-547.325	49.550	-0.185	0.176
-546.310	-200.000	0.018	-0.101
-545.296	-200.000	0.005	-0.169
-544.281	453.678	-0.042	-0.094
-543.266	-17.709	0.156	-0.099
-542.252	800.000	0.067	-0.186
-541.237	204.110	0.091	0.142
-540.223	-200.000	0.016	-0.333
-539.208	379.780	0.133	0.274
-538.193	170.396	0.186	0.268
-537.179	-200.000	-0.020	-0.318
-536.164	181.800	0.087	-0.129
-535.150	105.244	0.033	-0.039
-534.135	132.533	0.059	-0.077
-533.121	-90.710	0.043	0.013
-532.106	-58.042	-0.112	-0.049
-531.091	-151.340	-0.212	0.016
-530.077	800.000	-0.050	0.164
-529.062	800.000	0.059	0.249
-528.048	-69.853	-0.250	0.096
-527.033	-80.945	-0.178	0.059
-526.018	-23.222	0.219	-0.132
-525.004	700.284	-0.080	0.212
-523.989	29.774	0.122	-0.105
-522.975	245.958	-0.021	0.035
-521.960	18.137	-0.124	-0.099
-520.945	-75.008	-0.247	0.089
-519.931	-200.000	0.049	-0.229
-518.916	454.861	-0.069	-0.154
-517.902	14.026	0.063	0.049
-516.887	-144.454	-0.358	0.033
-515.872	345.385	0.030	-0.059
-514.858	-124.480	0.226	-0.035
-513.843	-116.014	-0.269	-0.050
-512.829	-200.000	0.066	0.294
-511.814	364.732	-0.096	0.194
-510.799	-133.980	0.180	0.022
-509.785	252.935	-0.044	0.075
-508.770	-118.595	0.083	0.015
-507.756	-83.385	0.195	-0.063
-506.741	-200.000	0.050	-0.298
-505.726	337.699	0.033	0.065
-504.712	80.057	-0.148	-0.160
-503.697	97.928	-0.110	0.127
-502.683	800.000	-0.069	-0.240
-501.668	81.909	-0.049	-0.053
-500.653	800.000	0.003	0.010
-499.639	362.654	0.104	0.211
-498.624	-48.423	-0.142	0.069
-497.610	-200.000	0.066	0.321
-496.595	800.000	0.053	0.150
-495.581	-113.193	-0.033	-0.007
-494.566	54.781	0.335	0.325
-493.551	205.167	-0.088	-0.138
-492.537	-200.000	-0.001	-0.026
-491.522	121.372	-0.291	0.365
-490.508	10.837	0.340	-0.261
-489.493	-200.000	0.002	0.392
-488.478	100.707	-0.152	-0.178
-487.464	-150.752	0.270	0.021
-486.449	346.805	-0.229	-0.453
-485.435	-200.000	0.004	-0.390
-484.420	-92.225	-0.279	0.079
-483.405	-149.708	0.078	0.006
-482.391	332.505	0.096	-0.186
-481.376	-200.000	0.049	-0.424
-480.362	-46.673	-0.218	-0.107
-479.347	140.544	0.134	0.178
-478.332	31.851	-0.070	0.060
-477.318	-149.794	-0.221	-0.017
-476.303	-200.000	0.025	-0.194
-475.289	127.132	-0.071	-0.091
-474.274	58.240	-0.172	-0.169
-473.259	-84.286	0.032	-0.010
-472.245	-147.601	-0.017	-0.001
-471.230	-198.390	0.165	0.001
-470.216	375.505	0.213	-0.436
-469.201	145.771	-0.101	-0.136
-468.186	-106.015	0.130	0.029
-467.172	-130.836	-0.302	0.041
-466.157	21.524	-0.092	-0.075
-465.143	449.720	-0.070	-0.155
-464.128	-108.471	0.093	0.020
-463.113	-200.000	0.009	0.273
-462.099	316.095	-0.069	-0.130
-461.084	-200.000	0.041	-0.409
-460.070	-52.845	0.256	-0.118
-459.055	143.789	0.032	-0.043
-458.040	136.047	0.145	0.189
-457.026	108.412	0.077	0.092
-456.011	-45.753	0.275	-0.136
-454.997	125.180	0.293	-0.371
-453.982	0.017	0.299	-0.214
-452.968	-170.198	-0.032	-0.001
-451.953	61.824	-0.318	-0.317
-450.938	-55.466	0.143	-0.064
-449.924	-127.488	0.199	-0.029
-448.909	60.542	-0.377	0.375
-447.895	-57.754	0.114	-0.050
-446.880	-36.988	0.323	0.174
-445.865	468.435	0.133	-0.300
-444.851	278.937	-0.143	0.256
-443.836	-130.988	0.085	0.011
-442.822	52.818	-0.087	0.083
-441.807	48.637	-0.047	-0.044
-440.792	-200.000	-0.032	-0.294
-439.778	-50.165	0.149	0.071
-438.763	-94.741	0.163	-0.044
-437.749	74.272	-0.182	0.191
-436.734	-40.264	0.246	-0.128
-435.719	47.020	-0.104	-0.097
-434.705	330.377	-0.217	-0.419
-433.690	124.560	0.116	0.146
-432.676	-200.000	-0.011	0.084
-431.661	-25.608	0.127	-0.075
-430.646	-114.849	0.180	-0.034
-429.632	198.650	-0.118	-0.182
-428.617	-93.449	-0.155	0.043
-427.603	117.238	-0.096	0.118
-426.588	-184.510	0.324	-0.005
-425.573	16.668	-0.151	-0.120
-424.559	800.000	-0.092	-0.310
-423.544	779.620	-0.082	-0.225
-422.530	485.259	-0.014	0.031
-421.515	14.135	-0.032	-0.025
-420.500	-89.539	0.138	0.041
-419.486	-31.008	0.213	0.121
-418.471	-91.063	0.317	-0.091
-417.457	-146.257	-0.184	0.016
-416.442	-200.000	0.038	-0.193
-415.428	-200.000	0.016	-0.095
-414.413	176.942	0.233	0.339
-413.398	-200.000	-0.059	-0.367
-412.384	-200.000	-0.070	-0.466
-411.369	-200.000	-0.011	-0.268
-410.355	256.889	0.100	0.172
-409.340	-61.538	0.128	0.054
-408.325	60.326	0.053	-0.052
-407.311	-124.374	0.220	-0.034
-406.296	-75.369	0.177	-0.063
-405.282	-64.967	0.059	-0.024
-404.267	-88.199	-0.162	0.049
-403.252	800.000	-0.083	-0.261
-402.238	800.000	-0.046	0.161
-401.223	-4.716	0.098	0.068
-400.209	-115.246	-0.245	0.046
-399.194	-116.956	0.301	-0.055
-398.179	-113.907	0.096	0.019
-397.165	-65.657	-0.758	-0.304
-396.150	113.125	-0.040	0.049
-395.136	-55.236	0.277	0.125
-394.121	508.422	-0.082	0.192
-393.106	-165.035	-0.212	-0.009
-392.092	-25.420	0.132	0.078
-391.077	-87.787	-0.259	0.078
-390.063	48.441	-0.080	0.075
-389.048	-61.844	-0.216	0.091
-388.033	-200.000	0.014	0.079
-387.019	28.685	-0.037	-0.031
-386.004	71.616	-0.135	-0.141
-384.990	-155.242	-0.085	0.006
-383.975	-46.114	0.299	-0.147
-382.960	60.548	0.160	-0.158
-381.946	-200.000	0.044	0.208
-380.931	14.269	-0.097	0.075
-379.917	-30.755	0.253	0.143
-378.902	-149.446	0.304	-0.024
-377.888	137.237	-0.277	-0.362
-376.873	26.337	-0.174	-0.145
-375.858	350.121	-0.131	-0.259
-374.844	-200.000	0.042	0.208
-373.829	65.850	0.039	0.039
-372.815	-200.000	-0.063	0.299
-371.800	124.476	0.146	0.184
-370.785	-149.209	0.324	-0.026
-369.771	-200.000	0.035	0.178
-368.756	37.542	0.053	-0.047
-367.742	201.423	0.070	-0.108
-366.727	63.226	0.220	-0.221
-365.712	-100.741	-0.145	-0.036
-364.698	-84.137	0.271	-0.086
-363.683	31.359	0.152	0.130
-362.669	-19.797	0.160	-0.099
-361.654	43.480	0.092	0.084
-360.639	-200.000	-0.001	0.170
-359.625	-88.819	-0.212	0.063
-358.610	145.061	0.190	0.254
-357.596	-200.000	-0.004	-0.152
-356.581	15.045	-0.040	0.031
-355.566	-162.134	0.252	0.013
-354.552	-200.000	0.006	0.164
-353.537	119.602	-0.256	0.317
-352.523	248.248	0.151	0.256
-351.508	-112.017	0.028	0.006
-350.493	-131.069	0.081	-0.011
-349.479	86.557	-0.038	0.042
-348.464	-82.523	-0.284	0.092
-347.450	-136.015	-0.299	-0.035
-346.435	9.499	-0.303	0.229
-345.420	202.041	-0.140	-0.215
-344.406	-44.676	-0.086	-0.043
-343.391	-79.362	-0.055	-0.019
-342.377	-22.994	0.108	0.065
-341.362	-200.000	0.015	0.119
-340.348	-200.000	0.015	0.272
-339.333	160.640	0.066	0.092
-338.318	-200.000	0.019	0.270
-337.304	264.105	0.152	-0.264
-336.289	778.301	0.045	-0.122
-335.275	327.971	-0.113	-0.216
-334.260	-46.828	0.089	-0.043
-333.245	-200.000	0.035	0.231
-332.231	-112.966	-0.143	0.028
-331.216	310.332	-0.060	-0.113
-330.202	122.928	-0.190	0.237
-329.187	-92.654	0.172	0.048
-328.172	26.973	-0.165	-0.138
-327.158	-15.803	0.149	-0.095
-326.143	524.620	0.078	-0.183
-325.129	-149.334	0.251	-0.020
-324.114	-126.476	0.385	0.057
-323.099	800.000	0.037	0.108
-322.085	6.910	-0.128	0.095
-321.070	217.172	0.103	0.164
-320.056	800.000	-0.042	0.137
-319.041	-200.000	-0.059	0.398
-318.026	-114.766	-0.228	-0.043
-317.012	-200.000	-0.001	0.204
-315.997	-35.137	0.126	-0.068
-314.983	-134.774	-0.141	0.017
-313.968	344.498	-0.060	-0.117
-312.953	-200.000	-0.002	0.039
-311.939	34.444	-0.192	0.167
-310.924	-184.712	0.337	0.005
-309.910	-82.180	0.226	-0.074
-308.895	45.875	0.249	0.230
-307.880	411.420	0.062	-0.131
-306.866	234.065	0.151	0.248
-305.851	-200.000	0.045	0.215
-304.837	13.072	0.111	-0.085
-303.822	597.614	0.058	-0.145
-302.807	-68.582	0.008	-0.003
-301.793	-2.049	0.082	-0.057
-300.778	-5.535	0.316	-0.216
-299.764	314.586	0.125	0.235
-298.749	140.059	-0.180	0.237
-297.735	-200.000	0.195	0.000
-296.720	75.112	-0.023	0.025
-295.705	125.528	-0.144	0.181
-294.691	195.985	0.079	0.120
-293.676	-114.080	0.423	0.082
-292.662	42.033	0.016	0.015
-291.647	800.000	0.055	-0.165
-290.632	-32.416	0.161	0.090
-289.618	61.263	-0.201	0.199
-288.603	111.448	0.084	0.101
-287.589	3.050	0.093	-0.067
-286.574	340.292	-0.147	0.287
-285.559	-31.533	-0.246	-0.138
-284.545	-173.218	-0.080	0.002
-283.530	28.370	0.042	-0.035
-282.516	47.708	0.094	0.088
-281.501	-92.568	0.133	0.037
-280.486	14.226	-0.077	0.060
-279.472	-60.914	0.070	0.029
-278.457	-200.000	-0.018	-0.219
-277.443	800.000	0.073	-0.243
-276.428	168.699	-0.138	-0.195
-275.413	800.000	0.120	0.412
-274.399	-36.431	-0.352	0.189
-273.384	800.000	0.030	0.126
-272.370	245.523	-0.141	-0.237
-271.355	-101.575	0.360	0.087
-270.340	31.481	-0.152	0.130
-269.326	52.151	0.050	0.048
-268.311	-53.451	-0.167	0.076
-267.297	-178.867	0.251	0.006
-266.282	-200.000	-0.017	-0.088
-265.267	375.670	-0.091	-0.184
-264.253	221.707	0.144	-0.231
-263.238	-24.601	-0.330	-0.195
-262.224	144.952	0.038	-0.050
-261.209	3.819	-0.162	-0.118
-260.195	87.830	-0.179	-0.198
-259.180	-200.000	0.087	0.508
-258.165	-46.512	0.286	0.140
-257.151	800.000	0.010	0.039
-256.136	-16.712	0.202	-0.128
-255.122	97.047	-0.163	0.187
-254.107	800.000	0.062	-0.253
-253.092	-89.942	-0.283	0.082
-252.078	52.498	-0.260	-0.247
-251.063	7.156	-0.214	-0.159
-250.049	160.425	0.083	0.115
-249.034	48.050	0.182	0.169
-248.019	-105.184	0.139	0.032
-247.005	166.423	-0.097	-0.136
-245.990	-4.902	-0.155	-0.106
-244.976	450.723	0.184	-0.405
-243.961	-12.147	0.246	0.160
-242.946	-49.111	0.278	0.133
-241.932	-99.418	0.252	-0.063
-240.917	131.237	0.048	0.061
-239.903	800.000	-0.028	0.116
-238.888	731.236	0.045	-0.120
-237.873	-200.000	-0.046	0.212
-236.859	-66.872	-0.207	-0.082
-235.844	-129.623	0.108	0.015
-234.830	-62.628	-0.518	0.214
-233.815	-200.000	0.042	-0.255
-232.800	363.573	0.137	0.274
-231.786	50.315	0.218	-0.205
-230.771	18.492	0.080	-0.064
-229.757	798.729	-0.038	0.104
-228.742	-114.063	-0.172	-0.033
-227.727	-109.171	-0.251	-0.053
-226.713	-107.130	-0.173	0.038
-225.698	-200.000	-0.026	0.147
-224.684	-104.395	-0.175	0.040
-223.669	0.164	0.309	0.219
-222.655	43.642	-0.278	-0.253
-221.640	-42.261	-0.212	-0.108
-220.625	800.000	-0.014	-0.042
-219.611	59.962	0.118	-0.116
-218.596	95.237	-0.014	0.016
-217.582	66.181	0.092	-0.093
-216.567	-65.528	0.234	0.094
-215.552	-87.901	0.247	-0.074
-214.538	33.226	-0.020	0.017
-213.523	151.239	-0.102	-0.138
-212.509	-167.126	0.238	-0.010
-211.494	-113.626	0.135	0.026
-210.479	800.000	-0.054	0.211
-209.465	-22.856	-0.144	0.086
-208.450	539.867	-0.053	0.124
-207.436	-52.912	0.146	-0.067
-206.421	26.911	-0.136	0.114
-205.406	-7.086	-0.155	0.105
-204.392	800.000	-0.038	-0.159
-203.377	217.529	0.101	-0.160
-202.363	80.447	-0.077	0.082
-201.348	-200.000	0.002	0.118
-200.333	-12.619	0.008	0.005
-199.319	734.051	-0.056	-0.149
-198.304	-200.000	-0.054	0.346
-197.290	-137.537	-0.151	0.017
-196.275	462.124	-0.120	0.266
-195.260	-200.000	0.037	0.263
-194.246	16.610	0.042	0.033
-193.231	-200.000	-0.007	0.175
-192.217	666.446	-0.144	0.370
-191.202	-200.000	-0.023	0.292
-190.187	34.555	0.153	0.133
-189.173	-164.758	0.297	-0.013
-188.158	-109.049	0.313	0.066
-187.144	182.968	0.050	-0.074
-186.129	-39.086	-0.285	0.149
-185.114	-29.601	0.357	-0.202
-184.100	714.255	0.080	0.210
-183.085	-103.325	-0.415	-0.097
-182.071	562.003	0.156	-0.374
-181.056	-193.702	-0.499	0.004
-180.042	81.116	0.109	0.117
-179.027	704.940	0.107	-0.281
-178.012	-200.000	0.002	-0.328
-176.998	-0.313	0.235	-0.166
-175.983	-61.491	-0.124	0.052
-174.969	501.189	-0.082	-0.188
-173.954	-91.073	0.205	-0.059
-172.939	800.000	-0.028	0.118
-171.925	186.201	-0.151	-0.222
-170.910	-200.000	0.009	-0.060
-169.896	98.435	-0.129	-0.147
-168.881	-80.161	0.187	0.062
-167.866	109.733	0.100	0.119
-166.852	-121.805	-0.240	-0.039
-165.837	-91.416	-0.075	-0.021
-164.823	-0.576	-0.249	0.175
-163.808	-194.851	0.101	0.001
-162.793	-55.455	-0.251	0.112
-161.779	244.757	-0.043	0.071
-160.764	-33.153	0.044	-0.024
-159.750	-200.000	0.001	-0.011
-158.735	15.018	0.183	-0.142
-157.720	-11.963	0.054	-0.035
-156.706	574.948	0.038	0.093
-155.691	-200.000	0.012	-0.179
-154.677	-95.668	-0.208	0.055
-153.662	-18.057	0.203	-0.126
-152.647	133.512	-0.031	-0.039
-151.633	-29.078	0.211	-0.120
-150.618	29.270	0.200	-0.169
-149.604	64.636	-0.102	-0.102
-148.589	731.894	-0.074	0.197
-147.574	78.896	0.186	0.198
-146.560	334.569	0.139	-0.267
-145.545	-44.042	-0.324	0.162
-144.531	348.144	0.048	-0.095
-143.516	9.134	-0.078	-0.058
-142.502	-112.032	-0.208	-0.042
-141.487	800.000	-0.095	-0.372
-140.472	97.556	-0.126	-0.144
-139.458	247.762	-0.016	0.027
-138.443	-101.994	0.237	-0.057
-137.429	4.281	-0.032	0.023
-136.414	800.000	0.048	0.151
-135.399	-155.716	-0.140	-0.009
-134.385	-200.000	0.017	-0.120
-133.370	319.786	-0.065	0.122
-132.356	-65.546	0.355	-0.141
-131.341	647.326	-0.029	-0.073
-130.326	-200.000	0.054	0.295
-129.312	-97.189	0.409	-0.106
-128.297	61.498	-0.204	0.201
-127.283	34.937	0.105	0.091
-126.268	362.224	-0.027	0.054
-125.253	65.960	-0.045	0.045
-124.239	140.382	-0.066	-0.086
-123.224	371.951	-0.048	0.097
-122.210	-200.000	-0.035	-0.218
-121.195	-200.000	0.039	0.236
-120.180	-84.257	0.275	-0.086
