DTS Sentinel unit serial number:	SN413079Multiplexer serial number:	ORYXHardware model number:	OX4-SRSoftware version number:	ORYX F/W v4.00 Oryx Data Collector v3.7.2.0data status	okinstallation	princeton_trtdifferential loss correction	single-endedforward channel	channel 4reverse channel	N/Adate	2019/09/14time	09:49:35forward acquisition time	60.00reverse acquisition time	0.00gamma	496.2192k internal	0.2303k external	0.2303temperature offset calibration	1.0136default loss term (dB/km)	0.3790temperature slope calibration	1.0000multiplexer offset coefficient	1.0000multiplexer slope coefficient	1.0000fibre end	0.00T internal ref (°C)	32.44T ext. ref 1 (°C)	3.95T ext. ref 2 (°C)	30.65length (m)	temperature (°C)	Stokes	anti-Stokes-747.200	-106.140	0.265	-0.061
-746.185	240.327	-0.066	0.112
-745.171	-128.786	0.245	0.035
-744.156	20.761	-0.152	0.126
-743.142	-123.621	0.159	0.026
-742.127	-170.798	0.154	0.005
-741.112	134.384	0.031	-0.041
-740.098	-118.816	0.207	-0.037
-739.083	93.854	-0.154	-0.178
-738.069	217.698	-0.248	0.402
-737.054	144.094	0.248	-0.336
-736.039	-200.000	0.027	0.267
-735.025	149.927	0.274	-0.378
-734.010	44.783	-0.141	-0.132
-732.996	-115.137	-0.103	0.020
-731.981	-52.054	-0.089	-0.042
-730.966	-13.199	0.333	-0.220
-729.952	27.823	0.029	0.025
-728.937	-200.000	-0.060	-0.351
-727.923	59.842	-0.112	-0.113
-726.908	-125.387	-0.183	-0.028
-725.894	800.000	0.011	0.040
-724.879	441.910	-0.101	-0.225
-723.864	-29.197	0.037	0.021
-722.850	-200.000	-0.017	-0.130
-721.835	78.978	0.150	0.164
-720.821	3.529	-0.150	-0.112
-719.806	-42.464	-0.132	-0.068
-718.791	5.960	-0.308	-0.232
-717.777	47.391	-0.076	0.072
-716.762	-183.532	-0.147	0.003
-715.748	-185.706	-0.255	0.004
-714.733	-57.504	0.178	0.079
-713.718	-71.757	0.102	-0.039
-712.704	2.800	0.093	-0.069
-711.689	-200.000	-0.027	-0.319
-710.675	800.000	-0.036	-0.106
-709.660	90.032	-0.022	0.025
-708.645	37.060	-0.304	0.273
-707.631	800.000	0.025	-0.098
-706.616	133.421	0.052	-0.068
-705.602	301.153	0.202	0.380
-704.587	-113.429	-0.220	0.044
-703.572	-42.583	0.251	0.130
-702.558	511.670	0.112	-0.266
-701.543	108.965	-0.197	-0.239
-700.529	545.634	0.074	0.180
-699.514	18.225	0.142	-0.116
-698.499	800.000	-0.023	-0.095
-697.485	-82.279	0.291	0.096
-696.470	245.748	0.232	-0.398
-695.456	28.536	0.144	-0.124
-694.441	-74.600	-0.073	0.027
-693.426	800.000	0.044	-0.136
-692.412	-84.030	0.328	0.106
-691.397	-30.704	-0.255	-0.147
-690.383	-37.646	-0.217	-0.118
-689.368	-200.000	-0.008	-0.278
-688.354	-31.186	0.139	0.080
-687.339	-76.990	0.141	-0.050
-686.324	153.017	-0.164	-0.229
-685.310	-139.400	0.177	0.019
-684.295	-200.000	0.033	-0.180
-683.281	-200.000	-0.002	-0.295
-682.266	800.000	-0.071	0.297
-681.251	-200.000	-0.030	-0.154
-680.237	181.043	0.096	-0.143
-679.222	800.000	-0.061	0.184
-678.208	227.623	-0.025	-0.041
-677.193	-39.449	-0.102	0.054
-676.178	-200.000	-0.017	0.221
-675.164	644.455	0.039	0.102
-674.149	-85.227	-0.116	0.037
-673.135	196.561	0.233	0.361
-672.120	800.000	-0.048	0.209
-671.105	295.827	0.089	-0.165
-670.091	-32.658	-0.289	-0.163
-669.076	103.927	-0.270	0.322
-668.062	56.075	0.228	0.224
-667.047	-80.997	-0.403	-0.136
-666.032	117.503	-0.029	-0.037
-665.018	197.758	0.120	0.187
-664.003	98.932	0.034	0.040
-662.989	-92.661	0.516	-0.147
-661.974	-200.000	0.104	-0.565
-660.959	-123.961	-0.144	-0.023
-659.945	181.113	-0.135	0.202
-658.930	-200.000	0.015	0.352
-657.916	-43.497	-0.076	-0.039
-656.901	-200.000	-0.027	-0.487
-655.886	62.827	0.138	-0.140
-654.872	800.000	-0.068	-0.203
-653.857	800.000	-0.069	0.218
-652.843	153.296	-0.110	0.153
-651.828	-72.555	0.173	0.065
-650.814	800.000	-0.067	-0.229
-649.799	27.908	-0.133	0.114
-648.784	-200.000	0.036	-0.217
-647.770	120.259	-0.246	-0.310
-646.755	-66.364	0.206	0.083
-645.741	104.435	-0.099	-0.118
-644.726	137.558	0.085	-0.112
-643.711	39.565	-0.152	-0.138
-642.697	-35.904	0.196	-0.108
-641.682	79.455	-0.063	-0.068
-640.668	112.957	-0.147	-0.180
-639.653	-64.438	0.292	-0.121
-638.638	-153.549	0.242	0.017
-637.624	-56.214	-0.073	-0.033
-636.609	-106.789	-0.243	0.055
-635.595	-18.293	-0.096	0.061
-634.580	177.518	-0.172	-0.254
-633.565	-142.996	-0.091	0.009
-632.551	-120.897	0.310	0.053
-631.536	-130.503	0.299	0.041
-630.522	419.005	-0.161	0.350
-629.507	-200.000	0.004	-0.021
-628.492	-106.353	-0.371	0.084
-627.478	-197.327	0.014	0.000
-626.463	46.515	-0.058	-0.054
-625.449	-10.439	-0.087	-0.058
-624.434	89.836	0.183	0.207
-623.419	-69.619	-0.487	-0.189
-622.405	517.103	0.110	-0.261
-621.390	-59.886	-0.297	0.129
-620.376	-200.000	0.010	-0.236
-619.361	712.117	0.178	0.478
-618.346	-120.487	-0.266	0.046
-617.332	36.857	0.099	-0.089
-616.317	-96.981	0.233	-0.062
-615.303	-154.593	0.359	0.024
-614.288	-83.010	-0.191	-0.062
-613.273	-70.306	-0.417	-0.161
-612.259	800.000	-0.139	0.468
-611.244	-200.000	0.017	0.085
-610.230	173.095	0.097	0.142
-609.215	-128.281	0.299	-0.043
-608.201	167.386	-0.298	-0.429
-607.186	14.144	0.119	-0.094
-606.171	-40.778	0.209	-0.110
-605.157	88.397	0.038	-0.042
-604.142	800.000	0.122	-0.361
-603.128	-103.212	-0.098	-0.023
-602.113	-18.089	0.115	-0.073
-601.098	291.237	0.094	-0.172
-600.084	-200.000	0.028	0.178
-599.069	-103.658	-0.043	0.010
-598.055	98.321	-0.118	-0.138
-597.040	-23.824	0.083	0.050
-596.025	-199.495	-0.291	0.002
-595.011	200.997	0.269	0.419
-593.996	-94.495	0.100	-0.028
-592.982	-200.000	0.001	0.032
-591.967	-129.292	-0.358	-0.051
-590.952	-123.952	0.260	0.041
-589.938	-127.789	-0.083	0.012
-588.923	17.720	-0.356	0.287
-587.909	800.000	0.008	0.030
-586.894	-200.000	0.016	0.146
-585.879	8.655	0.241	0.184
-584.865	-145.917	-0.153	-0.014
-583.850	303.912	-0.041	0.077
-582.836	-136.195	-0.118	0.014
-581.821	727.416	0.016	-0.043
-580.806	-45.584	0.377	0.189
-579.792	-200.000	-0.006	-0.280
-578.777	-10.379	0.127	0.085
-577.763	800.000	0.074	0.213
-576.748	-127.945	-0.054	0.008
-575.733	-200.000	0.007	0.107
-574.719	-83.337	-0.151	-0.049
-573.704	-10.717	-0.410	0.274
-572.690	2.510	-0.286	0.210
-571.675	29.139	-0.152	0.130
-570.661	756.758	0.069	0.190
-569.646	-63.995	0.273	0.113
-568.631	72.156	0.132	0.139
-567.617	92.978	0.026	0.030
-566.602	800.000	-0.078	-0.220
-565.588	-51.494	0.149	-0.070
-564.573	-50.715	-0.398	0.190
-563.558	800.000	-0.041	-0.164
-562.544	171.929	0.249	-0.362
-561.529	-48.254	0.214	0.105
-560.515	157.729	-0.156	0.218
-559.500	798.642	0.164	0.458
-558.485	-17.241	-0.265	-0.169
-557.471	-191.093	-0.344	0.004
-556.456	800.000	-0.051	-0.155
-555.442	-0.748	-0.145	-0.104
-554.427	-79.126	0.230	-0.079
-553.412	438.628	-0.067	0.149
-552.398	149.289	-0.094	0.129
-551.383	71.061	0.282	-0.295
-550.369	-71.357	0.070	0.026
-549.354	68.297	-0.075	-0.077
-548.339	46.810	-0.188	0.177
-547.325	-156.546	0.102	0.006
-546.310	-35.282	0.188	0.103
-545.296	197.660	-0.211	-0.326
-544.281	800.000	-0.050	0.176
-543.266	-22.865	0.180	0.110
-542.252	-200.000	-0.012	-0.379
-541.237	-185.752	-0.258	0.004
-540.223	299.945	-0.205	-0.381
-539.208	-193.613	-0.211	0.002
-538.193	265.650	-0.128	-0.226
-537.179	50.614	-0.340	-0.325
-536.164	800.000	-0.056	-0.158
-535.150	-97.821	-0.206	0.054
-534.135	283.533	-0.120	-0.217
-533.121	179.573	0.104	-0.154
-532.106	156.770	-0.356	0.497
-531.091	-200.000	0.008	0.108
-530.077	89.254	-0.046	0.052
-529.062	-100.548	0.098	-0.024
-528.048	-200.000	-0.008	-0.198
-527.033	218.230	-0.134	0.215
-526.018	-83.126	-0.304	0.099
-525.004	-110.319	0.156	0.033
-523.989	-97.871	-0.175	0.046
-522.975	3.850	0.156	0.115
-521.960	-200.000	-0.002	0.184
-520.945	800.000	-0.031	-0.109
-519.931	-30.704	-0.239	-0.137
-518.916	33.288	-0.080	-0.070
-517.902	-50.939	0.196	-0.093
-516.887	-45.891	0.081	0.041
-515.872	-56.547	0.395	0.177
-514.858	-17.720	0.305	0.193
-513.843	-32.638	-0.087	-0.049
-512.829	-43.161	0.298	-0.152
-511.814	150.961	-0.195	-0.267
-510.799	27.450	-0.207	-0.176
-509.785	-75.623	0.049	0.018
-508.770	158.181	0.138	-0.193
-507.756	-39.585	-0.023	0.012
-506.741	-93.142	0.164	0.046
-505.726	800.000	0.016	-0.050
-504.712	414.503	-0.170	-0.366
-503.697	89.606	0.096	-0.108
-502.683	9.804	-0.072	0.055
-501.668	-71.118	-0.292	-0.111
-500.653	691.733	-0.095	0.251
-499.639	228.838	0.057	-0.094
-498.624	-76.034	-0.136	-0.049
-497.610	-110.712	0.315	-0.066
-496.595	-200.000	-0.043	-0.272
-495.581	199.639	-0.150	0.231
-494.566	800.000	-0.045	0.171
-493.551	-34.682	0.132	-0.073
-492.537	-200.000	0.012	0.070
-491.522	-0.752	0.166	-0.118
-490.508	41.254	0.120	0.109
-489.493	-136.737	0.319	0.037
-488.478	-200.000	-0.026	0.286
-487.464	-45.627	0.144	-0.072
-486.449	800.000	-0.030	-0.087
-485.435	800.000	-0.021	-0.073
-484.420	-118.887	-0.364	0.064
-483.405	-93.806	0.139	0.038
-482.391	-88.629	-0.146	-0.044
-481.376	-125.391	0.228	-0.035
-480.362	-56.494	0.039	-0.018
-479.347	-117.001	-0.281	0.052
-478.332	800.000	0.014	-0.046
-477.318	-28.069	0.138	0.080
-476.303	61.641	-0.129	-0.129
-475.289	-200.000	0.061	0.270
-474.274	-200.000	-0.033	0.152
-473.259	196.488	-0.060	-0.092
-472.245	219.668	-0.128	0.206
-471.230	217.029	0.172	0.277
-470.216	800.000	0.032	-0.138
-469.201	800.000	-0.071	0.222
-468.186	106.648	-0.264	-0.315
-467.172	-52.113	-0.325	-0.152
-466.157	29.075	0.078	0.067
-465.143	-75.296	0.240	0.086
-464.128	-200.000	-0.027	0.286
-463.113	-10.141	-0.105	-0.070
-462.099	171.115	0.148	0.213
-461.084	403.525	0.126	0.268
-460.070	315.307	-0.062	-0.117
-459.055	26.884	0.064	-0.054
-458.040	34.910	0.124	0.110
-457.026	-136.183	-0.023	0.003
-456.011	-200.000	-0.003	-0.138
-454.997	241.452	-0.122	-0.205
-453.982	546.813	0.025	-0.060
-452.968	-200.000	0.002	-0.075
-451.953	-0.074	-0.132	0.095
-450.938	-90.008	0.320	-0.094
-449.924	-120.736	-0.414	0.071
-448.909	356.217	-0.132	-0.265
-447.895	26.834	0.309	0.261
-446.880	107.040	-0.196	-0.234
-445.865	-71.064	0.348	-0.132
-444.851	-160.973	-0.267	0.014
-443.836	583.674	-0.088	0.218
-442.822	-200.000	-0.063	0.000
-441.807	-81.429	-0.185	-0.061
-440.792	-163.519	0.154	-0.007
-439.778	-149.569	-0.213	0.017
-438.763	25.233	-0.280	-0.234
-437.749	16.993	0.022	0.018
-436.734	99.503	-0.175	0.204
-435.719	-68.320	-0.263	-0.103
-434.705	-200.000	0.027	-0.208
-433.690	-165.658	0.159	-0.007
-432.676	-42.283	0.266	-0.137
-431.661	800.000	-0.090	-0.359
-430.646	-64.672	0.155	-0.063
-429.632	111.909	0.265	-0.322
-428.617	-200.000	0.014	0.087
-427.603	226.829	-0.213	0.349
-426.588	333.883	0.146	0.285
-425.573	-91.546	0.224	-0.064
-424.559	158.293	-0.134	0.187
-423.544	-134.142	-0.114	0.014
-422.530	755.609	0.093	-0.252
-421.515	-200.000	0.031	0.390
-420.500	-140.058	0.193	-0.020
-419.486	-73.274	0.197	-0.072
-418.471	-119.505	-0.275	0.048
-417.457	-66.367	0.258	-0.103
-416.442	-200.000	0.096	-0.427
-415.428	503.297	0.077	-0.179
-414.413	-40.149	-0.089	0.047
-413.398	58.711	0.111	0.110
-412.384	-126.303	-0.154	-0.023
-411.369	800.000	0.085	0.239
-410.355	-200.000	0.002	0.070
-409.340	23.629	0.173	0.143
-408.325	76.770	-0.182	0.194
-407.311	-200.000	-0.014	-0.221
-406.296	-200.000	-0.028	-0.127
-405.282	60.649	0.201	0.200
-404.267	-200.000	0.036	0.480
-403.252	15.152	0.198	-0.156
-402.238	20.786	0.043	0.035
-401.223	-54.004	-0.265	0.121
-400.209	-200.000	-0.046	0.356
-399.194	-200.000	-0.366	0.000
-398.179	-200.000	0.000	-0.207
-397.165	372.683	0.115	-0.235
-396.150	102.575	0.131	0.153
-395.136	12.546	0.255	-0.198
-394.121	32.182	0.216	-0.187
-393.106	49.644	0.133	0.126
-392.092	127.259	0.096	0.123
-391.077	-103.763	-0.140	-0.033
-390.063	67.618	-0.076	-0.078
-389.048	-155.960	-0.096	0.006
-388.033	-140.487	0.229	-0.024
-387.019	-23.345	0.304	-0.184
-386.004	-200.000	0.006	0.123
-384.990	151.397	0.110	-0.150
-383.975	79.357	0.159	-0.171
-382.960	-77.716	-0.120	-0.042
-381.946	-111.463	-0.372	-0.076
-380.931	-200.000	0.057	0.314
-379.917	-200.000	0.003	0.237
-378.902	-99.833	-0.223	0.056
-377.888	-200.000	-0.054	-0.253
-376.873	-77.030	-0.298	0.104
-375.858	-200.000	0.018	0.389
-374.844	-106.034	-0.204	0.046
-373.829	-200.000	-0.003	-0.111
-372.815	84.078	0.207	-0.227
-371.800	-54.736	-0.205	-0.093
-370.785	-171.720	-0.159	0.005
-369.771	764.864	-0.096	-0.263
-368.756	-11.129	0.094	0.062
-367.742	-119.110	-0.252	-0.044
-366.727	230.315	0.049	-0.080
-365.712	-18.879	0.215	-0.134
-364.698	-200.000	0.002	0.030
-363.683	204.716	0.341	-0.531
-362.669	-200.000	0.012	0.108
-361.654	145.813	-0.115	-0.155
-360.639	651.018	-0.093	-0.240
-359.625	234.992	0.199	0.330
-358.610	-200.000	-0.061	0.338
-357.596	-113.306	-0.140	0.028
-356.581	-121.197	-0.196	-0.033
-355.566	305.092	0.158	-0.295
-354.552	-77.556	-0.237	-0.082
-353.537	-50.441	-0.321	-0.152
-352.523	28.403	0.084	0.071
-351.508	53.980	0.136	0.131
-350.493	358.713	-0.164	0.330
-349.479	-20.000	0.182	0.113
-348.464	-128.666	0.324	0.046
-347.450	-56.693	0.152	0.068
-346.435	-61.707	-0.388	-0.163
-345.420	-47.725	0.282	-0.137
-344.406	800.000	-0.082	-0.289
-343.391	-200.000	-0.021	-0.121
-342.377	-124.792	-0.127	0.020
-341.362	-167.639	-0.486	-0.019
-340.348	95.719	0.300	-0.343
-339.333	99.335	0.100	-0.116
-338.318	-200.000	0.019	-0.126
-337.304	168.771	-0.101	0.144
-336.289	-0.253	0.086	-0.061
-335.275	-152.537	0.247	-0.018
-334.260	800.000	0.073	-0.278
-333.245	-20.210	-0.205	-0.127
-332.231	800.000	0.099	-0.323
-331.216	-61.642	0.271	-0.114
-330.202	53.025	0.077	0.074
-329.187	-68.474	0.127	-0.049
-328.172	-32.921	0.207	0.115
-327.158	-25.364	0.314	-0.186
-326.143	90.570	0.090	-0.101
-325.129	800.000	0.023	-0.074
-324.114	-200.000	0.024	0.108
-323.099	205.237	-0.289	0.449
-322.085	421.334	-0.110	-0.236
-321.070	-200.000	-0.019	-0.250
-320.056	56.770	0.080	0.078
-319.041	225.171	0.044	0.072
-318.026	-200.000	-0.013	-0.284
-317.012	297.976	0.070	0.128
-315.997	-150.629	-0.304	-0.023
-314.983	454.364	-0.030	0.066
-313.968	-35.972	-0.094	-0.051
-312.953	790.027	-0.046	0.127
-311.939	116.903	-0.285	-0.351
-310.924	-116.882	0.216	-0.040
-309.910	378.957	-0.137	0.282
-308.895	265.422	0.095	0.166
-307.880	-56.411	0.277	-0.123
-306.866	128.479	-0.121	-0.154
-305.851	10.490	-0.082	-0.063
-304.837	-100.097	-0.371	0.093
-303.822	223.820	0.127	0.206
-302.807	386.202	-0.042	0.087
-301.793	800.000	-0.046	0.197
-300.778	69.029	0.182	0.187
-299.764	135.829	0.193	0.251
-298.749	467.980	-0.080	0.179
-297.735	45.916	-0.075	0.070
-296.720	-109.189	0.355	0.076
-295.705	140.680	0.188	0.249
-294.691	193.246	0.041	-0.062
-293.676	292.422	0.191	0.348
-292.662	-42.254	-0.215	-0.110
-291.647	297.905	-0.080	-0.147
-290.632	213.676	-0.060	-0.095
-289.618	-178.225	0.074	-0.002
-288.603	172.980	0.152	0.219
-287.589	800.000	-0.059	0.208
-286.574	-200.000	0.033	-0.237
-285.559	-49.799	0.129	0.061
-284.545	28.222	0.261	-0.220
-283.530	57.687	0.200	0.195
-282.516	-77.377	0.245	-0.085
-281.501	140.533	0.050	0.067
-280.486	24.448	-0.327	-0.271
-279.472	100.727	0.156	-0.182
-278.457	3.613	0.198	0.144
-277.443	293.979	0.133	0.242
-276.428	-47.466	0.399	-0.194
-275.413	12.785	-0.220	-0.170
-274.399	-22.108	0.080	-0.048
-273.384	63.247	0.170	0.170
-272.370	-93.122	-0.259	0.072
-271.355	-200.000	-0.023	0.248
-270.340	181.624	0.048	-0.071
-269.326	72.623	-0.300	0.313
-268.311	577.905	0.028	0.069
-267.297	15.802	-0.063	0.049
-266.282	199.139	-0.254	0.389
-265.267	99.478	-0.095	0.110
-264.253	-200.000	-0.039	-0.188
-263.238	-37.441	0.601	-0.321
-262.224	140.393	0.163	0.215
-261.209	-200.000	0.003	0.038
-260.195	-28.237	-0.178	-0.103
-259.180	-69.666	-0.161	0.061
-258.165	-200.000	-0.004	0.105
-257.151	-8.031	-0.338	-0.228
-256.136	800.000	0.031	0.124
-255.122	-33.578	-0.179	-0.099
-254.107	-59.805	0.163	-0.070
-253.092	-47.215	-0.275	0.134
-252.078	609.043	-0.123	0.306
-251.063	38.842	0.186	-0.166
-250.049	-56.592	0.069	0.030
-249.034	-101.301	0.264	0.064
-248.019	601.098	-0.161	0.400
-247.005	-130.552	-0.018	-0.002
-245.990	86.785	0.047	-0.052
-244.976	-13.261	-0.318	-0.206
-243.961	-4.315	-0.230	-0.159
-242.946	-200.000	-0.002	-0.186
-241.932	29.184	-0.258	0.219
-240.917	-108.563	0.241	0.052
-239.903	-200.000	-0.010	-0.129
-238.888	9.840	-0.190	-0.144
-237.873	-140.972	0.143	-0.015
-236.859	-200.000	-0.009	-0.098
-235.844	77.719	-0.040	0.043
-234.830	-67.975	0.093	0.036
-233.815	-58.910	-0.154	-0.067
-232.800	396.963	0.099	0.206
-231.786	201.548	-0.068	0.105
-230.771	306.654	-0.120	-0.223
-229.757	800.000	-0.141	-0.460
-228.742	-114.851	0.197	0.037
-227.727	123.626	-0.272	-0.341
-226.713	-180.660	0.184	0.004
-225.698	105.457	-0.364	0.429
-224.684	41.070	0.125	-0.113
-223.669	535.757	-0.097	0.230
-222.655	-200.000	0.027	0.242
-221.640	339.108	-0.086	0.167
-220.625	-200.000	-0.056	0.392
-219.611	559.539	0.125	0.301
-218.596	-0.527	0.218	0.154
-217.582	-200.000	-0.027	-0.240
-216.567	-97.477	-0.085	0.022
-215.552	-143.419	0.152	-0.014
-214.538	800.000	0.094	0.269
-213.523	37.980	0.226	0.200
-212.509	-200.000	0.043	-0.562
-211.494	0.782	-0.227	0.162
-210.479	-33.744	-0.124	-0.068
-209.465	455.897	0.054	0.119
-208.450	-88.083	-0.317	0.095
-207.436	-162.216	0.263	-0.013
-206.421	800.000	-0.044	0.161
-205.406	-102.033	0.272	0.065
-204.392	734.542	0.025	-0.067
-203.377	151.736	0.185	0.252
-202.363	-51.849	-0.169	-0.078
-201.348	-153.905	0.206	0.014
-200.333	259.178	0.113	-0.195
-199.319	800.000	0.169	-0.514
-198.304	-59.800	0.180	0.077
-197.290	-200.000	-0.049	-0.249
-196.275	-11.256	0.193	-0.127
-195.260	249.721	-0.046	-0.078
-194.246	-200.000	-0.030	-0.143
-193.231	-2.419	0.271	0.189
-192.217	103.505	0.242	0.283
-191.202	-42.243	0.089	-0.045
-190.187	71.733	0.095	-0.099
-189.173	-126.982	0.203	-0.030
-188.158	800.000	-0.031	0.102
-187.144	420.045	-0.027	-0.057
-186.129	-16.497	0.125	0.079
-185.114	233.867	0.070	-0.114
-184.100	-200.000	-0.000	-0.258
-183.085	64.767	-0.193	-0.195
-182.071	28.139	-0.218	-0.183
-181.056	106.878	-0.016	-0.019
-180.042	-113.050	0.176	0.035
-179.027	83.806	0.299	0.326
-178.012	-200.000	-0.019	0.099
-176.998	-38.711	0.113	-0.059
-175.983	-53.154	0.143	-0.066
-174.969	-200.000	-0.010	-0.149
-173.954	-112.207	0.250	-0.050
-172.939	-0.798	0.087	-0.061
-171.925	-150.147	-0.214	0.017
-170.910	-143.131	-0.132	0.013
-169.896	-200.000	0.013	0.090
-168.881	8.472	0.208	0.156
-167.866	800.000	-0.038	-0.110
-166.852	-200.000	0.033	-0.166
-165.837	-158.870	-0.385	0.022
-164.823	-191.624	-0.293	-0.003
-163.808	24.794	0.125	0.103
-162.793	13.781	0.141	0.110
-161.779	45.393	0.121	0.111
-160.764	-52.992	-0.267	-0.122
-159.750	621.726	0.108	0.271
-158.735	800.000	0.062	0.212
-157.720	-130.966	-0.101	0.013
-156.706	800.000	0.011	0.045
-155.691	74.213	-0.101	-0.106
-154.677	-200.000	-0.035	0.185
-153.662	39.291	0.322	0.287
-152.647	323.100	-0.074	0.140
-151.633	639.593	0.024	-0.061
-150.618	161.000	0.046	-0.064
-149.604	-82.977	-0.054	-0.017
-148.589	-200.000	0.024	-0.366
-147.574	122.933	0.056	-0.069
-146.560	800.000	-0.066	0.193
-145.545	-200.000	0.002	0.270
-144.531	323.134	0.087	0.165
-143.516	152.480	0.095	0.130
-142.502	-200.000	-0.005	0.065
-141.487	-108.583	0.205	0.044
-140.472	346.995	-0.201	0.394
-139.458	171.865	-0.085	-0.121
-138.443	520.313	-0.095	-0.221
-137.429	162.770	0.183	0.255
-136.414	-121.437	0.453	-0.075
-135.399	800.000	0.044	-0.130
-134.385	-84.433	0.273	0.086
-133.370	-163.633	-0.042	0.002
-132.356	800.000	-0.022	-0.090
-131.341	-75.970	0.122	0.043
-130.326	-65.135	0.314	0.126
-129.312	744.176	-0.089	-0.239
-128.297	129.223	-0.154	0.196
-127.283	306.536	0.101	0.187
-126.268	-106.097	-0.173	-0.039
-125.253	-200.000	0.007	0.037
-124.239	170.617	0.078	0.111
-123.224	-95.237	-0.303	-0.081
-122.210	-69.959	-0.196	0.074
-121.195	-149.996	-0.148	0.011
