DTS Sentinel unit serial number:	SN413079Multiplexer serial number:	ORYXHardware model number:	OX4-SRSoftware version number:	ORYX F/W v4.00 Oryx Data Collector v3.7.2.0data status	okinstallation	princeton_trtdifferential loss correction	single-endedforward channel	channel 4reverse channel	N/Adate	2019/09/12time	14:27:10forward acquisition time	60.00reverse acquisition time	0.00gamma	496.2192k internal	0.2292k external	0.2292temperature offset calibration	1.0086default loss term (dB/km)	0.3790temperature slope calibration	1.0000multiplexer offset coefficient	1.0000multiplexer slope coefficient	1.0000fibre end	0.00T internal ref (°C)	40.11T ext. ref 1 (°C)	2.27T ext. ref 2 (°C)	35.31length (m)	temperature (°C)	Stokes	anti-Stokes-747.200	186.531	0.094	0.143
-746.185	-200.000	-0.017	-0.176
-745.171	-119.502	0.286	-0.051
-744.156	58.552	-0.212	0.214
-743.142	-49.536	-0.178	0.087
-742.127	95.469	-0.175	0.204
-741.112	-104.867	-0.336	-0.079
-740.098	800.000	0.170	0.499
-739.083	800.000	-0.037	-0.141
-738.069	800.000	-0.062	0.267
-737.054	118.110	-0.194	-0.245
-736.039	-188.302	-0.153	0.002
-735.025	-200.000	-0.045	0.294
-734.010	800.000	-0.103	0.330
-732.996	-61.335	-0.225	-0.097
-731.981	-85.665	-0.262	0.083
-730.966	525.936	0.094	-0.226
-729.952	-138.262	-0.226	0.026
-728.937	-83.344	-0.277	-0.091
-727.923	-116.695	-0.143	-0.027
-726.908	19.757	-0.297	-0.245
-725.894	109.049	-0.212	-0.260
-724.879	800.000	-0.124	-0.434
-723.864	-200.000	-0.039	-0.388
-722.850	-118.062	-0.255	0.047
-721.835	16.392	-0.295	-0.239
-720.821	-142.822	-0.219	0.022
-719.806	67.316	-0.168	0.175
-718.791	67.159	-0.244	-0.255
-717.777	633.741	0.030	0.078
-716.762	29.583	-0.294	-0.256
-715.748	800.000	-0.063	-0.195
-714.733	81.516	0.047	-0.052
-713.718	456.254	-0.030	0.067
-712.704	-31.501	-0.143	-0.082
-711.689	-61.219	-0.069	0.030
-710.675	800.000	0.080	-0.229
-709.660	-156.561	-0.102	-0.006
-708.645	-144.627	0.176	0.017
-707.631	-200.000	-0.053	0.248
-706.616	67.997	-0.036	0.038
-705.602	369.890	-0.015	-0.031
-704.587	163.228	0.109	-0.156
-703.572	-111.812	-0.165	0.034
-702.558	-112.424	0.078	0.016
-701.543	128.800	0.203	-0.264
-700.529	-200.000	-0.005	-0.056
-699.514	-13.712	-0.293	-0.194
-698.499	130.280	0.076	0.099
-697.485	-63.685	0.152	-0.064
-696.470	669.543	0.077	0.204
-695.456	800.000	0.044	0.142
-694.441	-24.866	-0.183	0.111
-693.426	-135.714	0.317	-0.038
-692.412	263.128	0.174	-0.309
-691.397	-113.807	0.178	0.035
-690.383	297.461	0.073	-0.136
-689.368	800.000	-0.056	-0.180
-688.354	-200.000	0.008	-0.046
-687.339	-129.375	0.425	-0.060
-686.324	-12.926	0.149	-0.099
-685.310	223.306	0.097	-0.159
-684.295	237.475	0.160	0.272
-683.281	-67.117	0.158	-0.064
-682.266	-200.000	0.021	-0.424
-681.251	262.602	-0.083	-0.147
-680.237	93.199	-0.110	0.127
-679.222	114.351	0.119	-0.148
-678.208	319.354	0.032	-0.062
-677.193	90.396	-0.153	-0.175
-676.178	-200.000	0.006	0.118
-675.164	-200.000	-0.006	-0.224
-674.149	-3.286	0.159	0.113
-673.135	-54.298	-0.076	0.035
-672.120	-200.000	-0.028	-0.194
-671.105	-136.582	0.357	0.042
-670.091	-40.280	0.219	-0.116
-669.076	800.000	0.061	-0.258
-668.062	590.783	-0.205	0.515
-667.047	800.000	-0.110	-0.324
-666.032	-200.000	0.004	0.127
-665.018	-200.000	-0.003	0.064
-664.003	-200.000	-0.030	0.165
-662.989	-200.000	-0.039	-0.300
-661.974	-49.809	0.571	0.277
-660.959	-97.766	0.295	-0.078
-659.945	170.804	0.312	0.456
-658.930	-33.405	-0.357	-0.202
-657.916	-200.000	0.027	0.234
-656.901	-16.922	-0.109	-0.070
-655.886	-200.000	-0.025	0.201
-654.872	-112.678	-0.146	0.030
-653.857	800.000	0.044	0.194
-652.843	7.999	-0.053	-0.041
-651.828	3.132	-0.343	0.254
-650.814	-103.109	-0.299	-0.072
-649.799	-88.359	0.353	0.107
-648.784	-77.165	-0.339	0.120
-647.770	-120.402	0.239	0.041
-646.755	-137.291	0.101	-0.012
-645.741	-87.643	-0.135	-0.042
-644.726	175.417	0.299	-0.442
-643.711	99.671	-0.178	-0.211
-642.697	-134.647	-0.189	-0.024
-641.682	188.027	-0.161	0.246
-640.668	72.936	0.043	-0.046
-639.653	21.286	0.219	-0.182
-638.638	-200.000	0.008	0.166
-637.624	-121.877	0.376	-0.063
-636.609	153.999	-0.122	-0.171
-635.595	-108.335	-0.296	0.065
-634.580	-56.189	0.014	0.007
-633.565	-136.459	0.474	0.056
-632.551	-65.721	0.278	0.114
-631.536	589.191	0.107	-0.269
-630.522	486.657	-0.085	0.196
-629.507	-21.723	0.159	-0.099
-628.492	-94.621	-0.246	0.068
-627.478	-120.190	-0.289	-0.050
-626.463	-95.094	-0.132	-0.036
-625.449	39.349	-0.120	-0.109
-624.434	-32.753	0.142	-0.080
-623.419	79.169	0.137	0.149
-622.405	-142.531	0.164	0.016
-621.390	-78.616	-0.195	0.068
-620.376	-200.000	0.005	-0.213
-619.361	342.937	0.018	-0.036
-618.346	227.009	0.133	-0.220
-617.332	169.065	-0.267	0.388
-616.317	-76.806	0.152	0.054
-615.303	-200.000	0.009	-0.225
-614.288	52.471	-0.169	-0.164
-613.273	63.517	-0.203	0.207
-612.259	-200.000	0.010	0.055
-611.244	-200.000	0.012	-0.121
-610.230	48.638	-0.193	0.184
-609.215	800.000	-0.050	-0.155
-608.201	202.420	0.059	0.093
-607.186	108.733	-0.105	-0.128
-606.171	-119.930	0.060	0.011
-605.157	-104.372	-0.287	-0.068
-604.142	92.459	-0.113	0.130
-603.128	-112.244	-0.099	0.020
-602.113	149.819	-0.035	-0.048
-601.098	-7.980	0.119	0.082
-600.084	-5.151	-0.152	-0.107
-599.069	-157.085	0.320	0.020
-598.055	-200.000	-0.025	-0.247
-597.040	-200.000	-0.025	0.256
-596.025	-114.784	0.353	-0.069
-595.011	371.573	0.039	0.081
-593.996	209.636	-0.104	-0.167
-592.982	254.709	-0.040	0.070
-591.967	79.011	0.036	-0.039
-590.952	800.000	0.058	-0.257
-589.938	170.527	0.035	-0.050
-588.923	-8.646	-0.277	-0.189
-587.909	-36.705	-0.159	-0.087
-586.894	35.220	-0.322	-0.287
-585.879	-148.758	-0.086	-0.007
-584.865	196.842	0.145	-0.226
-583.850	-85.891	-0.103	0.032
-582.836	503.317	0.212	-0.498
-581.821	-200.000	-0.008	0.067
-580.806	-19.584	-0.339	-0.213
-579.792	-117.211	0.441	-0.081
-578.777	71.300	-0.065	-0.069
-577.763	440.952	-0.031	-0.069
-576.748	-200.000	0.013	-0.189
-575.733	36.857	-0.095	-0.085
-574.719	65.313	-0.126	0.129
-573.704	-42.865	-0.123	0.063
-572.690	-200.000	0.019	0.181
-571.675	108.424	-0.203	0.247
-570.661	-111.690	0.222	-0.046
-569.646	-42.123	0.079	-0.041
-568.631	-34.818	-0.115	0.064
-567.617	-26.666	-0.220	0.131
-566.602	51.595	-0.145	0.140
-565.588	320.519	-0.228	0.441
-564.573	-132.386	0.289	0.038
-563.558	302.073	0.187	-0.352
-562.544	154.656	-0.057	0.080
-561.529	134.083	0.070	-0.092
-560.515	-200.000	-0.060	-0.350
-559.500	69.158	-0.140	-0.146
-558.485	-117.291	-0.297	-0.055
-557.471	189.522	-0.133	-0.203
-556.456	85.318	0.071	-0.080
-555.442	-141.701	-0.224	0.023
-554.427	-120.710	0.055	0.009
-553.412	-200.000	-0.016	-0.307
-552.398	765.483	0.055	-0.151
-551.383	110.252	-0.117	0.143
-550.369	316.509	0.093	0.178
-549.354	-66.986	0.254	0.102
-548.339	8.118	0.232	-0.177
-547.325	334.758	-0.013	-0.025
-546.310	-85.906	-0.408	0.128
-545.296	800.000	-0.086	-0.309
-544.281	-200.000	0.048	0.271
-543.266	106.635	-0.168	0.202
-542.252	-133.398	0.264	0.034
-541.237	357.927	0.191	-0.387
-540.223	-200.000	0.003	0.027
-539.208	88.097	0.100	-0.113
-538.193	83.959	0.124	-0.137
-537.179	-124.062	-0.223	-0.036
-536.164	-200.000	-0.033	-0.247
-535.150	-93.387	0.025	0.007
-534.135	55.070	-0.380	-0.373
-533.121	191.918	0.146	0.223
-532.106	-84.276	-0.163	0.052
-531.091	-200.000	0.008	-0.099
-530.077	629.709	-0.113	-0.290
-529.062	-37.871	0.025	-0.014
-528.048	-8.435	-0.212	-0.145
-527.033	-200.000	0.075	0.415
-526.018	40.796	0.369	0.338
-525.004	377.596	0.189	-0.391
-523.989	-52.937	-0.214	-0.100
-522.975	-200.000	0.039	0.202
-521.960	158.921	-0.226	0.318
-520.945	78.985	-0.108	0.117
-519.931	527.057	-0.057	-0.136
-518.916	-55.061	-0.325	-0.149
-517.902	132.255	0.060	0.079
-516.887	-113.700	-0.232	0.046
-515.872	125.496	0.038	0.048
-514.858	57.971	-0.176	0.175
-513.843	80.372	0.150	0.164
-512.829	-142.924	-0.193	0.019
-511.814	-14.567	-0.205	-0.133
-510.799	11.371	0.278	0.216
-509.785	-42.642	-0.355	0.183
-508.770	-22.058	0.135	-0.083
-507.756	-200.000	0.010	-0.175
-506.741	792.552	-0.141	-0.394
-505.726	-62.147	0.164	0.070
-504.712	19.312	-0.330	0.269
-503.697	31.219	-0.098	-0.085
-502.683	-23.266	-0.060	0.036
-501.668	-79.598	0.164	0.056
-500.653	49.008	-0.067	-0.064
-499.639	18.248	0.353	0.286
-498.624	39.593	-0.186	0.169
-497.610	-115.061	-0.350	-0.067
-496.595	679.521	0.040	-0.105
-495.581	-110.804	0.167	-0.035
-494.566	-200.000	0.019	0.217
-493.551	800.000	-0.034	0.112
-492.537	58.869	-0.080	0.080
-491.522	151.601	0.095	-0.131
-490.508	-68.120	0.215	-0.085
-489.493	-18.634	-0.162	0.103
-488.478	296.095	-0.104	-0.193
-487.464	-28.494	0.207	-0.121
-486.449	245.341	-0.177	-0.302
-485.435	23.740	-0.254	-0.212
-484.420	359.111	-0.040	0.081
-483.405	-197.293	-0.163	-0.001
-482.391	-200.000	0.004	-0.167
-481.376	681.696	0.097	-0.257
-480.362	328.226	-0.024	-0.046
-479.347	465.602	0.146	0.332
-478.332	800.000	-0.095	-0.320
-477.318	-39.796	0.148	0.078
-476.303	259.392	0.178	0.311
-475.289	-152.502	0.216	-0.016
-474.274	-200.000	-0.018	-0.087
-473.259	-40.436	0.047	-0.025
-472.245	-200.000	-0.019	0.181
-471.230	-64.536	-0.342	0.141
-470.216	308.616	-0.098	0.186
-469.201	-50.000	-0.365	-0.176
-468.186	-16.044	0.144	-0.093
-467.172	-200.000	0.048	-0.220
-466.157	326.244	0.092	-0.179
-465.143	660.594	0.020	0.052
-464.128	-158.386	0.417	0.025
-463.113	152.420	-0.158	0.218
-462.099	-62.134	0.359	0.152
-461.084	9.560	0.376	0.288
-460.070	321.964	0.141	0.271
-459.055	-95.544	-0.179	0.048
-458.040	303.174	-0.118	0.221
-457.026	-200.000	-0.006	-0.261
-456.011	-200.000	-0.061	0.534
-454.997	92.801	0.317	0.362
-453.982	284.778	0.130	0.238
-452.968	-36.936	-0.145	-0.079
-451.953	-81.153	-0.317	-0.106
-450.938	-63.325	-0.163	0.068
-449.924	-95.734	0.309	-0.084
-448.909	-52.125	0.380	0.178
-447.895	-200.000	0.017	0.130
-446.880	-13.695	0.117	0.077
-445.865	-140.488	0.191	0.020
-444.851	200.266	-0.108	-0.168
-443.836	-200.000	-0.042	0.281
-442.822	-80.936	0.276	0.093
-441.807	464.360	0.118	0.267
-440.792	-76.114	0.223	-0.080
-439.778	-66.572	-0.339	-0.136
-438.763	-200.000	0.035	0.224
-437.749	-99.388	0.253	0.065
-436.734	79.161	0.295	-0.320
-435.719	-200.000	0.004	0.125
-434.705	-105.174	0.309	-0.071
-433.690	27.051	-0.121	-0.103
-432.676	-25.502	0.122	0.073
-431.661	-200.000	-0.003	-0.118
-430.646	348.798	-0.073	-0.145
-429.632	-27.163	0.076	-0.045
-428.617	-200.000	-0.004	0.029
-427.603	-200.000	-0.010	-0.078
-426.588	3.591	-0.073	-0.054
-425.573	-84.291	0.250	-0.080
-424.559	-94.851	-0.112	-0.031
-423.544	-146.162	0.223	-0.020
-422.530	-200.000	-0.001	0.243
-421.515	744.900	0.144	0.393
-420.500	75.340	-0.099	-0.106
-419.486	-200.000	-0.008	0.106
-418.471	353.934	-0.093	-0.188
-417.457	-24.292	-0.065	-0.039
-416.442	-200.000	-0.051	0.330
-415.428	-88.248	0.319	-0.096
-414.413	-200.000	-0.003	-0.090
-413.398	-189.508	0.210	-0.002
-412.384	-45.350	-0.288	-0.144
-411.369	-200.000	0.010	-0.240
-410.355	-200.000	0.053	-0.342
-409.340	-200.000	-0.042	0.467
-408.325	2.148	0.347	0.253
-407.311	125.619	-0.286	-0.365
-406.296	-137.213	-0.121	-0.014
-405.282	-49.049	-0.219	0.106
-404.267	65.352	-0.069	0.071
-403.252	10.046	0.093	0.072
-402.238	104.287	-0.235	-0.280
-401.223	15.828	-0.092	0.073
-400.209	-48.754	-0.228	-0.111
-399.194	452.891	0.084	-0.188
-398.179	-106.028	0.112	0.025
-397.165	121.922	0.269	-0.339
-396.150	-51.156	0.220	-0.104
-395.136	-107.521	-0.327	0.072
-394.121	-174.668	0.166	-0.005
-393.106	-178.845	-0.222	0.005
-392.092	251.247	0.160	0.276
-391.077	-200.000	-0.018	0.329
-390.063	-26.899	0.050	0.029
-389.048	220.410	-0.141	-0.229
-388.033	-200.000	-0.059	0.535
-387.019	-200.000	-0.048	0.251
-386.004	-88.772	0.293	0.088
-384.990	-200.000	-0.012	0.117
-383.975	372.309	-0.061	-0.125
-382.960	83.407	-0.329	-0.362
-381.946	-25.756	0.059	-0.035
-380.931	49.262	0.144	0.136
-379.917	489.429	-0.118	0.272
-378.902	-27.321	-0.106	0.062
-377.888	-59.227	-0.372	-0.162
-376.873	265.563	0.182	-0.320
-375.858	-158.291	0.340	0.020
-374.844	35.426	0.143	-0.126
-373.829	-127.245	-0.315	-0.046
-372.815	-127.080	0.173	0.026
-371.800	-200.000	0.043	-0.220
-370.785	-200.000	0.008	-0.204
-369.771	19.610	0.137	-0.111
-368.756	-200.000	0.032	-0.159
-367.742	57.912	0.074	-0.073
-366.727	58.976	0.341	-0.339
-365.712	800.000	0.066	0.234
-364.698	800.000	0.094	0.298
-363.683	-119.345	-0.174	0.031
-362.669	480.351	-0.047	-0.108
-361.654	72.865	-0.085	-0.089
-360.639	-49.527	-0.144	-0.069
-359.625	-179.811	-0.075	0.002
-358.610	130.198	0.179	-0.231
-357.596	159.234	0.272	-0.382
-356.581	800.000	0.019	-0.070
-355.566	-46.295	0.231	-0.115
-354.552	800.000	-0.057	-0.222
-353.537	424.478	0.049	-0.105
-352.523	-200.000	-0.024	-0.243
-351.508	444.863	0.080	-0.176
-350.493	-109.632	-0.044	0.009
-349.479	137.410	0.149	-0.196
-348.464	-200.000	0.045	-0.205
-347.450	9.864	0.131	0.100
-346.435	-94.170	0.200	0.055
-345.420	-13.921	-0.235	0.153
-344.406	-12.133	-0.212	0.140
-343.391	-111.148	-0.182	-0.038
-342.377	-56.024	0.117	0.053
-341.362	-113.532	0.216	0.043
-340.348	-200.000	-0.077	-0.382
-339.333	-144.496	-0.264	0.025
-338.318	459.509	0.097	0.217
-337.304	100.107	0.050	0.058
-336.289	-18.645	0.214	0.135
-335.275	288.014	0.068	-0.123
-334.260	-200.000	0.017	-0.162
-333.245	786.792	-0.123	0.339
-332.231	-147.908	-0.146	-0.012
-331.216	-181.137	-0.222	-0.004
-330.202	-85.284	-0.164	-0.052
-329.187	106.621	-0.045	-0.054
-328.172	178.272	-0.187	0.274
-327.158	49.704	-0.202	-0.192
-326.143	-21.280	-0.132	-0.081
-325.129	428.048	0.084	-0.182
-324.114	-200.000	0.002	-0.050
-323.099	626.654	-0.156	-0.397
-322.085	16.389	-0.152	-0.121
-321.070	-79.427	0.215	0.073
-320.056	-200.000	-0.016	0.307
-319.041	12.777	0.345	0.269
-318.026	91.191	-0.204	-0.231
-317.012	-136.749	-0.503	0.058
-315.997	63.217	-0.266	0.268
-314.983	800.000	0.024	0.082
-313.968	800.000	0.040	-0.114
-312.953	-200.000	-0.022	-0.222
-311.939	-137.520	-0.278	0.032
-310.924	158.635	0.069	0.096
-309.910	800.000	-0.033	0.099
-308.895	-200.000	-0.007	-0.421
-307.880	-115.429	-0.429	-0.081
-306.866	79.006	-0.192	-0.207
-305.851	259.877	0.094	0.164
-304.837	11.159	0.099	0.076
-303.822	122.601	0.171	-0.215
-302.807	-200.000	-0.122	0.000
-301.793	800.000	-0.075	0.250
-300.778	-146.998	-0.041	-0.004
-299.764	800.000	-0.038	-0.132
-298.749	-87.710	0.265	-0.080
-297.735	-200.000	0.032	0.164
-296.720	-75.113	-0.385	0.139
-295.705	-15.298	-0.272	0.175
-294.691	394.050	-0.144	0.302
-293.676	-24.346	-0.157	0.094
-292.662	152.943	-0.190	0.261
-291.647	364.080	0.135	0.273
-290.632	-127.650	0.278	0.040
-289.618	-92.762	0.115	-0.032
-288.603	800.000	0.045	-0.193
-287.589	-66.171	0.103	-0.041
-286.574	-130.470	-0.498	-0.068
-285.559	178.429	0.025	0.037
-284.545	195.435	0.116	0.177
-283.530	195.392	0.110	0.168
-282.516	335.360	0.107	0.209
-281.501	800.000	-0.064	0.274
-280.486	-143.377	0.031	-0.003
-279.472	-157.024	0.282	-0.017
-278.457	551.848	0.071	-0.172
-277.443	161.234	0.123	0.172
-276.428	36.446	-0.138	0.123
-275.413	-80.337	0.061	-0.021
-274.399	-5.493	-0.296	0.204
-273.384	264.517	0.029	0.050
-272.370	12.974	-0.223	-0.174
-271.355	762.215	-0.163	-0.446
-270.340	-197.013	0.092	-0.001
-269.326	297.741	-0.133	-0.245
-268.311	-11.410	0.051	-0.034
-267.297	-105.882	0.404	0.092
-266.282	-105.927	-0.094	-0.021
-265.267	95.051	0.176	0.201
-264.253	-200.000	0.058	0.318
-263.238	108.987	-0.116	-0.139
-262.224	-200.000	-0.003	-0.216
-261.209	-92.834	-0.043	0.012
-260.195	-19.930	-0.155	0.096
-259.180	-55.406	0.340	0.153
-258.165	-135.765	-0.142	-0.017
-257.151	-200.000	-0.041	0.188
-256.136	233.762	-0.198	0.327
-255.122	518.877	-0.057	0.134
-254.107	-51.900	0.211	0.099
-253.092	-107.114	0.229	-0.051
-252.078	99.602	0.124	0.144
-251.063	441.859	0.029	0.064
-250.049	-200.000	0.002	0.163
-249.034	-200.000	0.020	-0.372
-248.019	-116.547	-0.272	0.050
-247.005	4.487	-0.133	0.098
-245.990	-115.200	0.442	0.084
-244.976	-84.594	0.155	0.049
-243.961	-95.987	-0.078	0.021
-242.946	-140.369	-0.282	-0.030
-241.932	195.390	0.076	-0.117
-240.917	800.000	-0.042	0.141
-239.903	94.070	-0.015	-0.017
-238.888	-149.632	-0.158	-0.013
-237.873	-57.627	-0.256	0.113
-236.859	-146.721	-0.170	0.015
-235.844	-200.000	0.031	-0.200
-234.830	-42.654	-0.166	-0.085
-233.815	189.211	-0.194	0.291
-232.800	174.126	0.193	0.280
-231.786	-134.236	-0.294	-0.036
-230.771	-200.000	-0.015	0.295
-229.757	174.783	-0.095	0.137
-228.742	204.945	0.045	0.069
-227.727	-47.964	-0.114	-0.055
-226.713	412.293	-0.180	-0.383
-225.698	204.485	-0.099	-0.154
-224.684	-130.352	-0.125	0.017
-223.669	714.833	-0.085	0.225
-222.655	-200.000	-0.037	0.269
-221.640	-66.372	0.383	-0.153
-220.625	-200.000	0.006	0.127
-219.611	-200.000	-0.001	0.151
-218.596	800.000	0.088	-0.273
-217.582	-200.000	0.031	0.209
-216.567	-21.896	0.032	0.019
-215.552	-169.212	0.184	0.007
-214.538	79.331	0.272	0.292
-213.523	9.430	-0.136	0.103
-212.509	91.442	-0.097	0.110
-211.494	-115.842	-0.104	0.019
-210.479	204.851	0.097	-0.151
-209.465	88.896	-0.047	-0.052
-208.450	300.639	0.122	-0.226
-207.436	53.462	-0.122	0.117
-206.421	-69.628	-0.040	-0.015
-205.406	800.000	0.068	0.202
-204.392	800.000	-0.050	0.208
-203.377	-14.556	0.194	-0.125
-202.363	45.634	0.132	-0.123
-201.348	-89.864	0.402	0.118
-200.333	27.990	-0.355	0.300
-199.319	-45.925	0.286	-0.141
-198.304	83.166	0.034	-0.037
-197.290	189.669	0.127	0.191
-196.275	386.637	-0.138	0.286
-195.260	-82.590	0.209	-0.068
-194.246	-200.000	-0.033	-0.302
-193.231	291.761	0.044	0.081
-192.217	-106.657	0.411	0.092
-191.202	396.405	0.042	0.088
-190.187	-109.753	0.375	-0.079
-189.173	-163.923	0.181	-0.008
-188.158	-63.461	-0.343	0.141
-187.144	-200.000	0.041	0.324
-186.129	61.878	-0.335	-0.334
-185.114	57.877	-0.260	-0.254
-184.100	-198.457	0.424	0.002
-183.085	0.826	0.145	0.104
-182.071	104.050	0.188	-0.221
-181.056	692.262	0.094	0.246
-180.042	243.551	0.116	0.195
-179.027	-29.050	0.444	-0.255
-178.012	127.223	0.249	-0.317
-176.998	130.803	0.078	-0.100
-175.983	132.962	0.201	0.260
-174.969	310.280	0.055	-0.103
-173.954	800.000	-0.024	-0.077
-172.939	-5.664	0.331	0.227
-171.925	-158.353	0.231	-0.013
-170.910	497.422	-0.048	0.111
-169.896	641.153	0.102	-0.259
-168.881	-112.475	-0.131	-0.026
-167.866	-118.960	0.098	-0.017
-166.852	-70.073	0.148	-0.056
-165.837	-111.660	-0.206	-0.042
-164.823	582.277	-0.103	0.253
-163.808	-10.806	0.157	0.104
-162.793	634.853	-0.091	-0.232
-161.779	-96.402	-0.158	-0.042
-160.764	-16.975	-0.101	-0.064
-159.750	229.706	-0.055	0.090
-158.735	58.223	0.187	-0.183
-157.720	800.000	-0.052	-0.190
-156.706	499.336	0.091	-0.210
-155.691	-113.178	-0.056	0.011
-154.677	-147.229	-0.297	0.025
-153.662	-83.154	0.170	-0.055
-152.647	489.301	0.172	0.393
-151.633	245.360	-0.161	0.270
-150.618	-138.207	0.122	-0.013
-149.604	-176.666	0.131	-0.003
-148.589	187.256	-0.087	-0.130
-147.574	187.152	-0.117	0.175
-146.560	-200.000	-0.031	-0.260
-145.545	231.495	-0.157	0.257
-144.531	-95.081	-0.248	0.067
-143.516	102.158	-0.125	0.145
-142.502	-106.331	0.128	0.029
-141.487	-151.904	0.384	-0.028
-140.472	800.000	0.073	0.204
-139.458	800.000	-0.076	0.211
-138.443	-200.000	-0.009	-0.133
-137.429	305.181	0.124	-0.230
-136.414	-93.251	0.358	-0.099
-135.399	-75.218	-0.429	0.153
-134.385	502.144	0.059	0.136
-133.370	-26.394	-0.400	0.234
-132.356	-47.341	0.068	0.033
-131.341	-200.000	0.006	-0.045
-130.326	16.540	0.135	0.107
-129.312	174.555	0.083	-0.120
-128.297	19.986	0.228	0.184
-127.283	800.000	-0.038	-0.107
-126.268	-200.000	-0.070	-0.360
-125.253	800.000	0.031	0.098
-124.239	-200.000	-0.040	0.198
-123.224	800.000	0.112	0.320
-122.210	31.011	-0.060	-0.051
