DTS Sentinel unit serial number:	SN413079Multiplexer serial number:	ORYXHardware model number:	OX4-SRSoftware version number:	ORYX F/W v4.00 Oryx Data Collector v3.7.2.0data status	okinstallation	princeton_trtdifferential loss correction	single-endedforward channel	channel 4reverse channel	N/Adate	2019/09/14time	12:33:35forward acquisition time	60.00reverse acquisition time	0.00gamma	496.2192k internal	0.2291k external	0.2291temperature offset calibration	1.0154default loss term (dB/km)	0.3790temperature slope calibration	1.0000multiplexer offset coefficient	1.0000multiplexer slope coefficient	1.0000fibre end	0.00T internal ref (°C)	37.94T ext. ref 1 (°C)	4.76T ext. ref 2 (°C)	34.35length (m)	temperature (°C)	Stokes	anti-Stokes-747.200	344.267	-0.053	-0.107
-746.185	229.329	-0.197	0.330
-745.171	800.000	-0.070	-0.261
-744.156	-61.363	-0.131	-0.056
-743.142	-60.180	0.337	-0.147
-742.127	800.000	0.087	0.354
-741.112	-99.816	0.131	0.034
-740.098	-44.418	0.228	-0.117
-739.083	-45.068	0.190	-0.097
-738.069	-200.000	0.022	0.362
-737.054	800.000	0.189	0.535
-736.039	800.000	-0.065	0.195
-735.025	-141.608	-0.180	-0.019
-734.010	-189.596	-0.232	0.003
-732.996	356.419	-0.226	-0.461
-731.981	219.968	-0.180	-0.296
-730.966	167.612	-0.363	-0.528
-729.952	388.888	-0.078	-0.164
-728.937	37.379	0.189	-0.172
-727.923	800.000	-0.020	0.087
-726.908	34.096	0.212	0.189
-725.894	153.267	0.204	0.285
-724.879	185.340	0.174	0.265
-723.864	421.102	0.136	0.297
-722.850	800.000	-0.051	0.202
-721.835	-200.000	-0.036	-0.168
-720.821	6.018	-0.173	0.131
-719.806	131.208	-0.186	-0.245
-718.791	-72.193	-0.349	-0.132
-717.777	-58.736	-0.369	-0.163
-716.762	800.000	-0.045	-0.168
-715.748	-68.822	-0.203	0.080
-714.733	312.884	-0.045	-0.087
-713.718	156.082	-0.022	0.031
-712.704	-106.332	-0.167	-0.038
-711.689	407.513	-0.077	0.165
-710.675	266.118	-0.079	0.141
-709.660	-109.943	-0.416	0.089
-708.645	800.000	-0.037	-0.150
-707.631	9.056	-0.087	-0.067
-706.616	-112.239	0.211	-0.043
-705.602	-200.000	-0.025	-0.235
-704.587	-200.000	0.028	0.396
-703.572	-89.744	0.502	-0.150
-702.558	-136.615	-0.226	0.027
-701.543	800.000	-0.007	0.027
-700.529	-147.948	-0.177	-0.015
-699.514	10.737	0.333	-0.259
-698.499	37.932	-0.190	0.172
-697.485	200.345	0.172	-0.270
-696.470	544.946	0.062	-0.152
-695.456	-102.599	-0.156	0.038
-694.441	387.755	-0.056	0.119
-693.426	133.642	-0.179	-0.237
-692.412	247.042	0.050	0.085
-691.397	-185.947	0.309	-0.005
-690.383	157.820	-0.172	0.243
-689.368	-35.773	-0.187	0.104
-688.354	-200.000	-0.004	-0.035
-687.339	-109.629	0.083	0.018
-686.324	-5.484	0.168	-0.118
-685.310	-200.000	-0.005	-0.084
-684.295	-142.737	0.214	-0.021
-683.281	-200.000	-0.031	-0.264
-682.266	19.329	-0.147	0.121
-681.251	-24.309	0.096	-0.059
-680.237	800.000	0.017	-0.062
-679.222	-47.826	0.430	0.213
-678.208	-72.430	0.248	0.094
-677.193	-33.006	-0.075	0.043
-676.178	144.166	0.137	-0.186
-675.164	38.634	-0.204	-0.186
-674.149	800.000	-0.062	-0.186
-673.135	-128.599	0.207	0.030
-672.120	80.157	0.209	0.229
-671.105	80.122	0.183	0.200
-670.091	-78.297	0.108	0.038
-669.076	-200.000	0.001	0.010
-668.062	103.671	-0.223	-0.267
-667.047	732.352	-0.052	0.143
-666.032	-98.499	-0.207	0.054
-665.018	-200.000	-0.004	-0.036
-664.003	-74.960	-0.201	0.074
-662.989	-86.477	0.077	0.024
-661.974	32.634	0.400	-0.353
-660.959	21.355	0.159	-0.132
-659.945	292.557	-0.105	0.195
-658.930	138.909	0.163	-0.218
-657.916	260.239	-0.066	0.117
-656.901	-93.887	-0.095	0.027
-655.886	-39.174	0.061	0.033
-654.872	-114.014	0.359	0.071
-653.857	-200.000	-0.016	-0.098
-652.843	144.438	0.113	-0.154
-651.828	800.000	0.020	0.074
-650.814	346.923	-0.061	0.122
-649.799	-200.000	-0.064	-0.322
-648.784	344.919	-0.132	-0.264
-647.770	236.104	-0.094	0.158
-646.755	245.107	-0.120	-0.206
-645.741	-200.000	0.032	-0.337
-644.726	94.145	-0.113	-0.131
-643.711	800.000	0.017	0.063
-642.697	-4.085	-0.081	0.057
-641.682	-129.902	-0.403	0.056
-640.668	-113.627	0.492	0.098
-639.653	-8.433	0.063	0.043
-638.638	352.345	-0.023	-0.046
-637.624	-200.000	0.054	0.518
-636.609	4.977	0.095	0.071
-635.595	509.157	-0.074	-0.176
-634.580	-22.545	-0.249	-0.153
-633.565	74.998	-0.196	-0.211
-632.551	-200.000	0.038	-0.311
-631.536	231.513	-0.276	-0.462
-630.522	-109.515	0.355	-0.076
-629.507	-200.000	0.040	-0.267
-628.492	188.063	0.187	-0.285
-627.478	-126.730	-0.292	-0.044
-626.463	800.000	-0.056	-0.220
-625.449	8.760	-0.154	-0.118
-624.434	-101.897	-0.349	0.086
-623.419	100.313	0.047	0.056
-622.405	-46.184	-0.141	0.071
-621.390	-29.919	-0.136	0.079
-620.376	87.368	0.226	-0.254
-619.361	79.004	-0.274	0.299
-618.346	-26.001	0.274	-0.164
-617.332	24.257	0.182	0.153
-616.317	-35.796	0.232	-0.128
-615.303	-21.249	0.263	0.164
-614.288	800.000	-0.041	-0.147
-613.273	-200.000	-0.021	-0.117
-612.259	87.597	-0.109	-0.123
-611.244	38.102	0.112	0.101
-610.230	-200.000	0.053	-0.249
-609.215	-132.002	-0.136	-0.018
-608.201	446.577	0.124	-0.277
-607.186	-49.701	0.232	0.112
-606.171	107.706	-0.277	-0.336
-605.157	115.494	-0.124	0.155
-604.142	106.307	-0.124	-0.150
-603.128	625.380	0.165	-0.423
-602.113	-200.000	0.037	-0.484
-601.098	-200.000	-0.034	0.240
-600.084	-60.853	-0.225	-0.097
-599.069	35.423	-0.368	-0.329
-598.055	429.075	-0.082	0.181
-597.040	52.123	0.054	-0.052
-596.025	780.172	0.056	0.155
-595.011	-131.789	0.339	-0.045
-593.996	-146.014	-0.396	-0.036
-592.982	800.000	-0.031	-0.106
-591.967	735.461	-0.093	-0.253
-590.952	133.738	0.108	0.142
-589.938	13.575	-0.409	0.323
-588.923	189.680	0.085	-0.130
-587.909	383.968	0.154	-0.322
-586.894	800.000	0.022	-0.092
-585.879	-102.159	-0.187	-0.046
-584.865	171.992	0.127	-0.186
-583.850	-200.000	-0.004	-0.145
-582.836	-72.405	-0.083	0.031
-581.821	204.646	-0.089	0.141
-580.806	-112.315	0.181	-0.037
-579.792	128.980	-0.290	-0.376
-578.777	-28.851	0.215	0.126
-577.763	42.925	-0.207	-0.192
-576.748	-27.445	-0.075	0.044
-575.733	-24.944	-0.471	-0.284
-574.719	800.000	-0.055	0.175
-573.704	800.000	0.020	0.083
-572.690	96.799	-0.054	-0.062
-571.675	18.727	-0.279	-0.227
-570.661	515.584	-0.139	0.331
-569.646	-122.084	0.278	-0.046
-568.631	-30.069	0.198	-0.115
-567.617	-175.593	-0.412	0.011
-566.602	42.139	0.148	0.137
-565.588	-25.654	0.273	0.164
-564.573	-200.000	-0.035	-0.220
-563.558	-200.000	-0.412	-0.002
-562.544	264.832	-0.034	-0.060
-561.529	800.000	0.013	0.038
-560.515	-200.000	-0.039	-0.253
-559.500	800.000	-0.079	0.229
-558.485	147.388	0.037	0.051
-557.471	800.000	-0.065	-0.247
-556.456	186.894	0.089	-0.134
-555.442	-94.114	0.350	0.098
-554.427	-65.401	-0.052	-0.021
-553.412	603.343	-0.070	0.177
-552.398	68.955	0.129	-0.135
-551.383	-143.864	0.162	-0.015
-550.369	-23.822	-0.128	0.078
-549.354	444.946	0.143	-0.319
-548.339	184.519	-0.300	-0.451
-547.325	-188.868	-0.054	-0.001
-546.310	-97.904	-0.291	0.076
-545.296	38.007	-0.234	0.212
-544.281	30.044	0.124	-0.107
-543.266	287.904	0.062	-0.115
-542.252	-165.752	0.029	0.001
-541.237	-200.000	-0.046	-0.255
-540.223	-200.000	0.005	-0.080
-539.208	-99.593	0.169	0.043
-538.193	-0.300	0.080	0.058
-537.179	-21.712	0.174	-0.108
-536.164	11.267	-0.137	-0.106
-535.150	182.920	-0.103	-0.154
-534.135	48.362	-0.199	-0.189
-533.121	69.844	0.125	-0.131
-532.106	95.481	-0.157	-0.181
-531.091	-189.856	0.148	0.002
-530.077	380.007	0.090	0.186
-529.062	-37.650	-0.281	0.152
-528.048	-171.132	-0.201	0.007
-527.033	76.816	-0.060	0.065
-526.018	263.275	0.278	0.490
-525.004	-41.137	0.273	-0.143
-523.989	-46.480	0.456	-0.227
-522.975	800.000	0.166	0.479
-521.960	96.509	0.313	0.363
-520.945	-168.570	0.098	0.004
-519.931	257.599	-0.099	-0.172
-518.916	190.823	-0.218	-0.333
-517.902	-18.479	0.185	0.117
-516.887	28.951	-0.091	-0.078
-515.872	-47.084	0.141	-0.070
-514.858	-200.000	-0.016	-0.082
-513.843	758.822	0.085	-0.232
-512.829	800.000	0.024	-0.102
-511.814	-78.309	-0.205	-0.071
-510.799	-200.000	0.012	-0.129
-509.785	541.145	-0.071	-0.171
-508.770	800.000	-0.058	-0.170
-507.756	-185.692	-0.063	-0.001
-506.741	-91.876	-0.161	0.046
-505.726	-184.402	-0.103	-0.002
-504.712	81.425	0.219	0.240
-503.697	-200.000	-0.003	0.064
-502.683	-109.669	0.172	-0.037
-501.668	310.154	0.151	0.287
-500.653	128.255	-0.077	0.099
-499.639	-77.374	-0.283	0.100
-498.624	-112.919	-0.429	-0.086
-497.610	-118.241	0.239	-0.043
-496.595	27.654	0.114	0.097
-495.581	12.178	0.152	0.119
-494.566	146.332	0.155	0.212
-493.551	276.532	0.081	0.145
-492.537	-2.366	-0.091	0.065
-491.522	800.000	0.084	-0.250
-490.508	-52.296	-0.491	0.231
-489.493	800.000	0.021	0.081
-488.478	-200.000	0.029	0.181
-487.464	800.000	0.081	0.249
-486.449	800.000	0.112	0.343
-485.435	434.623	-0.048	-0.106
-484.420	123.906	-0.133	0.170
-483.405	800.000	-0.085	-0.285
-482.391	-119.796	-0.226	0.040
-481.376	284.167	-0.134	0.244
-480.362	-112.402	0.143	0.029
-479.347	101.286	-0.224	0.264
-478.332	-124.078	-0.124	0.020
-477.318	-133.938	-0.031	-0.004
-476.303	-45.979	0.165	0.082
-475.289	222.742	0.087	0.141
-474.274	-13.441	-0.085	-0.056
-473.259	-153.020	-0.228	-0.016
-472.245	134.295	-0.113	0.148
-471.230	-114.917	-0.425	-0.082
-470.216	28.590	0.111	-0.095
-469.201	319.919	0.019	0.037
-468.186	1.561	-0.036	0.026
-467.172	176.858	0.201	0.296
-466.157	-176.980	-0.242	0.006
-465.143	-158.749	-0.208	0.012
-464.128	-17.584	-0.228	0.145
-463.113	800.000	-0.016	0.049
-462.099	-3.385	0.033	0.023
-461.084	84.475	-0.316	0.350
-460.070	126.028	0.029	-0.038
-459.055	-16.885	0.123	0.079
-458.040	240.678	-0.191	0.323
-457.026	-101.951	-0.418	0.102
-456.011	-122.808	-0.360	0.059
-454.997	442.331	0.055	0.123
-453.982	-200.000	-0.034	0.384
-452.968	434.764	0.044	0.098
-451.953	-79.817	-0.331	0.113
-450.938	-200.000	-0.017	0.104
-449.924	-71.874	-0.198	0.075
-448.909	-200.000	-0.048	-0.263
-447.895	-200.000	0.045	-0.301
-446.880	-200.000	0.003	-0.148
-445.865	-200.000	0.011	0.497
-444.851	-200.000	-0.047	0.380
-443.836	-200.000	0.027	-0.272
-442.822	251.488	0.134	-0.230
-441.807	-59.503	0.209	-0.091
-440.792	-200.000	0.039	0.188
-439.778	-200.000	-0.009	-0.096
-438.763	86.932	-0.062	-0.069
-437.749	561.700	0.087	-0.214
-436.734	-12.445	-0.232	-0.153
-435.719	387.955	0.059	0.124
-434.705	-56.025	0.213	-0.096
-433.690	-19.787	-0.226	-0.141
-432.676	97.507	0.076	0.089
-431.661	64.899	-0.157	0.161
-430.646	20.268	0.162	0.133
-429.632	15.256	-0.149	0.118
-428.617	579.193	-0.116	0.288
-427.603	124.405	-0.035	0.044
-426.588	-200.000	-0.016	-0.119
-425.573	-63.061	0.118	0.049
-424.559	26.090	0.204	-0.172
-423.544	58.192	0.200	0.198
-422.530	-200.000	-0.008	-0.346
-421.515	-45.902	0.265	0.132
-420.500	249.641	-0.113	0.193
-419.486	158.262	0.159	0.224
-418.471	800.000	-0.091	0.320
-417.457	47.226	0.152	-0.143
-416.442	-63.641	-0.142	0.059
-415.428	800.000	0.044	-0.131
-414.413	-125.402	0.122	0.019
-413.398	-179.697	0.139	-0.003
-412.384	-14.519	-0.146	-0.095
-411.369	-8.977	0.161	-0.109
-410.355	-200.000	0.007	0.067
-409.340	519.849	0.043	-0.103
-408.325	-197.572	0.273	-0.002
-407.311	-31.626	0.238	0.135
-406.296	-200.000	0.031	-0.216
-405.282	-65.106	-0.208	0.085
-404.267	800.000	-0.059	0.243
-403.252	-200.000	0.000	0.182
-402.238	562.225	-0.055	0.134
-401.223	800.000	-0.116	0.347
-400.209	800.000	0.097	-0.303
-399.194	-47.594	-0.225	-0.111
-398.179	-200.000	0.008	-0.229
-397.165	-200.000	-0.024	-0.259
-396.150	-102.766	-0.233	-0.056
-395.136	-200.000	-0.031	-0.156
-394.121	-41.813	-0.326	0.169
-393.106	-161.510	-0.193	-0.010
-392.092	800.000	0.027	0.086
-391.077	375.905	0.079	-0.162
-390.063	-200.000	0.001	-0.080
-389.048	-41.350	0.130	0.067
-388.033	179.978	-0.232	-0.343
-387.019	-200.000	-0.028	-0.167
-386.004	24.067	-0.346	0.288
-384.990	386.574	-0.056	0.117
-383.975	-200.000	-0.001	0.100
-382.960	219.541	0.093	0.151
-381.946	-118.666	0.299	-0.053
-380.931	148.096	0.176	0.240
-379.917	-103.688	0.271	0.064
-378.902	-39.136	-0.603	-0.320
-377.888	-77.146	-0.172	-0.060
-376.873	-24.651	0.464	0.279
-375.858	800.000	0.051	0.161
-374.844	-200.000	-0.016	-0.286
-373.829	405.334	0.112	-0.239
-372.815	104.861	0.247	-0.293
-371.800	64.076	-0.116	-0.118
-370.785	-129.022	0.157	0.022
-369.771	800.000	0.058	0.202
-368.756	216.031	0.108	0.172
-367.742	393.008	0.036	-0.075
-366.727	-62.812	0.244	-0.102
-365.712	-96.159	-0.234	0.063
-364.698	453.213	0.068	-0.151
-363.683	210.664	0.042	0.067
-362.669	-200.000	0.011	0.183
-361.654	-73.045	-0.135	-0.050
-360.639	-200.000	-0.051	-0.339
-359.625	800.000	0.137	-0.387
-358.610	-200.000	0.036	-0.358
-357.596	-113.299	0.229	-0.045
-356.581	-63.285	-0.074	-0.031
-355.566	-65.777	-0.234	-0.094
-354.552	-156.835	-0.377	0.023
-353.537	117.560	-0.093	-0.116
-352.523	124.637	0.288	0.365
-351.508	621.807	0.069	0.174
-350.493	-36.400	-0.129	0.070
-349.479	341.988	0.146	0.288
-348.464	33.040	-0.172	-0.150
-347.450	-150.105	0.268	-0.021
-346.435	-164.727	0.109	-0.005
-345.420	119.221	-0.224	-0.280
-344.406	-200.000	0.001	-0.093
-343.391	800.000	0.057	-0.178
-342.377	2.252	-0.063	0.046
-341.362	-172.178	-0.071	0.002
-340.348	683.091	-0.055	0.143
-339.333	-200.000	0.024	0.406
-338.318	465.369	-0.108	0.244
-337.304	37.193	0.221	0.198
-336.289	-67.146	0.417	0.166
-335.275	-107.570	-0.153	-0.034
-334.260	-28.717	0.186	-0.108
-333.245	66.949	-0.140	-0.144
-332.231	573.054	0.102	0.251
-331.216	-134.885	-0.388	-0.047
-330.202	-29.724	-0.061	-0.035
-329.187	-84.843	0.178	0.056
-328.172	2.751	0.165	0.121
-327.158	263.391	-0.136	0.238
-326.143	175.661	-0.158	-0.230
-325.129	551.328	0.111	-0.268
-324.114	183.138	0.073	0.109
-323.099	96.264	-0.023	-0.027
-322.085	-200.000	-0.005	-0.155
-321.070	8.733	0.093	-0.070
-320.056	-117.042	0.139	-0.026
-319.041	-22.999	-0.061	-0.037
-318.026	-88.575	0.174	-0.052
-317.012	134.517	-0.171	0.223
-315.997	-200.000	0.027	0.128
-314.983	-62.625	-0.019	0.008
-313.968	-9.873	-0.295	-0.198
-312.953	-101.954	0.375	-0.091
-311.939	312.024	-0.141	0.267
-310.924	86.435	-0.116	0.129
-309.910	-200.000	-0.059	-0.264
-308.895	-8.240	-0.227	-0.154
-307.880	104.002	-0.261	0.309
-306.866	-61.461	-0.305	0.129
-305.851	424.461	-0.080	0.173
-304.837	-182.652	0.320	0.006
-303.822	-200.000	-0.011	-0.155
-302.807	-91.563	0.311	-0.089
-301.793	-150.253	-0.251	0.019
-300.778	-104.117	0.166	-0.039
-299.764	-67.718	-0.152	-0.060
-298.749	-117.001	-0.321	0.059
-297.735	-25.059	-0.287	0.171
-296.720	-58.053	0.256	0.112
-295.705	-99.577	0.098	0.025
-294.691	193.248	-0.126	-0.192
-293.676	-117.406	0.100	-0.018
-292.662	-5.102	0.277	0.192
-291.647	-31.272	0.283	-0.160
-290.632	800.000	-0.117	-0.338
-289.618	-95.526	0.593	0.160
-288.603	-123.115	0.053	-0.009
-287.589	-66.331	-0.091	-0.036
-286.574	375.728	0.116	-0.238
-285.559	-113.031	0.189	-0.038
-284.545	-146.458	0.175	0.015
-283.530	-59.159	-0.177	-0.077
-282.516	29.132	0.225	-0.192
-281.501	-190.272	-0.275	0.003
-280.486	101.160	0.086	0.101
-279.472	239.966	0.069	0.115
-278.457	20.975	-0.279	0.228
-277.443	267.874	0.162	0.285
-276.428	-200.000	0.005	-0.052
-275.413	-200.000	0.077	0.362
-274.399	335.606	-0.049	-0.096
-273.384	414.833	-0.090	-0.192
-272.370	-40.325	-0.066	-0.035
-271.355	800.000	-0.121	0.382
-270.340	522.063	0.104	0.244
-269.326	-73.343	-0.239	0.088
-268.311	800.000	0.062	0.238
-267.297	-140.592	0.166	0.017
-266.282	-92.390	0.183	0.052
-265.267	-155.953	0.127	-0.008
-264.253	169.146	-0.122	0.175
-263.238	-26.597	0.040	0.024
-262.224	-71.880	-0.412	0.154
-261.209	-100.554	0.198	-0.049
-260.195	-68.190	-0.303	-0.119
-259.180	800.000	0.096	0.331
-258.165	103.395	0.112	0.132
-257.151	-5.332	0.037	-0.026
-256.136	-200.000	-0.071	-0.328
-255.122	-200.000	-0.013	-0.155
-254.107	-175.374	0.380	-0.010
-253.092	-53.183	0.097	-0.045
-252.078	-200.000	-0.010	-0.050
-251.063	-6.826	-0.071	-0.048
-250.049	-75.633	0.131	-0.047
-249.034	356.433	-0.049	-0.098
-248.019	-200.000	-0.030	-0.322
-247.005	-200.000	-0.012	0.223
-245.990	-72.021	0.355	-0.132
-244.976	-7.849	0.213	-0.144
-243.961	-86.044	-0.115	0.036
-242.946	-200.000	-0.011	0.244
-241.932	-175.175	0.280	-0.008
-240.917	-67.634	-0.149	0.058
-239.903	-71.808	0.191	0.071
-238.888	6.551	0.175	-0.131
-237.873	-200.000	0.016	0.102
-236.859	40.895	-0.314	0.284
-235.844	322.953	0.197	0.378
-234.830	800.000	0.086	-0.288
-233.815	75.473	-0.199	0.211
-232.800	-200.000	0.002	0.271
-231.786	52.462	-0.229	-0.220
-230.771	-200.000	0.000	-0.406
-229.757	53.154	-0.020	-0.019
-228.742	-195.990	-0.429	0.003
-227.727	285.541	-0.149	0.269
-226.713	142.039	0.068	-0.090
-225.698	-105.426	0.039	0.009
-224.684	-178.952	0.056	0.001
-223.669	0.462	-0.205	0.147
-222.655	203.668	-0.149	-0.231
-221.640	-200.000	-0.035	0.154
-220.625	21.867	0.243	0.199
-219.611	-61.200	0.334	-0.141
-218.596	-200.000	-0.031	-0.193
-217.582	-200.000	0.018	0.130
-216.567	-162.444	-0.177	-0.009
-215.552	-71.432	0.220	-0.082
-214.538	-66.933	0.145	0.058
-213.523	-66.746	0.118	-0.047
-212.509	800.000	0.033	-0.130
-211.494	-131.431	0.143	-0.019
-210.479	-200.000	-0.004	-0.317
-209.465	-200.000	-0.016	0.290
-208.450	-137.480	0.185	0.021
-207.436	-200.000	-0.033	0.176
-206.421	-142.519	0.093	-0.009
-205.406	-6.306	-0.299	-0.204
-204.392	-41.152	0.300	0.155
-203.377	-4.519	0.178	0.123
-202.363	-46.841	0.135	-0.066
-201.348	-130.456	-0.293	0.040
-200.333	-77.283	0.255	0.089
-199.319	-121.652	-0.134	0.022
-198.304	-200.000	0.001	0.074
-197.290	-190.470	-0.089	0.001
-196.275	16.269	-0.119	0.094
-195.260	508.516	0.148	-0.345
-194.246	-200.000	-0.037	0.170
-193.231	72.680	0.189	-0.198
-192.217	-200.000	-0.038	0.315
-191.202	-84.636	-0.222	0.070
-190.187	-124.966	0.218	0.034
-189.173	284.788	0.063	-0.113
-188.158	12.903	0.132	0.103
-187.144	-27.496	-0.140	-0.081
-186.129	-45.903	0.129	0.064
-185.114	42.557	-0.258	0.235
-184.100	-200.000	0.070	0.343
-183.085	181.565	0.120	0.177
-182.071	-121.581	0.324	-0.054
-181.056	800.000	0.049	0.144
-180.042	-52.325	0.293	0.136
-179.027	-59.094	-0.021	0.009
-178.012	294.497	0.215	0.394
-176.998	29.776	0.201	0.171
-175.983	135.945	-0.168	-0.219
-174.969	-113.280	0.234	0.046
-173.954	-145.576	0.211	-0.019
-172.939	-71.260	-0.373	-0.140
-171.925	217.891	0.113	0.180
-170.910	167.807	-0.032	0.046
-169.896	800.000	-0.079	0.315
-168.881	-144.831	0.096	-0.009
-167.866	-162.106	0.175	0.009
-166.852	29.373	0.199	-0.169
-165.837	-43.266	0.082	0.042
-164.823	-108.889	0.644	0.138
-163.808	800.000	-0.044	0.182
-162.793	800.000	0.052	-0.159
-161.779	-132.120	0.504	0.065
-160.764	800.000	0.116	-0.346
-159.750	-133.452	-0.054	0.007
-158.735	-39.382	0.178	-0.093
-157.720	177.431	0.187	-0.273
-156.706	2.453	0.117	0.084
-155.691	-89.970	-0.284	0.083
-154.677	58.874	0.052	-0.051
-153.662	-115.898	-0.168	-0.031
-152.647	569.760	-0.059	-0.144
-151.633	800.000	0.024	-0.073
-150.618	12.924	-0.194	-0.150
-149.604	341.989	-0.084	0.164
-148.589	471.996	-0.032	-0.072
-147.574	-154.634	-0.221	-0.015
-146.560	75.539	0.305	-0.322
-145.545	-130.287	-0.102	0.014
-144.531	-65.789	0.182	-0.073
-143.516	-133.872	0.344	0.043
-142.502	33.718	0.135	0.117
-141.487	-159.642	-0.092	-0.005
-140.472	-181.359	-0.260	0.005
-139.458	5.636	0.081	0.060
-138.443	215.581	-0.090	0.143
-137.429	201.020	0.103	0.159
-136.414	-200.000	0.009	-0.041
-135.399	-200.000	-0.001	-0.126
-134.385	83.809	0.229	-0.250
-133.370	-19.463	-0.079	-0.049
-132.356	569.447	-0.169	-0.411
-131.341	-62.317	-0.191	0.080
-130.326	-77.770	0.160	0.055
-129.312	-39.362	-0.015	0.008
-128.297	417.983	0.142	-0.303
-127.283	-67.163	-0.074	0.029
-126.268	9.725	-0.215	0.163
-125.253	-92.152	0.389	0.110
-124.239	253.915	0.118	-0.201
-123.224	-46.330	0.165	0.081
-122.210	118.064	-0.287	0.353
-121.195	-115.889	0.233	-0.044
