DTS Sentinel unit serial number:	SN413079Multiplexer serial number:	ORYXHardware model number:	OX4-SRSoftware version number:	ORYX F/W v4.00 Oryx Data Collector v3.7.2.0data status	okinstallation	princeton_trtdifferential loss correction	single-endedforward channel	channel 4reverse channel	N/Adate	2019/09/19time	10:49:35forward acquisition time	60.00reverse acquisition time	0.00gamma	496.2192k internal	0.2327k external	0.2327temperature offset calibration	1.0019default loss term (dB/km)	0.3790temperature slope calibration	1.0000multiplexer offset coefficient	1.0000multiplexer slope coefficient	1.0000fibre end	0.00T internal ref (°C)	24.69T ext. ref 1 (°C)	0.74T ext. ref 2 (°C)	20.14length (m)	temperature (°C)	Stokes	anti-Stokes-747.200	-150.571	-0.453	-0.035
-746.185	288.186	-0.131	0.239
-745.171	-49.466	0.031	-0.015
-744.156	25.185	-0.163	0.136
-743.142	10.037	-0.181	0.139
-742.127	-120.276	-0.080	0.014
-741.112	-175.577	0.332	-0.009
-740.098	-172.039	0.192	0.006
-739.083	-75.372	-0.434	-0.156
-738.069	-200.000	-0.017	0.088
-737.054	-200.000	-0.021	0.264
-736.039	179.763	-0.135	0.200
-735.025	-130.840	0.338	0.046
-734.010	-200.000	-0.073	-0.340
-732.996	800.000	-0.036	-0.118
-731.981	-200.000	0.010	-0.058
-730.966	-200.000	-0.018	-0.196
-729.952	-200.000	0.032	0.295
-728.937	-200.000	0.036	-0.331
-727.923	263.208	0.134	0.234
-726.908	55.172	-0.236	-0.230
-725.894	796.706	0.031	0.087
-724.879	-100.332	-0.071	0.018
-723.864	71.191	0.126	0.132
-722.850	-86.252	-0.212	0.066
-721.835	-200.000	0.029	0.138
-720.821	-50.624	0.147	0.070
-719.806	40.900	0.125	0.114
-718.791	55.545	0.210	-0.205
-717.777	-39.412	-0.141	0.075
-716.762	360.034	-0.130	0.261
-715.748	2.178	-0.115	-0.084
-714.733	529.581	-0.109	-0.258
-713.718	160.630	0.228	-0.321
-712.704	-61.383	0.077	-0.033
-711.689	88.442	-0.127	0.142
-710.675	52.478	0.077	0.074
-709.660	-74.725	-0.144	0.052
-708.645	-200.000	0.007	-0.258
-707.631	-57.244	-0.313	-0.138
-706.616	61.335	0.214	0.214
-705.602	-89.300	0.387	-0.115
-704.587	315.357	0.150	-0.285
-703.572	-70.607	-0.044	-0.017
-702.558	-108.429	-0.139	0.030
-701.543	800.000	0.047	0.186
-700.529	-121.730	0.356	0.059
-699.514	-4.051	0.169	0.118
-698.499	-42.002	-0.371	-0.191
-697.485	219.187	-0.114	-0.183
-696.470	-200.000	-0.013	-0.410
-695.456	800.000	0.093	0.358
-694.441	38.092	-0.110	0.099
-693.426	800.000	-0.023	0.077
-692.412	-200.000	-0.017	-0.314
-691.397	432.372	0.085	-0.186
-690.383	9.108	-0.271	-0.206
-689.368	91.711	0.226	-0.255
-688.354	-176.056	0.218	-0.006
-687.339	288.290	0.101	-0.184
-686.324	332.798	0.061	-0.118
-685.310	-79.260	-0.200	0.068
-684.295	131.131	0.106	0.137
-683.281	135.685	0.121	0.158
-682.266	800.000	-0.083	0.248
-681.251	129.513	-0.045	-0.058
-680.237	-123.988	0.348	0.055
-679.222	736.665	-0.051	0.138
-678.208	3.714	0.328	-0.241
-677.193	-200.000	-0.006	0.120
-676.178	-200.000	0.054	-0.366
-675.164	136.402	-0.322	-0.422
-674.149	-121.063	0.216	0.037
-673.135	-5.944	0.292	-0.201
-672.120	-200.000	-0.010	-0.235
-671.105	377.771	0.035	0.071
-670.091	800.000	-0.045	0.139
-669.076	-122.497	0.232	-0.038
-668.062	-104.182	-0.451	-0.105
-667.047	-200.000	0.027	-0.153
-666.032	621.018	-0.034	0.085
-665.018	-200.000	-0.000	-0.290
-664.003	800.000	0.028	-0.083
-662.989	749.232	-0.115	-0.312
-661.974	53.541	-0.099	0.095
-660.959	800.000	0.020	0.067
-659.945	49.642	-0.058	0.055
-658.930	17.150	0.294	0.234
-657.916	-58.195	0.325	-0.142
-656.901	16.785	-0.050	0.040
-655.886	203.051	-0.122	0.189
-654.872	-20.627	-0.139	0.086
-653.857	-200.000	0.078	-0.368
-652.843	-156.594	-0.058	0.004
-651.828	86.610	0.140	-0.155
-650.814	3.515	-0.400	-0.293
-649.799	67.630	0.038	0.039
-648.784	-115.546	-0.306	-0.058
-647.770	-200.000	0.015	-0.134
-646.755	794.873	-0.134	0.371
-645.741	-61.980	-0.184	-0.077
-644.726	-133.815	-0.245	0.031
-643.711	20.346	0.234	0.190
-642.697	-20.171	0.435	0.269
-641.682	757.224	0.102	-0.277
-640.668	312.311	-0.152	0.286
-639.653	-15.876	-0.189	-0.121
-638.638	-5.392	0.228	0.158
-637.624	-200.000	0.007	-0.250
-636.609	-56.061	-0.381	-0.170
-635.595	-97.476	0.136	-0.035
-634.580	-200.000	0.023	0.161
-633.565	-163.910	-0.139	0.007
-632.551	-116.844	-0.220	-0.040
-631.536	-6.574	-0.206	-0.141
-630.522	21.777	-0.215	-0.176
-629.507	113.545	0.081	-0.099
-628.492	-154.987	0.138	0.009
-627.478	-163.946	-0.320	0.015
-626.463	362.232	0.049	-0.099
-625.449	-200.000	0.009	0.157
-624.434	-38.588	0.174	-0.092
-623.419	-156.989	-0.423	0.026
-622.405	-200.000	-0.014	-0.094
-621.390	-35.893	-0.186	-0.101
-620.376	-82.570	-0.248	-0.081
-619.361	800.000	0.032	-0.113
-618.346	-200.000	-0.014	0.069
-617.332	-111.325	-0.061	0.012
-616.317	228.753	0.149	-0.243
-615.303	-79.007	0.134	-0.046
-614.288	113.639	-0.046	-0.055
-613.273	270.392	-0.205	-0.361
-612.259	30.102	0.091	0.078
-611.244	149.534	0.111	-0.151
-610.230	426.970	0.055	-0.119
-609.215	20.915	-0.223	-0.181
-608.201	162.891	-0.139	-0.195
-607.186	-124.070	0.350	0.055
-606.171	419.280	-0.185	0.397
-605.157	-63.665	-0.275	-0.113
-604.142	-4.009	-0.132	-0.092
-603.128	12.093	-0.171	-0.132
-602.113	305.672	0.170	-0.316
-601.098	-97.363	0.024	-0.006
-600.084	26.258	0.276	-0.231
-599.069	800.000	-0.053	-0.186
-598.055	-67.614	-0.072	-0.028
-597.040	368.227	0.050	-0.101
-596.025	557.249	-0.102	0.245
-595.011	18.392	0.229	-0.184
-593.996	-200.000	-0.004	0.274
-592.982	54.971	0.134	-0.130
-591.967	-174.410	0.061	-0.002
-590.952	-132.979	0.339	-0.043
-589.938	149.296	-0.091	0.123
-588.923	-31.950	0.121	-0.068
-587.909	174.144	0.132	-0.191
-586.894	220.302	0.074	0.119
-585.879	-38.185	0.195	0.104
-584.865	204.333	0.018	-0.027
-583.850	545.150	-0.069	-0.166
-582.836	800.000	-0.056	0.240
-581.821	-60.072	-0.391	-0.167
-580.806	-102.202	0.205	0.049
-579.792	-200.000	0.018	0.156
-578.777	-160.816	0.471	-0.025
-577.763	47.665	-0.093	-0.087
-576.748	53.613	-0.262	-0.252
-575.733	-200.000	-0.008	0.124
-574.719	-12.535	-0.104	-0.068
-573.704	-29.581	0.197	-0.113
-572.690	800.000	-0.054	-0.176
-571.675	800.000	-0.074	-0.256
-570.661	-88.797	-0.097	-0.029
-569.646	-45.130	0.085	-0.042
-568.631	138.767	0.181	-0.238
-567.617	-160.386	0.072	0.004
-566.602	45.700	0.175	-0.162
-565.588	20.457	-0.223	-0.180
-564.573	-200.000	0.023	-0.216
-563.558	111.012	0.167	0.201
-562.544	-190.277	0.055	-0.001
-561.529	-200.000	-0.044	-0.194
-560.515	136.939	-0.148	0.193
-559.500	-144.879	0.130	0.012
-558.485	468.596	-0.025	0.056
-557.471	-200.000	0.070	-0.308
-556.456	-77.126	0.275	-0.096
-555.442	697.323	-0.157	-0.414
-554.427	-200.000	-0.037	-0.206
-553.412	-43.402	0.267	-0.135
-552.398	572.490	-0.145	0.354
-551.383	99.559	-0.016	0.019
-550.369	170.625	0.090	-0.129
-549.354	124.116	0.267	0.335
-548.339	88.450	0.345	0.383
-547.325	601.592	-0.061	0.152
-546.310	800.000	-0.100	0.341
-545.296	69.863	-0.077	0.079
-544.281	-106.429	-0.145	0.032
-543.266	-33.838	-0.190	-0.105
-542.252	-68.706	0.254	0.098
-541.237	198.563	-0.241	-0.369
-540.223	146.086	-0.116	0.156
-539.208	186.255	0.054	-0.080
-538.193	-41.751	-0.247	0.127
-537.179	204.464	0.212	0.329
-536.164	-98.641	-0.223	-0.057
-535.150	800.000	-0.071	-0.213
-534.135	-21.509	-0.237	0.145
-533.121	27.443	0.227	-0.191
-532.106	115.468	0.074	0.091
-531.091	-200.000	0.002	0.143
-530.077	-200.000	-0.051	0.391
-529.062	0.498	0.053	0.038
-528.048	83.204	0.117	0.128
-527.033	-200.000	0.028	-0.269
-526.018	180.509	-0.209	-0.307
-525.004	-19.723	-0.120	0.074
-523.989	12.433	0.142	-0.110
-522.975	-200.000	-0.064	-0.309
-521.960	20.381	-0.126	-0.102
-520.945	3.267	-0.267	-0.194
-519.931	102.631	0.134	0.157
-518.916	387.484	-0.141	0.291
-517.902	145.459	0.072	0.097
-516.887	41.912	-0.128	0.116
-515.872	800.000	-0.077	-0.273
-514.858	-182.761	-0.387	0.007
-513.843	-98.216	0.197	-0.050
-512.829	-88.887	0.197	0.058
-511.814	-179.055	-0.396	0.009
-510.799	-59.262	-0.184	0.079
-509.785	233.541	-0.098	0.161
-508.770	98.771	0.258	-0.298
-507.756	800.000	-0.074	0.233
-506.741	-112.202	-0.293	0.059
-505.726	-51.783	0.114	0.053
-504.712	-200.000	-0.019	-0.151
-503.697	-93.423	-0.200	0.055
-502.683	409.580	-0.134	0.284
-501.668	-51.699	0.274	0.127
-500.653	800.000	-0.130	0.391
-499.639	-33.826	0.162	0.089
-498.624	-123.211	0.164	0.026
-497.610	800.000	0.029	0.118
-496.595	-61.039	-0.231	-0.097
-495.581	-200.000	0.085	0.398
-494.566	-1.121	-0.125	0.088
-493.551	-200.000	0.008	0.102
-492.537	-81.666	-0.186	0.061
-491.522	-200.000	0.039	0.271
-490.508	-99.994	-0.159	0.040
-489.493	18.470	0.068	-0.054
-488.478	-200.000	0.027	0.271
-487.464	-23.556	0.190	0.114
-486.449	-60.674	0.240	0.102
-485.435	-124.736	0.135	-0.021
-484.420	69.244	0.169	0.173
-483.405	700.587	-0.111	0.291
-482.391	-36.035	-0.182	0.098
-481.376	-200.000	0.024	-0.235
-480.362	28.411	-0.115	0.097
-479.347	-200.000	0.011	0.367
-478.332	800.000	0.036	0.107
-477.318	5.146	0.236	0.173
-476.303	112.684	-0.161	-0.195
-475.289	88.108	0.055	0.061
-474.274	-140.791	0.114	-0.012
-473.259	800.000	-0.073	-0.273
-472.245	-107.864	0.161	0.035
-471.230	-3.031	-0.371	-0.258
-470.216	205.489	0.081	-0.125
-469.201	31.512	0.230	0.197
-468.186	347.082	-0.169	-0.332
-467.172	-200.000	-0.010	-0.109
-466.157	-127.637	-0.147	0.021
-465.143	-17.730	-0.369	-0.231
-464.128	800.000	-0.025	0.086
-463.113	-36.627	0.327	-0.175
-462.099	-119.302	-0.221	-0.038
-461.084	-172.855	-0.201	-0.006
-460.070	-64.910	-0.317	0.128
-459.055	171.610	-0.245	0.351
-458.040	-200.000	0.034	0.254
-457.026	800.000	-0.090	0.390
-456.011	-143.277	0.467	0.045
-454.997	427.931	0.046	-0.098
-453.982	-56.983	0.261	-0.115
-452.968	-19.670	-0.213	-0.131
-451.953	-102.159	-0.333	-0.080
-450.938	-63.467	-0.221	-0.091
-449.924	-200.000	-0.009	0.274
-448.909	278.501	0.069	0.122
-447.895	800.000	0.077	0.287
-446.880	593.122	-0.119	-0.294
-445.865	-7.629	-0.211	-0.142
-444.851	21.930	-0.242	0.197
-443.836	15.923	-0.014	0.011
-442.822	-78.125	0.223	0.076
-441.807	292.664	-0.138	0.250
-440.792	-60.227	-0.030	-0.013
-439.778	79.682	-0.116	0.124
-438.763	-200.000	-0.020	-0.127
-437.749	-200.000	-0.011	0.114
-436.734	-31.186	-0.158	-0.088
-435.719	7.419	0.171	0.127
-434.705	-28.630	-0.055	-0.031
-433.690	-21.548	0.225	-0.137
-432.676	33.129	0.093	-0.080
-431.661	-0.641	0.136	-0.096
-430.646	-200.000	-0.002	-0.399
-429.632	-200.000	-0.058	-0.514
-428.617	800.000	-0.095	0.274
-427.603	-34.686	-0.286	0.156
-426.588	703.510	0.066	0.173
-425.573	54.448	-0.087	-0.084
-424.559	-18.084	-0.177	0.111
-423.544	50.701	0.211	0.199
-422.530	207.776	-0.073	0.113
-421.515	-110.650	0.274	0.056
-420.500	-200.000	-0.036	-0.201
-419.486	523.132	-0.088	-0.206
-418.471	-51.964	0.066	0.031
-417.457	-200.000	-0.014	0.151
-416.442	56.800	-0.110	0.107
-415.428	673.181	-0.111	0.286
-414.413	-29.434	0.322	0.183
-413.398	156.721	-0.083	-0.114
-412.384	800.000	-0.091	0.260
-411.369	-51.750	0.309	-0.143
-410.355	-200.000	0.044	0.197
-409.340	-45.555	0.371	-0.183
-408.325	-8.524	0.122	0.081
-407.311	539.418	0.071	-0.168
-406.296	621.117	-0.086	-0.215
-405.282	161.494	-0.121	-0.169
-404.267	800.000	0.034	-0.100
-403.252	-100.975	-0.315	-0.077
-402.238	-182.333	0.249	0.005
-401.223	800.000	0.115	-0.345
-400.209	-171.495	-0.333	-0.011
-399.194	48.160	0.318	-0.295
-398.179	186.750	-0.082	0.122
-397.165	48.180	-0.121	0.112
-396.150	-200.000	-0.031	0.165
-395.136	-65.309	0.330	-0.132
-394.121	-15.415	0.201	-0.128
-393.106	-200.000	0.005	0.108
-392.092	-20.679	-0.046	-0.028
-391.077	58.016	-0.173	0.168
-390.063	-24.475	0.188	0.111
-389.048	-104.825	0.130	0.030
-388.033	-104.566	0.140	0.032
-387.019	-82.269	-0.226	-0.073
-386.004	-200.000	-0.020	0.293
-384.990	74.579	-0.223	0.234
-383.975	-105.686	-0.111	0.025
-382.960	465.179	0.079	0.177
-381.946	-69.728	-0.077	0.029
-380.931	13.652	0.204	0.157
-379.917	-28.399	-0.393	0.226
-378.902	16.231	0.164	-0.129
-377.888	-71.621	-0.071	-0.026
-376.873	1.290	0.150	0.107
-375.858	-127.502	0.286	-0.041
-374.844	-45.957	0.412	0.202
-373.829	-70.704	-0.297	-0.111
-372.815	-200.000	0.006	-0.175
-371.800	-66.389	0.116	0.046
-370.785	-79.663	-0.141	-0.047
-369.771	-200.000	-0.017	-0.170
-368.756	-20.912	-0.238	-0.145
-367.742	260.135	-0.126	-0.217
-366.727	-73.028	0.601	-0.219
-365.712	800.000	0.059	0.212
-364.698	-140.528	0.010	-0.001
-363.683	-73.205	-0.150	-0.055
-362.669	345.527	0.028	0.055
-361.654	-74.774	-0.286	0.102
-360.639	216.560	0.094	0.148
-359.625	189.743	-0.061	0.090
-358.610	-200.000	-0.000	-0.003
-357.596	268.192	0.190	0.331
-356.581	-200.000	0.009	0.239
-355.566	-128.042	-0.189	0.027
-354.552	17.049	-0.222	-0.175
-353.537	88.685	0.214	-0.236
-352.523	-129.035	-0.338	-0.047
-351.508	222.675	-0.193	-0.308
-350.493	-35.975	-0.256	-0.137
-349.479	542.773	0.044	0.104
-348.464	-80.730	-0.326	0.108
-347.450	70.128	0.064	0.066
-346.435	311.515	-0.023	0.043
-345.420	42.414	-0.059	0.053
-344.406	-148.971	0.548	0.044
-343.391	-200.000	-0.008	0.139
-342.377	-200.000	0.014	-0.129
-341.362	-118.924	-0.481	-0.084
-340.348	34.168	0.174	-0.151
-339.333	105.935	-0.266	-0.312
-338.318	69.877	-0.108	-0.111
-337.304	17.397	0.055	0.043
-336.289	-90.537	0.072	0.021
-335.275	-102.488	-0.236	-0.056
-334.260	-126.745	-0.103	0.015
-333.245	163.109	-0.151	0.211
-332.231	-200.000	-0.006	-0.200
-331.216	398.378	0.150	0.311
-330.202	-22.352	-0.075	0.045
-329.187	-200.000	0.010	-0.091
-328.172	800.000	-0.012	0.040
-327.158	-88.290	0.279	0.083
-326.143	-29.537	0.271	0.154
-325.129	451.464	0.126	-0.276
-324.114	635.741	0.094	0.235
-323.099	-131.751	0.326	-0.042
-322.085	97.749	0.240	-0.274
-321.070	-60.386	-0.308	0.130
-320.056	-30.142	-0.269	0.152
-319.041	-27.402	0.258	0.149
-318.026	800.000	0.075	-0.327
-317.012	15.510	0.017	0.013
-315.997	-49.295	0.104	-0.049
-314.983	32.491	-0.295	-0.252
-313.968	-57.536	-0.266	0.116
-312.953	-48.326	0.513	0.245
-311.939	366.399	0.082	-0.163
-310.924	469.811	0.065	-0.145
-309.910	-29.023	0.177	0.101
-308.895	800.000	0.045	0.134
-307.880	434.085	0.118	0.255
-306.866	20.464	0.094	0.076
-305.851	800.000	-0.090	-0.361
-304.837	-89.854	0.155	-0.045
-303.822	34.651	0.271	0.235
-302.807	43.841	-0.126	0.115
-301.793	-200.000	-0.005	0.070
-300.778	-200.000	0.037	-0.289
-299.764	-174.937	0.177	0.005
-298.749	800.000	0.100	-0.365
-297.735	-200.000	-0.023	0.180
-296.720	165.097	0.164	-0.229
-295.705	-52.509	-0.047	0.021
-294.691	235.753	0.082	0.134
-293.676	800.000	-0.016	-0.060
-292.662	-200.000	-0.018	-0.134
-291.647	-46.553	-0.173	-0.084
-290.632	800.000	0.091	-0.276
-289.618	-117.224	-0.006	0.001
-288.603	-101.268	0.031	-0.008
-287.589	-33.718	-0.313	-0.171
-286.574	219.884	-0.092	0.146
-285.559	138.845	-0.272	0.354
-284.545	-200.000	-0.020	0.125
-283.530	-43.967	-0.300	-0.149
-282.516	-200.000	-0.021	0.218
-281.501	-44.929	-0.049	0.024
-280.486	211.957	0.091	0.142
-279.472	-200.000	0.022	-0.266
-278.457	-123.042	0.269	-0.043
-277.443	-39.690	-0.137	-0.071
-276.428	-111.928	-0.287	-0.057
-275.413	800.000	-0.013	0.040
-274.399	-151.740	0.069	-0.005
-273.384	592.020	-0.108	0.264
-272.370	800.000	-0.107	0.312
-271.355	800.000	-0.082	0.246
-270.340	-9.840	-0.233	0.153
-269.326	-72.526	-0.119	0.044
-268.311	58.232	0.223	-0.216
-267.297	-115.684	0.284	0.053
-266.282	-158.709	-0.325	-0.018
-265.267	48.415	-0.161	-0.150
-264.253	-200.000	0.044	0.364
-263.238	-200.000	-0.001	0.282
-262.224	501.315	0.091	-0.209
-261.209	11.667	-0.107	0.081
-260.195	625.911	-0.110	0.274
-259.180	-140.836	0.275	-0.028
-258.165	800.000	0.075	-0.226
-257.151	-59.915	-0.109	0.046
-256.136	311.456	-0.141	0.262
-255.122	34.051	0.152	0.131
-254.107	-124.899	0.085	-0.013
-253.092	578.188	0.087	0.210
-252.078	187.014	-0.055	-0.080
-251.063	54.391	0.201	-0.191
-250.049	174.407	-0.130	-0.186
-249.034	-97.586	0.170	-0.044
-248.019	15.859	-0.259	-0.201
-247.005	-200.000	-0.028	-0.487
-245.990	214.239	0.032	0.050
-244.976	93.149	0.275	0.307
-243.961	-85.690	0.282	0.087
-242.946	-46.411	-0.232	0.113
-241.932	219.867	-0.175	0.277
-240.917	-75.823	0.286	-0.100
-239.903	381.754	-0.026	0.053
-238.888	-69.348	-0.340	-0.129
-237.873	-20.331	-0.122	-0.074
-236.859	193.086	0.118	-0.176
-235.844	457.807	0.210	-0.461
-234.830	-74.769	-0.139	0.049
-233.815	-200.000	-0.015	0.123
-232.800	83.755	0.091	0.098
-231.786	-119.770	0.417	-0.071
-230.771	-200.000	-0.028	0.239
-229.757	-36.587	0.193	0.103
-228.742	722.794	0.128	-0.335
-227.727	-73.524	-0.207	-0.075
-226.713	-114.797	-0.179	0.034
-225.698	-22.757	0.243	0.145
-224.684	172.482	-0.039	0.055
-223.669	186.087	0.086	0.126
-222.655	-67.772	-0.232	0.090
-221.640	-86.574	0.096	-0.029
-220.625	33.878	0.236	0.203
-219.611	800.000	-0.075	0.270
-218.596	322.840	0.154	0.289
-217.582	800.000	0.032	-0.118
-216.567	119.694	0.166	-0.203
-215.552	800.000	-0.087	-0.282
-214.538	800.000	-0.062	0.264
-213.523	-200.000	-0.010	-0.049
-212.509	359.166	0.105	-0.206
-211.494	-200.000	-0.057	-0.419
-210.479	-31.245	0.207	-0.115
-209.465	-200.000	0.018	0.271
-208.450	-200.000	0.069	0.348
-207.436	-79.901	0.269	0.089
-206.421	-5.444	-0.130	0.088
-205.406	-73.515	-0.075	-0.027
-204.392	533.581	0.036	0.084
-203.377	-3.000	-0.464	-0.320
-202.363	800.000	-0.061	-0.240
-201.348	-102.440	0.209	-0.049
-200.333	-139.390	0.128	0.014
-199.319	-82.884	-0.141	0.045
-198.304	26.207	0.168	0.138
-197.290	-200.000	0.040	-0.227
-196.275	258.092	-0.079	-0.134
-195.260	288.435	0.059	0.105
-194.246	-85.887	-0.374	-0.114
-193.231	179.296	0.050	0.072
-192.217	15.196	-0.229	-0.177
-191.202	-200.000	0.009	0.093
-190.187	67.697	0.111	0.112
-189.173	800.000	0.130	-0.453
-188.158	78.675	0.157	0.166
-187.144	-200.000	0.002	-0.191
-186.129	-200.000	-0.018	0.224
-185.114	-144.291	0.165	0.015
-184.100	-30.356	-0.064	0.036
-183.085	-57.960	0.069	0.030
-182.071	800.000	0.073	0.208
-181.056	796.294	-0.239	-0.648
-180.042	-5.280	0.301	0.204
-179.027	113.947	0.110	-0.132
-178.012	-200.000	0.001	-0.046
-176.998	-151.189	0.113	-0.008
-175.983	800.000	0.101	-0.378
-174.969	138.511	-0.023	0.030
-173.954	104.823	0.101	-0.118
-172.939	-141.887	0.164	0.016
-171.925	-176.666	0.242	0.006
-170.910	-200.000	-0.002	0.105
-169.896	-122.323	0.099	-0.016
-168.881	-163.106	0.250	0.012
-167.866	14.200	-0.095	0.073
-166.852	86.167	0.052	-0.056
-165.837	800.000	0.076	-0.206
-164.823	51.430	0.098	0.092
-163.808	-111.632	0.237	-0.047
-162.793	13.656	0.148	0.113
-161.779	329.813	0.081	-0.153
-160.764	-200.000	0.031	0.278
-159.750	-171.439	-0.218	0.007
-158.735	298.245	0.074	0.135
-157.720	-11.134	-0.053	0.034
-156.706	-120.807	-0.164	0.027
-155.691	-9.265	0.124	0.082
-154.677	-41.309	-0.097	0.049
-153.662	131.418	0.023	0.029
-152.647	-52.191	0.188	-0.086
-151.633	-200.000	-0.063	-0.306
-150.618	-7.840	0.133	0.088
-149.604	-160.966	0.166	-0.009
-148.589	-160.091	0.421	-0.023
-147.574	-200.000	0.010	-0.310
-146.560	11.477	0.446	-0.337
-145.545	-24.641	0.351	-0.205
-144.531	-29.338	0.045	0.025
-143.516	-45.279	0.212	0.104
-142.502	-73.004	0.051	-0.018
-141.487	-165.309	-0.258	0.011
-140.472	-200.000	0.009	-0.112
-139.458	-36.650	0.343	0.182
-138.443	-200.000	-0.014	-0.101
-137.429	-80.565	0.227	-0.074
-136.414	-93.471	0.395	-0.108
-135.399	-200.000	-0.056	0.261
-134.385	-8.606	0.268	-0.177
-133.370	-48.757	-0.184	-0.087
-132.356	743.102	0.133	0.351
-131.341	-200.000	-0.002	-0.323
-130.326	-110.544	0.186	0.038
-129.312	-200.000	0.026	0.383
-128.297	-165.537	0.169	0.007
-127.283	67.835	-0.291	-0.293
-126.268	800.000	0.008	0.024
-125.253	-63.402	0.235	0.095
-124.239	-53.479	-0.291	-0.131
-123.224	243.798	-0.130	0.215
-122.210	-131.870	0.184	-0.024
-121.195	-200.000	0.062	0.309
-120.180	-79.182	0.317	-0.106
