DTS Sentinel unit serial number:	SN413079Multiplexer serial number:	ORYXHardware model number:	OX4-SRSoftware version number:	ORYX F/W v4.00 Oryx Data Collector v3.7.2.0data status	okinstallation	princeton_trtdifferential loss correction	single-endedforward channel	channel 4reverse channel	N/Adate	2019/09/16time	08:57:35forward acquisition time	60.00reverse acquisition time	0.00gamma	496.2192k internal	0.2310k external	0.2310temperature offset calibration	0.9972default loss term (dB/km)	0.3790temperature slope calibration	1.0000multiplexer offset coefficient	1.0000multiplexer slope coefficient	1.0000fibre end	0.00T internal ref (°C)	30.33T ext. ref 1 (°C)	12.04T ext. ref 2 (°C)	28.04length (m)	temperature (°C)	Stokes	anti-Stokes-747.200	-200.000	0.011	0.426
-746.185	-79.199	-0.200	0.069
-745.171	-116.340	-0.205	-0.038
-744.156	-182.753	0.061	-0.001
-743.142	1.120	0.158	0.115
-742.127	30.264	-0.043	-0.037
-741.112	-66.023	-0.075	0.031
-740.098	-200.000	-0.009	0.193
-739.083	-77.263	-0.391	0.138
-738.069	-12.286	-0.104	0.069
-737.054	4.357	-0.265	-0.197
-736.039	66.264	-0.026	0.027
-735.025	-200.000	-0.069	0.323
-734.010	-36.194	-0.084	-0.046
-732.996	-185.681	-0.384	0.006
-731.981	-200.000	-0.006	0.269
-730.966	132.108	0.027	-0.035
-729.952	141.817	-0.101	0.136
-728.937	4.476	-0.169	0.126
-727.923	250.174	-0.026	0.044
-726.908	-200.000	-0.038	-0.496
-725.894	-79.125	-0.260	0.090
-724.879	800.000	0.051	0.177
-723.864	-117.064	-0.251	-0.047
-722.850	-176.178	-0.248	0.007
-721.835	-154.574	-0.185	0.013
-720.821	-48.749	-0.295	-0.144
-719.806	610.878	-0.028	-0.071
-718.791	193.759	0.137	-0.210
-717.777	179.585	-0.104	0.155
-716.762	222.148	0.032	0.053
-715.748	-98.035	-0.022	0.006
-714.733	-63.957	-0.103	-0.043
-713.718	-74.098	0.390	0.143
-712.704	-200.000	0.012	-0.090
-711.689	59.371	0.317	0.316
-710.675	111.411	0.216	0.264
-709.660	-39.141	-0.246	-0.131
-708.645	338.368	-0.095	0.188
-707.631	-200.000	0.016	0.203
-706.616	67.138	0.135	0.140
-705.602	-112.912	-0.275	-0.055
-704.587	-195.536	0.428	-0.003
-703.572	30.846	-0.062	0.053
-702.558	37.103	0.199	-0.179
-701.543	-93.858	-0.065	-0.018
-700.529	-52.333	0.180	-0.085
-699.514	-74.790	0.447	0.163
-698.499	-200.000	0.047	0.232
-697.485	-75.456	-0.156	0.056
-696.470	-168.599	0.302	-0.012
-695.456	-200.000	-0.005	-0.268
-694.441	-200.000	-0.049	0.232
-693.426	-200.000	0.002	0.033
-692.412	-139.839	-0.117	-0.013
-691.397	103.177	0.143	0.170
-690.383	-200.000	0.011	0.103
-689.368	275.318	-0.030	0.055
-688.354	-81.050	0.237	0.079
-687.339	712.714	0.069	-0.184
-686.324	-122.853	0.260	0.043
-685.310	-200.000	0.048	-0.212
-684.295	68.013	-0.102	-0.106
-683.281	13.149	0.108	0.085
-682.266	48.901	-0.332	-0.315
-681.251	-126.462	-0.203	0.031
-680.237	348.035	0.146	0.292
-679.222	-61.891	0.019	0.008
-678.208	-200.000	-0.001	0.098
-677.193	68.466	-0.110	-0.114
-676.178	298.921	0.201	-0.375
-675.164	-200.000	-0.009	0.085
-674.149	100.064	0.087	-0.103
-673.135	-98.666	0.117	0.030
-672.120	-59.846	0.211	-0.092
-671.105	-136.621	-0.207	-0.024
-670.091	-200.000	0.009	-0.185
-669.076	-104.712	-0.110	0.026
-668.062	-141.066	-0.183	0.019
-667.047	-151.774	0.246	0.018
-666.032	-42.211	-0.281	0.145
-665.018	78.472	-0.110	0.119
-664.003	457.462	-0.092	0.208
-662.989	-64.600	0.420	-0.173
-661.974	-11.543	-0.069	0.046
-660.959	-172.609	0.137	0.004
-659.945	800.000	-0.039	0.135
-658.930	-155.882	0.056	0.004
-657.916	21.611	0.053	0.044
-656.901	363.025	0.057	-0.116
-655.886	-200.000	-0.006	0.240
-654.872	128.912	0.141	-0.182
-653.857	800.000	-0.043	-0.180
-652.843	-72.811	-0.032	0.012
-651.828	331.388	-0.084	0.165
-650.814	-200.000	0.013	-0.170
-649.799	-98.886	-0.421	-0.108
-648.784	800.000	-0.071	-0.253
-647.770	101.095	-0.251	0.295
-646.755	92.034	-0.234	0.267
-645.741	800.000	-0.038	-0.120
-644.726	161.229	0.083	0.117
-643.711	-102.163	0.080	-0.019
-642.697	-12.517	0.120	-0.079
-641.682	-120.216	0.124	0.021
-640.668	69.261	-0.266	-0.277
-639.653	800.000	0.011	0.044
-638.638	-200.000	0.018	0.182
-637.624	51.406	-0.040	0.038
-636.609	33.267	0.344	0.302
-635.595	35.855	-0.216	-0.192
-634.580	12.495	0.095	-0.074
-633.565	800.000	0.028	-0.094
-632.551	176.617	0.217	-0.319
-631.536	-119.667	0.113	0.020
-630.522	-95.713	0.241	-0.065
-629.507	800.000	-0.030	-0.118
-628.492	126.156	0.257	0.329
-627.478	800.000	-0.138	0.389
-626.463	-81.630	0.091	0.030
-625.449	-200.000	0.019	0.140
-624.434	-7.853	0.191	0.131
-623.419	288.274	0.265	-0.484
-622.405	74.766	0.127	0.135
-621.390	562.831	-0.111	-0.273
-620.376	-9.642	-0.131	-0.088
-619.361	404.967	-0.148	0.316
-618.346	800.000	0.056	0.175
-617.332	-200.000	-0.014	-0.128
-616.317	-52.806	-0.163	0.076
-615.303	-200.000	0.022	-0.308
-614.288	800.000	-0.009	0.033
-613.273	-200.000	-0.003	-0.032
-612.259	-200.000	-0.018	0.354
-611.244	276.456	-0.124	-0.223
-610.230	-200.000	0.010	-0.108
-609.215	780.949	0.078	-0.215
-608.201	-85.509	0.051	-0.016
-607.186	-60.967	-0.304	0.130
-606.171	-40.042	-0.359	0.189
-605.157	-47.009	-0.036	-0.018
-604.142	-92.624	-0.100	-0.028
-603.128	-104.816	-0.167	-0.039
-602.113	-200.000	0.045	-0.257
-601.098	800.000	0.105	-0.295
-600.084	-121.308	-0.332	0.056
-599.069	800.000	0.086	0.264
-598.055	362.761	-0.152	0.309
-597.040	677.060	0.064	-0.168
-596.025	-142.652	0.199	0.020
-595.011	-96.527	-0.354	-0.094
-593.996	16.278	0.121	-0.097
-592.982	247.700	0.237	-0.404
-591.967	-200.000	0.006	-0.166
-590.952	-59.093	0.081	0.035
-589.938	-98.931	-0.246	0.063
-588.923	-55.097	0.279	0.127
-587.909	-200.000	0.038	-0.191
-586.894	39.917	0.245	0.222
-585.879	103.088	-0.056	-0.067
-584.865	-5.197	-0.127	0.088
-583.850	800.000	-0.054	-0.184
-582.836	166.054	-0.067	-0.096
-581.821	-200.000	-0.033	-0.206
-580.806	-13.521	-0.245	-0.160
-579.792	68.867	0.047	-0.049
-578.777	-9.853	-0.199	0.133
-577.763	-22.172	-0.164	0.100
-576.748	-101.373	0.283	0.070
-575.733	100.623	0.175	-0.205
-574.719	800.000	0.113	-0.421
-573.704	-200.000	0.001	-0.250
-572.690	13.680	-0.139	0.109
-571.675	105.773	0.013	0.016
-570.661	-117.345	-0.200	0.037
-569.646	-9.805	0.048	-0.032
-568.631	-115.760	-0.426	-0.080
-567.617	-200.000	-0.002	-0.109
-566.602	800.000	0.011	-0.041
-565.588	800.000	-0.026	-0.099
-564.573	-200.000	-0.004	0.176
-563.558	-13.359	-0.278	0.182
-562.544	-47.442	0.066	0.033
-561.529	118.366	-0.095	0.118
-560.515	45.995	-0.097	0.090
-559.500	108.382	-0.054	0.064
-558.485	-200.000	-0.019	0.331
-557.471	800.000	-0.042	-0.157
-556.456	483.944	0.084	-0.193
-555.442	-200.000	-0.079	0.353
-554.427	22.129	0.131	0.108
-553.412	479.052	-0.156	0.357
-552.398	-4.830	0.131	0.091
-551.383	800.000	0.051	0.183
-550.369	800.000	-0.088	0.338
-549.354	192.791	0.163	-0.249
-548.339	-45.251	0.047	0.024
-547.325	291.995	0.183	0.336
-546.310	78.756	0.106	-0.114
-545.296	-89.391	-0.354	0.105
-544.281	-21.355	0.271	0.166
-543.266	-57.248	0.140	-0.062
-542.252	604.539	-0.137	0.344
-541.237	-200.000	0.015	0.163
-540.223	800.000	-0.060	0.179
-539.208	-200.000	0.035	0.183
-538.193	-52.986	-0.158	0.073
-537.179	-15.489	-0.033	-0.021
-536.164	-87.316	-0.126	0.038
-535.150	125.471	0.166	-0.211
-534.135	68.291	-0.188	0.194
-533.121	-200.000	0.012	0.529
-532.106	108.663	-0.122	0.147
-531.091	27.860	-0.278	-0.236
-530.077	-144.548	-0.199	0.018
-529.062	126.714	-0.030	-0.038
-528.048	70.946	0.136	-0.142
-527.033	-195.177	-0.186	-0.001
-526.018	800.000	-0.097	0.368
-525.004	-144.436	0.425	0.040
-523.989	-122.087	-0.382	0.063
-522.975	-16.452	-0.167	0.107
-521.960	47.320	0.027	-0.026
-520.945	279.403	-0.207	-0.373
-519.931	233.283	-0.218	0.362
-518.916	800.000	0.082	0.232
-517.902	800.000	-0.056	-0.221
-516.887	800.000	0.061	-0.179
-515.872	-102.958	-0.008	-0.002
-514.858	-200.000	-0.001	-0.047
-513.843	800.000	-0.038	-0.120
-512.829	-127.706	-0.135	-0.020
-511.814	800.000	0.045	0.184
-510.799	-200.000	0.004	-0.137
-509.785	-160.933	0.192	-0.010
-508.770	99.522	-0.165	-0.192
-507.756	-119.511	0.412	0.072
-506.741	9.281	0.162	-0.123
-505.726	-2.415	0.201	-0.142
-504.712	-50.113	-0.332	-0.158
-503.697	-139.576	-0.213	-0.023
-502.683	-200.000	0.020	0.104
-501.668	170.448	0.055	-0.080
-500.653	-100.231	-0.188	-0.047
-499.639	33.913	0.221	0.194
-498.624	800.000	-0.039	-0.120
-497.610	336.336	-0.015	0.029
-496.595	-58.196	-0.156	0.068
-495.581	197.563	0.195	0.299
-494.566	355.267	0.139	0.278
-493.551	715.919	-0.069	-0.184
-492.537	155.389	0.129	-0.179
-491.522	-12.217	0.237	0.156
-490.508	-58.843	0.281	0.122
-489.493	529.791	0.188	-0.445
-488.478	-73.517	-0.395	-0.145
-487.464	39.103	0.152	0.137
-486.449	-49.863	0.098	0.047
-485.435	277.459	0.047	-0.083
-484.420	18.484	-0.213	0.171
-483.405	103.848	0.124	0.147
-482.391	-83.256	0.144	0.047
-481.376	452.465	0.023	-0.051
-480.362	7.200	0.058	-0.044
-479.347	800.000	0.016	-0.049
-478.332	368.510	-0.126	-0.256
-477.318	-39.073	0.142	-0.075
-476.303	800.000	-0.091	-0.273
-475.289	-200.000	-0.017	-0.294
-474.274	-84.087	0.151	0.048
-473.259	-69.819	0.276	0.106
-472.245	-128.841	0.305	-0.043
-471.230	-27.932	-0.063	-0.037
-470.216	23.248	-0.094	0.078
-469.201	-81.142	0.168	0.056
-468.186	-153.547	-0.189	-0.013
-467.172	20.950	0.048	0.039
-466.157	-135.054	-0.257	0.031
-465.143	-58.173	0.127	0.056
-464.128	55.173	-0.197	-0.192
-463.113	63.852	0.231	0.233
-462.099	-116.104	-0.268	-0.050
-461.084	-60.174	-0.262	0.112
-460.070	39.802	-0.153	0.138
-459.055	-200.000	0.018	-0.087
-458.040	25.094	0.180	0.150
-457.026	-108.159	0.232	0.050
-456.011	373.626	-0.067	0.136
-454.997	-10.387	0.101	0.067
-453.982	185.974	-0.034	-0.050
-452.968	800.000	-0.091	-0.277
-451.953	-128.582	-0.249	-0.035
-450.938	800.000	0.132	-0.424
-449.924	339.391	0.142	0.278
-448.909	432.927	-0.073	-0.160
-447.895	-129.264	-0.178	-0.025
-446.880	-200.000	0.032	-0.185
-445.865	-200.000	0.025	-0.211
-444.851	171.739	0.138	-0.199
-443.836	181.387	-0.191	0.281
-442.822	-4.268	-0.218	-0.151
-441.807	627.383	-0.094	-0.237
-440.792	800.000	0.031	-0.122
-439.778	668.494	-0.012	0.031
-438.763	5.773	0.109	-0.081
-437.749	-56.991	-0.114	-0.051
-436.734	7.568	0.293	-0.220
-435.719	-79.918	-0.264	-0.089
-434.705	-84.483	-0.232	0.074
-433.690	-200.000	0.031	-0.162
-432.676	-31.101	-0.181	0.103
-431.661	-129.944	-0.568	0.078
-430.646	364.941	-0.010	0.020
-429.632	800.000	-0.048	0.166
-428.617	-200.000	-0.091	-0.495
-427.603	-20.396	-0.256	-0.158
-426.588	800.000	-0.069	0.203
-425.573	-73.244	0.235	-0.086
-424.559	-65.487	-0.184	-0.074
-423.544	70.970	-0.112	-0.116
-422.530	-200.000	-0.107	-0.549
-421.515	-200.000	-0.054	-0.243
-420.500	213.174	-0.048	-0.076
-419.486	-49.823	0.162	0.077
-418.471	48.529	0.151	-0.141
-417.457	-65.735	0.159	0.064
-416.442	-192.357	-0.258	-0.002
-415.428	50.686	0.202	0.192
-414.413	-181.432	0.095	0.002
-413.398	-120.960	0.174	-0.029
-412.384	-20.418	0.024	-0.015
-411.369	31.358	0.322	0.277
-410.355	-200.000	-0.016	0.124
-409.340	247.654	-0.068	-0.115
-408.325	800.000	-0.112	-0.349
-407.311	780.373	-0.023	0.063
-406.296	-75.787	0.114	0.041
-405.282	-132.392	0.156	0.020
-404.267	529.848	-0.098	0.232
-403.252	9.557	0.153	-0.116
-402.238	-51.170	0.441	0.207
-401.223	-200.000	-0.013	-0.117
-400.209	-200.000	-0.014	-0.227
-399.194	-81.529	-0.213	-0.070
-398.179	576.245	0.099	0.243
-397.165	-0.067	0.095	0.068
-396.150	-113.202	0.194	-0.038
-395.136	-200.000	0.019	0.129
-394.121	-147.687	0.380	0.032
-393.106	-200.000	0.023	-0.192
-392.092	-59.063	-0.320	0.138
-391.077	7.895	0.188	-0.141
-390.063	-40.812	-0.019	-0.010
-389.048	116.888	-0.132	-0.162
-388.033	266.008	-0.118	0.207
-387.019	-200.000	-0.059	0.460
-386.004	-200.000	0.017	0.191
-384.990	-36.906	-0.122	-0.066
-383.975	58.037	0.248	0.243
-382.960	230.945	-0.182	0.298
-381.946	-200.000	0.020	0.162
-380.931	-124.975	0.297	0.046
-379.917	6.608	-0.079	-0.059
-378.902	26.267	-0.274	0.229
-377.888	79.278	-0.137	-0.147
-376.873	-96.349	-0.230	-0.061
-375.858	120.566	0.077	0.095
-374.844	103.265	0.090	-0.106
-373.829	95.474	0.214	0.244
-372.815	-151.423	-0.145	0.011
-371.800	-64.596	-0.086	-0.035
-370.785	-200.000	-0.070	0.000
-369.771	-51.536	0.165	0.077
-368.756	-10.479	0.128	0.085
-367.742	-200.000	0.004	0.065
-366.727	734.501	0.084	0.226
-365.712	94.116	0.152	0.173
-364.698	-200.000	-0.011	-0.097
-363.683	320.483	-0.138	-0.263
-362.669	-159.037	0.124	0.007
-361.654	86.403	-0.110	-0.121
-360.639	-39.098	-0.227	-0.120
-359.625	-19.809	-0.121	0.075
-358.610	-134.369	-0.417	-0.051
-357.596	-13.645	-0.079	0.051
-356.581	591.721	0.048	0.118
-355.566	55.426	-0.064	-0.062
-354.552	800.000	0.067	0.257
-353.537	-162.080	-0.211	-0.011
-352.523	-89.169	-0.550	-0.163
-351.508	-64.431	-0.057	-0.023
-350.493	-28.384	0.223	-0.128
-349.479	325.834	0.088	-0.169
-348.464	9.540	-0.095	0.072
-347.450	-200.000	0.013	-0.103
-346.435	800.000	-0.011	0.033
-345.420	-89.771	0.105	0.031
-344.406	117.536	-0.135	-0.166
-343.391	-7.881	-0.281	-0.190
-342.377	272.053	0.078	0.138
-341.362	57.437	0.047	-0.046
-340.348	21.282	-0.161	-0.131
-339.333	-148.620	-0.152	0.012
-338.318	-200.000	-0.003	0.018
-337.304	227.182	0.133	-0.215
-336.289	800.000	-0.049	0.168
-335.275	-200.000	-0.018	-0.263
-334.260	-61.240	0.172	0.072
-333.245	-95.543	0.322	0.086
-332.231	800.000	-0.022	0.067
-331.216	-20.763	-0.225	-0.138
-330.202	210.387	0.193	0.302
-329.187	-200.000	-0.008	0.221
-328.172	800.000	0.043	-0.178
-327.158	-35.687	-0.290	-0.157
-326.143	-200.000	-0.016	0.193
-325.129	106.401	-0.115	-0.136
-324.114	-15.609	0.205	-0.131
-323.099	36.828	-0.233	0.206
-322.085	-189.095	-0.143	0.002
-321.070	17.166	0.254	0.201
-320.056	103.670	0.103	-0.120
-319.041	800.000	0.011	-0.030
-318.026	-200.000	-0.014	-0.195
-317.012	-84.625	0.153	-0.048
-315.997	-200.000	-0.028	0.288
-314.983	46.869	-0.226	0.210
-313.968	250.710	-0.121	-0.206
-312.953	800.000	0.078	-0.265
-311.939	-131.293	0.183	0.024
-310.924	800.000	-0.014	-0.052
-309.910	89.668	0.094	0.105
-308.895	526.360	0.096	0.225
-307.880	-42.261	0.238	0.121
-306.866	-200.000	0.013	0.205
-305.851	-72.506	-0.236	0.087
-304.837	321.920	-0.132	-0.250
-303.822	200.657	-0.042	-0.065
-302.807	62.975	-0.124	0.124
-301.793	-12.637	-0.261	-0.170
-300.778	78.034	0.344	0.367
-299.764	409.751	0.038	-0.081
-298.749	-16.669	-0.189	-0.119
-297.735	270.890	0.151	0.266
-296.720	360.276	0.135	0.270
-295.705	-41.167	-0.138	0.071
-294.691	62.552	-0.133	0.133
-293.676	252.913	0.251	0.427
-292.662	-111.162	-0.075	-0.015
-291.647	-93.416	-0.088	-0.024
-290.632	-200.000	0.004	-0.080
-289.618	-75.650	0.105	-0.037
-288.603	195.458	0.158	-0.240
-287.589	-166.310	0.132	0.006
-286.574	-8.207	-0.334	-0.224
-285.559	204.156	0.036	-0.056
-284.545	-200.000	0.025	0.186
-283.530	-200.000	0.062	-0.283
-282.516	262.476	0.153	0.265
-281.501	-108.883	0.391	0.083
-280.486	-200.000	-0.000	-0.365
-279.472	-54.567	-0.200	0.090
-278.457	-200.000	0.010	0.163
-277.443	493.072	-0.068	-0.154
-276.428	-176.319	0.272	0.007
-275.413	32.408	0.287	0.247
-274.399	5.123	-0.048	0.035
-273.384	579.130	-0.073	-0.178
-272.370	800.000	-0.017	-0.057
-271.355	133.682	-0.018	0.023
-270.340	328.451	-0.189	0.362
-269.326	-147.919	0.423	0.035
-268.311	-34.987	-0.335	-0.182
-267.297	800.000	0.043	-0.141
-266.282	-2.618	0.068	-0.047
-265.267	-98.909	0.237	-0.060
-264.253	319.178	0.253	0.478
-263.238	62.687	0.061	0.061
-262.224	-31.523	-0.014	-0.008
-261.209	-51.937	0.057	-0.026
-260.195	-84.193	0.140	0.044
-259.180	93.001	-0.077	0.087
-258.165	-200.000	-0.011	0.122
-257.151	-128.091	0.074	0.011
-256.136	12.804	-0.160	0.123
-255.122	-200.000	0.015	-0.126
-254.107	-50.808	0.129	0.060
-253.092	-111.854	-0.297	0.060
-252.078	19.095	-0.111	-0.088
-251.063	-200.000	-0.007	0.184
-250.049	19.965	-0.199	0.160
-249.034	152.166	0.163	-0.222
-248.019	27.096	-0.171	0.143
-247.005	62.329	-0.067	-0.066
-245.990	386.517	-0.220	-0.452
-244.976	-41.003	0.167	0.086
-243.961	-116.943	0.260	-0.047
-242.946	556.093	0.138	0.331
-241.932	-107.749	0.099	-0.021
-240.917	545.856	-0.170	0.404
-239.903	31.199	-0.030	0.026
-238.888	-8.505	0.140	-0.094
-237.873	211.506	-0.125	0.195
-236.859	-98.305	-0.241	-0.062
-235.844	-70.492	-0.236	0.089
-234.830	588.851	0.124	0.304
-233.815	-82.874	-0.135	0.043
-232.800	-200.000	-0.020	-0.116
-231.786	-200.000	0.013	-0.237
-230.771	69.545	0.216	-0.222
-229.757	-200.000	0.042	0.216
-228.742	138.838	0.093	-0.121
-227.727	30.035	0.174	0.148
-226.713	800.000	0.045	0.175
-225.698	-200.000	-0.020	-0.148
-224.684	160.895	-0.193	-0.268
-223.669	48.274	0.203	0.189
-222.655	189.137	0.224	0.334
-221.640	-141.260	0.338	0.034
-220.625	3.296	0.183	-0.132
-219.611	104.028	-0.191	-0.223
-218.596	188.330	0.169	-0.252
-217.582	-200.000	0.083	0.432
-216.567	-180.160	0.110	0.002
-215.552	247.866	0.161	-0.272
-214.538	800.000	0.119	-0.334
-213.523	-97.310	-0.289	0.075
-212.509	-200.000	0.281	-0.001
-211.494	-125.970	-0.215	-0.032
-210.479	243.329	-0.085	-0.143
-209.465	16.107	0.115	0.090
-208.450	219.011	-0.191	-0.304
-207.436	42.053	-0.103	0.093
-206.421	129.783	0.071	0.090
-205.406	250.423	0.106	0.179
-204.392	175.595	-0.028	-0.041
-203.377	-200.000	0.068	0.302
-202.363	-11.035	-0.214	0.140
-201.348	21.167	-0.342	0.276
-200.333	-27.520	-0.071	0.041
-199.319	-86.713	0.397	-0.121
-198.304	-200.000	0.004	-0.020
-197.290	227.749	0.072	0.116
-196.275	-72.757	-0.203	-0.074
-195.260	-169.895	-0.177	-0.006
-194.246	-200.000	0.025	-0.268
-193.231	-200.000	0.043	-0.289
-192.217	-200.000	0.062	-0.403
-191.202	-19.402	0.257	-0.158
-190.187	-200.000	0.022	0.172
-189.173	-5.353	-0.149	-0.101
-188.158	13.854	0.062	0.048
-187.144	-86.144	-0.039	0.012
-186.129	156.898	0.204	0.280
-185.114	800.000	-0.110	0.398
-184.100	-124.636	0.137	-0.021
-183.085	20.754	-0.191	-0.154
-182.071	-127.327	-0.164	-0.024
-181.056	589.357	0.083	-0.203
-180.042	-181.293	0.375	-0.007
-179.027	-200.000	-0.004	-0.046
-178.012	-44.755	0.304	-0.151
-176.998	-200.000	-0.082	-0.405
-175.983	241.652	-0.094	-0.155
-174.969	417.172	0.087	0.185
-173.954	-200.000	-0.042	-0.193
-172.939	-200.000	-0.035	-0.171
-171.925	-200.000	-0.015	-0.080
-170.910	-116.095	0.201	-0.037
-169.896	-6.057	-0.168	0.114
-168.881	-200.000	0.049	-0.415
-167.866	184.930	-0.218	-0.321
-166.852	-71.871	0.298	0.110
-165.837	-124.825	0.185	0.028
-164.823	59.508	0.115	-0.112
-163.808	191.195	0.072	-0.108
-162.793	-82.297	-0.180	0.058
-161.779	647.562	0.062	-0.158
-160.764	159.318	-0.105	-0.145
-159.750	800.000	-0.051	0.154
-158.735	293.142	-0.129	0.234
-157.720	-65.435	0.286	0.114
-156.706	87.639	0.192	-0.212
-155.691	-19.588	0.138	0.085
-154.677	46.868	0.194	0.179
-153.662	-50.507	0.170	-0.079
-152.647	7.182	0.215	-0.159
-151.633	-166.341	0.116	-0.005
-150.618	-200.000	0.033	0.173
-149.604	144.383	0.126	-0.167
-148.589	800.000	-0.040	-0.153
-147.574	-118.079	0.059	-0.010
-146.560	39.451	0.270	0.240
-145.545	-3.682	-0.123	-0.085
-144.531	218.531	-0.061	0.097
-143.516	-126.883	-0.204	-0.030
-142.502	251.720	0.135	-0.228
-141.487	168.515	0.247	-0.350
-140.472	-200.000	-0.374	0.000
-139.458	-149.041	0.494	-0.039
-138.443	-67.691	0.172	0.067
-137.429	421.576	-0.020	0.043
-136.414	-100.312	-0.113	0.028
-135.399	-128.377	0.134	-0.019
-134.385	-0.555	-0.114	0.080
-133.370	699.947	0.095	-0.249
-132.356	1.812	0.149	-0.106
-131.341	-138.569	-0.353	-0.038
-130.326	-116.700	0.424	0.077
-129.312	110.099	0.295	0.351
-128.297	800.000	-0.085	-0.273
-127.283	739.454	0.052	0.138
-126.268	-0.761	-0.128	-0.090
-125.253	800.000	0.060	0.237
-124.239	-151.031	0.164	-0.012
-123.224	-21.984	-0.042	0.025
-122.210	623.491	-0.117	0.292
-121.195	12.432	-0.168	0.128
-120.180	-54.753	0.197	0.088
