DTS Sentinel unit serial number:	SN413079Multiplexer serial number:	ORYXHardware model number:	OX4-SRSoftware version number:	ORYX F/W v4.00 Oryx Data Collector v3.7.2.0data status	okinstallation	princeton_trtdifferential loss correction	single-endedforward channel	channel 4reverse channel	N/Adate	2019/09/18time	21:17:35forward acquisition time	60.00reverse acquisition time	0.00gamma	496.2192k internal	0.2330k external	0.2330temperature offset calibration	1.0030default loss term (dB/km)	0.3790temperature slope calibration	1.0000multiplexer offset coefficient	1.0000multiplexer slope coefficient	1.0000fibre end	0.00T internal ref (°C)	25.75T ext. ref 1 (°C)	0.84T ext. ref 2 (°C)	18.02length (m)	temperature (°C)	Stokes	anti-Stokes-747.200	-200.000	-0.054	0.390
-746.185	-163.086	-0.289	-0.014
-745.171	800.000	0.049	0.142
-744.156	38.166	-0.428	0.384
-743.142	-38.846	0.245	-0.130
-742.127	17.850	-0.197	0.158
-741.112	-124.230	-0.195	-0.031
-740.098	253.669	-0.194	0.334
-739.083	-107.571	0.147	-0.032
-738.069	-104.076	-0.241	0.057
-737.054	-53.423	0.180	-0.083
-736.039	-44.441	-0.153	-0.077
-735.025	236.811	0.070	0.117
-734.010	-74.404	0.168	-0.061
-732.996	-120.964	-0.355	0.060
-731.981	-55.309	-0.251	0.113
-730.966	-118.582	-0.095	-0.017
-729.952	52.649	-0.138	-0.132
-728.937	800.000	0.046	-0.203
-727.923	150.895	-0.041	-0.056
-726.908	-200.000	-0.021	-0.231
-725.894	-117.493	0.125	0.023
-724.879	157.436	-0.190	0.265
-723.864	-136.000	-0.120	0.014
-722.850	63.737	0.363	-0.366
-721.835	74.936	0.237	0.251
-720.821	-200.000	0.026	-0.193
-719.806	105.017	-0.140	-0.166
-718.791	138.066	-0.089	0.117
-717.777	800.000	0.145	-0.426
-716.762	-16.592	0.134	0.085
-715.748	800.000	-0.024	0.096
-714.733	-1.716	-0.203	0.144
-713.718	-14.319	0.178	-0.116
-712.704	-67.324	-0.133	-0.052
-711.689	-200.000	-0.022	-0.136
-710.675	-200.000	0.011	-0.071
-709.660	-145.244	0.382	0.035
-708.645	574.500	-0.064	0.157
-707.631	-79.372	-0.123	-0.042
-706.616	210.555	-0.245	-0.387
-705.602	-19.286	0.030	0.018
-704.587	799.773	0.019	-0.051
-703.572	-84.232	0.191	0.061
-702.558	800.000	0.086	0.269
-701.543	800.000	-0.024	0.081
-700.529	481.655	0.116	0.266
-699.514	-200.000	-0.017	-0.315
-698.499	-124.345	-0.159	-0.025
-697.485	150.436	-0.095	0.129
-696.470	-200.000	0.004	0.092
-695.456	-118.858	-0.656	0.116
-694.441	-191.032	0.248	0.003
-693.426	425.992	-0.149	-0.322
-692.412	-200.000	0.098	-0.459
-691.397	-96.292	0.074	0.020
-690.383	-159.849	-0.227	0.013
-689.368	-200.000	0.016	0.342
-688.354	-27.712	0.094	0.055
-687.339	338.045	0.128	0.251
-686.324	-34.493	-0.206	0.113
-685.310	-21.178	0.183	0.113
-684.295	-21.857	-0.270	-0.165
-683.281	59.837	0.107	0.106
-682.266	41.468	-0.136	-0.124
-681.251	655.496	0.080	-0.206
-680.237	6.431	-0.218	0.163
-679.222	358.826	-0.167	-0.335
-678.208	-101.099	0.386	-0.095
-677.193	81.918	0.057	0.062
-676.178	246.764	-0.119	-0.202
-675.164	-200.000	-0.041	0.348
-674.149	-6.686	0.153	0.105
-673.135	184.790	0.169	-0.252
-672.120	-200.000	0.001	-0.334
-671.105	393.220	-0.065	0.137
-670.091	-140.464	-0.306	-0.032
-669.076	-25.897	-0.016	0.009
-668.062	-87.519	-0.269	0.082
-667.047	36.611	-0.235	0.208
-666.032	-113.674	-0.296	0.058
-665.018	-1.449	-0.131	-0.093
-664.003	-95.504	-0.463	-0.125
-662.989	129.017	-0.116	0.148
-661.974	-200.000	0.005	0.088
-660.959	-78.948	0.248	-0.085
-659.945	-62.770	-0.376	-0.156
-658.930	-200.000	-0.038	0.324
-657.916	-135.383	0.269	-0.032
-656.901	-152.671	0.124	-0.009
-655.886	-115.743	0.492	0.092
-654.872	-118.308	-0.410	-0.073
-653.857	800.000	0.046	-0.170
-652.843	-48.206	-0.069	0.033
-651.828	73.780	-0.108	-0.113
-650.814	-200.000	0.005	0.040
-649.799	-96.624	0.403	0.107
-648.784	71.247	0.110	0.114
-647.770	800.000	-0.089	-0.295
-646.755	-43.476	0.140	0.071
-645.741	108.193	-0.046	-0.055
-644.726	563.335	-0.141	0.342
-643.711	36.668	0.200	-0.177
-642.697	109.191	0.191	-0.230
-641.682	-44.854	0.535	0.267
-640.668	-21.271	-0.183	-0.112
-639.653	-200.000	-0.049	0.358
-638.638	-200.000	-0.009	-0.127
-637.624	-117.299	0.239	0.044
-636.609	-141.397	-0.193	-0.020
-635.595	-59.937	0.149	-0.064
-634.580	4.150	-0.065	-0.047
-633.565	213.551	-0.129	0.204
-632.551	-53.554	-0.264	0.121
-631.536	126.301	-0.138	0.176
-630.522	-200.000	-0.001	-0.480
-629.507	46.351	0.064	-0.059
-628.492	180.753	-0.148	-0.218
-627.478	-99.895	-0.077	0.019
-626.463	-63.247	-0.215	0.089
-625.449	-200.000	-0.005	-0.042
-624.434	20.281	-0.213	-0.172
-623.419	70.512	0.023	-0.024
-622.405	780.301	-0.032	0.087
-621.390	-166.591	-0.176	-0.007
-620.376	-158.423	0.333	-0.019
-619.361	-200.000	-0.045	-0.297
-618.346	161.330	0.029	0.040
-617.332	241.625	-0.041	-0.068
-616.317	26.699	-0.160	-0.134
-615.303	59.313	-0.151	-0.149
-614.288	800.000	-0.075	-0.212
-613.273	-200.000	-0.030	-0.287
-612.259	169.686	-0.145	-0.207
-611.244	800.000	-0.046	0.148
-610.230	-101.011	-0.250	-0.061
-609.215	19.703	-0.263	-0.212
-608.201	800.000	0.059	0.244
-607.186	800.000	0.142	-0.445
-606.171	-24.564	0.063	0.037
-605.157	175.967	0.160	0.233
-604.142	-127.792	-0.375	-0.054
-603.128	800.000	0.097	-0.380
-602.113	276.252	-0.212	-0.377
-601.098	21.899	-0.142	0.116
-600.084	-29.818	-0.336	-0.192
-599.069	-200.000	0.008	-0.330
-598.055	-35.985	0.236	0.128
-597.040	-200.000	-0.065	0.470
-596.025	167.137	0.059	-0.084
-595.011	-200.000	0.007	0.173
-593.996	-114.064	-0.314	0.061
-592.982	-89.180	-0.249	-0.074
-591.967	132.096	0.097	-0.124
-590.952	-47.567	-0.233	-0.113
-589.938	-85.969	-0.434	0.134
-588.923	-52.955	-0.109	0.050
-587.909	800.000	-0.084	-0.332
-586.894	775.804	0.082	-0.224
-585.879	5.902	-0.234	0.173
-584.865	-21.151	0.301	0.184
-583.850	-13.216	0.058	0.037
-582.836	522.730	-0.054	-0.126
-581.821	-17.441	-0.132	0.083
-580.806	-200.000	-0.040	0.206
-579.792	134.765	0.112	0.145
-578.777	171.692	-0.194	-0.279
-577.763	-108.006	0.184	-0.040
-576.748	-164.825	-0.137	-0.006
-575.733	36.881	-0.136	0.120
-574.719	14.533	0.079	-0.062
-573.704	-94.407	-0.136	0.037
-572.690	-4.828	0.199	-0.137
-571.675	304.539	0.050	-0.092
-570.661	-73.030	-0.178	0.065
-569.646	-36.006	0.147	0.079
-568.631	800.000	0.087	0.252
-567.617	130.523	-0.321	0.412
-566.602	90.984	-0.089	0.099
-565.588	-114.936	-0.066	-0.013
-564.573	98.724	-0.048	0.055
-563.558	305.722	-0.193	0.358
-562.544	-55.674	0.305	0.136
-561.529	-42.527	0.407	0.207
-560.515	-58.699	-0.313	-0.136
-559.500	130.370	0.149	-0.190
-558.485	222.908	0.168	-0.271
-557.471	-109.322	0.175	0.037
-556.456	-103.482	-0.408	-0.096
-555.442	-83.608	0.353	0.113
-554.427	-27.866	-0.083	-0.048
-553.412	-200.000	-0.013	-0.169
-552.398	800.000	-0.089	-0.270
-551.383	-138.499	-0.183	0.020
-550.369	-125.587	-0.538	0.082
-549.354	-12.712	0.216	-0.141
-548.339	-89.746	0.101	0.030
-547.325	-25.958	-0.178	0.105
-546.310	120.236	0.193	0.239
-545.296	429.695	0.083	0.179
-544.281	-5.340	0.171	0.117
-543.266	-38.039	-0.150	0.079
-542.252	-60.806	0.260	-0.110
-541.237	-200.000	0.029	-0.262
-540.223	-200.000	-0.005	0.391
-539.208	356.636	0.050	-0.099
-538.193	748.726	-0.063	-0.168
-537.179	614.568	-0.088	-0.219
-536.164	-80.831	-0.257	-0.085
-535.150	63.083	-0.029	-0.029
-534.135	-200.000	0.023	-0.161
-533.121	800.000	-0.097	-0.426
-532.106	-96.487	0.347	-0.091
-531.091	-88.080	-0.128	-0.038
-530.077	800.000	0.074	-0.246
-529.062	-139.187	-0.228	-0.025
-528.048	284.679	0.039	0.070
-527.033	239.373	-0.246	0.409
-526.018	36.265	0.052	-0.046
-525.004	-200.000	-0.062	0.407
-523.989	-200.000	0.005	0.112
-522.975	87.936	-0.150	-0.166
-521.960	-200.000	-0.002	0.027
-520.945	-41.390	0.397	-0.204
-519.931	-56.110	-0.166	-0.074
-518.916	154.693	0.031	0.042
-517.902	-112.697	0.065	0.013
-516.887	-24.554	0.280	-0.167
-515.872	-59.241	0.226	-0.097
-514.858	-1.789	0.195	0.137
-513.843	-200.000	-0.110	0.536
-512.829	-200.000	-0.032	0.286
-511.814	800.000	0.032	-0.136
-510.799	-0.284	0.161	-0.114
-509.785	-15.183	-0.303	0.194
-508.770	173.432	0.130	-0.187
-507.756	-15.021	0.204	-0.131
-506.741	-151.204	0.237	0.018
-505.726	800.000	0.052	0.164
-504.712	166.947	-0.281	0.397
-503.697	49.093	0.337	0.316
-502.683	-200.000	0.012	-0.184
-501.668	-200.000	-0.006	0.352
-500.653	304.722	-0.028	0.051
-499.639	462.716	-0.088	0.196
-498.624	60.909	0.165	0.164
-497.610	-118.859	0.257	0.045
-496.595	-128.357	-0.551	0.078
-495.581	-200.000	-0.051	0.298
-494.566	47.875	0.293	-0.272
-493.551	-180.184	-0.236	-0.005
-492.537	-71.797	0.303	-0.113
-491.522	-116.456	-0.111	0.020
-490.508	-200.000	0.003	-0.186
-489.493	374.484	-0.135	-0.275
-488.478	-200.000	-0.015	-0.390
-487.464	-200.000	-0.035	0.218
-486.449	-15.619	-0.208	-0.132
-485.435	-154.814	-0.473	0.031
-484.420	378.817	0.166	-0.339
-483.405	800.000	0.055	0.231
-482.391	-200.000	0.023	0.148
-481.376	-140.136	0.088	-0.009
-480.362	-0.436	0.130	0.092
-479.347	-25.995	-0.205	-0.120
-478.332	87.419	-0.071	0.078
-477.318	-200.000	0.003	0.224
-476.303	-200.000	-0.006	-0.085
-475.289	-125.327	0.127	-0.019
-474.274	-73.391	0.120	0.044
-473.259	-200.000	0.021	-0.157
-472.245	-69.090	0.027	-0.010
-471.230	512.051	-0.070	-0.163
-470.216	-200.000	0.006	0.123
-469.201	-105.177	-0.459	-0.104
-468.186	800.000	0.061	0.195
-467.172	-109.928	-0.189	-0.039
-466.157	-200.000	-0.002	0.190
-465.143	-200.000	-0.027	-0.146
-464.128	-121.442	-0.180	0.030
-463.113	-37.293	0.256	-0.136
-462.099	-200.000	-0.002	0.135
-461.084	10.744	0.199	-0.151
-460.070	-24.330	-0.132	0.078
-459.055	-62.252	0.139	0.058
-458.040	93.559	0.140	0.157
-457.026	78.960	-0.179	-0.191
-456.011	-123.930	0.279	0.044
-454.997	-187.037	0.384	-0.005
-453.982	-200.000	-0.060	-0.348
-452.968	126.333	0.195	-0.245
-451.953	150.802	0.096	-0.130
-450.938	35.614	-0.278	0.243
-449.924	-200.000	-0.080	0.492
-448.909	8.569	-0.192	-0.144
-447.895	46.158	0.083	-0.077
-446.880	-6.013	-0.119	-0.081
-445.865	151.396	0.087	-0.118
-444.851	-115.785	0.207	0.039
-443.836	139.020	0.117	-0.153
-442.822	-70.922	-0.198	0.074
-441.807	-15.215	-0.149	-0.095
-440.792	192.737	0.120	-0.180
-439.778	682.796	0.033	0.085
-438.763	-54.497	0.273	-0.123
-437.749	-112.719	0.241	-0.048
-436.734	209.425	0.168	-0.262
-435.719	-200.000	-0.046	0.283
-434.705	301.452	-0.116	-0.212
-433.690	-74.237	0.403	0.145
-432.676	-200.000	0.002	0.146
-431.661	-100.003	-0.096	0.024
-430.646	-200.000	0.047	-0.253
-429.632	284.564	-0.073	0.131
-428.617	-65.957	-0.214	0.085
-427.603	-62.864	-0.237	0.097
-426.588	-200.000	-0.036	-0.489
-425.573	800.000	-0.067	-0.200
-424.559	-200.000	0.005	0.237
-423.544	465.191	-0.143	0.319
-422.530	678.830	0.092	0.238
-421.515	-188.262	0.266	-0.003
-420.500	-51.326	-0.134	-0.062
-419.486	-200.000	-0.031	0.433
-418.471	-109.586	0.091	-0.019
-417.457	-117.348	-0.209	0.038
-416.442	683.097	0.106	0.274
-415.428	-44.348	-0.289	-0.144
-414.413	800.000	0.081	0.305
-413.398	-200.000	0.003	0.116
-412.384	-6.708	-0.095	-0.064
-411.369	175.567	0.260	-0.375
-410.355	-128.648	0.348	-0.049
-409.340	76.906	-0.124	0.130
-408.325	800.000	0.031	-0.086
-407.311	38.820	-0.083	-0.073
-406.296	-60.633	-0.312	-0.132
-405.282	-200.000	0.014	0.291
-404.267	-200.000	0.000	0.074
-403.252	229.959	-0.041	-0.067
-402.238	-51.935	-0.119	-0.055
-401.223	-30.062	-0.066	0.037
-400.209	800.000	0.071	-0.267
-399.194	-99.491	0.271	0.068
-398.179	-200.000	0.080	0.375
-397.165	800.000	0.076	0.230
-396.150	-144.182	0.279	0.026
-395.136	-117.439	-0.113	-0.020
-394.121	800.000	-0.066	0.197
-393.106	-94.531	-0.161	-0.044
-392.092	-200.000	-0.014	-0.128
-391.077	-200.000	0.001	-0.141
-390.063	800.000	-0.057	-0.175
-389.048	800.000	-0.096	-0.279
-388.033	382.293	-0.104	0.212
-387.019	144.312	-0.045	-0.060
-386.004	-200.000	0.010	-0.093
-384.990	83.730	0.209	-0.227
-383.975	-123.649	-0.362	-0.057
-382.960	531.488	0.144	0.337
-381.946	30.675	-0.136	0.116
-380.931	-26.089	0.359	-0.209
-379.917	-200.000	0.004	0.244
-378.902	376.408	-0.083	-0.169
-377.888	-59.654	-0.298	0.127
-376.873	-97.979	0.259	0.066
-375.858	758.367	0.038	-0.101
-374.844	662.967	0.072	-0.183
-373.829	162.167	0.013	-0.018
-372.815	-175.540	-0.306	-0.008
-371.800	-102.802	-0.158	-0.037
-370.785	795.284	-0.056	0.152
-369.771	-119.892	-0.280	-0.048
-368.756	-89.524	-0.434	0.126
-367.742	800.000	-0.032	-0.101
-366.727	185.544	0.021	0.031
-365.712	591.953	-0.082	0.202
-364.698	789.128	-0.181	-0.494
-363.683	324.338	0.124	-0.234
-362.669	-40.581	0.200	0.103
-361.654	-200.000	0.013	-0.200
-360.639	271.757	0.130	-0.227
-359.625	-80.800	-0.106	-0.035
-358.610	-75.468	-0.169	0.060
-357.596	-33.238	0.291	-0.160
-356.581	-99.728	0.488	0.121
-355.566	-200.000	-0.042	0.242
-354.552	27.242	0.173	0.144
-353.537	106.028	0.169	-0.198
-352.523	-58.522	0.315	0.135
-351.508	6.602	0.164	-0.121
-350.493	-200.000	-0.060	0.357
-349.479	215.615	-0.177	-0.278
-348.464	-200.000	-0.033	0.306
-347.450	-113.642	-0.438	-0.085
-346.435	-131.768	0.140	0.018
-345.420	800.000	-0.062	0.202
-344.406	460.352	0.080	-0.176
-343.391	-13.409	0.044	0.028
-342.377	-200.000	-0.013	0.218
-341.362	261.971	0.061	0.104
-340.348	-200.000	0.024	-0.206
-339.333	71.218	-0.130	0.134
-338.318	44.119	0.210	0.190
-337.304	62.762	0.190	0.188
-336.289	-127.412	0.139	-0.020
-335.275	-73.318	-0.140	-0.051
-334.260	-200.000	0.023	-0.129
-333.245	217.641	0.134	-0.211
-332.231	134.848	0.187	0.240
-331.216	800.000	-0.057	0.159
-330.202	199.762	0.180	0.273
-329.187	122.450	0.127	0.157
-328.172	-48.932	0.258	-0.122
-327.158	-8.579	0.210	0.140
-326.143	800.000	0.063	0.189
-325.129	164.181	-0.260	0.363
-324.114	-200.000	-0.016	0.425
-323.099	-200.000	0.042	0.369
-322.085	-200.000	0.015	-0.065
-321.070	-79.620	0.442	-0.148
-320.056	0.010	0.179	-0.126
-319.041	-91.907	-0.105	0.029
-318.026	7.895	0.127	0.094
-317.012	518.268	0.140	-0.324
-315.997	-200.000	-0.040	-0.271
-314.983	-51.349	-0.265	-0.123
-313.968	-37.233	-0.119	0.063
-312.953	-65.338	0.164	0.065
-311.939	128.995	-0.040	0.050
-310.924	97.976	-0.171	0.195
-309.910	77.752	0.245	-0.259
-308.895	800.000	-0.037	0.158
-307.880	-99.539	0.248	-0.062
-306.866	-85.063	-0.139	-0.043
-305.851	-200.000	0.056	-0.484
-304.837	-200.000	0.016	-0.178
-303.822	42.486	-0.175	0.158
-302.807	800.000	0.059	0.233
-301.793	-61.789	-0.191	-0.079
-300.778	-200.000	0.029	-0.170
-299.764	82.748	-0.260	-0.280
-298.749	800.000	-0.063	-0.245
-297.735	-63.446	0.313	0.127
-296.720	171.459	0.188	-0.266
-295.705	222.270	0.140	0.222
-294.691	-52.890	-0.302	-0.137
-293.676	160.995	-0.233	-0.322
-292.662	-57.380	0.303	-0.132
-291.647	134.299	-0.109	-0.139
-290.632	-133.781	0.327	-0.040
-289.618	746.711	-0.106	-0.283
-288.603	-200.000	0.037	0.292
-287.589	-116.222	0.219	-0.040
-286.574	-88.912	0.216	0.063
-285.559	126.885	-0.177	0.221
-284.545	153.009	-0.094	0.128
-283.530	-200.000	0.038	-0.257
-282.516	-136.352	0.107	-0.012
-281.501	303.736	-0.093	-0.170
-280.486	800.000	-0.034	-0.117
-279.472	-130.975	-0.049	0.006
-278.457	88.672	-0.183	-0.201
-277.443	800.000	-0.095	-0.401
-276.428	-91.081	0.190	-0.054
-275.413	-42.636	0.172	0.087
-274.399	48.302	0.248	0.230
-273.384	205.975	0.058	0.090
-272.370	-107.030	0.062	-0.014
-271.355	88.380	-0.130	0.143
-270.340	-190.679	-0.288	-0.003
-269.326	574.126	0.228	-0.550
-268.311	-200.000	-0.001	0.025
-267.297	-200.000	0.007	0.139
-266.282	341.703	-0.067	-0.129
-265.267	-6.608	0.288	-0.194
-264.253	-200.000	0.008	-0.182
-263.238	-7.195	-0.128	-0.085
-262.224	-200.000	-0.061	-0.301
-261.209	-75.727	0.286	0.100
-260.195	-200.000	0.072	0.347
-259.180	-200.000	-0.022	0.131
-258.165	-133.774	0.170	0.021
-257.151	800.000	0.071	-0.283
-256.136	-113.894	0.122	-0.023
-255.122	777.937	-0.127	-0.342
-254.107	800.000	0.076	-0.244
-253.092	-93.469	-0.168	0.046
-252.078	-128.659	-0.190	-0.026
-251.063	-129.043	-0.210	-0.029
-250.049	-200.000	0.028	-0.182
-249.034	167.952	0.137	0.193
-248.019	236.004	0.122	0.199
-247.005	10.635	-0.176	-0.133
-245.990	-27.235	-0.293	-0.168
-244.976	-137.529	-0.238	-0.026
-243.961	34.569	0.203	0.175
-242.946	196.425	-0.065	0.098
-241.932	800.000	0.089	0.265
-240.917	-85.174	0.078	-0.024
-239.903	-40.117	0.270	0.139
-238.888	-94.791	0.140	-0.037
-237.873	-138.251	-0.005	0.001
-236.859	302.282	0.040	0.074
-235.844	-163.034	-0.328	0.016
-234.830	400.787	-0.051	-0.106
-233.815	193.567	0.053	-0.079
-232.800	-61.736	0.097	0.040
-231.786	569.694	0.094	-0.227
-230.771	-132.257	-0.358	0.046
-229.757	-15.496	-0.151	-0.095
-228.742	-18.502	-0.218	-0.135
-227.727	-83.361	0.203	0.064
-226.713	64.727	-0.188	-0.187
-225.698	73.784	-0.093	-0.096
-224.684	80.543	0.104	-0.111
-223.669	76.515	0.216	0.226
-222.655	-116.211	-0.027	-0.005
-221.640	-28.044	0.133	0.076
-220.625	66.854	-0.106	-0.106
-219.611	-200.000	-0.001	0.028
-218.596	-53.717	-0.132	0.060
-217.582	-89.350	0.060	-0.018
-216.567	723.846	0.115	0.302
-215.552	-200.000	0.020	0.239
-214.538	230.552	-0.168	-0.271
-213.523	-200.000	0.008	0.163
-212.509	800.000	-0.064	-0.252
-211.494	168.251	0.151	0.212
-210.479	800.000	0.164	0.556
-209.465	-200.000	0.010	-0.066
-208.450	-120.281	0.135	-0.023
-207.436	-54.557	0.072	0.032
-206.421	158.963	0.138	0.189
-205.406	156.606	-0.142	0.193
-204.392	-106.533	0.394	-0.087
-203.377	184.438	0.080	-0.116
-202.363	-98.304	-0.250	0.063
-201.348	197.088	-0.106	0.160
-200.333	16.236	-0.175	0.136
-199.319	498.015	-0.210	0.477
-198.304	210.603	0.141	0.218
-197.290	-157.544	0.222	-0.013
-196.275	121.614	0.118	-0.145
-195.260	71.299	0.083	-0.085
-194.246	-77.797	-0.300	-0.102
-193.231	-133.278	0.449	0.056
-192.217	-38.650	-0.175	-0.091
-191.202	4.622	0.051	-0.037
-190.187	476.137	0.157	0.350
-189.173	444.704	0.104	0.224
-188.158	432.163	-0.117	0.250
-187.144	-63.148	0.180	-0.073
-186.129	-99.571	-0.135	-0.033
-185.114	-200.000	-0.052	-0.384
-184.100	-37.732	0.071	0.037
-183.085	48.475	-0.028	0.026
-182.071	16.657	-0.193	-0.150
-181.056	142.516	0.082	0.107
-180.042	-83.441	0.244	0.077
-179.027	-46.816	-0.057	0.027
-178.012	-22.057	0.165	-0.099
-176.998	-59.412	-0.031	0.013
-175.983	-79.641	-0.211	0.070
-174.969	-97.741	-0.350	-0.089
-173.954	-200.000	0.001	0.300
-172.939	266.537	-0.116	0.199
-171.925	50.177	0.124	-0.115
-170.910	10.608	-0.198	-0.149
-169.896	-153.046	0.273	0.019
-168.881	800.000	0.062	0.259
-167.866	800.000	-0.106	0.301
-166.852	-10.914	-0.228	0.148
-165.837	-200.000	0.003	-0.063
-164.823	-45.960	0.311	-0.151
-163.808	-200.000	-0.007	-0.119
-162.793	-135.192	-0.392	0.046
-161.779	407.854	0.096	0.201
-160.764	-183.608	-0.145	-0.002
-159.750	800.000	-0.042	0.119
-158.735	-200.000	0.036	-0.213
-157.720	-150.418	0.156	-0.012
-156.706	800.000	-0.071	-0.240
-155.691	800.000	-0.072	0.307
-154.677	250.991	0.099	0.165
-153.662	-115.657	0.237	-0.044
-152.647	-200.000	-0.015	-0.092
-151.633	-50.602	-0.397	0.184
-150.618	26.131	0.276	0.227
-149.604	-200.000	-0.047	0.291
-148.589	180.326	-0.231	-0.333
-147.574	800.000	0.081	0.244
-146.560	-85.952	-0.101	0.031
-145.545	800.000	-0.090	0.251
-144.531	425.493	-0.051	-0.107
-143.516	-200.000	-0.001	0.164
-142.502	800.000	-0.048	0.175
-141.487	-200.000	0.035	-0.210
-140.472	-200.000	0.012	0.171
-139.458	112.686	-0.208	-0.248
-138.443	541.057	-0.023	0.053
-137.429	-185.679	0.236	-0.003
-136.414	89.264	-0.081	-0.089
-135.399	173.809	0.272	0.386
-134.385	-200.000	-0.008	-0.154
-133.370	-52.144	0.190	0.087
-132.356	-101.840	-0.228	-0.054
-131.341	-143.317	-0.141	0.013
-130.326	-84.231	-0.155	0.048
-129.312	-200.000	-0.032	-0.163
-128.297	190.955	-0.031	0.046
-127.283	-186.619	-0.100	0.001
-126.268	15.181	0.145	0.112
-125.253	-200.000	-0.009	0.119
-124.239	140.175	0.088	-0.114
-123.224	419.864	0.062	0.131
