DTS Sentinel unit serial number:	SN413079Multiplexer serial number:	ORYXHardware model number:	OX4-SRSoftware version number:	ORYX F/W v4.00 Oryx Data Collector v3.7.2.0data status	okinstallation	princeton_trtdifferential loss correction	single-endedforward channel	channel 4reverse channel	N/Adate	2019/09/15time	06:37:34forward acquisition time	60.00reverse acquisition time	0.00gamma	496.2192k internal	0.2311k external	0.2311temperature offset calibration	1.0030default loss term (dB/km)	0.3790temperature slope calibration	1.0000multiplexer offset coefficient	1.0000multiplexer slope coefficient	1.0000fibre end	0.00T internal ref (°C)	30.50T ext. ref 1 (°C)	4.79T ext. ref 2 (°C)	25.42length (m)	temperature (°C)	Stokes	anti-Stokes-747.200	-25.527	-0.154	0.092
-746.185	-45.501	-0.336	0.169
-745.171	-122.273	0.102	0.017
-744.156	374.043	-0.216	0.446
-743.142	-52.712	0.112	-0.052
-742.127	52.206	0.160	0.155
-741.112	372.978	-0.073	0.150
-740.098	185.090	0.018	0.027
-739.083	800.000	-0.074	-0.218
-738.069	547.097	0.194	0.472
-737.054	-200.000	-0.008	-0.256
-736.039	-46.738	-0.204	-0.101
-735.025	333.983	-0.121	0.238
-734.010	800.000	0.035	-0.129
-732.996	495.181	-0.063	-0.147
-731.981	800.000	-0.094	-0.284
-730.966	18.947	0.111	0.090
-729.952	40.874	-0.204	0.187
-728.937	177.227	0.133	-0.197
-727.923	-200.000	0.044	-0.208
-726.908	-57.210	-0.258	-0.115
-725.894	166.240	-0.323	-0.465
-724.879	-163.263	-0.115	0.006
-723.864	-135.423	0.229	0.028
-722.850	182.712	-0.261	-0.391
-721.835	-200.000	-0.027	-0.145
-720.821	163.690	0.214	-0.306
-719.806	104.890	0.108	-0.129
-718.791	-68.096	-0.203	-0.080
-717.777	-71.581	-0.193	-0.073
-716.762	301.135	0.068	0.128
-715.748	349.828	0.062	0.125
-714.733	28.645	-0.140	0.120
-713.718	-23.520	-0.429	0.261
-712.704	144.874	-0.061	-0.083
-711.689	539.198	-0.035	0.084
-710.675	-45.798	-0.083	0.042
-709.660	-12.996	-0.145	0.095
-708.645	-96.009	0.274	-0.074
-707.631	369.157	0.079	0.163
-706.616	800.000	0.079	-0.263
-705.602	249.191	0.090	-0.155
-704.587	127.266	0.145	-0.186
-703.572	33.804	0.254	0.224
-702.558	-3.219	-0.267	-0.189
-701.543	63.420	0.112	-0.114
-700.529	-151.494	0.253	-0.019
-699.514	248.153	0.058	0.100
-698.499	-24.549	-0.104	-0.063
-697.485	210.703	0.092	0.147
-696.470	-200.000	-0.011	0.161
-695.456	-200.000	-0.010	-0.062
-694.441	-200.000	-0.038	-0.270
-693.426	-200.000	0.088	-0.485
-692.412	-200.000	0.050	0.324
-691.397	-40.790	-0.257	-0.135
-690.383	-22.255	-0.135	-0.083
-689.368	145.233	0.097	0.131
-688.354	84.031	-0.238	-0.263
-687.339	-79.857	0.113	0.039
-686.324	254.417	0.189	-0.327
-685.310	-109.032	-0.093	0.020
-684.295	-84.310	-0.226	0.073
-683.281	108.401	-0.249	0.301
-682.266	-115.440	0.151	0.029
-681.251	-200.000	0.092	0.468
-680.237	-200.000	-0.006	0.058
-679.222	115.929	-0.066	0.082
-678.208	-120.898	0.503	0.086
-677.193	48.630	-0.148	-0.141
-676.178	-105.615	0.057	0.013
-675.164	-131.536	-0.475	-0.063
-674.149	39.822	0.181	-0.164
-673.135	559.736	0.100	-0.245
-672.120	-200.000	-0.038	-0.206
-671.105	506.849	0.109	0.257
-670.091	-103.350	0.425	0.101
-669.076	-51.431	-0.159	-0.075
-668.062	124.141	-0.128	0.163
-667.047	-99.456	-0.304	0.077
-666.032	-5.832	-0.241	-0.167
-665.018	-159.046	-0.478	0.027
-664.003	-126.939	-0.252	0.038
-662.989	-67.575	-0.372	-0.147
-661.974	-25.397	0.156	-0.093
-660.959	305.764	-0.119	-0.224
-659.945	24.945	0.147	0.124
-658.930	3.478	0.032	0.024
-657.916	-200.000	-0.120	0.000
-656.901	155.265	0.180	-0.251
-655.886	343.768	-0.114	-0.226
-654.872	-45.866	-0.104	-0.052
-653.857	410.281	-0.047	-0.101
-652.843	-0.745	-0.114	-0.082
-651.828	-26.566	0.218	-0.129
-650.814	800.000	-0.045	0.181
-649.799	-23.810	0.271	0.164
-648.784	-200.000	0.005	-0.343
-647.770	-200.000	0.009	-0.385
-646.755	-93.904	-0.142	-0.039
-645.741	-77.871	0.129	0.045
-644.726	-200.000	0.304	0.000
-643.711	800.000	0.061	0.256
-642.697	281.479	0.054	0.097
-641.682	-70.504	-0.135	-0.052
-640.668	50.814	0.075	-0.072
-639.653	127.846	-0.114	-0.147
-638.638	456.863	0.127	-0.285
-637.624	116.091	-0.252	-0.312
-636.609	-200.000	-0.006	-0.261
-635.595	-200.000	-0.059	-0.500
-634.580	-37.753	-0.256	0.138
-633.565	800.000	0.099	-0.409
-632.551	81.831	0.332	0.363
-631.536	-73.877	-0.138	0.051
-630.522	-200.000	0.061	-0.341
-629.507	-37.790	0.115	0.062
-628.492	-161.642	-0.196	-0.010
-627.478	-114.232	-0.031	-0.006
-626.463	-12.838	-0.177	-0.117
-625.449	800.000	-0.163	0.474
-624.434	-94.686	-0.151	0.041
-623.419	47.384	-0.154	-0.145
-622.405	-133.837	-0.087	0.011
-621.390	-38.704	-0.266	0.142
-620.376	127.131	-0.076	-0.098
-619.361	-23.940	0.122	0.074
-618.346	54.392	-0.137	-0.133
-617.332	-200.000	-0.052	-0.358
-616.317	-200.000	0.016	-0.231
-615.303	-57.178	-0.267	-0.119
-614.288	210.034	0.017	0.027
-613.273	6.515	0.254	0.191
-612.259	-200.000	-0.007	-0.064
-611.244	144.043	-0.158	-0.213
-610.230	800.000	-0.041	-0.160
-609.215	-49.234	-0.358	0.173
-608.201	-200.000	0.054	0.292
-607.186	-200.000	0.013	0.254
-606.171	-65.108	0.218	-0.089
-605.157	800.000	0.068	-0.265
-604.142	370.538	0.166	-0.340
-603.128	-200.000	-0.007	-0.197
-602.113	-163.180	0.060	0.003
-601.098	78.820	0.194	-0.210
-600.084	-105.347	-0.311	0.071
-599.069	-200.000	-0.000	0.018
-598.055	92.449	-0.343	-0.391
-597.040	-95.421	0.437	0.119
-596.025	-17.856	-0.117	0.074
-595.011	66.214	0.148	-0.152
-593.996	-200.000	0.031	0.160
-592.982	-119.371	-0.186	-0.033
-591.967	-185.697	-0.213	0.003
-590.952	404.216	-0.051	0.108
-589.938	259.849	-0.075	-0.131
-588.923	58.676	-0.272	0.270
-587.909	16.713	0.073	0.059
-586.894	225.670	-0.096	-0.157
-585.879	202.075	-0.123	-0.191
-584.865	45.457	0.194	0.181
-583.850	-35.618	0.031	-0.017
-582.836	28.225	-0.097	-0.082
-581.821	-200.000	-0.032	-0.471
-580.806	-49.105	0.328	0.158
-579.792	-69.457	0.206	-0.079
-578.777	800.000	0.023	-0.065
-577.763	-44.673	0.056	-0.028
-576.748	-200.000	0.019	0.137
-575.733	-63.139	0.097	0.040
-574.719	-200.000	0.000	0.036
-573.704	335.662	0.131	-0.256
-572.690	247.185	0.071	0.120
-571.675	-135.778	-0.141	0.017
-570.661	43.457	0.172	0.159
-569.646	88.365	-0.183	-0.205
-568.631	-137.128	-0.254	-0.029
-567.617	141.950	0.199	-0.266
-566.602	229.136	0.059	-0.097
-565.588	95.847	0.054	0.062
-564.573	376.695	0.156	0.321
-563.558	260.844	0.095	0.165
-562.544	-200.000	-0.022	0.141
-561.529	163.542	0.145	0.206
-560.515	-200.000	0.003	0.051
-559.500	-200.000	-0.196	0.001
-558.485	228.102	0.096	-0.158
-557.471	-13.505	0.116	-0.075
-556.456	-151.796	-0.069	-0.005
-555.442	-200.000	0.039	0.319
-554.427	-133.542	0.205	0.026
-553.412	-200.000	-0.049	-0.246
-552.398	-200.000	-0.018	0.082
-551.383	57.464	-0.168	-0.165
-550.369	800.000	0.090	0.288
-549.354	-200.000	0.012	0.056
-548.339	-200.000	0.014	0.100
-547.325	62.752	-0.210	0.211
-546.310	-147.942	-0.156	-0.013
-545.296	-200.000	-0.003	-0.052
-544.281	-121.628	0.186	-0.031
-543.266	-200.000	0.037	-0.178
-542.252	91.076	0.141	0.160
-541.237	-97.826	-0.264	-0.069
-540.223	800.000	-0.085	-0.365
-539.208	47.688	-0.207	0.195
-538.193	-60.542	0.195	-0.084
-537.179	-126.935	0.255	0.038
-536.164	91.520	0.059	-0.067
-535.150	227.616	0.085	-0.140
-534.135	-53.723	0.424	-0.195
-533.121	-3.676	-0.389	-0.272
-532.106	800.000	-0.084	0.293
-531.091	51.309	0.176	-0.168
-530.077	-200.000	-0.002	-0.025
-529.062	-9.845	-0.134	0.090
-528.048	-96.065	0.250	0.067
-527.033	639.999	-0.049	-0.124
-526.018	-31.845	0.109	0.062
-525.004	-200.000	0.081	0.488
-523.989	-200.000	0.048	-0.318
-522.975	181.930	0.130	-0.193
-521.960	21.414	0.089	0.073
-520.945	-24.171	-0.106	0.064
-519.931	-200.000	-0.018	0.263
-518.916	-200.000	-0.033	-0.169
-517.902	-29.467	-0.114	0.066
-516.887	-200.000	0.006	0.183
-515.872	800.000	-0.051	0.144
-514.858	443.237	-0.135	0.299
-513.843	107.555	0.264	-0.316
-512.829	-200.000	0.061	-0.407
-511.814	-143.193	-0.181	-0.018
-510.799	83.986	-0.064	0.070
-509.785	-104.684	-0.216	-0.050
-508.770	674.101	0.047	0.121
-507.756	161.008	0.255	0.358
-506.741	800.000	-0.067	0.200
-505.726	37.707	0.201	0.179
-504.712	-86.546	0.330	-0.102
-503.697	-57.003	-0.206	-0.091
-502.683	800.000	0.047	0.186
-501.668	594.593	0.033	-0.082
-500.653	-118.926	-0.139	-0.024
-499.639	7.764	-0.068	0.051
-498.624	-93.936	-0.070	0.019
-497.610	-200.000	-0.059	0.450
-496.595	73.086	0.173	0.181
-495.581	138.799	-0.168	0.222
-494.566	132.153	-0.193	0.250
-493.551	-82.573	0.279	0.091
-492.537	64.030	0.115	-0.117
-491.522	-200.000	0.014	0.173
-490.508	120.472	-0.144	-0.180
-489.493	-168.347	-0.094	-0.004
-488.478	800.000	-0.076	-0.273
-487.464	-4.555	-0.153	0.107
-486.449	71.108	-0.018	-0.018
-485.435	-123.226	-0.062	0.010
-484.420	-97.845	0.050	-0.013
-483.405	-200.000	0.051	-0.227
-482.391	-200.000	-0.042	-0.185
-481.376	-66.610	0.118	0.047
-480.362	5.465	0.071	0.052
-479.347	-117.449	-0.342	0.062
-478.332	299.493	0.088	-0.164
-477.318	800.000	0.026	0.090
-476.303	236.382	0.183	0.304
-475.289	-118.569	0.201	-0.036
-474.274	-27.998	-0.143	-0.083
-473.259	-46.946	0.254	-0.125
-472.245	-200.000	0.001	0.280
-471.230	203.666	0.122	-0.190
-470.216	-200.000	-0.003	-0.058
-469.201	73.789	0.182	-0.192
-468.186	331.301	0.126	-0.243
-467.172	-83.380	0.128	-0.041
-466.157	12.744	0.215	0.166
-465.143	-9.307	0.320	-0.215
-464.128	78.376	-0.168	-0.180
-463.113	800.000	-0.047	-0.196
-462.099	-57.641	0.275	-0.121
-461.084	-69.667	0.347	-0.133
-460.070	-95.092	0.046	-0.012
-459.055	-99.539	0.174	-0.044
-458.040	-200.000	0.018	-0.102
-457.026	-86.657	-0.279	0.086
-456.011	-19.409	-0.479	-0.298
-454.997	-131.773	-0.232	-0.030
-453.982	36.022	-0.193	0.170
-452.968	136.992	-0.101	-0.132
-451.953	-1.454	-0.156	-0.110
-450.938	-107.298	0.221	-0.049
-449.924	731.537	0.047	0.126
-448.909	578.849	0.067	-0.164
-447.895	-40.591	-0.055	-0.028
-446.880	-19.038	0.182	-0.114
-445.865	-148.950	0.320	0.026
-444.851	27.957	-0.122	-0.103
-443.836	-15.729	0.395	0.253
-442.822	28.447	-0.107	-0.091
-441.807	-200.000	0.030	-0.162
-440.792	-76.686	0.315	-0.111
-439.778	59.899	-0.055	0.054
-438.763	-95.106	-0.278	-0.075
-437.749	800.000	0.128	0.426
-436.734	-0.046	0.160	-0.114
-435.719	-96.955	-0.278	0.073
-434.705	-187.063	-0.413	-0.006
-433.690	-86.069	0.251	-0.078
-432.676	-89.348	-0.243	0.072
-431.661	-200.000	-0.022	0.102
-430.646	-47.088	-0.014	0.007
-429.632	238.694	-0.096	-0.160
-428.617	-149.686	0.117	-0.009
-427.603	-94.540	-0.228	0.062
-426.588	-23.876	-0.131	-0.078
-425.573	-116.124	-0.352	0.066
-424.559	-5.348	0.087	-0.060
-423.544	204.906	-0.120	-0.186
-422.530	203.940	-0.032	0.049
-421.515	77.830	0.220	0.235
-420.500	71.543	-0.247	-0.257
-419.486	-200.000	0.039	-0.362
-418.471	-92.238	0.267	-0.076
-417.457	800.000	-0.035	0.148
-416.442	570.619	-0.060	-0.146
-415.428	292.231	0.108	0.196
-414.413	282.892	0.126	-0.227
-413.398	373.455	-0.048	0.097
-412.384	1.251	-0.141	0.101
-411.369	-200.000	0.008	0.240
-410.355	-143.150	0.088	-0.009
-409.340	-22.343	0.207	-0.126
-408.325	800.000	0.030	-0.092
-407.311	72.813	0.191	0.199
-406.296	-14.388	0.284	0.183
-405.282	800.000	-0.038	-0.119
-404.267	-166.863	0.073	-0.003
-403.252	-7.505	0.057	0.039
-402.238	295.828	0.025	-0.046
-401.223	-200.000	-0.025	-0.220
-400.209	12.486	0.206	0.159
-399.194	115.031	0.103	0.126
-398.179	743.724	0.071	-0.190
-397.165	48.098	0.114	0.107
-396.150	800.000	-0.035	0.106
-395.136	800.000	-0.022	-0.092
-394.121	-146.591	0.069	-0.006
-393.106	47.294	-0.266	-0.248
-392.092	-200.000	-0.018	-0.230
-391.077	800.000	-0.068	-0.267
-390.063	297.088	0.039	-0.072
-389.048	800.000	0.025	-0.094
-388.033	-118.429	-0.228	0.041
-387.019	573.832	0.093	0.228
-386.004	-9.179	0.236	-0.158
-384.990	-43.349	0.266	0.134
-383.975	91.616	0.093	-0.105
-382.960	92.036	-0.268	0.302
-381.946	57.151	0.287	0.280
-380.931	800.000	-0.054	-0.150
-379.917	27.056	-0.248	0.209
-378.902	186.949	-0.113	-0.168
-377.888	800.000	-0.035	0.117
-376.873	777.947	-0.036	-0.099
-375.858	-200.000	0.015	0.000
-374.844	-200.000	-0.002	0.137
-373.829	-200.000	0.012	-0.252
-372.815	-200.000	-0.021	0.093
-371.800	275.472	0.191	-0.339
-370.785	-77.216	-0.326	-0.113
-369.771	-18.954	-0.040	-0.025
-368.756	-21.787	-0.280	0.170
-367.742	25.776	0.166	0.138
-366.727	-200.000	-0.029	-0.319
-365.712	-42.345	-0.160	-0.081
-364.698	97.881	-0.116	0.133
-363.683	800.000	0.065	0.246
-362.669	187.924	0.089	0.132
-361.654	800.000	0.135	-0.386
-360.639	162.874	0.170	0.239
-359.625	-200.000	0.021	0.112
-358.610	-184.613	-0.283	0.005
-357.596	800.000	0.062	-0.216
-356.581	30.219	0.176	0.150
-355.566	154.112	-0.248	0.340
-354.552	-139.086	0.088	-0.010
-353.537	-107.518	0.282	-0.062
-352.523	591.355	-0.203	0.500
-351.508	800.000	0.066	0.267
-350.493	97.180	-0.081	-0.093
-349.479	-117.744	-0.191	0.034
-348.464	38.922	0.202	-0.180
-347.450	-200.000	-0.060	-0.288
-346.435	800.000	0.084	0.290
-345.420	23.231	-0.238	0.195
-344.406	-200.000	0.009	0.054
-343.391	-39.491	-0.112	-0.058
-342.377	-107.419	-0.160	-0.035
-341.362	159.196	-0.095	0.132
-340.348	800.000	-0.040	-0.173
-339.333	-93.919	-0.340	-0.093
-338.318	800.000	-0.051	-0.178
-337.304	182.753	-0.137	-0.202
-336.289	-84.290	-0.348	0.110
-335.275	-196.426	0.227	-0.002
-334.260	208.435	0.026	0.040
-333.245	296.503	-0.208	-0.381
-332.231	97.019	0.107	-0.122
-331.216	153.330	-0.134	0.183
-330.202	19.275	0.156	-0.125
-329.187	145.445	0.218	0.292
-328.172	-76.941	0.275	0.096
-327.158	-200.000	0.008	0.087
-326.143	-195.792	0.223	0.002
-325.129	22.246	-0.236	-0.193
-324.114	-60.992	-0.163	0.069
-323.099	-200.000	-0.030	0.400
-322.085	19.978	0.157	-0.126
-321.070	196.456	0.075	0.114
-320.056	800.000	0.068	0.191
-319.041	286.737	0.150	0.271
-318.026	-200.000	0.033	0.245
-317.012	-200.000	-0.060	-0.263
-315.997	-122.459	0.196	-0.032
-314.983	229.415	0.075	-0.122
-313.968	392.550	-0.038	0.079
-312.953	-141.180	0.245	0.025
-311.939	77.232	0.050	-0.053
-310.924	109.839	0.071	-0.085
-309.910	-200.000	0.025	0.157
-308.895	-150.884	0.084	0.006
-307.880	-95.202	-0.283	-0.076
-306.866	27.568	0.114	0.096
-305.851	800.000	0.064	0.240
-304.837	781.861	-0.044	-0.121
-303.822	-154.625	-0.134	-0.009
-302.807	-183.316	0.156	-0.003
-301.793	167.075	-0.142	-0.202
-300.778	452.336	-0.156	0.345
-299.764	199.432	-0.150	0.229
-298.749	-87.209	0.147	0.045
-297.735	324.411	0.066	-0.126
-296.720	10.331	0.221	-0.168
-295.705	-39.053	0.167	0.088
-294.691	-52.316	-0.259	0.120
-293.676	111.534	0.216	-0.260
-292.662	-3.902	-0.176	-0.121
-291.647	33.085	0.123	-0.106
-290.632	328.563	-0.091	0.174
-289.618	-68.018	-0.194	0.075
-288.603	9.842	-0.219	-0.165
-287.589	204.583	-0.123	0.190
-286.574	24.105	-0.145	0.119
-285.559	-200.000	-0.013	0.187
-284.545	-12.319	-0.072	0.047
-283.530	383.670	-0.157	0.323
-282.516	-38.761	0.265	0.139
-281.501	-120.153	0.113	-0.019
-280.486	171.539	-0.225	0.322
-279.472	-112.242	-0.207	0.041
-278.457	-200.000	-0.019	-0.219
-277.443	44.221	0.126	-0.115
-276.428	361.543	-0.077	0.154
-275.413	-200.000	-0.002	-0.168
-274.399	-200.000	-0.015	-0.286
-273.384	20.751	0.144	0.116
-272.370	-200.000	0.003	0.150
-271.355	-32.772	-0.406	-0.225
-270.340	-46.484	-0.171	-0.084
-269.326	-68.219	-0.126	0.049
-268.311	-200.000	-0.009	0.131
-267.297	-40.949	0.151	0.078
-266.282	-200.000	0.030	-0.206
-265.267	23.666	-0.014	0.012
-264.253	-35.121	0.230	0.125
-263.238	41.519	-0.131	-0.118
-262.224	800.000	-0.109	0.320
-261.209	30.088	0.203	0.173
-260.195	-94.657	0.079	-0.021
-259.180	158.662	0.082	0.114
-258.165	385.070	0.056	0.115
-257.151	379.816	-0.073	0.150
-256.136	-200.000	0.010	0.096
-255.122	343.248	0.086	0.168
-254.107	-105.153	0.170	0.039
-253.092	-200.000	0.050	-0.231
-252.078	-19.083	-0.373	-0.231
-251.063	800.000	0.047	0.197
-250.049	89.872	-0.216	-0.240
-249.034	-55.481	0.211	0.094
-248.019	-200.000	0.010	0.157
-247.005	-200.000	-0.038	-0.307
-245.990	-200.000	0.027	-0.466
-244.976	-32.025	0.245	-0.137
-243.961	-122.465	-0.262	-0.042
-242.946	-200.000	-0.011	0.108
-241.932	-22.748	-0.328	-0.197
-240.917	544.753	0.076	0.180
-239.903	-200.000	-0.065	0.346
-238.888	-147.778	0.085	0.007
-237.873	-200.000	-0.010	-0.064
-236.859	-200.000	0.063	0.274
-235.844	-22.431	0.164	0.099
-234.830	-135.641	-0.058	-0.007
-233.815	-8.395	0.098	-0.065
-232.800	153.436	-0.066	-0.090
-231.786	559.663	0.182	0.437
-230.771	-200.000	0.024	0.285
-229.757	294.175	-0.138	0.251
-228.742	-198.228	-0.210	-0.001
-227.727	18.193	-0.197	-0.157
-226.713	35.359	-0.078	-0.068
-225.698	-26.109	-0.097	0.057
-224.684	82.073	-0.098	0.106
-223.669	-200.000	0.007	0.185
-222.655	76.628	0.050	-0.053
-221.640	-200.000	0.057	-0.310
-220.625	-156.678	-0.205	-0.013
-219.611	800.000	0.016	-0.059
-218.596	800.000	0.049	0.135
-217.582	261.550	0.021	0.037
-216.567	-200.000	0.041	-0.242
-215.552	-96.952	-0.235	-0.061
-214.538	-200.000	0.015	-0.159
-213.523	800.000	-0.154	-0.458
-212.509	-193.735	0.137	0.001
-211.494	68.876	-0.114	-0.117
-210.479	-200.000	0.016	0.140
-209.465	62.419	-0.119	-0.118
-208.450	90.167	0.172	0.191
-207.436	-17.630	-0.174	0.108
-206.421	800.000	0.043	0.182
-205.406	-18.212	-0.191	-0.119
-204.392	27.468	0.245	0.205
-203.377	-200.000	-0.029	0.398
-202.363	-156.833	0.189	0.012
-201.348	800.000	0.097	0.310
-200.333	-116.501	0.335	-0.061
-199.319	-66.937	-0.270	0.106
-198.304	178.114	-0.113	-0.163
-197.290	72.917	0.117	0.121
-196.275	29.092	-0.099	0.083
-195.260	-200.000	-0.032	-0.311
-194.246	-67.098	0.207	-0.081
-193.231	-90.076	-0.127	0.037
-192.217	800.000	-0.023	0.071
-191.202	-122.663	-0.530	0.085
-190.187	-52.571	0.186	0.085
-189.173	-7.965	0.170	0.114
-188.158	570.170	0.123	-0.298
-187.144	-200.000	-0.002	0.384
-186.129	-138.061	-0.086	0.009
-185.114	-133.007	0.209	0.026
-184.100	-57.634	-0.105	0.046
-183.085	43.005	-0.105	-0.095
-182.071	119.962	-0.088	-0.109
-181.056	-119.286	-0.178	-0.031
-180.042	280.627	-0.216	0.384
-179.027	-38.316	-0.119	-0.063
-178.012	-200.000	-0.007	-0.214
-176.998	118.796	-0.217	-0.266
-175.983	-200.000	0.012	-0.263
-174.969	-200.000	0.040	0.303
-173.954	43.524	0.120	-0.109
-172.939	-11.278	0.278	-0.182
-171.925	721.694	0.047	-0.123
-170.910	-51.940	-0.353	0.163
-169.896	800.000	-0.060	0.182
-168.881	-200.000	0.041	-0.227
-167.866	800.000	-0.053	-0.159
-166.852	-138.016	0.381	-0.042
-165.837	-80.989	0.450	-0.148
-164.823	-53.284	-0.174	-0.079
-163.808	109.961	-0.134	0.160
-162.793	-110.233	0.308	0.064
-161.779	-98.425	0.196	-0.050
-160.764	-200.000	-0.029	0.522
-159.750	800.000	0.062	-0.170
-158.735	-145.679	0.101	-0.009
-157.720	-56.875	-0.330	0.144
-156.706	800.000	-0.044	0.181
-155.691	1.336	0.076	0.054
-154.677	-144.910	0.352	0.032
-153.662	272.776	0.275	0.482
-152.647	547.366	0.054	-0.128
-151.633	-195.583	-0.241	0.002
-150.618	-66.482	-0.189	-0.074
-149.604	489.800	0.035	0.080
-148.589	-78.596	-0.047	0.016
-147.574	163.341	0.040	-0.055
-146.560	-200.000	0.048	0.225
-145.545	-125.243	0.148	0.023
-144.531	-200.000	0.052	-0.302
-143.516	-200.000	0.256	-0.001
-142.502	670.814	0.058	0.150
-141.487	-3.452	0.193	-0.133
-140.472	78.576	0.111	0.118
-139.458	608.006	0.022	0.055
-138.443	-158.073	0.480	0.028
-137.429	118.343	0.235	-0.288
-136.414	7.828	-0.117	-0.087
-135.399	-200.000	0.016	-0.072
-134.385	165.939	-0.067	0.094
-133.370	-200.000	0.003	0.157
-132.356	-175.811	-0.192	-0.005
-131.341	-136.674	0.380	-0.043
-130.326	-41.125	0.355	0.182
-129.312	-109.882	0.145	-0.030
-128.297	109.879	0.040	-0.047
-127.283	-83.541	0.376	0.119
-126.268	550.633	-0.098	-0.233
-125.253	-100.427	-0.163	0.040
-124.239	-67.609	0.282	0.109
-123.224	37.203	-0.221	0.194
-122.210	96.970	0.123	-0.140
-121.195	-82.072	-0.258	0.083
