DTS Sentinel unit serial number:	SN413079Multiplexer serial number:	ORYXHardware model number:	OX4-SRSoftware version number:	ORYX F/W v4.00 Oryx Data Collector v3.7.2.0data status	okinstallation	princeton_trtdifferential loss correction	single-endedforward channel	channel 4reverse channel	N/Adate	2019/09/12time	20:33:35forward acquisition time	60.00reverse acquisition time	0.00gamma	496.2192k internal	0.2311k external	0.2311temperature offset calibration	1.0167default loss term (dB/km)	0.3790temperature slope calibration	1.0000multiplexer offset coefficient	1.0000multiplexer slope coefficient	1.0000fibre end	0.00T internal ref (°C)	31.23T ext. ref 1 (°C)	3.58T ext. ref 2 (°C)	25.78length (m)	temperature (°C)	Stokes	anti-Stokes-747.200	-153.080	-0.032	0.002
-746.185	-200.000	-0.005	-0.028
-745.171	-53.035	-0.165	-0.077
-744.156	-15.505	0.057	0.037
-743.142	-64.897	0.194	0.079
-742.127	298.486	-0.031	0.058
-741.112	107.832	-0.087	-0.106
-740.098	215.910	-0.125	0.201
-739.083	54.216	-0.043	-0.042
-738.069	81.894	-0.144	0.159
-737.054	-17.811	0.223	0.142
-736.039	76.014	-0.264	0.283
-735.025	362.875	0.089	0.181
-734.010	-27.696	0.178	0.105
-732.996	-200.000	-0.028	0.130
-731.981	-61.325	-0.138	0.059
-730.966	800.000	-0.093	-0.350
-729.952	400.984	-0.028	-0.061
-728.937	-97.276	-0.242	0.064
-727.923	-94.821	-0.256	-0.070
-726.908	800.000	0.063	-0.268
-725.894	-89.241	0.252	-0.075
-724.879	203.512	0.023	0.036
-723.864	-76.884	-0.216	0.077
-722.850	-200.000	-0.055	0.252
-721.835	-125.015	-0.418	-0.065
-720.821	445.869	0.129	-0.288
-719.806	-182.259	-0.186	0.004
-718.791	280.196	0.044	-0.080
-717.777	-44.008	0.560	-0.285
-716.762	41.015	-0.186	-0.170
-715.748	-25.116	-0.386	0.232
-714.733	228.545	0.160	-0.265
-713.718	-200.000	-0.005	0.132
-712.704	14.363	-0.111	0.088
-711.689	-132.779	-0.265	0.034
-710.675	-77.379	0.305	-0.107
-709.660	138.411	0.059	0.078
-708.645	-75.882	0.075	-0.027
-707.631	-151.703	0.162	0.012
-706.616	-40.961	-0.093	-0.049
-705.602	-37.916	-0.158	0.085
-704.587	-127.932	-0.566	0.082
-703.572	-61.630	0.325	0.138
-702.558	231.824	-0.008	0.014
-701.543	81.699	-0.090	0.098
-700.529	-72.271	-0.185	0.070
-699.514	-135.752	0.353	0.042
-698.499	-200.000	0.014	-0.085
-697.485	-118.927	0.287	0.051
-696.470	-78.292	-0.256	0.089
-695.456	-153.512	-0.470	-0.033
-694.441	87.565	0.105	0.117
-693.426	18.493	0.124	-0.101
-692.412	120.051	0.150	0.189
-691.397	325.060	-0.175	-0.338
-690.383	252.729	-0.108	-0.187
-689.368	736.113	0.056	-0.152
-688.354	-123.894	-0.151	-0.024
-687.339	-121.912	0.183	-0.031
-686.324	-200.000	0.003	-0.062
-685.310	800.000	0.092	0.275
-684.295	-125.694	-0.303	0.046
-683.281	15.591	-0.091	-0.073
-682.266	431.431	-0.151	-0.332
-681.251	-200.000	0.060	-0.354
-680.237	90.507	-0.107	-0.121
-679.222	92.740	-0.074	0.085
-678.208	-200.000	0.034	-0.212
-677.193	35.415	-0.142	-0.126
-676.178	-19.148	0.052	0.033
-675.164	800.000	0.040	-0.165
-674.149	-200.000	0.020	-0.228
-673.135	-112.139	-0.175	0.036
-672.120	129.151	-0.139	-0.180
-671.105	289.436	0.036	-0.067
-670.091	-154.264	-0.254	0.017
-669.076	2.980	-0.201	-0.148
-668.062	13.979	-0.091	-0.072
-667.047	222.367	0.087	0.142
-666.032	-86.074	-0.408	0.127
-665.018	-200.000	-0.020	-0.162
-664.003	-131.010	0.203	-0.027
-662.989	-59.060	0.228	-0.100
-661.974	145.676	-0.099	-0.135
-660.959	-200.000	-0.012	0.143
-659.945	800.000	0.022	-0.080
-658.930	473.572	-0.053	0.121
-657.916	-169.319	-0.151	-0.006
-656.901	800.000	0.128	0.430
-655.886	-123.744	0.117	-0.019
-654.872	139.311	-0.078	-0.104
-653.857	494.159	-0.049	-0.114
-652.843	9.315	-0.200	0.153
-651.828	179.706	-0.173	0.256
-650.814	581.736	0.031	0.076
-649.799	-23.402	0.118	-0.072
-648.784	133.348	0.194	0.254
-647.770	-10.646	-0.227	0.152
-646.755	219.322	-0.069	-0.111
-645.741	-79.920	-0.099	-0.034
-644.726	-75.213	-0.111	-0.040
-643.711	-194.296	0.051	-0.000
-642.697	-9.357	0.124	-0.084
-641.682	-89.068	-0.229	-0.068
-640.668	-102.912	0.029	-0.007
-639.653	564.646	0.049	-0.119
-638.638	-163.926	0.153	0.007
-637.624	-112.673	0.296	-0.060
-636.609	-25.755	0.244	-0.145
-635.595	800.000	0.067	0.261
-634.580	-150.529	0.109	0.008
-633.565	-14.723	-0.050	0.032
-632.551	-40.235	-0.375	0.197
-631.536	-84.955	-0.082	-0.026
-630.522	-72.856	-0.099	-0.037
-629.507	-21.890	-0.293	-0.180
-628.492	33.819	-0.082	-0.072
-627.478	-141.697	0.324	-0.033
-626.463	-36.055	0.119	0.065
-625.449	-62.836	-0.126	0.053
-624.434	38.229	-0.101	0.091
-623.419	-200.000	-0.046	0.362
-622.405	48.874	0.201	-0.190
-621.390	94.841	0.098	-0.112
-620.376	-36.565	-0.274	0.149
-619.361	800.000	0.041	-0.163
-618.346	-123.587	0.071	-0.011
-617.332	-20.080	0.129	-0.080
-616.317	141.547	0.108	-0.145
-615.303	-13.495	-0.325	0.213
-614.288	-200.000	0.005	-0.084
-613.273	691.208	-0.156	0.412
-612.259	-0.255	0.114	0.082
-611.244	36.666	0.206	-0.184
-610.230	800.000	-0.062	-0.210
-609.215	-200.000	-0.034	-0.220
-608.201	21.146	-0.170	0.140
-607.186	125.042	0.091	-0.116
-606.171	337.415	0.166	-0.327
-605.157	96.279	-0.024	0.027
-604.142	375.618	-0.074	0.153
-603.128	-10.010	-0.185	0.124
-602.113	800.000	0.038	-0.116
-601.098	306.572	0.157	-0.294
-600.084	-83.307	-0.223	-0.072
-599.069	-106.145	-0.054	0.012
-598.055	-24.840	0.291	-0.174
-597.040	-200.000	0.012	-0.203
-596.025	-169.392	0.407	0.015
-595.011	-9.065	-0.195	0.132
-593.996	-154.021	0.211	0.014
-592.982	91.973	0.084	-0.095
-591.967	-170.963	-0.094	0.003
-590.952	54.242	0.366	-0.355
-589.938	-137.208	0.197	-0.023
-588.923	-150.888	-0.247	0.019
-587.909	-140.790	0.194	-0.020
-586.894	800.000	0.037	-0.117
-585.879	-108.082	0.122	0.027
-584.865	-179.325	0.088	0.002
-583.850	79.995	0.256	-0.278
-582.836	21.335	0.237	-0.194
-581.821	-200.000	-0.018	-0.231
-580.806	-159.767	0.177	0.010
-579.792	800.000	-0.123	0.391
-578.777	-59.987	0.228	0.098
-577.763	-77.618	0.218	-0.076
-576.748	-116.856	-0.168	0.031
-575.733	-200.000	-0.051	0.303
-574.719	-26.360	0.274	0.162
-573.704	44.799	-0.156	-0.144
-572.690	12.301	-0.375	-0.291
-571.675	-121.116	-0.220	0.037
-570.661	-36.127	0.053	0.029
-569.646	800.000	0.063	-0.247
-568.631	800.000	0.038	0.164
-567.617	19.641	-0.229	0.186
-566.602	55.083	-0.226	-0.220
-565.588	29.293	-0.147	0.126
-564.573	-118.930	-0.199	-0.035
-563.558	287.797	-0.164	-0.298
-562.544	215.237	0.061	0.098
-561.529	-106.448	-0.229	0.052
-560.515	-79.838	-0.358	-0.121
-559.500	-85.793	-0.168	0.052
-558.485	-200.000	-0.016	0.254
-557.471	165.844	0.084	0.119
-556.456	-167.973	0.229	-0.009
-555.442	-200.000	0.064	-0.365
-554.427	-87.284	-0.142	-0.043
-553.412	229.869	-0.008	-0.013
-552.398	516.155	-0.072	0.168
-551.383	171.865	-0.206	0.298
-550.369	180.088	-0.046	-0.068
-549.354	162.379	0.144	0.203
-548.339	99.792	0.097	-0.114
-547.325	-5.892	-0.135	0.093
-546.310	386.391	0.047	0.099
-545.296	-200.000	-0.006	-0.181
-544.281	38.935	-0.198	0.178
-543.266	-33.827	0.175	-0.097
-542.252	57.007	-0.135	-0.133
-541.237	152.385	-0.121	0.166
-540.223	88.122	0.129	0.144
-539.208	-66.555	-0.550	0.220
-538.193	42.179	-0.202	-0.185
-537.179	-56.553	-0.059	-0.026
-536.164	57.068	0.206	-0.202
-535.150	-159.448	0.048	-0.003
-534.135	-67.687	0.120	0.047
-533.121	199.838	0.149	0.230
-532.106	-200.000	-0.030	-0.222
-531.091	-125.141	0.407	-0.063
-530.077	-93.492	-0.113	0.031
-529.062	800.000	-0.026	-0.089
-528.048	-200.000	0.022	0.144
-527.033	-200.000	-0.004	-0.276
-526.018	41.532	-0.166	0.151
-525.004	-70.399	0.081	0.031
-523.989	133.502	-0.127	-0.165
-522.975	80.395	-0.082	-0.089
-521.960	149.229	0.030	0.041
-520.945	45.147	-0.036	0.033
-519.931	12.264	0.089	0.069
-518.916	324.559	-0.043	0.083
-517.902	26.933	-0.186	0.157
-516.887	130.347	0.254	0.328
-515.872	-141.157	-0.342	0.035
-514.858	-200.000	0.017	0.141
-513.843	-2.784	-0.102	0.071
-512.829	-74.616	0.088	-0.032
-511.814	-122.217	0.086	0.014
-510.799	8.077	-0.150	-0.114
-509.785	800.000	-0.071	0.200
-508.770	91.020	-0.141	-0.159
-507.756	-200.000	-0.138	0.000
-506.741	-166.461	-0.073	0.003
-505.726	-104.937	0.245	-0.056
-504.712	287.075	-0.063	-0.115
-503.697	272.206	0.147	0.261
-502.683	-49.773	-0.322	-0.154
-501.668	-16.984	0.157	-0.100
-500.653	800.000	-0.051	0.162
-499.639	-52.992	-0.047	-0.022
-498.624	159.343	0.236	0.329
-497.610	277.489	0.055	-0.098
-496.595	249.311	0.096	0.164
-495.581	163.725	0.076	-0.107
-494.566	-114.698	-0.167	-0.032
-493.551	-12.044	-0.112	0.074
-492.537	-72.324	-0.367	-0.137
-491.522	27.794	-0.105	-0.089
-490.508	-200.000	0.000	-0.173
-489.493	202.358	-0.065	0.100
-488.478	-136.789	0.398	-0.046
-487.464	-156.064	-0.172	-0.011
-486.449	253.680	-0.124	-0.212
-485.435	-200.000	-0.066	-0.461
-484.420	-66.726	0.232	-0.092
-483.405	800.000	0.029	0.082
-482.391	498.905	-0.087	-0.203
-481.376	-29.088	-0.223	-0.129
-480.362	155.540	-0.184	0.255
-479.347	-59.001	0.142	-0.061
-478.332	181.437	-0.221	0.326
-477.318	-49.239	-0.244	0.117
-476.303	-101.218	0.138	-0.034
-475.289	-94.778	0.228	0.062
-474.274	-2.223	-0.143	0.101
-473.259	143.130	-0.091	-0.122
-472.245	800.000	-0.053	-0.155
-471.230	214.349	0.191	-0.303
-470.216	-67.466	0.285	0.112
-469.201	98.787	0.252	0.292
-468.186	-19.451	0.100	0.063
-467.172	-75.228	0.141	0.051
-466.157	292.989	0.033	0.061
-465.143	-200.000	-0.023	0.244
-464.128	-200.000	0.023	0.407
-463.113	162.973	-0.160	0.226
-462.099	-103.006	-0.274	-0.065
-461.084	-122.831	0.290	0.047
-460.070	-158.728	0.294	-0.017
-459.055	-200.000	0.012	-0.134
-458.040	-200.000	0.001	-0.263
-457.026	800.000	-0.108	-0.303
-456.011	90.907	-0.044	0.050
-454.997	581.127	-0.145	-0.357
-453.982	268.227	0.066	-0.117
-452.968	-49.288	0.284	0.136
-451.953	130.497	-0.152	-0.196
-450.938	104.018	0.345	-0.407
-449.924	-183.645	0.170	0.003
-448.909	-149.552	0.165	0.013
-447.895	-140.323	0.138	-0.014
-446.880	-38.920	0.133	0.070
-445.865	35.204	-0.320	0.281
-444.851	800.000	-0.031	0.125
-443.836	800.000	-0.040	-0.139
-442.822	800.000	0.044	0.178
-441.807	-19.175	0.190	-0.119
-440.792	-106.768	-0.254	-0.057
-439.778	3.241	-0.273	-0.199
-438.763	-5.034	-0.096	0.066
-437.749	800.000	-0.106	0.414
-436.734	800.000	0.110	-0.448
-435.719	800.000	-0.013	-0.044
-434.705	-200.000	-0.007	0.179
-433.690	-80.137	0.252	0.085
-432.676	-92.780	-0.317	-0.089
-431.661	-200.000	0.009	0.146
-430.646	75.096	0.133	0.141
-429.632	-143.130	0.364	-0.035
-428.617	800.000	-0.059	-0.179
-427.603	-12.563	0.153	-0.100
-426.588	800.000	0.089	0.351
-425.573	-200.000	-0.005	0.307
-424.559	109.248	-0.015	0.018
-423.544	44.846	-0.132	-0.122
-422.530	-111.673	0.363	-0.074
-421.515	-111.157	0.196	-0.040
-420.500	457.765	-0.011	-0.024
-419.486	-180.057	0.086	-0.002
-418.471	219.773	0.112	0.179
-417.457	-154.798	0.230	0.015
-416.442	54.095	-0.158	0.152
-415.428	-200.000	-0.006	0.157
-414.413	50.185	0.224	0.212
-413.398	-64.881	-0.215	0.087
-412.384	31.527	0.233	0.201
-411.369	-124.607	0.276	-0.043
-410.355	-137.778	-0.174	-0.020
-409.340	191.352	0.183	0.276
-408.325	-200.000	-0.042	0.212
-407.311	-128.086	0.281	-0.040
-406.296	-18.853	-0.387	-0.242
-405.282	682.962	-0.107	0.279
-404.267	800.000	-0.098	0.330
-403.252	-48.867	0.162	0.078
-402.238	262.897	0.129	-0.225
-401.223	102.254	0.088	0.103
-400.209	142.213	0.167	0.222
-399.194	262.902	-0.231	0.401
-398.179	322.193	0.046	-0.087
-397.165	74.933	-0.031	0.033
-396.150	68.673	-0.294	-0.302
-395.136	297.193	-0.071	-0.131
-394.121	-18.921	-0.099	0.062
-393.106	800.000	-0.063	0.193
-392.092	-200.000	-0.005	0.132
-391.077	106.806	-0.085	0.101
-390.063	136.798	-0.278	0.363
-389.048	-132.648	-0.236	-0.030
-388.033	306.547	0.191	-0.355
-387.019	73.101	0.297	-0.310
-386.004	70.226	0.138	-0.143
-384.990	-55.298	-0.306	-0.138
-383.975	800.000	-0.021	0.069
-382.960	212.940	-0.082	-0.129
-381.946	-76.215	0.149	-0.053
-380.931	179.156	-0.131	-0.192
-379.917	23.544	-0.040	-0.033
-378.902	-66.809	-0.374	-0.148
-377.888	-200.000	-0.014	-0.206
-376.873	-169.122	-0.162	0.006
-375.858	-69.885	0.019	-0.007
-374.844	-42.957	-0.272	-0.138
-373.829	24.080	-0.303	-0.250
-372.815	431.038	0.118	-0.256
-371.800	649.322	0.025	0.063
-370.785	22.803	-0.178	-0.146
-369.771	573.476	0.032	0.078
-368.756	42.828	-0.082	-0.075
-367.742	215.771	-0.041	0.066
-366.727	-8.280	0.072	-0.049
-365.712	-50.977	0.221	-0.104
-364.698	-131.159	-0.272	0.036
-363.683	15.258	0.129	-0.102
-362.669	7.390	0.242	0.181
-361.654	-86.592	0.230	0.070
-360.639	116.045	-0.223	0.273
-359.625	-200.000	0.059	-0.362
-358.610	800.000	0.077	-0.230
-357.596	-181.463	0.431	-0.008
-356.581	63.952	-0.130	0.130
-355.566	-200.000	-0.013	0.160
-354.552	149.565	-0.093	0.126
-353.537	-140.780	0.196	0.020
-352.523	141.456	-0.040	-0.053
-351.508	-97.806	-0.149	0.039
-350.493	278.702	0.209	0.372
-349.479	-200.000	-0.072	0.360
-348.464	17.952	-0.233	0.186
-347.450	204.207	0.051	-0.080
-346.435	-200.000	-0.001	-0.172
-345.420	800.000	-0.007	-0.020
-344.406	160.675	-0.152	-0.213
-343.391	361.356	0.008	-0.016
-342.377	142.605	0.150	0.200
-341.362	-86.850	0.178	0.054
-340.348	13.448	-0.277	-0.214
-339.333	800.000	0.060	-0.217
-338.318	60.379	-0.151	0.149
-337.304	435.628	-0.024	0.052
-336.289	171.197	0.140	-0.200
-335.275	20.997	-0.087	-0.071
-334.260	-110.515	-0.106	-0.022
-333.245	55.506	0.199	-0.193
-332.231	-200.000	0.017	0.103
-331.216	-200.000	-0.016	0.158
-330.202	-108.963	0.174	0.037
-329.187	263.706	0.113	-0.197
-328.172	-200.000	-0.060	-0.295
-327.158	-8.116	0.039	0.026
-326.143	33.753	0.123	-0.107
-325.129	-104.306	-0.131	-0.030
-324.114	202.316	-0.191	0.294
-323.099	-200.000	-0.056	0.506
-322.085	-200.000	0.043	0.193
-321.070	-200.000	0.001	-0.304
-320.056	153.840	0.112	0.153
-319.041	116.267	-0.061	0.075
-318.026	800.000	0.148	-0.422
-317.012	343.488	0.084	-0.163
-315.997	-35.311	0.281	-0.153
-314.983	410.585	-0.021	0.045
-313.968	800.000	0.101	0.308
-312.953	-34.620	-0.104	-0.057
-311.939	-112.305	0.176	-0.035
-310.924	-145.426	0.182	0.016
-309.910	-15.807	-0.254	-0.161
-308.895	337.365	0.103	-0.199
-307.880	255.431	0.111	0.190
-306.866	-35.149	0.169	-0.092
-305.851	-114.980	-0.152	0.029
-304.837	84.061	-0.012	0.014
-303.822	-200.000	0.017	0.097
-302.807	229.032	0.099	0.161
-301.793	54.520	-0.198	0.190
-300.778	-146.697	-0.242	0.021
-299.764	-92.303	0.131	-0.037
-298.749	-175.071	0.172	0.005
-297.735	772.123	0.134	0.363
-296.720	-200.000	-0.031	0.188
-295.705	-200.000	-0.049	0.217
-294.691	-200.000	0.043	0.275
-293.676	-156.048	-0.185	0.012
-292.662	133.330	-0.054	0.069
-291.647	-136.316	-0.148	0.017
-290.632	-159.539	0.225	0.012
-289.618	-161.285	0.135	-0.007
-288.603	-0.735	-0.279	-0.197
-287.589	-133.587	0.358	0.045
-286.574	216.320	-0.040	0.064
-285.559	-33.252	-0.275	-0.152
-284.545	91.715	0.060	0.067
-283.530	800.000	0.102	-0.304
-282.516	128.440	0.146	-0.185
-281.501	96.337	0.292	-0.333
-280.486	114.302	0.086	0.104
-279.472	152.597	-0.003	-0.004
-278.457	-89.352	-0.338	0.099
-277.443	-70.928	-0.146	0.055
-276.428	-92.518	-0.439	-0.123
-275.413	80.113	0.169	0.182
-274.399	80.979	-0.125	0.134
-273.384	-115.716	0.106	-0.020
-272.370	136.503	-0.139	-0.181
-271.355	293.075	-0.018	0.032
-270.340	800.000	0.077	0.241
-269.326	-200.000	-0.010	-0.162
-268.311	-44.178	0.283	-0.141
-267.297	-121.239	-0.202	-0.034
-266.282	-91.254	0.240	0.069
-265.267	91.040	-0.165	0.184
-264.253	759.963	0.068	-0.184
-263.238	-200.000	-0.034	-0.358
-262.224	-24.627	0.015	-0.009
-261.209	140.192	0.229	0.301
-260.195	443.552	-0.068	0.148
-259.180	154.154	0.210	-0.287
-258.165	-0.233	-0.099	0.070
-257.151	-125.613	-0.307	0.046
-256.136	-122.862	0.157	0.025
-255.122	36.490	-0.255	-0.224
-254.107	162.170	0.120	0.168
-253.092	23.819	0.272	0.223
-252.078	-141.443	0.062	0.006
-251.063	-75.878	0.342	0.121
-250.049	91.716	-0.107	-0.120
-249.034	73.630	0.195	-0.204
-248.019	-131.654	-0.441	-0.058
-247.005	-200.000	-0.017	-0.156
-245.990	-115.005	0.154	-0.029
-244.976	-200.000	0.043	0.194
-243.961	-82.323	0.185	0.060
-242.946	15.219	0.127	-0.099
-241.932	142.316	-0.210	0.277
-240.917	-200.000	-0.023	0.175
-239.903	-200.000	0.015	0.338
-238.888	394.025	-0.100	-0.207
-237.873	-67.719	0.246	-0.096
-236.859	67.144	0.130	-0.132
-235.844	232.594	-0.210	0.344
-234.830	-90.249	0.260	-0.075
-233.815	105.173	0.258	0.302
-232.800	800.000	0.056	0.180
-231.786	-200.000	-0.026	-0.139
-230.771	183.842	-0.058	-0.085
-229.757	-28.247	-0.160	-0.092
-228.742	-114.370	-0.173	-0.033
-227.727	-200.000	0.033	0.352
-226.713	-78.294	-0.261	0.089
-225.698	-135.552	0.210	-0.025
-224.684	56.430	-0.029	0.028
-223.669	16.164	0.039	-0.031
-222.655	-23.883	0.110	-0.066
-221.640	257.912	-0.105	-0.179
-220.625	53.643	-0.094	-0.090
-219.611	-9.177	-0.196	-0.130
-218.596	-91.641	0.068	-0.019
-217.582	248.344	0.110	0.186
-216.567	-43.301	-0.281	0.141
-215.552	-113.514	-0.343	-0.067
-214.538	262.445	0.081	-0.140
-213.523	-200.000	0.039	0.252
-212.509	74.557	0.142	-0.149
-211.494	-36.493	-0.393	-0.210
-210.479	522.835	0.169	-0.396
-209.465	800.000	0.032	-0.126
-208.450	104.175	-0.047	0.055
-207.436	-139.507	0.194	-0.021
-206.421	43.332	-0.154	-0.140
-205.406	39.199	-0.069	-0.062
-204.392	-79.663	0.318	-0.107
-203.377	56.645	-0.022	-0.021
-202.363	283.664	-0.136	0.242
-201.348	-200.000	0.054	-0.258
-200.333	-167.417	-0.142	-0.006
-199.319	707.813	0.134	-0.353
-198.304	161.920	-0.060	0.083
-197.290	-22.577	0.113	-0.068
-196.275	19.569	-0.077	-0.062
-195.260	248.448	0.064	0.108
-194.246	-193.660	-0.093	-0.001
-193.231	-127.818	-0.075	-0.011
-192.217	-56.054	-0.150	0.066
-191.202	-66.665	-0.223	0.088
-190.187	262.902	0.073	-0.125
-189.173	-113.136	0.228	-0.045
-188.158	-51.567	-0.160	0.074
-187.144	58.739	-0.320	0.312
-186.129	-115.690	0.097	-0.018
-185.114	202.414	-0.242	-0.372
-184.100	-177.157	-0.145	-0.004
-183.085	-110.861	0.270	-0.055
-182.071	-125.705	-0.392	0.059
-181.056	-186.377	-0.282	0.004
-180.042	-91.619	0.349	-0.099
-179.027	-200.000	-0.044	0.259
-178.012	367.302	-0.061	-0.122
-176.998	-200.000	0.004	0.105
-175.983	-200.000	0.018	-0.180
-174.969	-122.449	-0.081	0.013
-173.954	-54.831	-0.312	0.140
-172.939	247.307	0.234	0.392
-171.925	-49.989	0.296	0.139
-170.910	508.396	-0.150	-0.346
-169.896	17.909	-0.104	0.083
-168.881	-74.404	0.154	0.055
-167.866	-52.127	0.716	0.330
-166.852	800.000	-0.064	-0.253
-165.837	-170.172	0.060	-0.002
-164.823	611.058	-0.132	0.327
-163.808	-97.512	-0.200	-0.051
-162.793	800.000	0.018	-0.069
-161.779	176.889	-0.144	0.208
-160.764	58.574	-0.135	-0.132
-159.750	35.516	0.184	0.160
-158.735	-62.652	0.288	-0.118
-157.720	-78.550	0.044	0.015
-156.706	177.823	0.130	0.189
-155.691	784.702	-0.063	-0.173
-154.677	-71.131	0.074	-0.028
-153.662	-200.000	-0.034	-0.153
-152.647	-153.722	-0.295	-0.020
-151.633	-200.000	0.038	-0.212
-150.618	-81.994	0.186	-0.060
-149.604	-200.000	0.005	-0.108
-148.589	208.534	0.151	-0.234
-147.574	800.000	-0.032	-0.105
-146.560	-47.895	0.359	0.172
-145.545	-160.519	-0.514	0.027
-144.531	36.748	-0.033	0.029
-143.516	76.486	-0.082	-0.086
-142.502	-200.000	-0.025	-0.218
-141.487	-96.431	0.203	0.053
-140.472	-118.677	-0.163	-0.029
-139.458	279.293	0.128	0.227
-138.443	800.000	-0.023	0.094
-137.429	212.858	-0.208	-0.325
-136.414	290.415	-0.070	0.126
-135.399	-200.000	-0.045	0.210
-134.385	23.202	-0.133	0.109
-133.370	-110.577	0.182	-0.037
-132.356	148.328	-0.132	-0.176
-131.341	-49.231	0.213	0.101
-130.326	19.757	-0.134	0.107
-129.312	-21.819	-0.041	0.024
-128.297	800.000	0.122	0.337
-127.283	-112.801	-0.086	-0.017
-126.268	-69.443	0.550	0.209
-125.253	-54.647	-0.067	0.030
-124.239	-200.000	0.016	-0.118
-123.224	-7.103	-0.422	-0.284
-122.210	468.763	-0.028	0.063
