DTS Sentinel unit serial number:	SN413079Multiplexer serial number:	ORYXHardware model number:	OX4-SRSoftware version number:	ORYX F/W v4.00 Oryx Data Collector v3.7.2.0data status	okinstallation	princeton_trtdifferential loss correction	single-endedforward channel	channel 4reverse channel	N/Adate	2019/09/17time	09:49:34forward acquisition time	60.00reverse acquisition time	0.00gamma	496.2192k internal	0.2312k external	0.2312temperature offset calibration	0.9975default loss term (dB/km)	0.3790temperature slope calibration	1.0000multiplexer offset coefficient	1.0000multiplexer slope coefficient	1.0000fibre end	0.00T internal ref (°C)	29.44T ext. ref 1 (°C)	0.15T ext. ref 2 (°C)	25.30length (m)	temperature (°C)	Stokes	anti-Stokes-747.200	-200.000	-0.038	0.280
-746.185	-58.808	-0.578	0.254
-745.171	-74.223	0.268	-0.098
-744.156	101.115	-0.292	0.345
-743.142	70.871	-0.186	-0.196
-742.127	-119.798	-0.287	0.050
-741.112	602.998	0.055	0.138
-740.098	232.953	-0.153	0.255
-739.083	-83.713	0.237	-0.077
-738.069	-44.192	-0.320	0.163
-737.054	-60.431	-0.235	0.101
-736.039	-162.499	-0.281	-0.014
-735.025	800.000	0.068	0.231
-734.010	-60.590	-0.285	-0.123
-732.996	352.239	-0.127	-0.255
-731.981	168.796	-0.248	-0.358
-730.966	126.043	0.076	-0.097
-729.952	-134.087	0.037	-0.005
-728.937	769.667	-0.038	-0.104
-727.923	-98.077	0.218	0.057
-726.908	-144.300	0.145	0.014
-725.894	144.952	-0.236	0.319
-724.879	-200.000	0.007	0.053
-723.864	800.000	0.072	-0.235
-722.850	-200.000	-0.031	0.157
-721.835	-200.000	-0.013	-0.082
-720.821	-41.884	-0.220	0.115
-719.806	800.000	-0.030	-0.104
-718.791	97.657	-0.080	-0.093
-717.777	-62.128	-0.383	-0.162
-716.762	234.120	-0.143	0.239
-715.748	-45.884	-0.220	-0.110
-714.733	-9.678	0.380	-0.257
-713.718	-14.747	-0.364	-0.237
-712.704	-90.670	0.199	0.058
-711.689	124.890	-0.158	-0.201
-710.675	800.000	0.053	-0.183
-709.660	96.460	-0.161	0.187
-708.645	-200.000	-0.012	0.085
-707.631	39.623	0.128	-0.117
-706.616	800.000	0.025	-0.097
-705.602	-184.137	-0.194	-0.003
-704.587	-87.415	0.109	0.033
-703.572	800.000	-0.037	-0.118
-702.558	231.254	0.076	-0.126
-701.543	768.017	0.091	0.252
-700.529	-106.198	-0.119	0.027
-699.514	252.025	0.152	0.262
-698.499	-200.000	-0.043	0.293
-697.485	545.811	-0.086	0.209
-696.470	-200.000	-0.024	0.161
-695.456	800.000	0.044	0.149
-694.441	800.000	-0.062	-0.251
-693.426	-114.676	0.236	0.046
-692.412	-89.858	-0.184	0.054
-691.397	-116.426	-0.249	0.047
-690.383	-103.370	-0.131	0.031
-689.368	-94.664	-0.027	0.008
-688.354	-200.000	0.051	0.328
-687.339	-200.000	0.026	0.287
-686.324	-200.000	0.022	0.265
-685.310	-200.000	-0.039	0.173
-684.295	-84.720	-0.120	0.038
-683.281	-200.000	-0.036	-0.254
-682.266	-89.438	-0.328	-0.098
-681.251	265.681	-0.091	0.161
-680.237	30.538	-0.055	0.048
-679.222	144.955	0.236	0.320
-678.208	153.341	-0.144	-0.199
-677.193	178.010	0.184	-0.271
-676.178	-200.000	-0.030	0.313
-675.164	-174.865	-0.161	0.005
-674.149	800.000	-0.108	-0.433
-673.135	800.000	0.060	0.201
-672.120	108.044	0.203	-0.245
-671.105	-103.789	0.142	-0.034
-670.091	-70.943	-0.570	-0.217
-669.076	262.738	-0.090	-0.158
-668.062	28.763	0.148	-0.127
-667.047	66.472	-0.063	-0.065
-666.032	727.342	0.183	0.494
-665.018	590.548	-0.034	0.084
-664.003	-64.038	-0.141	-0.058
-662.989	800.000	0.023	-0.066
-661.974	-28.045	-0.209	0.122
-660.959	17.432	-0.106	-0.085
-659.945	-200.000	-0.033	0.237
-658.930	299.983	-0.194	0.362
-657.916	800.000	-0.050	0.193
-656.901	10.786	0.112	-0.086
-655.886	331.551	-0.042	0.082
-654.872	-103.767	-0.319	0.076
-653.857	-46.887	-0.270	-0.133
-652.843	-5.575	-0.256	0.178
-651.828	-3.342	0.143	-0.101
-650.814	-110.053	-0.222	0.047
-649.799	800.000	-0.118	0.372
-648.784	-200.000	0.036	-0.179
-647.770	281.312	-0.023	0.042
-646.755	122.063	-0.111	-0.141
-645.741	-200.000	0.013	0.077
-644.726	-200.000	0.050	-0.280
-643.711	491.687	0.149	-0.345
-642.697	-200.000	-0.014	-0.273
-641.682	800.000	0.113	0.338
-640.668	800.000	0.071	-0.288
-639.653	-170.850	-0.139	0.005
-638.638	-0.372	0.198	-0.142
-637.624	-5.965	-0.132	0.092
-636.609	800.000	-0.021	-0.088
-635.595	-59.773	0.066	-0.029
-634.580	127.655	-0.152	0.195
-633.565	115.723	0.183	0.227
-632.551	-139.377	-0.165	0.018
-631.536	-60.053	0.402	-0.173
-630.522	120.561	0.044	0.055
-629.507	-200.000	-0.112	-0.541
-628.492	16.873	-0.101	-0.081
-627.478	800.000	-0.073	-0.239
-626.463	36.672	0.041	-0.037
-625.449	30.010	0.150	-0.129
-624.434	551.497	-0.008	-0.020
-623.419	800.000	-0.101	-0.397
-622.405	767.212	-0.013	-0.035
-621.390	-55.613	-0.408	-0.185
-620.376	-200.000	-0.005	-0.098
-619.361	-116.886	-0.286	-0.053
-618.346	56.298	-0.118	-0.115
-617.332	53.551	-0.127	0.123
-616.317	-14.678	0.049	-0.032
-615.303	-13.242	-0.528	0.346
-614.288	-91.353	-0.190	-0.055
-613.273	-200.000	-0.025	0.176
-612.259	100.379	-0.090	-0.105
-611.244	-200.000	0.002	0.279
-610.230	64.245	-0.117	0.119
-609.215	-48.492	-0.122	0.059
-608.201	-200.000	0.024	0.188
-607.186	734.132	-0.027	0.072
-606.171	-162.213	0.244	-0.012
-605.157	800.000	-0.040	-0.113
-604.142	694.816	-0.019	0.050
-603.128	58.765	-0.139	0.137
-602.113	800.000	0.048	0.194
-601.098	-100.244	-0.237	0.060
-600.084	-133.289	-0.185	-0.024
-599.069	-200.000	-0.029	-0.476
-598.055	-98.528	-0.377	-0.097
-597.040	-115.535	0.199	-0.038
-596.025	-29.572	-0.279	-0.161
-595.011	164.726	0.094	0.134
-593.996	106.448	0.060	0.072
-592.982	-1.540	-0.415	-0.295
-591.967	244.190	-0.134	0.226
-590.952	-200.000	0.012	0.373
-589.938	35.125	-0.165	0.146
-588.923	-160.255	-0.167	-0.009
-587.909	276.027	0.129	0.231
-586.894	-200.000	-0.010	-0.149
-585.879	-200.000	-0.021	0.169
-584.865	-85.388	-0.211	0.066
-583.850	800.000	-0.045	0.141
-582.836	800.000	0.080	-0.344
-581.821	-41.568	-0.097	-0.050
-580.806	239.112	-0.046	-0.078
-579.792	68.941	0.189	0.196
-578.777	17.137	-0.030	0.024
-577.763	-200.000	0.010	0.249
-576.748	-200.000	-0.090	0.475
-575.733	143.983	0.183	0.246
-574.719	41.820	0.211	0.193
-573.704	158.164	0.119	0.166
-572.690	-20.532	-0.070	-0.044
-571.675	152.290	0.065	-0.090
-570.661	-2.999	-0.533	-0.375
-569.646	-77.869	0.066	0.023
-568.631	267.274	-0.011	-0.019
-567.617	549.928	-0.044	0.107
-566.602	571.665	0.052	-0.127
-565.588	70.507	-0.186	0.194
-564.573	-200.000	-0.049	-0.455
-563.558	143.182	0.043	0.058
-562.544	-200.000	-0.011	-0.107
-561.529	64.990	-0.085	-0.086
-560.515	-200.000	0.009	-0.041
-559.500	60.350	0.202	-0.201
-558.485	64.408	-0.337	-0.342
-557.471	127.019	0.111	0.142
-556.456	-32.187	0.146	0.082
-555.442	-31.897	-0.059	0.033
-554.427	-126.378	-0.391	-0.059
-553.412	69.081	-0.037	0.039
-552.398	17.141	0.125	0.100
-551.383	-116.452	-0.107	0.020
-550.369	239.016	-0.085	0.142
-549.354	210.277	-0.163	0.258
-548.339	401.956	-0.102	0.216
-547.325	-38.070	-0.341	0.182
-546.310	-200.000	0.055	0.423
-545.296	-128.383	-0.263	-0.038
-544.281	27.667	0.172	0.146
-543.266	-200.000	0.048	0.317
-542.252	88.112	-0.102	0.113
-541.237	-102.975	-0.192	0.046
-540.223	-70.277	-0.314	-0.120
-539.208	-42.670	0.301	-0.154
-538.193	4.003	-0.179	0.132
-537.179	-42.442	-0.394	-0.202
-536.164	-82.196	-0.271	-0.089
-535.150	-130.512	0.250	-0.034
-534.135	108.995	-0.199	-0.239
-533.121	-145.639	-0.336	-0.030
-532.106	-21.856	0.241	-0.148
-531.091	591.343	0.242	-0.601
-530.077	800.000	0.107	-0.353
-529.062	800.000	-0.183	0.532
-528.048	6.237	-0.213	-0.159
-527.033	-200.000	-0.056	0.298
-526.018	800.000	-0.052	-0.227
-525.004	202.031	0.125	-0.193
-523.989	-27.896	0.330	-0.192
-522.975	800.000	-0.097	0.301
-521.960	94.890	0.087	0.099
-520.945	148.147	-0.066	-0.090
-519.931	-65.129	-0.232	0.094
-518.916	-39.161	-0.228	-0.120
-517.902	9.052	-0.160	0.122
-516.887	-200.000	-0.011	-0.174
-515.872	-129.380	-0.176	-0.025
-514.858	14.454	0.276	-0.216
-513.843	552.714	0.045	0.108
-512.829	-115.350	0.142	-0.027
-511.814	205.894	-0.275	-0.431
-510.799	215.058	-0.213	-0.340
-509.785	73.539	0.203	-0.214
-508.770	211.111	-0.091	0.144
-507.756	-200.000	0.019	-0.321
-506.741	206.087	0.118	0.185
-505.726	-114.711	-0.266	0.051
-504.712	3.718	-0.182	0.134
-503.697	278.375	0.124	-0.222
-502.683	344.401	0.086	-0.170
-501.668	259.308	-0.127	0.221
-500.653	-94.179	-0.017	-0.005
-499.639	-200.000	-0.005	0.314
-498.624	-49.768	0.180	0.086
-497.610	205.897	-0.082	-0.128
-496.595	705.908	-0.070	-0.186
-495.581	16.136	0.262	0.208
-494.566	-22.505	0.226	-0.138
-493.551	538.659	-0.077	0.184
-492.537	-168.333	-0.038	0.001
-491.522	360.542	0.146	0.294
-490.508	32.029	0.040	0.035
-489.493	153.044	-0.130	0.178
-488.478	-98.116	0.424	0.110
-487.464	464.231	0.084	-0.188
-486.449	-136.956	0.019	-0.002
-485.435	225.849	0.142	0.232
-484.420	27.284	-0.104	0.087
-483.405	800.000	0.056	0.165
-482.391	270.125	0.071	0.125
-481.376	-200.000	-0.007	0.296
-480.362	-126.347	-0.159	0.024
-479.347	169.817	0.070	0.101
-478.332	-200.000	0.086	-0.425
-477.318	182.561	0.108	-0.160
-476.303	-53.914	-0.240	0.110
-475.289	-35.860	0.260	-0.141
-474.274	800.000	-0.041	0.150
-473.259	573.068	-0.113	0.276
-472.245	-73.498	0.260	0.095
-471.230	-63.573	0.379	0.156
-470.216	23.112	0.158	-0.130
-469.201	-128.814	-0.452	-0.064
-468.186	210.873	0.054	-0.085
-467.172	72.295	0.309	-0.323
-466.157	-32.238	0.027	-0.015
-465.143	-71.233	-0.123	0.046
-464.128	800.000	0.035	0.126
-463.113	74.676	0.097	-0.102
-462.099	-79.469	-0.097	0.033
-461.084	323.601	-0.007	-0.014
-460.070	86.350	-0.194	-0.215
-459.055	688.946	-0.109	0.286
-458.040	800.000	-0.071	0.265
-457.026	111.601	0.056	0.068
-456.011	311.447	-0.222	0.417
-454.997	44.754	0.133	0.123
-453.982	-71.765	0.253	0.095
-452.968	800.000	0.065	0.269
-451.953	-79.208	0.160	0.054
-450.938	-200.000	-0.055	0.290
-449.924	54.051	-0.030	0.029
-448.909	605.273	-0.029	-0.073
-447.895	242.339	0.129	0.217
-446.880	96.328	-0.172	0.198
-445.865	800.000	0.073	-0.267
-444.851	159.837	0.045	0.064
-443.836	-4.473	0.105	0.073
-442.822	97.136	0.164	-0.189
-441.807	462.975	0.054	-0.121
-440.792	23.674	-0.086	0.071
-439.778	218.476	0.077	-0.124
-438.763	-200.000	0.058	-0.293
-437.749	616.703	-0.071	0.178
-436.734	800.000	0.031	0.101
-435.719	67.772	0.183	0.188
-434.705	-200.000	-0.120	0.529
-433.690	13.335	-0.054	-0.042
-432.676	-200.000	0.008	-0.115
-431.661	119.028	0.134	-0.166
-430.646	800.000	-0.016	0.066
-429.632	78.950	0.107	-0.115
-428.617	-200.000	0.002	-0.122
-427.603	-155.654	-0.249	0.016
-426.588	-200.000	0.004	0.271
-425.573	47.567	-0.243	-0.227
-424.559	-35.641	-0.129	-0.070
-423.544	-142.711	-0.123	-0.012
-422.530	-173.656	0.537	-0.016
-421.515	-200.000	-0.049	0.222
-420.500	-14.053	-0.471	0.305
-419.486	800.000	-0.009	-0.028
-418.471	800.000	0.087	0.243
-417.457	800.000	-0.099	0.375
-416.442	90.979	0.200	-0.224
-415.428	59.166	-0.117	-0.115
-414.413	377.672	-0.077	-0.157
-413.398	-39.621	-0.150	-0.079
-412.384	-200.000	0.032	-0.183
-411.369	-106.874	0.091	-0.020
-410.355	-120.786	0.100	0.017
-409.340	-10.457	-0.180	-0.119
-408.325	367.173	-0.208	0.420
-407.311	-200.000	0.015	-0.258
-406.296	19.553	-0.136	-0.109
-405.282	-9.504	-0.221	0.147
-404.267	-92.846	-0.228	-0.064
-403.252	17.271	-0.120	0.095
-402.238	6.635	0.192	-0.143
-401.223	155.723	0.120	0.166
-400.209	-86.381	-0.331	0.102
-399.194	800.000	0.008	0.022
-398.179	371.682	-0.073	-0.148
-397.165	117.107	0.164	0.201
-396.150	442.340	-0.022	0.047
-395.136	792.422	0.082	-0.225
-394.121	-200.000	0.022	0.225
-393.106	-150.675	-0.068	-0.005
-392.092	-91.658	0.144	0.041
-391.077	625.921	-0.058	0.147
-390.063	30.958	0.307	-0.263
-389.048	454.258	0.042	-0.092
-388.033	408.181	0.089	-0.188
-387.019	-73.369	-0.081	-0.030
-386.004	-200.000	-0.021	-0.098
-384.990	-31.383	-0.108	0.061
-383.975	5.582	0.149	-0.110
-382.960	-21.995	0.266	-0.162
-381.946	195.857	0.084	0.128
-380.931	337.184	-0.123	0.239
-379.917	-73.669	0.369	-0.134
-378.902	-200.000	-0.051	-0.279
-377.888	800.000	0.021	0.065
-376.873	68.674	0.027	0.028
-375.858	-102.027	0.561	0.135
-374.844	168.599	0.055	0.078
-373.829	800.000	-0.066	-0.216
-372.815	-101.721	0.056	0.014
-371.800	800.000	-0.036	0.128
-370.785	-117.229	0.068	0.012
-369.771	50.686	0.296	-0.280
-368.756	164.144	0.047	-0.066
-367.742	-78.643	0.504	0.172
-366.727	-199.612	0.349	-0.002
-365.712	-54.329	0.107	-0.049
-364.698	-200.000	0.015	0.133
-363.683	-18.140	-0.506	0.316
-362.669	-200.000	0.052	-0.313
-361.654	-76.978	0.164	-0.057
-360.639	47.104	-0.098	-0.091
-359.625	6.066	0.159	-0.117
-358.610	112.543	-0.274	0.331
-357.596	-78.308	-0.320	0.110
-356.581	569.575	-0.134	0.325
-355.566	800.000	0.085	0.361
-354.552	800.000	-0.117	-0.424
-353.537	-151.331	0.075	0.006
-352.523	32.840	0.150	0.130
-351.508	-138.520	-0.206	-0.023
-350.493	-138.953	0.160	-0.017
-349.479	144.877	0.045	-0.061
-348.464	-200.000	0.002	-0.245
-347.450	-98.254	0.216	-0.056
-346.435	114.026	0.155	-0.188
-345.420	362.277	-0.142	-0.284
-344.406	-118.528	0.388	0.069
-343.391	483.037	0.163	-0.370
-342.377	-76.121	0.086	0.030
-341.362	-47.049	0.333	0.162
-340.348	424.025	-0.067	0.144
-339.333	545.133	-0.130	0.310
-338.318	-10.108	-0.226	0.150
-337.304	44.588	0.098	-0.090
-336.289	-200.000	0.019	-0.294
-335.275	-200.000	-0.052	-0.258
-334.260	42.529	0.020	0.018
-333.245	315.195	0.076	0.143
-332.231	-105.702	0.043	-0.010
-331.216	237.195	0.060	-0.099
-330.202	-122.559	0.123	-0.020
-329.187	26.412	0.214	-0.179
-328.172	56.385	-0.111	0.108
-327.158	70.914	0.137	-0.142
-326.143	800.000	-0.083	-0.309
-325.129	800.000	0.023	-0.065
-324.114	251.699	-0.094	-0.160
-323.099	-65.872	-0.088	-0.035
-322.085	-6.517	-0.231	-0.157
-321.070	-120.741	0.140	-0.024
-320.056	1.432	-0.078	-0.056
-319.041	172.988	-0.018	0.025
-318.026	79.436	0.151	-0.162
-317.012	-46.856	-0.381	-0.186
-315.997	-151.140	-0.249	0.019
-314.983	-200.000	-0.033	0.247
-313.968	800.000	0.086	0.279
-312.953	-200.000	-0.007	-0.128
-311.939	-141.548	-0.165	0.017
-310.924	-25.564	-0.114	-0.067
-309.910	131.487	0.169	-0.217
-308.895	800.000	0.085	-0.331
-307.880	-63.641	0.119	0.049
-306.866	-190.961	-0.347	-0.004
-305.851	-151.560	0.170	0.013
-304.837	-139.061	0.137	0.015
-303.822	105.376	-0.108	-0.127
-302.807	-155.408	0.137	0.009
-301.793	-39.430	0.241	0.126
-300.778	283.007	-0.133	-0.237
-299.764	19.421	-0.072	0.058
-298.749	91.505	-0.162	0.182
-297.735	56.323	0.230	-0.223
-296.720	-6.087	0.133	0.091
-295.705	-200.000	0.024	-0.118
-294.691	214.091	0.106	-0.167
-293.676	793.897	-0.040	-0.109
-292.662	5.850	0.190	-0.140
-291.647	33.877	0.038	-0.033
-290.632	86.787	0.115	0.126
-289.618	46.223	-0.293	-0.271
-288.603	100.239	0.330	-0.382
-287.589	-70.039	-0.059	0.022
-286.574	-120.160	0.321	0.055
-285.559	-200.000	-0.038	0.240
-284.545	800.000	-0.070	-0.246
-283.530	-41.676	0.129	0.066
-282.516	367.793	-0.096	-0.194
-281.501	-155.629	0.352	-0.023
-280.486	773.140	0.123	0.333
-279.472	-200.000	0.025	0.202
-278.457	-111.762	0.195	-0.039
-277.443	-174.706	0.215	0.006
-276.428	1.716	0.112	0.080
-275.413	68.909	-0.038	0.039
-274.399	122.432	-0.154	0.192
-273.384	5.025	-0.222	-0.163
-272.370	-200.000	0.029	0.132
-271.355	-125.628	-0.200	-0.030
-270.340	800.000	-0.083	0.305
-269.326	150.698	0.109	-0.148
-268.311	-200.000	0.070	0.314
-267.297	-200.000	-0.042	0.342
-266.282	21.601	-0.203	0.165
-265.267	-18.708	0.199	0.123
-264.253	125.924	0.182	-0.228
-263.238	26.452	0.204	-0.170
-262.224	-200.000	-0.013	-0.182
-261.209	-200.000	0.044	0.409
-260.195	-87.594	-0.256	-0.077
-259.180	146.961	0.177	-0.237
-258.165	-86.788	-0.245	0.075
-257.151	135.830	0.094	0.122
-256.136	-200.000	0.018	0.200
-255.122	671.150	0.051	0.131
-254.107	-189.452	0.326	0.004
-253.092	-200.000	0.000	0.175
-252.078	800.000	0.022	-0.075
-251.063	411.430	0.119	0.252
-250.049	-20.179	-0.112	0.069
-249.034	640.792	0.110	-0.279
-248.019	171.650	0.241	0.345
-247.005	24.063	0.177	-0.145
-245.990	-128.865	-0.259	0.036
-244.976	654.696	-0.044	0.111
-243.961	-135.150	0.164	0.020
-242.946	-125.174	0.219	0.033
-241.932	181.588	-0.187	-0.273
-240.917	-168.563	0.403	-0.015
-239.903	179.295	-0.092	0.135
-238.888	480.321	0.206	-0.465
-237.873	800.000	0.053	-0.151
-236.859	17.388	0.143	-0.113
-235.844	38.492	0.256	0.227
-234.830	47.640	0.172	0.159
-233.815	156.408	0.177	-0.243
-232.800	-78.072	-0.209	0.072
-231.786	329.468	-0.171	-0.327
-230.771	178.726	-0.162	-0.236
-229.757	-200.000	-0.012	-0.353
-228.742	-42.215	-0.297	-0.151
-227.727	-81.916	0.230	0.075
-226.713	800.000	0.060	0.225
-225.698	20.938	-0.226	0.182
-224.684	105.424	-0.314	0.368
-223.669	263.650	-0.185	0.320
-222.655	-200.000	0.007	-0.124
-221.640	6.541	-0.256	0.189
-220.625	2.575	-0.054	0.039
-219.611	368.220	0.137	-0.276
-218.596	156.999	-0.244	0.335
-217.582	-41.536	-0.240	-0.123
-216.567	515.727	-0.035	0.082
-215.552	-182.906	0.104	-0.002
-214.538	-200.000	-0.062	-0.399
-213.523	-169.707	-0.167	-0.006
-212.509	-30.342	-0.137	0.077
-211.494	178.251	0.091	-0.132
-210.479	350.815	-0.187	-0.368
-209.465	800.000	-0.121	-0.368
-208.450	-154.469	-0.354	0.024
-207.436	-44.981	0.412	-0.204
-206.421	-112.243	0.297	0.059
-205.406	-11.977	0.253	0.165
-204.392	4.452	0.197	-0.143
-203.377	-117.059	0.102	-0.018
-202.363	-76.492	-0.127	0.044
-201.348	-95.928	-0.246	0.065
-200.333	133.488	0.069	-0.089
-199.319	-36.603	-0.073	0.039
-198.304	-83.177	-0.179	0.057
-197.290	-120.430	-0.198	0.033
-196.275	-113.626	-0.250	-0.048
-195.260	-32.434	-0.054	-0.030
-194.246	-58.251	-0.302	-0.131
-193.231	152.451	0.257	-0.349
-192.217	-142.806	-0.196	-0.019
-191.202	-57.742	0.178	0.077
-190.187	800.000	-0.031	-0.120
-189.173	83.593	0.197	0.213
-188.158	-14.477	-0.115	0.073
-187.144	163.880	0.111	-0.155
-186.129	618.088	-0.010	0.025
-185.114	-23.969	-0.161	0.096
-184.100	-150.860	0.209	0.016
-183.085	-36.011	0.065	0.035
-182.071	-57.607	-0.150	-0.065
-181.056	35.326	-0.293	0.255
-180.042	-115.099	0.157	0.029
-179.027	267.328	0.078	0.135
-178.012	-110.173	-0.308	-0.064
-176.998	367.007	-0.213	0.427
-175.983	-35.794	0.021	0.011
-174.969	21.548	0.193	-0.156
-173.954	39.305	0.109	-0.097
-172.939	-3.829	0.407	0.280
-171.925	-28.176	0.184	0.106
-170.910	67.146	-0.078	-0.079
-169.896	800.000	0.017	0.069
-168.881	-200.000	0.086	0.421
-167.866	62.848	0.189	0.188
-166.852	-90.252	0.162	0.047
-165.837	138.222	0.227	0.296
-164.823	-27.324	0.198	0.115
-163.808	-95.411	0.248	-0.066
-162.793	74.047	-0.181	-0.188
-161.779	-131.731	0.155	-0.020
-160.764	-87.677	-0.486	-0.145
-159.750	60.724	0.247	-0.243
-158.735	-56.237	0.100	0.044
-157.720	594.133	0.110	0.270
-156.706	20.736	-0.043	0.035
-155.691	-71.307	0.214	-0.080
-154.677	-108.038	0.238	0.051
-153.662	-168.982	-0.176	-0.007
-152.647	89.572	0.213	-0.236
-151.633	800.000	0.070	-0.252
-150.618	-200.000	-0.325	0.001
-149.604	800.000	-0.133	-0.384
-148.589	32.620	-0.125	0.108
-147.574	-114.566	0.496	-0.094
-146.560	-200.000	0.014	-0.095
-145.545	197.054	0.037	-0.056
-144.531	135.046	-0.112	0.144
-143.516	-84.673	-0.266	-0.083
-142.502	76.473	0.178	0.187
-141.487	-116.504	-0.277	0.051
-140.472	-200.000	-0.045	-0.345
-139.458	28.760	-0.198	0.166
-138.443	-200.000	-0.040	0.206
-137.429	800.000	0.036	0.153
-136.414	-75.549	0.159	-0.056
-135.399	-200.000	-0.016	0.333
-134.385	800.000	-0.063	0.241
-133.370	113.729	0.097	0.116
-132.356	-71.509	0.130	0.048
-131.341	31.277	-0.128	0.109
-130.326	137.136	-0.102	0.132
-129.312	800.000	0.034	-0.148
-128.297	75.488	0.187	0.196
-127.283	-200.000	-0.015	0.170
-126.268	648.572	-0.171	0.433
-125.253	328.604	-0.250	0.476
-124.239	752.314	-0.099	0.265
-123.224	-19.237	-0.332	-0.204
-122.210	-39.577	-0.126	-0.065
-121.195	-99.666	-0.447	-0.111
-120.180	-129.590	0.145	0.020
