DTS Sentinel unit serial number:	SN413079Multiplexer serial number:	ORYXHardware model number:	OX4-SRSoftware version number:	ORYX F/W v4.00 Oryx Data Collector v3.7.2.0data status	okinstallation	princeton_trtdifferential loss correction	single-endedforward channel	channel 4reverse channel	N/Adate	2019/09/14time	10:49:35forward acquisition time	60.00reverse acquisition time	0.00gamma	496.2192k internal	0.2296k external	0.2296temperature offset calibration	1.0148default loss term (dB/km)	0.3790temperature slope calibration	1.0000multiplexer offset coefficient	1.0000multiplexer slope coefficient	1.0000fibre end	0.00T internal ref (°C)	35.58T ext. ref 1 (°C)	4.31T ext. ref 2 (°C)	32.87length (m)	temperature (°C)	Stokes	anti-Stokes-747.200	-200.000	-0.020	-0.205
-746.185	442.770	-0.054	0.120
-745.171	-37.561	0.080	0.043
-744.156	-178.049	0.185	0.004
-743.142	140.937	-0.116	0.156
-742.127	450.903	0.141	0.318
-741.112	-108.935	-0.167	0.036
-740.098	-77.443	-0.118	0.042
-739.083	-3.998	-0.094	-0.067
-738.069	-158.792	-0.380	-0.022
-737.054	598.701	-0.030	0.076
-736.039	59.134	-0.244	-0.245
-735.025	407.485	0.120	0.259
-734.010	20.667	-0.170	-0.140
-732.996	-85.961	-0.228	-0.072
-731.981	248.625	0.196	-0.338
-730.966	800.000	0.050	-0.215
-729.952	172.924	-0.075	-0.111
-728.937	-131.656	-0.450	-0.060
-727.923	-200.000	-0.011	-0.091
-726.908	-20.187	0.239	-0.151
-725.894	-124.491	0.253	-0.040
-724.879	343.901	0.047	-0.093
-723.864	800.000	-0.066	-0.288
-722.850	250.468	-0.094	0.163
-721.835	325.648	0.052	-0.102
-720.821	800.000	-0.080	-0.328
-719.806	800.000	0.052	-0.155
-718.791	-200.000	0.000	0.264
-717.777	83.250	-0.249	-0.276
-716.762	4.974	-0.172	-0.129
-715.748	-200.000	-0.011	-0.121
-714.733	-196.597	0.217	-0.001
-713.718	-109.627	-0.290	0.062
-712.704	-88.764	0.226	0.069
-711.689	33.930	-0.075	-0.066
-710.675	-17.589	-0.166	-0.106
-709.660	-200.000	-0.007	-0.110
-708.645	687.639	0.073	-0.195
-707.631	302.547	0.122	0.230
-706.616	-200.000	0.031	0.159
-705.602	-130.735	-0.367	0.050
-704.587	-59.814	-0.206	-0.090
-703.572	800.000	0.057	-0.228
-702.558	-200.000	0.054	-0.412
-701.543	-9.899	-0.076	-0.051
-700.529	-98.669	-0.164	0.043
-699.514	-200.000	0.095	-0.520
-698.499	-200.000	0.066	-0.329
-697.485	95.501	0.188	-0.218
-696.470	341.113	0.086	-0.171
-695.456	-200.000	0.027	-0.213
-694.441	-200.000	0.005	0.071
-693.426	19.760	-0.445	-0.365
-692.412	-73.290	-0.275	-0.103
-691.397	-29.144	0.028	-0.017
-690.383	-118.466	-0.254	-0.046
-689.368	-7.302	0.226	-0.156
-688.354	-200.000	-0.092	-0.455
-687.339	115.330	0.069	0.086
-686.324	13.094	0.290	-0.229
-685.310	-30.056	-0.201	-0.117
-684.295	53.463	0.031	0.031
-683.281	-74.107	0.373	0.138
-682.266	198.641	0.022	-0.034
-681.251	-154.234	-0.152	-0.010
-680.237	245.424	0.182	-0.312
-679.222	800.000	0.061	0.221
-678.208	67.829	0.128	-0.133
-677.193	-40.855	-0.315	0.166
-676.178	243.284	0.231	0.394
-675.164	64.711	-0.195	-0.200
-674.149	170.089	0.182	-0.265
-673.135	-16.397	-0.040	-0.026
-672.120	11.307	-0.103	-0.081
-671.105	-200.000	0.004	-0.504
-670.091	-80.728	-0.190	0.065
-669.076	-38.556	0.090	0.048
-668.062	408.239	0.037	0.079
-667.047	-26.197	-0.244	0.146
-666.032	-195.008	-0.266	0.002
-665.018	-129.108	0.300	0.043
-664.003	-1.041	0.100	-0.072
-662.989	32.395	-0.082	-0.072
-661.974	15.190	-0.095	-0.076
-660.959	162.578	0.248	0.355
-659.945	800.000	0.049	-0.180
-658.930	419.527	-0.129	-0.282
-657.916	-200.000	0.016	-0.253
-656.901	-100.119	-0.261	-0.066
-655.886	-200.000	0.009	-0.092
-654.872	13.695	0.095	-0.075
-653.857	-80.634	-0.316	0.107
-652.843	-136.362	-0.289	-0.034
-651.828	-200.000	-0.053	-0.405
-650.814	-78.723	-0.123	-0.043
-649.799	100.039	0.278	0.328
-648.784	-5.593	0.218	0.152
-647.770	-59.357	-0.237	-0.104
-646.755	-17.546	-0.182	0.117
-645.741	166.685	0.094	-0.136
-644.726	-122.259	-0.655	-0.109
-643.711	-162.567	-0.254	-0.013
-642.697	-200.000	-0.014	0.271
-641.682	-75.098	-0.381	0.139
-640.668	126.798	-0.139	-0.180
-639.653	94.367	0.195	-0.225
-638.638	-63.456	-0.138	0.058
-637.624	32.141	-0.261	-0.229
-636.609	138.898	0.198	0.264
-635.595	142.229	0.192	0.259
-634.580	-52.259	0.096	-0.045
-633.565	197.723	-0.055	-0.086
-632.551	-200.000	0.014	0.146
-631.536	140.230	0.141	0.190
-630.522	-108.946	-0.488	0.106
-629.507	121.695	-0.114	-0.144
-628.492	530.722	0.024	-0.058
-627.478	-83.310	-0.456	0.149
-626.463	12.446	0.349	-0.274
-625.449	-30.658	0.189	-0.109
-624.434	705.103	0.045	-0.121
-623.419	-7.358	0.319	0.220
-622.405	-200.000	-0.015	0.174
-621.390	-54.749	0.021	-0.010
-620.376	100.147	-0.191	0.225
-619.361	-90.402	-0.409	0.121
-618.346	800.000	-0.021	-0.058
-617.332	4.517	-0.092	0.069
-616.317	11.062	0.181	-0.141
-615.303	64.300	-0.223	-0.228
-614.288	-11.684	0.093	-0.062
-613.273	-61.196	-0.256	-0.110
-612.259	-200.000	-0.026	-0.143
-611.244	277.811	-0.096	-0.173
-610.230	800.000	0.035	0.154
-609.215	9.429	0.113	0.087
-608.201	-105.272	-0.175	-0.040
-607.186	-200.000	0.005	0.250
-606.171	-119.322	0.066	-0.012
-605.157	-200.000	-0.020	-0.124
-604.142	800.000	0.085	0.304
-603.128	757.668	-0.092	0.254
-602.113	-200.000	-0.183	-0.001
-601.098	377.194	-0.093	-0.192
-600.084	-37.338	0.061	0.033
-599.069	-200.000	-0.002	-0.039
-598.055	-105.615	-0.319	0.073
-597.040	277.376	0.019	-0.034
-596.025	-200.000	0.012	0.284
-595.011	-171.183	0.082	0.003
-593.996	142.484	0.107	-0.145
-592.982	-175.555	-0.210	0.006
-591.967	-123.707	0.143	-0.023
-590.952	28.946	-0.173	-0.149
-589.938	-124.021	0.098	-0.016
-588.923	-91.967	-0.332	0.095
-587.909	-104.860	0.166	0.039
-586.894	182.773	0.214	0.321
-585.879	-103.557	0.237	-0.057
-584.865	-91.026	0.226	0.066
-583.850	176.328	0.173	-0.255
-582.836	-200.000	-0.040	-0.285
-581.821	126.543	0.103	-0.132
-580.806	-200.000	0.020	-0.291
-579.792	-39.241	0.257	-0.137
-578.777	-139.673	-0.078	0.008
-577.763	318.002	-0.103	0.198
-576.748	-200.000	0.024	0.121
-575.733	-67.082	-0.410	-0.164
-574.719	189.022	0.070	0.106
-573.704	115.682	0.199	-0.248
-572.690	-92.106	0.253	0.073
-571.675	-92.774	0.312	-0.088
-570.661	-109.126	0.214	-0.046
-569.646	-200.000	0.034	-0.342
-568.631	227.044	0.068	-0.112
-567.617	-87.785	0.113	-0.035
-566.602	451.606	-0.134	-0.301
-565.588	-32.233	0.117	-0.066
-564.573	-200.000	0.008	-0.081
-563.558	-70.683	0.151	0.058
-562.544	154.195	0.104	0.145
-561.529	-58.567	-0.228	0.101
-560.515	465.733	-0.085	-0.193
-559.500	37.561	-0.422	-0.380
-558.485	247.635	0.089	-0.152
-557.471	118.762	0.054	-0.067
-556.456	-99.808	0.261	0.066
-555.442	17.155	-0.209	-0.168
-554.427	-200.000	0.002	-0.119
-553.412	-200.000	-0.011	-0.060
-552.398	602.611	0.056	-0.142
-551.383	-0.786	-0.038	-0.027
-550.369	109.606	0.174	-0.211
-549.354	-88.399	-0.594	0.180
-548.339	-200.000	0.024	-0.348
-547.325	683.877	0.055	-0.146
-546.310	-200.000	-0.025	0.188
-545.296	-0.773	0.086	0.062
-544.281	-20.055	-0.210	0.132
-543.266	-10.953	0.198	-0.133
-542.252	142.714	0.145	0.195
-541.237	-20.320	-0.373	-0.233
-540.223	-200.000	-0.007	0.369
-539.208	732.536	0.086	0.234
-538.193	-95.937	-0.371	-0.100
-537.179	-57.977	-0.208	-0.092
-536.164	-200.000	0.251	0.000
-535.150	279.840	0.148	-0.268
-534.135	250.136	-0.214	-0.368
-533.121	130.234	0.020	-0.026
-532.106	-56.702	-0.251	-0.113
-531.091	-73.314	-0.234	0.087
-530.077	41.300	0.232	-0.212
-529.062	-80.496	0.164	-0.056
-528.048	-6.646	-0.029	-0.020
-527.033	-68.610	0.166	-0.065
-526.018	214.581	0.025	0.041
-525.004	-48.175	-0.248	-0.121
-523.989	-34.244	0.185	0.103
-522.975	-200.000	-0.025	0.288
-521.960	-200.000	-0.022	0.143
-520.945	444.653	0.033	0.074
-519.931	-200.000	-0.021	-0.295
-518.916	114.389	0.073	-0.090
-517.902	75.159	0.287	-0.307
-516.887	219.241	0.089	0.143
-515.872	353.014	-0.138	0.278
-514.858	23.073	0.055	-0.045
-513.843	69.339	-0.123	-0.128
-512.829	-200.000	0.003	-0.241
-511.814	-200.000	0.019	0.145
-510.799	-200.000	-0.004	-0.055
-509.785	-187.464	-0.011	-0.000
-508.770	112.467	0.053	0.065
-507.756	-18.177	0.040	0.025
-506.741	-33.189	0.058	0.032
-505.726	-200.000	0.037	-0.229
-504.712	27.142	0.250	0.212
-503.697	42.123	0.055	0.050
-502.683	102.470	0.089	0.105
-501.668	-92.128	0.097	0.028
-500.653	-20.794	0.142	-0.088
-499.639	-33.861	0.078	0.043
-498.624	50.027	0.062	0.059
-497.610	67.009	-0.199	0.205
-496.595	-200.000	0.055	-0.388
-495.581	21.227	-0.139	-0.114
-494.566	26.972	0.074	0.063
-493.551	-55.044	-0.240	-0.109
-492.537	156.594	-0.114	-0.160
-491.522	83.418	-0.010	0.011
-490.508	795.047	0.065	-0.181
-489.493	278.358	0.200	-0.361
-488.478	-151.232	0.060	-0.005
-487.464	83.538	0.135	0.148
-486.449	-200.000	-0.019	0.142
-485.435	800.000	-0.064	-0.233
-484.420	310.767	-0.077	0.146
-483.405	72.464	0.072	-0.075
-482.391	800.000	-0.125	-0.374
-481.376	-163.429	-0.086	0.004
-480.362	-200.000	0.023	-0.375
-479.347	800.000	0.034	0.123
-478.332	-19.466	-0.110	0.069
-477.318	-185.316	0.295	0.005
-476.303	-13.949	0.376	0.246
-475.289	800.000	0.067	0.218
-474.274	-200.000	0.041	-0.217
-473.259	-40.010	-0.116	0.061
-472.245	214.771	-0.188	0.302
-471.230	-200.000	0.002	0.122
-470.216	-200.000	-0.033	-0.179
-469.201	-32.604	0.311	0.175
-468.186	-139.768	0.094	0.010
-467.172	-33.636	0.318	0.177
-466.157	157.901	0.082	-0.115
-465.143	-53.574	-0.183	-0.085
-464.128	371.203	-0.066	0.136
-463.113	34.757	-0.097	-0.086
-462.099	-109.885	-0.301	0.064
-461.084	125.550	0.220	0.280
-460.070	35.820	-0.155	0.138
-459.055	124.956	-0.181	0.230
-458.040	-200.000	0.021	0.216
-457.026	-87.627	-0.121	-0.037
-456.011	-200.000	-0.025	-0.200
-454.997	-156.418	0.324	-0.020
-453.982	-95.249	-0.272	0.074
-452.968	637.566	0.156	0.401
-451.953	759.779	0.117	-0.322
-450.938	-93.028	-0.347	0.098
-449.924	-29.568	-0.121	-0.070
-448.909	-147.132	0.122	0.011
-447.895	190.292	0.180	0.273
-446.880	-46.116	-0.211	-0.105
-445.865	15.439	0.238	0.188
-444.851	-200.000	-0.009	-0.265
-443.836	-20.111	-0.162	0.101
-442.822	-143.573	-0.032	0.003
-441.807	-60.426	0.268	-0.115
-440.792	-200.000	0.041	0.247
-439.778	759.213	-0.063	-0.172
-438.763	800.000	-0.043	0.170
-437.749	800.000	0.069	0.223
-436.734	-10.929	-0.344	-0.229
-435.719	-41.412	-0.148	-0.077
-434.705	21.850	0.076	0.062
-433.690	-38.683	0.042	0.022
-432.676	-54.897	0.237	-0.108
-431.661	-200.000	-0.030	0.150
-430.646	-114.976	0.206	0.040
-429.632	54.217	-0.205	0.199
-428.617	-21.829	0.227	-0.139
-427.603	-200.000	0.008	0.044
-426.588	-13.403	0.226	-0.148
-425.573	651.058	-0.051	-0.131
-424.559	617.354	-0.096	-0.244
-423.544	20.388	0.114	-0.093
-422.530	-103.439	-0.114	-0.027
-421.515	16.416	0.106	-0.084
-420.500	-33.381	0.331	0.185
-419.486	800.000	-0.080	0.242
-418.471	-90.428	-0.011	-0.003
-417.457	651.805	0.107	-0.277
-416.442	-89.814	0.326	0.096
-415.428	-47.062	0.363	0.179
-414.413	-8.623	-0.254	0.172
-413.398	-37.982	-0.150	0.081
-412.384	211.608	-0.094	-0.149
-411.369	-147.091	-0.360	0.031
-410.355	193.322	-0.243	0.371
-409.340	-94.152	-0.238	0.066
-408.325	-200.000	-0.054	-0.288
-407.311	-70.969	0.237	-0.090
-406.296	-55.996	0.101	0.046
-405.282	-102.839	0.391	-0.094
-404.267	672.101	-0.015	0.040
-403.252	-149.669	0.142	0.011
-402.238	-200.000	0.010	-0.071
-401.223	39.119	0.108	-0.097
-400.209	-111.447	-0.305	-0.063
-399.194	464.463	0.124	0.279
-398.179	138.315	0.145	0.192
-397.165	51.480	0.108	0.104
-396.150	242.261	0.091	-0.153
-395.136	-49.883	0.357	-0.171
-394.121	-200.000	-0.022	-0.181
-393.106	-39.753	0.205	-0.108
-392.092	-200.000	-0.003	0.333
-391.077	-86.725	0.213	-0.066
-390.063	445.819	0.052	0.114
-389.048	-43.827	0.096	-0.048
-388.033	-61.317	-0.448	0.190
-387.019	-134.945	0.169	-0.021
-386.004	-101.040	-0.169	0.042
-384.990	-7.817	-0.134	0.091
-383.975	749.843	0.124	0.336
-382.960	-108.681	0.371	0.080
-381.946	-52.345	0.221	0.103
-380.931	4.261	-0.113	-0.083
-379.917	26.041	0.043	0.036
-378.902	478.727	-0.098	-0.224
-377.888	-84.295	-0.203	-0.065
-376.873	69.663	0.040	0.041
-375.858	-185.043	0.225	-0.004
-374.844	-80.672	0.394	0.132
-373.829	-200.000	0.015	-0.364
-372.815	299.239	0.103	-0.192
-371.800	565.832	0.099	0.241
-370.785	142.440	-0.171	-0.229
-369.771	-8.610	0.312	-0.211
-368.756	-103.549	-0.210	-0.050
-367.742	-97.386	0.374	-0.098
-366.727	269.526	-0.069	0.123
-365.712	551.570	-0.088	-0.213
-364.698	-34.851	0.257	0.141
-363.683	-200.000	0.009	-0.217
-362.669	-114.544	-0.298	-0.057
-361.654	347.014	0.149	0.295
-360.639	-76.615	-0.198	-0.070
-359.625	132.533	0.225	0.292
-358.610	661.486	0.083	0.216
-357.596	800.000	0.016	-0.049
-356.581	-160.625	-0.375	-0.020
-355.566	106.914	-0.046	-0.055
-354.552	-20.354	-0.204	-0.126
-353.537	-153.460	0.289	-0.020
-352.523	-69.275	-0.085	-0.033
-351.508	-54.293	0.094	0.043
-350.493	626.010	-0.046	-0.116
-349.479	-200.000	0.005	-0.080
-348.464	-34.763	0.225	0.124
-347.450	-76.686	-0.460	-0.162
-346.435	-200.000	-0.099	-0.612
-345.420	-200.000	0.024	0.185
-344.406	20.924	-0.079	-0.064
-343.391	-200.000	-0.004	-0.232
-342.377	-200.000	-0.043	-0.212
-341.362	-110.706	0.253	0.053
-340.348	315.978	0.091	-0.173
-339.333	-19.150	0.313	-0.195
-338.318	-200.000	0.060	0.301
-337.304	46.530	-0.201	0.187
-336.289	-83.330	0.129	-0.042
-335.275	162.346	-0.264	-0.372
-334.260	-63.019	0.221	0.092
-333.245	53.828	-0.280	0.271
-332.231	-107.580	-0.256	0.056
-331.216	168.342	0.251	-0.360
-330.202	-9.319	-0.162	-0.109
-329.187	144.410	0.155	-0.208
-328.172	-56.903	-0.271	0.120
-327.158	143.410	-0.174	-0.233
-326.143	756.670	-0.106	-0.287
-325.129	800.000	0.016	-0.046
-324.114	205.468	0.101	-0.158
-323.099	-100.656	-0.288	-0.071
-322.085	3.448	-0.119	-0.087
-321.070	-145.868	-0.103	0.009
-320.056	-200.000	-0.019	0.123
-319.041	-118.169	0.228	0.041
-318.026	-0.617	-0.302	0.216
-317.012	79.230	-0.073	-0.078
-315.997	105.407	-0.078	0.093
-314.983	-200.000	-0.003	-0.154
-313.968	649.869	0.075	-0.194
-312.953	-200.000	-0.040	-0.408
-311.939	140.908	-0.162	-0.215
-310.924	-36.786	0.253	0.136
-309.910	-200.000	-0.012	0.189
-308.895	47.198	0.258	0.241
-307.880	434.830	0.085	-0.186
-306.866	-85.044	-0.192	0.060
-305.851	189.196	0.034	0.052
-304.837	800.000	-0.092	-0.396
-303.822	800.000	0.060	0.242
-302.807	43.159	-0.203	-0.186
-301.793	-36.631	0.159	0.086
-300.778	-87.484	0.193	-0.059
-299.764	196.755	-0.038	0.059
-298.749	73.966	-0.288	0.303
-297.735	-81.143	0.330	0.109
-296.720	226.359	-0.019	-0.031
-295.705	-200.000	0.045	-0.209
-294.691	-68.034	-0.093	0.036
-293.676	12.608	0.113	-0.087
-292.662	12.989	-0.069	-0.053
-291.647	-45.440	-0.139	0.069
-290.632	-184.620	0.046	0.001
-289.618	66.604	-0.218	-0.223
-288.603	-146.043	-0.224	-0.020
-287.589	66.391	0.135	0.138
-286.574	800.000	0.044	0.156
-285.559	501.566	0.100	-0.231
-284.545	-73.229	0.181	0.067
-283.530	800.000	-0.073	0.295
-282.516	640.863	-0.149	-0.381
-281.501	-44.329	-0.339	-0.170
-280.486	327.945	0.171	-0.329
-279.472	-160.958	0.249	-0.013
-278.457	583.168	-0.113	0.278
-277.443	48.569	-0.138	0.130
-276.428	-21.994	0.257	0.156
-275.413	25.937	-0.107	0.089
-274.399	-68.777	-0.128	0.050
-273.384	800.000	0.021	-0.078
-272.370	119.091	-0.119	0.147
-271.355	189.354	0.049	-0.074
-270.340	23.220	-0.113	0.093
-269.326	386.727	0.051	-0.105
-268.311	-200.000	-0.007	-0.056
-267.297	-133.006	0.116	0.015
-266.282	-22.229	-0.294	-0.179
-265.267	-39.513	0.197	-0.103
-264.253	-200.000	-0.072	0.405
-263.238	543.282	0.106	0.253
-262.224	-50.108	0.579	-0.275
-261.209	10.645	-0.227	0.173
-260.195	-119.667	-0.175	-0.030
-259.180	-200.000	0.031	0.457
-258.165	-83.078	0.168	0.054
-257.151	-129.261	0.098	-0.014
-256.136	18.323	0.063	0.050
-255.122	58.206	-0.349	-0.343
-254.107	137.796	0.080	0.105
-253.092	237.017	-0.030	0.050
-252.078	371.354	0.113	-0.229
-251.063	142.308	0.090	0.120
-250.049	82.085	-0.180	0.195
-249.034	293.817	-0.002	0.004
-248.019	800.000	-0.037	-0.158
-247.005	-137.187	0.228	0.026
-245.990	369.391	0.097	0.196
-244.976	-116.747	-0.155	-0.029
-243.961	800.000	0.102	-0.404
-242.946	800.000	0.012	0.035
-241.932	-33.065	-0.123	0.069
-240.917	-200.000	0.020	0.332
-239.903	-200.000	-0.100	0.597
-238.888	-53.803	-0.263	-0.120
-237.873	-105.815	-0.175	-0.040
-236.859	15.573	-0.084	-0.066
-235.844	-11.416	-0.322	0.212
-234.830	-200.000	0.057	-0.303
-233.815	-33.744	0.131	0.072
-232.800	800.000	0.067	0.249
-231.786	-65.127	0.213	0.086
-230.771	-48.657	0.334	-0.161
-229.757	-200.000	-0.036	-0.187
-228.742	-48.596	-0.169	0.082
-227.727	-3.697	-0.104	-0.073
-226.713	-96.367	0.148	0.039
-225.698	-156.612	-0.088	-0.005
-224.684	235.269	-0.197	0.326
-223.669	800.000	-0.179	-0.507
-222.655	800.000	0.085	0.284
-221.640	-39.940	-0.441	0.230
-220.625	-38.862	-0.294	-0.155
-219.611	-71.870	0.060	0.023
-218.596	-200.000	-0.036	0.236
-217.582	238.115	-0.246	0.408
-216.567	4.911	-0.048	0.035
-215.552	34.146	0.190	0.166
-214.538	580.578	0.095	0.233
-213.523	-41.634	0.247	-0.127
-212.509	-63.733	-0.180	0.074
-211.494	800.000	-0.027	0.112
-210.479	-16.163	-0.086	-0.055
-209.465	63.436	-0.182	-0.183
-208.450	174.548	-0.120	0.173
-207.436	-147.544	0.371	0.031
-206.421	-115.664	0.385	-0.072
-205.406	158.715	0.122	0.169
-204.392	239.615	0.127	0.212
-203.377	800.000	-0.058	0.178
-202.363	363.049	-0.086	0.172
-201.348	9.630	0.220	0.167
-200.333	-29.979	0.144	0.082
-199.319	800.000	-0.137	-0.426
-198.304	-148.748	0.057	0.005
-197.290	-200.000	-0.019	-0.136
-196.275	177.577	0.057	0.083
-195.260	800.000	0.076	-0.226
-194.246	-200.000	0.003	-0.328
-193.231	377.876	-0.025	0.050
-192.217	68.579	0.278	0.285
-191.202	-114.444	-0.194	-0.037
-190.187	-115.833	-0.263	0.049
-189.173	-115.498	0.082	-0.015
-188.158	-120.791	-0.128	-0.022
-187.144	711.201	-0.078	0.207
-186.129	340.594	-0.062	-0.120
-185.114	36.735	0.184	0.162
-184.100	-136.334	-0.294	0.034
-183.085	191.194	-0.101	0.152
-182.071	-200.000	0.003	-0.078
-181.056	-200.000	0.022	0.212
-180.042	376.879	0.065	0.132
-179.027	107.101	-0.064	-0.076
-178.012	-6.528	0.097	-0.066
-176.998	40.268	0.113	-0.101
-175.983	800.000	-0.058	-0.218
-174.969	125.774	0.053	0.067
-173.954	63.983	-0.056	-0.057
-172.939	800.000	-0.032	0.127
-171.925	-119.341	-0.157	-0.027
-170.910	70.546	0.050	0.052
-169.896	-200.000	-0.068	0.372
-168.881	-12.527	0.203	0.132
-167.866	-132.011	-0.095	0.012
-166.852	800.000	0.042	-0.130
-165.837	-200.000	0.018	-0.163
-164.823	-171.692	0.216	0.007
-163.808	-200.000	-0.038	0.283
-162.793	76.819	-0.169	0.180
-161.779	26.262	0.116	-0.097
-160.764	-44.085	-0.224	0.113
-159.750	61.921	0.043	-0.042
-158.735	45.686	-0.128	0.118
-157.720	800.000	0.027	0.099
-156.706	800.000	-0.053	0.195
-155.691	-200.000	0.018	0.443
-154.677	-101.521	-0.391	0.095
-153.662	-0.756	0.147	0.104
-152.647	-43.720	0.389	-0.196
-151.633	-200.000	-0.024	-0.157
-150.618	-106.786	0.319	-0.071
-149.604	586.637	0.056	0.137
-148.589	208.287	-0.268	-0.419
-147.574	-20.496	0.404	0.248
-146.560	-7.935	0.150	0.101
-145.545	-40.121	-0.198	-0.103
-144.531	-113.196	-0.175	-0.034
-143.516	59.796	0.129	0.127
-142.502	-88.696	-0.398	0.118
-141.487	-72.119	0.223	0.083
-140.472	39.924	0.134	-0.120
-139.458	53.237	-0.127	0.121
-138.443	-159.719	-0.199	-0.011
-137.429	89.726	0.110	0.122
-136.414	678.842	0.084	-0.219
-135.399	-48.934	0.178	0.085
-134.385	36.496	-0.230	-0.202
-133.370	6.982	-0.039	0.029
-132.356	-104.200	-0.225	0.052
-131.341	800.000	-0.040	0.170
-130.326	-153.509	-0.318	0.022
-129.312	-68.811	-0.212	0.082
-128.297	194.626	0.232	0.351
-127.283	26.201	-0.209	-0.174
-126.268	-102.240	-0.475	0.114
-125.253	-57.460	0.058	0.025
-124.239	125.518	-0.054	-0.068
-123.224	-117.618	0.070	0.013
-122.210	36.531	-0.195	-0.171
-121.195	800.000	-0.064	0.188
