DTS Sentinel unit serial number:	SN413079Multiplexer serial number:	ORYXHardware model number:	OX4-SRSoftware version number:	ORYX F/W v4.00 Oryx Data Collector v3.7.2.0data status	okinstallation	princeton_trtdifferential loss correction	single-endedforward channel	channel 4reverse channel	N/Adate	2019/09/12time	18:51:19forward acquisition time	15.00reverse acquisition time	0.00gamma	496.2192k internal	0.2308k external	0.2308temperature offset calibration	1.0140default loss term (dB/km)	0.3790temperature slope calibration	1.0000multiplexer offset coefficient	1.0000multiplexer slope coefficient	1.0000fibre end	0.00T internal ref (°C)	32.94T ext. ref 1 (°C)	3.02T ext. ref 2 (°C)	27.43length (m)	temperature (°C)	Stokes	anti-Stokes-747.200	-200.000	-0.007	0.440
-746.185	-93.798	-0.559	0.157
-745.171	708.298	0.238	-0.640
-744.156	597.689	-0.050	-0.125
-743.142	-81.881	1.019	-0.339
-742.127	140.086	-0.248	-0.333
-741.112	-49.857	-0.694	-0.335
-740.098	70.677	-0.237	-0.249
-739.083	-78.562	0.154	-0.054
-738.069	-72.593	0.208	0.078
-737.054	-82.740	0.080	0.026
-736.039	54.682	0.348	0.341
-735.025	-44.176	0.990	0.505
-734.010	180.978	-0.180	-0.269
-732.996	26.547	0.232	-0.197
-731.981	-122.556	-0.248	-0.041
-730.966	537.057	-0.204	0.492
-729.952	42.510	0.637	0.589
-728.937	-173.735	-0.554	-0.017
-727.923	-112.004	-0.476	0.097
-726.908	-200.000	0.051	0.653
-725.894	-200.000	-0.013	0.205
-724.879	33.968	-0.046	-0.040
-723.864	-171.265	-0.368	0.013
-722.850	148.139	-0.511	-0.700
-721.835	-149.639	-0.214	-0.017
-720.821	204.286	-0.247	-0.389
-719.806	-91.668	-0.468	0.135
-718.791	-73.152	0.862	0.321
-717.777	20.254	0.205	0.168
-716.762	800.000	-0.048	-0.143
-715.748	193.779	0.146	-0.225
-714.733	274.408	0.316	-0.568
-713.718	761.195	-0.287	0.791
-712.704	5.708	0.387	-0.290
-711.689	110.418	-0.431	0.526
-710.675	197.568	0.165	-0.256
-709.660	-39.203	-1.065	0.568
-708.645	-3.372	0.621	-0.439
-707.631	598.312	0.133	0.335
-706.616	-31.592	0.184	0.105
-705.602	-15.396	-0.236	0.153
-704.587	-200.000	0.012	-0.129
-703.572	800.000	-0.249	-0.776
-702.558	-46.953	-0.350	0.173
-701.543	-21.735	-0.198	-0.122
-700.529	102.423	0.245	0.291
-699.514	-84.545	0.526	-0.168
-698.499	-200.000	-0.007	0.691
-697.485	-200.000	-0.030	-0.473
-696.470	-5.420	0.066	-0.046
-695.456	129.539	0.250	0.324
-694.441	-200.000	-0.216	-1.044
-693.426	166.579	-0.355	-0.510
-692.412	-60.214	-0.504	0.218
-691.397	800.000	-0.211	0.640
-690.383	38.294	0.371	0.335
-689.368	-200.000	-0.040	0.631
-688.354	-57.174	-0.651	0.291
-687.339	55.803	-0.432	-0.425
-686.324	-134.375	-0.186	0.023
-685.310	18.504	-0.436	0.353
-684.295	456.150	0.038	0.086
-683.281	-103.664	0.497	0.118
-682.266	-4.614	0.486	-0.340
-681.251	800.000	-0.170	0.489
-680.237	-17.699	0.633	-0.403
-679.222	-128.891	-0.756	0.108
-678.208	33.129	0.427	-0.375
-677.193	-139.211	-0.690	-0.075
-676.178	57.222	0.319	0.315
-675.164	-200.000	-0.020	0.350
-674.149	-200.000	-0.007	0.750
-673.135	-104.236	-0.189	0.045
-672.120	183.768	-0.173	0.260
-671.105	-200.000	-0.030	-0.329
-670.091	-56.958	0.675	0.302
-669.076	-200.000	-0.032	0.516
-668.062	-15.836	0.905	-0.584
-667.047	173.797	0.281	-0.411
-666.032	-54.861	-0.179	0.082
-665.018	92.832	0.451	0.516
-664.003	30.357	-1.145	0.991
-662.989	389.907	-0.291	0.612
-661.974	-148.698	-0.568	0.047
-660.959	-42.023	0.143	-0.074
-659.945	-200.000	-0.058	-0.441
-658.930	-60.891	0.481	0.206
-657.916	-93.783	-0.392	-0.109
-656.901	-90.361	-0.949	0.279
-655.886	52.046	0.245	0.236
-654.872	-164.090	-0.749	0.035
-653.857	-19.474	0.416	0.261
-652.843	-158.171	-0.925	-0.055
-651.828	-200.000	0.078	0.380
-650.814	800.000	-0.097	-0.397
-649.799	800.000	0.237	-0.852
-648.784	-170.684	-0.995	0.035
-647.770	423.055	0.153	0.334
-646.755	229.612	-0.134	-0.222
-645.741	-1.395	0.408	-0.292
-644.726	-170.881	-0.365	0.013
-643.711	-179.369	1.341	0.030
-642.697	-65.881	0.320	0.129
-641.682	35.691	0.346	-0.307
-640.668	-44.518	0.152	-0.077
-639.653	-18.091	0.395	0.250
-638.638	-176.794	-0.332	0.009
-637.624	82.793	-0.419	0.461
-636.609	211.127	-0.360	0.573
-635.595	-109.810	-0.711	0.151
-634.580	95.131	0.168	-0.193
-633.565	-90.386	-0.852	0.250
-632.551	36.860	-0.322	-0.288
-631.536	-200.000	0.033	-0.640
-630.522	-2.516	-0.154	-0.109
-629.507	-118.128	-0.717	0.130
-628.492	37.744	-0.637	-0.573
-627.478	-200.000	-0.053	0.261
-626.463	76.821	-0.486	-0.522
-625.449	-200.000	0.030	0.251
-624.434	-0.128	0.787	-0.567
-623.419	567.987	-0.151	0.371
-622.405	-89.375	-0.631	0.188
-621.390	-63.173	0.872	-0.364
-620.376	224.181	0.065	-0.106
-619.361	14.407	0.215	0.169
-618.346	-48.165	-0.819	-0.400
-617.332	-9.937	-0.365	0.246
-616.317	468.853	0.229	-0.521
-615.303	43.622	0.439	0.406
-614.288	-78.984	-0.681	0.234
-613.273	-200.000	0.100	-0.479
-612.259	-150.975	0.146	0.011
-611.244	257.561	-0.206	-0.359
-610.230	52.128	-0.273	-0.263
-609.215	273.513	0.171	-0.305
-608.201	800.000	-0.183	0.546
-607.186	-185.832	0.757	-0.011
-606.171	-46.149	0.249	-0.124
-605.157	272.248	-0.230	-0.411
-604.142	702.117	-0.265	-0.707
-603.128	584.544	0.234	0.580
-602.113	291.980	-0.062	0.113
-601.098	709.385	-0.132	0.352
-600.084	800.000	0.072	0.260
-599.069	-73.113	-0.520	0.193
-598.055	-110.467	1.029	-0.216
-597.040	-121.420	-0.473	0.080
-596.025	-64.631	-0.591	-0.242
-595.011	529.237	-0.397	-0.948
-593.996	128.940	-0.443	-0.572
-592.982	106.481	-0.438	0.525
-591.967	800.000	0.308	0.995
-590.952	-105.149	-0.472	-0.109
-589.938	-187.606	1.123	-0.015
-588.923	-104.351	-0.470	0.110
-587.909	-187.197	0.887	0.012
-586.894	29.708	-0.423	0.363
-585.879	800.000	0.078	-0.328
-584.865	270.288	-0.509	0.903
-583.850	-145.871	0.597	-0.054
-582.836	563.690	-0.087	-0.214
-581.821	-48.609	0.368	0.179
-580.806	-200.000	-0.108	-0.809
-579.792	-164.600	-0.515	0.024
-578.777	114.181	-1.011	-1.242
-577.763	800.000	0.161	-0.511
-576.748	100.033	-0.404	0.473
-575.733	-139.588	-0.509	0.055
-574.719	506.836	-0.137	-0.320
-573.704	102.802	-0.338	0.400
-572.690	-200.000	0.037	0.653
-571.675	-168.007	0.659	0.026
-570.661	50.629	-0.342	0.326
-569.646	-132.238	-0.350	0.046
-568.631	-200.000	0.038	-0.680
-567.617	122.971	-0.279	0.353
-566.602	-13.162	-0.172	0.113
-565.588	-200.000	-0.036	0.248
-564.573	8.840	0.122	-0.093
-563.558	19.577	-0.513	-0.416
-562.544	97.296	0.392	0.454
-561.529	-132.760	0.580	-0.075
-560.515	6.438	0.330	-0.247
-559.500	-96.654	0.410	-0.109
-558.485	24.992	0.208	0.174
-557.471	-57.463	0.245	-0.108
-556.456	-124.045	-0.572	-0.091
-555.442	800.000	-0.386	1.136
-554.427	-22.054	0.207	-0.127
-553.412	-102.889	-0.524	0.126
-552.398	-119.056	-0.029	-0.005
-551.383	41.264	0.412	0.376
-550.369	-108.448	0.548	-0.119
-549.354	-63.557	0.855	-0.354
-548.339	-92.236	-0.507	0.144
-547.325	-8.546	-0.465	0.315
-546.310	-54.828	-0.269	0.123
-545.296	566.428	-0.193	-0.473
-544.281	237.460	0.218	0.365
-543.266	-110.439	-0.611	0.128
-542.252	223.830	0.318	0.518
-541.237	191.892	-0.413	0.628
-540.223	553.447	-0.134	-0.325
-539.208	-142.771	-0.252	-0.025
-538.193	-88.266	-0.008	0.002
-537.179	-44.398	-0.853	0.431
-536.164	0.624	-0.571	0.412
-535.150	-83.500	-0.346	0.112
-534.135	-200.000	0.082	-0.502
-533.121	-108.095	0.183	-0.040
-532.106	-26.030	-0.334	-0.198
-531.091	800.000	-0.168	-0.493
-530.077	172.420	-0.276	0.400
-529.062	-107.568	0.689	0.152
-528.048	-108.585	-0.542	-0.117
-527.033	172.199	-0.374	0.542
-526.018	186.129	0.211	-0.316
-525.004	-78.665	-0.504	0.174
-523.989	-200.000	-0.050	0.576
-522.975	-94.161	0.127	0.035
-521.960	-10.797	0.514	0.342
-520.945	131.895	0.091	-0.119
-519.931	800.000	0.071	0.203
-518.916	-152.355	-0.808	-0.059
-517.902	-30.690	0.102	-0.058
-516.887	-0.982	-0.269	0.192
-515.872	800.000	-0.133	0.507
-514.858	-185.326	0.859	0.013
-513.843	114.375	0.117	-0.144
-512.829	-200.000	0.132	-0.612
-511.814	332.336	0.333	0.648
-510.799	596.269	-0.324	0.809
-509.785	-200.000	0.003	0.141
-508.770	414.696	0.084	-0.181
-507.756	-158.733	0.238	0.014
-506.741	-130.745	-0.213	-0.029
-505.726	-121.799	0.317	-0.053
-504.712	-88.786	-0.057	0.017
-503.697	-39.299	0.315	-0.166
-502.683	263.803	-0.220	0.385
-501.668	114.573	0.224	0.274
-500.653	263.775	-0.366	-0.641
-499.639	165.469	-0.304	0.433
-498.624	107.917	0.354	-0.425
-497.610	-93.454	-0.781	0.218
-496.595	64.943	0.360	0.366
-495.581	-117.795	-0.582	-0.105
-494.566	7.513	0.290	-0.219
-493.551	-32.520	0.208	0.117
-492.537	74.314	0.741	-0.784
-491.522	800.000	-0.102	-0.413
-490.508	-50.900	0.226	-0.107
-489.493	-50.146	0.866	0.412
-488.478	-200.000	-0.014	-0.296
-487.464	178.044	-0.472	0.694
-486.449	-53.471	0.594	-0.274
-485.435	800.000	-0.077	0.286
-484.420	10.868	0.195	0.150
-483.405	-114.833	-1.171	0.225
-482.391	-105.594	0.866	-0.198
-481.376	785.053	0.096	-0.265
-480.362	-33.340	-0.684	-0.381
-479.347	53.604	-0.149	-0.144
-478.332	-18.867	-0.498	0.312
-477.318	800.000	0.121	-0.477
-476.303	2.097	-0.538	-0.391
-475.289	-200.000	0.043	-0.345
-474.274	-200.000	-0.005	-0.042
-473.259	197.485	-0.288	-0.443
-472.245	-74.351	0.473	0.172
-471.230	-41.706	-0.985	0.508
-470.216	-17.856	-0.637	0.402
-469.201	-52.397	-0.329	0.153
-468.186	18.290	0.341	0.274
-467.172	155.696	-0.425	0.589
-466.157	-54.628	-0.363	-0.165
-465.143	341.603	0.315	-0.620
-464.128	317.086	-0.431	0.820
-463.113	247.660	-0.154	-0.261
-462.099	431.653	-0.332	-0.724
-461.084	-200.000	0.062	-0.409
-460.070	-90.536	-0.358	-0.104
-459.055	426.318	-0.503	-1.090
-458.040	-90.561	1.420	0.413
-457.026	800.000	-0.140	0.539
-456.011	-132.189	0.348	-0.045
-454.997	25.260	0.717	-0.599
-453.982	-65.047	1.048	0.425
-452.968	800.000	-0.214	0.714
-451.953	-83.317	-0.215	-0.069
-450.938	-87.052	0.465	-0.142
-449.924	768.107	-0.225	0.616
-448.909	-200.000	0.061	-0.552
-447.895	185.673	0.218	0.325
-446.880	800.000	-0.118	0.486
-445.865	-91.389	0.691	-0.198
-444.851	800.000	-0.150	-0.604
-443.836	36.888	0.466	0.414
-442.822	75.016	0.237	-0.251
-441.807	320.876	-0.159	-0.304
-440.792	-200.000	0.043	-0.579
-439.778	188.477	-0.268	-0.403
-438.763	-200.000	-0.043	0.285
-437.749	-49.658	-0.735	0.351
-436.734	-50.594	0.356	0.169
-435.719	-200.000	0.057	-0.438
-434.705	-200.000	-0.043	-0.463
-433.690	-115.454	-0.230	0.044
-432.676	361.570	0.436	0.878
-431.661	800.000	-0.245	0.812
-430.646	-131.570	0.370	0.049
-429.632	800.000	-0.157	-0.615
-428.617	-150.778	0.354	0.027
-427.603	-69.096	-0.532	0.206
-426.588	-200.000	0.133	-0.646
-425.573	73.106	0.376	-0.394
-424.559	-81.512	0.393	0.130
-423.544	-200.000	0.055	-0.578
-422.530	-81.506	0.839	-0.277
-421.515	212.137	0.510	0.807
-420.500	-128.826	0.371	-0.052
-419.486	95.688	0.246	0.282
-418.471	571.769	-0.127	-0.309
-417.457	102.753	0.110	0.129
-416.442	-79.501	-0.621	-0.211
-415.428	800.000	0.151	-0.641
-414.413	-155.751	0.207	-0.013
-413.398	800.000	-0.059	0.190
-412.384	401.307	0.142	-0.299
-411.369	-88.344	0.055	-0.016
-410.355	-48.277	-0.400	-0.194
-409.340	-122.287	-0.639	-0.105
-408.325	800.000	0.340	1.083
-407.311	313.768	0.244	0.461
-406.296	232.193	0.430	0.707
-405.282	-39.110	-0.297	0.157
-404.267	145.193	0.211	-0.283
-403.252	46.281	-0.310	0.289
-402.238	-120.046	0.423	-0.073
-401.223	-200.000	-0.062	-0.435
-400.209	246.097	0.220	0.371
-399.194	800.000	-0.249	-0.714
-398.179	8.364	0.236	-0.178
-397.165	178.754	-0.448	0.657
-396.150	-84.845	0.234	0.074
-395.136	-156.740	-0.444	-0.027
-394.121	200.737	-0.380	0.587
-393.106	-109.707	-0.362	-0.076
-392.092	-67.215	-0.479	0.189
-391.077	-117.539	0.082	0.015
-390.063	-94.763	1.318	0.359
-389.048	-96.677	-0.423	-0.112
-388.033	26.741	-0.897	0.753
-387.019	300.393	-0.505	0.934
-386.004	-147.161	0.340	-0.029
-384.990	-128.915	0.298	-0.042
-383.975	72.352	-0.237	-0.247
-382.960	20.857	-0.251	0.204
-381.946	79.018	0.251	-0.270
-380.931	223.525	-0.206	-0.334
-379.917	-61.196	-0.386	0.163
-378.902	187.117	0.321	0.480
-377.888	117.253	-0.516	0.636
-376.873	800.000	-0.062	0.257
-375.858	-200.000	-0.045	0.313
-374.844	-56.571	0.609	0.271
-373.829	800.000	0.258	-0.918
-372.815	144.745	0.375	0.502
-371.800	64.078	-0.546	-0.551
-370.785	230.495	0.255	0.417
-369.771	262.507	0.128	-0.223
-368.756	-8.875	-0.701	0.471
-367.742	-83.844	0.150	-0.048
-366.727	271.602	-0.194	0.343
-365.712	-32.257	-0.766	-0.428
-364.698	800.000	-0.075	-0.311
-363.683	-94.686	0.100	0.027
-362.669	800.000	0.173	0.740
-361.654	230.047	0.077	-0.126
-360.639	96.083	0.301	-0.345
-359.625	-26.052	0.423	0.249
-358.610	168.064	0.316	-0.450
-357.596	-145.563	0.661	-0.059
-356.581	-69.038	0.347	0.134
-355.566	319.885	-0.204	0.388
-354.552	-107.667	-0.146	-0.032
-353.537	111.405	0.108	-0.130
-352.523	-200.000	-0.124	-0.545
-351.508	199.639	0.193	0.296
-350.493	38.435	0.174	0.155
-349.479	72.127	0.400	-0.417
-348.464	620.593	-0.115	0.290
-347.450	62.264	-0.345	-0.345
-346.435	800.000	0.109	0.476
-345.420	624.485	-0.189	0.476
-344.406	84.021	-0.548	-0.599
-343.391	69.352	0.486	0.500
-342.377	800.000	0.166	0.565
-341.362	376.738	-0.585	-1.195
-340.348	308.011	-0.138	0.258
-339.333	-30.299	0.352	-0.200
-338.318	12.841	-0.584	0.452
-337.304	-76.535	0.671	-0.236
-336.289	88.389	-0.434	-0.482
-335.275	-200.000	0.052	-0.260
-334.260	257.977	0.299	-0.515
-333.245	46.295	0.379	0.351
-332.231	-200.000	0.018	0.542
-331.216	800.000	-0.259	1.119
-330.202	566.416	-0.213	-0.517
-329.187	800.000	0.201	-0.596
-328.172	-108.782	-0.341	0.073
-327.158	-200.000	-0.081	0.856
-326.143	-65.293	0.603	-0.243
-325.129	224.892	0.184	-0.298
-324.114	800.000	0.108	0.382
-323.099	365.979	0.249	-0.503
-322.085	92.944	-0.225	-0.254
-321.070	-200.000	0.000	-0.785
-320.056	-200.000	0.084	0.457
-319.041	-93.418	-0.366	0.101
-318.026	-157.831	-0.345	0.020
-317.012	800.000	-0.077	0.253
-315.997	213.755	-0.320	0.506
-314.983	72.183	0.527	0.549
-313.968	-86.513	0.567	-0.174
-312.953	-89.309	-0.563	-0.166
-311.939	-94.166	1.061	-0.290
-310.924	-162.532	0.366	0.018
-309.910	62.092	-0.738	-0.736
-308.895	-200.000	-0.097	0.500
-307.880	71.901	0.535	0.556
-306.866	-200.000	-0.103	-0.454
-305.851	-37.613	0.786	0.419
-304.837	-200.000	-0.003	0.585
-303.822	-200.000	-0.189	-0.870
-302.807	-94.900	0.596	0.161
-301.793	688.661	0.234	0.611
-300.778	800.000	-0.159	-0.547
-299.764	-200.000	-0.027	-0.810
-298.749	-200.000	0.066	-0.747
-297.735	6.035	-0.117	0.087
-296.720	-45.603	-0.805	-0.398
-295.705	-141.384	-0.419	0.042
-294.691	344.566	0.334	0.654
-293.676	511.248	0.164	0.382
-292.662	317.484	-0.257	0.486
-291.647	47.844	-0.450	0.419
-290.632	452.241	-0.370	-0.816
-289.618	-105.421	0.625	-0.142
-288.603	80.022	0.339	-0.364
-287.589	117.646	-0.077	-0.095
-286.574	-121.036	0.124	0.021
-285.559	-148.275	-0.095	-0.008
-284.545	-130.582	-0.222	0.030
-283.530	30.838	-0.497	0.425
-282.516	-16.325	-0.806	-0.510
-281.501	-77.346	0.705	-0.245
-280.486	-63.666	-0.258	0.106
-279.472	-34.603	0.365	-0.199
-278.457	12.702	0.202	0.156
-277.443	13.791	1.097	-0.851
-276.428	-14.517	0.189	-0.121
-275.413	-10.081	0.345	0.229
-274.399	44.529	-0.230	-0.211
-273.384	-55.159	0.983	0.441
-272.370	-112.540	-0.634	0.126
-271.355	190.282	-0.429	-0.643
-270.340	-200.000	0.029	-0.346
-269.326	-200.000	0.013	-0.151
-268.311	54.644	0.599	0.577
-267.297	-35.045	0.486	0.265
-266.282	225.667	0.321	-0.519
-265.267	-95.543	0.515	-0.138
-264.253	-136.326	-0.330	0.038
-263.238	-200.000	-0.049	0.776
-262.224	-200.000	0.022	0.267
-261.209	234.225	0.134	-0.220
-260.195	-147.861	-0.094	-0.008
-259.180	-101.758	-0.433	-0.105
-258.165	800.000	0.061	-0.231
-257.151	-37.812	0.302	-0.160
-256.136	-130.567	-0.650	-0.088
-255.122	766.353	0.398	1.080
-254.107	15.398	0.509	-0.398
-253.092	-2.384	0.237	-0.166
-252.078	-198.381	-0.707	0.004
-251.063	-36.583	0.356	0.191
-250.049	212.933	0.376	0.591
-249.034	260.986	-0.116	-0.200
-248.019	93.914	0.598	0.676
-247.005	-62.616	-0.116	-0.048
-245.990	29.003	0.611	-0.516
-244.976	167.263	0.484	0.685
-243.961	-177.965	-0.410	-0.010
-242.946	800.000	-0.204	-0.708
-241.932	-96.486	0.332	-0.087
-240.917	800.000	-0.105	-0.294
-239.903	-200.000	0.011	-0.370
-238.888	-54.627	0.345	0.156
-237.873	-148.326	-0.549	0.045
-236.859	148.585	-0.252	0.339
-235.844	14.419	-0.483	-0.375
-234.830	124.781	-0.212	0.266
-233.815	-60.089	-0.652	-0.277
-232.800	-162.402	1.111	0.055
-231.786	-104.034	-0.275	0.064
-230.771	-134.733	-0.326	-0.040
-229.757	-87.665	0.551	-0.166
-228.742	-46.287	0.673	0.330
-227.727	-67.708	0.151	0.059
-226.713	29.216	0.633	-0.535
-225.698	-73.255	1.131	-0.413
-224.684	-163.780	-0.358	-0.017
-223.669	-128.322	-0.370	-0.052
-222.655	-58.048	-0.839	-0.365
-221.640	-200.000	-0.054	0.368
-220.625	-109.606	-0.107	0.023
-219.611	-128.264	0.732	-0.104
-218.596	242.136	0.027	-0.045
-217.582	620.242	0.247	0.618
-216.567	800.000	0.197	-0.618
-215.552	482.561	0.054	-0.121
-214.538	-200.000	-0.026	0.376
-213.523	-200.000	0.007	0.748
-212.509	82.486	0.569	0.615
-211.494	229.835	0.129	0.210
-210.479	37.880	-0.489	-0.433
-209.465	105.676	-0.343	-0.403
-208.450	195.030	-0.331	0.500
-207.436	-167.731	0.284	-0.011
-206.421	-20.817	-0.502	-0.306
-205.406	-50.309	0.682	-0.321
-204.392	-10.748	0.216	-0.142
-203.377	638.083	0.222	0.562
-202.363	-151.671	0.642	-0.047
-201.348	-62.596	0.392	-0.162
-200.333	6.469	-0.563	-0.416
-199.319	18.095	-0.680	0.539
-198.304	-60.230	0.474	0.201
-197.290	-200.000	-0.059	0.260
-196.275	800.000	0.069	-0.203
-195.260	-144.735	0.644	-0.059
-194.246	267.095	-0.352	-0.612
-193.231	-63.498	0.867	0.355
-192.217	-118.608	0.279	-0.049
-191.202	-50.743	-0.247	0.116
-190.187	110.861	0.500	-0.598
-189.173	-157.574	0.076	-0.005
-188.158	-118.582	-0.595	-0.105
-187.144	-46.292	-0.675	-0.330
-186.129	36.192	0.438	0.384
-185.114	-163.841	0.204	0.010
-184.100	38.578	-0.309	-0.274
-183.085	-200.000	0.057	0.836
-182.071	780.734	0.236	0.642
-181.056	800.000	-0.030	0.090
-180.042	-7.086	0.616	0.416
-179.027	-86.033	1.012	-0.311
-178.012	-68.222	0.496	-0.192
-176.998	-63.374	0.236	0.097
-175.983	-200.000	0.033	-0.438
-174.969	-200.000	-0.088	-0.481
-173.954	16.260	-1.006	0.789
-172.939	800.000	-0.303	0.875
-171.925	-46.567	-0.460	-0.224
-170.910	24.494	0.330	-0.271
-169.896	285.940	-0.098	-0.175
-168.881	-22.920	-0.944	-0.566
-167.866	638.971	-0.373	-0.942
-166.852	57.200	-0.280	-0.271
-165.837	-200.000	-0.076	-0.591
-164.823	-200.000	-0.008	-0.429
-163.808	-108.059	-0.594	0.128
-162.793	580.806	0.267	-0.651
-161.779	100.261	0.327	-0.377
-160.764	-129.919	-0.302	0.041
-159.750	-29.717	-0.332	-0.188
-158.735	354.507	-0.234	0.463
-157.720	239.872	0.302	0.500
-156.706	189.339	0.151	0.225
-155.691	153.611	-0.245	-0.333
-154.677	156.863	-0.175	0.241
-153.662	800.000	-0.126	-0.380
-152.647	-200.000	-0.021	-0.654
-151.633	-200.000	-0.008	-0.167
-150.618	-143.978	0.920	-0.086
-149.604	228.830	-0.527	0.854
-148.589	-99.176	0.372	0.093
-147.574	32.597	0.141	-0.121
-146.560	524.216	0.165	-0.385
-145.545	-70.098	-0.190	-0.072
-144.531	-120.799	-0.190	-0.032
-143.516	-171.796	0.690	0.022
-142.502	571.034	-0.153	0.371
-141.487	-200.000	0.084	0.661
-140.472	191.872	0.786	1.176
-139.458	-163.018	-0.495	0.024
-138.443	-105.434	-0.360	-0.081
-137.429	191.747	-0.311	-0.465
-136.414	-67.745	0.405	0.157
-135.399	297.706	0.324	-0.591
-134.385	501.209	-0.174	0.398
-133.370	-110.181	-0.231	-0.048
-132.356	306.603	0.314	0.581
-131.341	83.216	-0.284	0.307
-130.326	-41.950	0.403	-0.205
-129.312	-200.000	-0.090	0.488
-128.297	-40.526	-0.343	-0.177
-127.283	234.909	-0.230	-0.377
-126.268	407.242	-0.130	-0.272
-125.253	184.163	-0.490	0.721
-124.239	140.138	-0.202	-0.265
-123.224	-117.513	0.385	0.069
-122.210	74.140	0.086	0.090
-121.195	-4.636	0.105	-0.072
