DTS Sentinel unit serial number:	SN413079Multiplexer serial number:	ORYXHardware model number:	OX4-SRSoftware version number:	ORYX F/W v4.00 Oryx Data Collector v3.7.2.0data status	okinstallation	princeton_trtdifferential loss correction	single-endedforward channel	channel 4reverse channel	N/Adate	2019/09/13time	09:21:35forward acquisition time	60.00reverse acquisition time	0.00gamma	496.2192k internal	0.2312k external	0.2312temperature offset calibration	1.0196default loss term (dB/km)	0.3790temperature slope calibration	1.0000multiplexer offset coefficient	1.0000multiplexer slope coefficient	1.0000fibre end	0.00T internal ref (°C)	29.20T ext. ref 1 (°C)	4.40T ext. ref 2 (°C)	26.24length (m)	temperature (°C)	Stokes	anti-Stokes-747.200	13.466	0.164	-0.129
-746.185	263.249	0.177	0.311
-745.171	145.136	0.045	-0.061
-744.156	800.000	0.013	-0.056
-743.142	-200.000	-0.034	0.430
-742.127	-17.416	-0.377	0.241
-741.112	-200.000	0.003	0.057
-740.098	-200.000	0.003	0.041
-739.083	33.407	0.144	-0.127
-738.069	-145.925	-0.345	0.031
-737.054	-200.000	-0.018	0.207
-736.039	-12.006	-0.170	0.113
-735.025	47.065	0.072	0.068
-734.010	-177.697	-0.380	0.009
-732.996	-3.117	-0.070	-0.049
-731.981	47.861	-0.448	-0.425
-730.966	800.000	-0.074	-0.273
-729.952	-79.006	0.240	-0.083
-728.937	-4.310	0.152	0.107
-727.923	800.000	0.016	0.069
-726.908	381.520	0.078	-0.162
-725.894	-200.000	-0.119	0.000
-724.879	800.000	0.101	0.311
-723.864	83.422	0.282	-0.312
-722.850	800.000	0.029	0.114
-721.835	232.139	-0.087	-0.145
-720.821	-65.027	-0.433	-0.177
-719.806	129.037	0.109	-0.141
-718.791	248.508	-0.097	-0.167
-717.777	335.514	0.035	-0.068
-716.762	-132.645	-0.296	-0.038
-715.748	800.000	0.089	-0.321
-714.733	-51.610	0.254	0.120
-713.718	-200.000	-0.079	0.445
-712.704	-98.370	-0.342	0.089
-711.689	45.142	0.115	-0.107
-710.675	631.782	-0.120	-0.307
-709.660	-200.000	0.054	-0.255
-708.645	-6.303	0.159	0.110
-707.631	7.299	-0.087	-0.066
-706.616	-45.538	0.076	0.038
-705.602	206.192	0.019	-0.030
-704.587	-117.031	-0.076	0.014
-703.572	-83.012	0.287	-0.094
-702.558	-99.701	0.272	-0.069
-701.543	800.000	0.097	0.383
-700.529	-200.000	-0.021	-0.269
-699.514	138.469	0.210	-0.279
-698.499	-200.000	-0.063	-0.427
-697.485	-121.751	0.392	-0.066
-696.470	-76.805	0.349	-0.124
-695.456	-10.693	0.224	0.150
-694.441	-200.000	-0.046	0.217
-693.426	-200.000	-0.014	-0.353
-692.412	-125.592	-0.303	-0.047
-691.397	67.328	-0.181	-0.187
-690.383	-77.238	-0.127	0.045
-689.368	195.270	0.101	-0.156
-688.354	-48.394	-0.159	0.077
-687.339	158.297	-0.102	-0.143
-686.324	-200.000	-0.042	0.416
-685.310	-29.772	-0.217	-0.125
-684.295	-200.000	0.045	-0.258
-683.281	222.063	0.071	-0.116
-682.266	68.047	0.243	0.252
-681.251	-53.642	-0.102	-0.047
-680.237	-173.694	-0.104	0.003
-679.222	800.000	-0.050	0.146
-678.208	51.049	0.406	-0.390
-677.193	69.225	0.258	-0.269
-676.178	-5.803	-0.104	0.072
-675.164	-200.000	0.051	-0.345
-674.149	-85.405	-0.207	0.065
-673.135	-89.465	0.247	-0.073
-672.120	47.252	0.147	0.138
-671.105	200.473	0.202	0.315
-670.091	-73.482	0.254	0.094
-669.076	102.883	-0.129	0.152
-668.062	-200.000	-0.005	-0.461
-667.047	800.000	-0.089	-0.331
-666.032	-200.000	0.012	0.257
-665.018	71.556	0.082	-0.086
-664.003	46.527	0.102	0.096
-662.989	-93.109	0.274	0.077
-661.974	-200.000	-0.010	-0.063
-660.959	-14.703	-0.321	-0.209
-659.945	93.340	0.053	0.061
-658.930	-98.947	0.295	-0.076
-657.916	800.000	-0.067	-0.291
-656.901	168.526	0.129	-0.185
-655.886	20.750	-0.322	-0.264
-654.872	-12.787	0.056	-0.037
-653.857	172.613	-0.124	-0.181
-652.843	-146.394	-0.237	0.021
-651.828	-133.636	0.451	-0.057
-650.814	25.660	0.086	-0.073
-649.799	-200.000	-0.023	-0.170
-648.784	207.606	0.138	0.217
-647.770	-104.235	-0.317	-0.074
-646.755	-45.695	-0.319	-0.159
-645.741	-48.901	-0.436	0.211
-644.726	-200.000	-0.003	0.129
-643.711	-84.969	0.254	0.081
-642.697	31.552	-0.257	0.223
-641.682	800.000	0.026	-0.106
-640.668	304.575	0.058	0.108
-639.653	-15.929	-0.201	-0.129
-638.638	5.946	0.159	-0.119
-637.624	10.696	-0.161	-0.124
-636.609	800.000	0.091	0.295
-635.595	226.125	0.182	-0.299
-634.580	-129.656	0.120	0.017
-633.565	-82.708	-0.109	0.036
-632.551	214.876	0.046	0.073
-631.536	-11.544	0.064	-0.042
-630.522	-104.629	0.264	-0.062
-629.507	-84.889	-0.116	-0.037
-628.492	755.390	0.049	0.135
-627.478	88.247	0.105	0.118
-626.463	800.000	0.096	-0.271
-625.449	-200.000	0.004	0.086
-624.434	65.935	-0.135	0.139
-623.419	70.105	0.013	0.013
-622.405	-91.879	0.424	0.121
-621.390	-36.940	0.196	-0.106
-620.376	-60.399	-0.241	0.103
-619.361	348.718	-0.165	0.328
-618.346	-111.646	0.308	-0.063
-617.332	70.248	0.109	-0.113
-616.317	800.000	0.041	-0.121
-615.303	136.453	-0.155	0.204
-614.288	-200.000	0.010	0.202
-613.273	-60.538	-0.129	-0.055
-612.259	800.000	0.038	0.122
-611.244	146.999	-0.117	0.159
-610.230	88.254	-0.183	-0.205
-609.215	-76.739	0.179	-0.063
-608.201	195.447	0.066	-0.101
-607.186	800.000	0.124	-0.377
-606.171	713.538	0.083	-0.223
-605.157	-41.225	-0.226	-0.117
-604.142	612.461	-0.097	0.244
-603.128	26.545	0.045	-0.038
-602.113	-31.828	-0.240	-0.136
-601.098	524.679	0.071	-0.168
-600.084	272.599	-0.086	0.153
-599.069	800.000	0.065	0.258
-598.055	95.593	-0.117	-0.135
-597.040	595.730	-0.097	-0.242
-596.025	157.087	-0.189	-0.264
-595.011	658.554	0.127	0.329
-593.996	123.740	0.135	-0.171
-592.982	171.576	-0.063	-0.091
-591.967	31.648	-0.140	0.121
-590.952	211.103	-0.093	0.147
-589.938	-148.847	-0.289	0.024
-588.923	-3.222	0.109	-0.076
-587.909	2.137	-0.321	0.234
-586.894	-135.606	0.244	0.029
-585.879	-133.014	0.359	0.046
-584.865	-24.535	-0.166	0.100
-583.850	-20.885	-0.160	0.099
-582.836	-32.506	0.157	-0.088
-581.821	800.000	-0.047	0.146
-580.806	-87.892	0.275	-0.083
-579.792	-200.000	0.046	-0.363
-578.777	174.925	0.154	0.224
-577.763	-92.472	0.196	0.056
-576.748	316.107	0.061	-0.116
-575.733	-23.387	0.126	-0.077
-574.719	223.374	0.114	-0.186
-573.704	347.864	0.110	0.219
-572.690	-198.926	0.024	-0.000
-571.675	354.364	0.102	0.205
-570.661	-104.137	-0.133	0.031
-569.646	98.469	0.093	0.109
-568.631	785.009	0.025	-0.070
-567.617	45.989	0.099	-0.092
-566.602	-200.000	0.009	0.145
-565.588	-107.502	-0.125	-0.028
-564.573	48.976	0.070	-0.066
-563.558	-90.979	-0.214	-0.062
-562.544	-200.000	0.059	-0.266
-561.529	800.000	0.082	0.278
-560.515	82.831	0.179	0.196
-559.500	101.300	-0.197	-0.232
-558.485	-53.898	-0.483	0.222
-557.471	-200.000	0.032	0.188
-556.456	-119.823	0.141	-0.024
-555.442	-189.703	-0.232	-0.003
-554.427	-141.786	0.119	0.012
-553.412	350.922	0.060	-0.120
-552.398	14.965	-0.126	0.099
-551.383	-143.961	-0.149	0.014
-550.369	528.783	-0.036	0.086
-549.354	-165.106	-0.212	0.009
-548.339	-64.369	0.132	0.054
-547.325	-200.000	-0.342	0.000
-546.310	-156.135	-0.177	-0.011
-545.296	-97.294	0.182	-0.048
-544.281	158.793	-0.167	0.233
-543.266	75.035	0.141	0.150
-542.252	-181.992	0.289	0.006
-541.237	-17.497	0.100	0.063
-540.223	-114.199	0.212	-0.041
-539.208	197.182	-0.017	0.026
-538.193	-200.000	0.015	-0.130
-537.179	6.578	0.094	0.070
-536.164	646.560	-0.027	-0.070
-535.150	-20.450	0.027	0.017
-534.135	-200.000	-0.079	-0.426
-533.121	-68.673	-0.141	-0.055
-532.106	134.029	-0.187	-0.244
-531.091	-7.912	0.184	0.125
-530.077	-169.308	-0.161	0.006
-529.062	-121.019	0.103	-0.017
-528.048	-33.691	-0.227	0.126
-527.033	-123.947	-0.167	0.026
-526.018	576.988	-0.068	0.166
-525.004	11.908	-0.274	-0.212
-523.989	230.502	0.021	0.034
-522.975	245.788	-0.154	-0.260
-521.960	-22.104	-0.132	0.081
-520.945	-130.783	0.197	0.027
-519.931	-85.981	-0.175	0.054
-518.916	380.873	-0.052	0.107
-517.902	18.571	0.218	0.176
-516.887	18.135	-0.238	0.191
-515.872	562.936	0.113	-0.275
-514.858	-200.000	0.016	0.361
-513.843	-24.515	0.188	0.113
-512.829	-200.000	0.009	0.160
-511.814	182.343	0.021	0.031
-510.799	214.783	-0.182	-0.289
-509.785	229.889	0.281	-0.462
-508.770	-200.000	0.000	0.105
-507.756	766.440	-0.027	-0.074
-506.741	-152.645	-0.341	0.024
-505.726	207.454	0.280	-0.439
-504.712	-200.000	0.015	-0.139
-503.697	800.000	-0.077	0.247
-502.683	-43.751	0.091	0.046
-501.668	10.260	0.176	0.135
-500.653	-200.000	0.033	-0.190
-499.639	-6.730	-0.222	-0.152
-498.624	405.561	-0.085	-0.180
-497.610	-200.000	-0.003	-0.026
-496.595	-125.148	-0.007	0.001
-495.581	800.000	-0.022	-0.093
-494.566	10.720	-0.368	0.282
-493.551	-1.503	-0.329	-0.233
-492.537	800.000	0.109	0.368
-491.522	148.415	0.274	0.371
-490.508	33.857	0.089	0.078
-489.493	-188.298	-0.022	-0.000
-488.478	-135.044	-0.287	-0.035
-487.464	154.074	0.104	0.144
-486.449	800.000	0.018	-0.074
-485.435	-122.026	-0.439	-0.072
-484.420	32.635	-0.056	-0.049
-483.405	142.876	0.160	0.214
-482.391	-10.593	-0.215	0.143
-481.376	145.930	0.069	0.093
-480.362	60.007	-0.076	0.075
-479.347	-200.000	-0.041	0.275
-478.332	-13.652	0.327	-0.213
-477.318	326.481	0.071	0.136
-476.303	-200.000	0.006	-0.099
-475.289	109.226	0.030	-0.036
-474.274	753.800	0.177	-0.479
-473.259	373.872	0.079	-0.162
-472.245	-38.970	-0.263	-0.139
-471.230	-109.161	-0.198	0.042
-470.216	-24.753	0.200	-0.120
-469.201	255.720	-0.052	0.089
-468.186	-200.000	0.064	-0.312
-467.172	270.150	-0.178	-0.314
-466.157	-200.000	-0.049	-0.455
-465.143	-182.259	0.348	-0.007
-464.128	-64.163	0.146	0.060
-463.113	193.783	0.127	0.193
-462.099	-70.355	-0.073	-0.028
-461.084	-91.524	0.108	-0.031
-460.070	-159.100	0.227	0.013
-459.055	-94.882	-0.046	0.012
-458.040	-200.000	0.023	0.214
-457.026	185.474	0.262	-0.390
-456.011	83.377	0.073	-0.080
-454.997	61.065	-0.340	0.339
-453.982	163.338	0.232	-0.327
-452.968	-200.000	-0.056	0.355
-451.953	113.069	0.044	-0.053
-450.938	-200.000	0.015	0.096
-449.924	-67.500	-0.102	0.040
-448.909	-128.818	-0.186	0.026
-447.895	374.037	0.171	0.350
-446.880	-200.000	-0.017	0.093
-445.865	-86.873	-0.148	0.045
-444.851	254.098	0.113	-0.194
-443.836	218.143	-0.137	-0.220
-442.822	-81.194	0.255	-0.085
-441.807	-200.000	0.011	-0.232
-440.792	800.000	0.019	-0.081
-439.778	32.681	0.251	-0.218
-438.763	6.071	0.292	-0.217
-437.749	-155.085	-0.291	0.019
-436.734	800.000	0.055	0.204
-435.719	-166.180	0.161	-0.007
-434.705	0.198	0.112	0.080
-433.690	92.239	-0.064	-0.073
-432.676	-175.270	-0.187	-0.005
-431.661	-90.207	-0.229	0.067
-430.646	135.195	-0.085	-0.111
-429.632	-39.880	-0.204	0.107
-428.617	800.000	-0.039	-0.155
-427.603	-105.471	-0.480	-0.109
-426.588	-89.013	0.224	0.066
-425.573	-56.990	-0.117	0.052
-424.559	-200.000	0.097	-0.499
-423.544	800.000	0.047	0.134
-422.530	-200.000	-0.001	-0.069
-421.515	269.624	-0.174	-0.306
-420.500	-157.075	-0.165	0.010
-419.486	-200.000	-0.043	-0.210
-418.471	-20.769	-0.153	-0.094
-417.457	660.344	-0.074	-0.192
-416.442	120.259	-0.079	-0.098
-415.428	-32.294	0.292	-0.163
-414.413	-85.408	-0.153	0.048
-413.398	-125.567	-0.219	0.033
-412.384	109.488	0.246	0.296
-411.369	131.950	0.048	-0.062
-410.355	313.071	0.063	-0.119
-409.340	160.909	-0.199	-0.278
-408.325	77.874	-0.111	-0.118
-407.311	75.255	-0.151	0.159
-406.296	-200.000	0.024	-0.195
-405.282	800.000	0.015	0.063
-404.267	800.000	0.017	-0.073
-403.252	-124.568	-0.167	-0.026
-402.238	-200.000	0.109	0.570
-401.223	-200.000	0.016	-0.096
-400.209	192.838	-0.152	-0.230
-399.194	45.159	-0.330	-0.304
-398.179	129.459	-0.282	-0.361
-397.165	-180.527	-0.266	-0.006
-396.150	-69.300	-0.169	-0.065
-395.136	198.471	0.118	0.180
-394.121	29.986	0.052	-0.044
-393.106	-41.587	-0.269	-0.138
-392.092	-147.628	-0.150	0.013
-391.077	-73.024	0.148	0.054
-390.063	460.058	0.061	0.136
-389.048	-97.541	-0.054	-0.014
-388.033	-99.976	0.122	0.031
-387.019	-18.328	0.150	-0.094
-386.004	800.000	0.055	-0.220
-384.990	353.010	-0.026	-0.052
-383.975	-66.027	-0.259	-0.103
-382.960	-59.012	0.059	-0.025
-381.946	-200.000	0.020	0.353
-380.931	-3.434	0.161	-0.112
-379.917	800.000	0.063	0.176
-378.902	-83.040	0.202	0.065
-377.888	800.000	0.073	-0.298
-376.873	-130.588	-0.276	0.037
-375.858	-200.000	-0.045	0.214
-374.844	-54.030	-0.101	0.046
-373.829	166.046	0.202	0.285
-372.815	61.221	0.295	0.293
-371.800	-117.362	-0.136	0.025
-370.785	-98.474	-0.600	-0.154
-369.771	-34.036	0.382	-0.210
-368.756	140.004	0.252	0.332
-367.742	39.143	-0.147	0.131
-366.727	-164.141	-0.209	-0.010
-365.712	-200.000	-0.057	0.000
-364.698	2.273	-0.089	-0.065
-363.683	217.189	0.068	0.108
-362.669	-25.895	-0.134	0.079
-361.654	800.000	0.038	-0.163
-360.639	-145.817	0.319	-0.028
-359.625	-58.193	-0.172	0.075
-358.610	800.000	0.028	-0.110
-357.596	-70.628	-0.069	0.026
-356.581	6.655	-0.162	-0.121
-355.566	537.126	-0.107	-0.254
-354.552	800.000	0.101	0.295
-353.537	-190.354	-0.283	-0.003
-352.523	-98.576	0.098	0.025
-351.508	-147.533	-0.315	0.027
-350.493	7.864	0.264	0.198
-349.479	-87.559	0.259	-0.078
-348.464	-88.959	0.038	-0.011
-347.450	115.159	-0.099	0.121
-346.435	-200.000	0.011	0.122
-345.420	-125.349	0.132	0.020
-344.406	-64.492	0.466	0.189
-343.391	510.669	-0.155	-0.361
-342.377	711.958	-0.040	-0.107
-341.362	141.951	0.072	0.096
-340.348	-94.090	0.223	0.061
-339.333	800.000	-0.029	0.123
-338.318	30.894	0.052	-0.045
-337.304	-200.000	0.044	0.221
-336.289	800.000	0.102	-0.333
-335.275	800.000	0.099	0.323
-334.260	800.000	0.090	-0.296
-333.245	-12.861	0.450	0.293
-332.231	-28.001	0.138	-0.080
-331.216	-200.000	0.036	0.442
-330.202	-59.562	0.181	0.077
-329.187	-127.201	0.242	-0.035
-328.172	3.129	-0.284	0.206
-327.158	344.802	0.102	-0.200
-326.143	39.358	-0.156	-0.140
-325.129	16.644	0.228	-0.180
-324.114	-127.424	0.139	0.020
-323.099	23.805	0.011	-0.009
-322.085	-170.245	0.097	0.003
-321.070	650.299	-0.061	0.157
-320.056	-157.657	0.224	-0.013
-319.041	16.883	-0.056	-0.044
-318.026	-200.000	-0.004	-0.360
-317.012	-133.568	0.553	0.069
-315.997	680.803	0.061	-0.158
-314.983	472.361	0.101	-0.227
-313.968	157.537	0.101	-0.140
-312.953	-98.514	0.133	-0.034
-311.939	-194.341	0.146	0.001
-310.924	-127.592	0.133	-0.019
-309.910	-91.523	0.248	-0.070
-308.895	299.967	0.052	-0.095
-307.880	-105.395	-0.112	-0.025
-306.866	-25.571	0.029	-0.017
-305.851	-200.000	-0.017	-0.180
-304.837	-144.993	-0.460	-0.042
-303.822	-9.827	-0.201	-0.133
-302.807	-121.250	0.319	0.053
-301.793	-200.000	-0.046	0.344
-300.778	800.000	-0.066	0.201
-299.764	-121.711	0.094	0.016
-298.749	-102.708	0.547	-0.130
-297.735	146.182	-0.044	0.059
-296.720	-62.310	-0.140	0.058
-295.705	-200.000	0.030	0.351
-294.691	-11.070	-0.207	0.136
-293.676	-65.464	0.137	0.055
-292.662	-67.333	0.210	0.082
-291.647	-8.905	0.106	0.071
-290.632	-87.710	-0.068	-0.020
-289.618	222.467	0.265	0.426
-288.603	61.961	-0.166	0.165
-287.589	-200.000	-0.037	0.289
-286.574	-85.825	-0.035	0.011
-285.559	-200.000	-0.041	0.295
-284.545	460.855	0.113	-0.251
-283.530	-146.388	-0.046	-0.004
-282.516	69.410	-0.189	0.193
-281.501	-37.542	0.083	-0.044
-280.486	-56.616	-0.333	0.147
-279.472	-68.314	-0.103	-0.040
-278.457	17.379	0.079	-0.062
-277.443	681.991	0.097	-0.253
-276.428	-144.116	0.469	0.044
-275.413	800.000	0.013	0.057
-274.399	-17.778	-0.160	0.100
-273.384	-200.000	-0.021	0.335
-272.370	-78.708	0.133	-0.045
-271.355	51.599	-0.064	0.061
-270.340	-200.000	0.044	0.417
-269.326	-200.000	-0.003	-0.333
-268.311	523.859	0.100	0.235
-267.297	261.309	0.111	0.191
-266.282	-107.561	0.030	0.007
-265.267	170.553	0.219	-0.313
-264.253	-200.000	0.013	-0.282
-263.238	-18.318	-0.338	-0.211
-262.224	-200.000	-0.021	0.169
-261.209	-84.955	0.257	0.080
-260.195	125.696	0.110	0.138
-259.180	-38.846	-0.297	0.156
-258.165	-131.516	-0.167	0.022
-257.151	-200.000	-0.006	0.074
-256.136	142.802	0.229	-0.304
-255.122	-200.000	0.032	-0.449
-254.107	-178.194	-0.398	-0.009
-253.092	27.595	-0.169	0.142
-252.078	162.317	0.151	0.211
-251.063	-200.000	-0.003	0.164
-250.049	8.392	-0.181	0.135
-249.034	-123.522	0.224	0.035
-248.019	-200.000	-0.038	-0.199
-247.005	18.659	0.091	-0.072
-245.990	-200.000	0.016	-0.220
-244.976	65.736	-0.094	-0.095
-243.961	-200.000	-0.058	-0.364
-242.946	620.773	-0.019	-0.047
-241.932	38.871	0.231	0.205
-240.917	109.506	-0.192	-0.229
-239.903	-123.354	-0.190	0.030
-238.888	-88.436	-0.143	0.042
-237.873	-82.183	-0.347	-0.112
-236.859	189.514	-0.117	0.174
-235.844	356.641	-0.192	-0.380
-234.830	213.124	-0.111	0.175
-233.815	595.865	-0.094	0.232
-232.800	290.819	-0.090	0.163
-231.786	-200.000	-0.046	0.257
-230.771	367.562	-0.040	-0.080
-229.757	46.899	0.017	-0.016
-228.742	470.910	-0.089	0.198
-227.727	40.215	-0.120	0.107
-226.713	-71.659	0.330	0.123
-225.698	-33.838	-0.152	0.083
-224.684	24.395	-0.169	0.139
-223.669	132.739	-0.014	0.019
-222.655	-200.000	-0.035	0.309
-221.640	438.685	-0.116	-0.252
-220.625	229.527	-0.124	-0.201
-219.611	-115.346	-0.255	0.048
-218.596	489.888	-0.101	-0.229
-217.582	-109.627	-0.194	-0.041
-216.567	469.106	0.120	-0.269
-215.552	-44.713	0.279	-0.139
-214.538	800.000	0.025	-0.095
-213.523	13.041	0.094	-0.072
-212.509	-60.729	-0.040	-0.017
-211.494	103.179	0.051	-0.059
-210.479	-65.663	-0.162	0.065
-209.465	137.537	-0.142	-0.185
-208.450	-200.000	-0.016	0.367
-207.436	800.000	0.081	-0.231
-206.421	-200.000	-0.017	-0.127
-205.406	426.435	-0.038	0.081
-204.392	-200.000	-0.036	0.160
-203.377	18.179	-0.206	-0.163
-202.363	-200.000	-0.051	-0.263
-201.348	-200.000	-0.022	-0.118
-200.333	-200.000	-0.006	-0.055
-199.319	-182.502	-0.332	-0.006
-198.304	-200.000	0.015	0.219
-197.290	-102.810	0.555	-0.131
-196.275	-44.587	-0.116	-0.057
-195.260	-135.758	-0.323	-0.038
-194.246	-62.541	0.170	-0.070
-193.231	-117.686	0.354	-0.063
-192.217	-21.663	0.315	0.191
-191.202	36.197	-0.147	-0.128
-190.187	-165.604	0.306	0.013
-189.173	76.131	-0.136	0.143
-188.158	21.895	0.187	-0.151
-187.144	-114.967	-0.266	0.050
-186.129	-200.000	0.059	-0.278
-185.114	-74.111	-0.166	0.060
-184.100	-200.000	0.032	-0.180
-183.085	800.000	0.092	0.373
-182.071	-144.737	0.239	-0.022
-181.056	-200.000	-0.007	0.170
-180.042	-49.782	0.168	0.079
-179.027	-1.915	0.233	0.163
-178.012	179.016	0.053	-0.077
-176.998	238.559	-0.073	0.120
-175.983	800.000	0.010	0.034
-174.969	-22.998	0.217	-0.130
-173.954	-200.000	0.021	-0.191
-172.939	-28.870	0.051	0.029
-171.925	800.000	0.031	0.120
-170.910	-200.000	0.037	-0.202
-169.896	-136.942	-0.161	-0.018
-168.881	-102.684	0.138	-0.033
-167.866	349.100	-0.123	0.241
-166.852	127.600	-0.066	0.083
-165.837	-189.257	0.151	0.002
-164.823	-76.175	-0.247	-0.086
-163.808	-76.941	0.269	0.093
-162.793	303.582	-0.157	0.288
-161.779	-200.000	-0.029	0.308
-160.764	112.210	0.223	0.267
-159.750	-153.277	0.287	-0.020
-158.735	-162.944	-0.228	-0.011
-157.720	-63.816	0.355	0.144
-156.706	-200.000	0.035	-0.250
-155.691	-127.391	-0.122	-0.018
-154.677	72.750	-0.129	-0.133
-153.662	-200.000	0.035	0.158
-152.647	14.665	0.218	0.169
-151.633	-0.962	0.069	0.048
-150.618	-12.750	0.169	0.109
-149.604	-200.000	0.009	0.060
-148.589	95.892	-0.214	0.242
-147.574	-23.698	-0.243	0.145
-146.560	31.259	0.190	0.162
-145.545	-112.439	0.164	-0.033
-144.531	420.166	0.023	0.049
-143.516	-83.994	-0.332	-0.105
-142.502	-125.385	-0.127	0.019
-141.487	-62.436	-0.299	-0.123
-140.472	-200.000	0.006	0.196
-139.458	-72.175	0.412	-0.151
-138.443	27.591	-0.402	-0.335
-137.429	-1.202	0.190	0.133
-136.414	-160.525	0.154	0.008
-135.399	-25.873	0.257	0.150
-134.385	404.112	0.131	-0.272
-133.370	-94.532	0.287	-0.077
-132.356	-200.000	-0.001	0.044
-131.341	-94.223	0.279	0.076
-130.326	-200.000	0.015	-0.210
-129.312	-200.000	0.019	-0.308
-128.297	-88.168	-0.134	-0.040
-127.283	321.304	-0.154	-0.289
-126.268	40.168	0.204	0.181
-125.253	-200.000	0.007	-0.226
-124.239	-25.140	0.109	0.064
-123.224	247.441	-0.092	0.153
-122.210	421.686	-0.059	0.124
-121.195	800.000	0.082	-0.234
