DTS Sentinel unit serial number:	SN413079Multiplexer serial number:	ORYXHardware model number:	OX4-SRSoftware version number:	ORYX F/W v4.00 Oryx Data Collector v3.7.2.0data status	okinstallation	princeton_trtdifferential loss correction	single-endedforward channel	channel 4reverse channel	N/Adate	2019/09/17time	11:41:35forward acquisition time	60.00reverse acquisition time	0.00gamma	496.2192k internal	0.2308k external	0.2308temperature offset calibration	0.9987default loss term (dB/km)	0.3790temperature slope calibration	1.0000multiplexer offset coefficient	1.0000multiplexer slope coefficient	1.0000fibre end	0.00T internal ref (°C)	30.81T ext. ref 1 (°C)	0.38T ext. ref 2 (°C)	26.61length (m)	temperature (°C)	Stokes	anti-Stokes-747.200	401.739	-0.015	0.032
-746.185	342.457	-0.118	0.234
-745.171	275.588	0.092	0.166
-744.156	324.852	0.113	0.219
-743.142	-200.000	0.442	-0.001
-742.127	165.762	-0.110	-0.158
-741.112	108.383	0.222	-0.269
-740.098	655.693	0.175	0.457
-739.083	30.116	-0.126	0.109
-738.069	-148.419	-0.323	-0.027
-737.054	83.652	0.061	0.068
-736.039	-200.000	-0.016	-0.210
-735.025	0.695	0.142	0.103
-734.010	-60.791	-0.218	0.094
-732.996	164.899	-0.072	-0.103
-731.981	-200.000	0.022	-0.187
-730.966	-58.324	-0.353	-0.156
-729.952	-200.000	-0.037	0.306
-728.937	42.057	-0.388	-0.358
-727.923	-108.049	-0.216	-0.048
-726.908	-144.225	0.163	0.015
-725.894	382.645	-0.155	0.324
-724.879	-200.000	-0.056	-0.299
-723.864	142.552	-0.225	-0.304
-722.850	-64.553	0.137	-0.057
-721.835	-200.000	0.009	0.190
-720.821	-104.481	0.125	-0.029
-719.806	749.737	-0.132	0.362
-718.791	40.535	0.034	-0.031
-717.777	800.000	-0.084	-0.261
-716.762	800.000	-0.067	0.287
-715.748	-200.000	-0.037	-0.302
-714.733	-8.641	-0.178	-0.121
-713.718	-200.000	0.004	0.142
-712.704	244.346	-0.029	0.050
-711.689	-130.860	0.128	0.017
-710.675	747.979	-0.050	-0.137
-709.660	-116.918	-0.275	-0.051
-708.645	332.854	0.122	-0.239
-707.631	-120.429	0.103	-0.018
-706.616	-7.967	0.107	0.074
-705.602	54.553	0.169	-0.165
-704.587	-142.038	-0.314	-0.032
-703.572	-4.373	-0.084	0.059
-702.558	-142.609	-0.437	0.043
-701.543	275.709	-0.139	-0.251
-700.529	-5.747	-0.189	-0.131
-699.514	228.896	-0.111	-0.183
-698.499	21.261	-0.466	-0.384
-697.485	-156.778	-0.072	-0.005
-696.470	102.436	0.122	0.145
-695.456	800.000	-0.016	0.063
-694.441	-200.000	0.006	0.318
-693.426	-38.252	-0.034	0.018
-692.412	-107.868	-0.269	-0.059
-691.397	800.000	0.074	-0.229
-690.383	-75.616	-0.261	-0.094
-689.368	-104.817	-0.053	-0.012
-688.354	120.715	0.034	-0.043
-687.339	-110.012	-0.140	0.030
-686.324	-146.553	-0.101	-0.009
-685.310	-171.215	-0.245	0.008
-684.295	89.170	0.056	0.063
-683.281	-166.105	0.167	-0.007
-682.266	53.942	-0.098	0.095
-681.251	124.191	0.192	0.245
-680.237	-106.972	0.381	-0.086
-679.222	-22.129	-0.344	0.212
-678.208	176.730	-0.058	0.085
-677.193	-103.707	-0.287	-0.068
-676.178	-42.219	0.117	-0.061
-675.164	-25.579	-0.338	0.202
-674.149	-200.000	0.029	0.322
-673.135	250.066	-0.053	-0.091
-672.120	-172.517	-0.065	-0.002
-671.105	-200.000	0.062	0.298
-670.091	14.756	0.185	0.146
-669.076	-182.032	0.500	0.010
-668.062	81.451	-0.093	-0.102
-667.047	-200.000	-0.050	0.262
-666.032	-67.631	0.158	-0.063
-665.018	180.927	-0.124	0.185
-664.003	-98.363	0.102	-0.027
-662.989	-47.164	0.074	0.037
-661.974	426.755	-0.099	0.217
-660.959	-99.531	0.126	0.032
-659.945	-200.000	0.066	-0.325
-658.930	-15.464	-0.297	0.192
-657.916	-105.238	-0.273	0.063
-656.901	-67.605	0.154	0.061
-655.886	-179.138	-0.210	-0.005
-654.872	-92.940	-0.213	-0.060
-653.857	332.013	-0.096	0.188
-652.843	-115.679	-0.144	-0.027
-651.828	615.897	-0.032	0.080
-650.814	-181.131	-0.040	-0.001
-649.799	-112.261	-0.254	-0.052
-648.784	-200.000	-0.048	-0.434
-647.770	83.552	-0.246	-0.271
-646.755	-59.881	0.190	-0.082
-645.741	-89.097	-0.225	-0.067
-644.726	-200.000	0.007	0.037
-643.711	213.300	-0.242	0.388
-642.697	-44.174	0.257	-0.131
-641.682	-81.046	-0.233	-0.078
-640.668	-6.125	-0.119	-0.082
-639.653	-152.179	0.257	0.019
-638.638	800.000	0.047	-0.140
-637.624	229.293	0.028	0.046
-636.609	-200.000	-0.009	-0.043
-635.595	-18.216	-0.120	0.076
-634.580	-67.515	0.122	-0.048
-633.565	-200.000	-0.006	0.206
-632.551	171.706	0.153	0.223
-631.536	-82.180	0.062	-0.020
-630.522	800.000	0.075	0.251
-629.507	-97.302	-0.052	0.014
-628.492	-200.000	0.118	-0.648
-627.478	-200.000	-0.021	-0.126
-626.463	-134.212	0.498	-0.062
-625.449	-111.235	-0.181	0.038
-624.434	-89.734	0.213	-0.063
-623.419	21.076	-0.151	0.124
-622.405	-19.162	-0.239	0.150
-621.390	-55.947	-0.364	0.164
-620.376	6.504	-0.393	0.296
-619.361	-3.471	0.011	0.008
-618.346	-129.550	-0.377	0.053
-617.332	800.000	0.038	0.135
-616.317	-154.779	0.083	-0.006
-615.303	-200.000	0.078	-0.383
-614.288	-200.000	-0.070	0.372
-613.273	148.408	0.091	0.124
-612.259	-200.000	0.004	-0.052
-611.244	36.535	-0.191	-0.171
-610.230	-51.872	-0.317	-0.149
-609.215	231.553	0.055	0.092
-608.201	-200.000	0.016	-0.207
-607.186	22.355	-0.182	0.150
-606.171	-56.676	-0.126	-0.056
-605.157	-138.974	0.392	-0.043
-604.142	297.678	-0.117	0.217
-603.128	-200.000	0.027	0.310
-602.113	-5.740	0.156	0.108
-601.098	-200.000	-0.099	-0.491
-600.084	-55.054	-0.147	-0.067
-599.069	800.000	0.107	-0.366
-598.055	-200.000	-0.008	0.123
-597.040	1.315	-0.042	0.031
-596.025	-103.661	0.297	-0.070
-595.011	443.894	0.072	0.160
-593.996	2.571	0.136	-0.100
-592.982	-200.000	0.001	-0.438
-591.967	-200.000	-0.048	-0.305
-590.952	-152.368	0.263	0.019
-589.938	286.268	0.162	-0.295
-588.923	-200.000	-0.029	-0.172
-587.909	393.634	0.124	-0.260
-586.894	95.930	-0.033	-0.038
-585.879	86.455	0.033	0.037
-584.865	196.142	-0.146	0.224
-583.850	800.000	-0.069	-0.288
-582.836	-19.087	-0.038	0.024
-581.821	3.577	-0.146	0.108
-580.806	478.375	-0.084	-0.192
-579.792	-104.722	-0.123	-0.029
-578.777	-6.010	0.062	0.043
-577.763	-69.952	-0.294	-0.113
-576.748	22.049	0.058	0.048
-575.733	-200.000	0.040	-0.316
-574.719	7.311	-0.213	-0.161
-573.704	-92.915	-0.215	0.061
-572.690	-46.931	0.287	0.142
-571.675	150.251	-0.134	0.184
-570.661	255.689	0.097	-0.169
-569.646	38.734	-0.121	0.109
-568.631	-126.783	-0.244	-0.036
-567.617	220.880	-0.160	-0.259
-566.602	318.218	0.184	-0.351
-565.588	1.863	0.161	-0.117
-564.573	619.327	0.037	-0.093
-563.558	283.843	-0.150	0.272
-562.544	197.781	-0.235	-0.363
-561.529	-30.706	-0.058	-0.033
-560.515	-200.000	0.010	-0.220
-559.500	-18.072	-0.305	0.193
-558.485	336.180	0.042	-0.083
-557.471	446.053	0.106	0.234
-556.456	-39.269	-0.041	0.021
-555.442	-22.358	-0.336	-0.206
-554.427	43.791	0.172	-0.159
-553.412	11.803	0.371	0.287
-552.398	288.190	-0.110	0.202
-551.383	254.296	-0.276	0.477
-550.369	12.041	0.334	0.259
-549.354	91.955	-0.191	0.217
-548.339	800.000	-0.039	0.164
-547.325	-0.509	-0.298	0.214
-546.310	-131.730	0.108	0.014
-545.296	-200.000	0.015	-0.096
-544.281	-31.535	0.137	0.078
-543.266	-200.000	-0.012	-0.250
-542.252	-41.142	-0.167	-0.087
-541.237	800.000	-0.080	0.306
-540.223	-38.568	0.193	0.103
-539.208	-3.445	-0.340	-0.239
-538.193	64.885	-0.052	0.053
-537.179	55.236	-0.085	0.083
-536.164	486.402	-0.072	-0.165
-535.150	111.825	-0.043	0.052
-534.135	-21.060	0.442	0.273
-533.121	800.000	0.034	0.119
-532.106	-1.883	0.106	-0.075
-531.091	800.000	-0.075	-0.237
-530.077	-52.079	0.117	0.055
-529.062	800.000	0.183	0.648
-528.048	800.000	0.066	0.228
-527.033	225.357	0.046	-0.075
-526.018	800.000	0.100	-0.333
-525.004	-142.536	-0.284	-0.028
-523.989	99.373	0.304	-0.355
-522.975	-88.512	-0.198	0.059
-521.960	53.859	0.086	0.083
-520.945	-52.223	-0.366	0.171
-519.931	596.371	0.062	-0.156
-518.916	99.217	0.058	-0.068
-517.902	188.903	0.042	0.063
-516.887	-200.000	0.070	0.480
-515.872	-10.833	-0.064	-0.042
-514.858	800.000	-0.013	-0.057
-513.843	-127.091	0.183	-0.027
-512.829	-38.398	0.253	0.135
-511.814	526.359	0.053	0.125
-510.799	260.657	-0.178	0.310
-509.785	800.000	0.038	0.115
-508.770	-200.000	-0.023	0.144
-507.756	-200.000	-0.019	0.091
-506.741	-116.433	-0.638	0.119
-505.726	469.093	-0.077	-0.174
-504.712	-159.194	0.143	0.008
-503.697	-50.628	-0.188	-0.089
-502.683	-127.488	0.228	0.033
-501.668	-113.180	0.169	-0.034
-500.653	-46.348	0.174	-0.086
-499.639	-69.754	0.088	-0.034
-498.624	-200.000	0.003	-0.131
-497.610	-200.000	0.030	0.302
-496.595	-123.808	-0.066	-0.010
-495.581	800.000	0.101	-0.314
-494.566	-63.134	0.127	0.053
-493.551	800.000	-0.143	-0.409
-492.537	257.731	0.141	0.244
-491.522	-124.131	-0.222	0.035
-490.508	-200.000	-0.040	0.370
-489.493	-31.449	0.182	-0.103
-488.478	118.067	0.145	-0.180
-487.464	216.768	-0.085	-0.136
-486.449	-35.404	-0.157	0.086
-485.435	181.683	-0.253	-0.375
-484.420	-25.096	0.364	0.217
-483.405	-128.850	0.187	0.027
-482.391	-200.000	0.048	0.255
-481.376	216.014	0.111	-0.178
-480.362	800.000	0.032	-0.136
-479.347	371.972	0.156	0.320
-478.332	-200.000	-0.037	0.244
-477.318	98.026	0.130	-0.151
-476.303	43.925	0.236	-0.217
-475.289	-71.677	0.569	-0.214
-474.274	523.572	0.055	0.129
-473.259	800.000	0.050	0.165
-472.245	69.417	-0.234	0.242
-471.230	-82.758	-0.328	-0.107
-470.216	262.994	0.048	-0.084
-469.201	59.349	0.264	0.261
-468.186	800.000	0.004	0.016
-467.172	-6.591	-0.200	0.137
-466.157	37.165	0.148	0.132
-465.143	-16.837	-0.117	-0.074
-464.128	-116.128	0.194	-0.036
-463.113	800.000	-0.007	0.029
-462.099	-161.278	0.152	-0.008
-461.084	-106.968	-0.095	-0.021
-460.070	-2.016	-0.280	-0.198
-459.055	3.832	-0.160	-0.117
-458.040	109.386	0.167	0.201
-457.026	-200.000	-0.008	-0.048
-456.011	62.001	0.177	-0.177
-454.997	2.621	0.119	0.087
-453.982	134.877	0.215	0.281
-452.968	800.000	-0.035	0.139
-451.953	-200.000	-0.050	-0.265
-450.938	-200.000	0.056	-0.351
-449.924	-185.219	0.375	-0.006
-448.909	29.305	-0.094	0.080
-447.895	800.000	0.104	-0.337
-446.880	-146.180	-0.200	-0.018
-445.865	12.521	-0.329	0.255
-444.851	214.543	-0.097	0.155
-443.836	-200.000	0.026	-0.171
-442.822	-62.860	-0.240	0.100
-441.807	419.075	-0.181	-0.389
-440.792	148.742	-0.359	0.488
-439.778	-27.220	-0.130	-0.076
-438.763	-139.491	0.183	0.020
-437.749	460.718	0.080	0.179
-436.734	188.361	-0.054	-0.081
-435.719	46.287	0.214	-0.199
-434.705	120.013	-0.109	-0.136
-433.690	141.228	-0.112	-0.148
-432.676	1.831	-0.174	-0.126
-431.661	325.501	-0.158	0.303
-430.646	-43.910	-0.253	0.128
-429.632	-200.000	-0.009	-0.063
-428.617	-95.465	-0.210	0.056
-427.603	233.708	-0.087	-0.144
-426.588	-10.401	-0.272	-0.181
-425.573	529.755	0.104	0.246
-424.559	9.086	0.238	0.181
-423.544	-11.342	0.282	0.186
-422.530	-26.589	-0.193	0.113
-421.515	-91.326	0.102	0.029
-420.500	800.000	-0.055	0.213
-419.486	-200.000	-0.025	-0.229
-418.471	574.104	-0.092	-0.225
-417.457	360.637	0.051	0.103
-416.442	-110.359	0.348	0.073
-415.428	-200.000	-0.054	0.377
-414.413	776.162	-0.101	-0.277
-413.398	-200.000	-0.037	0.172
-412.384	39.324	-0.157	-0.141
-411.369	-200.000	-0.037	0.263
-410.355	88.729	0.143	0.159
-409.340	-37.727	0.033	0.017
-408.325	-200.000	-0.017	-0.085
-407.311	-200.000	0.064	-0.613
-406.296	800.000	0.061	0.211
-405.282	800.000	0.036	-0.118
-404.267	-200.000	-0.002	0.014
-403.252	-6.935	-0.322	0.220
-402.238	-149.828	0.292	0.023
-401.223	300.843	0.175	-0.324
-400.209	39.019	0.131	-0.117
-399.194	39.681	-0.333	-0.299
-398.179	-109.982	0.141	0.030
-397.165	689.768	0.144	-0.377
-396.150	-108.514	-0.072	0.016
-395.136	134.820	0.140	-0.182
-394.121	286.430	-0.101	0.183
-393.106	62.304	-0.101	0.101
-392.092	-200.000	0.028	0.396
-391.077	177.194	-0.037	-0.053
-390.063	-200.000	-0.058	-0.284
-389.048	-32.180	0.159	0.089
-388.033	519.673	-0.040	0.094
-387.019	-200.000	0.059	-0.303
-386.004	680.064	0.097	-0.252
-384.990	61.617	-0.090	-0.090
-383.975	297.362	0.123	0.227
-382.960	-1.859	-0.089	-0.063
-381.946	-200.000	0.047	0.312
-380.931	-146.147	-0.167	0.015
-379.917	-142.916	-0.064	0.006
-378.902	74.847	0.200	-0.211
-377.888	156.328	-0.199	0.275
-376.873	176.647	-0.144	-0.210
-375.858	-80.528	-0.038	-0.013
-374.844	-2.311	0.221	0.155
-373.829	-200.000	0.123	0.541
-372.815	37.617	0.181	0.161
-371.800	242.861	-0.043	0.072
-370.785	13.564	0.191	-0.149
-369.771	54.847	-0.186	-0.180
-368.756	104.364	-0.253	-0.298
-367.742	-200.000	-0.001	-0.071
-366.727	261.044	0.058	-0.100
-365.712	-62.488	0.071	0.030
-364.698	386.892	0.146	-0.303
-363.683	41.954	-0.131	0.119
-362.669	671.710	0.087	-0.227
-361.654	271.054	-0.143	0.253
-360.639	800.000	0.020	-0.073
-359.625	-96.576	-0.353	0.093
-358.610	-200.000	0.023	0.109
-357.596	86.034	0.091	-0.100
-356.581	83.717	0.179	0.196
-355.566	-131.536	-0.205	-0.027
-354.552	800.000	0.085	-0.280
-353.537	-200.000	0.021	0.201
-352.523	-27.394	-0.068	-0.040
-351.508	-86.911	0.150	-0.046
-350.493	65.214	0.080	0.081
-349.479	-54.261	-0.091	0.041
-348.464	-200.000	-0.021	0.238
-347.450	-170.347	-0.105	0.004
-346.435	149.042	0.162	0.220
-345.420	745.724	-0.140	0.378
-344.406	-200.000	-0.024	0.172
-343.391	-200.000	0.044	0.213
-342.377	-95.526	0.234	-0.063
-341.362	-71.470	0.197	-0.074
-340.348	-200.000	-0.026	0.122
-339.333	-81.776	0.124	0.041
-338.318	-158.253	0.222	-0.013
-337.304	0.982	0.251	-0.180
-336.289	-79.610	-0.160	0.054
-335.275	-200.000	0.021	0.320
-334.260	233.200	-0.159	-0.262
-333.245	-168.549	0.140	-0.005
-332.231	-200.000	0.007	0.237
-331.216	-126.530	-0.058	-0.009
-330.202	-105.783	-0.200	0.045
-329.187	-147.475	-0.417	0.035
-328.172	-200.000	-0.057	-0.279
-327.158	-80.502	-0.118	0.039
-326.143	591.562	0.086	-0.212
-325.129	-19.037	-0.347	-0.216
-324.114	-20.293	0.515	-0.317
-323.099	449.565	-0.090	-0.199
-322.085	-114.076	0.114	-0.022
-321.070	-55.525	0.254	-0.114
-320.056	35.232	-0.149	-0.131
-319.041	-200.000	-0.009	0.168
-318.026	23.464	-0.229	-0.188
-317.012	-144.292	0.159	0.015
-315.997	211.722	-0.037	-0.058
-314.983	-149.412	-0.174	-0.014
-313.968	16.427	-0.254	-0.201
-312.953	-47.891	-0.215	0.104
-311.939	-136.870	0.004	-0.001
-310.924	762.868	0.038	0.104
-309.910	-137.261	0.189	0.021
-308.895	800.000	0.049	-0.204
-307.880	267.413	-0.022	-0.039
-306.866	189.195	-0.193	-0.289
-305.851	800.000	0.051	-0.157
-304.837	51.368	0.106	0.100
-303.822	800.000	-0.083	-0.337
-302.807	134.039	-0.187	0.242
-301.793	800.000	0.022	0.083
-300.778	36.814	-0.083	-0.073
-299.764	375.794	-0.152	-0.309
-298.749	800.000	0.052	0.195
-297.735	800.000	-0.081	-0.258
-296.720	303.022	0.095	0.175
-295.705	-99.894	-0.215	-0.054
-294.691	800.000	-0.080	0.278
-293.676	-57.733	-0.152	-0.067
-292.662	-25.174	0.161	0.095
-291.647	676.375	-0.185	0.479
-290.632	384.992	-0.191	0.393
-289.618	73.183	0.146	0.152
-288.603	-12.418	-0.074	0.048
-287.589	105.707	0.023	0.027
-286.574	283.948	0.186	0.334
-285.559	800.000	-0.042	0.164
-284.545	192.784	0.234	0.353
-283.530	-200.000	0.019	0.168
-282.516	16.393	0.090	0.071
-281.501	-80.364	-0.141	-0.047
-280.486	499.768	0.060	0.137
-279.472	-1.009	0.167	-0.118
-278.457	-200.000	0.003	0.050
-277.443	-122.786	-0.215	0.035
-276.428	-171.308	0.159	0.005
-275.413	366.633	-0.073	0.146
-274.399	-78.804	-0.081	-0.028
-273.384	-106.724	0.607	0.135
-272.370	132.519	-0.129	-0.166
-271.355	257.241	-0.132	0.227
-270.340	-113.468	0.267	0.052
-269.326	441.478	-0.183	-0.400
-268.311	47.283	-0.117	0.108
-267.297	-178.610	-0.332	-0.008
-266.282	-15.461	0.220	-0.140
-265.267	-19.002	-0.150	-0.093
-264.253	-137.231	-0.135	-0.015
-263.238	-107.016	0.040	0.009
-262.224	470.025	0.085	0.191
-261.209	85.302	-0.135	0.148
-260.195	-47.747	0.241	-0.116
-259.180	-88.738	-0.147	-0.044
-258.165	-129.156	0.335	0.047
-257.151	278.128	0.107	0.190
-256.136	-61.648	0.461	-0.193
-255.122	800.000	-0.035	-0.116
-254.107	-191.194	-0.274	0.003
-253.092	422.584	0.091	-0.194
-252.078	-44.518	-0.094	0.047
-251.063	171.593	-0.094	-0.135
-250.049	-200.000	0.013	0.227
-249.034	-40.628	0.317	0.164
-248.019	800.000	0.019	0.071
-247.005	-109.922	0.039	0.008
-245.990	102.967	-0.071	-0.083
-244.976	-200.000	0.010	-0.055
-243.961	214.716	0.076	0.120
-242.946	-10.481	0.098	0.065
-241.932	-111.613	0.118	0.024
-240.917	41.169	-0.080	0.072
-239.903	1.531	-0.173	0.124
-238.888	234.882	0.074	0.122
-237.873	188.571	-0.136	0.203
-236.859	-18.965	0.302	0.187
-235.844	-14.783	-0.103	-0.066
-234.830	-88.733	0.142	-0.042
-233.815	800.000	0.091	-0.274
-232.800	202.453	0.078	0.120
-231.786	-49.914	0.410	0.194
-230.771	-1.792	0.167	0.117
-229.757	-200.000	-0.029	-0.411
-228.742	741.512	-0.117	0.312
-227.727	-200.000	0.032	0.318
-226.713	330.534	-0.110	0.211
-225.698	239.615	-0.101	-0.167
-224.684	-87.535	0.160	-0.048
-223.669	-152.027	-0.214	0.016
-222.655	92.184	0.158	-0.178
-221.640	165.211	-0.132	-0.186
-220.625	-93.367	0.254	0.070
-219.611	12.797	-0.154	0.119
-218.596	97.187	0.160	-0.183
-217.582	354.811	-0.245	-0.485
-216.567	-74.292	0.178	-0.064
-215.552	800.000	0.075	-0.216
-214.538	197.787	0.140	0.213
-213.523	800.000	-0.036	0.106
-212.509	78.420	0.099	-0.105
-211.494	326.980	0.155	-0.295
-210.479	403.877	0.092	-0.192
-209.465	148.327	-0.180	-0.242
-208.450	-5.050	0.059	-0.041
-207.436	-49.516	-0.128	-0.061
-206.421	800.000	-0.091	-0.274
-205.406	308.789	0.077	-0.142
-204.392	249.710	-0.089	0.150
-203.377	588.696	0.025	-0.060
-202.363	-48.162	-0.445	0.214
-201.348	-131.924	0.535	0.070
-200.333	-114.369	0.455	-0.087
-199.319	-64.490	0.182	-0.073
-198.304	503.464	-0.037	0.086
-197.290	-32.985	0.215	-0.119
-196.275	-200.000	-0.009	-0.234
-195.260	163.114	0.209	0.293
-194.246	560.232	-0.037	0.090
-193.231	-0.480	-0.313	0.221
-192.217	64.050	-0.110	-0.111
-191.202	194.017	0.096	-0.144
-190.187	-53.315	0.102	-0.046
-189.173	480.961	-0.066	-0.148
-188.158	95.286	0.066	-0.075
-187.144	-128.969	0.172	-0.024
-186.129	-55.583	-0.307	0.137
-185.114	-8.478	0.116	0.078
-184.100	-45.573	0.050	-0.025
-183.085	27.330	0.128	-0.107
-182.071	800.000	-0.003	0.011
-181.056	-200.000	0.003	0.045
-180.042	2.863	0.067	-0.049
-179.027	-25.496	-0.141	-0.083
-178.012	486.134	0.081	0.183
-176.998	-200.000	0.016	0.184
-175.983	-45.456	0.256	0.126
-174.969	214.332	-0.117	-0.185
-173.954	-176.501	-0.078	0.002
-172.939	212.822	0.062	-0.098
-171.925	-200.000	0.012	-0.202
-170.910	340.409	-0.037	-0.073
-169.896	-200.000	0.004	-0.060
-168.881	-200.000	0.077	-0.358
-167.866	-77.211	-0.158	0.055
-166.852	167.712	-0.308	-0.435
-165.837	169.334	-0.161	0.229
-164.823	103.791	0.070	0.081
-163.808	67.984	-0.111	-0.113
-162.793	-95.658	-0.090	-0.024
-161.779	169.859	-0.179	0.254
-160.764	-171.291	0.409	0.014
-159.750	-10.964	0.266	0.174
-158.735	-147.794	0.114	-0.009
-157.720	452.529	-0.228	0.500
-156.706	-118.728	-0.309	0.054
-155.691	-25.702	-0.165	0.097
-154.677	800.000	0.114	-0.400
-153.662	47.036	-0.094	0.087
-152.647	-200.000	-0.029	0.252
-151.633	-27.574	0.214	-0.123
-150.618	-109.314	-0.258	-0.054
-149.604	-102.264	0.302	-0.072
-148.589	-25.416	-0.172	-0.101
-147.574	800.000	-0.032	0.140
-146.560	-200.000	-0.011	0.198
-145.545	-200.000	0.017	-0.106
-144.531	-42.461	-0.134	0.068
-143.516	65.828	-0.036	0.037
-142.502	-68.298	0.325	-0.125
-141.487	-179.239	-0.184	-0.004
-140.472	-112.661	-0.290	0.057
-139.458	-18.162	-0.068	0.042
-138.443	-200.000	-0.009	-0.172
-137.429	100.560	-0.041	-0.048
-136.414	-200.000	0.029	-0.237
-135.399	18.035	0.133	-0.105
-134.385	-11.384	0.359	-0.234
-133.370	-106.898	-0.348	0.076
-132.356	166.001	-0.131	0.184
-131.341	120.592	-0.257	0.317
-130.326	98.127	0.128	0.147
-129.312	-200.000	0.028	-0.133
-128.297	-200.000	-0.080	0.530
-127.283	-93.225	0.070	-0.019
-126.268	8.437	0.228	0.170
-125.253	-146.890	0.105	0.009
-124.239	-109.616	-0.235	-0.049
-123.224	6.171	0.150	0.110
-122.210	-185.906	0.091	-0.001
-121.195	321.853	0.108	0.204
