DTS Sentinel unit serial number:	SN413079Multiplexer serial number:	ORYXHardware model number:	OX4-SRSoftware version number:	ORYX F/W v4.00 Oryx Data Collector v3.7.2.0data status	okinstallation	princeton_trtdifferential loss correction	single-endedforward channel	channel 4reverse channel	N/Adate	2019/09/14time	16:41:34forward acquisition time	60.00reverse acquisition time	0.00gamma	496.2192k internal	0.2293k external	0.2293temperature offset calibration	1.0125default loss term (dB/km)	0.3790temperature slope calibration	1.0000multiplexer offset coefficient	1.0000multiplexer slope coefficient	1.0000fibre end	0.00T internal ref (°C)	38.00T ext. ref 1 (°C)	5.02T ext. ref 2 (°C)	33.67length (m)	temperature (°C)	Stokes	anti-Stokes-747.200	-200.000	0.029	0.289
-746.185	269.086	0.096	0.172
-745.171	-178.449	0.219	0.005
-744.156	-160.886	-0.351	-0.019
-743.142	188.130	0.109	0.166
-742.127	-200.000	0.025	0.568
-741.112	-89.659	0.149	0.045
-740.098	-149.319	-0.122	0.010
-739.083	296.293	-0.038	0.071
-738.069	-200.000	-0.022	0.357
-737.054	-200.000	0.015	0.077
-736.039	19.517	-0.232	-0.191
-735.025	-33.350	0.157	-0.089
-734.010	787.183	-0.095	0.267
-732.996	-184.563	-0.106	-0.002
-731.981	80.284	0.239	-0.264
-730.966	800.000	-0.137	-0.419
-729.952	-200.000	0.046	-0.252
-728.937	53.762	0.083	-0.082
-727.923	-145.931	-0.164	0.015
-726.908	115.779	-0.118	-0.148
-725.894	-200.000	0.001	-0.054
-724.879	289.307	0.062	-0.115
-723.864	800.000	0.052	-0.192
-722.850	376.529	-0.226	0.472
-721.835	-140.829	0.151	0.016
-720.821	-39.651	-0.262	-0.140
-719.806	-118.119	-0.038	-0.007
-718.791	-51.234	-0.048	0.023
-717.777	-65.500	0.091	0.037
-716.762	-147.835	-0.334	0.028
-715.748	-200.000	0.000	-0.104
-714.733	236.939	0.117	-0.198
-713.718	-200.000	0.045	0.513
-712.704	-174.773	-0.220	-0.006
-711.689	204.373	-0.175	-0.277
-710.675	107.622	-0.021	-0.026
-709.660	348.379	0.063	-0.127
-708.645	800.000	0.068	-0.202
-707.631	3.948	-0.154	0.115
-706.616	-200.000	0.025	0.274
-705.602	-122.109	-0.092	-0.015
-704.587	87.823	0.104	-0.118
-703.572	-200.000	-0.009	0.061
-702.558	208.611	0.060	-0.095
-701.543	-165.857	-0.105	0.005
-700.529	382.601	-0.070	0.146
-699.514	800.000	0.022	0.073
-698.499	-188.862	-0.252	0.003
-697.485	-200.000	-0.014	0.102
-696.470	467.748	0.055	0.127
-695.456	-135.023	-0.222	0.027
-694.441	-200.000	0.014	-0.099
-693.426	-166.941	0.149	0.006
-692.412	-45.124	0.180	-0.091
-691.397	92.678	0.102	0.118
-690.383	294.895	-0.147	0.274
-689.368	-109.748	-0.429	-0.092
-688.354	-200.000	-0.016	0.086
-687.339	24.512	0.144	0.122
-686.324	800.000	-0.032	-0.110
-685.310	215.965	-0.036	0.058
-684.295	-143.761	-0.287	0.028
-683.281	-11.594	-0.244	0.164
-682.266	0.004	-0.311	0.226
-681.251	-129.256	-0.151	0.022
-680.237	-3.019	-0.236	0.168
-679.222	210.977	0.161	0.258
-678.208	22.222	0.102	-0.085
-677.193	111.710	0.076	0.094
-676.178	163.981	-0.032	-0.047
-675.164	236.475	0.135	-0.228
-674.149	599.571	0.043	0.110
-673.135	-177.458	-0.202	0.005
-672.120	-200.000	-0.030	0.287
-671.105	293.846	-0.111	-0.208
-670.091	-200.000	-0.029	0.341
-669.076	-96.621	-0.360	-0.097
-668.062	-86.241	0.263	0.083
-667.047	-86.219	-0.240	-0.076
-666.032	-200.000	-0.023	-0.140
-665.018	-200.000	-0.037	-0.282
-664.003	62.758	-0.071	-0.073
-662.989	-12.945	-0.156	0.104
-661.974	180.577	0.191	0.285
-660.959	-118.484	0.279	-0.050
-659.945	17.908	-0.166	0.135
-658.930	-200.000	0.027	0.146
-657.916	148.694	-0.230	-0.316
-656.901	209.025	-0.018	-0.029
-655.886	-200.000	-0.015	0.212
-654.872	-157.401	0.186	0.011
-653.857	75.921	-0.256	0.276
-652.843	-141.468	0.194	-0.020
-651.828	307.102	0.054	0.103
-650.814	-200.000	-0.026	-0.219
-649.799	309.076	-0.089	-0.170
-648.784	429.045	-0.057	-0.126
-647.770	146.931	0.060	0.083
-646.755	101.044	-0.060	-0.071
-645.741	-5.025	-0.358	-0.251
-644.726	180.489	0.087	-0.130
-643.711	-188.283	0.033	-0.000
-642.697	-99.955	0.434	-0.111
-641.682	-72.624	-0.092	0.035
-640.668	-153.643	0.234	-0.016
-639.653	-8.850	-0.212	-0.145
-638.638	-200.000	0.026	-0.255
-637.624	66.078	0.206	0.213
-636.609	-61.511	-0.320	-0.137
-635.595	556.781	-0.070	0.172
-634.580	-106.684	-0.012	-0.003
-633.565	-200.000	-0.002	-0.089
-632.551	42.355	-0.114	0.105
-631.536	-78.104	-0.164	-0.058
-630.522	-87.424	-0.142	-0.044
-629.507	-67.612	0.202	-0.081
-628.492	137.599	-0.095	0.126
-627.478	126.298	-0.146	-0.188
-626.463	220.869	-0.145	-0.237
-625.449	338.309	-0.117	0.232
-624.434	-200.000	-0.002	-0.165
-623.419	178.785	-0.208	-0.310
-622.405	-170.585	-0.357	0.013
-621.390	135.342	-0.119	0.158
-620.376	-54.332	0.064	0.030
-619.361	561.327	-0.097	-0.238
-618.346	256.562	0.166	-0.291
-617.332	74.426	0.036	0.039
-616.317	800.000	0.045	-0.141
-615.303	-200.000	0.026	0.172
-614.288	-99.030	-0.324	-0.084
-613.273	136.619	-0.087	0.116
-612.259	37.937	0.100	-0.091
-611.244	393.921	0.116	-0.247
-610.230	-168.661	-0.108	0.004
-609.215	-46.581	0.127	0.063
-608.201	800.000	-0.037	0.126
-607.186	-47.518	-0.240	0.119
-606.171	273.791	-0.145	0.261
-605.157	-50.833	0.291	-0.139
-604.142	-200.000	-0.014	-0.257
-603.128	241.871	0.093	0.158
-602.113	-151.919	0.213	0.016
-601.098	164.525	-0.169	-0.242
-600.084	-200.000	-0.047	-0.337
-599.069	-60.470	0.324	0.140
-598.055	-142.942	-0.123	-0.012
-597.040	-68.924	0.131	0.052
-596.025	-129.307	0.069	-0.010
-595.011	-84.452	0.097	0.031
-593.996	178.044	-0.125	0.186
-592.982	-200.000	-0.030	-0.192
-591.967	-24.299	0.143	-0.087
-590.952	-46.540	0.109	0.054
-589.938	216.978	0.159	0.257
-588.923	-33.267	-0.218	-0.123
-587.909	104.239	-0.132	-0.158
-586.894	150.574	0.209	0.289
-585.879	190.708	0.224	-0.343
-584.865	-116.511	-0.025	0.005
-583.850	-20.730	-0.264	-0.165
-582.836	256.435	0.075	-0.131
-581.821	-13.522	0.044	-0.029
-580.806	-200.000	-0.017	-0.082
-579.792	-200.000	0.045	-0.315
-578.777	800.000	0.038	0.150
-577.763	-57.104	0.224	0.100
-576.748	-200.000	0.038	-0.351
-575.733	-58.799	0.322	0.142
-574.719	413.939	-0.151	0.326
-573.704	-200.000	0.001	0.186
-572.690	-200.000	0.006	-0.124
-571.675	-85.421	0.053	0.017
-570.661	142.000	0.145	0.195
-569.646	-84.318	0.372	0.119
-568.631	-136.260	-0.232	-0.028
-567.617	120.987	0.131	0.166
-566.602	134.352	0.025	-0.033
-565.588	39.578	-0.048	-0.044
-564.573	300.630	0.141	-0.264
-563.558	637.060	0.109	0.282
-562.544	27.024	-0.104	-0.088
-561.529	-100.986	0.419	0.105
-560.515	-113.909	-0.363	-0.072
-559.500	138.726	0.134	0.179
-558.485	-200.000	-0.039	-0.241
-557.471	272.274	0.087	-0.157
-556.456	-121.099	0.270	-0.046
-555.442	37.264	0.212	-0.191
-554.427	-131.445	0.126	0.017
-553.412	-112.660	0.394	-0.080
-552.398	-73.755	-0.204	0.075
-551.383	-200.000	-0.010	-0.220
-550.369	747.064	-0.040	0.111
-549.354	445.804	-0.067	-0.149
-548.339	46.343	-0.207	0.195
-547.325	-93.891	-0.253	0.071
-546.310	-66.259	-0.446	0.180
-545.296	488.575	0.101	-0.233
-544.281	162.211	-0.088	-0.126
-543.266	-82.635	0.207	-0.068
-542.252	284.391	0.096	-0.175
-541.237	-72.797	-0.089	0.033
-540.223	-117.762	0.214	0.039
-539.208	-112.637	-0.305	-0.062
-538.193	-200.000	0.018	-0.110
-537.179	-200.000	-0.007	-0.174
-536.164	-70.178	0.103	-0.040
-535.150	-59.938	0.078	0.034
-534.135	-30.894	0.131	-0.075
-533.121	-200.000	0.021	0.202
-532.106	800.000	0.075	-0.258
-531.091	-151.788	0.020	0.002
-530.077	236.358	-0.105	0.177
-529.062	-166.912	0.160	-0.007
-528.048	-44.255	0.183	0.093
-527.033	124.330	0.038	-0.048
-526.018	326.995	-0.086	0.167
-525.004	-99.067	0.467	0.120
-523.989	-100.509	-0.129	-0.032
-522.975	268.751	-0.162	-0.288
-521.960	-4.825	-0.208	0.145
-520.945	4.614	0.209	0.156
-519.931	569.349	0.057	0.141
-518.916	-200.000	0.042	-0.210
-517.902	-200.000	0.025	0.218
-516.887	-101.178	0.133	-0.033
-515.872	22.192	-0.123	-0.102
-514.858	674.959	-0.047	0.122
-513.843	800.000	0.045	0.135
-512.829	-200.000	-0.022	-0.123
-511.814	-200.000	0.049	0.310
-510.799	-83.053	-0.119	-0.039
-509.785	420.594	0.029	0.064
-508.770	-121.608	-0.072	0.012
-507.756	-79.653	-0.280	-0.096
-506.741	-68.649	0.167	0.066
-505.726	-103.044	0.191	0.046
-504.712	800.000	-0.028	0.079
-503.697	682.944	-0.077	0.202
-502.683	-48.454	0.259	0.126
-501.668	-115.879	0.064	0.012
-500.653	23.388	0.194	0.161
-499.639	-200.000	-0.007	0.421
-498.624	744.402	0.061	-0.165
-497.610	-86.042	-0.333	0.104
-496.595	-200.000	-0.020	-0.237
-495.581	-200.000	-0.005	0.259
-494.566	96.973	-0.119	0.139
-493.551	-76.556	0.596	-0.212
-492.537	-200.000	-0.047	0.210
-491.522	-200.000	-0.034	0.176
-490.508	429.933	-0.021	0.047
-489.493	52.179	-0.209	-0.202
-488.478	270.399	0.188	0.335
-487.464	-132.578	-0.014	-0.002
-486.449	408.566	-0.077	0.165
-485.435	252.020	0.067	-0.116
-484.420	-200.000	-0.031	-0.257
-483.405	-147.016	-0.133	0.012
-482.391	800.000	-0.036	0.142
-481.376	-31.037	0.061	-0.035
-480.362	-5.396	-0.036	-0.025
-479.347	104.027	0.122	0.145
-478.332	-1.759	0.061	0.043
-477.318	800.000	0.152	-0.455
-476.303	23.522	-0.067	-0.056
-475.289	-200.000	0.011	-0.140
-474.274	-200.000	-0.042	-0.191
-473.259	-46.180	0.206	0.102
-472.245	84.972	0.292	0.324
-471.230	-195.128	0.132	-0.001
-470.216	-200.000	-0.005	-0.041
-469.201	403.411	0.116	-0.248
-468.186	-200.000	-0.026	-0.350
-467.172	135.436	-0.095	0.125
-466.157	375.758	0.112	-0.230
-465.143	-57.996	-0.270	0.119
-464.128	508.718	0.110	0.258
-463.113	-108.223	-0.289	0.063
-462.099	205.131	-0.070	0.109
-461.084	-200.000	0.438	-0.001
-460.070	94.179	0.104	0.119
-459.055	-64.449	-0.098	0.040
-458.040	96.956	0.077	0.089
-457.026	800.000	0.098	0.300
-456.011	-200.000	-0.028	-0.173
-454.997	145.421	0.092	-0.125
-453.982	609.974	-0.139	0.352
-452.968	713.638	0.108	0.291
-451.953	-130.338	-0.341	0.047
-450.938	-5.542	-0.194	-0.135
-449.924	-154.661	0.196	0.013
-448.909	-101.122	0.100	0.025
-447.895	170.206	-0.082	-0.119
-446.880	45.966	-0.195	-0.182
-445.865	-151.405	-0.343	-0.026
-444.851	-200.000	-0.014	0.071
-443.836	-96.340	-0.096	0.026
-442.822	-23.783	-0.098	-0.059
-441.807	6.360	0.262	0.196
-440.792	-0.451	-0.235	-0.169
-439.778	670.556	0.109	0.287
-438.763	103.045	0.047	-0.055
-437.749	262.629	-0.097	0.170
-436.734	177.561	-0.072	0.106
-435.719	66.509	-0.231	0.238
-434.705	79.179	0.043	-0.046
-433.690	401.362	0.128	0.272
-432.676	-67.311	-0.077	0.031
-431.661	68.403	0.103	0.106
-430.646	800.000	-0.074	-0.212
-429.632	105.389	-0.114	-0.136
-428.617	-122.513	-0.242	0.040
-427.603	376.401	0.018	-0.036
-426.588	-0.741	0.203	0.145
-425.573	-105.724	-0.200	-0.046
-424.559	-104.125	-0.193	-0.045
-423.544	225.788	0.167	0.273
-422.530	-122.322	0.012	-0.002
-421.515	-95.756	-0.247	0.067
-420.500	-14.950	-0.380	-0.246
-419.486	-200.000	-0.021	0.259
-418.471	41.710	0.194	0.178
-417.457	-200.000	-0.006	-0.186
-416.442	146.395	-0.084	-0.114
-415.428	-200.000	0.020	0.310
-414.413	-200.000	0.021	0.110
-413.398	142.939	-0.191	0.257
-412.384	-74.172	-0.223	0.082
-411.369	-200.000	0.021	-0.369
-410.355	-125.737	0.177	-0.027
-409.340	-200.000	-0.114	-0.591
-408.325	800.000	-0.034	-0.122
-407.311	168.339	0.065	0.093
-406.296	-99.651	0.214	-0.054
-405.282	-200.000	-0.006	-0.140
-404.267	117.889	-0.136	0.169
-403.252	-140.677	-0.204	-0.021
-402.238	23.298	0.186	-0.154
-401.223	-128.085	-0.244	0.035
-400.209	-51.093	-0.374	0.177
-399.194	142.519	-0.077	0.103
-398.179	-1.571	0.058	0.041
-397.165	313.873	-0.103	-0.195
-396.150	29.336	-0.177	-0.152
-395.136	-14.796	-0.156	0.101
-394.121	27.977	-0.426	0.363
-393.106	388.717	-0.067	-0.139
-392.092	499.138	0.085	-0.197
-391.077	90.940	-0.226	0.255
-390.063	-93.008	-0.142	0.040
-389.048	-200.000	0.018	0.213
-388.033	-200.000	-0.015	0.157
-387.019	-200.000	-0.007	0.048
-386.004	84.963	0.224	0.248
-384.990	-26.652	-0.173	-0.102
-383.975	559.095	0.112	-0.273
-382.960	227.156	0.048	-0.079
-381.946	272.962	0.026	-0.046
-380.931	800.000	0.049	-0.195
-379.917	-44.488	-0.010	-0.005
-378.902	-39.594	0.375	0.198
-377.888	800.000	0.084	-0.271
-376.873	-157.045	0.145	0.009
-375.858	463.432	-0.020	0.046
-374.844	-74.033	-0.139	0.051
-373.829	-11.235	-0.064	0.042
-372.815	-102.606	0.124	-0.030
-371.800	-33.021	0.115	0.064
-370.785	-6.471	0.160	0.110
-369.771	-200.000	-0.015	-0.124
-368.756	-200.000	-0.021	-0.344
-367.742	-125.481	0.149	-0.023
-366.727	116.622	-0.097	-0.120
-365.712	222.808	-0.132	0.214
-364.698	-200.000	-0.013	-0.139
-363.683	578.288	-0.141	0.348
-362.669	-139.282	0.186	0.020
-361.654	-183.372	0.187	0.003
-360.639	-11.155	-0.311	0.206
-359.625	-200.000	-0.015	0.088
-358.610	-126.543	0.345	-0.052
-357.596	-108.820	-0.355	0.077
-356.581	-130.151	-0.162	0.022
-355.566	151.168	0.195	-0.268
-354.552	-71.844	-0.071	-0.027
-353.537	157.702	0.156	0.218
-352.523	36.510	-0.343	-0.305
-351.508	121.993	-0.121	-0.152
-350.493	163.884	0.134	-0.191
-349.479	-200.000	0.003	0.260
-348.464	172.017	-0.127	0.184
-347.450	-74.917	0.040	-0.015
-346.435	-20.435	0.164	0.101
-345.420	675.955	0.095	0.249
-344.406	-200.000	-0.019	0.087
-343.391	-116.972	-0.230	-0.042
-342.377	-141.542	-0.181	0.018
-341.362	-6.077	0.077	-0.053
-340.348	237.408	-0.169	-0.282
-339.333	-104.297	0.333	-0.078
-338.318	-113.985	-0.475	0.093
-337.304	115.607	-0.121	-0.149
-336.289	2.368	0.066	-0.048
-335.275	116.922	-0.140	-0.173
-334.260	154.084	-0.177	0.245
-333.245	95.697	-0.129	-0.148
-332.231	336.431	-0.065	-0.126
-331.216	413.441	0.120	-0.258
-330.202	-200.000	-0.001	0.039
-329.187	-135.856	0.390	-0.046
-328.172	-200.000	0.025	-0.177
-327.158	-40.530	0.105	-0.055
-326.143	-200.000	0.043	0.193
-325.129	-123.604	-0.061	0.010
-324.114	24.348	-0.124	0.103
-323.099	-200.000	-0.006	0.318
-322.085	-4.614	0.172	0.119
-321.070	147.218	0.278	-0.377
-320.056	60.078	0.225	0.224
-319.041	6.398	0.100	-0.075
-318.026	-200.000	-0.061	-0.401
-317.012	800.000	-0.051	0.203
-315.997	331.285	-0.056	-0.109
-314.983	-200.000	-0.007	-0.128
-313.968	-90.650	0.117	-0.034
-312.953	-36.746	0.082	0.044
-311.939	-18.142	-0.182	-0.115
-310.924	-22.773	-0.190	-0.115
-309.910	16.729	-0.268	-0.213
-308.895	260.606	0.064	0.111
-307.880	-19.652	0.242	0.151
-306.866	-40.833	0.163	0.085
-305.851	-141.953	-0.276	0.028
-304.837	-105.627	0.237	0.054
-303.822	-154.214	-0.261	-0.018
-302.807	238.602	0.034	-0.056
-301.793	-47.586	0.155	-0.076
-300.778	-182.248	0.078	-0.001
-299.764	451.397	-0.044	-0.097
-298.749	-200.000	0.012	0.128
-297.735	148.228	0.126	0.171
-296.720	-66.847	0.171	0.068
-295.705	-68.388	-0.171	-0.067
-294.691	63.328	-0.215	-0.217
-293.676	106.506	-0.221	-0.263
-292.662	-5.606	0.043	-0.030
-291.647	-200.000	-0.044	-0.254
-290.632	226.813	0.017	-0.028
-289.618	17.366	-0.184	0.147
-288.603	58.738	0.175	0.173
-287.589	-22.575	0.335	0.204
-286.574	246.544	0.150	0.254
-285.559	15.301	0.212	-0.167
-284.545	85.310	0.161	0.178
-283.530	-200.000	-0.005	0.239
-282.516	-200.000	-0.017	-0.094
-281.501	-48.201	0.235	-0.114
-280.486	-147.731	0.192	0.016
-279.472	-200.000	-0.044	-0.279
-278.457	-93.806	-0.168	-0.047
-277.443	-26.701	-0.070	0.041
-276.428	800.000	-0.011	-0.044
-275.413	63.249	0.168	0.169
-274.399	-125.336	-0.325	-0.050
-273.384	47.743	-0.170	0.160
-272.370	160.863	0.034	0.048
-271.355	91.157	-0.176	-0.198
-270.340	-200.000	-0.061	-0.403
-269.326	24.576	-0.091	-0.076
-268.311	369.898	-0.108	0.220
-267.297	51.900	0.139	0.133
-266.282	-200.000	-0.006	0.463
-265.267	-68.129	-0.309	-0.121
-264.253	165.752	0.053	0.075
-263.238	331.032	0.095	0.183
-262.224	-200.000	-0.040	0.187
-261.209	-200.000	-0.046	-0.209
-260.195	92.417	0.120	0.136
-259.180	-151.397	-0.230	0.017
-258.165	-146.444	0.136	0.012
-257.151	800.000	0.036	-0.116
-256.136	34.881	0.111	-0.098
-255.122	-90.020	-0.196	-0.057
-254.107	-200.000	0.021	0.249
-253.092	-200.000	-0.001	0.324
-252.078	-200.000	0.013	-0.135
-251.063	-112.097	0.102	0.021
-250.049	-65.477	0.139	0.056
-249.034	-95.530	-0.281	0.076
-248.019	-121.989	-0.093	0.015
-247.005	-85.013	-0.332	-0.104
-245.990	-200.000	0.027	0.148
-244.976	115.824	0.136	-0.167
-243.961	-124.584	-0.257	-0.040
-242.946	223.260	0.152	0.246
-241.932	800.000	0.091	0.307
-240.917	132.656	0.073	0.094
-239.903	-107.023	-0.260	0.058
-238.888	-22.347	0.164	0.099
-237.873	-117.218	-0.132	0.024
-236.859	-200.000	0.015	-0.294
-235.844	139.086	0.024	-0.032
-234.830	-39.850	0.078	0.041
-233.815	-12.228	-0.060	0.039
-232.800	-98.257	0.289	-0.074
-231.786	475.734	0.099	-0.225
-230.771	800.000	0.014	-0.039
-229.757	-120.008	0.239	0.041
-228.742	-107.664	0.109	-0.024
-227.727	2.758	-0.188	-0.137
-226.713	-70.170	0.103	-0.039
-225.698	677.893	-0.076	-0.198
-224.684	-164.690	-0.301	-0.014
-223.669	-51.303	-0.014	0.007
-222.655	800.000	0.034	-0.127
-221.640	227.764	-0.113	0.184
-220.625	-200.000	0.028	-0.143
-219.611	800.000	0.059	-0.237
-218.596	116.703	-0.095	-0.117
-217.582	-93.908	0.235	0.065
-216.567	-32.730	-0.235	0.131
-215.552	-200.000	-0.024	-0.132
-214.538	412.973	-0.019	0.040
-213.523	-37.910	0.358	-0.190
-212.509	-82.939	0.117	0.038
-211.494	307.169	0.040	-0.075
-210.479	-200.000	-0.047	-0.215
-209.465	-200.000	-0.000	-0.062
-208.450	-105.719	0.196	0.044
-207.436	-81.830	-0.158	-0.052
-206.421	50.636	0.078	-0.074
-205.406	-96.927	-0.219	-0.057
-204.392	-13.091	-0.341	0.222
-203.377	-57.851	-0.298	-0.131
-202.363	-200.000	0.089	0.523
-201.348	-82.824	-0.065	0.021
-200.333	-82.125	0.110	-0.036
-199.319	800.000	0.037	-0.114
-198.304	-5.198	0.103	0.071
-197.290	-200.000	-0.040	0.202
-196.275	199.424	0.045	0.069
-195.260	-174.919	0.443	-0.012
-194.246	-94.616	0.158	0.043
-193.231	69.239	0.115	0.118
-192.217	119.593	-0.135	0.167
-191.202	-174.525	0.315	-0.009
-190.187	387.423	0.029	0.060
-189.173	40.704	-0.086	-0.077
-188.158	800.000	-0.104	0.347
-187.144	-51.554	-0.235	-0.110
-186.129	17.026	0.288	-0.228
-185.114	-38.053	-0.287	-0.152
-184.100	-200.000	0.075	0.446
-183.085	-200.000	0.011	0.053
-182.071	-16.240	-0.268	0.170
-181.056	-98.757	0.219	0.056
-180.042	-157.245	0.093	0.006
-179.027	672.781	0.095	0.246
-178.012	-84.242	0.051	0.016
-176.998	-141.707	0.279	0.028
-175.983	-67.046	-0.203	0.080
-174.969	-147.631	0.257	0.022
-173.954	18.201	0.117	0.093
-172.939	314.516	-0.042	0.080
-171.925	-81.274	-0.051	-0.017
-170.910	800.000	-0.084	-0.330
-169.896	263.977	0.116	-0.201
-168.881	365.741	-0.055	0.110
-167.866	-161.380	0.158	0.008
-166.852	800.000	0.052	-0.160
-165.837	-16.413	0.155	-0.098
-164.823	795.445	0.141	-0.388
-163.808	-200.000	0.001	-0.332
-162.793	43.621	0.035	-0.032
-161.779	-92.029	-0.213	-0.060
-160.764	-84.804	-0.271	0.085
-159.750	-97.255	0.178	0.046
-158.735	-177.730	0.177	-0.004
-157.720	-200.000	0.043	0.300
-156.706	800.000	0.017	-0.048
-155.691	-23.746	0.205	0.123
-154.677	211.455	0.175	-0.276
-153.662	-118.905	-0.275	0.048
-152.647	-102.929	-0.250	-0.059
-151.633	150.379	-0.081	0.109
-150.618	233.200	0.087	-0.144
-149.604	668.837	-0.110	0.284
-148.589	-200.000	0.034	-0.172
-147.574	-3.037	-0.038	-0.027
-146.560	55.640	0.070	-0.068
-145.545	-200.000	0.020	0.289
-144.531	378.526	-0.117	-0.239
-143.516	800.000	-0.004	0.019
-142.502	13.884	0.241	0.188
-141.487	-200.000	0.039	-0.307
-140.472	-200.000	0.054	0.344
-139.458	56.023	-0.081	0.079
-138.443	-47.051	-0.099	-0.048
-137.429	-200.000	-0.008	-0.386
-136.414	74.841	-0.128	-0.134
-135.399	-13.522	0.303	-0.196
-134.385	296.322	-0.185	0.339
-133.370	-112.377	0.132	0.026
-132.356	800.000	-0.143	-0.407
-131.341	-103.121	0.284	-0.067
-130.326	94.264	-0.062	0.070
-129.312	-97.124	0.144	0.038
-128.297	129.793	0.211	0.270
-127.283	800.000	0.033	0.134
-126.268	-53.453	0.162	0.074
-125.253	-200.000	-0.022	-0.139
-124.239	-57.067	-0.118	-0.052
-123.224	263.672	-0.149	-0.258
-122.210	-39.685	0.254	-0.133
