DTS Sentinel unit serial number:	SN413079Multiplexer serial number:	ORYXHardware model number:	OX4-SRSoftware version number:	ORYX F/W v4.00 Oryx Data Collector v3.7.2.0data status	okinstallation	princeton_trtdifferential loss correction	single-endedforward channel	channel 4reverse channel	N/Adate	2019/09/14time	03:21:34forward acquisition time	60.00reverse acquisition time	0.00gamma	496.2192k internal	0.2323k external	0.2323temperature offset calibration	1.0131default loss term (dB/km)	0.3790temperature slope calibration	1.0000multiplexer offset coefficient	1.0000multiplexer slope coefficient	1.0000fibre end	0.00T internal ref (°C)	26.62T ext. ref 1 (°C)	3.27T ext. ref 2 (°C)	21.64length (m)	temperature (°C)	Stokes	anti-Stokes-747.200	428.558	-0.113	-0.247
-746.185	-141.671	-0.191	-0.019
-745.171	420.109	0.182	0.394
-744.156	18.944	-0.035	-0.028
-743.142	-200.000	0.001	-0.021
-742.127	-200.000	0.017	0.169
-741.112	-72.082	-0.078	0.029
-740.098	-200.000	-0.003	0.355
-739.083	-49.003	0.360	0.174
-738.069	36.246	-0.225	0.200
-737.054	-102.990	-0.219	-0.052
-736.039	-17.576	-0.342	0.217
-735.025	800.000	-0.030	0.097
-734.010	-53.710	-0.325	0.150
-732.996	170.056	-0.162	0.234
-731.981	-8.493	0.252	0.171
-730.966	-15.148	0.070	0.045
-729.952	-77.560	-0.379	-0.133
-728.937	141.503	-0.104	0.139
-727.923	-98.054	-0.135	0.035
-726.908	74.159	0.071	-0.075
-725.894	800.000	-0.009	0.034
-724.879	29.983	0.253	-0.218
-723.864	-101.533	0.242	0.059
-722.850	-129.502	-0.323	-0.045
-721.835	-22.376	-0.161	0.099
-720.821	18.668	0.367	0.296
-719.806	115.676	-0.191	0.236
-718.791	-200.000	0.011	0.165
-717.777	800.000	0.013	-0.042
-716.762	-107.182	0.397	0.088
-715.748	-38.941	-0.142	0.076
-714.733	800.000	-0.031	-0.093
-713.718	-200.000	0.142	0.000
-712.704	-45.146	-0.210	0.106
-711.689	43.613	-0.357	-0.329
-710.675	-98.589	-0.211	0.054
-709.660	-200.000	-0.011	-0.122
-708.645	296.074	0.116	0.214
-707.631	275.455	0.112	0.200
-706.616	800.000	-0.025	-0.072
-705.602	-200.000	0.013	-0.142
-704.587	-110.362	0.238	-0.050
-703.572	-85.546	-0.335	-0.105
-702.558	-200.000	-0.002	0.235
-701.543	-200.000	-0.036	-0.348
-700.529	-20.163	-0.081	-0.050
-699.514	-200.000	0.061	-0.295
-698.499	43.116	-0.240	0.221
-697.485	-195.163	0.059	0.000
-696.470	-106.658	0.218	0.049
-695.456	69.895	0.160	-0.166
-694.441	-200.000	-0.028	0.175
-693.426	-27.202	0.338	-0.199
-692.412	-10.308	-0.215	0.144
-691.397	-34.784	-0.104	-0.057
-690.383	-2.362	-0.034	0.024
-689.368	-101.265	-0.134	0.033
-688.354	166.306	0.130	0.186
-687.339	-200.000	-0.006	0.098
-686.324	-188.261	-0.223	-0.003
-685.310	-200.000	-0.021	0.293
-684.295	312.113	0.136	-0.258
-683.281	-200.000	0.004	0.045
-682.266	42.102	-0.122	-0.112
-681.251	-24.745	0.327	0.196
-680.237	-100.609	-0.210	-0.052
-679.222	-200.000	-0.061	0.440
-678.208	-29.706	0.186	-0.107
-677.193	113.016	-0.150	-0.183
-676.178	-112.887	-0.381	0.076
-675.164	117.062	0.172	0.213
-674.149	235.229	0.101	0.168
-673.135	-200.000	0.051	0.431
-672.120	-87.767	-0.065	-0.020
-671.105	-166.638	-0.188	0.008
-670.091	66.446	-0.135	0.138
-669.076	-70.448	-0.226	-0.086
-668.062	-200.000	-0.049	-0.259
-667.047	261.132	0.083	0.144
-666.032	113.347	0.070	-0.086
-665.018	-200.000	-0.026	0.216
-664.003	-36.733	-0.256	-0.138
-662.989	-60.664	-0.106	-0.045
-661.974	342.405	-0.089	0.176
-660.959	115.415	-0.131	0.162
-659.945	582.032	-0.124	0.305
-658.930	5.397	0.252	0.187
-657.916	139.823	-0.272	-0.361
-656.901	80.621	-0.254	0.275
-655.886	-40.452	-0.234	0.123
-654.872	-172.162	0.306	-0.010
-653.857	-77.310	-0.113	0.040
-652.843	155.447	-0.124	-0.172
-651.828	-200.000	-0.010	-0.147
-650.814	257.407	0.179	0.310
-649.799	-113.569	-0.069	-0.014
-648.784	800.000	0.176	0.493
-647.770	776.887	0.101	-0.278
-646.755	-200.000	0.007	-0.095
-645.741	-23.374	-0.171	0.103
-644.726	5.525	-0.179	-0.133
-643.711	-117.197	-0.129	0.024
-642.697	-200.000	0.010	-0.163
-641.682	578.362	0.112	-0.276
-640.668	-200.000	-0.019	-0.281
-639.653	-52.322	-0.139	0.065
-638.638	-38.464	0.180	-0.096
-637.624	62.193	-0.185	0.186
-636.609	-163.059	-0.104	-0.005
-635.595	-122.019	0.345	-0.057
-634.580	800.000	0.072	-0.251
-633.565	-200.000	-0.011	0.188
-632.551	-73.195	-0.271	0.100
-631.536	800.000	-0.030	0.108
-630.522	354.575	0.132	-0.264
-629.507	-58.784	-0.102	-0.044
-628.492	681.779	0.056	0.146
-627.478	-24.378	-0.306	0.183
-626.463	199.501	-0.149	0.230
-625.449	10.400	-0.175	0.134
-624.434	239.842	0.087	-0.145
-623.419	-38.960	-0.240	-0.127
-622.405	95.026	0.336	0.384
-621.390	-7.777	-0.394	0.268
-620.376	47.485	0.134	0.126
-619.361	292.873	-0.069	-0.126
-618.346	758.593	0.051	0.138
-617.332	3.290	0.085	0.063
-616.317	-27.686	-0.171	0.100
-615.303	-72.672	0.093	-0.034
-614.288	-108.560	0.113	0.024
-613.273	-92.652	0.029	0.008
-612.259	297.357	0.082	-0.152
-611.244	800.000	-0.110	0.351
-610.230	-127.752	-0.076	-0.011
-609.215	-28.626	-0.187	0.108
-608.201	49.400	0.282	0.266
-607.186	338.086	0.096	0.188
-606.171	-200.000	0.032	0.253
-605.157	222.250	-0.128	-0.207
-604.142	37.927	-0.252	-0.225
-603.128	-58.244	0.002	0.001
-602.113	-8.654	-0.308	-0.208
-601.098	-200.000	0.028	-0.135
-600.084	93.235	0.170	-0.193
-599.069	377.161	0.179	0.368
-598.055	-101.475	-0.192	0.047
-597.040	-140.786	-0.123	0.013
-596.025	800.000	-0.088	-0.330
-595.011	800.000	-0.103	-0.442
-593.996	-90.175	-0.046	-0.013
-592.982	-36.829	-0.255	-0.138
-591.967	-90.318	0.178	0.052
-590.952	4.740	-0.174	0.129
-589.938	-1.549	0.214	-0.151
-588.923	-103.319	-0.117	-0.028
-587.909	-200.000	0.019	-0.228
-586.894	577.858	0.044	0.107
-585.879	-200.000	0.001	0.018
-584.865	163.960	0.173	0.244
-583.850	-151.607	-0.208	-0.015
-582.836	506.992	0.072	-0.168
-581.821	59.492	-0.139	-0.138
-580.806	45.878	-0.162	-0.150
-579.792	410.515	0.152	-0.322
-578.777	-171.619	0.265	-0.009
-577.763	-200.000	0.040	-0.183
-576.748	332.659	-0.185	0.358
-575.733	482.868	0.122	0.279
-574.719	-200.000	-0.031	-0.163
-573.704	-104.800	0.199	0.046
-572.690	319.064	0.085	-0.161
-571.675	244.755	0.147	-0.248
-570.661	800.000	-0.038	-0.142
-569.646	-93.744	0.271	0.075
-568.631	161.065	0.110	-0.154
-567.617	-200.000	0.007	0.084
-566.602	-47.115	-0.164	0.080
-565.588	-138.617	0.309	-0.034
-564.573	-174.385	-0.235	0.007
-563.558	16.599	-0.172	-0.136
-562.544	-171.239	-0.321	-0.011
-561.529	800.000	0.027	0.097
-560.515	-35.391	0.164	0.090
-559.500	344.626	-0.050	0.098
-558.485	27.734	0.135	0.114
-557.471	237.309	-0.060	-0.100
-556.456	-74.887	0.148	-0.053
-555.442	-200.000	0.006	-0.029
-554.427	-87.184	-0.119	0.036
-553.412	480.993	-0.093	-0.211
-552.398	-190.590	-0.016	-0.000
-551.383	-137.054	-0.213	0.024
-550.369	-200.000	-0.013	0.073
-549.354	-48.705	-0.056	-0.027
-548.339	-200.000	-0.008	0.134
-547.325	66.903	-0.179	-0.183
-546.310	-29.591	-0.252	0.144
-545.296	27.995	-0.195	-0.165
-544.281	800.000	0.033	0.114
-543.266	134.921	0.089	0.116
-542.252	268.435	0.058	0.102
-541.237	-74.845	0.365	0.131
-540.223	-53.002	0.176	0.081
-539.208	58.148	0.155	0.152
-538.193	114.663	0.048	-0.059
-537.179	72.673	0.195	-0.204
-536.164	-113.527	0.386	0.076
-535.150	-57.997	-0.197	0.086
-534.135	-52.550	0.088	-0.041
-533.121	-43.369	0.252	-0.127
-532.106	-200.000	-0.009	0.233
-531.091	-200.000	-0.027	-0.227
-530.077	-200.000	-0.048	0.348
-529.062	-200.000	-0.001	-0.240
-528.048	-158.944	0.283	0.016
-527.033	-96.981	-0.117	0.031
-526.018	139.273	-0.281	0.370
-525.004	-76.234	-0.338	-0.119
-523.989	38.947	-0.173	0.155
-522.975	246.148	0.102	0.171
-521.960	46.145	0.201	-0.186
-520.945	-200.000	-0.304	-0.001
-519.931	254.322	-0.041	-0.069
-518.916	-200.000	0.028	0.301
-517.902	-75.483	-0.170	0.060
-516.887	-72.977	0.080	-0.029
-515.872	519.462	-0.093	-0.219
-514.858	125.183	-0.100	0.126
-513.843	-5.049	-0.388	0.267
-512.829	-200.000	0.002	0.093
-511.814	-200.000	0.008	0.071
-510.799	71.342	-0.043	0.044
-509.785	-138.844	-0.216	-0.024
-508.770	-200.000	0.003	0.257
-507.756	-200.000	-0.000	0.256
-506.741	-200.000	0.081	0.357
-505.726	114.691	-0.135	0.164
-504.712	-56.879	-0.078	0.034
-503.697	-200.000	0.058	-0.261
-502.683	11.593	0.249	0.191
-501.668	-73.667	-0.007	-0.002
-500.653	264.135	0.170	0.297
-499.639	-14.414	0.109	0.070
-498.624	800.000	0.038	0.130
-497.610	728.706	0.008	0.020
-496.595	39.784	0.083	-0.074
-495.581	155.926	-0.019	-0.027
-494.566	-58.106	0.180	0.078
-493.551	-200.000	0.032	-0.255
-492.537	-46.895	0.261	-0.128
-491.522	56.718	-0.082	0.080
-490.508	-140.477	0.547	0.057
-489.493	528.081	0.057	0.134
-488.478	126.609	-0.180	0.228
-487.464	800.000	0.068	0.225
-486.449	-57.892	-0.210	0.092
-485.435	402.208	0.162	-0.341
-484.420	-41.164	-0.289	0.149
-483.405	-6.327	-0.302	-0.206
-482.391	-155.200	-0.189	-0.012
-481.376	-41.924	-0.308	-0.158
-480.362	-47.487	-0.178	-0.087
-479.347	170.164	0.088	-0.126
-478.332	-119.455	0.087	0.015
-477.318	-2.157	-0.136	0.095
-476.303	94.868	-0.083	0.095
-475.289	-200.000	-0.055	0.294
-474.274	236.680	0.116	0.192
-473.259	-200.000	0.034	0.179
-472.245	-106.960	-0.113	0.025
-471.230	-43.795	-0.092	-0.046
-470.216	800.000	-0.008	-0.034
-469.201	31.401	-0.282	-0.242
-468.186	29.239	0.189	-0.160
-467.172	800.000	0.088	-0.333
-466.157	55.275	-0.088	-0.085
-465.143	-200.000	-0.049	-0.264
-464.128	800.000	-0.078	-0.330
-463.113	172.962	-0.062	-0.089
-462.099	24.054	0.130	-0.107
-461.084	-200.000	0.037	0.367
-460.070	154.519	0.098	0.134
-459.055	248.878	-0.098	-0.166
-458.040	-132.797	0.110	0.014
-457.026	800.000	0.134	-0.402
-456.011	-200.000	0.123	0.000
-454.997	186.519	-0.167	-0.248
-453.982	-200.000	0.015	-0.134
-452.968	359.967	0.115	0.230
-451.953	240.007	0.102	0.170
-450.938	-129.172	0.179	-0.025
-449.924	-11.336	-0.262	-0.172
-448.909	-200.000	0.020	0.313
-447.895	-149.891	0.289	0.023
-446.880	706.591	-0.103	-0.272
-445.865	-20.959	0.529	0.324
-444.851	-200.000	-0.030	-0.159
-443.836	-43.656	0.314	0.158
-442.822	-23.971	-0.211	0.126
-441.807	12.311	-0.247	0.190
-440.792	-200.000	-0.024	0.380
-439.778	57.956	0.311	0.304
-438.763	-6.641	-0.126	-0.086
-437.749	-200.000	-0.020	-0.340
-436.734	148.190	0.358	0.482
-435.719	-132.399	-0.116	0.015
-434.705	-200.000	0.030	-0.184
-433.690	800.000	0.085	0.285
-432.676	-42.106	0.140	-0.072
-431.661	5.364	-0.111	0.081
-430.646	280.994	-0.120	0.213
-429.632	148.498	-0.091	-0.123
-428.617	-111.278	0.226	-0.046
-427.603	421.008	0.144	-0.308
-426.588	36.926	-0.394	-0.348
-425.573	-27.521	0.211	-0.122
-424.559	-200.000	-0.016	0.277
-423.544	-54.508	-0.327	0.148
-422.530	-185.659	0.195	0.003
-421.515	-76.983	-0.172	-0.060
-420.500	40.991	0.153	0.138
-419.486	449.670	-0.074	-0.164
-418.471	-76.436	0.207	0.073
-417.457	-160.100	-0.082	0.004
-416.442	-75.305	-0.141	0.050
-415.428	-200.000	-0.002	0.137
-414.413	679.270	-0.053	-0.139
-413.398	1.059	0.131	0.094
-412.384	52.629	0.101	-0.096
-411.369	-200.000	0.033	0.297
-410.355	-83.769	0.097	-0.031
-409.340	22.291	-0.103	-0.084
-408.325	-56.632	0.140	-0.062
-407.311	-77.351	-0.095	0.033
-406.296	-200.000	0.001	-0.375
-405.282	27.168	0.145	-0.121
-404.267	-176.098	-0.146	0.004
-403.252	-48.082	0.311	-0.150
-402.238	164.953	-0.199	0.280
-401.223	-200.000	0.078	0.402
-400.209	800.000	0.128	-0.497
-399.194	800.000	-0.090	-0.262
-398.179	101.583	0.177	-0.205
-397.165	57.188	0.112	0.109
-396.150	-21.543	0.273	-0.166
-395.136	800.000	0.080	0.237
-394.121	-82.846	0.022	0.007
-393.106	158.603	0.172	-0.238
-392.092	-87.332	0.227	-0.069
-391.077	-21.419	-0.060	-0.036
-390.063	-200.000	0.004	-0.133
-389.048	197.422	-0.124	-0.188
-388.033	133.487	-0.141	0.182
-387.019	-92.770	-0.017	0.005
-386.004	-5.349	-0.245	-0.167
-384.990	-80.504	-0.311	-0.103
-383.975	-137.605	0.211	0.024
-382.960	-200.000	-0.008	0.168
-381.946	-200.000	-0.012	0.192
-380.931	-120.244	-0.166	0.028
-379.917	-76.010	0.147	0.052
-378.902	-90.959	-0.290	-0.083
-377.888	33.439	-0.049	0.042
-376.873	-151.637	0.172	0.013
-375.858	-169.087	-0.161	-0.006
-374.844	-200.000	0.005	0.070
-373.829	-128.124	-0.333	-0.047
-372.815	-5.344	0.184	0.126
-371.800	800.000	-0.060	0.194
-370.785	205.643	-0.142	-0.219
-369.771	-200.000	-0.002	0.285
-368.756	-136.479	-0.114	-0.013
-367.742	-200.000	0.061	-0.270
-366.727	-62.067	-0.245	0.102
-365.712	-200.000	-0.198	-0.001
-364.698	75.459	-0.097	-0.102
-363.683	303.174	-0.159	-0.292
-362.669	425.275	-0.049	0.105
-361.654	97.614	0.148	-0.170
-360.639	-60.015	-0.434	-0.184
-359.625	-135.752	0.230	0.027
-358.610	800.000	-0.107	0.331
-357.596	-200.000	0.011	-0.053
-356.581	-95.432	-0.116	-0.031
-355.566	-81.007	0.320	0.105
-354.552	-200.000	0.009	-0.105
-353.537	79.841	-0.105	0.112
-352.523	99.702	-0.049	-0.056
-351.508	800.000	-0.069	-0.192
-350.493	-61.280	0.155	-0.065
-349.479	-38.955	0.240	-0.126
-348.464	800.000	-0.057	0.233
-347.450	298.160	0.042	0.076
-346.435	-200.000	0.051	-0.257
-345.420	-51.354	-0.125	0.058
-344.406	800.000	-0.008	-0.029
-343.391	23.554	0.282	-0.230
-342.377	79.083	0.027	-0.029
-341.362	-200.000	-0.019	-0.357
-340.348	130.020	0.088	0.111
-339.333	14.108	0.439	0.340
-338.318	99.044	0.163	-0.187
-337.304	132.487	-0.058	0.074
-336.289	-200.000	-0.020	0.112
-335.275	-200.000	0.009	0.103
-334.260	-106.665	0.100	0.022
-333.245	-76.970	-0.205	-0.071
-332.231	-85.246	-0.136	0.042
-331.216	31.199	0.224	-0.191
-330.202	-95.108	0.258	0.069
-329.187	164.961	-0.133	-0.186
-328.172	495.926	0.031	-0.070
-327.158	72.011	-0.298	0.308
-326.143	-200.000	0.032	0.173
-325.129	-200.000	-0.001	0.107
-324.114	-115.491	-0.410	-0.077
-323.099	-128.705	0.282	0.040
-322.085	115.912	0.119	0.144
-321.070	70.187	0.232	-0.238
-320.056	-200.000	-0.039	0.213
-319.041	-8.292	-0.045	0.030
-318.026	-115.264	-0.368	-0.069
-317.012	-5.895	-0.210	-0.143
-315.997	-140.330	-0.374	-0.039
-314.983	-178.880	-0.170	0.004
-313.968	311.582	-0.061	-0.114
-312.953	1.343	0.189	-0.135
-311.939	-192.995	-0.133	-0.001
-310.924	-200.000	0.005	0.104
-309.910	376.807	0.148	-0.300
-308.895	101.795	-0.049	-0.057
-307.880	-21.036	-0.104	0.063
-306.866	-45.149	0.384	-0.189
-305.851	-98.799	0.293	-0.074
-304.837	800.000	0.050	0.145
-303.822	19.980	-0.034	0.027
-302.807	-31.955	-0.264	0.147
-301.793	229.264	-0.057	-0.092
-300.778	-149.804	0.425	-0.033
-299.764	398.207	-0.127	0.265
-298.749	-12.117	-0.328	0.213
-297.735	-99.963	0.148	0.037
-296.720	14.841	-0.249	-0.194
-295.705	62.452	0.190	-0.188
-294.691	-140.957	-0.266	0.027
-293.676	-141.005	0.079	0.008
-292.662	-200.000	-0.021	-0.334
-291.647	316.728	0.037	-0.069
-290.632	-200.000	0.013	0.079
-289.618	-200.000	-0.020	0.139
-288.603	-78.098	0.163	0.056
-287.589	800.000	0.053	-0.210
-286.574	-200.000	0.004	-0.268
-285.559	-200.000	-0.034	-0.209
-284.545	-43.616	0.211	0.106
-283.530	-200.000	0.005	0.061
-282.516	-98.933	0.174	0.044
-281.501	66.419	-0.093	-0.094
-280.486	-97.537	-0.234	0.060
-279.472	618.330	0.052	-0.130
-278.457	163.625	-0.214	-0.298
-277.443	-38.050	-0.146	0.077
-276.428	522.881	0.036	-0.085
-275.413	-84.997	0.333	0.103
-274.399	295.694	-0.126	0.228
-273.384	-200.000	-0.013	-0.120
-272.370	-139.494	0.451	0.048
-271.355	-14.011	-0.095	-0.061
-270.340	79.083	0.151	0.161
-269.326	-129.819	0.126	-0.017
-268.311	-200.000	-0.003	0.111
-267.297	-184.654	-0.223	-0.004
-266.282	-14.074	0.141	0.090
-265.267	105.309	0.064	-0.075
-264.253	-200.000	-0.006	0.081
-263.238	302.441	-0.134	-0.245
-262.224	-200.000	-0.035	0.283
-261.209	-181.537	0.146	-0.003
-260.195	800.000	-0.111	0.363
-259.180	-144.538	0.188	0.017
-258.165	-200.000	0.012	-0.329
-257.151	800.000	-0.175	0.483
-256.136	-200.000	-0.040	0.217
-255.122	-116.951	0.152	0.028
-254.107	-42.723	-0.148	-0.075
-253.092	302.349	0.085	-0.155
-252.078	-107.414	-0.173	-0.038
-251.063	56.227	-0.275	0.265
-250.049	179.476	-0.065	0.094
-249.034	-200.000	0.044	0.234
-248.019	800.000	0.015	-0.043
-247.005	78.020	0.173	0.183
-245.990	-67.112	0.327	-0.128
-244.976	-128.091	0.240	-0.034
-243.961	-52.472	0.096	-0.044
-242.946	98.729	0.098	0.111
-241.932	-200.000	-0.002	0.096
-240.917	-11.801	-0.158	0.103
-239.903	-13.142	0.362	-0.233
-238.888	-163.871	0.170	0.008
-237.873	-200.000	0.000	-0.079
-236.859	-141.503	-0.249	0.025
-235.844	-133.532	0.066	-0.008
-234.830	45.235	-0.136	0.124
-233.815	-170.473	0.016	0.001
-232.800	-142.079	0.402	0.040
-231.786	142.448	-0.094	-0.124
-230.771	72.720	0.362	0.374
-229.757	205.723	-0.185	-0.285
-228.742	-200.000	-0.025	0.191
-227.727	-82.827	0.413	0.132
-226.713	-128.751	-0.284	-0.040
-225.698	-94.285	-0.179	-0.048
-224.684	-127.995	0.089	-0.013
-223.669	388.354	-0.126	0.259
-222.655	-81.889	-0.271	-0.088
-221.640	58.160	-0.030	-0.030
-220.625	1.499	-0.391	-0.278
-219.611	-98.092	0.163	0.042
-218.596	-13.002	0.104	-0.067
-217.582	-6.554	0.129	0.087
-216.567	740.014	-0.066	-0.174
-215.552	-200.000	-0.009	0.186
-214.538	-200.000	-0.002	0.200
-213.523	713.204	0.089	0.234
-212.509	105.636	0.127	0.148
-211.494	62.751	-0.189	0.187
-210.479	172.837	0.027	-0.038
-209.465	459.121	-0.083	-0.183
-208.450	800.000	0.058	-0.212
-207.436	-200.000	0.025	-0.154
-206.421	-104.288	0.107	-0.024
-205.406	-200.000	0.028	0.147
-204.392	107.722	-0.119	-0.140
-203.377	-66.105	0.229	-0.090
-202.363	-128.224	0.155	-0.022
-201.348	295.135	0.028	0.050
-200.333	133.581	-0.194	0.249
-199.319	8.978	0.216	-0.161
-198.304	58.009	-0.097	0.094
-197.290	270.615	0.057	-0.099
-196.275	-19.933	0.207	-0.127
-195.260	85.551	0.101	-0.110
-194.246	-58.406	-0.341	-0.147
-193.231	-107.549	0.164	0.035
-192.217	-70.557	-0.203	-0.076
-191.202	-200.000	0.000	0.007
-190.187	380.834	0.100	-0.203
-189.173	-200.000	-0.020	-0.220
-188.158	-200.000	-0.020	0.155
-187.144	-65.869	-0.308	0.122
-186.129	-200.000	0.040	-0.375
-185.114	-200.000	-0.000	0.109
-184.100	-121.646	0.326	-0.053
-183.085	-56.442	-0.156	0.069
-182.071	-162.197	-0.204	0.010
-181.056	-11.909	0.157	-0.102
-180.042	216.163	0.091	-0.144
-179.027	-136.542	0.411	0.047
-178.012	-170.497	-0.319	0.011
-176.998	-38.964	0.349	-0.181
-175.983	-185.235	-0.251	-0.004
-174.969	800.000	0.010	0.033
-173.954	-200.000	0.008	-0.181
-172.939	537.373	-0.166	-0.390
-171.925	-200.000	0.033	0.210
-170.910	-35.443	-0.244	0.131
-169.896	490.456	0.012	-0.028
-168.881	-66.831	0.079	-0.031
-167.866	24.878	-0.248	0.203
-166.852	800.000	0.069	-0.191
-165.837	-200.000	-0.006	-0.068
-164.823	-138.501	-0.262	-0.028
-163.808	33.641	-0.056	-0.048
-162.793	0.225	-0.175	0.123
-161.779	-50.974	0.226	-0.105
-160.764	800.000	-0.032	0.103
-159.750	-84.273	-0.229	-0.072
-158.735	97.070	0.149	0.169
-157.720	435.110	-0.114	-0.246
-156.706	-100.047	0.441	-0.109
-155.691	-93.109	0.003	-0.001
-154.677	-200.000	0.020	-0.183
-153.662	6.141	0.273	0.200
-152.647	-77.515	0.210	0.072
-151.633	-69.821	-0.289	-0.109
-150.618	306.584	0.098	-0.181
-149.604	79.165	0.300	0.317
-148.589	-200.000	0.035	0.275
-147.574	800.000	-0.052	0.157
-146.560	260.325	-0.191	0.326
-145.545	-36.437	0.102	0.054
-144.531	-2.091	-0.131	0.091
-143.516	800.000	0.098	0.311
-142.502	-200.000	0.010	0.160
-141.487	800.000	0.030	0.107
-140.472	-200.000	0.002	-0.061
-139.458	135.313	-0.118	0.151
-138.443	213.244	0.244	0.381
-137.429	800.000	-0.042	-0.174
-136.414	179.799	0.200	-0.289
-135.399	-62.789	0.128	-0.052
-134.385	145.062	0.017	-0.022
-133.370	143.615	-0.158	0.207
-132.356	-200.000	0.043	0.381
-131.341	26.031	0.038	0.031
-130.326	-200.000	-0.073	-0.347
-129.312	42.256	0.291	-0.260
-128.297	695.493	0.189	-0.489
-127.283	-73.854	0.089	-0.032
-126.268	-94.810	0.235	-0.063
-125.253	-61.470	-0.157	0.065
-124.239	800.000	-0.092	-0.253
-123.224	-77.476	0.203	-0.070
-122.210	87.176	0.060	-0.066
