DTS Sentinel unit serial number:	SN413079Multiplexer serial number:	ORYXHardware model number:	OX4-SRSoftware version number:	ORYX F/W v4.00 Oryx Data Collector v3.7.2.0data status	okinstallation	princeton_trtdifferential loss correction	single-endedforward channel	channel 4reverse channel	N/Adate	2019/09/17time	14:29:35forward acquisition time	60.00reverse acquisition time	0.00gamma	496.2192k internal	0.2295k external	0.2295temperature offset calibration	0.9986default loss term (dB/km)	0.3790temperature slope calibration	1.0000multiplexer offset coefficient	1.0000multiplexer slope coefficient	1.0000fibre end	0.00T internal ref (°C)	36.44T ext. ref 1 (°C)	0.40T ext. ref 2 (°C)	33.51length (m)	temperature (°C)	Stokes	anti-Stokes-747.200	23.708	-0.070	0.059
-746.185	-200.000	0.002	0.261
-745.171	158.633	-0.116	0.165
-744.156	3.134	-0.027	0.020
-743.142	-26.198	0.343	0.206
-742.127	262.227	-0.194	0.343
-741.112	449.434	-0.093	0.209
-740.098	-200.000	-0.026	0.359
-739.083	-44.712	-0.198	0.101
-738.069	256.641	-0.197	0.345
-737.054	-149.907	-0.097	0.008
-736.039	-134.453	-0.269	-0.034
-735.025	-132.615	0.392	0.051
-734.010	112.075	-0.059	0.073
-732.996	-154.940	-0.132	-0.009
-731.981	-200.000	0.033	-0.175
-730.966	-99.273	-0.254	-0.066
-729.952	36.491	0.380	-0.343
-728.937	-200.000	0.004	-0.141
-727.923	800.000	0.018	-0.079
-726.908	-2.154	0.196	-0.140
-725.894	349.507	-0.094	-0.189
-724.879	-200.000	-0.004	0.308
-723.864	-144.729	0.175	0.016
-722.850	27.976	0.092	-0.079
-721.835	800.000	0.078	0.286
-720.821	86.144	-0.131	0.147
-719.806	134.557	-0.158	0.209
-718.791	-159.419	0.417	-0.024
-717.777	800.000	-0.030	-0.102
-716.762	-10.547	-0.305	-0.206
-715.748	-87.454	-0.312	-0.096
-714.733	-33.647	0.141	-0.079
-713.718	319.140	0.101	-0.195
-712.704	-35.346	-0.192	-0.107
-711.689	430.387	0.090	-0.199
-710.675	-11.560	-0.172	-0.115
-709.660	-51.184	-0.162	0.078
-708.645	-158.250	-0.207	0.012
-707.631	-94.904	-0.170	-0.047
-706.616	-142.998	0.105	0.010
-705.602	-67.802	-0.146	-0.058
-704.587	-38.297	-0.121	0.065
-703.572	238.951	0.103	-0.174
-702.558	-78.185	-0.286	0.100
-701.543	84.380	-0.132	0.147
-700.529	512.724	0.157	0.374
-699.514	27.972	0.200	0.172
-698.499	800.000	-0.030	-0.099
-697.485	80.014	-0.162	-0.178
-696.470	167.146	0.153	0.222
-695.456	141.180	0.213	-0.288
-694.441	800.000	-0.020	0.085
-693.426	6.418	-0.261	-0.198
-692.412	-43.641	0.141	-0.072
-691.397	800.000	-0.065	-0.206
-690.383	-200.000	0.070	-0.434
-689.368	-200.000	0.004	-0.303
-688.354	-32.031	-0.360	0.206
-687.339	-121.923	0.278	-0.047
-686.324	653.801	0.206	-0.538
-685.310	-77.247	-0.062	0.022
-684.295	-32.897	-0.066	0.037
-683.281	-182.689	0.364	-0.007
-682.266	-100.494	-0.196	0.049
-681.251	2.984	0.170	-0.126
-680.237	-200.000	0.005	-0.237
-679.222	-66.559	-0.095	-0.038
-678.208	33.362	-0.199	0.176
-677.193	-138.468	0.284	-0.032
-676.178	245.574	-0.083	0.142
-675.164	-87.619	-0.410	0.126
-674.149	-200.000	-0.000	0.220
-673.135	100.263	-0.048	-0.056
-672.120	-100.738	0.216	0.054
-671.105	-46.067	-0.287	0.144
-670.091	800.000	-0.029	-0.083
-669.076	-126.254	-0.124	0.019
-668.062	-146.808	-0.534	0.047
-667.047	10.420	-0.371	0.288
-666.032	-200.000	-0.078	0.424
-665.018	-200.000	-0.027	-0.225
-664.003	-200.000	0.039	0.292
-662.989	-48.364	0.261	0.128
-661.974	-200.000	-0.049	-0.242
-660.959	-2.487	0.174	-0.124
-659.945	-64.001	-0.051	-0.021
-658.930	800.000	-0.006	0.021
-657.916	404.765	0.048	-0.103
-656.901	192.810	0.183	-0.282
-655.886	800.000	0.037	-0.156
-654.872	-200.000	0.005	-0.222
-653.857	-200.000	0.040	-0.519
-652.843	99.076	0.209	-0.246
-651.828	22.081	-0.128	0.106
-650.814	-8.910	-0.112	-0.077
-649.799	-58.112	0.185	-0.082
-648.784	52.528	-0.158	-0.153
-647.770	120.668	-0.201	0.254
-646.755	611.414	0.121	0.307
-645.741	-58.303	-0.373	-0.165
-644.726	-127.102	0.144	0.021
-643.711	113.719	0.042	0.052
-642.697	-200.000	-0.035	0.173
-641.682	800.000	0.097	0.303
-640.668	-200.000	-0.012	-0.325
-639.653	270.286	-0.154	-0.276
-638.638	-200.000	0.040	0.201
-637.624	800.000	0.066	0.270
-636.609	51.872	-0.091	0.089
-635.595	62.181	0.121	0.123
-634.580	-93.569	0.226	-0.063
-633.565	-200.000	0.013	0.207
-632.551	-76.445	-0.146	-0.052
-631.536	800.000	0.104	0.314
-630.522	8.723	-0.098	-0.075
-629.507	800.000	0.021	-0.086
-628.492	218.689	0.146	-0.238
-627.478	12.429	0.097	-0.076
-626.463	-101.017	-0.271	-0.068
-625.449	-34.849	-0.161	-0.089
-624.434	23.157	-0.230	-0.192
-623.419	254.853	0.048	0.084
-622.405	800.000	-0.047	0.205
-621.390	459.563	0.101	0.229
-620.376	-200.000	-0.004	-0.163
-619.361	-200.000	0.003	-0.149
-618.346	39.597	0.067	-0.061
-617.332	-200.000	0.002	0.242
-616.317	800.000	0.072	-0.234
-615.303	-88.671	-0.243	0.073
-614.288	294.074	-0.019	0.035
-613.273	40.502	-0.073	-0.067
-612.259	-39.775	-0.100	0.053
-611.244	-2.458	-0.384	0.273
-610.230	-200.000	0.074	0.000
-609.215	-195.529	0.141	0.001
-608.201	9.013	0.158	-0.121
-607.186	22.451	0.263	-0.219
-606.171	513.284	0.096	-0.227
-605.157	-42.162	0.200	-0.104
-604.142	-200.000	-0.028	0.330
-603.128	-141.810	-0.070	-0.007
-602.113	800.000	0.069	-0.216
-601.098	-144.335	-0.110	0.010
-600.084	-105.749	-0.349	0.080
-599.069	188.310	-0.107	-0.162
-598.055	386.007	0.108	-0.227
-597.040	11.361	0.233	-0.181
-596.025	131.831	0.051	0.067
-595.011	-200.000	-0.027	-0.513
-593.996	303.377	-0.218	-0.410
-592.982	94.874	-0.100	0.115
-591.967	51.291	-0.110	0.106
-590.952	83.767	-0.083	-0.092
-589.938	25.589	0.274	-0.231
-588.923	-139.349	-0.273	-0.030
-587.909	261.430	-0.115	-0.202
-586.894	252.722	0.034	0.059
-585.879	-144.407	0.174	0.016
-584.865	-127.685	-0.298	0.044
-583.850	1.525	0.224	-0.164
-582.836	128.961	-0.045	0.058
-581.821	680.018	-0.086	-0.228
-580.806	-92.665	-0.345	-0.098
-579.792	217.505	-0.090	-0.146
-578.777	-84.757	-0.109	-0.035
-577.763	68.481	0.161	0.167
-576.748	161.913	-0.164	-0.233
-575.733	-81.785	0.107	0.036
-574.719	800.000	-0.096	0.413
-573.704	-127.532	0.333	0.049
-572.690	-173.384	-0.107	0.003
-571.675	-200.000	-0.018	0.093
-570.661	-152.874	0.197	0.014
-569.646	132.193	0.170	-0.223
-568.631	-31.976	-0.196	-0.111
-567.617	800.000	0.019	-0.081
-566.602	-43.937	0.433	0.221
-565.588	514.124	0.054	0.128
-564.573	-63.776	-0.204	-0.085
-563.558	-39.058	0.165	0.088
-562.544	17.699	0.072	0.058
-561.529	800.000	-0.095	0.295
-560.515	408.454	-0.070	0.151
-559.500	256.630	-0.152	-0.265
-558.485	589.855	0.066	-0.165
-557.471	-200.000	-0.009	0.051
-556.456	-56.764	0.017	0.007
-555.442	800.000	0.051	-0.188
-554.427	-200.000	0.022	0.140
-553.412	-200.000	-0.015	-0.195
-552.398	-88.399	-0.190	-0.058
-551.383	234.047	0.095	0.159
-550.369	-135.885	0.214	0.026
-549.354	-10.080	-0.146	-0.099
-548.339	51.304	0.339	-0.327
-547.325	119.773	-0.082	-0.104
-546.310	2.478	-0.290	-0.213
-545.296	46.895	-0.206	-0.194
-544.281	-72.274	-0.195	0.073
-543.266	-137.966	-0.070	-0.008
-542.252	800.000	0.062	-0.197
-541.237	-91.534	0.119	0.034
-540.223	-200.000	-0.044	-0.200
-539.208	140.394	-0.057	0.076
-538.193	-200.000	-0.018	-0.113
-537.179	-51.745	-0.291	0.138
-536.164	-108.493	0.131	-0.028
-535.150	-37.002	-0.200	0.109
-534.135	-167.392	-0.372	-0.015
-533.121	-17.341	-0.168	0.107
-532.106	34.835	0.108	0.096
-531.091	-200.000	-0.008	-0.042
-530.077	75.539	0.147	-0.157
-529.062	-200.000	-0.029	-0.142
-528.048	-28.799	-0.221	0.129
-527.033	-50.689	-0.046	-0.022
-526.018	-79.278	-0.343	0.118
-525.004	800.000	0.066	-0.221
-523.989	-108.310	0.098	0.021
-522.975	800.000	-0.072	0.295
-521.960	39.113	-0.125	0.114
-520.945	-153.648	-0.171	0.012
-519.931	551.782	-0.060	-0.147
-518.916	-22.495	-0.122	0.075
-517.902	-200.000	0.038	-0.267
-516.887	766.372	-0.051	0.141
-515.872	-108.685	0.070	0.015
-514.858	34.514	-0.008	0.007
-513.843	113.378	0.231	-0.284
-512.829	-200.000	-0.045	-0.393
-511.814	15.634	0.171	0.136
-510.799	143.039	-0.123	-0.166
-509.785	226.270	0.243	-0.399
-508.770	-5.657	-0.305	0.211
-507.756	154.840	-0.296	0.411
-506.741	-28.962	-0.371	0.216
-505.726	-127.968	0.145	-0.021
-504.712	-200.000	-0.061	-0.331
-503.697	86.019	-0.167	-0.186
-502.683	-21.846	0.194	-0.119
-501.668	-160.767	-0.396	0.021
-500.653	12.114	0.199	-0.155
-499.639	-89.931	-0.119	-0.035
-498.624	92.518	0.317	-0.363
-497.610	-8.737	-0.315	0.214
-496.595	277.677	0.062	-0.112
-495.581	101.476	-0.166	-0.196
-494.566	800.000	-0.087	0.300
-493.551	-76.832	-0.384	0.136
-492.537	50.157	-0.124	0.119
-491.522	-118.002	-0.045	0.008
-490.508	-42.333	-0.129	-0.067
-489.493	308.985	0.090	-0.170
-488.478	-200.000	-0.041	0.276
-487.464	72.260	0.183	0.193
-486.449	-24.703	-0.190	-0.114
-485.435	-136.905	0.064	-0.007
-484.420	-128.357	0.403	-0.058
-483.405	221.927	-0.146	-0.238
-482.391	-62.576	-0.399	0.167
-481.376	-167.983	0.439	0.017
-480.362	-115.963	-0.454	-0.086
-479.347	355.431	0.080	0.161
-478.332	657.278	0.046	0.119
-477.318	-74.761	-0.277	0.101
-476.303	-200.000	0.015	-0.089
-475.289	30.610	-0.291	0.252
-474.274	151.067	-0.157	0.216
-473.259	-71.301	-0.599	-0.227
-472.245	800.000	0.124	-0.416
-471.230	800.000	-0.067	-0.203
-470.216	527.357	0.135	-0.321
-469.201	800.000	-0.144	0.407
-468.186	-139.944	0.141	-0.015
-467.172	800.000	0.060	-0.196
-466.157	83.574	-0.135	0.149
-465.143	-10.892	-0.115	0.076
-464.128	-186.323	-0.067	0.001
-463.113	-18.032	0.338	-0.214
-462.099	-186.954	-0.060	0.001
-461.084	-200.000	-0.066	0.336
-460.070	132.319	0.147	0.192
-459.055	0.302	0.347	0.251
-458.040	-33.912	-0.311	0.173
-457.026	24.295	0.193	0.161
-456.011	470.770	-0.130	0.295
-454.997	43.120	0.211	-0.195
-453.982	85.807	-0.140	0.155
-452.968	226.199	0.157	-0.257
-451.953	23.308	-0.173	0.143
-450.938	800.000	0.039	0.168
-449.924	-0.375	0.075	-0.054
-448.909	20.511	0.152	-0.124
-447.895	-34.626	0.184	-0.101
-446.880	682.268	-0.066	0.174
-445.865	330.085	-0.038	0.073
-444.851	183.364	-0.063	-0.094
-443.836	-53.575	0.092	-0.043
-442.822	-25.102	0.099	-0.060
-441.807	-2.875	-0.066	0.047
-440.792	192.786	0.104	-0.159
-439.778	800.000	-0.094	0.327
-438.763	-3.675	-0.155	-0.109
-437.749	0.659	-0.099	0.071
-436.734	36.710	-0.064	-0.057
-435.719	-200.000	0.024	-0.342
-434.705	-183.726	0.467	0.008
-433.690	27.138	-0.118	-0.100
-432.676	-93.790	-0.109	0.030
-431.661	101.646	-0.211	0.249
-430.646	800.000	0.148	0.463
-429.632	-200.000	-0.044	0.231
-428.617	222.877	0.088	-0.144
-427.603	-87.446	0.514	-0.157
-426.588	800.000	0.039	0.123
-425.573	-200.000	-0.020	-0.147
-424.559	-38.276	-0.230	-0.123
-423.544	-145.042	0.317	-0.029
-422.530	-103.903	-0.368	0.087
-421.515	-107.631	0.256	-0.056
-420.500	-116.108	0.092	-0.017
-419.486	-48.580	0.161	0.078
-418.471	105.560	-0.132	0.158
-417.457	-200.000	0.051	0.237
-416.442	62.825	-0.215	0.217
-415.428	800.000	0.020	0.080
-414.413	3.015	-0.218	-0.160
-413.398	-172.951	0.102	-0.003
-412.384	99.467	-0.117	0.137
-411.369	-37.287	-0.015	-0.008
-410.355	26.170	-0.105	0.088
-409.340	-140.819	0.152	-0.016
-408.325	800.000	0.060	0.258
-407.311	247.265	0.082	-0.139
-406.296	-140.309	0.221	0.023
-405.282	-66.636	0.289	0.115
-404.267	800.000	0.124	0.370
-403.252	158.351	0.038	0.054
-402.238	9.458	0.265	-0.203
-401.223	-134.964	-0.145	-0.018
-400.209	21.966	0.197	-0.162
-399.194	800.000	0.077	0.233
-398.179	-131.927	0.238	-0.031
-397.165	800.000	0.027	0.094
-396.150	-140.944	-0.258	0.027
-395.136	237.715	0.130	0.218
-394.121	248.849	0.111	-0.190
-393.106	-170.721	0.155	-0.005
-392.092	321.811	0.071	0.137
-391.077	-63.251	0.282	0.117
-390.063	-97.111	-0.157	-0.041
-389.048	592.786	-0.063	-0.157
-388.033	-20.699	0.307	-0.190
-387.019	-0.303	-0.205	0.147
-386.004	-200.000	-0.087	0.392
-384.990	154.790	0.087	0.120
-383.975	-72.611	-0.072	0.027
-382.960	-200.000	-0.065	-0.324
-381.946	800.000	0.020	-0.064
-380.931	34.072	-0.352	0.309
-379.917	297.346	0.065	0.119
-378.902	-200.000	-0.023	0.120
-377.888	686.298	-0.059	-0.154
-376.873	-74.645	-0.182	-0.066
-375.858	138.864	0.092	-0.122
-374.844	-40.675	0.204	0.107
-373.829	-200.000	-0.014	0.069
-372.815	102.714	0.072	-0.084
-371.800	67.258	0.230	-0.236
-370.785	-200.000	0.020	-0.386
-369.771	-200.000	-0.012	-0.439
-368.756	-151.825	0.120	0.009
-367.742	95.136	0.216	-0.248
-366.727	-53.744	0.223	0.102
-365.712	-60.968	-0.103	0.044
-364.698	-74.003	0.289	0.105
-363.683	800.000	-0.043	-0.178
-362.669	596.983	-0.091	0.228
-361.654	-22.204	0.168	-0.102
-360.639	-118.270	0.207	-0.037
-359.625	262.948	-0.079	-0.138
-358.610	-38.357	0.246	0.131
-357.596	-98.964	0.372	0.095
-356.581	-100.537	-0.046	-0.011
-355.566	-155.048	0.268	0.018
-354.552	76.883	0.132	-0.142
-353.537	-15.970	0.393	-0.252
-352.523	130.988	-0.252	0.326
-351.508	-84.658	-0.192	0.061
-350.493	-38.192	0.163	-0.087
-349.479	-26.811	-0.376	0.221
-348.464	800.000	0.008	-0.032
-347.450	-123.736	0.140	0.022
-346.435	-91.410	0.184	0.053
-345.420	595.048	-0.049	-0.122
-344.406	-200.000	-0.175	-0.000
-343.391	-102.182	-0.105	-0.026
-342.377	-60.982	0.256	0.109
-341.362	153.365	0.119	-0.163
-340.348	155.132	-0.080	0.111
-339.333	-200.000	0.012	0.474
-338.318	35.386	0.086	-0.076
-337.304	800.000	-0.070	0.255
-336.289	34.025	0.059	0.052
-335.275	12.809	0.077	0.060
-334.260	272.009	0.054	0.096
-333.245	-200.000	-0.001	0.188
-332.231	800.000	0.039	-0.123
-331.216	-47.332	-0.195	-0.095
-330.202	-87.522	0.132	-0.040
-329.187	-23.634	0.092	-0.056
-328.172	111.203	-0.187	-0.227
-327.158	567.973	0.122	-0.297
-326.143	183.586	-0.139	0.207
-325.129	237.013	-0.230	-0.384
-324.114	16.616	-0.252	0.200
-323.099	800.000	-0.022	-0.069
-322.085	-27.994	-0.075	0.043
-321.070	800.000	-0.028	0.082
-320.056	-184.931	-0.284	-0.005
-319.041	99.076	0.055	-0.064
-318.026	-200.000	0.040	-0.293
-317.012	800.000	-0.040	0.166
-315.997	800.000	0.144	-0.484
-314.983	-148.239	-0.243	-0.020
-313.968	800.000	-0.041	-0.139
-312.953	800.000	0.042	0.142
-311.939	-80.390	0.132	-0.044
-310.924	-6.423	0.130	-0.089
-309.910	39.286	-0.061	0.055
-308.895	35.523	-0.203	0.179
-307.880	-200.000	0.139	-0.001
-306.866	-174.885	0.378	-0.011
-305.851	-99.039	0.035	0.009
-304.837	19.664	0.154	0.124
-303.822	60.650	0.115	0.115
-302.807	44.500	0.179	-0.165
-301.793	-200.000	0.040	-0.316
-300.778	770.427	-0.147	0.401
-299.764	257.675	0.094	-0.163
-298.749	90.949	-0.109	0.123
-297.735	-200.000	-0.035	0.181
-296.720	171.045	0.115	-0.166
-295.705	212.492	0.194	0.308
-294.691	800.000	0.086	0.248
-293.676	-48.416	-0.472	-0.228
-292.662	-75.205	0.261	0.094
-291.647	402.662	-0.092	0.194
-290.632	135.941	0.234	-0.307
-289.618	499.995	0.151	0.349
-288.603	-55.861	-0.238	-0.107
-287.589	-112.507	0.457	-0.092
-286.574	52.197	0.230	0.220
-285.559	800.000	0.155	0.476
-284.545	3.075	-0.154	0.113
-283.530	-30.837	-0.398	0.226
-282.516	195.534	-0.060	-0.092
-281.501	21.762	-0.076	0.062
-280.486	-200.000	0.036	-0.198
-279.472	0.685	0.141	-0.101
-278.457	63.760	0.186	-0.187
-277.443	-102.604	0.142	-0.034
-276.428	-200.000	0.008	-0.068
-275.413	-39.949	0.349	0.183
-274.399	-99.345	-0.332	-0.084
-273.384	-60.651	0.246	-0.105
-272.370	-180.230	-0.161	-0.003
-271.355	525.958	0.081	-0.192
-270.340	-7.177	0.147	0.100
-269.326	-36.576	-0.097	-0.052
-268.311	-47.142	0.106	0.052
-267.297	274.168	0.156	0.278
-266.282	134.739	0.096	0.124
-265.267	132.658	-0.154	0.199
-264.253	434.189	0.179	0.390
-263.238	-118.889	0.146	-0.026
-262.224	-200.000	-0.010	0.048
-261.209	-200.000	-0.016	0.259
-260.195	-50.386	0.358	-0.169
-259.180	100.712	0.061	0.072
-258.165	-29.204	0.037	-0.021
-257.151	-52.472	0.103	-0.048
-256.136	-200.000	0.011	-0.075
-255.122	40.009	0.133	-0.120
-254.107	-138.648	0.096	0.011
-253.092	-68.124	0.340	-0.133
-252.078	-123.823	-0.142	-0.023
-251.063	-200.000	0.000	-0.024
-250.049	800.000	-0.120	0.370
-249.034	515.306	-0.125	0.294
-248.019	124.746	0.204	0.258
-247.005	-38.812	-0.139	0.074
-245.990	31.400	0.181	-0.156
-244.976	800.000	0.079	-0.256
-243.961	-150.680	0.062	-0.005
-242.946	-78.452	0.360	0.123
-241.932	-115.574	-0.117	0.022
-240.917	220.608	-0.025	-0.040
-239.903	276.205	0.061	-0.108
-238.888	800.000	0.024	-0.080
-237.873	-162.829	-0.213	0.010
-236.859	-90.818	0.271	0.078
-235.844	130.690	-0.088	-0.114
-234.830	800.000	0.138	-0.421
-233.815	-140.579	-0.201	-0.021
-232.800	-184.018	-0.623	-0.010
-231.786	800.000	-0.046	-0.147
-230.771	-77.636	-0.180	0.062
-229.757	527.959	0.090	-0.214
-228.742	73.208	-0.292	-0.306
-227.727	63.756	0.246	-0.248
-226.713	-22.191	-0.092	-0.056
-225.698	728.412	0.042	0.113
-224.684	-200.000	-0.004	-0.075
-223.669	573.557	0.116	-0.283
-222.655	-147.091	-0.277	0.024
-221.640	800.000	0.006	-0.024
-220.625	-200.000	-0.016	-0.121
-219.611	-200.000	0.007	0.184
-218.596	-108.769	-0.089	-0.019
-217.582	180.248	-0.095	-0.139
-216.567	-200.000	0.003	0.145
-215.552	74.093	0.080	0.084
-214.538	66.558	0.134	-0.137
-213.523	-200.000	-0.262	-0.000
-212.509	150.354	-0.106	-0.144
-211.494	-7.383	-0.053	-0.036
-210.479	-142.369	-0.163	0.016
-209.465	-58.096	-0.071	-0.031
-208.450	-61.456	-0.184	-0.077
-207.436	117.197	0.055	-0.068
-206.421	-51.603	0.321	0.150
-205.406	-200.000	0.011	0.154
-204.392	-154.799	-0.349	0.023
-203.377	19.875	-0.252	0.203
-202.363	64.220	-0.078	0.078
-201.348	-200.000	-0.029	0.253
-200.333	-200.000	0.014	-0.061
-199.319	-95.331	-0.403	-0.108
-198.304	800.000	-0.129	0.381
-197.290	-44.292	-0.132	-0.066
-196.275	-200.000	0.004	-0.124
-195.260	16.191	-0.201	0.159
-194.246	-128.355	0.111	-0.016
-193.231	-83.335	0.169	0.054
-192.217	240.472	0.088	0.147
-191.202	-148.186	0.185	0.015
-190.187	41.075	0.103	-0.093
-189.173	800.000	-0.064	-0.255
-188.158	-1.809	-0.068	0.048
-187.144	-200.000	-0.007	0.128
-186.129	-59.427	-0.155	-0.066
-185.114	435.901	0.098	0.213
-184.100	521.706	-0.082	-0.193
-183.085	-146.614	-0.014	0.001
-182.071	-24.378	-0.206	0.123
-181.056	800.000	0.053	0.201
-180.042	163.719	-0.132	0.186
-179.027	-108.502	0.269	0.058
-178.012	-200.000	0.004	-0.081
-176.998	-96.567	0.459	-0.121
-175.983	-200.000	-0.035	0.234
-174.969	229.101	-0.048	-0.079
-173.954	60.538	0.217	-0.215
-172.939	-200.000	0.047	-0.212
-171.925	-124.219	-0.089	-0.014
-170.910	346.367	-0.077	-0.151
-169.896	-129.133	0.268	0.037
-168.881	508.760	-0.073	-0.169
-167.866	35.093	0.212	-0.185
-166.852	55.827	0.198	0.191
-165.837	800.000	-0.062	-0.179
-164.823	64.931	-0.194	-0.195
-163.808	-5.622	-0.154	0.106
-162.793	-10.669	0.040	-0.027
-161.779	-200.000	-0.044	0.203
-160.764	-200.000	-0.024	-0.183
-159.750	-39.049	0.160	0.084
-158.735	54.453	0.161	-0.155
-157.720	23.111	-0.092	0.076
-156.706	-0.862	-0.262	0.185
-155.691	175.916	-0.126	-0.183
-154.677	-3.693	0.319	0.222
-153.662	221.358	-0.163	0.261
-152.647	800.000	0.097	0.344
-151.633	-60.503	-0.112	-0.047
-150.618	-200.000	-0.039	0.189
-149.604	800.000	-0.022	0.067
-148.589	162.687	0.092	0.128
-147.574	800.000	-0.054	0.152
-146.560	-34.821	-0.060	-0.033
-145.545	-200.000	-0.020	0.160
-144.531	262.988	-0.075	-0.129
-143.516	-200.000	0.045	0.335
-142.502	176.492	-0.046	-0.066
-141.487	338.490	0.131	-0.254
-140.472	-100.489	-0.282	-0.070
-139.458	124.717	0.145	-0.183
-138.443	800.000	-0.101	-0.398
-137.429	57.134	-0.265	-0.258
-136.414	-123.110	-0.196	0.031
-135.399	52.999	0.055	-0.053
-134.385	-26.170	0.252	-0.148
-133.370	290.127	-0.180	-0.327
-132.356	-156.796	-0.328	-0.020
-131.341	-200.000	-0.031	0.371
-130.326	-15.959	-0.393	0.249
-129.312	-112.403	0.082	-0.016
-128.297	-104.999	0.272	-0.062
-127.283	511.164	0.058	0.134
-126.268	-13.315	0.280	-0.181
-125.253	464.052	-0.086	-0.193
-124.239	800.000	-0.031	0.096
-123.224	273.944	0.204	0.360
-122.210	178.287	-0.125	0.181
-121.195	155.110	-0.327	-0.449
