DTS Sentinel unit serial number:	SN413079Multiplexer serial number:	ORYXHardware model number:	OX4-SRSoftware version number:	ORYX F/W v4.00 Oryx Data Collector v3.7.2.0data status	okinstallation	princeton_trtdifferential loss correction	single-endedforward channel	channel 4reverse channel	N/Adate	2019/09/15time	11:41:35forward acquisition time	60.00reverse acquisition time	0.00gamma	496.2192k internal	0.2298k external	0.2298temperature offset calibration	1.0016default loss term (dB/km)	0.3790temperature slope calibration	1.0000multiplexer offset coefficient	1.0000multiplexer slope coefficient	1.0000fibre end	0.00T internal ref (°C)	34.31T ext. ref 1 (°C)	5.03T ext. ref 2 (°C)	29.75length (m)	temperature (°C)	Stokes	anti-Stokes-747.200	-88.104	-0.430	-0.132
-746.185	72.064	0.116	0.123
-745.171	-172.068	-0.284	0.009
-744.156	800.000	0.096	0.378
-743.142	57.669	0.086	0.085
-742.127	-200.000	0.095	0.470
-741.112	-200.000	-0.405	0.000
-740.098	73.357	-0.090	0.096
-739.083	-36.261	-0.290	-0.160
-738.069	-69.774	0.173	0.068
-737.054	-200.000	-0.065	-0.428
-736.039	-190.514	-0.161	-0.002
-735.025	-200.000	0.010	0.455
-734.010	527.949	-0.174	0.419
-732.996	335.041	-0.130	-0.256
-731.981	44.552	-0.159	0.150
-730.966	-200.000	0.060	-0.278
-729.952	-200.000	0.041	-0.343
-728.937	-132.202	-0.209	0.028
-727.923	241.135	-0.088	0.151
-726.908	55.294	-0.217	0.214
-725.894	-200.000	0.013	-0.151
-724.879	800.000	0.048	0.180
-723.864	37.962	-0.104	-0.094
-722.850	-200.000	-0.015	-0.153
-721.835	-110.878	0.153	-0.032
-720.821	9.820	-0.268	-0.208
-719.806	-142.327	0.274	-0.028
-718.791	304.001	0.005	0.009
-717.777	800.000	0.020	-0.073
-716.762	-53.686	-0.213	0.099
-715.748	-45.884	-0.132	-0.067
-714.733	-54.933	0.411	0.189
-713.718	-17.258	-0.201	-0.129
-712.704	-64.946	-0.198	0.082
-711.689	153.483	-0.038	0.053
-710.675	-200.000	-0.018	0.139
-709.660	323.134	0.196	0.381
-708.645	-123.870	-0.096	-0.015
-707.631	-52.340	-0.407	0.192
-706.616	-139.315	0.245	0.027
-705.602	33.831	0.117	-0.104
-704.587	-61.208	0.245	0.105
-703.572	-41.761	0.224	-0.117
-702.558	429.342	0.013	0.028
-701.543	148.378	-0.021	-0.029
-700.529	-99.554	-0.344	-0.088
-699.514	800.000	-0.024	-0.093
-698.499	-200.000	0.033	0.290
-697.485	111.152	-0.153	0.188
-696.470	-39.806	-0.235	0.125
-695.456	-200.000	0.017	-0.337
-694.441	800.000	-0.112	0.433
-693.426	-26.062	0.372	0.223
-692.412	-119.943	-0.384	0.067
-691.397	-200.000	0.001	0.063
-690.383	-8.528	-0.202	-0.138
-689.368	-200.000	0.059	-0.366
-688.354	135.006	0.097	-0.128
-687.339	276.046	0.133	-0.240
-686.324	364.789	0.138	-0.283
-685.310	-38.611	0.287	0.154
-684.295	242.170	-0.160	0.273
-683.281	-64.459	0.148	0.061
-682.266	-63.349	-0.181	-0.076
-681.251	-200.000	0.001	-0.012
-680.237	-200.000	0.056	-0.301
-679.222	162.677	-0.191	-0.273
-678.208	-200.000	-0.016	0.100
-677.193	-20.772	-0.347	0.216
-676.178	-168.640	0.178	0.007
-675.164	-171.434	-0.179	-0.006
-674.149	-200.000	-0.013	0.256
-673.135	-146.077	0.061	0.005
-672.120	15.748	-0.081	0.065
-671.105	164.302	0.186	-0.267
-670.091	228.108	-0.088	-0.145
-669.076	-200.000	-0.004	-0.107
-668.062	-34.818	0.231	-0.129
-667.047	228.659	-0.146	0.242
-666.032	764.978	-0.059	0.162
-665.018	228.223	0.037	-0.062
-664.003	-67.251	-0.175	-0.070
-662.989	31.104	0.052	0.045
-661.974	-115.162	0.173	0.033
-660.959	50.062	0.181	0.173
-659.945	-200.000	0.011	0.092
-658.930	113.554	-0.135	0.167
-657.916	800.000	0.041	0.131
-656.901	-74.271	-0.196	0.072
-655.886	-200.000	-0.006	-0.482
-654.872	492.666	0.158	-0.367
-653.857	-200.000	-0.000	0.161
-652.843	84.118	0.214	0.238
-651.828	537.451	-0.163	0.393
-650.814	-156.773	-0.031	0.002
-649.799	164.821	-0.114	-0.164
-648.784	-140.670	0.186	0.020
-647.770	12.303	-0.038	0.030
-646.755	319.713	-0.103	0.198
-645.741	-200.000	0.012	0.413
-644.726	-156.912	0.262	-0.016
-643.711	152.579	0.019	-0.027
-642.697	-176.552	-0.379	-0.010
-641.682	-43.671	0.084	0.043
-640.668	800.000	0.070	0.260
-639.653	83.335	0.103	-0.114
-638.638	-45.746	-0.408	-0.205
-637.624	-154.373	-0.151	0.010
-636.609	-44.332	0.086	-0.044
-635.595	17.300	0.125	0.100
-634.580	21.920	-0.204	-0.169
-633.565	77.875	0.217	-0.235
-632.551	-23.962	-0.163	-0.099
-631.536	-43.892	0.400	0.204
-630.522	800.000	-0.045	-0.148
-629.507	800.000	-0.037	-0.135
-628.492	-121.774	0.222	0.037
-627.478	-66.650	-0.130	-0.052
-626.463	137.478	-0.180	0.240
-625.449	-200.000	-0.008	-0.420
-624.434	753.871	-0.078	0.213
-623.419	22.102	0.158	0.131
-622.405	800.000	0.085	0.270
-621.390	-200.000	-0.042	0.243
-620.376	800.000	0.090	-0.303
-619.361	124.470	-0.138	-0.177
-618.346	-68.376	0.023	0.009
-617.332	-2.456	0.008	-0.006
-616.317	111.029	0.101	0.123
-615.303	-200.000	0.051	-0.326
-614.288	-137.318	0.216	0.025
-613.273	-200.000	-0.026	0.187
-612.259	-200.000	-0.007	0.187
-611.244	800.000	0.034	0.144
-610.230	116.138	-0.202	0.251
-609.215	496.592	-0.053	0.124
-608.201	-141.222	0.287	0.030
-607.186	137.020	0.147	-0.195
-606.171	-12.875	0.092	0.061
-605.157	60.828	0.126	0.127
-604.142	-108.738	0.213	-0.046
-603.128	-189.036	-0.410	-0.005
-602.113	-169.592	0.105	0.004
-601.098	21.368	-0.118	0.098
-600.084	-88.854	-0.194	0.058
-599.069	333.410	-0.062	-0.122
-598.055	344.989	-0.079	0.158
-597.040	-32.921	0.381	0.215
-596.025	-152.344	0.247	0.018
-595.011	394.914	0.152	0.321
-593.996	-46.921	0.135	-0.067
-592.982	-200.000	0.014	0.146
-591.967	-200.000	-0.014	-0.185
-590.952	-49.959	-0.260	-0.125
-589.938	-195.601	0.060	-0.000
-588.923	85.250	0.358	-0.399
-587.909	-176.840	-0.173	-0.004
-586.894	-10.708	-0.261	-0.175
-585.879	-112.185	0.320	-0.065
-584.865	566.031	-0.122	0.299
-583.850	55.408	0.099	-0.097
-582.836	800.000	0.050	0.201
-581.821	327.402	-0.092	0.179
-580.806	-23.667	-0.340	-0.207
-579.792	100.444	0.069	-0.081
-578.777	-47.598	0.323	0.159
-577.763	-50.101	0.175	-0.084
-576.748	-73.520	-0.291	-0.108
-575.733	221.728	0.095	0.155
-574.719	-118.042	0.085	0.015
-573.704	536.447	0.049	0.117
-572.690	-103.402	-0.146	-0.035
-571.675	2.797	0.088	-0.065
-570.661	503.088	-0.155	-0.364
-569.646	-132.829	0.290	-0.038
-568.631	-153.655	-0.343	-0.024
-567.617	800.000	0.106	0.317
-566.602	210.244	-0.006	-0.010
-565.588	-137.259	0.194	0.022
-564.573	-35.180	-0.278	0.153
-563.558	-3.200	-0.113	0.080
-562.544	800.000	0.022	-0.068
-561.529	-149.963	-0.045	0.004
-560.515	70.772	-0.074	0.078
-559.500	136.415	0.228	-0.301
-558.485	229.594	-0.121	-0.201
-557.471	-200.000	-0.054	-0.250
-556.456	-52.487	-0.195	-0.091
-555.442	-115.105	-0.341	-0.066
-554.427	-88.992	0.466	0.140
-553.412	146.449	-0.095	0.129
-552.398	-200.000	-0.078	0.374
-551.383	-200.000	-0.033	0.154
-550.369	136.782	0.115	-0.152
-549.354	-148.991	-0.200	-0.016
-548.339	-200.000	0.032	0.177
-547.325	-200.000	-0.026	-0.134
-546.310	435.467	0.137	-0.302
-545.296	-200.000	-0.018	0.109
-544.281	-129.935	-0.178	-0.025
-543.266	-7.623	0.219	-0.150
-542.252	-11.188	-0.080	0.053
-541.237	65.564	-0.291	0.299
-540.223	40.563	0.055	-0.051
-539.208	68.971	-0.311	-0.324
-538.193	95.325	-0.037	-0.042
-537.179	-15.414	-0.146	0.094
-536.164	81.574	-0.121	-0.133
-535.150	-200.000	0.038	0.314
-534.135	0.896	-0.175	-0.127
-533.121	22.954	-0.095	-0.079
-532.106	176.448	-0.139	-0.204
-531.091	-140.813	0.286	0.030
-530.077	-76.066	-0.329	0.118
-529.062	195.844	-0.027	0.042
-528.048	202.633	0.145	0.226
-527.033	29.938	0.211	-0.182
-526.018	15.474	0.155	0.123
-525.004	-84.391	-0.130	-0.042
-523.989	-106.771	0.247	-0.056
-522.975	-8.297	0.235	0.160
-521.960	615.424	-0.110	-0.279
-520.945	-48.189	-0.309	0.151
-519.931	16.376	0.218	0.174
-518.916	-69.457	0.228	0.088
-517.902	-44.615	-0.392	-0.198
-516.887	70.646	-0.117	0.123
-515.872	-111.701	-0.250	0.051
-514.858	34.769	0.160	0.142
-513.843	145.002	-0.075	0.102
-512.829	800.000	-0.009	-0.033
-511.814	-101.457	0.295	0.073
-510.799	77.851	0.184	0.198
-509.785	143.067	-0.236	0.318
-508.770	-200.000	0.004	0.316
-507.756	196.613	0.028	0.043
-506.741	74.226	-0.170	0.180
-505.726	-156.448	0.058	-0.004
-504.712	-52.930	-0.159	-0.074
-503.697	793.707	0.038	0.106
-502.683	116.476	-0.131	0.163
-501.668	-200.000	-0.068	0.389
-500.653	-87.805	0.386	0.118
-499.639	607.233	0.101	-0.254
-498.624	800.000	0.023	-0.101
-497.610	-43.059	0.089	0.046
-496.595	-200.000	0.045	-0.706
-495.581	-51.778	-0.084	0.040
-494.566	-128.224	-0.176	0.025
-493.551	364.813	0.070	0.143
-492.537	494.669	0.061	0.141
-491.522	-200.000	0.025	-0.240
-490.508	-200.000	-0.036	-0.206
-489.493	-162.920	-0.075	-0.004
-488.478	-97.595	0.308	0.081
-487.464	493.636	-0.259	0.600
-486.449	268.183	0.114	0.202
-485.435	72.240	0.160	0.169
-484.420	151.807	-0.160	-0.221
-483.405	102.146	0.100	0.118
-482.391	800.000	-0.048	0.195
-481.376	-200.000	-0.040	0.268
-480.362	275.649	0.041	0.073
-479.347	6.398	0.195	-0.146
-478.332	-200.000	0.037	-0.336
-477.318	-49.939	0.054	-0.026
-476.303	-112.529	-0.120	0.024
-475.289	-200.000	-0.003	0.081
-474.274	-13.836	-0.189	-0.124
-473.259	-7.351	0.093	-0.064
-472.245	-200.000	-0.022	-0.104
-471.230	-200.000	-0.025	-0.118
-470.216	-101.027	0.244	0.061
-469.201	-52.569	0.071	-0.033
-468.186	-16.529	0.331	0.212
-467.172	800.000	-0.083	0.244
-466.157	800.000	-0.101	-0.423
-465.143	21.984	-0.079	-0.065
-464.128	-91.334	0.216	-0.062
-463.113	173.761	-0.069	-0.101
-462.099	190.448	0.245	-0.372
-461.084	-200.000	0.032	-0.164
-460.070	-109.816	0.118	-0.025
-459.055	-13.980	0.419	0.273
-458.040	39.226	0.277	-0.250
-457.026	800.000	-0.018	0.052
-456.011	205.207	-0.076	-0.119
-454.997	-200.000	0.035	-0.159
-453.982	25.210	0.158	-0.132
-452.968	39.050	-0.260	-0.235
-451.953	63.444	-0.048	-0.049
-450.938	-120.536	0.232	-0.040
-449.924	175.398	-0.201	-0.294
-448.909	-142.507	0.122	-0.012
-447.895	-145.609	0.067	0.006
-446.880	-200.000	-0.013	-0.096
-445.865	68.953	0.036	0.037
-444.851	169.483	0.133	0.191
-443.836	-83.141	-0.187	-0.061
-442.822	-55.481	-0.028	-0.013
-441.807	12.087	0.072	0.056
-440.792	-119.158	-0.177	-0.031
-439.778	181.911	0.033	0.049
-438.763	50.441	0.150	-0.143
-437.749	-79.292	-0.130	0.044
-436.734	-73.615	-0.149	-0.055
-435.719	-200.000	0.004	-0.132
-434.705	388.838	-0.044	0.091
-433.690	-120.083	-0.240	0.042
-432.676	69.023	-0.035	0.037
-431.661	-35.951	-0.308	0.168
-430.646	-97.986	-0.015	-0.004
-429.632	-27.955	-0.166	-0.097
-428.617	-53.146	0.285	0.132
-427.603	-83.357	-0.390	-0.126
-426.588	-14.701	-0.014	0.009
-425.573	48.130	-0.241	0.227
-424.559	800.000	-0.017	0.071
-423.544	-200.000	-0.026	-0.152
-422.530	-200.000	-0.017	0.105
-421.515	-5.719	0.260	0.180
-420.500	-118.973	0.264	-0.047
-419.486	266.631	-0.080	-0.141
-418.471	-30.197	0.162	-0.093
-417.457	154.706	-0.256	-0.354
-416.442	249.070	-0.109	-0.187
-415.428	-132.723	0.453	-0.058
-414.413	200.804	0.103	0.160
-413.398	-73.864	-0.276	-0.101
-412.384	62.835	0.237	-0.239
-411.369	800.000	0.035	-0.103
-410.355	314.170	0.178	0.337
-409.340	61.042	-0.068	-0.068
-408.325	-159.743	-0.081	0.004
-407.311	800.000	-0.073	0.271
-406.296	344.201	0.102	0.202
-405.282	121.214	0.094	-0.118
-404.267	-200.000	-0.050	-0.260
-403.252	20.356	-0.090	-0.073
-402.238	-33.453	-0.185	-0.103
-401.223	-200.000	0.025	-0.165
-400.209	234.143	-0.182	-0.303
-399.194	53.632	-0.303	-0.293
-398.179	-38.868	0.219	-0.116
-397.165	-70.184	0.096	-0.037
-396.150	800.000	0.053	-0.164
-395.136	-46.987	0.248	-0.122
-394.121	-200.000	-0.011	-0.191
-393.106	29.403	0.167	-0.143
-392.092	-200.000	0.003	0.041
-391.077	-54.933	0.107	-0.049
-390.063	370.076	-0.138	0.281
-389.048	154.539	-0.151	0.209
-388.033	12.709	0.178	0.138
-387.019	65.214	-0.092	-0.094
-386.004	79.214	-0.286	-0.309
-384.990	-4.616	-0.136	-0.095
-383.975	358.538	0.159	0.319
-382.960	38.716	-0.128	0.115
-381.946	-186.278	-0.308	0.004
-380.931	800.000	-0.059	0.256
-379.917	-200.000	-0.051	0.461
-378.902	-121.207	0.226	0.038
-377.888	99.803	0.069	0.080
-376.873	24.462	-0.111	-0.092
-375.858	800.000	0.016	0.065
-374.844	-100.449	-0.273	-0.068
-373.829	12.871	-0.133	-0.103
-372.815	-17.745	-0.170	0.107
-371.800	-200.000	-0.013	0.228
-370.785	-147.495	-0.246	0.021
-369.771	-22.180	-0.076	-0.046
-368.756	-133.087	-0.123	-0.016
-367.742	-200.000	0.007	0.108
-366.727	800.000	0.051	-0.165
-365.712	-200.000	0.071	-0.514
-364.698	104.278	-0.115	-0.136
-363.683	751.809	0.103	0.281
-362.669	253.462	-0.103	-0.178
-361.654	800.000	-0.031	0.130
-360.639	49.152	-0.156	0.148
-359.625	-172.005	0.253	-0.008
-358.610	-134.705	0.127	-0.016
-357.596	46.192	0.089	0.083
-356.581	800.000	0.144	0.445
-355.566	83.313	-0.167	-0.183
-354.552	-9.416	-0.088	-0.059
-353.537	144.722	-0.064	0.086
-352.523	-139.122	-0.280	0.030
-351.508	-50.153	-0.096	0.046
-350.493	-149.834	0.194	-0.015
-349.479	-200.000	-0.050	-0.531
-348.464	-124.943	-0.125	0.019
-347.450	-40.201	-0.305	0.160
-346.435	-170.570	0.140	-0.005
-345.420	569.010	0.008	-0.020
-344.406	-173.679	-0.217	-0.007
-343.391	-43.693	0.251	0.127
-342.377	-200.000	-0.021	0.228
-341.362	120.121	0.138	0.172
-340.348	-96.417	-0.205	-0.055
-339.333	75.759	-0.254	-0.270
-338.318	-33.953	0.229	-0.127
-337.304	800.000	0.046	-0.143
-336.289	739.309	-0.076	0.204
-335.275	259.247	-0.092	-0.159
-334.260	370.376	0.081	-0.164
-333.245	-69.202	-0.226	-0.087
-332.231	-115.130	0.347	-0.066
-331.216	270.120	-0.037	0.065
-330.202	-120.368	-0.364	0.062
-329.187	672.995	0.057	-0.148
-328.172	-200.000	-0.015	-0.235
-327.158	-200.000	0.004	-0.112
-326.143	53.557	-0.085	0.082
-325.129	-128.099	-0.276	0.040
-324.114	-33.891	0.174	-0.096
-323.099	-200.000	-0.016	0.101
-322.085	524.691	0.102	0.240
-321.070	-13.155	-0.238	-0.155
-320.056	-200.000	-0.033	0.172
-319.041	191.427	-0.157	-0.237
-318.026	131.738	0.053	0.068
-317.012	-200.000	-0.015	0.087
-315.997	-60.897	-0.252	0.107
-314.983	213.070	-0.186	-0.295
-313.968	141.235	0.153	-0.203
-312.953	712.713	-0.105	-0.279
-311.939	252.903	-0.036	0.062
-310.924	-200.000	-0.011	0.171
-309.910	-54.823	0.329	-0.149
-308.895	-200.000	-0.023	-0.140
-307.880	-47.434	0.175	-0.086
-306.866	800.000	-0.101	0.364
-305.851	88.929	-0.234	-0.261
-304.837	-107.184	-0.193	0.043
-303.822	16.789	0.250	0.199
-302.807	-92.048	-0.300	-0.085
-301.793	1.053	-0.154	0.111
-300.778	-76.637	-0.128	0.045
-299.764	149.481	0.040	0.054
-298.749	-144.734	0.396	0.037
-297.735	98.814	0.112	-0.129
-296.720	-1.717	-0.161	-0.114
-295.705	800.000	-0.090	0.262
-294.691	466.297	0.047	0.105
-293.676	401.900	0.127	-0.267
-292.662	-70.675	-0.226	0.086
-291.647	65.143	-0.239	0.243
-290.632	-25.634	0.532	0.315
-289.618	673.507	-0.114	0.297
-288.603	-38.826	0.207	-0.109
-287.589	-132.523	0.162	-0.021
-286.574	657.189	-0.005	0.013
-285.559	118.901	0.058	0.071
-284.545	-104.394	0.283	0.066
-283.530	-158.623	-0.211	0.012
-282.516	-32.004	-0.064	-0.036
-281.501	-42.675	-0.204	-0.104
-280.486	-47.860	0.451	-0.219
-279.472	98.083	0.224	0.259
-278.457	-41.314	0.304	0.157
-277.443	-200.000	0.016	-0.156
-276.428	-56.086	0.143	0.064
-275.413	522.450	-0.043	0.102
-274.399	-200.000	0.042	0.237
-273.384	-115.953	0.337	-0.063
-272.370	289.351	-0.095	0.173
-271.355	624.735	-0.120	-0.303
-270.340	27.951	0.163	-0.138
-269.326	-26.302	0.039	0.023
-268.311	-200.000	-0.017	-0.245
-267.297	114.317	0.233	0.285
-266.282	-123.384	0.184	-0.029
-265.267	-141.115	-0.151	0.015
-264.253	352.871	-0.023	0.046
-263.238	-108.981	0.212	0.045
-262.224	-64.809	-0.155	-0.063
-261.209	67.065	-0.043	-0.044
-260.195	-70.415	-0.286	-0.109
-259.180	63.894	-0.173	-0.174
-258.165	-13.956	-0.107	0.069
-257.151	-200.000	0.009	-0.244
-256.136	60.099	-0.164	-0.163
-255.122	-200.000	0.003	-0.137
-254.107	-67.801	0.320	-0.125
-253.092	8.006	-0.095	-0.071
-252.078	-96.047	0.096	-0.026
-251.063	178.289	-0.128	-0.186
-250.049	-142.703	-0.204	-0.020
-249.034	233.700	0.035	-0.057
-248.019	160.149	-0.059	-0.082
-247.005	-200.000	0.009	0.069
-245.990	148.602	-0.047	-0.064
-244.976	-1.442	-0.191	-0.135
-243.961	661.810	-0.106	-0.275
-242.946	171.791	-0.122	0.175
-241.932	-188.270	0.418	-0.005
-240.917	-200.000	0.022	0.273
-239.903	11.998	0.110	0.084
-238.888	-12.220	-0.171	-0.112
-237.873	294.840	0.049	0.089
-236.859	-0.510	-0.199	0.141
-235.844	-75.744	-0.065	-0.023
-234.830	92.197	-0.070	0.079
-233.815	800.000	0.085	0.255
-232.800	800.000	0.057	0.178
-231.786	-62.682	-0.058	-0.024
-230.771	-8.192	0.148	-0.100
-229.757	-200.000	-0.023	0.433
-228.742	-105.937	-0.127	-0.029
-227.727	-100.657	0.277	0.068
-226.713	-60.601	0.054	0.023
-225.698	381.856	0.172	-0.354
-224.684	-200.000	-0.007	-0.243
-223.669	518.014	0.092	0.215
-222.655	271.211	-0.025	-0.045
-221.640	-62.801	-0.138	-0.057
-220.625	-166.441	0.322	-0.013
-219.611	-24.986	0.115	0.068
-218.596	-116.275	0.319	-0.059
-217.582	39.501	-0.110	-0.099
-216.567	-52.608	0.259	-0.120
-215.552	651.869	0.118	-0.302
-214.538	774.270	-0.087	-0.236
-213.523	137.121	-0.105	-0.138
-212.509	800.000	-0.065	-0.197
-211.494	67.105	-0.044	0.045
-210.479	800.000	0.071	-0.301
-209.465	-89.203	0.143	0.042
-208.450	191.189	0.087	-0.131
-207.436	-162.434	-0.091	0.004
-206.421	554.201	-0.024	-0.057
-205.406	800.000	0.030	0.122
-204.392	43.596	0.172	0.157
-203.377	-200.000	0.032	0.149
-202.363	-126.259	-0.162	-0.024
-201.348	800.000	-0.085	-0.281
-200.333	-200.000	-0.000	0.364
-199.319	-98.290	0.205	-0.052
-198.304	8.475	-0.148	0.111
-197.290	800.000	0.053	-0.186
-196.275	22.521	-0.101	0.083
-195.260	385.446	0.128	0.263
-194.246	39.805	-0.080	0.072
-193.231	-200.000	0.016	-0.081
-192.217	-200.000	0.023	-0.166
-191.202	13.012	-0.139	-0.107
-190.187	-85.311	0.463	-0.144
-189.173	-200.000	-0.172	0.000
-188.158	-56.266	-0.198	0.088
-187.144	304.767	-0.038	0.070
-186.129	117.718	0.102	0.125
-185.114	-51.813	-0.179	-0.083
-184.100	-200.000	0.006	0.308
-183.085	497.786	0.059	0.135
-182.071	279.783	0.170	-0.303
-181.056	113.210	0.265	-0.322
-180.042	73.922	-0.216	-0.226
-179.027	161.375	0.009	-0.013
-178.012	-77.381	-0.099	0.034
-176.998	-200.000	-0.021	0.340
-175.983	-200.000	0.037	0.163
-174.969	-92.475	-0.274	0.077
-173.954	-113.731	0.187	0.036
-172.939	262.428	-0.017	0.030
-171.925	-94.674	-0.049	0.013
-170.910	-200.000	0.001	0.198
-169.896	15.125	0.246	0.192
-168.881	-68.557	0.262	0.101
-167.866	-167.316	-0.328	0.013
-166.852	304.492	0.158	0.293
-165.837	-88.237	-0.151	0.045
-164.823	-119.988	-0.333	-0.057
-163.808	-200.000	-0.016	0.175
-162.793	800.000	0.060	-0.188
-161.779	800.000	0.017	0.066
-160.764	460.842	0.132	-0.293
-159.750	800.000	-0.035	0.143
-158.735	-84.782	0.138	0.043
-157.720	800.000	0.059	0.252
-156.706	-200.000	-0.026	0.286
-155.691	280.218	0.117	0.209
-154.677	-70.188	-0.296	-0.112
-153.662	800.000	0.072	0.296
-152.647	-200.000	0.032	-0.306
-151.633	-200.000	0.027	-0.139
-150.618	-72.781	0.240	-0.088
-149.604	-60.907	-0.034	-0.014
-148.589	-54.142	0.494	-0.224
-147.574	186.459	0.133	-0.198
-146.560	-105.922	0.086	-0.019
-145.545	-114.406	-0.240	-0.046
-144.531	-129.705	0.233	-0.032
-143.516	-179.656	-0.192	-0.004
-142.502	-108.132	0.204	0.044
-141.487	119.175	-0.090	0.111
-140.472	-143.647	-0.307	-0.029
-139.458	505.203	0.073	-0.168
-138.443	621.709	0.055	0.139
-137.429	-132.849	-0.370	-0.047
-136.414	67.123	-0.046	-0.047
-135.399	188.516	0.171	-0.255
-134.385	-151.195	0.368	0.027
-133.370	-101.923	0.299	0.072
-132.356	-6.403	0.190	-0.129
-131.341	-73.003	-0.209	0.077
-130.326	-52.280	0.315	-0.145
-129.312	-96.802	0.285	-0.075
-128.297	800.000	-0.138	0.481
-127.283	-123.507	0.204	-0.032
-126.268	-6.794	-0.030	0.020
-125.253	6.467	-0.094	0.069
-124.239	-74.298	0.410	-0.148
-123.224	-32.281	-0.104	-0.058
-122.210	-77.952	0.306	0.105
