DTS Sentinel unit serial number:	SN413079Multiplexer serial number:	ORYXHardware model number:	OX4-SRSoftware version number:	ORYX F/W v4.00 Oryx Data Collector v3.7.2.0data status	okinstallation	princeton_trtdifferential loss correction	single-endedforward channel	channel 4reverse channel	N/Adate	2019/09/19time	03:13:34forward acquisition time	60.00reverse acquisition time	0.00gamma	496.2192k internal	0.2340k external	0.2340temperature offset calibration	1.0029default loss term (dB/km)	0.3790temperature slope calibration	1.0000multiplexer offset coefficient	1.0000multiplexer slope coefficient	1.0000fibre end	0.00T internal ref (°C)	20.75T ext. ref 1 (°C)	0.66T ext. ref 2 (°C)	14.31length (m)	temperature (°C)	Stokes	anti-Stokes-747.200	-63.961	-0.203	-0.083
-746.185	-102.388	-0.216	-0.052
-745.171	800.000	-0.081	0.304
-744.156	-45.805	-0.273	0.135
-743.142	286.104	0.107	0.194
-742.127	-119.281	-0.189	0.033
-741.112	-60.193	0.191	0.082
-740.098	-200.000	-0.066	0.374
-739.083	-46.563	0.047	-0.023
-738.069	189.885	-0.063	-0.095
-737.054	-200.000	0.004	0.394
-736.039	800.000	0.031	0.122
-735.025	20.955	0.475	0.386
-734.010	-200.000	0.010	0.081
-732.996	68.556	0.107	0.110
-731.981	-128.080	0.167	-0.024
-730.966	-200.000	0.015	-0.086
-729.952	-200.000	0.101	-0.449
-728.937	607.916	0.154	-0.385
-727.923	111.423	-0.075	-0.090
-726.908	800.000	0.144	-0.402
-725.894	-75.595	0.050	0.018
-724.879	30.142	0.088	0.075
-723.864	-150.779	-0.092	0.007
-722.850	-82.865	-0.062	0.020
-721.835	-79.619	-0.224	0.076
-720.821	-200.000	0.001	0.048
-719.806	-200.000	-0.059	-0.272
-718.791	800.000	-0.147	-0.458
-717.777	122.754	-0.182	0.228
-716.762	706.994	0.047	-0.126
-715.748	30.993	-0.293	-0.251
-714.733	800.000	0.067	-0.243
-713.718	-161.723	-0.094	0.005
-712.704	236.713	-0.156	-0.259
-711.689	-200.000	0.081	-0.420
-710.675	-200.000	-0.030	-0.168
-709.660	373.611	0.113	0.230
-708.645	-200.000	-0.001	0.078
-707.631	-95.409	-0.228	-0.061
-706.616	800.000	0.081	-0.347
-705.602	-3.582	-0.270	0.188
-704.587	448.221	-0.096	0.211
-703.572	-152.473	0.166	-0.012
-702.558	-62.262	-0.139	0.058
-701.543	-118.542	0.133	0.023
-700.529	-167.758	-0.066	-0.003
-699.514	-102.941	-0.386	0.092
-698.499	-200.000	-0.043	-0.427
-697.485	-200.000	-0.026	-0.130
-696.470	-200.000	0.001	0.047
-695.456	91.398	0.146	0.164
-694.441	-200.000	0.008	-0.111
-693.426	-22.862	0.205	0.124
-692.412	435.246	0.062	-0.135
-691.397	-111.415	0.133	0.027
-690.383	-200.000	-0.057	-0.336
-689.368	-45.238	0.349	0.173
-688.354	-200.000	-0.031	-0.144
-687.339	241.843	-0.061	0.103
-686.324	85.667	0.234	-0.257
-685.310	-200.000	-0.017	-0.465
-684.295	-169.023	-0.498	-0.019
-683.281	-200.000	-0.021	-0.241
-682.266	-131.268	-0.176	0.023
-681.251	-59.489	-0.129	0.055
-680.237	37.585	-0.360	-0.319
-679.222	42.118	0.152	-0.138
-678.208	428.362	0.038	-0.081
-677.193	-30.462	-0.167	-0.095
-676.178	-170.745	-0.424	-0.015
-675.164	-200.000	0.051	-0.312
-674.149	-200.000	0.369	0.001
-673.135	285.647	0.128	-0.231
-672.120	-89.718	0.357	-0.104
-671.105	714.258	-0.050	-0.133
-670.091	100.844	0.122	-0.141
-669.076	-200.000	0.066	-0.375
-668.062	800.000	-0.100	-0.380
-667.047	-19.962	-0.110	-0.068
-666.032	-4.412	-0.108	-0.075
-665.018	-200.000	0.046	-0.431
-664.003	800.000	-0.063	-0.198
-662.989	-33.764	-0.138	0.076
-661.974	800.000	-0.108	-0.362
-660.959	-200.000	0.139	-0.000
-659.945	-4.107	0.055	-0.038
-658.930	-128.855	0.086	-0.012
-657.916	-93.884	0.098	-0.027
-656.901	-0.910	-0.218	-0.154
-655.886	195.412	0.080	0.121
-654.872	-200.000	0.054	0.353
-653.857	101.162	-0.282	0.328
-652.843	-83.153	0.058	-0.019
-651.828	428.603	0.059	0.127
-650.814	186.959	-0.069	-0.103
-649.799	-93.927	-0.270	-0.074
-648.784	-23.806	0.099	-0.059
-647.770	14.358	-0.219	-0.171
-646.755	-175.737	0.217	0.006
-645.741	800.000	0.077	0.236
-644.726	-200.000	-0.003	-0.136
-643.711	192.729	-0.160	0.241
-642.697	98.537	-0.024	0.027
-641.682	-89.521	0.139	0.041
-640.668	-200.000	-0.013	-0.128
-639.653	-79.723	-0.492	0.166
-638.638	-200.000	0.034	-0.359
-637.624	516.828	0.065	0.152
-636.609	72.748	-0.140	-0.146
-635.595	-46.999	-0.342	-0.167
-634.580	-49.969	0.391	-0.185
-633.565	-83.135	0.069	0.022
-632.551	174.632	0.196	0.283
-631.536	800.000	0.096	0.278
-630.522	-141.351	0.147	0.015
-629.507	76.156	-0.102	-0.108
-628.492	-58.399	0.319	0.138
-627.478	81.933	0.091	0.099
-626.463	-89.468	-0.094	0.028
-625.449	742.717	0.082	-0.220
-624.434	225.782	0.097	-0.156
-623.419	19.138	-0.223	0.179
-622.405	-91.909	0.375	-0.106
-621.390	-200.000	-0.046	0.331
-620.376	-49.278	0.349	-0.166
-619.361	-87.509	-0.284	-0.086
-618.346	-99.046	-0.269	-0.068
-617.332	-58.287	0.132	0.057
-616.317	3.601	-0.490	0.357
-615.303	48.081	-0.170	-0.158
-614.288	73.047	-0.294	0.306
-613.273	161.471	0.070	0.097
-612.259	-161.893	-0.051	0.003
-611.244	115.089	-0.172	-0.209
-610.230	800.000	-0.101	0.332
-609.215	-163.947	-0.250	0.012
-608.201	-191.124	0.321	0.003
-607.186	-47.937	-0.067	0.032
-606.171	-200.000	0.023	-0.146
-605.157	-161.576	-0.143	0.007
-604.142	-155.562	-0.117	-0.008
-603.128	-200.000	-0.007	-0.155
-602.113	800.000	0.064	-0.187
-601.098	219.940	-0.161	-0.257
-600.084	117.558	-0.125	-0.153
-599.069	101.704	0.210	-0.244
-598.055	137.061	-0.094	-0.123
-597.040	-71.851	-0.017	-0.006
-596.025	11.414	0.189	0.144
-595.011	301.711	0.169	-0.311
-593.996	350.601	-0.104	-0.206
-592.982	-200.000	-0.024	-0.196
-591.967	-105.068	-0.169	-0.039
-590.952	800.000	-0.025	-0.098
-589.938	-27.084	-0.153	-0.089
-588.923	-27.637	0.024	-0.014
-587.909	47.303	-0.197	-0.183
-586.894	800.000	0.035	0.145
-585.879	800.000	0.125	-0.366
-584.865	-52.273	-0.241	-0.111
-583.850	800.000	0.018	0.070
-582.836	-200.000	0.050	0.228
-581.821	434.238	0.021	-0.046
-580.806	84.263	0.110	-0.120
-579.792	-52.818	0.036	-0.016
-578.777	-115.647	-0.186	-0.035
-577.763	78.428	0.267	-0.284
-576.748	-138.898	0.050	-0.005
-575.733	-87.580	-0.464	0.140
-574.719	334.938	0.089	-0.172
-573.704	-57.565	-0.286	-0.125
-572.690	92.499	-0.108	0.121
-571.675	-200.000	-0.008	0.095
-570.661	-200.000	-0.031	-0.231
-569.646	292.886	0.082	0.149
-568.631	800.000	-0.061	0.172
-567.617	800.000	0.095	-0.338
-566.602	121.163	0.215	-0.266
-565.588	-130.956	-0.342	0.046
-564.573	-13.531	0.129	-0.083
-563.558	160.103	0.048	0.066
-562.544	424.886	0.096	-0.206
-561.529	-200.000	-0.002	0.423
-560.515	-126.788	0.153	0.022
-559.500	-69.272	0.135	0.051
-558.485	35.738	0.249	0.218
-557.471	66.050	0.198	0.200
-556.456	-104.396	0.189	0.043
-555.442	-85.626	0.195	-0.060
-554.427	-101.501	-0.174	0.042
-553.412	800.000	0.039	-0.132
-552.398	96.622	0.090	0.103
-551.383	-200.000	0.012	0.314
-550.369	-0.368	0.054	-0.038
-549.354	-89.046	-0.212	-0.062
-548.339	-200.000	-0.029	-0.161
-547.325	-200.000	0.040	0.401
-546.310	22.940	0.050	0.041
-545.296	-200.000	0.002	0.546
-544.281	-145.678	0.288	-0.026
-543.266	800.000	0.008	0.026
-542.252	-200.000	0.107	0.503
-541.237	11.953	-0.269	0.206
-540.223	-91.120	0.257	-0.073
-539.208	-200.000	-0.036	-0.190
-538.193	-103.861	-0.146	-0.034
-537.179	231.863	-0.141	0.230
-536.164	-54.461	-0.148	0.067
-535.150	-200.000	0.014	-0.128
-534.135	-156.553	0.126	-0.008
-533.121	-159.492	-0.081	0.004
-532.106	-105.877	-0.141	0.032
-531.091	163.435	-0.329	-0.461
-530.077	-157.197	0.299	-0.018
-529.062	-200.000	0.058	-0.401
-528.048	-188.787	-0.066	0.001
-527.033	110.786	-0.148	0.177
-526.018	-172.258	-0.393	0.013
-525.004	-200.000	0.006	-0.199
-523.989	-172.825	-0.270	0.008
-522.975	-145.861	0.159	-0.014
-521.960	-29.790	-0.307	0.174
-520.945	-65.921	-0.092	-0.037
-519.931	370.133	-0.101	0.203
-518.916	-103.116	0.391	0.092
-517.902	-39.295	0.077	0.040
-516.887	-200.000	0.020	-0.141
-515.872	34.267	0.363	0.314
-514.858	79.005	0.181	0.193
-513.843	79.909	-0.168	0.179
-512.829	31.212	-0.134	-0.114
-511.814	-102.959	0.409	0.097
-510.799	-86.600	-0.399	-0.122
-509.785	43.662	0.008	-0.007
-508.770	42.808	-0.124	-0.112
-507.756	13.204	0.141	-0.108
-506.741	82.868	-0.162	-0.175
-505.726	-141.157	0.170	0.017
-504.712	2.316	0.153	0.110
-503.697	-28.572	0.031	-0.018
-502.683	11.560	-0.246	0.187
-501.668	-200.000	-0.044	-0.366
-500.653	-47.476	0.145	-0.070
-499.639	-95.117	0.092	-0.025
-498.624	-200.000	0.017	0.181
-497.610	800.000	0.037	-0.150
-496.595	-126.271	-0.147	0.022
-495.581	-9.432	-0.161	-0.107
-494.566	-200.000	0.017	-0.137
-493.551	-200.000	0.030	-0.141
-492.537	-38.986	-0.087	0.046
-491.522	173.008	0.090	0.129
-490.508	800.000	-0.047	-0.141
-489.493	443.551	0.144	-0.314
-488.478	800.000	-0.047	-0.175
-487.464	529.027	0.048	0.113
-486.449	-45.319	0.440	-0.217
-485.435	-100.053	-0.291	-0.072
-484.420	148.008	-0.085	0.113
-483.405	800.000	-0.039	0.164
-482.391	-87.137	-0.238	-0.072
-481.376	-116.216	0.136	-0.025
-480.362	-200.000	0.019	-0.121
-479.347	-177.481	-0.424	0.010
-478.332	-52.587	-0.133	-0.061
-477.318	-200.000	0.014	0.110
-476.303	19.240	0.184	0.147
-475.289	527.113	-0.079	0.184
-474.274	168.977	-0.133	-0.188
-473.259	106.326	-0.140	-0.165
-472.245	-19.694	-0.080	0.049
-471.230	8.029	-0.210	-0.157
-470.216	123.374	-0.317	0.395
-469.201	-86.364	0.262	0.080
-468.186	36.160	0.202	0.176
-467.172	-45.561	-0.331	0.163
-466.157	-172.562	0.546	0.017
-465.143	-86.948	-0.473	0.143
-464.128	131.924	0.113	0.145
-463.113	-77.724	0.358	0.123
-462.099	751.567	0.040	-0.106
-461.084	31.815	-0.104	-0.089
-460.070	-38.487	0.220	-0.115
-459.055	-36.306	-0.138	0.074
-458.040	-200.000	-0.024	-0.316
-457.026	66.556	0.110	0.111
-456.011	-30.045	-0.042	0.024
-454.997	-200.000	0.022	0.216
-453.982	33.863	0.303	-0.261
-452.968	-84.167	0.204	0.064
-451.953	-115.693	0.064	-0.012
-450.938	-200.000	-0.014	-0.232
-449.924	-200.000	0.024	0.169
-448.909	69.260	0.342	-0.349
-447.895	-200.000	0.033	0.303
-446.880	367.388	0.087	-0.174
-445.865	-142.544	0.078	0.008
-444.851	-137.472	0.099	-0.011
-443.836	800.000	0.066	-0.209
-442.822	-200.000	0.049	-0.231
-441.807	-130.655	-0.188	0.025
-440.792	-200.000	0.006	0.336
-439.778	25.295	-0.298	0.246
-438.763	-113.423	-0.170	-0.033
-437.749	-138.124	0.016	-0.002
-436.734	-83.356	-0.146	-0.046
-435.719	-200.000	-0.062	-0.352
-434.705	330.115	-0.127	-0.242
-433.690	-50.267	0.315	0.148
-432.676	-200.000	-0.001	-0.012
-431.661	167.678	0.214	0.301
-430.646	800.000	0.036	0.107
-429.632	124.967	0.083	0.104
-428.617	-120.778	0.067	0.011
-427.603	23.250	-0.281	-0.228
-426.588	100.651	-0.114	-0.131
-425.573	49.584	0.078	0.073
-424.559	-119.098	0.258	-0.045
-423.544	-67.501	0.149	0.058
-422.530	-18.390	-0.085	0.053
-421.515	164.890	0.114	0.159
-420.500	146.100	0.187	0.248
-419.486	-11.611	-0.343	-0.223
-418.471	-60.871	-0.421	-0.176
-417.457	800.000	-0.098	-0.285
-416.442	-54.363	0.172	0.077
-415.428	-167.686	-0.388	-0.015
-414.413	431.991	-0.140	-0.300
-413.398	51.758	-0.080	0.076
-412.384	-66.744	0.035	0.014
-411.369	800.000	0.010	-0.029
-410.355	-2.106	-0.156	-0.108
-409.340	-200.000	0.030	-0.207
-408.325	-92.119	-0.274	0.077
-407.311	-200.000	-0.010	-0.153
-406.296	-200.000	0.045	-0.261
-405.282	-137.446	0.276	0.031
-404.267	29.255	-0.316	0.265
-403.252	97.723	-0.101	-0.115
-402.238	800.000	0.073	0.218
-401.223	-92.080	0.219	-0.061
-400.209	-200.000	-0.006	0.125
-399.194	549.025	0.070	0.166
-398.179	-138.857	0.320	-0.034
-397.165	8.684	0.203	-0.151
-396.150	325.450	0.092	0.175
-395.136	-14.559	-0.418	0.266
-394.121	-200.000	0.018	0.120
-393.106	-17.718	-0.048	0.030
-392.092	196.517	0.056	-0.084
-391.077	-166.380	-0.094	0.004
-390.063	20.365	0.329	-0.263
-389.048	-150.015	-0.209	-0.016
-388.033	-200.000	0.010	-0.107
-387.019	-176.210	-0.153	-0.004
-386.004	797.146	-0.063	0.172
-384.990	64.103	0.188	0.187
-383.975	-161.453	-0.095	-0.005
-382.960	-127.251	0.168	0.024
-381.946	-200.000	0.016	-0.319
-380.931	219.559	-0.121	0.191
-379.917	-191.710	-0.037	0.000
-378.902	800.000	0.062	-0.172
-377.888	-4.966	-0.089	-0.061
-376.873	44.382	-0.201	-0.182
-375.858	-200.000	0.050	-0.381
-374.844	-54.990	0.199	-0.089
-373.829	-45.389	0.145	-0.071
-372.815	800.000	0.050	0.169
-371.800	-200.000	-0.028	-0.127
-370.785	-200.000	-0.066	-0.297
-369.771	-200.000	0.016	0.159
-368.756	672.711	-0.090	-0.232
-367.742	-77.181	0.188	0.065
-366.727	118.187	-0.070	-0.085
-365.712	-200.000	0.107	0.526
-364.698	-92.990	-0.320	-0.088
-363.683	-0.524	0.191	0.134
-362.669	-91.461	-0.240	0.068
-361.654	93.725	-0.101	0.113
-360.639	502.946	0.079	-0.180
-359.625	4.135	0.148	0.107
-358.610	-34.826	-0.100	-0.054
-357.596	800.000	-0.103	0.419
-356.581	-132.442	-0.386	0.049
-355.566	-58.384	-0.267	-0.115
-354.552	-111.059	-0.213	0.043
-353.537	-200.000	0.041	-0.271
-352.523	-200.000	-0.004	0.171
-351.508	-200.000	-0.025	-0.422
-350.493	-59.501	0.180	-0.076
-349.479	-200.000	-0.003	-0.294
-348.464	172.940	0.162	0.230
-347.450	330.948	-0.025	-0.048
-346.435	-48.796	0.255	0.121
-345.420	-65.584	-0.316	0.125
-344.406	800.000	0.111	0.342
-343.391	15.321	0.290	0.225
-342.377	57.132	-0.299	-0.288
-341.362	125.255	-0.022	0.027
-340.348	342.014	0.082	0.159
-339.333	800.000	0.052	0.206
-338.318	96.101	-0.148	0.167
-337.304	601.110	0.073	0.179
-336.289	35.199	0.217	-0.187
-335.275	67.021	0.059	-0.059
-334.260	110.576	0.085	-0.101
-333.245	-11.591	0.234	-0.152
-332.231	-90.894	-0.103	-0.029
-331.216	-104.131	-0.165	-0.038
-330.202	210.424	-0.055	-0.085
-329.187	-97.165	0.284	0.073
-328.172	800.000	-0.056	-0.230
-327.158	82.328	-0.171	0.183
-326.143	-19.685	0.172	-0.105
-325.129	800.000	0.024	-0.067
-324.114	53.736	0.134	0.127
-323.099	800.000	-0.025	0.096
-322.085	718.316	0.027	0.070
-321.070	-30.646	0.238	0.133
-320.056	140.332	0.039	0.051
-319.041	404.665	-0.193	-0.401
-318.026	-12.529	0.194	-0.125
-317.012	-200.000	0.068	-0.387
-315.997	800.000	0.148	-0.439
-314.983	-96.656	-0.170	-0.044
-313.968	28.120	-0.427	-0.356
-312.953	90.033	-0.167	0.184
-311.939	-200.000	0.017	0.318
-310.924	322.140	-0.087	-0.164
-309.910	-99.422	0.417	-0.104
-308.895	-99.240	0.360	0.090
-307.880	-30.229	-0.136	-0.076
-306.866	-200.000	-0.060	-0.420
-305.851	-174.222	-0.478	0.014
-304.837	800.000	0.077	-0.264
-303.822	-200.000	-0.057	0.376
-302.807	-109.088	-0.143	-0.030
-301.793	-121.800	-0.405	0.066
-300.778	-32.979	-0.058	-0.032
-299.764	-170.007	-0.313	0.011
-298.749	-156.092	0.218	-0.014
-297.735	-74.767	0.072	-0.025
-296.720	-83.180	-0.248	-0.078
-295.705	-200.000	0.080	0.437
-294.691	-188.894	0.441	-0.005
-293.676	246.662	0.163	0.271
-292.662	-66.657	0.222	-0.087
-291.647	401.262	-0.062	0.128
-290.632	-114.601	-0.198	0.037
-289.618	24.735	-0.205	-0.167
-288.603	661.699	0.064	-0.163
-287.589	-7.100	0.113	-0.075
-286.574	89.895	-0.230	-0.253
-285.559	61.004	0.175	0.171
-284.545	248.303	-0.148	0.247
-283.530	376.193	-0.023	0.045
-282.516	100.719	0.261	-0.299
-281.501	-9.154	0.068	0.045
-280.486	531.356	0.104	0.241
-279.472	-200.000	-0.057	0.298
-278.457	324.535	-0.159	0.298
-277.443	800.000	-0.050	-0.137
-276.428	-200.000	-0.019	0.129
-275.413	123.750	0.178	-0.221
-274.399	-200.000	-0.044	-0.239
-273.384	-145.540	-0.226	-0.020
-272.370	-142.294	0.280	-0.027
-271.355	800.000	0.007	-0.019
-270.340	41.330	0.269	0.239
-269.326	-200.000	0.002	0.086
-268.311	196.520	-0.084	0.126
-267.297	-53.111	0.164	-0.074
-266.282	-16.893	0.365	-0.227
-265.267	-200.000	0.024	0.438
-264.253	481.210	-0.195	0.436
-263.238	6.996	0.212	0.156
-262.224	-200.000	0.006	-0.080
-261.209	-93.242	0.224	0.061
-260.195	-39.554	-0.220	0.113
-259.180	800.000	0.077	0.214
-258.165	7.697	0.240	-0.176
-257.151	136.578	-0.195	0.250
-256.136	89.238	0.205	0.225
-255.122	-128.431	0.371	-0.052
-254.107	243.235	-0.081	0.134
-253.092	800.000	0.091	-0.345
-252.078	-149.122	0.157	-0.012
-251.063	-200.000	-0.010	0.275
-250.049	-200.000	-0.015	0.431
-249.034	-8.449	0.151	-0.100
-248.019	-200.000	-0.049	0.225
-247.005	-70.876	-0.358	-0.133
-245.990	171.065	-0.102	0.144
-244.976	-104.550	-0.383	-0.087
-243.961	-112.587	0.081	0.016
-242.946	5.343	-0.285	0.206
-241.932	-146.875	0.244	0.021
-240.917	-109.457	0.077	-0.016
-239.903	84.161	-0.162	-0.174
-238.888	-111.902	-0.358	0.071
-237.873	-153.533	0.021	-0.001
-236.859	611.731	-0.130	0.319
-235.844	-20.237	-0.322	-0.195
-234.830	800.000	0.073	0.295
-233.815	7.980	0.047	0.035
-232.800	74.237	0.049	-0.050
-231.786	-200.000	0.028	0.199
-230.771	69.669	0.125	-0.126
-229.757	-65.923	0.129	0.051
-228.742	800.000	-0.023	-0.089
-227.727	369.005	0.053	-0.105
-226.713	-187.246	0.041	-0.001
-225.698	-21.247	-0.229	0.137
-224.684	-184.180	0.225	-0.004
-223.669	178.190	0.167	-0.239
-222.655	-200.000	-0.013	0.063
-221.640	-200.000	0.015	0.120
-220.625	-43.170	-0.069	0.034
-219.611	733.765	0.164	0.432
-218.596	-200.000	-0.085	-0.393
-217.582	710.527	-0.095	-0.248
-216.567	-200.000	0.096	-0.438
-215.552	800.000	0.013	0.040
-214.538	-200.000	0.046	0.203
-213.523	800.000	0.030	0.107
-212.509	-200.000	0.046	0.388
-211.494	141.448	0.140	0.182
-210.479	-124.239	0.160	0.025
-209.465	800.000	-0.090	0.278
-208.450	83.188	0.232	-0.248
-207.436	-11.809	-0.372	-0.239
-206.421	800.000	0.014	0.037
-205.406	-91.607	0.219	-0.061
-204.392	-43.230	0.351	0.174
-203.377	800.000	0.035	0.142
-202.363	2.075	0.159	-0.113
-201.348	380.354	-0.120	-0.241
-200.333	-130.039	-0.176	-0.024
-199.319	534.840	-0.108	-0.250
-198.304	-26.865	-0.152	0.087
-197.290	-36.573	-0.041	-0.022
-196.275	-70.130	0.248	0.092
-195.260	516.434	0.091	-0.209
-194.246	-98.967	-0.309	-0.077
-193.231	-147.766	0.232	0.019
-192.217	-200.000	-0.036	-0.404
-191.202	414.145	-0.101	0.211
-190.187	-131.657	-0.226	0.029
-189.173	32.900	-0.224	-0.190
-188.158	-200.000	-0.004	0.140
-187.144	306.843	0.029	-0.052
-186.129	115.047	-0.120	-0.144
-185.114	-90.730	-0.277	-0.078
-184.100	-41.444	-0.193	0.097
-183.085	-200.000	-0.013	-0.065
-182.071	494.095	0.046	-0.104
-181.056	-90.543	0.301	0.085
-180.042	-63.283	0.204	-0.082
-179.027	400.119	0.068	-0.139
-178.012	94.093	-0.060	-0.067
-176.998	-103.140	-0.147	-0.034
-175.983	-15.059	0.206	0.129
-174.969	293.278	-0.105	0.187
-173.954	445.095	-0.062	0.134
-172.939	-200.000	0.024	-0.140
-171.925	-134.581	0.371	0.044
-170.910	-200.000	-0.008	-0.306
-169.896	-25.800	0.300	-0.174
-168.881	148.758	-0.106	-0.140
-167.866	-68.541	0.061	0.023
-166.852	35.923	0.227	0.196
-165.837	1.159	-0.203	0.143
-164.823	-200.000	0.049	0.345
-163.808	275.888	0.060	0.105
-162.793	245.319	-0.292	0.482
-161.779	-0.768	0.375	-0.261
-160.764	167.905	0.184	-0.257
-159.750	800.000	0.074	0.297
-158.735	116.115	-0.042	-0.051
-157.720	-109.837	0.180	0.037
-156.706	356.291	-0.159	-0.310
-155.691	-65.257	0.278	0.110
-154.677	-200.000	0.074	0.404
-153.662	800.000	-0.048	-0.169
-152.647	-121.870	0.324	0.052
-151.633	175.683	-0.187	0.265
-150.618	72.781	-0.104	-0.107
-149.604	-99.780	0.113	-0.028
-148.589	800.000	-0.014	0.039
-147.574	800.000	-0.116	-0.324
-146.560	28.748	0.062	-0.052
-145.545	-90.790	0.274	0.077
-144.531	800.000	-0.121	0.383
-143.516	91.491	0.187	-0.206
-142.502	-200.000	-0.002	0.086
-141.487	-36.844	0.350	0.184
-140.472	-59.766	-0.404	0.169
-139.458	-96.324	0.109	0.028
-138.443	800.000	-0.024	-0.077
-137.429	-200.000	-0.036	0.162
-136.414	-44.809	0.143	0.070
-135.399	49.748	-0.110	0.102
-134.385	168.954	-0.220	-0.307
-133.370	256.255	0.098	-0.165
-132.356	-55.802	-0.267	0.117
-131.341	-127.933	0.083	-0.012
-130.326	-13.518	0.239	-0.151
-129.312	25.291	-0.129	0.105
-128.297	228.135	0.185	0.296
-127.283	219.145	-0.037	0.058
-126.268	-126.264	-0.331	-0.048
-125.253	-15.765	0.154	0.096
-124.239	-200.000	-0.025	0.329
-123.224	792.525	-0.023	-0.061
-122.210	-200.000	0.012	0.094
