DTS Sentinel unit serial number:	SN413079Multiplexer serial number:	ORYXHardware model number:	OX4-SRSoftware version number:	ORYX F/W v4.00 Oryx Data Collector v3.7.2.0data status	okinstallation	princeton_trtdifferential loss correction	single-endedforward channel	channel 4reverse channel	N/Adate	2019/09/14time	09:13:34forward acquisition time	60.00reverse acquisition time	0.00gamma	496.2192k internal	0.2308k external	0.2308temperature offset calibration	1.0130default loss term (dB/km)	0.3790temperature slope calibration	1.0000multiplexer offset coefficient	1.0000multiplexer slope coefficient	1.0000fibre end	0.00T internal ref (°C)	30.64T ext. ref 1 (°C)	3.78T ext. ref 2 (°C)	28.49length (m)	temperature (°C)	Stokes	anti-Stokes-747.200	-90.063	0.226	-0.067
-746.185	16.059	-0.339	0.271
-745.171	22.867	0.107	-0.089
-744.156	-25.700	0.056	0.034
-743.142	625.845	-0.048	0.122
-742.127	189.501	-0.141	0.216
-741.112	142.287	-0.221	0.298
-740.098	575.923	-0.108	0.268
-739.083	-200.000	-0.016	0.149
-738.069	151.179	0.227	0.314
-737.054	390.389	-0.035	0.074
-736.039	-200.000	0.004	0.085
-735.025	-200.000	0.135	0.608
-734.010	-7.727	-0.583	-0.400
-732.996	-200.000	0.029	-0.252
-731.981	-188.014	0.490	0.006
-730.966	-200.000	-0.028	0.158
-729.952	67.692	0.036	-0.037
-728.937	345.839	-0.037	-0.074
-727.923	800.000	-0.062	-0.264
-726.908	219.851	0.176	0.287
-725.894	59.001	0.176	0.176
-724.879	-133.326	-0.391	0.050
-723.864	764.280	-0.158	-0.436
-722.850	-200.000	-0.017	-0.143
-721.835	-200.000	-0.060	-0.342
-720.821	163.653	-0.082	-0.117
-719.806	389.198	-0.100	-0.210
-718.791	12.045	-0.316	-0.246
-717.777	586.908	-0.013	-0.033
-716.762	77.453	0.112	-0.121
-715.748	45.900	0.244	0.229
-714.733	-42.150	-0.186	-0.097
-713.718	-25.343	0.173	0.104
-712.704	800.000	-0.035	0.132
-711.689	-71.749	-0.323	0.122
-710.675	-200.000	0.007	0.324
-709.660	-200.000	0.015	-0.283
-708.645	21.184	0.032	0.026
-707.631	-6.216	0.130	-0.090
-706.616	800.000	0.051	0.147
-705.602	-52.531	0.266	0.125
-704.587	800.000	-0.054	0.230
-703.572	-200.000	-0.011	-0.250
-702.558	245.774	0.107	-0.182
-701.543	26.049	0.225	0.191
-700.529	-200.000	-0.011	-0.292
-699.514	-40.402	-0.291	0.153
-698.499	-52.184	-0.053	-0.025
-697.485	265.588	-0.150	0.265
-696.470	145.747	-0.136	-0.185
-695.456	-200.000	-0.035	-0.189
-694.441	-200.000	-0.033	0.278
-693.426	-87.348	-0.038	0.012
-692.412	-104.047	-0.159	0.038
-691.397	-26.546	0.142	-0.084
-690.383	-25.732	0.216	0.129
-689.368	45.600	-0.005	0.005
-688.354	-200.000	0.030	0.209
-687.339	-53.810	-0.064	-0.029
-686.324	-66.039	0.174	-0.070
-685.310	25.615	-0.258	0.218
-684.295	185.996	0.059	0.089
-683.281	67.147	0.263	0.272
-682.266	-109.870	-0.189	-0.040
-681.251	-200.000	0.022	0.135
-680.237	-81.923	-0.220	-0.073
-679.222	25.358	0.128	0.108
-678.208	-71.654	-0.223	-0.084
-677.193	-96.563	-0.150	0.040
-676.178	800.000	0.029	-0.124
-675.164	-5.241	-0.265	-0.185
-674.149	800.000	-0.087	-0.325
-673.135	-74.912	-0.285	0.104
-672.120	-95.503	0.109	0.030
-671.105	228.492	0.156	-0.258
-670.091	-70.943	-0.033	-0.013
-669.076	121.900	-0.058	0.073
-668.062	-200.000	-0.003	-0.324
-667.047	-200.000	-0.082	-0.454
-666.032	-167.177	-0.156	-0.006
-665.018	-20.731	-0.034	-0.021
-664.003	-200.000	0.006	-0.082
-662.989	111.086	0.222	0.271
-661.974	119.713	-0.040	0.050
-660.959	50.248	0.145	0.139
-659.945	64.472	-0.318	-0.325
-658.930	-200.000	-0.023	-0.265
-657.916	-83.159	-0.181	-0.059
-656.901	193.920	0.166	0.255
-655.886	557.182	-0.147	0.358
-654.872	723.326	-0.050	-0.135
-653.857	39.261	-0.140	-0.127
-652.843	0.132	0.310	0.224
-651.828	-75.155	0.089	-0.032
-650.814	149.605	-0.069	-0.095
-649.799	54.779	-0.196	-0.191
-648.784	-200.000	-0.001	0.268
-647.770	800.000	0.026	-0.085
-646.755	589.289	0.131	-0.328
-645.741	-34.935	-0.223	-0.123
-644.726	127.724	0.124	-0.160
-643.711	71.493	0.371	0.390
-642.697	-24.705	0.094	-0.056
-641.682	-200.000	-0.048	-0.264
-640.668	109.941	-0.050	0.060
-639.653	-104.078	0.110	0.026
-638.638	-63.382	0.156	-0.065
-637.624	-200.000	-0.013	-0.099
-636.609	5.072	0.098	-0.073
-635.595	-200.000	0.056	0.393
-634.580	99.117	-0.051	-0.060
-633.565	800.000	-0.084	-0.328
-632.551	-196.046	-0.235	0.002
-631.536	-77.774	0.119	-0.042
-630.522	-132.388	0.218	-0.028
-629.507	-200.000	-0.000	-0.171
-628.492	800.000	-0.094	-0.380
-627.478	191.402	0.105	0.160
-626.463	25.160	0.159	-0.134
-625.449	-2.720	0.166	0.117
-624.434	-200.000	0.159	-0.000
-623.419	-200.000	-0.004	-0.092
-622.405	21.645	-0.030	0.024
-621.390	-200.000	-0.025	0.337
-620.376	294.375	-0.125	0.231
-619.361	-48.934	-0.255	-0.124
-618.346	800.000	-0.053	-0.159
-617.332	582.077	0.124	-0.306
-616.317	260.454	-0.119	-0.209
-615.303	-21.717	-0.216	0.133
-614.288	-90.910	0.259	0.075
-613.273	-94.702	-0.191	0.052
-612.259	-73.819	0.248	-0.091
-611.244	145.730	0.185	0.251
-610.230	-111.008	-0.318	-0.066
-609.215	54.684	-0.136	0.133
-608.201	294.042	-0.085	-0.156
-607.186	-200.000	0.001	0.116
-606.171	6.500	0.175	-0.131
-605.157	-200.000	0.062	0.278
-604.142	122.623	0.237	-0.300
-603.128	0.095	-0.229	0.165
-602.113	-8.322	0.156	-0.106
-601.098	395.156	0.089	0.188
-600.084	800.000	0.054	0.223
-599.069	131.020	-0.131	0.170
-598.055	343.314	0.262	0.519
-597.040	-200.000	0.013	-0.111
-596.025	-200.000	-0.021	0.139
-595.011	129.896	0.030	-0.039
-593.996	-200.000	0.033	0.404
-592.982	-160.481	-0.297	-0.016
-591.967	323.329	-0.190	0.365
-590.952	-113.331	0.206	-0.041
-589.938	308.484	0.054	0.102
-588.923	-140.642	0.103	0.011
-587.909	74.528	-0.112	-0.119
-586.894	204.780	-0.079	0.124
-585.879	-79.236	-0.050	0.017
-584.865	-72.247	0.370	-0.139
-583.850	-200.000	-0.024	0.118
-582.836	-119.617	0.208	0.036
-581.821	200.184	0.131	-0.202
-580.806	-200.000	0.013	-0.314
-579.792	-164.317	0.203	0.009
-578.777	59.314	0.113	-0.113
-577.763	800.000	-0.058	-0.230
-576.748	108.054	0.270	0.325
-575.733	-48.276	-0.119	0.058
-574.719	-92.046	-0.393	-0.112
-573.704	-27.228	0.442	-0.260
-572.690	205.090	0.119	-0.187
-571.675	-62.410	-0.243	0.102
-570.661	-200.000	-0.038	0.247
-569.646	66.412	0.217	0.223
-568.631	42.019	-0.078	0.071
-567.617	-98.535	-0.286	-0.074
-566.602	-19.926	0.107	-0.066
-565.588	48.060	-0.166	0.157
-564.573	800.000	-0.058	-0.175
-563.558	223.589	-0.178	-0.290
-562.544	58.177	0.104	0.103
-561.529	-200.000	-0.032	-0.495
-560.515	137.970	0.089	-0.118
-559.500	0.526	0.087	0.063
-558.485	97.969	-0.120	0.139
-557.471	-140.946	-0.150	-0.016
-556.456	310.817	0.175	-0.330
-555.442	-200.000	-0.008	-0.159
-554.427	-19.369	0.177	-0.110
-553.412	764.157	-0.097	-0.267
-552.398	5.779	-0.251	0.187
-551.383	-200.000	-0.021	0.349
-550.369	-21.755	-0.250	-0.153
-549.354	612.250	-0.081	-0.206
-548.339	-200.000	-0.020	0.202
-547.325	506.359	0.057	0.133
-546.310	-16.924	0.246	-0.157
-545.296	-104.272	0.066	-0.016
-544.281	-151.451	0.141	-0.011
-543.266	194.213	-0.184	-0.281
-542.252	227.568	0.153	-0.250
-541.237	-200.000	-0.016	-0.297
-540.223	91.020	0.130	-0.147
-539.208	-200.000	-0.034	-0.164
-538.193	-159.114	-0.145	0.008
-537.179	-200.000	0.003	0.094
-536.164	-84.015	-0.064	-0.020
-535.150	-145.280	0.095	0.009
-534.135	-75.033	0.376	-0.136
-533.121	-15.492	-0.228	-0.147
-532.106	194.308	-0.190	0.291
-531.091	800.000	-0.008	0.023
-530.077	-200.000	0.002	-0.023
-529.062	127.544	-0.136	0.175
-528.048	310.582	0.070	-0.133
-527.033	-70.061	0.225	-0.086
-526.018	156.260	-0.057	-0.079
-525.004	9.271	0.219	-0.167
-523.989	-110.582	0.020	0.004
-522.975	541.702	-0.107	-0.257
-521.960	-96.306	-0.129	-0.034
-520.945	-135.972	-0.480	0.057
-519.931	-200.000	-0.031	-0.168
-518.916	-80.693	-0.326	0.109
-517.902	-33.977	-0.211	0.117
-516.887	800.000	-0.030	0.114
-515.872	54.796	-0.175	0.170
-514.858	56.550	-0.139	-0.136
-513.843	412.513	0.045	0.097
-512.829	325.199	0.099	0.191
-511.814	-5.320	-0.068	0.047
-510.799	-200.000	0.003	0.150
-509.785	-132.032	0.074	-0.010
-508.770	-104.658	-0.036	0.008
-507.756	-200.000	-0.014	-0.184
-506.741	308.387	-0.177	-0.332
-505.726	800.000	0.031	-0.095
-504.712	638.004	-0.144	-0.367
-503.697	-108.544	0.197	-0.043
-502.683	-175.341	0.159	-0.004
-501.668	-24.105	-0.225	0.135
-500.653	398.990	0.095	0.200
-499.639	-110.064	0.103	-0.022
-498.624	95.243	0.038	0.044
-497.610	-200.000	0.019	-0.435
-496.595	800.000	0.166	-0.503
-495.581	-142.577	0.377	0.037
-494.566	-131.168	-0.140	0.019
-493.551	-91.831	0.150	0.043
-492.537	-83.823	-0.097	0.031
-491.522	249.880	-0.112	-0.192
-490.508	-41.751	-0.211	0.109
-489.493	-68.740	-0.307	-0.119
-488.478	93.817	-0.137	-0.157
-487.464	251.076	0.167	0.286
-486.449	335.513	-0.014	0.028
-485.435	-138.432	-0.206	0.023
-484.420	800.000	-0.026	0.073
-483.405	-65.689	0.139	-0.056
-482.391	160.728	-0.140	0.196
-481.376	800.000	0.022	0.076
-480.362	-200.000	-0.002	0.277
-479.347	15.116	-0.179	-0.141
-478.332	-200.000	-0.019	-0.195
-477.318	-1.261	-0.325	-0.231
-476.303	-44.437	0.200	0.101
-475.289	-35.037	-0.174	0.096
-474.274	78.181	0.280	-0.300
-473.259	322.972	-0.105	-0.201
-472.245	-10.787	-0.162	0.108
-471.230	-200.000	0.023	0.213
-470.216	161.280	0.155	-0.218
-469.201	-171.114	0.347	0.012
-468.186	-88.612	-0.129	-0.038
-467.172	-93.847	-0.127	-0.035
-466.157	131.184	-0.008	-0.011
-465.143	-13.170	0.354	-0.231
-464.128	-141.529	0.198	0.020
-463.113	-200.000	0.024	-0.140
-462.099	-143.538	-0.051	-0.005
-461.084	-43.357	-0.313	0.159
-460.070	-26.789	0.127	-0.075
-459.055	-53.847	-0.206	-0.094
-458.040	-111.150	0.041	0.008
-457.026	-121.988	-0.186	0.031
-456.011	66.247	-0.059	-0.060
-454.997	-112.610	0.155	0.031
-453.982	345.990	0.056	-0.111
-452.968	-133.172	0.038	-0.005
-451.953	-200.000	-0.036	0.354
-450.938	-57.117	-0.179	0.079
-449.924	115.121	0.068	0.083
-448.909	109.414	0.157	-0.189
-447.895	-99.743	0.313	-0.079
-446.880	381.778	-0.048	0.099
-445.865	445.483	0.059	-0.131
-444.851	263.188	-0.056	0.098
-443.836	57.992	-0.110	0.109
-442.822	63.164	-0.254	0.256
-441.807	34.476	-0.072	-0.063
-440.792	-153.546	0.253	0.018
-439.778	-35.099	-0.196	0.107
-438.763	-131.022	0.130	-0.017
-437.749	-200.000	-0.003	0.256
-436.734	569.914	-0.037	-0.089
-435.719	800.000	-0.054	0.220
-434.705	498.464	-0.121	0.280
-433.690	594.489	-0.058	0.145
-432.676	-200.000	0.001	-0.147
-431.661	-131.264	0.435	0.058
-430.646	-200.000	-0.036	-0.169
-429.632	-193.641	0.282	0.002
-428.617	121.862	0.145	0.181
-427.603	-200.000	0.002	0.162
-426.588	-91.095	-0.151	-0.044
-425.573	-160.219	-0.239	-0.013
-424.559	-62.979	0.075	0.031
-423.544	-30.754	0.057	0.032
-422.530	653.936	-0.057	-0.147
-421.515	-110.848	0.163	-0.034
-420.500	-200.000	-0.041	0.213
-419.486	-200.000	-0.066	0.317
-418.471	253.431	0.106	-0.182
-417.457	662.722	0.093	-0.241
-416.442	-111.212	-0.313	0.064
-415.428	-122.780	-0.089	-0.014
-414.413	-200.000	-0.032	-0.301
-413.398	-10.975	-0.297	-0.197
-412.384	-134.033	-0.129	-0.016
-411.369	36.648	0.196	0.174
-410.355	-54.965	-0.274	-0.124
-409.340	242.094	-0.082	-0.137
-408.325	-30.446	0.222	-0.126
-407.311	-94.904	0.236	-0.064
-406.296	35.254	0.032	0.028
-405.282	-102.257	-0.195	-0.047
-404.267	193.005	0.177	-0.268
-403.252	-131.682	-0.263	0.035
-402.238	611.148	-0.172	-0.432
-401.223	-105.801	-0.236	0.053
-400.209	-72.077	0.266	-0.099
-399.194	-3.940	0.300	-0.209
-398.179	800.000	-0.134	0.434
-397.165	-200.000	-0.060	-0.325
-396.150	-92.981	0.261	-0.073
-395.136	106.426	0.133	0.158
-394.121	-52.737	0.173	-0.080
-393.106	-125.276	-0.099	0.015
-392.092	-32.211	-0.174	0.097
-391.077	92.300	-0.052	0.059
-390.063	-200.000	0.031	-0.171
-389.048	42.435	0.093	-0.085
-388.033	647.500	-0.094	0.240
-387.019	634.809	0.079	0.200
-386.004	800.000	0.044	-0.134
-384.990	-200.000	0.042	0.198
-383.975	324.966	-0.048	0.092
-382.960	800.000	-0.101	-0.288
-381.946	11.110	0.280	0.215
-380.931	139.791	0.139	0.184
-379.917	-200.000	0.019	0.088
-378.902	-30.715	-0.120	0.068
-377.888	279.489	0.271	0.486
-376.873	-145.188	0.505	0.046
-375.858	800.000	-0.051	0.153
-374.844	-32.172	0.136	-0.076
-373.829	34.890	0.168	0.147
-372.815	-9.239	-0.153	-0.103
-371.800	160.040	0.253	-0.353
-370.785	-200.000	0.023	0.277
-369.771	-119.625	0.055	-0.010
-368.756	800.000	0.147	0.598
-367.742	-16.794	-0.282	0.179
-366.727	-141.357	-0.185	-0.019
-365.712	770.165	0.036	-0.098
-364.698	-200.000	0.004	-0.195
-363.683	-14.969	0.242	-0.155
-362.669	255.868	0.039	0.066
-361.654	800.000	0.112	0.363
-360.639	169.862	0.183	0.262
-359.625	25.686	-0.396	0.330
-358.610	26.005	0.291	0.243
-357.596	-195.020	0.220	-0.002
-356.581	-119.010	-0.206	-0.036
-355.566	-200.000	0.018	-0.252
-354.552	-103.169	0.256	-0.061
-353.537	149.817	-0.272	0.369
-352.523	-200.000	-0.058	0.356
-351.508	-5.577	0.105	0.072
-350.493	-80.699	0.227	-0.076
-349.479	413.790	0.086	-0.184
-348.464	-52.069	0.216	-0.101
-347.450	-70.615	0.045	0.017
-346.435	45.363	-0.145	-0.134
-345.420	800.000	0.063	0.194
-344.406	0.098	-0.054	-0.039
-343.391	-200.000	0.015	0.084
-342.377	-200.000	-0.029	0.249
-341.362	-200.000	-0.007	-0.179
-340.348	106.506	-0.207	0.246
-339.333	-94.231	0.340	-0.093
-338.318	62.967	-0.118	-0.118
-337.304	400.836	-0.049	0.102
-336.289	-86.880	-0.051	0.015
-335.275	-106.995	-0.317	-0.070
-334.260	-96.425	-0.364	0.096
-333.245	-7.463	0.010	0.007
-332.231	-84.573	0.134	0.042
-331.216	387.965	0.021	0.044
-330.202	118.909	-0.067	0.083
-329.187	800.000	-0.048	-0.197
-328.172	64.539	-0.144	0.145
-327.158	-200.000	0.030	-0.145
-326.143	-9.458	-0.080	-0.053
-325.129	113.846	-0.045	-0.054
-324.114	-75.025	-0.109	0.039
-323.099	214.747	-0.085	-0.135
-322.085	-200.000	0.051	0.258
-321.070	282.827	0.105	0.189
-320.056	800.000	-0.060	-0.222
-319.041	-200.000	-0.018	-0.278
-318.026	375.162	0.119	-0.241
-317.012	-146.050	0.116	-0.010
-315.997	58.497	0.118	0.115
-314.983	-200.000	0.020	0.230
-313.968	19.758	0.073	-0.059
-312.953	-41.480	0.252	-0.129
-311.939	-200.000	0.060	-0.293
-310.924	180.158	0.130	0.191
-309.910	148.564	0.144	-0.195
-308.895	-118.230	-0.126	-0.022
-307.880	636.218	0.061	0.154
-306.866	167.838	-0.112	0.159
-305.851	105.483	0.456	-0.538
-304.837	75.171	-0.119	-0.125
-303.822	34.248	-0.121	0.106
-302.807	-200.000	0.055	0.253
-301.793	129.967	-0.198	0.253
-300.778	-149.740	0.101	-0.008
-299.764	403.163	0.201	0.422
-298.749	58.826	-0.051	-0.050
-297.735	190.790	-0.076	-0.115
-296.720	-110.108	-0.137	0.029
-295.705	-200.000	-0.018	0.289
-294.691	-115.730	-0.283	0.053
-293.676	-56.798	0.187	0.083
-292.662	425.417	-0.111	0.238
-291.647	-149.174	-0.298	-0.024
-290.632	177.219	-0.128	-0.187
-289.618	1.026	-0.158	0.113
-288.603	-25.239	-0.187	-0.111
-287.589	76.348	0.139	0.146
-286.574	800.000	0.088	0.276
-285.559	201.148	0.059	-0.091
-284.545	800.000	-0.051	-0.161
-283.530	-162.833	-0.148	-0.007
-282.516	469.144	0.131	-0.294
-281.501	-151.699	-0.149	-0.011
-280.486	11.950	-0.145	-0.112
-279.472	387.756	0.144	0.298
-278.457	-200.000	0.035	0.214
-277.443	448.840	-0.135	-0.297
-276.428	341.391	-0.020	-0.040
-275.413	-176.083	0.263	-0.007
-274.399	-200.000	-0.008	-0.060
-273.384	126.893	0.153	0.194
-272.370	800.000	-0.059	0.165
-271.355	-55.670	-0.527	-0.235
-270.340	-32.075	0.181	-0.101
-269.326	-138.742	-0.170	-0.018
-268.311	-94.004	-0.244	-0.067
-267.297	67.911	-0.030	-0.031
-266.282	114.372	-0.242	0.294
-265.267	800.000	-0.051	0.219
-264.253	13.251	0.262	0.203
-263.238	-0.784	-0.024	0.017
-262.224	-200.000	-0.051	0.247
-261.209	-200.000	0.001	0.092
-260.195	-187.936	0.203	0.003
-259.180	-200.000	-0.007	-0.127
-258.165	58.946	0.258	0.253
-257.151	83.945	-0.113	0.123
-256.136	-43.017	-0.193	-0.098
-255.122	433.897	0.165	-0.358
-254.107	-189.202	0.079	-0.001
-253.092	800.000	0.062	-0.201
-252.078	726.185	-0.080	-0.213
-251.063	429.545	-0.065	0.140
-250.049	-13.342	0.054	0.035
-249.034	-37.737	0.229	-0.122
-248.019	737.790	0.056	-0.149
-247.005	368.502	0.189	-0.381
-245.990	52.560	0.296	-0.282
-244.976	31.134	-0.033	-0.028
-243.961	-125.519	-0.125	0.019
-242.946	-200.000	-0.001	0.228
-241.932	-200.000	0.042	0.322
-240.917	-70.750	-0.095	-0.036
-239.903	-38.648	0.094	-0.050
-238.888	93.932	0.236	0.267
-237.873	-55.869	0.049	0.022
-236.859	223.382	0.074	-0.119
-235.844	800.000	-0.022	0.067
-234.830	91.093	0.212	0.237
-233.815	-200.000	0.029	0.211
-232.800	-4.285	-0.243	0.168
-231.786	-50.870	-0.182	-0.085
-230.771	-200.000	0.029	-0.267
-229.757	31.968	0.147	0.126
-228.742	519.887	0.167	-0.391
-227.727	-162.690	-0.184	0.009
-226.713	-200.000	0.014	-0.080
-225.698	-65.911	-0.164	-0.065
-224.684	413.547	0.032	-0.068
-223.669	-109.477	-0.114	-0.024
-222.655	800.000	0.027	-0.095
-221.640	-174.653	0.185	-0.005
-220.625	-51.930	-0.203	-0.094
-219.611	29.447	-0.162	0.137
-218.596	-200.000	-0.064	0.360
-217.582	96.973	0.224	-0.256
-216.567	259.326	-0.154	0.265
-215.552	-139.049	0.232	0.025
-214.538	-61.757	0.062	-0.026
-213.523	161.628	-0.147	0.205
-212.509	-200.000	-0.093	0.553
-211.494	-75.917	-0.219	0.077
-210.479	192.243	0.099	0.149
-209.465	186.618	-0.164	0.242
-208.450	77.616	0.146	0.155
-207.436	-100.592	-0.089	0.022
-206.421	-200.000	0.065	0.397
-205.406	800.000	-0.068	0.231
-204.392	467.110	0.110	0.246
-203.377	-162.490	-0.233	-0.011
-202.363	800.000	0.015	-0.053
-201.348	235.552	-0.192	-0.315
-200.333	-200.000	0.001	-0.075
-199.319	-76.787	0.293	-0.102
-198.304	49.418	-0.178	-0.167
-197.290	-50.109	0.206	0.097
-196.275	-111.906	-0.207	0.042
-195.260	-89.888	-0.278	-0.081
-194.246	-87.334	0.268	-0.081
-193.231	-91.372	-0.265	0.075
-192.217	193.109	-0.083	0.125
-191.202	-200.000	-0.006	-0.132
-190.187	-200.000	-0.034	0.265
-189.173	608.530	0.039	-0.097
-188.158	-81.228	-0.094	-0.031
-187.144	346.277	0.012	-0.023
-186.129	46.615	-0.383	-0.354
-185.114	-200.000	0.021	0.165
-184.100	-81.633	0.237	0.077
-183.085	800.000	0.101	-0.320
-182.071	-179.826	-0.134	0.003
-181.056	-51.373	0.298	-0.138
-180.042	623.935	-0.065	-0.162
-179.027	137.285	-0.157	-0.205
-178.012	640.229	0.082	-0.206
-176.998	583.120	0.087	0.213
-175.983	-16.887	-0.297	-0.186
-174.969	120.230	-0.047	-0.058
-173.954	-151.428	-0.170	-0.013
-172.939	773.312	-0.088	0.239
-171.925	221.510	0.091	-0.145
-170.910	-200.000	-0.008	0.152
-169.896	28.965	-0.111	-0.093
-168.881	-200.000	0.049	0.245
-167.866	147.774	-0.111	0.149
-166.852	800.000	0.045	-0.145
-165.837	-134.552	0.322	-0.039
-164.823	90.797	-0.054	0.060
-163.808	77.514	-0.069	0.073
-162.793	-121.612	0.306	-0.050
-161.779	-91.590	0.394	-0.112
-160.764	-61.104	0.211	-0.088
-159.750	-92.823	-0.306	0.085
-158.735	-126.924	-0.253	0.037
-157.720	664.066	0.021	0.055
-156.706	110.696	0.190	-0.227
-155.691	470.899	-0.045	0.101
-154.677	-138.333	-0.170	0.019
-153.662	800.000	0.096	-0.294
-152.647	800.000	-0.117	-0.383
-151.633	-91.036	-0.347	-0.099
-150.618	-17.787	0.329	-0.205
-149.604	-200.000	-0.066	0.289
-148.589	-200.000	-0.008	-0.140
-147.574	-102.680	0.106	-0.025
-146.560	-115.188	-0.236	0.044
-145.545	63.934	0.383	-0.382
-144.531	143.658	0.068	-0.090
-143.516	-120.757	0.252	-0.042
-142.502	-48.787	-0.111	0.053
-141.487	220.854	-0.113	-0.180
-140.472	-70.650	0.367	0.138
-139.458	34.766	-0.208	-0.180
-138.443	-161.842	-0.080	-0.004
-137.429	-93.113	0.256	0.071
-136.414	-200.000	0.030	0.494
-135.399	43.570	0.089	0.080
-134.385	125.468	-0.076	0.095
-133.370	366.863	0.021	0.042
-132.356	-200.000	-0.007	-0.112
-131.341	-34.359	0.201	-0.109
-130.326	-61.625	0.415	0.173
-129.312	-10.314	0.285	0.187
-128.297	-76.264	-0.394	-0.138
-127.283	-200.000	0.007	-0.147
-126.268	174.761	0.049	0.071
-125.253	800.000	-0.080	-0.301
-124.239	201.805	-0.140	-0.214
-123.224	-111.250	0.384	-0.078
-122.210	-200.000	0.038	-0.244
