DTS Sentinel unit serial number:	SN413079Multiplexer serial number:	ORYXHardware model number:	OX4-SRSoftware version number:	ORYX F/W v4.00 Oryx Data Collector v3.7.2.0data status	okinstallation	princeton_trtdifferential loss correction	single-endedforward channel	channel 4reverse channel	N/Adate	2019/09/11time	23:31:11forward acquisition time	60.00reverse acquisition time	0.00gamma	496.2192k internal	0.2309k external	0.2309temperature offset calibration	1.0078default loss term (dB/km)	0.3790temperature slope calibration	1.0000multiplexer offset coefficient	1.0000multiplexer slope coefficient	1.0000fibre end	0.00T internal ref (°C)	34.22T ext. ref 1 (°C)	1.87T ext. ref 2 (°C)	28.38length (m)	temperature (°C)	Stokes	anti-Stokes-747.200	38.803	-0.026	-0.024
-746.185	-106.612	0.080	-0.018
-745.171	-154.134	0.264	0.018
-744.156	102.893	-0.115	-0.137
-743.142	-84.837	0.356	-0.114
-742.127	-35.877	-0.391	0.215
-741.112	-131.215	-0.163	-0.022
-740.098	167.294	-0.205	0.295
-739.083	-72.086	0.098	-0.037
-738.069	-178.205	-0.177	-0.004
-737.054	153.899	-0.118	0.165
-736.039	800.000	0.069	-0.286
-735.025	-133.785	0.276	0.035
-734.010	75.477	-0.293	0.315
-732.996	800.000	-0.095	-0.301
-731.981	65.429	-0.100	0.102
-730.966	-71.014	0.151	-0.058
-729.952	-200.000	-0.005	-0.255
-728.937	40.499	-0.072	0.066
-727.923	8.716	0.143	0.110
-726.908	-66.252	-0.179	-0.072
-725.894	42.162	0.123	-0.114
-724.879	-48.346	-0.166	-0.081
-723.864	145.548	-0.028	0.038
-722.850	-148.755	0.298	0.025
-721.835	-14.919	-0.176	0.114
-720.821	38.025	-0.223	0.201
-719.806	-41.712	0.290	0.151
-718.791	310.537	-0.119	0.227
-717.777	-58.807	-0.183	-0.080
-716.762	41.068	-0.192	0.176
-715.748	141.862	0.173	-0.233
-714.733	-19.404	-0.218	-0.137
-713.718	23.119	0.161	0.135
-712.704	-71.609	-0.031	0.012
-711.689	-127.210	-0.105	0.016
-710.675	-200.000	0.170	0.000
-709.660	-200.000	0.013	-0.248
-708.645	-9.044	0.219	0.148
-707.631	254.254	0.113	-0.195
-706.616	337.318	0.044	-0.086
-705.602	-74.385	0.091	-0.033
-704.587	-85.626	-0.454	0.143
-703.572	-90.877	-0.181	0.053
-702.558	800.000	-0.089	0.287
-701.543	-128.518	-0.150	-0.022
-700.529	63.257	0.165	-0.168
-699.514	-120.189	0.374	-0.065
-698.499	800.000	0.082	-0.235
-697.485	-15.042	0.112	0.073
-696.470	-200.000	0.049	0.472
-695.456	33.347	0.171	0.150
-694.441	-200.000	0.065	-0.352
-693.426	-200.000	0.131	-0.001
-692.412	-14.593	-0.126	-0.082
-691.397	-48.297	-0.133	-0.065
-690.383	-200.000	-0.019	-0.126
-689.368	-200.000	0.034	-0.326
-688.354	-106.152	0.410	-0.093
-687.339	-200.000	-0.019	-0.307
-686.324	16.107	0.082	-0.066
-685.310	105.928	-0.158	-0.190
-684.295	36.882	-0.039	-0.035
-683.281	-113.721	0.283	0.056
-682.266	100.067	0.062	-0.072
-681.251	798.090	0.195	0.545
-680.237	13.584	0.239	-0.188
-679.222	-25.877	0.203	-0.121
-678.208	-112.466	-0.157	-0.032
-677.193	-79.953	0.045	-0.015
-676.178	-9.029	0.263	0.178
-675.164	-14.197	0.097	0.063
-674.149	-73.445	0.058	0.022
-673.135	149.749	-0.283	-0.389
-672.120	-90.383	-0.159	0.047
-671.105	-96.112	0.375	0.101
-670.091	124.805	0.064	-0.082
-669.076	338.931	0.077	0.152
-668.062	-135.022	0.251	0.031
-667.047	28.160	0.130	-0.111
-666.032	-104.739	0.161	0.038
-665.018	267.925	-0.172	-0.305
-664.003	-200.000	-0.050	-0.234
-662.989	800.000	-0.052	0.166
-661.974	-200.000	-0.038	-0.204
-660.959	-169.435	0.154	0.006
-659.945	138.045	0.210	0.278
-658.930	18.130	-0.341	0.275
-657.916	76.670	0.283	0.304
-656.901	-122.084	-0.198	0.033
-655.886	-155.437	0.307	0.020
-654.872	-76.233	-0.122	0.044
-653.857	16.185	-0.265	-0.211
-652.843	800.000	-0.072	0.246
-651.828	-171.497	-0.280	0.009
-650.814	-59.375	-0.229	0.099
-649.799	73.883	-0.164	0.175
-648.784	800.000	-0.082	0.298
-647.770	139.810	0.276	0.369
-646.755	-200.000	-0.013	0.353
-645.741	-200.000	0.008	0.234
-644.726	800.000	-0.066	0.279
-643.711	-29.186	-0.407	-0.236
-642.697	-132.547	0.228	-0.030
-641.682	-77.926	-0.145	0.051
-640.668	187.080	-0.169	-0.255
-639.653	-144.390	0.064	-0.006
-638.638	71.233	0.136	0.142
-637.624	29.884	0.091	-0.078
-636.609	-81.417	-0.149	-0.050
-635.595	30.252	0.077	0.066
-634.580	219.653	-0.111	0.180
-633.565	-17.983	0.059	0.037
-632.551	800.000	0.039	0.165
-631.536	-200.000	-0.009	-0.101
-630.522	721.509	0.138	-0.373
-629.507	-111.606	0.490	-0.101
-628.492	-107.823	-0.250	0.055
-627.478	-93.991	-0.142	-0.039
-626.463	-200.000	-0.042	0.187
-625.449	39.490	0.217	-0.197
-624.434	24.738	-0.101	-0.085
-623.419	-164.974	0.182	0.008
-622.405	22.517	-0.115	0.095
-621.390	147.325	-0.152	0.206
-620.376	-35.643	0.438	0.240
-619.361	30.883	0.090	-0.078
-618.346	31.575	0.169	-0.147
-617.332	-130.938	0.200	0.027
-616.317	399.989	-0.090	-0.192
-615.303	638.504	-0.097	0.250
-614.288	800.000	0.042	-0.164
-613.273	161.484	-0.032	-0.045
-612.259	-42.485	0.300	0.154
-611.244	-40.500	0.198	-0.104
-610.230	-170.378	-0.199	0.007
-609.215	233.739	-0.148	0.247
-608.201	800.000	0.065	0.248
-607.186	672.091	-0.067	-0.177
-606.171	-96.862	0.195	0.052
-605.157	160.844	-0.180	0.255
-604.142	77.830	-0.192	0.207
-603.128	540.700	0.101	0.242
-602.113	-165.943	-0.444	-0.019
-601.098	1.878	0.056	0.041
-600.084	-25.195	0.207	0.124
-599.069	-27.138	-0.117	-0.069
-598.055	106.036	-0.147	-0.176
-597.040	-135.511	-0.420	0.051
-596.025	-16.076	0.260	0.167
-595.011	-78.752	-0.025	-0.009
-593.996	333.247	0.056	0.109
-592.982	-200.000	0.025	0.290
-591.967	-200.000	0.003	0.082
-590.952	-82.866	0.125	-0.041
-589.938	442.112	-0.130	0.288
-588.923	-130.587	0.137	-0.019
-587.909	-72.800	-0.042	-0.016
-586.894	258.356	-0.061	-0.107
-585.879	-68.693	-0.125	-0.049
-584.865	-200.000	-0.010	-0.404
-583.850	210.622	-0.117	-0.186
-582.836	-170.861	0.247	-0.009
-581.821	-200.000	-0.006	0.033
-580.806	-6.741	-0.080	-0.055
-579.792	-200.000	-0.009	0.242
-578.777	-114.652	0.232	-0.045
-577.763	-80.508	0.037	-0.013
-576.748	80.077	0.116	-0.126
-575.733	353.014	0.076	-0.152
-574.719	-200.000	-0.004	0.244
-573.704	542.576	0.128	0.307
-572.690	4.002	-0.092	0.068
-571.675	124.392	-0.106	-0.134
-570.661	92.196	-0.042	-0.047
-569.646	-129.379	0.161	-0.023
-568.631	-200.000	0.017	-0.118
-567.617	260.886	0.168	0.293
-566.602	-112.797	0.120	0.024
-565.588	790.385	0.069	-0.192
-564.573	-91.328	-0.130	0.038
-563.558	-122.034	-0.214	0.035
-562.544	208.733	0.164	0.259
-561.529	583.639	0.113	0.280
-560.515	-40.026	0.319	0.168
-559.500	39.228	-0.289	0.261
-558.485	-134.084	0.064	-0.008
-557.471	-70.147	0.135	0.052
-556.456	-59.871	-0.223	0.096
-555.442	60.561	-0.059	0.059
-554.427	-200.000	-0.046	-0.248
-553.412	-200.000	-0.010	0.528
-552.398	800.000	-0.017	-0.066
-551.383	800.000	-0.104	-0.302
-550.369	-200.000	-0.034	0.346
-549.354	396.199	-0.215	-0.454
-548.339	-109.325	0.325	0.070
-547.325	45.436	0.074	0.069
-546.310	488.843	0.108	0.250
-545.296	-200.000	-0.016	-0.087
-544.281	-80.327	0.273	-0.092
-543.266	-152.500	-0.221	-0.016
-542.252	-134.573	-0.131	0.016
-541.237	-17.752	0.120	0.076
-540.223	148.769	0.291	0.396
-539.208	-154.485	0.426	0.029
-538.193	-200.000	0.030	-0.231
-537.179	-200.000	-0.022	0.141
-536.164	800.000	-0.111	-0.413
-535.150	105.344	-0.118	-0.140
-534.135	-4.590	0.355	-0.247
-533.121	118.241	-0.123	-0.153
-532.106	-8.520	-0.267	0.181
-531.091	-200.000	0.029	0.301
-530.077	-135.966	0.087	-0.010
-529.062	347.407	-0.050	0.099
-528.048	-161.103	-0.317	0.017
-527.033	-47.700	-0.097	-0.047
-526.018	283.933	0.098	0.177
-525.004	464.863	0.073	-0.164
-523.989	800.000	0.086	-0.273
-522.975	-3.551	-0.319	0.223
-521.960	-200.000	-0.041	-0.190
-520.945	408.859	0.217	-0.463
-519.931	694.799	0.026	0.067
-518.916	-200.000	0.031	-0.221
-517.902	-140.123	0.208	0.022
-516.887	99.736	-0.151	-0.177
-515.872	178.620	-0.098	-0.144
-514.858	505.913	0.148	0.345
-513.843	-117.166	-0.497	0.091
-512.829	21.216	0.266	0.217
-511.814	70.318	0.083	0.086
-510.799	-141.136	-0.219	0.022
-509.785	-90.246	0.307	-0.090
-508.770	242.464	-0.098	-0.164
-507.756	-32.321	-0.322	0.181
-506.741	-200.000	0.019	-0.336
-505.726	-200.000	0.019	-0.107
-504.712	568.927	0.075	-0.183
-503.697	-23.648	0.290	-0.175
-502.683	68.303	-0.255	0.263
-501.668	453.276	0.135	0.302
-500.653	-113.499	-0.204	-0.040
-499.639	-166.004	-0.192	-0.008
-498.624	-200.000	0.010	-0.081
-497.610	127.000	-0.292	-0.372
-496.595	-200.000	-0.050	0.251
-495.581	800.000	0.009	0.029
-494.566	-122.543	0.371	-0.061
-493.551	-200.000	-0.007	0.029
-492.537	-131.900	-0.449	0.059
-491.522	-140.742	0.292	0.030
-490.508	800.000	-0.076	0.276
-489.493	-122.323	0.327	-0.054
-488.478	-200.000	-0.043	-0.418
-487.464	800.000	0.040	-0.152
-486.449	85.883	0.067	-0.075
-485.435	-65.491	0.215	-0.087
-484.420	-200.000	-0.034	-0.175
-483.405	-18.734	-0.174	-0.109
-482.391	-200.000	-0.021	0.140
-481.376	-21.407	-0.252	-0.155
-480.362	-200.000	0.080	0.357
-479.347	-17.112	-0.105	-0.067
-478.332	72.540	0.159	0.167
-477.318	-68.289	-0.291	0.114
-476.303	335.286	-0.021	-0.041
-475.289	78.087	0.105	0.113
-474.274	120.892	-0.288	-0.360
-473.259	-200.000	0.011	-0.316
-472.245	-58.217	-0.158	-0.069
-471.230	-47.214	-0.134	0.066
-470.216	489.219	0.045	0.103
-469.201	-48.531	0.175	-0.085
-468.186	399.573	0.041	0.086
-467.172	40.512	-0.343	-0.310
-466.157	-105.509	-0.015	0.003
-465.143	-200.000	-0.016	0.075
-464.128	448.905	0.111	-0.247
-463.113	-80.933	-0.081	-0.027
-462.099	-161.419	0.250	-0.013
-461.084	-124.140	0.181	0.029
-460.070	81.377	-0.192	0.209
-459.055	127.411	0.026	0.033
-458.040	33.075	0.117	-0.102
-457.026	7.271	-0.186	-0.139
-456.011	63.037	-0.112	0.113
-454.997	417.066	-0.047	-0.102
-453.982	109.902	0.159	-0.192
-452.968	102.514	-0.155	-0.182
-451.953	-16.722	0.242	-0.154
-450.938	-92.632	-0.211	-0.059
-449.924	549.798	-0.062	-0.150
-448.909	411.956	-0.028	-0.060
-447.895	-28.613	0.215	-0.124
-446.880	-192.426	0.199	-0.002
-445.865	800.000	0.059	-0.226
-444.851	-74.619	0.333	-0.120
-443.836	-120.839	-0.199	0.034
-442.822	401.758	0.054	0.113
-441.807	-200.000	-0.003	0.024
-440.792	-26.956	-0.279	-0.163
-439.778	-136.971	0.260	0.030
-438.763	-200.000	0.009	0.066
-437.749	-200.000	-0.031	0.154
-436.734	-100.293	0.212	0.053
-435.719	165.947	0.077	0.110
-434.705	-140.343	-0.094	-0.010
-433.690	-200.000	-0.033	0.204
-432.676	-200.000	-0.013	-0.176
-431.661	-36.491	-0.361	-0.195
-430.646	33.637	-0.124	0.108
-429.632	12.567	-0.065	-0.050
-428.617	-154.912	-0.059	0.004
-427.603	-103.648	0.036	0.009
-426.588	52.979	-0.047	0.045
-425.573	-200.000	-0.014	0.081
-424.559	800.000	-0.043	0.133
-423.544	99.887	-0.207	0.240
-422.530	-131.998	-0.190	-0.025
-421.515	-200.000	-0.045	-0.270
-420.500	255.294	-0.073	-0.126
-419.486	125.888	-0.048	-0.061
-418.471	334.283	-0.171	-0.331
-417.457	800.000	-0.076	-0.284
-416.442	195.029	-0.047	0.071
-415.428	25.893	-0.109	-0.091
-414.413	-200.000	0.005	-0.065
-413.398	430.004	0.072	0.156
-412.384	71.097	-0.270	0.281
-411.369	51.442	-0.171	0.163
-410.355	-127.870	0.281	-0.041
-409.340	225.104	0.196	0.318
-408.325	190.714	-0.058	-0.087
-407.311	223.964	-0.093	0.150
-406.296	86.837	0.167	0.185
-405.282	21.705	0.271	-0.221
-404.267	-176.260	-0.149	0.004
-403.252	-96.096	-0.066	-0.018
-402.238	30.711	-0.146	-0.125
-401.223	-200.000	0.020	-0.430
-400.209	552.042	0.091	0.218
-399.194	800.000	0.076	0.292
-398.179	210.780	0.101	0.160
-397.165	116.805	0.075	-0.092
-396.150	800.000	-0.058	-0.243
-395.136	-74.728	0.314	-0.113
-394.121	48.637	0.195	-0.183
-393.106	493.170	-0.019	-0.043
-392.092	234.591	0.185	-0.306
-391.077	-91.820	0.188	-0.054
-390.063	-102.570	-0.364	-0.087
-389.048	134.715	0.170	0.221
-388.033	182.965	0.136	0.201
-387.019	-23.230	-0.216	0.131
-386.004	58.438	-0.120	0.118
-384.990	95.599	0.283	0.323
-383.975	302.654	0.058	-0.108
-382.960	-61.230	0.352	-0.149
-381.946	-109.630	0.214	0.045
-380.931	-128.528	-0.127	-0.018
-379.917	163.692	-0.092	-0.129
-378.902	125.430	0.062	0.078
-377.888	291.246	0.245	-0.447
-376.873	-11.789	-0.244	-0.161
-375.858	161.974	-0.114	0.160
-374.844	-91.794	-0.167	-0.048
-373.829	-135.087	0.092	0.011
-372.815	-80.103	-0.205	-0.069
-371.800	25.430	0.077	-0.064
-370.785	-10.134	0.333	-0.222
-369.771	-11.950	0.162	0.106
-368.756	-22.952	0.286	-0.173
-367.742	-140.313	0.096	0.010
-366.727	-126.658	-0.417	0.062
-365.712	134.679	0.135	-0.176
-364.698	-200.000	-0.046	-0.379
-363.683	-200.000	-0.029	-0.464
-362.669	103.814	-0.244	-0.287
-361.654	-128.186	0.334	0.048
-360.639	800.000	-0.066	-0.250
-359.625	11.934	0.257	0.198
-358.610	800.000	-0.067	0.233
-357.596	363.097	-0.074	0.149
-356.581	49.284	0.117	-0.110
-355.566	-200.000	-0.092	0.413
-354.552	427.348	0.016	-0.035
-353.537	24.089	-0.245	-0.202
-352.523	-2.794	-0.116	-0.081
-351.508	-20.321	-0.475	0.292
-350.493	92.723	-0.267	0.301
-349.479	259.640	0.137	0.237
-348.464	77.393	0.095	-0.102
-347.450	43.077	-0.312	0.285
-346.435	-8.478	-0.174	-0.117
-345.420	-200.000	-0.003	-0.271
-344.406	-200.000	0.040	0.196
-343.391	78.427	0.038	-0.041
-342.377	-132.989	-0.034	0.004
-341.362	-139.521	-0.206	0.022
-340.348	-196.129	-0.352	-0.002
-339.333	-150.985	0.357	-0.027
-338.318	-38.234	-0.074	0.039
-337.304	-200.000	-0.010	0.115
-336.289	-138.302	0.458	0.051
-335.275	150.212	-0.030	-0.041
-334.260	-160.904	-0.165	0.009
-333.245	-25.536	-0.391	-0.231
-332.231	168.853	-0.158	-0.225
-331.216	-37.352	-0.095	0.051
-330.202	37.323	0.125	0.110
-329.187	-200.000	0.017	-0.082
-328.172	800.000	-0.065	0.259
-327.158	-89.421	0.409	-0.120
-326.143	800.000	-0.069	-0.227
-325.129	-102.591	-0.197	-0.047
-324.114	725.835	-0.108	0.287
-323.099	-91.642	0.154	-0.044
-322.085	420.420	0.111	0.239
-321.070	71.819	-0.092	0.096
-320.056	567.857	-0.012	-0.030
-319.041	59.679	0.120	-0.118
-318.026	-81.910	0.367	-0.120
-317.012	-200.000	0.004	-0.037
-315.997	800.000	0.095	0.369
-314.983	416.235	0.177	0.377
-313.968	-86.038	-0.535	0.165
-312.953	201.443	-0.084	-0.129
-311.939	-120.522	-0.224	0.038
-310.924	-22.770	-0.316	-0.191
-309.910	19.504	0.084	-0.068
-308.895	-175.332	0.235	0.006
-307.880	736.676	-0.061	0.164
-306.866	-97.135	-0.095	-0.025
-305.851	-193.453	0.301	-0.003
-304.837	717.478	0.126	-0.335
-303.822	-69.463	-0.089	-0.034
-302.807	491.850	-0.086	0.196
-301.793	-64.118	0.232	-0.094
-300.778	-16.048	0.210	-0.133
-299.764	-96.220	0.287	-0.076
-298.749	-112.355	-0.261	-0.052
-297.735	383.189	0.099	-0.204
-296.720	19.976	0.134	0.107
-295.705	-200.000	0.029	-0.244
-294.691	-90.578	0.222	0.064
-293.676	-6.619	0.182	0.123
-292.662	-200.000	0.038	0.268
-291.647	6.035	-0.123	0.091
-290.632	-33.422	-0.091	0.050
-289.618	-200.000	-0.013	0.067
-288.603	138.705	-0.096	-0.126
-287.589	-200.000	0.044	-0.293
-286.574	-104.176	-0.129	-0.030
-285.559	-118.498	0.122	0.022
-284.545	800.000	-0.098	-0.311
-283.530	-182.986	0.146	0.003
-282.516	28.056	-0.223	-0.188
-281.501	800.000	0.079	-0.251
-280.486	85.692	-0.126	0.138
-279.472	244.892	0.172	-0.288
-278.457	-179.204	-0.218	-0.005
-277.443	-6.756	-0.217	0.147
-276.428	-200.000	-0.015	0.070
-275.413	207.342	-0.198	0.308
-274.399	273.864	0.077	0.136
-273.384	-200.000	-0.037	-0.346
-272.370	-131.667	-0.374	-0.049
-271.355	49.123	-0.072	0.067
-270.340	-200.000	0.002	-0.071
-269.326	79.773	0.084	0.090
-268.311	64.596	-0.093	-0.094
-267.297	11.375	0.393	0.300
-266.282	-200.000	0.007	0.040
-265.267	510.666	0.069	-0.159
-264.253	66.052	-0.105	0.106
-263.238	-200.000	0.015	0.220
-262.224	-124.490	0.179	0.028
-261.209	500.683	0.089	-0.205
-260.195	-168.916	-0.062	-0.002
-259.180	-25.890	-0.250	-0.147
-258.165	-33.805	0.095	-0.052
-257.151	53.583	0.081	-0.077
-256.136	403.160	-0.094	0.196
-255.122	235.290	0.048	-0.079
-254.107	-200.000	-0.011	0.300
-253.092	-100.971	0.427	0.105
-252.078	-172.306	0.231	-0.007
-251.063	379.274	-0.064	-0.131
-250.049	-61.777	0.218	0.091
-249.034	47.198	-0.284	0.264
-248.019	-200.000	0.032	-0.329
-247.005	23.113	0.463	-0.379
-245.990	-127.966	-0.464	-0.066
-244.976	244.733	-0.057	-0.095
-243.961	32.886	-0.231	0.199
-242.946	-200.000	0.041	0.187
-241.932	194.904	-0.315	-0.477
-240.917	4.485	-0.072	-0.053
-239.903	800.000	0.077	0.233
-238.888	-36.624	-0.277	0.148
-237.873	5.192	0.164	-0.120
-236.859	-92.743	0.270	0.075
-235.844	-200.000	0.021	0.331
-234.830	-123.615	-0.251	-0.040
-233.815	-157.494	0.121	-0.007
-232.800	-87.403	0.250	-0.075
-231.786	140.042	0.092	0.120
-230.771	-188.911	-0.215	0.003
-229.757	-200.000	-0.017	0.153
-228.742	-42.200	0.140	-0.071
-227.727	70.312	-0.028	-0.029
-226.713	258.798	-0.042	-0.072
-225.698	-173.555	-0.186	0.006
-224.684	-159.766	-0.234	0.013
-223.669	800.000	0.012	0.049
-222.655	-200.000	0.049	0.258
-221.640	-36.306	-0.331	-0.178
-220.625	713.001	-0.049	-0.129
-219.611	339.157	-0.142	0.275
-218.596	7.000	-0.081	-0.060
-217.582	53.665	-0.306	0.292
-216.567	236.644	0.037	0.062
-215.552	-106.688	-0.192	-0.043
-214.538	800.000	0.090	-0.263
-213.523	800.000	0.022	0.075
-212.509	534.982	-0.091	0.214
-211.494	72.383	0.350	0.363
-210.479	220.321	-0.131	0.208
-209.465	-15.150	0.022	-0.014
-208.450	439.545	-0.176	-0.381
-207.436	-50.808	0.128	0.060
-206.421	25.054	-0.039	-0.032
-205.406	178.901	0.128	-0.186
-204.392	509.540	-0.096	0.222
-203.377	-130.047	0.050	0.007
-202.363	-115.007	0.241	-0.045
-201.348	30.001	-0.166	-0.140
-200.333	222.038	0.074	0.118
-199.319	-77.318	-0.126	-0.043
-198.304	23.573	0.122	0.099
-197.290	-200.000	-0.011	-0.205
-196.275	-146.483	0.242	0.021
-195.260	70.375	-0.156	0.161
-194.246	-45.313	-0.161	0.079
-193.231	-67.282	-0.095	0.037
-192.217	285.622	-0.160	-0.286
-191.202	72.384	-0.170	-0.176
-190.187	392.050	-0.038	-0.078
-189.173	-200.000	-0.073	0.365
-188.158	-200.000	-0.053	0.252
-187.144	800.000	-0.075	-0.208
-186.129	-197.649	0.133	0.001
-185.114	-152.585	0.180	0.013
-184.100	-67.715	0.233	-0.091
-183.085	331.982	0.082	0.158
-182.071	-143.285	-0.349	0.033
-181.056	19.939	0.112	0.089
-180.042	165.556	0.133	-0.186
-179.027	-114.826	0.065	0.012
-178.012	-169.648	-0.047	-0.002
-176.998	195.797	0.020	0.030
-175.983	-110.384	0.299	-0.062
-174.969	69.006	0.193	0.198
-173.954	-200.000	-0.057	-0.517
-172.939	-50.910	0.087	-0.040
-171.925	-112.816	0.212	-0.042
-170.910	-101.716	-0.328	-0.079
-169.896	135.715	-0.058	-0.075
-168.881	14.850	-0.225	-0.175
-167.866	-30.428	-0.180	0.101
-166.852	48.386	0.192	0.179
-165.837	606.699	0.043	0.107
-164.823	607.429	0.057	-0.142
-163.808	-200.000	-0.060	-0.275
-162.793	-200.000	-0.004	-0.215
-161.779	-200.000	0.184	0.000
-160.764	-200.000	0.090	0.461
-159.750	408.501	0.024	-0.050
-158.735	-102.867	0.313	0.074
-157.720	-76.429	0.200	-0.070
-156.706	-0.149	0.220	-0.156
-155.691	25.948	-0.232	0.192
-154.677	-44.316	0.421	0.209
-153.662	-113.903	-0.447	0.086
-152.647	-51.140	0.276	-0.128
-151.633	-97.516	0.238	-0.062
-150.618	-200.000	0.028	-0.168
-149.604	-200.000	-0.017	-0.159
-148.589	98.974	0.177	0.203
-147.574	-148.745	-0.288	-0.023
-146.560	-87.401	-0.189	-0.057
-145.545	47.260	0.113	-0.104
-144.531	-200.000	-0.032	0.205
-143.516	-2.183	0.188	-0.131
-142.502	-39.881	0.122	0.063
-141.487	-170.007	-0.061	0.002
-140.472	-200.000	-0.016	0.163
-139.458	-200.000	0.015	-0.102
-138.443	-200.000	0.046	0.238
-137.429	-115.199	-0.266	0.050
-136.414	800.000	0.072	0.240
-135.399	-11.657	0.169	0.110
-134.385	431.441	0.133	0.285
-133.370	-155.586	0.168	0.011
-132.356	29.563	-0.219	-0.185
-131.341	-86.263	-0.417	-0.127
-130.326	765.263	-0.061	0.165
-129.312	24.630	0.081	0.067
-128.297	-200.000	-0.012	0.121
-127.283	48.212	0.191	0.177
-126.268	507.764	-0.037	0.085
-125.253	211.936	0.148	-0.231
-124.239	215.842	-0.075	-0.118
-123.224	528.833	0.052	-0.122
-122.210	258.484	-0.085	-0.146
