DTS Sentinel unit serial number:	SN413079Multiplexer serial number:	ORYXHardware model number:	OX4-SRSoftware version number:	ORYX F/W v4.00 Oryx Data Collector v3.7.2.0data status	okinstallation	princeton_trtdifferential loss correction	single-endedforward channel	channel 4reverse channel	N/Adate	2019/09/15time	15:01:35forward acquisition time	60.00reverse acquisition time	0.00gamma	496.2192k internal	0.2288k external	0.2288temperature offset calibration	0.9970default loss term (dB/km)	0.3790temperature slope calibration	1.0000multiplexer offset coefficient	1.0000multiplexer slope coefficient	1.0000fibre end	0.00T internal ref (°C)	40.20T ext. ref 1 (°C)	4.93T ext. ref 2 (°C)	37.44length (m)	temperature (°C)	Stokes	anti-Stokes-747.200	-65.270	0.305	-0.126
-746.185	-178.934	-0.332	-0.008
-745.171	304.460	-0.092	0.175
-744.156	380.871	-0.110	0.231
-743.142	800.000	-0.080	0.260
-742.127	-200.000	0.030	0.353
-741.112	146.860	-0.120	-0.166
-740.098	-200.000	-0.036	0.235
-739.083	-200.000	-0.026	0.345
-738.069	376.322	-0.159	0.332
-737.054	23.495	0.314	0.264
-736.039	103.359	-0.175	0.211
-735.025	27.673	0.119	0.103
-734.010	-200.000	0.058	-0.332
-732.996	86.582	-0.294	-0.333
-731.981	0.627	-0.160	0.117
-730.966	-200.000	-0.025	0.350
-729.952	-31.178	0.327	0.189
-728.937	-149.595	-0.156	0.013
-727.923	-200.000	0.042	-0.207
-726.908	-200.000	0.005	-0.121
-725.894	-200.000	-0.002	-0.144
-724.879	-44.600	-0.167	-0.085
-723.864	211.089	0.187	0.302
-722.850	-67.474	-0.045	0.018
-721.835	800.000	-0.078	0.265
-720.821	800.000	0.036	0.154
-719.806	101.350	-0.136	-0.162
-718.791	557.691	-0.088	-0.219
-717.777	24.235	-0.161	0.136
-716.762	-1.173	0.191	0.138
-715.748	-200.000	0.015	0.382
-714.733	-200.000	0.010	0.214
-713.718	382.416	0.072	-0.151
-712.704	13.879	-0.026	-0.021
-711.689	177.975	-0.095	0.142
-710.675	-139.051	-0.048	-0.005
-709.660	-85.252	0.319	0.102
-708.645	84.794	0.219	0.245
-707.631	-69.460	0.221	0.087
-706.616	-162.741	0.222	0.011
-705.602	20.864	-0.210	0.174
-704.587	-4.294	-0.177	0.126
-703.572	30.970	0.282	-0.248
-702.558	59.762	-0.134	0.135
-701.543	-200.000	0.016	-0.201
-700.529	116.433	0.084	0.105
-699.514	108.158	-0.095	0.116
-698.499	40.054	-0.147	0.135
-697.485	561.030	0.056	0.139
-696.470	16.088	-0.174	0.140
-695.456	-200.000	0.035	0.184
-694.441	144.528	0.285	-0.389
-693.426	-200.000	-0.011	-0.735
-692.412	-102.920	0.203	0.049
-691.397	70.333	0.059	-0.062
-690.383	18.438	0.135	-0.111
-689.368	-153.705	-0.302	0.021
-688.354	-37.769	0.224	0.122
-687.339	19.065	0.093	-0.076
-686.324	800.000	0.064	-0.182
-685.310	-48.224	0.255	0.126
-684.295	-132.791	-0.292	0.038
-683.281	-168.451	-0.458	0.018
-682.266	90.373	0.164	0.187
-681.251	-110.541	0.148	0.031
-680.237	400.436	0.108	-0.232
-679.222	800.000	-0.022	-0.099
-678.208	190.507	-0.177	0.272
-677.193	34.711	0.352	0.314
-676.178	-200.000	-0.014	-0.063
-675.164	133.299	0.127	0.168
-674.149	158.070	-0.024	-0.033
-673.135	-128.246	0.186	-0.027
-672.120	222.139	0.071	0.117
-671.105	138.777	-0.101	-0.136
-670.091	-200.000	0.061	-0.371
-669.076	207.790	0.085	-0.136
-668.062	95.343	0.231	0.269
-667.047	-86.536	-0.082	0.026
-666.032	-56.493	0.388	-0.176
-665.018	-154.187	-0.167	-0.012
-664.003	-200.000	-0.017	0.170
-662.989	414.000	-0.018	-0.040
-661.974	-200.000	-0.035	-0.321
-660.959	-132.665	-0.127	-0.017
-659.945	124.349	-0.088	0.113
-658.930	236.105	0.104	0.175
-657.916	118.264	0.048	0.060
-656.901	800.000	-0.042	0.118
-655.886	109.940	-0.186	0.228
-654.872	-65.070	-0.315	-0.130
-653.857	34.802	-0.338	-0.302
-652.843	274.259	-0.051	-0.093
-651.828	-155.299	-0.382	0.025
-650.814	155.166	-0.085	-0.120
-649.799	-2.804	0.267	-0.191
-648.784	-65.377	0.096	-0.039
-647.770	741.611	0.108	0.296
-646.755	-200.000	-0.021	-0.255
-645.741	800.000	-0.056	-0.176
-644.726	-200.000	0.019	-0.260
-643.711	-121.530	-0.330	-0.056
-642.697	291.010	-0.104	-0.193
-641.682	-24.793	0.216	0.131
-640.668	-200.000	0.092	0.415
-639.653	422.275	-0.079	-0.173
-638.638	205.184	0.112	-0.178
-637.624	27.100	0.210	0.180
-636.609	-78.642	0.093	-0.033
-635.595	-200.000	0.313	-0.000
-634.580	-200.000	-0.004	0.125
-633.565	-148.555	-0.281	-0.023
-632.551	174.106	0.144	-0.213
-631.536	-200.000	0.029	0.291
-630.522	130.324	-0.202	0.265
-629.507	368.879	-0.067	-0.139
-628.492	-41.991	-0.249	-0.130
-627.478	-200.000	0.074	-0.557
-626.463	112.638	-0.160	-0.197
-625.449	-66.918	0.296	-0.119
-624.434	117.805	0.105	0.132
-623.419	-72.683	0.097	0.036
-622.405	39.172	0.039	-0.036
-621.390	-99.250	-0.075	0.019
-620.376	-200.000	-0.018	0.337
-619.361	162.100	0.087	0.124
-618.346	-200.000	0.012	0.078
-617.332	-200.000	-0.034	-0.443
-616.317	-23.324	0.154	0.094
-615.303	-200.000	-0.000	0.113
-614.288	-88.767	0.261	0.079
-613.273	-131.917	0.312	-0.042
-612.259	408.558	0.020	-0.044
-611.244	-13.770	-0.238	-0.157
-610.230	-200.000	0.018	0.213
-609.215	-12.558	-0.210	0.140
-608.201	27.990	-0.214	-0.184
-607.186	-90.574	0.588	0.173
-606.171	406.410	-0.092	-0.197
-605.157	219.302	-0.079	-0.130
-604.142	800.000	0.073	0.295
-603.128	-145.560	0.172	0.016
-602.113	45.267	0.214	0.201
-601.098	-200.000	-0.036	0.263
-600.084	116.327	0.205	-0.256
-599.069	-125.494	-0.285	-0.044
-598.055	-12.078	0.334	-0.223
-597.040	800.000	0.098	0.292
-596.025	-200.000	0.027	0.133
-595.011	189.349	0.186	0.284
-593.996	-58.329	-0.175	-0.078
-592.982	-200.000	-0.031	-0.474
-591.967	-133.228	0.156	-0.020
-590.952	656.415	-0.033	-0.088
-589.938	-200.000	0.137	0.000
-588.923	800.000	0.072	-0.316
-587.909	85.548	-0.126	-0.141
-586.894	396.037	-0.158	0.336
-585.879	26.064	-0.054	0.046
-584.865	-200.000	-0.043	0.299
-583.850	-66.434	-0.213	-0.086
-582.836	-2.671	-0.418	0.298
-581.821	47.563	0.176	0.167
-580.806	-92.599	0.165	-0.047
-579.792	-143.271	0.285	-0.028
-578.777	-170.367	-0.411	0.015
-577.763	-110.192	-0.462	-0.098
-576.748	-49.818	0.268	0.130
-575.733	-150.963	-0.085	0.007
-574.719	15.202	0.282	-0.225
-573.704	-24.843	-0.324	-0.196
-572.690	800.000	-0.037	0.133
-571.675	800.000	0.050	0.158
-570.661	800.000	0.050	0.168
-569.646	-22.341	0.276	-0.170
-568.631	-200.000	-0.012	-0.309
-567.617	-200.000	-0.029	-0.445
-566.602	-200.000	-0.000	-0.375
-565.588	196.592	0.047	0.072
-564.573	548.910	-0.064	0.156
-563.558	-2.427	-0.169	0.120
-562.544	375.760	-0.092	-0.191
-561.529	334.226	0.147	0.289
-560.515	638.911	0.049	-0.126
-559.500	800.000	0.069	-0.268
-558.485	2.909	-0.325	0.240
-557.471	-200.000	-0.092	0.536
-556.456	524.421	0.038	0.090
-555.442	120.793	-0.055	0.070
-554.427	12.835	0.132	0.104
-553.412	-68.961	-0.255	-0.100
-552.398	800.000	-0.070	-0.243
-551.383	25.516	-0.147	0.124
-550.369	-63.711	-0.268	0.112
-549.354	100.643	-0.164	0.193
-548.339	616.636	0.046	-0.117
-547.325	154.997	0.141	-0.197
-546.310	-200.000	0.039	-0.178
-545.296	800.000	-0.077	0.224
-544.281	157.088	-0.150	0.210
-543.266	-126.273	-0.296	0.045
-542.252	-118.924	0.206	0.037
-541.237	-185.964	-0.186	-0.003
-540.223	17.068	0.147	-0.119
-539.208	89.981	-0.125	-0.142
-538.193	174.513	-0.065	-0.095
-537.179	-1.812	-0.185	0.133
-536.164	-200.000	-0.041	-0.205
-535.150	-16.046	0.056	0.036
-534.135	-200.000	0.009	0.098
-533.121	181.266	0.074	0.111
-532.106	-134.603	-0.295	-0.037
-531.091	-95.058	0.323	0.089
-530.077	800.000	0.038	-0.150
-529.062	81.229	0.122	0.134
-528.048	100.165	-0.088	-0.104
-527.033	-78.144	0.242	0.085
-526.018	-116.997	-0.108	0.020
-525.004	-200.000	-0.043	-0.259
-523.989	87.772	0.052	0.059
-522.975	800.000	-0.073	-0.219
-521.960	17.818	0.107	-0.087
-520.945	-22.003	-0.076	-0.047
-519.931	-200.000	-0.001	0.155
-518.916	262.351	0.058	0.102
-517.902	8.500	0.198	0.151
-516.887	800.000	-0.095	0.318
-515.872	-117.536	0.240	0.044
-514.858	800.000	0.060	-0.197
-513.843	-12.924	0.049	-0.032
-512.829	-64.557	-0.203	-0.084
-511.814	-200.000	-0.060	-0.358
-510.799	-7.764	0.162	0.111
-509.785	63.796	-0.131	0.133
-508.770	108.095	0.104	-0.126
-507.756	-41.591	0.118	-0.062
-506.741	-84.703	0.262	0.084
-505.726	-200.000	-0.048	-0.228
-504.712	-110.121	0.396	-0.084
-503.697	46.243	-0.143	-0.135
-502.683	-59.172	0.096	-0.042
-501.668	14.115	-0.151	-0.120
-500.653	-200.000	0.069	-0.323
-499.639	226.822	0.181	-0.299
-498.624	800.000	0.000	-0.001
-497.610	215.526	0.062	0.100
-496.595	674.708	-0.113	0.297
-495.581	180.331	0.146	0.217
-494.566	23.037	0.166	0.138
-493.551	-200.000	0.032	0.162
-492.537	89.442	-0.012	0.014
-491.522	253.864	0.091	-0.158
-490.508	316.578	0.065	-0.125
-489.493	800.000	-0.034	0.127
-488.478	202.875	-0.163	-0.255
-487.464	-46.188	-0.201	-0.101
-486.449	12.978	-0.204	0.160
-485.435	-45.256	0.230	0.116
-484.420	-137.894	0.297	0.034
-483.405	-94.906	-0.192	0.053
-482.391	637.055	0.061	-0.158
-481.376	215.507	0.141	-0.227
-480.362	-80.702	-0.017	0.006
-479.347	-156.903	0.319	-0.020
-478.332	23.714	0.197	0.164
-477.318	-59.370	0.153	-0.067
-476.303	-200.000	-0.037	0.212
-475.289	507.474	0.082	0.193
-474.274	-200.000	0.049	-0.331
-473.259	-200.000	0.011	-0.248
-472.245	800.000	0.074	0.265
-471.230	-36.812	-0.445	0.242
-470.216	-80.231	-0.323	0.110
-469.201	73.359	0.081	-0.086
-468.186	-200.000	0.078	-0.436
-467.172	202.809	-0.210	0.330
-466.157	-200.000	-0.024	0.233
-465.143	138.099	-0.189	0.251
-464.128	-71.393	-0.282	-0.107
-463.113	-115.470	-0.248	-0.047
-462.099	-38.510	0.171	-0.092
-461.084	-105.647	0.139	0.032
-460.070	-200.000	0.007	-0.055
-459.055	494.799	0.097	-0.226
-458.040	148.465	-0.198	0.272
-457.026	-111.906	-0.294	0.060
-456.011	-138.490	-0.149	-0.017
-454.997	-195.761	-0.124	0.001
-453.982	-173.198	-0.359	0.011
-452.968	76.642	0.108	0.116
-451.953	-200.000	0.003	0.088
-450.938	-43.703	-0.153	0.078
-449.924	800.000	0.037	-0.132
-448.909	-122.070	-0.296	-0.049
-447.895	128.395	0.226	0.292
-446.880	-200.000	-0.012	-0.135
-445.865	381.235	-0.077	0.161
-444.851	-117.672	0.423	0.077
-443.836	-200.000	0.007	-0.071
-442.822	76.912	-0.135	-0.145
-441.807	-18.045	-0.480	0.304
-440.792	-90.605	-0.252	0.074
-439.778	-200.000	0.003	0.307
-438.763	-11.274	0.205	0.137
-437.749	-179.066	0.097	-0.002
-436.734	800.000	-0.073	-0.284
-435.719	-23.818	0.243	-0.147
-434.705	-200.000	0.019	0.234
-433.690	800.000	0.042	0.131
-432.676	-75.155	0.114	-0.041
-431.661	175.180	-0.113	-0.166
-430.646	-71.137	0.476	0.181
-429.632	2.997	-0.022	0.016
-428.617	-200.000	-0.035	0.185
-427.603	800.000	-0.023	0.091
-426.588	702.868	-0.047	0.125
-425.573	-200.000	0.029	-0.228
-424.559	-77.462	0.139	0.049
-423.544	-200.000	-0.011	0.210
-422.530	131.869	-0.064	0.084
-421.515	-120.434	0.315	-0.054
-420.500	85.589	0.173	-0.193
-419.486	-200.000	-0.043	0.235
-418.471	233.484	0.205	0.342
-417.457	-105.808	-0.224	-0.051
-416.442	754.800	-0.063	-0.173
-415.428	-17.376	-0.227	-0.145
-414.413	-200.000	-0.043	-0.321
-413.398	-200.000	-0.030	0.205
-412.384	-165.861	0.170	-0.007
-411.369	-86.963	-0.165	0.051
-410.355	304.469	-0.026	-0.049
-409.340	55.860	0.265	-0.260
-408.325	295.614	-0.095	-0.177
-407.311	800.000	-0.077	0.240
-406.296	800.000	-0.044	-0.144
-405.282	219.753	-0.090	-0.146
-404.267	-81.744	-0.140	0.046
-403.252	4.918	-0.129	-0.096
-402.238	800.000	0.038	-0.115
-401.223	-44.928	-0.224	0.113
-400.209	-11.417	0.439	0.293
-399.194	-200.000	-0.018	-0.144
-398.179	-22.540	-0.206	-0.126
-397.165	33.967	0.046	-0.041
-396.150	-200.000	0.035	0.249
-395.136	-108.929	-0.196	0.042
-394.121	-200.000	-0.011	-0.104
-393.106	-167.590	0.251	0.010
-392.092	612.324	-0.114	0.289
-391.077	494.744	-0.081	0.187
-390.063	-28.032	0.155	0.090
-389.048	-85.719	-0.184	-0.058
-388.033	-121.964	0.150	0.025
-387.019	153.412	0.194	0.268
-386.004	193.313	0.209	-0.319
-384.990	-46.075	0.238	0.119
-383.975	-72.260	-0.401	0.150
-382.960	-113.476	-0.256	-0.051
-381.946	-70.126	0.243	-0.093
-380.931	3.390	-0.138	0.101
-379.917	-20.849	-0.152	-0.094
-378.902	204.658	-0.114	0.178
-377.888	800.000	0.062	0.220
-376.873	-103.456	0.093	0.022
-375.858	-120.898	-0.281	-0.048
-374.844	-200.000	-0.031	0.252
-373.829	800.000	0.055	-0.205
-372.815	-37.404	-0.251	0.135
-371.800	-12.348	0.156	-0.103
-370.785	800.000	-0.026	0.082
-369.771	-124.869	0.397	-0.062
-368.756	-142.621	0.020	0.002
-367.742	38.907	-0.268	0.242
-366.727	-200.000	-0.023	0.129
-365.712	51.853	-0.041	0.039
-364.698	-36.965	-0.260	-0.141
-363.683	36.896	0.168	-0.150
-362.669	222.602	0.033	0.054
-361.654	800.000	-0.127	0.413
-360.639	-64.105	0.030	-0.012
-359.625	-121.046	-0.128	-0.022
-358.610	-85.156	-0.133	0.042
-357.596	-37.426	-0.106	-0.057
-356.581	-200.000	-0.010	0.192
-355.566	500.991	0.075	-0.175
-354.552	-108.907	0.584	-0.126
-353.537	583.894	-0.187	0.464
-352.523	-200.000	-0.006	-0.030
-351.508	-200.000	0.043	0.337
-350.493	-12.839	0.327	0.215
-349.479	-200.000	0.036	0.236
-348.464	126.918	0.073	-0.093
-347.450	41.112	-0.241	-0.220
-346.435	-31.183	0.236	-0.134
-345.420	637.960	0.081	0.208
-344.406	195.817	0.114	-0.176
-343.391	207.232	-0.111	-0.175
-342.377	47.712	-0.154	-0.145
-341.362	-71.638	-0.107	-0.040
-340.348	-30.939	-0.216	-0.123
-339.333	-34.763	0.332	-0.183
-338.318	-200.000	0.017	0.230
-337.304	-58.609	-0.045	-0.020
-336.289	9.832	0.227	-0.174
-335.275	419.679	-0.138	-0.299
-334.260	-45.050	0.080	0.040
-333.245	456.372	0.047	0.106
-332.231	9.625	0.267	0.204
-331.216	800.000	-0.163	-0.515
-330.202	337.350	0.150	-0.294
-329.187	-200.000	0.030	-0.207
-328.172	-81.619	0.189	-0.063
-327.158	-125.908	-0.410	0.062
-326.143	0.066	0.277	-0.199
-325.129	-200.000	-0.063	0.297
-324.114	-60.089	0.231	-0.099
-323.099	132.430	0.103	-0.134
-322.085	-200.000	0.011	0.189
-321.070	-17.616	0.180	0.114
-320.056	105.349	0.192	-0.229
-319.041	-96.352	0.144	0.039
-318.026	-69.973	-0.507	0.195
-317.012	270.203	0.217	-0.386
-315.997	1.487	0.354	-0.257
-314.983	-58.176	0.284	0.125
-313.968	-120.892	-0.271	-0.046
-312.953	124.573	0.105	0.133
-311.939	-54.969	-0.147	-0.067
-310.924	-123.588	-0.233	-0.037
-309.910	-24.688	0.152	0.091
-308.895	-200.000	0.031	-0.147
-307.880	-113.160	-0.199	-0.040
-306.866	-48.875	0.221	-0.107
-305.851	-200.000	-0.008	0.161
-304.837	113.772	-0.213	-0.261
-303.822	66.608	-0.336	0.345
-302.807	-182.897	-0.073	-0.001
-301.793	-62.901	0.276	0.115
-300.778	-61.802	0.114	-0.048
-299.764	231.714	-0.259	-0.428
-298.749	800.000	-0.012	0.046
-297.735	-7.926	0.050	0.034
-296.720	-5.293	0.544	0.377
-295.705	-200.000	-0.024	0.238
-294.691	184.209	0.031	-0.047
-293.676	-43.780	-0.156	-0.079
-292.662	-146.714	-0.400	0.035
-291.647	258.598	-0.223	0.388
-290.632	-200.000	0.009	0.139
-289.618	16.145	-0.283	0.225
-288.603	19.781	-0.087	-0.071
-287.589	-85.016	0.296	-0.094
-286.574	119.755	-0.271	-0.339
-285.559	-70.991	-0.282	-0.107
-284.545	94.129	-0.133	-0.152
-283.530	137.617	-0.116	0.154
-282.516	-48.286	-0.201	-0.098
-281.501	-40.788	0.264	-0.138
-280.486	74.933	0.334	-0.354
-279.472	198.768	0.071	-0.109
-278.457	-42.524	-0.049	0.025
-277.443	-200.000	-0.030	0.366
-276.428	-107.370	-0.234	0.052
-275.413	-119.408	-0.015	-0.003
-274.399	234.724	-0.028	-0.046
-273.384	-200.000	-0.005	0.113
-272.370	-92.807	-0.128	-0.036
-271.355	-200.000	-0.001	0.017
-270.340	7.097	0.061	-0.046
-269.326	-33.405	0.285	-0.159
-268.311	561.717	-0.095	0.230
-267.297	8.308	0.379	-0.287
-266.282	636.244	0.050	-0.129
-265.267	800.000	0.032	0.102
-264.253	-6.694	0.272	0.186
-263.238	800.000	-0.084	0.364
-262.224	-68.395	0.459	0.179
-261.209	85.490	0.156	-0.173
-260.195	800.000	-0.027	0.091
-259.180	-115.672	0.394	-0.074
-258.165	-91.007	-0.116	-0.034
-257.151	-157.430	-0.262	0.016
-256.136	800.000	0.105	0.366
-255.122	-15.319	-0.058	-0.037
-254.107	362.205	-0.077	-0.155
-253.092	250.038	0.106	-0.182
-252.078	-151.212	-0.291	-0.022
-251.063	56.048	-0.093	0.091
-250.049	-200.000	0.049	-0.282
-249.034	-14.434	0.117	0.076
-248.019	-124.822	0.159	0.025
-247.005	-200.000	0.035	-0.243
-245.990	85.181	-0.072	-0.080
-244.976	662.433	-0.105	0.272
-243.961	44.327	-0.162	-0.149
-242.946	800.000	0.072	-0.310
-241.932	80.173	-0.086	-0.093
-240.917	-86.188	-0.321	-0.099
-239.903	16.919	-0.111	0.088
-238.888	-174.469	-0.232	0.007
-237.873	-177.427	0.486	-0.012
-236.859	123.759	-0.057	-0.072
-235.844	-95.830	-0.208	0.056
-234.830	9.207	0.229	-0.174
-233.815	34.300	0.279	0.244
-232.800	-200.000	-0.013	-0.160
-231.786	-41.011	-0.249	-0.129
-230.771	-103.279	0.132	0.031
-229.757	-200.000	0.007	0.063
-228.742	-118.622	0.358	0.063
-227.727	756.742	0.026	-0.070
-226.713	586.398	0.072	-0.179
-225.698	88.846	-0.124	0.138
-224.684	223.409	-0.026	-0.041
-223.669	-5.055	-0.162	0.112
-222.655	35.182	-0.180	-0.159
-221.640	-70.187	-0.243	0.093
-220.625	-157.905	0.177	-0.011
-219.611	-200.000	-0.044	-0.419
-218.596	-136.099	-0.434	-0.051
-217.582	133.699	-0.106	-0.138
-216.567	257.952	0.159	-0.276
-215.552	-112.780	-0.056	0.011
-214.538	85.872	0.160	-0.176
-213.523	-66.614	0.155	0.062
-212.509	-48.186	0.238	0.115
-211.494	-136.297	0.121	-0.014
-210.479	-200.000	0.002	-0.064
-209.465	116.062	-0.219	0.269
-208.450	-115.069	0.167	-0.032
-207.436	-130.734	0.323	-0.044
-206.421	-76.682	-0.314	0.110
-205.406	-200.000	0.004	0.226
-204.392	29.203	-0.149	0.127
-203.377	285.821	-0.050	-0.090
-202.363	-98.361	-0.124	-0.032
-201.348	-72.456	0.314	-0.117
-200.333	-98.361	-0.145	-0.037
-199.319	-200.000	-0.013	-0.081
-198.304	34.203	-0.406	0.356
-197.290	104.845	0.235	0.278
-196.275	8.947	0.202	-0.153
-195.260	-85.902	-0.175	-0.054
-194.246	673.461	-0.088	-0.230
-193.231	23.421	-0.413	-0.341
-192.217	-39.799	0.098	0.051
-191.202	476.946	-0.175	0.397
-190.187	800.000	-0.048	-0.170
-189.173	-200.000	-0.029	-0.416
-188.158	-72.632	0.311	-0.115
-187.144	267.751	-0.128	0.225
-186.129	-22.434	0.221	0.134
-185.114	540.475	-0.147	0.352
-184.100	712.670	-0.084	-0.223
-183.085	-57.031	0.063	0.028
-182.071	42.286	-0.127	0.116
-181.056	-74.755	0.149	-0.054
-180.042	-155.769	-0.157	-0.010
-179.027	-200.000	0.062	0.355
-178.012	-97.673	-0.039	-0.010
-176.998	-77.695	0.070	-0.024
-175.983	-200.000	0.012	0.246
-174.969	253.238	0.167	0.286
-173.954	-200.000	-0.093	-0.411
-172.939	354.366	-0.064	0.127
-171.925	-116.344	-0.363	-0.067
-170.910	39.154	-0.175	0.157
-169.896	-89.418	0.109	-0.032
-168.881	-6.980	-0.149	0.101
-167.866	204.905	0.076	0.118
-166.852	123.847	-0.113	-0.142
-165.837	-200.000	-0.023	-0.223
-164.823	-200.000	-0.027	-0.239
-163.808	-10.028	0.218	0.145
-162.793	108.258	-0.116	-0.139
-161.779	800.000	0.023	0.075
-160.764	-43.742	-0.158	0.080
-159.750	-35.989	-0.254	-0.138
-158.735	20.218	0.110	0.089
-157.720	-85.787	-0.275	0.085
-156.706	454.679	-0.025	0.057
-155.691	-165.175	0.034	0.002
-154.677	5.828	0.224	0.166
-153.662	98.700	0.123	-0.143
-152.647	627.679	0.027	0.068
-151.633	800.000	0.101	-0.307
-150.618	800.000	-0.064	0.180
-149.604	-200.000	0.031	0.140
-148.589	-200.000	-0.023	-0.127
-147.574	-111.238	-0.200	0.041
-146.560	34.148	0.197	-0.172
-145.545	92.707	0.229	-0.259
-144.531	-200.000	0.000	0.093
-143.516	-90.463	-0.329	0.095
-142.502	9.688	0.304	-0.231
-141.487	273.348	0.162	0.286
-140.472	-14.696	-0.038	0.024
-139.458	-144.277	-0.219	0.020
-138.443	-20.736	0.187	0.115
-137.429	800.000	-0.155	-0.485
-136.414	420.308	-0.188	0.403
-135.399	-54.101	-0.176	0.080
-134.385	-200.000	0.027	-0.485
-133.370	68.862	-0.235	-0.242
-132.356	46.880	0.052	-0.049
-131.341	-119.981	-0.361	-0.062
-130.326	246.265	0.186	-0.315
-129.312	4.482	-0.143	0.105
-128.297	152.295	-0.069	0.094
-127.283	-119.537	-0.037	-0.006
-126.268	-200.000	-0.045	0.238
-125.253	-48.933	0.064	0.031
-124.239	-70.616	-0.393	0.149
-123.224	49.280	-0.237	-0.223
-122.210	-111.002	0.336	-0.069
-121.195	-30.342	-0.149	-0.085
