DTS Sentinel unit serial number:	SN413079Multiplexer serial number:	ORYXHardware model number:	OX4-SRSoftware version number:	ORYX F/W v4.00 Oryx Data Collector v3.7.2.0data status	okinstallation	princeton_trtdifferential loss correction	single-endedforward channel	channel 4reverse channel	N/Adate	2019/09/18time	04:33:34forward acquisition time	60.00reverse acquisition time	0.00gamma	496.2192k internal	0.2332k external	0.2332temperature offset calibration	0.9993default loss term (dB/km)	0.3790temperature slope calibration	1.0000multiplexer offset coefficient	1.0000multiplexer slope coefficient	1.0000fibre end	0.00T internal ref (°C)	23.44T ext. ref 1 (°C)	0.18T ext. ref 2 (°C)	17.65length (m)	temperature (°C)	Stokes	anti-Stokes-747.200	-200.000	0.013	0.066
-746.185	-29.822	-0.128	0.073
-745.171	-102.627	0.177	-0.043
-744.156	50.795	-0.162	-0.154
-743.142	400.769	0.064	-0.136
-742.127	-200.000	-0.387	0.001
-741.112	800.000	0.075	-0.276
-740.098	63.974	-0.247	0.250
-739.083	22.005	-0.226	0.185
-738.069	-40.378	-0.321	0.168
-737.054	-200.000	0.291	-0.001
-736.039	-88.574	-0.390	-0.117
-735.025	-131.908	0.225	0.030
-734.010	666.142	-0.074	-0.192
-732.996	-44.674	0.138	-0.069
-731.981	-148.652	0.376	0.031
-730.966	19.492	-0.205	-0.166
-729.952	800.000	-0.053	-0.221
-728.937	800.000	0.021	-0.075
-727.923	800.000	-0.058	-0.221
-726.908	-15.515	0.085	0.055
-725.894	800.000	0.070	-0.213
-724.879	-119.230	-0.216	-0.038
-723.864	800.000	-0.100	0.396
-722.850	-200.000	0.034	-0.165
-721.835	330.186	-0.216	0.418
-720.821	-111.514	-0.242	0.050
-719.806	56.127	-0.205	-0.200
-718.791	-39.875	-0.329	0.173
-717.777	-20.836	0.137	-0.085
-716.762	-76.689	0.337	-0.119
-715.748	210.626	0.043	-0.068
-714.733	800.000	-0.064	-0.270
-713.718	-200.000	-0.014	-0.066
-712.704	-72.459	0.338	-0.126
-711.689	-75.371	0.060	0.021
-710.675	800.000	-0.102	-0.348
-709.660	38.134	0.111	0.099
-708.645	800.000	-0.045	0.166
-707.631	-113.098	0.364	-0.072
-706.616	-200.000	0.011	0.236
-705.602	-112.369	-0.042	-0.008
-704.587	-54.786	-0.132	0.060
-703.572	-200.000	0.029	0.295
-702.558	800.000	-0.077	0.295
-701.543	12.004	0.146	-0.113
-700.529	-98.991	-0.048	0.012
-699.514	-100.959	0.346	0.085
-698.499	-125.421	-0.298	0.046
-697.485	-97.962	-0.318	0.082
-696.470	73.763	0.048	-0.051
-695.456	-200.000	-0.038	0.386
-694.441	162.052	-0.151	0.212
-693.426	-10.449	0.167	-0.111
-692.412	-187.972	0.240	0.003
-691.397	-200.000	-0.027	0.219
-690.383	-97.667	-0.313	-0.081
-689.368	783.448	0.100	-0.274
-688.354	-200.000	0.015	-0.365
-687.339	-122.559	0.038	-0.006
-686.324	-58.602	0.188	0.082
-685.310	74.735	-0.166	0.175
-684.295	38.111	-0.230	-0.205
-683.281	410.103	0.135	0.286
-682.266	-142.080	-0.285	-0.028
-681.251	-15.261	0.049	-0.032
-680.237	2.248	-0.378	-0.274
-679.222	250.023	0.138	0.235
-678.208	52.891	0.224	-0.215
-677.193	-200.000	-0.024	0.222
-676.178	-34.976	-0.262	0.143
-675.164	73.953	0.068	-0.072
-674.149	800.000	0.040	-0.159
-673.135	-126.146	-0.445	-0.067
-672.120	380.542	-0.121	-0.249
-671.105	800.000	0.106	-0.298
-670.091	-126.415	-0.072	0.011
-669.076	-15.984	-0.326	-0.208
-668.062	296.645	-0.023	0.043
-667.047	-112.783	-0.135	0.027
-666.032	-9.820	0.174	0.116
-665.018	440.995	-0.050	0.110
-664.003	253.680	0.148	-0.253
-662.989	-137.802	0.153	0.017
-661.974	800.000	0.061	-0.215
-660.959	188.461	-0.146	-0.220
-659.945	800.000	0.074	-0.247
-658.930	-175.472	-0.278	-0.008
-657.916	-148.890	0.262	-0.021
-656.901	-173.993	0.180	0.005
-655.886	8.593	-0.191	-0.144
-654.872	-61.609	0.286	0.120
-653.857	-40.726	-0.141	-0.073
-652.843	54.244	-0.011	-0.010
-651.828	-134.040	-0.197	-0.024
-650.814	27.211	-0.134	-0.113
-649.799	-38.400	-0.219	-0.116
-648.784	230.738	0.012	-0.019
-647.770	800.000	0.149	-0.600
-646.755	800.000	-0.065	-0.278
-645.741	193.355	-0.099	0.151
-644.726	800.000	0.099	-0.351
-643.711	800.000	-0.025	-0.109
-642.697	442.898	-0.133	0.292
-641.682	800.000	0.104	-0.321
-640.668	239.916	0.240	-0.401
-639.653	-44.050	-0.224	-0.113
-638.638	-200.000	-0.022	0.217
-637.624	-200.000	-0.021	0.117
-636.609	41.492	-0.124	0.112
-635.595	-97.581	0.302	0.079
-634.580	-76.242	0.311	-0.110
-633.565	-144.992	0.073	-0.007
-632.551	800.000	0.041	-0.130
-631.536	-36.327	-0.063	-0.034
-630.522	174.654	-0.038	0.055
-629.507	107.119	-0.187	0.223
-628.492	173.655	-0.069	0.100
-627.478	-200.000	-0.022	-0.138
-626.463	330.176	0.109	-0.210
-625.449	-51.572	0.108	0.051
-624.434	69.200	-0.117	-0.121
-623.419	-18.915	0.379	0.236
-622.405	-95.916	-0.225	-0.060
-621.390	-112.132	-0.218	0.044
-620.376	-200.000	-0.028	-0.423
-619.361	-173.438	-0.274	-0.008
-618.346	721.101	-0.079	0.210
-617.332	301.395	0.101	0.187
-616.317	354.843	-0.171	-0.340
-615.303	-200.000	-0.001	-0.116
-614.288	-90.574	0.206	0.060
-613.273	-99.462	0.316	0.080
-612.259	-83.285	-0.498	-0.160
-611.244	3.961	0.282	-0.206
-610.230	-200.000	0.052	0.267
-609.215	-111.082	0.101	-0.021
-608.201	-144.492	0.155	0.014
-607.186	199.927	-0.089	0.136
-606.171	-74.737	0.274	0.098
-605.157	-200.000	0.061	0.383
-604.142	-167.494	0.436	0.017
-603.128	-72.101	-0.302	-0.112
-602.113	-200.000	-0.019	-0.336
-601.098	219.542	0.184	-0.295
-600.084	-200.000	0.009	-0.246
-599.069	-3.742	-0.155	0.108
-598.055	335.331	0.198	0.384
-597.040	-166.957	0.202	-0.008
-596.025	26.314	0.325	0.272
-595.011	-149.039	-0.339	0.027
-593.996	-200.000	-0.004	0.125
-592.982	130.456	0.081	0.103
-591.967	-27.219	0.200	0.117
-590.952	-146.451	-0.394	0.034
-589.938	15.205	-0.031	-0.024
-588.923	328.029	-0.145	-0.279
-587.909	-200.000	-0.040	0.210
-586.894	-102.619	-0.373	0.089
-585.879	-200.000	-0.001	-0.054
-584.865	46.608	-0.062	-0.058
-583.850	124.940	0.111	0.140
-582.836	-69.649	0.155	-0.059
-581.821	-200.000	0.022	-0.236
-580.806	-1.772	-0.243	-0.171
-579.792	-200.000	-0.009	-0.082
-578.777	-32.993	-0.304	0.168
-577.763	-0.416	-0.295	-0.209
-576.748	577.658	-0.102	-0.250
-575.733	45.461	0.220	-0.203
-574.719	-55.877	-0.370	0.165
-573.704	127.891	0.160	-0.203
-572.690	-132.068	0.216	-0.028
-571.675	800.000	-0.053	0.190
-570.661	47.736	-0.510	0.476
-569.646	-24.311	0.152	0.091
-568.631	-200.000	-0.022	0.266
-567.617	-78.530	-0.201	-0.069
-566.602	800.000	-0.080	0.248
-565.588	-200.000	-0.017	-0.163
-564.573	132.877	0.386	-0.498
-563.558	-56.663	-0.041	0.018
-562.544	23.495	-0.111	-0.091
-561.529	-59.729	-0.150	-0.064
-560.515	-41.798	-0.268	-0.138
-559.500	-50.659	0.387	0.182
-558.485	-104.497	0.112	-0.026
-557.471	800.000	0.048	-0.147
-556.456	-53.425	0.187	0.086
-555.442	-200.000	0.001	-0.120
-554.427	-200.000	0.015	-0.252
-553.412	100.794	-0.179	-0.208
-552.398	69.859	0.190	-0.196
-551.383	-111.618	0.261	0.053
-550.369	-83.162	0.185	0.059
-549.354	-161.832	-0.162	-0.008
-548.339	34.007	0.048	-0.041
-547.325	-200.000	0.023	-0.324
-546.310	35.500	0.186	0.163
-545.296	-73.370	-0.165	0.060
-544.281	-200.000	-0.001	0.195
-543.266	114.419	-0.305	0.371
-542.252	-200.000	0.014	-0.123
-541.237	457.008	0.105	0.233
-540.223	-200.000	-0.004	0.084
-539.208	277.873	0.080	-0.142
-538.193	-200.000	0.029	-0.341
-537.179	186.630	-0.115	0.171
-536.164	78.182	0.110	-0.117
-535.150	-65.211	-0.118	0.047
-534.135	-200.000	0.106	-0.514
-533.121	588.424	-0.048	-0.118
-532.106	77.294	-0.141	-0.150
-531.091	800.000	-0.048	0.153
-530.077	407.661	0.019	0.041
-529.062	-200.000	-0.011	-0.054
-528.048	-126.638	0.143	0.021
-527.033	-130.626	0.094	-0.013
-526.018	391.172	0.164	-0.339
-525.004	-142.816	-0.152	0.015
-523.989	-36.123	-0.102	0.055
-522.975	57.677	-0.131	0.128
-521.960	-134.264	0.156	0.019
-520.945	449.201	-0.100	-0.220
-519.931	50.406	0.556	-0.524
-518.916	-200.000	0.014	-0.196
-517.902	-61.943	-0.063	-0.026
-516.887	-33.269	-0.222	0.122
-515.872	32.491	0.268	-0.230
-514.858	381.028	-0.067	-0.136
-513.843	-79.124	0.106	0.036
-512.829	102.223	0.274	-0.319
-511.814	-58.836	-0.473	-0.204
-510.799	800.000	0.025	-0.087
-509.785	-185.007	0.417	0.007
-508.770	208.670	0.094	-0.146
-507.756	236.391	0.084	0.138
-506.741	539.057	0.103	-0.244
-505.726	-65.393	0.172	0.069
-504.712	-125.958	-0.211	-0.032
-503.697	-1.796	0.268	-0.188
-502.683	-180.995	-0.198	0.004
-501.668	-200.000	0.053	0.259
-500.653	169.299	-0.124	-0.176
-499.639	5.708	0.273	0.201
-498.624	-17.850	-0.294	0.184
-497.610	473.879	-0.176	-0.395
-496.595	128.007	0.089	0.113
-495.581	-200.000	0.040	0.262
-494.566	800.000	0.092	-0.351
-493.551	-200.000	-0.057	0.266
-492.537	4.835	-0.261	0.191
-491.522	800.000	-0.062	-0.173
-490.508	800.000	0.094	-0.337
-489.493	-200.000	-0.024	0.353
-488.478	5.222	-0.210	-0.154
-487.464	-126.968	-0.434	0.064
-486.449	-20.724	-0.148	0.090
-485.435	57.850	-0.185	0.181
-484.420	-86.878	0.267	-0.081
-483.405	-107.946	0.140	-0.030
-482.391	444.447	-0.091	0.200
-481.376	-13.312	-0.117	-0.075
-480.362	-106.625	0.304	-0.067
-479.347	554.742	0.018	-0.044
-478.332	-104.677	0.137	0.031
-477.318	-83.133	0.504	-0.162
-476.303	-134.307	-0.165	-0.020
-475.289	125.443	0.198	-0.249
-474.274	-199.447	0.050	0.000
-473.259	-155.398	-0.113	-0.007
-472.245	-177.653	-0.453	0.011
-471.230	20.872	-0.225	-0.181
-470.216	-140.269	0.367	0.038
-469.201	191.302	-0.089	-0.133
-468.186	-114.648	-0.301	-0.057
-467.172	31.451	-0.192	-0.165
-466.157	35.061	0.269	-0.234
-465.143	295.657	-0.118	0.216
-464.128	-97.753	-0.277	0.071
-463.113	-87.505	-0.165	0.050
-462.099	-108.065	0.113	-0.024
-461.084	28.089	-0.237	0.199
-460.070	40.251	0.093	-0.083
-459.055	361.512	0.132	-0.263
-458.040	18.156	-0.124	-0.098
-457.026	-69.190	-0.157	-0.060
-456.011	-200.000	0.014	-0.097
-454.997	-98.902	-0.058	0.015
-453.982	-104.098	0.188	-0.044
-452.968	24.243	-0.431	0.354
-451.953	315.882	-0.020	-0.037
-450.938	800.000	0.098	0.288
-449.924	568.272	0.045	0.110
-448.909	618.206	0.098	-0.245
-447.895	99.446	-0.208	0.239
-446.880	800.000	0.097	0.314
-445.865	116.630	-0.107	0.130
-444.851	104.750	0.192	-0.224
-443.836	525.403	-0.058	-0.136
-442.822	-43.588	-0.239	0.120
-441.807	214.715	-0.129	0.203
-440.792	-200.000	-0.082	-0.377
-439.778	342.668	0.152	0.296
-438.763	-148.849	0.326	0.026
-437.749	-123.109	-0.262	-0.042
-436.734	-200.000	0.015	0.144
-435.719	262.755	-0.133	0.229
-434.705	-119.157	0.366	0.063
-433.690	-66.735	-0.174	-0.069
-432.676	-200.000	-0.060	-0.263
-431.661	323.729	0.087	-0.165
-430.646	-9.690	-0.078	-0.052
-429.632	800.000	-0.067	0.215
-428.617	-200.000	-0.005	0.075
-427.603	-200.000	0.003	-0.087
-426.588	-102.808	-0.431	0.102
-425.573	800.000	0.073	0.277
-424.559	-149.803	-0.209	-0.016
-423.544	-83.769	0.158	0.050
-422.530	10.258	-0.330	-0.249
-421.515	163.276	-0.120	-0.167
-420.500	-194.639	0.207	-0.002
-419.486	292.085	-0.094	0.170
-418.471	63.227	0.095	0.094
-417.457	41.393	0.293	0.263
-416.442	592.184	0.075	-0.183
-415.428	-83.807	0.249	-0.079
-414.413	-200.000	-0.033	-0.325
-413.398	-143.582	-0.296	0.028
-412.384	-93.030	0.212	-0.059
-411.369	-91.191	-0.222	-0.063
-410.355	-157.203	-0.300	0.018
-409.340	-152.560	-0.166	0.012
-408.325	518.032	0.112	0.261
-407.311	-200.000	0.008	-0.121
-406.296	233.726	0.048	0.079
-405.282	-22.782	-0.274	0.164
-404.267	0.940	-0.129	0.092
-403.252	246.083	0.057	-0.095
-402.238	269.021	0.120	0.209
-401.223	-84.955	-0.353	-0.110
-400.209	800.000	-0.091	-0.294
-399.194	194.955	-0.035	-0.052
-398.179	237.911	0.084	0.138
-397.165	116.229	0.162	0.198
-396.150	-200.000	0.012	0.074
-395.136	-200.000	-0.020	0.136
-394.121	57.302	0.141	-0.137
-393.106	-200.000	0.094	0.426
-392.092	-128.697	-0.051	0.007
-391.077	34.320	-0.157	-0.136
-390.063	132.002	0.100	-0.128
-389.048	20.660	0.010	0.008
-388.033	800.000	-0.031	0.105
-387.019	800.000	-0.185	-0.544
-386.004	355.893	-0.106	0.210
-384.990	43.547	-0.298	0.271
-383.975	-200.000	-0.017	-0.159
-382.960	-103.498	0.100	-0.023
-381.946	114.149	-0.102	-0.124
-380.931	-28.233	0.103	0.059
-379.917	-115.657	0.420	-0.078
-378.902	-58.021	0.258	-0.112
-377.888	48.730	-0.256	0.238
-376.873	-200.000	-0.014	-0.073
-375.858	147.231	-0.126	0.169
-374.844	-200.000	-0.002	0.017
-373.829	-200.000	0.034	-0.233
-372.815	-47.769	-0.313	-0.151
-371.800	-200.000	0.038	0.312
-370.785	-109.242	-0.183	-0.039
-369.771	191.221	-0.196	0.292
-368.756	-101.131	0.092	0.022
-367.742	-200.000	-0.037	-0.307
-366.727	409.616	-0.097	0.203
-365.712	-38.447	0.122	0.064
-364.698	-90.707	-0.370	-0.106
-363.683	82.612	-0.072	0.077
-362.669	-48.245	0.104	-0.050
-361.654	450.746	0.231	-0.506
-360.639	-182.797	-0.358	-0.006
-359.625	216.320	0.175	-0.276
-358.610	-99.346	-0.258	-0.065
-357.596	57.920	-0.162	0.157
-356.581	11.623	0.189	0.143
-355.566	-3.437	0.166	-0.114
-354.552	-200.000	-0.039	0.318
-353.537	-85.154	0.110	-0.034
-352.523	152.427	-0.099	-0.133
-351.508	-135.181	0.239	-0.028
-350.493	-125.804	-0.066	-0.010
-349.479	-94.860	-0.369	0.099
-348.464	18.102	0.419	0.331
-347.450	83.249	0.114	0.122
-346.435	394.961	-0.112	0.232
-345.420	-200.000	0.011	0.127
-344.406	116.221	0.070	-0.084
-343.391	-200.000	-0.003	-0.192
-342.377	-78.550	-0.189	-0.064
-341.362	-33.186	0.096	0.053
-340.348	-20.181	0.391	0.239
-339.333	-127.373	0.088	-0.013
-338.318	49.218	0.188	-0.175
-337.304	22.826	0.090	0.073
-336.289	-200.000	-0.075	-0.377
-335.275	457.419	-0.164	-0.360
-334.260	195.016	0.125	-0.188
-333.245	-136.413	0.228	-0.026
-332.231	-200.000	0.000	-0.032
-331.216	-126.268	-0.384	-0.057
-330.202	-135.707	0.394	0.046
-329.187	-103.530	0.064	-0.015
-328.172	278.699	-0.092	0.163
-327.158	530.454	0.151	-0.353
-326.143	173.477	0.152	-0.216
-325.129	-200.000	-0.007	-0.111
-324.114	-200.000	0.051	-0.385
-323.099	800.000	-0.090	0.304
-322.085	114.524	-0.165	-0.199
-321.070	560.272	-0.036	-0.086
-320.056	-18.289	0.233	0.144
-319.041	-200.000	0.022	-0.172
-318.026	687.856	0.050	0.130
-317.012	800.000	0.077	0.226
-315.997	-85.863	-0.144	0.044
-314.983	-200.000	-0.055	0.482
-313.968	19.485	-0.207	0.165
-312.953	-5.486	0.361	-0.245
-311.939	-95.615	-0.190	0.050
-310.924	-60.816	-0.195	0.082
-309.910	-48.542	-0.129	0.061
-308.895	800.000	0.027	-0.086
-307.880	6.832	-0.240	-0.177
-306.866	-124.366	0.532	0.082
-305.851	318.110	0.161	-0.301
-304.837	-200.000	-0.059	0.310
-303.822	11.179	0.197	-0.149
-302.807	15.539	-0.157	-0.122
-301.793	-200.000	-0.061	-0.363
-300.778	800.000	0.043	0.182
-299.764	255.912	-0.161	0.272
-298.749	-14.635	0.205	-0.130
-297.735	52.080	0.301	-0.283
-296.720	138.745	0.101	0.132
-295.705	-200.000	0.025	0.255
-294.691	402.337	-0.048	0.099
-293.676	157.609	-0.075	-0.103
-292.662	-140.104	-0.077	-0.008
-291.647	4.984	-0.229	-0.167
-290.632	-129.594	-0.368	-0.050
-289.618	-200.000	0.056	0.304
-288.603	-200.000	0.058	-0.400
-287.589	513.745	0.104	-0.240
-286.574	332.630	-0.217	0.414
-285.559	-18.007	0.031	0.019
-284.545	-200.000	0.015	-0.120
-283.530	314.233	-0.058	0.108
-282.516	57.301	0.295	0.284
-281.501	-70.589	0.131	-0.049
-280.486	115.514	0.297	0.359
-279.472	83.727	-0.208	0.224
-278.457	299.162	-0.070	-0.128
-277.443	-200.000	0.007	0.351
-276.428	300.576	0.123	0.223
-275.413	-88.098	0.155	-0.046
-274.399	-129.721	0.241	-0.033
-273.384	-51.907	0.120	-0.055
-272.370	800.000	0.043	0.139
-271.355	-135.712	-0.078	0.009
-270.340	-125.305	-0.307	-0.046
-269.326	36.901	0.133	0.116
-268.311	81.720	0.399	-0.427
-267.297	-42.658	-0.258	-0.129
-266.282	127.503	0.197	-0.248
-265.267	25.841	0.281	0.231
-264.253	-53.812	0.164	0.074
-263.238	45.088	-0.079	0.072
-262.224	503.610	-0.207	0.473
-261.209	-109.939	0.213	-0.044
-260.195	-200.000	0.017	0.348
-259.180	704.114	0.116	0.301
-258.165	-97.592	-0.177	0.045
-257.151	13.356	-0.143	-0.109
-256.136	90.298	0.114	-0.126
-255.122	800.000	0.034	-0.149
-254.107	-69.764	0.081	0.030
-253.092	62.129	0.136	0.134
-252.078	72.672	-0.160	-0.164
-251.063	800.000	0.055	-0.193
-250.049	96.902	0.198	-0.224
-249.034	800.000	0.081	0.318
-248.019	-153.378	0.384	-0.026
-247.005	800.000	-0.040	-0.113
-245.990	-162.157	-0.324	-0.016
-244.976	-107.294	0.154	-0.033
-243.961	42.869	-0.122	0.110
-242.946	-36.911	0.098	-0.052
-241.932	-54.821	-0.348	-0.155
-240.917	-17.271	0.201	0.125
-239.903	-54.313	0.287	-0.129
-238.888	-78.328	0.233	0.079
-237.873	140.816	-0.159	0.208
-236.859	31.810	0.141	0.120
-235.844	-69.106	0.411	0.156
-234.830	-200.000	-0.042	0.223
-233.815	442.956	-0.101	0.219
-232.800	-200.000	0.020	0.088
-231.786	-116.375	-0.264	-0.048
-230.771	-144.866	0.138	-0.012
-229.757	-200.000	-0.049	0.290
-228.742	800.000	0.090	0.337
-227.727	-76.161	0.242	0.084
-226.713	-142.165	-0.518	0.051
-225.698	762.469	-0.112	0.300
-224.684	800.000	0.083	0.284
-223.669	-99.885	-0.274	0.067
-222.655	-24.866	0.231	-0.135
-221.640	-127.826	0.093	0.013
-220.625	-200.000	-0.230	0.000
-219.611	-200.000	-0.004	-0.185
-218.596	-17.491	0.300	-0.186
-217.582	1.243	-0.239	0.169
-216.567	-47.534	0.082	-0.039
-215.552	-41.054	0.288	-0.146
-214.538	194.154	0.138	-0.206
-213.523	800.000	0.114	0.401
-212.509	800.000	0.020	0.068
-211.494	-130.188	-0.082	-0.011
-210.479	-26.231	0.235	0.136
-209.465	277.620	-0.157	0.275
-208.450	-200.000	-0.004	-0.045
-207.436	-27.719	0.192	-0.110
-206.421	621.626	0.008	0.021
-205.406	256.487	-0.079	0.133
-204.392	49.386	0.208	-0.193
-203.377	-81.548	0.255	-0.082
-202.363	-127.966	0.251	-0.035
-201.348	187.840	0.133	0.196
-200.333	-135.756	0.064	-0.007
-199.319	211.452	0.098	-0.153
-198.304	516.449	-0.008	-0.018
-197.290	-98.088	-0.227	0.058
-196.275	-45.538	0.556	0.271
-195.260	6.620	-0.147	0.108
-194.246	800.000	-0.055	0.163
-193.231	517.667	0.093	0.214
-192.217	7.209	0.165	0.121
-191.202	-41.279	-0.376	-0.191
-190.187	800.000	-0.048	0.177
-189.173	800.000	0.054	0.168
-188.158	128.169	-0.133	0.166
-187.144	-200.000	0.041	0.186
-186.129	-33.789	-0.233	-0.126
-185.114	-200.000	0.050	0.351
-184.100	-66.678	-0.293	0.114
-183.085	-200.000	-0.004	0.311
-182.071	334.964	0.190	0.362
-181.056	357.690	-0.204	-0.400
-180.042	-8.139	-0.286	-0.190
-179.027	-113.611	-0.205	0.039
-178.012	33.324	0.085	0.072
-176.998	10.622	-0.159	-0.119
-175.983	42.430	-0.218	-0.195
-174.969	76.478	0.118	-0.123
-173.954	-200.000	0.031	0.293
-172.939	420.478	0.072	-0.151
-171.925	119.473	-0.193	-0.235
-170.910	317.301	0.116	-0.216
-169.896	525.127	-0.105	0.242
-168.881	-200.000	-0.033	-0.172
-167.866	-124.490	0.190	0.029
-166.852	-200.000	-0.019	0.199
-165.837	29.894	0.309	0.259
-164.823	-200.000	-0.015	-0.077
-163.808	-200.000	0.044	-0.427
-162.793	-100.886	-0.196	0.047
-161.779	-102.338	0.281	-0.066
-160.764	-167.017	-0.358	-0.014
-159.750	171.653	-0.118	0.166
-158.735	18.717	-0.259	0.204
-157.720	148.775	-0.144	0.192
-156.706	-75.272	0.308	0.108
-155.691	-112.584	0.112	0.022
-154.677	-25.010	-0.090	-0.052
-153.662	158.881	-0.078	0.106
-152.647	-35.355	-0.084	0.045
-151.633	-33.670	-0.294	-0.159
-150.618	-5.799	0.164	0.110
-149.604	624.965	0.049	0.122
-148.589	-200.000	0.038	-0.182
-147.574	66.942	0.088	0.088
-146.560	-23.295	-0.143	0.085
-145.545	-125.828	0.149	-0.022
-144.531	-65.553	0.141	0.056
-143.516	596.167	0.115	0.280
-142.502	-200.000	0.014	0.160
-141.487	60.386	0.137	0.133
-140.472	-112.621	-0.183	0.036
-139.458	622.553	0.074	-0.184
-138.443	-110.619	-0.323	0.066
-137.429	-77.324	0.284	0.097
-136.414	55.017	-0.038	-0.036
-135.399	-200.000	0.035	0.173
-134.385	-17.724	-0.341	0.210
-133.370	-96.302	-0.161	0.042
-132.356	87.575	-0.139	0.151
-131.341	-140.306	-0.202	0.021
-130.326	326.676	-0.130	0.245
-129.312	800.000	-0.049	0.153
-128.297	-200.000	0.027	0.517
-127.283	-200.000	-0.014	0.182
-126.268	26.870	0.286	0.236
-125.253	-200.000	-0.006	0.233
-124.239	-148.814	0.250	0.020
-123.224	-59.852	-0.101	-0.043
-122.210	-200.000	0.018	-0.197
