DTS Sentinel unit serial number:	SN413079Multiplexer serial number:	ORYXHardware model number:	OX4-SRSoftware version number:	ORYX F/W v4.00 Oryx Data Collector v3.7.2.0data status	okinstallation	princeton_trtdifferential loss correction	single-endedforward channel	channel 4reverse channel	N/Adate	2019/09/13time	13:17:35forward acquisition time	60.00reverse acquisition time	0.00gamma	496.2192k internal	0.2295k external	0.2295temperature offset calibration	1.0210default loss term (dB/km)	0.3790temperature slope calibration	1.0000multiplexer offset coefficient	1.0000multiplexer slope coefficient	1.0000fibre end	0.00T internal ref (°C)	34.92T ext. ref 1 (°C)	4.56T ext. ref 2 (°C)	31.81length (m)	temperature (°C)	Stokes	anti-Stokes-747.200	-200.000	-0.017	0.398
-746.185	288.603	0.090	0.166
-745.171	800.000	-0.082	-0.288
-744.156	800.000	-0.097	0.282
-743.142	-87.262	0.126	0.039
-742.127	-7.388	-0.381	0.264
-741.112	90.403	-0.229	-0.262
-740.098	32.035	-0.338	-0.298
-739.083	-97.801	0.298	0.079
-738.069	65.684	0.333	0.344
-737.054	143.317	-0.269	-0.365
-736.039	-95.216	-0.274	-0.075
-735.025	-12.103	-0.181	0.121
-734.010	-149.192	-0.167	-0.014
-732.996	540.119	0.078	-0.189
-731.981	-93.743	0.265	-0.075
-730.966	-63.494	0.116	0.049
-729.952	125.129	0.229	-0.295
-728.937	-18.124	-0.101	0.065
-727.923	-47.004	0.123	0.062
-726.908	-61.815	0.270	-0.116
-725.894	122.679	0.146	-0.187
-724.879	396.752	0.179	-0.382
-723.864	-83.222	0.229	-0.075
-722.850	474.037	0.111	0.256
-721.835	-58.207	0.371	0.165
-720.821	101.485	-0.246	0.293
-719.806	800.000	-0.070	-0.226
-718.791	-176.269	-0.441	0.012
-717.777	800.000	-0.077	0.260
-716.762	83.260	-0.072	-0.080
-715.748	800.000	0.089	-0.311
-714.733	-136.062	0.149	0.018
-713.718	-200.000	-0.010	0.254
-712.704	85.397	-0.237	0.265
-711.689	-181.316	-0.215	0.004
-710.675	-24.100	0.467	0.285
-709.660	304.608	-0.058	-0.110
-708.645	230.548	-0.136	0.227
-707.631	423.764	-0.065	0.142
-706.616	-44.826	0.085	-0.043
-705.602	800.000	-0.059	0.236
-704.587	-104.651	-0.160	0.038
-703.572	-200.000	-0.003	-0.111
-702.558	465.924	-0.026	0.060
-701.543	102.429	-0.066	0.078
-700.529	-60.403	-0.094	0.041
-699.514	15.016	0.147	-0.118
-698.499	-200.000	-0.022	-0.166
-697.485	403.645	0.095	-0.203
-696.470	188.073	-0.082	-0.124
-695.456	800.000	-0.048	-0.153
-694.441	800.000	0.070	0.210
-693.426	-62.637	0.099	0.042
-692.412	-75.982	-0.165	-0.060
-691.397	13.668	-0.071	0.056
-690.383	-154.219	0.272	0.019
-689.368	-200.000	0.021	-0.107
-688.354	309.182	-0.103	-0.197
-687.339	-200.000	0.003	-0.236
-686.324	264.257	-0.091	-0.162
-685.310	-87.361	-0.131	0.041
-684.295	797.676	-0.110	0.310
-683.281	215.846	-0.139	0.225
-682.266	-200.000	0.004	-0.199
-681.251	-200.000	-0.552	0.002
-680.237	-85.077	-0.311	-0.099
-679.222	-14.645	-0.085	-0.055
-678.208	-200.000	0.014	-0.221
-677.193	60.531	0.147	-0.148
-676.178	-200.000	-0.018	-0.352
-675.164	178.921	-0.167	-0.249
-674.149	142.236	-0.126	-0.171
-673.135	-133.199	0.311	-0.040
-672.120	82.235	0.107	0.118
-671.105	616.116	0.091	0.232
-670.091	-200.000	-0.019	0.238
-669.076	655.540	-0.058	0.152
-668.062	433.222	-0.120	0.265
-667.047	-103.123	-0.072	-0.017
-666.032	-82.855	0.199	-0.065
-665.018	-200.000	0.005	0.107
-664.003	245.301	-0.155	-0.266
-662.989	55.057	0.200	0.197
-661.974	-89.360	0.194	0.058
-660.959	-153.301	0.115	0.008
-659.945	119.343	0.201	0.254
-658.930	-140.545	-0.401	-0.042
-657.916	-16.118	0.111	0.072
-656.901	-48.317	-0.226	0.111
-655.886	293.534	0.110	-0.204
-654.872	-44.650	0.042	0.021
-653.857	56.481	0.194	-0.193
-652.843	-6.407	-0.294	-0.204
-651.828	-140.870	-0.167	-0.017
-650.814	-200.000	-0.007	-0.075
-649.799	67.898	0.172	0.179
-648.784	9.571	0.345	0.266
-647.770	-200.000	-0.014	0.194
-646.755	1.573	-0.085	0.062
-645.741	-200.000	-0.031	-0.213
-644.726	243.316	0.075	-0.128
-643.711	-21.503	0.198	-0.123
-642.697	-83.371	-0.073	0.024
-641.682	-91.113	-0.108	0.031
-640.668	-159.073	-0.275	-0.016
-639.653	290.545	0.127	-0.235
-638.638	-94.762	0.037	0.010
-637.624	27.657	-0.087	-0.074
-636.609	430.151	0.078	-0.171
-635.595	-29.280	0.156	0.091
-634.580	119.947	0.033	0.042
-633.565	-200.000	0.074	0.406
-632.551	27.802	-0.200	0.172
-631.536	25.446	0.263	-0.222
-630.522	-77.935	-0.365	-0.128
-629.507	-79.515	-0.346	-0.119
-628.492	-122.271	-0.471	-0.078
-627.478	165.699	-0.179	-0.258
-626.463	107.231	-0.026	0.031
-625.449	-130.255	-0.117	0.016
-624.434	-200.000	-0.009	0.068
-623.419	-40.066	-0.225	0.119
-622.405	54.118	-0.230	0.225
-621.390	-200.000	0.009	0.247
-620.376	-144.423	0.166	-0.016
-619.361	308.693	-0.052	-0.099
-618.346	7.717	-0.118	0.090
-617.332	337.173	-0.094	0.186
-616.317	-36.942	-0.113	0.061
-615.303	48.199	-0.339	0.322
-614.288	-139.486	-0.207	0.023
-613.273	-109.004	0.066	-0.014
-612.259	-75.979	0.130	-0.047
-611.244	113.136	0.205	-0.252
-610.230	2.914	-0.294	0.217
-609.215	-15.303	-0.155	0.100
-608.201	800.000	0.050	-0.170
-607.186	-200.000	-0.015	0.105
-606.171	-137.831	-0.463	0.053
-605.157	-200.000	0.019	-0.167
-604.142	12.862	0.204	-0.160
-603.128	-93.780	-0.242	0.068
-602.113	-99.335	0.252	0.065
-601.098	87.345	0.063	0.071
-600.084	322.454	-0.109	-0.212
-599.069	-72.321	0.067	0.025
-598.055	90.438	0.031	0.035
-597.040	800.000	-0.150	-0.426
-596.025	31.378	-0.209	-0.182
-595.011	-168.939	0.229	-0.009
-593.996	-200.000	-0.003	-0.212
-592.982	-200.000	-0.008	-0.213
-591.967	-200.000	0.045	0.264
-590.952	-157.624	-0.152	0.009
-589.938	-200.000	0.051	-0.425
-588.923	274.489	-0.077	0.139
-587.909	34.063	-0.388	-0.344
-586.894	-154.486	0.076	-0.005
-585.879	101.120	0.123	0.145
-584.865	92.587	-0.105	-0.120
-583.850	7.695	-0.292	0.222
-582.836	-200.000	0.056	0.275
-581.821	-200.000	0.009	-0.342
-580.806	800.000	-0.049	-0.208
-579.792	-90.687	-0.242	0.071
-578.777	196.711	0.099	0.153
-577.763	51.382	-0.202	0.194
-576.748	2.713	-0.211	-0.155
-575.733	645.524	-0.063	-0.164
-574.719	48.377	-0.435	-0.413
-573.704	-131.469	0.258	-0.035
-572.690	317.203	0.178	-0.342
-571.675	213.741	0.106	-0.170
-570.661	-200.000	0.021	0.180
-569.646	-75.520	-0.110	-0.040
-568.631	-12.490	0.228	0.151
-567.617	-200.000	0.017	0.138
-566.602	-69.506	0.425	-0.165
-565.588	181.888	0.167	-0.249
-564.573	48.539	0.161	0.153
-563.558	-51.727	0.125	-0.059
-562.544	-123.072	0.085	-0.014
-561.529	-84.497	-0.314	0.100
-560.515	-74.856	0.128	0.046
-559.500	-113.041	0.189	-0.038
-558.485	-200.000	0.001	0.183
-557.471	67.156	0.136	-0.140
-556.456	-92.438	0.297	0.085
-555.442	148.412	-0.111	0.152
-554.427	454.297	0.109	-0.245
-553.412	160.323	-0.090	-0.127
-552.398	-140.297	-0.216	-0.023
-551.383	55.069	-0.107	0.105
-550.369	344.238	0.085	-0.169
-549.354	22.775	0.306	0.255
-548.339	-2.847	-0.022	-0.016
-547.325	328.637	-0.122	-0.237
-546.310	70.531	-0.262	-0.275
-545.296	800.000	0.067	0.274
-544.281	-200.000	0.018	-0.184
-543.266	116.699	-0.138	0.171
-542.252	-200.000	-0.013	-0.176
-541.237	-119.575	0.260	0.046
-540.223	-157.393	0.030	0.002
-539.208	800.000	-0.078	0.224
-538.193	85.764	-0.281	0.314
-537.179	512.384	-0.026	-0.063
-536.164	800.000	0.094	-0.317
-535.150	-155.610	0.299	0.019
-534.135	192.126	0.194	0.296
-533.121	-200.000	0.022	-0.513
-532.106	-83.819	-0.312	0.101
-531.091	-140.348	-0.258	-0.027
-530.077	-58.106	0.099	0.044
-529.062	-200.000	-0.008	0.061
-528.048	-19.348	0.075	-0.047
-527.033	9.601	0.174	0.134
-526.018	-91.801	0.325	-0.093
-525.004	-200.000	0.021	-0.456
-523.989	-200.000	0.066	-0.295
-522.975	124.098	-0.144	-0.183
-521.960	135.259	0.125	0.165
-520.945	150.710	-0.077	0.107
-519.931	784.508	0.058	-0.161
-518.916	-200.000	-0.007	0.438
-517.902	800.000	0.077	0.233
-516.887	-47.404	0.021	0.010
-515.872	-71.505	-0.221	0.084
-514.858	119.504	0.233	-0.292
-513.843	-200.000	-0.036	0.441
-512.829	800.000	0.066	-0.249
-511.814	-135.648	0.152	0.018
-510.799	279.577	0.041	0.074
-509.785	58.818	-0.264	0.263
-508.770	-62.296	0.178	-0.075
-507.756	-164.201	0.398	0.019
-506.741	127.623	0.115	-0.148
-505.726	355.007	-0.125	-0.252
-504.712	-34.480	0.193	-0.107
-503.697	800.000	-0.101	0.286
-502.683	800.000	-0.026	-0.090
-501.668	130.854	-0.219	0.285
-500.653	55.254	-0.179	0.175
-499.639	68.125	0.369	-0.383
-498.624	-28.037	0.169	-0.099
-497.610	800.000	0.086	0.336
-496.595	186.283	0.043	-0.065
-495.581	800.000	-0.063	0.221
-494.566	-143.158	0.189	0.018
-493.551	-119.951	0.176	0.031
-492.537	-28.364	0.143	-0.084
-491.522	-135.901	0.171	0.020
-490.508	499.465	-0.064	0.150
-489.493	116.260	-0.092	-0.114
-488.478	74.381	0.203	-0.215
-487.464	60.142	0.165	-0.165
-486.449	389.685	-0.146	-0.307
-485.435	-158.582	-0.311	0.018
-484.420	80.394	-0.017	-0.019
-483.405	-7.056	-0.168	-0.115
-482.391	123.027	0.090	0.114
-481.376	206.864	0.148	-0.233
-480.362	-200.000	-0.021	-0.401
-479.347	110.330	0.171	-0.208
-478.332	-67.480	-0.187	-0.074
-477.318	-5.634	0.108	-0.075
-476.303	-95.876	0.179	-0.048
-475.289	-176.805	0.244	0.006
-474.274	-200.000	0.018	0.141
-473.259	88.724	-0.106	-0.119
-472.245	-22.692	0.170	-0.104
-471.230	-71.440	-0.153	0.058
-470.216	73.029	-0.049	0.051
-469.201	310.267	-0.101	0.191
-468.186	-200.000	0.020	0.328
-467.172	123.764	-0.148	-0.188
-466.157	215.565	-0.210	0.337
-465.143	-90.920	-0.249	-0.072
-464.128	27.253	0.141	-0.120
-463.113	-200.000	0.022	-0.151
-462.099	224.630	0.118	0.192
-461.084	-200.000	-0.065	-0.317
-460.070	-110.285	-0.170	-0.036
-459.055	63.396	0.226	0.229
-458.040	247.696	-0.032	-0.054
-457.026	-133.090	-0.516	0.066
-456.011	-151.312	-0.314	-0.024
-454.997	-120.008	0.119	-0.021
-453.982	517.370	0.076	0.181
-452.968	-46.796	-0.108	0.053
-451.953	83.581	0.067	0.074
-450.938	463.366	0.099	0.223
-449.924	337.496	-0.109	-0.215
-448.909	-184.391	-0.070	-0.001
-447.895	-19.731	0.149	-0.093
-446.880	800.000	0.043	0.135
-445.865	-1.554	-0.317	-0.226
-444.851	-200.000	0.034	-0.287
-443.836	-200.000	-0.004	0.261
-442.822	-93.666	-0.254	-0.071
-441.807	800.000	-0.030	0.094
-440.792	-200.000	-0.025	-0.365
-439.778	-200.000	0.011	0.050
-438.763	75.344	0.068	0.072
-437.749	800.000	-0.117	0.427
-436.734	15.077	0.206	0.163
-435.719	-200.000	-0.002	-0.020
-434.705	-15.971	-0.129	-0.083
-433.690	800.000	0.036	-0.130
-432.676	53.962	0.262	0.255
-431.661	-70.419	-0.225	0.086
-430.646	-200.000	0.022	0.274
-429.632	-200.000	-0.058	0.394
-428.617	-57.391	-0.066	-0.029
-427.603	-72.623	-0.109	-0.040
-426.588	-76.024	0.395	-0.141
-425.573	-73.340	-0.088	-0.033
-424.559	100.773	0.119	-0.139
-423.544	237.258	0.085	0.142
-422.530	-7.308	-0.342	-0.234
-421.515	-10.955	-0.111	0.074
-420.500	-200.000	0.033	0.374
-419.486	-23.578	0.172	0.104
-418.471	594.537	-0.029	0.072
-417.457	-200.000	0.010	-0.384
-416.442	130.731	-0.124	-0.160
-415.428	-5.502	-0.297	0.205
-414.413	800.000	0.058	0.240
-413.398	-144.719	0.156	-0.015
-412.384	-66.812	-0.110	-0.044
-411.369	-113.568	0.276	0.054
-410.355	604.365	0.038	-0.095
-409.340	-35.931	-0.173	0.095
-408.325	-124.461	0.218	-0.034
-407.311	593.994	0.051	-0.128
-406.296	-200.000	0.054	-0.311
-405.282	-117.383	-0.482	-0.088
-404.267	800.000	0.068	0.192
-403.252	-200.000	-0.008	-0.247
-402.238	292.199	-0.045	-0.083
-401.223	29.709	-0.221	0.189
-400.209	183.693	0.148	-0.221
-399.194	505.884	-0.018	-0.043
-398.179	-9.855	0.188	-0.126
-397.165	35.353	-0.271	-0.239
-396.150	-44.114	-0.313	-0.158
-395.136	-50.242	0.228	0.109
-394.121	-88.359	0.228	-0.069
-393.106	-109.075	-0.384	0.082
-392.092	800.000	0.066	0.223
-391.077	276.241	-0.036	-0.065
-390.063	36.316	-0.189	-0.168
-389.048	60.193	-0.125	-0.125
-388.033	451.874	0.177	0.394
-387.019	582.420	0.098	-0.243
-386.004	270.852	0.048	0.084
-384.990	11.470	-0.277	-0.214
-383.975	75.573	-0.132	-0.141
-382.960	106.453	0.177	0.211
-381.946	183.042	0.052	-0.078
-380.931	800.000	-0.082	-0.264
-379.917	-200.000	0.003	-0.256
-378.902	520.596	0.101	0.238
-377.888	800.000	0.143	0.427
-376.873	-200.000	-0.016	0.091
-375.858	-200.000	-0.007	-0.084
-374.844	530.162	0.097	0.232
-373.829	150.060	0.176	0.241
-372.815	-200.000	-0.033	-0.152
-371.800	167.428	0.206	-0.295
-370.785	-94.561	-0.234	-0.064
-369.771	106.569	0.131	0.157
-368.756	-42.746	-0.098	-0.050
-367.742	-40.573	-0.227	-0.118
-366.727	567.885	-0.013	-0.031
-365.712	386.943	-0.095	-0.197
-364.698	-90.660	0.466	-0.136
-363.683	199.948	-0.225	0.348
-362.669	-200.000	0.020	0.095
-361.654	800.000	-0.126	0.487
-360.639	-200.000	0.023	0.141
-359.625	-161.479	-0.371	-0.019
-358.610	-3.513	0.237	-0.166
-357.596	800.000	-0.055	-0.202
-356.581	249.478	-0.026	-0.045
-355.566	76.025	0.037	-0.040
-354.552	-200.000	-0.031	0.284
-353.537	-200.000	-0.010	0.453
-352.523	51.720	0.227	0.217
-351.508	22.531	-0.141	0.116
-350.493	800.000	-0.027	-0.116
-349.479	7.380	-0.079	-0.059
-348.464	543.861	-0.048	0.114
-347.450	800.000	-0.052	-0.176
-346.435	-7.338	0.160	0.109
-345.420	-31.864	0.227	0.128
-344.406	56.800	-0.202	0.198
-343.391	800.000	0.043	0.183
-342.377	800.000	0.039	-0.112
-341.362	112.532	0.200	-0.244
-340.348	764.568	-0.043	-0.118
-339.333	118.430	0.111	0.137
-338.318	-144.050	0.135	-0.013
-337.304	415.863	-0.100	-0.214
-336.289	6.819	-0.210	0.157
-335.275	454.615	0.074	0.164
-334.260	197.482	-0.030	0.047
-333.245	-99.605	-0.325	0.082
-332.231	-53.011	-0.175	0.081
-331.216	-200.000	-0.002	-0.411
-330.202	-60.727	0.125	-0.053
-329.187	-12.722	0.223	-0.146
-328.172	13.322	0.483	-0.377
-327.158	159.195	-0.085	0.119
-326.143	-140.493	-0.117	0.012
-325.129	-26.965	-0.118	0.069
-324.114	-200.000	0.014	-0.195
-323.099	55.089	0.029	-0.028
-322.085	-39.309	-0.239	-0.126
-321.070	100.935	0.124	-0.145
-320.056	-180.192	-0.314	-0.007
-319.041	15.123	0.281	0.221
-318.026	-80.646	0.347	0.116
-317.012	6.484	-0.021	-0.016
-315.997	102.858	-0.281	0.330
-314.983	-64.230	0.171	-0.070
-313.968	134.545	-0.050	0.065
-312.953	218.995	0.135	-0.217
-311.939	-154.544	0.227	-0.015
-310.924	68.177	0.143	0.147
-309.910	413.244	-0.129	0.276
-308.895	-62.658	-0.120	-0.050
-307.880	-155.003	0.167	0.011
-306.866	-66.198	0.119	-0.048
-305.851	9.780	0.183	0.140
-304.837	-29.728	-0.280	-0.161
-303.822	99.111	0.057	0.066
-302.807	800.000	0.087	0.258
-301.793	800.000	0.084	-0.262
-300.778	-200.000	-0.037	0.398
-299.764	-120.463	-0.102	-0.017
-298.749	186.061	0.100	-0.150
-297.735	159.084	0.128	-0.179
-296.720	557.435	-0.101	0.246
-295.705	-200.000	-0.006	0.062
-294.691	639.380	-0.020	0.050
-293.676	-64.749	0.096	0.039
-292.662	-89.294	-0.306	0.091
-291.647	-157.259	0.466	0.028
-290.632	745.316	-0.074	-0.201
-289.618	259.933	0.086	-0.149
-288.603	-11.542	0.026	-0.017
-287.589	-70.423	-0.091	-0.035
-286.574	-38.486	0.149	0.079
-285.559	54.404	0.245	-0.237
-284.545	12.999	-0.143	-0.111
-283.530	31.155	0.041	0.035
-282.516	37.269	0.099	0.088
-281.501	-69.148	0.205	0.079
-280.486	61.077	0.191	-0.190
-279.472	-10.347	-0.076	-0.050
-278.457	376.075	-0.033	-0.067
-277.443	-71.836	0.152	-0.057
-276.428	-33.133	0.099	0.055
-275.413	-91.182	-0.394	-0.113
-274.399	-96.694	0.109	0.029
-273.384	-4.287	-0.185	0.128
-272.370	-101.720	0.155	-0.038
-271.355	122.691	-0.128	-0.161
-270.340	-102.516	0.196	-0.047
-269.326	605.710	0.075	0.187
-268.311	-151.004	-0.357	0.027
-267.297	134.766	0.100	-0.131
-266.282	-167.938	0.144	0.006
-265.267	-10.774	0.046	0.031
-264.253	-87.432	-0.250	-0.076
-263.238	-200.000	0.011	0.294
-262.224	-139.200	-0.127	-0.014
-261.209	-75.975	0.210	-0.075
-260.195	-200.000	0.033	0.152
-259.180	-120.016	0.067	0.012
-258.165	105.828	-0.061	-0.072
-257.151	3.542	0.193	0.141
-256.136	-61.759	-0.233	0.098
-255.122	117.594	0.123	-0.152
-254.107	-200.000	-0.000	0.099
-253.092	273.215	0.057	0.101
-252.078	-200.000	-0.010	-0.065
-251.063	-58.868	-0.249	0.108
-250.049	-169.586	0.152	0.006
-249.034	-200.000	-0.003	0.143
-248.019	106.698	0.161	-0.191
-247.005	97.355	0.256	0.294
-245.990	429.507	-0.147	-0.318
-244.976	-70.205	0.033	-0.013
-243.961	-33.358	-0.297	-0.164
-242.946	323.582	-0.081	-0.156
-241.932	-69.020	-0.028	0.011
-240.917	-10.679	0.084	-0.056
-239.903	-113.875	0.088	-0.017
-238.888	197.130	0.172	0.263
-237.873	-15.728	-0.024	0.015
-236.859	-200.000	0.096	-0.476
-235.844	-81.886	-0.230	-0.075
-234.830	411.060	0.080	0.169
-233.815	-122.874	0.179	0.029
-232.800	-167.526	-0.363	-0.015
-231.786	66.102	0.177	0.180
-230.771	-200.000	-0.001	0.273
-229.757	-14.775	-0.282	0.182
-228.742	641.614	-0.056	-0.143
-227.727	109.562	-0.010	-0.012
-226.713	-132.802	-0.243	0.031
-225.698	-149.686	-0.151	0.012
-224.684	-147.355	0.288	0.025
-223.669	-200.000	-0.008	-0.224
-222.655	46.390	0.108	0.101
-221.640	-200.000	-0.027	0.234
-220.625	-23.946	0.041	0.025
-219.611	-162.291	-0.213	-0.011
-218.596	-109.451	0.077	0.016
-217.582	133.608	0.297	0.385
-216.567	-200.000	-0.002	-0.378
-215.552	800.000	-0.068	-0.294
-214.538	-200.000	-0.029	0.269
-213.523	9.973	0.094	0.072
-212.509	800.000	0.169	0.500
-211.494	233.696	-0.020	-0.034
-210.479	14.994	-0.217	-0.170
-209.465	-200.000	-0.075	0.359
-208.450	83.487	0.091	0.099
-207.436	21.858	0.287	0.234
-206.421	-121.536	0.069	-0.011
-205.406	800.000	-0.122	0.393
-204.392	86.685	0.179	0.198
-203.377	-8.421	0.280	-0.189
-202.363	-200.000	-0.020	0.135
-201.348	486.831	-0.084	-0.191
-200.333	-200.000	-0.033	0.232
-199.319	-200.000	-0.033	-0.183
-198.304	-18.586	-0.217	-0.135
-197.290	-40.370	0.034	0.018
-196.275	800.000	0.088	-0.313
-195.260	-59.121	-0.198	-0.085
-194.246	357.943	-0.189	-0.377
-193.231	-32.467	0.232	0.129
-192.217	800.000	0.070	0.278
-191.202	311.685	0.162	0.304
-190.187	5.502	0.313	0.231
-189.173	-143.223	0.192	-0.019
-188.158	168.143	-0.060	0.086
-187.144	-132.998	-0.338	-0.043
-186.129	28.029	-0.187	0.158
-185.114	485.382	-0.121	-0.276
-184.100	165.752	-0.234	0.330
-183.085	-187.288	0.167	0.002
-182.071	133.427	-0.095	-0.123
-181.056	-49.277	-0.425	0.203
-180.042	-100.279	0.122	0.030
-179.027	-93.874	-0.038	-0.010
-178.012	-200.000	0.013	0.327
-176.998	-200.000	-0.043	0.275
-175.983	-200.000	-0.014	0.134
-174.969	-16.899	-0.343	-0.216
-173.954	56.973	0.156	0.152
-172.939	-200.000	-0.025	-0.164
-171.925	4.533	-0.163	-0.120
-170.910	72.330	0.106	-0.110
-169.896	800.000	0.099	-0.276
-168.881	-179.751	-0.229	0.005
-167.866	398.152	0.051	-0.106
-166.852	-146.102	0.372	-0.033
-165.837	-44.757	0.310	0.155
-164.823	-95.082	0.438	0.118
-163.808	106.248	0.140	-0.166
-162.793	-152.323	0.039	-0.003
-161.779	-200.000	0.022	-0.396
-160.764	570.984	0.093	0.225
-159.750	-200.000	0.018	-0.188
-158.735	-56.484	-0.202	0.090
-157.720	171.057	-0.064	-0.091
-156.706	-200.000	-0.220	0.000
-155.691	-0.580	0.107	-0.076
-154.677	14.772	-0.270	-0.211
-153.662	-164.988	-0.096	-0.004
-152.647	-119.297	0.178	-0.031
-151.633	-68.437	0.452	-0.175
-150.618	324.967	0.068	-0.130
-149.604	148.755	-0.219	0.295
-148.589	-200.000	0.000	0.209
-147.574	143.981	0.108	-0.144
-146.560	-154.379	0.150	-0.010
-145.545	225.965	0.038	0.061
-144.531	475.360	0.110	-0.249
-143.516	261.150	0.133	-0.229
-142.502	37.965	0.085	0.075
-141.487	43.000	0.212	0.193
-140.472	-45.376	0.104	-0.052
-139.458	-8.134	-0.285	-0.192
-138.443	-200.000	-0.028	0.150
-137.429	8.826	0.197	0.148
-136.414	536.490	0.164	0.389
-135.399	101.906	-0.156	-0.182
-134.385	464.375	0.076	-0.169
-133.370	715.695	0.078	-0.206
-132.356	154.375	-0.091	0.125
-131.341	800.000	0.019	0.072
-130.326	-200.000	0.044	0.243
-129.312	-4.357	-0.089	0.062
-128.297	230.534	0.034	-0.055
-127.283	111.025	0.084	-0.101
-126.268	-27.355	0.114	0.066
-125.253	793.578	0.099	-0.272
-124.239	-192.278	-0.161	0.002
-123.224	143.954	0.093	-0.123
-122.210	28.107	0.078	-0.066
-121.195	-136.754	0.343	0.039
-120.180	-131.933	-0.303	0.039
