DTS Sentinel unit serial number:	SN413079Multiplexer serial number:	ORYXHardware model number:	OX4-SRSoftware version number:	ORYX F/W v4.00 Oryx Data Collector v3.7.2.0data status	okinstallation	princeton_trtdifferential loss correction	single-endedforward channel	channel 4reverse channel	N/Adate	2019/09/15time	09:13:35forward acquisition time	60.00reverse acquisition time	0.00gamma	496.2192k internal	0.2301k external	0.2301temperature offset calibration	1.0019default loss term (dB/km)	0.3790temperature slope calibration	1.0000multiplexer offset coefficient	1.0000multiplexer slope coefficient	1.0000fibre end	0.00T internal ref (°C)	33.22T ext. ref 1 (°C)	4.98T ext. ref 2 (°C)	30.33length (m)	temperature (°C)	Stokes	anti-Stokes-747.200	800.000	-0.081	-0.322
-746.185	-46.302	0.194	0.097
-745.171	-200.000	0.008	-0.100
-744.156	115.223	0.319	0.398
-743.142	-69.312	0.155	-0.061
-742.127	108.524	-0.088	-0.107
-741.112	11.532	-0.209	0.164
-740.098	-4.709	0.129	-0.091
-739.083	-200.000	0.012	-0.080
-738.069	-24.219	0.118	-0.072
-737.054	-175.724	0.225	-0.006
-736.039	323.592	-0.100	0.194
-735.025	74.173	-0.093	-0.099
-734.010	46.820	-0.112	-0.107
-732.996	-78.384	-0.086	0.030
-731.981	3.662	0.199	0.148
-730.966	-7.040	0.171	0.118
-729.952	120.990	-0.221	-0.281
-728.937	72.378	0.091	0.097
-727.923	-138.386	0.195	-0.022
-726.908	-161.066	0.144	-0.008
-725.894	-5.973	-0.234	-0.163
-724.879	-29.133	-0.436	-0.255
-723.864	-200.000	-0.016	0.092
-722.850	-200.000	-0.010	-0.239
-721.835	800.000	0.145	-0.425
-720.821	58.170	-0.172	-0.172
-719.806	-41.446	-0.175	-0.092
-718.791	-45.543	-0.198	0.100
-717.777	20.945	-0.226	-0.186
-716.762	69.505	0.146	0.153
-715.748	142.319	-0.179	-0.242
-714.733	-148.874	0.108	-0.009
-713.718	-71.205	-0.208	0.079
-712.704	-78.127	-0.222	-0.078
-711.689	166.172	-0.160	0.230
-710.675	285.042	-0.023	0.043
-709.660	606.222	-0.172	-0.436
-708.645	-200.000	-0.073	-0.402
-707.631	-174.176	-0.162	0.005
-706.616	-64.998	-0.158	-0.065
-705.602	-132.921	-0.188	0.024
-704.587	131.188	-0.073	0.095
-703.572	-82.814	0.229	0.075
-702.558	800.000	0.054	-0.212
-701.543	800.000	-0.118	-0.403
-700.529	-113.082	0.105	-0.021
-699.514	307.588	0.179	-0.340
-698.499	-127.046	0.178	0.027
-697.485	-61.890	-0.261	0.111
-696.470	-85.546	0.539	-0.171
-695.456	-25.726	0.178	-0.107
-694.441	-115.107	-0.090	-0.017
-693.426	-20.944	0.083	0.051
-692.412	-174.042	-0.096	0.003
-691.397	-200.000	-0.085	0.486
-690.383	-8.722	-0.206	0.140
-689.368	-8.057	-0.166	-0.114
-688.354	228.952	0.064	0.106
-687.339	-51.079	-0.202	0.096
-686.324	-200.000	-0.171	0.001
-685.310	-101.280	0.115	0.029
-684.295	-67.035	-0.312	-0.125
-683.281	-200.000	-0.036	-0.473
-682.266	800.000	0.034	0.098
-681.251	102.756	-0.051	0.061
-680.237	800.000	0.045	-0.174
-679.222	-115.102	-0.072	0.014
-678.208	-200.000	-0.004	-0.299
-677.193	-18.936	-0.301	-0.190
-676.178	617.503	-0.104	-0.266
-675.164	365.442	0.102	-0.209
-674.149	23.072	-0.174	-0.145
-673.135	67.827	0.073	-0.076
-672.120	-109.169	-0.127	-0.027
-671.105	-29.375	-0.091	0.053
-670.091	-17.829	-0.032	-0.020
-669.076	-200.000	-0.064	-0.494
-668.062	-8.922	0.094	0.064
-667.047	279.770	0.067	0.121
-666.032	-146.933	-0.217	-0.019
-665.018	-58.207	-0.173	-0.076
-664.003	-200.000	0.042	0.214
-662.989	-9.304	-0.077	-0.052
-661.974	550.015	-0.031	-0.075
-660.959	-90.553	-0.123	0.036
-659.945	-200.000	0.030	-0.140
-658.930	165.610	-0.118	0.169
-657.916	-31.728	-0.305	0.174
-656.901	63.385	0.081	-0.083
-655.886	151.488	-0.071	-0.098
-654.872	-200.000	-0.005	-0.275
-653.857	69.847	-0.189	-0.198
-652.843	-66.190	0.161	-0.065
-651.828	800.000	-0.021	-0.081
-650.814	-13.577	0.249	-0.164
-649.799	66.859	-0.207	-0.214
-648.784	-200.000	-0.044	0.303
-647.770	-200.000	-0.001	-0.112
-646.755	-137.122	0.322	-0.037
-645.741	-58.538	-0.292	-0.129
-644.726	373.851	0.052	-0.107
-643.711	-99.094	0.478	-0.123
-642.697	81.443	0.117	0.128
-641.682	15.994	-0.314	-0.251
-640.668	13.230	0.190	-0.150
-639.653	32.007	0.075	-0.066
-638.638	-20.382	-0.346	0.216
-637.624	-101.812	0.210	0.052
-636.609	-127.244	0.143	0.021
-635.595	-87.336	0.038	0.012
-634.580	432.945	0.116	0.256
-633.565	-132.821	0.289	0.037
-632.551	-70.332	-0.122	-0.047
-631.536	-70.895	-0.119	0.045
-630.522	800.000	0.109	-0.432
-629.507	-7.522	-0.181	-0.124
-628.492	148.931	0.080	-0.109
-627.478	-70.869	-0.446	-0.171
-626.463	-35.712	-0.285	-0.157
-625.449	-112.172	-0.206	-0.042
-624.434	365.171	0.027	0.055
-623.419	800.000	0.045	0.193
-622.405	308.878	-0.083	0.157
-621.390	225.425	0.083	-0.137
-620.376	168.226	-0.095	-0.137
-619.361	-21.425	0.172	-0.107
-618.346	-161.443	-0.228	0.012
-617.332	-200.000	-0.014	-0.065
-616.317	-200.000	0.027	0.409
-615.303	-162.117	-0.344	0.018
-614.288	347.481	0.137	-0.273
-613.273	-200.000	0.009	-0.296
-612.259	-115.084	-0.088	0.017
-611.244	77.634	0.215	-0.233
-610.230	48.272	0.074	-0.071
-609.215	-200.000	0.005	0.093
-608.201	800.000	-0.057	0.188
-607.186	800.000	-0.025	-0.088
-606.171	-200.000	0.003	0.188
-605.157	8.502	-0.180	-0.138
-604.142	-114.751	-0.337	-0.065
-603.128	-200.000	0.016	0.095
-602.113	127.344	-0.063	0.081
-601.098	-70.328	0.260	-0.100
-600.084	-73.498	0.160	0.059
-599.069	-35.440	-0.087	0.048
-598.055	800.000	0.045	-0.184
-597.040	-52.985	0.333	-0.155
-596.025	104.661	-0.050	0.060
-595.011	82.146	0.191	-0.210
-593.996	-45.147	-0.281	0.142
-592.982	-16.973	0.169	0.108
-591.967	69.876	0.046	0.048
-590.952	50.964	-0.019	-0.018
-589.938	800.000	0.057	-0.195
-588.923	-182.125	0.184	-0.004
-587.909	158.875	0.112	-0.158
-586.894	-140.773	0.070	-0.007
-585.879	12.585	0.086	0.067
-584.865	-179.397	-0.230	-0.005
-583.850	454.811	0.052	0.117
-582.836	-8.992	0.287	-0.195
-581.821	-146.490	-0.304	0.027
-580.806	214.985	-0.112	0.180
-579.792	-16.792	-0.083	0.053
-578.777	-200.000	0.026	0.125
-577.763	-149.100	0.123	0.010
-576.748	447.214	0.075	-0.166
-575.733	356.917	0.115	0.233
-574.719	275.754	0.073	0.132
-573.704	44.703	-0.104	-0.097
-572.690	-200.000	-0.023	-0.135
-571.675	-200.000	0.011	0.239
-570.661	-123.069	-0.226	0.037
-569.646	-42.485	0.253	0.131
-568.631	216.970	-0.053	-0.085
-567.617	-114.856	0.255	-0.049
-566.602	-53.753	-0.212	-0.098
-565.588	-139.904	-0.109	-0.012
-564.573	31.712	-0.260	0.226
-563.558	-200.000	-0.002	-0.034
-562.544	64.545	-0.166	-0.169
-561.529	312.964	0.154	-0.294
-560.515	142.839	0.109	-0.147
-559.500	-96.007	-0.105	-0.028
-558.485	-101.352	-0.281	0.069
-557.471	-181.076	-0.229	0.005
-556.456	-138.259	-0.267	-0.030
-555.442	-200.000	0.030	-0.164
-554.427	-167.034	0.191	0.008
-553.412	51.819	0.072	0.069
-552.398	52.992	0.064	-0.062
-551.383	-114.979	-0.300	-0.058
-550.369	-48.337	0.035	-0.017
-549.354	345.303	-0.123	0.244
-548.339	800.000	0.065	-0.219
-547.325	323.458	0.101	-0.194
-546.310	-13.087	-0.135	-0.089
-545.296	496.994	0.077	0.180
-544.281	86.276	-0.327	0.364
-543.266	-200.000	0.013	-0.085
-542.252	202.807	0.133	-0.208
-541.237	-42.032	-0.169	-0.087
-540.223	242.119	-0.177	0.299
-539.208	-200.000	-0.026	-0.180
-538.193	-65.044	0.117	-0.048
-537.179	276.268	-0.203	-0.365
-536.164	479.388	-0.005	0.011
-535.150	800.000	-0.043	0.143
-534.135	-132.173	0.321	0.042
-533.121	16.186	-0.246	0.196
-532.106	-200.000	0.008	-0.085
-531.091	800.000	0.047	-0.159
-530.077	-90.102	-0.220	0.065
-529.062	254.233	0.127	0.219
-528.048	-33.714	0.363	-0.202
-527.033	800.000	0.047	-0.153
-526.018	109.021	-0.192	0.232
-525.004	-17.890	-0.266	-0.168
-523.989	-147.448	-0.221	-0.019
-522.975	-55.349	0.367	-0.167
-521.960	-101.238	0.117	-0.029
-520.945	17.357	-0.108	0.087
-519.931	267.100	0.193	0.341
-518.916	-200.000	-0.020	-0.178
-517.902	18.485	-0.128	0.104
-516.887	-200.000	0.001	-0.232
-515.872	236.947	0.106	0.178
-514.858	641.009	-0.071	0.181
-513.843	-57.397	-0.211	-0.093
-512.829	-22.416	0.202	-0.124
-511.814	561.576	-0.097	0.236
-510.799	-104.664	0.324	0.075
-509.785	-102.100	0.245	0.060
-508.770	430.255	-0.123	-0.268
-507.756	-75.783	-0.268	0.096
-506.741	-144.403	0.165	0.015
-505.726	-69.298	0.389	0.151
-504.712	-33.031	-0.198	0.111
-503.697	-54.040	0.384	0.176
-502.683	-200.000	0.024	-0.130
-501.668	-17.622	-0.143	-0.091
-500.653	-145.627	-0.157	-0.014
-499.639	-34.655	0.263	-0.145
-498.624	-200.000	-0.020	0.163
-497.610	8.666	-0.449	0.341
-496.595	-166.317	0.267	-0.011
-495.581	71.605	0.262	-0.274
-494.566	-50.354	-0.143	0.068
-493.551	-162.885	-0.333	0.016
-492.537	7.549	-0.187	-0.141
-491.522	-200.000	0.004	-0.102
-490.508	-130.578	-0.563	0.077
-489.493	396.190	-0.044	-0.094
-488.478	800.000	0.077	0.260
-487.464	-200.000	0.029	-0.293
-486.449	-49.672	0.201	-0.096
-485.435	233.253	-0.073	0.121
-484.420	336.842	0.117	0.228
-483.405	-200.000	0.041	0.274
-482.391	-81.331	0.196	0.065
-481.376	-200.000	0.018	-0.091
-480.362	-200.000	0.002	-0.056
-479.347	57.968	-0.160	-0.158
-478.332	-22.804	-0.249	-0.152
-477.318	-134.884	0.156	0.019
-476.303	351.535	0.044	-0.088
-475.289	325.896	0.128	-0.248
-474.274	613.019	-0.036	-0.091
-473.259	419.773	0.072	-0.156
-472.245	327.745	-0.146	0.282
-471.230	396.732	-0.199	-0.420
-470.216	-200.000	-0.041	0.340
-469.201	-32.587	-0.121	-0.068
-468.186	433.429	0.021	0.046
-467.172	-39.764	0.077	0.041
-466.157	-176.121	-0.283	-0.008
-465.143	183.216	-0.179	-0.267
-464.128	-33.494	-0.138	0.077
-463.113	-103.264	-0.071	-0.017
-462.099	-116.445	0.129	-0.024
-461.084	571.545	0.075	-0.184
-460.070	-113.437	0.413	0.082
-459.055	-107.092	0.132	-0.029
-458.040	-138.518	-0.140	-0.016
-457.026	-80.231	-0.102	-0.034
-456.011	17.326	-0.262	-0.210
-454.997	66.950	-0.243	-0.249
-453.982	513.844	0.068	0.160
-452.968	-92.081	-0.247	-0.071
-451.953	-77.063	0.029	-0.010
-450.938	616.659	-0.134	0.339
-449.924	-43.156	0.218	-0.111
-448.909	-23.380	-0.231	-0.140
-447.895	800.000	0.058	-0.225
-446.880	-171.788	0.203	0.007
-445.865	-51.953	-0.293	-0.137
-444.851	800.000	0.082	0.335
-443.836	-17.678	0.108	-0.068
-442.822	217.478	0.138	-0.221
-441.807	34.616	0.052	0.046
-440.792	-7.495	-0.314	-0.214
-439.778	-200.000	0.002	0.043
-438.763	800.000	-0.095	-0.359
-437.749	117.024	0.060	-0.074
-436.734	-200.000	-0.005	0.107
-435.719	-19.668	0.258	-0.160
-434.705	-78.023	0.200	0.070
-433.690	50.206	0.259	0.246
-432.676	800.000	0.117	0.445
-431.661	-200.000	-0.004	0.061
-430.646	-116.365	0.175	-0.033
-429.632	249.456	-0.134	0.229
-428.617	800.000	-0.108	-0.303
-427.603	747.119	-0.048	0.131
-426.588	170.817	-0.114	0.164
-425.573	-129.192	-0.221	0.031
-424.559	800.000	-0.051	-0.162
-423.544	800.000	-0.081	-0.257
-422.530	-97.811	0.326	0.085
-421.515	20.729	0.087	-0.071
-420.500	588.281	0.109	0.270
-419.486	739.538	-0.154	-0.416
-418.471	-100.640	-0.308	0.077
-417.457	-77.555	-0.273	0.095
-416.442	-200.000	-0.019	0.107
-415.428	-151.051	-0.155	0.012
-414.413	318.087	-0.125	-0.238
-413.398	-168.510	-0.087	-0.003
-412.384	-200.000	0.021	-0.154
-411.369	-65.296	-0.247	0.100
-410.355	-137.228	-0.169	0.019
-409.340	-161.855	-0.341	0.017
-408.325	243.969	0.141	-0.238
-407.311	-53.835	0.295	-0.136
-406.296	-114.554	-0.052	0.010
-405.282	158.429	-0.226	0.316
-404.267	-80.043	0.222	-0.075
-403.252	49.267	0.208	0.197
-402.238	-138.773	-0.079	-0.009
-401.223	-200.000	-0.013	0.061
-400.209	83.135	-0.229	0.251
-399.194	504.534	0.023	-0.053
-398.179	83.585	0.041	-0.044
-397.165	-200.000	0.020	0.360
-396.150	219.984	0.109	0.176
-395.136	-92.389	-0.234	-0.066
-394.121	-200.000	0.002	0.086
-393.106	-137.392	0.219	0.025
-392.092	-156.170	-0.198	-0.013
-391.077	-3.831	0.138	0.096
-390.063	271.284	0.104	0.185
-389.048	-97.573	-0.274	0.072
-388.033	-200.000	-0.061	0.342
-387.019	83.879	0.040	0.044
-386.004	10.807	0.128	0.098
-384.990	-200.000	0.009	-0.056
-383.975	206.041	-0.094	-0.147
-382.960	800.000	-0.066	0.207
-381.946	-29.750	0.050	-0.028
-380.931	217.597	0.213	0.341
-379.917	-200.000	-0.002	-0.191
-378.902	229.318	-0.057	0.094
-377.888	41.906	0.186	0.170
-376.873	-200.000	0.010	-0.169
-375.858	149.099	-0.088	0.120
-374.844	-80.092	-0.099	-0.033
-373.829	-74.785	0.061	-0.022
-372.815	61.397	-0.024	-0.024
-371.800	4.526	0.197	0.146
-370.785	-200.000	0.020	0.144
-369.771	55.003	-0.005	-0.005
-368.756	34.283	-0.035	0.031
-367.742	-200.000	-0.007	-0.126
-366.727	-89.063	0.474	-0.141
-365.712	80.429	-0.049	-0.053
-364.698	-94.484	0.162	0.044
-363.683	800.000	-0.063	0.206
-362.669	225.378	0.100	0.163
-361.654	98.203	-0.201	0.232
-360.639	32.340	-0.257	0.223
-359.625	459.938	-0.136	0.304
-358.610	-28.662	0.113	-0.065
-357.596	-73.584	-0.158	0.058
-356.581	-62.843	0.072	-0.030
-355.566	-87.388	-0.214	0.065
-354.552	102.968	0.136	0.160
-353.537	-51.043	-0.250	0.118
-352.523	-37.182	0.292	0.157
-351.508	253.670	0.080	0.137
-350.493	-31.104	-0.114	-0.064
-349.479	-9.478	-0.292	0.195
-348.464	-200.000	-0.013	-0.155
-347.450	-149.628	0.160	-0.013
-346.435	165.345	0.128	0.182
-345.420	-200.000	-0.001	-0.271
-344.406	405.603	0.066	-0.140
-343.391	800.000	-0.021	0.069
-342.377	-1.235	0.384	-0.272
-341.362	645.029	-0.063	-0.162
-340.348	363.169	-0.043	0.086
-339.333	-86.311	-0.242	0.075
-338.318	-53.448	0.173	0.079
-337.304	-87.579	0.348	0.105
-336.289	475.751	0.088	0.200
-335.275	259.387	0.160	-0.276
-334.260	-139.148	-0.318	0.034
-333.245	-129.806	0.234	-0.032
-332.231	-65.112	0.488	0.198
-331.216	-87.009	0.099	0.030
-330.202	-200.000	0.023	0.134
-329.187	-31.973	0.178	-0.100
-328.172	138.421	-0.164	-0.216
-327.158	207.150	0.132	0.207
-326.143	241.865	-0.224	-0.376
-325.129	800.000	-0.034	0.146
-324.114	-200.000	-0.074	0.342
-323.099	-108.449	0.247	-0.053
-322.085	229.058	-0.302	-0.494
-321.070	-7.121	-0.102	0.069
-320.056	-147.181	0.032	0.003
-319.041	-126.768	-0.294	0.044
-318.026	405.312	-0.036	-0.077
-317.012	245.319	-0.116	0.196
-315.997	338.822	-0.075	-0.147
-314.983	-115.042	0.067	-0.013
-313.968	-142.919	-0.215	0.021
-312.953	293.459	0.044	0.080
-311.939	586.984	0.102	0.251
-310.924	800.000	-0.122	-0.366
-309.910	57.118	0.032	0.031
-308.895	-30.799	0.276	0.157
-307.880	696.486	-0.069	0.183
-306.866	-200.000	0.050	-0.236
-305.851	-112.870	0.060	-0.012
-304.837	-200.000	0.019	0.124
-303.822	178.320	0.165	-0.241
-302.807	-200.000	0.049	-0.269
-301.793	-55.622	-0.038	0.017
-300.778	-200.000	0.023	-0.136
-299.764	-93.013	-0.122	0.034
-298.749	-130.470	0.102	-0.014
-297.735	-200.000	-0.056	0.475
-296.720	256.631	0.043	0.073
-295.705	145.150	-0.081	-0.108
-294.691	252.903	-0.110	0.187
-293.676	-133.180	0.299	0.038
-292.662	-118.557	-0.073	0.013
-291.647	-200.000	0.002	0.174
-290.632	121.514	0.210	-0.263
-289.618	68.779	0.165	-0.170
-288.603	800.000	-0.044	-0.164
-287.589	800.000	-0.019	-0.059
-286.574	-49.432	0.190	0.091
-285.559	270.345	-0.065	0.115
-284.545	-82.416	-0.254	0.083
-283.530	-101.463	0.262	0.064
-282.516	-200.000	-0.005	-0.153
-281.501	-43.632	-0.101	0.051
-280.486	800.000	0.094	-0.263
-279.472	-43.627	-0.117	0.059
-278.457	199.852	0.129	-0.198
-277.443	334.685	0.039	0.076
-276.428	-43.418	0.092	0.047
-275.413	97.201	0.265	-0.304
-274.399	-200.000	0.002	0.137
-273.384	-49.269	0.074	-0.035
-272.370	-15.568	-0.253	0.162
-271.355	73.970	-0.164	0.173
-270.340	800.000	0.038	-0.127
-269.326	140.341	-0.036	-0.048
-268.311	-200.000	-0.004	-0.113
-267.297	-200.000	0.025	0.358
-266.282	55.552	0.120	0.116
-265.267	-100.859	0.347	-0.085
-264.253	-148.250	-0.199	-0.016
-263.238	-94.107	-0.178	-0.049
-262.224	606.176	0.057	-0.141
-261.209	-187.635	-0.328	0.004
-260.195	-19.522	-0.098	0.061
-259.180	-95.860	-0.175	0.047
-258.165	-48.767	0.376	0.181
-257.151	-124.590	-0.221	-0.034
-256.136	40.404	-0.159	0.143
-255.122	678.920	-0.119	-0.310
-254.107	112.516	-0.029	0.035
-253.092	327.547	-0.320	-0.615
-252.078	-200.000	-0.027	0.250
-251.063	-200.000	-0.025	0.185
-250.049	-151.193	-0.165	0.012
-249.034	-53.368	0.049	-0.023
-248.019	12.801	0.182	0.141
-247.005	287.048	-0.154	-0.279
-245.990	-200.000	-0.001	0.224
-244.976	-89.772	-0.113	-0.033
-243.961	289.220	-0.184	0.333
-242.946	-163.687	-0.071	-0.003
-241.932	-53.936	0.188	0.085
-240.917	785.903	0.137	-0.374
-239.903	-76.266	0.272	0.096
-238.888	-93.802	-0.216	0.059
-237.873	800.000	-0.038	-0.164
-236.859	-200.000	-0.011	-0.486
-235.844	-155.182	-0.092	-0.006
-234.830	-29.483	0.044	-0.025
-233.815	-147.187	-0.253	-0.022
-232.800	70.243	-0.050	-0.051
-231.786	-102.132	-0.294	-0.071
-230.771	65.052	-0.069	0.070
-229.757	800.000	-0.073	0.249
-228.742	7.353	0.194	0.145
-227.727	-21.322	0.074	-0.045
-226.713	-130.178	0.102	-0.014
-225.698	-135.413	0.428	-0.051
-224.684	312.453	0.035	0.065
-223.669	-156.457	0.137	-0.009
-222.655	-23.361	-0.074	0.045
-221.640	94.459	0.211	0.239
-220.625	-105.909	0.627	-0.141
-219.611	108.913	-0.025	-0.030
-218.596	-200.000	-0.023	-0.270
-217.582	108.221	-0.223	-0.266
-216.567	800.000	0.067	-0.191
-215.552	-109.741	0.261	0.055
-214.538	-200.000	0.011	0.222
-213.523	0.095	0.124	-0.088
-212.509	800.000	0.042	-0.151
-211.494	-13.762	0.032	-0.021
-210.479	234.250	0.018	0.030
-209.465	83.075	-0.087	0.094
-208.450	-188.521	0.497	-0.006
-207.436	-200.000	0.043	-0.379
-206.421	800.000	-0.134	-0.536
-205.406	-61.424	0.063	-0.026
-204.392	141.748	-0.240	-0.318
-203.377	124.606	0.253	0.318
-202.363	-71.283	0.059	0.022
-201.348	248.654	0.146	0.247
-200.333	-63.858	0.112	-0.046
-199.319	-200.000	0.041	-0.185
-198.304	-118.671	0.068	-0.012
-197.290	-200.000	-0.046	0.262
-196.275	-200.000	0.007	-0.168
-195.260	343.381	-0.077	0.150
-194.246	437.366	-0.055	0.119
-193.231	-86.258	-0.153	-0.047
-192.217	353.871	-0.115	0.228
-191.202	302.641	-0.027	0.050
-190.187	164.073	0.024	-0.033
-189.173	529.106	-0.109	-0.256
-188.158	-44.887	-0.084	0.042
-187.144	-140.178	0.192	0.020
-186.129	-100.553	0.326	0.080
-185.114	-117.686	0.042	-0.008
-184.100	-46.333	-0.215	0.105
-183.085	164.167	-0.234	0.328
-182.071	391.726	-0.110	0.229
-181.056	-38.472	-0.237	0.125
-180.042	-100.295	0.277	0.069
-179.027	111.224	0.083	-0.100
-178.012	270.382	0.025	-0.044
-176.998	294.606	-0.114	0.208
-175.983	-122.955	0.287	0.046
-174.969	-128.659	0.046	0.006
-173.954	800.000	0.035	0.131
-172.939	258.744	0.084	-0.145
-171.925	358.375	0.084	0.168
-170.910	-200.000	-0.065	0.369
-169.896	-93.596	-0.240	-0.066
-168.881	145.359	0.114	-0.152
-167.866	-60.723	-0.134	-0.057
-166.852	800.000	-0.035	-0.113
-165.837	-42.560	0.224	0.114
-164.823	-200.000	0.005	-0.105
-163.808	-200.000	-0.005	0.057
-162.793	-76.562	0.276	0.097
-161.779	-121.993	-0.121	-0.020
-160.764	-126.535	0.323	-0.048
-159.750	-35.086	0.148	-0.080
-158.735	-117.671	0.234	0.042
-157.720	222.786	0.067	-0.107
-156.706	-166.496	-0.181	-0.008
-155.691	459.781	0.019	-0.041
-154.677	-90.532	0.099	0.029
-153.662	-200.000	-0.046	0.279
-152.647	51.257	-0.159	0.151
-151.633	-27.921	0.222	-0.128
-150.618	-179.333	0.328	-0.007
-149.604	800.000	0.085	-0.236
-148.589	800.000	0.021	-0.086
-147.574	-79.302	-0.290	-0.098
-146.560	-200.000	0.024	-0.111
-145.545	205.964	-0.120	-0.186
-144.531	404.077	-0.153	-0.320
-143.516	-200.000	-0.017	-0.164
-142.502	-6.221	0.164	0.112
-141.487	226.327	-0.145	0.234
-140.472	448.700	-0.110	0.241
-139.458	36.886	-0.115	0.101
-138.443	179.702	-0.194	0.283
-137.429	-178.683	0.095	-0.002
-136.414	757.334	0.017	-0.046
-135.399	173.898	0.044	-0.064
-134.385	-200.000	-0.001	-0.050
-133.370	-116.411	-0.485	0.089
-132.356	-137.452	0.390	0.044
-131.341	-22.149	-0.110	0.067
-130.326	38.439	-0.224	0.199
-129.312	800.000	0.040	0.132
-128.297	-133.364	0.196	0.025
-127.283	-200.000	-0.039	0.496
-126.268	-27.423	0.136	-0.079
-125.253	38.625	-0.108	0.096
-124.239	43.860	-0.139	-0.127
-123.224	-63.466	0.211	0.086
