DTS Sentinel unit serial number:	SN413079Multiplexer serial number:	ORYXHardware model number:	OX4-SRSoftware version number:	ORYX F/W v4.00 Oryx Data Collector v3.7.2.0data status	okinstallation	princeton_trtdifferential loss correction	single-endedforward channel	channel 4reverse channel	N/Adate	2019/09/13time	23:01:35forward acquisition time	60.00reverse acquisition time	0.00gamma	496.2192k internal	0.2322k external	0.2322temperature offset calibration	1.0138default loss term (dB/km)	0.3790temperature slope calibration	1.0000multiplexer offset coefficient	1.0000multiplexer slope coefficient	1.0000fibre end	0.00T internal ref (°C)	27.31T ext. ref 1 (°C)	3.21T ext. ref 2 (°C)	21.30length (m)	temperature (°C)	Stokes	anti-Stokes-747.200	-200.000	-0.003	0.333
-746.185	-200.000	-0.025	0.275
-745.171	-105.892	-0.172	-0.039
-744.156	57.835	-0.292	0.289
-743.142	-97.887	0.114	0.030
-742.127	644.403	0.087	0.226
-741.112	800.000	-0.054	-0.204
-740.098	85.343	-0.284	0.315
-739.083	125.538	0.142	0.181
-738.069	-73.010	-0.102	-0.038
-737.054	241.453	-0.065	0.110
-736.039	-63.803	-0.459	0.190
-735.025	-27.088	-0.298	-0.176
-734.010	800.000	0.071	-0.209
-732.996	43.343	-0.024	0.022
-731.981	-164.001	0.134	-0.006
-730.966	-200.000	0.005	-0.104
-729.952	57.160	-0.053	0.052
-728.937	-144.427	-0.254	-0.024
-727.923	-135.234	0.112	-0.014
-726.908	394.136	0.099	0.208
-725.894	355.682	0.092	-0.184
-724.879	-127.069	-0.252	-0.037
-723.864	252.394	0.041	0.071
-722.850	-52.976	-0.237	0.110
-721.835	-116.831	-0.135	-0.025
-720.821	-28.030	-0.096	0.056
-719.806	-115.053	0.235	0.045
-718.791	142.573	-0.089	0.120
-717.777	-108.548	0.328	-0.071
-716.762	-200.000	0.023	0.113
-715.748	229.156	-0.136	0.223
-714.733	-139.326	0.188	0.020
-713.718	56.999	0.070	0.069
-712.704	41.586	-0.218	0.199
-711.689	800.000	0.141	0.552
-710.675	-47.434	-0.258	-0.127
-709.660	50.715	-0.031	0.029
-708.645	-200.000	-0.005	0.182
-707.631	-200.000	0.048	-0.391
-706.616	-200.000	0.031	-0.175
-705.602	-117.651	-0.232	-0.042
-704.587	204.139	0.168	0.263
-703.572	800.000	-0.079	0.264
-702.558	355.573	-0.099	-0.199
-701.543	-72.152	-0.321	-0.120
-700.529	-185.663	0.134	-0.002
-699.514	800.000	-0.055	-0.179
-698.499	-200.000	0.029	0.143
-697.485	217.008	0.176	0.283
-696.470	-48.765	0.157	0.076
-695.456	-126.625	0.350	-0.052
-694.441	204.213	-0.188	-0.294
-693.426	800.000	0.061	0.266
-692.412	800.000	0.101	0.325
-691.397	-1.582	-0.253	0.180
-690.383	222.364	-0.072	-0.117
-689.368	-8.343	-0.183	0.124
-688.354	-200.000	-0.014	0.190
-687.339	-200.000	-0.051	-0.247
-686.324	-49.996	-0.325	-0.155
-685.310	159.145	0.071	0.099
-684.295	-200.000	-0.019	0.231
-683.281	-97.323	0.288	-0.076
-682.266	-200.000	0.004	-0.124
-681.251	361.263	0.103	-0.208
-680.237	183.489	0.175	-0.261
-679.222	95.825	-0.054	-0.062
-678.208	249.496	-0.091	0.155
-677.193	-122.476	0.148	0.024
-676.178	-68.172	-0.428	-0.168
-675.164	-200.000	0.004	-0.156
-674.149	-101.805	0.330	-0.080
-673.135	800.000	-0.116	-0.391
-672.120	800.000	0.073	-0.207
-671.105	309.391	0.118	0.223
-670.091	800.000	-0.059	0.180
-669.076	-200.000	-0.009	0.118
-668.062	-178.231	0.168	-0.004
-667.047	4.164	0.108	0.080
-666.032	-152.363	-0.140	-0.010
-665.018	-25.580	-0.096	-0.057
-664.003	-98.778	-0.326	-0.084
-662.989	-92.430	-0.054	0.015
-661.974	-200.000	-0.046	-0.544
-660.959	-200.000	-0.013	0.229
-659.945	-200.000	-0.057	-0.434
-658.930	112.150	-0.101	0.123
-657.916	-200.000	-0.072	0.365
-656.901	247.061	-0.159	0.270
-655.886	9.379	-0.148	0.113
-654.872	-200.000	-0.005	-0.150
-653.857	-200.000	-0.034	-0.169
-652.843	367.194	0.086	-0.176
-651.828	45.147	-0.124	-0.115
-650.814	-200.000	-0.005	0.048
-649.799	422.250	-0.075	-0.161
-648.784	62.013	-0.153	-0.153
-647.770	-116.797	-0.233	-0.043
-646.755	-200.000	-0.014	-0.087
-645.741	-200.000	-0.014	-0.210
-644.726	59.144	-0.196	-0.194
-643.711	-200.000	-0.003	0.032
-642.697	-62.970	-0.261	0.109
-641.682	-200.000	0.058	0.371
-640.668	-200.000	-0.034	-0.163
-639.653	800.000	-0.047	-0.183
-638.638	-100.988	-0.119	0.029
-637.624	172.482	-0.165	0.239
-636.609	-67.538	0.133	-0.053
-635.595	-98.463	-0.156	-0.040
-634.580	-102.069	-0.274	-0.066
-633.565	118.358	0.240	0.298
-632.551	800.000	0.019	0.068
-631.536	-200.000	0.054	-0.269
-630.522	123.306	-0.011	0.013
-629.507	-45.622	-0.147	0.073
-628.492	95.065	-0.053	-0.060
-627.478	18.955	-0.211	0.170
-626.463	-65.111	0.139	0.057
-625.449	-26.653	-0.035	0.020
-624.434	-200.000	0.036	0.180
-623.419	-56.565	-0.183	-0.082
-622.405	-159.253	-0.161	0.009
-621.390	-110.232	-0.063	0.013
-620.376	181.818	0.071	-0.105
-619.361	36.888	-0.196	0.174
-618.346	67.099	0.079	0.081
-617.332	-35.454	-0.169	0.093
-616.317	-81.339	-0.249	-0.082
-615.303	335.218	-0.262	-0.512
-614.288	-31.804	0.157	-0.088
-613.273	653.019	0.060	-0.154
-612.259	-200.000	-0.001	-0.301
-611.244	200.778	0.097	-0.150
-610.230	-36.478	-0.085	0.046
-609.215	53.503	0.219	0.211
-608.201	800.000	0.127	-0.368
-607.186	-200.000	0.019	0.210
-606.171	800.000	-0.027	-0.092
-605.157	92.928	-0.177	-0.201
-604.142	479.062	-0.117	-0.266
-603.128	-47.014	-0.248	-0.122
-602.113	181.139	-0.072	-0.106
-601.098	-147.689	-0.091	-0.008
-600.084	-200.000	0.018	-0.149
-599.069	-65.007	0.300	0.122
-598.055	-7.330	0.306	0.208
-597.040	111.875	0.299	-0.363
-596.025	-16.093	-0.242	-0.155
-595.011	-131.406	0.284	0.038
-593.996	-70.147	0.222	0.085
-592.982	-77.495	-0.349	0.122
-591.967	-102.357	0.179	0.043
-590.952	-154.733	-0.376	0.025
-589.938	800.000	-0.040	0.153
-588.923	-200.000	0.018	-0.183
-587.909	-142.619	0.400	0.039
-586.894	300.926	0.032	0.059
-585.879	-44.904	0.346	-0.173
-584.865	-35.645	0.138	-0.075
-583.850	-13.889	0.106	-0.069
-582.836	-191.324	0.105	0.001
-581.821	391.618	0.125	0.260
-580.806	-200.000	0.024	0.338
-579.792	50.559	0.309	0.294
-578.777	135.045	-0.020	-0.027
-577.763	-93.390	0.142	-0.040
-576.748	3.424	-0.162	-0.118
-575.733	-39.873	-0.255	-0.134
-574.719	129.290	0.181	-0.232
-573.704	634.159	-0.052	0.133
-572.690	-44.908	0.268	-0.134
-571.675	576.961	0.082	0.202
-570.661	-200.000	0.020	-0.089
-569.646	-111.910	-0.316	0.064
-568.631	786.921	0.043	-0.117
-567.617	48.417	-0.084	-0.079
-566.602	-105.257	-0.229	-0.052
-565.588	-200.000	-0.042	-0.202
-564.573	-154.592	-0.031	-0.002
-563.558	83.498	-0.107	0.117
-562.544	25.249	-0.120	-0.100
-561.529	-93.272	-0.167	-0.047
-560.515	-10.229	-0.182	0.121
-559.500	-99.309	-0.061	-0.015
-558.485	-200.000	-0.016	-0.226
-557.471	-8.904	-0.226	-0.152
-556.456	196.762	0.139	-0.212
-555.442	-200.000	-0.008	-0.035
-554.427	44.262	0.074	0.069
-553.412	-200.000	-0.025	0.191
-552.398	-58.094	-0.253	-0.111
-551.383	5.994	-0.043	0.032
-550.369	83.766	0.155	-0.170
-549.354	-145.696	-0.299	-0.027
-548.339	-64.914	-0.132	-0.053
-547.325	-200.000	-0.002	0.216
-546.310	-200.000	-0.020	-0.184
-545.296	-82.184	0.429	-0.140
-544.281	177.600	-0.036	-0.053
-543.266	800.000	0.071	0.202
-542.252	-200.000	0.036	0.312
-541.237	-24.233	-0.123	-0.074
-540.223	800.000	-0.051	-0.168
-539.208	-71.555	-0.211	-0.079
-538.193	-120.782	-0.127	-0.021
-537.179	-200.000	-0.049	-0.443
-536.164	-49.301	0.064	-0.031
-535.150	-99.356	0.079	-0.020
-534.135	5.521	0.204	0.151
-533.121	800.000	-0.031	-0.107
-532.106	-165.362	0.028	0.001
-531.091	-200.000	-0.008	-0.123
-530.077	-36.562	-0.100	-0.054
-529.062	-148.474	0.107	-0.009
-528.048	257.300	-0.069	-0.119
-527.033	-162.490	0.268	-0.013
-526.018	467.149	-0.125	0.280
-525.004	-200.000	0.051	0.246
-523.989	-143.202	-0.107	-0.010
-522.975	800.000	0.022	0.077
-521.960	800.000	-0.039	0.134
-520.945	-109.628	-0.167	-0.035
-519.931	-144.700	0.194	-0.018
-518.916	-147.053	0.314	-0.027
-517.902	339.817	0.119	-0.233
-516.887	800.000	0.073	-0.274
-515.872	199.519	-0.116	-0.178
-514.858	130.240	0.061	0.078
-513.843	-166.382	-0.188	0.008
-512.829	-200.000	0.008	-0.241
-511.814	207.568	-0.048	-0.076
-510.799	-50.104	0.335	-0.159
-509.785	286.217	-0.115	-0.208
-508.770	224.434	-0.206	-0.333
-507.756	-200.000	0.028	0.371
-506.741	-200.000	-0.179	-0.001
-505.726	-200.000	-0.014	-0.123
-504.712	-200.000	-0.054	0.357
-503.697	537.264	-0.100	-0.237
-502.683	24.593	0.284	-0.235
-501.668	-33.869	0.175	-0.097
-500.653	-135.132	-0.241	-0.029
-499.639	-83.181	-0.358	-0.115
-498.624	16.524	-0.108	-0.085
-497.610	-4.077	-0.119	-0.083
-496.595	-74.541	0.472	-0.170
-495.581	-162.726	0.094	0.005
-494.566	800.000	0.076	-0.222
-493.551	800.000	0.048	0.140
-492.537	-86.293	0.376	0.116
-491.522	437.540	-0.017	-0.038
-490.508	-167.217	-0.053	-0.002
-489.493	399.566	-0.138	0.289
-488.478	52.220	-0.084	-0.081
-487.464	-47.817	0.283	0.137
-486.449	-200.000	-0.003	-0.155
-485.435	-153.979	0.190	0.013
-484.420	67.258	-0.130	-0.133
-483.405	-133.240	-0.132	-0.017
-482.391	800.000	0.075	0.220
-481.376	134.058	-0.199	-0.258
-480.362	-102.268	-0.335	-0.081
-479.347	-68.733	0.247	-0.096
-478.332	-200.000	0.020	-0.296
-477.318	-200.000	-0.060	0.324
-476.303	164.283	0.149	-0.210
-475.289	275.403	0.296	-0.525
-474.274	-200.000	-0.020	0.297
-473.259	-89.635	-0.283	-0.083
-472.245	-104.577	-0.361	0.083
-471.230	85.840	0.124	0.136
-470.216	-47.947	0.096	0.047
-469.201	73.470	0.319	0.333
-468.186	-47.745	-0.283	0.137
-467.172	62.596	-0.092	0.092
-466.157	-200.000	0.073	0.333
-465.143	51.016	-0.362	-0.343
-464.128	-57.179	0.336	0.148
-463.113	5.236	-0.171	0.126
-462.099	-104.996	-0.190	-0.044
-461.084	-126.205	0.102	-0.015
-460.070	335.304	0.113	-0.219
-459.055	449.696	-0.052	-0.116
-458.040	-38.486	-0.207	0.109
-457.026	-59.158	-0.283	-0.122
-456.011	118.541	0.134	-0.165
-454.997	437.655	0.067	0.147
-453.982	42.374	0.179	0.163
-452.968	703.364	-0.052	-0.138
-451.953	800.000	-0.026	0.100
-450.938	-34.167	-0.127	0.070
-449.924	50.050	-0.301	0.284
-448.909	183.204	-0.084	-0.124
-447.895	-200.000	0.033	-0.330
-446.880	-32.999	0.507	0.281
-445.865	87.157	-0.119	0.132
-444.851	-62.483	-0.437	-0.182
-443.836	-200.000	-0.060	0.273
-442.822	800.000	0.107	0.374
-441.807	800.000	0.050	0.173
-440.792	161.925	0.167	0.234
-439.778	-130.893	-0.225	0.030
-438.763	189.294	-0.036	-0.055
-437.749	-200.000	-0.007	0.097
-436.734	-200.000	-0.008	0.085
-435.719	7.719	-0.172	0.128
-434.705	-74.801	0.109	0.039
-433.690	133.379	-0.247	0.318
-432.676	-69.876	-0.317	0.121
-431.661	-143.841	-0.293	-0.028
-430.646	139.428	0.083	0.109
-429.632	-157.930	0.318	0.019
-428.617	495.960	-0.102	-0.235
-427.603	180.867	0.184	0.270
-426.588	-112.488	-0.026	0.005
-425.573	800.000	0.038	-0.133
-424.559	-200.000	-0.023	0.297
-423.544	-84.319	-0.111	-0.035
-422.530	-81.635	0.130	-0.043
-421.515	361.406	0.067	0.134
-420.500	697.876	0.008	0.020
-419.486	-200.000	0.062	0.289
-418.471	-133.125	-0.234	0.030
-417.457	-109.766	-0.234	-0.049
-416.442	-144.367	0.240	0.022
-415.428	18.468	-0.082	-0.065
-414.413	590.493	-0.059	-0.146
-413.398	-4.843	-0.130	0.089
-412.384	126.787	-0.121	-0.153
-411.369	-200.000	0.009	0.281
-410.355	800.000	0.155	0.467
-409.340	-62.426	-0.303	-0.126
-408.325	-72.813	0.148	-0.054
-407.311	800.000	-0.064	-0.248
-406.296	96.536	0.092	0.105
-405.282	-43.396	0.237	-0.119
-404.267	-62.519	-0.040	-0.017
-403.252	208.149	0.155	0.241
-402.238	21.988	-0.273	0.222
-401.223	-200.000	-0.048	0.248
-400.209	-34.504	0.131	0.071
-399.194	-94.204	0.061	-0.017
-398.179	-79.531	0.066	0.022
-397.165	-10.043	-0.298	-0.197
-396.150	-123.812	0.216	-0.034
-395.136	-200.000	0.006	0.072
-394.121	-100.641	0.122	-0.030
-393.106	-98.521	0.178	0.045
-392.092	-116.172	0.108	-0.020
-391.077	-9.099	0.328	0.219
-390.063	121.577	0.209	0.259
-389.048	-200.000	-0.016	0.219
-388.033	170.175	0.182	-0.260
-387.019	-88.455	-0.176	-0.052
-386.004	-77.657	0.169	0.058
-384.990	-109.259	0.227	0.048
-383.975	-114.716	-0.115	-0.022
-382.960	78.586	-0.168	0.179
-381.946	-200.000	0.092	0.507
-380.931	-152.348	0.197	-0.014
-379.917	179.329	-0.072	-0.105
-378.902	-27.305	-0.006	-0.003
-377.888	800.000	0.074	0.212
-376.873	-104.437	-0.320	-0.074
-375.858	-34.336	0.435	0.238
-374.844	489.357	-0.021	-0.048
-373.829	100.490	0.213	-0.246
-372.815	-200.000	-0.018	0.257
-371.800	-200.000	0.001	-0.071
-370.785	-82.411	-0.158	0.051
-369.771	-200.000	-0.033	0.172
-368.756	-200.000	0.033	0.320
-367.742	-131.360	0.191	-0.025
-366.727	-167.656	-0.216	0.009
-365.712	646.587	0.071	0.180
-364.698	132.449	0.176	-0.226
-363.683	-93.662	0.271	0.075
-362.669	749.821	-0.072	-0.192
-361.654	-78.269	0.223	0.076
-360.639	800.000	-0.005	0.018
-359.625	800.000	-0.054	-0.185
-358.610	-200.000	0.040	0.254
-357.596	800.000	-0.106	-0.411
-356.581	-22.111	-0.080	-0.048
-355.566	163.764	-0.006	-0.008
-354.552	133.685	0.214	0.275
-353.537	-75.794	-0.295	-0.104
-352.523	-52.011	0.073	0.034
-351.508	111.490	-0.296	-0.355
-350.493	183.564	0.129	0.190
-349.479	73.028	-0.194	-0.201
-348.464	163.099	0.109	-0.152
-347.450	-200.000	0.006	-0.051
-346.435	-10.201	0.063	-0.042
-345.420	117.640	-0.106	0.130
-344.406	-17.748	0.218	0.136
-343.391	-75.463	-0.064	0.023
-342.377	-125.831	0.190	0.029
-341.362	800.000	-0.050	-0.163
-340.348	-200.000	0.030	0.303
-339.333	-126.515	-0.261	-0.039
-338.318	800.000	0.079	-0.241
-337.304	800.000	0.055	0.208
-336.289	620.719	0.060	0.150
-335.275	-129.477	0.346	0.048
-334.260	-200.000	-0.008	0.065
-333.245	-143.130	0.153	-0.015
-332.231	-78.669	0.119	-0.040
-331.216	-200.000	-0.046	0.453
-330.202	-101.092	-0.171	0.042
-329.187	118.078	-0.125	-0.153
-328.172	-112.796	0.030	-0.006
-327.158	-80.201	0.045	0.015
-326.143	-200.000	0.008	0.071
-325.129	800.000	0.100	-0.366
-324.114	56.293	-0.105	-0.102
-323.099	800.000	-0.054	-0.154
-322.085	20.433	0.205	-0.165
-321.070	57.388	-0.266	-0.259
-320.056	139.529	0.074	-0.097
-319.041	-163.478	-0.062	-0.003
-318.026	10.141	0.043	0.033
-317.012	-200.000	0.005	-0.343
-315.997	800.000	-0.053	-0.210
-314.983	9.244	0.271	-0.204
-313.968	-47.612	-0.179	0.086
-312.953	137.377	-0.086	-0.111
-311.939	268.337	-0.123	0.214
-310.924	13.214	0.040	0.031
-309.910	-200.000	-0.027	-0.140
-308.895	0.479	0.089	-0.063
-307.880	-126.521	0.342	-0.050
-306.866	-119.132	0.376	-0.065
-305.851	-102.320	0.277	0.066
-304.837	800.000	-0.059	0.164
-303.822	82.748	0.129	-0.140
-302.807	-121.372	-0.237	-0.039
-301.793	-200.000	-0.000	-0.040
-300.778	-150.620	0.075	0.006
-299.764	-94.251	-0.146	0.040
-298.749	83.759	-0.128	-0.139
-297.735	-50.173	-0.256	0.120
-296.720	800.000	-0.073	0.235
-295.705	248.311	-0.051	0.086
-294.691	-6.259	-0.146	-0.099
-293.676	-55.077	0.179	-0.080
-292.662	-130.669	-0.371	-0.050
-291.647	332.038	-0.102	-0.196
-290.632	289.737	0.164	0.295
-289.618	-30.644	0.267	0.150
-288.603	-162.641	-0.498	-0.024
-287.589	193.977	-0.103	0.154
-286.574	-90.604	-0.067	0.019
-285.559	800.000	0.088	-0.275
-284.545	-200.000	-0.003	-0.083
-283.530	68.861	0.173	-0.176
-282.516	-24.620	-0.377	0.223
-281.501	701.188	0.082	-0.214
-280.486	-200.000	0.006	0.329
-279.472	35.362	-0.116	-0.101
-278.457	-54.896	-0.169	0.075
-277.443	76.907	0.206	-0.217
-276.428	800.000	0.044	-0.125
-275.413	99.063	-0.093	-0.107
-274.399	-37.397	0.190	0.101
-273.384	-114.010	0.199	-0.038
-272.370	120.118	-0.016	0.019
-271.355	-135.200	-0.232	-0.028
-270.340	44.224	0.142	-0.130
-269.326	11.939	0.309	-0.236
-268.311	-152.248	0.151	0.011
-267.297	-134.615	-0.176	-0.021
-266.282	126.622	0.174	0.219
-265.267	-48.706	-0.074	0.035
-264.253	-57.473	-0.183	0.079
-263.238	-200.000	-0.026	0.251
-262.224	-92.687	-0.140	0.039
-261.209	-200.000	0.007	0.091
-260.195	16.210	0.126	0.098
-259.180	-35.352	0.248	-0.134
-258.165	777.699	-0.128	-0.346
-257.151	-200.000	0.002	0.015
-256.136	-110.129	0.011	-0.002
-255.122	45.806	-0.278	-0.255
-254.107	204.366	0.126	0.193
-253.092	343.872	-0.139	0.270
-252.078	-200.000	0.039	-0.399
-251.063	-136.620	0.206	-0.024
-250.049	22.494	0.151	-0.122
-249.034	-47.806	-0.167	0.080
-248.019	-167.304	-0.186	0.007
-247.005	-43.844	0.195	-0.097
-245.990	-105.670	-0.079	-0.018
-244.976	61.175	0.054	-0.053
-243.961	-200.000	0.001	-0.012
-242.946	800.000	0.070	0.273
-241.932	117.195	0.193	0.235
-240.917	186.049	-0.193	0.284
-239.903	-24.272	0.229	0.135
-238.888	159.076	0.151	-0.207
-237.873	-26.525	-0.189	-0.110
-236.859	-192.742	-0.205	0.002
-235.844	69.701	0.079	0.080
-234.830	-200.000	0.003	0.065
-233.815	-108.332	0.016	-0.004
-232.800	78.726	0.031	0.033
-231.786	800.000	0.015	0.049
-230.771	-21.788	0.097	-0.059
-229.757	108.902	0.205	0.243
-228.742	9.466	-0.369	0.277
-227.727	633.767	0.074	0.187
-226.713	-172.514	-0.324	0.010
-225.698	-200.000	-0.062	-0.303
-224.684	-200.000	-0.011	-0.093
-223.669	157.051	0.150	0.205
-222.655	-200.000	-0.039	-0.323
-221.640	-60.792	-0.336	-0.141
-220.625	-44.372	-0.207	-0.103
-219.611	264.233	0.116	0.200
-218.596	-153.702	-0.354	0.024
-217.582	-200.000	-0.009	-0.158
-216.567	-193.193	0.127	0.001
-215.552	-52.591	0.192	-0.088
-214.538	800.000	-0.025	-0.096
-213.523	-60.179	0.336	-0.142
-212.509	353.638	-0.042	-0.083
-211.494	82.083	-0.193	0.207
-210.479	433.373	-0.027	0.058
-209.465	-99.497	0.107	-0.027
-208.450	-185.703	-0.144	-0.002
-207.436	-200.000	-0.073	0.361
-206.421	-81.089	0.227	0.074
-205.406	599.341	0.038	0.094
-204.392	-200.000	0.191	-0.000
-203.377	12.091	0.235	0.179
-202.363	765.589	0.084	0.225
-201.348	214.583	0.016	0.026
-200.333	177.841	0.129	-0.187
-199.319	-62.309	0.330	-0.136
-198.304	-200.000	0.036	-0.196
-197.290	-200.000	-0.020	-0.303
-196.275	243.553	-0.177	0.293
-195.260	-7.060	-0.060	-0.040
-194.246	-151.236	0.344	0.025
-193.231	-137.968	0.047	-0.005
-192.217	-200.000	-0.007	0.065
-191.202	-200.000	-0.060	0.492
-190.187	-47.817	0.128	0.061
-189.173	-62.103	-0.174	0.072
-188.158	-104.179	0.325	0.075
-187.144	-159.697	0.287	-0.016
-186.129	-200.000	-0.030	-0.140
-185.114	-44.791	-0.272	-0.134
-184.100	-79.114	-0.138	0.046
-183.085	-84.211	0.162	0.051
-182.071	-64.289	0.258	-0.104
-181.056	-29.006	-0.374	-0.212
-180.042	-137.306	0.337	-0.038
-179.027	-9.272	0.161	-0.106
-178.012	-95.763	-0.212	0.056
-176.998	800.000	-0.079	0.243
-175.983	40.063	-0.182	0.161
-174.969	253.889	-0.284	0.480
-173.954	-40.397	-0.039	-0.020
-172.939	-23.115	0.310	-0.184
-171.925	-200.000	0.025	-0.134
-170.910	-26.428	0.143	-0.083
-169.896	-81.504	-0.198	0.064
-168.881	-43.849	0.151	-0.075
-167.866	90.378	0.107	0.119
-166.852	-91.661	0.213	-0.060
-165.837	-46.862	-0.174	0.084
-164.823	0.811	0.122	0.086
-163.808	-10.656	-0.174	-0.114
-162.793	-35.942	0.413	0.221
-161.779	-200.000	0.078	0.356
-160.764	670.967	0.044	0.112
-159.750	-133.645	-0.258	0.032
-158.735	800.000	0.030	0.097
-157.720	275.298	0.060	-0.105
-156.706	221.681	0.086	-0.136
-155.691	-146.203	-0.185	-0.016
-154.677	274.993	0.070	0.122
-153.662	800.000	-0.041	-0.148
-152.647	-104.545	-0.274	-0.063
-151.633	203.519	0.181	-0.277
-150.618	-200.000	-0.015	-0.169
-149.604	207.721	0.178	0.274
-148.589	-101.830	-0.298	-0.071
-147.574	-86.041	0.296	-0.090
-146.560	296.055	-0.127	0.229
-145.545	-1.730	0.145	-0.101
-144.531	25.831	-0.424	0.349
-143.516	800.000	-0.029	0.105
-142.502	-70.011	0.261	-0.098
-141.487	-200.000	-0.039	0.168
-140.472	-200.000	0.016	0.276
-139.458	281.824	-0.098	0.173
-138.443	138.547	-0.053	0.069
-137.429	-105.342	-0.173	0.039
-136.414	800.000	-0.108	-0.302
-135.399	-103.375	0.221	0.051
-134.385	800.000	-0.099	0.365
-133.370	-48.073	-0.290	0.138
-132.356	-61.485	0.054	0.023
-131.341	151.214	0.127	0.171
-130.326	336.335	0.157	0.301
-129.312	-14.960	-0.069	-0.044
-128.297	543.232	0.067	0.158
-127.283	-36.154	-0.112	-0.060
-126.268	-111.806	0.082	-0.016
-125.253	-89.414	0.259	0.075
-124.239	86.297	-0.221	0.241
-123.224	-103.131	0.165	0.039
