DTS Sentinel unit serial number:	SN413079Multiplexer serial number:	ORYXHardware model number:	OX4-SRSoftware version number:	ORYX F/W v4.00 Oryx Data Collector v3.7.2.0data status	okinstallation	princeton_trtdifferential loss correction	single-endedforward channel	channel 4reverse channel	N/Adate	2019/09/13time	06:53:35forward acquisition time	60.00reverse acquisition time	0.00gamma	496.2192k internal	0.2324k external	0.2324temperature offset calibration	1.0197default loss term (dB/km)	0.3790temperature slope calibration	1.0000multiplexer offset coefficient	1.0000multiplexer slope coefficient	1.0000fibre end	0.00T internal ref (°C)	26.00T ext. ref 1 (°C)	4.12T ext. ref 2 (°C)	20.66length (m)	temperature (°C)	Stokes	anti-Stokes-747.200	-200.000	-0.023	-0.351
-746.185	533.087	0.048	-0.114
-745.171	-151.318	-0.270	-0.020
-744.156	33.934	-0.216	0.190
-743.142	137.097	-0.024	0.032
-742.127	625.466	-0.039	-0.100
-741.112	-114.063	-0.188	-0.037
-740.098	-4.456	-0.212	-0.148
-739.083	-179.348	0.346	-0.008
-738.069	-200.000	-0.022	-0.207
-737.054	161.374	-0.041	-0.058
-736.039	-159.070	-0.340	0.019
-735.025	-200.000	0.005	-0.115
-734.010	-200.000	-0.027	-0.167
-732.996	-76.137	-0.677	-0.241
-731.981	-200.000	-0.012	-0.355
-730.966	-48.038	-0.349	0.170
-729.952	-71.355	-0.084	-0.032
-728.937	-168.306	-0.137	-0.005
-727.923	-71.415	0.069	-0.026
-726.908	766.763	0.085	-0.232
-725.894	-26.233	-0.083	-0.049
-724.879	-200.000	-0.004	-0.118
-723.864	800.000	0.127	0.376
-722.850	800.000	0.072	0.204
-721.835	172.434	-0.156	0.227
-720.821	-63.744	-0.220	-0.091
-719.806	51.855	-0.091	-0.088
-718.791	78.150	-0.038	0.040
-717.777	641.748	0.075	0.192
-716.762	-86.306	0.304	0.094
-715.748	271.387	0.079	-0.141
-714.733	220.057	0.159	-0.256
-713.718	725.556	-0.038	0.101
-712.704	-30.984	0.245	-0.139
-711.689	-46.825	-0.365	-0.180
-710.675	19.704	-0.341	0.277
-709.660	-78.862	-0.113	-0.039
-708.645	-200.000	-0.018	0.280
-707.631	-200.000	-0.010	-0.163
-706.616	22.683	-0.060	0.050
-705.602	72.946	-0.214	0.225
-704.587	800.000	0.075	0.317
-703.572	222.255	-0.337	0.546
-702.558	42.460	-0.281	-0.257
-701.543	-23.665	-0.320	0.193
-700.529	-184.128	-0.159	-0.003
-699.514	131.170	0.291	-0.377
-698.499	89.852	0.067	-0.075
-697.485	-200.000	-0.025	-0.147
-696.470	219.119	0.139	-0.225
-695.456	800.000	0.045	0.160
-694.441	-26.065	0.158	-0.094
-693.426	102.966	0.066	0.078
-692.412	187.749	0.058	0.087
-691.397	-60.374	-0.256	-0.110
-690.383	-200.000	0.013	0.098
-689.368	-200.000	0.021	-0.316
-688.354	622.324	-0.017	-0.044
-687.339	-89.899	-0.350	-0.103
-686.324	-3.450	-0.318	-0.223
-685.310	800.000	-0.044	-0.165
-684.295	800.000	-0.082	0.242
-683.281	721.883	-0.072	0.193
-682.266	800.000	-0.036	-0.116
-681.251	-200.000	-0.027	-0.263
-680.237	94.470	-0.258	-0.295
-679.222	-4.732	0.124	-0.086
-678.208	79.008	-0.177	0.191
-677.193	-125.285	0.180	0.028
-676.178	-114.970	-0.341	-0.065
-675.164	-86.940	-0.201	0.062
-674.149	-61.530	0.088	0.037
-673.135	-109.562	-0.321	-0.068
-672.120	-200.000	-0.017	0.197
-671.105	-200.000	0.088	-0.426
-670.091	774.429	-0.141	0.387
-669.076	-50.535	0.255	-0.121
-668.062	177.299	-0.151	-0.222
-667.047	-167.845	-0.355	-0.014
-666.032	-145.576	0.329	-0.030
-665.018	800.000	-0.092	0.403
-664.003	20.370	-0.135	-0.110
-662.989	101.873	0.139	-0.164
-661.974	135.769	-0.085	-0.112
-660.959	-170.353	-0.126	-0.004
-659.945	-143.481	-0.400	0.038
-658.930	-200.000	0.166	-0.000
-657.916	659.321	0.076	-0.197
-656.901	800.000	-0.047	0.198
-655.886	81.875	0.082	-0.090
-654.872	-135.242	-0.127	-0.015
-653.857	-65.340	-0.142	0.058
-652.843	496.131	0.078	0.179
-651.828	-60.047	-0.222	0.095
-650.814	38.819	0.118	0.106
-649.799	55.380	-0.181	-0.176
-648.784	245.392	-0.093	0.157
-647.770	-52.834	-0.151	-0.070
-646.755	-73.479	0.112	0.041
-645.741	269.216	0.172	0.303
-644.726	368.748	-0.081	0.165
-643.711	292.132	0.157	0.288
-642.697	-63.196	-0.201	-0.083
-641.682	-200.000	0.014	0.279
-640.668	82.095	0.208	-0.226
-639.653	-200.000	-0.036	-0.196
-638.638	800.000	0.091	0.310
-637.624	-60.293	-0.092	-0.040
-636.609	-29.667	-0.175	-0.100
-635.595	228.251	-0.050	-0.081
-634.580	-124.797	-0.252	0.039
-633.565	705.215	0.119	0.316
-632.551	-105.397	0.388	0.089
-631.536	-31.159	-0.095	0.054
-630.522	-156.943	0.209	-0.013
-629.507	-200.000	-0.045	0.301
-628.492	651.647	0.157	-0.405
-627.478	-63.890	-0.454	-0.187
-626.463	-181.169	0.430	0.009
-625.449	-200.000	0.031	0.161
-624.434	216.123	-0.171	-0.274
-623.419	-9.860	0.216	0.144
-622.405	-11.818	0.209	0.138
-621.390	54.581	-0.144	-0.140
-620.376	-200.000	0.055	0.285
-619.361	-48.794	0.071	0.034
-618.346	-200.000	-0.033	-0.345
-617.332	-200.000	-0.006	0.098
-616.317	208.463	-0.114	-0.179
-615.303	454.838	0.187	0.417
-614.288	125.278	-0.081	-0.103
-613.273	800.000	0.082	-0.259
-612.259	153.397	0.168	0.230
-611.244	18.473	0.195	0.156
-610.230	235.905	-0.131	0.217
-609.215	-164.215	-0.192	0.009
-608.201	-200.000	-0.036	0.240
-607.186	566.428	0.081	0.197
-606.171	-200.000	0.003	-0.052
-605.157	-30.474	0.178	0.102
-604.142	3.125	-0.100	0.073
-603.128	-110.715	0.302	-0.063
-602.113	223.340	0.171	-0.276
-601.098	-54.226	0.085	0.039
-600.084	-200.000	0.000	-0.085
-599.069	-200.000	-0.061	0.287
-598.055	-42.386	-0.210	0.107
-597.040	365.640	-0.050	0.102
-596.025	-101.160	-0.233	0.057
-595.011	69.042	-0.086	-0.089
-593.996	-30.441	0.106	-0.060
-592.982	-6.297	-0.127	0.087
-591.967	-152.515	0.309	-0.022
-590.952	540.439	0.116	0.277
-589.938	127.749	0.234	0.298
-588.923	-200.000	0.005	0.027
-587.909	-200.000	-0.013	0.356
-586.894	-62.526	-0.351	0.146
-585.879	113.442	-0.166	-0.202
-584.865	-53.058	-0.095	0.044
-583.850	-86.975	-0.267	-0.082
-582.836	114.016	-0.133	0.162
-581.821	-83.700	0.076	-0.024
-580.806	416.617	0.133	-0.285
-579.792	-142.267	0.363	-0.036
-578.777	199.157	0.167	-0.257
-577.763	393.684	-0.164	-0.343
-576.748	209.164	-0.072	0.114
-575.733	400.240	-0.054	-0.114
-574.719	-200.000	0.005	-0.095
-573.704	22.285	-0.352	0.289
-572.690	-44.430	0.026	-0.013
-571.675	800.000	0.049	-0.175
-570.661	-161.503	-0.181	-0.009
-569.646	-165.814	-0.234	0.010
-568.631	465.521	-0.081	0.182
-567.617	-142.632	0.026	0.003
-566.602	381.190	0.011	0.024
-565.588	-120.121	-0.505	-0.087
-564.573	-0.546	-0.177	-0.126
-563.558	800.000	-0.065	0.227
-562.544	-2.837	0.202	-0.142
-561.529	800.000	-0.048	-0.135
-560.515	180.178	-0.064	0.094
-559.500	108.638	0.274	0.328
-558.485	-11.507	-0.068	-0.045
-557.471	310.266	-0.104	-0.196
-556.456	148.649	0.007	0.009
-555.442	-7.563	0.242	0.164
-554.427	-200.000	-0.009	-0.127
-553.412	97.405	0.068	0.078
-552.398	34.048	-0.089	-0.078
-551.383	499.802	0.083	0.193
-550.369	-31.310	-0.106	0.060
-549.354	800.000	-0.062	-0.241
-548.339	-200.000	0.025	0.155
-547.325	47.649	0.302	0.282
-546.310	21.944	-0.276	-0.226
-545.296	-200.000	-0.034	-0.150
-544.281	224.881	-0.053	0.086
-543.266	235.771	0.071	0.118
-542.252	-46.993	0.295	-0.144
-541.237	-54.032	0.125	-0.057
-540.223	-28.608	-0.289	-0.167
-539.208	-80.001	0.242	0.081
-538.193	138.726	0.252	-0.331
-537.179	7.857	0.014	-0.010
-536.164	707.881	0.015	0.039
-535.150	-200.000	0.022	0.152
-534.135	192.973	-0.068	0.103
-533.121	-89.687	0.182	0.054
-532.106	-49.881	-0.247	0.118
-531.091	-200.000	0.014	-0.079
-530.077	-6.572	0.057	-0.039
-529.062	164.905	-0.252	0.356
-528.048	-120.988	-0.219	0.037
-527.033	-200.000	0.031	-0.166
-526.018	43.974	0.104	-0.096
-525.004	-67.426	-0.057	-0.023
-523.989	-170.083	0.254	-0.009
-522.975	-125.756	-0.474	-0.072
-521.960	52.964	0.283	0.271
-520.945	14.655	-0.236	-0.184
-519.931	196.480	-0.138	0.210
-518.916	-200.000	0.020	-0.191
-517.902	-5.665	-0.025	0.017
-516.887	160.204	-0.042	0.058
-515.872	-66.366	-0.180	0.072
-514.858	656.369	-0.174	-0.448
-513.843	63.188	-0.256	0.257
-512.829	235.725	0.042	-0.069
-511.814	-172.923	0.081	-0.003
-510.799	-156.794	-0.142	-0.009
-509.785	800.000	0.021	-0.074
-508.770	800.000	-0.050	0.212
-507.756	-191.656	0.208	-0.002
-506.741	-200.000	0.035	-0.367
-505.726	614.313	-0.062	-0.155
-504.712	800.000	0.110	-0.392
-503.697	179.954	0.125	0.183
-502.683	-157.807	-0.162	-0.010
-501.668	-30.581	0.121	-0.069
-500.653	168.038	0.065	0.093
-499.639	326.625	-0.204	0.391
-498.624	-200.000	0.008	-0.298
-497.610	468.556	0.069	0.155
-496.595	216.188	-0.086	0.136
-495.581	800.000	-0.143	-0.454
-494.566	-151.527	-0.190	0.014
-493.551	-47.985	0.244	-0.118
-492.537	-39.251	0.106	0.056
-491.522	24.884	-0.040	-0.033
-490.508	211.685	0.155	-0.244
-489.493	243.657	-0.253	0.424
-488.478	310.631	0.220	-0.412
-487.464	800.000	0.042	-0.155
-486.449	-39.082	0.219	0.115
-485.435	133.277	0.166	-0.214
-484.420	764.835	-0.103	-0.281
-483.405	-149.995	0.179	0.014
-482.391	751.986	-0.074	-0.200
-481.376	30.362	-0.172	0.147
-480.362	-109.062	-0.300	-0.064
-479.347	-165.595	-0.116	-0.005
-478.332	-73.647	-0.052	0.019
-477.318	182.498	-0.158	-0.232
-476.303	153.671	-0.014	0.019
-475.289	-200.000	0.058	-0.289
-474.274	-136.233	0.307	-0.036
-473.259	-100.536	-0.412	0.102
-472.245	-59.624	-0.134	-0.058
-471.230	-41.872	0.109	-0.056
-470.216	-200.000	-0.004	0.276
-469.201	-109.058	-0.204	0.043
-468.186	-200.000	0.009	-0.137
-467.172	108.764	-0.014	0.017
-466.157	-136.053	0.144	0.017
-465.143	-69.896	-0.330	-0.126
-464.128	298.720	-0.119	0.218
-463.113	-5.479	-0.055	-0.037
-462.099	-16.527	0.200	-0.126
-461.084	16.477	-0.298	-0.235
-460.070	-153.529	0.240	0.017
-459.055	-200.000	-0.004	-0.316
-458.040	461.546	0.035	0.078
-457.026	458.859	-0.126	0.280
-456.011	-14.558	0.105	0.067
-454.997	800.000	-0.055	-0.204
-453.982	-200.000	-0.027	0.289
-452.968	-126.205	0.188	-0.028
-451.953	-200.000	0.003	0.346
-450.938	-200.000	-0.001	0.035
-449.924	800.000	-0.038	-0.115
-448.909	569.650	0.023	-0.055
-447.895	339.889	-0.169	0.329
-446.880	47.986	0.242	-0.226
-445.865	-106.630	-0.160	0.036
-444.851	129.929	0.019	0.024
-443.836	55.335	-0.198	0.192
-442.822	800.000	0.065	-0.257
-441.807	212.866	-0.099	0.156
-440.792	800.000	-0.099	0.396
-439.778	-78.927	0.265	-0.090
-438.763	-200.000	-0.002	-0.376
-437.749	-172.782	-0.343	0.011
-436.734	-194.372	0.166	-0.001
-435.719	-73.133	0.059	0.022
-434.705	-200.000	-0.015	-0.371
-433.690	-138.401	-0.278	0.031
-432.676	-149.102	-0.076	0.006
-431.661	-200.000	-0.001	0.326
-430.646	-149.238	0.538	0.043
-429.632	141.608	-0.144	-0.190
-428.617	-107.593	0.359	-0.078
-427.603	153.398	0.128	0.174
-426.588	374.044	-0.185	-0.375
-425.573	101.700	-0.108	-0.125
-424.559	-120.297	0.170	0.029
-423.544	9.499	-0.184	0.139
-422.530	-23.321	-0.262	0.157
-421.515	-200.000	0.020	-0.207
-420.500	-72.145	0.254	0.094
-419.486	3.830	-0.161	-0.117
-418.471	211.935	-0.110	0.172
-417.457	525.105	0.119	-0.279
-416.442	217.251	0.293	-0.465
-415.428	32.010	-0.189	0.162
-414.413	148.433	0.207	0.279
-413.398	-114.586	-0.042	0.008
-412.384	-200.000	0.008	-0.219
-411.369	800.000	-0.019	0.070
-410.355	-179.312	0.517	-0.011
-409.340	-65.387	0.243	-0.098
-408.325	-78.275	0.443	-0.151
-407.311	-200.000	-0.001	-0.110
-406.296	-57.384	0.264	0.116
-405.282	317.772	0.069	-0.130
-404.267	144.829	0.233	-0.310
-403.252	45.243	-0.374	-0.344
-402.238	-47.697	-0.135	-0.065
-401.223	-200.000	0.020	-0.257
-400.209	-21.058	-0.210	-0.128
-399.194	-36.347	-0.144	-0.077
-398.179	492.588	0.043	0.098
-397.165	800.000	0.080	-0.271
-396.150	128.666	-0.281	0.356
-395.136	-95.743	0.142	-0.038
-394.121	800.000	-0.059	-0.231
-393.106	331.937	-0.106	-0.204
-392.092	-40.804	0.171	-0.088
-391.077	-200.000	-0.006	-0.076
-390.063	800.000	-0.086	0.336
-389.048	209.733	0.108	0.169
-388.033	0.282	-0.065	-0.046
-387.019	-200.000	0.012	0.284
-386.004	-200.000	0.014	-0.068
-384.990	286.388	-0.094	-0.170
-383.975	-63.839	0.259	0.105
-382.960	-200.000	0.017	-0.131
-381.946	-200.000	-0.014	0.067
-380.931	273.639	0.011	0.020
-379.917	80.586	-0.273	0.293
-378.902	-200.000	0.090	0.397
-377.888	248.760	0.126	0.212
-376.873	-75.717	-0.076	-0.027
-375.858	328.666	0.026	-0.050
-374.844	-69.160	-0.163	-0.062
-373.829	77.621	0.229	-0.242
-372.815	-129.407	-0.248	0.034
-371.800	800.000	0.020	0.068
-370.785	-200.000	0.007	0.138
-369.771	75.433	0.029	-0.030
-368.756	17.415	0.159	0.126
-367.742	67.092	0.234	0.237
-366.727	-131.496	-0.249	-0.033
-365.712	-200.000	0.058	-0.266
-364.698	-200.000	-0.010	-0.101
-363.683	-128.866	-0.063	-0.009
-362.669	757.917	-0.096	-0.259
-361.654	-28.610	0.187	-0.107
-360.639	-95.183	0.282	0.076
-359.625	372.726	-0.160	-0.324
-358.610	800.000	0.019	-0.075
-357.596	76.028	0.202	-0.212
-356.581	309.026	0.086	0.160
-355.566	-63.545	0.180	-0.073
-354.552	128.967	0.256	-0.324
-353.537	239.934	0.132	0.219
-352.523	-87.991	0.187	-0.056
-351.508	-200.000	-0.004	-0.028
-350.493	-29.927	-0.098	0.055
-349.479	-143.642	0.391	-0.037
-348.464	-60.089	0.167	-0.071
-347.450	112.137	-0.126	-0.151
-346.435	-200.000	0.014	0.186
-345.420	347.009	0.128	-0.250
-344.406	1.377	0.126	-0.090
-343.391	-200.000	-0.002	-0.091
-342.377	5.591	-0.339	0.249
-341.362	124.727	0.139	0.173
-340.348	-5.469	-0.391	0.267
-339.333	94.122	0.079	-0.089
-338.318	-200.000	0.045	-0.287
-337.304	-36.405	-0.369	0.197
-336.289	-95.150	0.164	0.044
-335.275	-200.000	0.055	0.376
-334.260	184.209	0.119	0.175
-333.245	-200.000	-0.114	-0.515
-332.231	90.167	-0.039	-0.044
-331.216	-11.811	0.158	-0.103
-330.202	-126.476	-0.354	0.052
-329.187	-200.000	-0.006	0.092
-328.172	-200.000	-0.023	0.415
-327.158	386.494	-0.066	0.135
-326.143	-200.000	0.017	0.487
-325.129	-66.564	-0.242	0.095
-324.114	264.542	-0.127	-0.220
-323.099	273.818	-0.130	-0.229
-322.085	125.413	0.198	0.248
-321.070	-200.000	0.054	-0.392
-320.056	-190.702	-0.182	0.002
-319.041	-158.764	-0.305	-0.017
-318.026	-6.292	-0.125	0.085
-317.012	34.950	-0.219	-0.190
-315.997	-60.548	0.338	0.143
-314.983	-65.152	0.034	-0.014
-313.968	-136.590	0.294	0.034
-312.953	295.713	0.047	-0.085
-311.939	406.364	-0.066	0.139
-310.924	800.000	-0.066	-0.182
-309.910	164.175	-0.216	0.303
-308.895	-87.434	-0.147	-0.044
-307.880	-111.076	0.073	0.015
-306.866	800.000	-0.034	0.103
-305.851	505.585	-0.131	-0.301
-304.837	-46.169	0.124	0.060
-303.822	58.287	-0.129	-0.126
-302.807	81.005	-0.080	0.086
-301.793	-89.718	-0.217	-0.063
-300.778	-200.000	0.044	-0.194
-299.764	107.507	0.153	-0.180
-298.749	553.993	0.015	0.036
-297.735	235.452	0.202	-0.331
-296.720	397.595	-0.023	-0.048
-295.705	-52.476	0.144	0.066
-294.691	298.689	-0.178	-0.325
-293.676	-9.116	0.168	-0.111
-292.662	-185.150	0.259	0.004
-291.647	-200.000	-0.033	0.439
-290.632	-62.714	0.239	-0.098
-289.618	221.740	0.222	-0.354
-288.603	683.816	-0.155	0.402
-287.589	37.665	-0.003	0.003
-286.574	41.187	-0.052	-0.047
-285.559	25.189	-0.210	0.173
-284.545	66.364	-0.148	0.149
-283.530	182.994	-0.060	0.087
-282.516	-35.717	-0.098	0.053
-281.501	-123.652	0.276	0.043
-280.486	33.746	-0.119	0.103
-279.472	25.577	-0.099	-0.082
-278.457	800.000	-0.028	0.103
-277.443	800.000	-0.073	-0.285
-276.428	76.327	-0.256	-0.269
-275.413	-25.357	-0.396	-0.232
-274.399	41.439	-0.020	0.018
-273.384	-120.655	0.089	-0.015
-272.370	281.915	-0.182	-0.323
-271.355	-49.678	0.257	0.121
-270.340	341.686	0.013	0.025
-269.326	-200.000	0.029	0.140
-268.311	393.817	-0.011	0.022
-267.297	-200.000	0.013	-0.197
-266.282	138.883	-0.247	0.321
-265.267	49.634	0.049	-0.046
-264.253	705.632	-0.071	0.185
-263.238	-12.942	0.163	0.105
-262.224	48.147	0.113	-0.105
-261.209	-200.000	-0.029	-0.298
-260.195	-87.540	0.274	0.082
-259.180	209.140	-0.108	-0.168
-258.165	253.195	0.026	0.044
-257.151	800.000	0.035	-0.151
-256.136	800.000	0.100	0.330
-255.122	-130.810	-0.493	0.066
-254.107	-55.002	-0.230	0.102
-253.092	31.589	0.135	-0.115
-252.078	-1.762	-0.131	0.091
-251.063	-200.000	0.030	0.191
-250.049	-68.798	-0.127	0.048
-249.034	212.811	0.126	0.196
-248.019	800.000	-0.084	-0.230
-247.005	-200.000	0.055	-0.249
-245.990	-33.311	0.343	-0.188
-244.976	-66.093	0.078	0.031
-243.961	-29.426	0.098	0.056
-242.946	-140.254	0.388	0.040
-241.932	-92.363	0.168	0.047
-240.917	-162.724	-0.125	-0.006
-239.903	16.526	-0.219	0.171
-238.888	-81.420	-0.058	-0.019
-237.873	207.090	-0.045	0.069
-236.859	203.217	0.197	0.302
-235.844	-78.949	0.151	-0.051
-234.830	-149.378	-0.311	0.024
-233.815	185.148	0.119	-0.175
-232.800	583.014	-0.030	-0.072
-231.786	-49.114	0.187	-0.088
-230.771	-59.767	-0.375	-0.159
-229.757	124.450	-0.057	0.070
-228.742	276.691	-0.142	0.250
-227.727	-200.000	-0.003	-0.055
-226.713	-12.768	0.118	0.076
-225.698	-67.082	0.088	0.034
-224.684	395.031	0.067	0.139
-223.669	95.312	-0.173	0.195
-222.655	243.493	0.070	0.116
-221.640	-200.000	-0.055	0.319
-220.625	-85.318	-0.338	-0.104
-219.611	26.542	-0.048	0.040
-218.596	258.876	0.086	-0.146
-217.582	800.000	-0.021	0.086
-216.567	-200.000	0.006	-0.115
-215.552	-116.145	0.150	-0.028
-214.538	67.726	0.109	-0.110
-213.523	-146.244	0.183	-0.016
-212.509	800.000	-0.093	0.343
-211.494	47.259	-0.065	-0.060
-210.479	-159.207	0.298	-0.017
-209.465	150.390	-0.195	0.262
-208.450	-38.607	0.243	-0.127
-207.436	800.000	0.041	0.177
-206.421	-116.586	-0.430	-0.078
-205.406	-200.000	-0.018	-0.263
-204.392	-33.233	-0.371	-0.203
-203.377	-87.692	-0.268	-0.080
-202.363	800.000	-0.047	0.145
-201.348	-105.719	0.132	0.030
-200.333	-200.000	0.051	0.272
-199.319	-75.430	0.338	-0.119
-198.304	-183.848	0.231	-0.004
-197.290	-197.185	-0.353	0.002
-196.275	-76.421	0.135	0.047
-195.260	800.000	-0.054	-0.150
-194.246	-59.273	-0.127	-0.054
-193.231	-107.383	0.278	0.060
-192.217	-0.312	0.337	0.236
-191.202	225.339	-0.148	-0.237
-190.187	-0.511	0.201	-0.141
-189.173	-119.039	0.226	-0.039
-188.158	252.802	0.138	-0.233
-187.144	9.176	-0.064	-0.047
-186.129	-147.419	0.126	-0.011
-185.114	-54.307	-0.207	0.093
-184.100	-92.649	0.069	0.019
-183.085	-28.876	-0.074	0.042
-182.071	59.708	-0.120	0.117
-181.056	-200.000	0.029	0.129
-180.042	-20.213	0.157	0.096
-179.027	-8.144	-0.110	0.073
-178.012	134.637	-0.245	0.314
-176.998	11.178	0.256	-0.194
-175.983	-32.783	0.324	-0.178
-174.969	-164.487	-0.261	0.012
-173.954	-154.914	0.385	-0.025
-172.939	88.928	0.130	-0.143
-171.925	800.000	0.063	-0.207
-170.910	-200.000	-0.041	0.307
-169.896	123.810	-0.144	0.178
-168.881	-159.937	-0.261	-0.014
-167.866	-200.000	-0.062	0.508
-166.852	126.311	-0.067	0.084
-165.837	70.680	0.235	0.240
-164.823	2.551	-0.167	0.119
-163.808	142.332	0.208	-0.272
-162.793	-200.000	-0.014	-0.087
-161.779	70.463	0.108	0.110
-160.764	2.015	0.107	0.076
-159.750	800.000	-0.096	-0.299
-158.735	-176.271	0.184	-0.005
-157.720	120.256	-0.015	-0.019
-156.706	-139.440	-0.243	-0.026
-155.691	-200.000	0.013	0.087
-154.677	1.610	0.219	0.155
-153.662	-200.000	-0.033	0.170
-152.647	128.971	0.107	0.134
-151.633	76.781	-0.103	-0.107
-150.618	249.581	-0.154	-0.258
-149.604	-122.606	-0.166	0.027
-148.589	800.000	-0.011	0.043
-147.574	45.552	0.140	-0.127
-146.560	-10.641	0.465	0.303
-145.545	449.412	-0.045	-0.097
-144.531	-188.293	0.214	0.003
-143.516	-200.000	0.034	-0.265
-142.502	181.358	-0.059	0.086
-141.487	-182.229	0.330	-0.006
-140.472	-47.696	0.235	0.113
-139.458	-30.547	0.364	-0.203
-138.443	-200.000	0.050	0.245
-137.429	730.764	0.038	-0.099
-136.414	-143.637	-0.334	0.031
-135.399	-121.532	0.301	-0.049
-134.385	-93.644	-0.377	0.103
-133.370	-33.010	0.066	0.036
-132.356	18.495	-0.112	-0.088
-131.341	-200.000	0.004	-0.121
-130.326	-97.280	-0.108	0.028
-129.312	800.000	0.059	0.164
-128.297	-200.000	0.012	-0.187
-127.283	-89.301	-0.065	-0.019
-126.268	-177.938	-0.390	-0.009
-125.253	3.530	-0.176	-0.126
-124.239	34.578	-0.061	-0.053
-123.224	90.059	0.038	-0.042
-122.210	25.383	-0.268	-0.220
