DTS Sentinel unit serial number:	SN413079Multiplexer serial number:	ORYXHardware model number:	OX4-SRSoftware version number:	ORYX F/W v4.00 Oryx Data Collector v3.7.2.0data status	okinstallation	princeton_trtdifferential loss correction	single-endedforward channel	channel 4reverse channel	N/Adate	2019/09/14time	05:05:35forward acquisition time	60.00reverse acquisition time	0.00gamma	496.2192k internal	0.2320k external	0.2320temperature offset calibration	1.0135default loss term (dB/km)	0.3790temperature slope calibration	1.0000multiplexer offset coefficient	1.0000multiplexer slope coefficient	1.0000fibre end	0.00T internal ref (°C)	26.87T ext. ref 1 (°C)	3.38T ext. ref 2 (°C)	22.00length (m)	temperature (°C)	Stokes	anti-Stokes-747.200	69.516	0.154	0.160
-746.185	62.515	0.117	0.118
-745.171	800.000	-0.018	0.077
-744.156	24.375	-0.258	0.215
-743.142	800.000	-0.014	-0.057
-742.127	-200.000	0.015	0.064
-741.112	-22.928	0.089	-0.054
-740.098	-200.000	0.012	0.086
-739.083	-114.518	0.165	0.032
-738.069	-139.942	0.110	-0.012
-737.054	-138.112	0.341	-0.038
-736.039	71.876	-0.277	-0.291
-735.025	-152.165	-0.079	-0.006
-734.010	-77.824	-0.103	0.036
-732.996	115.673	-0.138	0.171
-731.981	563.283	0.119	-0.290
-730.966	72.475	0.077	0.081
-729.952	800.000	-0.083	0.288
-728.937	-91.261	0.461	0.133
-727.923	33.692	-0.204	0.180
-726.908	-44.877	-0.316	-0.159
-725.894	-11.566	0.133	0.088
-724.879	-200.000	-0.006	-0.118
-723.864	190.565	-0.224	-0.341
-722.850	215.875	-0.091	-0.146
-721.835	-200.000	-0.003	0.158
-720.821	79.787	-0.162	-0.176
-719.806	-107.945	-0.083	0.018
-718.791	-130.355	0.112	0.015
-717.777	128.079	0.262	-0.336
-716.762	-13.683	-0.120	0.079
-715.748	-22.683	-0.151	-0.092
-714.733	310.860	-0.192	0.363
-713.718	-200.000	0.005	0.038
-712.704	27.050	0.077	0.065
-711.689	800.000	-0.148	0.499
-710.675	-78.188	-0.196	0.068
-709.660	-139.810	-0.188	0.020
-708.645	-143.949	0.232	0.022
-707.631	82.651	-0.157	-0.173
-706.616	800.000	0.028	0.101
-705.602	495.325	-0.004	-0.009
-704.587	-104.748	-0.047	0.011
-703.572	-138.539	0.472	0.052
-702.558	-157.097	0.155	-0.010
-701.543	-200.000	0.025	-0.160
-700.529	-174.522	0.240	0.007
-699.514	-91.596	0.306	0.088
-698.499	-159.018	0.452	-0.026
-697.485	-17.754	-0.120	0.076
-696.470	-200.000	0.006	-0.334
-695.456	-200.000	-0.054	0.249
-694.441	-96.067	-0.208	-0.056
-693.426	6.895	0.033	-0.025
-692.412	-141.943	-0.099	-0.010
-691.397	17.828	0.189	0.152
-690.383	-13.000	0.108	-0.071
-689.368	-133.559	-0.198	0.025
-688.354	-124.006	-0.143	0.023
-687.339	800.000	-0.027	0.105
-686.324	5.445	0.291	0.217
-685.310	-29.933	0.394	0.227
-684.295	-183.024	0.316	-0.006
-683.281	-14.447	-0.174	0.113
-682.266	-200.000	-0.007	-0.076
-681.251	-200.000	-0.004	-0.102
-680.237	-30.356	-0.363	0.208
-679.222	800.000	-0.032	0.138
-678.208	-28.755	-0.362	0.210
-677.193	-29.441	-0.391	-0.225
-676.178	44.056	0.191	-0.177
-675.164	-126.833	0.177	-0.026
-674.149	-86.187	-0.440	0.137
-673.135	-70.748	-0.209	0.079
-672.120	143.113	0.174	-0.233
-671.105	128.693	-0.079	0.102
-670.091	-154.904	-0.090	-0.006
-669.076	20.849	0.254	0.208
-668.062	302.769	-0.051	0.095
-667.047	-37.939	-0.301	-0.161
-666.032	-12.284	-0.116	-0.077
-665.018	-63.561	-0.132	-0.055
-664.003	63.820	0.103	0.104
-662.989	-136.994	0.046	0.005
-661.974	-17.772	0.101	0.064
-660.959	-24.601	-0.057	-0.034
-659.945	-200.000	-0.023	0.272
-658.930	-200.000	0.298	0.001
-657.916	-77.026	-0.058	-0.021
-656.901	800.000	0.090	-0.285
-655.886	-54.345	0.256	0.117
-654.872	67.154	0.328	-0.337
-653.857	254.743	-0.081	-0.139
-652.843	800.000	0.011	0.033
-651.828	-200.000	0.010	0.276
-650.814	-200.000	0.014	0.256
-649.799	-136.327	0.255	-0.030
-648.784	800.000	0.056	0.201
-647.770	800.000	0.047	0.170
-646.755	593.885	-0.029	-0.072
-645.741	-200.000	0.050	-0.246
-644.726	148.159	0.155	-0.210
-643.711	-126.120	-0.324	0.049
-642.697	800.000	0.085	0.323
-641.682	-143.022	-0.270	0.026
-640.668	107.822	-0.134	0.160
-639.653	-80.560	-0.312	-0.105
-638.638	-133.465	0.274	-0.035
-637.624	-86.890	0.296	-0.091
-636.609	-153.823	-0.241	-0.017
-635.595	284.019	-0.054	-0.098
-634.580	377.162	-0.117	-0.240
-633.565	270.656	-0.081	-0.144
-632.551	-4.897	0.174	-0.121
-631.536	800.000	0.034	-0.112
-630.522	208.581	0.155	-0.243
-629.507	66.940	0.091	-0.094
-628.492	-200.000	-0.002	-0.033
-627.478	14.880	-0.165	0.130
-626.463	283.363	0.028	0.050
-625.449	800.000	-0.055	0.232
-624.434	-132.009	0.077	-0.010
-623.419	436.905	0.133	-0.292
-622.405	20.785	-0.242	0.197
-621.390	-88.092	0.526	-0.159
-620.376	88.820	-0.166	-0.186
-619.361	-200.000	0.047	-0.227
-618.346	-200.000	-0.391	0.000
-617.332	259.947	0.128	0.222
-616.317	83.520	-0.198	0.217
-615.303	286.973	-0.056	0.102
-614.288	96.764	-0.242	0.279
-613.273	116.788	-0.230	-0.284
-612.259	35.583	0.132	0.117
-611.244	-200.000	0.044	0.217
-610.230	453.779	0.043	0.095
-609.215	240.555	0.024	-0.039
-608.201	800.000	-0.068	-0.245
-607.186	-61.814	-0.048	0.020
-606.171	185.147	0.083	0.123
-605.157	800.000	-0.043	0.173
-604.142	-75.260	-0.339	-0.122
-603.128	800.000	-0.058	-0.253
-602.113	115.662	0.169	-0.208
-601.098	67.768	0.126	-0.129
-600.084	108.809	0.142	-0.171
-599.069	800.000	-0.071	-0.242
-598.055	165.135	0.209	-0.296
-597.040	120.457	0.178	-0.222
-596.025	126.440	0.098	-0.124
-595.011	233.153	-0.221	-0.366
-593.996	527.110	-0.014	0.032
-592.982	-104.981	0.286	-0.066
-591.967	-17.355	-0.206	-0.130
-590.952	-122.137	-0.210	-0.035
-589.938	-167.500	0.129	0.005
-588.923	-200.000	0.036	-0.166
-587.909	8.345	-0.159	0.120
-586.894	-158.763	0.137	-0.008
-585.879	-200.000	-0.025	0.520
-584.865	55.109	0.149	0.144
-583.850	-200.000	0.008	0.421
-582.836	295.804	0.169	0.311
-581.821	-200.000	-0.024	0.468
-580.806	75.019	-0.163	0.173
-579.792	99.275	-0.100	-0.116
-578.777	160.397	0.089	-0.125
-577.763	-154.017	0.126	-0.009
-576.748	54.078	0.131	0.127
-575.733	-200.000	0.010	-0.211
-574.719	81.639	0.155	0.169
-573.704	800.000	0.104	0.329
-572.690	-0.755	0.205	-0.146
-571.675	122.972	-0.116	0.145
-570.661	134.854	-0.224	0.293
-569.646	113.223	-0.060	-0.074
-568.631	29.010	0.133	0.113
-567.617	-91.281	-0.333	0.096
-566.602	-200.000	-0.025	-0.476
-565.588	48.295	0.044	0.041
-564.573	54.403	-0.102	0.098
-563.558	178.377	-0.060	0.088
-562.544	152.408	0.103	0.141
-561.529	-146.294	0.138	-0.012
-560.515	-200.000	-0.036	-0.258
-559.500	-108.283	-0.274	0.059
-558.485	-9.955	0.033	0.022
-557.471	800.000	0.128	-0.386
-556.456	-200.000	-0.038	-0.338
-555.442	-200.000	-0.066	-0.421
-554.427	164.749	-0.095	-0.135
-553.412	-62.480	0.191	-0.080
-552.398	-200.000	-0.004	-0.072
-551.383	20.981	0.187	0.152
-550.369	57.478	0.053	0.052
-549.354	27.140	0.277	-0.233
-548.339	-200.000	0.019	-0.199
-547.325	800.000	-0.035	-0.106
-546.310	-200.000	0.003	0.277
-545.296	-41.154	-0.120	-0.062
-544.281	46.081	-0.158	-0.147
-543.266	-25.433	-0.176	-0.104
-542.252	12.675	0.249	0.193
-541.237	-200.000	0.004	-0.254
-540.223	-200.000	0.017	-0.286
-539.208	39.796	-0.116	0.105
-538.193	-132.621	-0.306	0.039
-537.179	-51.000	-0.277	-0.130
-536.164	800.000	0.028	0.078
-535.150	-143.274	-0.205	0.020
-534.135	-90.042	0.351	0.103
-533.121	13.840	0.112	-0.087
-532.106	-145.806	-0.225	-0.020
-531.091	450.070	-0.193	-0.427
-530.077	-200.000	-0.013	-0.087
-529.062	77.173	-0.207	-0.221
-528.048	-200.000	-0.035	0.300
-527.033	-200.000	0.039	-0.252
-526.018	178.199	0.078	-0.114
-525.004	800.000	0.006	0.023
-523.989	-34.122	-0.236	0.130
-522.975	85.822	-0.185	-0.204
-521.960	-66.097	-0.302	-0.121
-520.945	228.216	-0.168	-0.275
-519.931	55.081	0.204	-0.198
-518.916	186.146	-0.101	0.150
-517.902	800.000	0.030	-0.109
-516.887	-14.700	-0.109	-0.070
-515.872	-35.684	0.020	-0.011
-514.858	304.136	-0.097	0.180
-513.843	-106.433	0.147	-0.033
-512.829	71.654	-0.046	-0.048
-511.814	288.416	-0.058	0.105
-510.799	-82.145	-0.249	-0.081
-509.785	165.879	0.064	0.091
-508.770	-56.275	-0.041	-0.018
-507.756	-48.979	-0.121	0.058
-506.741	-3.143	0.065	0.046
-505.726	800.000	-0.051	-0.212
-504.712	-75.182	-0.112	-0.040
-503.697	241.971	-0.165	-0.277
-502.683	-200.000	0.055	0.307
-501.668	-51.227	-0.028	-0.013
-500.653	117.405	0.187	-0.230
-499.639	543.991	-0.115	0.276
-498.624	800.000	0.056	0.183
-497.610	-200.000	0.081	0.455
-496.595	-121.653	0.149	0.025
-495.581	-77.640	-0.258	-0.089
-494.566	665.906	-0.124	0.319
-493.551	-43.139	0.120	-0.061
-492.537	-116.721	-0.260	0.048
-491.522	-127.083	-0.106	-0.016
-490.508	321.937	0.109	0.208
-489.493	-90.543	-0.416	0.120
-488.478	89.239	-0.040	0.044
-487.464	-200.000	0.027	-0.171
-486.449	-41.922	0.121	-0.062
-485.435	-200.000	-0.023	0.187
-484.420	308.538	-0.102	-0.191
-483.405	142.184	-0.090	-0.120
-482.391	-84.908	-0.057	-0.018
-481.376	732.059	-0.143	-0.383
-480.362	-100.846	0.163	-0.040
-479.347	-135.181	0.226	-0.027
-478.332	153.476	0.187	0.256
-477.318	-21.253	-0.198	0.121
-476.303	-200.000	-0.000	0.102
-475.289	800.000	0.116	0.370
-474.274	-200.000	0.035	-0.174
-473.259	800.000	-0.080	-0.264
-472.245	-5.606	0.039	0.027
-471.230	-185.944	-0.563	-0.008
-470.216	800.000	-0.031	-0.087
-469.201	800.000	-0.013	0.039
-468.186	210.887	-0.055	-0.086
-467.172	201.690	-0.197	0.303
-466.157	-166.044	0.400	0.017
-465.143	675.079	0.049	-0.127
-464.128	626.303	-0.034	0.087
-463.113	88.501	-0.088	-0.098
-462.099	24.675	-0.457	-0.378
-461.084	470.042	0.028	0.062
-460.070	-200.000	0.007	0.126
-459.055	620.143	0.025	0.062
-458.040	-28.078	0.275	0.159
-457.026	-42.740	-0.082	-0.042
-456.011	-127.427	0.181	0.026
-454.997	800.000	-0.099	-0.366
-453.982	-149.328	-0.210	-0.017
-452.968	129.146	-0.200	-0.256
-451.953	800.000	0.027	-0.080
-450.938	215.795	-0.167	-0.265
-449.924	450.678	-0.037	-0.082
-448.909	641.759	-0.030	-0.075
-447.895	130.671	-0.089	-0.115
-446.880	430.037	0.080	-0.173
-445.865	-85.235	-0.421	-0.131
-444.851	-182.313	-0.146	-0.003
-443.836	115.510	0.143	-0.174
-442.822	418.746	0.031	-0.066
-441.807	121.649	0.089	-0.111
-440.792	21.781	-0.141	0.115
-439.778	-115.209	0.120	0.023
-438.763	-112.505	-0.393	-0.078
-437.749	-173.760	-0.239	0.007
-436.734	-21.041	0.062	-0.038
-435.719	256.312	-0.054	0.092
-434.705	-60.023	0.198	0.085
-433.690	-200.000	0.010	-0.113
-432.676	398.110	-0.077	-0.161
-431.661	-200.000	-0.019	-0.202
-430.646	453.837	0.106	-0.235
-429.632	-62.346	0.274	-0.114
-428.617	186.456	-0.172	-0.256
-427.603	-68.195	0.156	0.061
-426.588	800.000	-0.091	0.315
-425.573	240.618	-0.177	-0.296
-424.559	79.947	-0.078	0.084
-423.544	-200.000	0.015	0.304
-422.530	-113.295	-0.141	0.028
-421.515	332.968	-0.022	-0.042
-420.500	-93.722	0.072	-0.020
-419.486	-42.129	0.273	0.140
-418.471	-120.489	-0.181	0.031
-417.457	149.317	-0.089	-0.120
-416.442	-122.939	0.321	0.052
-415.428	-63.609	-0.128	0.052
-414.413	-107.566	0.274	-0.060
-413.398	-97.998	-0.395	0.102
-412.384	-175.259	-0.090	0.002
-411.369	683.723	-0.024	-0.062
-410.355	-102.024	0.253	-0.061
-409.340	-200.000	0.012	-0.354
-408.325	323.139	-0.079	0.150
-407.311	-200.000	0.002	-0.251
-406.296	-65.951	0.179	-0.071
-405.282	-27.592	0.185	0.107
-404.267	47.735	0.139	-0.129
-403.252	95.557	-0.134	0.153
-402.238	800.000	-0.017	-0.052
-401.223	-200.000	-0.001	-0.062
-400.209	-8.323	0.214	0.144
-399.194	-200.000	-0.032	0.165
-398.179	-82.789	-0.232	0.075
-397.165	-200.000	-0.059	-0.270
-396.150	-107.570	-0.122	0.027
-395.136	32.593	0.099	-0.085
-394.121	-61.046	0.270	0.114
-393.106	418.133	0.054	0.116
-392.092	182.919	-0.035	-0.051
-391.077	-200.000	0.019	0.202
-390.063	458.329	0.105	0.233
-389.048	30.856	-0.042	-0.036
-388.033	-130.740	0.191	0.026
-387.019	-3.956	0.140	-0.097
-386.004	-85.732	-0.215	-0.067
-384.990	220.416	-0.047	0.075
-383.975	84.114	-0.145	0.158
-382.960	120.670	-0.209	0.260
-381.946	800.000	0.052	-0.184
-380.931	800.000	-0.050	0.209
-379.917	-54.136	-0.197	-0.089
-378.902	-27.945	-0.347	-0.200
-377.888	800.000	0.026	-0.098
-376.873	59.762	0.381	0.375
-375.858	196.734	-0.109	-0.165
-374.844	21.312	-0.145	0.117
-373.829	-200.000	-0.025	0.207
-372.815	421.558	0.135	0.289
-371.800	-119.430	0.399	-0.069
-370.785	318.853	-0.079	-0.149
-369.771	-168.252	-0.095	0.004
-368.756	593.833	0.071	0.174
-367.742	-57.463	0.373	-0.163
-366.727	-68.426	0.086	0.033
-365.712	-35.348	-0.284	0.154
-364.698	681.973	0.145	-0.377
-363.683	-28.740	0.074	0.042
-362.669	41.306	0.175	-0.157
-361.654	396.275	0.193	-0.401
-360.639	-168.374	-0.201	-0.008
-359.625	-109.037	-0.227	-0.048
-358.610	4.298	0.300	-0.219
-357.596	-116.530	-0.224	-0.041
-356.581	800.000	0.069	-0.196
-355.566	800.000	0.086	-0.243
-354.552	42.019	0.132	0.119
-353.537	-116.625	-0.327	0.060
-352.523	800.000	0.142	-0.517
-351.508	-171.958	-0.150	0.005
-350.493	-200.000	0.022	0.250
-349.479	66.877	-0.231	0.234
-348.464	800.000	0.027	0.116
-347.450	-12.655	0.038	0.025
-346.435	63.417	0.086	-0.086
-345.420	-97.130	0.176	-0.046
-344.406	-200.000	0.050	0.273
-343.391	-96.227	0.119	0.032
-342.377	-63.480	0.158	0.065
-341.362	-118.809	0.264	-0.046
-340.348	6.150	0.090	0.067
-339.333	-72.405	0.240	0.088
-338.318	146.826	0.008	-0.010
-337.304	-200.000	0.003	-0.253
-336.289	38.203	-0.137	-0.121
-335.275	146.446	-0.116	-0.156
-334.260	84.470	0.164	0.179
-333.245	-130.026	-0.275	0.037
-332.231	-62.563	0.312	0.129
-331.216	-95.095	-0.044	-0.012
-330.202	800.000	0.049	-0.211
-329.187	25.589	0.349	-0.289
-328.172	800.000	-0.048	-0.193
-327.158	-200.000	0.004	0.040
-326.143	800.000	-0.098	0.395
-325.129	136.070	0.163	-0.211
-324.114	-64.382	0.105	0.042
-323.099	-198.778	-0.357	-0.002
-322.085	-200.000	0.041	0.273
-321.070	800.000	0.051	-0.182
-320.056	-200.000	0.013	0.382
-319.041	167.689	0.065	0.092
-318.026	98.957	0.106	0.122
-317.012	133.963	0.086	-0.110
-315.997	-200.000	-0.002	0.154
-314.983	114.363	0.172	-0.208
-313.968	169.022	0.052	0.074
-312.953	499.686	0.103	0.235
-311.939	-200.000	0.001	-0.007
-310.924	-45.828	0.307	0.151
-309.910	800.000	0.053	0.157
-308.895	-200.000	-0.034	-0.200
-307.880	-51.523	0.355	-0.165
-306.866	516.186	-0.045	0.104
-305.851	127.522	0.060	0.076
-304.837	-200.000	0.020	0.183
-303.822	-101.461	0.317	-0.077
-302.807	-141.604	0.300	0.030
-301.793	-150.884	0.020	0.001
-300.778	147.062	0.101	0.135
-299.764	-81.724	0.166	0.054
-298.749	-175.609	0.520	-0.014
-297.735	-8.241	0.297	-0.199
-296.720	-200.000	0.013	-0.107
-295.705	147.603	-0.154	0.207
-294.691	134.530	-0.086	0.111
-293.676	-112.050	0.168	0.034
-292.662	-70.397	-0.275	-0.104
-291.647	726.579	0.075	0.198
-290.632	-72.563	-0.267	0.098
-289.618	800.000	0.013	0.055
-288.603	-26.575	0.272	-0.158
-287.589	78.037	-0.219	-0.232
-286.574	-22.283	-0.214	0.129
-285.559	608.275	0.042	0.103
-284.545	-15.526	-0.299	-0.190
-283.530	247.862	0.073	0.122
-282.516	223.439	0.149	0.239
-281.501	194.652	0.076	0.115
-280.486	800.000	0.145	0.441
-279.472	50.878	0.300	-0.282
-278.457	-21.473	-0.108	0.065
-277.443	-29.807	-0.114	-0.065
-276.428	-79.085	0.189	-0.064
-275.413	-71.389	-0.150	0.056
-274.399	-100.211	-0.282	0.070
-273.384	256.878	0.070	-0.119
-272.370	151.683	-0.224	0.303
-271.355	22.718	-0.072	-0.059
-270.340	32.850	0.215	-0.185
-269.326	4.628	0.135	-0.098
-268.311	-4.850	0.182	-0.125
-267.297	-103.373	0.089	0.021
-266.282	84.310	-0.074	0.080
-265.267	173.505	0.047	-0.067
-264.253	424.713	0.092	-0.196
-263.238	-137.172	0.202	-0.023
-262.224	-200.000	0.006	-0.083
-261.209	142.964	0.022	0.029
-260.195	108.747	-0.141	-0.168
-259.180	800.000	0.033	0.129
-258.165	228.595	-0.077	0.124
-257.151	128.019	0.157	0.198
-256.136	102.491	-0.227	0.264
-255.122	270.359	-0.047	-0.081
-254.107	205.325	0.122	0.188
-253.092	-58.569	-0.200	-0.086
-252.078	75.472	0.164	0.172
-251.063	-82.459	-0.303	0.098
-250.049	-101.425	0.159	0.038
-249.034	3.374	-0.141	0.102
-248.019	-103.793	0.189	-0.044
-247.005	142.428	0.075	0.098
-245.990	213.940	0.292	0.459
-244.976	153.716	-0.202	0.274
-243.961	595.205	-0.164	0.401
-242.946	-200.000	0.033	-0.214
-241.932	721.412	0.094	-0.248
-240.917	-12.233	-0.331	-0.214
-239.903	-36.597	-0.081	0.043
-238.888	-109.429	-0.199	-0.042
-237.873	-142.235	-0.542	0.053
-236.859	100.141	-0.101	-0.116
-235.844	63.152	0.173	0.172
-234.830	-200.000	0.020	-0.365
-233.815	-15.699	0.183	0.116
-232.800	345.471	-0.071	0.138
-231.786	43.569	-0.162	0.147
-230.771	-200.000	0.004	0.085
-229.757	-152.515	0.138	-0.010
-228.742	80.022	-0.197	-0.210
-227.727	179.876	-0.266	0.386
-226.713	-103.801	0.238	0.055
-225.698	-200.000	-0.031	-0.152
-224.684	-200.000	-0.018	-0.401
-223.669	-143.965	-0.120	0.011
-222.655	-200.000	0.009	0.070
-221.640	151.476	-0.138	0.186
-220.625	-121.596	0.163	-0.027
-219.611	-133.733	0.027	0.003
-218.596	-200.000	0.019	0.254
-217.582	65.856	-0.195	0.196
-216.567	-63.767	-0.231	-0.094
-215.552	149.301	0.316	0.423
-214.538	-200.000	0.005	0.121
-213.523	-135.540	0.179	0.021
-212.509	-200.000	-0.058	-0.320
-211.494	-66.138	-0.057	-0.022
-210.479	-15.397	0.239	-0.151
-209.465	-75.017	0.127	0.045
-208.450	800.000	-0.015	-0.053
-207.436	-62.200	-0.172	0.071
-206.421	-168.087	-0.334	0.013
-205.406	122.773	-0.066	-0.082
-204.392	211.760	0.026	-0.040
-203.377	-200.000	0.057	-0.360
-202.363	-200.000	0.041	0.507
-201.348	-130.402	0.123	0.017
-200.333	-162.479	-0.360	-0.018
-199.319	-44.763	0.040	0.020
-198.304	74.687	0.101	-0.105
-197.290	-200.000	0.021	0.142
-196.275	69.319	0.083	-0.084
-195.260	-200.000	0.017	0.178
-194.246	800.000	-0.130	0.466
-193.231	-93.610	0.341	0.093
-192.217	-33.618	-0.226	0.123
-191.202	-49.996	-0.245	0.115
-190.187	120.095	-0.110	0.135
-189.173	23.426	0.284	0.231
-188.158	-200.000	0.049	0.341
-187.144	4.089	0.094	-0.068
-186.129	-79.136	0.196	0.066
-185.114	246.865	0.120	0.201
-184.100	-5.485	0.244	-0.166
-183.085	-200.000	-0.001	-0.046
-182.071	800.000	-0.064	0.224
-181.056	130.677	-0.011	0.014
-180.042	-15.673	-0.296	-0.187
-179.027	446.956	0.126	0.274
-178.012	7.203	-0.058	0.043
-176.998	82.560	0.386	-0.415
-175.983	-200.000	-0.071	-0.349
-174.969	-79.267	-0.240	0.080
-173.954	-10.806	0.252	-0.164
-172.939	-200.000	-0.016	-0.071
-171.925	16.897	0.384	0.301
-170.910	-53.663	-0.130	0.059
-169.896	-74.511	-0.166	-0.059
-168.881	641.458	0.180	0.454
-167.866	-65.992	0.157	-0.062
-166.852	-200.000	0.008	0.235
-165.837	800.000	-0.075	0.265
-164.823	201.494	-0.118	-0.180
-163.808	-200.000	-0.021	-0.148
-162.793	-76.028	0.342	-0.120
-161.779	-120.942	-0.346	0.058
-160.764	537.277	0.111	0.260
-159.750	-67.091	0.240	0.093
-158.735	-200.000	-0.016	0.448
-157.720	-10.361	0.349	-0.229
-156.706	141.656	-0.132	-0.173
-155.691	205.574	0.095	0.145
-154.677	348.917	-0.178	-0.347
-153.662	63.757	-0.242	0.240
-152.647	92.780	-0.091	-0.102
-151.633	-151.069	0.315	0.023
-150.618	-132.659	0.114	0.014
-149.604	20.857	0.044	-0.036
-148.589	-200.000	-0.031	0.185
-147.574	-200.000	-0.018	-0.129
-146.560	379.467	-0.065	0.131
-145.545	179.794	0.051	0.074
-144.531	6.077	-0.057	0.042
-143.516	726.522	-0.037	-0.098
-142.502	425.913	-0.087	0.186
-141.487	-53.366	0.501	-0.227
-140.472	280.516	0.025	0.043
-139.458	-123.178	0.145	-0.023
-138.443	-71.725	-0.134	0.049
-137.429	-200.000	-0.047	0.316
-136.414	-36.470	0.367	0.195
-135.399	87.585	-0.054	-0.059
-134.385	-86.002	0.145	0.044
-133.370	-105.700	0.299	-0.067
-132.356	593.545	0.065	0.158
-131.341	-200.000	-0.010	-0.210
-130.326	-200.000	0.009	0.047
-129.312	-19.524	0.262	-0.160
-128.297	-200.000	0.004	-0.086
-127.283	14.982	-0.011	0.008
-126.268	-104.375	0.096	-0.022
-125.253	-8.184	0.041	0.028
-124.239	-136.788	-0.192	-0.022
-123.224	245.558	0.274	0.455
-122.210	-6.114	0.023	0.016
-121.195	800.000	0.045	-0.166
