DTS Sentinel unit serial number:	SN413079Multiplexer serial number:	ORYXHardware model number:	OX4-SRSoftware version number:	ORYX F/W v4.00 Oryx Data Collector v3.7.2.0data status	okinstallation	princeton_trtdifferential loss correction	single-endedforward channel	channel 4reverse channel	N/Adate	2019/09/10time	15:47:11forward acquisition time	60.00reverse acquisition time	0.00gamma	496.2192k internal	0.2295k external	0.2295temperature offset calibration	0.9934default loss term (dB/km)	0.3790temperature slope calibration	1.0000multiplexer offset coefficient	1.0000multiplexer slope coefficient	1.0000fibre end	0.00T internal ref (°C)	38.05T ext. ref 1 (°C)	-0.28T ext. ref 2 (°C)	32.19length (m)	temperature (°C)	Stokes	anti-Stokes-747.200	140.629	-0.120	-0.162
-746.185	-33.903	0.258	-0.145
-745.171	269.338	0.089	-0.159
-744.156	-46.951	-0.128	-0.064
-743.142	-200.000	-0.030	-0.238
-742.127	-200.000	0.027	0.158
-741.112	800.000	-0.120	-0.359
-740.098	-200.000	-0.045	0.288
-739.083	-200.000	-0.003	0.053
-738.069	800.000	-0.090	0.285
-737.054	307.651	-0.106	0.203
-736.039	-15.047	-0.191	-0.125
-735.025	49.284	0.050	0.048
-734.010	-200.000	-0.031	0.317
-732.996	-130.257	-0.512	-0.071
-731.981	-66.439	-0.085	0.034
-730.966	800.000	0.056	-0.240
-729.952	-170.916	-0.174	0.006
-728.937	222.548	0.135	-0.222
-727.923	-200.000	0.021	0.099
-726.908	-200.000	-0.023	-0.445
-725.894	81.660	-0.029	0.032
-724.879	-136.599	-0.342	-0.040
-723.864	-99.360	0.245	0.063
-722.850	158.084	-0.260	-0.368
-721.835	11.705	-0.125	-0.098
-720.821	358.199	0.077	-0.157
-719.806	-160.152	0.248	-0.014
-718.791	-48.586	-0.190	-0.094
-717.777	-152.068	0.189	-0.014
-716.762	-22.416	0.176	0.109
-715.748	-58.626	-0.065	-0.029
-714.733	72.511	-0.227	0.241
-713.718	-200.000	0.052	-0.301
-712.704	-125.783	-0.503	-0.078
-711.689	246.015	0.115	-0.198
-710.675	-200.000	0.007	0.141
-709.660	-200.000	-0.031	-0.146
-708.645	38.844	0.275	0.250
-707.631	-200.000	-0.018	0.100
-706.616	-154.904	-0.150	-0.010
-705.602	-56.379	0.101	-0.046
-704.587	-156.869	0.154	-0.010
-703.572	-169.829	-0.105	0.004
-702.558	-44.218	-0.144	-0.074
-701.543	-91.914	-0.393	-0.114
-700.529	37.474	-0.167	-0.151
-699.514	-127.225	0.128	0.019
-698.499	74.233	-0.221	0.237
-697.485	-87.206	-0.381	0.118
-696.470	-85.008	0.280	0.090
-695.456	49.892	-0.022	0.021
-694.441	72.563	-0.037	0.040
-693.426	18.992	0.078	-0.064
-692.412	270.560	-0.052	-0.094
-691.397	-200.000	0.037	0.308
-690.383	-57.937	-0.240	-0.107
-689.368	-71.974	-0.295	-0.112
-688.354	15.953	-0.211	-0.169
-687.339	31.297	-0.077	-0.068
-686.324	512.371	0.045	0.107
-685.310	-178.536	-0.214	0.005
-684.295	-59.140	0.232	-0.102
-683.281	515.020	-0.086	0.205
-682.266	-81.421	-0.484	-0.162
-681.251	800.000	-0.010	0.031
-680.237	233.527	0.196	0.328
-679.222	-181.152	-0.335	-0.007
-678.208	-120.496	0.208	-0.036
-677.193	56.684	-0.111	0.110
-676.178	-34.482	-0.115	-0.064
-675.164	674.226	0.112	-0.295
-674.149	64.502	0.294	0.302
-673.135	-133.782	-0.262	0.033
-672.120	-48.172	0.126	-0.062
-671.105	-21.679	-0.254	0.158
-670.091	-178.057	-0.202	-0.005
-669.076	34.254	0.074	0.066
-668.062	54.098	0.313	0.307
-667.047	65.506	0.166	0.172
-666.032	162.529	-0.087	0.124
-665.018	64.383	-0.040	-0.041
-664.003	-104.849	-0.272	0.064
-662.989	800.000	0.020	0.083
-661.974	-83.570	0.262	-0.086
-660.959	66.610	-0.071	0.073
-659.945	-200.000	0.007	-0.054
-658.930	-102.407	-0.287	0.070
-657.916	-1.148	0.162	0.116
-656.901	-42.470	0.207	-0.108
-655.886	-200.000	-0.029	0.156
-654.872	255.041	0.065	0.114
-653.857	-151.820	0.024	-0.002
-652.843	7.651	-0.096	0.073
-651.828	-138.343	-0.192	-0.022
-650.814	-59.395	0.192	0.084
-649.799	-116.873	-0.173	-0.032
-648.784	800.000	-0.047	-0.183
-647.770	-72.487	-0.359	-0.135
-646.755	-76.446	-0.209	-0.075
-645.741	-200.000	-0.024	0.305
-644.726	-74.889	-0.119	-0.044
-643.711	-200.000	0.042	-0.395
-642.697	99.809	-0.153	-0.180
-641.682	-65.422	-0.094	0.038
-640.668	800.000	-0.043	-0.123
-639.653	237.427	-0.076	0.129
-638.638	-38.181	0.491	-0.265
-637.624	-200.000	-0.029	-0.165
-636.609	41.392	0.070	0.064
-635.595	-14.491	-0.130	-0.085
-634.580	-35.086	-0.211	-0.117
-633.565	135.960	-0.141	-0.187
-632.551	-67.778	-0.061	0.024
-631.536	-8.799	-0.291	0.198
-630.522	425.525	-0.056	-0.123
-629.507	-130.850	-0.486	0.066
-628.492	152.945	-0.235	-0.328
-627.478	4.527	-0.083	0.062
-626.463	-200.000	-0.047	-0.306
-625.449	-200.000	0.009	0.103
-624.434	-119.188	-0.335	0.060
-623.419	-81.814	-0.379	-0.126
-622.405	-200.000	-0.003	0.073
-621.390	-200.000	-0.018	0.169
-620.376	-44.971	0.209	0.106
-619.361	-105.577	-0.213	-0.049
-618.346	-200.000	-0.026	0.159
-617.332	-18.392	0.098	0.062
-616.317	383.972	0.102	0.214
-615.303	-112.719	-0.082	-0.017
-614.288	800.000	0.076	0.261
-613.273	-80.597	0.281	-0.095
-612.259	34.724	-0.155	-0.138
-611.244	-162.227	-0.201	0.010
-610.230	800.000	-0.039	-0.170
-609.215	48.445	0.154	-0.146
-608.201	-141.141	0.103	-0.011
-607.186	60.599	0.313	0.315
-606.171	56.860	0.036	0.035
-605.157	513.539	0.047	-0.112
-604.142	-200.000	-0.006	-0.067
-603.128	1.153	-0.045	-0.033
-602.113	69.773	-0.090	-0.094
-601.098	346.160	0.088	0.177
-600.084	-200.000	-0.060	0.406
-599.069	-128.149	-0.358	-0.052
-598.055	-53.975	-0.258	-0.119
-597.040	64.892	-0.238	0.245
-596.025	192.963	-0.096	-0.148
-595.011	-163.578	0.173	-0.008
-593.996	-37.264	0.132	-0.072
-592.982	-21.663	-0.126	-0.078
-591.967	-200.000	-0.023	0.303
-590.952	-57.255	-0.284	0.127
-589.938	-92.130	0.172	0.050
-588.923	-103.043	0.126	0.030
-587.909	177.782	-0.077	-0.114
-586.894	-200.000	-0.018	0.420
-585.879	107.362	0.145	0.175
-584.865	-24.191	0.259	-0.157
-583.850	-200.000	0.015	-0.172
-582.836	-113.155	-0.271	0.054
-581.821	-11.428	-0.200	-0.134
-580.806	4.520	0.045	0.033
-579.792	800.000	0.085	-0.369
-578.777	-200.000	0.059	-0.302
-577.763	23.592	0.200	-0.167
-576.748	800.000	0.048	0.195
-575.733	120.435	0.319	0.402
-574.719	-0.075	-0.104	0.075
-573.704	57.364	-0.187	0.185
-572.690	33.211	0.109	0.096
-571.675	-46.959	0.214	0.106
-570.661	-96.864	-0.233	0.062
-569.646	95.927	0.113	-0.131
-568.631	-113.955	0.071	0.014
-567.617	13.083	0.071	0.056
-566.602	-200.000	-0.029	0.259
-565.588	255.161	0.098	-0.171
-564.573	666.414	0.091	-0.239
-563.558	-115.101	-0.333	-0.064
-562.544	800.000	0.028	-0.091
-561.529	-34.693	0.254	0.141
-560.515	-47.961	-0.090	-0.044
-559.500	-151.630	-0.160	-0.012
-558.485	800.000	-0.073	-0.300
-557.471	5.215	-0.081	-0.061
-556.456	96.235	0.080	-0.093
-555.442	-97.886	-0.210	0.055
-554.427	334.916	-0.143	0.281
-553.412	800.000	0.064	0.255
-552.398	-143.087	0.328	0.032
-551.383	-200.000	0.065	0.368
-550.369	191.249	0.060	-0.092
-549.354	-65.246	0.210	0.086
-548.339	205.415	-0.028	-0.044
-547.325	-76.479	-0.229	0.082
-546.310	800.000	-0.086	-0.333
-545.296	-200.000	0.079	-0.429
-544.281	-36.073	0.299	0.164
-543.266	-154.245	0.084	-0.006
-542.252	-79.712	0.139	0.048
-541.237	-58.120	0.687	0.304
-540.223	7.156	0.110	-0.083
-539.208	-27.415	0.193	-0.114
-538.193	-200.000	0.004	0.078
-537.179	428.849	0.179	-0.392
-536.164	-200.000	0.006	-0.169
-535.150	299.503	-0.064	0.120
-534.135	130.569	-0.033	-0.043
-533.121	7.490	0.224	-0.170
-532.106	-68.517	0.072	-0.028
-531.091	800.000	0.029	-0.126
-530.077	-42.096	-0.187	0.097
-529.062	-62.977	0.126	-0.053
-528.048	21.103	0.047	-0.039
-527.033	800.000	0.028	-0.113
-526.018	144.873	-0.088	0.119
-525.004	-113.949	-0.411	0.081
-523.989	-200.000	0.031	-0.218
-522.975	-124.103	0.211	-0.034
-521.960	224.399	-0.205	-0.335
-520.945	229.987	0.048	-0.080
-519.931	-15.518	0.292	0.189
-518.916	183.327	-0.061	-0.091
-517.902	66.060	0.124	-0.128
-516.887	365.037	0.184	-0.375
-515.872	-200.000	0.010	-0.179
-514.858	-28.829	-0.301	0.175
-513.843	-200.000	0.038	-0.200
-512.829	-74.507	-0.300	-0.110
-511.814	-11.827	-0.064	0.042
-510.799	172.798	-0.104	0.152
-509.785	239.422	0.114	-0.193
-508.770	-1.128	-0.334	0.239
-507.756	-28.538	-0.136	0.079
-506.741	800.000	-0.020	0.059
-505.726	-200.000	0.094	0.421
-504.712	-55.483	0.111	-0.050
-503.697	110.374	0.202	0.246
-502.683	800.000	0.031	0.114
-501.668	-78.121	0.107	0.037
-500.653	-64.408	-0.196	-0.081
-499.639	800.000	-0.100	-0.330
-498.624	-23.908	-0.344	0.209
-497.610	-185.849	0.157	0.002
-496.595	17.987	-0.285	-0.230
-495.581	-200.000	0.012	0.127
-494.566	800.000	0.028	-0.115
-493.551	-41.843	-0.202	0.105
-492.537	492.577	0.049	-0.113
-491.522	306.014	0.108	0.204
-490.508	-188.171	-0.091	-0.001
-489.493	-25.354	0.068	-0.041
-488.478	373.270	0.077	-0.158
-487.464	800.000	-0.089	0.255
-486.449	-18.328	-0.127	0.080
-485.435	-200.000	0.014	0.266
-484.420	-106.651	-0.216	-0.049
-483.405	-52.987	-0.247	0.115
-482.391	-107.056	-0.258	0.058
-481.376	-103.461	0.075	0.018
-480.362	56.706	0.183	-0.180
-479.347	-1.814	0.148	-0.106
-478.332	64.168	-0.245	-0.249
-477.318	-199.400	-0.168	0.001
-476.303	800.000	-0.056	0.186
-475.289	-200.000	0.004	-0.312
-474.274	147.166	0.096	-0.130
-473.259	-4.814	-0.332	-0.232
-472.245	-124.668	-0.148	0.023
-471.230	476.017	0.050	0.115
-470.216	-200.000	-0.115	-0.628
-469.201	-132.507	-0.218	-0.028
-468.186	-157.478	0.169	0.010
-467.172	-8.484	0.184	0.125
-466.157	-3.040	0.184	-0.130
-465.143	-179.987	0.317	0.007
-464.128	800.000	0.018	0.056
-463.113	16.058	0.201	0.161
-462.099	-56.731	-0.059	-0.026
-461.084	52.037	-0.092	-0.089
-460.070	50.447	-0.194	0.186
-459.055	800.000	0.033	-0.094
-458.040	363.721	-0.095	0.193
-457.026	-100.243	-0.127	-0.032
-456.011	-38.870	-0.025	-0.013
-454.997	122.609	-0.284	-0.359
-453.982	178.380	0.169	0.249
-452.968	800.000	0.036	0.157
-451.953	-0.669	0.291	0.209
-450.938	-153.991	-0.297	-0.020
-449.924	15.753	-0.083	0.066
-448.909	172.155	0.110	0.160
-447.895	-200.000	0.138	-0.000
-446.880	-200.000	-0.016	-0.303
-445.865	253.805	-0.211	-0.364
-444.851	169.880	0.109	0.158
-443.836	117.611	-0.080	0.099
-442.822	-140.901	-0.310	0.032
-441.807	120.998	0.071	0.089
-440.792	-200.000	-0.015	-0.267
-439.778	-200.000	-0.056	-0.406
-438.763	315.232	-0.091	0.173
-437.749	-62.788	0.185	0.077
-436.734	-200.000	0.035	-0.162
-435.719	98.218	0.091	-0.106
-434.705	-46.813	0.334	-0.165
-433.690	-41.718	-0.559	-0.290
-432.676	190.401	0.241	0.365
-431.661	-117.515	-0.287	0.052
-430.646	405.379	0.176	-0.376
-429.632	262.582	-0.143	0.251
-428.617	58.050	-0.214	-0.212
-427.603	193.232	0.090	-0.138
-426.588	-71.540	-0.109	0.041
-425.573	75.935	-0.101	-0.108
-424.559	101.576	0.078	-0.091
-423.544	481.018	0.087	-0.198
-422.530	-117.892	0.227	0.041
-421.515	800.000	-0.032	-0.142
-420.500	24.517	0.180	-0.150
-419.486	627.857	0.130	0.333
-418.471	103.144	-0.079	-0.093
-417.457	292.253	-0.085	-0.156
-416.442	66.103	-0.153	0.157
-415.428	-52.729	-0.238	0.111
-414.413	51.500	-0.238	-0.229
-413.398	-55.317	-0.285	0.129
-412.384	-200.000	0.002	0.181
-411.369	-131.070	-0.316	-0.043
-410.355	5.532	0.225	-0.167
-409.340	-124.508	0.089	-0.014
-408.325	41.898	-0.101	-0.092
-407.311	800.000	-0.095	-0.359
-406.296	-200.000	0.000	-0.060
-405.282	636.632	0.077	0.196
-404.267	-200.000	-0.036	0.210
-403.252	-29.512	0.262	0.151
-402.238	761.040	0.019	0.053
-401.223	331.417	-0.144	0.280
-400.209	-200.000	0.005	-0.062
-399.194	92.031	0.206	0.234
-398.179	-134.757	0.306	0.038
-397.165	-200.000	-0.003	0.094
-396.150	312.803	0.073	0.137
-395.136	424.983	0.045	0.099
-394.121	33.995	-0.237	-0.209
-393.106	70.914	-0.347	0.362
-392.092	-153.458	0.061	-0.004
-391.077	-54.788	-0.227	-0.103
-390.063	-156.883	0.122	0.008
-389.048	98.354	-0.303	-0.352
-388.033	-135.560	0.183	0.022
-387.019	-200.000	-0.007	-0.119
-386.004	-110.642	0.185	0.039
-384.990	734.328	-0.014	0.037
-383.975	161.764	0.157	-0.222
-382.960	-178.176	0.099	-0.002
-381.946	-45.732	0.496	-0.247
-380.931	38.560	-0.110	-0.099
-379.917	340.608	-0.283	-0.556
-378.902	520.875	-0.037	0.086
-377.888	-99.951	-0.277	0.070
-376.873	800.000	-0.046	0.132
-375.858	-200.000	-0.037	0.487
-374.844	-200.000	-0.026	-0.118
-373.829	-200.000	-0.006	0.351
-372.815	800.000	-0.051	0.172
-371.800	-77.012	-0.086	-0.030
-370.785	-145.278	0.233	0.021
-369.771	65.141	0.128	0.130
-368.756	50.582	0.283	0.270
-367.742	55.607	-0.023	-0.023
-366.727	800.000	-0.033	-0.142
-365.712	800.000	-0.050	-0.145
-364.698	-200.000	0.008	0.267
-363.683	580.942	0.031	0.077
-362.669	-2.182	-0.099	0.070
-361.654	-200.000	0.040	-0.462
-360.639	-68.394	-0.049	0.019
-359.625	62.970	-0.308	-0.310
-358.610	-18.399	0.241	-0.152
-357.596	-200.000	-0.041	-0.250
-356.581	202.738	-0.129	0.200
-355.566	56.609	0.156	0.153
-354.552	-200.000	-0.016	0.194
-353.537	-53.826	-0.209	-0.096
-352.523	405.598	-0.067	0.142
-351.508	20.467	0.148	0.121
-350.493	22.079	0.164	0.135
-349.479	-95.645	0.331	0.089
-348.464	-99.346	0.153	0.039
-347.450	54.935	0.128	0.125
-346.435	-23.049	0.165	0.100
-345.420	161.493	0.253	-0.356
-344.406	-100.591	-0.063	0.016
-343.391	241.931	-0.195	0.328
-342.377	800.000	-0.099	-0.377
-341.362	800.000	0.076	-0.279
-340.348	-120.380	0.198	0.034
-339.333	-110.552	0.367	-0.076
-338.318	24.089	0.144	-0.119
-337.304	-159.610	-0.114	-0.006
-336.289	-33.819	-0.224	0.124
-335.275	-176.555	-0.063	-0.002
-334.260	137.402	-0.262	-0.345
-333.245	800.000	0.020	0.087
-332.231	71.262	0.244	0.254
-331.216	800.000	0.042	-0.154
-330.202	-200.000	-0.038	-0.344
-329.187	-141.632	-0.278	0.028
-328.172	-189.817	0.141	-0.002
-327.158	-107.446	0.085	0.019
-326.143	373.693	0.106	-0.217
-325.129	-114.340	0.099	0.019
-324.114	41.756	-0.248	-0.226
-323.099	-172.992	0.229	0.007
-322.085	11.944	0.044	0.034
-321.070	800.000	-0.034	-0.131
-320.056	-103.488	-0.170	-0.040
-319.041	34.696	0.294	-0.259
-318.026	30.123	0.063	-0.054
-317.012	88.609	-0.276	0.309
-315.997	-69.079	-0.303	-0.118
-314.983	-18.782	0.140	-0.088
-313.968	65.492	0.057	0.058
-312.953	-83.491	0.251	0.081
-311.939	261.384	0.078	0.135
-310.924	31.511	0.216	0.187
-309.910	700.225	-0.067	0.178
-308.895	-58.491	0.248	-0.108
-307.880	93.443	-0.153	-0.174
-306.866	-64.673	0.062	0.025
-305.851	29.725	0.347	0.297
-304.837	-17.031	0.295	0.187
-303.822	536.469	-0.098	0.234
-302.807	-200.000	-0.007	-0.267
-301.793	-72.689	0.431	0.160
-300.778	187.714	0.199	0.299
-299.764	113.048	-0.215	-0.262
-298.749	-123.932	-0.218	-0.035
-297.735	283.400	0.109	-0.197
-296.720	65.720	0.180	0.183
-295.705	800.000	0.110	0.350
-294.691	-200.000	0.057	0.291
-293.676	-200.000	-0.036	0.200
-292.662	745.410	-0.088	0.239
-291.647	-49.173	-0.254	-0.122
-290.632	-50.218	0.135	0.064
-289.618	30.317	-0.355	0.305
-288.603	330.539	0.071	-0.138
-287.589	1.116	-0.208	-0.150
-286.574	189.673	0.160	-0.241
-285.559	-50.670	-0.082	-0.039
-284.545	282.022	-0.096	0.173
-283.530	-152.901	0.077	0.005
-282.516	800.000	-0.068	-0.190
-281.501	-175.192	-0.208	-0.006
-280.486	218.620	0.170	0.273
-279.472	-107.463	0.181	0.040
-278.457	-147.565	0.328	-0.028
-277.443	-200.000	-0.049	-0.397
-276.428	-200.000	0.039	-0.491
-275.413	800.000	-0.027	0.086
-274.399	76.009	0.112	-0.119
-273.384	298.424	-0.059	-0.109
-272.370	-51.837	-0.323	-0.151
-271.355	-56.902	0.290	0.129
-270.340	118.515	0.087	-0.107
-269.326	32.904	-0.095	-0.082
-268.311	-51.601	-0.125	0.059
-267.297	145.909	-0.104	0.139
-266.282	800.000	-0.092	0.272
-265.267	-32.798	0.039	-0.022
-264.253	0.429	0.031	-0.022
-263.238	-179.575	-0.305	0.007
-262.224	396.231	0.057	-0.120
-261.209	-32.499	0.290	0.162
-260.195	396.495	-0.195	0.409
-259.180	110.197	0.181	-0.218
-258.165	800.000	-0.077	-0.213
-257.151	-200.000	0.004	-0.104
-256.136	-95.078	-0.142	-0.039
-255.122	21.620	-0.145	0.118
-254.107	-200.000	-0.016	0.131
-253.092	-51.104	0.233	-0.110
-252.078	-32.557	0.219	0.123
-251.063	800.000	-0.084	-0.244
-250.049	-16.561	0.160	0.102
-249.034	-200.000	-0.016	0.154
-248.019	-200.000	-0.013	-0.205
-247.005	287.810	0.095	0.173
-245.990	-49.571	-0.078	0.037
-244.976	218.392	0.053	0.085
-243.961	-169.273	0.388	-0.014
-242.946	103.954	-0.076	0.090
-241.932	-67.051	0.035	0.014
-240.917	303.432	0.044	0.082
-239.903	15.723	-0.145	-0.114
-238.888	72.022	-0.011	-0.012
-237.873	-185.167	-0.143	0.002
-236.859	741.707	-0.026	0.070
-235.844	410.748	-0.141	0.299
-234.830	292.516	0.126	-0.231
-233.815	-139.647	-0.351	-0.037
-232.800	-52.704	-0.094	-0.044
-231.786	-91.077	0.114	0.033
-230.771	-200.000	0.012	0.105
-229.757	47.698	0.263	0.246
-228.742	800.000	0.080	-0.273
-227.727	-200.000	-0.025	0.130
-226.713	-105.164	0.156	0.036
-225.698	-75.443	0.113	-0.040
-224.684	-136.660	-0.206	0.024
-223.669	-58.082	-0.187	-0.082
-222.655	143.131	0.159	0.212
-221.640	262.999	0.131	-0.227
-220.625	-135.850	0.172	0.020
-219.611	-41.938	-0.075	0.038
-218.596	59.488	0.120	0.119
-217.582	-33.476	-0.121	0.067
-216.567	-200.000	0.009	0.137
-215.552	-200.000	-0.019	0.197
-214.538	-80.831	0.393	0.131
-213.523	-200.000	0.056	-0.397
-212.509	341.657	0.062	-0.122
-211.494	-93.195	-0.234	-0.065
-210.479	-200.000	0.002	-0.341
-209.465	800.000	0.063	0.182
-208.450	-70.470	0.187	0.071
-207.436	-55.473	0.209	0.094
-206.421	357.479	-0.114	0.227
-205.406	155.377	0.110	-0.151
-204.392	-200.000	-0.029	0.283
-203.377	-99.379	0.220	-0.056
-202.363	196.395	-0.049	0.075
-201.348	-120.557	-0.237	0.040
-200.333	-61.993	0.297	-0.124
-199.319	-200.000	-0.031	0.553
-198.304	-200.000	0.013	-0.133
-197.290	175.139	-0.209	-0.304
-196.275	-164.057	-0.067	-0.003
-195.260	-3.501	0.101	-0.070
-194.246	121.517	0.165	-0.206
-193.231	-25.757	0.288	-0.170
-192.217	18.795	0.204	0.163
-191.202	725.128	0.054	0.144
-190.187	-52.440	0.270	0.125
-189.173	225.945	-0.063	-0.102
-188.158	73.300	0.173	-0.182
-187.144	-114.175	-0.119	-0.023
-186.129	800.000	0.119	0.360
-185.114	-200.000	-0.059	0.396
-184.100	-7.569	-0.145	0.098
-183.085	-0.455	-0.134	-0.095
-182.071	57.121	-0.089	-0.087
-181.056	-37.941	0.252	0.134
-180.042	-55.162	0.160	-0.072
-179.027	-60.683	0.171	-0.072
-178.012	343.571	-0.148	0.291
-176.998	35.848	-0.069	-0.060
-175.983	-40.594	0.200	-0.104
-174.969	-148.918	-0.226	-0.018
-173.954	-200.000	0.038	0.303
-172.939	2.671	0.042	0.031
-171.925	-200.000	0.010	0.076
-170.910	339.214	-0.076	0.147
-169.896	-200.000	0.021	0.247
-168.881	80.811	-0.412	0.444
-167.866	-125.805	0.601	0.091
-166.852	78.185	-0.180	0.192
-165.837	283.907	-0.034	-0.061
-164.823	-59.411	-0.241	0.104
-163.808	149.125	0.116	-0.156
-162.793	103.378	-0.103	-0.120
-161.779	-186.071	-0.120	-0.002
-160.764	-105.786	-0.066	-0.015
-159.750	-151.193	-0.202	0.015
-158.735	91.049	0.138	0.155
-157.720	-24.503	0.209	-0.124
-156.706	-47.977	0.019	-0.009
-155.691	-48.808	0.335	0.160
-154.677	-184.673	-0.258	-0.004
-153.662	-18.721	0.058	-0.036
-152.647	-199.557	-0.229	-0.001
-151.633	-82.193	-0.111	0.036
-150.618	-200.000	0.025	0.159
-149.604	-92.815	-0.216	-0.060
-148.589	800.000	0.056	0.212
-147.574	800.000	0.077	0.216
-146.560	242.472	0.202	-0.339
-145.545	-67.225	0.045	0.018
-144.531	132.516	0.347	0.447
-143.516	-200.000	0.050	0.240
-142.502	-200.000	-0.004	-0.282
-141.487	-200.000	0.044	-0.202
-140.472	97.945	-0.097	-0.111
-139.458	-65.373	0.089	-0.036
-138.443	109.266	-0.257	0.307
-137.429	-58.097	-0.061	0.027
-136.414	9.791	0.193	-0.146
-135.399	-200.000	-0.037	0.165
-134.385	-2.343	-0.328	0.230
-133.370	31.990	0.239	0.206
-132.356	3.458	-0.110	0.080
-131.341	39.561	0.079	-0.071
-130.326	-107.365	0.247	-0.054
-129.312	800.000	-0.082	0.253
-128.297	143.974	-0.148	-0.197
-127.283	-156.759	0.292	0.018
-126.268	-52.304	-0.039	0.018
-125.253	-200.000	0.011	0.177
-124.239	-200.000	0.020	-0.127
-123.224	-200.000	-0.003	0.181
-122.210	101.956	0.046	-0.053
-121.195	-200.000	0.001	-0.107
