DTS Sentinel unit serial number:	SN413079Multiplexer serial number:	ORYXHardware model number:	OX4-SRSoftware version number:	ORYX F/W v4.00 Oryx Data Collector v3.7.2.0data status	okinstallation	princeton_trtdifferential loss correction	single-endedforward channel	channel 4reverse channel	N/Adate	2019/09/17time	08:13:34forward acquisition time	60.00reverse acquisition time	0.00gamma	496.2192k internal	0.2318k external	0.2318temperature offset calibration	0.9978default loss term (dB/km)	0.3790temperature slope calibration	1.0000multiplexer offset coefficient	1.0000multiplexer slope coefficient	1.0000fibre end	0.00T internal ref (°C)	27.37T ext. ref 1 (°C)	0.12T ext. ref 2 (°C)	22.69length (m)	temperature (°C)	Stokes	anti-Stokes-747.200	-200.000	0.008	0.383
-746.185	-130.731	-0.096	0.013
-745.171	-78.071	0.395	0.138
-744.156	756.781	-0.041	0.112
-743.142	800.000	0.092	0.260
-742.127	430.819	-0.105	0.230
-741.112	-106.762	-0.113	-0.025
-740.098	233.659	-0.138	-0.229
-739.083	-200.000	-0.025	0.444
-738.069	267.955	0.120	0.213
-737.054	-200.000	0.036	0.343
-736.039	81.671	-0.258	0.282
-735.025	-72.298	0.220	0.083
-734.010	322.655	-0.095	0.183
-732.996	157.558	-0.138	0.193
-731.981	800.000	-0.035	-0.108
-730.966	-42.908	-0.236	0.121
-729.952	56.554	-0.122	-0.121
-728.937	-86.290	0.100	0.031
-727.923	-170.617	-0.334	-0.012
-726.908	-20.132	0.085	0.053
-725.894	-103.634	-0.219	-0.052
-724.879	-200.000	-0.009	-0.100
-723.864	8.950	-0.052	0.040
-722.850	17.539	-0.098	0.079
-721.835	12.676	0.163	-0.127
-720.821	-200.000	-0.017	-0.101
-719.806	-111.461	0.249	-0.051
-718.791	-28.154	0.255	0.149
-717.777	-96.552	-0.184	0.049
-716.762	-134.377	-0.390	0.048
-715.748	800.000	0.032	0.142
-714.733	-101.143	-0.266	0.066
-713.718	510.492	0.073	-0.172
-712.704	-24.815	-0.378	-0.227
-711.689	241.292	0.040	0.067
-710.675	576.394	-0.100	-0.248
-709.660	42.455	0.160	0.147
-708.645	66.786	-0.123	-0.127
-707.631	800.000	0.036	-0.121
-706.616	-41.201	0.354	0.184
-705.602	101.186	-0.237	0.279
-704.587	-200.000	-0.001	0.120
-703.572	-169.788	-0.155	-0.006
-702.558	-86.938	0.181	-0.056
-701.543	-200.000	0.003	0.077
-700.529	-109.429	-0.289	0.062
-699.514	-49.114	-0.036	0.017
-698.499	800.000	0.032	0.109
-697.485	-200.000	-0.017	-0.275
-696.470	800.000	0.037	0.146
-695.456	164.585	0.092	0.131
-694.441	-11.500	-0.318	0.211
-693.426	257.093	-0.037	0.064
-692.412	-156.917	0.136	-0.008
-691.397	-87.123	0.320	0.098
-690.383	-52.776	-0.178	0.083
-689.368	43.498	0.190	0.176
-688.354	569.531	0.171	-0.421
-687.339	-52.484	-0.133	-0.062
-686.324	-50.223	0.040	-0.019
-685.310	7.872	-0.193	-0.146
-684.295	119.544	0.230	0.288
-683.281	31.326	-0.330	0.286
-682.266	-78.541	-0.186	-0.064
-681.251	800.000	0.111	0.362
-680.237	-174.296	0.055	-0.002
-679.222	80.397	-0.034	0.037
-678.208	-103.351	0.259	-0.062
-677.193	-106.070	-0.215	0.049
-676.178	153.921	-0.131	-0.181
-675.164	143.572	-0.140	0.189
-674.149	-59.222	-0.082	-0.036
-673.135	-124.454	-0.337	0.053
-672.120	104.905	-0.107	-0.127
-671.105	-200.000	-0.009	0.177
-670.091	-200.000	-0.020	0.178
-669.076	127.346	-0.257	-0.329
-668.062	17.597	-0.163	0.131
-667.047	18.091	0.409	0.329
-666.032	-130.356	-0.333	0.046
-665.018	800.000	0.057	-0.231
-664.003	192.844	-0.105	0.160
-662.989	3.027	-0.156	0.114
-661.974	145.403	-0.051	0.069
-660.959	205.304	-0.105	-0.164
-659.945	-9.099	-0.281	-0.190
-658.930	1.582	0.282	0.204
-657.916	96.537	-0.124	0.143
-656.901	-200.000	0.071	-0.471
-655.886	-62.920	0.210	-0.088
-654.872	-155.832	-0.166	0.011
-653.857	276.207	0.038	0.068
-652.843	-20.471	-0.279	0.173
-651.828	202.790	-0.152	-0.236
-650.814	-60.252	0.033	0.014
-649.799	-105.660	-0.225	-0.051
-648.784	-94.028	0.266	0.074
-647.770	-93.782	-0.261	-0.072
-646.755	-81.666	-0.071	-0.023
-645.741	-200.000	-0.046	-0.398
-644.726	-29.097	0.094	-0.054
-643.711	-100.733	0.262	-0.065
-642.697	800.000	-0.071	0.211
-641.682	621.909	-0.076	0.193
-640.668	77.389	-0.240	-0.257
-639.653	682.414	-0.081	0.212
-638.638	297.703	-0.245	0.453
-637.624	206.477	-0.043	0.067
-636.609	-146.978	0.298	0.026
-635.595	-43.745	-0.104	-0.053
-634.580	-123.828	-0.270	-0.043
-633.565	195.750	-0.062	0.095
-632.551	-199.131	0.440	0.002
-631.536	-153.999	0.287	-0.020
-630.522	633.948	-0.081	0.207
-629.507	-8.910	-0.152	-0.103
-628.492	-105.509	0.259	-0.059
-627.478	-90.765	0.444	0.129
-626.463	-101.011	-0.230	0.057
-625.449	-200.000	-0.004	-0.094
-624.434	368.830	0.118	-0.240
-623.419	393.384	-0.029	0.061
-622.405	144.341	-0.172	-0.232
-621.390	28.186	0.123	0.105
-620.376	-87.895	-0.033	0.010
-619.361	-195.028	-0.326	-0.003
-618.346	62.694	-0.233	0.234
-617.332	59.296	-0.165	-0.163
-616.317	-108.508	0.161	-0.035
-615.303	800.000	0.102	-0.289
-614.288	800.000	0.032	-0.137
-613.273	-102.208	-0.095	-0.023
-612.259	-127.369	-0.185	0.027
-611.244	620.567	0.089	0.225
-610.230	-26.592	0.133	-0.078
-609.215	800.000	-0.074	0.248
-608.201	101.846	-0.160	-0.187
-607.186	360.171	-0.170	-0.342
-606.171	-200.000	0.004	0.065
-605.157	-103.992	-0.236	-0.055
-604.142	-70.920	-0.287	0.109
-603.128	44.424	-0.315	0.291
-602.113	-20.007	-0.196	-0.122
-601.098	-104.767	-0.179	0.042
-600.084	-200.000	-0.007	-0.161
-599.069	-165.146	-0.127	0.006
-598.055	800.000	-0.027	-0.099
-597.040	-70.753	-0.357	-0.136
-596.025	81.115	0.045	-0.049
-595.011	-117.806	-0.110	0.020
-593.996	-200.000	-0.003	-0.030
-592.982	90.874	0.069	0.078
-591.967	800.000	0.022	-0.094
-590.952	92.920	-0.092	-0.105
-589.938	-59.464	0.209	0.090
-588.923	-55.918	0.099	0.045
-587.909	21.367	0.166	-0.136
-586.894	-188.024	0.193	-0.003
-585.879	190.375	0.022	0.033
-584.865	-200.000	0.009	-0.334
-583.850	430.194	-0.162	0.353
-582.836	800.000	-0.049	0.181
-581.821	54.117	0.061	0.059
-580.806	-200.000	-0.004	0.046
-579.792	-200.000	-0.034	0.155
-578.777	-78.866	0.272	-0.093
-577.763	-200.000	-0.014	0.191
-576.748	-78.907	0.366	-0.125
-575.733	357.876	-0.009	0.018
-574.719	-200.000	-0.010	-0.045
-573.704	-91.673	-0.272	0.078
-572.690	-67.349	0.171	-0.068
-571.675	800.000	-0.079	0.245
-570.661	-81.301	-0.268	0.089
-569.646	-200.000	0.040	-0.231
-568.631	-165.956	-0.179	-0.008
-567.617	247.288	-0.222	-0.376
-566.602	-78.203	0.207	0.071
-565.588	-112.881	0.065	-0.013
-564.573	188.857	-0.098	-0.148
-563.558	-84.743	-0.225	0.071
-562.544	-23.197	-0.064	-0.039
-561.529	800.000	0.034	0.106
-560.515	113.002	0.102	0.125
-559.500	138.570	0.253	-0.333
-558.485	-200.000	0.256	0.000
-557.471	800.000	-0.121	-0.347
-556.456	72.520	0.135	0.141
-555.442	800.000	0.060	-0.222
-554.427	52.034	-0.056	-0.053
-553.412	-3.351	-0.167	-0.117
-552.398	-68.919	0.091	-0.035
-551.383	-200.000	0.010	-0.061
-550.369	-64.941	0.149	-0.060
-549.354	724.725	-0.102	0.273
-548.339	120.871	-0.035	-0.044
-547.325	-43.497	-0.238	-0.121
-546.310	-143.565	0.298	0.028
-545.296	97.904	0.169	0.195
-544.281	22.507	-0.211	0.173
-543.266	-200.000	-0.023	0.227
-542.252	800.000	0.159	0.466
-541.237	-200.000	0.039	-0.346
-540.223	-147.907	0.158	0.013
-539.208	-200.000	0.007	-0.181
-538.193	202.665	-0.174	0.270
-537.179	29.512	-0.198	0.169
-536.164	-200.000	-0.012	-0.152
-535.150	358.830	0.098	-0.196
-534.135	166.269	-0.123	0.175
-533.121	800.000	-0.059	-0.229
-532.106	-96.606	0.384	0.102
-531.091	-117.551	-0.159	-0.029
-530.077	459.446	-0.115	-0.258
-529.062	77.736	0.218	-0.233
-528.048	-200.000	-0.022	0.229
-527.033	-64.276	-0.137	-0.056
-526.018	94.118	-0.051	-0.058
-525.004	117.326	0.171	0.211
-523.989	-43.373	0.190	0.096
-522.975	-183.738	-0.164	-0.003
-521.960	-131.036	0.115	0.015
-520.945	-139.062	0.269	-0.029
-519.931	-200.000	0.001	-0.024
-518.916	101.239	-0.031	-0.036
-517.902	255.594	-0.043	0.074
-516.887	-157.398	-0.042	0.003
-515.872	-200.000	0.069	-0.372
-514.858	180.938	-0.108	0.159
-513.843	492.920	-0.080	-0.183
-512.829	82.507	-0.173	0.189
-511.814	-86.934	-0.070	0.021
-510.799	-106.450	0.308	-0.069
-509.785	46.885	0.115	-0.108
-508.770	-22.961	0.261	-0.158
-507.756	-181.810	-0.385	-0.007
-506.741	623.150	0.069	-0.175
-505.726	138.243	-0.112	-0.147
-504.712	348.286	-0.176	-0.347
-503.697	19.743	-0.231	-0.186
-502.683	15.869	-0.264	-0.208
-501.668	-200.000	-0.008	-0.390
-500.653	129.211	0.120	-0.154
-499.639	800.000	-0.073	0.294
-498.624	-102.030	0.120	-0.029
-497.610	104.698	-0.092	-0.109
-496.595	127.062	-0.222	0.281
-495.581	154.805	-0.058	-0.079
-494.566	-1.281	-0.172	0.121
-493.551	340.575	0.134	0.261
-492.537	78.955	0.294	-0.316
-491.522	80.658	0.090	0.097
-490.508	571.260	0.154	-0.376
-489.493	231.438	0.027	-0.045
-488.478	25.789	-0.319	0.267
-487.464	800.000	0.037	0.108
-486.449	-41.596	0.266	0.137
-485.435	754.292	-0.069	0.186
-484.420	-85.470	0.334	0.104
-483.405	-200.000	-0.009	0.114
-482.391	166.603	0.179	-0.254
-481.376	-200.000	0.032	0.154
-480.362	134.109	0.092	-0.120
-479.347	-200.000	-0.000	0.145
-478.332	282.313	0.117	-0.210
-477.318	728.472	0.027	-0.072
-476.303	-121.871	-0.155	0.026
-475.289	153.740	0.116	-0.160
-474.274	-109.838	0.265	-0.056
-473.259	-101.026	0.362	0.089
-472.245	-200.000	0.057	-0.277
-471.230	-23.309	0.044	-0.026
-470.216	-59.315	0.249	-0.107
-469.201	160.200	0.142	0.199
-468.186	-112.020	0.037	-0.007
-467.172	-120.015	0.303	0.052
-466.157	59.635	-0.308	0.304
-465.143	800.000	-0.027	0.095
-464.128	-200.000	-0.029	0.194
-463.113	-82.233	-0.174	0.057
-462.099	-12.473	-0.115	0.075
-461.084	100.124	0.269	-0.312
-460.070	292.377	-0.090	0.165
-459.055	27.471	-0.108	-0.091
-458.040	-180.242	0.261	-0.005
-457.026	-88.782	-0.390	-0.116
-456.011	-200.000	0.006	0.047
-454.997	757.398	-0.068	-0.184
-453.982	-159.827	0.108	0.006
-452.968	188.321	0.014	-0.021
-451.953	-41.253	-0.307	-0.158
-450.938	-5.611	0.244	-0.167
-449.924	-200.000	-0.010	-0.057
-448.909	-79.319	0.095	0.032
-447.895	-68.834	0.109	0.042
-446.880	-90.243	-0.175	0.051
-445.865	-169.722	0.156	-0.006
-444.851	258.293	0.072	0.125
-443.836	359.355	0.108	0.216
-442.822	244.620	0.098	-0.164
-441.807	-74.802	-0.126	-0.045
-440.792	109.759	0.048	0.057
-439.778	262.952	-0.058	-0.101
-438.763	-200.000	0.090	-0.536
-437.749	-13.191	0.039	-0.025
-436.734	-200.000	-0.015	-0.139
-435.719	-68.900	-0.281	-0.108
-434.705	169.376	0.075	-0.107
-433.690	-200.000	-0.040	-0.232
-432.676	190.133	-0.136	-0.204
-431.661	133.047	-0.074	0.095
-430.646	-141.496	-0.154	0.016
-429.632	-200.000	-0.018	0.182
-428.617	-200.000	-0.021	0.213
-427.603	-155.508	0.117	0.008
-426.588	-53.236	-0.144	-0.066
-425.573	-200.000	0.001	-0.177
-424.559	70.775	0.014	0.014
-423.544	-47.285	0.097	0.047
-422.530	-137.284	-0.081	-0.009
-421.515	-200.000	-0.002	0.123
-420.500	-33.283	-0.209	-0.115
-419.486	-200.000	0.016	0.249
-418.471	-20.749	-0.305	-0.187
-417.457	-40.261	0.143	-0.074
-416.442	800.000	0.049	-0.139
-415.428	-31.059	-0.195	-0.110
-414.413	-6.608	-0.121	0.082
-413.398	-30.581	0.118	-0.067
-412.384	-125.234	-0.085	-0.013
-411.369	14.360	0.233	-0.182
-410.355	-200.000	0.008	0.148
-409.340	800.000	0.084	-0.259
-408.325	240.350	-0.055	-0.092
-407.311	184.905	-0.129	0.191
-406.296	106.433	0.214	0.253
-405.282	118.322	-0.164	-0.202
-404.267	1.537	-0.227	-0.163
-403.252	-200.000	-0.008	-0.187
-402.238	-200.000	-0.002	0.042
-401.223	-200.000	-0.027	-0.249
-400.209	-151.711	0.115	0.008
-399.194	-60.483	-0.085	0.036
-398.179	548.760	0.120	-0.287
-397.165	-200.000	0.040	0.258
-396.150	215.460	-0.173	0.275
-395.136	-200.000	0.005	0.152
-394.121	-103.360	-0.369	0.087
-393.106	800.000	0.036	0.141
-392.092	15.719	0.174	-0.136
-391.077	66.004	0.111	-0.112
-390.063	-168.572	-0.245	-0.009
-389.048	-10.399	-0.245	0.162
-388.033	800.000	-0.186	0.551
-387.019	-200.000	0.010	0.075
-386.004	40.416	0.223	0.200
-384.990	-200.000	-0.023	0.127
-383.975	43.848	0.134	-0.122
-382.960	-113.259	0.197	-0.039
-381.946	-54.069	0.327	0.149
-380.931	-79.406	-0.176	0.059
-379.917	197.593	-0.139	0.212
-378.902	-182.116	0.174	0.003
-377.888	-200.000	0.001	0.140
-376.873	216.325	0.061	0.096
-375.858	280.063	-0.085	0.151
-374.844	185.524	0.178	0.264
-373.829	-128.079	-0.143	-0.020
-372.815	-200.000	-0.011	0.294
-371.800	-164.478	0.058	-0.003
-370.785	140.686	0.103	0.136
-369.771	-29.682	-0.183	-0.104
-368.756	223.986	0.050	-0.081
-367.742	-200.000	-0.023	0.420
-366.727	-81.692	0.215	-0.070
-365.712	610.313	0.097	-0.242
-364.698	72.715	0.016	0.017
-363.683	-200.000	-0.027	0.181
-362.669	-200.000	-0.003	0.237
-361.654	-200.000	0.013	0.161
-360.639	441.399	0.091	-0.199
-359.625	108.384	0.119	-0.141
-358.610	42.425	-0.186	-0.169
-357.596	31.040	-0.095	-0.081
-356.581	-37.509	-0.217	-0.115
-355.566	-200.000	0.068	-0.426
-354.552	89.025	-0.131	-0.145
-353.537	-104.106	-0.253	0.059
-352.523	104.630	0.043	0.050
-351.508	62.573	0.205	0.204
-350.493	-200.000	-0.029	-0.242
-349.479	-86.085	0.393	0.121
-348.464	239.498	0.149	0.247
-347.450	681.232	-0.161	-0.417
-346.435	199.301	0.137	0.209
-345.420	-38.696	0.219	0.115
-344.406	-55.601	0.370	0.165
-343.391	50.263	0.148	0.139
-342.377	-200.000	0.004	0.145
-341.362	125.830	0.175	-0.220
-340.348	-200.000	0.029	0.132
-339.333	481.405	0.057	-0.129
-338.318	42.344	0.096	0.087
-337.304	-165.712	-0.024	-0.001
-336.289	307.541	0.039	-0.072
-335.275	-85.154	-0.276	0.086
-334.260	800.000	0.119	-0.381
-333.245	-113.568	0.382	-0.074
-332.231	-47.380	-0.115	0.056
-331.216	31.309	-0.100	-0.086
-330.202	-23.560	0.096	-0.057
-329.187	-13.344	0.278	0.180
-328.172	800.000	-0.031	0.117
-327.158	-200.000	-0.013	-0.207
-326.143	26.977	0.086	-0.072
-325.129	-200.000	-0.009	-0.159
-324.114	16.163	0.148	-0.116
-323.099	-69.917	-0.088	0.033
-322.085	-200.000	-0.001	-0.261
-321.070	602.091	0.123	-0.304
-320.056	-86.806	0.184	-0.056
-319.041	-200.000	-0.261	0.001
-318.026	176.782	0.115	0.167
-317.012	407.051	-0.152	0.319
-315.997	-92.086	0.073	0.020
-314.983	-147.452	0.410	-0.035
-313.968	190.907	0.002	-0.003
-312.953	127.240	0.179	0.226
-311.939	104.480	0.279	0.326
-310.924	-200.000	-0.001	0.284
-309.910	-58.164	0.131	0.057
-308.895	-200.000	-0.018	-0.127
-307.880	-37.601	-0.173	-0.092
-306.866	-172.756	0.015	0.000
-305.851	280.544	0.034	-0.060
-304.837	107.359	-0.080	0.095
-303.822	800.000	0.111	0.430
-302.807	-87.819	0.347	-0.104
-301.793	-68.774	0.145	0.056
-300.778	-74.840	-0.172	0.062
-299.764	-90.257	-0.281	0.081
-298.749	-149.831	0.143	0.011
-297.735	295.582	-0.117	0.213
-296.720	-58.345	-0.117	0.051
-295.705	-99.228	0.078	0.020
-294.691	292.596	0.147	0.267
-293.676	800.000	-0.059	-0.250
-292.662	28.149	-0.300	-0.252
-291.647	150.535	0.187	-0.252
-290.632	-199.630	-0.113	-0.001
-289.618	-42.719	0.270	0.137
-288.603	93.974	-0.219	0.247
-287.589	-109.999	0.033	-0.007
-286.574	145.105	-0.057	0.076
-285.559	-109.885	0.228	-0.048
-284.545	-146.580	0.165	0.014
-283.530	-82.096	-0.063	-0.020
-282.516	-200.000	-0.017	-0.094
-281.501	-200.000	0.022	-0.276
-280.486	800.000	0.032	0.128
-279.472	64.877	0.062	-0.062
-278.457	-200.000	0.027	0.352
-277.443	20.743	0.117	-0.094
-276.428	-200.000	0.051	-0.245
-275.413	-200.000	-0.001	-0.196
-274.399	-200.000	-0.032	0.195
-273.384	-16.611	-0.202	0.127
-272.370	-26.769	-0.141	-0.082
-271.355	-98.198	0.422	0.108
-270.340	28.422	0.028	0.024
-269.326	781.624	-0.056	-0.152
-268.311	800.000	-0.074	-0.296
-267.297	-114.713	-0.183	-0.035
-266.282	-58.943	-0.260	-0.111
-265.267	-20.310	0.228	0.139
-264.253	259.387	0.137	0.234
-263.238	800.000	-0.053	-0.155
-262.224	754.365	0.035	0.093
-261.209	-154.372	-0.109	0.007
-260.195	-98.980	0.226	0.057
-259.180	7.381	0.236	0.175
-258.165	-158.022	-0.251	0.015
-257.151	-200.000	-0.044	0.263
-256.136	-200.000	-0.041	0.225
-255.122	230.178	-0.197	0.320
-254.107	800.000	0.071	-0.198
-253.092	-200.000	0.011	0.146
-252.078	-122.132	0.213	0.035
-251.063	259.604	0.008	-0.014
-250.049	434.989	-0.043	0.093
-249.034	266.585	0.148	0.256
-248.019	-116.649	-0.030	-0.005
-247.005	-111.279	0.237	-0.048
-245.990	-5.220	0.180	-0.123
-244.976	-19.939	-0.261	0.160
-243.961	68.325	0.207	0.210
-242.946	224.386	-0.114	-0.182
-241.932	-30.165	0.234	-0.132
-240.917	-38.647	-0.139	0.073
-239.903	330.789	0.105	-0.201
-238.888	-200.000	0.062	0.279
-237.873	-200.000	0.004	0.334
-236.859	232.584	-0.131	-0.214
-235.844	-37.057	0.308	-0.163
-234.830	-155.932	0.110	-0.007
-233.815	723.081	-0.032	0.085
-232.800	98.174	-0.096	0.109
-231.786	-37.519	0.295	0.156
-230.771	-83.384	0.047	0.015
-229.757	159.706	0.181	-0.250
-228.742	300.536	0.124	-0.227
-227.727	150.063	-0.038	-0.051
-226.713	-200.000	-0.007	-0.139
-225.698	-200.000	0.026	0.126
-224.684	-200.000	0.002	-0.036
-223.669	98.053	-0.133	0.152
-222.655	-200.000	-0.057	0.337
-221.640	-48.076	-0.111	-0.053
-220.625	-18.595	-0.192	0.119
-219.611	344.149	-0.107	0.208
-218.596	-4.175	-0.263	0.181
-217.582	16.404	-0.319	-0.250
-216.567	-200.000	-0.018	0.141
-215.552	330.105	-0.063	0.120
-214.538	-200.000	-0.035	0.201
-213.523	175.675	0.083	0.120
-212.509	284.909	0.119	-0.212
-211.494	-120.487	-0.280	0.047
-210.479	-13.806	-0.281	-0.180
-209.465	39.583	-0.092	-0.082
-208.450	-52.311	-0.008	-0.004
-207.436	-16.335	0.180	-0.113
-206.421	282.785	-0.038	0.067
-205.406	800.000	0.024	-0.068
-204.392	253.803	0.118	0.200
-203.377	49.859	-0.284	-0.265
-202.363	800.000	-0.073	-0.221
-201.348	46.243	0.275	-0.252
-200.333	22.465	-0.082	0.067
-199.319	-121.777	-0.069	0.011
-198.304	-153.061	0.104	-0.007
-197.290	414.456	-0.186	-0.392
-196.275	-83.637	-0.355	0.112
-195.260	407.955	0.047	-0.099
-194.246	85.195	-0.232	-0.252
-193.231	-200.000	0.015	-0.134
-192.217	-200.000	0.001	-0.311
-191.202	-11.947	-0.335	0.217
-190.187	-133.878	0.432	-0.053
-189.173	500.927	-0.090	-0.205
-188.158	-125.825	-0.251	-0.037
-187.144	181.600	-0.337	0.491
-186.129	-59.651	-0.035	0.015
-185.114	-200.000	0.021	-0.248
-184.100	-92.102	-0.283	0.079
-183.085	800.000	-0.051	-0.193
-182.071	-88.151	-0.267	0.079
-181.056	-136.654	-0.166	-0.019
-180.042	800.000	-0.112	-0.381
-179.027	486.608	-0.097	0.220
-178.012	800.000	-0.034	-0.139
-176.998	458.102	-0.093	0.205
-175.983	-100.540	-0.241	-0.059
-174.969	-115.565	0.274	0.051
-173.954	105.332	0.121	0.141
-172.939	-93.126	0.313	-0.086
-171.925	-13.777	0.148	0.095
-170.910	-129.121	0.213	0.030
-169.896	79.705	-0.232	0.247
-168.881	125.472	0.093	0.116
-167.866	-177.559	0.166	-0.004
-166.852	368.791	0.024	-0.047
-165.837	121.703	0.234	0.289
-164.823	-200.000	-0.062	0.391
-163.808	3.533	-0.079	0.057
-162.793	-19.240	0.131	-0.081
-161.779	-9.925	-0.195	0.128
-160.764	-138.939	-0.229	0.025
-159.750	22.392	-0.296	-0.239
-158.735	152.693	0.330	-0.446
-157.720	158.574	-0.151	0.207
-156.706	264.026	-0.152	0.261
-155.691	800.000	-0.044	-0.146
-154.677	19.851	-0.052	0.042
-153.662	-200.000	0.064	0.381
-152.647	519.798	0.132	-0.306
-151.633	-116.020	-0.172	0.032
-150.618	199.007	0.044	0.067
-149.604	27.323	-0.405	-0.336
-148.589	-200.000	-0.027	-0.332
-147.574	-200.000	0.011	-0.056
-146.560	800.000	-0.078	0.290
-145.545	-97.093	-0.060	0.016
-144.531	-66.323	-0.235	0.092
-143.516	-73.575	-0.168	0.060
-142.502	377.525	0.196	0.395
-141.487	800.000	-0.075	-0.249
-140.472	800.000	-0.070	0.303
-139.458	-123.743	0.120	0.019
-138.443	665.346	-0.062	0.159
-137.429	-15.691	0.316	0.199
-136.414	190.514	-0.157	0.232
-135.399	-200.000	-0.021	0.165
-134.385	435.871	-0.074	-0.158
-133.370	800.000	-0.075	-0.267
-132.356	-79.151	-0.223	0.075
-131.341	-37.300	0.273	-0.144
-130.326	-49.213	0.037	-0.018
-129.312	-98.252	0.222	0.056
-128.297	-74.376	-0.222	0.079
-127.283	800.000	0.034	-0.134
-126.268	-131.614	0.382	-0.050
-125.253	262.956	0.020	-0.034
-124.239	-200.000	0.034	-0.413
-123.224	-92.520	-0.133	-0.037
-122.210	800.000	0.038	0.164
