DTS Sentinel unit serial number:	SN413079Multiplexer serial number:	ORYXHardware model number:	OX4-SRSoftware version number:	ORYX F/W v4.00 Oryx Data Collector v3.7.2.0data status	okinstallation	princeton_trtdifferential loss correction	single-endedforward channel	channel 4reverse channel	N/Adate	2019/09/15time	22:25:35forward acquisition time	60.00reverse acquisition time	0.00gamma	496.2192k internal	0.2320k external	0.2320temperature offset calibration	0.9951default loss term (dB/km)	0.3790temperature slope calibration	1.0000multiplexer offset coefficient	1.0000multiplexer slope coefficient	1.0000fibre end	0.00T internal ref (°C)	29.25T ext. ref 1 (°C)	8.73T ext. ref 2 (°C)	22.70length (m)	temperature (°C)	Stokes	anti-Stokes-747.200	674.391	0.098	0.257
-746.185	-54.529	-0.483	0.221
-745.171	-178.450	-0.322	0.008
-744.156	630.859	-0.094	0.241
-743.142	-76.554	0.298	-0.106
-742.127	61.186	0.044	0.044
-741.112	-200.000	0.028	0.288
-740.098	74.533	-0.194	0.206
-739.083	218.155	0.062	0.100
-738.069	-87.202	0.212	-0.065
-737.054	-6.083	0.075	0.052
-736.039	100.752	0.151	-0.177
-735.025	207.821	0.188	0.298
-734.010	385.091	0.067	-0.141
-732.996	-88.406	0.021	-0.006
-731.981	-200.000	0.028	-0.151
-730.966	38.740	-0.386	-0.348
-729.952	-200.000	-0.002	0.114
-728.937	-22.708	0.051	0.031
-727.923	-34.013	0.022	-0.013
-726.908	518.358	0.048	-0.114
-725.894	-63.278	-0.333	-0.139
-724.879	40.241	0.207	-0.189
-723.864	-13.485	-0.113	0.074
-722.850	-154.889	0.096	-0.006
-721.835	-200.000	0.034	-0.318
-720.821	-200.000	-0.019	-0.124
-719.806	-87.524	-0.161	0.049
-718.791	441.462	0.095	-0.211
-717.777	243.851	0.203	0.344
-716.762	800.000	-0.077	0.302
-715.748	11.873	0.382	-0.297
-714.733	42.700	0.128	-0.118
-713.718	430.069	-0.088	-0.191
-712.704	-118.184	0.215	0.039
-711.689	-79.949	0.254	-0.086
-710.675	225.272	0.031	0.050
-709.660	-51.221	0.132	0.062
-708.645	103.869	0.293	0.348
-707.631	25.973	-0.171	0.144
-706.616	-200.000	0.000	-0.049
-705.602	4.545	-0.055	0.041
-704.587	-133.348	0.089	-0.011
-703.572	341.485	-0.126	-0.249
-702.558	99.765	-0.193	-0.225
-701.543	800.000	-0.120	-0.356
-700.529	-200.000	-0.020	-0.135
-699.514	-112.767	0.151	0.030
-698.499	800.000	0.039	-0.127
-697.485	267.065	-0.205	-0.362
-696.470	-200.000	0.031	0.139
-695.456	-16.495	-0.077	0.049
-694.441	-176.735	0.428	-0.011
-693.426	312.838	-0.109	0.206
-692.412	128.196	0.081	0.104
-691.397	4.477	0.101	-0.075
-690.383	-136.769	0.365	0.042
-689.368	-200.000	-0.020	0.213
-688.354	200.177	0.149	-0.231
-687.339	-53.668	-0.414	-0.191
-686.324	257.559	-0.225	-0.390
-685.310	95.861	-0.137	0.158
-684.295	379.292	-0.058	-0.120
-683.281	48.573	-0.138	0.130
-682.266	-96.960	0.181	0.048
-681.251	-200.000	0.004	-0.066
-680.237	-76.628	0.077	-0.027
-679.222	-42.693	-0.288	0.148
-678.208	-12.726	-0.063	-0.042
-677.193	85.913	0.237	-0.263
-676.178	-200.000	-0.005	0.058
-675.164	-197.072	0.279	-0.002
-674.149	776.186	0.035	-0.097
-673.135	-120.779	-0.240	0.041
-672.120	-26.172	-0.266	0.158
-671.105	41.159	-0.284	0.258
-670.091	-200.000	-0.100	0.592
-669.076	36.708	-0.019	-0.017
-668.062	800.000	-0.025	-0.071
-667.047	-200.000	0.020	-0.114
-666.032	-39.257	0.155	0.082
-665.018	43.294	0.091	0.084
-664.003	117.528	0.117	-0.145
-662.989	591.292	0.042	0.105
-661.974	-70.291	0.161	0.062
-660.959	298.420	-0.098	0.181
-659.945	-19.793	0.207	0.129
-658.930	800.000	-0.083	-0.312
-657.916	-200.000	0.006	-0.312
-656.901	800.000	0.076	-0.229
-655.886	800.000	0.121	-0.485
-654.872	176.707	0.075	-0.110
-653.857	367.275	-0.069	-0.140
-652.843	22.516	-0.147	-0.121
-651.828	-46.032	0.080	0.040
-650.814	-48.078	-0.147	0.071
-649.799	141.980	-0.040	-0.053
-648.784	213.277	-0.211	-0.335
-647.770	-200.000	-0.022	0.111
-646.755	-50.396	-0.159	-0.076
-645.741	183.486	-0.050	-0.075
-644.726	-200.000	-0.040	-0.207
-643.711	-60.712	-0.282	-0.120
-642.697	-200.000	-0.036	-0.467
-641.682	800.000	0.070	-0.274
-640.668	419.662	-0.072	0.155
-639.653	-200.000	-0.028	-0.254
-638.638	-174.939	0.204	0.006
-637.624	130.452	0.017	-0.022
-636.609	-116.379	0.109	0.020
-635.595	800.000	-0.040	-0.122
-634.580	118.627	0.201	-0.249
-633.565	-83.374	-0.543	0.175
-632.551	-150.392	-0.097	0.008
-631.536	71.657	-0.098	0.102
-630.522	226.082	0.138	0.226
-629.507	17.026	-0.246	0.197
-628.492	234.790	-0.082	0.136
-627.478	-16.298	0.093	0.060
-626.463	-200.000	-0.018	-0.337
-625.449	138.942	0.153	-0.203
-624.434	48.093	0.300	-0.283
-623.419	-4.699	-0.153	-0.106
-622.405	413.761	0.097	-0.207
-621.390	249.985	0.128	0.219
-620.376	721.393	0.062	0.166
-619.361	-200.000	0.021	-0.129
-618.346	-200.000	0.050	-0.348
-617.332	800.000	0.033	-0.105
-616.317	-83.917	0.228	0.073
-615.303	261.140	0.096	-0.167
-614.288	-43.309	0.166	-0.085
-613.273	800.000	-0.118	-0.380
-612.259	-78.000	-0.112	-0.039
-611.244	-193.824	0.317	-0.003
-610.230	70.599	0.312	0.325
-609.215	-5.728	0.132	0.091
-608.201	379.449	-0.104	-0.214
-607.186	95.098	0.092	0.106
-606.171	-200.000	0.005	-0.455
-605.157	-75.711	0.026	0.009
-604.142	142.315	0.199	-0.266
-603.128	-42.957	-0.283	-0.145
-602.113	-158.425	-0.225	-0.013
-601.098	-200.000	-0.085	-0.423
-600.084	-200.000	0.040	-0.258
-599.069	-161.404	-0.251	0.013
-598.055	110.096	0.249	-0.300
-597.040	55.755	-0.242	0.236
-596.025	-200.000	-0.041	-0.210
-595.011	94.187	-0.146	-0.166
-593.996	47.350	-0.156	0.146
-592.982	75.442	0.187	-0.198
-591.967	800.000	0.035	0.129
-590.952	800.000	0.039	-0.137
-589.938	-200.000	-0.011	0.101
-588.923	388.777	0.165	0.343
-587.909	-20.965	-0.130	0.080
-586.894	-200.000	-0.031	-0.260
-585.879	800.000	-0.033	0.134
-584.865	-133.294	-0.083	0.011
-583.850	80.108	-0.175	0.189
-582.836	86.941	0.082	0.091
-581.821	64.435	-0.093	-0.094
-580.806	0.932	-0.043	-0.031
-579.792	384.226	0.021	0.043
-578.777	800.000	0.038	0.145
-577.763	-200.000	0.020	-0.127
-576.748	-126.369	0.341	-0.051
-575.733	110.468	-0.145	-0.175
-574.719	-198.012	0.127	-0.001
-573.704	113.693	0.105	0.128
-572.690	-59.735	0.442	0.190
-571.675	49.705	-0.140	0.133
-570.661	-45.740	0.236	-0.117
-569.646	20.842	-0.203	-0.166
-568.631	174.310	0.234	-0.340
-567.617	185.454	-0.154	-0.230
-566.602	-21.796	-0.340	0.208
-565.588	71.242	-0.137	0.142
-564.573	800.000	-0.055	-0.186
-563.558	81.835	0.154	0.167
-562.544	-127.414	-0.177	-0.026
-561.529	-98.477	0.379	0.097
-560.515	-20.487	0.178	0.110
-559.500	-200.000	0.006	-0.032
-558.485	26.905	-0.340	0.286
-557.471	109.328	0.253	-0.304
-556.456	72.811	0.191	-0.200
-555.442	567.953	0.115	-0.281
-554.427	-75.063	0.267	0.096
-553.412	-200.000	0.023	-0.135
-552.398	24.584	0.162	-0.134
-551.383	-3.755	-0.171	-0.119
-550.369	-26.546	-0.233	0.137
-549.354	-91.394	-0.112	0.032
-548.339	800.000	0.077	0.215
-547.325	-200.000	-0.044	0.475
-546.310	343.628	-0.187	-0.367
-545.296	-102.215	-0.483	-0.116
-544.281	-121.152	-0.336	0.056
-543.266	46.727	0.086	-0.080
-542.252	20.515	0.266	0.216
-541.237	-81.585	0.173	-0.057
-540.223	41.497	0.211	0.191
-539.208	3.920	0.228	0.167
-538.193	-3.209	-0.077	0.054
-537.179	321.593	0.030	-0.058
-536.164	578.071	-0.088	0.215
-535.150	158.142	0.176	0.245
-534.135	-141.481	-0.138	-0.014
-533.121	5.463	0.223	0.165
-532.106	-115.753	0.163	0.031
-531.091	800.000	0.051	-0.219
-530.077	190.244	0.074	-0.112
-529.062	615.353	0.116	0.291
-528.048	800.000	0.014	-0.040
-527.033	-200.000	0.019	-0.139
-526.018	720.567	0.104	0.278
-525.004	800.000	-0.008	-0.032
-523.989	227.486	-0.067	-0.110
-522.975	-32.188	0.016	-0.009
-521.960	800.000	-0.070	-0.218
-520.945	-34.211	0.044	-0.024
-519.931	-196.653	0.286	0.002
-518.916	35.847	-0.210	-0.185
-517.902	-200.000	-0.022	0.149
-516.887	-52.992	-0.332	0.153
-515.872	11.333	0.257	-0.197
-514.858	-2.172	-0.308	-0.217
-513.843	182.026	-0.191	-0.282
-512.829	255.470	-0.145	0.249
-511.814	800.000	-0.096	-0.319
-510.799	-200.000	0.204	0.000
-509.785	180.657	0.175	-0.257
-508.770	412.871	-0.091	0.194
-507.756	-120.149	0.137	0.023
-506.741	-132.201	-0.178	0.023
-505.726	228.803	0.275	0.449
-504.712	-13.291	0.188	-0.122
-503.697	-200.000	-0.030	-0.277
-502.683	800.000	-0.027	-0.091
-501.668	-200.000	-0.006	0.066
-500.653	274.867	-0.176	-0.312
-499.639	47.395	-0.293	0.273
-498.624	262.078	0.262	-0.456
-497.610	-153.149	0.277	0.019
-496.595	382.040	0.075	-0.155
-495.581	662.982	-0.136	0.351
-494.566	491.516	-0.051	0.116
-493.551	96.895	-0.209	-0.239
-492.537	-126.706	-0.182	-0.027
-491.522	26.611	0.332	0.279
-490.508	-26.798	-0.205	0.120
-489.493	800.000	0.058	-0.227
-488.478	-152.871	0.269	-0.019
-487.464	-161.389	-0.152	0.008
-486.449	-148.896	-0.234	-0.019
-485.435	-136.725	0.105	0.012
-484.420	90.663	-0.128	-0.144
-483.405	65.184	-0.195	-0.198
-482.391	26.214	0.040	0.033
-481.376	-50.073	0.157	0.075
-480.362	-136.784	0.285	-0.033
-479.347	-38.361	-0.187	0.099
-478.332	-200.000	0.015	0.158
-477.318	-54.334	0.291	-0.132
-476.303	276.299	-0.072	0.128
-475.289	278.963	-0.083	0.148
-474.274	-159.395	0.086	-0.005
-473.259	5.128	-0.277	-0.204
-472.245	27.688	-0.132	0.111
-471.230	365.166	0.103	-0.207
-470.216	-200.000	0.088	0.590
-469.201	-200.000	-0.026	0.438
-468.186	113.968	0.093	0.114
-467.172	694.240	-0.087	0.229
-466.157	-86.516	0.200	-0.062
-465.143	800.000	0.061	-0.187
-464.128	-34.562	-0.267	-0.146
-463.113	480.870	-0.068	-0.154
-462.099	-120.308	0.290	-0.049
-461.084	-156.396	-0.492	-0.031
-460.070	29.102	-0.109	0.093
-459.055	143.653	-0.187	-0.249
-458.040	-77.055	0.188	0.065
-457.026	135.419	0.131	-0.170
-456.011	351.872	-0.070	0.140
-454.997	-98.391	0.073	-0.019
-453.982	56.796	0.111	0.108
-452.968	-148.449	-0.337	0.028
-451.953	230.652	-0.072	-0.118
-450.938	-200.000	-0.021	0.153
-449.924	313.956	-0.084	0.158
-448.909	-60.099	0.124	0.053
-447.895	-200.000	0.011	-0.062
-446.880	340.460	-0.082	0.160
-445.865	-91.312	-0.333	0.095
-444.851	-75.703	0.100	0.035
-443.836	-200.000	-0.012	0.204
-442.822	800.000	0.026	0.112
-441.807	54.065	-0.151	0.145
-440.792	-106.932	-0.276	0.061
-439.778	-94.410	-0.400	-0.109
-438.763	-121.029	0.163	0.027
-437.749	132.041	-0.109	-0.140
-436.734	-200.000	-0.015	0.414
-435.719	-65.119	-0.127	0.051
-434.705	55.646	0.325	0.315
-433.690	-200.000	-0.016	0.233
-432.676	106.761	-0.113	-0.134
-431.661	33.564	0.192	-0.166
-430.646	-106.431	-0.279	0.062
-429.632	-200.000	0.020	-0.293
-428.617	233.595	-0.089	0.146
-427.603	-8.866	0.243	0.163
-426.588	800.000	0.073	-0.238
-425.573	-22.507	0.135	-0.082
-424.559	-200.000	-0.047	-0.214
-423.544	800.000	0.055	-0.237
-422.530	3.363	-0.080	0.058
-421.515	108.847	-0.221	-0.263
-420.500	-200.000	0.033	-0.198
-419.486	-200.000	0.090	-0.432
-418.471	-120.962	-0.357	-0.060
-417.457	-200.000	-0.010	0.298
-416.442	-116.869	-0.081	-0.015
-415.428	6.238	0.026	-0.019
-414.413	36.409	-0.147	0.130
-413.398	493.199	0.066	0.151
-412.384	800.000	0.126	-0.362
-411.369	-75.292	0.078	-0.028
-410.355	-97.249	0.389	0.101
-409.340	-161.181	0.225	0.012
-408.325	-58.277	0.213	0.093
-407.311	-154.482	-0.152	-0.010
-406.296	800.000	0.055	0.177
-405.282	-200.000	0.034	-0.254
-404.267	-8.649	0.219	0.147
-403.252	-96.774	-0.320	-0.084
-402.238	666.243	0.002	0.004
-401.223	27.845	-0.084	0.070
-400.209	-95.627	-0.146	0.039
-399.194	-181.132	-0.267	0.005
-398.179	309.899	0.131	0.245
-397.165	375.270	0.050	-0.101
-396.150	-200.000	-0.016	-0.175
-395.136	-200.000	0.067	-0.310
-394.121	243.546	-0.036	-0.060
-393.106	-117.303	0.581	0.105
-392.092	-37.458	-0.362	-0.193
-391.077	-200.000	-0.014	0.067
-390.063	-39.220	0.438	-0.229
-389.048	332.648	-0.107	0.206
-388.033	183.869	-0.156	0.230
-387.019	5.464	-0.401	0.295
-386.004	-200.000	0.004	0.195
-384.990	6.924	-0.180	-0.134
-383.975	311.050	-0.074	0.137
-382.960	-8.120	-0.110	0.074
-381.946	363.927	0.190	0.380
-380.931	-200.000	-0.014	-0.254
-379.917	800.000	0.035	-0.106
-378.902	-37.049	-0.197	-0.105
-377.888	800.000	-0.090	-0.314
-376.873	159.665	-0.298	0.414
-375.858	60.968	0.276	-0.273
-374.844	-187.287	-0.244	-0.003
-373.829	800.000	0.056	0.177
-372.815	167.076	0.180	-0.255
-371.800	41.716	-0.207	-0.187
-370.785	-200.000	-0.009	0.058
-369.771	21.663	0.124	-0.100
-368.756	-200.000	0.008	0.229
-367.742	42.063	-0.231	-0.209
-366.727	446.549	0.070	-0.154
-365.712	141.826	0.066	0.087
-364.698	467.211	-0.056	0.126
-363.683	-52.450	-0.135	-0.062
-362.669	196.654	-0.049	-0.075
-361.654	6.435	-0.137	-0.102
-360.639	-152.590	0.282	-0.020
-359.625	-81.564	-0.224	0.073
-358.610	-200.000	0.002	-0.121
-357.596	-200.000	-0.018	0.081
-356.581	-59.568	-0.191	0.082
-355.566	560.348	-0.149	0.358
-354.552	161.499	-0.358	0.498
-353.537	-200.000	0.076	-0.434
-352.523	800.000	-0.059	0.202
-351.508	263.038	-0.092	0.160
-350.493	12.189	-0.313	0.240
-349.479	800.000	0.030	0.130
-348.464	-43.868	0.218	-0.109
-347.450	-67.807	0.181	0.070
-346.435	-200.000	0.004	0.066
-345.420	61.505	-0.205	-0.203
-344.406	216.583	0.154	-0.243
-343.391	43.267	-0.259	-0.235
-342.377	-86.641	-0.127	0.039
-341.362	-73.584	0.049	0.018
-340.348	509.625	0.043	0.100
-339.333	-80.261	-0.403	-0.134
-338.318	-200.000	0.064	-0.291
-337.304	800.000	-0.059	0.177
-336.289	559.654	-0.115	-0.276
-335.275	-128.923	-0.108	-0.015
-334.260	-200.000	0.077	0.357
-333.245	800.000	0.062	-0.180
-332.231	-63.520	0.129	0.053
-331.216	-148.651	0.050	-0.004
-330.202	-83.211	0.061	-0.020
-329.187	-200.000	0.081	-0.393
-328.172	-91.778	0.271	-0.077
-327.158	-200.000	-0.024	-0.157
-326.143	800.000	0.123	0.515
-325.129	-130.937	-0.186	0.025
-324.114	-172.704	-0.273	-0.008
-323.099	-13.587	0.142	0.091
-322.085	-55.465	0.298	0.133
-321.070	-200.000	0.028	0.138
-320.056	-80.840	-0.156	0.052
-319.041	94.111	-0.238	-0.268
-318.026	57.813	-0.122	-0.119
-317.012	-200.000	0.018	-0.096
-315.997	-92.643	0.140	-0.039
-314.983	-200.000	-0.023	-0.312
-313.968	-89.603	-0.057	0.017
-312.953	-9.846	0.253	0.167
-311.939	19.128	0.254	0.202
-310.924	107.687	0.066	-0.078
-309.910	-200.000	-0.009	-0.128
-308.895	-33.035	0.127	0.070
-307.880	-76.514	0.346	-0.121
-306.866	-168.272	-0.236	0.009
-305.851	554.796	0.118	0.283
-304.837	37.763	-0.110	0.097
-303.822	745.524	-0.080	-0.215
-302.807	189.677	-0.146	-0.217
-301.793	51.065	0.181	-0.171
-300.778	41.164	0.330	0.296
-299.764	-75.535	0.478	0.169
-298.749	-115.277	-0.198	0.037
-297.735	-200.000	0.047	0.217
-296.720	298.681	0.059	-0.107
-295.705	45.594	-0.063	0.058
-294.691	-100.912	-0.413	-0.101
-293.676	552.553	0.118	0.282
-292.662	-7.626	0.067	0.045
-291.647	-200.000	0.070	0.482
-290.632	-200.000	-0.025	-0.193
-289.618	241.414	-0.184	0.306
-288.603	-138.792	-0.195	-0.021
-287.589	250.305	-0.099	0.166
-286.574	-169.200	0.206	0.008
-285.559	21.496	-0.276	-0.223
-284.545	-200.000	0.005	0.299
-283.530	-49.319	0.003	0.001
-282.516	486.903	0.060	0.137
-281.501	-159.383	-0.236	-0.013
-280.486	800.000	-0.028	0.096
-279.472	53.598	-0.054	-0.052
-278.457	800.000	-0.026	0.082
-277.443	-121.048	0.375	0.062
-276.428	-22.891	0.256	-0.153
-275.413	30.732	0.298	0.254
-274.399	-112.885	0.126	-0.025
-273.384	-200.000	0.074	-0.000
-272.370	131.549	0.150	0.192
-271.355	243.496	-0.093	-0.155
-270.340	-159.774	-0.155	-0.008
-269.326	-104.715	0.238	0.054
-268.311	327.950	-0.064	-0.122
-267.297	-56.368	-0.210	-0.092
-266.282	210.971	0.142	0.222
-265.267	800.000	-0.081	0.241
-264.253	259.940	-0.142	0.244
-263.238	-200.000	-0.044	-0.217
-262.224	800.000	0.076	0.212
-261.209	-88.575	0.156	-0.046
-260.195	342.507	0.142	-0.277
-259.180	223.800	-0.033	0.053
-258.165	-90.454	-0.157	0.045
-257.151	181.632	0.083	0.122
-256.136	6.787	0.160	0.118
-255.122	-44.331	-0.345	0.172
-254.107	154.194	-0.193	-0.263
-253.092	44.026	-0.205	-0.186
-252.078	104.938	0.197	0.231
-251.063	88.294	-0.035	-0.038
-250.049	16.022	0.161	-0.126
-249.034	-200.000	0.055	-0.339
-248.019	202.096	0.080	-0.122
-247.005	302.796	-0.211	0.387
-245.990	-200.000	-0.014	0.074
-244.976	-51.421	0.214	0.099
-243.961	-109.460	-0.164	0.034
-242.946	-40.824	0.095	-0.049
-241.932	-186.499	-0.062	0.001
-240.917	75.173	0.186	-0.194
-239.903	-15.900	-0.223	-0.141
-238.888	159.447	0.126	0.173
-237.873	-200.000	0.016	0.193
-236.859	40.188	0.350	0.312
-235.844	43.804	0.237	0.215
-234.830	85.245	-0.074	-0.081
-233.815	-115.615	-0.469	0.087
-232.800	-122.240	-0.243	0.039
-231.786	284.417	-0.143	0.255
-230.771	185.704	0.138	0.204
-229.757	800.000	-0.035	0.106
-228.742	-161.453	0.102	-0.005
-227.727	-172.983	0.088	-0.003
-226.713	33.486	-0.168	-0.144
-225.698	59.848	0.299	0.292
-224.684	136.608	-0.055	0.072
-223.669	-125.766	0.101	0.015
-222.655	-58.748	-0.197	-0.084
-221.640	258.221	0.145	0.247
-220.625	100.041	0.078	-0.089
-219.611	-101.741	0.064	-0.015
-218.596	-200.000	-0.020	-0.307
-217.582	-52.139	-0.148	-0.068
-216.567	-200.000	-0.028	-0.147
-215.552	-200.000	0.010	0.165
-214.538	-28.240	0.121	0.069
-213.523	-143.406	0.317	-0.030
-212.509	-75.621	0.198	-0.070
-211.494	-82.131	-0.489	0.158
-210.479	19.916	0.176	0.140
-209.465	391.129	-0.146	-0.301
-208.450	800.000	0.031	-0.126
-207.436	187.715	-0.026	-0.038
-206.421	-162.040	-0.376	-0.019
-205.406	227.411	0.171	-0.275
-204.392	6.771	-0.223	0.164
-203.377	97.903	0.021	-0.024
-202.363	29.862	-0.091	0.077
-201.348	34.507	-0.040	0.035
-200.333	-104.406	-0.293	0.067
-199.319	37.146	-0.123	0.108
-198.304	30.273	-0.185	-0.157
-197.290	-69.565	0.447	-0.170
-196.275	-200.000	-0.011	-0.224
-195.260	-20.202	0.395	0.241
-194.246	144.387	-0.114	0.150
-193.231	800.000	0.034	-0.100
-192.217	-200.000	-0.017	0.230
-191.202	187.860	0.144	-0.213
-190.187	-37.157	-0.271	-0.144
-189.173	137.370	0.313	0.406
-188.158	800.000	-0.077	-0.279
-187.144	-96.476	0.180	-0.047
-186.129	-110.195	-0.101	0.021
-185.114	336.247	0.115	0.221
-184.100	-40.270	0.262	0.135
-183.085	-200.000	-0.002	0.310
-182.071	20.208	-0.169	0.135
-181.056	-200.000	-0.029	-0.235
-180.042	109.824	0.203	0.241
-179.027	172.372	-0.083	0.118
-178.012	492.826	0.113	0.255
-176.998	-117.340	0.219	-0.039
-175.983	-200.000	-0.037	-0.200
-174.969	-38.323	-0.211	0.110
-173.954	121.600	-0.194	0.239
-172.939	-200.000	-0.024	0.127
-171.925	-134.693	0.191	0.023
-170.910	-200.000	0.010	0.143
-169.896	-116.043	0.086	-0.016
-168.881	-177.583	0.388	0.009
-167.866	-13.687	0.206	0.132
-166.852	-200.000	0.026	0.229
-165.837	139.254	0.137	0.178
-164.823	-63.812	0.110	-0.045
-163.808	-200.000	0.013	0.065
-162.793	119.656	-0.240	-0.294
-161.779	-9.582	0.207	0.136
-160.764	-200.000	0.018	0.082
-159.750	546.139	0.056	-0.134
-158.735	439.647	-0.093	-0.200
-157.720	-99.136	-0.190	-0.047
-156.706	506.319	0.030	0.068
-155.691	34.235	0.172	0.148
-154.677	178.614	0.109	-0.158
-153.662	-200.000	-0.063	-0.306
-152.647	18.230	-0.057	-0.045
-151.633	193.115	0.196	-0.293
-150.618	-119.760	0.253	0.043
-149.604	-121.060	-0.156	0.026
-148.589	-27.699	0.053	0.030
-147.574	800.000	0.044	0.175
-146.560	264.954	-0.140	0.240
-145.545	-27.929	-0.049	-0.028
-144.531	247.950	-0.057	0.096
-143.516	-24.530	-0.238	-0.140
-142.502	472.983	0.116	-0.258
-141.487	113.618	-0.087	0.105
-140.472	127.510	-0.086	-0.107
-139.458	-109.688	-0.179	-0.037
-138.443	-75.288	-0.359	0.126
-137.429	-200.000	0.032	-0.146
-136.414	-170.107	-0.081	-0.003
-135.399	-133.094	-0.085	0.011
-134.385	67.551	0.191	-0.192
-133.370	-62.499	0.066	0.027
-132.356	34.614	-0.326	-0.281
-131.341	226.676	-0.135	-0.216
-130.326	-63.368	0.174	-0.071
-129.312	800.000	-0.020	-0.071
-128.297	-200.000	0.025	-0.210
-127.283	-13.391	0.138	0.088
-126.268	77.078	-0.114	-0.120
-125.253	171.068	0.141	0.200
-124.239	188.725	-0.227	-0.335
-123.224	800.000	0.059	-0.246
-122.210	800.000	0.102	-0.364
-121.195	800.000	-0.005	-0.021
-120.180	2.382	-0.112	-0.080
