DTS Sentinel unit serial number:	SN413079Multiplexer serial number:	ORYXHardware model number:	OX4-SRSoftware version number:	ORYX F/W v4.00 Oryx Data Collector v3.7.2.0data status	okinstallation	princeton_trtdifferential loss correction	single-endedforward channel	channel 4reverse channel	N/Adate	2019/09/14time	08:05:34forward acquisition time	60.00reverse acquisition time	0.00gamma	496.2192k internal	0.2318k external	0.2318temperature offset calibration	1.0134default loss term (dB/km)	0.3790temperature slope calibration	1.0000multiplexer offset coefficient	1.0000multiplexer slope coefficient	1.0000fibre end	0.00T internal ref (°C)	27.08T ext. ref 1 (°C)	3.55T ext. ref 2 (°C)	25.36length (m)	temperature (°C)	Stokes	anti-Stokes-747.200	2.461	0.099	0.072
-746.185	483.357	-0.136	0.314
-745.171	800.000	-0.033	0.104
-744.156	47.954	0.030	0.028
-743.142	-200.000	0.050	0.408
-742.127	800.000	0.077	0.240
-741.112	-8.150	0.238	0.163
-740.098	-82.240	-0.230	-0.076
-739.083	-15.499	-0.135	-0.087
-738.069	43.247	-0.175	-0.162
-737.054	800.000	-0.057	0.176
-736.039	-89.745	-0.547	0.162
-735.025	-126.424	0.093	0.014
-734.010	-12.888	-0.323	-0.213
-732.996	-200.000	-0.017	-0.077
-731.981	-63.699	-0.371	-0.154
-730.966	-115.833	0.102	-0.019
-729.952	-78.986	0.123	0.042
-728.937	50.223	-0.183	0.175
-727.923	-18.950	-0.153	-0.096
-726.908	595.124	-0.076	0.189
-725.894	-88.787	-0.100	-0.030
-724.879	-200.000	-0.005	0.100
-723.864	-64.125	-0.259	0.107
-722.850	-44.792	0.055	0.028
-721.835	800.000	0.043	-0.126
-720.821	-184.441	-0.129	0.002
-719.806	324.391	0.157	-0.303
-718.791	143.916	-0.145	-0.196
-717.777	-111.882	-0.182	-0.037
-716.762	130.720	-0.117	-0.151
-715.748	-68.988	-0.241	0.094
-714.733	-171.051	-0.353	-0.012
-713.718	-11.898	-0.233	0.154
-712.704	16.600	0.145	0.116
-711.689	-25.761	-0.135	-0.080
-710.675	122.469	0.142	0.179
-709.660	44.171	-0.163	0.151
-708.645	-14.835	-0.131	-0.085
-707.631	246.663	-0.178	-0.303
-706.616	800.000	0.102	-0.356
-705.602	800.000	-0.071	0.251
-704.587	800.000	0.015	-0.059
-703.572	-146.618	0.367	-0.032
-702.558	-55.540	-0.076	-0.034
-701.543	273.717	0.035	0.062
-700.529	-38.380	0.124	0.066
-699.514	-63.943	0.247	-0.102
-698.499	-200.000	-0.022	0.105
-697.485	-140.251	0.105	-0.011
-696.470	-200.000	-0.008	-0.231
-695.456	96.126	-0.081	-0.093
-694.441	641.913	0.106	-0.273
-693.426	-13.671	-0.027	-0.017
-692.412	800.000	-0.151	-0.444
-691.397	381.582	-0.049	0.101
-690.383	-120.713	-0.576	-0.098
-689.368	-31.861	0.064	-0.036
-688.354	-67.763	-0.137	0.054
-687.339	-22.957	-0.102	0.062
-686.324	7.296	0.092	-0.069
-685.310	-181.268	0.402	-0.008
-684.295	800.000	0.070	0.194
-683.281	-110.285	0.202	-0.042
-682.266	20.211	-0.315	-0.257
-681.251	217.095	0.083	-0.133
-680.237	723.382	-0.057	-0.153
-679.222	-158.836	-0.270	0.016
-678.208	209.952	-0.114	-0.181
-677.193	117.250	0.062	0.076
-676.178	-121.833	0.281	-0.047
-675.164	-108.361	0.139	0.030
-674.149	-164.136	0.088	-0.004
-673.135	618.739	0.053	0.134
-672.120	28.430	0.243	0.208
-671.105	-200.000	-0.396	-0.002
-670.091	121.879	-0.161	-0.203
-669.076	-200.000	-0.028	-0.365
-668.062	-176.024	0.063	0.002
-667.047	-200.000	0.009	0.045
-666.032	-79.224	-0.239	0.082
-665.018	-91.161	0.112	-0.032
-664.003	97.225	-0.189	-0.219
-662.989	692.563	0.027	-0.072
-661.974	81.210	-0.123	-0.134
-660.959	-79.381	0.195	0.067
-659.945	11.137	0.024	0.019
-658.930	174.281	0.070	-0.102
-657.916	99.362	-0.178	0.208
-656.901	-28.891	0.279	-0.162
-655.886	128.693	0.168	0.216
-654.872	-83.676	-0.358	0.115
-653.857	239.136	0.044	-0.073
-652.843	232.103	-0.057	-0.094
-651.828	212.677	-0.076	0.121
-650.814	10.694	-0.189	0.145
-649.799	-84.649	-0.134	-0.043
-648.784	331.024	-0.139	-0.270
-647.770	-142.985	-0.124	0.012
-646.755	-61.819	-0.178	-0.075
-645.741	-200.000	0.031	0.321
-644.726	156.226	-0.434	-0.604
-643.711	-200.000	-0.350	0.001
-642.697	-200.000	0.020	0.163
-641.682	174.424	0.100	-0.145
-640.668	-200.000	0.044	-0.283
-639.653	-101.956	0.133	-0.032
-638.638	75.230	0.133	-0.142
-637.624	510.319	-0.063	-0.147
-636.609	-106.649	0.106	0.024
-635.595	-48.113	0.035	-0.017
-634.580	-58.297	0.213	0.094
-633.565	308.362	0.104	0.196
-632.551	-200.000	0.002	-0.255
-631.536	-200.000	-0.048	0.259
-630.522	-86.580	0.014	-0.004
-629.507	-143.649	0.171	-0.016
-628.492	31.929	-0.086	-0.075
-627.478	182.487	-0.118	-0.176
-626.463	16.212	-0.266	-0.211
-625.449	359.228	-0.147	-0.296
-624.434	660.844	0.110	0.285
-623.419	39.996	-0.126	0.114
-622.405	-100.433	-0.140	0.035
-621.390	-2.079	0.149	0.105
-620.376	800.000	-0.150	-0.440
-619.361	-110.344	0.105	0.022
-618.346	800.000	-0.040	0.147
-617.332	-200.000	-0.050	0.378
-616.317	426.605	-0.084	-0.182
-615.303	-99.630	-0.257	0.065
-614.288	17.082	-0.065	-0.052
-613.273	61.152	0.157	0.157
-612.259	-69.451	0.079	0.031
-611.244	-23.994	-0.137	0.082
-610.230	140.838	-0.077	0.102
-609.215	-63.336	0.049	0.020
-608.201	-35.667	0.241	0.131
-607.186	781.157	0.118	-0.324
-606.171	-200.000	-0.011	-0.173
-605.157	107.864	0.089	-0.106
-604.142	-46.575	-0.178	0.088
-603.128	222.882	-0.069	-0.111
-602.113	-122.550	0.205	-0.034
-601.098	800.000	0.080	-0.294
-600.084	-47.843	0.218	0.106
-599.069	169.120	-0.054	-0.078
-598.055	-16.800	-0.146	-0.093
-597.040	-75.294	-0.076	-0.027
-596.025	277.577	-0.063	0.114
-595.011	426.027	-0.083	-0.179
-593.996	69.127	0.145	-0.150
-592.982	-200.000	-0.043	-0.231
-591.967	800.000	0.011	-0.044
-590.952	800.000	-0.030	-0.099
-589.938	800.000	-0.037	0.110
-588.923	-55.795	-0.282	-0.127
-587.909	-0.725	0.100	0.071
-586.894	-200.000	-0.007	0.105
-585.879	2.459	0.163	-0.119
-584.865	800.000	0.026	0.106
-583.850	-200.000	0.021	0.338
-582.836	106.520	0.151	0.180
-581.821	-66.796	-0.253	0.101
-580.806	-63.166	0.455	0.189
-579.792	296.311	0.126	0.233
-578.777	-139.815	0.258	-0.028
-577.763	-31.692	0.086	0.049
-576.748	-200.000	0.006	0.110
-575.733	287.485	0.077	0.140
-574.719	318.287	-0.047	0.090
-573.704	21.822	0.156	0.127
-572.690	-158.791	0.223	-0.013
-571.675	2.656	-0.305	-0.223
-570.661	205.958	-0.047	0.074
-569.646	538.441	-0.085	0.203
-568.631	-200.000	0.001	-0.159
-567.617	-200.000	-0.029	0.151
-566.602	0.725	0.362	0.261
-565.588	15.886	-0.115	0.091
-564.573	-184.706	0.024	-0.000
-563.558	-0.454	0.097	0.069
-562.544	119.388	-0.047	0.059
-561.529	800.000	-0.011	-0.043
-560.515	305.046	0.084	-0.156
-559.500	-30.418	-0.221	0.126
-558.485	310.486	-0.105	-0.198
-557.471	-55.557	-0.320	0.144
-556.456	28.538	-0.231	-0.196
-555.442	255.144	-0.048	-0.082
-554.427	700.660	-0.044	-0.117
-553.412	338.006	0.160	0.314
-552.398	-200.000	0.043	0.243
-551.383	-200.000	-0.011	-0.131
-550.369	75.438	0.089	-0.095
-549.354	25.866	0.073	0.061
-548.339	-138.329	-0.159	-0.018
-547.325	30.325	-0.104	-0.089
-546.310	-12.280	-0.113	0.074
-545.296	-155.388	-0.287	0.019
-544.281	0.351	-0.169	-0.121
-543.266	-152.247	0.198	-0.014
-542.252	62.367	-0.232	0.232
-541.237	259.080	-0.097	-0.168
-540.223	164.495	0.079	0.112
-539.208	-200.000	0.018	0.411
-538.193	-161.613	0.261	-0.013
-537.179	-200.000	0.020	0.216
-536.164	-58.563	-0.281	-0.122
-535.150	-132.241	0.167	-0.022
-534.135	554.856	0.008	-0.020
-533.121	74.291	0.102	-0.108
-532.106	281.440	-0.224	-0.403
-531.091	-77.063	-0.205	-0.072
-530.077	-83.749	0.238	-0.076
-529.062	800.000	0.080	-0.227
-528.048	800.000	-0.033	0.130
-527.033	-88.196	0.049	0.015
-526.018	-19.245	-0.189	0.118
-525.004	-9.748	0.098	-0.065
-523.989	-19.086	-0.316	0.197
-522.975	-35.711	0.326	-0.177
-521.960	303.541	0.110	0.205
-520.945	75.775	-0.127	0.135
-519.931	-36.072	0.136	0.074
-518.916	2.370	0.161	-0.117
-517.902	-30.211	0.144	-0.082
-516.887	210.164	0.103	0.163
-515.872	-200.000	0.023	-0.116
-514.858	370.622	-0.118	0.239
-513.843	9.730	-0.227	-0.173
-512.829	-173.005	0.080	0.002
-511.814	-119.533	-0.169	0.029
-510.799	-130.683	-0.138	0.019
-509.785	-17.263	-0.333	-0.210
-508.770	108.505	-0.172	0.206
-507.756	105.738	0.134	0.159
-506.741	-200.000	-0.055	-0.369
-505.726	-147.802	-0.213	0.018
-504.712	118.538	0.052	0.064
-503.697	298.553	-0.123	-0.227
-502.683	142.636	-0.043	-0.058
-501.668	-83.337	0.078	0.025
-500.653	-16.213	0.237	0.151
-499.639	-200.000	-0.002	0.370
-498.624	358.084	0.110	-0.221
-497.610	-200.000	-0.001	-0.231
-496.595	-167.818	-0.371	0.015
-495.581	25.920	0.047	-0.039
-494.566	-68.230	0.154	-0.060
-493.551	-200.000	0.033	-0.274
-492.537	38.835	0.121	0.108
-491.522	-53.577	0.239	0.109
-490.508	-0.819	0.220	0.156
-489.493	106.192	-0.155	0.184
-488.478	96.053	0.101	0.116
-487.464	-89.722	0.411	0.121
-486.449	-69.496	0.429	0.165
-485.435	-117.023	0.105	0.019
-484.420	-72.789	-0.169	0.062
-483.405	-200.000	-0.022	0.130
-482.391	-200.000	-0.010	0.084
-481.376	107.557	0.038	0.045
-480.362	800.000	-0.087	-0.320
-479.347	34.056	0.365	0.319
-478.332	85.232	0.209	-0.230
-477.318	195.182	-0.133	-0.203
-476.303	-200.000	0.024	-0.238
-475.289	800.000	0.053	-0.225
-474.274	128.280	-0.095	0.121
-473.259	-97.415	0.256	0.067
-472.245	50.539	-0.240	0.227
-471.230	70.805	0.307	0.318
-470.216	-200.000	-0.028	-0.168
-469.201	-12.428	0.210	0.137
-468.186	99.506	0.136	-0.158
-467.172	-83.969	0.150	0.048
-466.157	-200.000	-0.018	0.121
-465.143	625.637	0.035	-0.087
-464.128	-47.055	-0.309	-0.151
-463.113	573.302	0.015	0.036
-462.099	39.036	0.328	-0.293
-461.084	800.000	0.058	-0.184
-460.070	17.273	0.098	-0.078
-459.055	-61.544	-0.151	-0.063
-458.040	71.151	-0.144	0.150
-457.026	-200.000	-0.008	0.350
-456.011	-176.318	0.075	-0.002
-454.997	800.000	-0.070	0.238
-453.982	77.054	-0.205	-0.218
-452.968	-28.747	0.207	-0.119
-451.953	-200.000	0.039	0.200
-450.938	-54.421	-0.185	-0.084
-449.924	276.149	0.190	0.337
-448.909	558.028	0.127	0.307
-447.895	800.000	-0.013	-0.050
-446.880	-44.693	0.096	0.048
-445.865	33.416	-0.244	-0.212
-444.851	177.153	0.077	0.112
-443.836	-14.525	0.156	-0.101
-442.822	-200.000	0.065	-0.345
-441.807	66.388	-0.082	-0.083
-440.792	93.705	-0.134	0.151
-439.778	-58.871	-0.126	0.054
-438.763	184.501	0.152	0.225
-437.749	-7.157	-0.114	0.078
-436.734	800.000	0.057	0.216
-435.719	-200.000	0.013	-0.147
-434.705	-144.759	0.094	0.009
-433.690	31.847	-0.074	0.064
-432.676	768.298	0.055	0.149
-431.661	23.729	0.148	0.122
-430.646	-23.218	0.412	-0.248
-429.632	60.722	0.251	-0.249
-428.617	-38.534	-0.461	0.244
-427.603	-200.000	-0.001	0.142
-426.588	-4.249	0.266	0.184
-425.573	-27.565	0.271	-0.157
-424.559	6.190	0.155	-0.115
-423.544	-95.185	-0.658	0.177
-422.530	583.668	0.108	-0.264
-421.515	755.713	-0.095	0.258
-420.500	296.734	0.154	0.282
-419.486	148.547	-0.116	-0.157
-418.471	800.000	0.050	-0.146
-417.457	270.523	-0.157	0.277
-416.442	186.118	-0.233	-0.347
-415.428	-200.000	0.032	-0.269
-414.413	800.000	0.060	-0.220
-413.398	800.000	0.015	0.053
-412.384	-41.055	0.098	0.051
-411.369	-84.522	0.380	-0.120
-410.355	-16.116	-0.143	-0.091
-409.340	-111.098	0.325	0.067
-408.325	-59.833	0.092	-0.039
-407.311	276.119	0.083	0.148
-406.296	-60.444	0.125	0.053
-405.282	137.125	-0.114	-0.149
-404.267	173.375	0.127	0.183
-403.252	193.124	0.112	0.170
-402.238	18.318	0.262	-0.209
-401.223	-106.011	-0.194	-0.044
-400.209	128.943	-0.170	0.217
-399.194	720.534	0.031	-0.083
-398.179	-200.000	-0.058	-0.444
-397.165	-22.263	-0.171	0.103
-396.150	-200.000	-0.053	0.363
-395.136	-14.709	0.185	0.118
-394.121	-200.000	0.007	0.196
-393.106	58.478	-0.232	-0.227
-392.092	261.880	0.148	0.256
-391.077	-26.912	-0.375	0.218
-390.063	800.000	-0.077	-0.286
-389.048	336.422	0.158	0.306
-388.033	-106.545	-0.050	-0.011
-387.019	-73.029	-0.306	-0.112
-386.004	79.801	-0.231	0.247
-384.990	-101.349	0.241	-0.059
-383.975	3.034	-0.155	-0.112
-382.960	-59.678	0.112	0.048
-381.946	-70.931	0.057	0.021
-380.931	246.542	0.171	-0.288
-379.917	135.111	0.156	-0.202
-378.902	511.487	0.062	-0.144
-377.888	-200.000	-0.016	0.075
-376.873	220.558	-0.147	0.235
-375.858	800.000	0.028	0.120
-374.844	-4.375	-0.213	0.147
-373.829	-146.987	-0.115	0.010
-372.815	-200.000	-0.006	0.219
-371.800	-200.000	0.007	-0.223
-370.785	165.423	-0.158	-0.223
-369.771	81.822	-0.158	0.170
-368.756	800.000	0.097	-0.271
-367.742	-200.000	0.015	0.204
-366.727	-22.547	0.222	0.134
-365.712	92.876	0.148	0.167
-364.698	-121.653	-0.342	-0.057
-363.683	-11.380	-0.052	0.034
-362.669	62.453	-0.144	-0.144
-361.654	22.952	0.113	0.092
-360.639	218.154	-0.056	-0.089
-359.625	-71.437	-0.318	0.119
-358.610	18.208	0.168	0.134
-357.596	-200.000	0.075	-0.433
-356.581	451.745	0.135	-0.298
-355.566	18.396	-0.038	-0.030
-354.552	120.799	-0.177	-0.220
-353.537	-163.163	-0.314	-0.015
-352.523	104.185	0.069	0.081
-351.508	800.000	-0.104	0.366
-350.493	457.816	-0.045	0.100
-349.479	800.000	-0.132	-0.362
-348.464	16.281	-0.257	0.202
-347.450	800.000	0.073	-0.286
-346.435	800.000	0.041	0.150
-345.420	53.407	-0.145	-0.139
-344.406	-123.837	0.189	-0.030
-343.391	-65.777	0.105	0.042
-342.377	-200.000	-0.008	0.188
-341.362	-86.506	-0.187	0.057
-340.348	214.411	0.054	-0.085
-339.333	800.000	-0.052	-0.208
-338.318	-134.586	-0.084	0.010
-337.304	-44.698	-0.221	-0.110
-336.289	12.249	0.151	0.116
-335.275	26.036	-0.385	-0.320
-334.260	-113.939	-0.134	-0.026
-333.245	-66.494	0.274	-0.108
-332.231	-200.000	-0.014	0.318
-331.216	3.563	0.330	-0.240
-330.202	8.117	0.290	0.217
-329.187	51.355	-0.327	0.309
-328.172	-103.657	0.529	0.123
-327.158	-128.778	0.157	-0.022
-326.143	800.000	0.022	-0.089
-325.129	-108.764	-0.221	0.047
-324.114	800.000	0.013	0.040
-323.099	-78.670	0.100	0.034
-322.085	254.822	0.013	0.022
-321.070	-138.174	-0.356	0.039
-320.056	105.386	-0.126	0.148
-319.041	244.538	0.198	-0.332
-318.026	36.525	-0.315	0.277
-317.012	383.707	0.103	-0.210
-315.997	-144.460	0.105	-0.010
-314.983	-200.000	0.008	-0.061
-313.968	-52.777	-0.123	0.057
-312.953	-92.866	0.247	0.069
-311.939	-200.000	0.004	0.094
-310.924	68.695	-0.297	-0.304
-309.910	171.997	0.267	-0.382
-308.895	-200.000	0.007	-0.148
-307.880	-65.707	-0.138	-0.055
-306.866	800.000	-0.063	0.199
-305.851	-78.751	-0.324	0.110
-304.837	35.746	0.125	-0.109
-303.822	800.000	0.073	-0.308
-302.807	-147.967	0.189	-0.016
-301.793	-67.516	-0.274	-0.107
-300.778	5.298	0.265	-0.194
-299.764	113.765	0.047	0.057
-298.749	-167.802	0.156	0.006
-297.735	-106.862	-0.422	0.093
-296.720	3.103	-0.227	-0.164
-295.705	-200.000	0.002	-0.046
-294.691	238.235	-0.213	0.352
-293.676	362.011	0.074	0.147
-292.662	-118.130	0.259	0.046
-291.647	-133.931	-0.290	-0.036
-290.632	-200.000	0.024	0.113
-289.618	18.167	0.313	0.248
-288.603	15.467	-0.101	0.079
-287.589	-157.417	0.030	-0.002
-286.574	145.675	0.075	-0.099
-285.559	-200.000	0.016	0.191
-284.545	-153.201	-0.021	-0.001
-283.530	29.357	-0.239	-0.202
-282.516	171.322	-0.207	-0.296
-281.501	666.502	-0.177	-0.453
-280.486	10.805	0.212	-0.161
-279.472	122.480	0.083	0.103
-278.457	-200.000	-0.021	0.104
-277.443	-200.000	-0.027	0.197
-276.428	23.823	-0.328	-0.269
-275.413	-46.240	-0.111	-0.054
-274.399	-124.511	0.414	-0.064
-273.384	170.077	-0.034	-0.049
-272.370	415.203	-0.142	0.301
-271.355	-45.837	0.292	0.143
-270.340	77.427	0.145	0.154
-269.326	465.517	-0.041	-0.091
-268.311	343.932	-0.143	0.279
-267.297	-154.969	0.118	-0.008
-266.282	257.192	0.162	-0.276
-265.267	38.482	-0.060	0.053
-264.253	143.236	-0.114	-0.151
-263.238	-27.920	-0.148	0.085
-262.224	59.206	-0.061	0.059
-261.209	71.555	-0.055	0.056
-260.195	-32.491	-0.208	0.115
-259.180	236.258	-0.280	-0.460
-258.165	-151.990	-0.465	0.034
-257.151	-54.596	-0.349	-0.157
-256.136	800.000	0.110	0.391
-255.122	-200.000	0.194	-0.000
-254.107	-200.000	0.010	0.185
-253.092	78.554	-0.082	-0.087
-252.078	-70.624	0.168	-0.063
-251.063	-90.496	-0.301	-0.087
-250.049	685.551	-0.076	0.197
-249.034	22.990	-0.332	0.270
-248.019	-200.000	-0.010	-0.261
-247.005	13.467	0.361	-0.278
-245.990	800.000	0.049	-0.188
-244.976	518.550	0.068	-0.157
-243.961	-83.966	0.199	0.063
-242.946	-59.429	-0.146	0.062
-241.932	21.493	0.161	0.130
-240.917	33.392	0.128	0.111
-239.903	-148.907	0.046	-0.004
-238.888	-82.981	0.313	-0.100
-237.873	84.604	0.139	0.151
-236.859	-14.304	0.176	-0.113
-235.844	-30.646	0.192	0.108
-234.830	165.750	0.161	-0.226
-233.815	452.381	0.083	0.182
-232.800	-200.000	-0.063	-0.319
-231.786	284.749	-0.155	0.278
-230.771	-100.073	0.142	-0.035
-229.757	206.090	0.122	-0.188
-228.742	-98.343	-0.087	0.022
-227.727	-200.000	0.044	-0.214
-226.713	-200.000	-0.034	0.265
-225.698	-95.002	0.141	0.038
-224.684	-135.549	-0.240	0.028
-223.669	129.095	-0.089	-0.113
-222.655	-113.110	-0.299	-0.058
-221.640	127.472	0.104	0.130
-220.625	-200.000	0.020	0.131
-219.611	132.747	-0.239	0.306
-218.596	-200.000	-0.084	0.000
-217.582	-13.498	0.135	0.087
-216.567	92.839	-0.050	-0.055
-215.552	50.840	-0.109	-0.102
-214.538	-3.383	0.320	-0.221
-213.523	800.000	0.051	-0.167
-212.509	-153.983	-0.046	0.003
-211.494	-200.000	-0.018	-0.182
-210.479	-28.022	0.102	-0.059
-209.465	-163.849	-0.283	0.013
-208.450	-57.422	0.306	0.133
-207.436	140.355	-0.187	-0.245
-206.421	-200.000	0.024	-0.130
-205.406	-71.478	-0.380	-0.141
-204.392	-200.000	0.281	-0.000
-203.377	-48.979	-0.194	0.092
-202.363	800.000	0.057	-0.213
-201.348	754.509	0.100	-0.269
-200.333	185.189	0.158	0.233
-199.319	-200.000	0.025	0.376
-198.304	800.000	0.036	0.150
-197.290	-200.000	-0.080	-0.485
-196.275	-167.329	0.120	-0.005
-195.260	-0.302	0.256	0.180
-194.246	-200.000	0.024	-0.409
-193.231	-200.000	-0.027	-0.141
-192.217	88.151	-0.091	0.100
-191.202	-145.256	-0.224	0.020
-190.187	-0.864	0.407	0.286
-189.173	374.382	-0.148	0.299
-188.158	-200.000	-0.026	0.173
-187.144	35.292	-0.186	-0.161
-186.129	-40.509	-0.166	0.085
-185.114	-47.546	0.141	-0.068
-184.100	101.263	0.065	-0.075
-183.085	762.064	0.141	-0.378
-182.071	-116.819	-0.087	-0.016
-181.056	800.000	0.041	0.170
-180.042	-200.000	0.034	-0.217
-179.027	-200.000	0.006	0.168
-178.012	265.710	-0.059	-0.102
-176.998	749.577	-0.084	0.225
-175.983	-200.000	-0.008	0.062
-174.969	-15.134	0.263	-0.166
-173.954	-200.000	-0.046	0.431
-172.939	-148.982	-0.228	-0.018
-171.925	103.743	0.195	-0.227
-170.910	136.634	0.084	-0.109
-169.896	78.114	0.213	0.225
-168.881	106.600	-0.077	0.090
-167.866	9.137	-0.219	-0.164
-166.852	-89.548	0.138	0.040
-165.837	468.018	-0.123	0.273
-164.823	-3.916	0.058	-0.040
-163.808	-125.296	0.127	-0.019
-162.793	-7.292	-0.092	-0.061
-161.779	50.842	-0.098	0.091
-160.764	498.542	0.053	0.122
-159.750	264.587	0.041	0.071
-158.735	5.575	-0.134	0.098
-157.720	-127.579	0.374	0.054
-156.706	335.514	-0.102	0.195
-155.691	-75.723	0.303	-0.106
-154.677	-140.109	0.133	-0.014
-153.662	-200.000	0.011	0.131
-152.647	-51.930	-0.121	0.056
-151.633	-72.834	0.139	-0.051
-150.618	-200.000	-0.027	0.291
-149.604	-97.889	-0.286	0.073
-148.589	800.000	-0.078	-0.260
-147.574	558.991	-0.208	-0.495
-146.560	800.000	0.028	-0.112
-145.545	-135.055	-0.382	-0.046
-144.531	-148.414	-0.072	0.006
-143.516	37.102	-0.125	-0.109
-142.502	-157.312	-0.205	-0.012
-141.487	658.599	-0.080	-0.204
-140.472	-11.511	0.162	0.105
-139.458	-142.177	-0.024	-0.002
-138.443	133.003	-0.109	-0.139
-137.429	158.430	0.090	-0.124
-136.414	-41.676	0.189	0.096
-135.399	-152.502	0.167	0.012
-134.385	151.027	0.107	0.144
-133.370	-0.257	0.269	-0.189
-132.356	522.402	-0.149	-0.345
-131.341	574.985	-0.059	-0.141
-130.326	476.663	0.042	-0.095
-129.312	-59.787	0.193	-0.082
-128.297	-146.878	0.316	0.027
-127.283	236.381	0.082	0.134
-126.268	-35.210	0.095	0.051
-125.253	92.988	-0.077	-0.085
-124.239	199.241	0.246	-0.372
-123.224	542.134	-0.092	-0.217
-122.210	-101.800	0.258	0.062
-121.195	139.136	0.122	0.159
-120.180	-54.197	-0.181	-0.081
