DTS Sentinel unit serial number:	SN413079Multiplexer serial number:	ORYXHardware model number:	OX4-SRSoftware version number:	ORYX F/W v4.00 Oryx Data Collector v3.7.2.0data status	okinstallation	princeton_trtdifferential loss correction	single-endedforward channel	channel 4reverse channel	N/Adate	2019/09/16time	11:21:35forward acquisition time	60.00reverse acquisition time	0.00gamma	496.2192k internal	0.2297k external	0.2297temperature offset calibration	0.9954default loss term (dB/km)	0.3790temperature slope calibration	1.0000multiplexer offset coefficient	1.0000multiplexer slope coefficient	1.0000fibre end	0.00T internal ref (°C)	37.31T ext. ref 1 (°C)	12.90T ext. ref 2 (°C)	34.22length (m)	temperature (°C)	Stokes	anti-Stokes-747.200	-200.000	-0.015	0.114
-746.185	70.727	-0.108	0.114
-745.171	-200.000	0.017	0.136
-744.156	95.408	-0.255	0.297
-743.142	-200.000	0.073	0.337
-742.127	-38.692	-0.162	0.087
-741.112	-200.000	0.041	0.182
-740.098	-102.411	0.150	0.037
-739.083	-200.000	-0.045	-0.350
-738.069	337.161	0.108	0.214
-737.054	-200.000	-0.012	-0.226
-736.039	-200.000	0.074	0.352
-735.025	-6.403	0.424	0.295
-734.010	-71.044	-0.293	-0.113
-732.996	320.289	-0.069	0.133
-731.981	499.255	0.063	0.148
-730.966	-200.000	-0.007	-0.151
-729.952	-200.000	-0.025	-0.135
-728.937	-41.896	0.266	0.139
-727.923	800.000	-0.104	0.389
-726.908	-67.456	-0.081	0.032
-725.894	1.141	0.030	-0.022
-724.879	-200.000	0.074	0.000
-723.864	55.107	0.132	-0.131
-722.850	-200.000	-0.017	-0.211
-721.835	136.125	0.043	-0.057
-720.821	-24.436	-0.138	-0.084
-719.806	-7.844	-0.252	0.174
-718.791	-200.000	-0.008	-0.108
-717.777	15.337	0.116	-0.093
-716.762	4.110	0.115	-0.086
-715.748	183.380	0.244	-0.368
-714.733	345.329	0.102	-0.204
-713.718	-68.374	-0.181	-0.072
-712.704	-200.000	-0.015	0.118
-711.689	-132.359	-0.423	0.056
-710.675	356.932	0.056	-0.114
-709.660	74.354	0.089	0.096
-708.645	-200.000	0.006	0.341
-707.631	-200.000	0.043	-0.281
-706.616	-125.752	-0.088	-0.014
-705.602	58.022	-0.061	0.061
-704.587	745.207	-0.005	0.014
-703.572	-200.000	0.057	0.282
-702.558	-79.367	-0.236	0.082
-701.543	50.440	0.315	-0.303
-700.529	-39.367	0.219	0.117
-699.514	-200.000	0.036	0.359
-698.499	282.562	0.112	0.204
-697.485	182.776	-0.185	-0.279
-696.470	-88.075	-0.118	0.036
-695.456	235.254	-0.315	0.531
-694.441	-117.480	0.198	0.036
-693.426	-200.000	-0.004	0.034
-692.412	-6.657	-0.381	-0.264
-691.397	85.185	-0.091	0.102
-690.383	-49.549	-0.155	0.075
-689.368	190.051	-0.094	-0.143
-688.354	-200.000	-0.003	0.119
-687.339	74.454	-0.290	-0.310
-686.324	-200.000	0.040	0.204
-685.310	800.000	0.094	-0.357
-684.295	-200.000	-0.031	-0.208
-683.281	-15.860	0.360	-0.233
-682.266	326.636	-0.157	-0.307
-681.251	-200.000	-0.065	-0.298
-680.237	800.000	0.035	0.121
-679.222	71.127	0.148	0.157
-678.208	-61.710	0.291	0.124
-677.193	522.524	0.135	-0.324
-676.178	-200.000	0.030	-0.511
-675.164	800.000	0.067	-0.265
-674.149	-200.000	-0.033	0.183
-673.135	-109.197	0.157	-0.034
-672.120	800.000	0.059	-0.210
-671.105	-186.128	-0.227	0.003
-670.091	-0.164	-0.138	-0.100
-669.076	-117.660	-0.108	-0.020
-668.062	-17.037	0.184	-0.118
-667.047	135.454	-0.277	-0.367
-666.032	13.491	0.090	-0.071
-665.018	-85.173	-0.275	0.088
-664.003	137.790	0.072	-0.096
-662.989	800.000	-0.126	-0.355
-661.974	800.000	0.012	0.049
-660.959	101.546	0.232	-0.275
-659.945	119.158	-0.093	0.117
-658.930	402.798	-0.082	-0.175
-657.916	800.000	0.018	0.053
-656.901	-24.011	0.199	-0.121
-655.886	-112.616	0.110	-0.022
-654.872	-100.114	0.276	0.070
-653.857	-126.334	0.128	-0.019
-652.843	800.000	0.112	-0.325
-651.828	-65.540	-0.269	0.110
-650.814	-200.000	0.040	0.200
-649.799	800.000	0.061	0.218
-648.784	270.413	-0.051	0.091
-647.770	-21.645	-0.124	-0.077
-646.755	-25.786	0.021	0.013
-645.741	-40.898	-0.153	-0.080
-644.726	791.906	0.090	-0.251
-643.711	-31.379	-0.159	-0.091
-642.697	53.443	0.150	0.147
-641.682	64.628	-0.248	-0.254
-640.668	202.996	-0.129	0.202
-639.653	157.523	-0.109	-0.154
-638.638	800.000	-0.095	-0.298
-637.624	59.192	0.167	-0.167
-636.609	193.531	-0.254	0.390
-635.595	-112.435	-0.147	0.030
-634.580	800.000	-0.074	-0.295
-633.565	442.299	0.182	0.405
-632.551	-200.000	0.013	0.219
-631.536	-13.748	-0.166	-0.109
-630.522	133.100	0.194	0.254
-629.507	217.227	-0.210	-0.340
-628.492	173.257	-0.049	-0.071
-627.478	34.477	-0.056	-0.049
-626.463	374.902	0.164	-0.340
-625.449	-107.997	-0.064	0.014
-624.434	800.000	-0.049	0.148
-623.419	800.000	-0.072	0.270
-622.405	-69.382	-0.123	-0.048
-621.390	8.164	0.186	-0.142
-620.376	251.113	0.042	-0.073
-619.361	-92.054	-0.080	-0.023
-618.346	-65.582	0.063	0.026
-617.332	28.885	-0.156	-0.134
-616.317	163.506	-0.115	0.164
-615.303	-72.523	0.180	0.067
-614.288	-29.332	0.020	0.012
-613.273	-100.715	-0.477	0.120
-612.259	75.596	0.133	-0.143
-611.244	-200.000	0.008	-0.086
-610.230	800.000	-0.081	-0.236
-609.215	-200.000	-0.012	0.227
-608.201	-42.136	-0.263	0.137
-607.186	179.055	-0.170	-0.253
-606.171	-160.973	0.091	0.005
-605.157	16.867	-0.236	-0.190
-604.142	-20.093	0.109	-0.068
-603.128	-200.000	-0.005	0.223
-602.113	431.299	-0.031	0.069
-601.098	-35.157	0.201	0.111
-600.084	77.964	-0.148	0.160
-599.069	34.891	-0.240	-0.213
-598.055	800.000	0.062	-0.224
-597.040	-70.402	-0.123	-0.047
-596.025	229.658	-0.100	-0.165
-595.011	0.778	0.367	0.267
-593.996	-200.000	-0.062	-0.397
-592.982	444.028	0.160	-0.357
-591.967	-52.548	0.048	-0.023
-590.952	800.000	0.021	0.079
-589.938	100.289	-0.240	-0.283
-588.923	800.000	-0.054	0.160
-587.909	230.838	0.074	-0.122
-586.894	-28.426	-0.271	-0.159
-585.879	345.161	0.045	-0.090
-584.865	86.953	-0.137	-0.154
-583.850	800.000	0.071	0.262
-582.836	49.581	-0.201	-0.192
-581.821	38.915	-0.108	-0.098
-580.806	-8.696	0.086	0.059
-579.792	19.468	-0.087	-0.071
-578.777	-68.301	-0.104	-0.041
-577.763	800.000	0.024	0.107
-576.748	-40.687	0.159	-0.084
-575.733	-200.000	-0.032	-0.386
-574.719	-200.000	-0.006	-0.095
-573.704	38.416	0.104	-0.094
-572.690	-200.000	0.012	-0.104
-571.675	20.802	-0.047	0.039
-570.661	-100.175	-0.083	0.021
-569.646	702.549	0.132	0.354
-568.631	-30.034	0.142	-0.082
-567.617	-200.000	-0.015	0.175
-566.602	119.347	0.096	0.120
-565.588	-135.004	0.261	-0.032
-564.573	-117.031	0.129	-0.024
-563.558	208.347	-0.210	-0.333
-562.544	-118.290	-0.092	0.017
-561.529	-200.000	0.015	0.146
-560.515	203.798	-0.087	0.137
-559.500	-103.738	-0.237	0.056
-558.485	172.760	-0.061	0.089
-557.471	214.191	-0.041	-0.066
-556.456	264.906	-0.055	-0.098
-555.442	800.000	-0.153	0.445
-554.427	169.848	0.190	0.276
-553.412	-132.515	0.153	0.020
-552.398	-122.143	0.211	0.035
-551.383	-38.504	-0.186	-0.100
-550.369	-44.781	-0.390	0.197
-549.354	-76.005	0.088	0.032
-548.339	120.380	-0.116	0.146
-547.325	12.958	-0.254	0.199
-546.310	-115.224	-0.296	0.057
-545.296	-3.612	0.235	0.166
-544.281	192.779	0.051	-0.078
-543.266	-141.503	-0.155	0.016
-542.252	6.497	0.064	0.048
-541.237	-35.251	-0.130	0.072
-540.223	-17.634	0.198	-0.126
-539.208	172.313	-0.153	0.223
-538.193	-182.780	-0.317	-0.006
-537.179	-16.774	0.196	0.126
-536.164	690.639	-0.021	0.055
-535.150	287.398	0.048	-0.087
-534.135	-117.177	0.232	0.043
-533.121	-24.527	-0.246	0.148
-532.106	40.483	-0.163	0.148
-531.091	-39.400	0.338	0.179
-530.077	108.836	0.196	0.237
-529.062	-60.863	0.241	0.103
-528.048	800.000	0.037	-0.112
-527.033	50.089	0.092	-0.088
-526.018	-200.000	-0.037	0.286
-525.004	-28.940	0.214	-0.124
-523.989	164.721	0.036	0.051
-522.975	-200.000	-0.024	-0.312
-521.960	800.000	0.097	-0.316
-520.945	22.175	-0.175	0.145
-519.931	-200.000	0.084	0.381
-518.916	1.696	0.392	-0.286
-517.902	-37.667	-0.191	-0.103
-516.887	187.297	-0.173	-0.261
-515.872	130.310	0.116	-0.151
-514.858	-200.000	0.020	-0.247
-513.843	800.000	0.075	-0.256
-512.829	-35.731	-0.383	0.210
-511.814	-72.967	-0.327	0.122
-510.799	-200.000	-0.029	-0.406
-509.785	800.000	0.096	0.288
-508.770	115.678	0.084	0.104
-507.756	94.052	0.178	-0.204
-506.741	199.760	-0.152	0.236
-505.726	800.000	-0.060	-0.169
-504.712	257.173	0.009	-0.016
-503.697	-47.048	0.277	0.137
-502.683	-117.167	0.202	-0.037
-501.668	-151.426	-0.280	0.021
-500.653	54.967	0.134	0.131
-499.639	-189.773	0.152	0.002
-498.624	-133.552	-0.083	0.010
-497.610	-102.348	0.177	0.043
-496.595	161.046	-0.061	0.086
-495.581	0.070	-0.200	-0.144
-494.566	-151.337	0.434	0.033
-493.551	647.044	-0.074	-0.192
-492.537	-30.781	0.046	-0.026
-491.522	-65.333	-0.247	-0.100
-490.508	-183.689	0.251	-0.004
-489.493	-200.000	-0.019	-0.134
-488.478	190.983	-0.048	-0.073
-487.464	-66.578	0.163	0.065
-486.449	72.481	-0.186	-0.196
-485.435	-91.854	0.207	0.059
-484.420	-41.920	0.069	0.036
-483.405	-103.928	0.085	-0.020
-482.391	450.032	0.170	0.379
-481.376	-200.000	0.007	-0.080
-480.362	-17.485	-0.154	-0.098
-479.347	280.236	0.175	-0.316
-478.332	560.806	-0.092	0.224
-477.318	-200.000	0.006	0.186
-476.303	57.018	-0.041	-0.040
-475.289	-19.862	0.110	0.069
-474.274	518.184	-0.127	-0.299
-473.259	309.584	-0.034	0.065
-472.245	408.633	-0.038	-0.082
-471.230	575.232	-0.091	-0.223
-470.216	705.351	-0.082	-0.219
-469.201	-94.444	-0.238	0.066
-468.186	6.380	0.325	0.244
-467.172	96.021	0.073	0.084
-466.157	-52.608	0.107	0.050
-465.143	488.677	-0.142	-0.327
-464.128	157.992	-0.213	-0.299
-463.113	494.097	0.072	-0.166
-462.099	-86.424	-0.137	-0.042
-461.084	22.873	-0.199	-0.165
-460.070	686.693	0.143	0.376
-459.055	376.467	-0.093	0.191
-458.040	-200.000	0.011	0.112
-457.026	0.865	-0.187	-0.135
-456.011	800.000	-0.036	-0.131
-454.997	110.754	-0.152	0.185
-453.982	92.018	-0.168	-0.191
-452.968	0.815	-0.123	-0.089
-451.953	-65.195	0.240	-0.098
-450.938	-200.000	-0.026	-0.212
-449.924	3.093	0.092	-0.068
-448.909	263.366	0.070	-0.123
-447.895	-51.912	0.448	-0.210
-446.880	-200.000	-0.037	-0.239
-445.865	49.907	-0.067	0.063
-444.851	-108.132	-0.143	-0.031
-443.836	21.104	0.012	-0.010
-442.822	-36.341	0.081	0.044
-441.807	704.828	0.071	0.189
-440.792	550.704	0.078	0.188
-439.778	64.691	-0.090	-0.092
-438.763	-200.000	0.014	0.064
-437.749	303.900	-0.110	0.207
-436.734	88.469	0.086	0.096
-435.719	-200.000	0.001	-0.034
-434.705	-200.000	-0.027	0.301
-433.690	406.426	0.080	0.171
-432.676	-200.000	0.024	-0.234
-431.661	800.000	-0.126	-0.448
-430.646	585.726	0.063	-0.157
-429.632	405.388	0.119	-0.253
-428.617	-15.495	0.310	0.200
-427.603	35.655	-0.137	-0.121
-426.588	209.809	-0.055	-0.087
-425.573	-122.154	-0.293	0.048
-424.559	800.000	0.033	-0.122
-423.544	109.567	0.182	0.219
-422.530	30.719	-0.076	0.066
-421.515	-165.953	-0.186	-0.008
-420.500	163.515	-0.194	-0.276
-419.486	-49.148	-0.253	0.122
-418.471	-71.081	0.128	0.049
-417.457	11.570	-0.244	-0.189
-416.442	-114.996	0.038	0.007
-415.428	-193.543	0.167	0.001
-414.413	437.960	-0.196	-0.432
-413.398	-122.027	-0.329	-0.054
-412.384	-49.946	-0.281	0.134
-411.369	-130.368	-0.205	-0.028
-410.355	388.901	0.015	-0.030
-409.340	-200.000	0.027	0.154
-408.325	-55.669	-0.191	0.086
-407.311	-11.347	-0.230	0.153
-406.296	-116.235	0.141	-0.026
-405.282	43.926	0.133	0.123
-404.267	-178.706	0.185	0.004
-403.252	110.752	-0.153	0.186
-402.238	-176.570	0.115	-0.003
-401.223	63.299	-0.100	-0.101
-400.209	-22.873	-0.361	0.220
-399.194	50.166	-0.057	0.054
-398.179	101.359	0.250	0.293
-397.165	800.000	0.033	-0.111
-396.150	-191.963	0.109	-0.001
-395.136	-20.631	0.259	0.160
-394.121	93.949	0.170	0.194
-393.106	-71.759	0.125	0.047
-392.092	298.245	-0.101	0.187
-391.077	501.295	-0.104	-0.241
-390.063	47.171	0.301	-0.282
-389.048	-151.027	0.162	0.012
-388.033	-109.944	-0.170	0.036
-387.019	-22.650	0.424	-0.258
-386.004	268.266	0.081	0.142
-384.990	53.039	0.125	-0.120
-383.975	-28.950	0.206	-0.119
-382.960	-200.000	-0.018	-0.140
-381.946	-200.000	0.092	-0.420
-380.931	-41.941	-0.165	-0.085
-379.917	-89.012	0.247	0.074
-378.902	-200.000	0.024	0.202
-377.888	-19.648	-0.140	-0.087
-376.873	-90.278	-0.105	0.031
-375.858	26.065	-0.189	0.159
-374.844	-135.447	0.221	-0.027
-373.829	-200.000	0.000	0.124
-372.815	-130.702	-0.149	-0.020
-371.800	191.674	0.167	-0.253
-370.785	-4.503	0.052	-0.036
-369.771	1.517	0.080	-0.058
-368.756	670.505	-0.045	0.116
-367.742	44.423	0.193	-0.178
-366.727	-200.000	-0.056	-0.336
-365.712	529.598	0.076	-0.180
-364.698	800.000	0.106	-0.304
-363.683	52.480	0.079	0.076
-362.669	-200.000	0.009	-0.282
-361.654	76.476	-0.047	-0.050
-360.639	-77.217	0.168	0.059
-359.625	-200.000	-0.019	0.164
-358.610	-84.234	0.171	0.055
-357.596	69.642	-0.130	-0.135
-356.581	-44.845	0.092	-0.046
-355.566	-20.893	0.141	0.087
-354.552	-200.000	-0.013	0.193
-353.537	51.759	-0.094	0.090
-352.523	-33.848	0.282	0.156
-351.508	800.000	0.019	-0.064
-350.493	-36.969	0.501	-0.270
-349.479	-125.643	-0.422	-0.064
-348.464	-7.624	0.123	0.084
-347.450	800.000	-0.108	0.365
-346.435	-37.740	0.248	-0.133
-345.420	-58.957	0.363	0.158
-344.406	58.028	-0.140	0.138
-343.391	800.000	-0.066	0.228
-342.377	800.000	-0.016	0.046
-341.362	-67.050	0.196	-0.078
-340.348	272.623	-0.059	-0.104
-339.333	107.338	-0.194	-0.232
-338.318	-200.000	-0.044	-0.194
-337.304	-89.844	-0.051	-0.015
-336.289	-143.496	-0.046	0.004
-335.275	-96.361	0.192	0.051
-334.260	-112.950	-0.372	-0.074
-333.245	800.000	0.046	0.129
-332.231	-78.952	-0.321	-0.110
-331.216	229.797	-0.218	0.358
-330.202	-33.975	0.109	-0.060
-329.187	-200.000	-0.006	0.066
-328.172	-81.463	0.178	0.059
-327.158	23.912	-0.224	0.186
-326.143	270.805	0.099	0.176
-325.129	-200.000	-0.022	-0.312
-324.114	-136.073	-0.217	0.026
-323.099	-96.356	0.072	-0.019
-322.085	-200.000	-0.035	-0.385
-321.070	-164.611	0.219	-0.010
-320.056	113.479	-0.227	0.276
-319.041	-200.000	-0.009	-0.212
-318.026	800.000	0.048	-0.185
-317.012	-77.057	0.255	-0.089
-315.997	151.087	-0.107	0.146
-314.983	-21.370	0.437	-0.268
-313.968	11.418	0.166	-0.128
-312.953	-34.307	0.147	0.081
-311.939	-122.080	0.277	-0.046
-310.924	-200.000	0.011	0.299
-309.910	211.926	-0.078	0.123
-308.895	-104.065	-0.239	-0.056
-307.880	800.000	0.088	-0.327
-306.866	186.214	0.104	-0.155
-305.851	-163.773	0.393	0.019
-304.837	-135.696	0.090	0.011
-303.822	-17.423	-0.173	-0.109
-302.807	-6.547	0.323	-0.221
-301.793	-61.441	-0.220	-0.093
-300.778	800.000	-0.117	-0.491
-299.764	-99.138	-0.343	-0.087
-298.749	-124.615	-0.120	-0.019
-297.735	509.508	0.060	-0.140
-296.720	-146.494	-0.108	0.009
-295.705	67.522	0.287	-0.294
-294.691	289.091	-0.095	-0.173
-293.676	-200.000	0.055	0.386
-292.662	139.299	-0.210	-0.277
-291.647	-72.702	0.221	-0.082
-290.632	288.938	0.130	0.236
-289.618	-141.323	-0.332	-0.034
-288.603	-71.984	0.237	-0.089
-287.589	800.000	-0.064	0.265
-286.574	-84.805	-0.038	-0.012
-285.559	-68.132	-0.070	0.027
-284.545	-200.000	0.051	-0.266
-283.530	-200.000	-0.013	-0.063
-282.516	212.962	0.081	0.128
-281.501	-200.000	0.039	0.176
-280.486	118.013	-0.266	0.329
-279.472	800.000	0.089	0.382
-278.457	-166.540	0.212	0.009
-277.443	-91.211	-0.307	-0.088
-276.428	241.500	0.106	0.178
-275.413	-104.106	0.070	0.016
-274.399	-114.380	0.383	-0.074
-273.384	-30.447	0.329	0.187
-272.370	539.107	-0.105	0.251
-271.355	-83.388	-0.077	-0.025
-270.340	669.011	-0.042	0.108
-269.326	-48.309	-0.270	0.131
-268.311	73.531	-0.053	0.055
-267.297	-20.764	-0.126	-0.077
-266.282	393.215	-0.181	0.377
-265.267	-91.273	0.220	-0.063
-264.253	-57.423	-0.087	-0.038
-263.238	-138.668	0.361	-0.040
-262.224	619.179	0.097	0.244
-261.209	84.500	0.126	0.138
-260.195	258.435	0.049	0.085
-259.180	-200.000	0.002	0.017
-258.165	-1.931	0.265	0.186
-257.151	-200.000	0.017	0.100
-256.136	-200.000	-0.067	-0.328
-255.122	-88.489	0.197	0.059
-254.107	51.805	0.260	-0.248
-253.092	394.521	-0.059	0.124
-252.078	463.011	-0.087	0.194
-251.063	27.094	0.011	-0.009
-250.049	-193.049	-0.113	0.001
-249.034	725.577	-0.087	0.232
-248.019	76.591	0.070	-0.074
-247.005	800.000	0.035	0.124
-245.990	-200.000	0.040	0.231
-244.976	-179.603	0.141	0.003
-243.961	-109.082	-0.374	0.080
-242.946	800.000	-0.035	0.111
-241.932	-200.000	-0.026	0.342
-240.917	124.530	-0.209	0.263
-239.903	-5.008	0.269	-0.185
-238.888	525.260	0.140	0.330
-237.873	-200.000	-0.018	0.174
-236.859	-200.000	0.044	0.239
-235.844	-86.372	-0.238	0.073
-234.830	-148.624	0.250	-0.020
-233.815	29.396	-0.050	-0.042
-232.800	-200.000	-0.038	-0.200
-231.786	-73.609	-0.098	0.036
-230.771	-172.680	-0.162	-0.005
-229.757	75.316	-0.069	-0.073
-228.742	198.635	-0.150	-0.230
-227.727	-35.936	0.301	0.163
-226.713	438.668	-0.114	0.249
-225.698	62.608	0.018	0.018
-224.684	-23.703	-0.193	0.116
-223.669	-200.000	-0.104	0.504
-222.655	504.238	-0.087	0.202
-221.640	-93.715	-0.219	0.060
-220.625	-144.516	-0.338	0.031
-219.611	-163.528	-0.173	-0.008
-218.596	545.069	0.079	-0.189
-217.582	-148.733	0.157	0.013
-216.567	-48.064	0.364	-0.176
-215.552	-58.308	0.474	-0.206
-214.538	-166.204	-0.145	-0.006
-213.523	19.055	-0.286	0.229
-212.509	601.498	0.104	0.258
-211.494	257.645	-0.078	-0.135
-210.479	191.400	-0.019	-0.028
-209.465	-170.202	0.135	-0.005
-208.450	733.758	-0.072	-0.194
-207.436	256.576	-0.035	-0.060
-206.421	741.712	-0.030	0.082
-205.406	-200.000	-0.029	-0.211
-204.392	178.921	-0.059	0.087
-203.377	-19.782	-0.015	-0.009
-202.363	-146.730	-0.227	-0.020
-201.348	-200.000	-0.006	-0.057
-200.333	-157.228	-0.373	-0.023
-199.319	396.242	-0.057	-0.120
-198.304	-68.265	-0.104	-0.040
-197.290	-2.925	-0.154	-0.107
-196.275	104.180	0.084	0.098
-195.260	-74.304	0.156	0.056
-194.246	800.000	-0.057	0.167
-193.231	-81.315	0.031	-0.010
-192.217	-200.000	0.062	0.294
-191.202	-200.000	0.035	0.426
-190.187	800.000	-0.066	0.184
-189.173	153.276	0.156	0.214
-188.158	-24.869	0.160	-0.095
-187.144	-55.260	0.189	0.085
-186.129	-158.728	-0.271	0.016
-185.114	314.613	-0.083	-0.157
-184.100	307.991	-0.020	-0.037
-183.085	-54.588	0.542	0.245
-182.071	-47.965	0.236	0.114
-181.056	-107.232	0.328	0.072
-180.042	100.674	0.230	-0.267
-179.027	-116.886	-0.191	-0.035
-178.012	800.000	0.105	-0.353
-176.998	27.321	0.157	-0.132
-175.983	-144.116	-0.406	0.038
-174.969	733.048	-0.084	-0.224
-173.954	-141.603	0.132	-0.013
-172.939	27.111	0.270	0.227
-171.925	244.817	-0.180	-0.303
-170.910	139.719	-0.139	0.182
-169.896	-200.000	-0.013	0.153
-168.881	-200.000	-0.060	0.299
-167.866	800.000	-0.105	0.325
-166.852	-200.000	0.069	-0.311
-165.837	-200.000	-0.039	0.270
-164.823	89.628	-0.117	-0.130
-163.808	407.933	-0.111	0.234
-162.793	-122.021	-0.246	-0.040
-161.779	-132.676	0.307	-0.039
-160.764	-141.793	-0.310	0.031
-159.750	3.622	0.102	-0.074
-158.735	77.809	0.134	-0.142
-157.720	-200.000	0.019	0.178
-156.706	487.565	0.103	0.235
-155.691	26.610	0.253	-0.211
-154.677	-143.916	0.117	-0.011
-153.662	-200.000	0.006	-0.165
-152.647	800.000	-0.048	-0.132
-151.633	-163.964	0.053	0.002
-150.618	-200.000	-0.063	0.314
-149.604	239.474	-0.232	0.386
-148.589	42.739	0.104	0.094
-147.574	-17.701	-0.233	-0.146
-146.560	-200.000	-0.012	-0.117
-145.545	-111.116	-0.149	0.031
-144.531	89.478	-0.092	0.102
-143.516	800.000	-0.072	0.311
-142.502	183.252	0.093	-0.137
-141.487	170.837	0.109	-0.155
-140.472	-200.000	0.005	0.121
-139.458	42.468	-0.046	-0.042
-138.443	-60.847	0.194	0.082
-137.429	731.620	-0.061	-0.163
-136.414	800.000	0.061	0.255
-135.399	-13.713	-0.397	0.256
-134.385	-200.000	0.030	0.391
-133.370	454.736	0.064	-0.142
-132.356	-1.841	-0.097	0.068
-131.341	185.888	0.093	-0.138
-130.326	37.760	-0.161	0.143
-129.312	68.438	0.092	-0.094
-128.297	-62.907	-0.152	-0.063
-127.283	800.000	-0.023	-0.072
-126.268	-58.718	-0.162	-0.070
-125.253	-156.600	0.135	-0.008
-124.239	800.000	0.133	0.391
-123.224	143.290	0.324	0.430
-122.210	462.497	-0.150	0.333
-121.195	800.000	0.010	-0.039
