DTS Sentinel unit serial number:	SN413079Multiplexer serial number:	ORYXHardware model number:	OX4-SRSoftware version number:	ORYX F/W v4.00 Oryx Data Collector v3.7.2.0data status	okinstallation	princeton_trtdifferential loss correction	single-endedforward channel	channel 4reverse channel	N/Adate	2019/09/19time	10:01:35forward acquisition time	60.00reverse acquisition time	0.00gamma	496.2192k internal	0.2330k external	0.2330temperature offset calibration	1.0013default loss term (dB/km)	0.3790temperature slope calibration	1.0000multiplexer offset coefficient	1.0000multiplexer slope coefficient	1.0000fibre end	0.00T internal ref (°C)	23.77T ext. ref 1 (°C)	0.67T ext. ref 2 (°C)	19.53length (m)	temperature (°C)	Stokes	anti-Stokes-747.200	126.919	-0.157	0.201
-746.185	-53.250	-0.616	0.284
-745.171	-97.862	0.264	-0.069
-744.156	316.394	0.128	0.244
-743.142	-101.739	0.075	-0.018
-742.127	140.414	-0.285	0.379
-741.112	220.870	-0.132	0.213
-740.098	81.563	-0.120	0.131
-739.083	-200.000	0.003	0.034
-738.069	157.247	-0.128	-0.179
-737.054	-157.469	0.329	-0.020
-736.039	-66.097	-0.135	-0.054
-735.025	520.381	-0.083	0.195
-734.010	800.000	0.119	-0.359
-732.996	-27.050	-0.186	-0.109
-731.981	800.000	-0.070	0.246
-730.966	-200.000	-0.007	-0.149
-729.952	207.974	-0.253	-0.397
-728.937	130.844	0.242	-0.312
-727.923	19.254	-0.166	0.134
-726.908	-183.809	-0.191	0.003
-725.894	70.775	-0.124	-0.129
-724.879	497.263	-0.054	0.125
-723.864	-111.471	-0.201	0.041
-722.850	-169.755	-0.449	0.016
-721.835	196.460	-0.099	0.152
-720.821	656.215	-0.153	-0.396
-719.806	-200.000	0.027	0.123
-718.791	105.447	-0.174	0.207
-717.777	-200.000	0.080	0.452
-716.762	107.760	-0.153	0.184
-715.748	-20.838	0.078	0.048
-714.733	-14.423	-0.108	0.070
-713.718	686.122	0.039	0.102
-712.704	151.829	0.359	-0.492
-711.689	112.193	-0.232	0.282
-710.675	800.000	-0.040	-0.111
-709.660	327.471	0.107	0.206
-708.645	-114.793	0.307	0.059
-707.631	-19.332	-0.175	0.109
-706.616	185.053	-0.088	-0.131
-705.602	293.536	0.054	-0.099
-704.587	-200.000	-0.022	-0.146
-703.572	800.000	-0.050	-0.210
-702.558	-120.756	0.161	-0.027
-701.543	301.697	-0.101	-0.188
-700.529	-200.000	-0.002	-0.100
-699.514	-44.472	-0.160	-0.080
-698.499	-9.342	-0.245	-0.164
-697.485	618.046	0.072	0.181
-696.470	-200.000	0.028	-0.149
-695.456	488.384	-0.190	0.435
-694.441	-82.477	0.008	0.003
-693.426	800.000	-0.025	-0.082
-692.412	-200.000	-0.012	-0.277
-691.397	-200.000	0.029	0.317
-690.383	126.217	-0.168	-0.213
-689.368	-151.698	-0.053	0.004
-688.354	-128.035	0.511	-0.074
-687.339	-23.292	-0.122	-0.074
-686.324	138.453	0.240	-0.317
-685.310	-17.799	0.177	0.112
-684.295	106.858	-0.080	-0.096
-683.281	17.349	0.456	-0.363
-682.266	-76.958	-0.312	0.110
-681.251	-200.000	0.000	-0.527
-680.237	145.649	0.205	-0.276
-679.222	-40.429	0.416	-0.217
-678.208	-153.385	0.106	0.007
-677.193	-200.000	0.012	0.088
-676.178	-41.874	-0.480	0.247
-675.164	98.981	0.205	-0.237
-674.149	104.892	-0.148	-0.175
-673.135	-93.853	-0.221	0.061
-672.120	-81.393	0.042	-0.014
-671.105	-91.642	0.197	-0.056
-670.091	800.000	-0.113	0.334
-669.076	-200.000	0.022	-0.103
-668.062	800.000	-0.094	-0.366
-667.047	-54.216	0.247	0.113
-666.032	-41.802	0.129	-0.066
-665.018	-200.000	-0.029	-0.167
-664.003	33.416	0.175	-0.153
-662.989	800.000	-0.057	-0.219
-661.974	549.439	-0.084	-0.201
-660.959	227.481	0.128	-0.210
-659.945	-52.514	0.123	-0.057
-658.930	-140.838	-0.489	0.050
-657.916	-18.750	-0.224	0.140
-656.901	800.000	-0.031	-0.094
-655.886	-200.000	-0.380	-0.001
-654.872	-200.000	-0.001	-0.429
-653.857	66.478	-0.100	-0.102
-652.843	64.994	-0.188	-0.190
-651.828	-20.771	-0.106	0.065
-650.814	629.529	0.071	-0.180
-649.799	428.744	-0.097	0.210
-648.784	791.017	0.024	-0.066
-647.770	248.384	0.023	-0.039
-646.755	162.642	-0.192	0.270
-645.741	125.086	-0.091	0.115
-644.726	-200.000	0.008	0.109
-643.711	-200.000	-0.033	0.198
-642.697	-1.150	0.110	0.078
-641.682	230.903	-0.094	-0.154
-640.668	-200.000	0.051	-0.333
-639.653	34.017	0.069	0.060
-638.638	22.587	-0.286	-0.235
-637.624	185.445	0.069	-0.103
-636.609	-64.679	-0.327	0.133
-635.595	-59.987	0.100	0.043
-634.580	-29.564	-0.122	-0.070
-633.565	25.990	0.200	-0.167
-632.551	102.647	-0.087	0.103
-631.536	453.874	0.125	-0.277
-630.522	239.545	-0.155	0.259
-629.507	123.094	-0.151	0.190
-628.492	800.000	-0.142	-0.495
-627.478	-200.000	-0.052	-0.264
-626.463	-125.518	-0.080	-0.012
-625.449	57.578	-0.056	-0.055
-624.434	-200.000	0.010	-0.100
-623.419	28.868	-0.156	-0.132
-622.405	12.530	0.130	0.100
-621.390	800.000	0.092	0.275
-620.376	-200.000	-0.002	-0.151
-619.361	796.662	-0.026	-0.072
-618.346	-200.000	-0.022	0.598
-617.332	-1.893	0.159	-0.112
-616.317	800.000	-0.016	-0.050
-615.303	-92.033	-0.183	-0.052
-614.288	-200.000	0.006	0.099
-613.273	-132.829	-0.213	-0.027
-612.259	-200.000	-0.013	0.122
-611.244	89.369	-0.101	-0.113
-610.230	27.624	-0.336	-0.283
-609.215	314.572	0.131	-0.246
-608.201	-200.000	-0.010	0.162
-607.186	732.978	0.100	0.268
-606.171	267.401	-0.097	0.171
-605.157	-83.070	0.209	0.067
-604.142	617.810	0.090	0.226
-603.128	-26.281	0.122	-0.072
-602.113	697.826	0.026	0.069
-601.098	-62.855	0.209	0.086
-600.084	496.169	-0.061	0.140
-599.069	146.771	-0.192	0.258
-598.055	144.209	0.201	-0.269
-597.040	248.622	0.171	-0.290
-596.025	-85.731	0.100	-0.031
-595.011	61.551	0.075	0.075
-593.996	392.065	-0.026	-0.053
-592.982	-0.166	-0.350	-0.249
-591.967	800.000	0.042	-0.155
-590.952	-154.868	0.182	0.012
-589.938	-64.206	0.187	-0.076
-588.923	79.284	-0.119	0.128
-587.909	-25.492	0.166	-0.098
-586.894	12.629	0.197	0.152
-585.879	-50.100	0.143	-0.068
-584.865	-118.301	-0.122	-0.022
-583.850	-200.000	-0.043	-0.222
-582.836	19.591	-0.234	0.189
-581.821	89.243	-0.133	0.148
-580.806	-117.147	0.217	0.040
-579.792	-200.000	0.027	0.150
-578.777	-4.253	-0.277	-0.192
-577.763	-200.000	-0.005	0.147
-576.748	-56.031	0.140	0.062
-575.733	138.488	-0.131	-0.172
-574.719	-191.179	-0.374	-0.004
-573.704	-200.000	-0.031	-0.171
-572.690	800.000	0.077	0.234
-571.675	800.000	0.072	-0.224
-570.661	114.369	-0.009	0.011
-569.646	38.561	0.239	0.213
-568.631	132.260	-0.147	-0.189
-567.617	-200.000	-0.013	-0.353
-566.602	-30.043	-0.244	0.139
-565.588	213.141	0.240	-0.379
-564.573	248.681	-0.150	-0.254
-563.558	84.985	-0.079	0.086
-562.544	-42.786	0.108	0.055
-561.529	-84.712	0.219	-0.069
-560.515	-195.709	-0.246	-0.002
-559.500	-200.000	-0.045	-0.200
-558.485	-83.453	0.322	0.103
-557.471	-200.000	0.084	-0.412
-556.456	-39.541	-0.280	0.146
-555.442	485.349	-0.107	0.243
-554.427	-36.862	-0.241	-0.129
-553.412	418.477	0.035	0.075
-552.398	101.906	-0.183	-0.214
-551.383	-153.088	-0.210	-0.015
-550.369	800.000	0.039	0.159
-549.354	-58.094	-0.445	-0.194
-548.339	-32.841	0.363	0.201
-547.325	-200.000	-0.009	0.085
-546.310	208.590	0.046	0.071
-545.296	396.059	0.106	-0.222
-544.281	297.110	-0.172	-0.315
-543.266	-140.488	-0.163	-0.017
-542.252	-146.719	0.132	0.011
-541.237	-17.175	0.276	0.174
-540.223	256.202	-0.173	-0.297
-539.208	-11.438	0.402	-0.264
-538.193	-94.260	0.150	-0.041
-537.179	66.675	-0.211	-0.214
-536.164	-47.576	0.094	-0.046
-535.150	-51.588	-0.118	-0.055
-534.135	42.560	-0.371	-0.337
-533.121	272.532	-0.095	-0.168
-532.106	710.470	-0.063	0.166
-531.091	-15.281	0.092	-0.059
-530.077	-124.020	0.079	0.012
-529.062	24.239	0.154	-0.127
-528.048	-89.457	0.164	0.048
-527.033	-200.000	0.019	-0.373
-526.018	371.413	0.056	0.114
-525.004	-145.852	-0.253	-0.022
-523.989	85.030	-0.143	-0.157
-522.975	-200.000	-0.002	0.024
-521.960	-29.248	0.246	0.141
-520.945	-200.000	-0.023	0.154
-519.931	-90.309	0.352	-0.102
-518.916	509.746	0.128	-0.296
-517.902	85.405	-0.166	-0.182
-516.887	3.308	0.307	-0.223
-515.872	-12.478	0.080	-0.052
-514.858	-200.000	0.031	-0.270
-513.843	62.940	-0.191	-0.190
-512.829	-53.161	-0.435	-0.199
-511.814	190.635	-0.156	0.234
-510.799	-59.423	0.179	0.077
-509.785	-200.000	-0.022	0.237
-508.770	-49.036	-0.273	-0.130
-507.756	-105.153	0.528	-0.120
-506.741	-200.000	-0.024	-0.118
-505.726	800.000	0.038	0.131
-504.712	109.147	0.053	0.064
-503.697	21.300	-0.126	-0.102
-502.683	-200.000	-0.063	0.402
-501.668	-25.470	-0.316	-0.186
-500.653	212.709	-0.182	0.286
-499.639	232.030	-0.010	-0.016
-498.624	-200.000	0.000	-0.045
-497.610	800.000	-0.067	0.253
-496.595	-115.623	0.364	-0.068
-495.581	-68.347	0.251	-0.097
-494.566	376.579	-0.131	0.266
-493.551	-153.546	-0.131	-0.009
-492.537	-200.000	0.041	-0.234
-491.522	-53.369	-0.043	-0.019
-490.508	74.770	0.233	-0.245
-489.493	-100.386	-0.161	-0.040
-488.478	-47.186	-0.126	-0.061
-487.464	-75.140	-0.224	-0.080
-486.449	-133.518	0.096	0.012
-485.435	-40.281	0.132	-0.068
-484.420	24.149	0.178	-0.146
-483.405	268.696	0.116	-0.203
-482.391	-26.394	0.243	-0.142
-481.376	81.263	-0.384	-0.414
-480.362	800.000	0.120	-0.364
-479.347	-200.000	0.092	-0.488
-478.332	-47.857	0.110	0.053
-477.318	105.333	-0.092	0.108
-476.303	-102.441	-0.127	-0.030
-475.289	-82.676	0.311	0.100
-474.274	367.544	0.126	-0.254
-473.259	408.555	0.094	-0.199
-472.245	207.148	0.152	-0.236
-471.230	-70.301	-0.183	-0.069
-470.216	220.605	0.028	0.045
-469.201	-95.563	0.147	0.039
-468.186	20.317	-0.160	0.129
-467.172	-34.005	0.218	0.119
-466.157	-200.000	-0.017	-0.167
-465.143	157.002	-0.335	0.461
-464.128	-165.694	-0.136	0.006
-463.113	220.888	0.188	-0.301
-462.099	15.499	0.016	-0.013
-461.084	-200.000	0.188	0.000
-460.070	710.222	-0.074	0.195
-459.055	-200.000	0.036	0.265
-458.040	-167.307	-0.457	0.018
-457.026	-200.000	-0.006	-0.241
-456.011	800.000	-0.078	-0.276
-454.997	79.302	-0.107	0.114
-453.982	-200.000	0.059	0.297
-452.968	-200.000	-0.006	-0.033
-451.953	-121.001	-0.244	0.041
-450.938	-83.844	-0.212	0.067
-449.924	386.853	0.146	0.301
-448.909	444.264	0.064	0.141
-447.895	122.701	0.193	0.241
-446.880	-200.000	-0.006	0.118
-445.865	51.562	0.171	0.162
-444.851	325.837	0.090	-0.172
-443.836	-76.799	0.155	0.054
-442.822	733.590	0.086	-0.228
-441.807	119.557	-0.139	-0.171
-440.792	-24.643	0.154	-0.091
-439.778	-200.000	-0.011	0.124
-438.763	800.000	0.058	0.240
-437.749	-48.525	-0.130	0.062
-436.734	20.034	-0.248	-0.199
-435.719	3.358	-0.207	-0.150
-434.705	-45.035	-0.303	0.150
-433.690	601.197	0.182	0.450
-432.676	-200.000	-0.025	0.141
-431.661	128.343	0.119	0.151
-430.646	69.992	-0.161	-0.165
-429.632	283.754	0.116	0.208
-428.617	-42.728	-0.249	-0.126
-427.603	-77.138	0.209	0.072
-426.588	-3.751	0.128	-0.088
-425.573	-200.000	-0.007	-0.208
-424.559	112.131	0.072	0.086
-423.544	248.206	0.057	-0.096
-422.530	800.000	0.072	0.311
-421.515	494.904	-0.173	0.394
-420.500	277.634	-0.100	-0.177
-419.486	-22.198	0.128	0.077
-418.471	-162.225	0.310	-0.015
-417.457	302.892	0.011	-0.021
-416.442	-200.000	0.015	0.237
-415.428	216.693	-0.177	-0.281
-414.413	-129.271	0.347	-0.048
-413.398	-200.000	0.030	0.322
-412.384	-19.614	0.176	-0.109
-411.369	-102.359	-0.209	-0.050
-410.355	-9.922	0.244	0.161
-409.340	-94.711	0.316	0.085
-408.325	20.642	0.133	-0.107
-407.311	-92.658	0.345	-0.096
-406.296	-46.869	-0.067	-0.032
-405.282	-8.571	-0.123	0.082
-404.267	-39.491	-0.102	0.053
-403.252	-200.000	0.051	0.292
-402.238	133.017	-0.107	-0.137
-401.223	113.009	0.066	0.080
-400.209	-200.000	-0.009	0.209
-399.194	71.089	0.212	-0.218
-398.179	-200.000	-0.135	-0.000
-397.165	-109.077	0.436	0.092
-396.150	800.000	-0.017	0.047
-395.136	-200.000	-0.022	0.136
-394.121	-18.863	0.146	-0.090
-393.106	45.538	-0.138	-0.127
-392.092	31.128	0.215	-0.183
-391.077	122.715	0.086	-0.107
-390.063	-141.708	-0.116	-0.012
-389.048	592.125	-0.082	0.201
-388.033	-18.768	0.161	-0.100
-387.019	-179.496	-0.386	0.008
-386.004	-200.000	0.004	0.091
-384.990	239.601	0.143	0.236
-383.975	201.518	0.083	-0.127
-382.960	-125.591	-0.155	-0.023
-381.946	-15.815	-0.206	0.130
-380.931	299.330	0.149	-0.272
-379.917	-142.020	-0.175	-0.017
-378.902	800.000	0.008	0.025
-377.888	-200.000	0.003	-0.123
-376.873	-8.360	0.095	0.063
-375.858	-200.000	-0.007	0.281
-374.844	-160.055	-0.166	0.009
-373.829	-110.164	0.261	0.054
-372.815	800.000	-0.023	0.077
-371.800	-165.346	-0.102	0.004
-370.785	-200.000	-0.007	-0.320
-369.771	283.927	-0.065	-0.117
-368.756	800.000	-0.043	-0.132
-367.742	-95.715	-0.215	0.057
-366.727	410.995	-0.122	0.257
-365.712	259.507	0.079	-0.136
-364.698	-106.074	0.231	0.052
-363.683	-93.098	0.036	-0.010
-362.669	133.165	0.235	-0.301
-361.654	184.367	-0.110	0.162
-360.639	122.527	0.173	-0.214
-359.625	183.267	0.050	-0.073
-358.610	-82.137	-0.237	-0.077
-357.596	-135.492	0.112	-0.013
-356.581	770.308	-0.036	0.097
-355.566	-200.000	0.013	0.222
-354.552	480.880	0.105	0.237
-353.537	-200.000	-0.007	-0.265
-352.523	-20.136	0.231	-0.141
-351.508	-146.890	0.224	0.019
-350.493	-69.154	-0.189	0.072
-349.479	-45.909	0.056	0.027
-348.464	-47.517	-0.264	0.127
-347.450	-187.311	-0.166	0.002
-346.435	235.733	0.057	0.093
-345.420	-8.934	0.222	-0.148
-344.406	-52.680	-0.062	0.028
-343.391	758.551	0.009	-0.025
-342.377	-40.056	0.087	-0.045
-341.362	-5.140	-0.031	0.021
-340.348	-13.947	0.216	-0.138
-339.333	440.892	0.040	0.086
-338.318	-152.177	0.263	0.019
-337.304	-74.565	-0.258	0.092
-336.289	-34.249	-0.043	0.023
-335.275	-200.000	0.028	0.233
-334.260	800.000	-0.128	0.381
-333.245	-113.076	-0.145	0.028
-332.231	-200.000	-0.036	-0.299
-331.216	-153.168	-0.197	0.014
-330.202	-148.944	-0.294	-0.023
-329.187	-59.084	0.112	-0.048
-328.172	456.314	0.118	0.259
-327.158	62.883	-0.279	0.277
-326.143	495.516	-0.187	0.426
-325.129	-16.311	-0.252	0.158
-324.114	104.038	0.118	0.137
-323.099	-111.740	0.149	-0.030
-322.085	-15.499	-0.132	0.083
-321.070	-200.000	0.004	0.019
-320.056	-42.492	0.104	-0.053
-319.041	237.404	-0.105	-0.173
-318.026	-200.000	0.053	-0.281
-317.012	-93.107	0.221	-0.061
-315.997	-17.792	-0.186	0.116
-314.983	800.000	-0.038	-0.106
-313.968	800.000	0.158	0.464
-312.953	-200.000	-0.015	-0.135
-311.939	-200.000	-0.036	0.307
-310.924	-52.083	-0.124	-0.057
-309.910	323.719	-0.031	0.058
-308.895	800.000	-0.036	0.135
-307.880	-25.124	0.080	0.047
-306.866	602.306	0.120	-0.296
-305.851	14.265	-0.527	0.407
-304.837	45.511	0.184	0.168
-303.822	-149.255	-0.095	0.008
-302.807	231.763	0.028	0.046
-301.793	-168.491	0.445	0.017
-300.778	-200.000	-0.033	-0.233
-299.764	-5.823	0.150	0.102
-298.749	-136.072	-0.100	-0.012
-297.735	-116.548	0.317	0.058
-296.720	800.000	0.004	0.017
-295.705	29.898	0.228	-0.192
-294.691	-200.000	0.006	-0.210
-293.676	-200.000	0.044	0.536
-292.662	574.910	-0.090	0.218
-291.647	-200.000	-0.041	-0.226
-290.632	800.000	0.061	-0.259
-289.618	178.728	-0.134	-0.194
-288.603	-200.000	-0.035	0.378
-287.589	166.647	0.170	-0.238
-286.574	283.274	-0.152	0.270
-285.559	-200.000	-0.006	0.098
-284.545	-200.000	0.020	0.277
-283.530	-64.058	0.200	0.081
-282.516	139.510	0.112	-0.145
-281.501	-77.177	-0.230	-0.079
-280.486	183.389	0.047	0.068
-279.472	276.677	0.096	0.169
-278.457	-200.000	-0.028	0.351
-277.443	17.067	0.061	-0.048
-276.428	-200.000	0.043	-0.254
-275.413	-18.436	-0.406	0.251
-274.399	5.942	0.271	0.199
-273.384	-52.322	-0.249	-0.114
-272.370	-200.000	0.070	0.422
-271.355	487.418	-0.167	0.376
-270.340	800.000	0.117	0.392
-269.326	800.000	-0.119	-0.367
-268.311	-114.216	0.444	-0.085
-267.297	124.505	0.125	-0.155
-266.282	25.457	-0.201	0.165
-265.267	-67.503	-0.165	-0.064
-264.253	64.827	0.316	-0.315
-263.238	48.880	0.134	-0.124
-262.224	219.929	-0.157	-0.249
-261.209	80.428	0.247	-0.263
-260.195	-15.274	-0.073	-0.046
-259.180	-200.000	-0.030	-0.239
-258.165	-143.619	-0.092	-0.009
-257.151	364.762	-0.074	0.147
-256.136	-111.407	-0.052	0.010
-255.122	201.312	-0.120	-0.183
-254.107	-175.150	0.168	0.005
-253.092	37.984	-0.256	0.224
-252.078	800.000	-0.054	-0.191
-251.063	40.818	0.106	-0.094
-250.049	233.807	-0.048	-0.078
-249.034	-108.761	0.225	0.048
-248.019	-113.417	-0.041	0.008
-247.005	-1.523	-0.089	0.062
-245.990	-164.661	-0.375	-0.017
-244.976	-50.885	-0.369	0.171
-243.961	-200.000	-0.016	-0.082
-242.946	234.016	-0.034	0.055
-241.932	-200.000	0.003	-0.122
-240.917	800.000	-0.022	-0.085
-239.903	19.548	0.321	-0.255
-238.888	-32.644	-0.359	0.197
-237.873	-85.683	0.192	-0.059
-236.859	409.166	-0.092	-0.193
-235.844	800.000	-0.104	0.335
-234.830	800.000	0.042	-0.130
-233.815	94.864	0.144	-0.161
-232.800	-200.000	0.039	-0.283
-231.786	21.236	0.290	-0.232
-230.771	-200.000	0.016	0.105
-229.757	96.087	-0.227	0.256
-228.742	-155.304	0.107	-0.007
-227.727	-12.280	0.216	0.140
-226.713	-157.137	0.434	0.026
-225.698	-80.930	0.056	0.018
-224.684	-54.344	-0.208	0.093
-223.669	247.712	0.160	0.267
-222.655	-200.000	-0.039	0.418
-221.640	-35.314	0.134	-0.072
-220.625	515.719	-0.131	-0.302
-219.611	651.743	-0.028	0.070
-218.596	-114.438	0.061	-0.011
-217.582	121.833	-0.164	-0.202
-216.567	71.156	0.128	0.131
-215.552	167.424	0.228	-0.320
-214.538	118.127	-0.113	-0.138
-213.523	-59.562	-0.461	-0.195
-212.509	-155.533	-0.211	-0.013
-211.494	-200.000	-0.008	0.277
-210.479	-200.000	-0.015	0.164
-209.465	31.777	-0.190	-0.161
-208.450	62.705	-0.108	-0.107
-207.436	800.000	0.089	0.311
-206.421	-159.482	0.239	-0.013
-205.406	250.276	-0.273	0.456
-204.392	53.648	0.054	-0.051
-203.377	800.000	-0.036	0.154
-202.363	-33.140	0.208	0.114
-201.348	-200.000	-0.031	-0.171
-200.333	303.004	0.079	-0.144
-199.319	-49.037	-0.335	0.158
-198.304	-74.728	0.099	0.035
-197.290	-31.395	0.448	-0.248
-196.275	800.000	0.018	0.059
-195.260	-200.000	0.024	-0.387
-194.246	-131.629	-0.328	-0.042
-193.231	27.757	0.405	0.336
-192.217	-181.161	-0.224	0.004
-191.202	-200.000	0.063	-0.295
-190.187	104.075	-0.226	0.262
-189.173	186.511	0.240	0.351
-188.158	163.168	0.155	-0.215
-187.144	-161.892	0.169	-0.008
-186.129	91.262	-0.032	0.035
-185.114	-94.118	-0.123	0.033
-184.100	288.635	-0.041	-0.074
-183.085	-124.545	0.089	0.014
-182.071	126.981	-0.133	-0.167
-181.056	-81.219	-0.399	-0.130
-180.042	91.824	0.042	0.046
-179.027	-108.028	-0.182	0.039
-178.012	-200.000	-0.023	0.406
-176.998	-200.000	0.006	0.169
-175.983	-111.530	-0.046	0.009
-174.969	-200.000	0.024	-0.316
-173.954	-133.225	0.238	0.030
-172.939	-200.000	0.008	0.347
-171.925	-95.364	0.429	0.113
-170.910	-84.280	-0.315	0.098
-169.896	111.539	0.161	0.191
-168.881	433.491	0.127	-0.272
-167.866	-62.977	-0.365	0.149
-166.852	-118.882	0.154	0.027
-165.837	-47.233	0.197	-0.094
-164.823	213.144	0.061	0.094
-163.808	800.000	-0.057	-0.227
-162.793	-86.768	-0.196	-0.059
-161.779	123.120	-0.041	0.051
-160.764	800.000	-0.002	-0.008
-159.750	-100.882	0.199	-0.048
-158.735	-1.598	-0.269	0.187
-157.720	-61.053	0.153	0.064
-156.706	50.166	0.238	0.221
-155.691	-31.030	-0.208	-0.116
-154.677	349.719	0.171	0.332
-153.662	-200.000	0.019	-0.104
-152.647	53.812	-0.139	-0.131
-151.633	202.103	-0.104	0.157
-150.618	-200.000	0.027	-0.206
-149.604	-71.782	-0.131	-0.048
-148.589	-52.121	0.198	-0.090
-147.574	96.919	0.066	0.074
-146.560	321.740	0.140	-0.261
-145.545	148.980	-0.073	-0.098
-144.531	-30.813	0.160	0.089
-143.516	-200.000	-0.002	0.152
-142.502	46.651	0.099	0.090
-141.487	379.853	-0.087	-0.176
-140.472	-147.804	-0.063	0.005
-139.458	-200.000	-0.000	0.067
-138.443	-86.512	-0.321	-0.097
-137.429	150.072	0.081	-0.107
-136.414	-87.383	0.275	0.082
-135.399	343.608	0.237	0.457
-134.385	-136.465	0.101	-0.012
-133.370	-127.969	0.212	0.030
-132.356	-156.251	-0.146	-0.009
-131.341	81.551	-0.080	0.085
-130.326	-56.872	-0.165	0.072
-129.312	-140.928	0.177	-0.018
-128.297	20.087	-0.177	-0.140
-127.283	-105.471	-0.235	-0.052
-126.268	-37.226	-0.073	0.039
-125.253	75.198	0.236	-0.244
-124.239	-149.725	-0.378	-0.029
-123.224	800.000	-0.011	-0.039
