DTS Sentinel unit serial number:	SN413079Multiplexer serial number:	ORYXHardware model number:	OX4-SRSoftware version number:	ORYX F/W v4.00 Oryx Data Collector v3.7.2.0data status	okinstallation	princeton_trtdifferential loss correction	single-endedforward channel	channel 4reverse channel	N/Adate	2019/09/16time	16:57:35forward acquisition time	60.00reverse acquisition time	0.00gamma	496.2192k internal	0.2294k external	0.2294temperature offset calibration	0.9941default loss term (dB/km)	0.3790temperature slope calibration	1.0000multiplexer offset coefficient	1.0000multiplexer slope coefficient	1.0000fibre end	0.00T internal ref (°C)	39.37T ext. ref 1 (°C)	15.27T ext. ref 2 (°C)	33.67length (m)	temperature (°C)	Stokes	anti-Stokes-747.200	-26.549	0.239	-0.143
-746.185	-144.655	0.232	0.022
-745.171	-65.054	0.162	0.067
-744.156	312.599	0.081	0.155
-743.142	-140.757	-0.226	0.024
-742.127	-164.042	0.060	0.003
-741.112	-147.065	0.217	0.019
-740.098	800.000	-0.160	0.456
-739.083	-116.769	-0.241	0.045
-738.069	-200.000	0.012	-0.131
-737.054	137.162	0.266	0.355
-736.039	-200.000	0.022	0.579
-735.025	-200.000	0.048	0.454
-734.010	-200.000	0.000	0.374
-732.996	-112.952	-0.270	-0.055
-731.981	800.000	0.086	-0.277
-730.966	137.628	0.182	-0.243
-729.952	800.000	-0.022	-0.068
-728.937	111.027	-0.044	0.054
-727.923	-200.000	-0.017	-0.262
-726.908	-169.815	0.209	-0.008
-725.894	-168.022	-0.116	0.005
-724.879	-46.995	0.211	-0.105
-723.864	800.000	-0.079	-0.321
-722.850	-17.019	-0.235	-0.151
-721.835	41.180	0.286	0.264
-720.821	54.637	-0.353	0.348
-719.806	-74.172	0.054	-0.020
-718.791	274.583	-0.088	0.159
-717.777	128.130	-0.100	-0.130
-716.762	15.225	-0.067	-0.054
-715.748	-35.107	0.354	0.197
-714.733	-200.000	-0.060	-0.303
-713.718	-13.529	0.098	0.065
-712.704	-166.839	0.403	0.017
-711.689	-200.000	-0.084	0.488
-710.675	-109.266	-0.183	-0.040
-709.660	43.856	-0.265	0.247
-708.645	-158.616	-0.455	0.027
-707.631	-47.202	0.052	0.026
-706.616	-148.733	-0.277	-0.023
-705.602	232.760	0.128	-0.215
-704.587	-200.000	-0.083	-0.395
-703.572	-200.000	-0.014	-0.279
-702.558	40.276	0.088	-0.081
-701.543	-200.000	-0.007	-0.120
-700.529	386.793	-0.140	-0.295
-699.514	7.835	0.406	0.310
-698.499	-63.437	0.104	-0.044
-697.485	800.000	-0.078	-0.237
-696.470	-174.917	0.441	0.013
-695.456	107.084	0.201	0.244
-694.441	-9.494	-0.091	0.062
-693.426	-62.749	0.071	-0.030
-692.412	-200.000	0.005	-0.022
-691.397	-200.000	0.026	-0.300
-690.383	800.000	-0.128	0.426
-689.368	-166.312	0.230	-0.010
-688.354	-160.622	-0.272	-0.015
-687.339	-127.641	-0.233	-0.034
-686.324	-38.383	-0.500	0.270
-685.310	543.144	0.006	0.016
-684.295	106.578	-0.305	0.370
-683.281	127.258	0.127	0.165
-682.266	-200.000	-0.006	0.361
-681.251	-200.000	-0.057	-0.269
-680.237	800.000	-0.039	0.165
-679.222	-177.222	0.084	0.002
-678.208	109.619	0.223	0.272
-677.193	-85.920	-0.186	-0.059
-676.178	76.420	-0.103	-0.112
-675.164	-200.000	-0.011	-0.068
-674.149	800.000	0.031	-0.113
-673.135	-41.257	0.294	-0.154
-672.120	-200.000	-0.045	0.378
-671.105	-146.803	-0.130	0.011
-670.091	57.376	-0.091	-0.091
-669.076	-160.451	-0.538	0.029
-668.062	-200.000	-0.002	0.043
-667.047	115.746	0.110	-0.137
-666.032	800.000	0.072	-0.223
-665.018	479.833	-0.126	-0.292
-664.003	-140.315	-0.222	0.024
-662.989	-200.000	0.000	-0.135
-661.974	-70.916	0.213	-0.082
-660.959	-102.691	0.128	0.031
-659.945	-4.867	-0.099	-0.069
-658.930	-102.358	-0.281	0.069
-657.916	-200.000	0.008	-0.191
-656.901	128.517	-0.228	-0.296
-655.886	800.000	0.032	-0.123
-654.872	-200.000	0.035	0.198
-653.857	-159.435	0.214	0.012
-652.843	150.613	-0.102	-0.141
-651.828	309.950	-0.127	-0.242
-650.814	366.096	-0.137	-0.282
-649.799	64.206	0.235	-0.241
-648.784	-200.000	0.019	-0.122
-647.770	-53.820	0.063	0.029
-646.755	800.000	0.088	0.328
-645.741	-75.238	-0.237	0.086
-644.726	265.731	0.137	0.243
-643.711	-76.053	0.043	-0.015
-642.697	-55.055	-0.133	-0.061
-641.682	553.596	0.055	0.135
-640.668	-200.000	0.052	0.307
-639.653	73.914	0.173	-0.184
-638.638	51.365	0.233	-0.225
-637.624	-117.241	0.197	-0.036
-636.609	-200.000	-0.016	0.104
-635.595	63.032	-0.201	0.205
-634.580	112.278	0.124	-0.153
-633.565	-61.691	0.079	0.034
-632.551	-23.961	0.421	0.256
-631.536	800.000	-0.010	0.035
-630.522	108.211	-0.094	0.114
-629.507	-200.000	0.026	-0.270
-628.492	-200.000	0.010	-0.664
-627.478	-129.556	0.129	-0.018
-626.463	54.881	-0.060	-0.059
-625.449	-16.079	0.130	0.084
-624.434	268.441	0.197	-0.351
-623.419	-57.112	0.116	-0.052
-622.405	-17.535	-0.351	-0.225
-621.390	24.484	-0.340	-0.286
-620.376	-200.000	0.019	-0.295
-619.361	-109.061	-0.056	0.012
-618.346	87.164	-0.161	0.181
-617.332	163.037	-0.137	0.195
-616.317	112.657	0.105	0.129
-615.303	800.000	-0.027	0.096
-614.288	-82.025	-0.138	0.046
-613.273	-1.959	-0.141	0.101
-612.259	142.634	-0.112	-0.152
-611.244	661.493	0.022	0.058
-610.230	30.486	-0.109	0.094
-609.215	4.819	-0.088	-0.066
-608.201	-133.300	-0.466	-0.060
-607.186	-43.213	-0.093	0.048
-606.171	30.991	-0.150	0.131
-605.157	188.039	0.145	-0.221
-604.142	220.166	0.164	-0.267
-603.128	-200.000	-0.033	-0.210
-602.113	-126.780	0.158	-0.024
-601.098	-165.767	0.148	-0.007
-600.084	525.165	0.028	0.068
-599.069	467.616	0.101	-0.230
-598.055	406.726	-0.052	-0.111
-597.040	5.733	0.224	-0.169
-596.025	-135.256	-0.168	0.021
-595.011	-59.718	0.191	-0.083
-593.996	-200.000	0.020	0.232
-592.982	800.000	0.106	0.339
-591.967	-200.000	-0.005	0.207
-590.952	-113.110	0.021	0.004
-589.938	800.000	0.073	0.232
-588.923	-22.200	-0.344	-0.212
-587.909	769.866	-0.103	0.284
-586.894	-200.000	0.040	-0.412
-585.879	-175.152	-0.204	-0.006
-584.865	-200.000	-0.002	-0.042
-583.850	-71.619	-0.155	-0.059
-582.836	-200.000	-0.038	-0.176
-581.821	-131.604	-0.303	-0.040
-580.806	800.000	-0.039	0.112
-579.792	448.108	0.084	0.187
-578.777	-200.000	-0.029	0.186
-577.763	-200.000	-0.006	0.207
-576.748	-200.000	0.009	-0.199
-575.733	800.000	-0.062	-0.188
-574.719	662.433	-0.072	-0.189
-573.704	-200.000	0.088	-0.463
-572.690	201.492	0.026	-0.040
-571.675	-80.925	0.256	0.086
-570.661	128.016	-0.132	-0.170
-569.646	-200.000	-0.057	-0.283
-568.631	87.111	-0.092	0.103
-567.617	301.474	0.090	0.169
-566.602	480.362	0.088	0.203
-565.588	800.000	0.014	0.051
-564.573	-89.829	-0.137	0.041
-563.558	103.209	0.111	0.132
-562.544	62.467	-0.027	0.028
-561.529	-136.124	0.369	0.044
-560.515	800.000	-0.097	-0.280
-559.500	121.275	0.140	0.177
-558.485	16.268	0.230	0.185
-557.471	-121.561	-0.169	-0.028
-556.456	800.000	0.074	0.249
-555.442	-166.938	0.254	0.011
-554.427	107.960	0.031	0.037
-553.412	40.509	0.111	0.101
-552.398	-196.078	0.170	0.001
-551.383	-15.711	-0.168	-0.109
-550.369	-200.000	-0.027	-0.335
-549.354	-193.000	-0.250	0.002
-548.339	66.344	0.150	-0.155
-547.325	298.503	-0.062	-0.116
-546.310	-69.180	-0.219	0.085
-545.296	-88.654	-0.413	-0.125
-544.281	278.435	0.158	0.285
-543.266	-200.000	0.024	0.132
-542.252	257.618	-0.186	0.324
-541.237	69.262	-0.190	-0.199
-540.223	3.817	-0.221	0.164
-539.208	686.735	0.103	0.272
-538.193	800.000	-0.098	-0.388
-537.179	224.353	0.068	0.111
-536.164	76.566	0.049	0.052
-535.150	-28.795	0.302	-0.176
-534.135	17.886	0.297	0.240
-533.121	283.648	-0.056	0.102
-532.106	800.000	-0.046	0.132
-531.091	-200.000	0.057	0.301
-530.077	314.856	0.003	-0.007
-529.062	-200.000	-0.027	0.122
-528.048	130.475	0.225	-0.292
-527.033	-144.188	0.127	0.012
-526.018	38.768	-0.220	0.199
-525.004	-5.112	-0.157	-0.110
-523.989	800.000	0.060	-0.232
-522.975	-116.687	-0.096	-0.018
-521.960	222.246	0.131	0.215
-520.945	-198.342	-0.237	0.001
-519.931	800.000	0.092	0.276
-518.916	-21.986	-0.122	0.075
-517.902	-52.364	-0.113	-0.053
-516.887	189.305	-0.065	0.099
-515.872	21.690	0.049	0.041
-514.858	800.000	-0.105	0.330
-513.843	160.966	-0.091	-0.128
-512.829	-200.000	0.006	0.030
-511.814	800.000	0.042	-0.138
-510.799	-81.329	0.043	0.014
-509.785	-52.450	0.146	-0.069
-508.770	-200.000	-0.001	-0.151
-507.756	342.725	-0.118	-0.235
-506.741	-200.000	-0.016	0.106
-505.726	323.213	-0.107	-0.206
-504.712	695.927	0.069	0.184
-503.697	-41.648	-0.279	0.145
-502.683	225.391	0.097	0.159
-501.668	-83.318	-0.276	0.090
-500.653	122.322	0.100	0.127
-499.639	101.681	-0.214	-0.253
-498.624	-82.140	0.217	-0.072
-497.610	-52.509	0.150	0.070
-496.595	99.077	-0.186	-0.217
-495.581	-200.000	0.001	-0.208
-494.566	-98.740	0.169	0.044
-493.551	251.677	-0.062	0.107
-492.537	-200.000	0.058	-0.297
-491.522	-200.000	0.032	-0.265
-490.508	718.946	-0.052	-0.141
-489.493	235.929	-0.159	0.266
-488.478	239.657	0.109	0.183
-487.464	47.248	0.079	-0.075
-486.449	112.592	-0.142	0.175
-485.435	-180.372	-0.470	-0.010
-484.420	-200.000	0.024	-0.224
-483.405	-200.000	-0.044	-0.268
-482.391	143.614	0.190	0.257
-481.376	-200.000	0.082	0.405
-480.362	-96.706	-0.103	0.027
-479.347	-109.196	-0.220	0.047
-478.332	194.211	0.100	-0.154
-477.318	14.110	-0.095	-0.075
-476.303	-13.537	-0.344	0.226
-475.289	800.000	0.097	0.322
-474.274	-92.376	0.132	0.038
-473.259	-98.120	-0.244	-0.063
-472.245	-179.678	-0.106	-0.002
-471.230	417.649	0.052	-0.113
-470.216	-129.274	-0.305	0.043
-469.201	9.663	-0.254	-0.194
-468.186	-200.000	-0.010	-0.186
-467.172	-200.000	-0.011	0.319
-466.157	25.073	-0.208	-0.175
-465.143	195.169	0.132	-0.202
-464.128	-200.000	-0.030	-0.219
-463.113	284.366	0.062	0.113
-462.099	33.525	0.168	-0.148
-461.084	343.274	-0.026	-0.051
-460.070	129.680	0.214	0.276
-459.055	-61.933	0.287	0.121
-458.040	53.123	0.185	-0.179
-457.026	-53.585	-0.151	-0.070
-456.011	59.489	0.135	0.134
-454.997	38.790	0.222	0.200
-453.982	-79.874	-0.174	0.059
-452.968	-170.331	-0.130	0.005
-451.953	-88.835	-0.342	-0.103
-450.938	-106.414	0.129	0.029
-449.924	50.608	-0.053	0.050
-448.909	228.475	0.055	-0.091
-447.895	335.608	0.023	0.045
-446.880	198.543	-0.301	-0.466
-445.865	153.092	-0.097	-0.133
-444.851	-53.150	0.183	0.085
-443.836	19.098	0.079	-0.064
-442.822	-106.215	-0.347	-0.079
-441.807	435.152	0.042	0.092
-440.792	-200.000	0.046	-0.299
-439.778	-66.566	-0.067	-0.027
-438.763	-112.215	-0.268	0.054
-437.749	245.438	0.048	0.081
-436.734	40.366	0.200	0.182
-435.719	-130.238	-0.092	0.013
-434.705	800.000	0.098	-0.350
-433.690	800.000	0.044	-0.166
-432.676	71.883	-0.046	0.048
-431.661	304.974	0.102	-0.191
-430.646	220.511	0.120	-0.195
-429.632	-200.000	-0.034	-0.227
-428.617	-4.291	-0.250	0.175
-427.603	-30.108	0.387	-0.223
-426.588	-200.000	0.001	0.115
-425.573	-95.403	0.401	-0.109
-424.559	-128.776	-0.169	0.024
-423.544	160.621	0.126	0.178
-422.530	-82.703	-0.069	0.022
-421.515	298.026	-0.190	-0.353
-420.500	-200.000	0.028	0.210
-419.486	242.884	-0.047	-0.079
-418.471	94.823	-0.063	0.072
-417.457	800.000	-0.037	-0.136
-416.442	157.362	-0.165	-0.230
-415.428	425.388	0.141	-0.306
-414.413	-76.722	0.168	-0.059
-413.398	7.514	0.113	-0.085
-412.384	-200.000	-0.018	-0.183
-411.369	800.000	0.059	0.170
-410.355	-5.253	-0.250	-0.174
-409.340	-200.000	-0.019	0.110
-408.325	-200.000	0.030	0.306
-407.311	-28.349	-0.182	0.106
-406.296	-200.000	-0.000	-0.022
-405.282	36.561	0.184	-0.164
-404.267	-145.367	-0.086	-0.008
-403.252	-157.182	0.272	0.017
-402.238	-200.000	-0.053	0.304
-401.223	-52.276	0.123	0.057
-400.209	-200.000	-0.007	0.102
-399.194	11.187	0.128	-0.099
-398.179	66.618	-0.223	-0.229
-397.165	-102.536	-0.250	0.060
-396.150	-32.460	-0.158	0.089
-395.136	203.316	0.128	-0.200
-394.121	-200.000	0.031	-0.253
-393.106	228.083	-0.190	0.311
-392.092	194.820	0.076	-0.116
-391.077	-200.000	0.069	-0.396
-390.063	800.000	0.007	-0.023
-389.048	-57.933	0.324	-0.143
-388.033	119.175	0.169	-0.210
-387.019	-124.653	0.084	-0.013
-386.004	12.681	0.150	0.116
-384.990	128.194	-0.220	0.282
-383.975	101.032	0.191	0.224
-382.960	-31.120	-0.054	-0.031
-381.946	222.088	0.041	0.066
-380.931	45.580	0.081	-0.075
-379.917	105.207	-0.070	0.083
-378.902	-99.582	-0.275	-0.070
-377.888	-64.352	0.299	0.123
-376.873	-36.293	-0.107	-0.058
-375.858	347.687	0.159	-0.316
-374.844	348.672	0.049	-0.098
-373.829	-200.000	-0.054	0.321
-372.815	-16.353	0.166	-0.106
-371.800	-200.000	-0.008	-0.135
-370.785	-200.000	-0.025	-0.313
-369.771	46.950	0.194	0.182
-368.756	45.122	0.114	0.106
-367.742	253.779	0.024	-0.040
-366.727	-128.285	0.026	0.004
-365.712	392.577	-0.102	0.213
-364.698	-91.872	0.356	0.102
-363.683	-175.300	0.288	-0.008
-362.669	799.343	-0.054	-0.150
-361.654	-78.938	0.088	-0.030
-360.639	123.044	0.106	0.134
-359.625	-95.306	-0.416	0.113
-358.610	44.948	0.397	0.368
-357.596	-200.000	-0.018	-0.292
-356.581	4.073	-0.243	0.179
-355.566	14.228	-0.378	-0.297
-354.552	38.925	0.221	0.199
-353.537	-138.432	-0.180	-0.020
-352.523	-95.955	0.183	0.049
-351.508	-50.551	0.167	-0.079
-350.493	-57.633	0.251	0.111
-349.479	73.334	0.174	0.183
-348.464	41.690	-0.085	0.078
-347.450	-200.000	-0.008	-0.145
-346.435	-61.172	0.201	-0.086
-345.420	-9.672	0.206	0.138
-344.406	-200.000	0.001	-0.111
-343.391	14.197	-0.277	0.217
-342.377	-200.000	-0.016	0.142
-341.362	95.581	0.043	-0.050
-340.348	-184.440	-0.238	0.004
-339.333	-99.838	0.150	0.038
-338.318	-119.323	-0.364	-0.064
-337.304	174.000	0.020	-0.030
-336.289	-127.016	-0.368	-0.054
-335.275	-32.248	0.131	0.074
-334.260	65.093	0.071	0.072
-333.245	-200.000	-0.020	0.195
-332.231	-98.461	-0.249	-0.064
-331.216	-200.000	-0.029	0.137
-330.202	241.891	0.078	-0.132
-329.187	26.701	0.099	-0.083
-328.172	-70.716	0.134	0.051
-327.158	-89.667	0.009	-0.003
-326.143	-200.000	0.018	-0.147
-325.129	-64.302	-0.172	0.071
-324.114	213.980	-0.169	-0.270
-323.099	-106.474	-0.205	0.046
-322.085	-68.013	0.243	0.095
-321.070	770.383	-0.102	0.278
-320.056	334.264	0.121	0.235
-319.041	110.665	-0.178	0.215
-318.026	-72.334	-0.412	-0.153
-317.012	-200.000	-0.009	0.189
-315.997	70.180	-0.027	-0.028
-314.983	800.000	0.071	0.245
-313.968	-173.934	0.367	0.011
-312.953	-200.000	0.004	-0.135
-311.939	800.000	0.023	0.091
-310.924	-13.469	-0.228	-0.148
-309.910	-25.953	-0.238	-0.141
-308.895	-43.357	0.061	0.031
-307.880	-94.593	0.298	0.081
-306.866	-158.486	-0.043	-0.002
-305.851	134.265	0.140	-0.183
-304.837	10.427	-0.204	0.156
-303.822	-93.835	-0.403	0.112
-302.807	-98.595	0.224	-0.058
-301.793	-200.000	0.069	0.350
-300.778	-200.000	-0.014	0.128
-299.764	-200.000	0.017	-0.237
-298.749	800.000	-0.084	-0.358
-297.735	800.000	0.050	-0.212
-296.720	-51.682	0.289	-0.135
-295.705	104.816	-0.217	0.257
-294.691	-200.000	0.034	0.282
-293.676	-200.000	0.003	0.134
-292.662	-97.553	0.348	-0.091
-291.647	-59.488	0.028	-0.012
-290.632	9.742	0.144	-0.110
-289.618	32.325	0.006	0.005
-288.603	-93.661	0.040	0.011
-287.589	-93.051	-0.172	0.048
-286.574	124.679	0.065	0.083
-285.559	410.951	0.009	-0.020
-284.545	196.245	-0.127	0.194
-283.530	157.395	-0.178	0.247
-282.516	-200.000	0.018	0.194
-281.501	10.534	0.183	0.140
-280.486	-69.037	0.188	-0.073
-279.472	-73.371	0.365	0.134
-278.457	800.000	-0.046	0.156
-277.443	-0.404	0.277	-0.198
-276.428	371.999	-0.175	-0.357
-275.413	-200.000	0.011	-0.312
-274.399	-122.097	0.056	0.009
-273.384	612.174	0.039	-0.098
-272.370	70.236	-0.198	-0.205
-271.355	126.493	0.209	0.265
-270.340	-40.427	-0.206	0.107
-269.326	-69.906	-0.413	0.158
-268.311	-21.073	0.247	0.151
-267.297	-13.857	-0.181	0.118
-266.282	378.918	0.098	0.202
-265.267	-53.074	-0.309	-0.143
-264.253	-102.024	-0.199	0.048
-263.238	800.000	0.039	-0.120
-262.224	-49.672	0.176	-0.084
-261.209	800.000	-0.036	0.116
-260.195	800.000	0.047	0.188
-259.180	147.205	-0.094	-0.126
-258.165	-64.084	-0.058	0.024
-257.151	104.143	0.067	-0.079
-256.136	126.953	-0.131	0.166
-255.122	5.087	0.205	-0.151
-254.107	216.576	-0.122	0.195
-253.092	-111.865	0.090	-0.018
-252.078	-130.426	0.235	-0.032
-251.063	338.496	0.100	-0.195
-250.049	203.356	0.023	0.036
-249.034	800.000	0.017	-0.070
-248.019	800.000	-0.092	-0.264
-247.005	-200.000	-0.050	-0.282
-245.990	176.307	-0.117	-0.170
-244.976	307.802	0.062	-0.115
-243.961	-80.975	-0.092	-0.031
-242.946	-200.000	-0.014	-0.203
-241.932	42.123	0.084	-0.076
-240.917	-73.104	-0.045	0.017
-239.903	-118.089	0.067	-0.012
-238.888	121.224	0.001	0.002
-237.873	-65.026	0.104	0.042
-236.859	800.000	-0.018	0.065
-235.844	101.826	0.165	-0.193
-234.830	112.637	-0.299	-0.362
-233.815	302.213	0.131	-0.243
-232.800	-6.293	-0.166	0.114
-231.786	-200.000	-0.004	0.055
-230.771	-23.642	-0.326	0.196
-229.757	676.682	-0.145	0.378
-228.742	75.739	-0.065	-0.069
-227.727	17.032	0.065	-0.051
-226.713	659.867	-0.088	-0.227
-225.698	13.637	-0.068	0.053
-224.684	31.128	-0.259	-0.222
-223.669	16.272	0.094	0.074
-222.655	127.080	-0.038	-0.048
-221.640	-24.685	-0.105	0.063
-220.625	-97.102	-0.272	-0.071
-219.611	66.804	0.138	-0.140
-218.596	50.239	0.113	0.107
-217.582	-110.968	-0.082	0.017
-216.567	-61.057	0.217	0.092
-215.552	800.000	0.057	0.193
-214.538	-200.000	0.006	0.225
-213.523	-19.657	0.144	0.089
-212.509	52.898	-0.393	0.377
-211.494	-62.830	0.116	-0.048
-210.479	479.482	-0.110	-0.250
-209.465	94.970	0.013	-0.015
-208.450	-74.994	-0.354	-0.127
-207.436	-200.000	0.412	0.002
-206.421	345.217	0.045	0.089
-205.406	-200.000	-0.033	-0.195
-204.392	48.002	-0.263	-0.246
-203.377	-12.917	0.166	-0.108
-202.363	-200.000	0.003	-0.087
-201.348	103.045	-0.171	-0.201
-200.333	400.014	0.035	-0.073
-199.319	-132.122	0.070	0.009
-198.304	128.681	-0.243	0.310
-197.290	-52.636	-0.299	-0.138
-196.275	800.000	-0.036	0.106
-195.260	29.593	-0.148	-0.126
-194.246	-116.586	0.098	0.018
-193.231	386.717	-0.196	0.406
-192.217	-200.000	0.038	0.550
-191.202	165.346	0.208	-0.294
-190.187	431.010	0.179	0.388
-189.173	-88.010	0.118	0.035
-188.158	-169.781	0.343	0.012
-187.144	486.084	0.042	0.096
-186.129	49.519	0.145	0.137
-185.114	-117.402	-0.247	0.045
-184.100	-200.000	-0.053	0.251
-183.085	-58.849	-0.047	-0.020
-182.071	187.513	0.114	0.170
-181.056	-34.005	-0.149	-0.082
-180.042	82.055	-0.158	0.171
-179.027	-200.000	0.028	0.158
-178.012	-103.676	0.158	0.037
-176.998	-200.000	0.024	0.404
-175.983	-106.388	0.177	0.040
-174.969	-200.000	0.081	0.464
-173.954	-84.205	0.086	0.027
-172.939	-65.560	0.175	0.070
-171.925	-139.402	-0.157	0.017
-170.910	79.058	-0.127	0.136
-169.896	164.696	-0.088	-0.124
-168.881	551.653	0.086	0.207
-167.866	-200.000	-0.048	0.348
-166.852	171.714	0.170	-0.244
-165.837	181.296	0.154	-0.227
-164.823	-73.726	0.109	-0.040
-163.808	122.945	-0.068	0.085
-162.793	9.562	0.110	0.083
-161.779	107.325	-0.044	0.052
-160.764	441.924	0.052	-0.114
-159.750	105.464	0.181	-0.213
-158.735	110.422	0.209	-0.251
-157.720	800.000	0.016	0.051
-156.706	-200.000	-0.029	-0.295
-155.691	488.278	0.040	0.092
-154.677	227.984	0.142	-0.231
-153.662	-61.164	0.273	-0.115
-152.647	216.272	0.146	0.232
-151.633	49.819	0.249	-0.235
-150.618	-200.000	0.026	-0.120
-149.604	-200.000	0.018	0.279
-148.589	-200.000	0.051	0.358
-147.574	-70.564	-0.191	0.072
-146.560	160.033	0.126	-0.175
-145.545	147.124	0.185	-0.249
-144.531	684.331	-0.126	-0.328
-143.516	314.442	0.120	0.226
-142.502	-100.092	-0.088	0.022
-141.487	419.190	0.159	0.339
-140.472	-200.000	0.032	0.167
-139.458	-77.788	0.368	0.127
-138.443	-21.765	-0.256	-0.156
-137.429	90.821	-0.045	0.051
-136.414	-164.584	0.197	0.009
-135.399	-200.000	0.017	-0.179
-134.385	257.324	-0.113	0.194
-133.370	158.827	0.180	-0.249
-132.356	-119.282	0.165	-0.029
-131.341	-2.782	-0.143	-0.100
-130.326	-200.000	0.010	-0.230
-129.312	5.531	-0.206	0.152
-128.297	-6.766	-0.098	-0.066
-127.283	-97.797	0.457	-0.118
-126.268	-10.142	0.177	-0.117
-125.253	-61.053	-0.349	0.147
-124.239	-200.000	-0.014	-0.345
-123.224	43.257	-0.303	-0.276
-122.210	-23.431	-0.261	-0.156
-121.195	177.951	0.056	-0.081
-120.180	-34.443	-0.054	-0.029
