DTS Sentinel unit serial number:	SN413079Multiplexer serial number:	ORYXHardware model number:	OX4-SRSoftware version number:	ORYX F/W v4.00 Oryx Data Collector v3.7.2.0data status	okinstallation	princeton_trtdifferential loss correction	single-endedforward channel	channel 4reverse channel	N/Adate	2019/09/17time	02:05:35forward acquisition time	60.00reverse acquisition time	0.00gamma	496.2192k internal	0.2312k external	0.2312temperature offset calibration	0.9977default loss term (dB/km)	0.3790temperature slope calibration	1.0000multiplexer offset coefficient	1.0000multiplexer slope coefficient	1.0000fibre end	0.00T internal ref (°C)	29.69T ext. ref 1 (°C)	0.12T ext. ref 2 (°C)	24.59length (m)	temperature (°C)	Stokes	anti-Stokes-747.200	-93.793	0.134	-0.037
-746.185	543.138	-0.178	0.431
-745.171	800.000	0.071	0.264
-744.156	-120.725	0.100	0.017
-743.142	-97.752	-0.363	0.095
-742.127	785.078	-0.099	0.275
-741.112	-150.158	0.334	0.026
-740.098	-123.595	-0.168	-0.027
-739.083	-147.725	0.305	0.026
-738.069	800.000	0.101	0.405
-737.054	324.139	-0.087	0.168
-736.039	-97.319	-0.230	0.061
-735.025	-20.807	-0.123	-0.076
-734.010	9.590	0.155	0.119
-732.996	-12.288	-0.183	-0.121
-731.981	338.371	-0.126	-0.249
-730.966	800.000	0.018	0.060
-729.952	-40.568	-0.254	-0.133
-728.937	276.879	-0.180	0.325
-727.923	-107.389	-0.093	-0.021
-726.908	-200.000	0.007	0.168
-725.894	39.483	0.103	0.093
-724.879	-21.358	-0.227	-0.141
-723.864	-141.513	0.347	0.036
-722.850	272.969	-0.186	-0.334
-721.835	-79.417	0.194	0.066
-720.821	103.932	0.170	-0.203
-719.806	800.000	-0.082	0.257
-718.791	-15.087	-0.278	-0.180
-717.777	800.000	-0.053	-0.189
-716.762	-55.402	-0.082	-0.037
-715.748	-64.811	-0.418	0.171
-714.733	122.294	0.058	0.074
-713.718	-41.429	-0.132	-0.069
-712.704	126.905	-0.126	-0.161
-711.689	-96.319	-0.424	-0.114
-710.675	225.760	0.114	0.188
-709.660	170.318	0.249	0.362
-708.645	429.136	-0.098	-0.214
-707.631	-84.525	-0.383	-0.123
-706.616	8.253	0.234	-0.178
-705.602	155.636	0.191	-0.267
-704.587	-43.358	-0.284	0.146
-703.572	541.899	0.070	-0.169
-702.558	-99.719	-0.215	-0.055
-701.543	-115.538	-0.056	0.011
-700.529	158.666	-0.042	0.060
-699.514	147.827	0.051	-0.069
-698.499	-24.310	0.152	-0.092
-697.485	-85.975	-0.205	0.064
-696.470	41.227	0.157	-0.144
-695.456	-200.000	-0.008	0.145
-694.441	-3.848	-0.201	0.141
-693.426	-99.634	-0.139	-0.035
-692.412	-2.218	-0.161	-0.114
-691.397	85.818	0.154	-0.171
-690.383	800.000	-0.056	0.180
-689.368	40.369	-0.081	0.074
-688.354	-200.000	0.008	-0.406
-687.339	17.146	-0.082	-0.066
-686.324	-159.243	-0.114	-0.006
-685.310	-200.000	0.055	0.368
-684.295	-200.000	-0.056	0.288
-683.281	-83.525	-0.149	-0.048
-682.266	-200.000	0.031	0.147
-681.251	115.033	-0.190	0.235
-680.237	-27.901	-0.195	0.114
-679.222	-29.951	0.138	0.080
-678.208	-14.544	0.065	0.043
-677.193	800.000	0.022	0.073
-676.178	-200.000	0.077	-0.407
-675.164	-4.403	0.230	-0.161
-674.149	-44.420	-0.306	0.155
-673.135	101.851	0.095	-0.112
-672.120	-128.561	0.347	-0.050
-671.105	56.230	0.200	0.197
-670.091	-200.000	-0.061	0.317
-669.076	-26.479	0.252	0.150
-668.062	-118.912	0.105	-0.019
-667.047	490.568	-0.194	-0.449
-666.032	-200.000	-0.015	0.092
-665.018	800.000	-0.086	0.254
-664.003	384.917	-0.097	0.203
-662.989	-45.027	-0.471	0.237
-661.974	-180.620	-0.205	-0.004
-660.959	-200.000	0.009	-0.232
-659.945	70.829	0.165	-0.173
-658.930	272.650	-0.082	-0.147
-657.916	150.328	-0.174	0.239
-656.901	-162.777	-0.135	-0.007
-655.886	61.518	-0.080	-0.080
-654.872	135.218	0.193	0.254
-653.857	800.000	-0.057	-0.179
-652.843	87.909	0.081	0.090
-651.828	-79.625	0.335	-0.114
-650.814	104.370	0.179	0.213
-649.799	327.855	0.082	0.159
-648.784	800.000	-0.052	-0.231
-647.770	-2.585	-0.335	-0.237
-646.755	94.559	-0.212	-0.243
-645.741	61.163	0.154	0.154
-644.726	-112.055	-0.228	-0.046
-643.711	366.897	0.179	0.365
-642.697	12.377	-0.614	0.478
-641.682	57.852	0.033	-0.033
-640.668	800.000	0.055	0.192
-639.653	-200.000	-0.026	0.122
-638.638	800.000	0.034	-0.136
-637.624	-200.000	0.006	-0.135
-636.609	800.000	-0.034	-0.136
-635.595	-65.585	0.241	0.098
-634.580	-57.237	0.134	0.060
-633.565	432.360	0.043	-0.094
-632.551	-60.141	-0.191	-0.082
-631.536	-193.779	-0.396	-0.003
-630.522	-104.163	0.403	-0.095
-629.507	27.460	-0.013	-0.011
-628.492	691.474	0.049	0.131
-627.478	-71.884	0.117	-0.044
-626.463	-98.384	-0.151	-0.039
-625.449	-173.434	-0.402	-0.012
-624.434	-200.000	0.048	-0.249
-623.419	-76.527	0.218	-0.077
-622.405	-137.193	0.224	0.026
-621.390	-200.000	0.018	-0.192
-620.376	295.257	-0.129	-0.238
-619.361	535.382	0.219	0.525
-618.346	-49.873	-0.170	-0.082
-617.332	187.635	0.126	-0.189
-616.317	-50.629	-0.212	-0.101
-615.303	184.421	0.217	0.325
-614.288	-200.000	-0.039	0.228
-613.273	11.340	0.284	-0.219
-612.259	-114.350	0.203	0.039
-611.244	-51.579	-0.341	0.161
-610.230	112.378	-0.212	-0.259
-609.215	800.000	0.081	0.262
-608.201	800.000	0.050	0.167
-607.186	235.117	0.111	-0.185
-606.171	373.213	-0.136	0.279
-605.157	-200.000	0.015	0.105
-604.142	193.979	0.162	0.248
-603.128	-165.607	-0.294	-0.013
-602.113	-95.553	0.133	0.036
-601.098	-103.142	0.250	-0.060
-600.084	0.503	0.116	0.083
-599.069	291.952	0.063	-0.117
-598.055	724.559	-0.057	-0.154
-597.040	-85.953	0.218	-0.068
-596.025	-200.000	0.023	0.185
-595.011	800.000	-0.061	0.266
-593.996	22.865	-0.043	0.036
-592.982	-104.533	0.312	0.073
-591.967	78.158	-0.195	0.210
-590.952	-149.749	-0.055	0.004
-589.938	-200.000	0.045	0.219
-588.923	-165.368	-0.180	-0.008
-587.909	68.844	0.324	0.336
-586.894	-110.369	0.166	0.035
-585.879	-200.000	0.046	-0.341
-584.865	412.336	0.056	0.120
-583.850	800.000	0.037	-0.122
-582.836	-51.682	0.299	0.140
-581.821	-146.855	-0.193	-0.017
-580.806	271.354	0.101	-0.179
-579.792	-44.130	-0.105	-0.053
-578.777	-200.000	-0.013	0.097
-577.763	-76.140	-0.170	-0.061
-576.748	44.885	0.155	-0.144
-575.733	-200.000	-0.017	-0.152
-574.719	3.045	0.063	-0.046
-573.704	-20.104	-0.102	0.063
-572.690	-200.000	0.005	-0.091
-571.675	-24.284	-0.162	0.097
-570.661	-122.010	-0.212	-0.035
-569.646	-200.000	-0.004	0.225
-568.631	800.000	0.106	0.382
-567.617	-31.812	-0.353	0.199
-566.602	-71.693	-0.424	0.159
-565.588	223.538	-0.097	0.157
-564.573	229.121	0.118	-0.195
-563.558	-42.521	-0.273	0.140
-562.544	-8.385	-0.068	-0.046
-561.529	-27.881	-0.422	0.246
-560.515	-67.340	0.212	0.084
-559.500	-114.755	0.367	-0.071
-558.485	-159.234	0.261	-0.015
-557.471	800.000	0.101	0.314
-556.456	-200.000	-0.008	0.155
-555.442	-200.000	0.085	-0.481
-554.427	572.520	0.059	-0.146
-553.412	-58.799	0.046	0.020
-552.398	317.152	0.037	-0.070
-551.383	-200.000	-0.092	-0.439
-550.369	45.342	-0.256	-0.238
-549.354	-200.000	-0.054	0.241
-548.339	42.872	-0.048	-0.044
-547.325	800.000	-0.010	0.031
-546.310	708.126	-0.094	0.249
-545.296	230.500	0.070	0.115
-544.281	-200.000	-0.016	-0.431
-543.266	324.825	-0.090	-0.173
-542.252	168.805	0.128	0.184
-541.237	-6.129	0.142	-0.098
-540.223	113.732	-0.072	-0.088
-539.208	-172.530	-0.205	-0.007
-538.193	800.000	0.014	0.054
-537.179	-200.000	0.036	0.216
-536.164	458.784	-0.188	0.421
-535.150	-200.000	-0.024	-0.287
-534.135	139.752	-0.091	0.120
-533.121	800.000	0.100	0.367
-532.106	-74.563	0.156	0.056
-531.091	-127.688	-0.089	0.013
-530.077	114.972	-0.166	-0.203
-529.062	-120.856	-0.226	0.038
-528.048	11.359	-0.095	0.073
-527.033	800.000	0.100	0.390
-526.018	-121.898	-0.540	0.090
-525.004	-0.648	0.255	0.182
-523.989	-138.652	0.154	-0.017
-522.975	-27.257	-0.259	0.152
-521.960	-82.304	-0.477	-0.156
-520.945	-108.878	0.174	0.037
-519.931	-98.426	0.277	-0.071
-518.916	-73.415	0.004	0.001
-517.902	117.463	-0.087	0.108
-516.887	176.374	-0.114	0.167
-515.872	258.916	0.083	0.144
-514.858	800.000	-0.070	-0.236
-513.843	-200.000	-0.046	0.297
-512.829	116.546	0.079	0.097
-511.814	166.503	-0.114	0.163
-510.799	97.721	-0.154	0.178
-509.785	12.562	-0.046	0.036
-508.770	-200.000	0.044	-0.429
-507.756	800.000	-0.043	-0.179
-506.741	289.469	0.152	0.278
-505.726	800.000	-0.045	-0.146
-504.712	-167.636	0.193	-0.008
-503.697	122.521	0.071	-0.090
-502.683	800.000	-0.095	-0.267
-501.668	800.000	0.040	0.119
-500.653	237.512	0.152	0.254
-499.639	93.510	0.204	-0.232
-498.624	-55.144	-0.433	0.196
-497.610	97.429	-0.067	-0.077
-496.595	-200.000	-0.021	0.329
-495.581	-56.127	0.144	0.064
-494.566	-185.164	0.152	-0.002
-493.551	-200.000	0.015	-0.214
-492.537	-8.435	-0.152	-0.103
-491.522	-141.061	-0.357	-0.037
-490.508	31.458	-0.165	0.143
-489.493	626.729	0.021	-0.053
-488.478	-43.966	-0.201	-0.101
-487.464	-32.773	-0.304	0.170
-486.449	-82.204	0.189	-0.062
-485.435	-85.926	-0.097	-0.030
-484.420	-196.969	-0.135	0.001
-483.405	-170.099	-0.078	-0.003
-482.391	-200.000	-0.026	-0.222
-481.376	-200.000	-0.004	0.329
-480.362	-67.402	0.281	-0.111
-479.347	265.353	0.035	0.061
-478.332	42.712	-0.162	0.148
-477.318	-150.441	0.284	-0.022
-476.303	221.407	0.212	-0.342
-475.289	-200.000	0.015	-0.335
-474.274	89.422	0.106	0.119
-473.259	71.324	-0.208	0.217
-472.245	113.698	-0.257	-0.314
-471.230	-116.708	0.130	0.024
-470.216	3.762	0.308	0.225
-469.201	-71.340	0.454	0.171
-468.186	800.000	-0.073	-0.222
-467.172	188.841	-0.179	-0.270
-466.157	800.000	0.025	-0.070
-465.143	268.094	0.059	0.104
-464.128	57.724	0.162	0.159
-463.113	119.258	-0.007	0.009
-462.099	38.060	0.270	0.241
-461.084	-17.549	-0.440	-0.277
-460.070	88.244	0.322	-0.358
-459.055	554.103	0.087	0.210
-458.040	-200.000	0.008	-0.082
-457.026	-44.591	-0.047	-0.024
-456.011	108.487	-0.021	-0.026
-454.997	-24.815	0.240	0.143
-453.982	214.395	-0.053	0.084
-452.968	-200.000	0.050	-0.231
-451.953	6.670	0.265	-0.197
-450.938	-160.888	0.019	-0.001
-449.924	-48.492	-0.259	-0.125
-448.909	74.726	0.143	-0.151
-447.895	281.311	0.114	-0.204
-446.880	-200.000	0.002	-0.015
-445.865	51.681	0.101	0.096
-444.851	22.027	-0.063	0.052
-443.836	-200.000	0.020	-0.122
-442.822	-200.000	-0.014	-0.219
-441.807	800.000	0.035	-0.137
-440.792	205.313	0.076	-0.118
-439.778	400.493	-0.126	0.265
-438.763	437.167	-0.157	0.344
-437.749	161.802	-0.050	0.070
-436.734	800.000	-0.031	0.132
-435.719	185.346	-0.212	-0.316
-434.705	84.695	-0.188	-0.207
-433.690	-200.000	-0.045	0.267
-432.676	-200.000	-0.032	0.180
-431.661	87.167	0.067	-0.074
-430.646	-65.657	0.359	0.144
-429.632	-66.987	0.313	-0.124
-428.617	11.091	-0.207	-0.159
-427.603	65.649	-0.092	0.093
-426.588	-71.534	0.197	-0.074
-425.573	4.241	0.198	0.145
-424.559	253.060	0.039	-0.066
-423.544	-1.280	-0.212	0.150
-422.530	647.698	0.107	-0.273
-421.515	196.721	-0.146	0.223
-420.500	800.000	-0.101	0.282
-419.486	22.204	-0.194	0.159
-418.471	-200.000	-0.011	-0.124
-417.457	-200.000	0.052	0.231
-416.442	800.000	0.067	0.292
-415.428	112.681	-0.188	-0.228
-414.413	67.794	-0.175	-0.179
-413.398	-36.858	-0.286	0.154
-412.384	800.000	0.037	-0.105
-411.369	55.360	0.097	-0.094
-410.355	-128.462	0.209	0.030
-409.340	-58.887	-0.351	0.152
-408.325	37.277	0.128	0.113
-407.311	24.492	0.282	0.233
-406.296	-146.271	-0.216	0.019
-405.282	499.540	0.114	-0.264
-404.267	-82.409	0.074	-0.024
-403.252	-55.998	0.339	0.151
-402.238	-87.232	0.164	-0.050
-401.223	109.526	-0.011	0.013
-400.209	14.155	0.056	-0.044
-399.194	94.995	0.063	-0.072
-398.179	-48.609	-0.150	-0.072
-397.165	-65.905	-0.281	-0.112
-396.150	-144.736	0.186	0.017
-395.136	-200.000	0.033	-0.274
-394.121	-71.363	-0.195	0.073
-393.106	83.501	-0.107	0.116
-392.092	235.648	-0.060	-0.099
-391.077	178.320	-0.108	0.158
-390.063	800.000	-0.033	-0.134
-389.048	-93.884	0.087	0.024
-388.033	-80.763	0.311	0.103
-387.019	-136.879	0.549	0.063
-386.004	-59.040	-0.217	0.094
-384.990	242.028	-0.030	-0.050
-383.975	88.177	0.185	-0.205
-382.960	15.657	-0.229	0.180
-381.946	195.615	-0.002	-0.003
-380.931	-200.000	-0.007	0.068
-379.917	115.687	0.078	-0.095
-378.902	-200.000	-0.051	-0.271
-377.888	158.141	-0.022	0.031
-376.873	-114.422	0.141	0.027
-375.858	-7.949	0.141	-0.095
-374.844	-200.000	0.006	-0.074
-373.829	42.281	0.188	-0.170
-372.815	-200.000	-0.090	-0.506
-371.800	288.565	0.081	-0.146
-370.785	-200.000	-0.013	0.260
-369.771	-200.000	0.061	-0.277
-368.756	167.188	-0.075	0.106
-367.742	-36.527	-0.113	-0.061
-366.727	21.077	-0.168	-0.136
-365.712	58.965	0.101	-0.099
-364.698	-63.225	-0.314	-0.129
-363.683	-49.380	-0.375	-0.179
-362.669	-175.789	-0.111	-0.003
-361.654	20.869	-0.144	0.117
-360.639	44.426	0.317	0.291
-359.625	-200.000	0.074	-0.341
-358.610	-53.002	-0.297	-0.137
-357.596	6.761	-0.220	-0.164
-356.581	417.843	0.075	-0.160
-355.566	-200.000	-0.024	-0.212
-354.552	81.396	-0.097	0.104
-353.537	53.093	0.031	0.030
-352.523	-94.031	0.192	-0.053
-351.508	-52.360	-0.127	0.059
-350.493	-119.527	0.039	0.007
-349.479	137.064	0.139	0.182
-348.464	144.788	-0.135	0.180
-347.450	-135.270	-0.293	-0.035
-346.435	211.886	-0.054	-0.084
-345.420	409.570	0.056	0.118
-344.406	-200.000	0.041	0.265
-343.391	-200.000	-0.000	0.159
-342.377	-11.360	0.226	0.148
-341.362	-80.031	-0.216	-0.072
-340.348	-200.000	-0.039	-0.218
-339.333	800.000	0.091	-0.312
-338.318	-56.630	0.229	0.101
-337.304	-97.010	-0.203	0.053
-336.289	-53.055	0.348	-0.160
-335.275	53.507	0.230	-0.220
-334.260	-16.245	-0.163	0.103
-333.245	-38.360	0.024	-0.013
-332.231	-200.000	-0.019	-0.092
-331.216	-9.382	0.296	-0.197
-330.202	800.000	0.064	-0.240
-329.187	-48.388	0.131	-0.063
-328.172	80.955	0.115	-0.124
-327.158	165.321	-0.034	-0.048
-326.143	-200.000	0.006	0.137
-325.129	800.000	-0.100	0.282
-324.114	-200.000	-0.029	0.401
-323.099	80.737	0.294	0.317
-322.085	-79.930	0.274	-0.092
-321.070	800.000	-0.029	0.112
-320.056	236.498	-0.202	-0.333
-319.041	-91.698	-0.099	0.028
-318.026	-200.000	-0.015	0.242
-317.012	-102.435	-0.407	-0.097
-315.997	21.557	-0.354	-0.287
-314.983	800.000	-0.070	0.202
-313.968	307.746	-0.177	-0.329
-312.953	-145.188	-0.242	-0.022
-311.939	51.936	-0.088	0.083
-310.924	-38.200	0.250	-0.132
-309.910	738.509	0.090	-0.241
-308.895	-29.783	-0.143	0.081
-307.880	188.423	0.182	-0.271
-306.866	742.279	0.070	-0.187
-305.851	187.789	-0.204	-0.304
-304.837	149.949	-0.141	-0.191
-303.822	-14.939	-0.048	-0.030
-302.807	-16.843	-0.272	0.172
-301.793	182.133	-0.063	0.092
-300.778	-162.272	-0.129	0.006
-299.764	111.077	-0.046	-0.055
-298.749	76.417	0.152	0.161
-297.735	-200.000	0.056	-0.259
-296.720	-200.000	-0.001	0.047
-295.705	-96.767	0.275	-0.072
-294.691	-200.000	-0.029	-0.161
-293.676	800.000	-0.040	-0.130
-292.662	4.391	0.062	0.045
-291.647	173.905	-0.108	0.155
-290.632	-200.000	0.017	0.116
-289.618	-20.987	-0.237	0.145
-288.603	-200.000	-0.012	-0.072
-287.589	-200.000	-0.007	-0.229
-286.574	-113.881	-0.046	-0.009
-285.559	800.000	0.153	-0.499
-284.545	-200.000	0.020	0.207
-283.530	-181.379	-0.182	-0.004
-282.516	-114.042	0.142	-0.027
-281.501	-14.808	0.014	-0.009
-280.486	215.710	0.210	-0.333
-279.472	247.271	-0.150	-0.253
-278.457	-200.000	-0.057	-0.305
-277.443	-135.068	0.305	0.037
-276.428	1.674	0.059	0.043
-275.413	-57.159	-0.280	0.123
-274.399	263.138	0.100	0.172
-273.384	160.489	-0.059	-0.082
-272.370	800.000	-0.090	-0.306
-271.355	-144.229	0.305	-0.028
-270.340	-164.000	0.222	0.010
-269.326	800.000	0.104	0.336
-268.311	-87.666	-0.300	0.090
-267.297	-200.000	0.061	-0.276
-266.282	-10.301	0.156	-0.103
-265.267	-70.990	0.290	0.109
-264.253	-200.000	-0.008	0.156
-263.238	-200.000	0.036	0.421
-262.224	208.631	-0.070	0.109
-261.209	-200.000	0.001	-0.039
-260.195	-200.000	-0.055	0.333
-259.180	266.833	0.189	-0.328
-258.165	-200.000	0.005	0.107
-257.151	-148.499	0.290	-0.024
-256.136	13.385	-0.061	0.047
-255.122	63.041	0.156	0.155
-254.107	-200.000	-0.034	-0.224
-253.092	-125.763	-0.412	-0.062
-252.078	800.000	-0.037	0.130
-251.063	124.125	-0.143	-0.179
-250.049	-128.352	-0.196	0.028
-249.034	-199.549	-0.146	-0.001
-248.019	100.828	0.181	0.210
-247.005	-200.000	0.013	0.085
-245.990	231.731	0.169	-0.276
-244.976	2.135	0.154	-0.111
-243.961	-130.787	0.209	0.028
-242.946	458.378	-0.119	0.262
-241.932	504.904	0.045	-0.103
-240.917	184.121	0.162	-0.239
-239.903	-171.244	0.191	0.006
-238.888	800.000	-0.022	-0.064
-237.873	-50.792	0.212	0.099
-236.859	800.000	0.116	0.384
-235.844	-179.214	-0.309	0.007
-234.830	-46.500	-0.201	-0.098
-233.815	-97.905	0.261	0.067
-232.800	66.975	-0.117	0.118
-231.786	124.650	0.168	0.210
-230.771	504.577	0.184	0.423
-229.757	414.020	0.077	0.164
-228.742	749.116	0.055	-0.148
-227.727	800.000	0.063	-0.177
-226.713	-109.279	0.276	0.058
-225.698	800.000	0.036	-0.155
-224.684	-69.530	0.246	-0.094
-223.669	-176.569	0.091	-0.002
-222.655	-42.680	0.099	-0.050
-221.640	-71.496	-0.160	0.060
-220.625	514.340	-0.079	-0.184
-219.611	-200.000	0.027	-0.265
-218.596	63.743	0.223	0.223
-217.582	245.798	-0.089	-0.150
-216.567	-16.180	-0.136	-0.086
-215.552	108.988	-0.304	0.361
-214.538	139.629	-0.160	0.209
-213.523	-200.000	0.030	-0.167
-212.509	-117.019	0.126	-0.023
-211.494	18.713	0.107	-0.085
-210.479	212.150	0.017	-0.027
-209.465	15.420	0.162	0.127
-208.450	282.531	-0.115	0.204
-207.436	11.372	0.277	0.210
-206.421	-115.455	0.237	0.044
-205.406	800.000	-0.040	-0.144
-204.392	-107.139	-0.214	0.047
-203.377	-90.618	0.058	-0.017
-202.363	-166.130	0.053	0.002
-201.348	-136.565	0.312	0.036
-200.333	-45.506	-0.247	-0.122
-199.319	80.838	0.122	-0.130
-198.304	-105.228	-0.402	0.091
-197.290	-98.650	-0.271	0.069
-196.275	127.789	0.180	0.227
-195.260	207.325	-0.070	-0.109
-194.246	-92.558	0.284	0.079
-193.231	-126.168	-0.072	-0.011
-192.217	-56.522	-0.285	0.126
-191.202	122.688	-0.122	0.152
-190.187	-200.000	0.068	0.365
-189.173	800.000	-0.131	-0.454
-188.158	800.000	-0.063	-0.204
-187.144	198.136	-0.186	0.282
-186.129	-37.679	0.141	-0.075
-185.114	-123.665	-0.215	0.034
-184.100	285.158	0.152	-0.272
-183.085	-62.359	0.137	0.057
-182.071	-39.458	0.182	-0.095
-181.056	200.815	-0.192	0.293
-180.042	800.000	-0.045	0.149
-179.027	-106.691	0.245	0.054
-178.012	-2.020	0.174	0.121
-176.998	-112.314	-0.408	-0.081
-175.983	-200.000	-0.056	-0.351
-174.969	-70.752	-0.332	0.124
-173.954	-103.372	0.294	-0.069
-172.939	51.766	-0.184	0.173
-171.925	-176.587	-0.192	-0.005
-170.910	-90.834	0.138	0.039
-169.896	73.596	-0.024	-0.025
-168.881	-200.000	-0.014	0.172
-167.866	67.638	-0.060	-0.061
-166.852	-105.375	0.231	-0.052
-165.837	-200.000	-0.074	-0.349
-164.823	-126.422	0.036	-0.005
-163.808	37.506	0.263	0.231
-162.793	66.701	0.243	0.246
-161.779	-74.371	0.464	0.166
-160.764	86.694	-0.142	-0.155
-159.750	161.590	0.190	-0.264
-158.735	25.393	-0.153	-0.127
-157.720	-200.000	0.049	0.277
-156.706	260.099	-0.246	0.421
-155.691	-128.960	-0.092	-0.013
-154.677	-200.000	0.003	-0.400
-153.662	-200.000	-0.000	-0.003
-152.647	-200.000	-0.022	-0.237
-151.633	517.045	0.078	-0.182
-150.618	-120.534	0.351	-0.059
-149.604	-200.000	0.031	0.533
-148.589	-47.318	-0.230	-0.111
-147.574	65.281	0.046	-0.046
-146.560	-41.695	0.201	-0.102
-145.545	236.049	-0.086	0.141
-144.531	-58.883	-0.176	0.076
-143.516	800.000	0.090	0.338
-142.502	-80.029	-0.357	0.119
-141.487	800.000	-0.045	-0.146
-140.472	607.190	0.044	0.108
-139.458	615.466	0.073	0.181
-138.443	422.944	0.070	0.149
-137.429	184.045	0.128	-0.187
-136.414	-67.772	-0.184	-0.071
-135.399	-51.068	-0.231	0.107
-134.385	-88.394	0.152	-0.045
-133.370	-200.000	-0.080	-0.387
-132.356	3.521	-0.084	0.061
-131.341	-200.000	-0.044	0.228
-130.326	227.717	-0.109	-0.176
-129.312	22.717	0.097	0.079
-128.297	-78.604	0.031	0.011
-127.283	-116.405	-0.223	-0.041
-126.268	-71.747	0.146	-0.054
-125.253	-27.491	-0.171	0.098
-124.239	565.066	0.019	-0.045
-123.224	227.621	-0.090	0.144
-122.210	-107.123	0.046	-0.010
-121.195	205.662	0.076	-0.117
