DTS Sentinel unit serial number:	SN413079Multiplexer serial number:	ORYXHardware model number:	OX4-SRSoftware version number:	ORYX F/W v4.00 Oryx Data Collector v3.7.2.0data status	okinstallation	princeton_trtdifferential loss correction	single-endedforward channel	channel 4reverse channel	N/Adate	2019/09/13time	09:37:35forward acquisition time	60.00reverse acquisition time	0.00gamma	496.2192k internal	0.2311k external	0.2311temperature offset calibration	1.0193default loss term (dB/km)	0.3790temperature slope calibration	1.0000multiplexer offset coefficient	1.0000multiplexer slope coefficient	1.0000fibre end	0.00T internal ref (°C)	29.62T ext. ref 1 (°C)	4.43T ext. ref 2 (°C)	26.03length (m)	temperature (°C)	Stokes	anti-Stokes-747.200	-200.000	-0.083	-0.390
-746.185	197.612	0.024	0.037
-745.171	-43.875	0.061	0.031
-744.156	725.715	-0.148	0.399
-743.142	-36.090	0.296	-0.162
-742.127	73.514	-0.207	0.220
-741.112	60.339	0.122	-0.123
-740.098	126.195	0.109	0.140
-739.083	27.926	-0.275	-0.235
-738.069	15.433	0.085	0.068
-737.054	-200.000	-0.020	-0.604
-736.039	-92.808	0.091	-0.026
-735.025	800.000	0.056	-0.171
-734.010	-45.026	0.173	0.087
-732.996	11.615	-0.204	0.159
-731.981	67.311	0.138	-0.143
-730.966	-158.344	0.124	0.007
-729.952	-102.469	-0.201	-0.049
-728.937	86.140	0.228	-0.254
-727.923	800.000	-0.048	-0.186
-726.908	-79.428	-0.077	-0.026
-725.894	-115.515	-0.340	0.065
-724.879	-7.430	-0.194	-0.133
-723.864	280.949	-0.054	0.099
-722.850	-155.195	0.285	-0.019
-721.835	-200.000	0.001	0.263
-720.821	251.326	-0.218	-0.376
-719.806	800.000	-0.044	-0.132
-718.791	-37.751	-0.061	0.033
-717.777	163.769	-0.124	-0.177
-716.762	305.884	0.110	-0.208
-715.748	34.153	-0.097	-0.086
-714.733	76.216	0.021	-0.023
-713.718	-200.000	0.041	-0.224
-712.704	710.374	-0.078	0.209
-711.689	-200.000	-0.043	-0.246
-710.675	-43.121	0.162	0.083
-709.660	113.779	-0.078	-0.095
-708.645	-200.000	0.025	-0.274
-707.631	-138.225	0.358	0.040
-706.616	110.868	0.111	0.136
-705.602	-42.942	-0.196	0.101
-704.587	-91.047	-0.235	0.068
-703.572	800.000	0.048	0.177
-702.558	-7.167	-0.333	-0.229
-701.543	-66.367	0.140	0.057
-700.529	-200.000	0.001	0.003
-699.514	-38.259	0.108	0.058
-698.499	25.859	0.129	-0.109
-697.485	-22.624	0.103	-0.063
-696.470	-49.260	0.182	-0.088
-695.456	-94.706	0.155	0.043
-694.441	224.008	0.083	-0.135
-693.426	-58.303	-0.308	0.136
-692.412	83.067	-0.230	-0.253
-691.397	198.645	-0.026	-0.041
-690.383	209.367	0.127	-0.201
-689.368	-75.309	0.186	0.067
-688.354	-175.531	0.172	-0.005
-687.339	25.525	0.070	0.059
-686.324	-23.979	-0.097	-0.059
-685.310	-90.721	0.423	0.124
-684.295	-83.176	0.186	0.061
-683.281	321.147	0.221	-0.425
-682.266	76.383	0.138	0.148
-681.251	79.106	0.196	0.213
-680.237	800.000	-0.056	0.240
-679.222	-108.524	-0.135	-0.029
-678.208	-137.954	0.104	-0.012
-677.193	-154.553	-0.051	-0.003
-676.178	-116.006	-0.131	0.025
-675.164	-200.000	-0.015	0.218
-674.149	24.382	-0.096	0.080
-673.135	34.809	-0.107	-0.095
-672.120	-86.463	-0.077	-0.024
-671.105	80.454	-0.061	-0.067
-670.091	-109.975	-0.306	0.065
-669.076	-145.360	-0.318	0.029
-668.062	111.620	-0.212	-0.259
-667.047	-22.393	0.173	0.106
-666.032	-20.115	-0.325	0.203
-665.018	157.819	0.183	0.257
-664.003	73.435	0.041	-0.044
-662.989	72.864	-0.089	-0.094
-661.974	213.794	-0.098	0.157
-660.959	41.547	0.162	-0.148
-659.945	-38.254	-0.052	-0.028
-658.930	-200.000	-0.082	0.394
-657.916	-55.262	0.234	0.106
-656.901	225.021	0.018	-0.030
-655.886	66.884	-0.140	-0.144
-654.872	-200.000	0.043	0.301
-653.857	122.600	0.172	-0.217
-652.843	37.284	0.098	-0.088
-651.828	-118.714	-0.062	0.011
-650.814	-79.804	0.199	-0.068
-649.799	15.845	0.248	0.197
-648.784	-63.080	-0.319	0.133
-647.770	-73.064	-0.300	0.111
-646.755	-21.331	-0.024	-0.015
-645.741	-120.130	-0.233	0.040
-644.726	84.047	-0.142	-0.157
-643.711	-29.492	0.113	0.065
-642.697	-113.277	-0.121	0.024
-641.682	-61.866	0.515	-0.218
-640.668	-107.907	-0.222	-0.049
-639.653	800.000	0.028	-0.108
-638.638	2.108	0.172	-0.125
-637.624	-3.978	-0.134	0.094
-636.609	35.828	0.291	0.259
-635.595	-200.000	-0.041	-0.202
-634.580	-63.498	-0.313	-0.130
-633.565	-135.323	-0.381	0.046
-632.551	-52.288	0.341	-0.160
-631.536	90.065	0.252	-0.284
-630.522	521.875	-0.174	-0.413
-629.507	153.031	0.109	-0.151
-628.492	-200.000	-0.031	0.161
-627.478	-12.752	0.181	-0.119
-626.463	19.008	0.262	0.212
-625.449	800.000	0.091	-0.325
-624.434	-7.144	-0.089	-0.061
-623.419	-200.000	0.025	0.127
-622.405	45.968	0.094	0.088
-621.390	800.000	-0.125	-0.351
-620.376	-94.748	0.213	0.058
-619.361	-121.234	-0.230	0.039
-618.346	-119.587	0.131	-0.023
-617.332	800.000	-0.076	-0.270
-616.317	-146.289	-0.215	-0.019
-615.303	-22.509	-0.127	0.078
-614.288	18.890	-0.185	0.149
-613.273	-93.215	-0.227	-0.064
-612.259	-200.000	0.004	-0.062
-611.244	-200.000	0.016	-0.211
-610.230	-139.374	0.209	0.023
-609.215	-28.151	0.069	-0.040
-608.201	-8.989	-0.176	0.119
-607.186	-134.851	-0.253	-0.031
-606.171	204.785	-0.312	0.489
-605.157	28.666	-0.053	-0.045
-604.142	-56.849	0.160	-0.071
-603.128	-63.502	-0.351	-0.145
-602.113	43.250	-0.259	0.239
-601.098	-35.665	0.200	-0.109
-600.084	176.697	0.022	-0.032
-599.069	-137.503	-0.303	0.035
-598.055	-75.670	-0.061	0.022
-597.040	43.547	0.120	0.111
-596.025	184.201	0.191	0.285
-595.011	-48.902	-0.209	-0.101
-593.996	79.356	0.173	-0.187
-592.982	47.720	0.220	0.207
-591.967	598.064	-0.028	-0.070
-590.952	252.423	-0.077	0.133
-589.938	-60.732	-0.265	0.113
-588.923	720.781	-0.115	-0.309
-587.909	-135.804	0.232	-0.028
-586.894	-200.000	-0.017	-0.106
-585.879	-200.000	-0.019	0.139
-584.865	800.000	-0.055	0.197
-583.850	286.691	-0.071	-0.129
-582.836	275.283	0.159	-0.284
-581.821	-73.610	0.279	-0.103
-580.806	-117.451	-0.073	-0.013
-579.792	-132.787	-0.036	-0.005
-578.777	-40.408	0.409	-0.214
-577.763	-30.559	-0.238	0.136
-576.748	131.733	0.287	0.372
-575.733	66.577	0.184	-0.189
-574.719	31.653	0.369	-0.320
-573.704	72.771	0.081	-0.085
-572.690	292.673	0.051	0.094
-571.675	15.097	-0.145	0.115
-570.661	-22.100	0.194	-0.119
-569.646	141.234	0.200	-0.267
-568.631	-200.000	0.003	-0.389
-567.617	-135.901	-0.185	-0.022
-566.602	-62.303	-0.250	-0.105
-565.588	-146.496	-0.107	-0.009
-564.573	344.545	-0.163	-0.322
-563.558	800.000	0.183	-0.539
-562.544	800.000	-0.025	-0.074
-561.529	-200.000	-0.019	0.121
-560.515	-85.512	0.319	-0.100
-559.500	-56.890	-0.124	0.055
-558.485	800.000	-0.030	0.132
-557.471	-200.000	-0.022	-0.335
-556.456	-48.919	-0.123	0.060
-555.442	0.146	-0.145	-0.104
-554.427	73.422	0.103	0.108
-553.412	-156.592	-0.077	-0.005
-552.398	-155.550	0.231	-0.015
-551.383	30.214	-0.244	-0.209
-550.369	-200.000	-0.085	0.629
-549.354	800.000	-0.085	-0.297
-548.339	-140.606	0.520	-0.054
-547.325	43.606	0.281	0.259
-546.310	-39.412	0.192	0.101
-545.296	-192.371	-0.042	0.000
-544.281	225.005	-0.104	0.170
-543.266	-37.057	0.101	0.054
-542.252	264.893	0.040	0.070
-541.237	55.199	-0.283	0.276
-540.223	800.000	-0.110	0.335
-539.208	51.640	0.075	-0.072
-538.193	587.535	-0.036	-0.090
-537.179	-200.000	-0.023	-0.307
-536.164	-19.157	0.325	0.203
-535.150	82.910	-0.153	0.167
-534.135	-177.054	0.505	-0.013
-533.121	361.920	-0.076	-0.154
-532.106	-122.783	0.149	-0.024
-531.091	800.000	0.084	-0.309
-530.077	-200.000	-0.507	0.001
-529.062	-16.079	-0.232	-0.149
-528.048	-198.444	0.204	-0.001
-527.033	41.427	-0.204	0.185
-526.018	205.079	0.111	0.173
-525.004	33.122	0.221	0.193
-523.989	-186.271	-0.245	0.004
-522.975	800.000	-0.045	-0.163
-521.960	-146.396	0.314	0.028
-520.945	800.000	-0.024	-0.094
-519.931	344.902	0.107	-0.211
-518.916	-149.116	0.196	-0.016
-517.902	-200.000	0.025	-0.137
-516.887	30.157	-0.155	-0.133
-515.872	-88.509	0.072	-0.022
-514.858	22.457	0.279	-0.230
-513.843	18.796	0.055	-0.044
-512.829	-200.000	-0.012	-0.174
-511.814	487.050	-0.142	0.325
-510.799	573.555	0.123	0.302
-509.785	-200.000	-0.004	0.107
-508.770	-200.000	0.044	0.198
-507.756	-64.892	-0.103	-0.042
-506.741	-122.756	-0.209	0.034
-505.726	-116.637	0.146	0.027
-504.712	-200.000	-0.077	0.501
-503.697	-96.298	-0.197	-0.053
-502.683	-55.276	-0.091	0.041
-501.668	-188.124	0.151	0.002
-500.653	-135.172	0.191	-0.023
-499.639	174.346	0.068	0.099
-498.624	147.602	0.279	0.378
-497.610	-200.000	-0.015	-0.165
-496.595	-82.944	0.064	-0.021
-495.581	129.832	-0.111	-0.142
-494.566	-15.138	0.368	0.237
-493.551	-113.174	-0.093	-0.018
-492.537	-167.954	0.080	-0.003
-491.522	-90.183	0.008	-0.002
-490.508	30.596	0.244	-0.209
-489.493	70.352	0.153	0.159
-488.478	-10.344	-0.101	-0.067
-487.464	-89.748	-0.105	0.031
-486.449	36.927	-0.206	-0.184
-485.435	-200.000	-0.046	0.380
-484.420	3.567	0.098	0.072
-483.405	135.693	-0.151	-0.198
-482.391	507.079	-0.083	0.194
-481.376	-63.975	0.072	0.030
-480.362	253.193	0.052	-0.089
-479.347	-200.000	0.020	-0.132
-478.332	-200.000	-0.018	-0.380
-477.318	364.465	0.010	0.019
-476.303	-109.290	0.105	-0.022
-475.289	344.391	-0.037	-0.073
-474.274	-200.000	0.046	0.481
-473.259	71.100	0.157	-0.164
-472.245	-200.000	0.008	-0.046
-471.230	-144.853	0.293	-0.027
-470.216	-110.518	-0.164	0.034
-469.201	248.303	-0.009	0.016
-468.186	692.434	0.012	0.030
-467.172	-18.421	-0.337	0.211
-466.157	26.937	0.070	-0.059
-465.143	-200.000	-0.046	0.342
-464.128	233.140	-0.041	0.068
-463.113	207.222	0.149	-0.233
-462.099	0.454	0.134	0.096
-461.084	-147.949	-0.167	-0.014
-460.070	-32.240	-0.185	0.104
-459.055	-200.000	0.066	0.328
-458.040	-94.893	-0.276	0.075
-457.026	-33.822	-0.413	0.229
-456.011	63.511	0.247	0.248
-454.997	738.304	0.078	-0.211
-453.982	75.333	-0.150	0.159
-452.968	183.279	0.163	-0.242
-451.953	-127.968	0.241	-0.035
-450.938	-38.701	0.096	-0.051
-449.924	800.000	-0.142	0.425
-448.909	694.845	-0.042	0.112
-447.895	800.000	-0.061	0.268
-446.880	-200.000	0.053	-0.485
-445.865	-101.480	0.105	-0.026
-444.851	635.636	-0.077	0.196
-443.836	305.715	-0.159	0.297
-442.822	28.835	-0.218	-0.186
-441.807	80.294	-0.125	-0.135
-440.792	800.000	0.033	0.103
-439.778	-200.000	0.055	-0.366
-438.763	-136.349	-0.093	0.011
-437.749	269.987	0.030	-0.052
-436.734	-119.963	0.130	0.022
-435.719	800.000	-0.042	-0.173
-434.705	119.220	-0.093	0.116
-433.690	64.029	0.027	-0.027
-432.676	-110.047	-0.251	-0.053
-431.661	43.274	-0.158	0.144
-430.646	-134.293	-0.242	0.030
-429.632	-81.409	-0.196	0.065
-428.617	-200.000	0.086	0.409
-427.603	800.000	0.054	0.193
-426.588	-36.977	-0.167	-0.090
-425.573	60.181	0.143	-0.142
-424.559	-147.046	0.107	0.009
-423.544	437.974	-0.059	0.130
-422.530	-82.428	-0.269	-0.088
-421.515	-200.000	0.038	0.263
-420.500	-62.067	-0.237	-0.099
-419.486	168.144	0.090	0.128
-418.471	-41.949	-0.136	0.070
-417.457	63.820	-0.200	0.201
-416.442	-0.743	-0.151	0.107
-415.428	-85.681	-0.262	-0.081
-414.413	-93.093	0.251	0.070
-413.398	-73.637	0.223	0.082
-412.384	568.835	-0.048	0.117
-411.369	14.996	0.165	-0.129
-410.355	-200.000	-0.001	-0.201
-409.340	-126.082	-0.166	0.025
-408.325	701.205	0.146	-0.385
-407.311	282.823	-0.165	-0.297
-406.296	-85.221	0.110	0.034
-405.282	-35.535	0.215	-0.117
-404.267	-100.783	-0.290	0.072
-403.252	-25.966	0.073	0.043
-402.238	-16.044	-0.173	0.110
-401.223	-81.061	0.228	-0.075
-400.209	-96.149	-0.249	0.066
-399.194	-78.520	0.237	0.081
-398.179	-126.955	0.172	-0.025
-397.165	-149.793	0.241	-0.019
-396.150	400.854	-0.046	-0.098
-395.136	-200.000	0.029	0.213
-394.121	115.156	-0.206	-0.252
-393.106	-33.464	-0.139	0.077
-392.092	81.693	-0.059	-0.064
-391.077	800.000	-0.044	-0.176
-390.063	36.625	0.219	-0.194
-389.048	-53.207	-0.111	-0.051
-388.033	-200.000	-0.033	0.242
-387.019	-139.652	0.299	0.032
-386.004	800.000	-0.051	0.183
-384.990	-116.599	0.260	-0.048
-383.975	93.020	0.101	0.114
-382.960	-41.105	0.417	-0.215
-381.946	-85.270	-0.036	-0.011
-380.931	180.589	-0.115	-0.168
-379.917	57.477	-0.215	0.210
-378.902	476.002	0.057	-0.128
-377.888	-65.476	-0.276	0.111
-376.873	196.089	0.124	0.189
-375.858	-30.084	-0.134	-0.076
-374.844	-200.000	-0.028	0.296
-373.829	-200.000	0.001	0.066
-372.815	-164.796	-0.091	0.004
-371.800	-31.341	-0.123	-0.069
-370.785	800.000	-0.092	-0.259
-369.771	748.433	-0.107	-0.289
-368.756	67.865	0.212	-0.217
-367.742	-2.831	0.347	-0.243
-366.727	11.883	-0.214	-0.165
-365.712	32.063	0.182	0.157
-364.698	-166.049	-0.163	0.007
-363.683	45.024	0.179	0.165
-362.669	-137.521	0.545	0.062
-361.654	272.514	0.063	-0.111
-360.639	800.000	0.067	-0.189
-359.625	800.000	0.027	0.103
-358.610	130.915	0.103	0.132
-357.596	800.000	-0.019	-0.081
-356.581	22.587	0.080	-0.065
-355.566	-132.453	0.343	-0.044
-354.552	257.502	0.130	0.223
-353.537	15.895	0.278	0.219
-352.523	44.688	0.339	-0.312
-351.508	731.806	0.080	0.215
-350.493	-9.092	0.103	0.069
-349.479	-73.249	-0.397	-0.145
-348.464	-200.000	-0.013	-0.224
-347.450	-106.448	0.178	0.040
-346.435	-130.871	-0.174	-0.023
-345.420	58.296	0.003	-0.003
-344.406	-51.870	-0.219	-0.102
-343.391	378.077	-0.057	0.117
-342.377	439.932	0.051	0.112
-341.362	178.940	0.097	-0.142
-340.348	8.892	0.177	0.133
-339.333	71.260	0.292	-0.302
-338.318	-119.129	0.107	0.019
-337.304	800.000	0.074	-0.243
-336.289	29.255	0.233	-0.198
-335.275	58.879	-0.120	0.118
-334.260	-0.193	-0.222	0.158
-333.245	-200.000	-0.005	-0.199
-332.231	-14.092	-0.347	-0.224
-331.216	30.883	-0.313	-0.268
-330.202	-154.786	-0.262	0.017
-329.187	487.130	0.072	0.164
-328.172	-101.639	0.035	0.008
-327.158	127.292	0.175	0.222
-326.143	216.747	0.231	0.367
-325.129	800.000	0.034	-0.131
-324.114	-27.016	-0.123	-0.072
-323.099	-200.000	0.098	0.444
-322.085	350.442	-0.062	0.122
-321.070	-200.000	0.026	0.202
-320.056	41.287	-0.166	-0.150
-319.041	-200.000	0.035	-0.200
-318.026	-142.499	0.289	0.028
-317.012	-200.000	-0.042	0.183
-315.997	-200.000	-0.008	0.111
-314.983	144.743	-0.066	0.087
-313.968	-114.029	0.326	0.063
-312.953	628.655	-0.182	0.459
-311.939	210.879	-0.158	-0.247
-310.924	-100.893	0.505	0.124
-309.910	800.000	-0.057	0.174
-308.895	-145.184	0.049	-0.004
-307.880	-200.000	-0.004	0.017
-306.866	-109.443	-0.356	-0.075
-305.851	-200.000	0.040	-0.416
-304.837	-25.000	0.202	-0.120
-303.822	9.174	-0.228	0.172
-302.807	-200.000	-0.002	-0.172
-301.793	-122.358	0.105	-0.017
-300.778	-200.000	-0.014	0.420
-299.764	98.360	0.107	-0.123
-298.749	-200.000	0.015	-0.174
-297.735	800.000	-0.047	0.160
-296.720	-52.819	-0.253	-0.116
-295.705	-89.330	-0.245	-0.072
-294.691	-58.613	-0.170	-0.074
-293.676	166.024	0.066	0.093
-292.662	-0.885	0.152	0.107
-291.647	164.086	-0.136	-0.191
-290.632	-46.360	0.157	0.077
-289.618	429.534	-0.043	0.093
-288.603	143.624	-0.038	-0.050
-287.589	-54.083	-0.105	0.048
-286.574	-14.949	-0.182	-0.116
-285.559	800.000	0.085	-0.339
-284.545	645.510	-0.095	-0.241
-283.530	524.742	0.131	0.307
-282.516	-85.452	0.121	-0.038
-281.501	-92.529	0.252	-0.071
-280.486	-35.825	-0.146	-0.079
-279.472	800.000	-0.027	-0.100
-278.457	-200.000	-0.036	-0.177
-277.443	-138.903	-0.561	-0.061
-276.428	-200.000	-0.054	0.286
-275.413	-159.677	-0.142	0.008
-274.399	-200.000	-0.016	0.094
-273.384	684.857	-0.042	-0.110
-272.370	-200.000	0.029	0.255
-271.355	-134.583	0.273	0.033
-270.340	-101.520	0.236	-0.057
-269.326	89.589	-0.092	0.103
-268.311	-28.980	0.353	0.202
-267.297	215.717	-0.048	-0.076
-266.282	116.945	0.044	-0.053
-265.267	328.740	0.076	-0.146
-264.253	-99.807	-0.119	0.030
-263.238	116.189	-0.111	-0.135
-262.224	18.339	0.071	0.057
-261.209	-165.237	0.221	-0.010
-260.195	-166.812	-0.220	-0.009
-259.180	-200.000	-0.010	0.349
-258.165	21.200	-0.086	0.070
-257.151	87.529	0.204	0.225
-256.136	-78.386	0.353	0.121
-255.122	709.145	0.082	-0.216
-254.107	-124.303	0.098	-0.015
-253.092	331.209	0.163	-0.312
-252.078	14.835	-0.185	-0.144
-251.063	-122.223	0.012	0.002
-250.049	-9.594	0.197	0.131
-249.034	-63.830	0.253	-0.103
-248.019	-200.000	0.044	-0.222
-247.005	11.822	0.235	0.179
-245.990	334.480	0.110	-0.212
-244.976	-200.000	0.012	0.144
-243.961	-102.401	0.154	-0.037
-242.946	-102.489	-0.291	-0.069
-241.932	-68.466	-0.367	0.142
-240.917	800.000	-0.084	0.245
-239.903	82.382	-0.169	-0.183
-238.888	361.904	0.109	0.218
-237.873	232.819	-0.092	-0.151
-236.859	-107.007	0.210	0.046
-235.844	562.291	0.167	-0.403
-234.830	428.666	-0.092	0.199
-233.815	161.221	0.178	0.247
-232.800	-200.000	0.043	-0.369
-231.786	503.077	-0.133	-0.305
-230.771	800.000	-0.042	-0.163
-229.757	-30.169	0.114	0.065
-228.742	-40.162	0.425	0.220
-227.727	800.000	0.003	-0.008
-226.713	30.315	-0.261	0.222
-225.698	97.021	-0.120	-0.136
-224.684	800.000	0.021	0.057
-223.669	-200.000	0.045	0.225
-222.655	389.693	-0.138	-0.284
-221.640	800.000	-0.134	0.411
-220.625	-46.496	0.256	0.125
-219.611	-38.444	-0.258	0.136
-218.596	613.455	-0.056	0.138
-217.582	-149.782	0.173	0.014
-216.567	3.151	-0.240	0.173
-215.552	-12.500	-0.295	-0.192
-214.538	-149.858	-0.363	-0.028
-213.523	-191.183	0.089	0.001
-212.509	-22.177	-0.171	-0.103
-211.494	319.314	-0.141	0.266
-210.479	80.468	-0.228	0.244
-209.465	-130.989	0.268	0.036
-208.450	-106.444	-0.352	-0.078
-207.436	350.101	-0.146	0.288
-206.421	365.825	0.038	-0.075
-205.406	-128.602	0.139	0.020
-204.392	-200.000	-0.004	-0.367
-203.377	-200.000	-0.013	0.101
-202.363	800.000	0.046	-0.155
-201.348	-5.497	-0.127	0.086
-200.333	-107.515	-0.175	-0.038
-199.319	800.000	-0.022	0.095
-198.304	130.733	-0.167	0.213
-197.290	121.214	-0.155	-0.192
-196.275	169.527	-0.132	0.188
-195.260	-137.468	-0.169	-0.019
-194.246	-200.000	-0.060	-0.381
-193.231	345.857	-0.036	-0.069
-192.217	-200.000	0.010	0.100
-191.202	-148.381	0.235	-0.019
-190.187	110.664	-0.108	-0.129
-189.173	164.274	0.177	-0.248
-188.158	-25.032	-0.165	-0.097
-187.144	-200.000	-0.022	0.127
-186.129	75.712	-0.059	0.061
-185.114	-200.000	-0.041	-0.341
-184.100	-102.229	0.079	0.019
-183.085	-127.640	0.105	0.015
-182.071	-200.000	-0.029	0.313
-181.056	-77.539	-0.353	0.121
-180.042	800.000	-0.147	-0.513
-179.027	-70.330	0.173	0.065
-178.012	-200.000	-0.015	-0.161
-176.998	-109.192	0.362	-0.076
-175.983	72.290	-0.152	-0.158
-174.969	390.543	-0.117	0.241
-173.954	-124.596	0.349	0.054
-172.939	-95.340	-0.289	-0.077
-171.925	-105.062	0.183	-0.041
-170.910	-200.000	0.020	0.138
-169.896	166.024	0.036	0.050
-168.881	194.390	0.067	0.100
-167.866	83.465	0.060	0.065
-166.852	627.684	-0.057	0.143
-165.837	-131.346	-0.201	0.026
-164.823	800.000	0.068	-0.232
-163.808	86.544	0.194	0.212
-162.793	800.000	0.067	0.212
-161.779	800.000	-0.026	-0.093
-160.764	800.000	-0.116	-0.339
-159.750	-59.930	-0.040	-0.017
-158.735	800.000	-0.085	0.369
-157.720	133.873	-0.116	0.149
-156.706	-200.000	0.035	0.248
-155.691	-100.859	0.135	0.033
-154.677	800.000	0.018	-0.056
-153.662	-22.544	-0.149	-0.089
-152.647	-59.615	-0.255	-0.108
-151.633	-16.253	0.041	0.026
-150.618	-116.910	-0.250	0.045
-149.604	65.855	0.071	-0.072
-148.589	-196.801	0.111	-0.001
-147.574	-72.196	0.210	0.077
-146.560	233.651	0.137	0.223
-145.545	-42.769	0.155	0.078
-144.531	173.400	0.190	-0.272
-143.516	25.003	0.238	0.196
-142.502	-90.903	-0.241	-0.069
-141.487	332.220	0.050	0.095
-140.472	-48.392	-0.251	-0.120
-139.458	-22.071	0.328	0.198
-138.443	800.000	-0.104	-0.292
-137.429	-28.268	0.045	-0.026
-136.414	428.155	-0.111	0.237
-135.399	237.035	-0.181	0.297
-134.385	-200.000	-0.024	0.133
-133.370	-19.822	0.048	0.029
-132.356	673.231	-0.120	0.309
-131.341	-141.475	0.177	0.018
-130.326	-61.777	0.216	0.090
-129.312	587.435	0.120	-0.292
-128.297	-200.000	0.054	0.234
-127.283	314.372	0.211	0.393
-126.268	-75.616	0.066	0.023
-125.253	-148.345	0.202	0.016
-124.239	-39.209	-0.106	-0.055
-123.224	-50.321	-0.414	-0.194
-122.210	-50.688	-0.146	-0.068
-121.195	800.000	0.044	0.156
