DTS Sentinel unit serial number:	SN413079Multiplexer serial number:	ORYXHardware model number:	OX4-SRSoftware version number:	ORYX F/W v4.00 Oryx Data Collector v3.7.2.0data status	okinstallation	princeton_trtdifferential loss correction	single-endedforward channel	channel 4reverse channel	N/Adate	2019/09/10time	23:51:11forward acquisition time	60.00reverse acquisition time	0.00gamma	496.2192k internal	0.2317k external	0.2317temperature offset calibration	0.9950default loss term (dB/km)	0.3790temperature slope calibration	1.0000multiplexer offset coefficient	1.0000multiplexer slope coefficient	1.0000fibre end	0.00T internal ref (°C)	29.50T ext. ref 1 (°C)	-0.31T ext. ref 2 (°C)	22.89length (m)	temperature (°C)	Stokes	anti-Stokes-747.200	-200.000	-0.022	0.257
-746.185	455.687	-0.187	0.420
-745.171	-172.231	-0.286	0.009
-744.156	-32.072	-0.232	0.132
-743.142	516.811	0.074	0.176
-742.127	-200.000	-0.070	0.396
-741.112	-87.287	0.118	0.036
-740.098	-65.854	-0.425	0.172
-739.083	-156.236	0.179	0.011
-738.069	-93.930	0.161	0.045
-737.054	-125.237	-0.116	-0.018
-736.039	-200.000	0.026	-0.391
-735.025	-200.000	-0.001	-0.064
-734.010	-87.805	0.178	0.054
-732.996	209.854	-0.288	-0.457
-731.981	73.002	-0.035	-0.037
-730.966	18.978	-0.302	-0.245
-729.952	800.000	0.092	-0.368
-728.937	244.672	-0.116	0.198
-727.923	725.303	-0.092	0.249
-726.908	-200.000	0.055	-0.346
-725.894	634.652	0.114	-0.292
-724.879	-63.544	-0.104	-0.043
-723.864	-192.623	-0.214	-0.002
-722.850	-32.145	0.241	-0.136
-721.835	349.419	0.049	-0.097
-720.821	690.441	0.042	0.112
-719.806	800.000	-0.112	0.428
-718.791	-90.261	-0.337	-0.099
-717.777	-134.211	-0.246	-0.031
-716.762	-141.699	-0.222	-0.023
-715.748	-53.142	-0.393	-0.183
-714.733	-200.000	0.038	0.278
-713.718	-94.807	-0.240	-0.066
-712.704	-174.746	-0.428	0.012
-711.689	158.864	0.116	-0.163
-710.675	43.685	0.082	-0.076
-709.660	-200.000	0.072	-0.390
-708.645	572.500	-0.097	-0.239
-707.631	-32.287	-0.051	-0.029
-706.616	800.000	-0.044	0.147
-705.602	-76.464	0.129	0.046
-704.587	287.684	-0.071	0.131
-703.572	-97.936	0.245	-0.064
-702.558	-103.520	0.213	-0.051
-701.543	-155.625	-0.382	-0.025
-700.529	-28.511	0.354	0.206
-699.514	800.000	0.115	0.504
-698.499	-200.000	-0.000	-0.202
-697.485	46.407	0.061	-0.057
-696.470	-182.600	0.174	0.003
-695.456	-94.457	-0.277	-0.076
-694.441	-118.878	-0.165	-0.029
-693.426	-200.000	-0.005	0.048
-692.412	139.595	-0.099	0.131
-691.397	-127.886	-0.226	-0.033
-690.383	117.514	0.100	0.124
-689.368	-47.789	-0.164	-0.080
-688.354	54.922	-0.225	-0.220
-687.339	397.943	-0.037	-0.079
-686.324	126.423	-0.119	0.152
-685.310	-153.462	0.043	0.003
-684.295	-96.140	-0.162	0.044
-683.281	33.773	-0.256	-0.225
-682.266	-133.643	-0.166	-0.021
-681.251	800.000	-0.038	-0.156
-680.237	15.041	-0.190	-0.151
-679.222	-29.367	0.271	-0.157
-678.208	-200.000	-0.004	-0.024
-677.193	12.716	0.163	-0.127
-676.178	481.534	0.068	-0.156
-675.164	-200.000	0.093	0.431
-674.149	-11.364	0.385	-0.256
-673.135	-172.403	-0.395	0.013
-672.120	-76.465	0.059	-0.021
-671.105	445.084	0.096	-0.212
-670.091	-90.603	-0.134	-0.039
-669.076	-200.000	0.093	-0.527
-668.062	-200.000	-0.015	-0.136
-667.047	-11.521	0.115	0.076
-666.032	-200.000	-0.009	-0.215
-665.018	-122.317	0.349	-0.057
-664.003	-4.663	-0.177	0.124
-662.989	88.335	-0.252	-0.283
-661.974	-200.000	0.004	0.228
-660.959	-89.171	-0.338	0.101
-659.945	475.193	-0.189	0.430
-658.930	-105.057	-0.131	-0.030
-657.916	-168.732	-0.223	-0.009
-656.901	-200.000	-0.021	-0.270
-655.886	-87.357	0.177	-0.054
-654.872	29.329	0.183	-0.157
-653.857	195.185	-0.242	-0.371
-652.843	0.275	0.111	0.080
-651.828	-199.356	0.353	0.002
-650.814	-127.070	-0.107	0.016
-649.799	114.722	-0.098	0.121
-648.784	-62.189	-0.149	0.063
-647.770	800.000	-0.095	0.346
-646.755	800.000	0.110	-0.332
-645.741	256.744	0.204	-0.353
-644.726	-41.726	-0.200	-0.104
-643.711	-200.000	-0.026	0.125
-642.697	146.431	-0.122	0.166
-641.682	556.813	0.145	0.351
-640.668	-46.924	-0.174	0.086
-639.653	-129.835	-0.167	-0.023
-638.638	-200.000	-0.031	-0.205
-637.624	47.499	-0.146	0.137
-636.609	257.916	0.107	0.186
-635.595	43.732	0.144	-0.133
-634.580	184.129	-0.066	0.098
-633.565	800.000	-0.138	0.451
-632.551	-200.000	0.034	0.303
-631.536	-56.163	-0.257	-0.115
-630.522	-173.272	0.307	0.009
-629.507	80.008	-0.158	0.171
-628.492	-62.642	0.114	-0.048
-627.478	-200.000	-0.041	-0.226
-626.463	233.979	0.031	-0.051
-625.449	-109.808	0.017	0.004
-624.434	-94.538	-0.009	0.003
-623.419	460.206	-0.054	-0.121
-622.405	-155.137	-0.296	-0.019
-621.390	-200.000	-0.004	-0.259
-620.376	800.000	0.082	-0.352
-619.361	-83.064	-0.222	0.072
-618.346	16.131	-0.371	0.295
-617.332	738.838	0.116	-0.312
-616.317	-44.678	-0.240	-0.121
-615.303	-200.000	-0.033	-0.240
-614.288	45.365	0.067	-0.062
-613.273	121.766	0.117	0.148
-612.259	-84.720	0.083	0.026
-611.244	-97.094	-0.242	-0.064
-610.230	-114.140	-0.252	-0.049
-609.215	25.013	-0.131	0.109
-608.201	800.000	0.095	-0.356
-607.186	-111.886	0.250	0.051
-606.171	-7.512	-0.102	-0.070
-605.157	-100.166	0.335	-0.084
-604.142	-64.190	-0.190	-0.078
-603.128	431.499	-0.172	0.376
-602.113	351.875	-0.062	0.124
-601.098	681.426	-0.108	0.284
-600.084	740.004	-0.054	-0.146
-599.069	-109.834	-0.133	-0.028
-598.055	441.674	-0.132	-0.292
-597.040	215.757	0.063	-0.100
-596.025	-142.637	-0.061	-0.006
-595.011	173.796	-0.188	0.273
-593.996	-77.804	-0.302	-0.105
-592.982	140.794	-0.189	0.251
-591.967	-99.523	-0.182	0.046
-590.952	35.391	0.259	-0.228
-589.938	-182.372	-0.250	-0.005
-588.923	524.862	-0.063	0.148
-587.909	360.384	-0.096	-0.194
-586.894	-123.112	0.476	-0.077
-585.879	96.512	0.158	-0.183
-584.865	166.716	-0.166	0.237
-583.850	266.376	0.159	0.279
-582.836	800.000	-0.106	-0.304
-581.821	-86.697	-0.361	-0.111
-580.806	-99.175	-0.358	-0.091
-579.792	395.316	0.107	-0.225
-578.777	153.512	0.096	-0.132
-577.763	-142.535	0.122	0.012
-576.748	-200.000	0.062	-0.281
-575.733	-100.396	-0.094	0.023
-574.719	-114.002	-0.175	0.034
-573.704	33.478	0.098	-0.086
-572.690	-138.817	0.091	-0.010
-571.675	800.000	-0.050	-0.151
-570.661	82.126	0.195	-0.213
-569.646	-100.945	-0.218	0.054
-568.631	-200.000	-0.077	0.348
-567.617	-180.742	0.185	0.004
-566.602	-18.313	0.234	-0.147
-565.588	-123.853	0.199	-0.032
-564.573	148.561	-0.103	-0.139
-563.558	-100.683	0.376	-0.093
-562.544	-200.000	0.006	-0.167
-561.529	-200.000	0.003	-0.029
-560.515	-62.442	0.158	-0.066
-559.500	16.714	0.262	0.209
-558.485	-30.995	-0.182	-0.104
-557.471	-136.950	0.178	0.021
-556.456	124.747	0.153	-0.194
-555.442	-28.139	0.489	0.284
-554.427	177.021	-0.093	-0.136
-553.412	-85.454	-0.094	-0.029
-552.398	156.400	-0.170	0.235
-551.383	-108.829	0.380	0.082
-550.369	-183.473	-0.125	0.002
-549.354	-200.000	-0.029	0.133
-548.339	-200.000	-0.003	-0.242
-547.325	21.678	0.077	-0.063
-546.310	-171.783	-0.291	0.010
-545.296	800.000	0.055	-0.181
-544.281	51.118	-0.130	-0.124
-543.266	9.596	-0.168	0.128
-542.252	-8.323	0.263	-0.178
-541.237	376.622	-0.089	-0.183
-540.223	15.337	0.064	0.050
-539.208	-64.124	-0.011	-0.004
-538.193	-200.000	0.021	0.099
-537.179	-29.634	0.257	-0.147
-536.164	-76.470	0.132	0.046
-535.150	205.827	-0.155	-0.243
-534.135	411.560	0.027	0.057
-533.121	-200.000	0.044	0.212
-532.106	800.000	-0.035	0.145
-531.091	-98.246	-0.289	-0.074
-530.077	-123.062	0.061	-0.010
-529.062	36.109	-0.099	-0.088
-528.048	17.829	0.150	-0.120
-527.033	-200.000	-0.017	0.137
-526.018	-142.578	-0.448	-0.044
-525.004	-200.000	0.008	-0.100
-523.989	22.338	-0.066	-0.054
-522.975	-21.947	0.279	0.170
-521.960	-14.313	0.210	0.136
-520.945	43.555	-0.064	0.059
-519.931	12.177	-0.252	-0.195
-518.916	76.515	0.196	-0.208
-517.902	-200.000	-0.007	0.137
-516.887	-90.912	0.237	-0.069
-515.872	-200.000	-0.009	0.262
-514.858	187.560	-0.180	-0.270
-513.843	-75.171	0.128	-0.046
-512.829	-114.046	-0.180	0.035
-511.814	-16.571	-0.218	0.139
-510.799	-200.000	-0.000	-0.184
-509.785	43.034	0.070	-0.064
-508.770	-151.536	0.196	-0.015
-507.756	-58.644	-0.230	-0.100
-506.741	-102.386	-0.395	0.095
-505.726	-200.000	-0.011	0.320
-504.712	58.133	-0.133	0.130
-503.697	50.935	0.138	-0.132
-502.683	5.898	-0.081	0.060
-501.668	-145.342	0.125	-0.011
-500.653	-44.308	0.114	0.057
-499.639	-155.740	-0.303	-0.019
-498.624	-200.000	-0.013	0.060
-497.610	-140.083	-0.225	-0.024
-496.595	-200.000	-0.028	0.388
-495.581	800.000	0.026	-0.111
-494.566	-200.000	-0.023	-0.408
-493.551	61.787	0.113	-0.113
-492.537	-0.681	-0.088	0.062
-491.522	-22.726	0.236	0.143
-490.508	188.067	0.119	0.178
-489.493	473.574	-0.052	-0.117
-488.478	800.000	-0.024	-0.095
-487.464	-82.164	-0.035	0.012
-486.449	187.294	-0.173	0.259
-485.435	-200.000	-0.051	-0.322
-484.420	-200.000	-0.063	-0.303
-483.405	161.679	-0.232	-0.326
-482.391	-63.885	0.123	0.050
-481.376	-155.968	0.274	0.017
-480.362	800.000	-0.061	-0.191
-479.347	800.000	-0.047	0.201
-478.332	15.550	0.060	0.047
-477.318	800.000	0.071	-0.228
-476.303	-157.633	0.145	-0.009
-475.289	157.773	-0.335	-0.465
-474.274	-200.000	0.011	-0.255
-473.259	-200.000	-0.008	0.295
-472.245	-200.000	0.012	-0.141
-471.230	-48.365	-0.188	-0.091
-470.216	-104.480	0.119	0.028
-469.201	-200.000	0.053	0.287
-468.186	12.524	-0.416	0.321
-467.172	-87.567	0.172	-0.052
-466.157	-200.000	0.020	0.310
-465.143	-136.196	-0.288	-0.034
-464.128	-10.410	0.192	-0.127
-463.113	460.124	-0.119	-0.266
-462.099	-200.000	0.006	-0.069
-461.084	-200.000	-0.040	-0.255
-460.070	-125.312	-0.136	0.021
-459.055	34.659	0.223	0.195
-458.040	-47.294	0.138	-0.067
-457.026	800.000	0.035	-0.133
-456.011	-158.282	0.111	0.006
-454.997	-48.463	0.428	0.206
-453.982	-133.472	-0.093	0.012
-452.968	-200.000	0.009	0.071
-451.953	444.562	-0.101	0.223
-450.938	-200.000	-0.042	-0.304
-449.924	-91.688	-0.122	-0.035
-448.909	-122.528	0.335	-0.054
-447.895	97.707	0.034	-0.039
-446.880	188.382	-0.052	0.077
-445.865	-200.000	-0.023	0.289
-444.851	-73.620	-0.242	0.088
-443.836	-81.202	-0.115	-0.038
-442.822	-92.999	-0.324	-0.090
-441.807	-35.261	0.125	-0.068
-440.792	-37.275	0.223	0.119
-439.778	-27.239	-0.237	-0.138
-438.763	-44.237	-0.292	0.146
-437.749	-148.620	0.284	-0.023
-436.734	176.686	0.006	-0.009
-435.719	48.937	-0.057	0.053
-434.705	-200.000	-0.019	0.313
-433.690	-3.868	0.263	0.182
-432.676	30.968	-0.119	0.102
-431.661	-95.975	0.102	-0.027
-430.646	800.000	-0.040	-0.159
-429.632	-122.366	0.110	0.018
-428.617	96.640	0.009	-0.010
-427.603	5.322	-0.184	-0.136
-426.588	410.929	0.060	-0.128
-425.573	301.099	-0.167	-0.309
-424.559	115.520	-0.166	0.203
-423.544	-62.379	-0.182	-0.076
-422.530	394.344	0.085	-0.176
-421.515	-40.450	0.225	-0.117
-420.500	-200.000	-0.020	-0.118
-419.486	141.636	0.104	-0.138
-418.471	-61.403	0.323	0.136
-417.457	130.580	-0.169	0.216
-416.442	-200.000	0.003	-0.047
-415.428	-200.000	-0.020	0.153
-414.413	800.000	0.140	-0.479
-413.398	-113.253	0.383	0.075
-412.384	-137.927	-0.301	0.034
-411.369	214.291	-0.056	0.089
-410.355	-121.414	-0.242	0.040
-409.340	42.968	0.073	0.066
-408.325	-22.142	0.234	0.142
-407.311	405.656	-0.115	-0.242
-406.296	800.000	-0.063	-0.216
-405.282	-200.000	0.012	-0.280
-404.267	56.788	0.350	0.341
-403.252	-140.278	0.245	0.026
-402.238	-4.586	0.138	0.095
-401.223	-130.649	-0.178	-0.024
-400.209	305.830	-0.153	-0.284
-399.194	129.713	0.103	0.131
-398.179	-200.000	0.008	-0.232
-397.165	102.052	-0.128	0.149
-396.150	236.490	0.117	0.194
-395.136	303.320	-0.022	0.041
-394.121	9.468	0.275	0.208
-393.106	144.809	-0.228	-0.305
-392.092	800.000	0.127	0.404
-391.077	-116.163	0.183	-0.034
-390.063	14.333	0.133	-0.103
-389.048	65.606	-0.245	0.248
-388.033	-26.594	-0.303	-0.177
-387.019	222.008	0.070	-0.113
-386.004	119.666	0.170	-0.210
-384.990	-68.999	-0.103	-0.040
-383.975	-189.584	-0.326	-0.004
-382.960	25.860	-0.056	-0.047
-381.946	248.369	-0.075	0.126
-380.931	-35.877	0.169	-0.091
-379.917	800.000	-0.038	-0.115
-378.902	-39.607	0.111	-0.058
-377.888	-154.945	0.147	-0.010
-376.873	202.943	0.012	-0.018
-375.858	-200.000	-0.006	-0.143
-374.844	-167.890	-0.153	-0.006
-373.829	-3.776	-0.054	-0.038
-372.815	254.471	0.105	0.179
-371.800	184.031	-0.148	-0.218
-370.785	-5.932	-0.107	0.073
-369.771	-91.741	0.288	0.082
-368.756	297.655	0.115	0.211
-367.742	57.892	0.093	0.091
-366.727	99.817	0.114	0.131
-365.712	800.000	0.086	0.267
-364.698	3.479	0.269	0.195
-363.683	22.500	0.066	0.054
-362.669	405.581	-0.052	0.110
-361.654	-1.234	0.334	-0.235
-360.639	650.054	-0.074	0.190
-359.625	800.000	-0.030	0.119
-358.610	-110.402	0.356	-0.074
-357.596	-95.766	0.101	-0.027
-356.581	-26.204	0.336	-0.197
-355.566	-19.517	0.123	-0.076
-354.552	57.301	0.265	-0.258
-353.537	-63.203	0.172	0.071
-352.523	-59.114	-0.148	-0.064
-351.508	103.364	-0.152	0.178
-350.493	-170.171	-0.036	0.001
-349.479	-90.455	-0.320	-0.092
-348.464	432.232	-0.023	0.049
-347.450	-28.035	-0.112	0.065
-346.435	73.793	0.264	-0.276
-345.420	-145.616	0.157	-0.014
-344.406	380.056	-0.064	0.131
-343.391	109.644	-0.210	0.251
-342.377	-28.343	0.169	0.097
-341.362	-66.359	0.184	0.073
-340.348	-200.000	0.021	0.378
-339.333	800.000	-0.065	-0.182
-338.318	-62.672	0.085	-0.035
-337.304	57.922	-0.102	0.100
-336.289	129.646	-0.153	-0.195
-335.275	-200.000	0.045	-0.242
-334.260	500.540	0.164	-0.376
-333.245	-118.304	0.176	-0.031
-332.231	62.805	-0.154	0.154
-331.216	139.562	-0.189	-0.248
-330.202	800.000	-0.086	0.273
-329.187	37.271	0.081	0.071
-328.172	-142.130	0.238	0.024
-327.158	27.879	-0.157	0.132
-326.143	-107.271	-0.346	0.076
-325.129	800.000	-0.156	0.492
-324.114	540.638	0.023	0.054
-323.099	601.237	-0.097	0.239
-322.085	-200.000	0.024	0.390
-321.070	-200.000	0.016	-0.097
-320.056	-84.068	0.202	0.064
-319.041	-22.903	-0.248	-0.149
-318.026	-93.427	0.131	-0.036
-317.012	119.723	-0.031	-0.038
-315.997	-65.417	-0.155	-0.062
-314.983	-7.992	-0.307	-0.206
-313.968	-58.656	0.031	0.014
-312.953	800.000	0.077	0.238
-311.939	216.570	0.057	-0.091
-310.924	8.568	0.057	-0.043
-309.910	-200.000	0.006	-0.142
-308.895	-200.000	0.005	-0.192
-307.880	-171.250	0.263	-0.009
-306.866	773.001	-0.082	-0.222
-305.851	204.596	-0.254	-0.392
-304.837	-49.334	-0.101	-0.048
-303.822	-162.677	-0.065	0.003
-302.807	214.909	0.091	-0.144
-301.793	267.845	-0.031	0.053
-300.778	-21.285	-0.247	0.150
-299.764	-8.587	-0.149	0.100
-298.749	40.680	-0.203	0.182
-297.735	58.394	0.078	-0.076
-296.720	40.019	-0.232	-0.208
-295.705	-0.986	0.151	0.106
-294.691	-69.923	-0.130	0.049
-293.676	-156.660	0.146	0.009
-292.662	794.224	0.051	0.141
-291.647	-200.000	0.075	-0.500
-290.632	-155.752	0.043	-0.003
-289.618	-200.000	0.016	-0.153
-288.603	35.094	-0.136	0.118
-287.589	-200.000	-0.016	-0.268
-286.574	-6.101	0.137	-0.093
-285.559	-45.771	-0.026	-0.013
-284.545	48.808	-0.257	-0.240
-283.530	-117.199	-0.382	0.069
-282.516	-106.564	0.070	-0.016
-281.501	51.399	0.215	0.203
-280.486	312.128	0.146	-0.272
-279.472	-21.649	-0.046	0.028
-278.457	-157.981	0.260	0.015
-277.443	59.924	-0.086	-0.084
-276.428	672.418	0.068	-0.176
-275.413	311.993	0.167	0.312
-274.399	-71.644	0.416	0.154
-273.384	11.579	-0.154	0.117
-272.370	200.766	-0.190	0.291
-271.355	-130.192	-0.233	0.032
-270.340	-89.645	0.017	0.005
-269.326	-200.000	0.035	-0.167
-268.311	507.467	0.162	-0.374
-267.297	278.026	-0.244	0.433
-266.282	-3.735	0.266	0.183
-265.267	-12.107	-0.125	-0.081
-264.253	-74.192	0.282	-0.101
-263.238	-71.660	0.216	0.080
-262.224	258.864	0.050	0.085
-261.209	-88.488	0.195	-0.058
-260.195	57.660	0.265	-0.257
-259.180	-80.388	-0.364	-0.121
-258.165	190.972	-0.139	0.208
-257.151	-200.000	-0.019	0.222
-256.136	283.648	0.082	0.147
-255.122	800.000	-0.030	-0.118
-254.107	-5.823	-0.238	-0.162
-253.092	-151.316	-0.259	-0.019
-252.078	-113.416	-0.130	-0.025
-251.063	800.000	0.131	0.374
-250.049	-125.131	0.329	-0.050
-249.034	-200.000	0.047	0.236
-248.019	-200.000	-0.016	0.223
-247.005	257.090	-0.196	0.334
-245.990	-200.000	-0.046	0.458
-244.976	229.487	-0.167	0.271
-243.961	-119.181	0.299	-0.052
-242.946	99.609	0.096	0.110
-241.932	-82.337	0.050	0.016
-240.917	117.405	-0.288	0.352
-239.903	296.181	-0.130	0.237
-238.888	26.501	-0.188	0.156
-237.873	-200.000	-0.020	0.379
-236.859	-68.569	0.272	-0.105
-235.844	-70.644	-0.359	0.135
-234.830	-174.226	0.259	-0.007
-233.815	-200.000	0.069	-0.440
-232.800	-82.471	0.066	-0.021
-231.786	-200.000	0.009	-0.075
-230.771	800.000	-0.057	0.163
-229.757	-200.000	-0.043	0.262
-228.742	-11.316	0.262	-0.171
-227.727	633.348	-0.139	0.351
-226.713	33.358	0.220	-0.189
-225.698	800.000	-0.062	-0.266
-224.684	-200.000	-0.027	-0.127
-223.669	800.000	-0.070	-0.232
-222.655	-43.705	0.218	0.109
-221.640	75.202	0.209	-0.219
-220.625	-200.000	-0.003	0.359
-219.611	272.845	0.054	-0.095
-218.596	108.269	-0.174	0.206
-217.582	-0.606	0.416	0.293
-216.567	31.457	-0.100	0.085
-215.552	-104.611	-0.288	0.066
-214.538	-200.000	0.038	-0.238
-213.523	-200.000	0.002	0.028
-212.509	51.514	-0.094	-0.088
-211.494	-87.475	0.108	0.032
-210.479	-44.348	-0.271	-0.134
-209.465	-200.000	-0.023	-0.382
-208.450	800.000	0.115	-0.446
-207.436	-200.000	-0.042	0.219
-206.421	-200.000	-0.200	-0.001
-205.406	14.834	0.173	-0.134
-204.392	38.851	0.157	-0.139
-203.377	177.189	0.223	-0.321
-202.363	394.851	-0.164	-0.339
-201.348	597.217	0.032	0.078
-200.333	-62.162	0.272	0.113
-199.319	107.636	-0.305	-0.360
-198.304	-40.664	0.160	-0.082
-197.290	151.335	0.035	0.047
-196.275	-171.780	0.212	0.007
-195.260	209.672	-0.086	0.134
-194.246	30.164	-0.224	-0.190
-193.231	-200.000	0.082	-0.355
-192.217	670.080	-0.057	0.146
-191.202	75.832	-0.059	-0.061
-190.187	-149.143	0.244	0.019
-189.173	361.495	0.038	-0.076
-188.158	800.000	-0.091	0.279
-187.144	-200.000	-0.046	0.284
-186.129	26.214	0.227	-0.188
-185.114	40.348	-0.187	0.167
-184.100	-97.380	-0.118	0.030
-183.085	9.914	0.172	-0.129
-182.071	8.995	-0.246	0.184
-181.056	-89.872	0.193	-0.056
-180.042	-26.744	0.205	-0.119
-179.027	-174.631	0.417	-0.012
-178.012	-102.490	-0.045	0.011
-176.998	51.613	0.160	-0.151
-175.983	431.320	-0.117	-0.251
-174.969	-200.000	0.021	0.197
-173.954	4.042	-0.087	0.063
-172.939	-200.000	-0.039	-0.204
-171.925	-200.000	0.006	0.244
-170.910	-200.000	0.068	0.462
-169.896	-200.000	0.012	0.258
-168.881	-200.000	-0.077	0.340
-167.866	-200.000	0.011	-0.330
-166.852	-200.000	0.022	0.143
-165.837	800.000	-0.049	0.154
-164.823	-117.214	0.510	0.092
-163.808	800.000	0.021	-0.059
-162.793	-200.000	0.009	-0.310
-161.779	-200.000	0.005	0.125
-160.764	-200.000	0.054	0.280
-159.750	-90.545	-0.123	0.035
-158.735	607.050	-0.107	0.263
-157.720	-102.910	0.222	-0.052
-156.706	-200.000	0.036	0.301
-155.691	587.164	-0.138	0.336
-154.677	209.814	-0.067	0.103
-153.662	-67.539	0.074	-0.029
-152.647	-25.818	0.051	0.030
-151.633	24.979	-0.017	-0.014
-150.618	8.839	-0.235	-0.176
-149.604	-83.210	0.384	0.122
-148.589	-146.014	-0.221	0.019
-147.574	800.000	-0.057	-0.162
-146.560	-200.000	0.023	-0.182
-145.545	-83.378	-0.234	-0.074
-144.531	165.634	0.064	0.090
-143.516	-200.000	-0.029	-0.149
-142.502	48.559	-0.014	0.013
-141.487	35.267	0.122	-0.106
-140.472	-200.000	-0.024	-0.238
-139.458	-102.774	-0.232	-0.055
-138.443	150.978	-0.240	-0.323
-137.429	-200.000	0.033	-0.160
-136.414	-122.309	0.314	-0.051
-135.399	-200.000	-0.006	-0.176
-134.385	-25.565	0.316	-0.184
-133.370	-200.000	0.005	0.214
-132.356	-149.138	0.375	0.030
-131.341	107.950	0.184	-0.217
-130.326	-143.042	-0.227	0.022
-129.312	-21.574	0.283	0.170
-128.297	125.910	0.140	-0.175
-127.283	19.319	0.215	0.171
-126.268	-75.143	-0.208	0.074
-125.253	201.508	0.088	-0.134
-124.239	-200.000	0.009	0.209
-123.224	-200.000	0.256	0.001
