DTS Sentinel unit serial number:	SN413079Multiplexer serial number:	ORYXHardware model number:	OX4-SRSoftware version number:	ORYX F/W v4.00 Oryx Data Collector v3.7.2.0data status	okinstallation	princeton_trtdifferential loss correction	single-endedforward channel	channel 4reverse channel	N/Adate	2019/09/18time	04:57:34forward acquisition time	60.00reverse acquisition time	0.00gamma	496.2192k internal	0.2331k external	0.2331temperature offset calibration	0.9993default loss term (dB/km)	0.3790temperature slope calibration	1.0000multiplexer offset coefficient	1.0000multiplexer slope coefficient	1.0000fibre end	0.00T internal ref (°C)	23.50T ext. ref 1 (°C)	0.19T ext. ref 2 (°C)	17.92length (m)	temperature (°C)	Stokes	anti-Stokes-747.200	62.550	0.116	0.117
-746.185	240.908	0.020	0.034
-745.171	-200.000	-0.023	0.385
-744.156	196.992	0.101	-0.155
-743.142	53.738	-0.059	-0.057
-742.127	-38.384	-0.119	0.063
-741.112	-72.602	0.326	-0.121
-740.098	-2.083	-0.379	0.268
-739.083	-68.478	0.219	0.085
-738.069	-200.000	-0.123	-0.001
-737.054	105.277	-0.162	-0.193
-736.039	-200.000	0.003	0.097
-735.025	-200.000	-0.024	0.251
-734.010	-200.000	-0.001	0.052
-732.996	390.296	0.057	0.119
-731.981	115.893	0.194	0.239
-730.966	-92.259	-0.327	-0.093
-729.952	285.270	0.096	0.174
-728.937	-200.000	0.038	-0.292
-727.923	-59.623	-0.327	-0.141
-726.908	67.974	0.041	-0.042
-725.894	29.615	0.067	-0.057
-724.879	-168.130	0.075	0.003
-723.864	153.122	0.149	0.205
-722.850	-123.873	-0.157	-0.025
-721.835	119.526	-0.070	-0.087
-720.821	-147.288	0.225	0.019
-719.806	14.112	-0.179	-0.140
-718.791	-42.186	0.065	-0.034
-717.777	86.931	0.107	0.119
-716.762	-200.000	0.057	-0.538
-715.748	-200.000	0.023	-0.413
-714.733	-160.694	0.121	0.006
-713.718	-89.466	-0.278	0.082
-712.704	676.456	-0.089	-0.232
-711.689	-164.142	-0.042	0.002
-710.675	232.393	0.207	0.341
-709.660	163.964	0.142	0.201
-708.645	-109.198	0.392	-0.084
-707.631	800.000	0.040	0.137
-706.616	-86.675	0.092	0.028
-705.602	-200.000	-0.032	-0.179
-704.587	154.529	-0.259	-0.358
-703.572	81.140	-0.361	-0.392
-702.558	444.125	0.200	-0.442
-701.543	55.397	-0.068	0.066
-700.529	-41.615	0.220	0.114
-699.514	4.169	-0.245	-0.180
-698.499	-169.274	-0.417	-0.015
-697.485	-31.009	-0.266	0.151
-696.470	-30.026	0.135	-0.077
-695.456	340.040	0.059	0.117
-694.441	49.559	0.109	-0.103
-693.426	318.084	0.119	-0.227
-692.412	-88.801	0.231	-0.069
-691.397	-18.892	0.238	-0.149
-690.383	368.857	-0.084	-0.171
-689.368	-13.386	-0.087	-0.056
-688.354	-48.817	-0.163	0.079
-687.339	-74.044	-0.336	-0.122
-686.324	128.675	0.217	-0.278
-685.310	-200.000	0.020	0.518
-684.295	249.940	-0.122	0.209
-683.281	-59.391	-0.273	0.118
-682.266	-200.000	0.018	0.000
-681.251	259.326	0.031	-0.053
-680.237	-200.000	-0.007	0.050
-679.222	-200.000	-0.006	-0.169
-678.208	104.921	-0.083	0.098
-677.193	-80.381	0.333	-0.112
-676.178	31.197	-0.095	-0.081
-675.164	-200.000	0.035	0.156
-674.149	-200.000	0.035	-0.397
-673.135	146.799	-0.155	0.209
-672.120	328.021	0.067	-0.129
-671.105	-26.110	-0.190	-0.112
-670.091	178.878	-0.048	-0.071
-669.076	123.431	-0.095	-0.120
-668.062	-200.000	0.193	0.001
-667.047	-105.804	-0.256	0.058
-666.032	154.181	0.107	0.147
-665.018	253.509	0.064	0.109
-664.003	331.782	-0.100	0.194
-662.989	-200.000	0.005	0.112
-661.974	47.889	-0.277	0.260
-660.959	-134.114	-0.182	0.023
-659.945	337.359	0.253	0.492
-658.930	-14.130	-0.419	0.271
-657.916	64.893	-0.053	-0.054
-656.901	-110.985	0.227	-0.047
-655.886	-36.545	0.265	0.143
-654.872	-200.000	0.062	-0.275
-653.857	168.588	-0.186	-0.266
-652.843	-200.000	-0.003	-0.062
-651.828	152.568	0.075	0.103
-650.814	141.219	-0.188	0.249
-649.799	-152.043	0.177	-0.013
-648.784	-64.175	-0.461	0.189
-647.770	800.000	-0.065	-0.223
-646.755	-54.599	-0.294	-0.133
-645.741	-54.698	-0.125	0.057
-644.726	-200.000	0.049	-0.274
-643.711	272.998	0.087	-0.155
-642.697	-79.291	0.279	-0.095
-641.682	26.353	-0.451	-0.378
-640.668	-108.164	-0.125	0.027
-639.653	161.133	-0.080	-0.113
-638.638	13.225	0.083	-0.064
-637.624	61.416	-0.082	0.081
-636.609	140.499	0.290	0.384
-635.595	-200.000	-0.067	-0.415
-634.580	50.921	0.145	-0.138
-633.565	-71.115	-0.272	0.102
-632.551	-58.061	0.124	-0.054
-631.536	-200.000	-0.006	-0.225
-630.522	318.079	-0.163	-0.309
-629.507	369.749	-0.107	-0.218
-628.492	204.162	0.046	-0.071
-627.478	-150.360	-0.231	-0.018
-626.463	800.000	0.052	0.171
-625.449	142.497	0.111	-0.148
-624.434	-146.417	0.181	0.016
-623.419	-200.000	0.064	0.398
-622.405	123.639	0.111	-0.139
-621.390	-6.445	0.250	-0.170
-620.376	-139.502	0.489	-0.052
-619.361	89.678	-0.110	0.123
-618.346	384.330	-0.088	0.183
-617.332	486.859	-0.045	-0.104
-616.317	4.424	0.249	0.183
-615.303	-42.263	-0.225	-0.115
-614.288	-29.845	0.158	0.090
-613.273	-55.037	0.356	-0.161
-612.259	50.226	-0.043	0.040
-611.244	54.163	0.121	-0.116
-610.230	140.987	0.071	-0.094
-609.215	-19.131	-0.123	0.076
-608.201	-98.559	0.365	0.093
-607.186	800.000	0.026	-0.103
-606.171	-200.000	0.033	0.272
-605.157	-135.136	-0.396	-0.048
-604.142	-78.082	-0.077	0.027
-603.128	-116.859	-0.238	0.044
-602.113	70.493	0.255	0.264
-601.098	162.683	-0.228	0.321
-600.084	97.822	-0.346	0.399
-599.069	-200.000	-0.029	0.153
-598.055	800.000	0.063	-0.187
-597.040	-200.000	-0.020	0.272
-596.025	-88.225	-0.590	-0.177
-595.011	-129.683	-0.209	0.029
-593.996	18.538	-0.112	-0.090
-592.982	238.958	0.038	-0.064
-591.967	-53.797	-0.227	0.104
-590.952	-119.440	0.173	-0.030
-589.938	-56.581	0.065	-0.029
-588.923	-134.327	-0.350	-0.043
-587.909	249.110	0.163	0.276
-586.894	301.740	-0.117	0.217
-585.879	44.085	0.065	-0.059
-584.865	-48.709	-0.211	-0.101
-583.850	-74.725	-0.436	-0.157
-582.836	179.332	-0.155	-0.227
-581.821	669.848	-0.065	-0.168
-580.806	83.183	-0.042	0.046
-579.792	464.242	0.136	-0.305
-578.777	60.188	0.059	0.059
-577.763	127.508	-0.256	0.325
-576.748	238.391	0.133	-0.221
-575.733	-200.000	0.041	-0.336
-574.719	510.102	-0.181	0.422
-573.704	-16.353	-0.139	-0.088
-572.690	150.969	-0.126	0.171
-571.675	312.801	-0.114	-0.213
-570.661	-26.216	-0.138	-0.081
-569.646	88.672	-0.047	-0.052
-568.631	79.389	-0.045	0.049
-567.617	174.399	-0.241	0.349
-566.602	149.976	0.125	-0.170
-565.588	323.640	-0.045	0.086
-564.573	-107.573	-0.179	0.039
-563.558	-134.896	0.194	0.023
-562.544	-200.000	0.030	0.226
-561.529	-73.069	-0.214	-0.078
-560.515	-105.205	0.104	-0.024
-559.500	127.911	-0.222	0.282
-558.485	-200.000	-0.038	-0.272
-557.471	2.865	0.151	0.110
-556.456	18.953	-0.039	0.032
-555.442	-158.474	-0.216	0.012
-554.427	-113.370	0.079	0.016
-553.412	-200.000	-0.008	-0.039
-552.398	-200.000	-0.023	-0.119
-551.383	355.991	0.122	0.243
-550.369	-200.000	0.071	0.348
-549.354	345.224	0.144	-0.282
-548.339	800.000	-0.080	0.265
-547.325	-200.000	-0.002	0.042
-546.310	-71.348	0.298	-0.112
-545.296	-132.741	-0.121	-0.015
-544.281	-171.769	-0.139	0.005
-543.266	-8.922	0.140	-0.094
-542.252	100.966	0.282	0.327
-541.237	-200.000	0.050	0.299
-540.223	105.471	0.043	0.051
-539.208	-133.352	0.345	-0.043
-538.193	-2.922	-0.073	-0.051
-537.179	-47.203	0.123	-0.060
-536.164	-46.340	0.116	-0.057
-535.150	-200.000	-0.011	0.055
-534.135	-114.120	0.062	0.012
-533.121	-90.005	0.122	0.035
-532.106	-130.079	-0.271	-0.037
-531.091	-10.756	0.128	-0.085
-530.077	-131.276	0.246	0.033
-529.062	76.772	0.095	-0.100
-528.048	669.190	-0.097	0.251
-527.033	29.705	0.161	-0.137
-526.018	123.006	-0.206	0.257
-525.004	-74.287	-0.127	-0.046
-523.989	189.358	-0.133	0.199
-522.975	-137.676	0.274	0.031
-521.960	-98.340	-0.234	0.060
-520.945	-80.411	-0.395	0.132
-519.931	-200.000	-0.049	-0.267
-518.916	666.900	-0.141	0.363
-517.902	-90.658	0.292	0.084
-516.887	-83.641	-0.216	-0.069
-515.872	800.000	0.077	0.244
-514.858	-39.877	0.257	0.134
-513.843	14.233	-0.209	0.162
-512.829	528.796	-0.013	-0.030
-511.814	-200.000	-0.009	0.089
-510.799	-131.897	0.416	0.054
-509.785	31.037	-0.198	-0.169
-508.770	-188.041	0.082	0.001
-507.756	-200.000	-0.014	-0.104
-506.741	-155.687	0.112	0.007
-505.726	-200.000	-0.037	0.176
-504.712	-90.865	0.105	-0.030
-503.697	-51.588	-0.103	-0.048
-502.683	110.239	-0.194	0.232
-501.668	-35.413	0.082	-0.045
-500.653	220.805	0.052	-0.084
-499.639	-2.867	-0.186	-0.130
-498.624	35.262	-0.119	-0.104
-497.610	646.089	-0.111	-0.282
-496.595	-200.000	-0.004	-0.232
-495.581	168.732	-0.116	0.165
-494.566	-135.413	-0.227	-0.027
-493.551	-100.921	0.095	0.023
-492.537	31.382	-0.195	0.167
-491.522	-126.851	0.107	-0.016
-490.508	41.383	-0.183	-0.165
-489.493	-137.530	0.481	0.054
-488.478	-115.325	0.258	0.048
-487.464	-178.418	0.526	-0.012
-486.449	-178.488	0.135	0.003
-485.435	115.562	0.251	-0.306
-484.420	-73.482	-0.070	-0.025
-483.405	-200.000	-0.005	0.029
-482.391	-200.000	0.044	0.194
-481.376	-200.000	0.069	0.368
-480.362	333.273	-0.069	-0.133
-479.347	-46.444	0.200	0.098
-478.332	130.552	0.349	0.446
-477.318	800.000	0.057	-0.191
-476.303	-200.000	-0.030	0.189
-475.289	233.720	0.042	-0.070
-474.274	-38.894	-0.199	-0.104
-473.259	-200.000	-0.002	-0.075
-472.245	-164.910	-0.293	-0.013
-471.230	136.331	0.180	0.234
-470.216	-19.466	0.054	-0.033
-469.201	800.000	-0.112	0.331
-468.186	-15.061	0.146	0.093
-467.172	9.869	-0.107	-0.081
-466.157	-200.000	-0.022	0.123
-465.143	-40.395	-0.260	-0.135
-464.128	-3.513	-0.165	-0.114
-463.113	800.000	0.057	0.199
-462.099	-108.595	-0.212	0.045
-461.084	12.309	0.078	-0.060
-460.070	-200.000	0.039	0.247
-459.055	2.931	0.092	-0.066
-458.040	630.995	-0.103	-0.259
-457.026	800.000	-0.136	-0.419
-456.011	-72.626	0.403	0.148
-454.997	348.432	0.141	0.276
-453.982	35.911	-0.110	-0.097
-452.968	-200.000	0.010	0.109
-451.953	72.564	-0.095	-0.099
-450.938	800.000	0.106	-0.325
-449.924	-72.951	-0.226	0.083
-448.909	-11.055	0.278	0.183
-447.895	-49.621	-0.164	-0.078
-446.880	136.735	-0.026	-0.034
-445.865	23.680	0.315	-0.258
-444.851	-41.057	0.157	0.081
-443.836	30.544	0.129	0.110
-442.822	254.928	0.074	-0.127
-441.807	-8.764	-0.174	-0.116
-440.792	800.000	-0.056	0.220
-439.778	-189.160	0.302	0.004
-438.763	276.347	-0.145	-0.257
-437.749	-195.340	-0.158	-0.001
-436.734	800.000	-0.073	0.271
-435.719	-129.901	0.263	0.036
-434.705	-133.777	-0.172	0.021
-433.690	-178.880	0.342	0.008
-432.676	-200.000	-0.047	-0.226
-431.661	-200.000	-0.007	-0.109
-430.646	-118.621	0.253	0.044
-429.632	117.617	-0.197	0.241
-428.617	-187.515	-0.126	-0.002
-427.603	9.452	-0.083	-0.063
-426.588	-61.625	-0.184	-0.077
-425.573	-12.625	-0.275	0.178
-424.559	-81.717	0.336	0.110
-423.544	800.000	0.064	-0.233
-422.530	294.198	-0.106	-0.193
-421.515	-116.179	0.390	0.072
-420.500	-61.098	0.228	-0.096
-419.486	-84.861	0.161	0.050
-418.471	71.817	-0.209	-0.215
-417.457	-22.438	-0.082	-0.049
-416.442	-200.000	-0.002	-0.084
-415.428	313.051	0.111	0.207
-414.413	4.844	0.191	0.139
-413.398	80.182	0.237	-0.253
-412.384	-66.203	0.334	-0.132
-411.369	800.000	-0.099	0.308
-410.355	-83.471	-0.256	-0.081
-409.340	-146.839	0.232	0.020
-408.325	-82.078	0.422	0.137
-407.311	-107.573	0.103	0.022
-406.296	186.033	0.141	0.209
-405.282	346.047	-0.036	0.070
-404.267	-147.464	-0.270	0.023
-403.252	-36.601	0.157	0.084
-402.238	34.010	-0.202	0.175
-401.223	113.114	0.038	0.046
-400.209	-60.820	0.168	0.071
-399.194	-200.000	0.039	0.201
-398.179	-8.136	0.108	0.072
-397.165	175.433	-0.131	-0.188
-396.150	712.607	-0.071	0.187
-395.136	-96.056	0.264	-0.070
-394.121	-154.692	-0.253	0.017
-393.106	-9.238	0.197	-0.130
-392.092	-93.036	0.236	0.065
-391.077	17.134	-0.289	0.228
-390.063	252.051	0.212	-0.358
-389.048	18.636	-0.378	-0.300
-388.033	-22.366	0.139	-0.083
-387.019	72.999	-0.134	0.139
-386.004	-73.833	0.410	-0.148
-384.990	-200.000	-0.018	-0.078
-383.975	-132.678	-0.189	0.024
-382.960	229.007	-0.123	-0.199
-381.946	-90.003	0.312	0.090
-380.931	-200.000	0.003	-0.370
-379.917	168.019	0.045	-0.063
-378.902	800.000	-0.074	-0.253
-377.888	-177.582	0.143	-0.003
-376.873	200.338	0.189	-0.288
-375.858	-200.000	-0.052	-0.235
-374.844	-92.944	0.327	-0.090
-373.829	-67.098	-0.202	-0.079
-372.815	800.000	-0.044	0.126
-371.800	613.882	0.040	-0.100
-370.785	108.126	-0.301	-0.355
-369.771	-200.000	-0.047	0.323
-368.756	78.652	-0.205	0.217
-367.742	-100.675	-0.177	0.043
-366.727	304.604	-0.057	0.105
-365.712	141.251	-0.055	0.072
-364.698	250.845	0.086	0.145
-363.683	125.968	-0.151	-0.190
-362.669	-200.000	0.005	0.179
-361.654	-4.404	0.323	0.221
-360.639	-200.000	0.003	-0.228
-359.625	79.535	0.036	0.038
-358.610	443.152	-0.115	-0.249
-357.596	800.000	-0.007	0.028
-356.581	-200.000	-0.027	-0.191
-355.566	-6.528	0.073	0.049
-354.552	-200.000	-0.008	-0.094
-353.537	295.736	-0.217	0.394
-352.523	-73.052	0.339	0.123
-351.508	8.342	0.130	-0.097
-350.493	-53.360	-0.320	-0.145
-349.479	-127.523	0.121	-0.017
-348.464	-149.445	-0.183	0.014
-347.450	396.529	-0.105	0.218
-346.435	50.376	-0.051	0.047
-345.420	-200.000	0.015	-0.189
-344.406	54.864	0.194	-0.186
-343.391	-200.000	0.012	0.110
-342.377	-200.000	-0.008	-0.372
-341.362	26.811	-0.143	0.119
-340.348	-200.000	-0.019	-0.217
-339.333	800.000	0.016	-0.067
-338.318	800.000	0.021	0.080
-337.304	-117.637	0.457	-0.082
-336.289	-13.239	0.037	-0.024
-335.275	800.000	-0.039	0.111
-334.260	35.291	-0.385	-0.334
-333.245	-120.913	-0.336	-0.056
-332.231	166.255	0.105	-0.147
-331.216	21.718	-0.112	0.090
-330.202	271.086	-0.183	0.319
-329.187	-200.000	0.040	0.316
-328.172	-200.000	-0.041	-0.310
-327.158	44.507	0.349	-0.318
-326.143	-18.668	0.215	0.133
-325.129	800.000	0.047	0.147
-324.114	-66.009	0.067	-0.027
-323.099	-155.280	0.194	-0.012
-322.085	71.389	-0.181	0.185
-321.070	-77.165	0.118	-0.041
-320.056	-63.669	-0.241	0.098
-319.041	-200.000	-0.002	0.141
-318.026	-200.000	-0.032	-0.254
-317.012	800.000	-0.177	0.530
-315.997	-49.213	0.140	-0.066
-314.983	-48.749	-0.102	0.048
-313.968	131.279	0.190	0.241
-312.953	-200.000	-0.033	-0.157
-311.939	190.447	-0.045	0.067
-310.924	-165.845	-0.159	0.007
-309.910	-104.878	-0.203	-0.046
-308.895	-41.584	-0.059	-0.030
-307.880	-124.566	0.267	0.041
-306.866	-33.916	-0.260	0.142
-305.851	49.621	0.148	-0.138
-304.837	-93.563	-0.037	0.010
-303.822	-3.951	-0.235	-0.161
-302.807	-50.396	0.256	0.120
-301.793	165.084	0.097	-0.136
-300.778	-28.272	0.304	-0.174
-299.764	87.720	0.085	0.093
-298.749	105.091	0.238	-0.278
-297.735	353.374	-0.101	0.198
-296.720	-127.531	-0.298	-0.043
-295.705	-88.580	-0.484	-0.143
-294.691	-142.831	0.247	-0.024
-293.676	-117.967	0.158	0.028
-292.662	88.775	-0.114	-0.125
-291.647	273.425	-0.071	-0.124
-290.632	459.159	-0.057	0.126
-289.618	11.381	0.215	-0.162
-288.603	800.000	0.014	0.061
-287.589	-93.468	0.246	-0.067
-286.574	800.000	-0.041	-0.150
-285.559	-200.000	0.032	0.145
-284.545	-200.000	-0.008	-0.083
-283.530	80.285	-0.161	-0.171
-282.516	26.072	-0.058	-0.048
-281.501	132.801	-0.166	-0.212
-280.486	-82.770	-0.161	-0.051
-279.472	-113.980	-0.104	0.020
-278.457	435.873	-0.106	-0.228
-277.443	-55.494	0.120	0.053
-276.428	-183.845	-0.494	0.008
-275.413	-121.308	0.216	-0.036
-274.399	301.074	-0.097	-0.177
-273.384	-200.000	0.046	-0.432
-272.370	20.171	0.216	0.172
-271.355	196.190	0.090	0.135
-270.340	470.313	-0.072	-0.161
-269.326	-112.617	-0.248	0.049
-268.311	-112.131	-0.072	-0.014
-267.297	389.000	0.041	0.084
-266.282	-188.264	-0.234	0.003
-265.267	-200.000	0.020	0.280
-264.253	-52.900	0.342	0.155
-263.238	800.000	0.076	-0.260
-262.224	-111.326	-0.272	-0.055
-261.209	9.583	0.160	0.119
-260.195	-140.217	0.204	-0.021
-259.180	14.707	-0.190	-0.146
-258.165	66.928	-0.067	-0.067
-257.151	800.000	-0.029	0.087
-256.136	601.513	0.107	-0.262
-255.122	-198.838	-0.138	0.001
-254.107	-77.339	-0.227	-0.078
-253.092	-119.813	0.155	-0.026
-252.078	-200.000	0.018	-0.203
-251.063	303.650	-0.224	-0.410
-250.049	-158.018	0.211	0.012
-249.034	800.000	0.012	0.036
-248.019	202.196	-0.165	0.251
-247.005	-73.873	-0.092	-0.033
-245.990	-31.459	0.029	-0.016
-244.976	-131.793	0.286	-0.037
-243.961	-94.003	-0.008	0.002
-242.946	186.217	-0.122	-0.179
-241.932	-200.000	-0.032	-0.273
-240.917	-200.000	-0.000	-0.080
-239.903	102.561	0.118	0.136
-238.888	-200.000	-0.048	0.339
-237.873	-58.253	0.174	0.075
-236.859	-106.941	-0.080	0.018
-235.844	236.007	0.102	-0.167
-234.830	-116.492	-0.170	0.031
-233.815	15.560	-0.141	0.109
-232.800	104.213	0.094	0.109
-231.786	61.697	-0.123	0.121
-230.771	-186.807	-0.021	-0.000
-229.757	59.382	0.244	0.237
-228.742	-118.884	-0.288	-0.050
-227.727	366.003	0.065	-0.130
-226.713	-103.061	0.203	-0.047
-225.698	-200.000	-0.011	-0.189
-224.684	605.475	-0.029	-0.071
-223.669	196.005	0.167	-0.251
-222.655	800.000	-0.109	0.399
-221.640	-70.251	0.220	0.082
-220.625	22.239	-0.268	0.216
-219.611	34.966	-0.165	0.142
-218.596	-89.600	0.124	-0.036
-217.582	-156.746	0.222	-0.014
-216.567	-200.000	-0.006	-0.131
-215.552	-85.203	-0.168	0.052
-214.538	-6.673	0.062	-0.042
-213.523	-4.170	0.022	-0.015
-212.509	216.585	-0.147	0.231
-211.494	-46.575	-0.041	-0.020
-210.479	-163.532	-0.092	0.004
-209.465	-97.016	-0.084	0.022
-208.450	122.608	-0.175	-0.216
-207.436	-200.000	0.036	-0.163
-206.421	-113.963	-0.166	0.032
-205.406	147.792	-0.160	0.213
-204.392	-117.430	0.087	0.016
-203.377	800.000	0.040	0.115
-202.363	276.176	0.108	0.190
-201.348	36.377	-0.221	-0.192
-200.333	25.556	-0.024	0.020
-199.319	-76.182	0.223	0.077
-198.304	51.615	0.110	-0.103
-197.290	-51.836	0.317	0.146
-196.275	-173.695	0.475	0.014
-195.260	-200.000	0.042	-0.246
-194.246	368.062	0.162	-0.323
-193.231	12.103	-0.138	0.104
-192.217	-200.000	-0.073	0.466
-191.202	-128.628	-0.182	-0.025
-190.187	105.095	-0.085	-0.099
-189.173	-200.000	-0.017	-0.101
-188.158	703.281	-0.071	-0.183
-187.144	101.132	0.132	-0.151
-186.129	-200.000	-0.019	-0.094
-185.114	237.474	-0.186	-0.304
-184.100	270.427	-0.046	-0.079
-183.085	106.274	-0.070	0.082
-182.071	800.000	-0.068	0.223
-181.056	419.434	0.146	0.307
-180.042	302.813	0.078	-0.142
-179.027	-200.000	-0.001	-0.251
-178.012	-33.751	-0.249	0.135
-176.998	-99.879	0.087	0.021
-175.983	-200.000	-0.053	0.365
-174.969	-111.790	0.376	-0.075
-173.954	170.000	0.069	0.097
-172.939	125.666	-0.068	0.084
-171.925	-200.000	0.034	0.340
-170.910	94.508	-0.224	-0.251
-169.896	349.301	-0.144	-0.280
-168.881	-71.465	0.070	-0.026
-167.866	-67.597	-0.126	0.049
-166.852	527.026	0.081	-0.188
-165.837	-69.615	0.515	0.194
-164.823	800.000	-0.114	0.363
-163.808	800.000	0.110	0.408
-162.793	92.104	-0.054	0.059
-161.779	405.790	-0.062	0.129
-160.764	22.355	0.082	0.066
-159.750	177.105	0.108	-0.155
-158.735	-165.230	-0.254	-0.011
-157.720	39.806	0.148	0.131
-156.706	217.639	0.057	0.089
-155.691	-200.000	-0.002	0.267
-154.677	-91.898	0.101	-0.028
-153.662	43.279	-0.202	-0.181
-152.647	-67.356	0.039	0.015
-151.633	733.141	0.088	0.232
-150.618	48.437	0.156	0.144
-149.604	-61.721	0.270	-0.111
-148.589	-200.000	-0.049	-0.261
-147.574	767.672	-0.095	-0.255
-146.560	435.046	-0.113	-0.241
-145.545	62.038	0.233	-0.228
-144.531	-138.571	-0.020	0.002
-143.516	46.512	-0.111	0.101
-142.502	47.863	0.164	-0.151
-141.487	-117.499	0.183	-0.032
-140.472	-31.249	-0.081	-0.045
-139.458	-131.574	0.091	0.012
-138.443	800.000	-0.096	0.309
-137.429	-54.012	-0.191	0.085
-136.414	800.000	0.112	0.332
-135.399	-64.520	0.420	-0.168
-134.385	772.176	0.047	0.127
-133.370	-200.000	0.030	-0.210
-132.356	213.744	0.106	0.165
-131.341	700.981	0.025	-0.064
-130.326	45.987	0.227	-0.206
-129.312	354.976	0.043	0.083
-128.297	184.694	-0.045	0.066
-127.283	-91.360	0.034	0.010
-126.268	238.998	-0.056	-0.092
-125.253	-8.076	-0.358	-0.237
-124.239	-102.457	-0.279	0.065
-123.224	211.556	0.083	0.128
-122.210	-171.607	0.268	0.009
