DTS Sentinel unit serial number:	SN413079Multiplexer serial number:	ORYXHardware model number:	OX4-SRSoftware version number:	ORYX F/W v4.00 Oryx Data Collector v3.7.2.0data status	okinstallation	princeton_trtdifferential loss correction	single-endedforward channel	channel 4reverse channel	N/Adate	2019/09/14time	23:37:35forward acquisition time	60.00reverse acquisition time	0.00gamma	496.2192k internal	0.2306k external	0.2306temperature offset calibration	1.0053default loss term (dB/km)	0.3790temperature slope calibration	1.0000multiplexer offset coefficient	1.0000multiplexer slope coefficient	1.0000fibre end	0.00T internal ref (°C)	32.31T ext. ref 1 (°C)	4.64T ext. ref 2 (°C)	27.31length (m)	temperature (°C)	Stokes	anti-Stokes-747.200	-101.132	0.394	0.098
-746.185	-186.511	-0.445	0.006
-745.171	-33.920	-0.261	-0.146
-744.156	-33.476	-0.504	0.283
-743.142	226.096	0.230	-0.380
-742.127	270.139	0.046	0.082
-741.112	-0.604	-0.330	0.238
-740.098	154.474	0.112	0.156
-739.083	331.379	0.055	0.107
-738.069	-102.868	-0.262	0.063
-737.054	79.184	0.147	-0.160
-736.039	-22.467	-0.150	-0.092
-735.025	103.120	0.227	0.270
-734.010	86.443	0.270	-0.303
-732.996	20.001	-0.274	-0.225
-731.981	-200.000	-0.029	0.187
-730.966	193.478	-0.130	0.200
-729.952	-200.000	-0.034	-0.278
-728.937	138.914	-0.092	-0.122
-727.923	648.835	-0.027	-0.069
-726.908	496.574	-0.063	-0.148
-725.894	-200.000	0.002	0.259
-724.879	-200.000	0.016	0.239
-723.864	-72.281	0.099	-0.037
-722.850	800.000	-0.036	0.141
-721.835	44.839	0.062	0.058
-720.821	-171.882	-0.367	-0.012
-719.806	-88.207	-0.174	-0.053
-718.791	800.000	-0.061	0.261
-717.777	207.514	0.107	0.169
-716.762	31.045	0.291	-0.253
-715.748	-192.942	-0.364	0.003
-714.733	800.000	-0.130	0.514
-713.718	-85.126	0.196	-0.062
-712.704	-187.761	-0.223	0.003
-711.689	-62.557	-0.040	0.017
-710.675	173.910	0.127	-0.186
-709.660	51.710	-0.101	-0.097
-708.645	-137.991	-0.071	-0.008
-707.631	189.246	-0.142	-0.217
-706.616	-143.975	0.073	0.007
-705.602	-137.221	0.135	0.016
-704.587	53.110	-0.283	-0.276
-703.572	-23.654	0.158	0.096
-702.558	157.095	0.124	-0.174
-701.543	800.000	-0.096	-0.320
-700.529	629.191	0.144	-0.368
-699.514	21.948	0.041	-0.034
-698.499	-129.314	0.135	-0.019
-697.485	541.906	0.083	-0.202
-696.470	334.254	0.044	0.087
-695.456	-2.020	-0.138	-0.099
-694.441	-25.122	-0.309	0.186
-693.426	-29.190	-0.230	-0.134
-692.412	53.786	0.102	-0.099
-691.397	230.585	-0.299	-0.497
-690.383	-48.471	-0.200	-0.098
-689.368	73.071	-0.256	0.272
-688.354	-64.161	0.283	-0.117
-687.339	122.371	0.161	-0.204
-686.324	800.000	-0.059	-0.212
-685.310	-5.045	0.221	-0.154
-684.295	-76.270	-0.155	-0.055
-683.281	-200.000	0.012	0.165
-682.266	209.092	0.050	0.079
-681.251	10.101	0.039	0.030
-680.237	-143.624	-0.103	-0.010
-679.222	-200.000	-0.038	0.247
-678.208	800.000	-0.098	0.296
-677.193	-88.602	0.371	-0.112
-676.178	-140.720	-0.025	0.003
-675.164	-190.941	-0.091	-0.001
-674.149	-200.000	0.048	0.315
-673.135	117.963	0.261	-0.326
-672.120	-200.000	0.037	0.215
-671.105	18.385	-0.145	0.118
-670.091	-108.628	0.166	0.036
-669.076	549.949	-0.114	0.278
-668.062	179.329	-0.132	0.196
-667.047	110.927	0.186	-0.227
-666.032	229.499	-0.233	-0.386
-665.018	-200.000	-0.015	-0.138
-664.003	-10.570	0.207	-0.139
-662.989	-2.418	0.268	-0.191
-661.974	-134.276	-0.113	-0.014
-660.959	196.570	-0.073	0.112
-659.945	-200.000	0.036	0.210
-658.930	-12.175	-0.282	0.187
-657.916	-200.000	0.043	-0.195
-656.901	-200.000	0.043	-0.247
-655.886	-200.000	0.067	-0.312
-654.872	-200.000	0.009	0.091
-653.857	-200.000	0.007	-0.125
-652.843	128.113	-0.214	-0.276
-651.828	-200.000	-0.009	-0.182
-650.814	800.000	0.026	-0.099
-649.799	-137.392	-0.162	0.019
-648.784	-26.340	-0.214	-0.127
-647.770	-102.654	0.091	0.022
-646.755	800.000	-0.053	0.156
-645.741	-45.892	-0.114	-0.057
-644.726	-69.505	0.395	0.153
-643.711	-143.264	0.160	0.016
-642.697	-101.330	-0.099	0.024
-641.682	-200.000	0.057	-0.492
-640.668	309.072	0.155	-0.293
-639.653	-2.510	-0.094	-0.067
-638.638	-86.162	-0.222	0.069
-637.624	-65.446	-0.128	-0.052
-636.609	-1.973	-0.089	-0.063
-635.595	33.910	-0.172	0.151
-634.580	-30.202	-0.172	-0.099
-633.565	138.025	0.235	0.311
-632.551	183.489	0.043	0.064
-631.536	-63.265	0.074	0.031
-630.522	-68.366	0.251	-0.099
-629.507	-42.325	0.082	0.043
-628.492	-200.000	-0.038	-0.386
-627.478	-200.000	0.026	-0.128
-626.463	-65.804	0.082	-0.033
-625.449	50.368	0.300	0.287
-624.434	-114.806	-0.418	-0.081
-623.419	-108.528	0.155	-0.034
-622.405	-135.132	-0.220	-0.027
-621.390	-39.209	-0.094	-0.050
-620.376	762.954	-0.094	-0.258
-619.361	99.399	0.029	0.033
-618.346	57.042	-0.190	0.187
-617.332	-158.245	-0.050	0.003
-616.317	-200.000	0.002	-0.009
-615.303	196.654	-0.063	0.097
-614.288	-200.000	-0.048	0.254
-613.273	-33.142	-0.101	-0.057
-612.259	-200.000	0.001	0.289
-611.244	230.641	0.150	0.248
-610.230	-48.291	-0.530	-0.259
-609.215	-183.943	-0.140	0.002
-608.201	297.526	0.018	-0.034
-607.186	96.315	0.014	0.016
-606.171	-100.403	-0.240	0.060
-605.157	-200.000	-0.031	0.413
-604.142	22.828	-0.096	-0.080
-603.128	-52.219	0.199	-0.093
-602.113	9.927	0.247	-0.190
-601.098	46.115	0.127	-0.119
-600.084	66.018	-0.404	-0.415
-599.069	42.367	0.105	0.097
-598.055	236.988	-0.151	0.253
-597.040	71.420	-0.209	0.220
-596.025	-16.317	0.189	-0.121
-595.011	286.395	0.100	0.182
-593.996	33.230	0.170	-0.149
-592.982	62.477	-0.120	-0.122
-591.967	131.310	0.011	0.015
-590.952	-62.152	0.173	0.073
-589.938	319.453	-0.076	0.146
-588.923	705.768	-0.076	-0.203
-587.909	-120.826	0.284	-0.048
-586.894	-200.000	-0.031	0.345
-585.879	-63.691	-0.100	-0.041
-584.865	79.261	0.060	0.065
-583.850	33.602	0.282	-0.248
-582.836	-119.914	-0.155	0.027
-581.821	44.581	0.142	-0.132
-580.806	-143.699	-0.146	-0.014
-579.792	-200.000	-0.018	-0.198
-578.777	800.000	0.054	0.187
-577.763	-31.806	-0.128	0.072
-576.748	-58.492	-0.238	0.105
-575.733	-67.657	-0.345	-0.137
-574.719	-128.773	-0.216	0.031
-573.704	449.541	-0.142	-0.316
-572.690	800.000	0.084	-0.365
-571.675	-87.168	0.121	-0.037
-570.661	-122.417	-0.162	0.027
-569.646	83.454	-0.230	0.253
-568.631	-200.000	0.042	0.309
-567.617	460.852	-0.069	-0.156
-566.602	-170.610	0.419	0.015
-565.588	57.796	0.326	0.322
-564.573	800.000	0.059	0.220
-563.558	117.549	0.152	-0.189
-562.544	-4.541	-0.199	0.139
-561.529	89.893	0.096	0.108
-560.515	172.629	0.268	0.390
-559.500	-200.000	-0.019	0.092
-558.485	14.887	0.183	-0.144
-557.471	800.000	0.031	0.128
-556.456	800.000	0.006	0.020
-555.442	-85.342	-0.059	-0.019
-554.427	297.399	0.090	-0.166
-553.412	-161.779	-0.160	-0.008
-552.398	-30.920	0.014	0.008
-551.383	-40.249	0.493	0.259
-550.369	-200.000	0.023	-0.109
-549.354	-200.000	0.001	-0.062
-548.339	800.000	0.130	0.515
-547.325	-149.694	0.320	0.025
-546.310	-33.412	-0.420	-0.234
-545.296	-200.000	0.000	0.275
-544.281	-21.796	-0.104	-0.064
-543.266	-54.109	0.202	-0.093
-542.252	-108.313	-0.249	-0.054
-541.237	428.969	0.026	0.058
-540.223	24.828	-0.475	-0.397
-539.208	353.801	0.096	-0.193
-538.193	389.471	-0.032	-0.066
-537.179	-200.000	0.078	-0.388
-536.164	93.819	0.115	0.131
-535.150	-141.380	0.041	-0.004
-534.135	-67.909	-0.012	0.005
-533.121	-200.000	0.012	0.104
-532.106	19.037	-0.335	0.271
-531.091	-101.671	-0.129	0.032
-530.077	-126.732	0.121	0.018
-529.062	105.557	-0.169	0.202
-528.048	-170.751	0.325	0.011
-527.033	456.025	0.145	0.325
-526.018	-200.000	-0.015	0.174
-525.004	-56.897	-0.304	0.135
-523.989	65.204	0.090	-0.092
-522.975	250.071	0.035	-0.060
-521.960	102.568	-0.115	-0.136
-520.945	-174.998	0.203	-0.006
-519.931	-200.000	0.049	0.249
-518.916	-80.877	-0.221	-0.074
-517.902	638.975	0.085	-0.217
-516.887	-10.749	-0.348	-0.232
-515.872	-39.340	0.233	0.123
-514.858	-200.000	0.016	0.128
-513.843	50.254	0.168	-0.160
-512.829	117.080	0.289	-0.358
-511.814	-103.411	0.351	-0.083
-510.799	418.793	0.063	0.136
-509.785	800.000	-0.117	-0.338
-508.770	-200.000	0.009	-0.195
-507.756	99.002	-0.269	-0.313
-506.741	118.675	-0.175	-0.218
-505.726	-85.853	-0.112	-0.035
-504.712	54.887	-0.239	-0.233
-503.697	30.595	-0.224	-0.193
-502.683	-200.000	-0.028	0.241
-501.668	-77.762	-0.268	-0.093
-500.653	467.479	-0.105	-0.236
-499.639	-66.227	-0.201	-0.081
-498.624	99.743	0.078	0.091
-497.610	-14.396	0.124	0.081
-496.595	-200.000	0.013	0.428
-495.581	-200.000	-0.260	0.001
-494.566	260.721	-0.028	0.049
-493.551	70.104	-0.206	-0.214
-492.537	-15.205	0.183	-0.118
-491.522	800.000	0.038	0.146
-490.508	-82.883	-0.440	0.143
-489.493	-146.232	0.359	-0.032
-488.478	-80.051	0.510	-0.172
-487.464	37.471	-0.177	0.158
-486.449	-200.000	-0.035	0.211
-485.435	-200.000	0.033	0.192
-484.420	596.009	-0.072	0.178
-483.405	-43.037	0.230	0.117
-482.391	800.000	0.028	-0.118
-481.376	-144.735	0.148	0.014
-480.362	800.000	-0.021	-0.063
-479.347	281.638	0.117	0.211
-478.332	-200.000	-0.001	-0.018
-477.318	-70.852	0.196	0.074
-476.303	-18.419	-0.333	0.209
-475.289	-200.000	-0.074	-0.525
-474.274	529.860	0.023	0.055
-473.259	800.000	0.035	0.114
-472.245	67.585	-0.107	-0.110
-471.230	238.934	-0.076	0.127
-470.216	-200.000	0.014	-0.266
-469.201	-200.000	0.006	-0.174
-468.186	302.949	0.052	0.096
-467.172	-77.929	-0.120	0.042
-466.157	800.000	-0.069	0.220
-465.143	-200.000	-0.086	0.643
-464.128	-200.000	0.034	0.185
-463.113	-70.438	0.094	-0.036
-462.099	498.454	-0.053	-0.122
-461.084	53.334	0.096	-0.093
-460.070	152.494	-0.166	0.229
-459.055	-54.447	0.358	0.163
-458.040	-145.792	-0.158	0.014
-457.026	-64.448	0.056	-0.023
-456.011	-35.760	-0.216	-0.118
-454.997	171.150	-0.080	0.116
-453.982	-160.469	0.087	-0.005
-452.968	-160.072	-0.146	0.008
-451.953	-200.000	-0.007	0.267
-450.938	-106.349	-0.251	-0.057
-449.924	30.308	0.025	0.022
-448.909	-154.046	-0.226	-0.015
-447.895	20.707	0.361	0.294
-446.880	223.938	0.066	0.108
-445.865	-200.000	0.055	0.261
-444.851	126.411	-0.070	-0.089
-443.836	20.057	0.132	0.107
-442.822	305.155	-0.120	0.225
-441.807	-200.000	0.017	-0.247
-440.792	-200.000	-0.008	-0.075
-439.778	-144.032	0.136	0.013
-438.763	-33.608	0.139	0.077
-437.749	62.582	-0.103	0.103
-436.734	-200.000	-0.017	0.240
-435.719	15.474	0.168	0.133
-434.705	-200.000	0.025	-0.196
-433.690	17.720	0.127	0.102
-432.676	-79.298	0.110	0.038
-431.661	65.827	-0.201	0.205
-430.646	131.899	0.052	-0.067
-429.632	77.065	0.039	0.042
-428.617	800.000	-0.081	-0.325
-427.603	-200.000	-0.002	-0.275
-426.588	224.176	-0.247	-0.400
-425.573	-132.714	-0.379	0.049
-424.559	70.977	-0.150	0.156
-423.544	50.688	-0.190	-0.180
-422.530	800.000	-0.041	0.158
-421.515	33.306	-0.208	0.181
-420.500	-19.660	-0.144	0.089
-419.486	132.774	-0.127	-0.165
-418.471	199.194	-0.100	-0.154
-417.457	31.244	-0.053	0.045
-416.442	-115.628	-0.294	-0.055
-415.428	-49.823	0.121	-0.058
-414.413	170.183	-0.099	0.142
-413.398	-200.000	-0.007	0.131
-412.384	274.087	-0.066	-0.118
-411.369	128.143	0.210	-0.268
-410.355	-200.000	-0.033	-0.243
-409.340	80.404	0.137	0.148
-408.325	-200.000	-0.080	0.397
-407.311	800.000	0.099	0.414
-406.296	-200.000	0.024	0.174
-405.282	-200.000	-0.002	-0.046
-404.267	-63.645	0.052	0.022
-403.252	-122.811	0.139	0.022
-402.238	74.987	-0.094	-0.099
-401.223	153.107	0.124	-0.170
-400.209	-200.000	0.011	0.049
-399.194	-85.610	0.291	0.091
-398.179	503.635	0.157	-0.364
-397.165	-42.482	-0.133	-0.068
-396.150	284.808	-0.075	-0.135
-395.136	243.560	-0.069	0.116
-394.121	136.269	-0.024	-0.032
-393.106	-200.000	-0.007	-0.189
-392.092	-39.534	-0.201	-0.106
-391.077	196.919	-0.037	0.057
-390.063	275.479	0.147	0.262
-389.048	800.000	0.105	0.331
-388.033	694.992	0.137	0.361
-387.019	-171.710	0.263	0.009
-386.004	-200.000	0.001	-0.375
-384.990	-200.000	0.017	-0.145
-383.975	1.757	-0.261	-0.188
-382.960	-145.017	0.080	-0.007
-381.946	800.000	-0.004	0.011
-380.931	284.101	-0.066	-0.119
-379.917	-199.013	0.246	0.001
-378.902	-63.138	-0.592	0.245
-377.888	-11.011	-0.217	0.144
-376.873	258.123	-0.129	-0.222
-375.858	-118.781	-0.151	-0.027
-374.844	-100.851	-0.168	-0.041
-373.829	-200.000	0.010	0.124
-372.815	-20.641	0.276	-0.170
-371.800	-22.115	-0.294	0.179
-370.785	106.439	0.061	0.073
-369.771	-36.450	-0.075	0.041
-368.756	-131.186	-0.218	-0.029
-367.742	-16.077	0.485	0.309
-366.727	800.000	-0.055	-0.206
-365.712	-200.000	-0.120	0.000
-364.698	362.014	0.090	-0.181
-363.683	76.254	0.043	0.046
-362.669	-200.000	-0.025	-0.270
-361.654	-200.000	0.002	-0.024
-360.639	-110.545	-0.326	-0.068
-359.625	-173.370	-0.151	-0.005
-358.610	505.687	-0.064	0.150
-357.596	379.540	-0.182	0.374
-356.581	-200.000	0.003	0.140
-355.566	381.568	0.183	-0.377
-354.552	-200.000	0.007	-0.114
-353.537	115.816	0.132	0.162
-352.523	-74.218	-0.284	0.103
-351.508	675.605	-0.163	0.424
-350.493	-54.316	-0.205	-0.093
-349.479	173.212	-0.172	-0.249
-348.464	30.523	-0.207	0.178
-347.450	-76.929	-0.125	-0.044
-346.435	106.380	0.221	0.263
-345.420	10.122	0.334	0.254
-344.406	-82.216	0.161	0.053
-343.391	-57.636	-0.074	-0.032
-342.377	-49.392	-0.263	0.126
-341.362	800.000	0.060	-0.258
-340.348	587.646	-0.028	0.068
-339.333	238.230	-0.138	-0.230
-338.318	96.428	-0.002	-0.002
-337.304	112.277	0.075	-0.091
-336.289	-200.000	0.003	0.159
-335.275	-91.523	0.042	-0.012
-334.260	478.130	-0.152	-0.344
-333.245	0.530	0.244	-0.174
-332.231	53.415	0.214	0.205
-331.216	800.000	0.037	-0.151
-330.202	132.474	-0.201	0.260
-329.187	-175.872	-0.317	0.008
-328.172	-32.430	-0.263	0.147
-327.158	134.435	0.064	0.083
-326.143	223.040	0.136	-0.219
-325.129	-102.682	0.213	-0.051
-324.114	-200.000	0.011	0.149
-323.099	224.659	-0.069	0.112
-322.085	-200.000	0.021	-0.448
-321.070	-6.657	0.322	0.220
-320.056	-199.565	-0.216	-0.001
-319.041	-54.062	-0.154	-0.070
-318.026	527.064	-0.124	-0.291
-317.012	-9.487	-0.151	-0.101
-315.997	-94.488	0.255	0.070
-314.983	57.929	-0.091	0.089
-313.968	383.125	0.107	0.219
-312.953	-36.365	0.121	-0.065
-311.939	-85.446	-0.282	-0.088
-310.924	-19.555	0.219	-0.136
-309.910	413.076	-0.124	0.264
-308.895	800.000	-0.080	0.307
-307.880	-200.000	-0.062	0.418
-306.866	-200.000	-0.049	0.238
-305.851	-164.401	-0.132	-0.006
-304.837	-200.000	-0.019	-0.137
-303.822	-111.514	-0.169	-0.034
-302.807	-124.687	0.233	0.036
-301.793	-200.000	-0.033	0.179
-300.778	478.424	0.123	-0.277
-299.764	-125.878	0.342	0.052
-298.749	595.219	-0.050	0.124
-297.735	-200.000	0.055	-0.257
-296.720	504.368	0.148	-0.341
-295.705	336.586	0.054	-0.105
-294.691	-144.699	-0.127	-0.012
-293.676	-200.000	0.052	-0.376
-292.662	37.112	-0.153	-0.135
-291.647	-110.314	-0.180	0.037
-290.632	-200.000	-0.017	-0.247
-289.618	-200.000	0.009	0.117
-288.603	-98.270	-0.076	0.020
-287.589	463.752	-0.205	0.457
-286.574	800.000	-0.023	-0.099
-285.559	-20.575	0.234	0.144
-284.545	506.790	-0.023	0.053
-283.530	-148.507	0.542	0.044
-282.516	409.938	0.106	-0.225
-281.501	691.865	-0.090	-0.235
-280.486	47.329	-0.055	0.051
-279.472	71.559	0.139	-0.144
-278.457	-111.662	0.285	0.058
-277.443	-32.277	0.219	-0.122
-276.428	-200.000	-0.004	-0.059
-275.413	800.000	0.075	0.254
-274.399	-6.264	-0.130	-0.089
-273.384	-120.747	0.542	0.091
-272.370	-10.774	0.376	-0.248
-271.355	-200.000	-0.038	0.458
-270.340	-114.130	-0.107	-0.021
-269.326	-200.000	-0.022	-0.231
-268.311	-200.000	-0.090	0.408
-267.297	-139.940	0.056	-0.006
-266.282	303.483	0.222	-0.411
-265.267	-200.000	0.025	-0.325
-264.253	-200.000	-0.012	0.141
-263.238	-15.885	0.200	-0.127
-262.224	289.650	-0.088	-0.160
-261.209	443.840	-0.146	-0.319
-260.195	-153.146	-0.115	0.008
-259.180	116.212	-0.114	0.139
-258.165	146.281	-0.261	0.350
-257.151	-17.952	0.286	0.179
-256.136	-42.405	0.375	0.191
-255.122	-80.174	-0.122	0.041
-254.107	-200.000	0.028	-0.243
-253.092	-200.000	0.038	0.190
-252.078	86.514	-0.145	-0.160
-251.063	-200.000	0.027	-0.225
-250.049	-3.848	0.341	0.236
-249.034	39.375	0.039	0.035
-248.019	115.474	0.108	0.132
-247.005	-95.591	0.167	-0.045
-245.990	239.957	0.041	-0.067
-244.976	651.776	-0.149	-0.380
-243.961	127.858	0.097	-0.123
-242.946	-72.802	0.189	-0.069
-241.932	58.702	-0.042	0.041
-240.917	-100.463	-0.041	0.010
-239.903	-113.408	-0.357	-0.070
-238.888	135.809	-0.249	0.324
-237.873	-200.000	0.037	0.214
-236.859	130.594	-0.161	0.206
-235.844	274.736	0.193	-0.341
-234.830	-80.594	-0.110	-0.037
-233.815	-200.000	-0.009	-0.526
-232.800	-200.000	0.005	-0.113
-231.786	-84.383	-0.259	0.082
-230.771	166.296	-0.194	-0.274
-229.757	169.693	0.256	0.364
-228.742	108.036	-0.139	-0.165
-227.727	-41.510	0.337	0.173
-226.713	91.972	-0.111	0.124
-225.698	-77.010	-0.194	0.068
-224.684	40.792	-0.211	-0.190
-223.669	-200.000	0.018	-0.419
-222.655	-73.515	-0.240	-0.087
-221.640	-73.717	-0.455	-0.165
-220.625	-21.957	-0.107	-0.065
-219.611	26.581	0.177	0.148
-218.596	-200.000	-0.046	-0.236
-217.582	-200.000	-0.019	-0.273
-216.567	-200.000	0.031	0.138
-215.552	-43.564	0.476	-0.239
-214.538	-94.407	-0.013	0.003
-213.523	-141.355	-0.229	0.023
-212.509	51.744	-0.286	0.271
-211.494	-174.044	-0.259	-0.008
-210.479	5.112	0.163	-0.119
-209.465	-60.797	0.268	-0.113
-208.450	800.000	0.119	-0.364
-207.436	-200.000	-0.042	-0.204
-206.421	-31.810	-0.155	-0.086
-205.406	-200.000	0.006	0.059
-204.392	800.000	0.120	0.349
-203.377	-175.004	0.235	-0.007
-202.363	13.660	0.246	-0.190
-201.348	573.890	-0.075	0.182
-200.333	-200.000	-0.024	0.205
-199.319	39.786	-0.333	0.297
-198.304	-148.273	0.319	-0.026
-197.290	778.899	-0.030	0.082
-196.275	-162.565	0.246	-0.012
-195.260	132.030	-0.082	0.105
-194.246	72.617	0.146	-0.152
-193.231	-19.066	-0.068	0.042
-192.217	289.348	0.018	0.033
-191.202	-48.221	-0.041	-0.020
-190.187	-56.593	0.328	0.145
-189.173	85.496	-0.089	-0.098
-188.158	3.523	-0.193	0.140
-187.144	66.796	0.066	-0.067
-186.129	8.910	0.159	-0.119
-185.114	61.271	0.162	0.160
-184.100	376.019	0.124	0.253
-183.085	25.020	0.133	0.110
-182.071	-200.000	0.039	0.351
-181.056	266.559	0.232	-0.404
-180.042	800.000	-0.077	0.287
-179.027	-200.000	0.037	-0.295
-178.012	213.724	0.062	-0.098
-176.998	-13.679	0.090	-0.058
-175.983	33.060	0.207	0.178
-174.969	21.598	0.091	-0.074
-173.954	33.947	-0.106	-0.092
-172.939	15.649	0.125	0.098
-171.925	412.542	0.042	0.089
-170.910	-71.580	-0.242	-0.090
-169.896	-38.225	0.146	0.077
-168.881	-181.729	-0.108	-0.002
-167.866	-41.521	0.209	-0.107
-166.852	-186.137	0.092	-0.001
-165.837	-173.713	0.078	0.002
-164.823	-28.396	0.012	0.007
-163.808	18.698	0.336	-0.268
-162.793	-200.000	-0.039	0.267
-161.779	-181.646	0.166	0.003
-160.764	360.372	-0.040	0.079
-159.750	22.656	-0.098	0.080
-158.735	-69.708	0.354	-0.134
-157.720	-61.704	0.210	-0.087
-156.706	147.752	-0.091	0.122
-155.691	740.221	0.058	-0.153
-154.677	-106.688	0.287	0.063
-153.662	-2.964	0.402	-0.279
-152.647	800.000	0.079	-0.294
-151.633	-24.984	0.049	-0.029
-150.618	332.490	-0.179	0.344
-149.604	-154.188	0.293	0.020
-148.589	-62.064	-0.164	-0.068
-147.574	294.669	-0.132	-0.241
-146.560	-200.000	0.061	0.460
-145.545	77.201	0.166	0.175
-144.531	-61.996	0.256	0.106
-143.516	0.641	0.175	0.125
-142.502	-200.000	0.003	0.083
-141.487	720.458	-0.125	-0.329
-140.472	-32.443	0.305	0.169
-139.458	260.753	0.196	0.336
-138.443	-78.028	0.038	0.013
-137.429	-37.842	-0.072	0.038
-136.414	-30.190	-0.321	-0.181
-135.399	-61.868	0.151	-0.063
-134.385	50.923	-0.146	-0.137
-133.370	-121.368	-0.265	0.044
-132.356	192.590	0.076	-0.114
-131.341	800.000	0.092	0.265
-130.326	36.771	-0.154	0.135
-129.312	-200.000	0.040	-0.194
-128.297	-2.643	-0.215	-0.149
-127.283	800.000	-0.079	-0.325
-126.268	-74.030	0.014	-0.005
-125.253	-93.769	0.120	-0.033
-124.239	42.141	-0.095	-0.085
-123.224	55.307	0.224	0.215
-122.210	422.161	-0.094	0.199
-121.195	-114.751	0.249	-0.047
