DTS Sentinel unit serial number:	SN413079Multiplexer serial number:	ORYXHardware model number:	OX4-SRSoftware version number:	ORYX F/W v4.00 Oryx Data Collector v3.7.2.0data status	okinstallation	princeton_trtdifferential loss correction	single-endedforward channel	channel 4reverse channel	N/Adate	2019/09/16time	00:49:35forward acquisition time	60.00reverse acquisition time	0.00gamma	496.2192k internal	0.2323k external	0.2323temperature offset calibration	0.9966default loss term (dB/km)	0.3790temperature slope calibration	1.0000multiplexer offset coefficient	1.0000multiplexer slope coefficient	1.0000fibre end	0.00T internal ref (°C)	27.41T ext. ref 1 (°C)	9.68T ext. ref 2 (°C)	21.50length (m)	temperature (°C)	Stokes	anti-Stokes-747.200	152.379	0.193	0.267
-746.185	22.924	0.195	-0.162
-745.171	634.788	0.117	-0.300
-744.156	-145.060	-0.369	-0.034
-743.142	-34.963	0.248	-0.137
-742.127	-84.079	-0.245	0.079
-741.112	-200.000	-0.017	0.108
-740.098	800.000	-0.149	0.442
-739.083	369.373	-0.133	0.272
-738.069	-200.000	-0.021	0.151
-737.054	-84.766	0.074	0.023
-736.039	-92.554	-0.603	0.171
-735.025	134.930	0.114	0.150
-734.010	-105.432	-0.258	0.059
-732.996	-196.514	-0.301	0.002
-731.981	21.433	-0.195	-0.160
-730.966	-94.816	-0.164	-0.045
-729.952	-10.799	-0.221	-0.147
-728.937	800.000	0.031	-0.111
-727.923	800.000	-0.060	-0.178
-726.908	-21.548	0.170	0.104
-725.894	-200.000	0.006	-0.128
-724.879	113.507	0.175	-0.214
-723.864	52.367	0.040	0.038
-722.850	800.000	0.041	0.119
-721.835	134.272	0.134	0.175
-720.821	-9.096	0.038	-0.026
-719.806	-154.806	0.552	0.037
-718.791	-135.213	0.107	-0.013
-717.777	-200.000	0.013	-0.267
-716.762	-67.576	0.092	-0.036
-715.748	-147.217	-0.187	0.016
-714.733	109.827	0.176	0.213
-713.718	-200.000	-0.001	-0.012
-712.704	-144.667	0.312	-0.029
-711.689	117.651	0.093	-0.116
-710.675	-143.650	0.097	0.009
-709.660	-2.853	0.508	0.358
-708.645	-200.000	-0.006	-0.126
-707.631	-200.000	-0.087	0.486
-706.616	-4.390	-0.124	0.086
-705.602	-200.000	-0.027	0.180
-704.587	-200.000	-0.021	0.183
-703.572	-200.000	-0.006	-0.028
-702.558	-153.696	0.248	0.017
-701.543	-155.366	0.105	0.007
-700.529	205.402	0.086	-0.134
-699.514	23.451	0.115	0.096
-698.499	800.000	-0.035	-0.148
-697.485	-90.440	0.271	-0.079
-696.470	330.981	-0.141	-0.273
-695.456	420.532	-0.084	0.182
-694.441	-200.000	-0.017	0.188
-693.426	-200.000	-0.056	0.369
-692.412	-200.000	0.007	0.043
-691.397	4.764	0.162	-0.120
-690.383	192.020	0.148	0.225
-689.368	-119.789	-0.391	0.068
-688.354	-80.576	-0.407	-0.137
-687.339	303.921	0.021	0.038
-686.324	84.286	0.035	-0.039
-685.310	-34.749	-0.174	0.096
-684.295	259.154	0.101	-0.176
-683.281	109.245	0.106	-0.128
-682.266	27.160	-0.154	-0.130
-681.251	186.885	-0.110	0.165
-680.237	-77.732	0.180	0.063
-679.222	154.048	0.194	0.268
-678.208	-49.502	-0.234	-0.112
-677.193	-200.000	0.001	0.047
-676.178	246.031	-0.354	-0.601
-675.164	-123.778	0.132	0.021
-674.149	-200.000	-0.031	-0.309
-673.135	150.540	0.037	0.051
-672.120	685.194	-0.117	0.309
-671.105	-140.414	0.075	0.008
-670.091	-200.000	-0.048	-0.343
-669.076	-200.000	0.062	0.302
-668.062	330.928	0.222	-0.431
-667.047	-200.000	0.020	-0.101
-666.032	-37.689	-0.167	-0.090
-665.018	-81.450	-0.355	0.118
-664.003	23.257	-0.208	-0.172
-662.989	16.882	0.529	0.421
-661.974	146.235	-0.152	-0.206
-660.959	-85.393	-0.110	-0.035
-659.945	115.684	0.376	0.463
-658.930	-101.417	0.280	0.069
-657.916	233.562	0.087	-0.144
-656.901	-93.386	-0.178	0.050
-655.886	-200.000	-0.036	-0.181
-654.872	800.000	-0.006	-0.019
-653.857	-166.572	0.139	-0.006
-652.843	800.000	-0.025	0.080
-651.828	-126.373	0.243	0.036
-650.814	241.546	-0.048	0.081
-649.799	126.858	-0.059	-0.076
-648.784	-25.769	-0.091	-0.054
-647.770	-200.000	-0.039	0.292
-646.755	-11.150	-0.240	0.159
-645.741	-200.000	0.002	0.202
-644.726	8.613	0.223	-0.169
-643.711	-77.671	0.035	0.012
-642.697	506.424	-0.035	-0.081
-641.682	-4.592	0.106	-0.073
-640.668	-47.182	-0.154	0.075
-639.653	-200.000	0.017	-0.087
-638.638	576.537	-0.051	-0.125
-637.624	800.000	0.032	0.105
-636.609	19.527	0.062	-0.050
-635.595	366.087	-0.171	-0.348
-634.580	-163.593	0.088	0.004
-633.565	800.000	0.081	0.293
-632.551	-125.300	-0.237	0.036
-631.536	9.374	-0.129	-0.098
-630.522	-84.855	0.492	0.155
-629.507	147.416	-0.143	0.194
-628.492	-200.000	-0.054	-0.303
-627.478	-200.000	-0.035	0.176
-626.463	-127.394	-0.299	0.044
-625.449	38.768	-0.264	-0.237
-624.434	800.000	-0.050	-0.182
-623.419	7.634	0.099	-0.074
-622.405	-200.000	0.003	-0.106
-621.390	687.173	0.078	0.206
-620.376	125.966	0.176	0.224
-619.361	-200.000	-0.001	-0.118
-618.346	114.367	0.085	-0.104
-617.332	-200.000	-0.014	0.105
-616.317	-200.000	-0.001	0.182
-615.303	-90.804	0.192	-0.056
-614.288	-157.234	-0.235	0.014
-613.273	-147.338	-0.341	0.029
-612.259	243.244	-0.230	-0.388
-611.244	343.491	-0.191	-0.375
-610.230	-200.000	0.032	0.283
-609.215	-37.461	-0.203	-0.109
-608.201	-200.000	0.006	-0.142
-607.186	332.140	-0.163	-0.317
-606.171	36.740	-0.159	-0.141
-605.157	34.975	0.126	0.110
-604.142	54.607	0.123	-0.119
-603.128	77.009	0.060	0.064
-602.113	-95.252	-0.202	0.055
-601.098	181.720	-0.239	0.353
-600.084	800.000	0.119	0.516
-599.069	-196.303	-0.082	0.001
-598.055	5.579	-0.050	-0.037
-597.040	-112.669	0.246	-0.049
-596.025	9.932	0.096	-0.073
-595.011	-200.000	0.082	-0.383
-593.996	60.887	0.189	-0.189
-592.982	-138.481	0.322	0.036
-591.967	-9.402	0.040	-0.027
-590.952	109.402	-0.065	0.078
-589.938	-200.000	0.038	-0.249
-588.923	333.419	0.020	-0.038
-587.909	240.677	0.011	0.018
-586.894	-86.507	-0.022	-0.007
-585.879	-74.611	0.154	0.056
-584.865	-200.000	0.035	0.270
-583.850	322.957	0.175	0.335
-582.836	-166.478	0.344	-0.014
-581.821	550.383	-0.057	-0.136
-580.806	1.121	-0.329	-0.237
-579.792	-200.000	-0.016	0.101
-578.777	548.015	-0.120	-0.288
-577.763	-6.713	0.173	-0.118
-576.748	752.797	-0.116	0.313
-575.733	-200.000	-0.004	0.434
-574.719	-12.481	-0.145	-0.095
-573.704	521.570	-0.042	0.098
-572.690	-148.006	0.212	-0.018
-571.675	618.854	-0.158	0.399
-570.661	-114.498	0.343	-0.066
-569.646	-200.000	-0.034	-0.338
-568.631	129.381	-0.105	-0.134
-567.617	-200.000	-0.008	0.053
-566.602	-82.502	-0.196	-0.064
-565.588	-108.863	-0.131	-0.028
-564.573	69.340	0.104	-0.107
-563.558	155.969	0.236	-0.326
-562.544	298.506	0.144	-0.266
-561.529	-200.000	0.052	-0.273
-560.515	410.131	-0.072	-0.152
-559.500	266.732	0.195	-0.341
-558.485	83.962	-0.306	0.335
-557.471	123.459	-0.006	-0.008
-556.456	278.319	-0.132	-0.236
-555.442	-200.000	0.001	0.132
-554.427	-57.715	0.152	0.067
-553.412	800.000	-0.112	0.380
-552.398	163.357	-0.085	0.120
-551.383	6.776	0.180	0.134
-550.369	241.814	0.071	0.119
-549.354	182.280	0.158	-0.233
-548.339	-29.336	0.214	-0.123
-547.325	136.625	0.061	0.079
-546.310	-200.000	-0.054	0.241
-545.296	-200.000	0.037	0.350
-544.281	71.534	0.166	-0.172
-543.266	-83.756	0.161	-0.052
-542.252	-200.000	0.016	-0.213
-541.237	-68.070	-0.161	-0.063
-540.223	109.226	-0.048	-0.057
-539.208	-183.275	0.175	-0.003
-538.193	-164.444	0.111	-0.005
-537.179	-62.853	0.272	-0.113
-536.164	-90.477	0.326	0.094
-535.150	137.569	0.053	0.070
-534.135	-200.000	0.006	-0.206
-533.121	800.000	0.055	0.164
-532.106	800.000	-0.092	0.254
-531.091	-32.989	0.169	0.094
-530.077	325.509	-0.204	-0.391
-529.062	-163.192	0.209	-0.010
-528.048	-200.000	0.016	-0.134
-527.033	800.000	-0.099	0.290
-526.018	-200.000	0.024	0.203
-525.004	185.542	0.114	-0.170
-523.989	-138.809	-0.102	-0.011
-522.975	-78.636	-0.112	0.038
-521.960	800.000	-0.116	0.434
-520.945	-36.512	0.071	0.038
-519.931	-200.000	0.001	-0.415
-518.916	-200.000	0.046	-0.403
-517.902	-20.461	0.148	-0.091
-516.887	-200.000	0.038	0.176
-515.872	-200.000	0.023	0.126
-514.858	-161.088	0.184	-0.010
-513.843	-0.044	0.144	0.102
-512.829	79.054	0.138	-0.148
-511.814	-200.000	0.012	0.054
-510.799	-86.157	0.241	0.074
-509.785	171.060	0.267	0.383
-508.770	378.459	0.085	0.173
-507.756	-155.727	-0.239	-0.015
-506.741	218.731	-0.091	0.146
-505.726	-122.570	-0.336	-0.055
-504.712	-70.621	0.206	-0.078
-503.697	304.190	0.018	-0.034
-502.683	-158.085	0.104	0.006
-501.668	-200.000	0.035	-0.185
-500.653	95.919	-0.229	-0.262
-499.639	-59.122	0.059	0.025
-498.624	7.981	0.194	-0.145
-497.610	57.474	-0.249	-0.243
-496.595	14.367	-0.399	0.311
-495.581	-200.000	-0.042	0.281
-494.566	-178.354	-0.335	-0.008
-493.551	800.000	0.097	0.396
-492.537	21.013	0.073	-0.059
-491.522	357.250	0.143	-0.284
-490.508	100.031	0.057	-0.067
-489.493	-49.747	-0.073	0.035
-488.478	790.304	-0.066	-0.181
-487.464	-200.000	-0.014	0.104
-486.449	55.223	-0.349	-0.338
-485.435	87.557	-0.237	-0.262
-484.420	238.962	0.223	0.371
-483.405	-170.707	-0.147	-0.005
-482.391	-64.297	-0.108	-0.044
-481.376	-200.000	0.053	-0.234
-480.362	-116.064	-0.226	-0.042
-479.347	195.760	-0.124	0.188
-478.332	-151.785	-0.387	0.028
-477.318	633.719	0.113	0.285
-476.303	800.000	-0.030	0.100
-475.289	-60.568	0.084	0.035
-474.274	246.110	0.069	0.116
-473.259	42.879	0.077	0.070
-472.245	421.029	-0.141	-0.303
-471.230	-81.530	-0.210	0.069
-470.216	-200.000	0.001	0.057
-469.201	651.536	0.097	-0.247
-468.186	569.015	-0.018	0.044
-467.172	-23.796	-0.033	-0.020
-466.157	-200.000	0.042	-0.405
-465.143	-41.701	0.142	0.073
-464.128	54.526	-0.162	-0.156
-463.113	-200.000	-0.013	-0.134
-462.099	-183.021	-0.148	-0.003
-461.084	800.000	0.018	-0.061
-460.070	-200.000	-0.013	0.265
-459.055	-92.045	-0.101	0.028
-458.040	-111.165	0.507	0.104
-457.026	323.121	-0.005	0.009
-456.011	450.494	0.068	-0.150
-454.997	70.186	0.111	-0.114
-453.982	-30.435	-0.220	-0.125
-452.968	-191.676	-0.257	-0.003
-451.953	-42.516	0.054	-0.027
-450.938	131.434	-0.090	0.115
-449.924	122.202	0.201	0.250
-448.909	-83.421	0.163	-0.052
-447.895	-111.939	-0.181	0.037
-446.880	-68.199	0.200	0.078
-445.865	800.000	-0.026	-0.082
-444.851	-200.000	0.041	0.339
-443.836	-119.928	0.539	0.092
-442.822	-181.323	-0.424	-0.008
-441.807	284.312	0.051	-0.092
-440.792	104.879	0.132	-0.155
-439.778	119.150	-0.051	-0.063
-438.763	176.999	0.156	0.227
-437.749	27.348	-0.206	0.173
-436.734	32.733	-0.136	-0.118
-435.719	-200.000	-0.013	0.130
-434.705	-4.168	-0.183	-0.127
-433.690	-200.000	0.033	0.319
-432.676	-200.000	-0.017	0.150
-431.661	-33.947	0.174	0.096
-430.646	293.239	0.076	-0.138
-429.632	-97.185	-0.206	-0.054
-428.617	423.183	0.024	0.051
-427.603	-29.298	-0.026	0.015
-426.588	2.370	0.171	0.123
-425.573	-23.801	0.231	0.138
-424.559	288.471	-0.113	-0.204
-423.544	-153.613	0.043	-0.003
-422.530	-88.839	-0.075	0.022
-421.515	184.555	-0.039	-0.057
-420.500	195.774	-0.094	-0.142
-419.486	-200.000	-0.043	-0.227
-418.471	128.799	0.132	0.168
-417.457	-200.000	-0.011	-0.104
-416.442	-112.976	0.073	0.014
-415.428	-6.368	-0.083	0.056
-414.413	24.208	0.144	-0.119
-413.398	276.553	0.118	-0.209
-412.384	-124.624	0.377	-0.058
-411.369	-200.000	0.053	-0.290
-410.355	800.000	-0.061	-0.191
-409.340	-79.621	0.277	-0.093
-408.325	-146.092	-0.278	0.024
-407.311	49.672	0.174	0.164
-406.296	40.831	-0.160	0.144
-405.282	-133.854	0.019	-0.002
-404.267	-130.625	-0.213	0.029
-403.252	-99.135	0.135	0.034
-402.238	523.529	-0.077	-0.179
-401.223	-97.841	0.396	-0.102
-400.209	76.856	-0.067	0.071
-399.194	-85.616	-0.182	-0.056
-398.179	800.000	-0.129	-0.513
-397.165	-94.754	-0.305	0.082
-396.150	116.849	0.233	0.285
-395.136	-40.332	-0.152	-0.079
-394.121	494.366	0.044	0.100
-393.106	-52.778	-0.342	0.157
-392.092	-114.891	-0.317	0.060
-391.077	-200.000	0.000	0.033
-390.063	-174.166	0.567	0.016
-389.048	-199.632	0.152	0.001
-388.033	-79.119	-0.170	-0.058
-387.019	800.000	0.046	-0.188
-386.004	93.341	0.038	0.043
-384.990	-186.884	-0.179	-0.002
-383.975	-71.190	-0.036	0.013
-382.960	-106.002	-0.118	-0.027
-381.946	98.767	0.212	0.244
-380.931	-54.064	0.259	0.118
-379.917	-195.085	-0.141	-0.001
-378.902	-69.445	0.223	-0.085
-377.888	16.937	-0.109	-0.086
-376.873	245.469	0.154	0.259
-375.858	-74.333	0.184	0.066
-374.844	-54.456	0.228	0.103
-373.829	800.000	0.039	-0.155
-372.815	-38.137	0.291	0.153
-371.800	-200.000	-0.022	0.266
-370.785	-100.704	0.178	0.044
-369.771	721.138	-0.138	0.365
-368.756	242.525	-0.155	-0.258
-367.742	18.616	-0.205	-0.164
-366.727	-74.259	0.209	-0.075
-365.712	-200.000	-0.025	-0.170
-364.698	624.851	-0.076	-0.190
-363.683	0.443	-0.050	-0.036
-362.669	189.915	-0.120	0.179
-361.654	490.100	0.175	0.397
-360.639	-92.368	-0.259	-0.073
-359.625	800.000	0.023	-0.071
-358.610	16.765	0.053	-0.041
-357.596	446.551	0.076	-0.167
-356.581	-144.854	0.153	-0.014
-355.566	-19.936	0.390	-0.239
-354.552	-106.947	-0.287	0.063
-353.537	-200.000	-0.024	0.215
-352.523	-200.000	-0.010	0.196
-351.508	31.810	0.272	-0.233
-350.493	7.922	-0.100	-0.075
-349.479	-200.000	-0.001	0.086
-348.464	38.491	0.161	-0.143
-347.450	-125.763	-0.168	0.025
-346.435	-200.000	-0.022	-0.169
-345.420	-0.608	-0.239	0.169
-344.406	96.879	0.109	0.124
-343.391	-14.593	0.058	0.037
-342.377	800.000	0.076	0.232
-341.362	-200.000	-0.035	-0.175
-340.348	601.373	0.052	0.129
-339.333	800.000	0.066	0.277
-338.318	9.944	-0.201	-0.152
-337.304	-80.221	-0.166	0.055
-336.289	13.055	0.176	-0.136
-335.275	183.619	-0.081	-0.119
-334.260	-97.560	0.199	0.051
-333.245	-86.875	-0.063	0.019
-332.231	-72.596	0.117	-0.043
-331.216	-104.180	-0.069	0.016
-330.202	448.210	-0.065	0.143
-329.187	128.814	-0.194	-0.245
-328.172	-74.654	-0.243	0.087
-327.158	800.000	0.048	-0.150
-326.143	-200.000	0.039	-0.292
-325.129	281.355	0.135	0.240
-324.114	-200.000	-0.003	0.035
-323.099	-96.115	0.235	-0.062
-322.085	-181.482	-0.132	0.003
-321.070	-3.160	-0.236	0.163
-320.056	188.592	-0.180	0.267
-319.041	-114.852	0.025	0.005
-318.026	-89.129	-0.555	0.163
-317.012	-13.189	0.146	0.094
-315.997	-173.742	-0.041	0.001
-314.983	800.000	-0.022	0.073
-313.968	-26.566	0.182	0.106
-312.953	455.128	0.117	0.258
-311.939	-93.193	0.126	0.035
-310.924	312.811	0.193	0.359
-309.910	800.000	0.060	0.223
-308.895	-174.619	0.258	-0.007
-307.880	-144.649	0.447	-0.041
-306.866	-200.000	-0.018	0.175
-305.851	192.267	-0.257	0.385
-304.837	40.316	-0.054	0.048
-303.822	42.347	-0.024	0.021
-302.807	-200.000	0.025	0.122
-301.793	-37.408	-0.176	0.093
-300.778	-113.661	-0.060	0.012
-299.764	85.673	0.123	0.134
-298.749	-15.589	0.104	0.066
-297.735	126.144	-0.160	-0.200
-296.720	640.878	-0.104	-0.262
-295.705	23.756	-0.112	0.091
-294.691	416.618	-0.071	0.150
-293.676	-142.831	-0.239	0.023
-292.662	-19.539	0.097	0.060
-291.647	-137.010	0.060	0.007
-290.632	-134.731	0.370	0.045
-289.618	-77.971	-0.370	-0.127
-288.603	51.135	0.208	-0.196
-287.589	5.399	0.407	-0.298
-286.574	6.775	-0.180	-0.133
-285.559	26.459	-0.209	-0.173
-284.545	-155.365	-0.239	0.015
-283.530	-101.277	-0.170	-0.041
-282.516	220.155	0.074	-0.118
-281.501	-55.107	0.187	-0.084
-280.486	-42.133	0.329	0.167
-279.472	70.160	0.175	0.179
-278.457	-76.099	0.192	-0.067
-277.443	82.476	-0.151	0.162
-276.428	-200.000	0.000	-0.072
-275.413	412.468	-0.116	-0.244
-274.399	-133.988	-0.233	0.029
-273.384	2.431	-0.038	0.027
-272.370	-103.924	0.119	0.028
-271.355	-200.000	-0.038	-0.284
-270.340	800.000	0.077	0.305
-269.326	292.644	-0.135	0.243
-268.311	431.985	0.036	-0.077
-267.297	237.477	0.101	-0.166
-266.282	-15.519	-0.181	-0.115
-265.267	-200.000	0.035	-0.208
-264.253	-200.000	0.040	-0.312
-263.238	119.685	0.233	0.286
-262.224	125.870	-0.069	0.087
-261.209	76.304	-0.123	-0.129
-260.195	-112.834	-0.433	-0.085
-259.180	614.739	-0.158	-0.392
-258.165	-200.000	0.021	-0.328
-257.151	-65.205	-0.066	-0.026
-256.136	424.214	0.038	0.082
-255.122	177.901	-0.132	0.191
-254.107	-19.753	0.188	-0.115
-253.092	696.297	-0.048	0.125
-252.078	119.776	-0.044	-0.055
-251.063	577.027	0.094	0.228
-250.049	800.000	-0.056	0.172
-249.034	120.279	0.043	0.053
-248.019	-200.000	0.005	0.033
-247.005	49.072	-0.216	0.201
-245.990	165.380	-0.239	-0.335
-244.976	60.522	-0.138	-0.135
-243.961	62.340	0.127	-0.126
-242.946	162.907	0.267	0.371
-241.932	-136.655	0.221	0.025
-240.917	800.000	0.131	-0.403
-239.903	-139.730	-0.309	0.032
-238.888	773.059	0.066	0.179
-237.873	22.582	0.185	-0.150
-236.859	8.543	0.290	0.216
-235.844	21.629	0.231	-0.186
-234.830	-187.498	-0.132	-0.002
-233.815	310.433	0.048	-0.090
-232.800	800.000	-0.069	0.227
-231.786	-27.022	-0.139	0.081
-230.771	800.000	0.018	-0.075
-229.757	-200.000	-0.003	0.057
-228.742	439.832	-0.105	0.227
-227.727	-76.312	0.204	-0.071
-226.713	-200.000	-0.019	-0.267
-225.698	474.254	0.068	0.152
-224.684	-137.944	0.295	0.033
-223.669	63.268	0.058	0.058
-222.655	-94.140	-0.227	0.062
-221.640	-34.672	-0.089	-0.048
-220.625	63.771	-0.096	-0.096
-219.611	-135.432	-0.175	-0.021
-218.596	-47.337	0.091	-0.044
-217.582	59.631	-0.092	0.090
-216.567	-119.886	-0.348	0.059
-215.552	-200.000	0.028	0.129
-214.538	800.000	-0.103	-0.288
-213.523	-200.000	-0.002	0.119
-212.509	129.480	-0.130	-0.164
-211.494	-51.027	-0.125	-0.058
-210.479	484.358	-0.083	-0.187
-209.465	208.137	0.043	0.067
-208.450	-200.000	-0.004	-0.231
-207.436	800.000	-0.097	0.325
-206.421	-7.827	0.364	0.243
-205.406	-200.000	-0.010	-0.136
-204.392	-80.159	-0.258	-0.086
-203.377	-78.161	-0.161	-0.055
-202.363	-82.691	-0.054	-0.017
-201.348	-106.196	0.179	-0.040
-200.333	235.833	-0.123	-0.200
-199.319	-200.000	0.017	0.085
-198.304	79.003	-0.044	0.047
-197.290	284.080	-0.045	0.081
-196.275	-102.042	0.118	-0.028
-195.260	-9.080	0.144	-0.095
-194.246	-30.616	0.203	-0.114
-193.231	-82.385	0.206	0.066
-192.217	-200.000	0.002	0.149
-191.202	-31.104	0.352	-0.196
-190.187	377.451	0.095	-0.192
-189.173	59.207	-0.180	0.175
-188.158	521.270	-0.044	0.102
-187.144	-110.284	0.350	-0.072
-186.129	-200.000	0.000	-0.008
-185.114	-200.000	-0.061	0.408
-184.100	69.582	-0.174	0.177
-183.085	-119.920	-0.293	0.050
-182.071	627.158	0.071	0.178
-181.056	800.000	0.028	0.110
-180.042	800.000	-0.058	0.160
-179.027	-200.000	-0.005	-0.155
-178.012	-137.426	-0.375	0.042
-176.998	-108.527	-0.091	0.019
-175.983	-154.488	-0.171	0.011
-174.969	800.000	-0.057	-0.164
-173.954	51.458	0.067	0.063
-172.939	397.949	0.077	-0.160
-171.925	219.678	-0.123	0.194
-170.910	34.537	0.164	0.141
-169.896	-80.727	0.144	-0.047
-168.881	-179.809	-0.257	0.005
-167.866	-55.590	0.271	-0.120
-166.852	-200.000	0.009	0.062
-165.837	130.701	0.131	0.165
-164.823	148.985	0.070	-0.093
-163.808	37.644	-0.255	-0.224
-162.793	-52.396	-0.222	0.101
-161.779	-98.862	-0.351	-0.088
-160.764	800.000	-0.056	-0.176
-159.750	41.670	0.251	-0.225
-158.735	105.293	-0.122	0.142
-157.720	24.274	-0.128	-0.104
-156.706	505.247	0.081	-0.184
-155.691	-145.863	0.231	-0.020
-154.677	113.600	0.078	0.093
-153.662	139.730	-0.084	0.110
-152.647	233.815	0.132	-0.214
-151.633	-155.389	-0.323	0.021
-150.618	504.250	0.100	0.229
-149.604	-147.219	0.300	-0.025
-148.589	98.998	-0.257	-0.293
-147.574	-16.311	-0.207	0.130
-146.560	253.993	-0.017	-0.029
-145.545	287.560	0.054	0.097
-144.531	290.771	-0.074	0.133
-143.516	29.863	-0.294	-0.247
-142.502	-8.995	-0.332	-0.219
-141.487	800.000	0.094	0.315
-140.472	29.054	0.248	-0.208
-139.458	-127.199	0.189	-0.027
-138.443	-200.000	0.046	0.253
-137.429	16.209	0.168	-0.131
-136.414	318.493	-0.138	0.257
-135.399	-108.502	-0.221	0.047
-134.385	89.247	0.328	-0.361
-133.370	579.124	0.099	-0.239
-132.356	83.524	0.175	0.188
-131.341	800.000	-0.010	0.032
-130.326	52.013	-0.139	0.130
-129.312	-121.465	0.178	0.029
-128.297	-114.514	0.066	0.012
-127.283	-88.439	0.195	-0.057
-126.268	-134.207	-0.194	0.024
-125.253	-200.000	0.022	-0.103
-124.239	49.193	-0.143	0.133
-123.224	90.378	-0.119	0.131
-122.210	-75.191	-0.297	-0.105
-121.195	135.326	-0.142	0.182
