DTS Sentinel unit serial number:	SN413079Multiplexer serial number:	ORYXHardware model number:	OX4-SRSoftware version number:	ORYX F/W v4.00 Oryx Data Collector v3.7.2.0data status	okinstallation	princeton_trtdifferential loss correction	single-endedforward channel	channel 4reverse channel	N/Adate	2019/09/18time	13:25:35forward acquisition time	60.00reverse acquisition time	0.00gamma	496.2192k internal	0.2302k external	0.2302temperature offset calibration	0.9998default loss term (dB/km)	0.3790temperature slope calibration	1.0000multiplexer offset coefficient	1.0000multiplexer slope coefficient	1.0000fibre end	0.00T internal ref (°C)	34.12T ext. ref 1 (°C)	0.62T ext. ref 2 (°C)	29.54length (m)	temperature (°C)	Stokes	anti-Stokes-747.200	487.540	0.195	0.455
-746.185	198.383	0.213	0.332
-745.171	-135.303	0.090	0.011
-744.156	800.000	-0.065	-0.279
-743.142	-124.373	-0.204	-0.032
-742.127	800.000	-0.045	0.137
-741.112	743.726	-0.144	0.395
-740.098	-108.257	-0.489	-0.108
-739.083	-150.005	0.408	-0.032
-738.069	-127.023	0.067	-0.010
-737.054	51.056	0.238	-0.230
-736.039	-113.964	-0.347	0.069
-735.025	209.394	-0.110	0.176
-734.010	-146.219	-0.241	-0.022
-732.996	800.000	-0.003	-0.007
-731.981	-55.236	-0.366	0.168
-730.966	-123.667	0.332	-0.054
-729.952	266.196	-0.319	-0.568
-728.937	-65.176	-0.333	-0.137
-727.923	621.129	-0.064	-0.163
-726.908	74.666	-0.258	-0.277
-725.894	43.316	-0.157	-0.146
-724.879	196.808	-0.298	-0.463
-723.864	62.483	0.332	0.338
-722.850	-200.000	0.025	0.140
-721.835	147.994	-0.176	0.242
-720.821	194.041	-0.098	0.151
-719.806	-200.000	0.010	0.173
-718.791	-128.380	-0.171	0.025
-717.777	-71.776	-0.207	-0.079
-716.762	-73.867	-0.109	0.040
-715.748	-153.449	0.097	0.007
-714.733	800.000	-0.045	-0.182
-713.718	-111.453	0.500	0.104
-712.704	281.160	-0.273	-0.498
-711.689	-200.000	0.047	-0.432
-710.675	-75.053	-0.414	-0.151
-709.660	77.179	-0.139	0.150
-708.645	-118.522	-0.180	0.032
-707.631	-200.000	0.032	-0.184
-706.616	431.282	0.183	0.402
-705.602	28.900	-0.246	-0.212
-704.587	-59.166	0.065	0.029
-703.572	-47.342	-0.156	0.077
-702.558	-21.333	-0.090	0.056
-701.543	93.487	-0.081	-0.094
-700.529	112.248	0.076	0.093
-699.514	-11.440	-0.090	-0.060
-698.499	-12.530	0.064	-0.042
-697.485	-129.076	0.348	-0.049
-696.470	77.212	-0.295	-0.318
-695.456	39.644	0.244	0.222
-694.441	57.933	-0.080	-0.080
-693.426	800.000	-0.049	0.176
-692.412	-200.000	-0.038	0.186
-691.397	129.793	0.046	-0.060
-690.383	432.563	-0.035	0.077
-689.368	-80.417	-0.164	0.056
-688.354	284.482	-0.160	-0.292
-687.339	199.817	-0.300	0.468
-686.324	161.294	0.017	0.024
-685.310	-134.733	-0.249	-0.031
-684.295	58.746	0.341	-0.341
-683.281	176.251	-0.026	-0.039
-682.266	800.000	-0.029	-0.124
-681.251	40.887	0.084	-0.077
-680.237	336.062	0.099	0.195
-679.222	112.023	-0.155	-0.191
-678.208	42.027	-0.313	-0.289
-677.193	58.808	-0.190	0.190
-676.178	13.448	-0.243	0.192
-675.164	-129.888	-0.160	-0.022
-674.149	63.192	0.206	-0.210
-673.135	800.000	-0.010	-0.032
-672.120	-87.800	-0.523	0.160
-671.105	-200.000	-0.003	0.244
-670.091	-200.000	-0.022	-0.442
-669.076	245.553	0.118	0.201
-668.062	800.000	-0.030	0.094
-667.047	-89.061	-0.140	0.042
-666.032	-13.553	-0.140	0.092
-665.018	44.072	-0.241	0.225
-664.003	118.910	-0.076	0.095
-662.989	-100.476	-0.092	0.023
-661.974	800.000	-0.024	0.081
-660.959	-200.000	-0.029	0.199
-659.945	-139.893	0.111	-0.012
-658.930	192.120	0.028	0.044
-657.916	-200.000	-0.009	0.235
-656.901	-200.000	-0.013	0.169
-655.886	-123.562	0.409	-0.066
-654.872	53.687	-0.124	-0.121
-653.857	-80.687	-0.176	0.059
-652.843	-101.057	-0.222	0.055
-651.828	-113.894	-0.194	0.038
-650.814	-200.000	-0.020	-0.178
-649.799	25.834	-0.138	0.117
-648.784	-51.508	-0.256	-0.122
-647.770	-43.440	0.114	-0.058
-646.755	-200.000	-0.051	-0.459
-645.741	800.000	0.032	0.107
-644.726	66.542	-0.290	-0.299
-643.711	-101.412	0.174	0.043
-642.697	375.380	0.009	0.019
-641.682	-200.000	0.018	0.186
-640.668	55.664	-0.151	-0.148
-639.653	467.909	0.214	-0.487
-638.638	800.000	-0.059	-0.220
-637.624	99.510	-0.294	-0.345
-636.609	-150.087	-0.301	0.024
-635.595	22.758	-0.135	0.112
-634.580	-1.704	-0.156	-0.112
-633.565	-200.000	0.045	-0.368
-632.551	-98.366	0.190	-0.049
-631.536	382.086	-0.103	0.214
-630.522	626.080	-0.100	0.257
-629.507	-119.699	0.095	-0.017
-628.492	800.000	0.070	0.295
-627.478	141.096	-0.079	-0.106
-626.463	-16.537	0.083	-0.053
-625.449	-144.947	-0.268	-0.025
-624.434	-74.407	0.300	0.110
-623.419	266.092	-0.054	0.095
-622.405	792.092	-0.123	-0.342
-621.390	-143.494	0.180	-0.017
-620.376	-200.000	-0.042	-0.241
-619.361	-47.331	0.142	-0.070
-618.346	-91.160	-0.200	0.058
-617.332	-137.061	-0.050	0.006
-616.317	-98.478	-0.119	-0.031
-615.303	235.858	-0.093	-0.157
-614.288	-181.331	0.232	0.005
-613.273	550.201	0.073	0.177
-612.259	800.000	0.050	-0.185
-611.244	115.625	-0.147	-0.182
-610.230	227.237	0.101	0.167
-609.215	429.646	0.102	-0.223
-608.201	-104.824	-0.094	0.022
-607.186	57.108	-0.357	-0.353
-606.171	106.684	-0.108	-0.129
-605.157	139.362	-0.111	0.148
-604.142	57.954	-0.326	-0.324
-603.128	-200.000	0.017	0.166
-602.113	5.120	-0.037	0.028
-601.098	404.954	-0.056	0.120
-600.084	208.172	0.182	-0.289
-599.069	-200.000	0.004	-0.323
-598.055	-126.696	-0.094	-0.014
-597.040	-154.446	-0.089	0.006
-596.025	-75.254	0.022	-0.008
-595.011	167.552	0.109	0.156
-593.996	89.441	0.087	-0.098
-592.982	-153.262	-0.149	-0.011
-591.967	-58.758	-0.419	-0.184
-590.952	-200.000	0.044	-0.347
-589.938	-2.061	0.101	0.072
-588.923	61.028	0.181	-0.182
-587.909	201.533	0.224	0.349
-586.894	-200.000	-0.015	0.111
-585.879	800.000	0.134	0.379
-584.865	-123.499	0.258	0.042
-583.850	168.111	0.085	-0.122
-582.836	800.000	-0.087	0.329
-581.821	145.064	-0.154	0.209
-580.806	800.000	-0.050	0.152
-579.792	800.000	-0.054	0.158
-578.777	-39.831	-0.233	0.123
-577.763	-200.000	-0.006	0.096
-576.748	-38.423	0.228	-0.122
-575.733	-14.836	0.059	0.038
-574.719	4.424	-0.280	0.208
-573.704	-142.017	-0.204	-0.021
-572.690	-74.362	0.292	-0.107
-571.675	-200.000	-0.027	-0.194
-570.661	-160.956	0.267	0.014
-569.646	-200.000	0.001	-0.062
-568.631	-16.994	0.030	0.019
-567.617	102.979	-0.078	0.093
-566.602	-26.420	-0.144	-0.086
-565.588	-88.336	0.108	0.033
-564.573	-200.000	0.009	0.157
-563.558	-37.052	0.113	0.061
-562.544	13.879	-0.121	-0.096
-561.529	800.000	0.018	0.073
-560.515	-200.000	0.021	-0.231
-559.500	800.000	0.110	0.485
-558.485	-174.719	-0.402	0.012
-557.471	-104.872	0.351	0.081
-556.456	-64.259	0.054	-0.022
-555.442	-200.000	-0.002	0.209
-554.427	-88.586	0.120	-0.036
-553.412	-200.000	-0.018	-0.161
-552.398	-84.663	-0.090	-0.029
-551.383	-200.000	-0.013	-0.095
-550.369	-120.253	0.297	-0.051
-549.354	-200.000	-0.041	-0.355
-548.339	65.689	0.179	-0.184
-547.325	539.547	-0.068	0.163
-546.310	-40.786	-0.328	0.172
-545.296	-89.382	0.309	0.092
-544.281	85.419	0.190	0.211
-543.266	800.000	-0.023	0.086
-542.252	13.396	0.103	-0.080
-541.237	10.743	0.201	0.155
-540.223	-116.818	-0.256	0.047
-539.208	-200.000	-0.007	-0.125
-538.193	-52.746	-0.097	0.045
-537.179	52.605	-0.120	-0.116
-536.164	-35.072	-0.206	0.114
-535.150	-161.702	-0.150	0.008
-534.135	-200.000	0.022	0.182
-533.121	-163.595	0.218	0.010
-532.106	85.402	0.293	0.326
-531.091	191.652	0.160	-0.243
-530.077	-200.000	0.008	0.316
-529.062	800.000	-0.032	-0.117
-528.048	644.792	-0.111	-0.287
-527.033	800.000	-0.003	-0.008
-526.018	70.262	-0.038	0.040
-525.004	94.513	-0.037	-0.043
-523.989	800.000	-0.077	-0.285
-522.975	-122.517	0.221	0.036
-521.960	181.002	0.212	-0.314
-520.945	100.960	0.274	-0.322
-519.931	-77.557	-0.164	0.057
-518.916	147.136	-0.133	-0.181
-517.902	-200.000	0.026	0.120
-516.887	800.000	0.062	-0.179
-515.872	476.666	-0.166	-0.379
-514.858	-72.688	-0.142	0.053
-513.843	253.056	0.006	-0.011
-512.829	98.281	0.086	-0.099
-511.814	800.000	-0.045	0.166
-510.799	800.000	-0.038	0.132
-509.785	23.598	0.116	-0.097
-508.770	-61.197	0.488	0.208
-507.756	-62.587	-0.253	0.106
-506.741	-115.557	-0.143	0.027
-505.726	111.462	-0.188	-0.229
-504.712	36.421	-0.055	-0.049
-503.697	-83.938	-0.119	0.038
-502.683	-108.368	0.102	-0.022
-501.668	49.463	-0.097	0.093
-500.653	800.000	0.099	-0.389
-499.639	-200.000	0.006	0.095
-498.624	423.274	-0.050	-0.108
-497.610	-108.099	-0.044	-0.010
-496.595	-200.000	-0.005	0.041
-495.581	-29.073	0.317	0.184
-494.566	356.130	-0.092	0.184
-493.551	-145.702	0.084	-0.008
-492.537	387.249	0.040	0.084
-491.522	12.278	0.148	0.115
-490.508	-200.000	-0.026	0.156
-489.493	-135.887	-0.298	0.035
-488.478	125.024	0.141	-0.179
-487.464	-200.000	-0.043	0.251
-486.449	-28.797	-0.128	0.074
-485.435	81.272	0.200	0.218
-484.420	0.842	0.103	-0.074
-483.405	800.000	0.107	0.378
-482.391	-121.650	-0.299	0.050
-481.376	-66.172	-0.116	0.047
-480.362	-105.547	-0.301	0.069
-479.347	-152.590	0.042	-0.003
-478.332	-193.946	-0.394	0.003
-477.318	196.051	0.011	0.017
-476.303	800.000	0.052	0.216
-475.289	-20.985	-0.400	0.247
-474.274	-80.290	-0.032	-0.011
-473.259	-200.000	-0.015	-0.173
-472.245	-98.960	-0.192	0.049
-471.230	312.681	0.104	0.197
-470.216	-178.419	0.312	0.007
-469.201	-200.000	0.013	0.079
-468.186	-135.795	0.300	0.036
-467.172	-200.000	-0.022	0.311
-466.157	-91.575	-0.267	-0.077
-465.143	-16.983	0.060	0.038
-464.128	-53.526	-0.494	-0.228
-463.113	800.000	-0.075	-0.294
-462.099	-18.085	0.039	0.025
-461.084	580.357	-0.039	-0.097
-460.070	800.000	-0.079	-0.226
-459.055	207.868	-0.045	0.071
-458.040	-200.000	0.008	-0.191
-457.026	800.000	-0.055	0.178
-456.011	398.486	0.062	0.130
-454.997	-47.586	0.160	-0.078
-453.982	-200.000	0.029	-0.163
-452.968	8.073	0.171	0.130
-451.953	-48.316	0.077	0.038
-450.938	327.515	-0.147	-0.284
-449.924	-37.208	0.397	0.214
-448.909	153.499	0.218	0.301
-447.895	667.173	-0.106	0.276
-446.880	14.563	-0.025	-0.019
-445.865	-187.670	0.052	-0.001
-444.851	156.664	-0.217	-0.302
-443.836	800.000	-0.084	0.240
-442.822	-200.000	-0.047	0.309
-441.807	64.110	-0.041	0.042
-440.792	268.208	0.042	0.075
-439.778	-59.073	-0.107	-0.046
-438.763	266.914	0.207	-0.364
-437.749	20.289	0.090	-0.074
-436.734	-38.306	0.265	0.141
-435.719	-72.700	0.082	0.030
-434.705	-200.000	-0.057	0.272
-433.690	22.865	-0.175	0.145
-432.676	-200.000	0.010	0.322
-431.661	-38.784	0.251	-0.133
-430.646	800.000	0.055	-0.175
-429.632	-40.765	-0.076	-0.039
-428.617	-117.058	0.251	-0.046
-427.603	-200.000	-0.028	0.149
-426.588	153.375	-0.068	-0.094
-425.573	-28.931	0.277	0.160
-424.559	-37.410	0.089	0.048
-423.544	-200.000	0.065	-0.298
-422.530	-200.000	0.017	-0.117
-421.515	66.450	-0.342	0.349
-420.500	-107.885	-0.087	0.019
-419.486	-154.846	-0.401	-0.027
-418.471	-38.086	-0.092	0.049
-417.457	-110.879	0.191	-0.040
-416.442	-194.143	-0.112	-0.001
-415.428	-154.171	-0.132	-0.009
-414.413	-200.000	0.028	0.360
-413.398	186.182	0.174	-0.261
-412.384	-200.000	-0.042	0.253
-411.369	-172.348	0.228	0.007
-410.355	49.999	0.375	0.356
-409.340	-84.148	-0.103	0.033
-408.325	-69.264	0.146	0.056
-407.311	-76.762	0.010	-0.003
-406.296	-200.000	0.043	-0.444
-405.282	800.000	-0.080	0.298
-404.267	800.000	0.051	-0.153
-403.252	-200.000	-0.008	-0.242
-402.238	800.000	0.009	-0.029
-401.223	-106.523	-0.208	0.047
-400.209	222.280	-0.123	-0.199
-399.194	19.389	0.111	0.090
-398.179	177.174	0.108	0.158
-397.165	-164.222	0.406	-0.019
-396.150	150.631	0.188	0.257
-395.136	800.000	-0.055	0.186
-394.121	-200.000	0.032	0.181
-393.106	288.898	0.075	0.137
-392.092	362.600	-0.129	0.260
-391.077	-8.483	-0.217	-0.147
-390.063	-59.878	0.448	-0.193
-389.048	-200.000	-0.018	-0.285
-388.033	-200.000	0.026	0.213
-387.019	-200.000	-0.006	0.066
-386.004	800.000	0.046	0.181
-384.990	-48.578	-0.160	-0.077
-383.975	-200.000	-0.009	-0.154
-382.960	-134.828	-0.258	0.031
-381.946	-49.885	-0.277	0.132
-380.931	-177.783	0.176	-0.004
-379.917	28.452	0.012	-0.010
-378.902	800.000	-0.038	-0.124
-377.888	-158.882	-0.071	-0.004
-376.873	-14.666	0.115	0.074
-375.858	-155.366	0.460	-0.030
-374.844	18.071	-0.250	0.200
-373.829	-200.000	-0.032	-0.182
-372.815	800.000	-0.086	-0.357
-371.800	-121.349	-0.118	-0.020
-370.785	550.702	0.031	0.075
-369.771	-47.676	-0.029	0.014
-368.756	800.000	-0.039	-0.142
-367.742	49.628	0.095	0.090
-366.727	-200.000	-0.033	0.188
-365.712	278.672	-0.066	-0.119
-364.698	-88.940	-0.186	0.055
-363.683	-200.000	0.034	0.333
-362.669	-143.478	0.201	-0.019
-361.654	94.348	0.100	0.114
-360.639	424.880	0.117	0.254
-359.625	800.000	-0.071	0.207
-358.610	17.832	0.104	0.083
-357.596	800.000	0.022	-0.072
-356.581	21.623	-0.192	0.157
-355.566	-91.534	0.233	-0.067
-354.552	-64.397	-0.368	0.150
-353.537	499.164	-0.027	-0.063
-352.523	-101.480	0.180	-0.044
-351.508	23.229	-0.080	-0.066
-350.493	167.472	0.077	0.110
-349.479	-59.938	0.056	-0.024
-348.464	195.197	0.114	0.174
-347.450	-200.000	-0.014	-0.249
-346.435	-23.976	-0.346	0.208
-345.420	38.624	0.192	0.172
-344.406	287.602	-0.041	0.075
-343.391	474.203	0.041	-0.092
-342.377	361.761	-0.100	0.202
-341.362	453.182	-0.077	0.172
-340.348	-69.650	0.331	-0.127
-339.333	526.609	0.113	0.267
-338.318	-11.474	0.136	-0.090
-337.304	-200.000	0.019	-0.200
-336.289	-200.000	-0.038	-0.170
-335.275	58.033	0.086	-0.084
-334.260	111.780	-0.143	-0.173
-333.245	-32.070	0.089	-0.050
-332.231	67.335	-0.129	-0.132
-331.216	475.284	0.056	-0.126
-330.202	800.000	-0.084	-0.278
-329.187	-108.788	-0.195	0.042
-328.172	-22.628	0.245	-0.149
-327.158	55.258	-0.153	-0.148
-326.143	40.223	0.216	0.195
-325.129	-175.022	0.075	-0.002
-324.114	9.033	-0.286	0.217
-323.099	58.360	0.201	0.198
-322.085	162.188	0.072	0.102
-321.070	-200.000	-0.014	-0.103
-320.056	68.054	0.156	-0.160
-319.041	-43.744	-0.177	-0.090
-318.026	170.411	0.191	0.274
-317.012	-155.283	-0.357	0.023
-315.997	800.000	0.039	0.133
-314.983	53.964	-0.149	0.143
-313.968	9.270	0.179	-0.136
-312.953	800.000	0.062	-0.230
-311.939	-16.186	0.123	-0.078
-310.924	38.573	0.286	-0.256
-309.910	9.727	0.079	0.060
-308.895	29.858	0.148	-0.127
-307.880	286.332	-0.090	0.162
-306.866	-200.000	0.000	0.012
-305.851	800.000	0.064	-0.240
-304.837	131.729	0.183	-0.236
-303.822	-53.135	-0.145	0.067
-302.807	-79.285	-0.260	-0.088
-301.793	-96.810	0.203	-0.054
-300.778	-200.000	-0.002	-0.149
-299.764	-190.279	-0.077	-0.001
-298.749	36.246	0.098	-0.086
-297.735	800.000	0.048	0.160
-296.720	575.401	-0.049	-0.120
-295.705	100.486	-0.151	-0.176
-294.691	800.000	0.060	-0.253
-293.676	7.415	-0.090	-0.067
-292.662	-24.228	0.261	-0.156
-291.647	599.333	0.083	0.207
-290.632	-200.000	-0.054	-0.247
-289.618	-8.212	-0.264	-0.178
-288.603	20.806	0.132	0.107
-287.589	172.385	-0.294	0.424
-286.574	-137.705	-0.079	0.009
-285.559	114.034	0.237	0.289
-284.545	-200.000	0.003	-0.178
-283.530	-78.748	0.290	0.099
-282.516	432.400	-0.054	0.116
-281.501	-200.000	0.009	-0.152
-280.486	532.206	0.136	-0.323
-279.472	67.520	-0.181	0.185
-278.457	179.829	-0.130	-0.191
-277.443	-124.874	0.308	-0.048
-276.428	-125.358	-0.440	0.067
-275.413	18.891	0.153	0.122
-274.399	800.000	0.072	0.218
-273.384	800.000	0.065	0.208
-272.370	-24.065	0.126	0.076
-271.355	85.032	0.187	-0.205
-270.340	-200.000	-0.012	0.199
-269.326	-137.743	-0.059	0.007
-268.311	445.854	-0.029	-0.063
-267.297	27.455	-0.249	0.209
-266.282	-90.559	0.124	-0.036
-265.267	7.569	0.230	-0.172
-264.253	-200.000	-0.033	-0.239
-263.238	-69.552	0.212	0.081
-262.224	-200.000	-0.060	-0.313
-261.209	264.078	0.096	0.167
-260.195	81.008	0.053	0.057
-259.180	576.198	0.071	0.174
-258.165	155.926	-0.137	0.189
-257.151	-200.000	0.030	-0.173
-256.136	19.078	0.320	-0.257
-255.122	-200.000	-0.016	-0.159
-254.107	65.122	0.110	-0.111
-253.092	357.404	0.109	-0.217
-252.078	-97.551	-0.322	-0.084
-251.063	-200.000	0.051	-0.224
-250.049	-111.825	-0.047	0.009
-249.034	-76.798	0.154	0.054
-248.019	15.638	-0.118	-0.093
-247.005	-191.171	-0.393	0.004
-245.990	-90.977	0.171	0.049
-244.976	-120.494	0.168	-0.029
-243.961	6.547	0.164	-0.122
-242.946	-200.000	-0.038	-0.268
-241.932	-8.148	-0.247	-0.166
-240.917	357.446	-0.064	0.127
-239.903	-200.000	0.049	-0.234
-238.888	-200.000	0.057	-0.249
-237.873	-155.600	-0.267	0.017
-236.859	-200.000	0.031	0.155
-235.844	0.377	-0.084	0.060
-234.830	88.710	-0.139	-0.155
-233.815	-200.000	-0.015	-0.069
-232.800	15.205	-0.174	0.136
-231.786	361.766	-0.119	0.238
-230.771	329.971	0.099	0.190
-229.757	421.593	0.119	0.256
-228.742	-169.854	0.063	0.002
-227.727	800.000	0.045	-0.159
-226.713	156.926	0.074	-0.102
-225.698	158.457	0.122	0.170
-224.684	4.571	-0.132	0.097
-223.669	-114.289	-0.225	0.043
-222.655	687.220	-0.096	0.250
-221.640	52.824	0.216	0.206
-220.625	269.181	-0.204	0.358
-219.611	-18.856	-0.068	0.042
-218.596	313.011	-0.083	0.155
-217.582	-200.000	0.054	0.259
-216.567	-118.812	0.267	-0.047
-215.552	-200.000	0.004	0.144
-214.538	-200.000	0.000	-0.041
-213.523	29.190	0.160	-0.135
-212.509	-200.000	0.050	0.363
-211.494	-5.643	0.054	0.037
-210.479	433.144	0.097	-0.210
-209.465	-200.000	-0.009	0.153
-208.450	143.642	0.066	0.087
-207.436	72.987	0.013	-0.014
-206.421	45.210	-0.137	-0.126
-205.406	-125.859	0.069	-0.010
-204.392	89.563	-0.228	0.253
-203.377	-135.853	-0.172	-0.020
-202.363	385.446	0.121	0.249
-201.348	67.045	-0.357	0.363
-200.333	-10.155	0.142	-0.094
-199.319	109.467	0.085	0.101
-198.304	269.765	-0.240	-0.421
-197.290	40.922	-0.146	0.131
-196.275	22.516	-0.111	0.091
-195.260	-16.218	-0.142	0.090
-194.246	176.540	0.154	-0.223
-193.231	131.875	-0.316	-0.406
-192.217	39.685	0.061	0.054
-191.202	39.548	-0.048	-0.043
-190.187	0.089	0.254	0.181
-189.173	-61.973	-0.192	0.080
-188.158	203.767	0.082	0.126
-187.144	-200.000	0.003	-0.083
-186.129	0.088	0.121	-0.086
-185.114	25.817	0.183	0.152
-184.100	462.087	-0.166	-0.369
-183.085	-107.404	-0.147	0.032
-182.071	-3.531	0.115	-0.079
-181.056	-161.748	0.444	-0.023
-180.042	-193.033	0.138	0.001
-179.027	66.865	-0.249	0.253
-178.012	-74.234	-0.190	-0.069
-176.998	-145.462	-0.331	-0.030
-175.983	-200.000	-0.011	-0.154
-174.969	16.602	0.313	-0.247
-173.954	-200.000	0.003	0.118
-172.939	-82.764	0.219	-0.070
-171.925	420.054	-0.082	-0.176
-170.910	30.767	-0.095	-0.081
-169.896	6.612	-0.115	-0.085
-168.881	-77.360	-0.272	-0.094
-167.866	357.776	0.093	-0.185
-166.852	253.613	0.176	0.299
-165.837	25.942	-0.162	0.134
-164.823	-81.804	-0.049	-0.016
-163.808	-87.423	-0.085	-0.026
-162.793	588.156	0.067	0.164
-161.779	-159.726	-0.150	-0.008
-160.764	-103.485	-0.114	0.027
-159.750	-62.914	0.392	0.161
-158.735	800.000	0.053	-0.158
-157.720	186.474	0.072	0.107
-156.706	800.000	-0.076	-0.324
-155.691	-112.675	-0.289	-0.057
-154.677	134.229	0.174	-0.224
-153.662	800.000	-0.033	-0.136
-152.647	-3.226	0.102	-0.071
-151.633	122.199	0.115	-0.143
-150.618	276.869	0.092	0.162
-149.604	800.000	-0.097	-0.351
-148.589	9.618	0.169	-0.127
-147.574	800.000	0.049	0.146
-146.560	81.532	0.068	0.073
-145.545	11.633	-0.073	-0.056
-144.531	-200.000	-0.019	-0.157
-143.516	-74.469	0.142	0.051
-142.502	-13.130	-0.300	0.194
-141.487	57.452	-0.210	0.204
-140.472	77.603	-0.272	-0.288
-139.458	71.027	0.147	-0.152
-138.443	-189.419	0.283	-0.003
-137.429	-200.000	0.015	0.068
-136.414	-136.302	0.435	0.051
-135.399	-200.000	0.022	0.097
-134.385	-96.899	0.219	0.057
-133.370	-92.386	0.128	0.036
-132.356	147.769	0.179	-0.240
-131.341	-200.000	-0.013	-0.079
-130.326	-85.518	0.154	-0.048
-129.312	485.211	0.188	-0.427
-128.297	323.396	-0.119	0.226
-127.283	-117.364	0.151	0.027
-126.268	-200.000	0.023	0.120
-125.253	800.000	0.047	-0.192
-124.239	-119.973	0.421	0.072
-123.224	800.000	0.023	0.087
-122.210	-200.000	-0.046	-0.330
-121.195	-164.728	-0.111	-0.005
