DTS Sentinel unit serial number:	SN413079Multiplexer serial number:	ORYXHardware model number:	OX4-SRSoftware version number:	ORYX F/W v4.00 Oryx Data Collector v3.7.2.0data status	okinstallation	princeton_trtdifferential loss correction	single-endedforward channel	channel 4reverse channel	N/Adate	2019/09/13time	20:37:35forward acquisition time	60.00reverse acquisition time	0.00gamma	496.2192k internal	0.2319k external	0.2319temperature offset calibration	1.0137default loss term (dB/km)	0.3790temperature slope calibration	1.0000multiplexer offset coefficient	1.0000multiplexer slope coefficient	1.0000fibre end	0.00T internal ref (°C)	28.98T ext. ref 1 (°C)	3.21T ext. ref 2 (°C)	23.44length (m)	temperature (°C)	Stokes	anti-Stokes-747.200	-198.252	-0.304	0.002
-746.185	664.995	0.070	0.184
-745.171	-200.000	0.295	-0.001
-744.156	65.657	-0.370	0.379
-743.142	-174.534	0.139	0.004
-742.127	-4.819	0.089	0.062
-741.112	-38.012	-0.168	0.090
-740.098	136.359	-0.206	0.271
-739.083	584.907	-0.096	-0.238
-738.069	390.297	0.117	0.245
-737.054	-119.625	-0.214	0.037
-736.039	167.186	-0.187	0.269
-735.025	-200.000	-0.028	0.340
-734.010	-90.553	0.227	-0.066
-732.996	-133.669	-0.457	-0.058
-731.981	420.366	-0.118	-0.256
-730.966	800.000	-0.110	-0.314
-729.952	-45.672	0.257	-0.129
-728.937	-24.724	-0.084	-0.051
-727.923	-98.986	-0.383	0.098
-726.908	-164.735	-0.462	-0.021
-725.894	15.696	-0.075	0.059
-724.879	-200.000	0.002	-0.061
-723.864	26.868	-0.341	-0.289
-722.850	440.042	0.113	-0.249
-721.835	-41.127	-0.122	-0.064
-720.821	-190.077	-0.236	-0.003
-719.806	622.631	-0.063	-0.160
-718.791	20.376	-0.278	0.227
-717.777	-200.000	0.097	-0.483
-716.762	800.000	0.094	-0.273
-715.748	-105.489	-0.178	-0.041
-714.733	-200.000	-0.014	0.311
-713.718	-125.532	0.041	-0.006
-712.704	-31.098	0.153	-0.087
-711.689	26.672	0.094	-0.080
-710.675	-67.874	-0.064	0.025
-709.660	800.000	0.033	0.128
-708.645	482.223	0.115	-0.265
-707.631	69.650	-0.153	-0.159
-706.616	260.457	0.066	-0.115
-705.602	-108.838	-0.096	-0.021
-704.587	-136.020	0.330	-0.039
-703.572	-24.956	-0.270	-0.162
-702.558	191.522	-0.196	0.299
-701.543	-200.000	0.049	0.348
-700.529	-91.154	0.086	0.025
-699.514	-33.707	0.268	-0.150
-698.499	10.412	-0.081	0.063
-697.485	800.000	-0.039	0.169
-696.470	-104.677	0.200	-0.047
-695.456	-66.096	0.069	0.028
-694.441	-200.000	0.069	0.394
-693.426	-132.837	0.085	-0.011
-692.412	115.134	0.087	0.108
-691.397	-200.000	0.052	0.290
-690.383	-194.745	0.415	0.003
-689.368	97.074	-0.170	0.197
-688.354	173.979	-0.139	-0.203
-687.339	-135.040	-0.189	-0.023
-686.324	-200.000	-0.062	0.284
-685.310	-200.000	0.042	-0.213
-684.295	338.975	0.090	0.177
-683.281	-200.000	-0.009	0.188
-682.266	10.402	0.048	-0.037
-681.251	276.901	0.148	0.266
-680.237	-16.709	-0.127	-0.081
-679.222	-200.000	-0.033	0.427
-678.208	156.721	0.147	0.205
-677.193	-153.937	0.158	0.011
-676.178	521.979	0.050	-0.120
-675.164	773.691	-0.084	0.231
-674.149	-200.000	-0.014	-0.123
-673.135	-145.966	-0.220	0.020
-672.120	800.000	0.050	-0.190
-671.105	579.678	-0.060	-0.147
-670.091	800.000	-0.067	-0.213
-669.076	-200.000	0.015	0.145
-668.062	-91.963	-0.293	-0.084
-667.047	615.544	0.106	-0.267
-666.032	-200.000	-0.042	-0.284
-665.018	800.000	-0.100	0.369
-664.003	-97.619	-0.227	-0.059
-662.989	-14.909	0.189	-0.122
-661.974	689.986	-0.037	0.098
-660.959	-127.298	0.103	0.015
-659.945	116.794	0.044	-0.054
-658.930	-116.406	0.109	0.020
-657.916	-200.000	0.028	-0.318
-656.901	533.400	-0.063	-0.151
-655.886	-200.000	0.023	-0.138
-654.872	135.831	-0.079	0.104
-653.857	24.328	0.343	-0.286
-652.843	299.704	-0.121	-0.225
-651.828	-67.543	0.359	-0.142
-650.814	19.340	0.081	-0.066
-649.799	3.758	-0.253	-0.187
-648.784	-30.949	0.079	0.045
-647.770	9.808	-0.149	0.114
-646.755	-85.642	-0.116	-0.036
-645.741	-146.855	0.152	-0.013
-644.726	73.439	0.145	0.153
-643.711	38.580	0.234	0.210
-642.697	-32.242	0.287	-0.162
-641.682	-40.700	-0.121	0.063
-640.668	-200.000	-0.030	0.159
-639.653	-54.441	0.130	0.060
-638.638	-144.189	0.076	0.007
-637.624	-22.340	0.222	0.136
-636.609	800.000	0.046	0.167
-635.595	800.000	-0.127	0.427
-634.580	-200.000	-0.046	-0.226
-633.565	-108.732	0.228	-0.049
-632.551	347.984	0.089	-0.176
-631.536	-200.000	-0.041	-0.196
-630.522	800.000	-0.084	-0.286
-629.507	270.730	0.107	-0.189
-628.492	44.965	-0.152	0.141
-627.478	49.680	0.317	-0.301
-626.463	-200.000	-0.024	-0.523
-625.449	631.126	-0.163	-0.415
-624.434	20.024	0.151	-0.123
-623.419	-76.604	-0.149	0.053
-622.405	36.229	-0.423	-0.375
-621.390	-99.581	0.195	-0.049
-620.376	-117.147	-0.334	0.061
-619.361	-126.230	-0.136	0.020
-618.346	-137.114	0.093	0.011
-617.332	-122.084	0.179	-0.030
-616.317	9.980	0.246	0.188
-615.303	138.651	0.166	-0.219
-614.288	-196.976	-0.151	-0.001
-613.273	563.488	-0.216	0.525
-612.259	-142.617	0.243	-0.024
-611.244	-200.000	0.005	-0.020
-610.230	50.445	-0.283	0.269
-609.215	800.000	-0.020	-0.088
-608.201	-103.364	-0.255	-0.060
-607.186	-119.194	-0.278	-0.049
-606.171	-104.355	-0.408	0.095
-605.157	-200.000	0.169	-0.000
-604.142	-88.330	-0.256	0.077
-603.128	800.000	0.042	0.148
-602.113	-200.000	-0.077	-0.346
-601.098	-68.895	-0.177	0.069
-600.084	78.503	0.364	-0.391
-599.069	800.000	0.026	0.080
-598.055	273.322	0.043	0.076
-597.040	-62.797	-0.207	-0.086
-596.025	-200.000	0.012	-0.106
-595.011	166.360	-0.066	0.094
-593.996	-200.000	0.019	-0.140
-592.982	-200.000	-0.078	-0.431
-591.967	57.694	-0.099	0.097
-590.952	360.071	-0.098	0.198
-589.938	463.673	-0.037	-0.083
-588.923	792.984	-0.069	-0.191
-587.909	-11.916	-0.216	-0.142
-586.894	189.194	-0.202	-0.304
-585.879	-2.538	-0.070	-0.049
-584.865	-152.884	-0.208	-0.015
-583.850	-95.731	-0.319	-0.086
-582.836	-163.192	-0.298	0.014
-581.821	-57.523	-0.251	-0.111
-580.806	-200.000	-0.051	0.504
-579.792	-163.547	0.211	-0.010
-578.777	-200.000	0.010	-0.269
-577.763	121.484	0.203	-0.255
-576.748	-59.614	-0.123	-0.053
-575.733	800.000	0.095	-0.330
-574.719	4.308	-0.106	-0.078
-573.704	-75.606	-0.173	-0.062
-572.690	-139.214	-0.383	-0.042
-571.675	-57.945	0.248	-0.109
-570.661	41.306	-0.144	0.131
-569.646	800.000	0.039	-0.141
-568.631	-181.876	0.148	0.003
-567.617	-135.759	0.081	-0.010
-566.602	-200.000	-0.025	-0.161
-565.588	616.335	0.152	-0.382
-564.573	646.939	-0.044	0.114
-563.558	87.479	-0.146	0.162
-562.544	-152.238	0.451	0.033
-561.529	-200.000	-0.053	-0.398
-560.515	-163.892	0.117	0.005
-559.500	35.809	0.204	0.180
-558.485	-124.679	0.082	-0.013
-557.471	100.573	0.081	0.094
-556.456	-106.211	0.203	-0.046
-555.442	350.318	0.109	-0.216
-554.427	-47.026	-0.245	-0.120
-553.412	-200.000	0.032	-0.198
-552.398	111.210	-0.145	-0.175
-551.383	-62.568	0.066	-0.028
-550.369	183.832	-0.032	0.047
-549.354	166.750	-0.096	-0.136
-548.339	800.000	0.051	0.187
-547.325	-200.000	0.033	-0.293
-546.310	-169.133	-0.366	-0.014
-545.296	-164.675	0.113	-0.005
-544.281	-60.708	-0.214	-0.091
-543.266	11.064	-0.276	0.212
-542.252	-28.166	-0.108	0.063
-541.237	800.000	0.104	-0.330
-540.223	359.803	0.012	0.023
-539.208	-133.493	-0.486	0.061
-538.193	-128.306	-0.231	-0.033
-537.179	-200.000	-0.028	0.242
-536.164	10.360	-0.085	0.065
-535.150	277.218	0.035	0.063
-534.135	-200.000	0.016	0.084
-533.121	-200.000	0.036	-0.257
-532.106	-200.000	0.005	0.066
-531.091	800.000	-0.054	0.219
-530.077	800.000	-0.058	0.218
-529.062	184.613	0.123	-0.183
-528.048	-200.000	0.011	0.226
-527.033	800.000	-0.048	0.208
-526.018	-39.417	0.253	0.133
-525.004	409.343	0.091	-0.193
-523.989	23.956	0.112	-0.093
-522.975	-154.785	-0.318	0.021
-521.960	-2.518	0.183	0.129
-520.945	81.071	0.114	0.124
-519.931	800.000	0.041	0.126
-518.916	-200.000	0.069	0.320
-517.902	91.052	-0.133	-0.150
-516.887	-200.000	0.021	0.240
-515.872	-34.029	0.185	0.102
-514.858	-18.074	0.405	-0.254
-513.843	-3.160	-0.037	0.026
-512.829	-200.000	-0.042	0.198
-511.814	-54.832	-0.192	0.087
-510.799	609.647	0.082	0.206
-509.785	-177.560	-0.163	-0.004
-508.770	62.147	0.083	-0.083
-507.756	-200.000	0.081	-0.471
-506.741	800.000	0.103	0.425
-505.726	175.616	-0.099	-0.143
-504.712	800.000	0.095	0.299
-503.697	-200.000	0.022	0.130
-502.683	800.000	-0.049	0.211
-501.668	51.420	-0.225	0.214
-500.653	122.475	0.059	-0.074
-499.639	105.423	-0.283	0.336
-498.624	162.133	0.126	0.177
-497.610	71.425	-0.240	-0.250
-496.595	46.513	0.098	0.091
-495.581	-200.000	0.035	0.238
-494.566	800.000	-0.032	0.090
-493.551	70.553	0.102	0.105
-492.537	64.221	-0.191	0.193
-491.522	-64.648	-0.215	0.087
-490.508	15.977	0.176	-0.139
-489.493	-37.627	0.028	-0.015
-488.478	-148.500	0.320	-0.026
-487.464	-192.250	0.373	-0.004
-486.449	800.000	-0.036	0.109
-485.435	205.860	0.029	-0.045
-484.420	800.000	-0.025	-0.087
-483.405	-156.501	0.138	0.009
-482.391	800.000	-0.094	0.272
-481.376	-103.081	0.097	-0.023
-480.362	-109.510	-0.141	-0.030
-479.347	-62.084	-0.203	-0.085
-478.332	269.585	-0.087	-0.152
-477.318	76.845	0.148	0.158
-476.303	-200.000	-0.011	-0.106
-475.289	109.829	0.116	0.139
-474.274	225.602	0.038	-0.062
-473.259	10.434	0.160	0.122
-472.245	800.000	-0.023	-0.090
-471.230	91.572	-0.237	-0.267
-470.216	-99.690	0.140	0.035
-469.201	-187.384	0.308	-0.004
-468.186	-9.959	0.198	0.132
-467.172	800.000	-0.040	-0.118
-466.157	-37.966	0.397	-0.211
-465.143	-129.338	-0.162	0.023
-464.128	-131.508	-0.257	-0.034
-463.113	-168.330	-0.238	-0.009
-462.099	83.614	0.239	-0.261
-461.084	-157.911	0.191	0.011
-460.070	651.221	-0.049	0.126
-459.055	41.264	-0.190	-0.172
-458.040	63.791	0.021	0.021
-457.026	144.618	-0.256	0.342
-456.011	-74.506	0.277	0.100
-454.997	-200.000	0.027	0.155
-453.982	-38.452	0.051	0.027
-452.968	-125.817	-0.178	0.027
-451.953	-110.675	0.356	-0.074
-450.938	-41.604	0.305	0.157
-449.924	635.963	-0.065	-0.166
-448.909	16.957	-0.199	0.158
-447.895	800.000	0.041	-0.139
-446.880	-94.067	0.308	0.084
-445.865	800.000	-0.054	0.230
-444.851	-128.445	-0.134	-0.019
-443.836	-200.000	0.032	0.312
-442.822	112.571	0.262	-0.317
-441.807	512.047	0.102	0.239
-440.792	49.176	0.109	0.102
-439.778	39.611	-0.304	0.272
-438.763	-162.228	-0.131	0.007
-437.749	-115.758	-0.585	-0.109
-436.734	-200.000	0.047	-0.519
-435.719	-83.194	0.143	-0.046
-434.705	800.000	-0.099	-0.326
-433.690	-109.679	-0.174	0.037
-432.676	-116.444	-0.164	-0.030
-431.661	800.000	-0.030	-0.093
-430.646	-33.191	0.225	0.125
-429.632	440.610	0.054	0.118
-428.617	-41.892	-0.152	-0.078
-427.603	77.416	0.277	-0.295
-426.588	146.645	0.260	0.349
-425.573	210.050	-0.040	0.063
-424.559	-200.000	0.019	-0.334
-423.544	27.751	0.203	-0.171
-422.530	-200.000	0.004	0.281
-421.515	697.324	0.083	0.217
-420.500	23.934	-0.087	0.072
-419.486	200.001	-0.140	0.214
-418.471	-200.000	-0.011	-0.055
-417.457	461.719	0.044	0.099
-416.442	566.269	0.117	-0.282
-415.428	-20.445	-0.197	0.121
-414.413	69.556	0.247	-0.254
-413.398	15.362	-0.102	0.080
-412.384	145.625	-0.173	-0.231
-411.369	218.255	0.116	-0.185
-410.355	-51.034	0.123	0.058
-409.340	-45.575	-0.160	-0.079
-408.325	14.604	-0.139	0.109
-407.311	70.012	0.062	0.064
-406.296	-200.000	0.024	-0.363
-405.282	391.051	0.236	-0.489
-404.267	-200.000	-0.058	-0.374
-403.252	360.386	-0.181	0.361
-402.238	-35.333	0.272	-0.148
-401.223	-161.386	0.386	0.020
-400.209	74.358	-0.107	0.112
-399.194	456.816	-0.077	0.171
-398.179	6.566	-0.214	0.159
-397.165	18.846	0.351	-0.280
-396.150	-200.000	-0.024	-0.272
-395.136	48.703	-0.159	-0.149
-394.121	49.964	0.196	-0.185
-393.106	-156.143	-0.175	0.011
-392.092	-111.411	0.088	0.018
-391.077	159.546	0.120	0.166
-390.063	-88.320	0.392	0.117
-389.048	-49.237	0.358	-0.171
-388.033	-102.945	0.346	-0.082
-387.019	-27.106	-0.304	0.177
-386.004	28.307	-0.240	-0.202
-384.990	715.109	0.133	0.352
-383.975	419.093	-0.097	-0.208
-382.960	-52.853	0.169	0.078
-381.946	-200.000	0.064	0.292
-380.931	266.310	0.094	-0.163
-379.917	-31.613	0.187	0.105
-378.902	-179.985	-0.291	-0.006
-377.888	-200.000	0.023	-0.188
-376.873	-200.000	0.016	-0.069
-375.858	75.652	-0.036	-0.038
-374.844	-200.000	0.026	-0.138
-373.829	-13.653	-0.204	-0.132
-372.815	357.374	-0.140	0.279
-371.800	-71.593	0.146	0.054
-370.785	281.242	0.101	0.181
-369.771	-200.000	-0.006	-0.229
-368.756	-3.148	-0.178	0.124
-367.742	196.132	-0.024	0.037
-366.727	-92.361	0.319	-0.089
-365.712	-127.823	-0.251	-0.036
-364.698	455.953	0.062	-0.137
-363.683	800.000	0.091	-0.263
-362.669	800.000	0.028	0.090
-361.654	59.480	0.180	0.177
-360.639	100.131	0.226	0.262
-359.625	-120.858	-0.154	-0.026
-358.610	-200.000	0.011	-0.175
-357.596	-168.224	-0.243	0.009
-356.581	-139.974	0.137	0.014
-355.566	-200.000	-0.026	-0.230
-354.552	-200.000	-0.044	-0.358
-353.537	39.430	-0.232	0.207
-352.523	800.000	-0.086	-0.259
-351.508	800.000	-0.048	-0.145
-350.493	496.337	-0.023	-0.052
-349.479	800.000	0.022	-0.065
-348.464	144.341	0.136	0.181
-347.450	-5.746	0.106	0.072
-346.435	-200.000	-0.006	-0.080
-345.420	-101.107	0.123	0.030
-344.406	-200.000	0.014	0.146
-343.391	800.000	-0.038	0.115
-342.377	-35.316	-0.230	0.125
-341.362	-136.437	0.377	-0.044
-340.348	311.288	-0.163	0.305
-339.333	-50.258	-0.219	0.103
-338.318	-200.000	-0.004	-0.028
-337.304	-34.512	0.179	-0.098
-336.289	18.139	-0.139	0.110
-335.275	-5.502	0.084	-0.058
-334.260	-157.101	-0.157	0.010
-333.245	253.043	0.125	-0.212
-332.231	451.040	-0.073	0.160
-331.216	-176.041	0.023	0.001
-330.202	5.468	0.232	0.170
-329.187	-137.064	0.162	-0.018
-328.172	-108.410	-0.198	-0.042
-327.158	-146.531	0.040	0.003
-326.143	-200.000	-0.036	0.366
-325.129	93.821	0.116	0.130
-324.114	-200.000	0.003	-0.155
-323.099	10.376	-0.125	0.095
-322.085	31.430	-0.081	-0.069
-321.070	-200.000	0.021	0.096
-320.056	-106.235	-0.256	-0.057
-319.041	83.214	-0.136	0.147
-318.026	185.632	-0.094	0.139
-317.012	35.879	-0.169	-0.148
-315.997	186.857	0.254	0.377
-314.983	135.425	0.072	0.093
-313.968	-39.088	-0.223	-0.117
-312.953	-68.032	-0.128	-0.050
-311.939	-200.000	0.026	0.223
-310.924	800.000	0.050	-0.139
-309.910	800.000	0.065	0.192
-308.895	-74.529	0.205	0.074
-307.880	-151.159	0.302	-0.023
-306.866	123.442	0.146	-0.183
-305.851	-17.474	-0.324	-0.203
-304.837	-152.702	0.291	-0.021
-303.822	-200.000	-0.026	-0.349
-302.807	800.000	0.103	0.297
-301.793	-200.000	0.017	0.291
-300.778	-107.219	0.347	0.076
-299.764	800.000	0.049	0.180
-298.749	327.069	-0.118	0.224
-297.735	800.000	0.049	0.136
-296.720	626.550	0.045	-0.113
-295.705	56.196	0.155	-0.150
-294.691	800.000	0.099	0.379
-293.676	19.190	-0.373	-0.298
-292.662	33.148	-0.158	-0.136
-291.647	-160.060	-0.086	0.005
-290.632	-200.000	0.002	-0.066
-289.618	-10.790	-0.159	-0.104
-288.603	13.242	0.066	0.051
-287.589	-166.332	-0.265	-0.011
-286.574	101.880	0.198	0.229
-285.559	800.000	-0.086	-0.322
-284.545	-140.875	-0.222	0.023
-283.530	373.628	0.083	0.168
-282.516	-134.930	-0.349	-0.042
-281.501	46.307	-0.100	0.092
-280.486	800.000	-0.062	0.239
-279.472	-112.754	0.212	0.042
-278.457	-117.925	-0.211	-0.038
-277.443	-30.834	-0.290	-0.163
-276.428	-200.000	-0.008	-0.081
-275.413	70.046	-0.200	0.205
-274.399	800.000	0.046	0.152
-273.384	-2.581	-0.104	0.072
-272.370	-56.030	-0.375	0.166
-271.355	558.150	0.099	0.236
-270.340	168.334	-0.072	0.102
-269.326	-200.000	-0.081	0.504
-268.311	-2.762	0.157	-0.109
-267.297	556.227	0.124	0.297
-266.282	-96.754	-0.086	-0.023
-265.267	3.444	0.065	-0.047
-264.253	73.902	0.189	0.197
-263.238	-145.673	-0.335	0.030
-262.224	2.226	0.187	0.134
-261.209	-30.444	-0.102	-0.058
-260.195	32.791	-0.272	-0.234
-259.180	794.519	0.040	-0.110
-258.165	-55.932	0.203	0.090
-257.151	-165.778	0.313	0.013
-256.136	-200.000	-0.014	0.149
-255.122	-200.000	0.023	-0.134
-254.107	-200.000	0.006	0.087
-253.092	372.548	-0.077	0.155
-252.078	224.799	0.107	0.172
-251.063	143.913	0.140	-0.185
-250.049	-98.132	0.260	0.066
-249.034	341.367	0.031	-0.060
-248.019	-200.000	0.025	0.351
-247.005	-200.000	0.012	-0.060
-245.990	-12.357	-0.086	0.056
-244.976	296.113	0.163	0.297
-243.961	49.394	-0.082	-0.077
-242.946	-200.000	0.012	-0.155
-241.932	-127.026	0.266	-0.039
-240.917	800.000	0.111	-0.336
-239.903	75.366	0.216	0.226
-238.888	-34.321	-0.308	-0.168
-237.873	291.126	-0.156	-0.281
-236.859	800.000	-0.176	-0.544
-235.844	-200.000	-0.046	0.246
-234.830	-43.120	-0.209	0.105
-233.815	800.000	0.114	-0.406
-232.800	-94.134	-0.286	-0.078
-231.786	-14.278	-0.110	0.070
-230.771	-200.000	0.025	0.208
-229.757	440.149	0.118	-0.255
-228.742	271.971	-0.098	0.171
-227.727	244.016	0.267	-0.444
-226.713	-52.697	0.246	0.113
-225.698	-34.288	0.102	-0.055
-224.684	800.000	-0.100	-0.322
-223.669	235.894	0.073	-0.120
-222.655	86.085	-0.216	0.236
-221.640	93.469	-0.068	0.077
-220.625	-77.266	-0.162	0.056
-219.611	-21.189	0.226	-0.137
-218.596	506.355	0.087	-0.201
-217.582	-200.000	-0.009	-0.127
-216.567	-200.000	0.085	0.376
-215.552	-143.641	-0.057	-0.005
-214.538	-200.000	-0.037	0.342
-213.523	-30.566	-0.149	-0.083
-212.509	-200.000	-0.033	-0.197
-211.494	95.832	0.134	0.152
-210.479	239.753	0.066	0.108
-209.465	-200.000	-0.011	0.071
-208.450	-92.950	-0.217	0.060
-207.436	-17.145	0.308	0.193
-206.421	148.151	-0.218	-0.292
-205.406	-200.000	-0.052	-0.267
-204.392	-57.013	-0.139	-0.061
-203.377	800.000	0.099	0.279
-202.363	18.214	-0.049	0.039
-201.348	234.675	0.129	-0.211
-200.333	800.000	0.103	-0.330
-199.319	-86.294	-0.267	0.081
-198.304	12.969	0.239	0.183
-197.290	295.491	-0.135	0.244
-196.275	-200.000	-0.080	0.349
-195.260	25.491	-0.166	0.137
-194.246	-60.210	0.329	-0.139
-193.231	-127.951	0.141	0.020
-192.217	-21.223	0.119	0.072
-191.202	-13.696	-0.233	-0.149
-190.187	154.814	0.190	-0.259
-189.173	377.205	-0.028	-0.058
-188.158	272.509	0.051	-0.089
-187.144	800.000	0.016	0.051
-186.129	214.826	0.073	0.114
-185.114	146.525	0.143	0.190
-184.100	88.498	0.273	0.300
-183.085	40.851	-0.309	0.276
-182.071	232.810	-0.214	-0.348
-181.056	318.715	0.027	-0.050
-180.042	-200.000	0.004	-0.083
-179.027	800.000	-0.054	-0.201
-178.012	-158.386	-0.461	-0.027
-176.998	252.687	-0.071	0.121
-175.983	-53.083	0.102	0.046
-174.969	724.564	-0.066	0.175
-173.954	-154.020	0.015	-0.001
-172.939	520.513	0.143	0.331
-171.925	-156.437	-0.148	-0.009
-170.910	-200.000	-0.013	-0.320
-169.896	8.287	0.155	0.115
-168.881	-68.381	0.307	-0.118
-167.866	-125.797	0.183	-0.027
-166.852	-200.000	-0.043	-0.217
-165.837	617.718	0.057	-0.141
-164.823	-200.000	0.033	0.146
-163.808	-66.444	0.342	0.134
-162.793	-58.677	-0.064	0.027
-161.779	-200.000	0.015	-0.086
-160.764	81.978	-0.260	-0.278
-159.750	59.730	0.285	0.278
-158.735	-200.000	-0.032	0.189
-157.720	-200.000	0.005	-0.265
-156.706	124.952	-0.106	-0.132
-155.691	534.632	0.101	0.237
-154.677	-8.895	0.313	0.207
-153.662	-138.604	-0.013	0.001
-152.647	-0.363	-0.106	0.074
-151.633	800.000	0.058	-0.159
-150.618	144.971	-0.131	0.173
-149.604	-118.697	0.207	-0.036
-148.589	-103.914	-0.229	0.053
-147.574	121.770	0.153	0.188
-146.560	38.426	-0.135	0.119
-145.545	29.836	-0.157	-0.133
-144.531	-27.691	-0.213	-0.122
-143.516	-48.860	0.145	0.069
-142.502	-74.122	0.363	0.130
-141.487	-127.549	0.169	0.024
-140.472	-200.000	0.036	0.161
-139.458	43.136	-0.234	-0.211
-138.443	9.973	0.114	-0.085
-137.429	-54.091	0.221	0.099
-136.414	11.610	-0.086	-0.065
-135.399	395.545	0.090	0.186
-134.385	367.988	0.015	0.030
-133.370	-115.518	0.269	0.050
-132.356	-200.000	0.130	-0.000
-131.341	265.841	-0.149	-0.257
-130.326	109.569	0.153	-0.181
-129.312	800.000	0.066	0.284
-128.297	150.380	0.103	-0.138
-127.283	118.029	0.187	0.228
-126.268	-200.000	-0.012	-0.107
-125.253	-141.583	-0.291	-0.029
-124.239	-133.501	0.194	-0.024
-123.224	359.940	0.053	-0.105
-122.210	185.582	0.196	-0.288
-121.195	-35.469	-0.126	-0.068
