DTS Sentinel unit serial number:	SN413079Multiplexer serial number:	ORYXHardware model number:	OX4-SRSoftware version number:	ORYX F/W v4.00 Oryx Data Collector v3.7.2.0data status	okinstallation	princeton_trtdifferential loss correction	single-endedforward channel	channel 4reverse channel	N/Adate	2019/09/13time	07:53:34forward acquisition time	60.00reverse acquisition time	0.00gamma	496.2192k internal	0.2320k external	0.2320temperature offset calibration	1.0192default loss term (dB/km)	0.3790temperature slope calibration	1.0000multiplexer offset coefficient	1.0000multiplexer slope coefficient	1.0000fibre end	0.00T internal ref (°C)	26.69T ext. ref 1 (°C)	4.22T ext. ref 2 (°C)	23.19length (m)	temperature (°C)	Stokes	anti-Stokes-747.200	-47.063	-0.313	-0.154
-746.185	-51.013	0.080	-0.038
-745.171	-200.000	-0.052	0.250
-744.156	800.000	-0.034	0.128
-743.142	31.887	0.358	-0.312
-742.127	361.370	-0.229	0.463
-741.112	253.817	-0.056	-0.097
-740.098	-182.787	-0.097	-0.002
-739.083	-26.009	-0.204	0.122
-738.069	-159.097	-0.322	0.018
-737.054	-200.000	-0.022	0.128
-736.039	-127.755	-0.369	0.054
-735.025	-21.601	0.153	0.094
-734.010	-59.466	-0.359	0.156
-732.996	50.298	-0.187	-0.178
-731.981	-0.400	0.068	-0.048
-730.966	-200.000	-0.007	0.155
-729.952	-88.947	0.048	0.014
-728.937	-66.084	-0.154	0.062
-727.923	-28.836	-0.103	-0.060
-726.908	-10.623	0.352	-0.235
-725.894	-43.756	-0.163	0.083
-724.879	-121.585	-0.374	-0.063
-723.864	-200.000	0.000	-0.355
-722.850	-200.000	-0.014	0.087
-721.835	800.000	-0.041	0.164
-720.821	-137.224	-0.243	0.028
-719.806	-200.000	0.001	-0.321
-718.791	75.755	-0.249	-0.266
-717.777	-121.707	0.179	-0.030
-716.762	549.201	-0.117	-0.282
-715.748	470.790	-0.122	0.277
-714.733	40.131	-0.200	0.182
-713.718	46.188	0.302	0.282
-712.704	-125.226	-0.106	0.016
-711.689	-123.173	-0.456	0.074
-710.675	229.732	-0.159	0.263
-709.660	800.000	-0.157	0.447
-708.645	102.718	-0.054	-0.064
-707.631	800.000	0.144	-0.429
-706.616	-200.000	0.002	-0.065
-705.602	-200.000	-0.031	-0.206
-704.587	-15.219	-0.240	-0.155
-703.572	-200.000	0.242	-0.001
-702.558	14.776	0.115	0.091
-701.543	196.303	-0.151	-0.231
-700.529	187.818	-0.259	-0.391
-699.514	-149.101	0.090	0.007
-698.499	304.164	0.138	-0.259
-697.485	800.000	-0.085	0.298
-696.470	139.760	-0.100	0.132
-695.456	-81.009	-0.586	-0.196
-694.441	295.329	0.176	-0.324
-693.426	-46.479	-0.262	-0.130
-692.412	28.667	-0.256	-0.219
-691.397	-15.304	0.136	-0.088
-690.383	45.940	0.172	0.161
-689.368	-46.355	0.037	0.018
-688.354	-39.473	0.058	0.031
-687.339	800.000	0.062	-0.237
-686.324	565.379	0.045	0.109
-685.310	624.546	-0.058	-0.147
-684.295	-200.000	0.013	0.073
-683.281	-173.266	-0.078	0.002
-682.266	-80.374	0.227	-0.076
-681.251	791.231	0.061	0.168
-680.237	-38.521	0.010	0.005
-679.222	237.447	-0.176	0.294
-678.208	12.046	0.142	-0.110
-677.193	-15.064	0.182	-0.118
-676.178	-200.000	0.014	0.180
-675.164	-200.000	0.009	0.114
-674.149	548.579	0.050	0.122
-673.135	-65.724	0.159	-0.064
-672.120	-59.427	-0.255	-0.111
-671.105	777.145	-0.037	0.103
-670.091	216.575	-0.157	-0.251
-669.076	126.920	0.219	-0.279
-668.062	-29.462	-0.128	-0.074
-667.047	-6.132	-0.246	-0.169
-666.032	-136.778	-0.112	-0.013
-665.018	-102.347	0.152	0.037
-664.003	-200.000	0.035	0.171
-662.989	-130.467	-0.089	-0.012
-661.974	-100.343	0.322	0.080
-660.959	-32.497	-0.241	0.135
-659.945	-200.000	-0.012	-0.369
-658.930	108.138	-0.085	-0.102
-657.916	36.850	-0.145	0.129
-656.901	-88.673	-0.271	0.081
-655.886	-88.058	-0.183	-0.055
-654.872	202.960	-0.197	0.307
-653.857	10.682	0.052	-0.040
-652.843	800.000	-0.054	0.212
-651.828	800.000	-0.081	-0.242
-650.814	-200.000	-0.000	-0.171
-649.799	-125.345	0.183	0.028
-648.784	-200.000	0.007	0.323
-647.770	31.595	-0.090	0.078
-646.755	-200.000	-0.051	0.246
-645.741	81.497	-0.067	-0.073
-644.726	731.861	-0.071	0.190
-643.711	-200.000	0.015	-0.282
-642.697	173.774	-0.144	-0.210
-641.682	-65.109	0.360	0.146
-640.668	218.801	0.113	-0.182
-639.653	-4.006	-0.354	-0.247
-638.638	800.000	-0.070	0.195
-637.624	-103.622	0.057	0.013
-636.609	-105.968	-0.108	-0.025
-635.595	-64.058	0.145	-0.060
-634.580	53.295	-0.230	-0.222
-633.565	63.579	-0.285	-0.288
-632.551	13.719	-0.123	-0.096
-631.536	339.405	0.159	0.312
-630.522	13.466	0.180	-0.140
-629.507	257.935	-0.086	0.150
-628.492	-200.000	-0.020	0.288
-627.478	337.775	0.146	0.285
-626.463	-47.372	-0.243	-0.119
-625.449	182.942	0.188	-0.280
-624.434	619.784	0.057	0.143
-623.419	800.000	-0.153	-0.602
-622.405	3.313	0.286	0.209
-621.390	-147.013	-0.129	-0.011
-620.376	183.095	0.119	0.177
-619.361	106.641	-0.170	0.203
-618.346	149.261	0.121	-0.164
-617.332	89.525	0.069	0.077
-616.317	1.527	-0.167	0.121
-615.303	-73.955	0.148	-0.054
-614.288	-200.000	-0.012	-0.089
-613.273	105.921	0.087	0.104
-612.259	-86.552	0.276	-0.085
-611.244	-200.000	0.033	0.229
-610.230	800.000	0.027	-0.100
-609.215	800.000	-0.093	-0.279
-608.201	315.052	0.073	0.139
-607.186	-14.767	-0.253	-0.163
-606.171	-200.000	-0.001	0.060
-605.157	716.846	-0.109	-0.292
-604.142	-108.151	-0.082	-0.018
-603.128	800.000	0.141	0.417
-602.113	29.955	-0.138	-0.118
-601.098	-200.000	0.006	0.033
-600.084	330.283	-0.074	0.144
-599.069	98.143	0.249	0.289
-598.055	63.470	-0.073	-0.074
-597.040	-200.000	-0.011	0.054
-596.025	24.190	0.053	0.044
-595.011	-133.621	0.127	-0.016
-593.996	-200.000	0.018	0.121
-592.982	-90.962	0.326	0.094
-591.967	67.520	-0.352	-0.362
-590.952	-35.767	0.165	-0.090
-589.938	-200.000	0.008	-0.165
-588.923	800.000	-0.063	-0.190
-587.909	416.606	-0.104	0.224
-586.894	-86.853	-0.346	0.106
-585.879	800.000	0.118	-0.374
-584.865	396.697	0.130	-0.273
-583.850	-200.000	0.218	-0.001
-582.836	156.869	0.044	0.061
-581.821	72.951	-0.115	0.121
-580.806	59.432	0.195	0.193
-579.792	-107.790	-0.289	-0.063
-578.777	-200.000	0.011	0.082
-577.763	11.479	-0.114	0.088
-576.748	-200.000	0.007	-0.042
-575.733	713.342	-0.106	-0.282
-574.719	-133.760	0.442	-0.055
-573.704	-200.000	0.045	0.343
-572.690	749.330	-0.034	0.091
-571.675	-200.000	-0.034	-0.233
-570.661	800.000	-0.121	0.418
-569.646	114.374	-0.182	0.223
-568.631	-155.157	-0.020	0.001
-567.617	800.000	0.091	-0.270
-566.602	29.995	0.305	0.261
-565.588	148.260	0.146	-0.198
-564.573	105.418	-0.148	-0.175
-563.558	800.000	-0.047	0.199
-562.544	42.291	0.205	0.187
-561.529	73.086	-0.088	-0.092
-560.515	83.111	0.147	-0.160
-559.500	800.000	0.073	0.234
-558.485	25.355	0.056	0.046
-557.471	553.059	-0.092	0.222
-556.456	-200.000	0.031	-0.152
-555.442	-95.796	-0.181	0.048
-554.427	-117.095	0.048	0.009
-553.412	-82.923	-0.116	0.038
-552.398	-40.940	0.175	0.091
-551.383	-74.233	-0.325	-0.118
-550.369	-200.000	-0.023	-0.185
-549.354	46.291	0.047	-0.044
-548.339	800.000	0.028	-0.097
-547.325	-36.457	-0.356	-0.192
-546.310	27.027	-0.050	-0.042
-545.296	46.624	-0.111	0.104
-544.281	516.529	-0.089	0.208
-543.266	98.434	0.120	-0.139
-542.252	84.095	-0.030	0.033
-541.237	282.954	-0.024	-0.043
-540.223	262.172	0.037	0.065
-539.208	44.850	-0.252	-0.233
-538.193	-200.000	0.003	0.497
-537.179	-153.494	-0.147	-0.010
-536.164	147.272	-0.129	-0.175
-535.150	-72.584	-0.274	-0.101
-534.135	10.688	-0.275	0.210
-533.121	25.407	-0.225	-0.188
-532.106	-200.000	-0.013	0.265
-531.091	28.867	-0.208	-0.177
-530.077	-25.243	-0.033	0.020
-529.062	-55.695	-0.100	-0.045
-528.048	156.836	-0.127	-0.175
-527.033	-200.000	0.066	-0.380
-526.018	78.844	0.328	-0.351
-525.004	800.000	-0.068	0.258
-523.989	-91.558	-0.207	-0.059
-522.975	-130.144	0.399	0.055
-521.960	-200.000	0.027	0.336
-520.945	94.001	-0.206	-0.235
-519.931	-32.624	-0.021	0.012
-518.916	800.000	-0.060	-0.218
-517.902	-172.408	-0.248	-0.008
-516.887	-2.957	-0.160	-0.112
-515.872	800.000	0.035	0.152
-514.858	343.855	0.070	-0.137
-513.843	-125.423	-0.272	0.041
-512.829	-56.456	-0.378	0.168
-511.814	17.470	-0.158	-0.125
-510.799	2.798	0.030	-0.021
-509.785	-24.967	-0.324	-0.192
-508.770	87.664	0.117	0.130
-507.756	-10.792	-0.368	-0.243
-506.741	-106.224	-0.181	-0.041
-505.726	-200.000	-0.016	-0.135
-504.712	213.643	-0.324	0.513
-503.697	800.000	-0.085	0.299
-502.683	-92.657	0.096	-0.027
-501.668	-152.193	-0.326	-0.024
-500.653	800.000	0.098	-0.328
-499.639	-200.000	-0.041	-0.256
-498.624	800.000	0.053	-0.175
-497.610	-62.530	0.232	0.097
-496.595	-200.000	-0.021	0.190
-495.581	452.129	0.067	-0.147
-494.566	-104.798	0.092	0.021
-493.551	800.000	0.069	0.212
-492.537	-200.000	-0.109	-0.490
-491.522	105.764	-0.108	0.127
-490.508	-19.370	0.294	-0.182
-489.493	9.242	-0.191	-0.145
-488.478	-126.400	0.287	-0.043
-487.464	-84.581	0.243	-0.077
-486.449	732.445	0.058	0.155
-485.435	-109.210	-0.227	0.048
-484.420	620.168	0.028	-0.070
-483.405	-200.000	0.009	0.159
-482.391	-39.822	-0.137	-0.072
-481.376	-66.676	0.226	-0.089
-480.362	800.000	-0.118	-0.424
-479.347	-186.731	-0.246	-0.003
-478.332	357.559	-0.125	0.250
-477.318	-6.960	-0.159	0.108
-476.303	-65.631	0.045	0.018
-475.289	545.993	0.091	-0.219
-474.274	-86.602	0.197	-0.060
-473.259	-200.000	-0.074	0.391
-472.245	-200.000	-0.040	0.251
-471.230	315.261	-0.113	-0.213
-470.216	-200.000	-0.063	0.337
-469.201	-166.753	0.274	-0.011
-468.186	-65.907	-0.421	0.168
-467.172	-90.722	0.163	-0.047
-466.157	157.807	0.090	0.125
-465.143	-122.448	0.178	-0.029
-464.128	-139.036	-0.241	-0.026
-463.113	348.606	-0.141	-0.278
-462.099	-167.859	0.196	0.008
-461.084	-39.107	0.241	-0.127
-460.070	-102.816	0.171	-0.041
-459.055	376.989	-0.187	0.383
-458.040	800.000	0.043	-0.143
-457.026	201.064	0.218	-0.336
-456.011	-97.983	-0.119	-0.031
-454.997	-200.000	-0.074	-0.406
-453.982	10.141	-0.175	-0.133
-452.968	-156.543	0.368	-0.023
-451.953	-126.906	0.215	-0.032
-450.938	-101.847	-0.054	-0.013
-449.924	-200.000	0.029	-0.313
-448.909	-38.523	0.091	-0.048
-447.895	-200.000	0.027	0.130
-446.880	-200.000	-0.020	0.266
-445.865	-12.367	0.134	-0.088
-444.851	116.216	-0.192	-0.235
-443.836	21.829	0.145	0.118
-442.822	411.828	0.125	-0.266
-441.807	800.000	-0.073	-0.311
-440.792	800.000	0.089	-0.277
-439.778	-200.000	-0.002	0.067
-438.763	238.711	-0.141	-0.233
-437.749	-169.046	-0.016	-0.001
-436.734	-200.000	-0.029	0.529
-435.719	223.952	-0.128	0.207
-434.705	202.063	-0.106	0.163
-433.690	160.061	-0.053	-0.074
-432.676	59.486	-0.130	0.128
-431.661	167.105	0.129	-0.183
-430.646	312.200	-0.034	0.064
-429.632	-38.358	-0.274	-0.145
-428.617	-174.759	0.240	0.007
-427.603	-61.014	0.152	0.064
-426.588	-174.579	0.075	-0.002
-425.573	-141.873	-0.071	-0.007
-424.559	-164.915	-0.237	-0.011
-423.544	13.136	0.434	-0.335
-422.530	800.000	-0.074	0.285
-421.515	68.162	-0.204	0.208
-420.500	435.035	0.146	0.317
-419.486	-200.000	0.046	0.306
-418.471	-80.972	-0.346	0.115
-417.457	-200.000	-0.007	-0.118
-416.442	204.651	0.082	-0.127
-415.428	173.167	-0.136	0.196
-414.413	-65.941	0.154	0.061
-413.398	-150.514	0.582	0.044
-412.384	68.353	-0.099	-0.101
-411.369	-104.721	-0.030	0.007
-410.355	560.681	-0.085	0.205
-409.340	-200.000	-0.078	0.362
-408.325	343.868	-0.070	0.138
-407.311	800.000	-0.075	0.315
-406.296	-77.455	0.146	-0.050
-405.282	218.722	0.166	0.265
-404.267	139.137	0.049	0.064
-403.252	-137.203	0.230	-0.026
-402.238	-200.000	-0.035	-0.254
-401.223	301.004	-0.047	-0.087
-400.209	-200.000	-0.041	0.324
-399.194	-189.187	-0.111	-0.001
-398.179	-124.097	-0.079	-0.012
-397.165	-86.015	-0.205	-0.063
-396.150	-200.000	-0.020	0.169
-395.136	225.454	0.114	0.184
-394.121	-99.905	-0.341	0.085
-393.106	-29.962	-0.156	0.088
-392.092	168.478	0.163	0.232
-391.077	207.863	0.059	-0.092
-390.063	217.474	0.043	0.069
-389.048	367.131	0.131	-0.263
-388.033	-37.329	0.378	-0.201
-387.019	-200.000	0.018	-0.147
-386.004	-200.000	-0.031	0.161
-384.990	-117.533	0.159	0.029
-383.975	-12.659	-0.136	-0.088
-382.960	113.300	-0.080	0.096
-381.946	-120.421	0.114	-0.019
-380.931	110.466	0.186	0.222
-379.917	-104.609	-0.365	-0.084
-378.902	304.847	0.143	-0.264
-377.888	-200.000	0.016	-0.251
-376.873	-157.295	0.169	-0.010
-375.858	9.533	-0.212	0.160
-374.844	60.006	0.031	0.031
-373.829	340.337	-0.083	-0.162
-372.815	-200.000	-0.012	0.344
-371.800	305.509	0.112	-0.208
-370.785	163.949	0.135	0.189
-369.771	-73.182	0.349	-0.128
-368.756	133.420	0.202	-0.260
-367.742	91.703	0.145	-0.162
-366.727	-92.528	-0.253	0.071
-365.712	101.913	-0.038	0.044
-364.698	-117.340	-0.244	0.044
-363.683	-18.027	-0.087	-0.055
-362.669	-200.000	-0.002	0.041
-361.654	-92.923	0.137	-0.038
-360.639	-97.237	-0.238	0.062
-359.625	28.824	0.130	-0.110
-358.610	24.524	0.101	-0.083
-357.596	-122.985	0.654	-0.105
-356.581	-31.002	-0.170	-0.095
-355.566	-200.000	0.017	0.135
-354.552	392.413	-0.188	0.389
-353.537	38.699	0.199	-0.177
-352.523	800.000	-0.070	0.278
-351.508	-200.000	-0.044	0.311
-350.493	6.068	-0.271	0.200
-349.479	269.862	0.141	-0.246
-348.464	-108.589	0.135	0.029
-347.450	-200.000	-0.011	-0.092
-346.435	-118.211	0.293	-0.052
-345.420	-169.773	-0.208	-0.007
-344.406	800.000	-0.077	0.289
-343.391	211.208	0.120	-0.188
-342.377	-2.709	0.368	0.256
-341.362	-128.592	-0.211	-0.030
-340.348	800.000	0.042	0.154
-339.333	387.436	0.124	0.256
-338.318	117.536	-0.091	0.111
-337.304	-200.000	0.010	0.065
-336.289	-200.000	0.023	0.169
-335.275	-200.000	-0.012	0.259
-334.260	44.111	-0.145	-0.132
-333.245	-200.000	-0.054	0.363
-332.231	167.619	-0.198	-0.280
-331.216	321.617	-0.123	-0.233
-330.202	51.871	0.160	-0.152
-329.187	-196.133	0.285	-0.002
-328.172	-45.942	0.081	0.040
-327.158	1.569	0.277	-0.199
-326.143	-138.837	-0.301	-0.033
-325.129	19.839	0.258	-0.207
-324.114	363.156	-0.016	0.032
-323.099	125.473	0.280	-0.351
-322.085	68.202	-0.189	0.193
-321.070	46.035	-0.223	0.205
-320.056	-175.359	0.348	-0.009
-319.041	211.523	0.102	-0.159
-318.026	-19.162	-0.205	0.127
-317.012	800.000	0.087	-0.283
-315.997	-66.193	0.192	0.076
-314.983	-200.000	0.027	0.295
-313.968	-200.000	0.032	-0.168
-312.953	418.785	-0.156	0.333
-311.939	-28.272	0.172	-0.099
-310.924	104.862	-0.206	0.241
-309.910	-64.680	-0.131	-0.053
-308.895	509.127	0.159	-0.367
-307.880	800.000	-0.083	-0.304
-306.866	-94.378	0.133	-0.036
-305.851	289.224	-0.053	0.096
-304.837	-200.000	-0.006	-0.036
-303.822	14.730	-0.218	-0.169
-302.807	-200.000	0.003	-0.136
-301.793	-2.868	0.082	0.057
-300.778	205.357	0.095	0.147
-299.764	-59.071	-0.167	-0.072
-298.749	652.091	-0.073	-0.186
-297.735	-94.202	-0.087	0.024
-296.720	-114.245	-0.199	0.038
-295.705	117.169	-0.170	0.208
-294.691	29.616	-0.112	-0.095
-293.676	-24.744	0.275	0.162
-292.662	173.554	-0.208	-0.299
-291.647	-107.485	0.429	0.093
-290.632	518.383	0.093	-0.216
-289.618	170.887	0.032	0.045
-288.603	75.512	-0.277	0.290
-287.589	-113.302	-0.315	0.062
-286.574	-45.553	0.163	-0.080
-285.559	-14.011	0.378	-0.243
-284.545	-200.000	0.004	-0.129
-283.530	-200.000	0.023	-0.377
-282.516	47.265	-0.133	0.123
-281.501	413.076	0.074	-0.156
-280.486	-200.000	0.029	0.185
-279.472	-18.974	0.246	-0.152
-278.457	-200.000	0.012	-0.120
-277.443	2.936	-0.029	-0.021
-276.428	-200.000	-0.013	-0.192
-275.413	346.022	0.155	-0.303
-274.399	56.691	-0.105	-0.101
-273.384	-200.000	-0.036	0.242
-272.370	-200.000	-0.020	-0.292
-271.355	86.901	-0.113	0.124
-270.340	-0.946	0.129	-0.090
-269.326	23.049	0.110	-0.090
-268.311	-130.504	-0.181	0.024
-267.297	800.000	0.075	-0.279
-266.282	-169.157	0.184	0.007
-265.267	-17.928	-0.210	0.130
-264.253	335.160	0.146	0.281
-263.238	103.054	0.040	0.046
-262.224	800.000	0.035	0.109
-261.209	-200.000	0.009	0.345
-260.195	-17.379	-0.020	-0.013
-259.180	-126.368	0.476	0.070
-258.165	179.462	-0.033	0.048
-257.151	-40.463	-0.157	-0.081
-256.136	371.425	0.114	-0.229
-255.122	800.000	0.028	0.085
-254.107	-200.000	0.028	-0.246
-253.092	493.654	-0.101	-0.230
-252.078	-153.639	0.229	0.016
-251.063	21.047	0.294	-0.236
-250.049	-200.000	0.039	0.182
-249.034	59.315	0.116	0.114
-248.019	664.753	-0.099	-0.253
-247.005	-116.414	-0.349	-0.064
-245.990	-89.522	-0.342	0.100
-244.976	-16.670	-0.178	-0.112
-243.961	274.962	-0.195	-0.343
-242.946	-200.000	0.054	-0.310
-241.932	100.763	0.032	-0.037
-240.917	559.795	-0.101	-0.242
-239.903	-6.143	-0.364	0.246
-238.888	293.838	0.065	0.118
-237.873	392.316	-0.072	0.148
-236.859	-63.921	-0.113	-0.046
-235.844	-86.707	0.255	-0.077
-234.830	-106.056	0.371	0.083
-233.815	-10.088	0.129	0.085
-232.800	191.079	0.134	-0.200
-231.786	46.028	0.285	0.262
-230.771	31.190	0.081	0.069
-229.757	360.112	-0.062	-0.124
-228.742	-200.000	-0.021	0.148
-227.727	144.071	0.115	-0.151
-226.713	-174.082	-0.209	-0.006
-225.698	-123.840	0.221	-0.035
-224.684	-200.000	0.104	0.000
-223.669	-200.000	0.056	0.279
-222.655	181.488	-0.037	-0.054
-221.640	163.607	0.110	0.153
-220.625	597.097	0.233	0.571
-219.611	-57.701	-0.214	0.093
-218.596	-200.000	0.151	-0.001
-217.582	-200.000	0.055	-0.386
-216.567	88.486	-0.218	-0.239
-215.552	683.067	0.072	-0.187
-214.538	-53.231	-0.175	-0.080
-213.523	-200.000	-0.042	0.207
-212.509	-200.000	-0.009	-0.459
-211.494	-83.993	-0.137	-0.043
-210.479	-200.000	0.010	-0.132
-209.465	-30.938	-0.234	0.131
-208.450	20.633	-0.144	0.115
-207.436	-67.272	0.189	-0.074
-206.421	-200.000	0.013	0.426
-205.406	-102.586	-0.259	0.061
-204.392	-147.675	0.300	0.025
-203.377	63.349	0.230	-0.228
-202.363	-18.244	0.187	-0.116
-201.348	-105.968	0.032	-0.007
-200.333	-200.000	0.047	-0.207
-199.319	-88.333	-0.172	0.051
-198.304	-138.207	0.039	0.004
-197.290	-71.194	-0.275	0.102
-196.275	-12.710	0.144	-0.093
-195.260	-200.000	-0.068	0.324
-194.246	-11.515	0.310	0.202
-193.231	775.933	0.097	0.263
-192.217	-152.023	0.453	0.033
-191.202	-7.230	-0.318	-0.213
-190.187	123.290	-0.065	-0.081
-189.173	541.836	-0.057	0.135
-188.158	-163.470	0.139	0.007
-187.144	273.269	0.023	-0.040
-186.129	93.199	-0.029	0.033
-185.114	800.000	-0.084	0.364
-184.100	444.894	-0.092	0.200
-183.085	-200.000	-0.048	0.320
-182.071	-99.904	-0.259	-0.064
-181.056	165.599	0.192	-0.268
-180.042	-103.392	0.163	-0.038
-179.027	800.000	-0.108	0.333
-178.012	574.689	0.151	-0.365
-176.998	12.074	-0.054	-0.041
-175.983	-8.022	0.174	-0.116
-174.969	-200.000	-0.011	0.071
-173.954	-111.291	0.183	-0.037
-172.939	-97.978	-0.128	-0.033
-171.925	-200.000	0.000	0.049
-170.910	-200.000	0.016	0.073
-169.896	36.687	0.148	0.129
-168.881	52.643	-0.049	0.047
-167.866	800.000	-0.048	0.138
-166.852	595.025	-0.088	0.215
-165.837	679.354	-0.091	0.234
-164.823	-138.762	-0.262	-0.028
-163.808	800.000	0.038	0.121
-162.793	-94.722	-0.204	-0.055
-161.779	506.287	0.052	-0.119
-160.764	76.294	0.177	-0.185
-159.750	-141.835	0.337	0.033
-158.735	800.000	0.069	-0.281
-157.720	-200.000	0.048	0.207
-156.706	564.157	0.055	-0.131
-155.691	800.000	-0.092	0.344
-154.677	622.774	-0.078	0.194
-153.662	625.748	-0.060	0.149
-152.647	248.872	0.016	0.026
-151.633	-117.623	-0.209	-0.037
-150.618	-0.775	-0.321	0.225
-149.604	72.315	0.095	0.098
-148.589	323.124	0.027	0.050
-147.574	505.599	0.081	0.186
-146.560	-200.000	-0.064	0.306
-145.545	-185.040	0.202	0.003
-144.531	-2.702	-0.116	0.080
-143.516	-29.178	-0.053	-0.030
-142.502	-79.926	0.346	-0.115
-141.487	227.589	0.124	0.200
-140.472	63.808	0.059	0.059
-139.458	-13.371	-0.117	-0.075
-138.443	21.171	-0.315	-0.253
-137.429	-200.000	-0.035	-0.241
-136.414	180.059	-0.082	-0.118
-135.399	456.741	0.088	-0.192
-134.385	184.018	0.131	0.192
-133.370	-200.000	0.057	0.302
-132.356	161.718	-0.205	0.284
-131.341	-131.852	0.077	-0.010
-130.326	800.000	-0.040	0.120
-129.312	-200.000	-0.029	-0.275
-128.297	-174.545	-0.182	0.005
-127.283	-72.742	0.095	-0.035
-126.268	474.493	0.041	-0.091
-125.253	-73.183	0.146	-0.053
-124.239	66.218	0.143	0.143
-123.224	800.000	-0.081	-0.264
-122.210	-97.064	-0.314	0.081
