DTS Sentinel unit serial number:	SN413079Multiplexer serial number:	ORYXHardware model number:	OX4-SRSoftware version number:	ORYX F/W v4.00 Oryx Data Collector v3.7.2.0data status	okinstallation	princeton_trtdifferential loss correction	single-endedforward channel	channel 4reverse channel	N/Adate	2019/09/16time	12:25:34forward acquisition time	60.00reverse acquisition time	0.00gamma	496.2192k internal	0.2293k external	0.2293temperature offset calibration	0.9945default loss term (dB/km)	0.3790temperature slope calibration	1.0000multiplexer offset coefficient	1.0000multiplexer slope coefficient	1.0000fibre end	0.00T internal ref (°C)	39.44T ext. ref 1 (°C)	13.34T ext. ref 2 (°C)	36.65length (m)	temperature (°C)	Stokes	anti-Stokes-747.200	409.578	0.075	0.163
-746.185	-129.835	-0.059	-0.008
-745.171	-200.000	0.078	0.439
-744.156	619.360	0.154	0.397
-743.142	48.588	0.254	0.244
-742.127	18.626	-0.265	0.217
-741.112	242.948	-0.163	0.280
-740.098	29.923	-0.282	0.246
-739.083	800.000	0.038	0.129
-738.069	23.576	0.214	-0.180
-737.054	-4.744	-0.135	0.095
-736.039	-200.000	-0.003	0.323
-735.025	119.787	0.175	0.222
-734.010	162.889	-0.146	0.209
-732.996	-200.000	0.020	-0.121
-731.981	1.545	0.404	0.298
-730.966	-92.208	0.188	-0.054
-729.952	16.381	-0.209	0.169
-728.937	111.535	-0.063	0.078
-727.923	147.978	-0.202	0.279
-726.908	175.720	-0.090	-0.133
-725.894	127.794	-0.080	-0.104
-724.879	109.868	-0.112	-0.137
-723.864	800.000	0.083	-0.318
-722.850	-200.000	-0.002	0.104
-721.835	542.250	-0.148	-0.361
-720.821	-0.696	0.116	0.084
-719.806	570.307	-0.041	0.102
-718.791	-8.525	-0.168	-0.115
-717.777	3.988	-0.367	0.274
-716.762	-200.000	-0.064	-0.290
-715.748	-97.246	0.292	0.078
-714.733	-172.156	-0.198	0.007
-713.718	-45.963	-0.059	-0.030
-712.704	800.000	-0.065	0.250
-711.689	-89.803	-0.628	-0.188
-710.675	-18.028	-0.274	-0.176
-709.660	800.000	0.082	-0.327
-708.645	-130.191	-0.232	-0.032
-707.631	-200.000	-0.025	-0.252
-706.616	47.186	-0.171	-0.163
-705.602	-97.325	0.355	0.094
-704.587	-200.000	-0.037	-0.213
-703.572	-36.111	0.242	0.133
-702.558	103.933	-0.238	0.286
-701.543	-170.830	0.238	-0.008
-700.529	282.648	0.133	-0.244
-699.514	62.028	0.118	-0.121
-698.499	-88.452	0.134	0.041
-697.485	153.330	-0.210	0.294
-696.470	13.401	0.167	-0.132
-695.456	-200.000	-0.050	0.351
-694.441	-76.831	-0.135	0.048
-693.426	-14.537	0.286	0.188
-692.412	-138.461	-0.149	-0.017
-691.397	-55.496	-0.221	0.101
-690.383	-200.000	0.002	0.227
-689.368	-200.000	-0.027	0.292
-688.354	-200.000	-0.000	0.042
-687.339	4.444	0.193	-0.144
-686.324	98.999	-0.266	-0.313
-685.310	-108.752	-0.414	-0.091
-684.295	-179.062	0.110	-0.003
-683.281	-39.894	0.270	0.144
-682.266	-108.335	0.298	0.066
-681.251	16.782	0.402	-0.325
-680.237	-116.533	-0.339	0.064
-679.222	171.010	-0.206	0.302
-678.208	-200.000	-0.017	-0.214
-677.193	-18.864	0.180	-0.115
-676.178	-200.000	0.010	-0.223
-675.164	-78.287	0.548	0.192
-674.149	-72.960	0.248	0.093
-673.135	-13.036	-0.246	0.163
-672.120	83.301	-0.115	-0.128
-671.105	-77.277	0.016	-0.006
-670.091	-200.000	-0.028	-0.134
-669.076	130.805	0.122	-0.159
-668.062	32.500	-0.253	0.223
-667.047	128.382	0.185	-0.240
-666.032	-200.000	-0.038	-0.393
-665.018	800.000	-0.027	-0.099
-664.003	-200.000	-0.215	-0.001
-662.989	-67.481	-0.169	-0.068
-661.974	210.472	-0.059	0.094
-660.959	-143.534	0.152	-0.015
-659.945	-200.000	-0.018	0.152
-658.930	-137.702	-0.029	0.003
-657.916	63.433	0.061	0.063
-656.901	-102.017	-0.203	-0.050
-655.886	-29.681	-0.294	0.171
-654.872	-28.845	0.212	0.124
-653.857	-45.987	-0.201	-0.101
-652.843	-200.000	-0.007	-0.236
-651.828	239.600	0.049	-0.083
-650.814	-186.086	-0.251	-0.004
-649.799	-96.403	-0.113	0.030
-648.784	-114.106	0.343	0.068
-647.770	220.082	0.066	0.108
-646.755	701.147	-0.081	-0.219
-645.741	-7.992	-0.067	-0.046
-644.726	163.669	0.142	0.204
-643.711	-143.269	-0.129	-0.013
-642.697	-11.124	-0.188	0.126
-641.682	-154.630	0.206	0.014
-640.668	6.918	0.056	0.043
-639.653	57.104	-0.058	0.058
-638.638	-190.556	-0.266	0.003
-637.624	-26.479	0.113	-0.068
-636.609	-44.936	-0.337	0.171
-635.595	-49.776	0.232	0.112
-634.580	-75.419	0.091	0.033
-633.565	800.000	-0.036	0.106
-632.551	76.282	-0.087	0.094
-631.536	132.193	0.153	0.200
-630.522	228.044	-0.092	0.153
-629.507	-98.071	0.249	0.065
-628.492	800.000	0.051	-0.195
-627.478	104.273	0.214	-0.257
-626.463	48.545	0.165	0.158
-625.449	-10.271	-0.115	0.078
-624.434	-34.824	0.315	-0.175
-623.419	-104.395	0.265	-0.062
-622.405	71.686	0.216	-0.228
-621.390	-200.000	-0.082	-0.408
-620.376	800.000	-0.076	-0.268
-619.361	104.106	-0.131	0.157
-618.346	800.000	-0.059	-0.213
-617.332	-2.131	0.109	0.078
-616.317	-200.000	0.027	0.192
-615.303	800.000	-0.021	0.087
-614.288	-71.455	0.285	-0.109
-613.273	-130.354	0.127	0.018
-612.259	-94.344	-0.043	0.012
-611.244	-200.000	-0.048	0.252
-610.230	800.000	-0.012	-0.038
-609.215	613.025	-0.009	0.023
-608.201	65.804	-0.014	-0.014
-607.186	-61.870	-0.034	-0.015
-606.171	-200.000	0.024	0.228
-605.157	-110.485	-0.090	-0.019
-604.142	659.704	0.124	-0.324
-603.128	-25.971	0.252	0.151
-602.113	-185.985	-0.116	0.002
-601.098	476.207	-0.152	-0.350
-600.084	658.430	-0.051	-0.132
-599.069	-122.286	0.086	-0.014
-598.055	183.343	-0.126	0.190
-597.040	310.610	-0.080	0.152
-596.025	390.008	-0.082	0.172
-595.011	800.000	0.076	0.305
-593.996	-120.794	-0.100	0.017
-592.982	-125.364	-0.164	-0.026
-591.967	41.650	0.121	-0.112
-590.952	470.405	0.041	0.093
-589.938	151.932	-0.131	0.182
-588.923	158.887	0.172	0.243
-587.909	-28.945	0.120	0.070
-586.894	-41.965	0.193	-0.101
-585.879	-200.000	0.022	-0.225
-584.865	125.337	-0.181	0.232
-583.850	-91.772	0.044	-0.013
-582.836	41.557	-0.300	0.276
-581.821	-121.462	0.180	0.031
-580.806	-50.995	0.171	0.082
-579.792	800.000	0.080	0.248
-578.777	70.892	0.147	-0.155
-577.763	-200.000	0.013	0.068
-576.748	-200.000	0.030	-0.176
-575.733	777.850	-0.110	0.306
-574.719	-69.584	0.240	-0.093
-573.704	-173.342	-0.172	0.005
-572.690	121.973	0.117	0.149
-571.675	-200.000	-0.002	0.096
-570.661	-110.890	-0.212	-0.044
-569.646	-41.475	-0.185	-0.097
-568.631	92.935	0.065	-0.074
-567.617	649.949	0.118	-0.306
-566.602	-91.525	0.199	0.058
-565.588	-29.886	0.335	0.194
-564.573	-185.738	-0.409	0.006
-563.558	373.620	-0.170	-0.351
-562.544	800.000	0.038	0.151
-561.529	119.089	-0.151	0.189
-560.515	-40.731	0.280	0.148
-559.500	38.718	-0.123	0.112
-558.485	-2.789	0.166	0.118
-557.471	116.013	0.151	0.188
-556.456	-44.795	-0.253	0.128
-555.442	493.848	0.089	0.208
-554.427	19.140	0.116	0.094
-553.412	-114.247	-0.183	-0.036
-552.398	800.000	-0.107	0.365
-551.383	-200.000	0.027	-0.336
-550.369	38.632	-0.168	0.152
-549.354	-18.477	-0.234	0.148
-548.339	50.850	-0.064	0.062
-547.325	252.668	0.184	-0.319
-546.310	-154.784	-0.293	0.020
-545.296	-43.669	0.338	-0.173
-544.281	-124.304	-0.167	-0.027
-543.266	-110.247	-0.487	0.103
-542.252	214.713	-0.071	-0.114
-541.237	-20.839	-0.204	-0.127
-540.223	151.768	0.066	-0.091
-539.208	-72.188	0.048	0.018
-538.193	-55.140	0.131	0.060
-537.179	222.614	-0.093	0.152
-536.164	-18.940	-0.104	0.065
-535.150	618.459	-0.027	-0.069
-534.135	800.000	-0.061	-0.190
-533.121	29.985	0.159	0.138
-532.106	800.000	0.027	-0.107
-531.091	88.128	0.065	0.073
-530.077	395.984	-0.102	0.216
-529.062	164.507	0.128	0.183
-528.048	-23.957	0.161	0.098
-527.033	-200.000	0.020	-0.107
-526.018	46.967	0.166	0.157
-525.004	137.029	0.180	0.238
-523.989	800.000	0.108	0.409
-522.975	-85.536	0.241	0.076
-521.960	-200.000	0.019	-0.177
-520.945	-78.167	0.116	-0.040
-519.931	-77.205	-0.234	0.082
-518.916	-20.304	-0.190	-0.119
-517.902	-200.000	0.063	-0.387
-516.887	-108.778	0.208	0.045
-515.872	800.000	-0.085	0.243
-514.858	35.574	-0.283	0.252
-513.843	-59.224	0.307	-0.134
-512.829	-113.279	0.155	-0.031
-511.814	45.118	0.119	0.111
-510.799	-149.621	0.319	-0.026
-509.785	136.682	-0.075	0.100
-508.770	28.281	-0.266	-0.228
-507.756	-200.000	-0.016	0.146
-506.741	-200.000	-0.046	-0.378
-505.726	-151.029	-0.173	-0.013
-504.712	162.241	-0.147	-0.208
-503.697	-133.779	-0.170	-0.022
-502.683	-165.235	-0.178	0.008
-501.668	538.425	0.114	-0.274
-500.653	-200.000	0.047	-0.229
-499.639	-56.418	0.063	-0.028
-498.624	308.854	0.221	0.419
-497.610	679.700	0.023	0.060
-496.595	325.544	-0.072	0.140
-495.581	-200.000	0.010	-0.275
-494.566	381.942	0.104	-0.216
-493.551	298.880	-0.085	0.159
-492.537	-151.235	-0.121	0.009
-491.522	-200.000	0.008	-0.070
-490.508	-134.764	-0.118	0.014
-489.493	149.161	-0.070	-0.096
-488.478	800.000	-0.033	-0.112
-487.464	-200.000	0.034	0.176
-486.449	252.537	-0.076	-0.131
-485.435	364.236	0.095	-0.193
-484.420	-161.058	0.222	-0.012
-483.405	184.390	0.132	-0.199
-482.391	182.687	-0.031	-0.046
-481.376	-165.044	0.254	0.011
-480.362	-104.004	0.178	0.042
-479.347	9.218	-0.144	0.110
-478.332	759.915	-0.017	-0.047
-477.318	-8.481	-0.233	0.159
-476.303	82.325	0.264	0.290
-475.289	77.195	-0.071	-0.077
-474.274	-97.122	-0.097	0.026
-473.259	-27.249	-0.164	0.097
-472.245	800.000	0.037	0.151
-471.230	-200.000	0.045	-0.456
-470.216	-32.755	-0.378	-0.213
-469.201	800.000	-0.078	-0.289
-468.186	-49.500	0.181	-0.087
-467.172	15.443	0.072	0.057
-466.157	558.435	-0.074	0.181
-465.143	83.916	-0.107	-0.118
-464.128	-54.818	-0.235	0.107
-463.113	-200.000	0.004	0.121
-462.099	8.584	0.194	0.148
-461.084	-22.700	0.251	-0.154
-460.070	-200.000	-0.010	0.393
-459.055	-200.000	0.048	-0.503
-458.040	-22.122	0.104	-0.064
-457.026	-200.000	-0.020	-0.159
-456.011	800.000	0.026	0.090
-454.997	-144.862	-0.323	0.030
-453.982	-83.715	-0.489	-0.158
-452.968	-200.000	-0.019	-0.095
-451.953	-200.000	0.018	0.208
-450.938	-80.047	-0.112	-0.038
-449.924	71.303	0.242	-0.254
-448.909	-50.754	0.218	-0.104
-447.895	-39.859	-0.095	-0.050
-446.880	515.194	-0.077	0.182
-445.865	62.364	-0.067	0.068
-444.851	-101.269	-0.426	-0.105
-443.836	147.573	-0.175	-0.239
-442.822	-24.040	-0.098	0.059
-441.807	-200.000	0.061	-0.327
-440.792	-200.000	-0.035	-0.252
-439.778	-105.142	0.097	0.023
-438.763	800.000	0.164	0.507
-437.749	800.000	0.087	0.339
-436.734	-19.048	0.217	-0.137
-435.719	-117.880	0.167	0.030
-434.705	-94.322	-0.196	-0.054
-433.690	13.337	-0.231	-0.181
-432.676	-78.301	0.422	-0.147
-431.661	38.406	0.060	-0.054
-430.646	29.383	-0.152	0.130
-429.632	473.003	-0.064	-0.146
-428.617	-200.000	0.030	-0.253
-427.603	-136.265	-0.041	0.005
-426.588	800.000	0.030	-0.089
-425.573	9.312	0.144	-0.110
-424.559	-34.934	0.079	0.043
-423.544	-117.312	0.032	0.006
-422.530	-81.587	0.132	-0.044
-421.515	-25.464	-0.148	-0.089
-420.500	22.277	0.159	0.131
-419.486	-98.810	0.054	0.014
-418.471	111.396	0.155	0.189
-417.457	98.042	0.074	-0.087
-416.442	584.322	-0.065	0.161
-415.428	190.358	-0.217	-0.330
-414.413	225.829	-0.066	0.108
-413.398	86.936	0.018	0.020
-412.384	-200.000	-0.060	-0.333
-411.369	-70.580	-0.215	-0.082
-410.355	-94.687	0.068	-0.019
-409.340	-37.922	-0.208	0.112
-408.325	-190.473	0.109	0.001
-407.311	270.958	0.102	0.181
-406.296	-200.000	-0.055	0.276
-405.282	-200.000	0.003	0.114
-404.267	-140.277	-0.161	0.017
-403.252	-200.000	0.024	-0.118
-402.238	274.991	0.192	-0.344
-401.223	-102.885	0.274	-0.066
-400.209	205.378	0.052	0.081
-399.194	101.855	-0.349	-0.411
-398.179	46.547	0.172	-0.162
-397.165	164.705	-0.084	0.120
-396.150	155.613	0.137	0.191
-395.136	65.973	-0.175	-0.179
-394.121	-200.000	0.009	-0.071
-393.106	-90.516	-0.345	-0.101
-392.092	685.191	0.095	0.250
-391.077	-125.204	0.314	0.048
-390.063	124.767	0.102	0.129
-389.048	-200.000	0.028	0.359
-388.033	94.859	-0.274	0.315
-387.019	-78.650	-0.190	0.065
-386.004	701.320	-0.043	0.114
-384.990	42.450	0.155	0.142
-383.975	-47.587	-0.237	-0.116
-382.960	800.000	0.019	0.072
-381.946	-200.000	-0.005	-0.294
-380.931	-200.000	-0.019	0.117
-379.917	-84.770	-0.300	-0.095
-378.902	572.336	-0.082	0.202
-377.888	-200.000	0.024	0.315
-376.873	-200.000	-0.070	0.410
-375.858	-121.937	-0.130	0.022
-374.844	-200.000	0.019	0.462
-373.829	-52.586	-0.368	0.171
-372.815	167.807	0.188	0.270
-371.800	173.422	-0.108	0.157
-370.785	74.831	-0.178	-0.189
-369.771	-20.162	-0.281	0.174
-368.756	-200.000	0.036	-0.176
-367.742	-137.535	0.280	0.032
-366.727	107.275	0.139	0.167
-365.712	-34.152	0.229	0.127
-364.698	166.467	-0.186	0.265
-363.683	337.742	0.105	0.206
-362.669	399.727	-0.087	0.184
-361.654	51.368	-0.175	-0.167
-360.639	-76.602	0.289	-0.102
-359.625	-56.346	-0.076	0.034
-358.610	738.658	-0.064	0.173
-357.596	138.763	0.058	-0.077
-356.581	-149.654	0.436	0.035
-355.566	-122.258	-0.070	-0.012
-354.552	-111.732	0.273	0.056
-353.537	255.034	0.074	0.128
-352.523	800.000	0.033	-0.110
-351.508	-200.000	-0.021	0.293
-350.493	800.000	0.140	0.521
-349.479	-131.055	0.046	-0.006
-348.464	-57.454	0.142	-0.063
-347.450	48.331	-0.253	0.239
-346.435	-12.991	0.223	0.146
-345.420	-115.068	0.212	-0.040
-344.406	-200.000	-0.024	-0.310
-343.391	684.152	0.033	0.086
-342.377	-41.074	-0.269	-0.140
-341.362	-145.506	-0.487	-0.044
-340.348	91.983	-0.060	-0.068
-339.333	-22.262	-0.094	-0.058
-338.318	175.333	0.065	0.095
-337.304	-159.152	-0.138	0.008
-336.289	29.779	0.215	-0.184
-335.275	29.853	-0.101	0.086
-334.260	261.990	-0.126	0.221
-333.245	477.749	-0.041	0.092
-332.231	-46.411	0.283	-0.140
-331.216	-2.048	0.238	0.168
-330.202	800.000	-0.123	-0.345
-329.187	-200.000	-0.028	-0.144
-328.172	-99.663	0.124	-0.031
-327.158	800.000	0.145	-0.423
-326.143	61.345	-0.285	-0.285
-325.129	-80.361	0.144	-0.048
-324.114	133.629	0.169	0.220
-323.099	751.766	0.011	0.031
-322.085	-146.456	0.288	-0.025
-321.070	-52.694	0.193	-0.089
-320.056	-200.000	0.021	0.312
-319.041	800.000	-0.023	0.069
-318.026	-33.015	-0.081	0.045
-317.012	357.139	-0.095	0.191
-315.997	100.019	0.156	0.182
-314.983	-1.826	-0.044	0.031
-313.968	-126.724	-0.250	-0.037
-312.953	-134.427	-0.217	-0.027
-311.939	-47.038	0.060	0.029
-310.924	-200.000	-0.038	-0.171
-309.910	-71.016	-0.054	-0.021
-308.895	451.854	0.104	-0.232
-307.880	-200.000	-0.004	0.121
-306.866	150.627	0.096	-0.132
-305.851	-38.519	-0.220	0.117
-304.837	-200.000	-0.021	-0.160
-303.822	255.057	0.032	-0.054
-302.807	-154.729	-0.260	-0.017
-301.793	-111.400	0.153	-0.031
-300.778	239.792	0.076	-0.128
-299.764	9.561	-0.086	0.065
-298.749	-200.000	0.039	0.269
-297.735	58.176	-0.233	-0.229
-296.720	-61.109	0.254	0.108
-295.705	412.205	-0.167	-0.356
-294.691	-111.607	-0.190	-0.039
-293.676	-121.011	0.180	0.030
-292.662	-53.094	0.190	0.088
-291.647	-200.000	0.011	-0.200
-290.632	-200.000	-0.001	-0.039
-289.618	10.286	-0.191	-0.146
-288.603	18.718	0.267	-0.215
-287.589	-112.268	0.391	0.079
-286.574	-100.187	-0.347	-0.087
-285.559	726.572	-0.057	-0.154
-284.545	-200.000	-0.021	-0.249
-283.530	-200.000	0.026	-0.430
-282.516	-15.245	-0.210	-0.135
-281.501	-200.000	-0.038	0.332
-280.486	800.000	-0.054	-0.173
-279.472	-45.356	0.199	-0.099
-278.457	42.377	-0.038	-0.035
-277.443	387.564	-0.163	0.339
-276.428	97.923	0.177	0.204
-275.413	-11.649	-0.315	-0.208
-274.399	-138.504	-0.177	0.020
-273.384	-96.977	-0.128	0.034
-272.370	315.791	0.094	-0.177
-271.355	169.696	-0.085	0.122
-270.340	-200.000	0.011	-0.117
-269.326	-200.000	-0.035	-0.456
-268.311	800.000	0.076	0.304
-267.297	-17.096	-0.160	-0.101
-266.282	-200.000	-0.042	-0.297
-265.267	-200.000	-0.008	-0.304
-264.253	-23.609	-0.405	-0.244
-263.238	800.000	0.118	0.425
-262.224	-88.862	-0.154	0.046
-261.209	-107.549	-0.130	-0.029
-260.195	224.462	0.157	0.254
-259.180	244.783	-0.071	-0.120
-258.165	-66.031	0.247	0.099
-257.151	-100.918	0.271	-0.067
-256.136	-29.984	0.146	-0.083
-255.122	800.000	-0.045	0.126
-254.107	28.179	0.207	0.175
-253.092	-107.716	-0.184	-0.040
-252.078	-95.787	-0.170	0.046
-251.063	800.000	0.073	0.279
-250.049	-200.000	-0.040	-0.204
-249.034	32.383	-0.266	-0.230
-248.019	-49.617	0.432	-0.206
-247.005	-102.755	-0.207	0.050
-245.990	-200.000	0.022	0.218
-244.976	-61.331	0.421	0.178
-243.961	-19.171	-0.299	-0.186
-242.946	18.408	0.150	-0.120
-241.932	68.040	-0.242	-0.249
-240.917	235.529	-0.151	-0.250
-239.903	-200.000	-0.013	0.062
-238.888	-123.336	-0.230	-0.037
-237.873	-117.266	-0.191	0.035
-236.859	-200.000	-0.026	0.207
-235.844	448.204	0.036	-0.080
-234.830	537.086	-0.080	0.191
-233.815	538.918	-0.053	0.127
-232.800	-179.641	-0.281	-0.006
-231.786	-68.858	-0.072	-0.028
-230.771	-138.513	0.113	0.012
-229.757	-200.000	0.016	-0.323
-228.742	-86.153	-0.371	0.115
-227.727	765.268	0.087	0.237
-226.713	408.772	-0.080	-0.169
-225.698	7.992	0.025	0.019
-224.684	712.496	-0.050	0.133
-223.669	800.000	-0.045	0.137
-222.655	85.468	0.131	0.144
-221.640	-200.000	-0.003	0.201
-220.625	125.965	0.171	-0.217
-219.611	-52.768	-0.075	-0.035
-218.596	-200.000	-0.012	0.063
-217.582	43.738	-0.340	-0.312
-216.567	-200.000	-0.011	0.092
-215.552	61.068	0.192	-0.191
-214.538	-44.441	0.329	-0.165
-213.523	-200.000	0.003	0.081
-212.509	45.319	-0.273	-0.252
-211.494	-44.452	-0.183	0.092
-210.479	-200.000	0.017	-0.281
-209.465	157.762	0.098	-0.137
-208.450	-56.057	-0.131	0.059
-207.436	37.215	0.329	0.292
-206.421	-149.003	0.135	-0.011
-205.406	-200.000	0.012	-0.100
-204.392	-106.942	0.425	0.094
-203.377	-200.000	0.011	0.378
-202.363	-32.397	-0.131	-0.073
-201.348	-143.268	-0.103	-0.010
-200.333	-69.136	-0.103	-0.040
-199.319	-180.762	-0.044	0.001
-198.304	-187.155	-0.198	-0.003
-197.290	742.746	-0.104	-0.280
-196.275	60.410	-0.086	-0.085
-195.260	-103.311	0.063	0.015
-194.246	-34.213	0.301	0.166
-193.231	157.018	0.284	0.393
-192.217	-200.000	0.048	0.213
-191.202	235.241	0.123	-0.203
-190.187	-200.000	-0.019	0.094
-189.173	-12.706	0.174	-0.113
-188.158	-103.564	-0.106	-0.025
-187.144	28.902	0.204	-0.173
-186.129	-34.055	-0.056	-0.031
-185.114	632.601	0.132	-0.335
-184.100	-90.605	0.274	0.079
-183.085	184.603	0.191	-0.283
-182.071	679.151	-0.008	0.022
-181.056	800.000	-0.103	-0.414
-180.042	800.000	0.021	0.066
-179.027	95.529	0.169	-0.193
-178.012	74.097	0.140	-0.147
-176.998	-200.000	0.016	-0.279
-175.983	-200.000	0.046	-0.203
-174.969	800.000	0.043	0.133
-173.954	-86.594	-0.357	0.109
-172.939	800.000	0.036	0.131
-171.925	800.000	-0.101	0.342
-170.910	-2.354	-0.247	0.173
-169.896	800.000	-0.073	-0.242
-168.881	-95.127	-0.191	-0.051
-167.866	-24.643	0.313	-0.186
-166.852	-144.494	-0.114	-0.011
-165.837	-52.902	0.136	0.063
-164.823	-30.483	0.521	0.295
-163.808	-200.000	0.008	0.048
-162.793	-29.612	-0.201	-0.115
-161.779	45.601	0.069	-0.064
-160.764	-140.276	-0.170	-0.018
-159.750	-200.000	0.013	0.171
-158.735	-87.211	0.086	-0.026
-157.720	144.831	0.223	-0.298
-156.706	-113.525	-0.079	-0.015
-155.691	800.000	-0.040	-0.114
-154.677	-79.658	-0.164	0.055
-153.662	-200.000	-0.011	0.226
-152.647	-25.063	-0.018	-0.011
-151.633	800.000	0.122	-0.394
-150.618	800.000	0.026	0.082
-149.604	-114.026	0.246	0.048
-148.589	19.903	0.208	-0.167
-147.574	178.220	0.042	-0.062
-146.560	-69.766	-0.138	0.053
-145.545	8.875	-0.117	-0.088
-144.531	335.005	0.091	-0.177
-143.516	800.000	0.075	0.231
-142.502	800.000	-0.053	0.194
-141.487	-200.000	-0.011	0.197
-140.472	253.058	-0.095	0.161
-139.458	564.576	-0.087	0.211
-138.443	10.120	-0.237	-0.180
-137.429	-149.641	0.152	0.012
-136.414	-68.570	-0.285	0.111
-135.399	24.795	-0.022	-0.019
-134.385	-94.003	-0.175	0.048
-133.370	177.696	-0.065	-0.095
-132.356	-73.069	-0.160	0.059
-131.341	800.000	0.080	-0.236
-130.326	-29.566	0.127	-0.073
-129.312	-121.578	0.231	-0.038
-128.297	-8.733	-0.134	0.090
-127.283	-120.302	0.260	-0.044
-126.268	503.495	-0.043	0.098
-125.253	-200.000	0.015	-0.118
-124.239	800.000	-0.071	-0.250
-123.224	117.572	-0.098	0.120
-122.210	800.000	-0.095	0.386
