DTS Sentinel unit serial number:	SN413079Multiplexer serial number:	ORYXHardware model number:	OX4-SRSoftware version number:	ORYX F/W v4.00 Oryx Data Collector v3.7.2.0data status	okinstallation	princeton_trtdifferential loss correction	single-endedforward channel	channel 4reverse channel	N/Adate	2019/09/19time	14:57:35forward acquisition time	60.00reverse acquisition time	0.00gamma	496.2192k internal	0.2304k external	0.2304temperature offset calibration	1.0023default loss term (dB/km)	0.3790temperature slope calibration	1.0000multiplexer offset coefficient	1.0000multiplexer slope coefficient	1.0000fibre end	0.00T internal ref (°C)	33.05T ext. ref 1 (°C)	1.11T ext. ref 2 (°C)	30.01length (m)	temperature (°C)	Stokes	anti-Stokes-747.200	-75.201	0.089	0.032
-746.185	187.531	0.226	0.343
-745.171	143.124	-0.196	-0.266
-744.156	34.957	-0.204	-0.182
-743.142	-42.049	0.164	0.086
-742.127	-200.000	0.024	0.494
-741.112	-89.253	-0.189	0.057
-740.098	-77.825	-0.339	0.119
-739.083	-200.000	-0.001	-0.225
-738.069	-51.359	-0.244	0.116
-737.054	-154.677	-0.136	0.009
-736.039	243.239	-0.054	-0.093
-735.025	-200.000	0.058	-0.311
-734.010	307.975	-0.041	0.079
-732.996	-192.095	-0.349	0.003
-731.981	-85.605	-0.203	-0.064
-730.966	76.527	0.231	0.249
-729.952	4.473	0.062	-0.047
-728.937	-3.122	-0.326	0.232
-727.923	-93.656	-0.492	0.138
-726.908	-43.789	0.125	0.064
-725.894	-158.564	-0.263	0.015
-724.879	104.684	0.152	-0.182
-723.864	-200.000	0.001	-0.203
-722.850	-10.538	0.439	-0.296
-721.835	784.300	0.105	-0.294
-720.821	634.621	0.058	0.150
-719.806	-137.574	0.309	0.035
-718.791	800.000	0.055	-0.213
-717.777	-200.000	0.042	-0.192
-716.762	289.195	-0.035	0.064
-715.748	228.733	-0.096	0.159
-714.733	-200.000	-0.024	-0.143
-713.718	800.000	0.122	-0.434
-712.704	-109.340	-0.317	-0.068
-711.689	-146.986	0.208	0.018
-710.675	0.573	0.226	-0.164
-709.660	-17.106	0.069	0.044
-708.645	151.489	0.030	0.042
-707.631	-141.091	0.258	0.027
-706.616	620.316	-0.080	-0.204
-705.602	-200.000	0.034	-0.248
-704.587	-107.559	0.153	-0.034
-703.572	-55.871	-0.120	-0.054
-702.558	-19.670	0.122	-0.077
-701.543	-103.617	0.262	0.062
-700.529	507.782	0.056	0.132
-699.514	-66.161	-0.288	-0.117
-698.499	43.355	-0.279	-0.259
-697.485	-169.798	-0.220	0.008
-696.470	-200.000	0.032	0.151
-695.456	27.717	0.189	0.161
-694.441	520.714	0.072	-0.173
-693.426	800.000	-0.074	-0.225
-692.412	185.013	-0.121	-0.182
-691.397	800.000	0.160	-0.514
-690.383	50.689	-0.102	0.098
-689.368	-38.852	-0.201	0.108
-688.354	-41.586	0.087	-0.045
-687.339	-44.738	0.262	0.133
-686.324	139.322	0.115	-0.154
-685.310	239.040	-0.227	0.384
-684.295	-47.384	-0.224	0.111
-683.281	465.592	-0.093	-0.212
-682.266	-105.222	0.184	0.043
-681.251	-200.000	-0.005	0.402
-680.237	-20.939	-0.046	-0.029
-679.222	-129.500	0.106	0.015
-678.208	-27.115	0.133	-0.079
-677.193	163.676	-0.146	0.209
-676.178	-166.948	0.100	0.004
-675.164	-196.669	0.070	0.000
-674.149	-153.075	-0.293	0.021
-673.135	-130.895	0.227	0.031
-672.120	85.868	-0.115	0.129
-671.105	123.586	0.060	0.076
-670.091	800.000	-0.040	-0.164
-669.076	301.546	-0.024	-0.044
-668.062	-112.897	-0.361	-0.073
-667.047	-200.000	0.019	-0.139
-666.032	-39.654	0.200	0.106
-665.018	50.677	-0.215	0.207
-664.003	-0.949	-0.320	-0.230
-662.989	52.224	0.114	-0.110
-661.974	-53.092	-0.324	0.151
-660.959	25.479	0.106	-0.090
-659.945	163.791	0.047	0.068
-658.930	303.282	0.111	-0.210
-657.916	383.835	0.014	0.028
-656.901	-25.297	0.428	-0.257
-655.886	147.573	-0.176	0.240
-654.872	-200.000	0.010	0.223
-653.857	-200.000	-0.014	-0.156
-652.843	61.636	-0.126	0.128
-651.828	-200.000	-0.003	0.041
-650.814	51.900	-0.138	0.133
-649.799	-186.842	-0.304	0.004
-648.784	800.000	0.028	-0.096
-647.770	-160.402	-0.136	-0.007
-646.755	-200.000	-0.021	-0.412
-645.741	-200.000	0.000	-0.103
-644.726	800.000	-0.050	0.171
-643.711	432.947	0.057	0.125
-642.697	-200.000	-0.021	0.250
-641.682	298.430	0.118	0.220
-640.668	-26.831	0.255	0.151
-639.653	377.466	0.041	-0.085
-638.638	412.051	-0.165	0.356
-637.624	-125.518	-0.234	-0.036
-636.609	-145.816	-0.314	-0.028
-635.595	-177.089	0.152	0.004
-634.580	-200.000	-0.025	-0.391
-633.565	-65.646	0.294	-0.120
-632.551	800.000	0.113	-0.456
-631.536	-71.988	-0.144	0.054
-630.522	-104.763	-0.203	-0.047
-629.507	-200.000	0.020	0.272
-628.492	-200.000	0.025	0.176
-627.478	-28.618	0.093	0.054
-626.463	-169.129	-0.284	0.011
-625.449	62.347	-0.048	0.048
-624.434	61.473	-0.147	-0.149
-623.419	29.098	-0.061	-0.052
-622.405	800.000	0.021	0.088
-621.390	-31.071	-0.401	-0.229
-620.376	-200.000	-0.077	-0.461
-619.361	800.000	0.057	0.194
-618.346	501.495	0.097	-0.227
-617.332	-54.059	-0.096	-0.044
-616.317	-200.000	-0.011	-0.309
-615.303	800.000	0.087	-0.267
-614.288	597.342	-0.138	-0.347
-613.273	-186.785	0.387	0.005
-612.259	160.022	0.133	-0.188
-611.244	-200.000	-0.021	0.231
-610.230	-7.434	-0.036	-0.025
-609.215	-3.573	-0.127	-0.089
-608.201	152.838	0.128	0.178
-607.186	592.995	0.067	0.169
-606.171	-108.663	-0.246	-0.053
-605.157	482.314	0.185	-0.425
-604.142	775.431	-0.018	0.049
-603.128	-68.878	0.240	-0.094
-602.113	362.754	0.142	-0.289
-601.098	341.295	-0.282	-0.559
-600.084	-17.512	0.237	-0.151
-599.069	-200.000	0.000	-0.203
-598.055	800.000	-0.046	-0.187
-597.040	-200.000	-0.034	-0.264
-596.025	168.408	-0.171	-0.247
-595.011	250.592	0.009	0.015
-593.996	-27.725	-0.120	0.071
-592.982	800.000	-0.060	-0.233
-591.967	-135.266	-0.266	-0.032
-590.952	457.124	0.136	0.305
-589.938	-141.063	-0.116	-0.012
-588.923	-200.000	0.042	0.429
-587.909	-200.000	-0.011	0.215
-586.894	-20.982	-0.255	-0.158
-585.879	-92.108	0.102	0.029
-584.865	-200.000	0.027	0.121
-583.850	-8.324	-0.187	-0.128
-582.836	-13.339	-0.180	0.118
-581.821	-95.386	-0.166	-0.045
-580.806	-200.000	0.025	-0.403
-579.792	99.752	0.170	-0.200
-578.777	45.135	-0.165	0.154
-577.763	-200.000	0.054	0.337
-576.748	396.619	-0.027	0.057
-575.733	-180.542	-0.250	0.005
-574.719	-200.000	0.001	-0.249
-573.704	-189.813	-0.183	0.002
-572.690	38.264	-0.142	-0.128
-571.675	-7.085	-0.109	-0.075
-570.661	-61.263	-0.361	0.154
-569.646	756.145	0.023	0.064
-568.631	-55.661	0.266	-0.120
-567.617	800.000	-0.068	-0.194
-566.602	800.000	0.050	-0.142
-565.588	-148.387	-0.171	-0.014
-564.573	108.961	0.117	-0.142
-563.558	-155.571	-0.283	0.018
-562.544	-115.925	-0.211	-0.040
-561.529	800.000	-0.056	-0.209
-560.515	551.727	0.023	0.056
-559.500	-23.756	-0.087	0.053
-558.485	162.219	-0.093	-0.132
-557.471	-99.837	-0.223	-0.056
-556.456	-200.000	0.022	0.206
-555.442	8.040	0.219	-0.166
-554.427	10.931	0.202	0.156
-553.412	366.531	-0.036	-0.073
-552.398	-200.000	-0.009	-0.090
-551.383	800.000	0.100	0.394
-550.369	-99.079	-0.277	0.071
-549.354	-135.139	-0.108	0.013
-548.339	-23.806	0.159	-0.096
-547.325	-38.797	0.107	-0.057
-546.310	800.000	0.052	0.147
-545.296	110.016	0.143	-0.173
-544.281	-55.402	-0.277	-0.126
-543.266	-97.064	-0.132	-0.035
-542.252	-79.138	-0.055	-0.019
-541.237	91.712	-0.090	-0.103
-540.223	-200.000	-0.071	-0.373
-539.208	800.000	-0.096	0.345
-538.193	800.000	-0.075	-0.224
-537.179	692.998	0.116	0.308
-536.164	-45.137	-0.163	0.082
-535.150	167.169	0.120	0.172
-534.135	800.000	-0.120	0.374
-533.121	800.000	0.048	0.167
-532.106	396.589	0.148	-0.312
-531.091	-49.651	-0.188	0.090
-530.077	-112.318	-0.024	0.005
-529.062	-53.568	0.211	-0.098
-528.048	-200.000	-0.006	0.133
-527.033	-146.441	0.042	-0.004
-526.018	421.640	-0.030	0.065
-525.004	4.057	0.077	-0.057
-523.989	800.000	-0.102	0.399
-522.975	-31.201	0.294	-0.167
-521.960	-113.145	-0.189	0.038
-520.945	121.585	-0.063	0.079
-519.931	422.512	-0.116	0.251
-518.916	-127.291	-0.275	-0.040
-517.902	15.571	0.045	-0.036
-516.887	-99.422	-0.168	0.043
-515.872	-38.464	-0.171	0.091
-514.858	173.394	-0.307	-0.447
-513.843	-180.780	-0.159	-0.003
-512.829	-200.000	0.020	0.199
-511.814	-13.884	0.236	0.154
-510.799	800.000	-0.115	-0.402
-509.785	-200.000	0.003	0.109
-508.770	-200.000	-0.003	0.258
-507.756	-83.863	0.169	0.054
-506.741	296.061	0.183	0.339
-505.726	-139.281	-0.370	-0.040
-504.712	733.217	-0.033	0.088
-503.697	-60.827	0.390	0.167
-502.683	84.379	0.057	0.063
-501.668	-200.000	-0.014	0.163
-500.653	-200.000	-0.002	-0.031
-499.639	-82.829	0.219	0.071
-498.624	-200.000	-0.042	-0.255
-497.610	43.687	0.098	0.090
-496.595	-112.433	0.087	-0.017
-495.581	800.000	0.068	0.191
-494.566	109.003	-0.153	0.184
-493.551	176.684	-0.246	0.360
-492.537	-47.759	0.171	-0.083
-491.522	-21.877	-0.239	0.147
-490.508	170.525	0.082	-0.119
-489.493	-38.193	0.302	-0.162
-488.478	213.129	0.029	0.045
-487.464	683.544	-0.098	-0.259
-486.449	800.000	-0.048	-0.150
-485.435	21.366	-0.213	0.174
-484.420	800.000	-0.040	0.131
-483.405	-109.520	-0.115	0.024
-482.391	21.973	-0.198	0.163
-481.376	-106.338	-0.118	-0.027
-480.362	-116.890	-0.204	-0.038
-479.347	-56.357	-0.173	-0.078
-478.332	-179.754	0.162	-0.004
-477.318	-90.732	0.361	0.105
-476.303	-200.000	0.055	0.295
-475.289	800.000	0.085	-0.246
-474.274	-200.000	-0.008	0.294
-473.259	-19.560	0.345	-0.215
-472.245	13.730	-0.146	-0.114
-471.230	-200.000	-0.011	0.192
-470.216	176.496	-0.007	-0.011
-469.201	-48.284	-0.300	0.146
-468.186	253.533	0.197	-0.340
-467.172	-82.123	0.167	-0.055
-466.157	338.752	0.050	-0.098
-465.143	38.318	0.098	0.088
-464.128	-18.819	-0.047	-0.029
-463.113	800.000	0.119	-0.349
-462.099	-156.799	0.346	-0.021
-461.084	-42.177	-0.188	0.097
-460.070	-200.000	0.004	0.177
-459.055	83.949	-0.207	-0.227
-458.040	800.000	-0.026	-0.076
-457.026	747.664	0.081	-0.219
-456.011	-54.568	0.199	-0.091
-454.997	95.599	0.136	-0.156
-453.982	800.000	-0.085	-0.360
-452.968	278.806	0.098	0.177
-451.953	-154.460	-0.313	0.021
-450.938	-83.455	-0.252	0.081
-449.924	136.654	-0.105	0.137
-448.909	287.939	0.086	0.157
-447.895	-200.000	0.010	-0.251
-446.880	-200.000	-0.013	-0.214
-445.865	54.245	-0.074	0.072
-444.851	-200.000	0.019	0.199
-443.836	800.000	0.055	0.179
-442.822	179.284	-0.113	0.166
-441.807	-177.497	-0.161	-0.004
-440.792	-200.000	-0.027	-0.142
-439.778	-200.000	-0.011	0.127
-438.763	-18.318	0.293	-0.184
-437.749	343.666	0.120	0.237
-436.734	113.256	-0.095	0.116
-435.719	-200.000	0.031	0.160
-434.705	14.987	-0.113	-0.089
-433.690	800.000	0.073	-0.238
-432.676	63.633	-0.100	0.101
-431.661	-153.727	0.038	-0.003
-430.646	-200.000	-0.009	0.067
-429.632	108.308	-0.076	-0.092
-428.617	318.540	0.094	0.179
-427.603	609.731	-0.124	0.312
-426.588	-200.000	0.027	0.239
-425.573	185.800	0.151	0.225
-424.559	-200.000	0.025	0.186
-423.544	606.717	-0.041	-0.104
-422.530	-63.248	0.029	-0.012
-421.515	218.597	0.021	-0.034
-420.500	-72.810	0.144	-0.053
-419.486	-75.486	-0.141	0.050
-418.471	403.216	-0.212	-0.448
-417.457	632.629	-0.081	-0.207
-416.442	-200.000	0.044	0.255
-415.428	169.646	0.165	0.237
-414.413	-28.574	0.222	-0.129
-413.398	-200.000	0.030	-0.255
-412.384	-66.035	0.147	-0.059
-411.369	329.416	-0.181	-0.350
-410.355	96.196	-0.162	0.186
-409.340	606.028	-0.092	0.230
-408.325	91.965	0.046	0.053
-407.311	345.198	-0.123	-0.243
-406.296	-109.575	-0.375	0.080
-405.282	-127.107	-0.252	0.037
-404.267	-192.317	0.422	0.004
-403.252	-57.781	0.281	-0.124
-402.238	62.024	0.171	0.171
-401.223	-200.000	0.018	0.311
-400.209	73.028	0.128	-0.134
-399.194	315.209	0.099	-0.188
-398.179	746.144	0.014	0.038
-397.165	800.000	0.034	0.119
-396.150	-117.877	0.198	-0.036
-395.136	205.119	0.126	-0.197
-394.121	65.362	-0.045	0.045
-393.106	36.336	0.218	0.193
-392.092	-42.985	0.162	0.083
-391.077	-92.410	0.118	0.033
-390.063	-78.669	-0.040	-0.014
-389.048	129.525	-0.044	-0.056
-388.033	-54.298	0.131	0.060
-387.019	-200.000	0.036	0.331
-386.004	213.606	-0.048	0.076
-384.990	72.861	0.286	0.300
-383.975	80.727	-0.163	-0.177
-382.960	214.076	-0.094	-0.149
-381.946	17.459	-0.189	-0.151
-380.931	-73.711	0.299	-0.109
-379.917	-200.000	-0.029	0.156
-378.902	-200.000	-0.001	-0.177
-377.888	800.000	-0.054	-0.182
-376.873	-142.225	-0.279	0.028
-375.858	-200.000	-0.024	-0.147
-374.844	-200.000	-0.001	0.240
-373.829	14.928	0.156	-0.122
-372.815	-1.043	-0.190	0.135
-371.800	23.767	-0.220	0.182
-370.785	-14.382	0.141	0.091
-369.771	-200.000	-0.030	-0.289
-368.756	-165.803	-0.137	-0.006
-367.742	-115.859	-0.186	-0.035
-366.727	-200.000	-0.009	0.410
-365.712	-180.619	-0.309	-0.006
-364.698	-74.043	0.236	-0.086
-363.683	-200.000	-0.024	0.151
-362.669	800.000	0.034	0.106
-361.654	11.706	-0.092	-0.071
-360.639	216.710	0.164	0.262
-359.625	-21.112	-0.299	0.184
-358.610	512.132	-0.055	0.128
-357.596	171.557	-0.109	0.158
-356.581	-42.199	0.153	0.078
-355.566	800.000	-0.032	0.110
-354.552	-31.431	0.317	0.179
-353.537	90.015	0.092	-0.103
-352.523	800.000	-0.057	-0.182
-351.508	-200.000	-0.017	-0.152
-350.493	800.000	0.089	0.358
-349.479	-200.000	0.005	0.236
-348.464	2.128	0.234	-0.170
-347.450	-200.000	0.008	-0.125
-346.435	-135.115	-0.163	0.020
-345.420	-22.380	0.086	-0.053
-344.406	-178.636	0.220	0.005
-343.391	-200.000	-0.044	0.236
-342.377	136.394	0.031	-0.040
-341.362	175.743	0.155	0.226
-340.348	612.182	-0.046	0.116
-339.333	4.058	0.197	-0.144
-338.318	21.664	-0.093	0.076
-337.304	-200.000	0.009	0.188
-336.289	-13.594	0.063	-0.041
-335.275	147.352	-0.168	-0.227
-334.260	800.000	-0.021	-0.082
-333.245	108.906	-0.224	-0.269
-332.231	-81.696	0.152	-0.050
-331.216	112.207	-0.114	-0.138
-330.202	-124.738	-0.074	-0.012
-329.187	-200.000	-0.001	0.161
-328.172	-77.181	-0.079	0.027
-327.158	-200.000	-0.005	-0.191
-326.143	800.000	0.033	-0.105
-325.129	-42.834	0.230	0.117
-324.114	-26.573	0.154	0.090
-323.099	-13.068	-0.178	0.116
-322.085	125.533	-0.328	-0.414
-321.070	522.216	-0.117	-0.275
-320.056	175.913	0.093	-0.136
-319.041	214.131	-0.148	0.235
-318.026	-36.783	-0.233	0.125
-317.012	800.000	-0.070	0.203
-315.997	14.383	-0.123	-0.096
-314.983	-64.873	0.181	-0.073
-313.968	342.497	0.138	0.270
-312.953	118.147	0.325	-0.401
-311.939	-200.000	0.015	-0.106
-310.924	273.691	0.156	-0.277
-309.910	212.532	0.217	0.343
-308.895	200.215	0.105	0.161
-307.880	391.827	0.034	-0.070
-306.866	-99.420	0.379	-0.096
-305.851	557.497	0.075	0.181
-304.837	-20.809	0.114	0.070
-303.822	800.000	0.020	0.073
-302.807	-189.618	0.309	0.004
-301.793	648.778	0.032	-0.082
-300.778	34.145	-0.028	-0.024
-299.764	800.000	0.072	0.278
-298.749	547.827	0.134	0.321
-297.735	61.696	-0.100	0.100
-296.720	-59.926	0.247	-0.105
-295.705	-200.000	-0.055	0.255
-294.691	-11.224	0.067	-0.044
-293.676	-127.174	-0.147	0.022
-292.662	-53.329	0.287	0.132
-291.647	800.000	-0.148	0.518
-290.632	-37.799	0.230	-0.122
-289.618	-82.561	0.165	0.053
-288.603	-200.000	0.017	0.120
-287.589	3.763	-0.131	0.096
-286.574	233.472	0.061	-0.100
-285.559	107.694	0.198	-0.235
-284.545	800.000	0.140	0.449
-283.530	-93.111	0.155	-0.043
-282.516	-200.000	0.036	-0.195
-281.501	-34.710	-0.292	0.160
-280.486	189.782	0.097	0.146
-279.472	798.393	-0.035	-0.097
-278.457	-178.401	0.318	0.007
-277.443	42.429	0.280	0.255
-276.428	469.424	0.148	0.332
-275.413	316.804	0.107	-0.202
-274.399	800.000	0.037	-0.118
-273.384	450.102	-0.198	-0.437
-272.370	67.878	0.027	0.028
-271.355	-83.455	-0.273	-0.087
-270.340	-200.000	-0.015	-0.085
-269.326	-105.150	0.224	0.051
-268.311	-62.513	-0.042	-0.018
-267.297	743.690	-0.098	-0.264
-266.282	-57.661	-0.049	0.022
-265.267	153.856	0.213	0.292
-264.253	53.664	-0.030	-0.028
-263.238	-67.399	-0.187	-0.074
-262.224	-200.000	-0.000	-0.055
-261.209	163.505	-0.102	-0.144
-260.195	800.000	-0.135	0.404
-259.180	-53.010	-0.142	-0.065
-258.165	48.784	-0.055	0.051
-257.151	566.571	-0.052	0.127
-256.136	-65.436	0.061	0.024
-255.122	-137.081	0.140	-0.016
-254.107	-109.792	-0.233	-0.049
-253.092	789.289	-0.031	0.084
-252.078	26.544	0.212	0.177
-251.063	-57.352	-0.055	0.024
-250.049	-200.000	-0.078	-0.493
-249.034	-123.968	0.492	-0.077
-248.019	800.000	0.075	-0.227
-247.005	-200.000	0.036	-0.241
-245.990	-85.635	-0.187	0.058
-244.976	57.517	0.056	0.054
-243.961	108.866	0.122	-0.145
-242.946	140.853	0.251	0.331
-241.932	-29.045	0.188	-0.108
-240.917	-116.179	-0.203	0.038
-239.903	191.567	-0.139	0.209
-238.888	199.556	0.056	-0.086
-237.873	382.126	0.139	0.284
-236.859	78.900	0.080	0.085
-235.844	-91.228	0.099	-0.028
-234.830	-17.667	-0.332	0.208
-233.815	-200.000	0.019	-0.184
-232.800	12.745	-0.100	-0.077
-231.786	800.000	-0.065	-0.266
-230.771	-5.776	-0.017	-0.012
-229.757	25.784	0.178	-0.148
-228.742	140.070	-0.110	0.144
-227.727	-200.000	0.039	0.248
-226.713	86.175	-0.270	0.297
-225.698	-27.108	0.249	0.145
-224.684	-44.723	-0.200	-0.100
-223.669	-118.157	0.278	0.050
-222.655	47.160	0.269	0.250
-221.640	-141.133	-0.438	-0.045
-220.625	-31.456	-0.230	0.129
-219.611	-171.836	0.327	0.011
-218.596	800.000	-0.080	-0.262
-217.582	182.244	-0.193	-0.284
-216.567	-200.000	0.005	-0.141
-215.552	-200.000	-0.022	0.114
-214.538	12.241	-0.147	-0.113
-213.523	98.911	0.218	0.251
-212.509	58.913	-0.081	0.079
-211.494	-200.000	-0.005	-0.259
-210.479	-83.678	0.006	-0.002
-209.465	564.055	0.023	0.056
-208.450	245.980	0.158	-0.265
-207.436	538.554	-0.030	-0.072
-206.421	800.000	-0.061	0.256
-205.406	-37.163	0.153	-0.081
-204.392	-85.559	0.198	-0.062
-203.377	-170.271	-0.253	-0.009
-202.363	800.000	-0.069	0.229
-201.348	-5.335	-0.107	-0.074
-200.333	6.727	0.270	0.200
-199.319	194.100	-0.119	-0.179
-198.304	-69.977	0.164	0.062
-197.290	339.015	-0.088	0.170
-196.275	78.105	0.304	0.323
-195.260	-155.912	-0.330	0.021
-194.246	-75.517	0.121	-0.043
-193.231	-4.665	-0.102	0.070
-192.217	44.185	0.165	-0.151
-191.202	57.657	-0.157	0.153
-190.187	-86.762	0.275	-0.084
-189.173	800.000	-0.089	-0.245
-188.158	800.000	0.064	0.218
-187.144	-90.208	-0.113	-0.033
-186.129	19.618	0.156	-0.125
-185.114	-62.554	-0.413	0.171
-184.100	-42.577	-0.067	0.034
-183.085	37.422	0.257	0.227
-182.071	-200.000	0.021	-0.305
-181.056	-65.538	-0.104	0.042
-180.042	-134.259	0.218	0.027
-179.027	-25.542	0.207	0.122
-178.012	-200.000	-0.023	-0.288
-176.998	514.529	-0.095	-0.221
-175.983	32.239	0.178	-0.153
-174.969	-106.446	-0.153	-0.034
-173.954	-88.688	0.309	-0.091
-172.939	-81.779	-0.144	0.047
-171.925	-47.167	-0.190	-0.092
-170.910	-200.000	0.079	-0.378
-169.896	-63.954	-0.212	-0.086
-168.881	800.000	0.056	-0.167
-167.866	4.215	0.101	0.074
-166.852	-200.000	-0.048	-0.363
-165.837	-77.719	-0.089	0.031
-164.823	-0.833	0.107	-0.075
-163.808	800.000	0.097	-0.333
-162.793	338.774	0.096	-0.187
-161.779	187.969	-0.050	0.074
-160.764	7.201	-0.081	0.060
-159.750	-50.466	0.326	0.153
-158.735	-200.000	0.074	0.428
-157.720	-56.278	0.289	-0.128
-156.706	95.515	-0.139	0.158
-155.691	-200.000	-0.034	-0.152
-154.677	13.224	0.307	0.237
-153.662	-48.513	-0.302	0.145
-152.647	96.124	-0.168	-0.191
-151.633	269.774	-0.114	-0.199
-150.618	-117.037	0.310	0.056
-149.604	-73.359	0.124	0.045
-148.589	800.000	-0.010	0.038
-147.574	-186.147	-0.390	0.006
-146.560	194.899	-0.086	-0.130
-145.545	76.699	0.171	0.181
-144.531	-200.000	-0.000	-0.109
-143.516	286.278	0.011	-0.019
-142.502	-97.448	0.081	-0.021
-141.487	172.880	0.120	0.171
-140.472	-97.077	-0.199	-0.052
-139.458	3.894	-0.157	0.114
-138.443	91.319	0.150	0.167
-137.429	-200.000	0.049	-0.354
-136.414	-144.685	-0.390	0.036
-135.399	364.187	-0.187	-0.373
-134.385	-71.875	0.194	0.072
-133.370	-87.216	-0.189	-0.057
-132.356	246.950	-0.209	-0.351
-131.341	152.052	0.143	-0.194
-130.326	-51.769	-0.475	-0.220
-129.312	-76.317	-0.181	-0.063
-128.297	703.901	0.049	-0.129
-127.283	135.107	0.199	0.257
-126.268	-171.082	-0.145	-0.005
-125.253	-121.916	-0.109	-0.018
-124.239	-192.814	-0.246	-0.002
-123.224	-61.910	0.349	-0.145
-122.210	447.447	-0.058	-0.126
-121.195	-125.657	-0.182	0.027
