DTS Sentinel unit serial number:	SN413079Multiplexer serial number:	ORYXHardware model number:	OX4-SRSoftware version number:	ORYX F/W v4.00 Oryx Data Collector v3.7.2.0data status	okinstallation	princeton_trtdifferential loss correction	single-endedforward channel	channel 4reverse channel	N/Adate	2019/09/19time	12:37:34forward acquisition time	60.00reverse acquisition time	0.00gamma	496.2192k internal	0.2319k external	0.2319temperature offset calibration	1.0017default loss term (dB/km)	0.3790temperature slope calibration	1.0000multiplexer offset coefficient	1.0000multiplexer slope coefficient	1.0000fibre end	0.00T internal ref (°C)	27.41T ext. ref 1 (°C)	0.89T ext. ref 2 (°C)	25.22length (m)	temperature (°C)	Stokes	anti-Stokes-747.200	208.011	0.051	-0.081
-746.185	556.652	0.043	0.105
-745.171	-18.485	0.186	-0.118
-744.156	500.438	-0.147	0.343
-743.142	49.695	0.102	0.097
-742.127	-200.000	0.033	-0.175
-741.112	193.341	-0.166	-0.254
-740.098	-68.518	-0.180	0.071
-739.083	-200.000	0.003	-0.069
-738.069	800.000	0.121	0.360
-737.054	800.000	-0.198	-0.563
-736.039	-23.374	-0.256	-0.155
-735.025	-200.000	0.018	-0.133
-734.010	27.385	-0.285	-0.242
-732.996	-184.423	0.297	-0.005
-731.981	-109.869	0.134	0.028
-730.966	-133.193	-0.295	0.038
-729.952	149.376	-0.166	-0.228
-728.937	81.199	0.154	0.169
-727.923	-40.354	-0.175	-0.092
-726.908	-4.288	-0.168	-0.117
-725.894	390.568	0.068	-0.142
-724.879	-2.334	-0.211	0.150
-723.864	209.486	0.111	-0.176
-722.850	-12.579	0.251	-0.166
-721.835	675.536	-0.137	-0.359
-720.821	182.931	0.115	-0.171
-719.806	391.287	-0.213	-0.446
-718.791	-41.412	-0.443	-0.230
-717.777	-86.130	-0.149	-0.047
-716.762	800.000	0.038	0.115
-715.748	-87.352	0.121	0.037
-714.733	99.327	0.320	-0.374
-713.718	-165.668	0.321	-0.014
-712.704	307.234	0.066	0.125
-711.689	-200.000	-0.086	-0.501
-710.675	-25.007	0.176	-0.105
-709.660	-65.138	0.122	0.050
-708.645	248.515	-0.046	0.078
-707.631	-16.011	0.177	0.114
-706.616	-40.307	0.178	-0.093
-705.602	99.418	-0.189	0.221
-704.587	800.000	-0.080	-0.289
-703.572	-6.900	0.082	-0.056
-702.558	55.915	0.154	0.151
-701.543	800.000	-0.067	-0.186
-700.529	800.000	0.014	-0.046
-699.514	-97.275	0.223	-0.059
-698.499	-200.000	0.009	-0.113
-697.485	25.410	-0.007	-0.006
-696.470	-52.310	-0.073	-0.034
-695.456	800.000	-0.054	0.200
-694.441	20.222	-0.011	0.009
-693.426	102.921	0.098	0.116
-692.412	-112.118	-0.102	-0.021
-691.397	106.954	0.142	0.170
-690.383	61.427	-0.049	-0.049
-689.368	-164.675	0.050	0.002
-688.354	-200.000	-0.025	-0.256
-687.339	800.000	0.084	-0.313
-686.324	-200.000	0.038	-0.184
-685.310	8.912	-0.111	-0.084
-684.295	323.043	0.026	0.050
-683.281	87.825	0.137	-0.153
-682.266	-92.642	-0.389	0.110
-681.251	-158.202	0.336	-0.020
-680.237	-67.462	-0.302	-0.120
-679.222	16.605	0.418	-0.334
-678.208	-200.000	0.069	-0.404
-677.193	645.436	0.109	0.282
-676.178	542.607	-0.022	-0.053
-675.164	-30.518	0.186	-0.106
-674.149	-82.144	-0.316	-0.104
-673.135	236.767	-0.104	-0.174
-672.120	-73.108	0.259	0.096
-671.105	665.305	-0.060	-0.155
-670.091	-127.592	0.205	-0.030
-669.076	43.868	0.151	0.140
-668.062	-78.500	-0.256	0.089
-667.047	800.000	0.052	-0.159
-666.032	-21.903	0.355	-0.218
-665.018	-6.700	0.236	-0.162
-664.003	-200.000	-0.013	0.417
-662.989	-110.356	-0.133	0.028
-661.974	800.000	0.103	-0.335
-660.959	-200.000	0.038	-0.182
-659.945	-43.293	-0.067	0.034
-658.930	-98.132	0.271	0.070
-657.916	-200.000	0.071	-0.552
-656.901	38.629	0.380	-0.342
-655.886	178.948	-0.112	0.165
-654.872	-119.452	-0.351	-0.061
-653.857	-102.497	0.114	0.028
-652.843	228.789	0.170	0.279
-651.828	-86.666	-0.294	0.091
-650.814	-48.274	-0.403	-0.196
-649.799	46.610	0.297	-0.278
-648.784	-49.181	0.059	0.028
-647.770	4.990	-0.228	-0.169
-646.755	-36.954	-0.220	-0.119
-645.741	-23.244	-0.088	0.053
-644.726	-122.754	-0.160	-0.026
-643.711	800.000	0.161	-0.549
-642.697	147.931	0.055	-0.074
-641.682	800.000	0.122	-0.498
-640.668	-200.000	0.101	-0.458
-639.653	79.431	-0.177	0.191
-638.638	395.656	0.036	0.076
-637.624	800.000	-0.012	-0.049
-636.609	-166.269	0.320	-0.014
-635.595	-30.244	0.100	0.057
-634.580	62.954	-0.206	0.208
-633.565	-173.835	0.149	-0.004
-632.551	-52.825	0.394	0.183
-631.536	-147.503	-0.145	0.012
-630.522	231.655	0.080	-0.133
-629.507	362.684	-0.111	0.224
-628.492	-152.608	0.139	-0.010
-627.478	800.000	0.034	-0.108
-626.463	-7.576	-0.118	-0.080
-625.449	-17.765	0.242	0.153
-624.434	-172.226	0.209	-0.007
-623.419	-200.000	0.030	0.449
-622.405	-200.000	-0.050	0.334
-621.390	97.269	-0.121	0.140
-620.376	-64.040	-0.177	0.073
-619.361	51.570	0.093	-0.089
-618.346	-200.000	-0.012	0.131
-617.332	800.000	-0.100	-0.287
-616.317	53.330	0.137	-0.132
-615.303	-122.186	-0.157	0.026
-614.288	800.000	0.073	-0.279
-613.273	-12.577	-0.212	0.139
-612.259	-188.248	0.353	0.005
-611.244	388.624	-0.088	-0.183
-610.230	-75.530	-0.058	-0.021
-609.215	145.435	0.243	-0.327
-608.201	-113.304	-0.379	-0.075
-607.186	-91.094	0.065	0.019
-606.171	-177.914	-0.273	0.007
-605.157	-77.122	-0.226	-0.079
-604.142	-113.072	0.285	0.057
-603.128	81.019	-0.280	-0.304
-602.113	-141.425	0.168	0.017
-601.098	17.427	-0.342	-0.274
-600.084	96.946	-0.144	0.166
-599.069	159.040	-0.039	-0.054
-598.055	-50.807	0.056	0.027
-597.040	800.000	0.104	-0.334
-596.025	307.907	-0.157	0.295
-595.011	-87.597	-0.139	0.042
-593.996	325.953	-0.058	0.111
-592.982	-54.842	0.246	-0.112
-591.967	-63.188	-0.125	-0.052
-590.952	85.907	-0.087	-0.096
-589.938	6.553	-0.283	0.211
-588.923	148.293	-0.130	-0.177
-587.909	-29.170	0.266	0.153
-586.894	-50.118	-0.366	-0.174
-585.879	-68.469	0.269	0.105
-584.865	119.848	0.204	0.254
-583.850	800.000	0.046	0.181
-582.836	-132.876	-0.286	0.037
-581.821	-113.144	-0.193	0.038
-580.806	-200.000	0.012	-0.830
-579.792	292.817	0.048	-0.087
-578.777	-72.075	0.125	-0.047
-577.763	154.811	-0.069	0.095
-576.748	-112.590	-0.271	-0.054
-575.733	106.040	-0.271	-0.323
-574.719	-106.754	-0.186	-0.042
-573.704	-200.000	0.046	-0.379
-572.690	-32.872	-0.285	0.159
-571.675	-112.361	-0.137	0.027
-570.661	-200.000	0.028	0.140
-569.646	118.415	0.023	-0.029
-568.631	-200.000	-0.016	-0.133
-567.617	-200.000	-0.070	-0.344
-566.602	-82.792	-0.251	-0.082
-565.588	-200.000	-0.016	-0.122
-564.573	-16.228	-0.225	-0.143
-563.558	18.359	0.045	-0.036
-562.544	691.954	0.159	0.417
-561.529	6.504	0.162	0.121
-560.515	-82.381	0.109	-0.036
-559.500	293.506	0.042	-0.078
-558.485	-68.560	0.121	-0.047
-557.471	-31.973	0.266	-0.149
-556.456	-131.455	-0.473	0.063
-555.442	-12.901	0.149	0.098
-554.427	2.666	0.202	-0.147
-553.412	308.900	-0.137	-0.257
-552.398	96.224	0.064	-0.073
-551.383	21.518	0.197	-0.161
-550.369	-95.684	-0.462	0.124
-549.354	8.651	-0.043	0.032
-548.339	-119.073	0.222	0.039
-547.325	361.590	0.070	0.141
-546.310	180.512	-0.117	0.173
-545.296	5.802	-0.312	-0.232
-544.281	-70.736	-0.027	-0.010
-543.266	-200.000	0.036	-0.180
-542.252	800.000	0.009	0.040
-541.237	-113.499	-0.124	-0.024
-540.223	-116.554	0.299	-0.055
-539.208	52.654	0.203	-0.195
-538.193	284.426	-0.097	0.176
-537.179	92.437	0.149	-0.169
-536.164	-200.000	0.046	0.217
-535.150	-127.726	0.290	0.042
-534.135	79.533	0.304	0.327
-533.121	681.654	-0.121	0.317
-532.106	36.711	-0.082	-0.073
-531.091	322.049	0.047	-0.090
-530.077	-102.540	0.303	0.073
-529.062	-142.985	-0.158	-0.015
-528.048	-200.000	0.013	0.104
-527.033	22.255	-0.232	0.190
-526.018	348.875	-0.118	0.234
-525.004	-105.723	-0.127	0.029
-523.989	328.348	0.043	-0.082
-522.975	-142.335	0.229	-0.023
-521.960	-200.000	-0.027	0.452
-520.945	-81.979	0.278	-0.091
-519.931	-40.071	-0.233	0.122
-518.916	-200.000	-0.052	-0.240
-517.902	37.565	-0.105	-0.093
-516.887	-200.000	-0.033	-0.224
-515.872	-200.000	0.007	0.317
-514.858	149.160	-0.136	0.184
-513.843	-26.882	0.164	-0.096
-512.829	31.601	-0.221	0.191
-511.814	-93.579	0.099	-0.027
-510.799	-121.779	0.043	0.007
-509.785	40.519	0.260	0.235
-508.770	-38.677	-0.166	0.088
-507.756	-169.335	-0.193	0.007
-506.741	-76.509	0.342	0.121
-505.726	444.770	0.029	-0.063
-504.712	177.282	-0.222	-0.325
-503.697	133.341	-0.137	0.178
-502.683	-23.138	-0.395	0.238
-501.668	-142.227	-0.203	0.020
-500.653	-25.217	-0.228	-0.136
-499.639	-164.597	-0.222	-0.010
-498.624	-114.425	0.573	-0.110
-497.610	-41.770	-0.242	0.125
-496.595	-200.000	0.013	0.217
-495.581	800.000	-0.024	0.069
-494.566	-104.874	0.383	0.088
-493.551	800.000	0.049	0.157
-492.537	-200.000	0.008	-0.227
-491.522	97.907	-0.194	0.224
-490.508	-90.931	-0.086	0.025
-489.493	530.336	-0.047	0.111
-488.478	-117.780	-0.382	-0.069
-487.464	47.303	-0.245	0.228
-486.449	-200.000	-0.103	0.001
-485.435	-2.715	0.342	-0.240
-484.420	-148.608	0.216	-0.018
-483.405	38.080	-0.046	0.041
-482.391	800.000	-0.100	0.310
-481.376	-40.237	0.087	-0.046
-480.362	800.000	0.036	-0.153
-479.347	800.000	0.107	-0.467
-478.332	-57.252	-0.125	0.055
-477.318	-200.000	0.005	-0.094
-476.303	220.922	-0.200	-0.322
-475.289	-37.106	0.316	0.169
-474.274	800.000	0.036	0.101
-473.259	96.698	0.198	-0.227
-472.245	782.335	0.109	0.298
-471.230	-200.000	0.038	0.179
-470.216	204.398	-0.094	-0.145
-469.201	27.284	-0.173	0.146
-468.186	28.151	-0.040	0.033
-467.172	221.459	-0.064	-0.103
-466.157	-200.000	-0.020	0.239
-465.143	800.000	0.121	0.364
-464.128	-34.546	-0.111	-0.061
-463.113	800.000	0.031	0.123
-462.099	463.321	-0.041	0.091
-461.084	-39.148	0.149	-0.078
-460.070	-35.978	0.162	0.088
-459.055	800.000	-0.021	0.083
-458.040	69.257	-0.131	0.135
-457.026	13.310	-0.316	0.245
-456.011	-200.000	0.028	0.256
-454.997	166.759	0.059	-0.083
-453.982	-200.000	0.013	-0.065
-452.968	-200.000	0.000	0.016
-451.953	-93.274	0.153	0.042
-450.938	-42.100	0.113	0.058
-449.924	-200.000	0.015	0.092
-448.909	-25.255	0.201	-0.119
-447.895	87.313	0.227	0.251
-446.880	180.600	-0.127	-0.187
-445.865	-72.504	-0.098	0.036
-444.851	365.198	0.040	-0.080
-443.836	-49.000	-0.063	0.030
-442.822	-9.424	0.106	0.071
-441.807	-104.029	-0.092	0.021
-440.792	182.974	-0.124	0.183
-439.778	-191.755	0.325	-0.003
-438.763	800.000	-0.102	0.310
-437.749	640.419	0.146	0.371
-436.734	800.000	0.087	0.332
-435.719	-98.964	0.321	0.081
-434.705	211.563	0.144	-0.227
-433.690	800.000	-0.115	0.388
-432.676	-36.895	0.195	0.105
-431.661	162.545	-0.165	-0.231
-430.646	525.818	0.032	-0.076
-429.632	-200.000	-0.067	-0.391
-428.617	800.000	-0.035	0.130
-427.603	-200.000	-0.044	0.199
-426.588	139.768	0.161	-0.212
-425.573	60.771	0.337	-0.333
-424.559	-60.306	-0.062	0.027
-423.544	168.973	0.313	0.445
-422.530	-200.000	0.022	0.099
-421.515	-118.062	0.208	-0.037
-420.500	-70.908	0.199	0.075
-419.486	-200.000	0.012	0.107
-418.471	565.935	0.115	0.279
-417.457	214.688	0.130	0.205
-416.442	-26.016	0.176	0.103
-415.428	87.596	-0.221	-0.245
-414.413	-62.779	0.056	-0.023
-413.398	-200.000	0.039	-0.368
-412.384	194.973	0.109	0.166
-411.369	-76.642	0.190	-0.066
-410.355	161.915	0.116	-0.162
-409.340	47.511	0.064	0.060
-408.325	118.236	-0.081	0.100
-407.311	800.000	0.091	-0.300
-406.296	291.736	0.031	0.057
-405.282	168.414	0.351	0.499
-404.267	174.480	-0.123	0.177
-403.252	102.402	-0.351	0.409
-402.238	800.000	-0.110	0.411
-401.223	-154.163	0.139	0.009
-400.209	800.000	-0.049	-0.183
-399.194	-50.050	-0.059	-0.028
-398.179	17.088	0.157	0.124
-397.165	284.676	-0.079	0.142
-396.150	-68.566	0.096	-0.037
-395.136	88.164	-0.116	0.128
-394.121	-200.000	-0.065	0.395
-393.106	446.517	-0.024	-0.052
-392.092	83.008	0.290	-0.315
-391.077	-47.756	0.331	-0.160
-390.063	-200.000	0.012	-0.121
-389.048	251.692	0.071	0.120
-388.033	-129.224	-0.196	0.027
-387.019	12.505	-0.193	0.149
-386.004	-200.000	-0.001	-0.058
-384.990	235.392	0.045	0.075
-383.975	-148.560	-0.131	0.011
-382.960	-200.000	0.023	-0.122
-381.946	89.318	0.134	0.149
-380.931	-14.421	0.301	0.193
-379.917	120.382	0.127	0.158
-378.902	-159.038	0.330	-0.019
-377.888	705.688	-0.114	0.301
-376.873	-200.000	0.016	-0.419
-375.858	-119.814	0.436	-0.075
-374.844	-46.049	-0.281	-0.138
-373.829	-177.574	0.232	-0.006
-372.815	-45.252	-0.366	0.181
-371.800	800.000	0.061	0.181
-370.785	72.354	-0.118	-0.122
-369.771	800.000	-0.094	-0.350
-368.756	-151.581	-0.213	-0.016
-367.742	800.000	-0.077	0.284
-366.727	800.000	0.016	0.057
-365.712	89.684	-0.302	0.336
-364.698	565.459	-0.095	0.229
-363.683	-21.449	0.331	-0.201
-362.669	-18.100	-0.251	-0.157
-361.654	-200.000	-0.007	0.205
-360.639	151.104	-0.101	-0.137
-359.625	404.207	0.074	0.156
-358.610	74.802	0.153	-0.160
-357.596	800.000	-0.095	0.314
-356.581	163.617	-0.004	0.005
-355.566	800.000	0.090	-0.300
-354.552	-12.259	-0.120	0.078
-353.537	82.250	0.206	0.222
-352.523	800.000	0.125	-0.422
-351.508	51.324	-0.235	-0.222
-350.493	12.690	0.124	-0.095
-349.479	289.299	0.128	0.232
-348.464	800.000	-0.114	-0.345
-347.450	81.090	0.037	0.040
-346.435	-180.598	0.251	-0.005
-345.420	118.661	-0.235	-0.289
-344.406	-13.936	0.241	-0.155
-343.391	-200.000	0.014	-0.115
-342.377	32.293	-0.057	-0.049
-341.362	-200.000	-0.018	-0.291
-340.348	-98.259	0.380	0.097
-339.333	146.966	-0.075	0.101
-338.318	-163.435	0.318	-0.015
-337.304	-128.562	0.303	0.043
-336.289	800.000	-0.093	0.365
-335.275	-200.000	0.033	-0.154
-334.260	-30.667	-0.156	-0.088
-333.245	190.000	0.194	0.290
-332.231	800.000	0.083	0.246
-331.216	178.077	-0.081	0.118
-330.202	-41.159	-0.187	-0.096
-329.187	-134.365	0.189	0.023
-328.172	261.693	-0.152	0.263
-327.158	168.336	-0.117	-0.165
-326.143	-200.000	-0.001	0.120
-325.129	800.000	0.025	0.077
-324.114	178.890	0.194	-0.282
-323.099	84.842	-0.150	0.163
-322.085	-200.000	0.001	0.281
-321.070	-113.294	-0.139	-0.027
-320.056	56.731	0.207	0.201
-319.041	192.572	-0.060	-0.090
-318.026	303.717	0.028	0.051
-317.012	-200.000	0.037	0.193
-315.997	-116.534	0.429	0.079
-314.983	-182.087	0.126	0.002
-313.968	258.585	0.087	0.149
-312.953	567.682	0.012	0.030
-311.939	-29.593	0.054	-0.031
-310.924	41.423	0.108	-0.098
-309.910	-85.436	0.156	0.048
-308.895	374.822	-0.105	-0.212
-307.880	525.044	-0.069	0.161
-306.866	-22.413	-0.142	0.086
-305.851	482.344	-0.086	-0.194
-304.837	-110.006	-0.056	-0.012
-303.822	-200.000	-0.008	-0.156
-302.807	-124.241	-0.033	0.005
-301.793	94.386	-0.034	0.038
-300.778	125.285	-0.147	-0.185
-299.764	-200.000	-0.026	-0.135
-298.749	218.640	0.046	-0.073
-297.735	-200.000	-0.009	-0.251
-296.720	-200.000	-0.029	-0.149
-295.705	-200.000	-0.028	0.148
-294.691	6.792	-0.082	-0.061
-293.676	147.421	-0.313	0.419
-292.662	-200.000	-0.192	0.001
-291.647	-20.462	0.087	0.053
-290.632	-11.461	-0.059	-0.039
-289.618	-133.738	0.156	-0.019
-288.603	100.887	0.154	-0.178
-287.589	800.000	0.066	0.190
-286.574	-97.055	0.044	-0.011
-285.559	-117.766	0.053	-0.009
-284.545	141.706	-0.183	-0.241
-283.530	-31.451	0.107	0.060
-282.516	-113.722	0.188	-0.036
-281.501	-105.336	-0.367	0.083
-280.486	-13.230	-0.277	-0.178
-279.472	29.905	-0.092	0.078
-278.457	-39.426	-0.325	-0.169
-277.443	67.303	0.327	0.331
-276.428	66.555	-0.197	-0.199
-275.413	164.627	0.193	-0.270
-274.399	60.351	-0.085	0.083
-273.384	-146.520	-0.133	-0.012
-272.370	-136.989	-0.389	0.044
-271.355	-98.328	-0.326	0.083
-270.340	91.642	0.102	0.113
-269.326	301.908	-0.034	0.062
-268.311	800.000	0.145	0.408
-267.297	-192.886	0.188	0.002
-266.282	-63.307	-0.318	-0.130
-265.267	154.620	-0.151	-0.206
-264.253	143.161	0.129	-0.170
-263.238	334.098	-0.089	-0.170
-262.224	-160.333	-0.061	0.003
-261.209	800.000	0.083	0.350
-260.195	800.000	0.094	0.364
-259.180	-102.053	-0.208	-0.050
-258.165	-84.495	-0.217	-0.068
-257.151	-84.320	-0.336	0.106
-256.136	-39.986	-0.118	-0.061
-255.122	751.486	0.062	0.165
-254.107	-99.800	-0.229	0.057
-253.092	-98.416	0.112	-0.028
-252.078	309.291	0.178	-0.330
-251.063	-143.825	0.330	0.031
-250.049	614.236	0.117	0.291
-249.034	11.248	-0.099	0.075
-248.019	388.719	0.131	0.268
-247.005	-96.079	-0.391	0.103
-245.990	312.184	0.074	0.137
-244.976	299.519	-0.108	0.197
-243.961	676.431	-0.073	-0.188
-242.946	-93.925	0.270	0.074
-241.932	-92.921	-0.152	0.042
-240.917	219.194	-0.042	0.067
-239.903	692.980	-0.090	-0.235
-238.888	-3.567	0.351	-0.242
-237.873	-177.421	-0.164	0.004
-236.859	12.359	-0.157	-0.120
-235.844	-73.152	0.284	-0.103
-234.830	131.205	0.146	-0.185
-233.815	-174.304	0.238	-0.007
-232.800	-200.000	0.031	-0.264
-231.786	72.276	0.188	0.195
-230.771	-30.458	-0.364	0.205
-229.757	-93.010	-0.131	-0.036
-228.742	-66.371	-0.294	0.116
-227.727	-200.000	-0.029	0.156
-226.713	13.929	0.070	0.054
-225.698	-200.000	-0.008	-0.127
-224.684	-200.000	0.069	-0.311
-223.669	-200.000	-0.017	-0.145
-222.655	21.836	-0.100	-0.081
-221.640	33.908	0.095	0.082
-220.625	-81.693	0.243	0.079
-219.611	800.000	-0.012	0.035
-218.596	433.580	-0.073	0.157
-217.582	241.101	0.148	-0.245
-216.567	-200.000	0.035	0.249
-215.552	110.119	0.267	0.318
-214.538	800.000	-0.066	0.249
-213.523	-200.000	0.008	-0.077
-212.509	126.762	0.110	-0.138
-211.494	-90.813	0.289	-0.082
-210.479	371.979	-0.064	-0.129
-209.465	-14.279	0.261	-0.167
-208.450	-58.772	0.066	-0.028
-207.436	-18.932	-0.150	0.092
-206.421	557.141	-0.093	0.221
-205.406	261.530	-0.141	0.242
-204.392	749.953	0.097	-0.258
-203.377	308.982	-0.085	-0.157
-202.363	-200.000	-0.005	0.179
-201.348	54.997	0.011	0.011
-200.333	-200.000	-0.023	-0.218
-199.319	800.000	0.060	0.246
-198.304	47.868	-0.135	-0.124
-197.290	419.312	0.053	-0.113
-196.275	-88.265	0.159	0.047
-195.260	137.799	-0.075	0.097
-194.246	21.140	-0.131	0.105
-193.231	488.576	0.145	-0.328
-192.217	38.584	-0.115	0.101
-191.202	52.962	0.205	-0.194
-190.187	67.054	-0.235	-0.237
-189.173	-46.249	-0.044	0.022
-188.158	546.297	0.032	-0.075
-187.144	190.287	-0.073	-0.109
-186.129	-72.633	-0.061	-0.022
-185.114	-93.671	0.220	0.060
-184.100	76.990	-0.185	-0.195
-183.085	-88.275	-0.113	0.033
-182.071	90.442	0.222	0.246
-181.056	461.304	0.138	-0.304
-180.042	-9.715	-0.117	-0.077
-179.027	-98.619	-0.135	0.034
-178.012	262.727	0.174	0.298
-176.998	-200.000	-0.009	-0.071
-175.983	278.425	-0.135	-0.238
-174.969	-12.753	0.152	-0.098
-173.954	-200.000	0.011	-0.058
-172.939	-108.987	-0.264	-0.056
-171.925	47.500	-0.064	0.059
-170.910	210.675	0.199	-0.310
-169.896	-200.000	-0.001	0.027
-168.881	35.994	0.145	-0.126
-167.866	-200.000	-0.052	-0.322
-166.852	-200.000	0.021	0.204
-165.837	286.330	-0.272	-0.486
-164.823	-170.461	0.219	0.008
-163.808	-200.000	-0.019	-0.395
-162.793	-58.153	-0.175	0.075
-161.779	120.135	-0.156	-0.192
-160.764	106.844	-0.133	-0.156
-159.750	-200.000	-0.057	0.257
-158.735	53.355	-0.133	-0.126
-157.720	-39.758	-0.240	-0.124
-156.706	-48.422	0.342	-0.163
-155.691	126.104	-0.198	-0.248
-154.677	-57.683	-0.100	-0.043
-153.662	710.997	-0.148	-0.387
-152.647	28.593	0.337	-0.282
-151.633	-172.102	-0.341	0.011
-150.618	800.000	0.035	-0.097
-149.604	-200.000	0.038	-0.465
-148.589	-200.000	0.016	0.178
-147.574	28.282	0.126	0.106
-146.560	108.444	0.377	0.445
-145.545	-30.318	-0.322	0.181
-144.531	-2.845	-0.057	-0.039
-143.516	316.916	-0.109	0.203
-142.502	-16.718	-0.164	0.103
-141.487	-50.911	-0.186	-0.086
-140.472	-111.035	-0.142	-0.029
-139.458	121.326	0.071	0.087
-138.443	800.000	-0.109	-0.331
-137.429	379.785	-0.207	-0.420
-136.414	-155.821	-0.273	-0.017
-135.399	116.233	-0.062	-0.075
-134.385	191.538	0.082	0.123
-133.370	-67.745	-0.437	-0.169
-132.356	-200.000	0.008	-0.088
-131.341	119.009	-0.058	0.071
-130.326	-142.082	0.012	0.001
-129.312	-11.038	-0.127	0.083
-128.297	-53.942	0.260	-0.117
-127.283	-200.000	0.019	0.252
-126.268	-200.000	0.072	-0.338
-125.253	-7.529	-0.272	0.182
-124.239	-198.028	-0.356	-0.002
-123.224	-104.196	0.170	0.039
-122.210	-153.751	-0.263	0.018
-121.195	-200.000	0.011	0.213
