DTS Sentinel unit serial number:	SN413079Multiplexer serial number:	ORYXHardware model number:	OX4-SRSoftware version number:	ORYX F/W v4.00 Oryx Data Collector v3.7.2.0data status	okinstallation	princeton_trtdifferential loss correction	single-endedforward channel	channel 4reverse channel	N/Adate	2019/09/13time	05:57:35forward acquisition time	60.00reverse acquisition time	0.00gamma	496.2192k internal	0.2323k external	0.2323temperature offset calibration	1.0197default loss term (dB/km)	0.3790temperature slope calibration	1.0000multiplexer offset coefficient	1.0000multiplexer slope coefficient	1.0000fibre end	0.00T internal ref (°C)	26.14T ext. ref 1 (°C)	4.07T ext. ref 2 (°C)	20.99length (m)	temperature (°C)	Stokes	anti-Stokes-747.200	651.594	-0.008	-0.020
-746.185	-162.284	0.134	-0.007
-745.171	-27.717	-0.301	-0.176
-744.156	87.394	-0.216	0.241
-743.142	403.218	0.036	-0.076
-742.127	-119.919	0.337	0.058
-741.112	-200.000	-0.030	-0.140
-740.098	-200.000	-0.020	0.321
-739.083	293.558	-0.174	0.320
-738.069	-200.000	-0.030	-0.140
-737.054	800.000	-0.032	0.136
-736.039	-106.561	-0.301	-0.068
-735.025	435.244	-0.089	0.195
-734.010	-112.670	0.070	-0.014
-732.996	-123.355	-0.345	-0.056
-731.981	90.111	-0.134	-0.152
-730.966	800.000	-0.060	-0.196
-729.952	23.870	-0.223	0.185
-728.937	86.997	-0.055	-0.061
-727.923	-33.574	-0.211	0.118
-726.908	-26.160	0.195	0.115
-725.894	34.215	-0.398	-0.350
-724.879	413.894	-0.085	-0.182
-723.864	444.283	0.086	-0.191
-722.850	800.000	-0.087	-0.258
-721.835	-200.000	-0.030	-0.178
-720.821	800.000	-0.061	-0.226
-719.806	-51.747	-0.352	-0.165
-718.791	-87.409	-0.335	0.102
-717.777	-151.386	0.420	0.032
-716.762	-19.437	-0.224	-0.140
-715.748	-200.000	0.019	0.123
-714.733	-43.730	-0.115	0.059
-713.718	-200.000	0.031	-0.192
-712.704	-41.201	-0.266	-0.139
-711.689	-79.955	0.037	0.013
-710.675	-117.859	0.222	0.040
-709.660	531.273	0.070	-0.166
-708.645	-89.851	-0.406	0.120
-707.631	-153.171	0.548	-0.039
-706.616	11.252	-0.282	-0.217
-705.602	233.481	0.124	-0.206
-704.587	68.629	-0.087	0.090
-703.572	195.565	-0.043	0.066
-702.558	-200.000	0.008	0.174
-701.543	-74.716	0.150	-0.054
-700.529	-46.862	-0.222	-0.109
-699.514	305.715	0.071	0.133
-698.499	216.878	-0.093	-0.150
-697.485	233.280	-0.037	-0.061
-696.470	753.448	0.036	-0.098
-695.456	-200.000	-0.019	-0.241
-694.441	-77.271	-0.095	-0.033
-693.426	-123.034	-0.228	0.037
-692.412	143.562	0.119	-0.159
-691.397	-54.232	0.149	-0.068
-690.383	-51.807	-0.375	-0.176
-689.368	-98.713	0.097	-0.025
-688.354	-138.978	0.245	0.027
-687.339	755.848	0.050	-0.137
-686.324	800.000	-0.074	-0.216
-685.310	-21.040	0.400	-0.247
-684.295	-40.270	0.127	-0.066
-683.281	-63.728	0.054	0.022
-682.266	800.000	-0.050	0.177
-681.251	-146.612	-0.164	0.014
-680.237	503.820	-0.098	-0.229
-679.222	483.302	-0.063	-0.144
-678.208	-200.000	0.021	0.316
-677.193	382.142	-0.060	0.125
-676.178	35.250	-0.083	-0.073
-675.164	-51.873	0.307	-0.144
-674.149	-102.356	-0.254	0.061
-673.135	-97.393	0.207	0.054
-672.120	-122.861	-0.148	0.024
-671.105	-200.000	0.025	-0.465
-670.091	-200.000	-0.005	-0.249
-669.076	-150.874	-0.147	0.011
-668.062	800.000	-0.112	-0.396
-667.047	-200.000	0.010	-0.076
-666.032	9.602	-0.199	-0.152
-665.018	-200.000	-0.010	0.187
-664.003	-166.131	0.328	0.014
-662.989	-54.926	-0.117	0.053
-661.974	81.581	-0.209	0.228
-660.959	-73.360	-0.167	0.061
-659.945	-128.913	0.318	0.045
-658.930	-73.092	-0.296	-0.109
-657.916	-73.784	-0.215	0.079
-656.901	88.244	0.135	-0.151
-655.886	-200.000	-0.034	0.191
-654.872	800.000	0.055	0.165
-653.857	232.687	0.063	-0.105
-652.843	-200.000	0.022	-0.467
-651.828	800.000	-0.068	-0.247
-650.814	-200.000	-0.043	-0.338
-649.799	255.067	-0.061	-0.105
-648.784	-200.000	-0.012	-0.128
-647.770	-140.648	-0.351	-0.037
-646.755	45.966	-0.139	-0.129
-645.741	-200.000	0.014	-0.078
-644.726	651.339	0.019	0.050
-643.711	-84.301	-0.350	-0.112
-642.697	800.000	0.034	0.112
-641.682	-200.000	0.022	-0.175
-640.668	-109.330	0.212	-0.045
-639.653	241.598	-0.134	-0.225
-638.638	-200.000	0.003	-0.046
-637.624	50.216	0.107	0.102
-636.609	201.335	-0.107	0.166
-635.595	800.000	0.025	0.088
-634.580	-29.743	-0.133	0.076
-633.565	145.538	0.212	-0.285
-632.551	800.000	-0.031	-0.127
-631.536	652.371	0.097	-0.251
-630.522	-200.000	-0.011	-0.084
-629.507	-73.190	-0.245	0.090
-628.492	-77.795	0.167	-0.058
-627.478	-200.000	0.005	-0.155
-626.463	-200.000	0.026	0.179
-625.449	413.020	-0.066	-0.141
-624.434	448.641	0.140	-0.310
-623.419	16.356	-0.165	0.131
-622.405	41.864	0.145	-0.132
-621.390	-26.025	0.444	-0.262
-620.376	-133.238	0.236	0.030
-619.361	-182.448	0.124	-0.002
-618.346	-56.364	-0.227	-0.101
-617.332	-41.372	0.077	0.040
-616.317	-126.239	0.188	0.028
-615.303	89.858	0.107	-0.120
-614.288	-187.664	0.096	0.001
-613.273	-82.490	0.248	0.081
-612.259	-200.000	0.020	-0.117
-611.244	743.131	0.133	-0.360
-610.230	318.430	-0.165	-0.315
-609.215	341.014	-0.078	-0.152
-608.201	247.828	-0.151	-0.256
-607.186	577.772	0.073	-0.179
-606.171	237.998	0.144	-0.241
-605.157	307.217	0.119	-0.222
-604.142	-29.733	0.296	-0.170
-603.128	-42.381	-0.196	-0.100
-602.113	69.275	0.123	-0.128
-601.098	-119.339	-0.346	0.060
-600.084	748.965	0.012	-0.033
-599.069	340.311	-0.033	0.064
-598.055	-29.928	-0.163	0.093
-597.040	254.628	0.046	-0.079
-596.025	-40.550	-0.071	0.037
-595.011	-200.000	0.011	-0.100
-593.996	17.857	0.082	-0.066
-592.982	85.766	-0.055	-0.060
-591.967	-106.469	0.068	-0.015
-590.952	796.534	0.018	-0.049
-589.938	-200.000	-0.017	-0.260
-588.923	800.000	0.017	0.067
-587.909	125.612	-0.113	-0.143
-586.894	-200.000	0.017	0.322
-585.879	49.595	-0.153	-0.145
-584.865	20.725	0.034	-0.028
-583.850	189.997	-0.090	-0.135
-582.836	-200.000	0.028	0.218
-581.821	-157.766	0.163	0.010
-580.806	-74.377	-0.300	0.109
-579.792	-52.879	-0.231	-0.107
-578.777	-200.000	0.004	-0.157
-577.763	800.000	0.034	-0.120
-576.748	800.000	-0.023	0.067
-575.733	-97.571	-0.333	0.087
-574.719	800.000	-0.025	-0.086
-573.704	-31.772	-0.112	-0.063
-572.690	187.501	0.141	-0.211
-571.675	626.584	0.052	-0.132
-570.661	800.000	-0.102	-0.424
-569.646	223.693	0.106	-0.172
-568.631	-40.262	0.256	-0.133
-567.617	222.671	0.091	-0.148
-566.602	-92.193	-0.227	0.064
-565.588	-84.828	-0.069	0.022
-564.573	-200.000	-0.063	-0.338
-563.558	145.227	0.050	-0.067
-562.544	-200.000	0.017	-0.158
-561.529	800.000	-0.042	-0.158
-560.515	526.835	0.076	-0.181
-559.500	800.000	0.037	-0.153
-558.485	-17.566	0.133	0.084
-557.471	112.115	-0.062	-0.075
-556.456	-191.851	-0.370	-0.004
-555.442	362.106	0.022	-0.044
-554.427	121.381	0.261	0.326
-553.412	-88.983	0.130	-0.038
-552.398	800.000	-0.116	-0.355
-551.383	-63.518	-0.346	-0.143
-550.369	-61.513	-0.141	0.059
-549.354	571.618	-0.144	-0.352
-548.339	39.968	0.115	0.103
-547.325	70.637	-0.053	-0.055
-546.310	139.418	-0.099	-0.131
-545.296	-6.400	-0.258	-0.176
-544.281	-200.000	0.030	0.151
-543.266	-134.317	-0.397	0.049
-542.252	-200.000	0.008	0.231
-541.237	-200.000	-0.171	0.000
-540.223	-200.000	-0.011	0.323
-539.208	31.611	-0.357	0.308
-538.193	127.147	0.223	-0.284
-537.179	400.773	0.158	-0.333
-536.164	-134.810	0.253	0.031
-535.150	86.981	0.204	-0.226
-534.135	510.417	-0.027	0.063
-533.121	-9.151	0.344	0.231
-532.106	-28.105	0.315	0.182
-531.091	38.114	-0.135	0.121
-530.077	-200.000	-0.008	0.151
-529.062	-200.000	0.005	-0.059
-528.048	103.623	0.158	0.185
-527.033	315.703	-0.063	-0.118
-526.018	400.852	-0.219	-0.460
-525.004	-193.295	0.344	-0.003
-523.989	-24.281	-0.165	-0.099
-522.975	800.000	-0.063	0.181
-521.960	410.670	0.158	-0.335
-520.945	-13.593	-0.187	0.121
-519.931	800.000	0.028	-0.084
-518.916	-101.734	0.246	0.060
-517.902	-54.644	0.374	0.169
-516.887	-85.306	-0.501	-0.157
-515.872	-135.176	0.136	0.016
-514.858	-103.033	-0.098	-0.023
-513.843	80.098	-0.121	0.130
-512.829	94.760	-0.034	-0.038
-511.814	616.869	-0.167	-0.418
-510.799	-114.862	0.061	-0.012
-509.785	102.480	0.145	0.170
-508.770	9.740	0.208	0.158
-507.756	47.394	0.147	0.137
-506.741	-200.000	0.085	-0.447
-505.726	-112.523	0.014	-0.003
-504.712	-200.000	0.012	-0.164
-503.697	27.706	-0.231	-0.195
-502.683	-20.257	-0.012	-0.007
-501.668	107.811	-0.185	-0.221
-500.653	16.283	0.140	0.111
-499.639	-200.000	-0.281	0.001
-498.624	522.259	-0.076	-0.179
-497.610	61.764	0.192	0.191
-496.595	-10.439	-0.242	-0.160
-495.581	500.499	0.043	-0.100
-494.566	-105.627	-0.142	0.032
-493.551	495.640	-0.033	0.077
-492.537	116.932	0.056	0.069
-491.522	-200.000	-0.001	0.013
-490.508	183.308	-0.025	-0.037
-489.493	-7.728	0.235	0.159
-488.478	2.428	-0.052	-0.038
-487.464	229.031	0.065	-0.106
-486.449	-89.800	0.330	0.097
-485.435	-109.459	-0.315	-0.067
-484.420	-90.784	0.149	0.043
-483.405	-171.327	-0.166	-0.006
-482.391	150.873	-0.252	-0.343
-481.376	-20.328	-0.142	0.087
-480.362	71.966	0.237	-0.246
-479.347	800.000	-0.057	-0.185
-478.332	150.544	0.087	0.118
-477.318	10.456	-0.471	-0.358
-476.303	-163.318	-0.467	0.022
-475.289	18.264	0.145	0.116
-474.274	10.867	-0.229	-0.175
-473.259	-200.000	0.009	-0.050
-472.245	-5.825	0.225	0.154
-471.230	800.000	0.073	0.220
-470.216	-200.000	-0.048	-0.345
-469.201	107.184	-0.107	-0.127
-468.186	-132.247	-0.222	0.029
-467.172	-37.143	0.144	-0.077
-466.157	-64.398	0.391	0.159
-465.143	78.184	-0.286	-0.305
-464.128	365.885	-0.151	0.303
-463.113	-170.544	-0.156	0.005
-462.099	246.608	0.121	0.204
-461.084	-50.550	0.191	0.090
-460.070	-200.000	0.013	0.396
-459.055	699.812	-0.066	-0.173
-458.040	-200.000	-0.077	0.393
-457.026	-2.151	-0.197	0.138
-456.011	-200.000	0.042	0.219
-454.997	-11.273	0.216	0.142
-453.982	310.747	0.053	-0.099
-452.968	-123.131	0.278	0.045
-451.953	11.977	0.135	0.104
-450.938	-99.256	-0.153	0.038
-449.924	-58.187	0.077	0.033
-448.909	119.360	0.282	0.348
-447.895	-200.000	0.012	0.138
-446.880	800.000	0.100	-0.307
-445.865	60.594	-0.151	0.150
-444.851	-200.000	-0.072	0.398
-443.836	-83.925	0.408	-0.129
-442.822	8.628	0.208	0.156
-441.807	275.820	-0.190	0.336
-440.792	199.160	-0.021	-0.033
-439.778	-152.312	-0.127	0.009
-438.763	-120.934	0.218	-0.037
-437.749	-200.000	-0.032	0.277
-436.734	-33.643	0.362	-0.199
-435.719	97.078	0.037	0.042
-434.705	-132.489	0.341	-0.044
-433.690	-140.173	0.417	0.044
-432.676	43.784	-0.143	-0.131
-431.661	-128.928	-0.096	0.013
-430.646	258.306	0.033	0.057
-429.632	-30.786	0.277	0.156
-428.617	-200.000	0.056	0.305
-427.603	-200.000	0.119	0.557
-426.588	-50.914	0.332	-0.155
-425.573	-91.631	-0.223	-0.063
-424.559	-33.678	0.110	0.060
-423.544	-111.411	-0.229	0.047
-422.530	800.000	-0.065	0.208
-421.515	-8.432	-0.227	-0.152
-420.500	349.763	-0.146	-0.289
-419.486	800.000	0.045	-0.147
-418.471	-117.926	-0.102	0.018
-417.457	76.616	0.185	-0.196
-416.442	800.000	-0.072	0.242
-415.428	-200.000	0.041	0.231
-414.413	-200.000	0.018	0.258
-413.398	46.550	-0.033	0.030
-412.384	-13.345	0.082	-0.053
-411.369	-28.983	0.276	0.158
-410.355	72.662	-0.187	0.194
-409.340	-200.000	-0.035	-0.207
-408.325	160.575	0.065	-0.090
-407.311	108.732	0.067	0.080
-406.296	-158.767	0.155	-0.009
-405.282	1.056	0.091	-0.065
-404.267	-126.336	-0.223	0.033
-403.252	459.123	0.119	-0.263
-402.238	-78.839	-0.143	0.049
-401.223	800.000	0.041	0.143
-400.209	88.588	0.233	0.258
-399.194	23.024	0.270	-0.220
-398.179	800.000	0.080	0.249
-397.165	-104.452	0.301	0.069
-396.150	-90.276	-0.167	-0.048
-395.136	-140.760	0.201	0.021
-394.121	521.888	0.072	0.169
-393.106	100.493	-0.170	0.197
-392.092	135.788	-0.136	-0.176
-391.077	-200.000	0.020	0.096
-390.063	506.807	0.019	-0.043
-389.048	24.735	0.264	0.218
-388.033	-68.000	0.321	0.125
-387.019	-157.260	-0.075	0.005
-386.004	800.000	0.040	-0.115
-384.990	91.891	0.032	0.036
-383.975	-200.000	-0.040	-0.217
-382.960	-69.128	-0.220	-0.084
-381.946	-200.000	0.014	0.354
-380.931	800.000	0.048	0.182
-379.917	-69.669	0.152	-0.058
-378.902	-0.409	-0.066	-0.046
-377.888	-129.752	-0.152	0.021
-376.873	800.000	0.158	0.540
-375.858	-200.000	-0.009	0.110
-374.844	206.095	-0.043	0.066
-373.829	-33.304	0.332	-0.183
-372.815	40.518	-0.073	-0.065
-371.800	-88.342	0.252	-0.075
-370.785	0.187	-0.118	0.084
-369.771	190.941	-0.061	0.092
-368.756	-106.788	-0.192	-0.042
-367.742	-200.000	0.007	-0.169
-366.727	800.000	-0.057	-0.240
-365.712	60.387	0.129	-0.127
-364.698	-200.000	0.010	-0.340
-363.683	730.762	-0.081	0.214
-362.669	-200.000	0.164	-0.001
-361.654	-97.354	-0.133	0.034
-360.639	394.817	-0.030	-0.063
-359.625	72.679	0.202	0.210
-358.610	-91.108	-0.135	0.039
-357.596	199.355	-0.130	-0.198
-356.581	-200.000	0.000	-0.070
-355.566	-200.000	0.015	-0.114
-354.552	298.913	-0.080	0.147
-353.537	-200.000	-0.003	-0.098
-352.523	-45.028	0.198	0.098
-351.508	-29.666	0.325	-0.185
-350.493	127.508	-0.332	-0.419
-349.479	-200.000	-0.008	0.110
-348.464	-200.000	-0.375	0.001
-347.450	-6.605	0.195	-0.132
-346.435	-11.389	0.140	0.092
-345.420	95.380	0.242	0.274
-344.406	145.840	0.122	0.162
-343.391	132.431	0.132	-0.169
-342.377	240.712	-0.146	0.242
-341.362	68.387	0.029	0.030
-340.348	-200.000	0.000	-0.065
-339.333	-200.000	0.008	0.065
-338.318	800.000	-0.055	0.162
-337.304	133.632	-0.095	0.122
-336.289	99.530	0.213	0.245
-335.275	460.145	-0.130	-0.288
-334.260	134.535	0.166	-0.214
-333.245	800.000	0.025	0.073
-332.231	127.852	-0.149	-0.188
-331.216	-7.199	-0.022	-0.015
-330.202	252.482	-0.103	-0.175
-329.187	-200.000	0.002	0.112
-328.172	-200.000	0.004	0.108
-327.158	-200.000	0.025	0.225
-326.143	-200.000	0.020	0.162
-325.129	-10.937	-0.258	0.169
-324.114	12.480	-0.199	0.153
-323.099	-21.274	0.189	0.115
-322.085	73.733	-0.084	-0.088
-321.070	-200.000	-0.029	0.166
-320.056	285.082	0.142	0.254
-319.041	-12.865	-0.210	0.136
-318.026	169.132	-0.122	0.174
-317.012	79.959	0.156	0.166
-315.997	-21.726	-0.443	-0.268
-314.983	-107.419	-0.037	-0.008
-313.968	-200.000	-0.008	0.079
-312.953	-87.746	0.174	0.052
-311.939	-200.000	-0.016	0.069
-310.924	60.965	-0.307	0.302
-309.910	464.931	0.135	0.300
-308.895	61.379	-0.178	0.176
-307.880	37.476	-0.182	-0.160
-306.866	-200.000	0.012	-0.067
-305.851	109.699	0.078	-0.092
-304.837	800.000	0.064	0.271
-303.822	800.000	-0.078	-0.245
-302.807	-140.313	-0.169	-0.018
-301.793	583.648	0.066	0.160
-300.778	-200.000	0.019	-0.114
-299.764	-105.347	0.229	0.052
-298.749	187.903	-0.247	-0.366
-297.735	140.956	-0.050	0.065
-296.720	44.400	0.184	-0.168
-295.705	267.024	0.174	-0.302
-294.691	-200.000	0.030	0.146
-293.676	93.163	-0.065	-0.073
-292.662	-2.261	-0.308	0.214
-291.647	-68.225	-0.266	0.103
-290.632	52.443	0.104	0.098
-289.618	228.373	0.037	0.061
-288.603	198.517	-0.243	-0.368
-287.589	-111.052	-0.140	-0.029
-286.574	-51.955	0.150	0.069
-285.559	-179.486	0.296	-0.006
-284.545	-32.944	-0.166	-0.092
-283.530	800.000	0.048	0.174
-282.516	-200.000	0.022	-0.103
-281.501	84.320	-0.309	0.335
-280.486	-200.000	-0.053	0.348
-279.472	-42.344	-0.140	-0.071
-278.457	99.313	0.278	-0.319
-277.443	-80.399	0.211	-0.070
-276.428	252.816	0.167	-0.282
-275.413	-200.000	-0.013	0.081
-274.399	39.772	0.229	0.203
-273.384	-156.143	0.480	0.030
-272.370	68.610	-0.222	0.225
-271.355	-82.181	-0.136	-0.044
-270.340	800.000	-0.038	0.109
-269.326	-150.059	-0.605	0.047
-268.311	638.053	0.062	0.155
-267.297	-200.000	0.024	0.335
-266.282	-200.000	-0.052	-0.259
-265.267	-200.000	-0.041	-0.212
-264.253	162.494	0.233	0.324
-263.238	-200.000	-0.014	-0.179
-262.224	-23.935	0.095	0.056
-261.209	207.711	0.122	0.189
-260.195	-99.878	-0.451	-0.112
-259.180	66.392	-0.230	0.231
-258.165	33.255	-0.143	-0.123
-257.151	178.870	0.066	-0.095
-256.136	227.567	0.100	-0.162
-255.122	-67.058	-0.404	0.158
-254.107	-141.987	-0.559	0.055
-253.092	-76.396	0.212	0.074
-252.078	-21.738	0.158	0.095
-251.063	-35.435	0.032	0.017
-250.049	164.212	0.053	0.075
-249.034	-200.000	0.042	0.221
-248.019	-85.702	0.151	-0.046
-247.005	-200.000	-0.044	-0.192
-245.990	519.571	-0.137	-0.317
-244.976	-121.285	-0.219	-0.036
-243.961	-200.000	0.056	0.452
-242.946	-146.889	-0.244	-0.021
-241.932	-151.523	-0.243	0.018
-240.917	-120.743	-0.355	-0.059
-239.903	-200.000	0.023	0.205
-238.888	425.764	0.156	0.333
-237.873	800.000	-0.053	-0.219
-236.859	-200.000	0.031	-0.390
-235.844	-98.430	0.132	0.034
-234.830	-200.000	0.017	-0.086
-233.815	-58.725	0.160	0.069
-232.800	-200.000	0.019	-0.211
-231.786	-43.066	0.131	0.066
-230.771	-28.499	0.328	-0.187
-229.757	-200.000	0.001	0.195
-228.742	-90.777	-0.381	0.109
-227.727	179.233	-0.183	0.265
-226.713	108.999	-0.309	0.366
-225.698	-0.873	-0.261	0.183
-224.684	-65.940	0.074	0.029
-223.669	275.321	-0.038	0.067
-222.655	-81.483	-0.191	-0.062
-221.640	116.149	0.208	0.253
-220.625	-112.593	-0.065	-0.013
-219.611	-200.000	-0.047	-0.383
-218.596	-137.705	-0.115	-0.013
-217.582	-138.995	0.041	0.004
-216.567	-200.000	-0.050	-0.320
-215.552	-48.906	-0.038	-0.018
-214.538	-24.696	-0.243	0.143
-213.523	-200.000	0.061	0.268
-212.509	-139.948	0.076	-0.008
-211.494	800.000	0.069	0.224
-210.479	140.074	-0.139	0.182
-209.465	-137.910	-0.222	-0.025
-208.450	467.013	0.078	0.173
-207.436	800.000	-0.084	0.310
-206.421	187.075	0.198	-0.293
-205.406	800.000	0.030	0.129
-204.392	49.660	0.176	-0.164
-203.377	412.969	0.106	-0.223
-202.363	800.000	0.028	0.078
-201.348	146.145	-0.081	-0.107
-200.333	88.757	-0.102	0.112
-199.319	-16.342	0.156	0.098
-198.304	800.000	0.049	-0.185
-197.290	-24.946	0.108	0.063
-196.275	75.536	-0.039	0.041
-195.260	-116.184	-0.039	0.007
-194.246	74.685	-0.195	0.203
-193.231	800.000	-0.057	-0.193
-192.217	-200.000	0.042	0.207
-191.202	-68.170	0.112	-0.043
-190.187	379.344	-0.139	0.281
-189.173	-200.000	-0.015	0.318
-188.158	-171.163	0.281	-0.009
-187.144	-127.368	-0.201	0.029
-186.129	-64.262	0.127	0.051
-185.114	-5.635	0.204	0.138
-184.100	-200.000	0.049	0.326
-183.085	-8.109	-0.285	0.190
-182.071	-200.000	0.051	-0.438
-181.056	236.506	0.121	-0.198
-180.042	-18.522	0.343	0.211
-179.027	92.962	-0.183	-0.204
-178.012	473.818	0.057	-0.127
-176.998	318.936	0.155	0.290
-175.983	164.937	-0.174	0.243
-174.969	800.000	-0.040	0.138
-173.954	12.174	0.194	-0.147
-172.939	58.099	-0.275	-0.266
-171.925	-45.726	0.429	0.209
-170.910	-200.000	0.065	-0.348
-169.896	37.433	0.201	0.176
-168.881	-189.051	-0.119	0.001
-167.866	-52.517	0.323	-0.147
-166.852	-200.000	-0.010	0.129
-165.837	105.117	0.146	-0.170
-164.823	46.890	-0.163	0.150
-163.808	-30.451	-0.164	-0.092
-162.793	-108.016	-0.229	-0.049
-161.779	-200.000	0.010	0.043
-160.764	695.759	0.119	-0.309
-159.750	106.097	0.219	0.255
-158.735	800.000	-0.045	-0.133
-157.720	-53.517	0.298	0.134
-156.706	229.410	0.087	0.141
-155.691	-110.432	0.246	0.050
-154.677	-123.292	-0.402	-0.063
-153.662	800.000	-0.061	-0.229
-152.647	-200.000	0.023	-0.107
-151.633	-79.418	0.246	0.082
-150.618	545.324	0.049	-0.115
-149.604	-200.000	0.012	0.150
-148.589	508.102	0.069	-0.158
-147.574	245.608	0.129	0.214
-146.560	-200.000	-0.055	-0.266
-145.545	77.793	0.164	-0.172
-144.531	72.678	0.348	-0.358
-143.516	-131.263	-0.455	-0.059
-142.502	-73.290	0.188	-0.068
-141.487	-142.559	-0.123	-0.012
-140.472	-3.606	-0.258	-0.177
-139.458	264.136	-0.026	-0.044
-138.443	-200.000	-0.002	-0.223
-137.429	-200.000	0.028	-0.190
-136.414	-113.305	0.364	0.071
-135.399	-200.000	-0.027	-0.143
-134.385	-200.000	-0.043	0.257
-133.370	-113.604	-0.322	0.062
-132.356	127.315	-0.121	-0.152
-131.341	102.301	-0.121	-0.140
-130.326	107.635	0.196	0.230
-129.312	-28.248	-0.055	0.031
-128.297	800.000	-0.053	-0.156
-127.283	-200.000	0.012	0.090
-126.268	465.234	-0.098	-0.216
-125.253	-200.000	-0.019	-0.144
-124.239	-200.000	0.026	0.170
-123.224	-47.447	0.139	-0.067
-122.210	109.247	0.270	-0.319
