DTS Sentinel unit serial number:	SN413079Multiplexer serial number:	ORYXHardware model number:	OX4-SRSoftware version number:	ORYX F/W v4.00 Oryx Data Collector v3.7.2.0data status	okinstallation	princeton_trtdifferential loss correction	single-endedforward channel	channel 4reverse channel	N/Adate	2019/09/12time	23:25:34forward acquisition time	60.00reverse acquisition time	0.00gamma	496.2192k internal	0.2316k external	0.2316temperature offset calibration	1.0176default loss term (dB/km)	0.3790temperature slope calibration	1.0000multiplexer offset coefficient	1.0000multiplexer slope coefficient	1.0000fibre end	0.00T internal ref (°C)	29.02T ext. ref 1 (°C)	3.75T ext. ref 2 (°C)	23.71length (m)	temperature (°C)	Stokes	anti-Stokes-747.200	-142.295	0.229	-0.023
-746.185	-36.727	-0.076	0.041
-745.171	-149.439	0.054	0.004
-744.156	171.226	-0.075	-0.109
-743.142	800.000	-0.081	-0.259
-742.127	800.000	-0.016	-0.049
-741.112	-43.648	-0.238	-0.122
-740.098	109.970	0.089	0.108
-739.083	302.315	-0.063	-0.118
-738.069	-200.000	-0.028	0.542
-737.054	125.346	0.030	-0.038
-736.039	-198.457	-0.428	0.002
-735.025	199.456	-0.023	0.035
-734.010	800.000	-0.124	-0.500
-732.996	233.657	-0.161	-0.269
-731.981	-200.000	0.035	0.289
-730.966	-41.355	-0.115	-0.060
-729.952	-97.639	-0.175	-0.046
-728.937	-200.000	0.077	-0.365
-727.923	-111.328	-0.162	0.033
-726.908	-26.817	-0.275	0.162
-725.894	-63.149	0.096	-0.040
-724.879	-200.000	0.039	-0.329
-723.864	56.397	0.261	0.257
-722.850	23.081	0.137	-0.114
-721.835	560.516	0.105	-0.257
-720.821	123.980	0.217	-0.276
-719.806	-200.000	-0.015	-0.217
-718.791	210.980	0.113	-0.180
-717.777	5.236	-0.323	0.241
-716.762	23.130	-0.318	0.264
-715.748	-50.486	-0.154	0.073
-714.733	109.804	-0.223	0.271
-713.718	-106.421	0.328	0.074
-712.704	-89.170	-0.275	0.082
-711.689	115.763	-0.089	0.110
-710.675	107.948	0.229	-0.276
-709.660	225.389	0.160	-0.262
-708.645	800.000	-0.052	-0.165
-707.631	141.418	0.174	0.233
-706.616	-135.646	-0.126	0.015
-705.602	-63.879	-0.371	0.154
-704.587	-200.000	-0.077	-0.536
-703.572	-7.032	-0.350	-0.240
-702.558	800.000	0.012	-0.035
-701.543	10.698	0.208	-0.160
-700.529	159.703	0.191	-0.270
-699.514	16.600	0.248	0.199
-698.499	11.793	-0.158	0.123
-697.485	-200.000	0.017	-0.437
-696.470	-128.540	-0.209	0.030
-695.456	50.104	0.165	-0.157
-694.441	165.597	0.050	-0.071
-693.426	106.957	-0.163	-0.196
-692.412	-200.000	0.018	-0.249
-691.397	-200.000	0.017	-0.254
-690.383	-200.000	-0.002	0.245
-689.368	-200.000	0.000	0.242
-688.354	-14.239	-0.218	0.142
-687.339	-52.363	-0.073	0.034
-686.324	194.795	-0.105	-0.161
-685.310	-106.583	-0.398	-0.090
-684.295	255.467	-0.175	-0.304
-683.281	59.904	-0.139	-0.138
-682.266	104.858	0.406	0.484
-681.251	568.195	0.126	0.309
-680.237	390.181	-0.089	-0.186
-679.222	-127.600	0.079	-0.012
-678.208	-153.243	-0.145	0.010
-677.193	-141.685	-0.379	0.038
-676.178	-153.895	-0.081	-0.006
-675.164	-47.459	-0.188	-0.093
-674.149	-67.232	-0.166	-0.066
-673.135	-160.791	0.103	-0.006
-672.120	-200.000	-0.012	0.097
-671.105	293.502	-0.033	-0.061
-670.091	800.000	-0.074	-0.222
-669.076	-100.042	-0.249	-0.063
-668.062	-200.000	0.005	0.092
-667.047	-200.000	-0.223	-0.000
-666.032	125.326	0.246	-0.313
-665.018	-45.105	0.246	0.124
-664.003	-200.000	0.071	-0.357
-662.989	-200.000	-0.014	0.070
-661.974	-200.000	0.005	-0.132
-660.959	640.899	-0.024	0.062
-659.945	9.950	-0.179	0.137
-658.930	-162.751	-0.029	0.001
-657.916	-82.585	0.228	-0.075
-656.901	-96.845	0.359	-0.095
-655.886	305.934	-0.054	0.101
-654.872	-200.000	0.023	-0.312
-653.857	800.000	0.036	-0.109
-652.843	-51.728	0.352	0.165
-651.828	-95.219	-0.319	-0.087
-650.814	159.593	0.048	-0.067
-649.799	-87.283	0.259	0.079
-648.784	-71.296	-0.323	-0.122
-647.770	800.000	0.028	0.121
-646.755	-20.676	-0.209	0.129
-645.741	-200.000	0.009	0.063
-644.726	-62.628	0.297	-0.125
-643.711	16.814	0.137	0.110
-642.697	187.060	0.193	0.290
-641.682	69.205	-0.172	0.179
-640.668	-11.480	0.029	0.019
-639.653	-73.999	-0.217	0.079
-638.638	-21.001	-0.224	0.139
-637.624	-22.379	-0.392	0.240
-636.609	-90.205	0.150	-0.044
-635.595	457.797	-0.168	-0.377
-634.580	-54.325	0.123	-0.056
-633.565	-112.070	-0.218	0.044
-632.551	800.000	-0.023	0.083
-631.536	-200.000	-0.054	-0.296
-630.522	114.833	0.291	-0.358
-629.507	-129.467	0.256	0.036
-628.492	179.093	0.093	0.137
-627.478	-24.691	-0.035	-0.021
-626.463	287.782	0.009	-0.016
-625.449	-200.000	-0.044	-0.265
-624.434	800.000	-0.086	-0.307
-623.419	-146.377	-0.104	-0.009
-622.405	-117.390	-0.232	0.042
-621.390	-200.000	0.096	-0.431
-620.376	-124.195	0.270	0.043
-619.361	378.193	-0.053	-0.110
-618.346	605.219	-0.042	0.105
-617.332	-60.199	0.027	-0.012
-616.317	659.938	0.086	-0.223
-615.303	219.922	0.049	0.080
-614.288	-24.856	-0.181	-0.108
-613.273	196.521	0.203	-0.312
-612.259	800.000	-0.090	-0.379
-611.244	27.844	0.031	-0.027
-610.230	5.290	-0.171	-0.127
-609.215	-22.886	-0.005	0.003
-608.201	-49.031	0.192	0.092
-607.186	-90.330	0.246	0.072
-606.171	-60.086	0.193	0.083
-605.157	-129.215	-0.141	0.020
-604.142	800.000	0.080	0.325
-603.128	154.332	-0.146	0.202
-602.113	-200.000	-0.055	0.347
-601.098	657.605	-0.076	-0.197
-600.084	-161.445	0.182	0.009
-599.069	-72.978	0.255	-0.094
-598.055	-11.649	-0.132	-0.088
-597.040	-130.495	0.315	-0.043
-596.025	247.387	0.091	0.155
-595.011	-112.625	-0.121	-0.024
-593.996	-122.311	0.142	0.023
-592.982	-200.000	-0.014	0.110
-591.967	-52.310	-0.103	-0.048
-590.952	-3.799	0.193	0.135
-589.938	17.762	0.081	-0.065
-588.923	-65.476	0.441	0.178
-587.909	-200.000	-0.011	-0.240
-586.894	-200.000	-0.059	0.270
-585.879	800.000	0.044	0.129
-584.865	-143.978	-0.321	0.030
-583.850	-130.615	0.204	-0.028
-582.836	-200.000	0.057	-0.398
-581.821	312.404	-0.096	0.182
-580.806	-200.000	0.034	-0.245
-579.792	335.337	-0.085	-0.165
-578.777	-119.055	0.371	0.065
-577.763	14.634	0.200	0.157
-576.748	-163.839	-0.035	0.002
-575.733	-200.000	-0.015	0.096
-574.719	39.072	-0.149	-0.134
-573.704	800.000	0.040	-0.164
-572.690	-18.805	0.111	0.070
-571.675	639.807	0.058	-0.148
-570.661	143.107	0.121	0.162
-569.646	194.018	0.110	-0.168
-568.631	20.113	0.257	-0.208
-567.617	-31.055	0.042	-0.024
-566.602	-64.834	0.067	0.027
-565.588	106.953	-0.163	0.195
-564.573	-200.000	0.016	0.111
-563.558	130.722	0.141	-0.182
-562.544	-200.000	0.043	-0.222
-561.529	-200.000	0.023	0.185
-560.515	-77.762	0.014	-0.005
-559.500	800.000	-0.089	0.311
-558.485	99.658	-0.080	-0.093
-557.471	-49.799	-0.235	-0.112
-556.456	-106.583	0.270	0.060
-555.442	219.314	-0.113	0.181
-554.427	264.264	-0.144	0.252
-553.412	161.340	-0.125	0.175
-552.398	108.494	-0.171	0.206
-551.383	-84.280	-0.142	0.045
-550.369	128.917	0.102	0.131
-549.354	87.114	-0.157	0.174
-548.339	152.823	0.168	0.231
-547.325	501.678	-0.019	-0.045
-546.310	16.277	-0.166	-0.131
-545.296	-200.000	0.089	-0.408
-544.281	330.284	-0.086	0.166
-543.266	-81.862	0.275	0.091
-542.252	167.748	0.113	-0.162
-541.237	-102.818	0.261	-0.062
-540.223	-116.906	-0.351	-0.064
-539.208	-51.967	-0.064	-0.030
-538.193	44.246	-0.250	0.230
-537.179	7.774	-0.048	0.036
-536.164	279.667	-0.081	0.146
-535.150	-122.395	-0.291	-0.048
-534.135	152.863	0.249	0.342
-533.121	-123.284	0.279	0.045
-532.106	-57.315	0.277	0.122
-531.091	354.080	-0.062	-0.123
-530.077	-6.393	-0.237	0.163
-529.062	39.602	0.156	-0.141
-528.048	-200.000	-0.075	-0.362
-527.033	96.568	0.171	0.196
-526.018	-160.452	-0.316	-0.017
-525.004	275.108	0.084	0.149
-523.989	334.455	0.232	-0.450
-522.975	354.857	-0.135	-0.271
-521.960	-159.853	-0.266	0.015
-520.945	-46.056	-0.068	0.034
-519.931	-27.495	-0.323	0.189
-518.916	-145.306	-0.189	0.017
-517.902	208.700	-0.100	0.158
-516.887	42.575	0.110	0.101
-515.872	800.000	0.048	0.158
-514.858	-112.188	0.141	-0.028
-513.843	67.709	-0.124	0.128
-512.829	-200.000	0.008	0.283
-511.814	-84.625	0.163	-0.052
-510.799	-30.395	0.274	0.156
-509.785	-0.924	0.336	-0.239
-508.770	333.889	-0.028	-0.054
-507.756	-5.036	-0.387	0.268
-506.741	120.811	0.127	0.159
-505.726	-200.000	0.005	-0.159
-504.712	-200.000	-0.004	-0.097
-503.697	-120.530	-0.371	0.063
-502.683	-58.104	0.093	-0.041
-501.668	800.000	-0.038	-0.119
-500.653	-95.873	-0.359	0.096
-499.639	-106.453	0.244	-0.055
-498.624	-155.750	-0.137	-0.009
-497.610	218.241	0.161	0.257
-496.595	511.258	-0.063	-0.147
-495.581	-200.000	-0.028	0.380
-494.566	262.337	0.098	-0.171
-493.551	800.000	-0.026	-0.084
-492.537	-35.791	0.292	0.158
-491.522	85.667	0.135	-0.149
-490.508	32.383	-0.228	0.197
-489.493	-200.000	0.364	-0.000
-488.478	-171.438	-0.418	-0.014
-487.464	800.000	-0.051	-0.221
-486.449	42.270	-0.139	0.127
-485.435	37.199	0.112	-0.100
-484.420	513.966	0.122	-0.286
-483.405	800.000	0.040	0.136
-482.391	507.865	0.097	0.225
-481.376	-200.000	-0.001	-0.053
-480.362	-132.567	-0.125	-0.016
-479.347	-200.000	-0.010	-0.056
-478.332	-200.000	-0.067	0.000
-477.318	800.000	-0.061	-0.217
-476.303	-48.490	0.331	-0.160
-475.289	30.888	0.030	-0.026
-474.274	716.607	-0.044	0.117
-473.259	53.961	-0.172	0.165
-472.245	-76.294	0.158	0.056
-471.230	-200.000	-0.041	0.388
-470.216	-119.817	0.078	-0.014
-469.201	800.000	0.174	-0.559
-468.186	-200.000	0.004	0.018
-467.172	-99.407	0.296	0.075
-466.157	-200.000	-0.030	-0.305
-465.143	-84.554	0.129	-0.041
-464.128	-69.367	-0.155	0.060
-463.113	-126.751	0.060	-0.009
-462.099	163.111	-0.012	-0.017
-461.084	-63.600	-0.297	-0.122
-460.070	-200.000	-0.015	-0.296
-459.055	800.000	0.023	0.097
-458.040	-109.989	-0.068	0.014
-457.026	-140.272	0.243	-0.025
-456.011	-200.000	-0.001	-0.071
-454.997	-102.632	0.320	0.076
-453.982	-61.230	-0.180	-0.076
-452.968	-12.635	-0.053	0.035
-451.953	44.184	0.227	0.208
-450.938	-200.000	-0.007	-0.042
-449.924	-113.847	0.358	0.070
-448.909	-26.606	-0.085	-0.050
-447.895	-80.861	0.233	-0.077
-446.880	192.666	0.130	0.196
-445.865	-86.612	0.382	-0.117
-444.851	20.311	-0.223	0.181
-443.836	-200.000	0.013	-0.091
-442.822	305.008	0.077	0.144
-441.807	-69.144	-0.009	0.004
-440.792	-116.355	-0.112	0.021
-439.778	800.000	0.044	0.190
-438.763	-28.182	0.305	-0.176
-437.749	15.489	-0.195	0.153
-436.734	-116.040	-0.410	-0.076
-435.719	-26.155	0.184	-0.108
-434.705	800.000	-0.094	0.313
-433.690	-79.144	-0.222	-0.075
-432.676	290.951	0.087	0.159
-431.661	-29.558	0.186	-0.107
-430.646	-200.000	0.023	-0.332
-429.632	-39.666	0.488	-0.255
-428.617	-200.000	-0.008	0.089
-427.603	188.728	-0.270	0.404
-426.588	689.558	-0.114	0.298
-425.573	-200.000	-0.004	-0.071
-424.559	441.606	-0.068	0.148
-423.544	581.608	-0.075	-0.185
-422.530	-200.000	0.000	-0.136
-421.515	-200.000	-0.029	-0.455
-420.500	672.259	0.152	-0.393
-419.486	275.818	0.093	-0.165
-418.471	-54.262	-0.083	-0.038
-417.457	-139.001	-0.266	0.029
-416.442	-63.942	0.194	-0.079
-415.428	-1.295	0.084	0.059
-414.413	-200.000	0.006	0.126
-413.398	333.352	-0.058	-0.111
-412.384	71.845	0.217	0.226
-411.369	631.974	-0.111	-0.280
-410.355	718.777	0.075	0.200
-409.340	216.600	0.194	0.309
-408.325	-87.691	0.168	-0.051
-407.311	-200.000	0.055	0.287
-406.296	-189.672	-0.167	-0.002
-405.282	800.000	-0.068	0.250
-404.267	-200.000	0.003	0.137
-403.252	-17.436	-0.059	0.037
-402.238	-92.596	-0.238	0.067
-401.223	-200.000	0.043	-0.355
-400.209	-104.080	0.071	0.017
-399.194	-51.520	0.222	0.103
-398.179	43.787	-0.116	-0.106
-397.165	12.384	0.178	-0.137
-396.150	258.867	-0.091	-0.157
-395.136	78.837	-0.247	0.265
-394.121	-178.224	-0.214	-0.005
-393.106	-200.000	0.014	-0.098
-392.092	-136.123	0.172	-0.020
-391.077	-76.267	0.076	-0.027
-390.063	256.863	0.051	0.088
-389.048	800.000	-0.051	0.181
-388.033	-157.460	0.227	0.014
-387.019	-178.744	-0.496	-0.011
-386.004	-200.000	-0.002	0.142
-384.990	38.209	0.112	-0.100
-383.975	233.842	0.112	-0.183
-382.960	219.738	-0.081	0.129
-381.946	-200.000	-0.035	-0.401
-380.931	40.964	0.081	-0.073
-379.917	101.609	-0.128	-0.149
-378.902	190.295	0.087	-0.130
-377.888	312.473	-0.045	-0.084
-376.873	-41.299	-0.326	-0.168
-375.858	20.149	-0.301	-0.243
-374.844	-65.204	-0.177	0.071
-373.829	616.392	-0.159	0.399
-372.815	-82.101	-0.197	0.064
-371.800	14.831	-0.167	-0.131
-370.785	744.153	0.089	0.240
-369.771	-200.000	0.058	-0.362
-368.756	547.639	0.099	-0.236
-367.742	218.980	0.119	0.190
-366.727	800.000	0.068	0.251
-365.712	-86.831	-0.244	-0.075
-364.698	-24.485	-0.313	0.186
-363.683	42.919	0.269	-0.245
-362.669	488.591	0.034	-0.077
-361.654	-96.374	-0.455	-0.120
-360.639	800.000	0.084	0.283
-359.625	800.000	0.075	0.260
-358.610	-4.325	-0.190	0.131
-357.596	-33.923	0.302	0.166
-356.581	46.200	-0.156	0.144
-355.566	48.220	-0.224	-0.209
-354.552	126.170	-0.082	-0.103
-353.537	199.505	0.138	-0.211
-352.523	233.330	-0.095	-0.156
-351.508	-18.090	0.176	0.110
-350.493	329.036	0.130	-0.250
-349.479	-59.314	-0.568	-0.244
-348.464	-129.480	0.135	-0.019
-347.450	-53.245	-0.340	-0.156
-346.435	-200.000	0.022	-0.153
-345.420	-172.628	-0.227	0.007
-344.406	800.000	-0.011	0.044
-343.391	-43.581	0.198	0.100
-342.377	-13.315	0.343	-0.222
-341.362	-133.704	0.145	-0.018
-340.348	-200.000	-0.053	-0.437
-339.333	-200.000	-0.063	0.412
-338.318	-143.295	-0.069	0.007
-337.304	285.678	-0.120	-0.216
-336.289	-66.209	-0.079	-0.031
-335.275	119.382	0.079	0.097
-334.260	212.009	0.062	-0.097
-333.245	13.234	-0.212	0.164
-332.231	-200.000	-0.052	0.396
-331.216	800.000	0.005	0.020
-330.202	178.148	-0.179	0.260
-329.187	218.321	0.212	-0.337
-328.172	800.000	0.028	-0.083
-327.158	-116.905	0.323	-0.059
-326.143	106.450	-0.071	0.084
-325.129	418.457	-0.134	0.286
-324.114	5.841	0.178	-0.131
-323.099	-89.091	0.091	-0.027
-322.085	-154.415	0.350	0.023
-321.070	10.239	-0.231	0.175
-320.056	-119.412	-0.138	0.024
-319.041	-122.977	0.153	0.024
-318.026	-37.851	-0.301	0.160
-317.012	-132.652	-0.145	-0.019
-315.997	31.855	-0.010	0.008
-314.983	59.417	-0.076	-0.075
-313.968	396.211	0.016	0.034
-312.953	-176.338	-0.229	0.006
-311.939	-62.867	0.318	0.131
-310.924	-200.000	-0.014	-0.217
-309.910	800.000	-0.021	0.064
-308.895	-179.410	-0.305	0.007
-307.880	-131.782	-0.393	0.051
-306.866	16.171	0.087	0.068
-305.851	-200.000	-0.035	0.000
-304.837	3.865	-0.123	0.090
-303.822	800.000	-0.088	-0.247
-302.807	637.494	0.083	-0.209
-301.793	162.724	0.091	-0.127
-300.778	-30.456	0.109	0.062
-299.764	-0.386	0.102	-0.072
-298.749	379.383	-0.089	0.181
-297.735	800.000	0.076	0.208
-296.720	81.167	0.077	-0.083
-295.705	-200.000	-0.042	0.185
-294.691	-123.417	0.123	0.020
-293.676	800.000	0.035	-0.150
-292.662	-101.233	-0.058	-0.014
-291.647	-200.000	-0.096	0.423
-290.632	-109.712	0.183	-0.038
-289.618	132.712	0.068	0.087
-288.603	-117.693	-0.166	0.030
-287.589	-92.212	-0.317	-0.089
-286.574	-200.000	0.028	-0.177
-285.559	209.581	0.130	-0.203
-284.545	-93.330	-0.020	0.005
-283.530	-200.000	0.028	-0.194
-282.516	157.368	0.126	-0.174
-281.501	-13.436	0.062	-0.040
-280.486	-48.359	0.257	0.123
-279.472	102.679	-0.193	-0.224
-278.457	-117.589	0.491	-0.088
-277.443	433.785	-0.030	0.065
-276.428	-200.000	-0.017	0.271
-275.413	-128.357	-0.145	-0.021
-274.399	-134.508	0.060	0.007
-273.384	219.838	-0.207	0.330
-272.370	380.034	0.137	0.280
-271.355	289.748	-0.095	-0.172
-270.340	-8.898	-0.204	0.136
-269.326	-200.000	-0.025	-0.159
-268.311	33.034	0.170	-0.147
-267.297	800.000	-0.026	-0.088
-266.282	-162.602	0.333	-0.016
-265.267	-34.495	0.087	-0.048
-264.253	-26.242	0.320	-0.187
-263.238	-171.474	-0.205	0.007
-262.224	-200.000	0.009	0.324
-261.209	137.533	-0.118	0.154
-260.195	190.490	-0.059	-0.089
-259.180	-27.057	0.255	-0.148
-258.165	-43.105	0.221	-0.111
-257.151	94.626	0.222	-0.251
-256.136	-47.808	0.196	-0.094
-255.122	-101.123	-0.308	0.075
-254.107	-53.906	0.142	0.064
-253.092	-88.651	0.196	-0.058
-252.078	-200.000	0.002	-0.260
-251.063	673.956	0.058	0.151
-250.049	-55.345	-0.363	0.162
-249.034	78.444	-0.049	-0.052
-248.019	385.407	-0.077	0.157
-247.005	174.443	0.205	-0.294
-245.990	-200.000	0.024	-0.162
-244.976	-200.000	-0.051	-0.341
-243.961	800.000	-0.141	-0.446
-242.946	39.737	0.179	-0.160
-241.932	-200.000	-0.082	0.380
-240.917	-132.527	-0.393	0.050
-239.903	-61.347	-0.283	-0.118
-238.888	800.000	-0.127	0.358
-237.873	70.300	-0.202	-0.207
-236.859	-200.000	-0.007	0.196
-235.844	-200.000	-0.028	0.222
-234.830	406.477	0.071	-0.149
-233.815	303.270	-0.075	-0.137
-232.800	179.263	-0.160	0.233
-231.786	-127.709	-0.142	0.020
-230.771	-108.075	-0.255	0.055
-229.757	75.004	-0.047	-0.049
-228.742	346.637	-0.161	0.314
-227.727	-180.510	-0.123	0.003
-226.713	-43.178	0.172	0.086
-225.698	549.285	-0.065	0.154
-224.684	-90.309	0.243	-0.070
-223.669	-200.000	-0.004	0.279
-222.655	72.787	0.265	0.275
-221.640	800.000	0.015	-0.051
-220.625	800.000	0.118	0.326
-219.611	-63.773	-0.595	-0.242
-218.596	-16.858	-0.194	-0.121
-217.582	190.871	-0.086	0.128
-216.567	-197.785	-0.362	0.002
-215.552	202.337	0.018	-0.028
-214.538	-200.000	0.029	0.135
-213.523	29.727	-0.134	-0.113
-212.509	20.856	-0.181	-0.146
-211.494	9.980	-0.250	0.188
-210.479	-93.157	0.445	0.123
-209.465	-154.119	0.128	0.009
-208.450	-6.642	-0.146	-0.099
-207.436	-200.000	-0.015	0.461
-206.421	50.829	0.435	0.409
-205.406	-167.585	0.417	0.016
-204.392	298.886	-0.149	0.272
-203.377	-200.000	0.014	-0.344
-202.363	128.587	0.249	-0.314
-201.348	-135.870	-0.179	-0.021
-200.333	-200.000	-0.048	-0.231
-199.319	-200.000	-0.054	0.000
-198.304	1.019	0.435	-0.310
-197.290	37.988	0.065	-0.057
-196.275	706.916	0.130	-0.340
-195.260	29.865	0.193	0.163
-194.246	40.645	-0.134	0.120
-193.231	137.012	-0.280	-0.363
-192.217	25.833	-0.328	-0.271
-191.202	-200.000	0.008	0.130
-190.187	109.423	0.303	-0.359
-189.173	-93.136	-0.142	0.039
-188.158	-68.927	-0.118	-0.045
-187.144	-159.418	0.153	0.008
-186.129	57.837	-0.235	-0.227
-185.114	-44.326	0.097	0.048
-184.100	-64.862	-0.163	0.065
-183.085	-154.733	0.133	0.009
-182.071	93.253	0.147	0.165
-181.056	32.871	0.263	0.225
-180.042	-125.050	0.262	-0.040
-179.027	653.637	0.102	-0.259
-178.012	132.449	0.123	0.158
-176.998	-200.000	-0.086	-0.623
-175.983	108.887	0.038	-0.045
-174.969	206.570	0.097	0.149
-173.954	419.144	-0.148	0.314
-172.939	1.777	0.220	-0.157
-171.925	-53.542	-0.218	0.099
-170.910	-155.408	-0.238	-0.015
-169.896	316.127	-0.038	0.071
-168.881	-152.255	-0.296	0.021
-167.866	-5.538	-0.392	-0.266
-166.852	613.966	0.092	0.228
-165.837	-32.144	0.292	0.162
-164.823	670.059	0.084	-0.215
-163.808	-54.043	-0.097	-0.044
-162.793	-50.432	0.149	0.070
-161.779	19.319	0.222	0.176
-160.764	-200.000	-0.045	0.294
-159.750	800.000	-0.066	0.277
-158.735	-200.000	0.064	0.357
-157.720	81.010	-0.163	-0.174
-156.706	-97.036	0.273	0.071
-155.691	778.211	-0.018	-0.049
-154.677	-200.000	0.016	-0.202
-153.662	-34.759	0.055	0.030
-152.647	684.238	-0.067	0.174
-151.633	26.283	-0.215	0.177
-150.618	129.185	0.069	0.087
-149.604	23.667	-0.165	0.135
-148.589	101.732	0.086	-0.099
-147.574	-5.387	0.156	-0.106
-146.560	719.085	-0.068	-0.179
-145.545	-29.384	0.220	-0.125
-144.531	-100.329	-0.223	0.055
-143.516	-127.191	0.134	0.019
-142.502	-200.000	-0.052	0.229
-141.487	-76.800	-0.217	0.075
-140.472	0.738	-0.252	-0.179
-139.458	-16.998	0.132	0.082
-138.443	-120.925	0.355	0.059
-137.429	241.913	-0.100	-0.165
-136.414	229.702	-0.130	-0.210
-135.399	-134.336	0.243	-0.030
-134.385	-200.000	0.022	0.153
-133.370	319.403	-0.072	0.135
-132.356	800.000	-0.069	-0.204
-131.341	5.848	0.144	-0.105
-130.326	-32.980	0.119	0.065
-129.312	189.627	0.092	-0.137
-128.297	-200.000	0.002	0.008
-127.283	-44.640	0.130	0.064
-126.268	-200.000	0.046	0.448
-125.253	106.014	0.055	0.065
-124.239	75.544	-0.164	0.172
-123.224	-94.718	-0.146	0.039
-122.210	-200.000	0.024	0.334
