DTS Sentinel unit serial number:	SN413079Multiplexer serial number:	ORYXHardware model number:	OX4-SRSoftware version number:	ORYX F/W v4.00 Oryx Data Collector v3.7.2.0data status	okinstallation	princeton_trtdifferential loss correction	single-endedforward channel	channel 4reverse channel	N/Adate	2019/09/13time	09:29:35forward acquisition time	60.00reverse acquisition time	0.00gamma	496.2192k internal	0.2312k external	0.2312temperature offset calibration	1.0194default loss term (dB/km)	0.3790temperature slope calibration	1.0000multiplexer offset coefficient	1.0000multiplexer slope coefficient	1.0000fibre end	0.00T internal ref (°C)	29.44T ext. ref 1 (°C)	4.43T ext. ref 2 (°C)	26.13length (m)	temperature (°C)	Stokes	anti-Stokes-747.200	-22.486	0.128	-0.079
-746.185	158.883	-0.113	-0.160
-745.171	177.245	-0.061	0.090
-744.156	-85.943	0.274	0.086
-743.142	-200.000	-0.058	-0.262
-742.127	-73.652	0.355	0.131
-741.112	216.690	0.013	-0.020
-740.098	-200.000	-0.017	-0.252
-739.083	-113.761	-0.073	-0.015
-738.069	-200.000	0.011	0.116
-737.054	-48.391	0.233	-0.114
-736.039	-99.249	-0.173	-0.044
-735.025	-200.000	0.024	0.447
-734.010	-19.109	0.099	0.063
-732.996	-65.051	0.303	-0.124
-731.981	-200.000	-0.085	0.516
-730.966	4.157	-0.248	-0.184
-729.952	-93.472	-0.186	0.052
-728.937	-200.000	0.022	-0.119
-727.923	294.537	0.165	-0.306
-726.908	36.753	-0.121	-0.108
-725.894	77.466	0.193	-0.208
-724.879	66.659	-0.124	-0.128
-723.864	-73.490	-0.418	-0.155
-722.850	295.905	0.050	0.092
-721.835	503.376	0.091	-0.214
-720.821	-200.000	-0.033	-0.185
-719.806	154.782	0.158	0.221
-718.791	27.051	0.058	-0.049
-717.777	84.421	-0.041	-0.045
-716.762	-200.000	0.037	-0.279
-715.748	240.200	0.146	0.247
-714.733	800.000	0.087	-0.338
-713.718	800.000	0.059	-0.232
-712.704	-83.064	-0.194	0.063
-711.689	4.181	0.235	0.175
-710.675	42.928	-0.326	-0.301
-709.660	-94.657	0.214	0.059
-708.645	-49.109	0.486	0.236
-707.631	222.858	-0.048	0.079
-706.616	-88.986	0.161	0.048
-705.602	74.705	0.253	-0.270
-704.587	-200.000	0.054	-0.239
-703.572	-127.284	-0.191	-0.028
-702.558	67.158	-0.241	-0.249
-701.543	-93.181	0.225	-0.063
-700.529	-75.715	-0.090	0.032
-699.514	-33.221	0.219	-0.123
-698.499	-60.674	0.027	0.011
-697.485	106.227	0.204	-0.244
-696.470	-76.364	0.393	-0.140
-695.456	-157.422	0.220	-0.013
-694.441	-101.184	0.174	-0.043
-693.426	21.344	0.116	0.096
-692.412	-21.605	0.134	-0.083
-691.397	55.077	0.118	-0.116
-690.383	-176.597	0.086	0.002
-689.368	318.070	0.145	0.278
-688.354	332.645	-0.151	-0.296
-687.339	800.000	0.079	0.282
-686.324	-26.149	-0.132	0.079
-685.310	-156.184	0.201	-0.013
-684.295	-200.000	0.006	0.198
-683.281	-200.000	-0.025	-0.129
-682.266	-172.543	0.320	-0.010
-681.251	-62.400	0.083	-0.035
-680.237	-154.294	-0.093	-0.006
-679.222	-200.000	-0.042	-0.302
-678.208	278.346	0.170	-0.306
-677.193	110.014	0.240	0.291
-676.178	85.353	-0.150	-0.167
-675.164	-151.814	0.144	-0.011
-674.149	73.804	0.116	0.123
-673.135	-133.998	0.074	-0.009
-672.120	800.000	0.064	-0.192
-671.105	-113.351	0.121	0.024
-670.091	-7.324	0.047	-0.032
-669.076	179.647	-0.059	-0.087
-668.062	519.033	-0.034	-0.081
-667.047	-164.864	-0.336	0.015
-666.032	304.641	0.113	-0.212
-665.018	-200.000	0.023	-0.329
-664.003	-68.381	-0.172	0.068
-662.989	38.732	0.119	0.107
-661.974	-191.139	-0.299	0.003
-660.959	-74.168	0.434	-0.159
-659.945	59.904	0.304	0.303
-658.930	-200.000	-0.028	-0.194
-657.916	-78.700	0.137	-0.047
-656.901	692.798	0.150	0.399
-655.886	-141.209	0.168	-0.017
-654.872	-99.764	0.296	0.075
-653.857	661.548	0.059	-0.153
-652.843	800.000	0.066	0.207
-651.828	-200.000	0.074	0.483
-650.814	-200.000	-0.002	0.427
-649.799	235.708	0.095	-0.159
-648.784	-200.000	0.022	0.146
-647.770	386.618	0.145	0.303
-646.755	220.195	-0.111	0.180
-645.741	-62.189	-0.096	-0.040
-644.726	-200.000	-0.000	-0.236
-643.711	-45.548	-0.322	-0.161
-642.697	800.000	0.093	-0.280
-641.682	-146.367	-0.292	-0.026
-640.668	211.291	0.100	-0.159
-639.653	-200.000	-0.054	0.311
-638.638	-200.000	0.072	0.417
-637.624	-200.000	0.058	0.303
-636.609	14.772	-0.215	-0.170
-635.595	-200.000	-0.027	0.138
-634.580	-112.625	0.410	0.083
-633.565	10.581	-0.156	0.120
-632.551	668.576	-0.053	-0.139
-631.536	328.578	0.092	0.178
-630.522	-200.000	-0.002	0.216
-629.507	-190.773	0.208	0.002
-628.492	-57.754	0.246	-0.109
-627.478	200.313	-0.208	-0.322
-626.463	56.699	-0.219	0.215
-625.449	-200.000	0.057	0.291
-624.434	-200.000	-0.043	0.252
-623.419	-196.884	-0.248	0.002
-622.405	442.523	-0.097	-0.214
-621.390	-113.542	0.191	-0.038
-620.376	472.754	0.192	0.437
-619.361	-23.255	0.129	-0.079
-618.346	-200.000	-0.050	-0.261
-617.332	-125.927	0.205	0.031
-616.317	-132.396	0.242	-0.031
-615.303	172.419	-0.201	-0.292
-614.288	-64.465	-0.164	-0.067
-613.273	-154.904	-0.058	-0.004
-612.259	188.074	-0.102	-0.154
-611.244	73.903	0.143	-0.151
-610.230	64.806	0.189	-0.192
-609.215	-38.806	-0.206	0.110
-608.201	180.372	-0.218	-0.323
-607.186	-123.514	-0.108	-0.017
-606.171	570.390	0.099	-0.243
-605.157	800.000	0.029	-0.086
-604.142	291.320	0.037	-0.068
-603.128	800.000	0.097	-0.363
-602.113	800.000	-0.027	0.093
-601.098	118.052	-0.116	-0.144
-600.084	-200.000	-0.006	-0.098
-599.069	-36.033	0.163	-0.089
-598.055	-200.000	0.080	-0.487
-597.040	156.099	-0.132	0.184
-596.025	28.520	-0.099	0.084
-595.011	-24.671	0.087	0.052
-593.996	257.558	0.047	0.081
-592.982	-53.611	0.277	0.128
-591.967	-42.033	0.123	-0.063
-590.952	361.135	0.056	-0.113
-589.938	13.975	0.147	0.116
-588.923	378.356	-0.096	-0.197
-587.909	47.555	0.414	-0.389
-586.894	7.242	-0.373	-0.281
-585.879	800.000	-0.022	-0.091
-584.865	-200.000	-0.004	-0.160
-583.850	55.446	0.100	-0.098
-582.836	128.431	0.178	-0.228
-581.821	-161.892	-0.047	-0.002
-580.806	2.851	-0.408	0.299
-579.792	-200.000	0.026	0.182
-578.777	335.245	-0.091	-0.178
-577.763	300.990	-0.166	0.309
-576.748	-200.000	0.038	-0.341
-575.733	89.067	-0.092	-0.103
-574.719	300.891	-0.101	0.188
-573.704	-135.052	0.246	0.030
-572.690	-191.514	0.177	0.002
-571.675	-200.000	0.016	0.168
-570.661	-46.948	-0.082	0.040
-569.646	-115.680	-0.289	0.055
-568.631	-98.775	-0.339	0.087
-567.617	-57.429	0.455	0.201
-566.602	-200.000	0.019	0.184
-565.588	750.562	0.061	0.167
-564.573	112.184	0.010	-0.012
-563.558	-146.304	-0.214	-0.019
-562.544	-50.510	0.085	0.040
-561.529	-148.411	0.148	-0.012
-560.515	176.654	0.070	0.102
-559.500	-180.987	0.129	0.003
-558.485	800.000	0.045	-0.171
-557.471	22.368	-0.038	0.031
-556.456	-10.680	0.198	-0.132
-555.442	-134.967	0.277	-0.034
-554.427	800.000	-0.010	-0.041
-553.412	-97.902	0.284	0.074
-552.398	-97.359	-0.184	-0.048
-551.383	-200.000	-0.034	0.314
-550.369	-19.328	-0.294	0.184
-549.354	65.714	-0.148	0.151
-548.339	-23.534	0.223	0.135
-547.325	416.387	-0.064	-0.136
-546.310	-4.710	-0.080	-0.056
-545.296	-2.987	-0.216	-0.152
-544.281	253.262	-0.056	0.097
-543.266	-153.132	0.247	0.017
-542.252	139.884	0.125	0.165
-541.237	138.031	0.227	-0.299
-540.223	-7.638	-0.106	-0.072
-539.208	-124.702	0.463	-0.072
-538.193	70.063	-0.135	0.141
-537.179	-110.655	-0.270	0.056
-536.164	-200.000	-0.045	0.316
-535.150	105.083	0.061	-0.073
-534.135	21.708	-0.184	0.151
-533.121	800.000	0.133	-0.403
-532.106	-200.000	0.045	-0.255
-531.091	-92.490	0.187	0.053
-530.077	-51.922	-0.107	0.050
-529.062	-200.000	-0.076	0.336
-528.048	107.065	-0.123	0.146
-527.033	-200.000	-0.027	-0.127
-526.018	23.233	0.155	0.128
-525.004	84.987	-0.099	-0.110
-523.989	800.000	0.077	-0.304
-522.975	85.821	-0.354	-0.392
-521.960	800.000	-0.087	0.381
-520.945	14.956	0.048	-0.038
-519.931	-174.509	-0.016	0.000
-518.916	21.384	0.122	0.100
-517.902	-200.000	-0.002	-0.096
-516.887	331.299	-0.067	-0.129
-515.872	-65.587	0.267	0.108
-514.858	107.743	0.106	-0.127
-513.843	41.233	-0.231	0.210
-512.829	-200.000	0.046	0.205
-511.814	43.618	0.311	0.286
-510.799	-119.539	0.064	-0.011
-509.785	800.000	-0.103	-0.286
-508.770	-169.730	-0.259	-0.009
-507.756	6.388	0.123	-0.092
-506.741	-120.962	-0.279	0.047
-505.726	-99.129	-0.245	-0.062
-504.712	800.000	0.061	-0.259
-503.697	-85.770	-0.193	0.060
-502.683	-86.733	-0.081	0.025
-501.668	-1.895	-0.281	0.199
-500.653	296.410	0.093	-0.172
-499.639	-200.000	-0.043	0.191
-498.624	132.905	-0.276	0.358
-497.610	-45.699	0.105	0.052
-496.595	22.189	0.136	-0.112
-495.581	-13.058	0.176	-0.115
-494.566	-200.000	0.013	0.075
-493.551	-200.000	-0.008	-0.296
-492.537	208.664	0.217	-0.342
-491.522	313.879	0.191	-0.361
-490.508	-17.004	-0.261	-0.166
-489.493	24.880	0.237	0.197
-488.478	-157.495	-0.141	-0.009
-487.464	-19.396	0.149	0.093
-486.449	-105.470	-0.223	-0.051
-485.435	800.000	-0.064	0.229
-484.420	-200.000	-0.004	0.051
-483.405	-44.931	-0.127	0.064
-482.391	-9.320	-0.141	-0.095
-481.376	-200.000	-0.003	0.056
-480.362	347.088	0.057	-0.113
-479.347	-200.000	0.032	-0.253
-478.332	155.065	-0.229	0.317
-477.318	-97.298	-0.386	0.101
-476.303	800.000	0.071	0.220
-475.289	-200.000	-0.040	-0.276
-474.274	193.007	-0.266	-0.404
-473.259	-85.973	0.405	0.126
-472.245	-188.779	-0.234	-0.003
-471.230	-50.185	-0.172	-0.082
-470.216	-78.608	-0.268	-0.092
-469.201	42.520	0.239	-0.218
-468.186	-78.936	-0.358	-0.122
-467.172	800.000	0.084	-0.357
-466.157	-14.635	-0.073	-0.047
-465.143	-200.000	0.011	-0.061
-464.128	800.000	0.070	0.239
-463.113	-200.000	0.008	0.189
-462.099	253.079	0.084	-0.144
-461.084	-32.877	0.163	0.091
-460.070	-25.631	-0.145	0.086
-459.055	-93.573	-0.123	-0.034
-458.040	-122.917	-0.280	0.045
-457.026	88.567	0.087	0.097
-456.011	-90.769	-0.258	0.075
-454.997	369.181	0.186	-0.378
-453.982	119.221	0.136	-0.168
-452.968	-200.000	-0.024	-0.236
-451.953	153.985	0.111	-0.152
-450.938	125.355	0.179	0.226
-449.924	-131.420	0.165	-0.022
-448.909	-14.078	0.246	-0.159
-447.895	-37.966	0.264	-0.141
-446.880	-28.706	0.109	0.063
-445.865	-154.453	0.262	0.018
-444.851	-17.650	0.200	0.126
-443.836	-3.968	0.271	-0.188
-442.822	116.775	-0.195	-0.240
-441.807	-200.000	-0.006	0.187
-440.792	-200.000	0.019	-0.166
-439.778	-8.448	-0.243	0.164
-438.763	-146.789	0.546	-0.047
-437.749	-91.815	-0.291	0.083
-436.734	-81.424	0.291	-0.096
-435.719	-7.105	-0.229	-0.156
-434.705	131.849	-0.284	0.367
-433.690	-43.778	0.338	-0.171
-432.676	-91.081	0.202	-0.058
-431.661	308.761	0.063	0.118
-430.646	33.498	0.159	-0.138
-429.632	301.632	-0.204	0.378
-428.617	345.218	0.084	-0.166
-427.603	138.198	0.165	0.217
-426.588	-200.000	-0.009	-0.069
-425.573	800.000	-0.087	-0.254
-424.559	-71.793	-0.125	0.047
-423.544	468.165	-0.104	0.233
-422.530	5.736	0.250	0.185
-421.515	-16.416	0.122	-0.078
-420.500	-59.593	0.179	-0.077
-419.486	-200.000	-0.054	0.314
-418.471	420.860	0.031	0.067
-417.457	-77.270	-0.268	0.093
-416.442	-200.000	0.058	-0.445
-415.428	-36.605	0.320	-0.172
-414.413	-87.776	0.428	0.129
-413.398	-12.600	0.110	0.072
-412.384	167.570	-0.067	0.096
-411.369	800.000	0.037	-0.125
-410.355	-3.118	-0.253	-0.177
-409.340	-200.000	-0.031	-0.212
-408.325	-18.988	-0.131	-0.082
-407.311	-63.497	-0.215	0.089
-406.296	99.055	0.084	-0.097
-405.282	-75.744	0.186	0.066
-404.267	-200.000	0.000	-0.038
-403.252	-200.000	-0.003	-0.092
-402.238	42.979	-0.219	-0.200
-401.223	800.000	0.109	0.441
-400.209	-74.551	0.144	-0.052
-399.194	60.871	-0.043	-0.043
-398.179	-97.993	-0.256	0.066
-397.165	-127.862	0.096	0.014
-396.150	309.300	-0.147	0.275
-395.136	-45.133	-0.036	0.018
-394.121	629.825	-0.102	0.258
-393.106	-120.401	0.220	0.037
-392.092	-9.907	-0.076	-0.050
-391.077	-52.220	0.260	0.121
-390.063	46.188	0.034	-0.031
-389.048	118.964	-0.112	0.139
-388.033	388.852	-0.084	0.175
-387.019	-200.000	-0.009	-0.234
-386.004	-86.264	-0.242	0.075
-384.990	-67.906	0.202	0.079
-383.975	413.256	0.091	0.193
-382.960	-200.000	0.021	0.172
-381.946	395.022	0.162	-0.338
-380.931	-200.000	0.066	-0.359
-379.917	-200.000	0.009	0.157
-378.902	-200.000	-0.004	0.151
-377.888	313.147	0.165	0.311
-376.873	-26.723	-0.076	0.044
-375.858	106.447	-0.095	-0.113
-374.844	-83.781	0.486	0.155
-373.829	-183.434	-0.221	-0.004
-372.815	50.672	-0.136	-0.129
-371.800	-200.000	-0.006	-0.051
-370.785	-62.427	-0.071	-0.030
-369.771	-120.518	-0.122	-0.021
-368.756	-102.930	0.210	-0.050
-367.742	1.103	0.075	0.054
-366.727	-163.902	-0.160	-0.007
-365.712	-129.534	0.051	-0.007
-364.698	-97.207	-0.132	0.034
-363.683	-200.000	-0.007	-0.159
-362.669	-113.357	-0.179	-0.035
-361.654	129.338	-0.136	0.173
-360.639	170.136	-0.070	-0.101
-359.625	-200.000	-0.044	-0.255
-358.610	-200.000	0.017	-0.421
-357.596	-165.815	0.238	-0.010
-356.581	-60.428	-0.429	0.182
-355.566	-108.028	0.112	0.024
-354.552	171.193	-0.121	-0.173
-353.537	-200.000	-0.013	-0.245
-352.523	103.158	-0.124	0.145
-351.508	240.139	-0.052	0.087
-350.493	120.120	-0.422	-0.524
-349.479	-53.450	-0.083	0.038
-348.464	26.944	-0.167	-0.140
-347.450	-104.634	-0.325	0.075
-346.435	-75.902	0.158	0.056
-345.420	-61.451	0.283	-0.119
-344.406	-149.288	-0.144	0.012
-343.391	93.593	-0.304	-0.344
-342.377	21.388	0.257	0.209
-341.362	117.616	-0.144	0.177
-340.348	-200.000	0.041	-0.214
-339.333	-200.000	0.031	-0.283
-338.318	800.000	0.084	-0.322
-337.304	-94.644	-0.199	0.054
-336.289	800.000	-0.063	0.225
-335.275	-200.000	-0.007	-0.034
-334.260	-54.733	-0.048	-0.022
-333.245	0.377	-0.178	-0.127
-332.231	198.656	0.054	0.082
-331.216	4.417	0.298	0.218
-330.202	-170.467	0.164	0.006
-329.187	78.417	0.106	-0.113
-328.172	5.142	0.176	-0.129
-327.158	69.214	0.108	-0.111
-326.143	-200.000	-0.014	0.081
-325.129	235.470	0.055	0.091
-324.114	-200.000	0.033	-0.181
-323.099	-31.322	-0.225	0.126
-322.085	-129.802	-0.053	0.007
-321.070	21.142	0.120	0.097
-320.056	-114.243	-0.242	-0.047
-319.041	-39.351	0.049	0.026
-318.026	292.447	-0.033	0.060
-317.012	31.460	0.269	0.231
-315.997	-200.000	-0.006	0.067
-314.983	-82.978	0.090	0.029
-313.968	216.821	0.169	0.268
-312.953	-200.000	0.023	-0.373
-311.939	-200.000	0.043	-0.237
-310.924	800.000	0.043	-0.183
-309.910	-123.457	-0.453	0.072
-308.895	-8.643	-0.134	0.090
-307.880	204.387	0.081	0.125
-306.866	318.130	0.178	0.335
-305.851	-1.684	-0.133	-0.093
-304.837	76.606	-0.145	0.154
-303.822	13.820	0.108	0.083
-302.807	167.786	-0.043	0.061
-301.793	45.107	-0.190	0.175
-300.778	-14.676	-0.050	-0.032
-299.764	99.277	-0.121	-0.140
-298.749	-157.633	-0.281	-0.017
-297.735	14.864	-0.159	-0.124
-296.720	231.952	0.074	0.120
-295.705	41.333	0.075	0.068
-294.691	-200.000	-0.007	-0.200
-293.676	494.967	0.135	0.309
-292.662	247.118	-0.050	0.083
-291.647	348.541	0.244	0.481
-290.632	747.513	0.036	-0.097
-289.618	-51.336	0.293	-0.136
-288.603	429.897	0.160	-0.346
-287.589	-38.921	0.125	-0.066
-286.574	23.428	-0.047	0.039
-285.559	147.770	0.214	0.287
-284.545	-54.717	-0.165	0.074
-283.530	-48.233	-0.155	0.075
-282.516	-166.962	-0.556	0.023
-281.501	-3.840	0.103	-0.071
-280.486	9.841	-0.134	-0.101
-279.472	-65.122	0.041	-0.016
-278.457	625.097	0.052	0.130
-277.443	-83.143	-0.075	0.024
-276.428	-25.793	0.218	0.128
-275.413	-200.000	0.022	0.101
-274.399	-61.772	-0.245	0.102
-273.384	-81.701	-0.261	-0.085
-272.370	-200.000	0.009	0.075
-271.355	-21.743	0.153	-0.093
-270.340	-200.000	0.007	0.057
-269.326	-200.000	0.002	-0.286
-268.311	-120.348	0.174	0.030
-267.297	-70.683	-0.129	-0.048
-266.282	187.580	-0.079	0.117
-265.267	-99.926	-0.295	-0.073
-264.253	-45.441	-0.265	-0.131
-263.238	8.584	0.153	0.115
-262.224	-56.574	-0.103	0.045
-261.209	800.000	-0.042	0.174
-260.195	218.835	0.136	0.216
-259.180	-36.662	-0.225	0.121
-258.165	800.000	-0.041	-0.147
-257.151	152.277	-0.144	0.196
-256.136	-87.040	0.246	0.075
-255.122	-187.693	-0.109	0.001
-254.107	-68.861	0.157	0.060
-253.092	-108.400	-0.063	0.013
-252.078	-55.128	0.205	0.092
-251.063	-37.471	0.271	0.144
-250.049	-70.914	0.327	-0.123
-249.034	713.371	-0.042	0.112
-248.019	226.818	-0.070	-0.112
-247.005	328.287	-0.160	-0.306
-245.990	-79.025	0.371	0.126
-244.976	-200.000	-0.001	0.335
-243.961	226.747	0.051	-0.082
-242.946	64.455	0.173	0.173
-241.932	-100.171	-0.132	-0.033
-240.917	-55.480	-0.032	0.014
-239.903	-200.000	-0.033	-0.161
-238.888	71.400	-0.197	0.203
-237.873	161.692	-0.270	0.376
-236.859	-58.578	0.276	0.119
-235.844	-200.000	-0.060	0.271
-234.830	-145.896	-0.150	-0.013
-233.815	86.773	0.043	0.048
-232.800	85.159	-0.206	0.224
-231.786	800.000	0.054	0.195
-230.771	34.084	0.194	0.168
-229.757	-200.000	-0.040	-0.328
-228.742	539.678	-0.147	-0.347
-227.727	45.510	-0.162	0.149
-226.713	-171.437	0.200	0.007
-225.698	154.528	-0.129	0.176
-224.684	-200.000	-0.007	0.280
-223.669	602.291	-0.187	0.461
-222.655	-200.000	-0.007	0.308
-221.640	783.432	-0.064	-0.173
-220.625	169.605	0.046	-0.066
-219.611	56.721	-0.126	0.122
-218.596	-73.059	-0.160	-0.058
-217.582	164.701	-0.086	-0.121
-216.567	800.000	-0.038	-0.162
-215.552	-200.000	0.002	0.138
-214.538	800.000	0.021	0.072
-213.523	-114.122	-0.379	0.073
-212.509	193.050	-0.162	-0.243
-211.494	-200.000	-0.022	-0.284
-210.479	-132.614	-0.332	-0.042
-209.465	502.882	-0.132	0.304
-208.450	25.718	-0.064	-0.053
-207.436	-200.000	-0.006	0.162
-206.421	115.323	-0.064	-0.077
-205.406	-71.492	-0.090	0.033
-204.392	-113.592	-0.118	0.023
-203.377	-28.380	-0.061	-0.035
-202.363	-64.476	0.182	-0.074
-201.348	-19.935	-0.073	-0.045
-200.333	502.328	0.143	0.329
-199.319	-118.906	0.061	-0.011
-198.304	-115.015	0.287	-0.054
-197.290	-200.000	0.001	-0.042
-196.275	-178.296	0.253	0.006
-195.260	-135.513	0.248	-0.029
-194.246	558.878	0.067	-0.160
-193.231	-106.095	0.222	-0.049
-192.217	44.742	0.146	0.133
-191.202	-200.000	0.002	0.124
-190.187	-101.754	0.295	-0.071
-189.173	29.709	-0.304	0.257
-188.158	-200.000	0.038	-0.193
-187.144	-200.000	0.018	-0.106
-186.129	-103.253	0.260	-0.061
-185.114	-150.449	0.290	0.022
-184.100	-179.882	-0.441	-0.009
-183.085	79.147	-0.221	0.235
-182.071	58.776	0.090	0.088
-181.056	-37.952	0.307	0.162
-180.042	145.282	-0.089	0.119
-179.027	29.728	0.305	0.258
-178.012	-5.552	0.289	0.197
-176.998	-19.807	0.181	-0.111
-175.983	-60.172	-0.139	-0.059
-174.969	-97.924	0.441	0.113
-173.954	188.400	-0.146	0.217
-172.939	295.215	-0.127	-0.231
-171.925	-200.000	-0.002	0.139
-170.910	-200.000	-0.013	-0.090
-169.896	26.022	-0.137	0.114
-168.881	-200.000	0.066	-0.288
-167.866	-29.612	0.136	-0.077
-166.852	-80.219	-0.126	0.042
-165.837	800.000	-0.003	-0.011
-164.823	800.000	-0.044	0.166
-163.808	-114.508	-0.032	0.006
-162.793	-200.000	-0.048	-0.278
-161.779	-200.000	0.014	0.099
-160.764	396.074	0.177	-0.367
-159.750	-85.393	0.208	0.064
-158.735	92.420	0.248	-0.277
-157.720	-200.000	-0.024	-0.302
-156.706	800.000	-0.064	-0.181
-155.691	-200.000	0.019	0.191
-154.677	-115.290	0.024	0.004
-153.662	312.044	-0.078	-0.145
-152.647	-200.000	-0.007	-0.111
-151.633	286.718	0.027	-0.048
-150.618	538.049	-0.108	0.255
-149.604	-108.122	0.065	0.014
-148.589	2.679	-0.357	-0.256
-147.574	-69.007	-0.172	0.066
-146.560	800.000	-0.043	0.185
-145.545	1.248	0.059	0.042
-144.531	655.385	0.006	-0.015
-143.516	123.959	0.173	0.216
-142.502	800.000	-0.012	-0.049
-141.487	-111.288	-0.408	0.083
-140.472	148.996	0.214	0.286
-139.458	2.597	0.231	0.166
-138.443	-76.922	0.127	-0.044
-137.429	-200.000	0.005	0.351
-136.414	-62.616	0.226	0.093
-135.399	-83.940	0.097	-0.031
-134.385	-44.421	0.193	-0.096
-133.370	-2.427	0.098	-0.068
-132.356	134.961	0.047	-0.060
-131.341	-87.673	0.388	-0.116
-130.326	-102.923	-0.350	0.082
-129.312	-130.002	0.513	0.069
-128.297	-121.040	0.060	0.010
-127.283	-156.166	-0.263	0.016
-126.268	-27.779	0.472	-0.271
-125.253	1.209	-0.263	0.187
-124.239	-170.122	0.122	-0.004
-123.224	6.130	0.024	0.018
-122.210	40.818	-0.291	-0.260
-121.195	440.287	-0.055	-0.118
