DTS Sentinel unit serial number:	SN413079Multiplexer serial number:	ORYXHardware model number:	OX4-SRSoftware version number:	ORYX F/W v4.00 Oryx Data Collector v3.7.2.0data status	okinstallation	princeton_trtdifferential loss correction	single-endedforward channel	channel 4reverse channel	N/Adate	2019/09/15time	16:21:35forward acquisition time	60.00reverse acquisition time	0.00gamma	496.2192k internal	0.2277k external	0.2277temperature offset calibration	0.9942default loss term (dB/km)	0.3790temperature slope calibration	1.0000multiplexer offset coefficient	1.0000multiplexer slope coefficient	1.0000fibre end	0.00T internal ref (°C)	43.64T ext. ref 1 (°C)	5.52T ext. ref 2 (°C)	40.13length (m)	temperature (°C)	Stokes	anti-Stokes-747.200	129.628	-0.145	-0.191
-746.185	27.122	-0.343	0.297
-745.171	107.249	-0.035	0.043
-744.156	248.644	0.099	0.173
-743.142	-154.943	0.253	0.017
-742.127	37.455	-0.341	0.312
-741.112	121.297	0.093	0.119
-740.098	800.000	0.123	0.398
-739.083	-175.242	-0.304	-0.009
-738.069	203.344	0.190	0.303
-737.054	125.428	-0.134	0.175
-736.039	-84.602	-0.285	-0.092
-735.025	69.404	0.146	-0.155
-734.010	-6.469	0.373	-0.262
-732.996	394.369	-0.043	0.093
-731.981	-200.000	-0.025	0.151
-730.966	222.379	0.042	0.070
-729.952	233.778	-0.226	-0.383
-728.937	-13.674	-0.114	0.076
-727.923	-189.880	-0.260	0.003
-726.908	800.000	0.043	-0.169
-725.894	-142.944	-0.200	-0.020
-724.879	359.299	0.173	-0.356
-723.864	198.816	0.155	-0.244
-722.850	-200.000	-0.031	-0.250
-721.835	-61.241	-0.091	-0.039
-720.821	-3.361	0.226	0.162
-719.806	800.000	-0.043	-0.152
-718.791	-200.000	0.027	-0.238
-717.777	-99.387	-0.233	-0.060
-716.762	235.578	0.053	-0.090
-715.748	800.000	-0.124	-0.545
-714.733	800.000	0.017	0.075
-713.718	176.098	-0.188	-0.281
-712.704	307.825	0.105	0.202
-711.689	-56.644	-0.173	-0.079
-710.675	389.973	0.078	-0.167
-709.660	9.639	-0.107	0.083
-708.645	-52.429	0.414	0.197
-707.631	800.000	0.063	-0.219
-706.616	0.988	-0.217	-0.160
-705.602	29.175	-0.074	-0.065
-704.587	-138.291	-0.248	0.028
-703.572	348.447	-0.124	-0.251
-702.558	-149.848	0.223	-0.018
-701.543	-200.000	-0.001	0.179
-700.529	-138.640	0.256	-0.029
-699.514	-47.350	-0.201	0.101
-698.499	152.815	0.245	0.345
-697.485	16.436	-0.322	-0.262
-696.470	321.271	0.184	0.361
-695.456	-149.131	0.177	-0.015
-694.441	232.407	-0.194	0.328
-693.426	-62.675	-0.238	-0.101
-692.412	698.304	0.081	-0.219
-691.397	-56.463	-0.350	0.159
-690.383	376.485	-0.098	-0.205
-689.368	-139.766	0.139	-0.015
-688.354	800.000	-0.039	0.159
-687.339	334.143	0.132	-0.263
-686.324	-71.143	-0.529	0.204
-685.310	152.531	0.111	-0.155
-684.295	512.713	-0.191	-0.459
-683.281	800.000	-0.103	-0.383
-682.266	-142.491	0.218	-0.022
-681.251	138.347	0.241	-0.325
-680.237	-119.015	-0.334	-0.060
-679.222	-170.590	0.164	-0.006
-678.208	-140.028	-0.348	-0.038
-677.193	64.032	-0.266	-0.275
-676.178	7.165	-0.189	-0.145
-675.164	67.609	-0.225	-0.236
-674.149	-200.000	0.025	0.300
-673.135	-200.000	0.003	-0.058
-672.120	13.055	-0.103	-0.082
-671.105	381.504	-0.132	0.279
-670.091	114.079	-0.041	-0.051
-669.076	800.000	0.062	-0.226
-668.062	257.293	-0.230	-0.405
-667.047	-153.958	-0.291	0.020
-666.032	-85.379	0.277	0.089
-665.018	82.891	0.188	0.210
-664.003	46.563	-0.100	0.095
-662.989	107.347	-0.199	0.244
-661.974	367.794	0.149	-0.309
-660.959	-82.526	0.228	0.076
-659.945	-135.319	0.191	-0.023
-658.930	-133.824	-0.424	-0.054
-657.916	19.528	0.126	-0.104
-656.901	800.000	-0.086	0.363
-655.886	-200.000	-0.024	0.170
-654.872	-17.045	-0.111	-0.072
-653.857	333.571	-0.155	-0.307
-652.843	-116.614	0.164	-0.031
-651.828	800.000	0.033	0.127
-650.814	-10.322	-0.086	0.058
-649.799	50.411	-0.165	-0.160
-648.784	-149.165	-0.351	-0.029
-647.770	-200.000	0.016	0.115
-646.755	-39.003	0.175	-0.095
-645.741	38.922	-0.164	-0.150
-644.726	292.642	-0.124	0.232
-643.711	-200.000	-0.020	0.106
-642.697	125.749	-0.105	-0.136
-641.682	800.000	0.133	-0.389
-640.668	577.616	0.071	-0.179
-639.653	21.482	-0.278	-0.232
-638.638	115.356	0.120	0.150
-637.624	800.000	-0.016	0.065
-636.609	-86.868	-0.191	-0.060
-635.595	46.013	0.123	-0.116
-634.580	30.096	-0.239	-0.210
-633.565	548.472	-0.037	0.090
-632.551	288.546	-0.006	0.012
-631.536	158.449	-0.064	-0.091
-630.522	-81.437	-0.134	0.045
-629.507	-7.681	0.139	-0.097
-628.492	-85.413	0.302	-0.096
-627.478	197.811	-0.181	0.284
-626.463	-28.447	0.243	-0.144
-625.449	48.050	0.166	0.159
-624.434	-149.940	-0.232	-0.019
-623.419	284.567	0.063	-0.116
-622.405	236.454	-0.170	-0.289
-621.390	-56.657	-0.148	0.067
-620.376	198.202	-0.137	-0.214
-619.361	800.000	-0.072	-0.254
-618.346	800.000	-0.078	-0.250
-617.332	-17.901	-0.121	0.078
-616.317	77.490	-0.303	0.330
-615.303	-127.438	-0.453	0.068
-614.288	-200.000	-0.028	-0.393
-613.273	115.423	-0.180	-0.226
-612.259	705.907	-0.044	-0.120
-611.244	115.981	-0.190	-0.239
-610.230	327.817	0.064	0.125
-609.215	34.092	-0.166	0.148
-608.201	-83.280	-0.105	0.034
-607.186	-119.652	-0.181	-0.032
-606.171	800.000	-0.040	0.176
-605.157	-32.210	-0.017	-0.010
-604.142	-71.198	-0.413	-0.159
-603.128	-200.000	0.001	-0.167
-602.113	125.237	0.250	0.324
-601.098	-200.000	-0.049	0.237
-600.084	-164.525	-0.154	0.007
-599.069	32.857	-0.140	0.124
-598.055	-58.726	-0.307	0.136
-597.040	121.789	0.075	-0.096
-596.025	-129.839	0.255	-0.036
-595.011	79.907	-0.163	-0.180
-593.996	113.243	-0.080	-0.099
-592.982	611.875	0.084	-0.214
-591.967	-129.535	-0.537	0.076
-590.952	10.827	0.220	0.172
-589.938	-30.735	-0.139	0.081
-588.923	800.000	-0.085	-0.289
-587.909	800.000	0.028	0.101
-586.894	-59.221	-0.370	0.163
-585.879	-200.000	0.013	0.204
-584.865	199.704	0.103	-0.162
-583.850	113.676	-0.200	0.249
-582.836	380.366	0.067	0.140
-581.821	302.901	0.068	-0.129
-580.806	180.600	0.142	0.213
-579.792	-4.695	-0.038	0.027
-578.777	165.630	0.119	-0.173
-577.763	-23.550	-0.337	-0.207
-576.748	-63.457	-0.248	-0.105
-575.733	800.000	0.041	0.137
-574.719	-19.053	-0.246	0.156
-573.704	-126.562	0.314	-0.048
-572.690	-200.000	0.003	-0.242
-571.675	800.000	0.032	-0.097
-570.661	-200.000	0.004	0.075
-569.646	-126.706	0.279	-0.042
-568.631	185.274	-0.083	-0.126
-567.617	173.268	0.151	-0.223
-566.602	800.000	0.086	-0.325
-565.588	-48.781	-0.102	0.050
-564.573	47.510	-0.257	-0.245
-563.558	-13.743	-0.101	-0.067
-562.544	3.764	0.105	-0.078
-561.529	-200.000	0.125	0.000
-560.515	244.545	0.085	0.147
-559.500	77.700	0.097	-0.106
-558.485	368.959	0.108	-0.223
-557.471	-200.000	-0.009	0.291
-556.456	-200.000	0.001	0.043
-555.442	800.000	-0.034	0.135
-554.427	-106.269	0.141	-0.032
-553.412	3.664	-0.171	-0.128
-552.398	-3.486	-0.214	-0.152
-551.383	-58.907	0.010	0.005
-550.369	-200.000	0.025	0.192
-549.354	800.000	0.069	-0.197
-548.339	-69.790	0.384	-0.150
-547.325	-69.934	-0.164	-0.064
-546.310	800.000	0.150	0.429
-545.296	154.175	-0.028	-0.039
-544.281	-44.228	-0.306	-0.157
-543.266	-200.000	-0.004	-0.320
-542.252	-129.291	0.249	-0.035
-541.237	52.297	0.097	0.095
-540.223	-178.849	0.317	0.007
-539.208	-200.000	-0.004	-0.060
-538.193	-200.000	-0.055	-0.313
-537.179	-111.837	0.112	-0.023
-536.164	-200.000	-0.011	-0.063
-535.150	30.459	0.141	-0.123
-534.135	-200.000	0.043	0.383
-533.121	182.036	-0.087	0.131
-532.106	800.000	0.078	-0.292
-531.091	-200.000	0.030	-0.135
-530.077	-200.000	-0.080	0.363
-529.062	-200.000	-0.026	0.155
-528.048	-148.264	0.057	-0.005
-527.033	163.159	0.093	0.133
-526.018	-93.438	-0.342	-0.097
-525.004	800.000	0.054	0.178
-523.989	-200.000	-0.024	-0.174
-522.975	114.007	-0.119	0.147
-521.960	-200.000	0.017	0.192
-520.945	-200.000	-0.015	-0.088
-519.931	-86.420	-0.158	0.049
-518.916	-167.074	0.322	0.013
-517.902	-52.482	0.084	-0.039
-516.887	14.306	-0.072	-0.057
-515.872	-135.284	0.338	-0.041
-514.858	7.735	-0.057	-0.044
-513.843	-127.038	-0.140	0.021
-512.829	-51.612	-0.047	-0.022
-511.814	42.918	0.058	0.054
-510.799	-147.966	0.139	-0.012
-509.785	288.987	-0.093	-0.172
-508.770	-200.000	-0.004	0.164
-507.756	-200.000	0.049	0.355
-506.741	-200.000	0.022	-0.127
-505.726	-42.450	0.063	0.033
-504.712	326.560	-0.149	-0.291
-503.697	-150.169	-0.149	0.012
-502.683	-101.953	-0.333	-0.082
-501.668	417.357	-0.046	-0.101
-500.653	173.661	-0.178	0.262
-499.639	-200.000	-0.012	-0.182
-498.624	-17.319	0.043	-0.028
-497.610	216.471	0.123	-0.199
-496.595	-76.225	-0.146	-0.053
-495.581	316.801	-0.051	0.097
-494.566	207.019	-0.050	-0.080
-493.551	-200.000	-0.008	0.191
-492.537	-111.271	-0.219	0.046
-491.522	-200.000	0.005	0.089
-490.508	800.000	-0.034	-0.141
-489.493	-200.000	0.009	-0.225
-488.478	-132.097	0.063	-0.008
-487.464	42.397	-0.081	0.075
-486.449	-200.000	-0.002	0.029
-485.435	79.347	-0.119	-0.130
-484.420	2.323	-0.192	-0.142
-483.405	-38.647	-0.229	0.123
-482.391	-7.438	-0.110	0.076
-481.376	23.140	-0.092	0.077
-480.362	-91.681	0.064	0.018
-479.347	167.871	-0.016	-0.023
-478.332	-85.601	-0.036	0.011
-477.318	-200.000	-0.019	-0.272
-476.303	-127.458	-0.217	-0.032
-475.289	-121.300	-0.091	0.016
-474.274	81.559	0.322	-0.356
-473.259	-58.904	-0.308	-0.136
-472.245	143.746	-0.115	-0.156
-471.230	-156.770	-0.246	-0.015
-470.216	800.000	0.029	0.125
-469.201	800.000	0.158	0.543
-468.186	800.000	0.050	0.198
-467.172	-200.000	0.003	0.145
-466.157	800.000	-0.044	-0.169
-465.143	55.292	0.304	0.300
-464.128	39.243	0.243	-0.222
-463.113	-66.488	0.406	-0.164
-462.099	-200.000	0.009	-0.140
-461.084	11.245	-0.003	-0.002
-460.070	-28.580	0.161	-0.095
-459.055	800.000	0.039	0.138
-458.040	-115.581	0.142	-0.027
-457.026	29.530	-0.017	-0.015
-456.011	800.000	-0.033	0.106
-454.997	35.312	0.319	-0.285
-453.982	-141.701	-0.066	-0.007
-452.968	-200.000	-0.034	0.212
-451.953	-200.000	-0.041	-0.324
-450.938	-36.500	-0.108	0.059
-449.924	-200.000	0.032	0.204
-448.909	-200.000	0.048	-0.477
-447.895	-5.652	-0.210	0.146
-446.880	55.775	0.135	-0.133
-445.865	-63.210	-0.062	0.026
-444.851	-200.000	-0.009	-0.207
-443.836	-107.417	-0.161	0.036
-442.822	290.292	-0.041	-0.076
-441.807	-3.271	0.162	0.115
-440.792	311.871	0.164	0.313
-439.778	20.430	0.203	0.167
-438.763	-107.124	0.145	-0.033
-437.749	-167.496	0.529	0.022
-436.734	205.008	-0.205	0.324
-435.719	-30.216	-0.075	-0.044
-434.705	800.000	0.083	0.293
-433.690	67.239	0.162	-0.168
-432.676	117.852	0.190	0.239
-431.661	-44.455	0.372	0.190
-430.646	-40.380	-0.175	-0.093
-429.632	-110.712	0.120	-0.025
-428.617	29.878	-0.200	0.174
-427.603	22.464	-0.129	0.107
-426.588	-158.902	0.387	-0.022
-425.573	-49.480	0.252	0.122
-424.559	219.374	0.106	0.172
-423.544	800.000	-0.061	0.209
-422.530	-86.682	0.269	0.084
-421.515	751.840	0.088	0.242
-420.500	-16.608	-0.162	-0.104
-419.486	-181.469	0.234	0.005
-418.471	11.363	0.132	0.103
-417.457	144.382	-0.110	0.150
-416.442	106.636	-0.143	-0.173
-415.428	800.000	-0.045	-0.138
-414.413	-54.281	0.142	-0.066
-413.398	-42.843	0.111	0.057
-412.384	478.214	0.052	0.119
-411.369	-88.682	0.085	-0.026
-410.355	-200.000	0.004	-0.213
-409.340	-50.680	0.151	0.072
-408.325	200.562	-0.102	-0.160
-407.311	-88.829	0.199	-0.060
-406.296	-65.436	0.275	-0.113
-405.282	-62.820	-0.284	-0.120
-404.267	62.224	0.146	-0.148
-403.252	318.800	-0.161	-0.311
-402.238	-65.851	0.092	-0.038
-401.223	-113.002	0.094	-0.019
-400.209	-0.951	-0.073	0.052
-399.194	509.283	0.118	0.279
-398.179	42.312	0.112	-0.104
-397.165	-140.157	0.145	-0.015
-396.150	800.000	-0.094	-0.341
-395.136	75.598	-0.178	-0.191
-394.121	55.607	-0.071	0.070
-393.106	-81.123	-0.209	-0.070
-392.092	-10.288	-0.064	0.043
-391.077	-173.381	0.219	-0.007
-390.063	-77.514	0.186	-0.066
-389.048	-116.427	0.125	0.023
-388.033	-82.588	-0.126	0.042
-387.019	-159.826	0.078	0.004
-386.004	48.105	0.040	-0.038
-384.990	-14.062	-0.107	-0.070
-383.975	92.388	-0.171	0.196
-382.960	767.875	-0.157	0.434
-381.946	800.000	-0.046	0.141
-380.931	-84.304	-0.118	0.038
-379.917	800.000	-0.065	-0.202
-378.902	63.184	0.254	0.258
-377.888	-193.998	0.111	-0.001
-376.873	-200.000	-0.051	0.229
-375.858	132.578	0.107	-0.140
-374.844	-56.805	-0.072	0.032
-373.829	58.497	0.190	0.189
-372.815	-200.000	-0.012	-0.210
-371.800	194.783	0.190	-0.293
-370.785	-200.000	0.023	-0.168
-369.771	-26.918	0.129	0.077
-368.756	-200.000	-0.036	-0.304
-367.742	398.449	0.033	-0.069
-366.727	-17.233	-0.229	-0.146
-365.712	302.648	-0.077	0.144
-364.698	100.694	-0.162	-0.191
-363.683	-50.935	-0.117	-0.056
-362.669	-200.000	-0.012	0.056
-361.654	-12.830	-0.136	0.090
-360.639	289.544	-0.114	0.210
-359.625	-43.307	-0.134	0.069
-358.610	-195.035	0.161	0.001
-357.596	-5.622	0.259	0.180
-356.581	152.775	-0.175	0.243
-355.566	219.362	0.129	0.210
-354.552	-21.838	0.064	0.040
-353.537	218.286	0.144	0.234
-352.523	122.602	0.222	0.281
-351.508	270.151	0.170	-0.304
-350.493	-7.130	0.237	0.164
-349.479	250.298	-0.044	0.075
-348.464	434.612	-0.119	-0.261
-347.450	-28.054	-0.267	0.157
-346.435	-36.296	-0.121	0.066
-345.420	-99.154	0.298	-0.077
-344.406	-129.641	0.117	-0.016
-343.391	-4.284	-0.122	0.085
-342.377	800.000	-0.082	0.304
-341.362	148.769	-0.068	0.093
-340.348	82.777	0.063	-0.070
-339.333	-200.000	-0.013	-0.086
-338.318	-81.476	0.228	-0.076
-337.304	41.386	-0.232	0.213
-336.289	-88.250	-0.165	-0.050
-335.275	175.419	0.126	0.186
-334.260	426.499	-0.024	-0.053
-333.245	-177.528	-0.241	-0.006
-332.231	-200.000	-0.014	0.133
-331.216	-102.282	-0.067	-0.016
-330.202	-70.130	-0.122	0.047
-329.187	685.130	-0.106	-0.281
-328.172	-61.026	0.086	0.037
-327.158	169.036	-0.175	0.252
-326.143	19.020	0.116	-0.094
-325.129	24.838	0.169	-0.142
-324.114	6.151	-0.026	0.020
-323.099	-200.000	0.011	-0.131
-322.085	-42.319	-0.325	0.168
-321.070	114.394	0.150	0.185
-320.056	12.466	0.143	0.111
-319.041	800.000	-0.025	0.100
-318.026	360.222	-0.058	-0.118
-317.012	-200.000	-0.001	0.121
-315.997	-135.186	-0.228	-0.028
-314.983	38.980	-0.140	0.127
-313.968	-61.005	-0.145	-0.062
-312.953	96.722	0.107	-0.125
-311.939	-200.000	-0.079	0.371
-310.924	-104.935	0.226	-0.053
-309.910	-200.000	-0.052	-0.240
-308.895	86.384	-0.107	-0.120
-307.880	-165.241	0.180	0.008
-306.866	42.884	-0.302	0.279
-305.851	369.578	-0.061	0.126
-304.837	59.174	0.329	-0.328
-303.822	-55.429	0.365	0.166
-302.807	-0.041	-0.118	-0.085
-301.793	72.271	-0.120	-0.126
-300.778	18.347	0.088	-0.071
-299.764	-76.065	0.276	-0.099
-298.749	800.000	0.034	-0.113
-297.735	-200.000	-0.014	0.107
-296.720	387.265	0.089	-0.185
-295.705	186.908	-0.030	-0.046
-294.691	155.875	-0.136	-0.189
-293.676	-200.000	-0.033	-0.148
-292.662	31.769	0.253	0.220
-291.647	800.000	0.069	-0.254
-290.632	-200.000	-0.002	0.461
-289.618	-112.401	0.270	0.055
-288.603	1.120	-0.416	-0.302
-287.589	-200.000	0.000	0.202
-286.574	-7.045	-0.367	0.252
-285.559	6.290	0.331	0.249
-284.545	-200.000	-0.001	0.335
-283.530	-109.275	-0.264	-0.057
-282.516	-42.527	0.136	-0.070
-281.501	-73.916	-0.125	0.046
-280.486	-200.000	0.077	0.368
-279.472	11.717	0.074	0.057
-278.457	36.075	0.171	-0.152
-277.443	-200.000	0.004	-0.354
-276.428	-103.094	0.102	-0.024
-275.413	212.507	0.183	-0.291
-274.399	-32.965	0.380	-0.213
-273.384	-200.000	0.003	0.019
-272.370	-141.476	0.311	0.032
-271.355	351.925	-0.040	0.079
-270.340	-177.034	-0.115	0.003
-269.326	-54.204	0.256	0.118
-268.311	-13.093	0.230	-0.151
-267.297	262.875	0.129	-0.227
-266.282	-166.720	0.176	0.007
-265.267	759.302	-0.070	0.193
-264.253	-94.214	0.309	-0.086
-263.238	40.940	0.101	-0.092
-262.224	-200.000	0.039	0.273
-261.209	-66.783	-0.197	0.079
-260.195	-116.204	-0.167	0.031
-259.180	36.327	0.317	-0.282
-258.165	792.115	-0.127	-0.354
-257.151	-46.327	0.183	-0.091
-256.136	772.545	-0.076	-0.211
-255.122	-200.000	0.008	-0.206
-254.107	-182.182	-0.099	0.002
-253.092	-136.339	0.083	-0.010
-252.078	-118.225	0.445	-0.080
-251.063	-146.101	-0.066	0.006
-250.049	-145.821	0.194	0.017
-249.034	-200.000	-0.017	0.242
-248.019	-116.869	-0.356	0.066
-247.005	274.755	-0.158	0.283
-245.990	-31.344	-0.182	0.104
-244.976	800.000	0.081	0.298
-243.961	221.502	0.006	0.010
-242.946	150.965	0.210	0.288
-241.932	-200.000	-0.074	-0.471
-240.917	800.000	0.060	0.239
-239.903	-200.000	0.012	-0.119
-238.888	83.010	-0.150	-0.165
-237.873	800.000	-0.055	-0.214
-236.859	-200.000	-0.040	-0.323
-235.844	282.894	-0.177	-0.321
-234.830	7.438	0.325	-0.245
-233.815	800.000	-0.027	0.083
-232.800	-151.935	-0.156	-0.011
-231.786	153.871	0.185	0.256
-230.771	-200.000	0.010	-0.113
-229.757	-11.875	-0.094	0.062
-228.742	-42.884	0.104	0.053
-227.727	-119.103	-0.267	0.047
-226.713	440.533	0.040	-0.088
-225.698	147.504	-0.174	0.236
-224.684	138.983	-0.229	0.304
-223.669	4.190	0.249	-0.184
-222.655	383.712	-0.098	0.205
-221.640	800.000	0.069	-0.303
-220.625	85.098	-0.215	-0.238
-219.611	-56.386	-0.342	0.153
-218.596	51.364	0.012	0.012
-217.582	800.000	0.058	-0.181
-216.567	800.000	0.072	-0.263
-215.552	-200.000	0.045	0.448
-214.538	-200.000	0.018	0.202
-213.523	-121.848	-0.245	0.041
-212.509	800.000	0.012	-0.048
-211.494	-98.724	0.503	-0.129
-210.479	13.096	-0.287	0.224
-209.465	-85.679	-0.025	0.008
-208.450	179.588	0.127	0.188
-207.436	-193.340	-0.510	-0.004
-206.421	-96.384	0.164	0.044
-205.406	183.104	0.172	0.256
-204.392	148.180	0.253	0.345
-203.377	-13.496	0.362	0.237
-202.363	46.822	0.197	-0.185
-201.348	1.942	0.261	0.190
-200.333	9.154	0.226	-0.172
-199.319	330.272	-0.127	-0.248
-198.304	-154.263	-0.171	-0.012
-197.290	-118.466	-0.156	0.028
-196.275	-62.429	0.202	0.085
-195.260	34.246	0.069	0.061
-194.246	-154.235	0.177	0.012
-193.231	83.095	0.030	0.033
-192.217	147.699	-0.119	-0.162
-191.202	39.410	-0.030	-0.027
-190.187	-200.000	-0.044	0.209
-189.173	-200.000	-0.034	0.305
-188.158	494.500	0.093	0.216
-187.144	-43.977	0.136	0.069
-186.129	-64.728	-0.121	0.049
-185.114	-175.331	-0.234	0.006
-184.100	-200.000	0.012	-0.269
-183.085	800.000	-0.050	0.150
-182.071	-40.100	0.156	-0.082
-181.056	-94.660	0.226	-0.062
-180.042	-147.029	0.078	-0.007
-179.027	701.912	0.155	0.413
-178.012	746.711	0.033	0.089
-176.998	-200.000	-0.012	0.149
-175.983	-61.592	-0.265	0.112
-174.969	10.074	0.208	-0.160
-173.954	109.280	-0.084	-0.101
-172.939	434.525	-0.146	0.319
-171.925	72.450	0.166	0.175
-170.910	280.396	0.136	0.245
-169.896	-118.661	-0.094	-0.017
-168.881	427.677	-0.143	-0.310
-167.866	36.390	-0.178	-0.158
-166.852	-46.929	-0.113	0.056
-165.837	-17.845	0.303	-0.192
-164.823	800.000	0.036	-0.107
-163.808	-200.000	0.110	0.490
-162.793	-123.948	-0.228	0.036
-161.779	-200.000	-0.007	-0.252
-160.764	28.749	0.046	-0.039
-159.750	-200.000	0.001	0.010
-158.735	57.645	0.242	0.238
-157.720	-48.674	-0.329	-0.159
-156.706	-127.731	0.101	-0.015
-155.691	63.931	0.177	-0.180
-154.677	-158.532	-0.386	-0.022
-153.662	-188.703	-0.510	-0.006
-152.647	12.400	-0.122	-0.095
-151.633	-200.000	-0.012	0.206
-150.618	-108.637	0.688	0.149
-149.604	800.000	0.145	-0.422
-148.589	-44.423	-0.144	-0.073
-147.574	-31.664	-0.183	0.103
-146.560	120.323	0.028	-0.034
-145.545	-57.108	-0.200	-0.089
-144.531	194.830	0.089	-0.136
-143.516	5.733	-0.288	0.215
-142.502	-44.349	-0.076	0.038
-141.487	135.234	0.202	-0.265
-140.472	-200.000	-0.038	0.523
-139.458	-200.000	-0.008	0.233
-138.443	-95.597	0.249	-0.067
-137.429	-161.096	-0.167	0.009
-136.414	-76.933	-0.149	0.052
-135.399	-200.000	0.034	-0.155
-134.385	520.350	0.113	-0.267
-133.370	-200.000	0.064	-0.479
-132.356	93.787	-0.034	-0.039
-131.341	-200.000	-0.027	-0.199
-130.326	519.904	0.107	0.252
-129.312	800.000	0.093	0.345
-128.297	-94.889	-0.131	0.036
-127.283	158.168	0.043	0.061
-126.268	800.000	-0.107	-0.358
-125.253	800.000	0.051	0.181
-124.239	800.000	0.139	0.447
-123.224	377.880	0.147	-0.303
-122.210	16.388	0.327	-0.260
-121.195	-24.253	0.149	-0.089
