DTS Sentinel unit serial number:	SN413079Multiplexer serial number:	ORYXHardware model number:	OX4-SRSoftware version number:	ORYX F/W v4.00 Oryx Data Collector v3.7.2.0data status	okinstallation	princeton_trtdifferential loss correction	single-endedforward channel	channel 4reverse channel	N/Adate	2019/09/13time	20:41:35forward acquisition time	60.00reverse acquisition time	0.00gamma	496.2192k internal	0.2319k external	0.2319temperature offset calibration	1.0136default loss term (dB/km)	0.3790temperature slope calibration	1.0000multiplexer offset coefficient	1.0000multiplexer slope coefficient	1.0000fibre end	0.00T internal ref (°C)	28.89T ext. ref 1 (°C)	3.19T ext. ref 2 (°C)	23.50length (m)	temperature (°C)	Stokes	anti-Stokes-747.200	26.898	0.037	0.031
-746.185	-134.460	0.099	0.012
-745.171	457.756	-0.197	0.442
-744.156	-200.000	-0.020	0.356
-743.142	-1.619	-0.110	0.078
-742.127	71.188	0.370	0.388
-741.112	-200.000	-0.024	0.210
-740.098	-18.493	-0.210	0.133
-739.083	-105.343	-0.226	-0.052
-738.069	-200.000	-0.000	0.251
-737.054	-52.857	-0.071	0.033
-736.039	800.000	-0.057	0.196
-735.025	-112.821	-0.014	-0.003
-734.010	385.702	0.054	-0.112
-732.996	-200.000	-0.003	0.274
-731.981	207.588	-0.257	0.405
-730.966	-31.853	-0.202	-0.115
-729.952	18.407	0.056	-0.045
-728.937	-46.726	-0.525	-0.260
-727.923	800.000	0.126	-0.492
-726.908	-49.561	0.110	-0.053
-725.894	-120.295	-0.293	-0.051
-724.879	112.269	0.140	0.172
-723.864	630.750	-0.070	0.180
-722.850	224.266	-0.204	0.334
-721.835	156.348	-0.098	-0.136
-720.821	-23.519	-0.266	-0.161
-719.806	-39.654	-0.332	0.175
-718.791	-200.000	-0.029	-0.314
-717.777	-60.404	-0.048	0.021
-716.762	-106.372	-0.129	-0.029
-715.748	-141.993	-0.253	0.025
-714.733	-28.935	0.178	-0.103
-713.718	-200.000	0.008	0.113
-712.704	-29.506	0.309	-0.178
-711.689	163.279	-0.179	-0.254
-710.675	24.606	-0.233	-0.195
-709.660	379.834	0.102	0.210
-708.645	-25.596	0.137	-0.082
-707.631	-123.536	0.114	0.018
-706.616	-138.382	-0.217	-0.024
-705.602	-189.371	-0.237	-0.003
-704.587	-162.129	-0.193	-0.010
-703.572	-200.000	-0.025	-0.156
-702.558	193.004	0.156	0.237
-701.543	-8.283	0.186	0.127
-700.529	2.401	-0.232	-0.169
-699.514	800.000	0.094	-0.272
-698.499	-66.442	-0.475	0.190
-697.485	244.957	-0.069	0.118
-696.470	79.746	0.041	0.045
-695.456	124.833	-0.307	0.390
-694.441	9.220	0.092	0.070
-693.426	-35.746	0.358	0.196
-692.412	-66.134	-0.146	-0.059
-691.397	-66.600	-0.337	-0.135
-690.383	-179.485	0.261	-0.006
-689.368	14.875	0.245	-0.194
-688.354	41.233	0.109	-0.100
-687.339	156.522	0.222	-0.309
-686.324	-200.000	-0.023	0.387
-685.310	-82.152	-0.127	0.042
-684.295	-200.000	-0.019	-0.237
-683.281	242.333	-0.195	0.330
-682.266	-35.950	-0.151	0.082
-681.251	-129.921	-0.064	0.009
-680.237	-55.997	0.199	0.090
-679.222	-200.000	0.042	0.218
-678.208	-200.000	0.030	0.160
-677.193	333.971	-0.052	0.101
-676.178	372.626	-0.143	-0.293
-675.164	572.156	0.104	-0.255
-674.149	-71.701	0.242	-0.091
-673.135	-29.375	0.151	-0.087
-672.120	85.868	-0.256	0.284
-671.105	-89.123	0.175	0.052
-670.091	20.386	-0.208	-0.170
-669.076	-88.521	-0.154	0.046
-668.062	-36.308	0.116	0.063
-667.047	443.095	0.140	0.310
-666.032	259.275	-0.052	-0.090
-665.018	-58.473	-0.085	0.037
-664.003	61.097	0.064	0.064
-662.989	-26.044	0.101	-0.060
-661.974	31.857	0.128	0.111
-660.959	-200.000	0.001	0.047
-659.945	25.959	-0.067	-0.056
-658.930	114.168	0.091	0.112
-657.916	-65.184	0.180	0.073
-656.901	800.000	-0.043	0.186
-655.886	42.426	0.213	0.195
-654.872	171.903	-0.071	0.103
-653.857	41.600	0.161	-0.147
-652.843	-129.959	0.268	-0.037
-651.828	-200.000	-0.014	-0.236
-650.814	-200.000	-0.034	-0.230
-649.799	52.114	-0.327	-0.314
-648.784	-71.277	-0.232	-0.088
-647.770	800.000	0.050	-0.189
-646.755	-200.000	0.050	-0.386
-645.741	-200.000	-0.024	-0.424
-644.726	-129.121	0.065	0.009
-643.711	-158.272	-0.262	-0.015
-642.697	-15.088	-0.125	0.081
-641.682	-85.067	0.110	0.035
-640.668	-200.000	-0.008	0.196
-639.653	-56.050	-0.062	-0.028
-638.638	228.523	0.063	0.103
-637.624	-200.000	-0.053	-0.278
-636.609	-31.271	-0.262	0.149
-635.595	-200.000	0.012	-0.104
-634.580	800.000	-0.026	0.102
-633.565	-114.624	-0.120	0.023
-632.551	116.500	0.092	-0.113
-631.536	178.406	-0.104	-0.153
-630.522	-200.000	-0.005	-0.040
-629.507	-27.897	-0.322	0.188
-628.492	-21.667	-0.172	-0.106
-627.478	-200.000	-0.015	0.309
-626.463	-22.347	0.204	-0.124
-625.449	-59.228	0.083	-0.036
-624.434	800.000	0.058	-0.228
-623.419	539.618	0.101	0.241
-622.405	26.966	-0.167	-0.141
-621.390	-15.408	-0.030	0.019
-620.376	-114.952	-0.299	0.057
-619.361	28.075	-0.183	0.155
-618.346	84.692	-0.109	0.120
-617.332	-77.731	-0.124	-0.043
-616.317	131.089	-0.128	0.166
-615.303	96.990	0.105	0.122
-614.288	-135.130	0.252	0.031
-613.273	800.000	0.037	0.120
-612.259	177.867	-0.090	-0.133
-611.244	-42.162	0.145	-0.074
-610.230	264.539	-0.073	0.127
-609.215	52.278	0.179	0.172
-608.201	-59.775	0.347	0.150
-607.186	800.000	-0.068	-0.259
-606.171	343.752	-0.187	-0.369
-605.157	-40.031	-0.235	0.123
-604.142	-53.507	0.158	-0.073
-603.128	-79.695	0.056	-0.019
-602.113	-200.000	-0.018	-0.218
-601.098	-31.319	-0.092	-0.052
-600.084	-200.000	-0.010	0.420
-599.069	-200.000	-0.013	0.359
-598.055	-42.721	0.226	-0.116
-597.040	-200.000	-0.007	-0.305
-596.025	-28.312	-0.255	-0.148
-595.011	624.577	0.107	-0.272
-593.996	132.953	0.209	-0.271
-592.982	-178.235	0.169	-0.004
-591.967	238.169	-0.112	-0.188
-590.952	-93.790	0.294	0.081
-589.938	-96.592	0.234	-0.062
-588.923	-36.661	-0.235	0.127
-587.909	311.723	-0.185	-0.348
-586.894	-167.195	0.167	-0.007
-585.879	-200.000	0.051	0.339
-584.865	-29.693	0.209	0.120
-583.850	-200.000	0.075	0.378
-582.836	15.384	0.167	-0.132
-581.821	-200.000	0.074	0.326
-580.806	80.322	-0.261	-0.282
-579.792	-19.726	-0.335	-0.208
-578.777	-95.304	-0.358	-0.097
-577.763	-86.473	-0.316	-0.098
-576.748	136.972	-0.116	0.152
-575.733	120.063	0.087	-0.109
-574.719	-200.000	-0.035	-0.395
-573.704	376.755	0.132	-0.270
-572.690	541.583	-0.073	0.176
-571.675	152.499	-0.177	0.243
-570.661	-55.421	0.489	-0.220
-569.646	-200.000	-0.000	-0.386
-568.631	153.793	0.123	-0.170
-567.617	26.928	0.045	-0.037
-566.602	-67.225	-0.135	-0.054
-565.588	128.938	-0.345	-0.443
-564.573	-169.941	0.301	-0.011
-563.558	800.000	0.137	-0.392
-562.544	99.754	-0.202	-0.235
-561.529	-31.218	0.067	0.038
-560.515	-200.000	0.030	-0.138
-559.500	800.000	-0.052	0.206
-558.485	-19.022	-0.325	0.203
-557.471	800.000	-0.074	-0.219
-556.456	149.871	-0.089	-0.122
-555.442	419.380	0.006	0.014
-554.427	-129.077	-0.131	0.018
-553.412	-24.018	-0.126	0.075
-552.398	-124.605	0.423	0.066
-551.383	9.508	-0.128	0.097
-550.369	327.786	-0.172	0.332
-549.354	-200.000	0.296	-0.001
-548.339	107.604	0.064	-0.076
-547.325	800.000	0.078	0.218
-546.310	-200.000	-0.032	0.172
-545.296	-102.438	-0.099	0.024
-544.281	-200.000	-0.006	0.209
-543.266	178.087	0.142	0.208
-542.252	288.553	0.149	0.271
-541.237	-142.466	0.170	0.017
-540.223	-53.540	0.204	-0.094
-539.208	-7.176	0.180	0.123
-538.193	800.000	0.090	-0.324
-537.179	-45.982	0.093	-0.046
-536.164	-200.000	0.015	0.115
-535.150	275.315	0.123	0.218
-534.135	-30.235	-0.175	0.100
-533.121	-167.329	-0.330	0.013
-532.106	54.694	-0.127	0.123
-531.091	800.000	0.078	-0.216
-530.077	-144.344	0.149	0.014
-529.062	33.566	-0.061	-0.053
-528.048	188.597	0.236	0.355
-527.033	-119.995	0.287	0.049
-526.018	434.007	0.071	0.155
-525.004	-200.000	0.003	0.315
-523.989	-200.000	-0.026	-0.307
-522.975	-12.108	-0.193	-0.126
-521.960	800.000	0.012	0.044
-520.945	115.505	-0.089	-0.109
-519.931	-73.435	-0.162	-0.059
-518.916	6.512	0.140	-0.105
-517.902	478.905	-0.051	0.115
-516.887	-11.856	0.154	-0.102
-515.872	-42.808	-0.057	0.029
-514.858	230.733	-0.251	-0.413
-513.843	-37.889	-0.046	-0.024
-512.829	29.138	0.125	0.106
-511.814	800.000	0.020	0.072
-510.799	47.009	0.291	-0.271
-509.785	-51.104	-0.200	0.094
-508.770	126.561	-0.100	0.127
-507.756	142.947	0.060	0.080
-506.741	82.565	-0.221	-0.241
-505.726	-200.000	0.032	-0.162
-504.712	-9.275	0.054	0.036
-503.697	-200.000	-0.061	-0.339
-502.683	-174.958	-0.132	-0.004
-501.668	388.884	0.162	-0.335
-500.653	-200.000	0.045	-0.353
-499.639	-136.555	-0.347	0.040
-498.624	29.426	-0.120	0.102
-497.610	-200.000	-0.037	-0.190
-496.595	-100.118	-0.197	0.049
-495.581	-200.000	0.001	0.142
-494.566	-174.718	-0.256	0.007
-493.551	628.594	0.099	0.251
-492.537	255.323	0.241	-0.414
-491.522	-5.890	-0.177	0.121
-490.508	-200.000	0.011	-0.072
-489.493	161.260	0.063	0.088
-488.478	-45.123	0.398	0.198
-487.464	-150.940	-0.086	0.007
-486.449	-47.934	-0.003	0.002
-485.435	-200.000	0.029	-0.147
-484.420	-31.346	0.058	0.033
-483.405	57.877	0.204	0.200
-482.391	247.262	0.058	0.098
-481.376	-31.745	0.310	0.174
-480.362	-78.559	0.287	0.098
-479.347	230.518	0.028	-0.046
-478.332	-159.234	0.258	0.015
-477.318	384.140	0.039	-0.080
-476.303	-81.497	-0.261	-0.086
-475.289	89.516	-0.088	0.098
-474.274	646.901	-0.092	0.236
-473.259	800.000	0.027	-0.113
-472.245	-200.000	0.027	-0.268
-471.230	69.933	-0.047	0.049
-470.216	-200.000	0.031	0.176
-469.201	38.387	0.173	-0.155
-468.186	550.790	0.125	-0.301
-467.172	-166.320	-0.193	-0.008
-466.157	-200.000	0.047	0.236
-465.143	652.052	0.049	-0.126
-464.128	-31.582	-0.093	0.052
-463.113	-200.000	-0.000	0.072
-462.099	-48.028	0.362	0.175
-461.084	686.365	-0.176	-0.460
-460.070	51.065	0.357	0.339
-459.055	152.136	-0.061	-0.084
-458.040	-179.587	0.218	0.005
-457.026	-200.000	0.025	0.138
-456.011	48.940	0.118	-0.111
-454.997	438.381	0.070	-0.153
-453.982	-200.000	0.014	0.272
-452.968	162.340	-0.123	0.173
-451.953	4.214	0.287	0.210
-450.938	800.000	-0.109	0.447
-449.924	231.000	0.143	-0.234
-448.909	-61.684	-0.200	0.084
-447.895	-132.330	-0.237	-0.031
-446.880	91.907	-0.235	0.265
-445.865	-104.556	0.210	0.048
-444.851	80.889	0.080	-0.086
-443.836	-85.146	-0.245	0.077
-442.822	-133.230	0.309	0.039
-441.807	-35.032	-0.179	0.098
-440.792	-59.262	0.136	-0.059
-439.778	180.316	0.160	-0.234
-438.763	148.124	-0.106	0.143
-437.749	115.474	-0.122	-0.149
-436.734	319.516	0.050	-0.094
-435.719	119.040	-0.207	0.256
-434.705	144.011	0.144	0.193
-433.690	-128.862	-0.144	0.020
-432.676	800.000	-0.094	0.330
-431.661	-200.000	-0.045	-0.222
-430.646	39.064	0.045	0.040
-429.632	-200.000	0.014	0.217
-428.617	-16.483	-0.176	-0.112
-427.603	28.304	-0.173	0.146
-426.588	607.552	0.079	0.197
-425.573	-102.670	0.504	-0.120
-424.559	-56.146	-0.098	-0.043
-423.544	754.426	-0.060	-0.162
-422.530	-149.966	0.093	-0.007
-421.515	-26.295	-0.266	-0.156
-420.500	117.078	-0.049	0.060
-419.486	-200.000	0.022	-0.211
-418.471	-200.000	0.001	-0.028
-417.457	-93.714	0.088	0.024
-416.442	-137.980	-0.193	-0.021
-415.428	-89.372	0.284	0.083
-414.413	800.000	-0.091	0.262
-413.398	179.297	-0.077	-0.113
-412.384	84.336	0.136	-0.149
-411.369	-44.328	0.158	0.079
-410.355	197.721	0.227	-0.346
-409.340	-193.475	-0.223	-0.002
-408.325	-102.199	0.069	-0.017
-407.311	-160.523	-0.080	-0.004
-406.296	-144.975	0.231	0.021
-405.282	551.739	0.126	-0.302
-404.267	-200.000	0.017	-0.172
-403.252	-200.000	-0.000	0.035
-402.238	-122.422	0.160	0.026
-401.223	320.318	0.152	-0.287
-400.209	-36.179	-0.157	-0.085
-399.194	-114.010	0.120	0.023
-398.179	39.227	-0.140	-0.125
-397.165	-77.661	0.263	-0.091
-396.150	-200.000	-0.013	-0.088
-395.136	277.736	0.018	0.032
-394.121	-200.000	0.042	-0.327
-393.106	-43.255	-0.165	0.083
-392.092	467.260	-0.099	0.222
-391.077	-131.363	0.246	0.032
-390.063	800.000	0.080	-0.263
-389.048	10.558	-0.194	0.147
-388.033	-36.570	0.183	0.098
-387.019	408.502	-0.138	0.292
-386.004	-39.756	-0.269	-0.141
-384.990	-0.957	0.097	0.068
-383.975	23.441	0.133	0.109
-382.960	467.326	-0.059	-0.133
-381.946	800.000	-0.054	-0.165
-380.931	-9.887	-0.073	0.049
-379.917	-200.000	0.039	0.000
-378.902	-39.431	-0.308	-0.161
-377.888	86.132	-0.242	-0.266
-376.873	-58.342	-0.093	-0.040
-375.858	-92.737	0.202	-0.056
-374.844	-110.228	-0.148	-0.031
-373.829	122.728	-0.094	-0.118
-372.815	-23.163	0.230	0.138
-371.800	685.235	-0.060	-0.157
-370.785	82.856	-0.159	-0.173
-369.771	-200.000	0.012	0.126
-368.756	-50.705	0.461	0.216
-367.742	-31.485	-0.092	-0.052
-366.727	-200.000	-0.022	0.098
-365.712	-200.000	-0.045	0.336
-364.698	800.000	-0.057	0.179
-363.683	-109.737	-0.250	0.052
-362.669	-133.574	-0.158	0.020
-361.654	-70.377	-0.069	-0.026
-360.639	52.421	0.104	-0.099
-359.625	-200.000	0.030	-0.276
-358.610	148.932	-0.107	0.144
-357.596	-133.596	-0.311	-0.039
-356.581	-112.538	-0.259	0.051
-355.566	326.539	-0.057	-0.109
-354.552	-85.089	0.195	0.061
-353.537	200.314	0.019	0.029
-352.523	-200.000	-0.044	-0.232
-351.508	454.905	-0.119	0.262
-350.493	-120.758	-0.323	0.054
-349.479	-200.000	0.011	0.277
-348.464	800.000	-0.075	0.255
-347.450	800.000	-0.027	-0.085
-346.435	-120.480	-0.237	0.040
-345.420	-28.904	-0.136	0.078
-344.406	162.540	-0.159	0.222
-343.391	-178.134	0.233	0.005
-342.377	301.935	-0.208	-0.383
-341.362	-62.739	0.138	0.057
-340.348	-106.037	-0.171	0.038
-339.333	124.901	-0.075	0.094
-338.318	-62.513	0.281	-0.116
-337.304	-200.000	-0.038	0.190
-336.289	298.261	0.050	0.091
-335.275	800.000	-0.028	-0.109
-334.260	-200.000	-0.053	0.263
-333.245	800.000	-0.080	-0.318
-332.231	-33.719	-0.157	0.086
-331.216	-10.814	-0.259	-0.170
-330.202	-23.211	0.219	-0.131
-329.187	293.030	0.061	-0.111
-328.172	800.000	-0.015	-0.058
-327.158	-200.000	-0.010	0.079
-326.143	-32.502	-0.285	0.158
-325.129	-8.846	0.110	-0.074
-324.114	151.093	-0.129	-0.175
-323.099	181.013	-0.158	-0.230
-322.085	800.000	0.053	-0.187
-321.070	75.862	0.266	0.280
-320.056	717.027	0.121	0.320
-319.041	-142.746	0.006	0.001
-318.026	275.943	0.221	0.390
-317.012	120.149	0.210	0.259
-315.997	385.988	0.131	-0.269
-314.983	800.000	0.059	-0.203
-313.968	800.000	-0.123	-0.463
-312.953	-200.000	-0.002	0.164
-311.939	-56.090	0.076	0.034
-310.924	140.054	0.124	0.163
-309.910	-58.557	-0.492	0.212
-308.895	800.000	0.133	0.432
-307.880	25.309	0.147	-0.122
-306.866	140.529	-0.211	-0.277
-305.851	-100.382	0.133	-0.033
-304.837	302.343	0.219	-0.403
-303.822	-128.040	-0.221	0.032
-302.807	800.000	-0.071	-0.309
-301.793	188.186	0.058	-0.087
-300.778	53.562	-0.079	0.076
-299.764	140.854	-0.262	0.345
-298.749	-96.009	0.382	-0.101
-297.735	-200.000	-0.013	-0.076
-296.720	-102.953	0.266	0.063
-295.705	800.000	0.078	-0.221
-294.691	-4.049	0.126	-0.087
-293.676	339.991	-0.069	-0.134
-292.662	187.369	-0.186	-0.275
-291.647	-172.560	0.151	-0.005
-290.632	246.307	-0.222	0.371
-289.618	-199.658	0.145	-0.001
-288.603	175.129	0.111	-0.159
-287.589	800.000	-0.136	0.414
-286.574	224.375	-0.006	0.009
-285.559	516.287	0.091	0.211
-284.545	358.942	0.030	-0.059
-283.530	126.602	0.237	0.299
-282.516	126.064	0.310	0.389
-281.501	89.405	0.149	-0.166
-280.486	-59.478	0.198	0.084
-279.472	-56.846	-0.169	-0.074
-278.457	-157.525	-0.366	-0.022
-277.443	-141.428	0.231	0.023
-276.428	45.599	-0.183	-0.168
-275.413	197.846	-0.215	-0.327
-274.399	800.000	-0.063	-0.266
-273.384	-200.000	0.029	-0.146
-272.370	5.287	-0.349	0.255
-271.355	-80.898	-0.211	0.069
-270.340	800.000	0.081	-0.275
-269.326	447.970	-0.119	0.261
-268.311	428.043	-0.134	0.288
-267.297	-118.915	0.035	0.006
-266.282	46.847	-0.234	-0.216
-265.267	0.519	-0.466	-0.331
-264.253	-54.741	-0.203	-0.091
-263.238	-30.574	0.148	0.083
-262.224	149.669	0.137	0.184
-261.209	53.789	0.087	-0.083
-260.195	123.740	-0.085	-0.106
-259.180	800.000	-0.059	0.209
-258.165	-143.272	0.048	0.005
-257.151	673.869	0.133	-0.342
-256.136	-142.492	-0.160	-0.016
-255.122	204.552	0.072	0.111
-254.107	-11.561	0.090	0.059
-253.092	-112.676	0.282	0.056
-252.078	-105.533	0.375	-0.084
-251.063	-200.000	0.027	-0.312
-250.049	-15.290	-0.175	0.111
-249.034	708.867	-0.134	0.350
-248.019	-139.754	0.059	-0.006
-247.005	-200.000	-0.022	0.566
-245.990	-83.419	-0.144	0.046
-244.976	58.375	-0.098	-0.096
-243.961	-4.245	0.349	0.240
-242.946	800.000	-0.026	-0.100
-241.932	-115.711	0.321	0.060
-240.917	-200.000	0.008	0.115
-239.903	-200.000	0.031	0.233
-238.888	-181.437	0.199	0.004
-237.873	-88.790	-0.346	0.102
-236.859	-200.000	-0.010	0.061
-235.844	255.026	-0.088	-0.150
-234.830	800.000	0.168	0.468
-233.815	-9.721	0.105	0.069
-232.800	-35.038	0.101	0.055
-231.786	165.862	0.173	-0.243
-230.771	66.486	0.141	-0.143
-229.757	-60.447	-0.030	-0.013
-228.742	-33.933	0.268	0.146
-227.727	50.253	0.247	0.231
-226.713	-200.000	0.003	-0.574
-225.698	-200.000	0.002	0.318
-224.684	-200.000	-0.017	-0.233
-223.669	-200.000	0.003	0.410
-222.655	-200.000	0.003	-0.124
-221.640	149.065	0.189	0.253
-220.625	-200.000	0.028	0.265
-219.611	537.290	0.128	-0.302
-218.596	-94.269	0.522	0.142
-217.582	-200.000	0.009	0.144
-216.567	266.008	0.106	0.183
-215.552	-113.906	0.045	-0.009
-214.538	240.489	-0.101	-0.167
-213.523	-1.858	0.151	0.105
-212.509	337.470	0.122	-0.235
-211.494	-131.084	0.244	0.032
-210.479	-139.240	-0.221	0.024
-209.465	-200.000	0.018	0.152
-208.450	-85.783	0.070	0.022
-207.436	-200.000	-0.026	-0.158
-206.421	-138.085	-0.253	0.028
-205.406	-200.000	0.003	0.036
-204.392	-200.000	-0.011	0.200
-203.377	-117.637	0.178	-0.032
-202.363	-108.932	0.354	0.075
-201.348	192.937	0.162	0.242
-200.333	-200.000	-0.033	0.447
-199.319	121.649	0.120	0.148
-198.304	-200.000	0.023	0.129
-197.290	-29.766	0.194	0.109
-196.275	-154.137	-0.152	0.010
-195.260	-62.055	0.265	-0.110
-194.246	-20.575	0.156	-0.095
-193.231	-111.061	-0.163	-0.033
-192.217	-200.000	0.019	-0.453
-191.202	800.000	-0.056	-0.159
-190.187	800.000	0.082	-0.249
-189.173	-200.000	-0.062	-0.324
-188.158	51.805	-0.112	-0.106
-187.144	529.371	-0.105	-0.245
-186.129	-200.000	-0.014	-0.104
-185.114	-99.226	-0.388	-0.097
-184.100	-65.284	-0.457	-0.182
-183.085	-2.337	-0.286	-0.198
-182.071	800.000	-0.033	-0.113
-181.056	-7.786	0.285	-0.190
-180.042	-200.000	-0.016	0.324
-179.027	791.154	0.036	-0.097
-178.012	-127.094	0.291	-0.042
-176.998	105.051	0.119	0.139
-175.983	-200.000	0.031	0.286
-174.969	732.310	-0.182	0.481
-173.954	-58.889	-0.146	-0.062
-172.939	-82.751	-0.314	-0.100
-171.925	800.000	-0.089	0.316
-170.910	14.330	-0.324	-0.250
-169.896	-104.809	-0.336	0.076
-168.881	-79.464	0.115	-0.039
-167.866	800.000	0.014	0.059
-166.852	-28.026	0.229	-0.131
-165.837	800.000	-0.042	0.126
-164.823	-157.744	0.242	0.014
-163.808	800.000	0.071	0.308
-162.793	602.498	0.124	0.306
-161.779	-105.016	-0.145	0.033
-160.764	-121.068	-0.172	0.029
-159.750	237.351	-0.063	-0.103
-158.735	-25.655	-0.210	0.122
-157.720	192.137	0.119	0.178
-156.706	174.451	0.087	0.124
-155.691	-200.000	-0.005	-0.047
-154.677	44.044	0.043	0.039
-153.662	-166.734	-0.145	0.006
-152.647	271.925	0.052	0.090
-151.633	104.710	-0.060	0.070
-150.618	800.000	0.058	0.248
-149.604	13.194	0.418	0.320
-148.589	-3.714	-0.278	0.191
-147.574	231.547	-0.188	-0.305
-146.560	142.508	0.013	0.017
-145.545	94.569	0.158	0.178
-144.531	186.141	0.174	0.255
-143.516	-111.092	-0.227	-0.046
-142.502	794.561	-0.008	0.023
-141.487	-97.151	-0.289	0.075
-140.472	-200.000	-0.013	0.128
-139.458	383.672	0.168	0.341
-138.443	271.950	0.103	-0.180
-137.429	-130.143	0.295	0.040
-136.414	-200.000	0.002	0.065
-135.399	-16.896	-0.233	0.145
-134.385	-200.000	-0.056	-0.492
-133.370	-138.398	0.226	0.025
-132.356	-83.199	0.192	-0.061
-131.341	-29.769	-0.143	0.080
-130.326	-20.493	-0.255	0.155
-129.312	-85.355	0.055	0.017
-128.297	4.842	-0.158	0.115
-127.283	800.000	-0.061	0.233
-126.268	-200.000	-0.067	-0.458
-125.253	-89.687	-0.191	0.055
-124.239	348.155	-0.048	-0.094
-123.224	433.530	0.073	0.155
-122.210	-155.240	-0.152	-0.010
-121.195	97.872	0.064	-0.073
