DTS Sentinel unit serial number:	SN413079Multiplexer serial number:	ORYXHardware model number:	OX4-SRSoftware version number:	ORYX F/W v4.00 Oryx Data Collector v3.7.2.0data status	okinstallation	princeton_trtdifferential loss correction	single-endedforward channel	channel 4reverse channel	N/Adate	2019/09/17time	11:17:35forward acquisition time	60.00reverse acquisition time	0.00gamma	496.2192k internal	0.2309k external	0.2309temperature offset calibration	0.9981default loss term (dB/km)	0.3790temperature slope calibration	1.0000multiplexer offset coefficient	1.0000multiplexer slope coefficient	1.0000fibre end	0.00T internal ref (°C)	30.50T ext. ref 1 (°C)	0.29T ext. ref 2 (°C)	26.27length (m)	temperature (°C)	Stokes	anti-Stokes-747.200	800.000	0.022	-0.074
-746.185	-114.594	-0.035	-0.007
-745.171	-109.078	-0.219	0.047
-744.156	800.000	-0.060	0.219
-743.142	-119.632	0.315	-0.055
-742.127	-95.638	-0.147	0.040
-741.112	286.655	-0.169	-0.310
-740.098	3.872	-0.101	0.075
-739.083	-200.000	0.019	-0.165
-738.069	-69.622	-0.621	0.241
-737.054	-103.983	0.277	-0.066
-736.039	460.931	-0.187	-0.423
-735.025	85.320	0.150	0.168
-734.010	-33.377	-0.168	0.095
-732.996	59.158	0.247	0.247
-731.981	84.158	-0.135	-0.150
-730.966	173.754	-0.124	0.181
-729.952	49.648	0.086	-0.082
-728.937	59.114	-0.314	-0.313
-727.923	349.944	0.088	-0.177
-726.908	-106.446	-0.448	-0.102
-725.894	-98.380	-0.253	-0.066
-724.879	-168.443	0.196	0.008
-723.864	198.097	0.036	-0.057
-722.850	36.800	-0.043	0.039
-721.835	186.320	-0.297	0.448
-720.821	-200.000	-0.025	0.192
-719.806	-110.262	0.325	-0.069
-718.791	-13.533	-0.222	-0.146
-717.777	-200.000	-0.008	0.091
-716.762	800.000	0.051	0.182
-715.748	-128.067	-0.366	0.053
-714.733	-145.818	0.114	-0.010
-713.718	441.612	-0.055	0.123
-712.704	800.000	-0.039	0.150
-711.689	-8.053	0.266	-0.182
-710.675	-200.000	0.040	-0.393
-709.660	-200.000	-0.054	0.363
-708.645	-91.342	-0.079	-0.023
-707.631	-152.969	0.124	-0.009
-706.616	-200.000	-0.042	-0.227
-705.602	169.009	-0.120	-0.174
-704.587	-134.316	-0.030	0.004
-703.572	119.878	-0.311	0.391
-702.558	-77.694	0.127	-0.044
-701.543	-131.356	-0.426	-0.057
-700.529	362.565	-0.084	-0.170
-699.514	-200.000	0.048	-0.310
-698.499	-75.629	-0.366	-0.132
-697.485	-200.000	-0.037	-0.371
-696.470	-200.000	-0.017	-0.278
-695.456	-200.000	0.002	-0.134
-694.441	-53.368	0.162	0.075
-693.426	-187.136	-0.152	0.002
-692.412	324.098	0.099	-0.192
-691.397	75.653	0.146	-0.156
-690.383	656.739	0.023	0.061
-689.368	-49.255	-0.210	0.102
-688.354	-200.000	0.401	-0.002
-687.339	-200.000	-0.030	-0.204
-686.324	79.540	0.055	-0.060
-685.310	-125.499	-0.284	0.044
-684.295	120.305	0.345	0.434
-683.281	174.398	-0.150	-0.219
-682.266	-129.878	-0.208	0.029
-681.251	-200.000	-0.023	-0.231
-680.237	-151.448	-0.056	0.004
-679.222	800.000	0.086	0.316
-678.208	2.739	-0.042	0.031
-677.193	3.514	-0.059	-0.044
-676.178	-200.000	0.014	0.114
-675.164	38.639	0.225	0.204
-674.149	190.658	-0.077	-0.117
-673.135	800.000	-0.043	-0.161
-672.120	290.060	-0.171	-0.315
-671.105	-28.099	-0.051	-0.030
-670.091	-76.029	-0.215	-0.077
-669.076	-77.162	-0.234	0.082
-668.062	88.137	-0.070	-0.079
-667.047	-200.000	0.060	-0.324
-666.032	1.115	0.159	0.116
-665.018	-130.980	-0.201	0.027
-664.003	210.849	-0.047	-0.074
-662.989	800.000	0.074	-0.209
-661.974	-97.649	-0.228	0.060
-660.959	106.960	0.067	0.081
-659.945	-200.000	0.063	-0.343
-658.930	79.179	-0.112	0.121
-657.916	365.972	0.126	-0.256
-656.901	800.000	-0.146	0.452
-655.886	-130.876	0.360	-0.049
-654.872	-132.616	-0.182	-0.024
-653.857	-42.853	0.401	-0.206
-652.843	203.655	0.140	-0.220
-651.828	358.851	0.094	0.190
-650.814	-53.487	-0.189	-0.088
-649.799	299.693	-0.123	0.230
-648.784	246.356	0.136	0.233
-647.770	-128.239	-0.318	0.046
-646.755	206.639	-0.058	0.092
-645.741	556.147	0.093	-0.227
-644.726	-25.362	0.131	-0.079
-643.711	-129.730	-0.146	0.020
-642.697	-200.000	0.046	-0.288
-641.682	-29.008	-0.177	-0.103
-640.668	37.688	0.059	-0.053
-639.653	800.000	0.041	-0.119
-638.638	543.864	0.014	0.035
-637.624	-200.000	0.010	0.078
-636.609	-200.000	-0.013	-0.075
-635.595	-1.074	0.117	0.083
-634.580	-85.942	-0.049	0.015
-633.565	-200.000	-0.024	0.184
-632.551	-200.000	0.022	-0.106
-631.536	67.124	0.016	0.017
-630.522	45.015	-0.257	-0.239
-629.507	-7.113	0.232	-0.159
-628.492	-200.000	0.047	0.254
-627.478	30.979	-0.221	-0.192
-626.463	-150.911	-0.211	-0.016
-625.449	-200.000	-0.001	0.048
-624.434	-200.000	-0.011	-0.124
-623.419	-58.352	-0.107	-0.047
-622.405	72.170	0.258	0.272
-621.390	83.461	0.202	-0.223
-620.376	25.488	-0.193	0.162
-619.361	185.536	0.116	-0.174
-618.346	-200.000	0.025	-0.138
-617.332	293.469	-0.094	0.173
-616.317	-200.000	-0.033	0.204
-615.303	-178.938	0.164	0.004
-614.288	-51.713	0.166	0.078
-613.273	-109.434	0.068	0.015
-612.259	195.165	-0.149	-0.228
-611.244	-118.984	0.230	0.041
-610.230	111.807	0.169	-0.207
-609.215	265.184	-0.072	-0.127
-608.201	-52.797	-0.129	-0.060
-607.186	-200.000	-0.008	0.138
-606.171	67.307	-0.198	0.204
-605.157	199.830	-0.084	0.130
-604.142	87.423	0.214	0.239
-603.128	-28.403	0.205	0.120
-602.113	174.364	0.095	0.139
-601.098	800.000	0.089	0.260
-600.084	-200.000	0.008	0.326
-599.069	697.649	-0.130	-0.345
-598.055	-23.243	-0.301	-0.183
-597.040	-63.580	0.123	0.051
-596.025	204.541	0.157	-0.246
-595.011	78.215	-0.350	-0.377
-593.996	800.000	0.030	0.100
-592.982	800.000	0.018	-0.053
-591.967	54.680	-0.059	-0.057
-590.952	323.153	0.173	-0.334
-589.938	258.243	-0.136	-0.237
-588.923	5.015	-0.220	-0.164
-587.909	-200.000	0.017	0.120
-586.894	538.330	-0.043	-0.103
-585.879	-39.297	-0.078	-0.041
-584.865	8.497	-0.229	-0.174
-583.850	29.133	-0.182	0.156
-582.836	-189.548	0.072	-0.001
-581.821	-193.889	-0.267	0.002
-580.806	-133.406	0.063	-0.008
-579.792	-84.295	0.349	-0.111
-578.777	-36.778	-0.269	0.146
-577.763	-167.295	0.081	0.003
-576.748	302.611	0.096	0.179
-575.733	98.425	-0.036	0.041
-574.719	800.000	0.056	-0.178
-573.704	-40.829	0.365	-0.191
-572.690	196.362	-0.137	-0.210
-571.675	50.161	-0.108	-0.103
-570.661	249.447	0.266	0.456
-569.646	-157.093	0.151	-0.009
-568.631	83.308	-0.138	0.152
-567.617	-0.549	0.214	0.153
-566.602	-200.000	-0.007	-0.071
-565.588	207.096	0.131	0.206
-564.573	318.796	0.076	0.146
-563.558	800.000	0.040	0.134
-562.544	800.000	-0.096	-0.279
-561.529	79.424	0.077	-0.084
-560.515	-10.010	-0.186	-0.125
-559.500	-27.198	-0.061	-0.036
-558.485	-156.704	-0.178	-0.011
-557.471	41.590	-0.200	0.183
-556.456	304.737	-0.027	-0.051
-555.442	304.592	0.087	-0.163
-554.427	137.964	0.159	-0.210
-553.412	-27.707	-0.192	0.112
-552.398	141.909	0.317	0.423
-551.383	-135.821	-0.170	-0.020
-550.369	121.330	-0.176	-0.221
-549.354	-31.881	0.139	0.078
-548.339	800.000	0.070	0.208
-547.325	-70.620	0.179	0.068
-546.310	200.422	-0.029	0.045
-545.296	-126.617	0.230	0.034
-544.281	-166.299	-0.505	-0.021
-543.266	-162.114	0.257	-0.013
-542.252	220.419	-0.098	-0.158
-541.237	190.117	-0.276	0.417
-540.223	-200.000	0.048	0.518
-539.208	150.358	-0.059	-0.081
-538.193	-200.000	0.039	-0.242
-537.179	800.000	-0.043	-0.178
-536.164	-113.872	-0.292	0.057
-535.150	101.916	0.031	-0.036
-534.135	89.622	-0.219	0.247
-533.121	-88.061	-0.178	0.054
-532.106	708.861	-0.071	0.188
-531.091	-200.000	-0.007	-0.098
-530.077	135.922	-0.141	-0.185
-529.062	-124.413	0.104	0.016
-528.048	-200.000	-0.007	0.301
-527.033	155.411	-0.156	-0.216
-526.018	-31.456	-0.328	0.186
-525.004	11.177	0.228	-0.176
-523.989	-67.367	-0.323	-0.128
-522.975	-178.647	-0.117	0.003
-521.960	236.210	0.030	0.051
-520.945	88.985	-0.203	-0.227
-519.931	-200.000	0.034	0.150
-518.916	-200.000	0.030	0.306
-517.902	149.775	0.166	0.226
-516.887	-87.139	0.179	-0.055
-515.872	800.000	0.035	0.116
-514.858	98.925	-0.284	0.330
-513.843	117.776	-0.088	-0.109
-512.829	163.889	0.079	0.111
-511.814	55.120	0.215	-0.209
-510.799	5.806	-0.487	0.363
-509.785	-62.579	-0.119	-0.050
-508.770	39.022	-0.212	0.190
-507.756	53.190	0.151	0.146
-506.741	343.175	0.054	-0.106
-505.726	-92.072	0.073	0.021
-504.712	-98.137	-0.217	-0.056
-503.697	-91.211	0.286	-0.082
-502.683	-101.639	0.299	-0.073
-501.668	343.744	-0.183	-0.362
-500.653	186.193	-0.066	-0.098
-499.639	-200.000	-0.003	0.048
-498.624	232.492	0.115	-0.190
-497.610	106.310	0.078	-0.093
-496.595	-200.000	0.043	-0.271
-495.581	-2.298	-0.290	0.205
-494.566	-94.692	-0.159	-0.043
-493.551	-0.647	-0.122	-0.087
-492.537	-129.288	0.201	-0.028
-491.522	-20.918	-0.076	-0.047
-490.508	-97.065	0.216	-0.057
-489.493	-200.000	0.037	0.257
-488.478	58.494	-0.153	-0.152
-487.464	66.260	-0.215	0.219
-486.449	280.318	0.055	0.099
-485.435	52.032	-0.155	0.149
-484.420	-200.000	0.002	-0.072
-483.405	-200.000	-0.026	-0.203
-482.391	-83.428	-0.162	0.052
-481.376	-8.070	-0.128	-0.087
-480.362	161.486	0.052	-0.073
-479.347	17.050	-0.127	0.101
-478.332	62.530	0.134	0.135
-477.318	800.000	0.056	0.178
-476.303	-70.638	0.194	0.074
-475.289	-62.637	-0.255	-0.106
-474.274	-87.876	0.037	0.011
-473.259	-102.962	-0.288	-0.069
-472.245	537.243	0.045	0.108
-471.230	128.104	0.020	0.026
-470.216	-29.453	-0.032	-0.019
-469.201	509.863	0.107	0.249
-468.186	311.338	0.078	-0.148
-467.172	-0.051	0.140	-0.100
-466.157	-200.000	0.041	-0.246
-465.143	-139.957	0.138	-0.015
-464.128	-75.375	-0.153	-0.055
-463.113	157.825	-0.303	-0.422
-462.099	-6.354	0.083	0.057
-461.084	-19.830	-0.118	0.073
-460.070	49.830	-0.105	-0.099
-459.055	-99.074	0.048	-0.012
-458.040	693.637	-0.123	-0.325
-457.026	-200.000	0.032	0.189
-456.011	30.749	-0.106	0.091
-454.997	49.341	-0.274	0.259
-453.982	208.089	-0.189	0.296
-452.968	-200.000	0.012	-0.115
-451.953	-21.406	0.140	-0.086
-450.938	56.043	0.145	0.141
-449.924	-1.330	-0.117	0.083
-448.909	-200.000	-0.051	0.256
-447.895	344.277	0.028	0.056
-446.880	-135.267	-0.324	-0.039
-445.865	-47.354	0.174	0.085
-444.851	413.195	0.082	0.174
-443.836	-172.124	0.248	0.008
-442.822	412.760	-0.205	-0.437
-441.807	800.000	0.065	-0.251
-440.792	-103.176	0.155	0.037
-439.778	-200.000	0.000	-0.036
-438.763	132.803	0.081	-0.104
-437.749	-74.838	-0.305	-0.110
-436.734	521.078	0.178	-0.419
-435.719	-13.330	-0.358	0.233
-434.705	-171.947	-0.156	0.005
-433.690	-75.738	0.246	-0.087
-432.676	800.000	0.048	-0.197
-431.661	178.649	0.036	-0.053
-430.646	55.100	-0.292	-0.283
-429.632	-200.000	0.002	0.112
-428.617	-200.000	-0.030	-0.216
-427.603	468.116	-0.181	0.407
-426.588	159.424	0.116	-0.162
-425.573	-37.471	0.045	0.024
-424.559	-77.206	-0.373	-0.130
-423.544	-92.518	-0.378	-0.107
-422.530	-111.936	0.091	-0.018
-421.515	258.767	-0.362	0.627
-420.500	414.240	0.079	0.169
-419.486	-159.592	-0.142	0.008
-418.471	2.085	0.385	-0.279
-417.457	118.401	0.325	-0.402
-416.442	-200.000	-0.012	-0.110
-415.428	800.000	0.116	0.419
-414.413	800.000	-0.077	-0.246
-413.398	-94.839	-0.193	0.053
-412.384	-16.337	0.071	-0.045
-411.369	447.384	0.106	-0.234
-410.355	64.887	0.105	-0.107
-409.340	-182.388	-0.282	0.005
-408.325	-142.076	-0.146	0.015
-407.311	126.615	-0.215	-0.273
-406.296	240.186	-0.105	-0.175
-405.282	-38.180	0.315	-0.168
-404.267	-18.302	0.164	0.103
-403.252	800.000	0.065	-0.238
-402.238	-200.000	0.021	-0.134
-401.223	38.202	-0.027	-0.024
-400.209	-95.331	0.053	-0.014
-399.194	220.482	0.096	-0.155
-398.179	-1.407	0.163	-0.115
-397.165	637.095	-0.116	0.295
-396.150	-0.045	-0.057	0.041
-395.136	-200.000	-0.008	-0.145
-394.121	-55.148	0.168	-0.076
-393.106	39.028	0.153	0.138
-392.092	-106.468	0.057	0.013
-391.077	193.586	0.007	0.011
-390.063	-142.803	0.133	-0.013
-389.048	-20.047	0.042	-0.026
-388.033	-155.348	-0.241	-0.016
-387.019	-92.373	-0.273	-0.077
-386.004	-77.117	0.053	-0.019
-384.990	31.093	-0.237	0.203
-383.975	800.000	0.146	0.468
-382.960	-21.564	-0.142	0.086
-381.946	39.489	0.395	0.354
-380.931	-200.000	0.009	0.116
-379.917	614.824	-0.096	0.242
-378.902	-108.998	-0.107	-0.023
-377.888	-72.103	0.162	-0.060
-376.873	64.816	-0.093	-0.094
-375.858	6.991	-0.165	-0.123
-374.844	-200.000	0.069	-0.470
-373.829	-114.113	0.096	0.019
-372.815	158.080	0.170	0.236
-371.800	-25.136	-0.128	0.076
-370.785	6.019	-0.099	-0.073
-369.771	-200.000	0.052	0.295
-368.756	4.659	0.214	-0.157
-367.742	732.066	0.076	-0.204
-366.727	-117.932	-0.042	-0.008
-365.712	-121.518	-0.215	0.036
-364.698	207.010	-0.173	0.270
-363.683	-74.305	-0.335	-0.121
-362.669	792.151	0.069	0.189
-361.654	754.005	0.121	0.327
-360.639	-200.000	0.011	-0.069
-359.625	334.019	0.092	-0.177
-358.610	-41.543	0.114	-0.059
-357.596	201.153	-0.235	-0.362
-356.581	-200.000	0.029	-0.195
-355.566	-200.000	0.016	0.206
-354.552	-62.933	-0.163	-0.067
-353.537	-27.289	0.263	0.153
-352.523	800.000	0.055	0.203
-351.508	-88.364	0.151	0.045
-350.493	-40.271	-0.157	-0.082
-349.479	232.565	-0.035	0.058
-348.464	-114.577	0.331	0.064
-347.450	-31.344	-0.043	-0.024
-346.435	194.901	-0.018	0.027
-345.420	-144.948	0.430	-0.039
-344.406	439.369	0.073	0.159
-343.391	-48.396	-0.264	-0.127
-342.377	233.197	-0.069	0.113
-341.362	87.839	0.053	-0.059
-340.348	-98.946	-0.316	0.080
-339.333	-48.111	-0.169	0.082
-338.318	-200.000	-0.021	0.201
-337.304	188.116	-0.039	-0.059
-336.289	800.000	0.054	-0.215
-335.275	220.039	0.146	-0.234
-334.260	-200.000	0.007	-0.217
-333.245	436.194	-0.126	-0.275
-332.231	-6.702	-0.280	0.191
-331.216	528.705	-0.090	0.211
-330.202	-30.549	-0.046	-0.026
-329.187	71.317	0.242	-0.251
-328.172	323.181	-0.119	-0.226
-327.158	-50.445	0.296	0.139
-326.143	-29.356	-0.069	-0.040
-325.129	-51.407	-0.262	0.122
-324.114	800.000	0.027	0.099
-323.099	162.898	0.084	0.117
-322.085	8.481	-0.327	-0.246
-321.070	94.975	0.080	-0.091
-320.056	217.493	-0.074	-0.118
-319.041	52.124	-0.220	0.210
-318.026	-200.000	-0.024	-0.128
-317.012	800.000	0.042	0.117
-315.997	75.506	0.136	0.143
-314.983	239.493	0.058	0.097
-313.968	-200.000	0.020	-0.228
-312.953	-62.973	-0.056	0.023
-311.939	-67.594	0.186	0.073
-310.924	800.000	-0.017	-0.047
-309.910	-31.708	0.106	-0.059
-308.895	-200.000	-0.057	0.273
-307.880	56.386	0.235	-0.229
-306.866	216.970	0.094	0.149
-305.851	-45.040	-0.235	-0.117
-304.837	150.811	-0.158	0.214
-303.822	-56.719	0.294	-0.130
-302.807	-81.853	-0.257	-0.084
-301.793	23.550	0.092	0.076
-300.778	176.094	-0.130	-0.189
-299.764	10.380	0.106	0.080
-298.749	-153.764	0.286	0.020
-297.735	445.989	-0.153	-0.336
-296.720	150.436	0.122	-0.166
-295.705	31.843	-0.085	-0.073
-294.691	286.917	0.165	0.297
-293.676	-84.030	0.176	0.056
-292.662	47.243	-0.190	-0.177
-291.647	-43.620	0.119	-0.060
-290.632	126.654	0.136	0.171
-289.618	-108.872	-0.187	-0.040
-288.603	800.000	0.107	-0.397
-287.589	-134.375	0.201	-0.025
-286.574	-200.000	0.041	-0.220
-285.559	-200.000	0.061	0.271
-284.545	-122.022	0.119	0.019
-283.530	-21.708	0.191	0.116
-282.516	800.000	0.153	-0.491
-281.501	-200.000	-0.023	0.182
-280.486	41.888	0.298	-0.270
-279.472	-95.661	-0.271	-0.072
-278.457	31.392	0.206	0.177
-277.443	-130.584	-0.366	-0.049
-276.428	150.812	0.051	0.069
-275.413	44.115	0.037	-0.034
-274.399	-55.207	0.340	-0.153
-273.384	232.840	0.285	0.467
-272.370	90.981	0.162	0.181
-271.355	560.607	0.103	-0.247
-270.340	75.299	0.282	-0.296
-269.326	800.000	-0.011	-0.046
-268.311	-173.043	-0.301	0.009
-267.297	-32.325	0.090	-0.050
-266.282	800.000	0.028	0.089
-265.267	72.131	-0.191	0.198
-264.253	-175.119	-0.028	0.001
-263.238	-53.711	-0.414	0.189
-262.224	-68.639	0.200	-0.077
-261.209	670.861	0.110	0.284
-260.195	5.053	0.256	0.188
-259.180	-187.285	-0.134	0.002
-258.165	-112.280	-0.098	0.020
-257.151	-158.459	0.314	0.018
-256.136	34.679	0.073	0.064
-255.122	87.668	-0.100	0.111
-254.107	80.794	-0.032	0.034
-253.092	348.750	-0.008	0.016
-252.078	440.421	0.115	0.251
-251.063	-107.628	0.318	-0.069
-250.049	23.850	0.104	-0.085
-249.034	-67.961	-0.286	0.111
-248.019	800.000	-0.018	0.076
-247.005	-164.787	0.148	-0.007
-245.990	336.722	-0.190	0.367
-244.976	-200.000	0.003	0.130
-243.961	46.623	-0.106	0.098
-242.946	-200.000	0.087	0.487
-241.932	202.543	-0.049	0.076
-240.917	800.000	-0.049	-0.192
-239.903	13.608	0.186	0.144
-238.888	800.000	-0.138	0.455
-237.873	447.022	0.062	-0.136
-236.859	-200.000	0.004	0.149
-235.844	102.934	-0.302	-0.353
-234.830	-59.529	0.369	0.158
-233.815	-200.000	0.010	-0.239
-232.800	101.026	0.095	-0.110
-231.786	-129.394	-0.189	0.026
-230.771	7.738	0.166	0.124
-229.757	344.531	0.050	0.097
-228.742	-155.606	0.141	-0.009
-227.727	67.758	0.364	0.370
-226.713	125.407	0.163	0.205
-225.698	-200.000	0.016	-0.218
-224.684	-200.000	0.009	-0.188
-223.669	-119.122	0.189	0.033
-222.655	-156.332	0.143	0.009
-221.640	-200.000	-0.028	0.145
-220.625	14.192	-0.085	0.066
-219.611	409.224	-0.096	-0.201
-218.596	-174.556	0.192	-0.005
-217.582	-131.456	0.241	-0.032
-216.567	-200.000	0.005	-0.167
-215.552	-200.000	-0.023	-0.183
-214.538	-200.000	0.004	-0.140
-213.523	-200.000	0.000	0.039
-212.509	-43.177	0.232	0.117
-211.494	743.189	0.097	0.260
-210.479	596.009	-0.123	-0.302
-209.465	-66.877	0.336	0.132
-208.450	57.931	0.192	0.187
-207.436	-200.000	-0.057	-0.325
-206.421	318.616	-0.116	-0.219
-205.406	132.281	-0.127	0.163
-204.392	-200.000	-0.074	-0.380
-203.377	-100.235	-0.204	-0.051
-202.363	-88.845	-0.158	-0.047
-201.348	217.786	-0.083	0.131
-200.333	202.276	0.065	-0.100
-199.319	208.117	0.040	0.062
-198.304	-200.000	0.046	-0.259
-197.290	-59.928	0.222	-0.095
-196.275	-153.498	-0.256	-0.018
-195.260	152.573	0.132	-0.179
-194.246	-104.418	-0.039	-0.009
-193.231	800.000	-0.078	0.337
-192.217	-200.000	0.012	0.058
-191.202	589.487	0.041	-0.100
-190.187	-34.691	0.153	-0.083
-189.173	-43.635	-0.135	0.068
-188.158	-4.938	-0.083	0.057
-187.144	13.590	0.221	-0.171
-186.129	-76.703	-0.107	0.037
-185.114	-200.000	0.024	-0.196
-184.100	24.020	-0.275	-0.225
-183.085	36.528	0.294	0.258
-182.071	430.838	0.064	0.137
-181.056	-200.000	-0.023	0.426
-180.042	134.869	0.195	0.251
-179.027	521.394	0.071	-0.167
-178.012	46.326	0.290	-0.267
-176.998	56.938	-0.077	-0.075
-175.983	-146.128	0.167	-0.015
-174.969	-200.000	-0.030	-0.257
-173.954	-85.961	-0.248	0.076
-172.939	66.576	-0.202	0.204
-171.925	-200.000	-0.016	-0.073
-170.910	800.000	-0.041	-0.177
-169.896	-200.000	-0.025	0.161
-168.881	800.000	-0.173	0.544
-167.866	-200.000	-0.003	-0.068
-166.852	481.160	-0.108	0.244
-165.837	75.274	-0.192	-0.201
-164.823	-200.000	0.035	0.218
-163.808	-110.560	0.212	-0.044
-162.793	-56.369	0.061	-0.027
-161.779	-118.411	0.087	-0.015
-160.764	-96.733	-0.032	-0.008
-159.750	-135.418	0.153	0.018
-158.735	-200.000	0.386	-0.001
-157.720	294.914	-0.153	0.279
-156.706	463.885	-0.104	0.231
-155.691	-200.000	-0.043	-0.354
-154.677	-142.819	0.241	-0.023
-153.662	-183.530	0.422	-0.007
-152.647	180.959	-0.184	-0.269
-151.633	-14.294	0.117	-0.075
-150.618	-10.346	-0.132	-0.087
-149.604	628.419	0.118	0.297
-148.589	-123.905	0.478	0.075
-147.574	-200.000	-0.016	-0.108
-146.560	121.204	-0.057	-0.070
-145.545	374.243	0.131	0.265
-144.531	-171.631	0.243	-0.008
-143.516	-64.907	0.111	-0.044
-142.502	80.392	-0.120	-0.129
-141.487	247.351	-0.117	-0.197
-140.472	-111.075	-0.163	0.033
-139.458	66.072	0.232	-0.234
-138.443	-3.733	-0.083	-0.057
-137.429	157.098	0.066	-0.090
-136.414	102.356	-0.077	-0.089
-135.399	800.000	0.106	0.303
-134.385	-190.055	-0.218	0.002
-133.370	-200.000	-0.011	0.138
-132.356	308.427	-0.088	-0.162
-131.341	-71.302	-0.098	0.037
-130.326	7.319	0.213	0.158
-129.312	-200.000	0.002	0.233
-128.297	65.389	-0.093	0.093
-127.283	-200.000	-0.006	-0.219
-126.268	244.308	0.164	0.273
-125.253	-80.309	-0.183	-0.061
-124.239	-200.000	0.015	-0.095
-123.224	204.321	0.116	-0.178
-122.210	-100.529	-0.065	-0.016
-121.195	-200.000	0.002	0.408
