DTS Sentinel unit serial number:	SN413079Multiplexer serial number:	ORYXHardware model number:	OX4-SRSoftware version number:	ORYX F/W v4.00 Oryx Data Collector v3.7.2.0data status	okinstallation	princeton_trtdifferential loss correction	single-endedforward channel	channel 4reverse channel	N/Adate	2019/09/17time	19:41:35forward acquisition time	60.00reverse acquisition time	0.00gamma	496.2192k internal	0.2308k external	0.2308temperature offset calibration	0.9980default loss term (dB/km)	0.3790temperature slope calibration	1.0000multiplexer offset coefficient	1.0000multiplexer slope coefficient	1.0000fibre end	0.00T internal ref (°C)	35.31T ext. ref 1 (°C)	0.23T ext. ref 2 (°C)	24.47length (m)	temperature (°C)	Stokes	anti-Stokes-747.200	-36.667	-0.260	-0.142
-746.185	47.125	-0.353	0.334
-745.171	800.000	0.046	0.151
-744.156	800.000	0.061	0.261
-743.142	200.722	0.081	0.127
-742.127	-133.205	-0.206	0.026
-741.112	-41.797	0.130	0.068
-740.098	-92.003	-0.546	0.157
-739.083	800.000	-0.038	0.147
-738.069	554.926	-0.120	0.294
-737.054	183.419	0.072	-0.108
-736.039	438.359	-0.098	0.218
-735.025	306.078	-0.158	0.298
-734.010	71.481	0.101	-0.107
-732.996	800.000	-0.069	0.218
-731.981	-95.163	-0.161	0.044
-730.966	-137.929	0.086	0.010
-729.952	-60.506	-0.127	0.055
-728.937	-200.000	-0.008	0.197
-727.923	-24.219	-0.162	0.098
-726.908	-200.000	-0.012	-0.400
-725.894	-200.000	-0.026	-0.228
-724.879	-200.000	0.012	-0.233
-723.864	63.276	0.086	-0.088
-722.850	-104.953	0.096	-0.022
-721.835	-1.554	0.123	-0.088
-720.821	157.913	-0.051	-0.072
-719.806	-145.963	-0.306	-0.028
-718.791	27.474	-0.118	0.101
-717.777	-200.000	0.034	0.238
-716.762	220.514	-0.038	-0.061
-715.748	112.146	-0.087	-0.107
-714.733	139.569	-0.063	0.085
-713.718	-10.031	0.369	-0.249
-712.704	97.936	0.080	0.093
-711.689	800.000	-0.071	0.299
-710.675	800.000	0.134	0.525
-709.660	-8.343	-0.138	-0.094
-708.645	-33.251	-0.257	0.144
-707.631	-200.000	0.004	-0.082
-706.616	414.395	0.202	-0.436
-705.602	-200.000	0.034	-0.229
-704.587	427.078	-0.086	0.188
-703.572	-37.189	0.208	0.113
-702.558	-200.000	-0.044	0.251
-701.543	183.976	0.108	0.161
-700.529	-102.152	0.201	-0.049
-699.514	104.806	0.163	-0.195
-698.499	-76.455	-0.321	0.115
-697.485	800.000	-0.115	-0.358
-696.470	148.302	0.061	0.083
-695.456	298.910	-0.149	-0.279
-694.441	-105.596	0.289	0.066
-693.426	87.501	0.202	0.227
-692.412	13.687	-0.430	0.339
-691.397	-109.363	-0.383	-0.082
-690.383	122.335	0.223	0.282
-689.368	327.937	-0.121	-0.236
-688.354	-75.823	-0.145	-0.052
-687.339	282.093	0.091	0.165
-686.324	-147.481	0.225	0.019
-685.310	-38.228	0.115	-0.062
-684.295	-11.745	0.156	0.104
-683.281	22.198	0.152	-0.126
-682.266	-8.416	-0.046	-0.031
-681.251	-50.124	-0.266	-0.128
-680.237	575.535	0.067	-0.165
-679.222	-72.204	-0.100	0.038
-678.208	-186.121	-0.218	0.003
-677.193	800.000	0.061	-0.204
-676.178	-38.438	0.164	-0.088
-675.164	-33.351	-0.077	0.043
-674.149	131.011	0.240	-0.312
-673.135	800.000	-0.060	-0.222
-672.120	52.136	0.211	0.204
-671.105	28.653	-0.198	-0.170
-670.091	42.927	-0.161	-0.149
-669.076	-200.000	0.020	0.205
-668.062	800.000	0.070	0.244
-667.047	134.760	-0.194	-0.255
-666.032	286.755	-0.082	0.150
-665.018	220.228	0.171	-0.277
-664.003	800.000	-0.068	0.240
-662.989	-135.965	0.397	-0.047
-661.974	28.143	0.136	0.116
-660.959	80.077	-0.236	-0.257
-659.945	293.358	-0.210	0.387
-658.930	-99.165	-0.245	0.063
-657.916	60.807	0.086	0.086
-656.901	-162.143	-0.285	-0.014
-655.886	98.921	0.149	0.175
-654.872	257.276	-0.170	0.296
-653.857	-200.000	-0.015	-0.094
-652.843	-54.336	-0.269	0.124
-651.828	-85.427	0.044	-0.014
-650.814	746.875	-0.064	-0.175
-649.799	253.008	0.030	-0.052
-648.784	506.227	0.105	-0.246
-647.770	718.568	-0.028	-0.076
-646.755	19.229	-0.094	0.076
-645.741	800.000	-0.061	0.186
-644.726	-200.000	0.008	-0.224
-643.711	-200.000	-0.000	-0.233
-642.697	275.350	-0.227	-0.408
-641.682	-35.248	-0.163	0.090
-640.668	-200.000	0.223	0.001
-639.653	119.521	0.261	-0.327
-638.638	-34.519	-0.393	0.218
-637.624	-136.963	0.311	-0.036
-636.609	800.000	0.011	-0.047
-635.595	-138.800	-0.266	-0.029
-634.580	44.278	0.107	0.099
-633.565	329.680	0.057	-0.110
-632.551	800.000	0.065	-0.244
-631.536	800.000	0.042	0.163
-630.522	152.348	0.056	-0.078
-629.507	86.793	0.230	0.257
-628.492	-54.587	-0.150	0.068
-627.478	-113.271	0.062	0.012
-626.463	800.000	0.044	-0.175
-625.449	800.000	0.069	-0.252
-624.434	617.472	0.184	-0.466
-623.419	-163.386	0.191	-0.009
-622.405	135.754	0.211	-0.278
-621.390	-200.000	-0.045	0.225
-620.376	-124.396	0.236	-0.037
-619.361	-200.000	0.040	-0.375
-618.346	174.814	0.123	-0.180
-617.332	55.457	-0.105	0.103
-616.317	149.268	-0.107	-0.147
-615.303	-49.141	0.125	0.060
-614.288	402.720	0.151	0.321
-613.273	800.000	-0.074	-0.302
-612.259	68.245	-0.039	0.041
-611.244	8.622	0.045	-0.035
-610.230	17.790	-0.205	0.165
-609.215	-84.139	0.276	0.088
-608.201	90.796	0.144	0.164
-607.186	604.521	0.037	0.094
-606.171	7.356	-0.303	0.229
-605.157	-1.612	0.276	-0.197
-604.142	119.925	-0.070	-0.088
-603.128	800.000	0.050	0.154
-602.113	26.159	-0.097	-0.082
-601.098	27.864	-0.169	-0.144
-600.084	49.260	0.347	0.330
-599.069	-11.780	-0.118	-0.079
-598.055	800.000	-0.074	-0.300
-597.040	800.000	0.053	-0.232
-596.025	243.415	0.032	0.055
-595.011	-11.853	-0.325	-0.216
-593.996	-43.334	0.229	-0.117
-592.982	279.747	-0.067	0.120
-591.967	-200.000	-0.020	0.159
-590.952	-136.251	0.084	0.010
-589.938	800.000	-0.026	0.098
-588.923	34.771	0.157	-0.138
-587.909	-22.054	0.396	0.243
-586.894	215.547	-0.136	0.219
-585.879	-45.339	0.312	0.156
-584.865	-53.748	-0.128	-0.059
-583.850	128.253	-0.116	-0.149
-582.836	-6.041	-0.166	0.115
-581.821	-200.000	-0.232	-0.001
-580.806	41.909	-0.167	-0.153
-579.792	19.582	0.227	-0.185
-578.777	642.702	-0.173	-0.446
-577.763	-38.792	0.169	0.090
-576.748	1.483	-0.138	0.100
-575.733	5.707	0.128	-0.095
-574.719	-112.345	0.175	-0.035
-573.704	24.227	0.153	0.128
-572.690	-118.976	0.411	-0.073
-571.675	-200.000	0.017	0.124
-570.661	-29.428	0.160	0.093
-569.646	800.000	0.111	-0.326
-568.631	-200.000	-0.014	-0.208
-567.617	53.901	-0.102	-0.099
-566.602	101.105	-0.106	-0.124
-565.588	47.827	0.223	-0.210
-564.573	68.619	-0.035	-0.037
-563.558	800.000	-0.084	-0.286
-562.544	-32.868	-0.165	0.092
-561.529	-112.969	-0.229	-0.046
-560.515	-159.195	-0.229	0.013
-559.500	-89.679	-0.315	0.093
-558.485	791.223	-0.126	0.348
-557.471	-200.000	0.000	-0.002
-556.456	-73.783	-0.312	0.114
-555.442	-167.451	0.281	-0.011
-554.427	120.649	-0.231	-0.289
-553.412	-181.712	0.142	0.003
-552.398	-139.213	-0.239	-0.026
-551.383	-200.000	-0.019	-0.197
-550.369	800.000	-0.068	-0.241
-549.354	36.840	-0.098	0.087
-548.339	-126.885	0.139	0.021
-547.325	-146.935	-0.211	-0.018
-546.310	-126.852	-0.312	0.046
-545.296	377.004	-0.179	0.369
-544.281	15.054	0.058	0.046
-543.266	800.000	0.100	-0.335
-542.252	-66.708	0.160	0.064
-541.237	-54.806	0.396	-0.180
-540.223	511.380	0.017	-0.041
-539.208	95.121	0.081	-0.092
-538.193	-200.000	-0.014	-0.173
-537.179	-53.120	-0.248	0.115
-536.164	-52.639	0.158	0.074
-535.150	-188.968	-0.505	-0.006
-534.135	-200.000	-0.011	0.088
-533.121	-200.000	0.015	0.143
-532.106	-132.276	0.213	-0.028
-531.091	487.015	0.101	0.233
-530.077	-125.546	-0.045	0.007
-529.062	-137.732	0.348	-0.039
-528.048	800.000	-0.101	-0.283
-527.033	-13.200	0.113	-0.074
-526.018	-200.000	0.016	0.093
-525.004	93.092	0.030	-0.035
-523.989	-88.134	0.259	-0.078
-522.975	-78.206	0.041	0.014
-521.960	33.770	0.164	-0.143
-520.945	-200.000	-0.081	-0.394
-519.931	-24.538	0.215	-0.129
-518.916	-102.855	0.167	-0.040
-517.902	130.178	0.120	0.155
-516.887	-155.340	0.042	-0.003
-515.872	398.042	-0.086	0.181
-514.858	-200.000	-0.004	-0.211
-513.843	591.708	-0.146	0.363
-512.829	438.663	-0.068	-0.149
-511.814	166.788	-0.067	0.096
-510.799	103.710	0.113	0.134
-509.785	192.074	-0.132	0.200
-508.770	-65.619	-0.182	-0.074
-507.756	-101.318	0.031	-0.008
-506.741	-131.136	-0.178	-0.024
-505.726	-123.671	0.377	0.060
-504.712	117.845	0.126	0.156
-503.697	-28.957	-0.273	0.158
-502.683	-200.000	0.044	0.309
-501.668	612.355	0.095	-0.238
-500.653	-200.000	-0.000	-0.020
-499.639	-34.439	0.112	-0.062
-498.624	108.648	-0.209	-0.251
-497.610	479.316	0.036	0.082
-496.595	-72.151	-0.263	0.098
-495.581	115.353	-0.111	-0.137
-494.566	1.784	-0.157	-0.114
-493.551	-188.429	-0.143	-0.002
-492.537	108.892	-0.255	-0.307
-491.522	800.000	-0.020	0.073
-490.508	395.421	0.119	0.250
-489.493	44.124	0.241	0.223
-488.478	43.712	-0.131	-0.120
-487.464	-55.299	0.106	0.048
-486.449	-96.091	-0.447	0.120
-485.435	145.417	0.062	0.084
-484.420	60.280	-0.271	0.269
-483.405	166.311	0.065	-0.092
-482.391	20.087	0.085	0.069
-481.376	-18.969	-0.092	0.058
-480.362	800.000	0.073	0.230
-479.347	-46.882	-0.191	0.094
-478.332	-156.503	-0.309	-0.019
-477.318	-200.000	0.041	-0.220
-476.303	73.634	0.142	-0.150
-475.289	-105.121	-0.158	0.036
-474.274	-7.737	0.253	-0.172
-473.259	322.195	0.104	0.199
-472.245	-200.000	-0.002	0.050
-471.230	-27.039	-0.101	-0.060
-470.216	-32.902	0.101	-0.057
-469.201	260.712	0.064	0.110
-468.186	-121.115	-0.236	0.040
-467.172	-200.000	-0.014	0.100
-466.157	261.065	0.088	0.152
-465.143	-200.000	-0.007	-0.072
-464.128	181.656	0.065	-0.096
-463.113	800.000	0.051	-0.203
-462.099	263.955	0.098	-0.172
-461.084	-118.379	-0.269	0.048
-460.070	-200.000	0.020	-0.155
-459.055	-200.000	0.002	0.078
-458.040	-200.000	0.025	-0.337
-457.026	-118.166	-0.137	-0.025
-456.011	35.967	0.329	-0.291
-454.997	289.247	0.064	0.117
-453.982	32.272	-0.234	-0.203
-452.968	178.033	-0.155	-0.227
-451.953	-28.829	-0.176	-0.101
-450.938	-133.493	0.314	-0.040
-449.924	-122.461	0.248	0.041
-448.909	168.483	0.062	-0.089
-447.895	353.509	-0.093	0.185
-446.880	-56.995	-0.389	0.172
-445.865	-96.676	0.302	0.080
-444.851	117.925	0.146	0.181
-443.836	800.000	0.052	0.155
-442.822	-200.000	0.009	-0.243
-441.807	66.816	-0.128	-0.130
-440.792	86.270	0.047	0.052
-439.778	210.330	-0.055	0.087
-438.763	319.620	-0.136	0.259
-437.749	-84.808	0.085	0.027
-436.734	-94.222	-0.120	0.033
-435.719	-200.000	0.144	-0.001
-434.705	-90.090	-0.055	-0.016
-433.690	800.000	-0.107	0.298
-432.676	613.825	-0.122	0.306
-431.661	-134.910	-0.055	-0.007
-430.646	186.825	0.112	-0.167
-429.632	-91.839	-0.312	0.089
-428.617	800.000	-0.044	-0.177
-427.603	-114.829	0.133	0.025
-426.588	-118.333	-0.150	0.027
-425.573	-52.038	-0.211	0.098
-424.559	-75.468	-0.399	-0.142
-423.544	-32.620	-0.193	0.108
-422.530	800.000	-0.011	0.039
-421.515	-200.000	0.036	-0.381
-420.500	-26.908	-0.046	0.027
-419.486	-159.051	-0.505	0.029
-418.471	-116.915	0.212	0.039
-417.457	94.855	-0.324	-0.370
-416.442	-73.043	-0.121	-0.045
-415.428	44.286	-0.217	0.200
-414.413	-126.269	-0.193	-0.029
-413.398	243.922	-0.069	-0.116
-412.384	-54.476	0.202	-0.092
-411.369	800.000	0.116	-0.460
-410.355	-107.421	-0.055	-0.012
-409.340	-200.000	0.028	-0.193
-408.325	19.595	-0.229	-0.185
-407.311	-50.567	-0.071	0.034
-406.296	738.741	0.087	-0.234
-405.282	-19.960	-0.205	0.127
-404.267	-102.134	-0.282	-0.068
-403.252	-51.252	0.273	-0.128
-402.238	-200.000	0.007	0.253
-401.223	800.000	-0.085	-0.314
-400.209	-200.000	-0.001	0.275
-399.194	-113.473	0.173	-0.034
-398.179	800.000	0.023	-0.068
-397.165	-86.830	0.283	-0.087
-396.150	462.452	0.058	0.129
-395.136	573.966	0.151	-0.369
-394.121	-37.399	0.170	-0.091
-393.106	124.740	0.073	-0.092
-392.092	-138.827	0.227	0.025
-391.077	-38.169	-0.190	0.101
-390.063	180.290	-0.125	-0.184
-389.048	-200.000	-0.039	0.497
-388.033	76.711	-0.192	0.204
-387.019	-69.727	0.126	0.048
-386.004	-114.870	-0.210	0.040
-384.990	-200.000	0.008	0.214
-383.975	-178.358	0.134	-0.003
-382.960	800.000	-0.036	0.158
-381.946	800.000	-0.074	-0.312
-380.931	-200.000	-0.017	0.141
-379.917	-147.232	-0.156	0.013
-378.902	-133.047	0.255	0.032
-377.888	576.653	-0.068	0.166
-376.873	197.391	0.138	0.211
-375.858	-147.081	-0.028	-0.002
-374.844	-200.000	-0.037	0.368
-373.829	-19.867	0.174	-0.107
-372.815	-103.614	-0.354	-0.083
-371.800	581.557	-0.012	0.030
-370.785	-33.963	0.130	-0.072
-369.771	-165.673	0.254	-0.011
-368.756	49.043	-0.109	-0.103
-367.742	-138.530	0.179	0.020
-366.727	-200.000	-0.011	0.088
-365.712	137.876	0.115	0.151
-364.698	-71.560	-0.127	0.048
-363.683	-34.063	-0.227	0.125
-362.669	-200.000	-0.027	0.392
-361.654	-110.481	0.161	-0.033
-360.639	-200.000	-0.041	-0.211
-359.625	-46.032	0.259	0.128
-358.610	102.379	-0.170	0.199
-357.596	80.498	0.079	-0.086
-356.581	-94.638	0.119	0.032
-355.566	98.338	0.250	0.288
-354.552	-200.000	-0.108	0.574
-353.537	800.000	-0.119	0.415
-352.523	174.943	0.087	0.126
-351.508	357.237	0.062	0.125
-350.493	-46.804	-0.115	0.056
-349.479	800.000	0.021	0.060
-348.464	186.115	-0.144	-0.214
-347.450	281.527	-0.141	0.252
-346.435	252.973	-0.278	0.475
-345.420	-144.114	-0.141	0.013
-344.406	131.234	-0.131	0.169
-343.391	244.147	0.101	0.170
-342.377	-75.808	-0.235	0.083
-341.362	-200.000	0.038	-0.280
-340.348	-200.000	-0.020	0.259
-339.333	800.000	-0.054	0.195
-338.318	-200.000	0.008	0.160
-337.304	-200.000	-0.018	0.100
-336.289	-200.000	0.003	0.161
-335.275	371.055	-0.110	0.223
-334.260	-91.817	0.255	-0.072
-333.245	-200.000	-0.006	-0.072
-332.231	-68.740	-0.256	0.099
-331.216	-179.622	-0.231	0.005
-330.202	20.328	-0.265	0.214
-329.187	228.697	-0.259	-0.423
-328.172	-132.862	-0.152	0.019
-327.158	-125.481	-0.059	0.009
-326.143	-142.049	-0.226	-0.022
-325.129	43.571	-0.104	0.095
-324.114	2.555	-0.158	-0.114
-323.099	800.000	-0.146	-0.493
-322.085	49.962	-0.114	0.107
-321.070	-200.000	-0.015	0.138
-320.056	-144.941	0.061	-0.006
-319.041	246.107	0.026	-0.044
-318.026	-82.885	-0.211	0.068
-317.012	800.000	-0.083	0.355
-315.997	207.489	0.090	0.140
-314.983	779.213	0.056	-0.154
-313.968	-200.000	-0.043	-0.224
-312.953	-161.456	0.397	0.020
-311.939	-137.775	0.193	0.022
-310.924	528.914	-0.129	0.305
-309.910	106.691	-0.250	-0.296
-308.895	398.104	0.060	-0.126
-307.880	-200.000	-0.050	-0.224
-306.866	-200.000	-0.049	0.261
-305.851	141.248	0.092	0.121
-304.837	283.147	-0.085	0.152
-303.822	733.069	-0.119	0.319
-302.807	218.858	0.173	0.277
-301.793	-18.720	0.191	-0.119
-300.778	-34.307	0.164	-0.090
-299.764	136.077	-0.119	-0.155
-298.749	-84.761	-0.275	0.086
-297.735	-200.000	-0.010	0.176
-296.720	4.990	-0.160	-0.118
-295.705	293.547	-0.053	-0.097
-294.691	-132.942	0.245	0.031
-293.676	-103.207	0.058	0.014
-292.662	-200.000	0.003	0.182
-291.647	-3.605	0.168	-0.116
-290.632	134.937	-0.081	0.105
-289.618	42.716	0.388	0.353
-288.603	-74.066	0.044	0.016
-287.589	-177.844	-0.157	-0.004
-286.574	800.000	0.034	0.128
-285.559	-200.000	0.302	-0.001
-284.545	800.000	-0.073	0.253
-283.530	-200.000	0.012	-0.165
-282.516	87.369	-0.107	-0.118
-281.501	-173.201	0.391	0.012
-280.486	92.761	-0.125	0.141
-279.472	-8.774	-0.412	0.276
-278.457	-200.000	-0.013	0.243
-277.443	-175.568	-0.442	0.012
-276.428	89.633	0.167	-0.186
-275.413	-200.000	0.018	-0.201
-274.399	-200.000	-0.084	-0.387
-273.384	39.246	0.166	0.148
-272.370	-80.411	-0.263	-0.088
-271.355	-131.432	0.094	-0.012
-270.340	570.900	0.074	0.180
-269.326	-29.352	0.168	0.096
-268.311	-105.435	0.150	0.034
-267.297	253.935	0.159	-0.271
-266.282	-32.191	0.192	-0.107
-265.267	-4.632	0.191	0.131
-264.253	-168.729	-0.213	-0.008
-263.238	-37.544	-0.176	-0.094
-262.224	-92.454	-0.179	-0.050
-261.209	211.633	0.092	-0.144
-260.195	-82.455	0.181	-0.059
-259.180	410.658	-0.150	-0.317
-258.165	9.263	-0.171	-0.129
-257.151	-85.570	-0.253	-0.079
-256.136	-27.311	0.305	0.177
-255.122	108.487	-0.278	-0.330
-254.107	20.773	0.310	0.251
-253.092	142.597	-0.114	0.151
-252.078	-20.079	0.262	-0.161
-251.063	-200.000	0.000	0.311
-250.049	-136.133	0.140	-0.016
-249.034	178.897	0.140	0.205
-248.019	800.000	-0.076	0.304
-247.005	-69.592	0.239	-0.091
-245.990	157.430	0.129	-0.178
-244.976	-66.576	0.247	-0.098
-243.961	-37.336	-0.054	-0.029
-242.946	6.951	-0.162	0.121
-241.932	-10.254	0.046	-0.030
-240.917	-200.000	-0.063	-0.318
-239.903	512.156	-0.048	-0.112
-238.888	-200.000	-0.049	-0.237
-237.873	-200.000	0.003	-0.037
-236.859	257.287	0.104	0.178
-235.844	-200.000	-0.002	0.024
-234.830	-71.646	-0.366	-0.136
-233.815	-120.065	0.469	-0.080
-232.800	800.000	0.076	0.308
-231.786	375.404	0.171	-0.347
-230.771	55.331	0.259	-0.250
-229.757	177.564	0.134	-0.194
-228.742	7.984	-0.245	0.183
-227.727	800.000	0.048	0.200
-226.713	112.919	0.195	0.236
-225.698	-200.000	0.017	-0.087
-224.684	775.947	0.039	-0.107
-223.669	-34.541	-0.263	-0.143
-222.655	111.744	0.121	-0.146
-221.640	198.790	0.249	0.379
-220.625	97.827	-0.208	-0.238
-219.611	261.422	-0.085	-0.147
-218.596	-34.649	-0.081	0.044
-217.582	-135.886	-0.334	-0.039
-216.567	-90.766	-0.084	0.024
-215.552	-86.819	0.152	-0.046
-214.538	-83.065	0.277	0.089
-213.523	-165.486	-0.249	0.011
-212.509	-200.000	0.021	-0.137
-211.494	-90.397	-0.137	0.039
-210.479	387.732	-0.054	0.112
-209.465	-200.000	0.044	0.445
-208.450	-55.836	-0.111	0.049
-207.436	11.743	0.130	0.100
-206.421	-78.609	0.138	-0.047
-205.406	37.553	0.271	-0.240
-204.392	-200.000	0.005	-0.109
-203.377	61.920	0.037	-0.036
-202.363	800.000	0.032	-0.123
-201.348	-200.000	0.039	-0.226
-200.333	800.000	0.046	-0.134
-199.319	199.961	0.035	0.054
-198.304	-116.478	0.217	-0.040
-197.290	216.926	-0.137	0.217
-196.275	-146.768	0.312	0.027
-195.260	1.131	0.028	0.020
-194.246	-10.648	0.284	0.187
-193.231	256.668	0.107	-0.183
-192.217	-200.000	0.044	0.254
-191.202	800.000	0.041	-0.174
-190.187	-200.000	0.029	0.137
-189.173	486.359	-0.072	-0.163
-188.158	-79.417	0.124	0.042
-187.144	800.000	0.101	-0.360
-186.129	96.143	0.213	-0.242
-185.114	-137.070	-0.154	0.017
-184.100	-200.000	0.039	0.374
-183.085	-169.443	0.175	0.006
-182.071	-78.105	0.362	0.124
-181.056	-183.750	0.186	-0.003
-180.042	-60.657	-0.041	0.017
-179.027	-10.878	0.190	-0.125
-178.012	-133.016	0.097	0.012
-176.998	800.000	-0.063	-0.176
-175.983	-200.000	-0.019	0.112
-174.969	800.000	-0.103	-0.412
-173.954	474.420	0.106	0.237
-172.939	106.806	0.278	0.329
-171.925	180.010	0.069	-0.100
-170.910	364.085	-0.092	0.184
-169.896	192.300	0.101	0.151
-168.881	-74.939	-0.337	-0.120
-167.866	-16.626	0.100	-0.063
-166.852	-91.665	-0.197	-0.056
-165.837	102.944	0.240	-0.279
-164.823	110.429	0.137	0.164
-163.808	3.366	-0.122	0.088
-162.793	-79.342	0.212	0.071
-161.779	534.665	-0.108	-0.254
-160.764	800.000	-0.109	-0.308
-159.750	-32.300	-0.169	-0.094
-158.735	-3.083	0.234	-0.162
-157.720	311.085	0.143	0.266
-156.706	800.000	0.011	0.035
-155.691	171.914	-0.060	0.086
-154.677	54.501	-0.338	-0.323
-153.662	800.000	-0.029	0.089
-152.647	-200.000	-0.048	0.599
-151.633	333.606	0.117	0.224
-150.618	-24.296	0.386	0.229
-149.604	800.000	-0.033	-0.128
-148.589	-200.000	0.017	-0.147
-147.574	800.000	0.112	-0.357
-146.560	-67.567	-0.077	-0.030
-145.545	-156.009	0.197	0.012
-144.531	800.000	-0.038	0.149
-143.516	258.873	-0.116	0.198
-142.502	-78.977	-0.353	0.119
-141.487	800.000	0.025	0.072
-140.472	295.803	0.186	0.338
-139.458	-29.908	0.398	-0.225
-138.443	44.672	0.087	0.080
-137.429	-164.043	0.095	0.004
-136.414	245.111	-0.156	0.261
-135.399	-38.508	-0.312	0.164
-134.385	-89.143	0.373	-0.109
-133.370	-200.000	-0.014	-0.069
-132.356	403.727	0.073	-0.152
-131.341	-72.634	-0.271	-0.099
-130.326	78.294	-0.197	0.209
-129.312	-177.326	-0.215	-0.005
-128.297	339.052	0.044	0.084
-127.283	-200.000	0.018	0.177
-126.268	-124.021	-0.102	0.016
-125.253	51.933	-0.486	0.460
-124.239	-200.000	-0.003	-0.013
-123.224	-200.000	-0.008	-0.343
-122.210	-10.302	0.189	0.125
-121.195	95.758	-0.165	-0.187
