DTS Sentinel unit serial number:	SN413079Multiplexer serial number:	ORYXHardware model number:	OX4-SRSoftware version number:	ORYX F/W v4.00 Oryx Data Collector v3.7.2.0data status	okinstallation	princeton_trtdifferential loss correction	single-endedforward channel	channel 4reverse channel	N/Adate	2019/09/11time	13:31:11forward acquisition time	60.00reverse acquisition time	0.00gamma	496.2192k internal	0.2283k external	0.2283temperature offset calibration	1.0003default loss term (dB/km)	0.3790temperature slope calibration	1.0000multiplexer offset coefficient	1.0000multiplexer slope coefficient	1.0000fibre end	0.00T internal ref (°C)	41.97T ext. ref 1 (°C)	0.81T ext. ref 2 (°C)	37.58length (m)	temperature (°C)	Stokes	anti-Stokes-747.200	761.239	-0.164	-0.457
-746.185	28.751	-0.170	0.148
-745.171	-89.418	0.233	0.070
-744.156	-200.000	0.017	0.439
-743.142	-148.027	0.275	0.023
-742.127	-176.786	-0.198	0.005
-741.112	-8.379	-0.241	0.167
-740.098	-100.814	-0.333	0.084
-739.083	379.619	-0.090	-0.189
-738.069	208.367	0.050	0.081
-737.054	-59.550	0.080	0.035
-736.039	53.110	-0.123	-0.121
-735.025	91.414	0.138	-0.159
-734.010	-118.499	0.239	0.043
-732.996	-21.277	0.152	-0.096
-731.981	85.790	-0.223	0.252
-730.966	263.478	-0.144	0.258
-729.952	-39.363	-0.049	-0.026
-728.937	516.879	-0.072	-0.173
-727.923	-31.199	0.255	-0.148
-726.908	-57.784	0.208	-0.094
-725.894	-200.000	-0.025	0.135
-724.879	106.035	-0.034	0.042
-723.864	-71.653	0.130	-0.050
-722.850	-182.609	-0.107	0.002
-721.835	-5.307	0.159	-0.112
-720.821	-18.266	0.044	-0.028
-719.806	-95.874	0.231	0.063
-718.791	-68.447	-0.236	0.094
-717.777	-50.169	0.165	0.080
-716.762	-26.626	0.153	-0.092
-715.748	-15.966	-0.224	-0.146
-714.733	-75.634	-0.292	-0.106
-713.718	21.715	0.068	-0.057
-712.704	-51.068	0.114	0.055
-711.689	286.006	0.099	-0.183
-710.675	-200.000	-0.007	-0.061
-709.660	-29.588	0.171	0.100
-708.645	53.620	0.137	0.135
-707.631	-14.148	0.114	-0.075
-706.616	32.939	-0.229	-0.203
-705.602	-137.460	0.220	0.025
-704.587	-200.000	0.022	0.440
-703.572	-117.142	-0.029	-0.006
-702.558	216.273	0.099	-0.161
-701.543	-200.000	-0.039	0.210
-700.529	208.651	-0.076	0.122
-699.514	631.428	0.070	-0.183
-698.499	-200.000	0.011	-0.388
-697.485	-76.957	0.242	0.087
-696.470	74.452	0.281	-0.303
-695.456	-200.000	0.002	0.066
-694.441	369.926	0.118	-0.244
-693.426	-112.124	-0.132	0.027
-692.412	362.243	0.114	-0.234
-691.397	307.922	-0.081	-0.154
-690.383	-70.075	0.066	-0.026
-689.368	-200.000	0.030	0.150
-688.354	800.000	0.067	-0.222
-687.339	45.015	0.044	0.041
-686.324	-29.049	-0.055	0.032
-685.310	520.304	-0.061	0.146
-684.295	-26.212	-0.250	0.151
-683.281	35.179	-0.187	0.168
-682.266	12.965	0.099	0.078
-681.251	-42.571	-0.230	-0.120
-680.237	-200.000	-0.003	-0.062
-679.222	56.492	-0.075	-0.074
-678.208	-146.935	-0.095	-0.008
-677.193	72.300	-0.261	-0.279
-676.178	52.682	-0.121	0.118
-675.164	-200.000	0.010	-0.160
-674.149	-118.942	0.257	0.046
-673.135	-172.091	0.438	0.015
-672.120	-122.205	0.299	0.050
-671.105	-200.000	-0.050	0.265
-670.091	3.451	0.106	-0.079
-669.076	-112.797	-0.103	0.021
-668.062	-5.860	-0.129	0.091
-667.047	-200.000	0.062	-0.332
-666.032	-136.968	0.267	-0.031
-665.018	-200.000	-0.005	-0.212
-664.003	56.690	-0.248	-0.247
-662.989	664.755	0.102	-0.270
-661.974	446.491	0.098	-0.221
-660.959	-31.743	-0.122	0.070
-659.945	-41.275	0.327	0.173
-658.930	-86.805	0.308	-0.096
-657.916	-9.150	0.090	0.062
-656.901	-200.000	0.057	0.388
-655.886	-200.000	-0.021	0.318
-654.872	202.877	0.085	-0.134
-653.857	70.263	0.226	-0.239
-652.843	154.610	0.134	0.188
-651.828	308.186	0.097	0.186
-650.814	145.737	-0.048	0.066
-649.799	800.000	-0.062	-0.215
-648.784	-132.564	0.105	0.014
-647.770	-200.000	-0.015	-0.069
-646.755	-82.071	-0.275	-0.092
-645.741	7.435	-0.117	0.090
-644.726	-21.067	-0.067	0.042
-643.711	-133.593	0.158	-0.020
-642.697	184.679	0.128	-0.194
-641.682	-23.685	-0.066	-0.041
-640.668	310.223	-0.104	-0.200
-639.653	-65.207	-0.066	0.027
-638.638	89.527	0.175	0.199
-637.624	-111.830	0.240	0.050
-636.609	-200.000	0.022	0.124
-635.595	-74.984	-0.219	0.080
-634.580	1.839	-0.138	-0.102
-633.565	-200.000	-0.022	-0.146
-632.551	-36.626	0.088	0.048
-631.536	-62.440	-0.098	-0.042
-630.522	-5.005	0.093	-0.065
-629.507	-122.755	0.248	0.041
-628.492	-16.802	0.122	0.079
-627.478	227.146	-0.017	-0.029
-626.463	100.185	-0.226	0.268
-625.449	800.000	0.076	0.273
-624.434	-20.838	0.162	0.102
-623.419	62.931	0.024	-0.025
-622.405	165.566	-0.196	-0.284
-621.390	-168.506	-0.245	-0.010
-620.376	109.081	-0.224	-0.274
-619.361	31.233	0.082	-0.072
-618.346	-200.000	-0.015	-0.361
-617.332	48.514	-0.031	0.030
-616.317	-82.316	0.135	-0.045
-615.303	243.476	-0.106	0.182
-614.288	-153.416	-0.248	0.018
-613.273	-61.898	0.236	0.101
-612.259	-180.167	0.317	-0.007
-611.244	-36.617	0.121	-0.067
-610.230	-34.723	-0.369	-0.206
-609.215	90.451	-0.091	-0.104
-608.201	-200.000	0.002	-0.203
-607.186	800.000	-0.065	-0.232
-606.171	-195.329	0.095	0.001
-605.157	-200.000	-0.058	-0.360
-604.142	800.000	0.046	0.205
-603.128	-17.372	0.233	0.150
-602.113	-200.000	-0.018	-0.296
-601.098	-135.903	0.113	-0.014
-600.084	35.746	-0.183	0.164
-599.069	9.075	-0.142	-0.110
-598.055	205.405	0.127	0.201
-597.040	207.331	0.106	0.169
-596.025	-43.122	-0.166	-0.086
-595.011	15.483	-0.325	0.261
-593.996	-43.079	0.139	0.072
-592.982	-80.699	0.193	0.066
-591.967	-74.520	-0.310	-0.114
-590.952	38.314	-0.205	-0.187
-589.938	-200.000	0.048	-0.348
-588.923	-64.298	-0.618	-0.257
-587.909	-129.831	0.194	-0.027
-586.894	135.373	-0.259	-0.344
-585.879	-200.000	-0.013	0.072
-584.865	-59.659	-0.088	-0.038
-583.850	72.377	0.239	0.255
-582.836	45.560	-0.302	0.284
-581.821	190.894	-0.279	-0.428
-580.806	-57.197	0.328	-0.148
-579.792	264.273	0.212	-0.377
-578.777	-200.000	0.005	0.230
-577.763	-158.466	0.131	-0.008
-576.748	-125.208	-0.115	-0.018
-575.733	-200.000	-0.092	0.411
-574.719	285.288	-0.142	0.262
-573.704	690.513	0.048	0.129
-572.690	-82.755	0.384	-0.127
-571.675	-122.442	-0.150	-0.025
-570.661	-50.691	0.189	-0.091
-569.646	-200.000	-0.047	0.371
-568.631	-200.000	0.023	0.133
-567.617	-151.116	-0.128	-0.010
-566.602	-20.723	-0.157	-0.098
-565.588	45.891	-0.208	0.197
-564.573	317.870	-0.050	-0.097
-563.558	-200.000	0.006	0.090
-562.544	-17.356	0.243	-0.156
-561.529	66.912	-0.103	0.107
-560.515	-62.481	-0.119	-0.051
-559.500	800.000	-0.058	-0.171
-558.485	-168.595	-0.384	-0.015
-557.471	55.540	-0.264	0.261
-556.456	557.909	0.096	0.237
-555.442	-31.454	-0.226	0.129
-554.427	-88.704	0.105	0.032
-553.412	800.000	0.043	-0.190
-552.398	-200.000	0.040	-0.217
-551.383	46.007	0.133	0.126
-550.369	427.798	-0.084	0.186
-549.354	-186.024	0.285	0.004
-548.339	800.000	0.046	0.146
-547.325	-15.936	0.210	0.136
-546.310	81.601	0.277	0.306
-545.296	-153.055	-0.275	0.020
-544.281	-13.189	0.042	0.028
-543.266	44.162	0.190	-0.178
-542.252	9.711	-0.171	-0.132
-541.237	-200.000	0.020	-0.142
-540.223	-3.189	0.134	-0.095
-539.208	-200.000	0.033	-0.201
-538.193	-200.000	-0.080	0.381
-537.179	178.207	-0.027	0.040
-536.164	40.038	-0.093	0.085
-535.150	800.000	0.023	-0.085
-534.135	-106.227	0.135	0.031
-533.121	370.064	0.047	-0.098
-532.106	-200.000	0.027	-0.185
-531.091	20.321	-0.112	-0.092
-530.077	-88.038	-0.214	-0.066
-529.062	337.080	-0.172	-0.341
-528.048	69.126	-0.072	0.076
-527.033	-200.000	0.070	0.349
-526.018	-81.158	-0.220	0.074
-525.004	47.361	0.170	0.162
-523.989	76.412	0.041	-0.044
-522.975	27.319	0.060	0.051
-521.960	141.363	-0.195	-0.263
-520.945	239.679	0.106	-0.181
-519.931	-153.103	-0.275	-0.020
-518.916	112.916	0.169	-0.208
-517.902	-200.000	-0.041	0.288
-516.887	-200.000	-0.013	-0.175
-515.872	130.681	0.171	0.223
-514.858	798.129	0.060	0.169
-513.843	-67.192	-0.336	-0.135
-512.829	-102.816	-0.155	-0.038
-511.814	-101.327	-0.082	0.020
-510.799	-121.473	0.337	0.057
-509.785	92.470	0.187	-0.215
-508.770	114.815	0.126	0.157
-507.756	-200.000	0.067	0.302
-506.741	298.385	-0.069	0.130
-505.726	-29.522	0.154	-0.090
-504.712	195.900	0.046	0.071
-503.697	149.098	0.184	0.253
-502.683	164.340	0.145	0.208
-501.668	-65.969	-0.179	0.073
-500.653	190.983	-0.185	0.283
-499.639	-200.000	-0.052	-0.512
-498.624	473.681	-0.189	-0.434
-497.610	494.123	0.029	-0.068
-496.595	-136.447	-0.213	-0.025
-495.581	159.087	0.140	-0.199
-494.566	213.403	-0.131	0.210
-493.551	299.408	0.083	0.156
-492.537	12.319	-0.152	0.119
-491.522	800.000	0.041	0.171
-490.508	26.909	-0.124	0.106
-489.493	-50.396	0.287	0.138
-488.478	800.000	0.099	-0.352
-487.464	126.981	-0.321	-0.414
-486.449	205.190	-0.119	0.187
-485.435	-200.000	-0.006	-0.098
-484.420	800.000	0.034	0.151
-483.405	-200.000	0.094	-0.427
-482.391	800.000	0.076	-0.228
-481.376	-200.000	0.015	0.121
-480.362	589.361	-0.104	-0.261
-479.347	-200.000	-0.007	-0.167
-478.332	-82.529	-0.161	0.053
-477.318	-81.362	0.295	-0.099
-476.303	-200.000	0.014	-0.286
-475.289	-113.869	-0.503	-0.099
-474.274	-200.000	0.024	0.348
-473.259	-200.000	0.017	-0.346
-472.245	-118.391	-0.232	0.042
-471.230	66.943	-0.088	-0.091
-470.216	111.208	-0.091	-0.111
-469.201	800.000	0.102	0.447
-468.186	800.000	-0.067	0.204
-467.172	-23.253	-0.060	-0.037
-466.157	-72.702	-0.521	0.195
-465.143	61.943	-0.093	-0.094
-464.128	-54.015	0.245	0.113
-463.113	-104.646	0.515	0.121
-462.099	473.356	0.090	0.207
-461.084	-0.155	0.197	-0.142
-460.070	-31.510	0.090	-0.051
-459.055	800.000	0.059	0.181
-458.040	21.307	-0.200	0.165
-457.026	-81.989	-0.347	-0.115
-456.011	-119.968	-0.284	0.049
-454.997	133.631	-0.110	-0.145
-453.982	119.194	-0.202	-0.254
-452.968	-200.000	0.025	0.189
-451.953	-21.243	-0.227	-0.141
-450.938	-167.417	0.216	-0.009
-449.924	-200.000	0.008	-0.094
-448.909	-51.213	0.387	0.184
-447.895	229.525	-0.139	0.231
-446.880	-200.000	-0.020	0.135
-445.865	348.049	0.105	0.210
-444.851	188.362	-0.104	0.157
-443.836	-42.914	0.221	0.114
-442.822	-169.384	-0.185	0.007
-441.807	-200.000	-0.003	-0.245
-440.792	800.000	0.123	-0.441
-439.778	-13.285	-0.106	-0.070
-438.763	-163.701	-0.138	0.007
-437.749	800.000	0.062	0.232
-436.734	309.559	0.180	-0.343
-435.719	256.480	0.070	0.122
-434.705	495.661	0.063	0.147
-433.690	-200.000	-0.030	0.187
-432.676	369.515	-0.131	-0.269
-431.661	126.652	0.227	-0.292
-430.646	-15.208	-0.111	0.072
-429.632	300.799	-0.222	0.416
-428.617	-200.000	0.020	-0.377
-427.603	-38.604	0.285	-0.153
-426.588	-136.294	0.291	-0.034
-425.573	-147.638	0.108	-0.009
-424.559	-200.000	0.002	0.125
-423.544	-200.000	0.031	-0.199
-422.530	56.836	0.065	-0.064
-421.515	-200.000	-0.013	0.148
-420.500	-200.000	0.011	0.091
-419.486	-200.000	0.005	0.023
-418.471	-37.947	0.132	-0.071
-417.457	-200.000	0.008	-0.202
-416.442	-54.335	0.152	0.070
-415.428	-200.000	-0.047	0.239
-414.413	-58.531	-0.138	0.061
-413.398	69.511	-0.168	-0.175
-412.384	-54.576	-0.268	0.123
-411.369	-18.075	0.107	0.068
-410.355	281.358	-0.131	0.238
-409.340	-65.871	0.054	-0.022
-408.325	-200.000	0.014	0.244
-407.311	-40.139	0.129	-0.068
-406.296	-188.618	0.219	0.003
-405.282	365.618	0.190	0.388
-404.267	300.566	0.044	0.083
-403.252	-200.000	-0.046	0.242
-402.238	-91.529	0.189	0.055
-401.223	152.200	-0.128	-0.178
-400.209	22.513	-0.405	0.335
-399.194	46.762	-0.338	-0.318
-398.179	-200.000	0.023	-0.159
-397.165	-94.999	-0.061	-0.017
-396.150	800.000	-0.005	0.014
-395.136	-146.271	-0.320	0.028
-394.121	-9.233	-0.285	0.193
-393.106	113.865	-0.116	-0.143
-392.092	132.153	-0.262	0.342
-391.077	-58.039	-0.112	0.049
-390.063	256.969	-0.211	0.368
-389.048	-200.000	-0.024	0.237
-388.033	800.000	-0.081	0.360
-387.019	88.937	-0.164	0.185
-386.004	-76.827	0.231	0.082
-384.990	391.152	0.138	-0.291
-383.975	-83.447	-0.253	0.082
-382.960	-200.000	0.008	0.243
-381.946	-200.000	-0.009	-0.065
-380.931	-117.344	0.150	-0.028
-379.917	-66.510	0.284	-0.114
-378.902	-81.225	-0.155	-0.052
-377.888	-113.311	-0.090	0.018
-376.873	185.619	0.126	0.189
-375.858	-200.000	0.005	0.123
-374.844	800.000	-0.049	-0.187
-373.829	-200.000	-0.198	-0.000
-372.815	-76.842	-0.132	0.047
-371.800	800.000	0.014	0.051
-370.785	35.257	-0.161	0.143
-369.771	-10.396	0.271	-0.182
-368.756	-21.962	0.071	-0.044
-367.742	-200.000	-0.060	-0.300
-366.727	686.222	-0.056	-0.148
-365.712	-96.310	0.215	0.058
-364.698	177.966	-0.142	0.209
-363.683	-200.000	-0.047	0.351
-362.669	-106.660	0.325	-0.073
-361.654	-115.942	0.303	0.057
-360.639	-49.963	0.220	-0.106
-359.625	-200.000	0.059	0.424
-358.610	127.555	-0.198	0.254
-357.596	-200.000	-0.044	0.406
-356.581	-49.331	0.265	0.128
-355.566	292.568	0.080	-0.147
-354.552	67.366	-0.132	0.136
-353.537	-200.000	-0.011	-0.123
-352.523	-200.000	0.043	-0.248
-351.508	-160.700	-0.324	0.017
-350.493	-39.915	0.114	0.060
-349.479	213.384	0.082	0.131
-348.464	68.537	0.209	-0.217
-347.450	239.494	-0.150	0.253
-346.435	151.592	-0.038	0.052
-345.420	478.761	-0.039	0.089
-344.406	38.707	0.123	0.111
-343.391	-32.935	0.211	0.118
-342.377	130.960	0.079	-0.103
-341.362	565.590	0.137	-0.335
-340.348	-39.106	0.154	-0.082
-339.333	-103.233	0.216	0.052
-338.318	4.769	-0.119	0.089
-337.304	111.558	0.111	-0.136
-336.289	-200.000	-0.051	0.283
-335.275	106.262	0.111	0.133
-334.260	212.878	0.105	0.167
-333.245	-200.000	-0.023	0.170
-332.231	-161.646	-0.141	-0.007
-331.216	-200.000	0.070	0.446
-330.202	800.000	0.081	-0.294
-329.187	88.124	-0.161	0.180
-328.172	-200.000	0.030	-0.193
-327.158	-3.431	-0.029	-0.020
-326.143	80.166	0.159	-0.173
-325.129	631.582	0.077	0.198
-324.114	-22.286	0.309	0.190
-323.099	126.879	0.131	-0.168
-322.085	-112.917	0.090	-0.018
-321.070	-65.994	-0.286	-0.115
-320.056	248.102	0.125	0.213
-319.041	6.564	-0.264	-0.198
-318.026	12.147	0.193	-0.150
-317.012	-142.459	0.201	-0.020
-315.997	-200.000	-0.012	0.183
-314.983	-10.646	0.107	-0.072
-313.968	-96.618	-0.186	0.049
-312.953	800.000	-0.064	0.207
-311.939	140.911	-0.077	-0.103
-310.924	800.000	-0.061	-0.270
-309.910	14.564	0.130	0.103
-308.895	294.972	-0.046	-0.085
-307.880	190.943	-0.118	-0.180
-306.866	800.000	0.077	0.274
-305.851	131.358	0.118	-0.153
-304.837	-200.000	0.018	0.134
-303.822	-200.000	0.008	-0.093
-302.807	-163.970	0.241	-0.011
-301.793	-86.279	-0.083	-0.026
-300.778	28.662	0.101	-0.086
-299.764	-21.444	-0.277	-0.171
-298.749	-200.000	0.182	0.000
-297.735	-33.747	0.211	0.117
-296.720	37.974	-0.091	0.082
-295.705	108.813	-0.131	0.158
-294.691	-200.000	-0.002	0.143
-293.676	32.116	-0.022	-0.020
-292.662	579.784	0.180	-0.444
-291.647	594.236	-0.173	-0.432
-290.632	306.812	-0.174	-0.328
-289.618	7.769	0.205	-0.155
-288.603	-141.924	0.192	-0.019
-287.589	66.683	0.180	0.184
-286.574	-200.000	-0.020	0.127
-285.559	-64.029	-0.406	-0.167
-284.545	800.000	-0.087	-0.359
-283.530	-141.471	0.074	0.008
-282.516	156.197	-0.106	0.147
-281.501	10.068	0.218	0.167
-280.486	-200.000	0.003	-0.439
-279.472	-117.029	0.046	-0.008
-278.457	-61.612	-0.040	-0.017
-277.443	-65.848	0.439	-0.177
-276.428	5.448	-0.106	0.079
-275.413	-200.000	0.017	0.191
-274.399	376.801	-0.137	-0.283
-273.384	-114.631	0.159	-0.031
-272.370	-34.916	0.317	0.175
-271.355	-200.000	-0.018	-0.137
-270.340	-37.966	-0.156	-0.084
-269.326	-200.000	-0.006	-0.075
-268.311	553.985	-0.158	-0.384
-267.297	-155.315	0.064	-0.004
-266.282	85.533	0.100	-0.111
-265.267	-200.000	0.082	0.413
-264.253	377.240	-0.105	0.216
-263.238	79.313	-0.116	-0.125
-262.224	-77.275	-0.105	-0.037
-261.209	800.000	-0.089	0.284
-260.195	-200.000	-0.007	0.136
-259.180	440.621	0.205	-0.452
-258.165	-28.816	0.129	-0.075
-257.151	5.498	0.237	-0.177
-256.136	-200.000	-0.043	0.225
-255.122	-111.185	-0.098	-0.020
-254.107	-34.441	0.094	0.052
-253.092	434.643	0.135	0.295
-252.078	105.156	0.135	-0.161
-251.063	-123.250	-0.303	-0.049
-250.049	-100.872	-0.211	-0.052
-249.034	-10.710	-0.119	-0.080
-248.019	-24.266	-0.204	0.123
-247.005	-110.638	-0.112	-0.023
-245.990	11.187	0.337	0.260
-244.976	-200.000	-0.038	0.250
-243.961	216.821	-0.099	-0.159
-242.946	-129.777	0.330	0.046
-241.932	105.603	-0.092	-0.110
-240.917	-130.256	0.109	0.015
-239.903	-32.790	0.107	0.060
-238.888	-86.808	-0.243	-0.075
-237.873	800.000	-0.053	0.205
-236.859	-200.000	0.005	-0.332
-235.844	107.342	-0.084	-0.101
-234.830	80.713	-0.013	-0.014
-233.815	27.391	-0.091	0.077
-232.800	96.856	0.095	0.109
-231.786	8.082	-0.157	0.118
-230.771	-97.916	-0.103	0.027
-229.757	-200.000	0.060	0.298
-228.742	-200.000	0.042	0.241
-227.727	345.499	-0.133	-0.263
-226.713	-19.939	0.218	0.136
-225.698	-139.922	-0.499	0.053
-224.684	28.465	0.089	0.076
-223.669	-138.097	-0.370	-0.041
-222.655	240.510	0.090	0.152
-221.640	127.353	0.156	0.199
-220.625	-70.491	-0.265	-0.101
-219.611	265.258	-0.203	-0.356
-218.596	78.170	-0.284	-0.305
-217.582	-27.664	0.167	0.097
-216.567	800.000	-0.038	0.126
-215.552	287.414	0.098	0.178
-214.538	237.427	0.111	0.185
-213.523	119.808	0.172	-0.214
-212.509	-82.713	0.321	-0.105
-211.494	-63.823	0.137	0.056
-210.479	-142.844	-0.186	0.018
-209.465	-121.450	0.147	-0.025
-208.450	-17.837	-0.118	-0.074
-207.436	800.000	-0.042	-0.169
-206.421	-16.291	-0.099	0.063
-205.406	-200.000	-0.009	0.080
-204.392	-64.586	-0.110	0.045
-203.377	-62.309	-0.153	-0.064
-202.363	-200.000	0.027	-0.146
-201.348	-200.000	0.008	-0.119
-200.333	800.000	0.038	-0.140
-199.319	-135.501	0.049	-0.006
-198.304	29.479	-0.115	-0.099
-197.290	-11.531	0.127	0.084
-196.275	218.761	0.186	0.299
-195.260	304.676	0.142	-0.266
-194.246	800.000	-0.086	-0.320
-193.231	-62.648	0.220	-0.092
-192.217	-200.000	0.035	-0.167
-191.202	-200.000	-0.001	0.016
-190.187	6.246	0.321	-0.240
-189.173	-26.789	-0.302	-0.177
-188.158	-200.000	0.023	0.110
-187.144	-108.785	-0.217	-0.047
-186.129	800.000	-0.066	0.196
-185.114	-127.115	0.209	0.031
-184.100	-84.245	-0.158	-0.050
-183.085	-120.156	0.387	-0.067
-182.071	-157.056	-0.171	0.011
-181.056	146.563	-0.058	-0.078
-180.042	-64.852	-0.174	-0.071
-179.027	540.246	0.056	-0.134
-178.012	-148.712	0.087	0.007
-176.998	38.701	0.012	-0.010
-175.983	-113.737	0.306	0.060
-174.969	-94.012	0.321	-0.089
-173.954	26.831	0.124	0.105
-172.939	-27.786	-0.167	-0.097
-171.925	-200.000	0.011	-0.140
-170.910	5.358	-0.337	-0.250
-169.896	151.581	0.244	0.334
-168.881	322.891	0.139	0.265
-167.866	35.851	-0.182	-0.160
-166.852	-61.106	0.271	0.115
-165.837	-189.940	0.172	-0.002
-164.823	443.454	0.078	0.172
-163.808	-200.000	-0.021	0.149
-162.793	320.882	-0.069	-0.131
-161.779	147.474	0.080	-0.109
-160.764	184.766	0.026	-0.038
-159.750	-173.688	0.179	-0.005
-158.735	46.658	0.136	0.127
-157.720	800.000	-0.068	0.231
-156.706	6.406	0.068	-0.050
-155.691	-68.788	0.084	-0.033
-154.677	27.839	0.062	-0.052
-153.662	383.396	-0.098	-0.202
-152.647	100.120	0.217	-0.253
-151.633	-87.867	0.364	-0.110
-150.618	800.000	0.100	-0.376
-149.604	69.137	-0.217	0.224
-148.589	94.782	-0.182	-0.208
-147.574	-74.823	-0.116	-0.042
-146.560	563.629	0.070	-0.169
-145.545	1.082	-0.098	-0.070
-144.531	-148.111	0.160	-0.013
-143.516	28.535	-0.128	0.109
-142.502	217.260	0.126	-0.202
-141.487	800.000	0.044	0.133
-140.472	-77.173	-0.225	-0.079
-139.458	512.343	0.087	0.205
-138.443	-28.273	0.482	-0.279
-137.429	-200.000	0.019	0.110
-136.414	-200.000	0.013	-0.072
-135.399	800.000	-0.105	0.326
-134.385	27.140	-0.067	-0.056
-133.370	800.000	-0.079	0.296
-132.356	-23.547	-0.175	0.106
-131.341	-149.833	0.237	0.019
-130.326	481.861	0.168	-0.383
-129.312	21.027	0.271	-0.221
-128.297	-200.000	0.042	0.239
-127.283	393.860	-0.061	-0.128
-126.268	-52.183	-0.214	0.100
-125.253	-200.000	0.041	-0.195
-124.239	-150.521	-0.105	0.008
-123.224	-56.282	-0.049	-0.022
-122.210	-48.009	0.106	-0.052
-121.195	800.000	-0.086	-0.282
