DTS Sentinel unit serial number:	SN413079Multiplexer serial number:	ORYXHardware model number:	OX4-SRSoftware version number:	ORYX F/W v4.00 Oryx Data Collector v3.7.2.0data status	okinstallation	princeton_trtdifferential loss correction	single-endedforward channel	channel 4reverse channel	N/Adate	2019/09/12time	13:59:10forward acquisition time	60.00reverse acquisition time	0.00gamma	496.2192k internal	0.2290k external	0.2290temperature offset calibration	1.0081default loss term (dB/km)	0.3790temperature slope calibration	1.0000multiplexer offset coefficient	1.0000multiplexer slope coefficient	1.0000fibre end	0.00T internal ref (°C)	40.62T ext. ref 1 (°C)	2.18T ext. ref 2 (°C)	34.11length (m)	temperature (°C)	Stokes	anti-Stokes-747.200	-200.000	-0.005	-0.152
-746.185	800.000	0.074	0.225
-745.171	-69.549	-0.209	0.082
-744.156	-158.772	-0.576	-0.034
-743.142	58.179	0.098	0.098
-742.127	-84.246	-0.202	-0.066
-741.112	108.423	-0.060	0.074
-740.098	800.000	-0.111	0.412
-739.083	-93.110	-0.210	0.060
-738.069	-161.560	0.122	0.006
-737.054	-72.680	0.395	-0.149
-736.039	-189.586	-0.267	0.003
-735.025	800.000	-0.101	0.388
-734.010	-102.531	-0.383	-0.094
-732.996	94.049	0.108	0.125
-731.981	-19.477	-0.453	0.288
-730.966	-156.220	0.253	0.016
-729.952	-200.000	0.003	0.014
-728.937	800.000	-0.010	0.031
-727.923	50.584	0.035	-0.033
-726.908	-9.653	-0.186	0.127
-725.894	36.604	-0.133	-0.120
-724.879	21.543	-0.113	-0.094
-723.864	-200.000	0.038	0.182
-722.850	-80.904	0.127	0.043
-721.835	-200.000	0.100	-0.481
-720.821	401.867	-0.074	-0.159
-719.806	-88.207	-0.255	0.078
-718.791	-110.096	0.163	0.035
-717.777	264.692	0.195	0.347
-716.762	224.197	-0.103	0.170
-715.748	-69.832	0.119	0.046
-714.733	-73.722	0.233	-0.087
-713.718	461.627	0.147	-0.335
-712.704	32.121	-0.108	-0.095
-711.689	-56.163	0.074	0.034
-710.675	-200.000	0.053	-0.431
-709.660	1.644	0.134	0.099
-708.645	224.043	-0.080	-0.132
-707.631	800.000	0.028	0.091
-706.616	127.616	-0.212	0.276
-705.602	800.000	-0.056	0.229
-704.587	-63.949	-0.221	-0.092
-703.572	-69.653	-0.056	-0.022
-702.558	24.023	-0.124	0.105
-701.543	-73.418	-0.224	-0.084
-700.529	115.001	-0.024	0.030
-699.514	223.165	-0.143	0.235
-698.499	417.571	-0.125	-0.273
-697.485	446.563	0.121	0.271
-696.470	-87.287	-0.271	-0.084
-695.456	302.579	-0.062	-0.118
-694.441	-111.302	0.091	-0.019
-693.426	-200.000	0.021	0.272
-692.412	-43.345	-0.171	-0.088
-691.397	-200.000	0.018	-0.328
-690.383	-107.142	-0.126	0.028
-689.368	-120.673	-0.167	-0.029
-688.354	11.953	-0.209	-0.164
-687.339	280.203	-0.077	-0.141
-686.324	1.641	-0.195	-0.143
-685.310	800.000	0.118	0.394
-684.295	232.826	-0.301	0.506
-683.281	16.073	-0.233	-0.188
-682.266	-200.000	-0.037	-0.386
-681.251	-31.213	0.089	0.051
-680.237	-26.701	0.056	0.033
-679.222	63.120	-0.123	-0.126
-678.208	749.631	0.112	-0.309
-677.193	169.943	-0.250	0.366
-676.178	800.000	0.102	-0.288
-675.164	-73.759	-0.393	-0.146
-674.149	-163.900	0.268	0.013
-673.135	54.649	0.148	0.146
-672.120	-41.294	-0.137	-0.072
-671.105	-200.000	0.022	-0.369
-670.091	122.993	-0.157	0.201
-669.076	440.757	-0.057	0.126
-668.062	314.968	0.063	-0.122
-667.047	-160.526	0.097	-0.005
-666.032	-178.882	0.243	-0.006
-665.018	800.000	-0.073	-0.239
-664.003	-200.000	0.076	-0.355
-662.989	205.260	-0.204	-0.323
-661.974	12.940	-0.213	-0.169
-660.959	-32.629	-0.206	0.117
-659.945	-17.885	0.226	0.145
-658.930	-58.488	0.371	0.165
-657.916	187.093	0.052	-0.078
-656.901	-166.499	-0.234	0.010
-655.886	39.138	-0.093	0.085
-654.872	-36.621	-0.346	-0.190
-653.857	-200.000	-0.004	0.362
-652.843	-126.923	-0.129	0.019
-651.828	-15.699	-0.105	-0.068
-650.814	-200.000	0.029	0.189
-649.799	508.287	0.155	0.368
-648.784	800.000	0.026	0.073
-647.770	21.862	-0.250	0.208
-646.755	-200.000	-0.007	-0.034
-645.741	19.882	-0.248	0.204
-644.726	800.000	0.076	0.222
-643.711	503.639	-0.077	0.181
-642.697	-31.701	-0.119	0.068
-641.682	85.609	-0.299	0.335
-640.668	-16.090	-0.132	-0.085
-639.653	-200.000	-0.002	-0.109
-638.638	158.423	-0.068	-0.097
-637.624	-200.000	-0.004	0.171
-636.609	-124.775	-0.272	0.043
-635.595	10.085	-0.230	0.178
-634.580	282.428	-0.223	0.408
-633.565	-98.552	-0.342	-0.089
-632.551	-200.000	-0.012	-0.346
-631.536	-92.033	0.171	0.049
-630.522	0.371	0.221	-0.161
-629.507	-114.353	-0.337	0.066
-628.492	-119.105	0.263	-0.047
-627.478	-58.868	0.042	-0.019
-626.463	264.676	0.106	-0.189
-625.449	384.764	-0.022	0.046
-624.434	133.840	0.033	-0.044
-623.419	-37.585	-0.111	-0.060
-622.405	-90.374	-0.180	-0.053
-621.390	81.558	0.128	0.141
-620.376	-66.507	0.364	0.148
-619.361	800.000	-0.028	0.079
-618.346	448.831	0.103	-0.230
-617.332	-81.558	0.050	0.017
-616.317	96.340	0.064	0.075
-615.303	-41.316	-0.019	0.010
-614.288	-128.773	-0.162	-0.023
-613.273	-137.074	-0.339	0.039
-612.259	-200.000	-0.005	-0.245
-611.244	-200.000	0.058	-0.296
-610.230	-24.742	0.242	-0.147
-609.215	27.676	0.228	-0.196
-608.201	-183.003	-0.141	0.003
-607.186	-200.000	-0.021	0.153
-606.171	16.687	-0.138	-0.112
-605.157	-8.213	0.297	-0.204
-604.142	652.897	-0.077	-0.200
-603.128	-60.116	-0.142	0.062
-602.113	-61.348	0.090	-0.039
-601.098	-200.000	-0.018	-0.332
-600.084	-200.000	0.012	-0.097
-599.069	-101.542	-0.239	-0.059
-598.055	-66.454	0.283	0.115
-597.040	-125.230	0.064	0.010
-596.025	-99.676	-0.095	0.024
-595.011	800.000	0.021	-0.087
-593.996	-29.032	-0.198	-0.116
-592.982	118.596	-0.194	-0.244
-591.967	237.928	0.149	0.252
-590.952	243.074	-0.157	0.268
-589.938	11.735	0.285	-0.223
-588.923	800.000	0.056	-0.244
-587.909	-159.365	0.076	0.004
-586.894	185.428	0.058	-0.088
-585.879	-93.191	-0.195	-0.055
-584.865	-200.000	0.010	0.056
-583.850	47.784	-0.227	0.216
-582.836	-92.504	0.266	-0.076
-581.821	-63.718	0.232	0.097
-580.806	-53.795	-0.162	-0.075
-579.792	36.270	0.122	-0.109
-578.777	104.780	-0.181	0.217
-577.763	49.347	0.037	0.036
-576.748	440.287	-0.050	-0.111
-575.733	-39.964	-0.109	-0.058
-574.719	-18.616	0.191	-0.121
-573.704	-14.734	0.371	-0.242
-572.690	-88.355	0.077	-0.024
-571.675	275.892	-0.051	0.092
-570.661	205.804	-0.103	0.163
-569.646	-74.745	-0.144	0.053
-568.631	83.740	0.249	0.276
-567.617	-63.278	-0.331	-0.139
-566.602	34.750	0.071	-0.063
-565.588	206.720	-0.017	0.027
-564.573	143.890	0.109	-0.148
-563.558	87.874	0.190	0.214
-562.544	-102.438	-0.128	0.031
-561.529	800.000	0.086	0.278
-560.515	182.536	-0.113	-0.170
-559.500	210.887	-0.218	-0.348
-558.485	-200.000	-0.015	0.159
-557.471	-28.199	0.224	-0.132
-556.456	261.036	-0.065	-0.114
-555.442	-34.381	0.165	0.092
-554.427	763.292	0.070	0.194
-553.412	90.919	0.228	0.259
-552.398	67.398	-0.324	0.336
-551.383	42.342	0.088	0.081
-550.369	-14.478	-0.099	0.065
-549.354	-72.852	-0.083	-0.031
-548.339	217.876	-0.051	0.083
-547.325	-145.120	0.211	0.019
-546.310	726.009	-0.114	-0.310
-545.296	-92.823	-0.481	0.137
-544.281	44.332	0.252	0.235
-543.266	-103.461	0.171	0.041
-542.252	-83.954	0.045	0.015
-541.237	142.648	-0.184	-0.248
-540.223	-58.530	-0.340	-0.150
-539.208	-148.067	0.202	-0.017
-538.193	-200.000	-0.097	0.771
-537.179	181.354	-0.170	-0.253
-536.164	-44.425	0.131	-0.067
-535.150	-200.000	0.060	-0.282
-534.135	800.000	-0.026	-0.090
-533.121	111.592	-0.266	0.326
-532.106	86.305	0.488	-0.546
-531.091	114.771	0.083	0.102
-530.077	800.000	0.098	-0.351
-529.062	-56.243	0.248	0.112
-528.048	-99.290	0.116	-0.030
-527.033	2.005	0.406	-0.298
-526.018	103.265	-0.156	0.185
-525.004	21.479	-0.086	0.071
-523.989	-200.000	0.019	-0.123
-522.975	30.374	0.124	-0.107
-521.960	-200.000	0.010	0.069
-520.945	99.939	0.360	0.423
-519.931	-131.119	-0.170	-0.023
-518.916	377.400	0.033	-0.068
-517.902	-72.540	-0.081	0.031
-516.887	-200.000	0.046	-0.294
-515.872	-106.521	-0.203	-0.046
-514.858	168.463	0.140	-0.203
-513.843	800.000	0.040	-0.159
-512.829	800.000	-0.088	0.317
-511.814	-162.187	0.131	-0.007
-510.799	-200.000	0.020	0.101
-509.785	-44.212	-0.253	-0.129
-508.770	-54.364	0.108	0.050
-507.756	-160.392	0.348	0.019
-506.741	-174.005	0.250	0.007
-505.726	225.132	-0.144	-0.236
-504.712	-74.912	0.286	-0.104
-503.697	370.833	0.061	-0.126
-502.683	235.008	-0.204	0.342
-501.668	38.472	-0.188	-0.170
-500.653	20.780	-0.103	-0.085
-499.639	138.896	-0.278	0.370
-498.624	-92.996	0.077	-0.022
-497.610	283.976	0.155	-0.282
-496.595	800.000	0.019	0.071
-495.581	-1.950	0.176	0.126
-494.566	-79.310	0.157	0.054
-493.551	196.120	0.028	0.044
-492.537	-1.496	0.109	-0.078
-491.522	800.000	-0.094	0.387
-490.508	-72.682	-0.251	0.094
-489.493	-127.053	0.300	-0.045
-488.478	-144.878	-0.055	-0.005
-487.464	-25.595	-0.224	0.134
-486.449	100.639	0.054	-0.063
-485.435	276.642	0.181	-0.325
-484.420	-114.562	-0.277	0.054
-483.405	-113.799	-0.411	-0.081
-482.391	-97.565	0.188	0.049
-481.376	80.672	0.098	-0.107
-480.362	59.987	0.022	0.022
-479.347	-40.306	-0.170	0.089
-478.332	-96.013	-0.563	-0.152
-477.318	-200.000	-0.040	-0.272
-476.303	-141.085	0.315	0.033
-475.289	-146.166	0.171	0.015
-474.274	-39.582	0.160	-0.085
-473.259	532.330	0.171	0.410
-472.245	-154.120	0.284	-0.020
-471.230	-145.757	0.438	-0.040
-470.216	719.806	-0.110	-0.297
-469.201	-5.539	0.342	-0.238
-468.186	36.372	-0.328	-0.293
-467.172	78.222	0.182	0.197
-466.157	-96.453	-0.263	0.070
-465.143	-200.000	0.006	0.045
-464.128	-119.488	-0.365	0.064
-463.113	-200.000	-0.012	0.212
-462.099	800.000	-0.029	-0.125
-461.084	-171.186	0.113	0.004
-460.070	-200.000	0.048	-0.386
-459.055	-200.000	-0.021	0.126
-458.040	36.456	-0.082	0.073
-457.026	259.819	-0.136	0.237
-456.011	331.199	0.138	0.269
-454.997	-200.000	-0.006	-0.193
-453.982	-138.298	0.312	-0.035
-452.968	-200.000	0.009	0.123
-451.953	11.240	-0.300	0.232
-450.938	327.726	-0.222	0.432
-449.924	-95.123	0.138	-0.038
-448.909	-22.612	0.322	0.197
-447.895	90.903	0.221	-0.251
-446.880	-19.222	-0.360	-0.226
-445.865	-34.174	-0.230	0.128
-444.851	-200.000	0.013	-0.228
-443.836	-200.000	-0.020	-0.235
-442.822	800.000	0.025	0.079
-441.807	56.474	0.137	-0.135
-440.792	171.960	0.172	-0.250
-439.778	-135.012	-0.099	-0.012
-438.763	-103.056	0.070	0.017
-437.749	800.000	-0.055	0.164
-436.734	-200.000	-0.010	-0.120
-435.719	-64.587	0.172	-0.071
-434.705	-172.678	0.131	0.004
-433.690	-74.945	-0.183	0.066
-432.676	-85.819	0.269	0.085
-431.661	116.799	0.063	-0.078
-430.646	-127.309	0.245	0.036
-429.632	183.595	0.090	-0.134
-428.617	-114.788	-0.239	-0.046
-427.603	-200.000	-0.034	-0.502
-426.588	-24.160	0.262	-0.159
-425.573	159.156	0.132	-0.185
-424.559	-100.367	0.372	0.093
-423.544	95.717	0.294	-0.339
-422.530	-80.334	-0.101	0.034
-421.515	800.000	0.067	0.246
-420.500	267.896	-0.094	-0.167
-419.486	36.495	-0.283	0.252
-418.471	-200.000	0.036	0.174
-417.457	115.504	-0.114	-0.141
-416.442	237.435	0.045	-0.075
-415.428	-131.838	-0.279	-0.037
-414.413	-200.000	0.005	-0.194
-413.398	84.235	0.139	-0.153
-412.384	22.633	0.251	-0.208
-411.369	-104.042	0.259	0.061
-410.355	-191.363	-0.117	0.001
-409.340	575.529	-0.059	-0.146
-408.325	33.093	-0.331	0.290
-407.311	90.230	0.192	0.217
-406.296	-200.000	0.015	-0.115
-405.282	-74.663	-0.129	0.047
-404.267	6.690	0.125	-0.094
-403.252	-200.000	0.033	-0.412
-402.238	800.000	0.113	0.433
-401.223	-65.572	0.149	0.060
-400.209	-190.950	-0.296	0.003
-399.194	289.319	-0.105	0.192
-398.179	48.682	-0.175	-0.166
-397.165	66.979	0.172	0.177
-396.150	-89.234	0.217	0.065
-395.136	-200.000	0.033	0.386
-394.121	26.910	0.043	0.036
-393.106	-101.099	-0.239	0.059
-392.092	275.327	-0.141	-0.253
-391.077	317.359	-0.124	0.237
-390.063	-81.080	0.348	0.116
-389.048	760.981	0.126	-0.346
-388.033	5.484	-0.274	0.204
-387.019	-200.000	0.021	-0.613
-386.004	-0.707	0.100	0.072
-384.990	34.072	-0.287	0.252
-383.975	-200.000	0.001	0.267
-382.960	277.312	-0.161	0.290
-381.946	-200.000	0.013	-0.171
-380.931	310.169	-0.105	-0.198
-379.917	385.953	-0.024	-0.051
-378.902	23.336	0.341	0.283
-377.888	-200.000	0.041	-0.285
-376.873	-143.534	-0.066	-0.006
-375.858	26.108	-0.103	-0.086
-374.844	-61.787	0.042	0.018
-373.829	-25.403	0.231	-0.138
-372.815	-126.149	-0.213	-0.032
-371.800	-33.066	0.150	-0.084
-370.785	-73.581	0.081	-0.030
-369.771	430.905	-0.131	-0.287
-368.756	-200.000	-0.011	-0.076
-367.742	-102.900	-0.157	-0.038
-366.727	514.677	0.060	0.141
-365.712	-56.500	0.040	0.018
-364.698	-154.782	-0.063	0.004
-363.683	17.182	-0.111	-0.088
-362.669	482.420	0.072	0.165
-361.654	-200.000	0.031	0.211
-360.639	-7.964	-0.185	0.126
-359.625	-200.000	-0.007	0.361
-358.610	800.000	-0.036	-0.125
-357.596	64.289	-0.262	0.267
-356.581	800.000	0.056	0.212
-355.566	325.573	-0.072	0.139
-354.552	-106.335	0.206	0.047
-353.537	-200.000	0.027	0.250
-352.523	-61.334	0.159	-0.068
-351.508	-75.248	0.271	-0.098
-350.493	183.069	0.098	-0.146
-349.479	800.000	-0.087	0.364
-348.464	800.000	-0.097	0.329
-347.450	-124.146	0.303	-0.048
-346.435	-102.435	-0.241	0.058
-345.420	110.437	-0.173	0.210
-344.406	280.998	0.056	-0.102
-343.391	97.709	-0.093	0.108
-342.377	-200.000	-0.044	-0.279
-341.362	129.371	0.167	0.215
-340.348	265.566	0.218	0.383
-339.333	-199.951	-0.086	-0.000
-338.318	234.186	0.113	-0.188
-337.304	41.624	0.129	0.118
-336.289	-182.072	-0.255	-0.005
-335.275	346.784	-0.086	-0.171
-334.260	3.318	-0.088	0.065
-333.245	662.071	-0.011	-0.028
-332.231	-39.488	-0.135	0.071
-331.216	800.000	0.127	0.385
-330.202	207.484	0.262	0.412
-329.187	-200.000	-0.005	0.173
-328.172	101.437	0.160	0.188
-327.158	800.000	0.041	-0.180
-326.143	-200.000	0.021	0.323
-325.129	-110.128	-0.244	-0.051
-324.114	5.444	-0.176	-0.131
-323.099	33.489	0.242	0.212
-322.085	-200.000	-0.016	0.105
-321.070	-81.793	-0.061	-0.020
-320.056	159.643	-0.099	-0.139
-319.041	-200.000	0.009	0.094
-318.026	27.006	-0.158	0.133
-317.012	387.835	-0.053	-0.110
-315.997	114.439	-0.039	-0.048
-314.983	-83.312	-0.202	-0.065
-313.968	61.247	-0.276	-0.277
-312.953	299.361	-0.125	-0.232
-311.939	495.718	-0.037	-0.086
-310.924	-120.260	-0.193	-0.033
-309.910	758.940	0.114	-0.312
-308.895	-200.000	0.003	0.207
-307.880	88.317	0.127	0.142
-306.866	768.993	0.117	-0.320
-305.851	291.408	0.082	0.150
-304.837	174.956	0.284	-0.414
-303.822	-200.000	-0.024	-0.141
-302.807	-149.622	0.155	-0.012
-301.793	627.365	-0.113	0.288
-300.778	65.423	-0.028	0.028
-299.764	-200.000	-0.012	0.060
-298.749	-200.000	0.010	0.054
-297.735	-86.810	-0.192	-0.059
-296.720	-200.000	-0.011	-0.355
-295.705	98.174	0.178	0.206
-294.691	-200.000	0.003	0.072
-293.676	-178.294	0.243	-0.006
-292.662	608.554	0.029	0.074
-291.647	-200.000	-0.003	0.338
-290.632	472.708	0.171	-0.388
-289.618	-200.000	0.011	-0.236
-288.603	-109.859	-0.056	0.012
-287.589	6.919	-0.017	-0.013
-286.574	115.278	0.336	-0.413
-285.559	40.926	-0.117	-0.106
-284.545	-12.253	-0.270	-0.178
-283.530	-161.166	0.109	-0.006
-282.516	102.127	0.226	-0.266
-281.501	374.984	-0.076	-0.156
-280.486	1.884	0.132	-0.096
-279.472	-54.356	-0.052	-0.024
-278.457	-200.000	-0.013	0.247
-277.443	-200.000	0.024	0.165
-276.428	-47.286	-0.259	0.127
-275.413	382.770	0.098	0.203
-274.399	-200.000	0.005	-0.048
-273.384	34.459	0.129	0.113
-272.370	-82.103	-0.287	-0.094
-271.355	-54.707	-0.089	0.040
-270.340	179.819	-0.145	-0.214
-269.326	-200.000	0.096	-0.483
-268.311	-177.224	0.344	-0.009
-267.297	-200.000	0.016	0.093
-266.282	-200.000	-0.016	0.148
-265.267	41.278	-0.332	-0.302
-264.253	-200.000	-0.022	0.286
-263.238	-65.014	0.276	0.112
-262.224	468.358	-0.113	0.256
-261.209	-51.605	0.226	-0.106
-260.195	117.480	0.206	0.255
-259.180	-44.611	-0.212	0.106
-258.165	-135.652	0.190	0.023
-257.151	-72.333	0.080	-0.030
-256.136	-108.145	-0.199	-0.043
-255.122	269.851	-0.095	0.169
-254.107	800.000	-0.092	-0.377
-253.092	-200.000	0.018	-0.348
-252.078	-108.338	0.090	0.019
-251.063	-59.974	-0.202	0.087
-250.049	-200.000	0.009	-0.323
-249.034	-200.000	0.033	-0.171
-248.019	3.460	0.112	-0.082
-247.005	43.515	0.111	0.102
-245.990	800.000	0.022	-0.081
-244.976	800.000	-0.036	0.129
-243.961	800.000	0.008	0.030
-242.946	-178.499	-0.416	0.010
-241.932	-200.000	0.213	0.000
-240.917	-12.646	-0.151	0.099
-239.903	374.553	-0.142	0.291
-238.888	-77.517	-0.342	0.119
-237.873	-35.322	0.164	0.090
-236.859	337.469	-0.109	0.212
-235.844	-12.610	-0.077	0.050
-234.830	357.394	0.012	0.024
-233.815	71.763	0.080	0.083
-232.800	-46.388	0.206	-0.101
-231.786	-141.149	-0.395	0.040
-230.771	-200.000	0.027	0.129
-229.757	-200.000	0.063	-0.317
-228.742	-200.000	-0.077	0.465
-227.727	-83.932	-0.329	0.105
-226.713	436.602	0.095	-0.208
-225.698	-0.662	-0.050	-0.035
-224.684	164.178	0.129	0.182
-223.669	-4.410	-0.431	0.299
-222.655	-200.000	0.013	-0.106
-221.640	-33.207	-0.256	0.142
-220.625	30.685	0.308	0.264
-219.611	175.069	0.214	-0.310
-218.596	-81.903	-0.088	-0.029
-217.582	-200.000	-0.002	-0.062
-216.567	74.176	0.110	-0.115
-215.552	223.132	0.328	-0.530
-214.538	-14.919	-0.208	0.134
-213.523	8.533	-0.233	-0.176
-212.509	-200.000	-0.017	0.276
-211.494	293.679	0.142	-0.260
-210.479	68.143	-0.080	-0.082
-209.465	-64.685	0.161	-0.066
-208.450	-60.444	-0.538	-0.229
-207.436	247.545	0.083	-0.140
-206.421	-65.604	0.066	0.026
-205.406	800.000	0.081	0.237
-204.392	-69.138	0.129	-0.050
-203.377	-8.796	0.206	-0.138
-202.363	49.602	0.097	-0.092
-201.348	-3.419	-0.040	0.028
-200.333	144.834	-0.119	0.159
-199.319	-200.000	0.103	-0.471
-198.304	-200.000	-0.025	-0.155
-197.290	-200.000	0.000	-0.127
-196.275	29.563	-0.194	0.166
-195.260	-96.040	-0.073	-0.020
-194.246	292.614	-0.069	-0.126
-193.231	-200.000	-0.004	0.219
-192.217	73.394	-0.408	-0.428
-191.202	-200.000	-0.001	0.130
-190.187	-200.000	0.004	-0.188
-189.173	131.225	-0.210	-0.271
-188.158	-25.560	0.131	-0.077
-187.144	121.172	-0.147	0.184
-186.129	72.574	0.144	0.151
-185.114	1.883	-0.144	0.104
-184.100	800.000	-0.088	-0.260
-183.085	72.788	0.174	-0.182
-182.071	-200.000	-0.031	0.205
-181.056	800.000	-0.030	-0.106
-180.042	-138.114	-0.177	-0.020
-179.027	-41.777	0.191	0.098
-178.012	-29.547	0.188	0.108
-176.998	-200.000	0.031	0.141
-175.983	157.349	-0.197	0.273
-174.969	31.032	0.116	-0.100
-173.954	-39.709	0.283	0.148
-172.939	-200.000	0.008	-0.051
-171.925	-28.709	-0.199	0.115
-170.910	-200.000	-0.056	0.262
-169.896	72.759	0.147	0.154
-168.881	-26.695	-0.290	-0.170
-167.866	-160.050	0.325	-0.018
-166.852	399.932	0.066	0.138
-165.837	800.000	-0.019	-0.071
-164.823	-200.000	0.030	0.267
-163.808	-102.522	0.165	0.040
-162.793	-200.000	0.000	-0.207
-161.779	-141.171	-0.340	-0.035
-160.764	-126.286	0.168	0.025
-159.750	800.000	0.039	-0.113
-158.735	-200.000	-0.070	0.488
-157.720	130.692	0.037	-0.047
-156.706	-200.000	-0.012	0.191
-155.691	18.112	-0.164	-0.131
-154.677	-24.265	-0.207	-0.124
-153.662	800.000	0.045	-0.146
-152.647	-174.939	0.327	-0.009
-151.633	-200.000	-0.042	0.336
-150.618	800.000	-0.148	0.432
-149.604	-132.751	0.242	-0.031
-148.589	355.904	-0.045	-0.089
-147.574	-112.217	-0.250	0.050
-146.560	-200.000	-0.031	0.164
-145.545	94.720	0.089	0.102
-144.531	-89.248	-0.045	-0.013
-143.516	-160.984	-0.135	-0.007
-142.502	800.000	0.055	-0.155
-141.487	23.004	0.117	0.096
-140.472	-200.000	-0.002	0.247
-139.458	-200.000	0.013	0.278
-138.443	63.941	0.086	-0.086
-137.429	101.334	-0.340	-0.396
-136.414	85.619	0.156	-0.171
-135.399	800.000	0.052	0.202
-134.385	23.844	0.047	0.039
-133.370	238.146	-0.240	-0.399
-132.356	-85.535	0.208	-0.065
-131.341	426.763	-0.121	0.261
-130.326	-136.603	-0.190	0.022
-129.312	20.533	-0.233	0.189
-128.297	-123.810	0.111	0.018
-127.283	-158.295	0.104	-0.006
-126.268	-200.000	-0.054	0.491
-125.253	30.346	-0.087	-0.074
-124.239	-28.876	0.117	0.067
-123.224	168.882	-0.047	-0.066
-122.210	-75.055	-0.309	-0.110
-121.195	-200.000	-0.048	-0.496
