DTS Sentinel unit serial number:	SN413079Multiplexer serial number:	ORYXHardware model number:	OX4-SRSoftware version number:	ORYX F/W v4.00 Oryx Data Collector v3.7.2.0data status	okinstallation	princeton_trtdifferential loss correction	single-endedforward channel	channel 4reverse channel	N/Adate	2019/09/14time	22:49:35forward acquisition time	60.00reverse acquisition time	0.00gamma	496.2192k internal	0.2306k external	0.2306temperature offset calibration	1.0059default loss term (dB/km)	0.3790temperature slope calibration	1.0000multiplexer offset coefficient	1.0000multiplexer slope coefficient	1.0000fibre end	0.00T internal ref (°C)	32.50T ext. ref 1 (°C)	4.68T ext. ref 2 (°C)	27.47length (m)	temperature (°C)	Stokes	anti-Stokes-747.200	296.496	-0.172	0.321
-746.185	-80.002	-0.192	0.066
-745.171	244.620	0.063	-0.107
-744.156	-39.229	-0.235	-0.126
-743.142	-7.296	0.033	-0.023
-742.127	-162.969	-0.345	0.017
-741.112	633.546	-0.065	-0.167
-740.098	173.511	-0.201	0.295
-739.083	105.014	0.314	0.376
-738.069	-200.000	-0.077	0.563
-737.054	-68.668	0.104	-0.041
-736.039	-149.461	-0.237	0.019
-735.025	-25.320	0.389	0.234
-734.010	-78.813	-0.203	-0.070
-732.996	-200.000	0.003	0.226
-731.981	-19.255	-0.279	-0.176
-730.966	143.362	0.044	-0.060
-729.952	241.784	-0.097	0.165
-728.937	800.000	0.057	0.192
-727.923	-34.367	-0.076	0.042
-726.908	92.062	-0.138	0.158
-725.894	65.128	0.201	-0.207
-724.879	-200.000	-0.037	-0.370
-723.864	-25.890	-0.155	-0.093
-722.850	-200.000	-0.071	-0.430
-721.835	2.720	-0.119	-0.088
-720.821	249.697	-0.179	-0.308
-719.806	19.231	0.194	-0.158
-718.791	-21.796	-0.044	-0.027
-717.777	800.000	-0.064	0.218
-716.762	-126.913	-0.137	-0.021
-715.748	800.000	-0.076	-0.233
-714.733	-6.254	0.118	-0.082
-713.718	549.663	0.083	-0.201
-712.704	99.597	0.243	-0.285
-711.689	-200.000	0.008	-0.097
-710.675	-200.000	0.012	0.158
-709.660	-200.000	0.025	0.200
-708.645	366.703	-0.115	-0.236
-707.631	-83.388	0.333	-0.108
-706.616	11.244	0.112	0.087
-705.602	-188.918	-0.244	-0.003
-704.587	262.153	-0.188	0.332
-703.572	800.000	0.106	0.335
-702.558	-48.336	-0.291	-0.142
-701.543	-200.000	-0.006	0.276
-700.529	-126.936	-0.070	-0.010
-699.514	550.379	-0.117	-0.285
-698.499	-200.000	0.001	-0.159
-697.485	-104.979	-0.229	0.053
-696.470	126.612	-0.158	0.203
-695.456	-136.797	-0.158	-0.018
-694.441	-82.723	-0.378	-0.124
-693.426	92.125	-0.115	-0.132
-692.412	99.053	0.103	0.120
-691.397	-137.261	0.286	0.033
-690.383	-110.370	0.038	-0.008
-689.368	172.705	-0.084	0.123
-688.354	-24.789	-0.372	0.225
-687.339	-200.000	0.011	-0.450
-686.324	60.878	0.166	-0.168
-685.310	-40.441	-0.176	-0.093
-684.295	-200.000	0.006	-0.246
-683.281	313.603	-0.041	-0.079
-682.266	800.000	0.015	0.060
-681.251	-200.000	0.005	-0.264
-680.237	-168.290	0.107	-0.004
-679.222	89.852	0.212	-0.240
-678.208	-122.152	-0.302	0.050
-677.193	488.175	-0.048	0.111
-676.178	211.699	0.180	0.288
-675.164	-25.142	-0.177	0.107
-674.149	2.911	0.247	-0.182
-673.135	594.501	-0.055	0.139
-672.120	-68.881	-0.290	-0.113
-671.105	658.804	-0.067	0.174
-670.091	-152.397	0.250	-0.018
-669.076	-187.687	0.224	-0.003
-668.062	-32.464	0.260	0.147
-667.047	41.614	-0.212	-0.195
-666.032	-166.748	0.102	0.004
-665.018	-200.000	0.010	0.169
-664.003	290.374	-0.053	-0.098
-662.989	-25.789	0.160	-0.095
-661.974	560.164	0.033	-0.082
-660.959	192.585	-0.094	-0.144
-659.945	-113.568	-0.113	-0.022
-658.930	77.025	-0.096	0.104
-657.916	-99.190	0.058	0.015
-656.901	-102.132	-0.447	-0.109
-655.886	77.646	-0.063	-0.068
-654.872	-39.594	0.109	-0.058
-653.857	40.600	0.140	-0.128
-652.843	494.578	-0.158	0.369
-651.828	57.710	-0.210	0.209
-650.814	6.913	0.185	-0.140
-649.799	-151.596	-0.230	-0.017
-648.784	-21.427	-0.317	0.196
-647.770	55.321	-0.115	-0.112
-646.755	347.418	0.059	0.118
-645.741	254.027	-0.107	0.185
-644.726	5.113	0.125	0.093
-643.711	-167.928	-0.388	0.015
-642.697	-54.708	-0.255	-0.117
-641.682	61.265	0.256	-0.258
-640.668	71.306	0.058	-0.061
-639.653	-200.000	0.018	-0.198
-638.638	96.040	-0.127	0.147
-637.624	101.548	0.105	0.123
-636.609	271.569	0.053	-0.094
-635.595	-114.816	-0.357	0.069
-634.580	50.924	0.375	0.360
-633.565	10.865	0.160	0.123
-632.551	800.000	0.081	-0.243
-631.536	-109.255	0.141	0.030
-630.522	152.277	-0.067	-0.093
-629.507	-114.985	0.079	-0.015
-628.492	800.000	-0.171	-0.500
-627.478	-200.000	0.011	0.065
-626.463	-200.000	0.056	0.342
-625.449	521.552	0.057	0.136
-624.434	-94.560	-0.196	-0.054
-623.419	800.000	0.073	-0.271
-622.405	207.194	-0.042	-0.067
-621.390	74.222	0.116	-0.124
-620.376	227.074	-0.062	-0.102
-619.361	-200.000	-0.002	-0.346
-618.346	-200.000	0.022	-0.105
-617.332	-62.200	-0.368	-0.155
-616.317	33.213	0.046	-0.041
-615.303	800.000	-0.077	0.224
-614.288	549.939	-0.139	-0.338
-613.273	128.678	-0.262	-0.337
-612.259	800.000	0.040	0.113
-611.244	-177.997	0.333	-0.008
-610.230	-200.000	-0.005	-0.037
-609.215	-177.156	0.266	-0.007
-608.201	-200.000	0.039	-0.244
-607.186	-16.763	-0.132	-0.085
-606.171	-100.897	0.037	-0.009
-605.157	759.796	-0.106	0.291
-604.142	139.768	-0.048	-0.064
-603.128	290.973	0.019	0.035
-602.113	119.505	0.030	0.037
-601.098	5.289	-0.239	0.178
-600.084	-133.190	-0.359	-0.046
-599.069	342.440	0.044	-0.086
-598.055	27.450	0.139	-0.118
-597.040	-79.215	-0.316	-0.109
-596.025	-200.000	0.012	-0.150
-595.011	-200.000	0.001	-0.120
-593.996	146.387	0.099	-0.134
-592.982	-56.095	-0.484	-0.218
-591.967	-26.160	-0.218	0.130
-590.952	-28.481	-0.179	-0.104
-589.938	-81.958	-0.349	0.115
-588.923	-106.148	-0.067	-0.015
-587.909	800.000	0.061	-0.202
-586.894	15.816	-0.325	-0.258
-585.879	-66.525	-0.109	-0.044
-584.865	114.862	0.195	-0.240
-583.850	-200.000	0.005	-0.124
-582.836	-141.416	-0.251	-0.026
-581.821	-23.415	-0.174	0.106
-580.806	-117.260	-0.590	0.108
-579.792	-75.474	0.076	-0.027
-578.777	-26.552	-0.006	-0.003
-577.763	185.527	-0.077	-0.115
-576.748	800.000	0.081	0.275
-575.733	-5.649	0.260	-0.180
-574.719	-69.630	-0.249	-0.096
-573.704	18.514	0.261	0.210
-572.690	136.455	-0.254	-0.335
-571.675	-72.145	-0.066	0.025
-570.661	71.762	-0.153	-0.160
-569.646	47.667	0.114	-0.107
-568.631	567.047	0.190	-0.465
-567.617	28.781	0.155	0.132
-566.602	-200.000	0.026	0.229
-565.588	-94.455	-0.130	0.036
-564.573	-28.166	-0.035	0.020
-563.558	800.000	0.078	-0.328
-562.544	-200.000	0.006	0.167
-561.529	-141.158	-0.304	-0.031
-560.515	203.125	-0.154	-0.241
-559.500	512.552	-0.133	-0.313
-558.485	-200.000	0.004	-0.213
-557.471	-200.000	0.023	0.227
-556.456	-57.210	-0.287	0.128
-555.442	-186.106	-0.058	0.001
-554.427	-50.435	-0.182	-0.087
-553.412	-200.000	0.011	0.271
-552.398	-148.373	-0.213	0.018
-551.383	-200.000	0.002	0.070
-550.369	-22.214	-0.259	0.158
-549.354	-121.187	0.105	0.018
-548.339	-89.162	0.218	0.065
-547.325	237.500	-0.121	0.203
-546.310	-24.224	0.184	0.111
-545.296	-107.199	-0.163	0.036
-544.281	-200.000	-0.025	-0.160
-543.266	-102.683	0.308	-0.074
-542.252	-50.350	-0.032	-0.015
-541.237	134.538	-0.262	0.343
-540.223	-143.867	0.248	0.024
-539.208	-41.074	-0.072	-0.038
-538.193	-200.000	-0.097	-0.444
-537.179	-101.336	-0.252	-0.062
-536.164	-97.777	-0.508	0.133
-535.150	122.020	0.384	0.483
-534.135	-200.000	-0.000	-0.034
-533.121	200.631	0.148	-0.230
-532.106	201.945	0.229	0.356
-531.091	-200.000	-0.021	0.332
-530.077	-143.285	-0.162	0.016
-529.062	-120.971	0.047	0.008
-528.048	-105.089	0.351	0.081
-527.033	-200.000	0.016	-0.397
-526.018	312.496	-0.200	-0.378
-525.004	800.000	0.113	-0.356
-523.989	800.000	-0.030	0.107
-522.975	-200.000	-0.005	-0.141
-521.960	-80.379	0.172	0.058
-520.945	-70.179	-0.086	-0.033
-519.931	44.664	0.128	0.119
-518.916	44.521	-0.053	0.049
-517.902	84.542	0.188	0.208
-516.887	61.747	0.135	0.136
-515.872	2.004	0.112	-0.082
-514.858	53.419	0.156	-0.150
-513.843	800.000	-0.040	-0.164
-512.829	-200.000	-0.070	-0.315
-511.814	-200.000	-0.013	0.062
-510.799	-200.000	0.032	0.206
-509.785	89.847	-0.196	-0.220
-508.770	800.000	0.055	-0.217
-507.756	-200.000	0.006	-0.208
-506.741	123.388	-0.105	0.133
-505.726	-200.000	0.000	0.288
-504.712	170.463	0.105	0.152
-503.697	-79.025	-0.203	0.070
-502.683	83.041	-0.070	-0.077
-501.668	62.076	0.110	-0.110
-500.653	-81.876	0.175	-0.058
-499.639	203.163	-0.062	-0.096
-498.624	75.571	0.245	0.261
-497.610	-115.493	0.404	-0.077
-496.595	800.000	0.008	0.025
-495.581	-70.228	0.066	-0.025
-494.566	800.000	0.222	0.696
-493.551	-65.373	0.257	-0.104
-492.537	235.361	-0.079	-0.132
-491.522	-63.841	-0.208	-0.086
-490.508	-200.000	-0.003	0.062
-489.493	9.637	-0.329	-0.251
-488.478	56.909	0.166	-0.163
-487.464	-17.933	0.244	0.154
-486.449	35.633	-0.237	-0.210
-485.435	141.174	-0.078	0.103
-484.420	191.079	-0.124	-0.187
-483.405	-200.000	-0.002	0.058
-482.391	-200.000	0.038	0.232
-481.376	-70.889	-0.032	0.012
-480.362	-151.548	0.330	0.025
-479.347	7.481	-0.087	-0.066
-478.332	-160.267	0.387	0.021
-477.318	-200.000	0.000	0.107
-476.303	-161.855	0.322	0.016
-475.289	-200.000	0.001	-0.112
-474.274	-88.895	-0.116	-0.035
-473.259	-17.139	-0.145	-0.092
-472.245	-200.000	0.025	-0.261
-471.230	90.332	-0.125	-0.140
-470.216	324.837	0.182	-0.350
-469.201	6.752	0.435	-0.326
-468.186	-62.508	-0.271	0.113
-467.172	719.205	-0.056	0.149
-466.157	-69.383	0.046	0.018
-465.143	191.084	0.082	-0.125
-464.128	220.215	-0.092	0.148
-463.113	495.686	0.168	0.389
-462.099	567.444	0.037	0.090
-461.084	-56.398	-0.200	0.089
-460.070	-200.000	0.012	0.116
-459.055	-200.000	-0.017	-0.161
-458.040	-200.000	0.051	-0.239
-457.026	-140.969	-0.075	0.008
-456.011	-11.524	0.166	-0.110
-454.997	477.038	-0.083	-0.190
-453.982	-126.060	0.279	0.042
-452.968	-35.139	-0.349	-0.191
-451.953	77.549	0.152	-0.162
-450.938	-145.722	0.353	-0.032
-449.924	800.000	0.037	0.129
-448.909	14.196	0.023	-0.018
-447.895	-27.211	-0.095	-0.056
-446.880	410.196	0.055	0.117
-445.865	116.520	0.120	0.147
-444.851	135.722	-0.140	0.183
-443.836	-105.991	0.151	-0.034
-442.822	-200.000	-0.017	-0.088
-441.807	-136.112	0.185	-0.022
-440.792	-125.220	-0.036	-0.006
-439.778	654.123	-0.056	-0.144
-438.763	378.317	-0.024	0.049
-437.749	-200.000	-0.017	0.361
-436.734	-200.000	0.013	0.168
-435.719	413.160	-0.041	0.088
-434.705	316.334	-0.113	0.214
-433.690	-48.866	0.277	0.133
-432.676	60.337	0.204	0.203
-431.661	90.291	-0.303	-0.341
-430.646	-33.512	0.166	-0.092
-429.632	800.000	0.016	-0.052
-428.617	-99.549	0.261	0.066
-427.603	-10.756	-0.068	0.045
-426.588	-200.000	0.002	0.191
-425.573	-200.000	0.061	0.369
-424.559	-200.000	-0.071	0.423
-423.544	-200.000	-0.013	0.115
-422.530	-150.485	0.210	-0.016
-421.515	-81.281	-0.211	-0.070
-420.500	-122.329	-0.413	-0.068
-419.486	-131.276	0.175	-0.023
-418.471	-20.330	0.057	-0.035
-417.457	63.682	0.156	-0.157
-416.442	-74.753	-0.119	-0.043
-415.428	201.799	0.124	0.192
-414.413	699.271	0.195	0.514
-413.398	800.000	0.051	0.145
-412.384	-80.493	-0.270	0.091
-411.369	6.821	-0.326	0.244
-410.355	-200.000	0.015	0.179
-409.340	490.682	-0.098	0.225
-408.325	2.975	-0.083	-0.061
-407.311	212.961	0.088	0.140
-406.296	-103.552	-0.296	-0.070
-405.282	705.706	0.087	0.230
-404.267	211.840	0.054	0.085
-403.252	-102.033	0.141	-0.034
-402.238	-73.156	0.265	0.097
-401.223	-61.303	-0.082	0.035
-400.209	-117.296	0.087	0.016
-399.194	225.498	0.031	-0.050
-398.179	-200.000	-0.053	0.244
-397.165	0.003	0.173	-0.124
-396.150	-76.725	-0.315	0.111
-395.136	-200.000	0.049	-0.240
-394.121	-35.254	-0.094	0.051
-393.106	-28.689	0.097	-0.056
-392.092	11.692	0.090	0.069
-391.077	71.329	-0.360	-0.375
-390.063	46.019	-0.215	-0.199
-389.048	-106.935	-0.058	0.013
-388.033	-8.481	0.114	-0.077
-387.019	-4.793	-0.202	-0.139
-386.004	40.299	0.210	0.189
-384.990	113.069	0.079	-0.096
-383.975	13.232	0.075	0.058
-382.960	-142.170	-0.203	-0.020
-381.946	-200.000	0.032	-0.177
-380.931	59.081	-0.068	0.067
-379.917	-108.584	0.222	0.048
-378.902	-200.000	-0.001	0.292
-377.888	7.607	-0.262	0.197
-376.873	-101.622	0.091	0.022
-375.858	-135.995	-0.152	-0.018
-374.844	393.810	-0.132	0.276
-373.829	-200.000	0.018	0.098
-372.815	-81.655	0.022	0.007
-371.800	735.148	0.031	0.084
-370.785	800.000	-0.042	0.148
-369.771	136.738	0.067	-0.088
-368.756	-200.000	-0.026	0.131
-367.742	-32.115	-0.059	0.033
-366.727	152.284	-0.243	0.332
-365.712	10.044	0.155	-0.118
-364.698	-200.000	0.079	0.447
-363.683	-109.573	0.195	-0.041
-362.669	-128.725	0.198	-0.028
-361.654	186.092	0.247	0.369
-360.639	633.946	0.188	-0.478
-359.625	90.622	0.059	0.066
-358.610	-16.682	-0.107	-0.068
-357.596	601.330	0.094	-0.234
-356.581	800.000	-0.021	-0.066
-355.566	-13.223	-0.069	0.045
-354.552	217.819	-0.200	0.319
-353.537	-26.659	0.283	0.166
-352.523	49.154	0.233	-0.219
-351.508	800.000	-0.053	0.217
-350.493	115.017	-0.244	-0.298
-349.479	-70.657	0.128	-0.048
-348.464	-200.000	-0.048	0.291
-347.450	-24.933	-0.197	0.117
-346.435	476.621	0.058	-0.132
-345.420	-200.000	0.041	-0.234
-344.406	1.472	0.103	0.074
-343.391	78.577	-0.111	0.118
-342.377	20.118	-0.122	0.099
-341.362	-153.590	0.170	-0.012
-340.348	-75.828	-0.064	-0.023
-339.333	-67.645	-0.069	-0.027
-338.318	-20.595	0.193	-0.119
-337.304	-175.207	0.194	-0.005
-336.289	10.061	0.220	-0.167
-335.275	-57.495	-0.206	0.091
-334.260	800.000	0.077	0.244
-333.245	69.444	0.050	0.051
-332.231	-182.530	-0.228	-0.004
-331.216	-132.315	0.536	0.069
-330.202	595.472	0.102	0.252
-329.187	211.210	0.114	-0.180
-328.172	-104.087	0.268	0.062
-327.158	-172.122	0.497	-0.016
-326.143	-111.212	-0.158	0.032
-325.129	4.547	-0.284	0.208
-324.114	800.000	0.024	0.105
-323.099	-200.000	0.002	0.149
-322.085	800.000	0.048	-0.135
-321.070	-200.000	-0.007	0.410
-320.056	303.141	-0.077	-0.143
-319.041	800.000	0.084	-0.297
-318.026	323.341	-0.094	-0.179
-317.012	-39.281	0.165	0.087
-315.997	-200.000	-0.061	0.339
-314.983	518.024	-0.064	0.151
-313.968	-52.323	0.222	0.103
-312.953	-49.295	-0.171	0.082
-311.939	-187.924	-0.289	-0.004
-310.924	-38.919	0.271	-0.143
-309.910	-6.762	-0.276	-0.188
-308.895	16.626	0.113	-0.089
-307.880	-81.302	-0.305	0.101
-306.866	-200.000	0.028	0.167
-305.851	-200.000	0.030	0.338
-304.837	-133.816	-0.113	0.014
-303.822	-200.000	-0.006	-0.034
-302.807	800.000	-0.073	0.270
-301.793	116.421	0.071	0.088
-300.778	552.481	-0.164	-0.394
-299.764	428.257	-0.178	-0.384
-298.749	25.216	-0.294	0.244
-297.735	-90.008	0.271	0.079
-296.720	800.000	-0.050	0.145
-295.705	-200.000	-0.013	-0.098
-294.691	168.861	0.093	0.133
-293.676	-200.000	0.071	-0.330
-292.662	-133.753	-0.141	-0.018
-291.647	-181.789	0.161	0.003
-290.632	196.349	0.036	-0.054
-289.618	-81.923	0.165	-0.054
-288.603	-57.873	0.171	0.075
-287.589	-8.723	0.244	-0.164
-286.574	81.394	-0.108	0.117
-285.559	-190.204	-0.272	-0.003
-284.545	6.790	-0.075	-0.056
-283.530	-171.432	-0.259	-0.009
-282.516	-53.883	-0.106	0.048
-281.501	141.574	-0.017	-0.022
-280.486	-84.525	0.197	0.062
-279.472	-34.260	0.291	-0.159
-278.457	356.327	0.088	-0.174
-277.443	17.761	-0.306	0.243
-276.428	153.504	-0.087	-0.120
-275.413	-200.000	0.112	-0.535
-274.399	-200.000	0.048	-0.691
-273.384	279.270	0.082	0.145
-272.370	687.778	0.128	0.333
-271.355	-37.791	0.216	-0.115
-270.340	43.953	0.130	-0.119
-269.326	147.376	0.110	0.148
-268.311	75.960	0.089	-0.094
-267.297	13.101	-0.022	-0.017
-266.282	385.401	0.059	0.122
-265.267	-136.071	0.220	0.026
-264.253	585.768	0.014	-0.035
-263.238	15.511	-0.147	0.115
-262.224	147.621	0.419	0.563
-261.209	489.628	0.155	0.355
-260.195	-34.709	-0.167	0.091
-259.180	583.696	0.040	0.098
-258.165	-100.983	-0.029	0.007
-257.151	-169.236	-0.069	-0.003
-256.136	-44.987	-0.134	0.067
-255.122	-0.651	-0.266	0.188
-254.107	27.487	0.180	0.151
-253.092	-150.067	-0.291	-0.023
-252.078	-200.000	-0.079	-0.368
-251.063	800.000	0.068	-0.195
-250.049	-84.080	0.087	0.028
-249.034	28.291	0.229	0.193
-248.019	-56.526	0.212	0.094
-247.005	240.379	0.092	-0.153
-245.990	-106.558	0.173	-0.038
-244.976	800.000	0.157	-0.491
-243.961	403.939	0.105	0.220
-242.946	-81.965	0.093	-0.030
-241.932	-200.000	0.007	0.052
-240.917	10.106	-0.313	0.237
-239.903	-200.000	-0.008	0.068
-238.888	42.009	0.059	0.053
-237.873	-200.000	0.008	0.104
-236.859	164.064	-0.096	-0.134
-235.844	191.218	-0.096	-0.144
-234.830	22.131	-0.068	0.055
-233.815	800.000	0.072	-0.261
-232.800	35.005	-0.101	-0.088
-231.786	675.656	0.137	0.356
-230.771	-20.733	0.021	-0.013
-229.757	-15.157	-0.239	0.153
-228.742	-69.591	0.170	0.065
-227.727	-11.784	0.131	-0.086
-226.713	144.085	0.194	-0.257
-225.698	525.710	0.038	0.089
-224.684	-168.769	-0.121	0.005
-223.669	294.087	-0.052	0.095
-222.655	-11.519	0.201	-0.132
-221.640	-200.000	0.003	0.040
-220.625	290.012	-0.122	-0.221
-219.611	800.000	0.107	0.343
-218.596	52.978	0.132	0.126
-217.582	-122.589	0.249	-0.040
-216.567	-200.000	-0.062	0.354
-215.552	-171.480	-0.067	0.002
-214.538	305.544	0.084	-0.156
-213.523	-28.179	-0.079	0.045
-212.509	8.303	0.192	0.144
-211.494	-200.000	0.055	-0.337
-210.479	37.144	-0.027	-0.024
-209.465	-74.739	0.237	-0.085
-208.450	-72.105	-0.042	-0.015
-207.436	391.976	0.096	-0.198
-206.421	-200.000	-0.094	0.457
-205.406	448.305	0.086	-0.188
-204.392	-200.000	0.002	-0.198
-203.377	-108.682	0.235	0.050
-202.363	-7.575	-0.127	0.086
-201.348	800.000	-0.028	0.093
-200.333	-167.106	-0.228	-0.009
-199.319	-148.146	0.103	-0.008
-198.304	-124.727	0.121	0.019
-197.290	-99.367	-0.223	0.056
-196.275	-123.053	-0.178	-0.029
-195.260	-53.244	-0.080	0.037
-194.246	-176.009	-0.035	-0.001
-193.231	-97.316	-0.161	-0.042
-192.217	158.739	-0.188	-0.260
-191.202	-114.131	-0.127	0.024
-190.187	-200.000	0.040	0.185
-189.173	-136.380	-0.100	-0.012
-188.158	-93.041	0.338	-0.094
-187.144	-147.140	0.240	-0.020
-186.129	97.658	-0.183	0.209
-185.114	-63.456	-0.150	-0.061
-184.100	-76.556	-0.320	-0.112
-183.085	-200.000	0.072	-0.357
-182.071	-200.000	-0.050	0.475
-181.056	-76.912	0.151	0.052
-180.042	-25.378	-0.170	-0.100
-179.027	-200.000	-0.037	-0.203
-178.012	-109.431	-0.086	-0.018
-176.998	-200.000	-0.001	0.100
-175.983	-3.088	-0.205	0.142
-174.969	800.000	0.101	0.363
-173.954	-107.978	-0.257	-0.056
-172.939	-200.000	-0.003	-0.278
-171.925	11.490	0.284	-0.216
-170.910	658.502	-0.066	-0.170
-169.896	-200.000	0.014	0.180
-168.881	800.000	0.018	-0.060
-167.866	71.017	-0.296	0.305
-166.852	-200.000	-0.010	-0.116
-165.837	-200.000	-0.024	-0.258
-164.823	-106.427	0.460	0.102
-163.808	-124.523	0.037	-0.006
-162.793	-29.583	-0.098	-0.056
-161.779	-200.000	-0.044	-0.273
-160.764	80.157	0.149	-0.159
-159.750	-110.421	-0.038	-0.008
-158.735	-61.106	0.204	-0.086
-157.720	-200.000	-0.006	0.044
-156.706	-200.000	-0.054	-0.260
-155.691	-200.000	-0.013	-0.081
-154.677	-120.634	-0.114	-0.019
-153.662	-51.863	0.170	0.078
-152.647	371.171	-0.095	-0.191
-151.633	-200.000	-0.030	-0.338
-150.618	-200.000	-0.027	-0.162
-149.604	201.230	0.022	-0.033
-148.589	-200.000	-0.034	-0.524
-147.574	39.716	0.008	-0.007
-146.560	397.912	0.143	-0.298
-145.545	-200.000	0.001	0.318
-144.531	-128.303	-0.040	0.006
-143.516	-200.000	0.015	0.087
-142.502	-60.523	0.147	0.062
-141.487	-89.081	-0.097	0.028
-140.472	-65.192	-0.065	-0.026
-139.458	-56.077	0.097	-0.043
-138.443	800.000	0.075	0.249
-137.429	-78.381	0.082	0.028
-136.414	392.125	0.021	-0.042
-135.399	800.000	0.074	0.263
-134.385	-176.532	0.359	0.009
-133.370	-200.000	0.052	-0.315
-132.356	800.000	-0.067	0.223
-131.341	70.786	0.124	0.128
-130.326	800.000	-0.022	-0.093
-129.312	800.000	-0.017	0.055
-128.297	59.468	0.213	-0.209
-127.283	-81.615	-0.242	-0.079
-126.268	-200.000	0.022	-0.158
-125.253	6.019	-0.200	0.147
-124.239	85.022	-0.075	-0.082
-123.224	271.038	0.040	0.070
-122.210	-36.607	-0.279	0.149
