DTS Sentinel unit serial number:	SN413079Multiplexer serial number:	ORYXHardware model number:	OX4-SRSoftware version number:	ORYX F/W v4.00 Oryx Data Collector v3.7.2.0data status	okinstallation	princeton_trtdifferential loss correction	single-endedforward channel	channel 4reverse channel	N/Adate	2019/09/19time	08:01:35forward acquisition time	60.00reverse acquisition time	0.00gamma	496.2192k internal	0.2340k external	0.2340temperature offset calibration	1.0023default loss term (dB/km)	0.3790temperature slope calibration	1.0000multiplexer offset coefficient	1.0000multiplexer slope coefficient	1.0000fibre end	0.00T internal ref (°C)	19.87T ext. ref 1 (°C)	0.56T ext. ref 2 (°C)	15.45length (m)	temperature (°C)	Stokes	anti-Stokes-747.200	56.730	0.126	0.123
-746.185	71.663	-0.219	0.228
-745.171	-120.779	0.070	0.012
-744.156	-90.591	-0.367	0.106
-743.142	-102.993	-0.144	0.034
-742.127	74.194	0.115	0.121
-741.112	-46.177	-0.365	-0.180
-740.098	800.000	-0.050	0.170
-739.083	101.457	0.106	0.124
-738.069	-162.269	-0.369	-0.018
-737.054	-50.942	0.342	0.161
-736.039	-200.000	-0.029	0.182
-735.025	-163.999	0.298	-0.014
-734.010	-177.316	-0.237	-0.006
-732.996	-51.233	-0.240	-0.112
-731.981	-200.000	0.035	-0.163
-730.966	28.794	-0.267	-0.226
-729.952	275.451	0.030	-0.053
-728.937	-200.000	-0.010	-0.450
-727.923	-200.000	0.020	-0.108
-726.908	342.978	-0.069	0.136
-725.894	233.109	-0.144	-0.237
-724.879	800.000	0.078	-0.302
-723.864	86.551	0.178	-0.197
-722.850	-53.306	-0.341	-0.157
-721.835	150.854	-0.117	-0.159
-720.821	-200.000	-0.025	0.161
-719.806	256.115	-0.121	0.209
-718.791	13.278	0.121	0.094
-717.777	-149.339	-0.243	-0.019
-716.762	-101.336	0.239	0.058
-715.748	-54.243	0.155	-0.070
-714.733	19.845	0.199	0.160
-713.718	70.245	0.233	-0.241
-712.704	435.207	0.048	0.104
-711.689	-57.462	0.084	0.037
-710.675	-101.987	0.167	-0.040
-709.660	-13.841	0.108	-0.070
-708.645	351.610	-0.157	-0.311
-707.631	221.564	-0.087	-0.141
-706.616	-157.741	0.115	0.007
-705.602	-22.131	0.133	0.081
-704.587	-200.000	-0.019	-0.224
-703.572	-7.792	0.097	0.066
-702.558	-200.000	0.008	-0.259
-701.543	8.321	-0.101	0.076
-700.529	-200.000	-0.018	0.150
-699.514	667.377	-0.079	-0.205
-698.499	800.000	0.056	-0.187
-697.485	58.429	-0.082	0.081
-696.470	800.000	0.115	-0.354
-695.456	-200.000	0.027	-0.219
-694.441	-200.000	0.023	-0.129
-693.426	-200.000	0.031	0.404
-692.412	-200.000	0.023	-0.368
-691.397	-42.169	-0.144	-0.074
-690.383	99.007	0.105	-0.121
-689.368	-157.020	-0.486	0.030
-688.354	791.219	-0.067	0.185
-687.339	184.563	-0.096	0.142
-686.324	-70.068	0.236	-0.090
-685.310	-96.015	0.258	0.069
-684.295	800.000	0.065	-0.220
-683.281	-93.852	0.367	-0.101
-682.266	-32.145	-0.368	-0.206
-681.251	-200.000	-0.019	-0.148
-680.237	494.984	0.101	0.232
-679.222	-98.692	0.056	0.014
-678.208	-43.100	-0.292	0.148
-677.193	406.753	-0.193	-0.407
-676.178	-136.442	0.200	-0.023
-675.164	800.000	-0.046	-0.150
-674.149	54.565	0.181	0.175
-673.135	-93.260	-0.240	0.067
-672.120	800.000	0.113	-0.405
-671.105	-156.586	-0.262	0.016
-670.091	-168.499	0.236	-0.009
-669.076	800.000	-0.032	-0.094
-668.062	-71.410	-0.389	-0.146
-667.047	-68.187	0.183	0.071
-666.032	30.433	0.051	-0.043
-665.018	110.727	-0.105	-0.126
-664.003	423.374	0.133	0.285
-662.989	221.811	-0.146	0.234
-661.974	183.371	-0.061	-0.091
-660.959	91.336	-0.252	-0.283
-659.945	115.530	-0.122	0.149
-658.930	-200.000	0.009	-0.332
-657.916	-200.000	0.031	-0.138
-656.901	-200.000	-0.024	0.255
-655.886	705.505	-0.087	0.229
-654.872	51.133	-0.122	-0.116
-653.857	-11.840	-0.464	0.304
-652.843	450.063	-0.070	-0.154
-651.828	87.809	0.100	-0.111
-650.814	-21.694	0.039	-0.024
-649.799	228.589	0.007	0.011
-648.784	-200.000	-0.019	0.182
-647.770	169.579	-0.116	-0.165
-646.755	174.840	-0.155	-0.224
-645.741	28.923	0.014	0.012
-644.726	-98.636	0.151	-0.038
-643.711	-41.497	-0.156	0.080
-642.697	-34.203	0.126	0.069
-641.682	-61.587	-0.259	0.108
-640.668	646.424	0.023	-0.058
-639.653	36.328	-0.363	-0.319
-638.638	800.000	-0.047	-0.183
-637.624	-120.144	0.082	-0.014
-636.609	800.000	0.037	0.117
-635.595	-81.517	-0.363	-0.119
-634.580	-123.380	-0.569	-0.091
-633.565	119.048	0.116	0.144
-632.551	-160.312	-0.252	0.014
-631.536	133.642	0.224	-0.290
-630.522	155.061	0.125	-0.171
-629.507	-200.000	0.134	0.647
-628.492	138.906	0.083	0.109
-627.478	41.328	0.121	0.109
-626.463	178.750	0.013	-0.019
-625.449	-158.827	-0.215	-0.012
-624.434	376.092	0.117	-0.238
-623.419	-17.482	-0.159	-0.100
-622.405	49.288	-0.067	0.063
-621.390	268.279	-0.096	-0.168
-620.376	145.245	0.060	0.080
-619.361	-28.640	-0.248	0.142
-618.346	-200.000	0.022	-0.120
-617.332	588.621	-0.093	0.229
-616.317	11.197	-0.073	0.056
-615.303	-83.859	-0.084	-0.027
-614.288	800.000	0.030	0.098
-613.273	569.422	-0.061	-0.148
-612.259	129.892	0.076	0.097
-611.244	166.609	0.017	0.024
-610.230	-107.316	-0.114	-0.025
-609.215	350.138	0.101	0.200
-608.201	-200.000	0.009	0.414
-607.186	-173.340	0.300	0.009
-606.171	-99.944	0.059	0.015
-605.157	-88.678	0.107	-0.032
-604.142	15.042	-0.130	-0.101
-603.128	800.000	0.048	0.160
-602.113	-200.000	-0.011	-0.142
-601.098	280.963	-0.118	-0.211
-600.084	-119.206	0.270	-0.047
-599.069	-127.398	0.155	0.022
-598.055	322.513	0.162	0.308
-597.040	14.313	0.137	0.106
-596.025	-200.000	0.004	0.238
-595.011	149.668	0.055	-0.074
-593.996	162.796	-0.165	0.231
-592.982	-89.364	0.049	0.014
-591.967	800.000	0.017	0.054
-590.952	-200.000	-0.040	0.268
-589.938	261.635	0.072	-0.124
-588.923	560.768	0.158	0.382
-587.909	-200.000	0.023	0.165
-586.894	46.534	0.248	0.230
-585.879	-200.000	-0.029	-0.172
-584.865	-133.425	-0.168	-0.021
-583.850	407.167	0.077	-0.162
-582.836	-33.532	-0.250	-0.138
-581.821	51.611	-0.225	-0.213
-580.806	-101.299	0.277	-0.067
-579.792	33.579	0.007	-0.006
-578.777	118.908	0.117	-0.144
-577.763	38.432	0.038	0.034
-576.748	-27.323	-0.141	-0.082
-575.733	-178.458	0.087	-0.002
-574.719	-71.168	-0.078	-0.029
-573.704	120.835	-0.076	-0.094
-572.690	223.647	-0.059	-0.094
-571.675	35.925	-0.129	0.113
-570.661	-54.254	0.279	-0.126
-569.646	145.237	-0.278	-0.370
-568.631	271.365	-0.150	-0.263
-567.617	-200.000	-0.019	0.162
-566.602	-200.000	-0.083	-0.365
-565.588	-31.738	0.254	-0.142
-564.573	35.463	0.288	0.252
-563.558	-163.136	0.301	-0.014
-562.544	-32.021	-0.125	0.069
-561.529	166.136	-0.237	0.334
-560.515	44.924	-0.096	0.088
-559.500	-200.000	-0.042	0.307
-558.485	-200.000	0.045	0.276
-557.471	216.006	-0.140	-0.221
-556.456	-143.678	0.254	-0.024
-555.442	629.928	0.182	0.457
-554.427	800.000	0.049	-0.182
-553.412	800.000	0.148	-0.508
-552.398	34.013	-0.113	-0.098
-551.383	-170.357	-0.431	-0.015
-550.369	16.148	0.121	-0.095
-549.354	202.168	0.097	-0.148
-548.339	44.110	-0.181	-0.165
-547.325	800.000	-0.046	-0.126
-546.310	-200.000	0.014	-0.143
-545.296	-96.963	-0.119	0.031
-544.281	121.696	-0.205	0.254
-543.266	-69.295	-0.165	-0.063
-542.252	-200.000	-0.019	-0.100
-541.237	640.391	0.015	0.038
-540.223	-200.000	0.007	0.036
-539.208	-79.793	0.515	-0.172
-538.193	800.000	-0.081	0.255
-537.179	-200.000	0.043	0.465
-536.164	800.000	0.062	0.225
-535.150	-57.042	0.309	0.136
-534.135	717.623	0.060	-0.159
-533.121	10.939	-0.152	-0.115
-532.106	800.000	0.081	0.268
-531.091	800.000	0.091	0.313
-530.077	-21.506	0.130	-0.079
-529.062	145.653	-0.148	-0.197
-528.048	-169.431	-0.148	0.005
-527.033	-1.605	0.117	-0.082
-526.018	-200.000	0.003	-0.341
-525.004	800.000	-0.067	0.272
-523.989	-189.357	0.296	0.003
-522.975	417.243	-0.131	-0.278
-521.960	-103.489	-0.173	-0.040
-520.945	-152.730	0.183	0.013
-519.931	260.020	0.203	0.348
-518.916	42.165	-0.428	0.386
-517.902	-97.872	-0.184	-0.047
-516.887	267.541	-0.136	0.237
-515.872	580.477	-0.117	-0.285
-514.858	352.117	-0.217	-0.428
-513.843	800.000	0.111	-0.335
-512.829	-200.000	-0.032	0.255
-511.814	-100.508	-0.270	-0.066
-510.799	41.446	0.219	0.197
-509.785	-152.974	-0.394	0.028
-508.770	-87.825	0.150	-0.045
-507.756	134.926	-0.057	-0.074
-506.741	-3.278	0.164	0.113
-505.726	82.828	-0.229	-0.247
-504.712	-47.534	-0.282	-0.136
-503.697	111.538	0.270	-0.324
-502.683	293.806	0.162	0.294
-501.668	-30.132	0.331	0.187
-500.653	800.000	0.023	0.076
-499.639	47.586	0.197	-0.182
-498.624	300.142	-0.205	0.375
-497.610	-200.000	0.012	-0.112
-496.595	800.000	-0.041	-0.119
-495.581	19.063	-0.100	-0.080
-494.566	127.170	-0.320	0.403
-493.551	-177.736	0.066	-0.002
-492.537	352.529	-0.124	0.244
-491.522	50.341	0.185	0.174
-490.508	-164.949	0.463	0.021
-489.493	24.583	-0.152	-0.125
-488.478	31.043	-0.013	0.011
-487.464	577.346	0.097	0.235
-486.449	-200.000	0.046	-0.386
-485.435	69.952	-0.209	0.214
-484.420	25.864	0.063	-0.052
-483.405	33.367	-0.153	-0.132
-482.391	-200.000	-0.034	0.160
-481.376	351.719	-0.106	0.208
-480.362	800.000	0.020	0.081
-479.347	-200.000	-0.064	0.364
-478.332	-128.288	0.390	-0.055
-477.318	-16.062	-0.407	0.257
-476.303	800.000	0.112	0.313
-475.289	-28.836	-0.215	0.123
-474.274	-96.279	-0.479	-0.126
-473.259	318.496	0.056	0.105
-472.245	-200.000	0.016	0.207
-471.230	800.000	-0.065	0.239
-470.216	-10.965	-0.292	0.191
-469.201	670.157	-0.052	-0.133
-468.186	800.000	-0.098	-0.281
-467.172	-200.000	0.069	0.408
-466.157	-109.656	-0.183	-0.038
-465.143	171.001	-0.076	-0.108
-464.128	800.000	-0.047	0.176
-463.113	375.823	0.253	-0.511
-462.099	240.620	-0.238	-0.394
-461.084	-104.797	-0.190	-0.043
-460.070	-83.115	-0.344	0.110
-459.055	-200.000	-0.015	-0.202
-458.040	-142.811	-0.164	0.016
-457.026	-73.815	-0.112	0.040
-456.011	800.000	-0.034	-0.141
-454.997	800.000	-0.058	0.210
-453.982	-55.336	-0.083	0.037
-452.968	-119.541	0.383	-0.066
-451.953	-200.000	0.039	-0.274
-450.938	800.000	0.019	0.067
-449.924	15.673	0.344	-0.268
-448.909	-127.495	-0.301	0.043
-447.895	-200.000	-0.016	0.209
-446.880	499.905	-0.030	-0.070
-445.865	-126.157	0.226	0.034
-444.851	-27.650	-0.401	-0.230
-443.836	-24.568	0.260	0.154
-442.822	18.746	-0.098	-0.078
-441.807	-70.723	0.208	0.078
-440.792	-129.326	-0.475	-0.065
-439.778	-200.000	-0.333	-0.000
-438.763	-200.000	0.039	-0.181
-437.749	-137.235	0.276	0.031
-436.734	-200.000	-0.067	-0.341
-435.719	86.528	0.112	0.123
-434.705	-96.013	0.384	0.101
-433.690	-145.107	0.220	0.020
-432.676	-132.156	0.163	-0.021
-431.661	-89.933	0.124	-0.036
-430.646	800.000	-0.034	0.095
-429.632	-200.000	-0.004	-0.136
-428.617	-200.000	-0.012	-0.210
-427.603	79.965	0.097	-0.103
-426.588	266.316	-0.162	0.279
-425.573	516.346	0.046	0.108
-424.559	-110.391	-0.264	0.054
-423.544	-16.833	-0.289	0.181
-422.530	-102.833	-0.159	0.038
-421.515	313.065	0.268	-0.498
-420.500	-143.236	0.164	0.016
-419.486	-64.464	0.489	-0.197
-418.471	-78.073	0.321	-0.109
-417.457	-200.000	-0.064	-0.358
-416.442	117.296	0.124	0.150
-415.428	-48.584	0.214	0.102
-414.413	-106.640	-0.383	-0.084
-413.398	146.721	-0.102	0.136
-412.384	182.635	0.037	0.054
-411.369	66.204	0.154	0.155
-410.355	783.402	0.126	0.341
-409.340	39.761	-0.095	-0.085
-408.325	98.561	0.175	0.200
-407.311	800.000	-0.132	0.440
-406.296	-50.883	0.273	-0.127
-405.282	-200.000	0.005	0.104
-404.267	800.000	0.063	0.202
-403.252	-126.306	-0.213	0.032
-402.238	800.000	0.048	-0.194
-401.223	62.823	-0.202	-0.200
-400.209	-50.366	-0.057	0.026
-399.194	800.000	0.026	0.093
-398.179	526.062	-0.007	-0.016
-397.165	644.151	0.024	-0.061
-396.150	-145.279	0.085	0.008
-395.136	-28.071	-0.266	0.152
-394.121	-200.000	0.015	-0.164
-393.106	-164.523	-0.058	-0.003
-392.092	800.000	0.029	0.084
-391.077	-36.949	0.203	-0.108
-390.063	800.000	0.064	-0.210
-389.048	-108.963	-0.249	-0.053
-388.033	41.680	0.132	-0.118
-387.019	17.352	-0.166	0.130
-386.004	-46.946	0.100	0.048
-384.990	-200.000	0.061	-0.302
-383.975	23.045	0.225	0.183
-382.960	-13.308	0.198	-0.127
-381.946	-138.837	0.234	0.025
-380.931	-103.900	0.038	-0.009
-379.917	-200.000	0.028	0.192
-378.902	188.096	0.088	0.130
-377.888	4.609	-0.107	-0.078
-376.873	64.874	0.129	0.129
-375.858	374.516	0.183	-0.369
-374.844	-65.121	0.182	-0.072
-373.829	51.200	-0.205	0.192
-372.815	315.661	-0.105	0.196
-371.800	800.000	0.100	0.292
-370.785	-50.569	-0.147	0.068
-369.771	180.109	-0.139	-0.201
-368.756	268.448	0.113	0.196
-367.742	91.622	-0.223	0.248
-366.727	-53.586	0.108	-0.049
-365.712	-33.626	0.257	-0.140
-364.698	502.958	-0.099	0.226
-363.683	-161.779	-0.265	-0.013
-362.669	607.918	0.101	-0.248
-361.654	800.000	0.067	0.245
-360.639	-200.000	-0.011	0.104
-359.625	-200.000	-0.001	-0.123
-358.610	-20.029	0.118	0.072
-357.596	248.352	0.065	-0.109
-356.581	-48.807	-0.491	-0.233
-355.566	-200.000	-0.007	-0.051
-354.552	-129.219	-0.127	-0.017
-353.537	56.046	0.260	0.249
-352.523	176.606	-0.200	-0.287
-351.508	-16.510	-0.226	-0.141
-350.493	600.949	0.094	-0.230
-349.479	-152.514	-0.333	-0.024
-348.464	101.074	-0.185	-0.212
-347.450	-100.058	0.012	0.003
-346.435	-59.541	0.058	0.025
-345.420	201.736	0.087	-0.132
-344.406	-87.410	0.114	-0.034
-343.391	-113.811	0.150	-0.029
-342.377	-200.000	0.014	-0.081
-341.362	46.465	-0.101	-0.093
-340.348	-168.551	-0.270	0.010
-339.333	-115.674	0.165	0.031
-338.318	145.213	-0.061	0.080
-337.304	-156.514	-0.221	-0.014
-336.289	-153.920	-0.311	0.021
-335.275	125.011	-0.188	-0.233
-334.260	-200.000	-0.031	0.170
-333.245	-200.000	-0.041	0.441
-332.231	12.631	-0.040	0.030
-331.216	460.702	-0.134	-0.294
-330.202	742.332	0.054	0.144
-329.187	-178.758	-0.189	-0.004
-328.172	14.484	-0.160	-0.124
-327.158	-200.000	0.052	-0.288
-326.143	243.595	-0.056	-0.093
-325.129	520.193	-0.062	-0.143
-324.114	800.000	0.066	-0.186
-323.099	-200.000	-0.030	-0.183
-322.085	399.033	0.173	0.358
-321.070	-128.655	-0.137	-0.019
-320.056	270.318	0.156	-0.270
-319.041	-200.000	0.036	-0.288
-318.026	427.542	0.035	-0.075
-317.012	-200.000	0.023	-0.192
-315.997	225.176	0.147	0.235
-314.983	800.000	0.039	0.138
-313.968	606.365	0.048	-0.117
-312.953	-200.000	-0.025	-0.150
-311.939	-200.000	0.078	0.447
-310.924	-39.659	0.179	0.092
-309.910	355.665	-0.061	0.119
-308.895	179.230	-0.096	-0.139
-307.880	219.427	-0.129	0.204
-306.866	299.195	0.069	0.124
-305.851	341.757	-0.180	-0.346
-304.837	-200.000	0.024	-0.140
-303.822	111.197	-0.232	-0.275
-302.807	-200.000	-0.008	-0.041
-301.793	-88.939	0.275	-0.080
-300.778	-70.470	0.189	0.070
-299.764	-181.974	0.186	0.003
-298.749	800.000	0.050	0.155
-297.735	223.771	-0.033	0.053
-296.720	69.781	0.216	0.219
-295.705	17.487	0.205	0.160
-294.691	800.000	-0.088	-0.308
-293.676	-2.231	0.121	-0.084
-292.662	456.578	0.046	0.101
-291.647	3.954	0.128	-0.092
-290.632	-27.999	-0.256	-0.146
-289.618	108.972	0.101	-0.119
-288.603	-200.000	0.013	-0.334
-287.589	-11.333	-0.230	-0.149
-286.574	-200.000	-0.004	0.065
-285.559	-122.229	-0.338	-0.054
-284.545	-200.000	0.014	0.072
-283.530	-200.000	0.019	-0.347
-282.516	-101.555	0.176	-0.042
-281.501	20.079	-0.159	0.127
-280.486	-69.170	0.196	-0.074
-279.472	-200.000	-0.008	0.496
-278.457	570.611	-0.199	0.478
-277.443	280.704	-0.069	-0.122
-276.428	-44.818	0.245	-0.120
-275.413	-13.137	0.188	0.120
-274.399	5.401	0.115	-0.084
-273.384	800.000	0.064	0.228
-272.370	-83.608	0.276	0.087
-271.355	376.521	-0.039	0.079
-270.340	-200.000	0.089	0.402
-269.326	59.696	0.066	-0.065
-268.311	493.741	-0.050	0.112
-267.297	-200.000	0.041	-0.284
-266.282	-83.268	0.152	-0.048
-265.267	416.329	0.025	-0.052
-264.253	232.448	0.101	0.163
-263.238	-200.000	0.006	-0.268
-262.224	33.430	-0.110	-0.094
-261.209	-90.897	0.073	0.021
-260.195	8.842	0.083	0.062
-259.180	776.190	-0.091	-0.245
-258.165	-200.000	0.044	-0.283
-257.151	-63.916	0.187	0.075
-256.136	511.035	-0.010	-0.022
-255.122	291.541	-0.127	0.228
-254.107	-188.486	0.057	-0.001
-253.092	-46.004	-0.037	0.018
-252.078	-70.791	-0.209	0.077
-251.063	-200.000	-0.010	-0.103
-250.049	800.000	0.036	-0.144
-249.034	-28.558	-0.337	-0.191
-248.019	-200.000	-0.029	0.153
-247.005	-40.497	0.474	-0.242
-245.990	-84.763	-0.400	-0.124
-244.976	800.000	0.058	0.187
-243.961	-64.928	0.381	0.151
-242.946	683.328	0.071	-0.182
-241.932	-123.259	-0.244	-0.038
-240.917	166.428	-0.172	0.240
-239.903	2.606	-0.307	-0.219
-238.888	-3.709	0.178	0.121
-237.873	45.624	-0.350	-0.318
-236.859	113.858	0.014	0.017
-235.844	-200.000	-0.065	0.432
-234.830	67.284	-0.117	-0.117
-233.815	800.000	0.019	-0.071
-232.800	263.927	0.227	0.388
-231.786	-140.461	0.099	0.010
-230.771	-137.168	0.089	0.010
-229.757	-200.000	0.037	-0.177
-228.742	-124.324	0.510	-0.078
-227.727	39.310	0.161	-0.142
-226.713	217.331	0.268	-0.420
-225.698	-68.501	0.197	0.075
-224.684	-200.000	0.043	0.214
-223.669	69.459	-0.205	0.207
-222.655	-40.713	0.503	0.256
-221.640	-47.983	-0.334	0.159
-220.625	-200.000	-0.022	0.147
-219.611	-200.000	0.034	-0.317
-218.596	-156.046	-0.314	-0.019
-217.582	117.568	0.030	-0.036
-216.567	202.876	-0.075	-0.113
-215.552	-200.000	-0.039	-0.167
-214.538	800.000	0.101	-0.283
-213.523	-200.000	-0.012	0.274
-212.509	-10.360	0.212	-0.138
-211.494	-55.903	-0.309	0.135
-210.479	-141.171	-0.178	0.018
-209.465	183.601	-0.081	0.118
-208.450	20.812	-0.343	-0.273
-207.436	800.000	-0.034	0.123
-206.421	-10.203	-0.041	-0.027
-205.406	800.000	0.026	-0.086
-204.392	675.353	-0.089	0.228
-203.377	-48.165	-0.140	-0.066
-202.363	-200.000	0.048	-0.213
-201.348	-90.758	-0.124	-0.035
-200.333	-33.258	0.135	0.074
-199.319	-200.000	-0.006	-0.147
-198.304	-45.612	-0.117	-0.057
-197.290	279.910	0.241	0.423
-196.275	60.369	0.134	-0.130
-195.260	31.442	-0.254	-0.214
-194.246	195.576	-0.183	0.273
-193.231	717.857	0.041	0.108
-192.217	-95.117	0.272	-0.072
-191.202	-63.457	0.041	-0.016
-190.187	-27.598	-0.045	-0.026
-189.173	-35.697	0.368	0.196
-188.158	-149.139	0.250	-0.020
-187.144	26.393	0.213	-0.175
-186.129	-110.463	0.184	0.037
-185.114	283.878	0.239	0.422
-184.100	427.540	-0.141	-0.299
-183.085	-200.000	-0.007	-0.051
-182.071	82.828	-0.119	-0.127
-181.056	113.778	0.273	0.326
-180.042	800.000	0.065	-0.233
-179.027	183.301	-0.237	-0.343
-178.012	-97.442	0.435	-0.111
-176.998	-32.255	0.120	-0.065
-175.983	166.851	-0.119	-0.166
-174.969	555.543	0.077	0.181
-173.954	70.338	0.180	0.182
-172.939	-178.197	0.319	-0.007
-171.925	-200.000	0.018	-0.118
-170.910	-33.965	0.159	0.086
-169.896	373.104	-0.055	-0.109
-168.881	-19.734	-0.182	0.110
-167.866	800.000	-0.009	0.035
-166.852	-162.093	0.484	-0.024
-165.837	-94.021	-0.152	0.041
-164.823	-93.796	0.177	-0.048
-163.808	57.201	0.044	-0.042
-162.793	-200.000	0.007	0.242
-161.779	-12.049	-0.249	0.160
-160.764	9.147	-0.239	-0.177
-159.750	109.267	-0.188	-0.220
-158.735	-42.433	0.286	0.143
-157.720	12.443	-0.084	0.063
-156.706	800.000	-0.085	-0.299
-155.691	283.494	-0.104	0.183
-154.677	89.329	0.222	0.242
-153.662	166.373	0.087	-0.121
-152.647	-134.765	0.099	0.012
-151.633	58.217	-0.257	0.247
-150.618	213.691	-0.015	-0.023
-149.604	-149.378	-0.068	0.005
-148.589	-200.000	0.002	-0.158
-147.574	194.989	0.185	-0.274
-146.560	-200.000	-0.002	-0.203
-145.545	-103.468	-0.063	-0.015
-144.531	-200.000	-0.031	-0.355
-143.516	800.000	0.075	0.236
-142.502	133.408	-0.127	0.161
-141.487	58.220	0.173	-0.166
-140.472	-116.443	-0.178	0.032
-139.458	-71.022	0.285	-0.105
-138.443	-47.109	0.368	0.176
-137.429	-0.489	0.091	0.063
-136.414	-200.000	-0.006	-0.232
-135.399	204.300	-0.040	0.061
-134.385	-108.564	-0.103	-0.022
-133.370	-15.348	0.205	0.128
-132.356	800.000	0.034	0.133
-131.341	547.823	-0.062	0.146
-130.326	-200.000	-0.017	0.211
-129.312	233.406	0.295	0.476
-128.297	-79.407	0.030	-0.010
-127.283	-200.000	0.085	-0.376
-126.268	-7.710	-0.175	-0.115
-125.253	-16.792	0.060	0.037
-124.239	-200.000	0.060	0.311
-123.224	30.945	0.382	0.320
-122.210	95.310	0.060	-0.066
