DTS Sentinel unit serial number:	SN413079Multiplexer serial number:	ORYXHardware model number:	OX4-SRSoftware version number:	ORYX F/W v4.00 Oryx Data Collector v3.7.2.0data status	okinstallation	princeton_trtdifferential loss correction	single-endedforward channel	channel 4reverse channel	N/Adate	2019/09/15time	14:45:35forward acquisition time	60.00reverse acquisition time	0.00gamma	496.2192k internal	0.2289k external	0.2289temperature offset calibration	0.9975default loss term (dB/km)	0.3790temperature slope calibration	1.0000multiplexer offset coefficient	1.0000multiplexer slope coefficient	1.0000fibre end	0.00T internal ref (°C)	39.75T ext. ref 1 (°C)	4.86T ext. ref 2 (°C)	36.25length (m)	temperature (°C)	Stokes	anti-Stokes-747.200	800.000	0.044	-0.126
-746.185	800.000	0.043	0.186
-745.171	247.533	-0.081	0.140
-744.156	-126.937	0.126	0.019
-743.142	800.000	0.048	-0.184
-742.127	-61.722	-0.056	-0.024
-741.112	77.565	-0.194	-0.212
-740.098	235.029	0.220	0.372
-739.083	-32.534	-0.133	0.076
-738.069	-18.442	-0.170	0.109
-737.054	-200.000	-0.055	-0.326
-736.039	304.063	0.037	-0.070
-735.025	800.000	0.128	0.445
-734.010	221.143	-0.185	-0.304
-732.996	-200.000	0.047	0.272
-731.981	38.493	0.094	-0.086
-730.966	88.131	-0.182	0.206
-729.952	-200.000	-0.008	-0.184
-728.937	-200.000	-0.007	-0.152
-727.923	223.192	-0.201	-0.333
-726.908	-56.763	-0.327	0.148
-725.894	-124.264	-0.152	-0.024
-724.879	58.832	-0.134	-0.134
-723.864	-122.153	-0.348	-0.058
-722.850	74.898	0.229	0.247
-721.835	729.064	0.078	-0.214
-720.821	-131.140	0.193	0.026
-719.806	-127.593	-0.133	-0.020
-718.791	-110.269	-0.498	0.106
-717.777	-200.000	0.018	-0.220
-716.762	-111.788	-0.282	-0.058
-715.748	-95.171	-0.048	-0.013
-714.733	-61.788	-0.240	0.103
-713.718	-1.238	0.057	-0.041
-712.704	340.377	-0.071	0.141
-711.689	-101.860	-0.224	0.055
-710.675	151.447	-0.116	-0.161
-709.660	155.245	0.205	-0.289
-708.645	-23.888	-0.144	0.088
-707.631	-14.618	-0.252	0.166
-706.616	-129.446	0.076	-0.011
-705.602	-14.001	0.161	0.106
-704.587	312.788	-0.050	-0.097
-703.572	-71.901	-0.126	0.048
-702.558	-200.000	0.051	-0.259
-701.543	111.262	-0.106	-0.130
-700.529	569.809	0.043	-0.108
-699.514	-104.545	0.057	-0.014
-698.499	120.833	0.213	-0.271
-697.485	-29.928	-0.285	-0.166
-696.470	-200.000	0.022	0.280
-695.456	259.750	0.078	0.138
-694.441	-200.000	-0.007	-0.334
-693.426	45.751	0.071	0.067
-692.412	26.846	-0.376	-0.323
-691.397	-200.000	-0.039	-0.305
-690.383	-48.747	0.239	-0.118
-689.368	110.670	-0.029	0.036
-688.354	-14.412	-0.040	-0.026
-687.339	800.000	0.019	0.078
-686.324	-35.029	-0.217	-0.121
-685.310	-157.160	0.123	0.008
-684.295	186.466	-0.166	-0.253
-683.281	12.857	-0.237	-0.187
-682.266	-187.276	-0.328	0.005
-681.251	391.869	-0.120	-0.255
-680.237	41.977	-0.129	-0.120
-679.222	158.968	0.165	-0.235
-678.208	-200.000	-0.023	-0.213
-677.193	-200.000	-0.013	-0.279
-676.178	-23.559	-0.118	0.072
-675.164	-200.000	-0.046	0.211
-674.149	-16.617	-0.336	-0.218
-673.135	-29.867	-0.174	0.101
-672.120	-200.000	0.000	0.027
-671.105	220.814	0.221	-0.362
-670.091	-26.172	-0.187	0.112
-669.076	-200.000	0.062	0.318
-668.062	173.989	-0.129	0.191
-667.047	-66.115	0.181	-0.074
-666.032	-200.000	0.057	0.381
-665.018	-131.510	0.318	0.043
-664.003	72.727	-0.054	-0.057
-662.989	800.000	0.094	0.285
-661.974	-66.172	-0.124	-0.051
-660.959	-200.000	0.051	-0.497
-659.945	-115.102	0.153	-0.030
-658.930	121.682	-0.052	-0.066
-657.916	-149.784	-0.240	0.019
-656.901	-39.230	-0.170	-0.091
-655.886	-200.000	0.043	0.311
-654.872	-28.240	0.286	-0.169
-653.857	281.359	0.118	-0.216
-652.843	-137.242	-0.278	0.032
-651.828	8.727	-0.236	0.182
-650.814	-200.000	0.006	-0.156
-649.799	-97.604	-0.088	0.023
-648.784	90.559	0.092	-0.105
-647.770	59.174	0.077	-0.077
-646.755	-200.000	-0.436	-0.001
-645.741	-24.682	-0.174	0.105
-644.726	-62.938	0.045	-0.019
-643.711	-141.939	-0.257	-0.026
-642.697	-35.529	0.008	-0.004
-641.682	800.000	0.039	-0.126
-640.668	-112.865	-0.274	0.056
-639.653	-200.000	0.031	-0.193
-638.638	-200.000	0.016	0.193
-637.624	61.698	0.037	0.037
-636.609	800.000	-0.048	-0.144
-635.595	-108.182	0.227	0.050
-634.580	91.654	0.117	0.134
-633.565	-48.602	0.232	0.114
-632.551	-35.678	-0.199	-0.110
-631.536	-41.373	0.154	-0.081
-630.522	318.012	-0.007	-0.014
-629.507	-116.287	-0.165	0.031
-628.492	150.633	0.097	0.135
-627.478	16.269	0.130	0.105
-626.463	273.076	0.093	0.167
-625.449	-200.000	-0.003	-0.084
-624.434	-40.375	0.211	0.112
-623.419	800.000	-0.125	-0.520
-622.405	-200.000	0.028	-0.465
-621.390	607.862	0.063	-0.161
-620.376	-160.791	0.298	0.016
-619.361	-124.638	0.150	-0.024
-618.346	-79.560	0.176	-0.060
-617.332	-200.000	0.012	-0.140
-616.317	-3.476	-0.033	-0.024
-615.303	-180.379	-0.109	0.002
-614.288	-29.356	-0.330	-0.193
-613.273	-200.000	0.021	-0.117
-612.259	800.000	-0.012	-0.041
-611.244	-149.614	-0.049	0.004
-610.230	0.794	-0.060	-0.044
-609.215	-21.795	-0.115	0.071
-608.201	800.000	0.049	0.206
-607.186	148.424	-0.006	0.009
-606.171	-182.639	-0.292	-0.005
-605.157	-148.848	-0.204	-0.017
-604.142	261.773	0.146	0.258
-603.128	-31.216	-0.237	-0.136
-602.113	113.000	0.178	-0.220
-601.098	-102.167	0.219	-0.054
-600.084	800.000	0.069	0.231
-599.069	-200.000	0.027	0.273
-598.055	53.871	-0.079	0.077
-597.040	-200.000	-0.018	-0.258
-596.025	66.441	-0.104	0.107
-595.011	-151.384	-0.115	0.009
-593.996	-200.000	-0.062	0.292
-592.982	-101.304	-0.108	0.027
-591.967	574.217	0.072	0.179
-590.952	192.483	-0.108	0.166
-589.938	84.914	-0.089	0.099
-588.923	-20.897	-0.188	-0.117
-587.909	-15.032	-0.170	0.111
-586.894	452.061	-0.111	-0.250
-585.879	252.559	-0.072	-0.126
-584.865	113.736	-0.228	-0.282
-583.850	111.342	-0.197	-0.242
-582.836	800.000	-0.063	-0.250
-581.821	4.141	0.130	0.097
-580.806	-200.000	0.011	0.107
-579.792	94.493	-0.041	-0.047
-578.777	19.096	0.198	0.162
-577.763	-139.113	-0.149	-0.016
-576.748	-75.747	-0.272	0.098
-575.733	-59.227	-0.115	-0.051
-574.719	114.111	-0.053	0.066
-573.704	-40.567	-0.030	0.016
-572.690	117.197	0.231	-0.289
-571.675	800.000	0.096	-0.344
-570.661	-22.234	-0.219	0.135
-569.646	-5.204	-0.146	0.102
-568.631	117.874	0.234	0.294
-567.617	800.000	0.022	0.064
-566.602	-88.726	-0.327	-0.099
-565.588	-115.371	0.403	-0.077
-564.573	44.098	-0.122	-0.114
-563.558	-200.000	-0.005	0.216
-562.544	-120.877	-0.134	0.023
-561.529	86.738	-0.095	-0.107
-560.515	-30.208	-0.102	0.059
-559.500	-40.935	0.139	0.073
-558.485	800.000	-0.032	-0.107
-557.471	-200.000	0.064	0.307
-556.456	-200.000	-0.027	-0.162
-555.442	-54.400	-0.108	-0.050
-554.427	-135.624	0.040	-0.005
-553.412	-200.000	-0.022	-0.206
-552.398	481.156	0.082	-0.190
-551.383	-39.880	-0.201	-0.107
-550.369	800.000	0.009	-0.027
-549.354	144.566	0.169	0.230
-548.339	-137.065	0.142	-0.017
-547.325	-58.832	-0.103	-0.045
-546.310	94.757	-0.101	0.116
-545.296	-118.486	-0.189	-0.034
-544.281	-84.068	-0.169	0.055
-543.266	-52.828	0.157	-0.074
-542.252	-142.347	0.232	0.023
-541.237	-25.103	0.225	0.135
-540.223	439.686	-0.131	-0.290
-539.208	-200.000	-0.045	0.267
-538.193	82.383	0.050	0.055
-537.179	-200.000	0.015	0.151
-536.164	77.366	0.056	-0.060
-535.150	4.360	-0.207	-0.154
-534.135	-131.880	0.263	-0.035
-533.121	-49.524	-0.289	-0.140
-532.106	-200.000	-0.041	-0.267
-531.091	-72.376	-0.180	-0.068
-530.077	482.207	-0.029	-0.067
-529.062	-72.039	-0.174	-0.066
-528.048	-86.873	-0.132	-0.041
-527.033	68.763	0.227	-0.236
-526.018	534.676	-0.025	-0.059
-525.004	-51.341	-0.182	-0.086
-523.989	800.000	0.059	0.234
-522.975	644.196	-0.111	-0.287
-521.960	40.687	0.271	-0.248
-520.945	112.065	0.113	-0.138
-519.931	-200.000	0.008	-0.068
-518.916	69.591	0.067	-0.070
-517.902	800.000	-0.075	0.306
-516.887	-26.338	0.297	-0.177
-515.872	-200.000	0.039	-0.182
-514.858	-156.995	-0.273	0.017
-513.843	375.693	0.063	0.130
-512.829	-200.000	-0.073	-0.450
-511.814	364.137	0.136	0.278
-510.799	-20.592	0.285	-0.178
-509.785	-162.856	0.092	0.005
-508.770	-155.152	0.142	0.009
-507.756	106.758	0.098	0.118
-506.741	304.279	-0.046	-0.088
-505.726	16.958	0.095	-0.076
-504.712	-200.000	0.029	-0.144
-503.697	214.380	0.138	-0.222
-502.683	-200.000	0.044	-0.302
-501.668	-200.000	0.030	0.155
-500.653	44.824	0.217	0.203
-499.639	-110.681	0.011	0.002
-498.624	252.408	-0.100	-0.173
-497.610	64.137	-0.182	0.186
-496.595	-200.000	0.053	-0.317
-495.581	33.477	0.099	0.087
-494.566	233.373	-0.087	-0.146
-493.551	-99.853	0.191	-0.048
-492.537	-59.492	-0.352	-0.154
-491.522	-136.600	0.160	-0.019
-490.508	-139.687	-0.354	-0.038
-489.493	224.771	-0.082	-0.134
-488.478	-200.000	0.010	-0.168
-487.464	-98.108	-0.280	-0.073
-486.449	36.283	0.125	-0.112
-485.435	-200.000	0.036	0.387
-484.420	-200.000	-0.016	-0.280
-483.405	800.000	-0.072	0.220
-482.391	-200.000	-0.007	0.226
-481.376	-200.000	-0.025	0.335
-480.362	-13.982	0.064	0.042
-479.347	-17.107	-0.098	-0.062
-478.332	-36.573	0.241	0.131
-477.318	-119.340	0.162	0.029
-476.303	92.081	-0.156	-0.178
-475.289	75.282	-0.152	0.162
-474.274	214.877	-0.118	-0.189
-473.259	800.000	0.031	-0.105
-472.245	286.539	0.145	0.265
-471.230	-132.333	-0.285	-0.037
-470.216	-200.000	0.006	0.158
-469.201	12.054	0.192	-0.150
-468.186	-170.955	-0.058	-0.002
-467.172	62.507	0.236	-0.239
-466.157	-105.271	-0.090	0.021
-465.143	95.590	0.031	-0.036
-464.128	-49.409	0.074	-0.036
-463.113	507.405	-0.056	0.133
-462.099	800.000	-0.068	0.208
-461.084	588.545	-0.036	0.090
-460.070	-90.948	-0.127	0.037
-459.055	-65.505	0.244	0.099
-458.040	-200.000	0.026	0.418
-457.026	800.000	0.121	0.351
-456.011	98.143	-0.220	-0.257
-454.997	800.000	0.071	-0.229
-453.982	141.848	0.025	0.034
-452.968	-200.000	-0.036	-0.388
-451.953	182.236	-0.150	0.224
-450.938	513.029	0.181	-0.427
-449.924	-200.000	-0.016	-0.094
-448.909	-71.964	-0.448	-0.169
-447.895	800.000	-0.066	0.239
-446.880	361.497	-0.114	0.232
-445.865	800.000	0.064	-0.198
-444.851	-111.981	0.056	-0.011
-443.836	800.000	0.074	0.231
-442.822	71.473	-0.184	-0.193
-441.807	79.259	0.232	0.252
-440.792	-200.000	0.082	0.000
-439.778	-200.000	0.118	0.001
-438.763	800.000	0.085	-0.310
-437.749	288.427	-0.019	-0.035
-436.734	-136.966	0.044	0.005
-435.719	-200.000	-0.030	0.267
-434.705	124.404	-0.064	-0.081
-433.690	-68.414	0.211	-0.083
-432.676	59.701	0.166	0.166
-431.661	323.277	0.143	0.276
-430.646	-156.689	-0.190	-0.012
-429.632	225.336	-0.115	-0.189
-428.617	-84.615	-0.269	0.086
-427.603	347.956	0.021	0.043
-426.588	-110.874	0.190	-0.040
-425.573	-52.906	0.224	-0.104
-424.559	77.146	0.058	-0.062
-423.544	-82.760	-0.105	-0.034
-422.530	-99.319	-0.237	0.061
-421.515	631.094	-0.139	-0.356
-420.500	-200.000	0.001	0.092
-419.486	6.048	-0.241	-0.180
-418.471	-200.000	-0.051	-0.565
-417.457	97.407	-0.095	-0.111
-416.442	-200.000	0.019	-0.207
-415.428	103.544	0.269	0.319
-414.413	26.577	0.182	0.154
-413.398	-165.749	-0.348	0.015
-412.384	-30.936	-0.162	0.093
-411.369	341.600	0.189	-0.374
-410.355	116.248	0.163	-0.202
-409.340	800.000	0.070	-0.278
-408.325	-84.748	-0.244	-0.078
-407.311	41.051	0.120	0.110
-406.296	-200.000	0.063	0.291
-405.282	-200.000	0.005	-0.175
-404.267	-157.366	0.113	-0.007
-403.252	-134.930	0.406	0.050
-402.238	92.911	0.135	0.155
-401.223	-86.638	-0.275	-0.085
-400.209	174.676	-0.285	0.417
-399.194	209.853	-0.065	-0.104
-398.179	-168.164	0.190	-0.007
-397.165	800.000	0.004	0.015
-396.150	-140.420	0.186	-0.020
-395.136	535.408	-0.123	0.296
-394.121	-22.946	-0.090	0.055
-393.106	-93.254	-0.130	-0.036
-392.092	-200.000	0.004	0.415
-391.077	16.887	-0.023	0.018
-390.063	98.200	0.193	-0.225
-389.048	-200.000	-0.004	-0.039
-388.033	34.495	0.113	0.099
-387.019	800.000	0.032	-0.122
-386.004	133.031	0.156	-0.204
-384.990	18.970	0.111	-0.090
-383.975	800.000	0.089	0.339
-382.960	-200.000	0.002	-0.193
-381.946	-200.000	0.017	-0.086
-380.931	-200.000	-0.035	0.274
-379.917	-82.186	-0.240	-0.079
-378.902	-200.000	-0.042	0.193
-377.888	148.315	0.146	-0.199
-376.873	-78.341	0.246	-0.085
-375.858	-200.000	-0.002	-0.194
-374.844	-103.647	-0.365	-0.086
-373.829	-58.567	0.149	-0.065
-372.815	-29.348	-0.053	0.031
-371.800	-200.000	-0.040	0.182
-370.785	231.793	0.017	0.028
-369.771	659.755	-0.083	-0.216
-368.756	-9.317	-0.063	0.043
-367.742	357.573	0.063	0.126
-366.727	-92.749	0.475	-0.134
-365.712	-50.693	-0.184	-0.087
-364.698	-113.392	0.229	0.045
-363.683	-26.799	0.131	0.077
-362.669	-184.355	0.113	-0.002
-361.654	-21.651	0.079	0.049
-360.639	198.135	-0.088	-0.136
-359.625	-200.000	0.060	0.310
-358.610	800.000	-0.072	0.260
-357.596	-200.000	0.033	0.238
-356.581	394.762	-0.076	-0.161
-355.566	182.437	-0.254	0.378
-354.552	-24.548	-0.263	0.158
-353.537	-87.751	0.228	-0.069
-352.523	-88.590	0.190	-0.057
-351.508	-101.829	0.199	0.049
-350.493	-200.000	-0.013	-0.122
-349.479	-200.000	-0.030	-0.155
-348.464	165.635	0.166	-0.236
-347.450	-122.380	0.483	0.079
-346.435	-200.000	-0.021	0.125
-345.420	-200.000	-0.001	0.019
-344.406	-200.000	0.069	0.328
-343.391	-67.639	0.466	0.184
-342.377	215.054	-0.240	0.384
-341.362	39.476	-0.352	-0.319
-340.348	163.984	0.109	-0.155
-339.333	-200.000	0.025	0.170
-338.318	-193.082	-0.353	0.003
-337.304	-164.752	0.025	0.001
-336.289	-143.454	-0.045	0.004
-335.275	800.000	-0.072	0.282
-334.260	-80.148	-0.160	0.054
-333.245	-178.823	-0.177	-0.004
-332.231	-186.282	-0.228	0.003
-331.216	-159.674	0.055	0.003
-330.202	-200.000	-0.021	-0.162
-329.187	-64.875	0.248	-0.101
-328.172	-76.058	0.181	-0.064
-327.158	-147.364	0.167	-0.014
-326.143	-25.414	0.145	-0.086
-325.129	-127.548	0.433	-0.063
-324.114	-17.443	0.081	0.052
-323.099	73.448	0.101	-0.106
-322.085	131.178	-0.183	0.237
-321.070	-200.000	-0.012	-0.239
-320.056	-17.899	-0.240	-0.152
-319.041	-10.496	-0.409	0.273
-318.026	-184.412	0.085	0.001
-317.012	-46.976	0.371	0.183
-315.997	-81.880	-0.405	0.134
-314.983	235.653	0.088	-0.146
-313.968	253.821	0.054	-0.093
-312.953	-200.000	0.002	0.472
-311.939	347.209	0.054	0.107
-310.924	800.000	-0.105	0.325
-309.910	221.633	0.130	-0.211
-308.895	-22.257	-0.147	0.090
-307.880	-200.000	0.021	0.134
-306.866	-21.861	0.309	0.189
-305.851	800.000	0.065	0.221
-304.837	9.378	-0.161	-0.123
-303.822	87.701	0.302	0.337
-302.807	-123.795	-0.223	-0.036
-301.793	-200.000	-0.026	0.242
-300.778	34.086	0.127	-0.111
-299.764	800.000	0.040	-0.132
-298.749	141.916	0.210	-0.280
-297.735	20.417	-0.187	-0.153
-296.720	800.000	0.049	-0.196
-295.705	24.287	-0.079	-0.065
-294.691	127.373	-0.045	-0.058
-293.676	79.167	-0.062	0.067
-292.662	226.605	-0.187	0.306
-291.647	32.466	0.242	-0.210
-290.632	319.244	0.115	0.221
-289.618	-200.000	0.032	-0.181
-288.603	-26.017	0.188	-0.111
-287.589	397.130	-0.072	-0.152
-286.574	279.284	-0.121	-0.217
-285.559	123.917	0.145	-0.183
-284.545	-32.352	0.260	-0.146
-283.530	-47.530	-0.293	-0.144
-282.516	-143.169	-0.150	-0.015
-281.501	800.000	0.072	-0.207
-280.486	94.893	0.146	-0.167
-279.472	-200.000	-0.009	0.150
-278.457	-200.000	0.022	0.236
-277.443	-200.000	0.020	0.280
-276.428	-200.000	-0.010	-0.162
-275.413	-41.703	-0.194	-0.100
-274.399	-200.000	0.089	-0.451
-273.384	-73.727	-0.261	-0.095
-272.370	-37.814	-0.417	-0.223
-271.355	297.265	0.152	-0.281
-270.340	-107.886	-0.143	-0.031
-269.326	-6.821	0.305	-0.209
-268.311	253.599	-0.032	-0.055
-267.297	800.000	-0.033	0.107
-266.282	-194.907	0.236	-0.002
-265.267	186.517	-0.076	0.114
-264.253	-55.321	-0.124	-0.056
-263.238	-124.560	-0.183	0.029
-262.224	204.922	-0.166	0.259
-261.209	-151.984	-0.144	0.011
-260.195	-43.950	0.217	0.110
-259.180	-115.327	0.229	-0.044
-258.165	-200.000	0.016	0.092
-257.151	16.618	0.137	0.109
-256.136	-200.000	0.039	0.454
-255.122	800.000	0.039	-0.138
-254.107	-200.000	-0.031	0.360
-253.092	262.543	-0.080	0.139
-252.078	423.815	0.127	-0.274
-251.063	-29.016	0.325	-0.187
-250.049	-96.767	-0.349	-0.092
-249.034	-200.000	-0.043	-0.239
-248.019	131.909	0.136	-0.176
-247.005	-200.000	0.061	0.313
-245.990	155.756	-0.076	-0.106
-244.976	-3.455	0.036	-0.025
-243.961	-200.000	-0.025	-0.377
-242.946	185.925	0.049	0.073
-241.932	-200.000	-0.014	0.112
-240.917	-41.899	0.311	0.160
-239.903	-56.582	-0.433	0.193
-238.888	152.941	0.186	0.255
-237.873	-15.407	0.172	0.110
-236.859	86.694	-0.052	-0.058
-235.844	-114.140	-0.055	-0.011
-234.830	-41.904	-0.151	0.078
-233.815	-117.529	0.366	-0.066
-232.800	-81.727	-0.177	-0.058
-231.786	800.000	-0.054	-0.168
-230.771	-62.822	0.165	-0.069
-229.757	359.921	0.094	0.188
-228.742	80.620	0.061	0.066
-227.727	321.186	-0.111	-0.211
-226.713	-93.711	0.184	0.051
-225.698	-128.974	-0.380	0.053
-224.684	-44.446	0.150	0.075
-223.669	-17.984	-0.017	-0.011
-222.655	412.257	0.086	0.183
-221.640	-77.665	-0.214	-0.074
-220.625	3.953	0.121	0.089
-219.611	-200.000	0.012	-0.058
-218.596	301.424	-0.191	-0.354
-217.582	-20.108	0.083	-0.052
-216.567	-158.195	0.287	-0.017
-215.552	-131.981	0.165	-0.022
-214.538	800.000	-0.030	0.085
-213.523	-79.310	-0.100	0.034
-212.509	-200.000	-0.020	-0.243
-211.494	142.108	-0.089	-0.119
-210.479	188.535	0.061	0.092
-209.465	77.880	-0.289	-0.309
-208.450	-158.860	0.133	0.008
-207.436	-82.733	-0.134	0.043
-206.421	135.301	0.125	0.164
-205.406	-25.955	0.403	0.238
-204.392	-85.392	-0.247	0.077
-203.377	154.442	0.142	0.195
-202.363	-53.897	0.152	-0.070
-201.348	-200.000	-0.007	-0.219
-200.333	28.525	0.307	-0.260
-199.319	-76.947	-0.034	-0.012
-198.304	-149.018	-0.358	-0.029
-197.290	-152.891	-0.174	-0.012
-196.275	-80.319	0.278	-0.093
-195.260	104.237	-0.132	0.156
-194.246	76.416	0.169	0.180
-193.231	-199.172	0.203	-0.001
-192.217	539.053	-0.162	-0.388
-191.202	226.066	-0.153	0.248
-190.187	123.327	-0.220	0.276
-189.173	16.353	0.161	0.127
-188.158	194.877	-0.149	0.227
-187.144	-87.259	0.137	-0.042
-186.129	44.667	-0.301	0.278
-185.114	-94.262	-0.076	-0.021
-184.100	-200.000	0.007	0.229
-183.085	100.801	0.081	0.094
-182.071	138.621	0.081	-0.107
-181.056	800.000	-0.067	-0.191
-180.042	-40.042	-0.177	0.093
-179.027	-162.380	0.108	-0.005
-178.012	-122.136	0.105	0.017
-176.998	-145.685	-0.266	0.024
-175.983	769.453	0.087	0.238
-174.969	-98.480	-0.443	0.114
-173.954	781.535	0.055	0.151
-172.939	-200.000	0.038	0.178
-171.925	-200.000	0.020	-0.151
-170.910	449.935	-0.060	-0.132
-169.896	-172.988	0.122	-0.004
-168.881	-103.677	0.072	-0.017
-167.866	-7.450	0.214	-0.145
-166.852	-200.000	-0.060	0.295
-165.837	317.685	0.032	0.061
-164.823	-200.000	0.009	0.112
-163.808	-200.000	0.007	-0.142
-162.793	19.554	-0.107	0.087
-161.779	-200.000	-0.070	0.000
-160.764	219.581	-0.152	-0.243
-159.750	800.000	0.086	0.365
-158.735	591.077	-0.144	0.356
-157.720	-47.939	0.130	0.063
-156.706	-200.000	0.030	0.353
-155.691	122.415	-0.130	0.162
-154.677	-38.161	0.168	0.089
-153.662	-200.000	0.026	0.312
-152.647	225.084	-0.110	0.178
-151.633	800.000	0.129	0.379
-150.618	51.662	-0.155	0.147
-149.604	-200.000	-0.009	-0.043
-148.589	-108.388	-0.182	-0.039
-147.574	800.000	0.065	0.181
-146.560	508.998	-0.045	0.105
-145.545	645.776	-0.009	0.022
-144.531	-36.756	0.045	0.024
-143.516	-1.955	-0.251	-0.177
-142.502	-200.000	-0.046	-0.268
-141.487	800.000	0.027	-0.078
-140.472	-108.532	0.084	-0.018
-139.458	110.722	-0.189	0.227
-138.443	286.010	0.178	0.321
-137.429	-54.081	-0.218	0.099
-136.414	148.909	0.193	0.261
-135.399	150.815	-0.071	-0.096
-134.385	-9.895	-0.102	0.068
-133.370	-111.656	-0.191	-0.039
-132.356	-134.315	-0.118	0.014
-131.341	49.527	0.228	-0.215
-130.326	-200.000	-0.015	0.293
-129.312	416.516	0.092	-0.196
-128.297	800.000	-0.065	0.243
-127.283	174.435	-0.223	0.323
-126.268	282.498	0.146	0.262
-125.253	-78.080	-0.236	0.081
-124.239	-93.054	-0.113	0.031
-123.224	517.037	0.045	0.106
