DTS Sentinel unit serial number:	SN413079Multiplexer serial number:	ORYXHardware model number:	OX4-SRSoftware version number:	ORYX F/W v4.00 Oryx Data Collector v3.7.2.0data status	okinstallation	princeton_trtdifferential loss correction	single-endedforward channel	channel 4reverse channel	N/Adate	2019/09/12time	07:51:11forward acquisition time	60.00reverse acquisition time	0.00gamma	496.2192k internal	0.2304k external	0.2304temperature offset calibration	1.0065default loss term (dB/km)	0.3790temperature slope calibration	1.0000multiplexer offset coefficient	1.0000multiplexer slope coefficient	1.0000fibre end	0.00T internal ref (°C)	32.89T ext. ref 1 (°C)	1.63T ext. ref 2 (°C)	29.04length (m)	temperature (°C)	Stokes	anti-Stokes-747.200	-200.000	0.020	-0.226
-746.185	800.000	0.063	0.183
-745.171	800.000	-0.126	-0.437
-744.156	114.876	-0.078	0.096
-743.142	-32.252	0.279	-0.159
-742.127	59.572	-0.194	0.195
-741.112	-95.974	-0.048	-0.013
-740.098	-149.976	-0.266	-0.021
-739.083	-160.411	-0.138	0.008
-738.069	-200.000	-0.013	0.297
-737.054	266.174	-0.156	-0.277
-736.039	-200.000	-0.030	-0.253
-735.025	-25.469	-0.140	0.084
-734.010	242.627	-0.052	0.089
-732.996	-166.460	-0.250	0.011
-731.981	349.105	-0.072	-0.145
-730.966	-200.000	0.012	0.306
-729.952	-144.290	0.288	0.027
-728.937	212.329	-0.276	0.443
-727.923	-89.974	-0.178	0.053
-726.908	-142.640	-0.226	-0.022
-725.894	-125.687	-0.200	-0.031
-724.879	-95.965	-0.251	0.068
-723.864	6.428	-0.146	-0.110
-722.850	-45.232	0.214	-0.108
-721.835	-58.001	-0.159	0.071
-720.821	600.286	0.133	0.336
-719.806	-200.000	-0.012	-0.272
-718.791	218.891	0.218	-0.355
-717.777	800.000	0.026	-0.083
-716.762	800.000	0.063	0.191
-715.748	343.436	0.207	0.412
-714.733	148.382	0.160	-0.220
-713.718	-200.000	-0.076	-0.510
-712.704	356.269	-0.047	-0.096
-711.689	84.706	-0.069	-0.077
-710.675	800.000	-0.024	-0.095
-709.660	433.703	-0.151	-0.334
-708.645	800.000	-0.103	-0.354
-707.631	23.350	0.199	0.166
-706.616	594.868	-0.064	0.161
-705.602	246.986	-0.077	-0.132
-704.587	374.139	0.225	0.465
-703.572	-121.466	-0.232	-0.039
-702.558	800.000	-0.112	-0.337
-701.543	-18.720	-0.056	0.035
-700.529	-164.201	-0.290	0.014
-699.514	-200.000	-0.008	0.306
-698.499	-200.000	0.012	-0.053
-697.485	-40.920	0.042	-0.022
-696.470	327.982	0.081	-0.158
-695.456	704.710	-0.121	-0.324
-694.441	195.014	-0.092	0.142
-693.426	135.325	-0.139	-0.183
-692.412	-16.993	0.175	0.112
-691.397	-49.807	0.333	-0.161
-690.383	418.244	0.064	-0.139
-689.368	-132.209	-0.128	-0.017
-688.354	83.872	-0.252	-0.280
-687.339	800.000	-0.029	0.111
-686.324	-200.000	-0.090	0.000
-685.310	-161.803	-0.525	0.027
-684.295	-75.572	-0.232	0.084
-683.281	511.051	0.064	-0.151
-682.266	79.458	0.130	0.142
-681.251	-121.364	-0.371	0.063
-680.237	-17.732	0.232	0.148
-679.222	3.896	-0.389	0.289
-678.208	-57.782	0.167	-0.074
-677.193	-142.101	-0.234	-0.024
-676.178	-192.365	0.315	-0.003
-675.164	-200.000	-0.015	-0.420
-674.149	800.000	-0.069	0.225
-673.135	-142.031	-0.295	0.030
-672.120	-38.225	0.335	-0.180
-671.105	-76.887	-0.242	0.086
-670.091	-116.725	-0.172	-0.032
-669.076	-15.617	-0.203	0.131
-668.062	-90.413	0.058	0.017
-667.047	78.659	0.259	-0.281
-666.032	251.731	-0.117	0.202
-665.018	800.000	-0.058	0.213
-664.003	-102.698	-0.195	-0.047
-662.989	-200.000	0.017	0.229
-661.974	234.656	0.120	-0.201
-660.959	419.811	0.131	-0.284
-659.945	-116.066	-0.146	-0.028
-658.930	270.008	0.161	-0.287
-657.916	-4.208	0.099	-0.069
-656.901	-111.396	0.276	-0.057
-655.886	-200.000	0.000	-0.084
-654.872	800.000	-0.116	-0.349
-653.857	-14.413	0.362	0.236
-652.843	-28.480	-0.155	-0.091
-651.828	-160.082	-0.128	0.007
-650.814	116.097	0.222	-0.276
-649.799	-147.511	-0.084	-0.007
-648.784	137.709	0.106	0.141
-647.770	744.435	-0.205	-0.560
-646.755	-200.000	0.002	-0.067
-645.741	-92.714	-0.146	-0.041
-644.726	800.000	-0.061	0.206
-643.711	157.556	-0.166	-0.233
-642.697	800.000	-0.020	0.059
-641.682	79.680	-0.100	0.108
-640.668	779.231	-0.163	-0.452
-639.653	-174.854	0.175	0.005
-638.638	612.641	0.064	0.161
-637.624	-42.454	-0.383	0.198
-636.609	336.597	0.137	0.270
-635.595	-77.344	-0.269	0.095
-634.580	-92.236	0.287	-0.082
-633.565	-15.326	0.148	0.096
-632.551	1.749	-0.156	-0.114
-631.536	800.000	-0.127	-0.389
-630.522	-200.000	0.013	0.198
-629.507	520.877	0.042	0.101
-628.492	-192.278	-0.244	0.002
-627.478	-170.149	-0.433	0.016
-626.463	-127.000	0.490	-0.073
-625.449	-200.000	-0.006	-0.119
-624.434	-176.276	0.214	-0.006
-623.419	85.053	-0.076	0.084
-622.405	-109.396	0.072	-0.015
-621.390	111.246	-0.086	0.105
-620.376	494.651	0.061	0.142
-619.361	-22.424	0.077	0.047
-618.346	-200.000	0.030	-0.166
-617.332	-200.000	-0.036	-0.336
-616.317	-57.822	0.204	-0.090
-615.303	800.000	-0.005	0.017
-614.288	-139.600	0.358	0.039
-613.273	109.405	0.026	0.031
-612.259	-67.991	-0.318	-0.126
-611.244	-200.000	0.000	-0.093
-610.230	-200.000	0.001	-0.258
-609.215	-124.159	-0.154	-0.025
-608.201	68.528	0.082	-0.086
-607.186	-12.617	-0.479	-0.316
-606.171	418.718	0.166	0.359
-605.157	-77.184	0.091	-0.032
-604.142	-157.190	-0.078	-0.005
-603.128	-150.088	0.303	0.024
-602.113	-30.982	0.130	0.074
-601.098	617.523	-0.149	0.380
-600.084	204.907	-0.155	-0.244
-599.069	-200.000	-0.017	0.176
-598.055	-34.063	-0.183	-0.102
-597.040	-80.517	0.060	0.020
-596.025	480.770	0.119	-0.273
-595.011	529.343	-0.057	-0.137
-593.996	-113.374	0.291	-0.058
-592.982	-40.111	-0.247	0.130
-591.967	-197.508	0.138	0.001
-590.952	14.160	0.207	0.164
-589.938	-35.337	0.070	-0.039
-588.923	148.948	0.125	-0.171
-587.909	-129.105	-0.097	-0.014
-586.894	-63.598	-0.065	0.027
-585.879	-120.740	-0.038	0.007
-584.865	-148.863	-0.135	-0.011
-583.850	114.717	-0.117	0.145
-582.836	-161.843	0.125	-0.006
-581.821	78.432	-0.340	0.367
-580.806	-55.120	0.371	-0.169
-579.792	-200.000	-0.011	-0.123
-578.777	800.000	0.064	-0.200
-577.763	-200.000	-0.049	0.340
-576.748	69.458	-0.142	0.148
-575.733	-115.713	-0.212	0.040
-574.719	-200.000	-0.186	-0.001
-573.704	-96.137	0.308	-0.083
-572.690	-200.000	-0.014	0.207
-571.675	-193.759	0.188	0.002
-570.661	800.000	0.058	-0.209
-569.646	-151.301	-0.258	-0.019
-568.631	-95.110	0.250	0.068
-567.617	-200.000	-0.011	-0.325
-566.602	800.000	-0.065	-0.254
-565.588	800.000	-0.070	0.269
-564.573	-200.000	-0.035	0.175
-563.558	-71.054	0.510	0.194
-562.544	-200.000	0.031	0.203
-561.529	800.000	0.063	-0.183
-560.515	-200.000	-0.003	-0.066
-559.500	-160.645	0.097	-0.005
-558.485	167.994	-0.050	-0.072
-557.471	291.320	0.026	-0.048
-556.456	264.363	0.112	-0.197
-555.442	481.387	0.160	-0.367
-554.427	-145.656	0.231	0.021
-553.412	-200.000	-0.032	0.194
-552.398	522.520	0.055	-0.130
-551.383	-200.000	-0.007	0.198
-550.369	94.393	-0.122	-0.140
-549.354	-112.289	0.250	0.051
-548.339	-10.512	-0.325	-0.218
-547.325	-113.465	-0.066	-0.013
-546.310	-200.000	0.002	-0.045
-545.296	-33.806	0.102	0.057
-544.281	101.197	0.032	0.037
-543.266	463.230	0.088	-0.198
-542.252	-200.000	0.043	-0.202
-541.237	51.728	0.105	-0.101
-540.223	6.954	0.172	-0.130
-539.208	800.000	0.064	-0.191
-538.193	-102.248	-0.116	-0.028
-537.179	-200.000	-0.006	-0.080
-536.164	-180.697	0.199	0.004
-535.150	-31.322	0.178	-0.101
-534.135	-35.715	0.287	-0.157
-533.121	586.503	0.100	0.248
-532.106	116.944	-0.068	-0.084
-531.091	-82.582	0.110	0.036
-530.077	-106.895	-0.103	0.023
-529.062	800.000	0.076	0.305
-528.048	-83.441	-0.085	0.028
-527.033	-200.000	0.048	-0.332
-526.018	35.238	0.121	-0.107
-525.004	800.000	-0.051	-0.214
-523.989	427.846	0.084	-0.182
-522.975	800.000	-0.019	0.065
-521.960	-76.722	0.529	0.187
-520.945	-200.000	0.045	0.208
-519.931	-41.412	-0.193	0.100
-518.916	-111.760	-0.209	0.043
-517.902	-200.000	0.015	-0.299
-516.887	35.330	-0.071	0.062
-515.872	248.869	0.043	-0.073
-514.858	-90.232	-0.325	0.095
-513.843	-93.917	-0.253	-0.070
-512.829	-200.000	-0.013	-0.212
-511.814	-173.270	0.088	-0.003
-510.799	-2.944	0.180	-0.127
-509.785	800.000	0.055	0.225
-508.770	-179.414	0.326	0.007
-507.756	-200.000	-0.003	-0.212
-506.741	800.000	-0.007	-0.025
-505.726	-100.747	-0.179	-0.045
-504.712	-130.611	-0.273	-0.037
-503.697	-200.000	0.021	-0.129
-502.683	643.658	0.158	0.406
-501.668	-73.941	-0.379	0.139
-500.653	-18.619	-0.219	-0.138
-499.639	157.355	0.157	-0.219
-498.624	-82.000	-0.196	0.065
-497.610	-200.000	0.010	0.083
-496.595	49.631	-0.131	-0.124
-495.581	235.943	-0.087	0.145
-494.566	-123.454	0.173	-0.028
-493.551	32.354	0.250	-0.218
-492.537	-200.000	0.004	0.112
-491.522	233.241	0.053	0.088
-490.508	-200.000	-0.013	0.092
-489.493	-126.160	-0.143	-0.022
-488.478	70.389	0.143	-0.149
-487.464	-59.770	-0.215	-0.093
-486.449	-8.642	0.192	0.130
-485.435	-29.111	-0.179	-0.103
-484.420	-114.358	-0.076	0.015
-483.405	-40.200	0.315	0.165
-482.391	-200.000	-0.032	0.185
-481.376	602.213	-0.087	0.217
-480.362	-89.536	-0.235	-0.069
-479.347	268.247	0.173	0.306
-478.332	142.473	-0.082	-0.110
-477.318	800.000	-0.124	0.396
-476.303	-68.889	-0.101	0.039
-475.289	-200.000	0.053	-0.335
-474.274	-53.237	0.222	-0.102
-473.259	-200.000	-0.007	0.142
-472.245	33.615	0.137	0.120
-471.230	69.635	-0.255	-0.264
-470.216	-37.994	0.222	0.119
-469.201	73.819	0.126	0.133
-468.186	172.456	0.052	-0.076
-467.172	-200.000	-0.008	-0.069
-466.157	-47.818	0.144	-0.070
-465.143	510.020	-0.110	-0.258
-464.128	-50.792	-0.090	0.043
-463.113	106.692	-0.223	0.266
-462.099	147.285	0.157	0.212
-461.084	-167.428	0.293	0.012
-460.070	251.107	-0.175	-0.300
-459.055	-142.936	0.165	-0.016
-458.040	19.810	-0.164	-0.133
-457.026	5.301	0.293	-0.217
-456.011	465.044	-0.109	0.245
-454.997	291.372	-0.135	-0.247
-453.982	102.253	-0.126	0.148
-452.968	98.557	-0.099	0.115
-451.953	370.074	-0.099	-0.202
-450.938	-51.480	-0.118	-0.056
-449.924	-200.000	-0.014	0.081
-448.909	353.009	-0.130	-0.259
-447.895	324.117	0.020	0.038
-446.880	19.511	-0.256	-0.207
-445.865	-128.918	0.176	-0.025
-444.851	-200.000	-0.028	0.157
-443.836	800.000	-0.023	-0.064
-442.822	535.183	-0.103	-0.245
-441.807	-17.241	0.075	0.047
-440.792	-67.950	0.146	-0.057
-439.778	96.286	0.097	0.111
-438.763	-4.927	0.143	0.099
-437.749	-126.807	0.166	0.025
-436.734	65.431	0.247	-0.252
-435.719	-200.000	-0.053	-0.304
-434.705	71.440	-0.111	-0.116
-433.690	800.000	-0.049	-0.178
-432.676	-200.000	0.015	-0.223
-431.661	-200.000	0.003	0.037
-430.646	4.351	-0.413	-0.305
-429.632	-200.000	0.021	0.095
-428.617	-63.377	-0.121	-0.050
-427.603	37.467	0.076	-0.068
-426.588	-64.713	-0.228	-0.093
-425.573	-104.425	0.094	-0.022
-424.559	26.894	-0.086	-0.072
-423.544	-154.550	0.206	-0.014
-422.530	-88.478	-0.099	0.030
-421.515	-57.719	-0.233	0.103
-420.500	18.519	0.320	0.257
-419.486	-200.000	0.012	0.123
-418.471	-200.000	-0.038	0.187
-417.457	-103.594	-0.274	0.065
-416.442	414.541	-0.111	0.238
-415.428	-26.802	0.321	0.188
-414.413	800.000	-0.079	-0.269
-413.398	27.210	0.120	-0.102
-412.384	-156.684	0.188	0.012
-411.369	800.000	0.035	0.113
-410.355	-98.547	-0.097	0.025
-409.340	411.402	-0.010	0.022
-408.325	237.094	-0.179	-0.299
-407.311	619.030	0.007	0.018
-406.296	-200.000	0.015	0.071
-405.282	87.976	-0.101	0.112
-404.267	-200.000	-0.024	0.132
-403.252	-123.193	-0.256	0.041
-402.238	-38.005	0.387	0.206
-401.223	-145.050	-0.224	0.020
-400.209	-200.000	-0.005	0.154
-399.194	-200.000	0.022	0.162
-398.179	11.254	0.198	-0.152
-397.165	-44.540	-0.128	-0.064
-396.150	200.998	0.155	0.239
-395.136	-200.000	-0.006	0.146
-394.121	245.482	0.208	0.352
-393.106	-7.768	0.101	0.069
-392.092	679.023	-0.012	0.031
-391.077	296.220	0.061	0.112
-390.063	576.378	-0.067	0.164
-389.048	-200.000	0.017	0.271
-388.033	-200.000	0.057	0.375
-387.019	529.555	0.025	-0.059
-386.004	-200.000	-0.020	-0.133
-384.990	1.243	-0.198	-0.143
-383.975	-200.000	0.019	0.259
-382.960	53.073	-0.257	-0.247
-381.946	564.828	0.105	-0.256
-380.931	82.596	-0.335	-0.365
-379.917	-200.000	-0.018	-0.167
-378.902	-142.904	0.133	-0.013
-377.888	-172.094	-0.260	0.008
-376.873	110.324	-0.104	-0.125
-375.858	-57.233	0.187	-0.082
-374.844	-85.187	-0.071	0.022
-373.829	-69.463	0.245	-0.094
-372.815	-118.262	-0.217	-0.039
-371.800	72.363	-0.098	-0.102
-370.785	-21.761	-0.334	0.204
-369.771	-151.968	0.342	0.025
-368.756	800.000	0.012	0.039
-367.742	139.830	-0.072	-0.095
-366.727	-125.597	-0.155	-0.024
-365.712	86.490	0.070	-0.078
-364.698	800.000	0.035	-0.136
-363.683	-33.738	-0.077	0.043
-362.669	-200.000	-0.003	0.032
-361.654	-105.545	0.171	0.039
-360.639	74.165	0.243	0.256
-359.625	2.436	-0.104	-0.075
-358.610	800.000	-0.050	-0.214
-357.596	126.778	-0.204	0.259
-356.581	88.615	-0.103	-0.115
-355.566	-200.000	0.001	-0.029
-354.552	-99.578	0.201	0.051
-353.537	-200.000	0.048	0.321
-352.523	74.988	0.111	0.117
-351.508	800.000	-0.107	0.368
-350.493	-176.051	0.040	-0.001
-349.479	67.216	-0.209	0.213
-348.464	79.057	-0.083	0.089
-347.450	-25.797	0.186	0.110
-346.435	350.428	0.029	0.058
-345.420	800.000	0.035	0.124
-344.406	-37.069	-0.065	0.035
-343.391	-167.254	-0.508	0.021
-342.377	-42.954	-0.104	0.053
-341.362	195.050	-0.217	0.330
-340.348	81.011	-0.050	0.054
-339.333	50.201	0.080	-0.076
-338.318	-4.954	0.323	-0.223
-337.304	-62.324	0.147	0.061
-336.289	5.455	0.131	-0.097
-335.275	-88.541	0.240	0.072
-334.260	-200.000	-0.002	-0.080
-333.245	800.000	0.039	-0.146
-332.231	800.000	0.107	-0.310
-331.216	-139.149	0.190	-0.021
-330.202	30.295	-0.349	-0.298
-329.187	99.974	0.250	0.290
-328.172	36.182	-0.099	-0.087
-327.158	78.467	-0.185	0.198
-326.143	-69.601	0.083	0.032
-325.129	-56.758	-0.271	0.120
-324.114	-200.000	-0.062	0.288
-323.099	-192.674	-0.172	0.002
-322.085	269.156	-0.076	-0.134
-321.070	-138.025	0.100	-0.011
-320.056	459.833	-0.047	0.104
-319.041	64.737	-0.104	-0.105
-318.026	-142.899	0.178	0.017
-317.012	-130.631	0.426	-0.057
-315.997	-120.736	-0.205	-0.035
-314.983	-6.168	-0.266	0.182
-313.968	-136.486	0.218	0.025
-312.953	-44.866	-0.217	0.108
-311.939	-99.353	-0.200	-0.050
-310.924	800.000	0.018	-0.072
-309.910	-133.420	-0.196	-0.025
-308.895	70.257	0.168	0.174
-307.880	370.863	0.088	-0.179
-306.866	800.000	-0.028	0.107
-305.851	800.000	0.023	0.071
-304.837	-36.177	0.146	0.079
-303.822	40.631	-0.158	-0.143
-302.807	91.959	0.218	0.245
-301.793	-72.914	-0.175	0.064
-300.778	-63.731	0.180	0.074
-299.764	-16.176	0.093	0.059
-298.749	104.830	-0.217	-0.256
-297.735	105.307	-0.125	0.148
-296.720	-200.000	0.428	-0.002
-295.705	800.000	0.013	-0.048
-294.691	192.394	-0.040	0.060
-293.676	-22.495	0.172	-0.104
-292.662	-200.000	0.046	0.305
-291.647	402.715	-0.097	0.205
-290.632	-86.012	-0.172	-0.053
-289.618	-30.883	-0.162	0.091
-288.603	501.016	-0.033	-0.076
-287.589	-185.669	0.097	0.001
-286.574	-82.662	0.110	0.036
-285.559	-80.062	-0.166	-0.056
-284.545	84.792	0.153	0.168
-283.530	25.012	-0.129	0.107
-282.516	166.607	0.226	-0.321
-281.501	55.495	-0.231	0.223
-280.486	-200.000	-0.052	0.370
-279.472	-104.865	0.281	-0.064
-278.457	800.000	0.157	-0.679
-277.443	-122.993	0.147	0.024
-276.428	-200.000	-0.029	-0.225
-275.413	-77.168	0.333	0.116
-274.399	800.000	-0.015	0.060
-273.384	-200.000	0.027	-0.311
-272.370	-200.000	0.019	-0.138
-271.355	-200.000	-0.034	0.223
-270.340	515.355	0.004	0.010
-269.326	-126.706	-0.103	0.015
-268.311	-200.000	0.020	-0.261
-267.297	47.660	0.138	-0.128
-266.282	-76.546	0.294	-0.103
-265.267	437.718	-0.055	-0.120
-264.253	127.072	-0.045	-0.057
-263.238	-48.951	0.169	-0.081
-262.224	493.405	0.114	0.261
-261.209	-76.654	-0.330	0.116
-260.195	120.822	0.168	-0.209
-259.180	140.886	0.239	0.316
-258.165	155.525	0.148	0.204
-257.151	-200.000	-0.001	-0.061
-256.136	-145.876	-0.088	0.008
-255.122	304.438	-0.127	-0.235
-254.107	800.000	0.046	-0.131
-253.092	210.980	-0.054	0.085
-252.078	800.000	-0.059	0.211
-251.063	-200.000	0.001	-0.031
-250.049	-200.000	0.005	0.052
-249.034	-111.378	-0.103	0.021
-248.019	-85.065	-0.022	-0.007
-247.005	-57.046	0.107	0.047
-245.990	800.000	-0.037	-0.138
-244.976	100.820	-0.269	0.312
-243.961	-200.000	-0.002	-0.059
-242.946	-200.000	-0.075	-0.423
-241.932	-49.648	-0.037	-0.018
-240.917	94.396	-0.057	-0.065
-239.903	11.040	-0.168	0.128
-238.888	-131.039	0.199	-0.026
-237.873	320.122	0.103	0.194
-236.859	89.009	-0.167	0.186
-235.844	253.081	0.130	0.221
-234.830	1.651	-0.135	-0.097
-233.815	-107.775	-0.361	-0.079
-232.800	-200.000	0.013	-0.160
-231.786	-41.053	0.301	0.155
-230.771	236.457	0.049	0.081
-229.757	-138.202	-0.228	0.025
-228.742	-112.056	0.176	0.035
-227.727	-4.243	-0.174	0.120
-226.713	800.000	-0.020	0.066
-225.698	-200.000	-0.025	-0.239
-224.684	-157.301	-0.143	-0.009
-223.669	158.360	0.066	0.091
-222.655	96.119	0.092	0.105
-221.640	-200.000	0.003	0.246
-220.625	27.690	0.146	0.123
-219.611	-175.741	0.259	0.007
-218.596	-167.501	-0.202	-0.008
-217.582	-200.000	0.010	-0.074
-216.567	-97.554	-0.273	-0.071
-215.552	-49.902	0.429	0.203
-214.538	-127.537	-0.061	0.009
-213.523	53.484	-0.146	-0.140
-212.509	-200.000	0.032	-0.290
-211.494	5.149	0.153	-0.112
-210.479	175.116	-0.170	0.246
-209.465	-57.068	0.281	-0.124
-208.450	147.262	-0.161	-0.216
-207.436	-144.676	0.180	-0.017
-206.421	542.502	0.154	-0.367
-205.406	-73.628	-0.223	0.081
-204.392	251.708	0.173	0.293
-203.377	638.553	0.086	0.217
-202.363	-61.509	-0.208	0.087
-201.348	-8.196	0.117	0.079
-200.333	274.987	0.099	-0.174
-199.319	-92.548	-0.241	-0.067
-198.304	-165.684	-0.240	0.010
-197.290	662.118	0.074	0.191
-196.275	-92.490	0.179	-0.050
-195.260	-152.873	-0.567	0.040
-194.246	-12.703	-0.258	-0.168
-193.231	-9.826	0.135	0.090
-192.217	-152.422	0.099	0.007
-191.202	-118.782	-0.259	-0.045
-190.187	-3.894	-0.185	-0.128
-189.173	234.678	0.034	0.056
-188.158	-140.839	0.178	0.018
-187.144	-61.385	0.414	-0.173
-186.129	38.814	-0.092	-0.082
-185.114	800.000	0.042	-0.161
-184.100	179.489	0.128	0.186
-183.085	-78.731	-0.207	0.070
-182.071	-140.224	0.128	-0.013
-181.056	-67.662	-0.496	0.193
-180.042	553.174	-0.088	0.210
-179.027	-41.627	0.153	0.078
-178.012	-82.161	-0.345	-0.112
-176.998	-200.000	0.019	-0.144
-175.983	-68.915	-0.206	0.079
-174.969	29.702	-0.251	-0.213
-173.954	764.413	0.139	0.376
-172.939	-32.286	0.239	0.133
-171.925	-75.733	0.306	-0.108
-170.910	117.635	-0.066	0.080
-169.896	-14.058	-0.128	-0.083
-168.881	232.918	-0.130	0.212
-167.866	-114.335	0.126	-0.024
-166.852	6.339	0.197	0.146
-165.837	-11.599	0.191	-0.125
-164.823	-89.327	-0.098	-0.029
-163.808	-11.037	0.115	-0.076
-162.793	-41.347	-0.270	-0.138
-161.779	-87.370	-0.205	0.062
-160.764	-57.821	0.368	-0.160
-159.750	-101.611	0.372	-0.090
-158.735	800.000	-0.047	-0.163
-157.720	-114.462	-0.106	-0.020
-156.706	-200.000	0.064	0.295
-155.691	-66.412	-0.058	-0.023
-154.677	-48.954	0.034	0.016
-153.662	353.661	0.064	0.126
-152.647	-200.000	0.015	-0.105
-151.633	621.462	-0.097	0.244
-150.618	8.399	-0.121	-0.091
-149.604	106.280	0.181	-0.214
-148.589	-57.962	0.101	-0.044
-147.574	370.680	-0.133	0.268
-146.560	174.951	-0.119	0.171
-145.545	-82.767	0.196	-0.063
-144.531	-200.000	-0.024	-0.140
-143.516	800.000	-0.161	-0.493
-142.502	-92.757	0.363	0.101
-141.487	263.922	0.113	0.196
-140.472	-200.000	-0.027	0.318
-139.458	-86.993	0.413	-0.125
-138.443	800.000	-0.032	0.135
-137.429	-200.000	-0.004	-0.220
-136.414	-13.981	-0.140	0.090
-135.399	-113.150	0.259	-0.051
-134.385	-108.123	-0.290	-0.062
-133.370	800.000	-0.018	0.068
-132.356	800.000	0.103	0.346
-131.341	269.800	-0.020	-0.035
-130.326	466.445	-0.074	-0.165
-129.312	461.500	-0.045	-0.101
-128.297	160.743	-0.190	-0.263
-127.283	-69.776	-0.014	0.005
-126.268	-200.000	-0.004	-0.067
-125.253	66.285	0.195	-0.196
-124.239	271.190	0.104	0.182
-123.224	387.575	-0.076	0.156
