DTS Sentinel unit serial number:	SN413079Multiplexer serial number:	ORYXHardware model number:	OX4-SRSoftware version number:	ORYX F/W v4.00 Oryx Data Collector v3.7.2.0data status	okinstallation	princeton_trtdifferential loss correction	single-endedforward channel	channel 4reverse channel	N/Adate	2019/09/15time	11:25:35forward acquisition time	60.00reverse acquisition time	0.00gamma	496.2192k internal	0.2298k external	0.2298temperature offset calibration	1.0018default loss term (dB/km)	0.3790temperature slope calibration	1.0000multiplexer offset coefficient	1.0000multiplexer slope coefficient	1.0000fibre end	0.00T internal ref (°C)	34.31T ext. ref 1 (°C)	5.04T ext. ref 2 (°C)	29.56length (m)	temperature (°C)	Stokes	anti-Stokes-747.200	800.000	0.032	-0.126
-746.185	-64.416	0.235	0.097
-745.171	-143.165	0.105	0.010
-744.156	597.024	-0.083	0.209
-743.142	-200.000	0.003	-0.022
-742.127	410.749	-0.033	0.072
-741.112	-200.000	0.036	0.240
-740.098	-74.921	-0.076	-0.028
-739.083	-177.604	0.422	0.010
-738.069	356.749	0.180	0.365
-737.054	-51.241	0.151	-0.072
-736.039	-200.000	-0.048	-0.287
-735.025	698.798	0.091	0.243
-734.010	219.178	0.224	-0.365
-732.996	265.149	-0.180	-0.319
-731.981	140.293	0.115	0.155
-730.966	-118.856	0.374	-0.067
-729.952	191.501	-0.040	-0.061
-728.937	739.628	0.093	-0.255
-727.923	15.043	-0.226	-0.181
-726.908	-12.121	-0.245	0.164
-725.894	-200.000	0.005	-0.129
-724.879	-137.624	0.079	-0.009
-723.864	-200.000	0.011	-0.409
-722.850	-159.059	-0.296	-0.017
-721.835	-110.260	-0.266	0.057
-720.821	146.792	0.039	-0.053
-719.806	-200.000	0.019	0.110
-718.791	-200.000	0.010	0.077
-717.777	198.379	-0.186	-0.290
-716.762	-114.280	0.120	-0.024
-715.748	89.676	0.107	-0.122
-714.733	140.865	0.088	-0.118
-713.718	-200.000	0.021	-0.234
-712.704	-200.000	0.005	-0.029
-711.689	-30.871	-0.206	-0.119
-710.675	800.000	0.127	-0.360
-709.660	-57.797	0.258	-0.115
-708.645	800.000	-0.016	0.054
-707.631	23.360	-0.184	0.154
-706.616	21.803	0.078	-0.065
-705.602	-145.853	0.283	0.026
-704.587	-110.063	0.225	0.048
-703.572	800.000	0.061	-0.197
-702.558	541.201	0.078	0.189
-701.543	108.724	-0.222	-0.270
-700.529	304.502	0.217	-0.411
-699.514	-95.522	-0.271	-0.074
-698.499	800.000	-0.074	-0.240
-697.485	-186.986	-0.217	0.003
-696.470	-143.088	0.323	-0.032
-695.456	19.128	0.060	-0.049
-694.441	74.631	-0.095	-0.102
-693.426	-151.423	-0.177	-0.013
-692.412	556.384	0.019	-0.046
-691.397	16.825	0.179	-0.145
-690.383	-200.000	0.000	0.047
-689.368	56.911	0.144	-0.143
-688.354	63.127	0.130	0.132
-687.339	-107.124	-0.138	-0.031
-686.324	-68.733	0.162	0.064
-685.310	64.340	-0.180	0.184
-684.295	-142.038	0.574	0.058
-683.281	579.600	0.064	-0.159
-682.266	-66.826	-0.358	-0.144
-681.251	391.987	-0.080	0.170
-680.237	-172.050	0.183	0.006
-679.222	659.949	-0.153	0.402
-678.208	-70.933	-0.257	0.098
-677.193	-2.945	0.305	-0.217
-676.178	-68.894	0.273	0.107
-675.164	470.275	-0.036	-0.082
-674.149	-3.017	-0.258	0.183
-673.135	-200.000	-0.034	0.185
-672.120	423.784	-0.092	-0.201
-671.105	369.247	-0.061	0.126
-670.091	18.996	0.171	-0.140
-669.076	-119.494	-0.181	0.032
-668.062	260.522	0.102	0.180
-667.047	-57.979	-0.217	-0.096
-666.032	-200.000	-0.037	-0.317
-665.018	-115.085	0.487	-0.094
-664.003	-200.000	0.006	0.223
-662.989	-125.039	-0.288	0.045
-661.974	-200.000	-0.003	-0.268
-660.959	158.545	-0.269	-0.380
-659.945	-105.636	-0.243	-0.056
-658.930	457.750	-0.155	-0.350
-657.916	-200.000	0.008	-0.217
-656.901	-88.638	0.234	0.071
-655.886	195.877	0.194	0.300
-654.872	-200.000	-0.031	-0.177
-653.857	-200.000	0.035	-0.203
-652.843	-114.187	0.218	-0.043
-651.828	17.534	0.197	-0.159
-650.814	170.710	-0.132	-0.192
-649.799	635.617	-0.096	-0.247
-648.784	-23.380	0.241	-0.148
-647.770	-63.862	0.084	0.035
-646.755	181.875	-0.112	0.168
-645.741	-35.483	-0.367	0.203
-644.726	-37.859	-0.214	0.116
-643.711	-102.039	0.192	-0.047
-642.697	-200.000	0.041	0.206
-641.682	48.566	0.111	-0.106
-640.668	-200.000	0.018	0.130
-639.653	714.762	-0.101	0.271
-638.638	-93.148	-0.204	0.058
-637.624	800.000	-0.056	0.161
-636.609	18.384	0.272	-0.221
-635.595	-44.164	-0.225	-0.115
-634.580	-45.052	-0.236	-0.120
-633.565	-194.717	0.175	-0.001
-632.551	-112.497	0.393	0.080
-631.536	233.503	-0.195	-0.326
-630.522	651.480	0.045	-0.118
-629.507	182.766	-0.135	0.203
-628.492	155.205	-0.119	0.167
-627.478	320.055	0.035	0.068
-626.463	-0.657	0.087	0.062
-625.449	-200.000	-0.010	-0.136
-624.434	800.000	-0.031	0.123
-623.419	-77.338	-0.161	0.057
-622.405	-64.375	-0.310	0.128
-621.390	-182.781	0.320	0.006
-620.376	91.813	-0.211	-0.241
-619.361	174.552	-0.119	-0.175
-618.346	69.009	-0.217	0.227
-617.332	800.000	0.011	0.050
-616.317	800.000	0.081	0.294
-615.303	-77.747	0.071	-0.025
-614.288	-200.000	0.000	0.127
-613.273	-100.100	0.225	-0.057
-612.259	-200.000	0.034	0.251
-611.244	105.310	0.088	-0.106
-610.230	-155.671	-0.056	-0.004
-609.215	-154.015	-0.351	-0.024
-608.201	-37.746	0.118	0.064
-607.186	139.209	0.098	-0.131
-606.171	-200.000	0.054	-0.339
-605.157	-200.000	-0.018	-0.324
-604.142	-200.000	0.050	-0.272
-603.128	99.376	-0.127	-0.149
-602.113	113.277	-0.159	-0.195
-601.098	-65.125	-0.149	-0.061
-600.084	-170.523	0.221	0.008
-599.069	-200.000	0.065	-0.358
-598.055	76.377	0.094	-0.101
-597.040	43.912	-0.205	-0.190
-596.025	450.687	0.095	-0.213
-595.011	800.000	-0.013	0.050
-593.996	-200.000	-0.021	0.287
-592.982	304.741	-0.087	0.164
-591.967	78.628	0.232	0.252
-590.952	-47.491	-0.266	-0.131
-589.938	-200.000	-0.036	0.184
-588.923	-200.000	0.080	0.541
-587.909	-89.665	-0.363	0.108
-586.894	-162.513	0.146	-0.007
-585.879	85.695	-0.179	-0.199
-584.865	147.182	-0.016	0.022
-583.850	800.000	0.014	0.045
-582.836	-96.664	-0.132	0.035
-581.821	-73.242	0.303	0.112
-580.806	-200.000	0.001	0.099
-579.792	453.296	0.043	-0.095
-578.777	29.267	-0.151	-0.130
-577.763	77.209	0.057	0.061
-576.748	299.587	0.164	0.307
-575.733	226.762	0.137	-0.226
-574.719	474.838	-0.217	-0.496
-573.704	-31.143	-0.387	-0.221
-572.690	-89.061	-0.005	0.002
-571.675	-200.000	0.006	0.109
-570.661	37.241	0.180	-0.161
-569.646	100.885	0.085	0.101
-568.631	14.066	-0.093	-0.073
-567.617	526.018	-0.037	0.088
-566.602	22.582	0.112	0.093
-565.588	213.438	-0.142	-0.228
-564.573	499.244	0.079	0.185
-563.558	25.939	-0.171	-0.144
-562.544	269.188	-0.049	0.087
-561.529	-200.000	-0.029	-0.292
-560.515	-95.743	-0.241	-0.065
-559.500	741.393	-0.127	-0.347
-558.485	800.000	-0.041	-0.158
-557.471	125.958	-0.084	-0.108
-556.456	7.980	0.222	0.169
-555.442	55.707	0.100	-0.099
-554.427	-3.651	0.185	0.130
-553.412	20.233	-0.223	-0.183
-552.398	52.893	-0.205	0.199
-551.383	-200.000	0.054	0.277
-550.369	-164.075	0.232	0.011
-549.354	194.744	0.134	0.207
-548.339	-158.632	0.136	0.008
-547.325	-40.298	-0.271	-0.143
-546.310	-122.960	0.338	-0.055
-545.296	-98.751	0.083	0.021
-544.281	175.648	0.258	0.379
-543.266	-20.175	-0.227	0.142
-542.252	-116.757	0.430	0.080
-541.237	-117.858	-0.067	-0.012
-540.223	11.418	-0.230	-0.178
-539.208	-172.696	0.091	-0.003
-538.193	14.447	0.222	0.176
-537.179	-200.000	0.036	0.235
-536.164	-155.209	-0.071	0.005
-535.150	-153.412	0.246	0.017
-534.135	41.183	0.350	-0.320
-533.121	505.406	0.110	-0.257
-532.106	66.663	-0.010	-0.011
-531.091	-6.817	-0.216	0.149
-530.077	-150.481	-0.349	0.027
-529.062	-80.239	0.189	-0.064
-528.048	800.000	0.034	0.107
-527.033	-20.388	0.050	-0.031
-526.018	58.058	-0.167	0.166
-525.004	429.170	-0.045	-0.098
-523.989	-106.344	-0.083	-0.019
-522.975	17.836	-0.282	-0.227
-521.960	-47.505	-0.109	0.054
-520.945	-4.604	-0.378	-0.264
-519.931	13.429	-0.238	-0.187
-518.916	7.126	-0.117	-0.089
-517.902	-200.000	-0.015	-0.142
-516.887	-24.973	0.192	0.115
-515.872	58.330	0.119	-0.119
-514.858	176.925	0.090	-0.133
-513.843	-135.937	-0.309	0.037
-512.829	-200.000	-0.054	0.384
-511.814	800.000	0.026	-0.116
-510.799	-90.239	-0.216	-0.063
-509.785	-24.312	-0.116	-0.070
-508.770	6.290	-0.271	0.203
-507.756	-200.000	-0.013	0.269
-506.741	-148.870	0.199	0.016
-505.726	33.619	0.093	0.082
-504.712	172.784	0.168	0.244
-503.697	4.434	0.078	0.058
-502.683	-200.000	0.019	0.132
-501.668	-7.552	-0.290	0.199
-500.653	-51.621	0.326	0.154
-499.639	-62.538	-0.192	-0.081
-498.624	-200.000	0.041	-0.256
-497.610	290.283	0.118	0.216
-496.595	73.487	-0.203	-0.215
-495.581	-34.217	-0.187	0.104
-494.566	255.162	0.198	0.342
-493.551	-67.970	0.228	-0.090
-492.537	604.926	-0.082	-0.206
-491.522	-200.000	0.036	-0.308
-490.508	-100.895	0.167	-0.042
-489.493	-200.000	0.042	0.303
-488.478	-166.638	-0.242	-0.010
-487.464	-85.015	0.149	0.047
-486.449	742.771	-0.088	-0.240
-485.435	-71.849	-0.064	0.024
-484.420	588.652	-0.076	0.189
-483.405	-200.000	-0.000	-0.036
-482.391	13.230	0.063	0.049
-481.376	403.768	-0.091	-0.193
-480.362	-58.878	-0.438	0.192
-479.347	622.409	-0.071	0.180
-478.332	39.263	-0.111	0.100
-477.318	-149.570	0.339	-0.027
-476.303	-16.100	-0.048	-0.031
-475.289	-13.648	0.137	-0.090
-474.274	-68.329	-0.328	-0.129
-473.259	-77.635	-0.131	0.046
-472.245	114.349	0.350	-0.431
-471.230	39.055	-0.152	0.138
-470.216	39.448	-0.308	0.279
-469.201	800.000	-0.049	0.176
-468.186	18.365	-0.178	0.143
-467.172	-147.136	-0.219	-0.019
-466.157	-99.183	0.186	0.048
-465.143	-64.275	-0.317	0.130
-464.128	-116.081	0.197	-0.037
-463.113	-69.718	0.131	-0.051
-462.099	537.601	-0.144	-0.347
-461.084	-58.809	-0.192	0.084
-460.070	-84.266	0.098	0.031
-459.055	-116.624	0.260	0.048
-458.040	-200.000	-0.035	0.214
-457.026	-200.000	0.002	-0.262
-456.011	-20.878	-0.111	0.069
-454.997	7.055	0.273	-0.205
-453.982	-200.000	-0.006	0.086
-452.968	-200.000	0.017	0.089
-451.953	-200.000	-0.007	-0.107
-450.938	-200.000	0.059	-0.264
-449.924	20.520	0.445	0.363
-448.909	-90.880	-0.264	0.077
-447.895	-106.770	0.193	0.043
-446.880	-192.852	-0.120	-0.001
-445.865	189.013	-0.035	0.052
-444.851	-200.000	-0.048	0.342
-443.836	-133.841	0.451	-0.057
-442.822	72.933	-0.281	-0.296
-441.807	-78.991	-0.260	-0.089
-440.792	800.000	-0.065	-0.242
-439.778	115.638	-0.109	0.134
-438.763	437.209	0.055	-0.122
-437.749	-2.818	-0.043	0.030
-436.734	800.000	0.080	-0.290
-435.719	0.440	0.115	0.083
-434.705	-97.045	-0.287	-0.076
-433.690	91.049	0.053	0.060
-432.676	800.000	0.094	0.273
-431.661	116.226	0.295	0.365
-430.646	23.811	-0.063	-0.052
-429.632	254.635	-0.076	0.132
-428.617	-105.434	0.176	0.040
-427.603	85.843	0.230	0.255
-426.588	-73.572	-0.058	0.021
-425.573	233.483	0.079	0.130
-424.559	-200.000	0.093	0.437
-423.544	354.831	-0.089	-0.178
-422.530	800.000	-0.124	-0.399
-421.515	791.748	0.129	0.357
-420.500	-29.783	-0.128	0.073
-419.486	134.202	0.271	-0.355
-418.471	-92.406	0.155	0.044
-417.457	800.000	-0.014	0.058
-416.442	-200.000	0.011	-0.236
-415.428	110.033	0.185	0.223
-414.413	63.624	0.210	-0.213
-413.398	95.593	-0.134	-0.154
-412.384	130.654	-0.211	-0.272
-411.369	108.189	-0.179	-0.215
-410.355	-151.415	-0.227	0.017
-409.340	51.484	0.170	0.163
-408.325	117.183	0.079	0.098
-407.311	-103.383	-0.241	0.057
-406.296	244.720	0.110	0.186
-405.282	-106.497	-0.181	0.041
-404.267	-200.000	0.117	-0.000
-403.252	62.839	0.094	0.095
-402.238	-88.312	-0.051	-0.015
-401.223	291.112	0.099	-0.182
-400.209	-200.000	-0.054	-0.482
-399.194	-58.118	0.249	0.109
-398.179	-200.000	0.012	-0.087
-397.165	800.000	-0.078	-0.246
-396.150	269.519	0.167	-0.295
-395.136	130.289	-0.443	-0.571
-394.121	800.000	-0.023	-0.076
-393.106	-5.794	0.174	0.120
-392.092	-52.593	-0.283	0.131
-391.077	-36.105	0.372	-0.202
-390.063	800.000	0.033	0.109
-389.048	51.933	-0.128	0.123
-388.033	800.000	-0.056	-0.182
-387.019	207.452	0.077	-0.122
-386.004	272.244	-0.209	0.371
-384.990	-43.587	-0.098	-0.050
-383.975	-200.000	-0.004	-0.293
-382.960	161.967	-0.025	-0.035
-381.946	360.649	0.049	0.099
-380.931	-200.000	-0.023	0.144
-379.917	356.930	0.119	-0.238
-378.902	-91.380	-0.296	0.085
-377.888	147.313	-0.050	0.068
-376.873	372.046	0.100	0.205
-375.858	25.007	-0.173	-0.144
-374.844	-102.668	0.442	-0.106
-373.829	-200.000	-0.038	0.222
-372.815	-70.882	-0.185	0.070
-371.800	104.508	0.102	-0.120
-370.785	667.934	-0.071	0.185
-369.771	-200.000	-0.028	0.164
-368.756	-56.203	0.058	-0.026
-367.742	800.000	0.077	0.233
-366.727	309.296	0.110	0.206
-365.712	755.824	0.033	-0.091
-364.698	800.000	-0.079	0.340
-363.683	397.725	-0.140	-0.295
-362.669	-200.000	-0.049	0.316
-361.654	69.210	-0.156	-0.162
-360.639	-143.257	-0.259	0.025
-359.625	-200.000	0.035	-0.269
-358.610	116.042	-0.234	0.288
-357.596	-99.463	0.107	-0.027
-356.581	17.839	0.313	0.251
-355.566	118.709	0.276	0.343
-354.552	91.255	-0.152	-0.172
-353.537	-10.965	0.105	-0.069
-352.523	120.729	-0.043	-0.053
-351.508	29.519	-0.189	-0.162
-350.493	-123.475	0.178	0.028
-349.479	28.539	-0.265	0.225
-348.464	-92.012	-0.218	-0.062
-347.450	181.898	0.060	-0.089
-346.435	144.182	-0.055	-0.074
-345.420	149.228	0.146	-0.199
-344.406	-78.895	0.201	-0.069
-343.391	-133.782	-0.217	-0.027
-342.377	-116.657	0.374	0.069
-341.362	-200.000	0.028	-0.225
-340.348	-200.000	-0.005	-0.031
-339.333	-59.271	-0.104	-0.045
-338.318	-200.000	-0.045	-0.249
-337.304	4.070	0.163	0.120
-336.289	-76.607	-0.104	0.037
-335.275	-200.000	0.018	0.226
-334.260	65.007	0.159	-0.161
-333.245	278.465	-0.073	-0.131
-332.231	-85.274	-0.064	-0.020
-331.216	-191.703	0.158	0.002
-330.202	484.699	-0.081	-0.185
-329.187	-49.007	-0.316	0.152
-328.172	-200.000	0.029	0.160
-327.158	3.916	0.046	0.034
-326.143	-56.669	-0.254	-0.113
-325.129	-200.000	-0.049	-0.308
-324.114	-200.000	-0.017	-0.334
-323.099	1.000	0.299	-0.215
-322.085	-113.401	0.074	0.015
-321.070	47.088	0.066	0.061
-320.056	-65.322	-0.162	0.066
-319.041	73.705	-0.123	0.130
-318.026	404.283	0.053	0.113
-317.012	633.890	-0.014	0.036
-315.997	-140.503	-0.120	-0.013
-314.983	677.232	0.022	-0.057
-313.968	-53.431	-0.200	-0.092
-312.953	-12.502	0.049	-0.032
-311.939	31.826	0.073	0.063
-310.924	-92.889	0.369	0.104
-309.910	-50.165	-0.151	-0.072
-308.895	-108.268	0.134	-0.029
-307.880	127.245	-0.225	-0.286
-306.866	800.000	0.081	-0.275
-305.851	71.004	0.119	0.124
-304.837	-86.528	0.244	0.075
-303.822	-200.000	0.009	-0.062
-302.807	-109.167	-0.214	0.046
-301.793	-44.590	0.291	0.146
-300.778	102.883	-0.138	0.162
-299.764	230.746	-0.216	-0.355
-298.749	-99.187	0.311	0.079
-297.735	-167.608	0.095	0.004
-296.720	321.813	-0.072	0.137
-295.705	-2.633	-0.135	-0.095
-294.691	64.356	0.071	0.071
-293.676	-56.005	-0.287	0.128
-292.662	101.171	0.372	0.434
-291.647	-200.000	0.020	0.100
-290.632	48.054	0.173	0.163
-289.618	131.281	-0.093	-0.119
-288.603	-200.000	-0.062	0.552
-287.589	89.260	-0.159	0.178
-286.574	-113.946	0.032	0.006
-285.559	-13.317	0.070	0.045
-284.545	-200.000	-0.022	0.406
-283.530	-200.000	0.030	-0.216
-282.516	-200.000	0.010	-0.057
-281.501	-45.704	0.102	-0.050
-280.486	350.349	0.204	0.403
-279.472	-195.931	0.258	-0.002
-278.457	-66.796	-0.345	-0.137
-277.443	800.000	0.051	-0.176
-276.428	424.524	-0.080	0.172
-275.413	-143.680	0.144	-0.014
-274.399	-79.998	0.081	0.027
-273.384	-200.000	-0.064	0.364
-272.370	-200.000	-0.037	0.279
-271.355	-102.726	0.308	-0.074
-270.340	45.152	-0.093	-0.086
-269.326	-103.722	0.362	0.085
-268.311	396.817	0.175	0.366
-267.297	-4.696	-0.146	0.101
-266.282	800.000	-0.089	-0.316
-265.267	-22.019	-0.279	0.170
-264.253	-200.000	-0.026	0.210
-263.238	-11.515	0.044	-0.029
-262.224	-120.274	0.150	-0.026
-261.209	451.579	0.096	-0.213
-260.195	-76.062	0.146	0.052
-259.180	-174.488	0.230	0.007
-258.165	800.000	-0.052	0.188
-257.151	-6.613	-0.168	0.114
-256.136	-137.677	-0.093	-0.010
-255.122	-43.119	-0.123	-0.062
-254.107	370.312	0.146	-0.297
-253.092	-13.255	0.123	-0.080
-252.078	16.485	0.108	-0.085
-251.063	-167.751	-0.297	-0.012
-250.049	195.296	-0.066	-0.101
-249.034	-200.000	0.016	0.128
-248.019	-200.000	0.001	0.220
-247.005	-50.212	-0.170	0.080
-245.990	177.912	0.104	0.151
-244.976	-200.000	0.013	-0.073
-243.961	-13.299	0.393	-0.255
-242.946	-5.893	-0.170	-0.117
-241.932	-175.880	-0.124	-0.003
-240.917	-77.003	0.281	-0.098
-239.903	-102.758	0.077	-0.018
-238.888	-200.000	-0.039	0.174
-237.873	-3.152	-0.198	0.138
-236.859	238.021	0.337	-0.560
-235.844	-200.000	0.010	0.263
-234.830	800.000	-0.093	0.292
-233.815	31.584	-0.076	-0.066
-232.800	-200.000	-0.062	0.300
-231.786	-52.126	0.147	0.068
-230.771	-200.000	0.009	-0.277
-229.757	304.028	-0.029	-0.054
-228.742	-200.000	-0.008	-0.118
-227.727	94.100	0.268	0.304
-226.713	-128.747	0.070	-0.010
-225.698	800.000	0.006	-0.019
-224.684	-198.436	-0.140	-0.001
-223.669	-200.000	-0.034	-0.199
-222.655	-200.000	-0.034	-0.209
-221.640	-74.769	-0.144	0.052
-220.625	268.879	-0.144	-0.252
-219.611	380.676	-0.074	-0.152
-218.596	-200.000	0.016	0.228
-217.582	-182.864	-0.234	-0.004
-216.567	-1.191	0.143	-0.101
-215.552	226.441	-0.089	-0.145
-214.538	-81.025	-0.208	0.069
-213.523	-118.103	-0.240	-0.043
-212.509	322.814	-0.055	-0.105
-211.494	-200.000	-0.043	-0.307
-210.479	-200.000	0.001	0.280
-209.465	65.538	0.146	0.147
-208.450	121.598	-0.186	-0.232
-207.436	-85.099	-0.178	0.056
-206.421	-147.901	0.131	-0.011
-205.406	-104.823	-0.156	-0.036
-204.392	-200.000	0.013	-0.270
-203.377	-8.416	0.165	-0.111
-202.363	274.544	0.176	-0.312
-201.348	-95.984	0.189	-0.050
-200.333	87.899	0.231	-0.256
-199.319	-19.770	-0.202	0.125
-198.304	-200.000	0.025	0.308
-197.290	508.183	0.060	0.139
-196.275	22.298	-0.148	-0.121
-195.260	-166.847	-0.114	0.005
-194.246	100.975	0.069	0.080
-193.231	133.378	0.196	-0.253
-192.217	-150.211	0.239	0.018
-191.202	-200.000	-0.060	0.301
-190.187	521.951	-0.077	0.180
-189.173	24.664	0.047	0.039
-188.158	-200.000	-0.044	-0.218
-187.144	800.000	0.021	0.087
-186.129	-129.698	-0.142	-0.019
-185.114	800.000	0.059	0.211
-184.100	115.145	0.118	0.143
-183.085	-103.567	0.325	-0.076
-182.071	81.948	0.264	0.286
-181.056	194.934	0.118	0.179
-180.042	-97.886	-0.184	0.047
-179.027	-52.798	0.262	0.121
-178.012	21.700	0.435	-0.353
-176.998	154.779	0.090	-0.123
-175.983	75.931	0.175	-0.184
-174.969	800.000	-0.037	0.137
-173.954	-47.795	-0.021	-0.010
-172.939	-9.624	-0.179	-0.119
-171.925	-64.807	-0.283	0.114
-170.910	121.704	0.083	-0.104
-169.896	-15.197	0.318	-0.203
-168.881	-200.000	0.002	-0.220
-167.866	84.649	0.073	-0.080
-166.852	-83.972	0.157	-0.050
-165.837	27.855	0.197	0.166
-164.823	-99.220	-0.086	0.022
-163.808	-24.975	-0.307	0.182
-162.793	-17.061	0.107	-0.068
-161.779	-200.000	-0.045	-0.360
-160.764	-117.008	-0.255	-0.046
-159.750	-76.036	0.174	0.061
-158.735	800.000	0.023	-0.085
-157.720	-200.000	-0.024	0.109
-156.706	-200.000	-0.026	0.296
-155.691	-177.223	0.200	-0.005
-154.677	-200.000	0.047	-0.439
-153.662	416.787	0.045	0.096
-152.647	29.487	-0.063	-0.054
-151.633	27.317	-0.087	0.073
-150.618	-156.680	0.196	-0.012
-149.604	-136.560	-0.108	-0.013
-148.589	-200.000	0.224	0.001
-147.574	78.043	-0.105	-0.111
-146.560	343.948	-0.090	0.176
-145.545	259.260	0.026	0.045
-144.531	21.525	-0.205	0.166
-143.516	-81.613	0.226	-0.074
-142.502	-54.664	-0.291	0.131
-141.487	67.866	-0.206	0.211
-140.472	800.000	0.036	0.129
-139.458	67.591	-0.042	0.043
-138.443	248.406	0.025	0.042
-137.429	78.026	0.077	0.082
-136.414	-200.000	-0.009	0.041
-135.399	-200.000	-0.009	-0.253
-134.385	-39.221	0.077	0.040
-133.370	56.880	-0.070	0.068
-132.356	-200.000	-0.033	-0.159
-131.341	-169.329	0.095	0.004
-130.326	138.161	-0.171	0.223
-129.312	70.744	0.042	0.044
-128.297	-61.296	-0.142	0.060
-127.283	-135.224	0.163	0.020
-126.268	-20.341	0.076	0.046
-125.253	287.660	-0.075	0.135
-124.239	-45.135	-0.146	0.072
-123.224	-159.177	0.049	-0.003
-122.210	14.910	-0.336	-0.262
-121.195	-45.360	-0.208	0.103
