DTS Sentinel unit serial number:	SN413079Multiplexer serial number:	ORYXHardware model number:	OX4-SRSoftware version number:	ORYX F/W v4.00 Oryx Data Collector v3.7.2.0data status	okinstallation	princeton_trtdifferential loss correction	single-endedforward channel	channel 4reverse channel	N/Adate	2019/09/16time	21:49:35forward acquisition time	60.00reverse acquisition time	0.00gamma	496.2192k internal	0.2313k external	0.2313temperature offset calibration	0.9967default loss term (dB/km)	0.3790temperature slope calibration	1.0000multiplexer offset coefficient	1.0000multiplexer slope coefficient	1.0000fibre end	0.00T internal ref (°C)	31.25T ext. ref 1 (°C)	0.07T ext. ref 2 (°C)	25.57length (m)	temperature (°C)	Stokes	anti-Stokes-747.200	-88.353	-0.152	-0.046
-746.185	-80.271	-0.075	0.026
-745.171	-200.000	0.029	0.227
-744.156	800.000	0.096	0.355
-743.142	41.553	-0.113	0.104
-742.127	-200.000	0.016	-0.162
-741.112	-147.944	0.215	0.018
-740.098	13.543	0.136	-0.107
-739.083	-144.028	0.188	0.018
-738.069	-49.953	0.161	0.077
-737.054	-132.197	0.286	-0.038
-736.039	-77.501	-0.398	-0.140
-735.025	279.246	0.194	-0.352
-734.010	-41.124	-0.510	-0.267
-732.996	29.950	0.125	-0.108
-731.981	-200.000	0.051	0.271
-730.966	-200.000	0.005	-0.196
-729.952	800.000	-0.030	-0.112
-728.937	-76.358	-0.167	0.060
-727.923	-45.925	0.334	0.167
-726.908	-159.119	-0.139	-0.008
-725.894	-60.872	-0.085	-0.037
-724.879	49.113	-0.095	0.090
-723.864	99.233	-0.028	0.033
-722.850	800.000	0.079	-0.344
-721.835	-40.322	0.151	-0.080
-720.821	800.000	-0.032	0.111
-719.806	-141.125	-0.161	0.017
-718.791	-61.877	0.164	-0.070
-717.777	-200.000	-0.008	0.102
-716.762	58.372	-0.125	-0.124
-715.748	147.295	-0.114	-0.155
-714.733	-106.330	-0.176	-0.040
-713.718	80.746	0.119	-0.130
-712.704	10.213	-0.046	0.035
-711.689	800.000	0.079	-0.266
-710.675	-66.360	-0.140	0.056
-709.660	-33.381	0.118	0.066
-708.645	-86.608	-0.104	-0.032
-707.631	229.254	0.109	-0.180
-706.616	-115.663	-0.359	0.068
-705.602	6.727	0.179	-0.135
-704.587	-46.516	-0.240	0.119
-703.572	56.850	0.304	-0.300
-702.558	53.176	-0.129	-0.125
-701.543	800.000	-0.062	-0.214
-700.529	-52.758	-0.112	0.052
-699.514	-31.147	0.112	0.064
-698.499	41.532	0.091	0.083
-697.485	13.678	0.082	0.064
-696.470	440.998	0.080	-0.176
-695.456	-35.533	-0.223	-0.122
-694.441	35.764	-0.096	-0.085
-693.426	149.510	0.063	-0.087
-692.412	373.977	-0.108	-0.223
-691.397	-66.063	0.198	-0.080
-690.383	-200.000	0.011	-0.128
-689.368	-37.478	0.174	-0.094
-688.354	-200.000	0.041	0.281
-687.339	273.841	0.110	0.197
-686.324	-200.000	-0.050	0.273
-685.310	-73.338	-0.173	-0.064
-684.295	-200.000	0.032	-0.277
-683.281	-200.000	0.039	-0.278
-682.266	-42.464	-0.109	-0.056
-681.251	135.886	0.118	-0.155
-680.237	800.000	0.069	-0.244
-679.222	-10.747	-0.113	-0.075
-678.208	-200.000	-0.043	0.269
-677.193	-127.190	0.071	-0.011
-676.178	-200.000	-0.016	-0.110
-675.164	-28.030	0.488	-0.286
-674.149	-65.170	-0.416	-0.169
-673.135	516.703	-0.071	-0.167
-672.120	-200.000	-0.007	0.152
-671.105	-81.553	-0.124	-0.041
-670.091	365.267	-0.059	0.121
-669.076	-24.021	-0.352	-0.213
-668.062	-5.250	-0.125	-0.087
-667.047	-200.000	0.025	0.113
-666.032	-118.844	0.211	0.038
-665.018	5.329	-0.055	-0.041
-664.003	51.864	0.102	0.098
-662.989	36.112	-0.163	0.145
-661.974	323.916	0.035	-0.068
-660.959	42.269	0.085	-0.078
-659.945	-119.412	-0.263	0.046
-658.930	41.447	-0.291	-0.266
-657.916	-52.049	0.195	-0.091
-656.901	-80.629	-0.111	0.037
-655.886	-200.000	-0.022	-0.147
-654.872	791.505	-0.035	-0.098
-653.857	-184.434	-0.039	0.001
-652.843	649.738	0.069	0.179
-651.828	-24.834	0.039	-0.024
-650.814	-200.000	-0.009	-0.274
-649.799	56.328	-0.316	-0.311
-648.784	800.000	-0.117	-0.434
-647.770	-200.000	-0.019	-0.390
-646.755	10.146	-0.206	0.158
-645.741	-8.547	-0.268	0.182
-644.726	-104.168	0.253	-0.059
-643.711	-200.000	-0.012	0.108
-642.697	33.993	0.075	0.066
-641.682	287.565	0.113	-0.207
-640.668	-31.111	0.111	0.064
-639.653	32.610	-0.103	-0.090
-638.638	-200.000	-0.034	0.360
-637.624	800.000	-0.043	-0.173
-636.609	-169.623	-0.206	-0.008
-635.595	800.000	-0.036	-0.115
-634.580	202.979	0.220	-0.343
-633.565	-59.800	0.099	-0.043
-632.551	304.907	-0.099	0.185
-631.536	-200.000	-0.011	-0.530
-630.522	-200.000	-0.043	0.233
-629.507	-55.143	-0.311	-0.141
-628.492	84.597	-0.287	0.317
-627.478	-10.114	0.163	-0.109
-626.463	-101.339	-0.169	0.042
-625.449	103.559	0.211	-0.250
-624.434	0.754	0.129	0.093
-623.419	65.550	-0.138	0.141
-622.405	-200.000	0.018	0.095
-621.390	-65.940	0.145	0.058
-620.376	134.420	0.185	-0.242
-619.361	-155.927	-0.251	-0.016
-618.346	-149.406	0.411	0.033
-617.332	83.190	-0.163	-0.180
-616.317	189.102	0.114	0.172
-615.303	-0.988	-0.313	0.223
-614.288	-200.000	0.000	0.128
-613.273	-128.843	-0.317	0.045
-612.259	-4.384	0.134	-0.093
-611.244	-58.230	-0.335	-0.147
-610.230	-137.804	-0.441	0.050
-609.215	12.157	0.085	0.066
-608.201	-200.000	-0.129	-0.000
-607.186	55.988	-0.191	-0.187
-606.171	-117.366	-0.245	0.045
-605.157	-51.330	-0.217	0.103
-604.142	-74.374	-0.436	0.159
-603.128	50.606	0.113	-0.108
-602.113	-200.000	-0.289	0.000
-601.098	379.761	0.128	0.265
-600.084	-200.000	-0.020	-0.184
-599.069	69.271	-0.090	-0.094
-598.055	-131.859	0.108	0.014
-597.040	70.664	-0.016	-0.017
-596.025	-200.000	0.008	0.089
-595.011	-66.419	0.147	-0.059
-593.996	39.863	0.161	-0.146
-592.982	5.756	0.506	0.377
-591.967	176.530	-0.107	-0.158
-590.952	-136.902	0.349	-0.040
-589.938	-18.866	-0.168	-0.105
-588.923	-53.668	0.136	0.063
-587.909	-42.053	0.083	0.043
-586.894	57.010	-0.105	-0.103
-585.879	-113.380	-0.200	0.039
-584.865	-39.710	0.033	-0.017
-583.850	-31.651	0.175	0.099
-582.836	694.938	0.057	0.151
-581.821	-31.431	-0.340	-0.193
-580.806	106.920	-0.167	-0.200
-579.792	262.703	0.097	0.170
-578.777	800.000	-0.113	-0.376
-577.763	-42.689	0.280	-0.144
-576.748	-151.664	-0.410	-0.031
-575.733	4.178	-0.100	-0.074
-574.719	760.047	-0.040	-0.110
-573.704	-20.980	-0.192	0.118
-572.690	689.200	-0.009	-0.023
-571.675	-45.826	-0.191	0.095
-570.661	328.210	0.199	0.385
-569.646	-200.000	0.003	0.192
-568.631	-77.800	0.391	-0.136
-567.617	-38.259	0.083	0.044
-566.602	-184.314	-0.194	-0.003
-565.588	428.422	0.158	0.344
-564.573	-200.000	0.031	0.333
-563.558	-200.000	-0.388	-0.000
-562.544	800.000	-0.032	0.119
-561.529	-87.215	0.244	0.075
-560.515	-171.398	-0.144	-0.005
-559.500	-51.540	0.330	-0.155
-558.485	-200.000	0.087	-0.386
-557.471	445.853	-0.106	-0.234
-556.456	-69.932	0.124	0.048
-555.442	219.434	0.061	-0.099
-554.427	-40.686	-0.368	-0.192
-553.412	-52.553	0.217	-0.101
-552.398	800.000	-0.077	-0.298
-551.383	-47.418	-0.056	-0.028
-550.369	185.301	0.184	0.275
-549.354	-25.371	0.226	-0.135
-548.339	-82.121	-0.099	-0.033
-547.325	-200.000	0.051	-0.432
-546.310	-119.461	0.167	0.029
-545.296	-200.000	-0.013	0.333
-544.281	-200.000	0.007	0.065
-543.266	11.690	-0.211	0.163
-542.252	-43.409	0.173	-0.088
-541.237	-47.591	0.125	0.061
-540.223	181.849	0.217	0.322
-539.208	479.407	0.017	-0.038
-538.193	8.957	0.127	-0.096
-537.179	800.000	-0.069	-0.218
-536.164	-3.114	0.078	-0.055
-535.150	158.788	0.175	0.244
-534.135	-113.517	0.299	-0.059
-533.121	123.329	0.080	-0.101
-532.106	-200.000	-0.002	0.356
-531.091	346.919	0.172	-0.341
-530.077	-200.000	-0.040	0.189
-529.062	48.933	0.168	0.159
-528.048	254.945	-0.141	-0.244
-527.033	-200.000	-0.097	-0.462
-526.018	-31.402	0.307	0.174
-525.004	-71.348	-0.118	-0.044
-523.989	-94.415	-0.282	0.077
-522.975	89.928	0.080	0.090
-521.960	800.000	0.124	-0.443
-520.945	-152.626	0.179	-0.013
-519.931	-133.761	-0.194	-0.024
-518.916	800.000	-0.152	-0.598
-517.902	79.132	-0.138	-0.149
-516.887	-10.751	-0.064	0.043
-515.872	-31.898	-0.074	-0.042
-514.858	-88.248	-0.154	0.046
-513.843	-92.150	0.270	-0.077
-512.829	183.104	-0.144	0.213
-511.814	-93.216	0.412	-0.115
-510.799	-7.283	0.097	0.066
-509.785	-47.733	0.053	-0.026
-508.770	-71.707	-0.112	0.042
-507.756	-17.637	0.150	-0.095
-506.741	-76.897	-0.195	-0.069
-505.726	-112.134	0.350	0.071
-504.712	800.000	0.028	0.092
-503.697	-200.000	0.017	0.093
-502.683	800.000	0.067	-0.231
-501.668	-72.432	-0.267	0.099
-500.653	10.240	0.284	0.217
-499.639	-200.000	0.046	0.393
-498.624	-47.001	0.072	0.035
-497.610	-148.649	-0.235	-0.019
-496.595	272.585	0.129	0.228
-495.581	7.277	0.315	0.236
-494.566	81.143	-0.142	-0.154
-493.551	94.865	0.086	0.099
-492.537	-89.102	0.282	0.084
-491.522	-2.106	-0.439	-0.310
-490.508	800.000	-0.026	-0.106
-489.493	800.000	-0.057	0.217
-488.478	29.852	-0.280	0.239
-487.464	-123.875	0.166	-0.026
-486.449	-112.820	0.054	-0.011
-485.435	-34.581	-0.245	-0.135
-484.420	-96.260	-0.394	-0.105
-483.405	101.201	-0.209	0.244
-482.391	56.123	0.096	0.093
-481.376	20.253	0.145	-0.117
-480.362	-164.790	0.249	-0.011
-479.347	163.067	0.232	0.327
-478.332	-107.901	0.104	0.023
-477.318	-17.067	-0.070	-0.044
-476.303	156.786	-0.078	0.108
-475.289	78.912	0.284	0.305
-474.274	279.067	0.080	-0.144
-473.259	171.581	0.120	0.174
-472.245	-44.673	-0.260	-0.130
-471.230	479.450	-0.196	-0.445
-470.216	-200.000	-0.040	0.204
-469.201	272.812	-0.034	-0.060
-468.186	-134.350	0.233	-0.029
-467.172	800.000	0.048	-0.209
-466.157	-36.496	0.091	-0.049
-465.143	374.504	0.191	0.391
-464.128	9.558	0.109	0.083
-463.113	19.387	-0.038	0.030
-462.099	-102.211	0.327	0.079
-461.084	90.108	-0.182	0.204
-460.070	11.287	0.289	0.222
-459.055	-0.125	-0.143	0.102
-458.040	64.311	-0.142	0.144
-457.026	287.525	0.092	0.168
-456.011	-43.632	-0.269	-0.136
-454.997	28.998	-0.208	0.177
-453.982	-52.251	0.204	-0.095
-452.968	134.280	0.053	0.069
-451.953	-89.848	0.084	-0.025
-450.938	-189.007	-0.217	-0.003
-449.924	-42.867	-0.110	0.056
-448.909	-200.000	0.258	-0.001
-447.895	238.382	-0.116	-0.193
-446.880	-200.000	-0.037	-0.271
-445.865	-110.175	0.076	-0.016
-444.851	-200.000	0.050	0.231
-443.836	-54.112	0.235	-0.107
-442.822	-200.000	-0.013	0.086
-441.807	167.106	-0.097	0.139
-440.792	-200.000	-0.003	0.048
-439.778	-200.000	0.047	-0.296
-438.763	-11.396	0.280	-0.185
-437.749	-200.000	-0.008	0.169
-436.734	-152.812	-0.199	0.014
-435.719	-183.739	0.172	-0.003
-434.705	800.000	-0.093	-0.345
-433.690	800.000	-0.056	-0.159
-432.676	-47.272	0.223	-0.109
-431.661	-200.000	-0.047	-0.294
-430.646	-23.979	-0.254	-0.152
-429.632	-200.000	-0.015	-0.180
-428.617	253.264	0.158	-0.271
-427.603	-72.352	0.470	0.174
-426.588	-32.444	-0.312	0.174
-425.573	427.463	0.065	-0.140
-424.559	-106.196	0.101	-0.023
-423.544	-127.646	-0.088	0.013
-422.530	689.172	0.059	-0.155
-421.515	103.955	0.260	0.306
-420.500	-155.807	-0.129	-0.008
-419.486	14.963	-0.176	-0.138
-418.471	-135.067	-0.213	0.026
-417.457	-200.000	-0.010	-0.265
-416.442	-52.399	-0.019	-0.009
-415.428	-200.000	0.034	0.426
-414.413	122.122	-0.178	0.222
-413.398	-200.000	-0.041	0.238
-412.384	800.000	0.072	0.238
-411.369	0.421	0.281	-0.201
-410.355	386.956	0.011	0.022
-409.340	492.029	-0.201	0.461
-408.325	-154.371	0.124	0.008
-407.311	-165.141	0.288	0.013
-406.296	-109.537	-0.591	-0.125
-405.282	542.236	-0.155	0.370
-404.267	-36.817	-0.215	0.115
-403.252	-57.036	0.244	-0.108
-402.238	11.888	0.373	-0.287
-401.223	800.000	-0.028	0.104
-400.209	294.300	0.308	0.563
-399.194	-200.000	-0.024	-0.225
-398.179	5.528	0.337	0.249
-397.165	145.229	0.148	0.198
-396.150	-16.397	-0.160	-0.102
-395.136	-91.825	-0.285	-0.081
-394.121	-168.930	-0.452	0.017
-393.106	124.474	0.199	0.251
-392.092	-47.447	-0.348	-0.169
-391.077	141.348	0.297	-0.394
-390.063	-126.834	-0.284	0.042
-389.048	-19.347	-0.130	-0.081
-388.033	25.751	0.174	-0.145
-387.019	-83.929	0.119	-0.038
-386.004	579.595	0.058	-0.142
-384.990	0.626	-0.144	0.103
-383.975	-200.000	-0.013	0.170
-382.960	800.000	0.056	0.170
-381.946	-161.394	-0.308	0.016
-380.931	-121.114	-0.147	-0.025
-379.917	-200.000	0.019	0.176
-378.902	-23.434	-0.116	-0.070
-377.888	25.843	0.136	0.113
-376.873	-3.066	-0.095	0.066
-375.858	-200.000	-0.013	-0.135
-374.844	427.993	0.113	0.244
-373.829	444.745	-0.043	0.093
-372.815	800.000	-0.054	0.191
-371.800	800.000	-0.184	-0.598
-370.785	48.912	-0.119	-0.112
-369.771	-79.816	-0.137	0.046
-368.756	800.000	0.087	0.247
-367.742	75.614	-0.066	0.069
-366.727	800.000	-0.033	-0.104
-365.712	-53.568	-0.216	0.099
-364.698	-58.620	0.256	0.111
-363.683	195.368	0.097	0.147
-362.669	-200.000	0.027	0.319
-361.654	-42.691	0.185	-0.094
-360.639	800.000	0.018	0.052
-359.625	-200.000	0.031	0.190
-358.610	-200.000	-0.044	0.223
-357.596	-200.000	-0.015	-0.223
-356.581	-82.474	-0.204	-0.066
-355.566	51.084	-0.102	-0.097
-354.552	-200.000	-0.047	-0.246
-353.537	350.913	0.226	0.447
-352.523	423.067	-0.193	-0.414
-351.508	124.659	0.125	0.157
-350.493	37.351	-0.212	0.188
-349.479	-71.272	-0.282	0.106
-348.464	-198.918	0.185	-0.001
-347.450	164.753	-0.173	-0.244
-346.435	-49.581	0.082	0.039
-345.420	-200.000	0.039	-0.181
-344.406	-190.045	-0.374	0.004
-343.391	-39.623	-0.262	0.137
-342.377	60.676	0.195	-0.193
-341.362	333.706	0.153	-0.296
-340.348	14.587	-0.272	0.212
-339.333	570.821	-0.087	-0.210
-338.318	235.524	0.116	-0.192
-337.304	25.538	0.132	-0.110
-336.289	98.054	0.241	-0.277
-335.275	11.409	0.372	-0.285
-334.260	-200.000	-0.013	0.130
-333.245	-200.000	0.007	-0.237
-332.231	158.751	-0.070	-0.098
-331.216	-7.969	0.291	-0.196
-330.202	3.958	0.382	0.279
-329.187	586.128	-0.081	-0.199
-328.172	-31.323	0.357	0.201
-327.158	-23.080	0.221	-0.133
-326.143	-200.000	-0.042	0.207
-325.129	-200.000	-0.023	0.274
-324.114	-122.725	0.415	0.067
-323.099	113.878	0.109	0.132
-322.085	130.710	0.042	0.053
-321.070	-109.988	0.248	-0.052
-320.056	-41.242	-0.225	0.116
-319.041	174.383	0.222	-0.320
-318.026	-191.512	-0.219	-0.002
-317.012	-51.169	-0.108	-0.051
-315.997	165.874	-0.099	0.140
-314.983	-57.555	0.297	-0.130
-313.968	-200.000	0.065	-0.325
-312.953	-79.745	-0.288	-0.097
-311.939	-119.307	0.352	-0.061
-310.924	-29.088	-0.141	0.081
-309.910	30.096	-0.199	-0.170
-308.895	36.899	0.200	-0.177
-307.880	-200.000	0.021	0.196
-306.866	95.085	0.094	0.107
-305.851	800.000	-0.038	0.138
-304.837	-200.000	-0.014	-0.264
-303.822	186.493	0.038	0.057
-302.807	-101.917	-0.148	-0.036
-301.793	800.000	0.094	-0.261
-300.778	-59.268	-0.186	-0.080
-299.764	263.474	0.126	-0.218
-298.749	141.199	0.111	0.146
-297.735	37.214	0.083	0.073
-296.720	331.700	-0.118	0.226
-295.705	117.615	-0.092	-0.113
-294.691	17.527	0.143	0.114
-293.676	-200.000	-0.072	0.411
-292.662	407.252	0.036	0.077
-291.647	-90.685	-0.075	0.022
-290.632	-69.480	0.241	0.092
-289.618	95.389	-0.105	-0.119
-288.603	-200.000	0.009	0.060
-287.589	-122.953	-0.350	0.056
-286.574	-0.246	-0.250	0.177
-285.559	800.000	0.034	-0.100
-284.545	-34.843	0.128	-0.070
-283.530	-200.000	0.033	0.352
-282.516	152.256	-0.102	0.138
-281.501	266.151	-0.108	-0.188
-280.486	508.419	0.075	-0.174
-279.472	-174.805	-0.205	-0.006
-278.457	-47.046	-0.027	0.013
-277.443	-132.986	0.222	-0.028
-276.428	311.526	-0.146	0.273
-275.413	-5.479	-0.092	-0.063
-274.399	40.675	-0.067	0.060
-273.384	800.000	-0.032	0.135
-272.370	139.766	-0.023	0.030
-271.355	-57.366	0.119	0.052
-270.340	15.740	0.177	0.139
-269.326	-200.000	0.011	-0.292
-268.311	-121.822	-0.399	-0.066
-267.297	-200.000	-0.155	-0.000
-266.282	7.129	0.118	0.087
-265.267	-66.912	-0.330	0.130
-264.253	85.448	0.141	-0.154
-263.238	-200.000	0.010	-0.147
-262.224	800.000	0.105	-0.339
-261.209	800.000	0.010	-0.038
-260.195	595.868	0.054	0.133
-259.180	-117.848	0.270	0.048
-258.165	126.635	-0.123	0.155
-257.151	800.000	-0.084	0.306
-256.136	800.000	0.034	-0.114
-255.122	109.166	0.052	0.062
-254.107	800.000	0.056	0.181
-253.092	-122.628	0.332	0.054
-252.078	169.404	0.100	-0.141
-251.063	-33.583	-0.147	0.081
-250.049	72.778	-0.026	-0.027
-249.034	800.000	-0.033	0.107
-248.019	208.726	0.054	0.084
-247.005	-16.992	0.105	0.066
-245.990	-93.648	0.224	-0.062
-244.976	7.381	-0.045	-0.034
-243.961	-69.664	0.169	0.064
-242.946	72.090	-0.341	-0.353
-241.932	68.748	0.173	-0.177
-240.917	-200.000	-0.015	0.182
-239.903	-33.817	0.243	0.133
-238.888	125.779	-0.198	-0.248
-237.873	43.080	0.100	-0.091
-236.859	-180.030	-0.212	0.004
-235.844	61.325	0.404	0.399
-234.830	56.617	0.264	-0.255
-233.815	366.337	0.084	0.168
-232.800	-18.366	0.136	-0.084
-231.786	103.745	0.194	-0.227
-230.771	-121.311	-0.266	0.044
-229.757	-62.022	-0.240	-0.099
-228.742	83.819	0.329	-0.357
-227.727	195.909	-0.151	-0.228
-226.713	-154.811	0.084	0.006
-225.698	-0.151	0.102	0.072
-224.684	4.887	-0.145	-0.106
-223.669	14.738	-0.065	0.050
-222.655	36.483	0.076	0.067
-221.640	229.901	-0.239	0.388
-220.625	-154.722	-0.281	-0.019
-219.611	800.000	-0.084	0.259
-218.596	59.883	0.228	-0.223
-217.582	-14.259	-0.207	-0.132
-216.567	37.475	-0.161	-0.142
-215.552	1.898	-0.100	-0.072
-214.538	-66.603	0.364	-0.143
-213.523	-40.599	-0.193	0.099
-212.509	-65.466	-0.318	0.127
-211.494	-111.437	-0.039	0.008
-210.479	129.838	-0.169	-0.215
-209.465	-14.661	0.102	0.065
-208.450	501.937	-0.059	0.134
-207.436	225.202	0.050	-0.080
-206.421	145.419	0.242	-0.322
-205.406	229.501	-0.067	-0.109
-204.392	587.375	0.103	0.253
-203.377	-111.822	0.311	0.063
-202.363	-76.812	0.097	-0.034
-201.348	-24.384	-0.439	0.260
-200.333	-20.113	0.067	-0.041
-199.319	277.912	0.109	0.192
-198.304	-200.000	-0.094	-0.422
-197.290	-78.207	-0.175	-0.060
-196.275	118.709	0.195	0.239
-195.260	-200.000	0.033	0.173
-194.246	-58.663	-0.152	-0.065
-193.231	377.567	0.066	0.134
-192.217	-152.735	-0.040	-0.003
-191.202	-198.848	-0.146	0.001
-190.187	-128.539	-0.147	0.021
-189.173	-2.067	0.224	0.156
-188.158	480.343	-0.082	0.185
-187.144	60.889	-0.174	-0.171
-186.129	-200.000	0.009	0.094
-185.114	342.213	0.175	0.340
-184.100	506.123	0.154	0.354
-183.085	94.494	0.133	-0.150
-182.071	-4.197	-0.188	-0.129
-181.056	137.792	0.134	-0.174
-180.042	-90.737	-0.189	0.054
-179.027	32.133	-0.064	-0.055
-178.012	800.000	0.117	0.371
-176.998	-33.563	0.146	-0.080
-175.983	-106.461	-0.454	-0.101
-174.969	630.500	0.083	-0.207
-173.954	800.000	0.082	-0.233
-172.939	-83.695	0.135	-0.043
-171.925	800.000	-0.095	-0.327
-170.910	800.000	0.085	0.242
-169.896	380.811	0.106	-0.215
-168.881	-33.656	-0.296	0.162
-167.866	-121.024	-0.354	0.059
-166.852	800.000	0.103	0.312
-165.837	34.663	0.092	-0.080
-164.823	-12.844	0.117	0.075
-163.808	309.840	0.045	-0.084
-162.793	140.149	0.061	0.080
-161.779	-200.000	-0.043	-0.364
-160.764	254.414	-0.125	0.212
-159.750	13.434	-0.125	0.096
-158.735	380.526	0.085	-0.174
-157.720	51.167	0.126	-0.119
-156.706	-79.451	-0.323	-0.108
-155.691	147.891	-0.237	0.317
-154.677	32.621	0.226	0.194
-153.662	-200.000	0.049	-0.266
-152.647	28.484	-0.158	-0.132
-151.633	463.152	0.106	0.236
-150.618	-135.309	-0.128	-0.015
-149.604	-158.332	0.288	-0.017
-148.589	-127.481	-0.331	-0.048
-147.574	-78.941	0.446	-0.150
-146.560	-190.464	-0.133	-0.001
-145.545	-200.000	-0.025	0.218
-144.531	-50.747	0.153	0.071
-143.516	-145.710	-0.139	-0.012
-142.502	709.436	-0.013	-0.035
-141.487	800.000	0.030	-0.087
-140.472	-200.000	-0.009	-0.271
-139.458	-200.000	0.050	-0.238
-138.443	500.903	0.110	-0.251
-137.429	-10.179	-0.031	-0.020
-136.414	266.966	-0.114	-0.198
-135.399	273.337	-0.154	-0.270
-134.385	-125.137	0.303	-0.046
-133.370	-49.659	0.371	0.175
-132.356	284.989	0.095	0.169
-131.341	-200.000	-0.002	-0.158
-130.326	-50.422	0.081	0.038
-129.312	-200.000	0.033	-0.221
-128.297	-200.000	-0.048	0.283
-127.283	800.000	-0.056	-0.203
-126.268	-200.000	-0.014	-0.102
-125.253	-54.626	0.370	-0.166
-124.239	-126.011	0.346	0.052
-123.224	-66.726	0.178	-0.070
-122.210	48.803	-0.146	-0.136
-121.195	-188.999	-0.239	0.003
