DTS Sentinel unit serial number:	SN413079Multiplexer serial number:	ORYXHardware model number:	OX4-SRSoftware version number:	ORYX F/W v4.00 Oryx Data Collector v3.7.2.0data status	okinstallation	princeton_trtdifferential loss correction	single-endedforward channel	channel 4reverse channel	N/Adate	2019/09/13time	19:29:35forward acquisition time	60.00reverse acquisition time	0.00gamma	496.2192k internal	0.2315k external	0.2315temperature offset calibration	1.0150default loss term (dB/km)	0.3790temperature slope calibration	1.0000multiplexer offset coefficient	1.0000multiplexer slope coefficient	1.0000fibre end	0.00T internal ref (°C)	30.75T ext. ref 1 (°C)	3.49T ext. ref 2 (°C)	24.43length (m)	temperature (°C)	Stokes	anti-Stokes-747.200	405.748	0.202	0.432
-746.185	361.425	-0.078	0.159
-745.171	484.428	-0.053	-0.123
-744.156	-159.436	-0.236	0.013
-743.142	800.000	0.015	0.046
-742.127	800.000	0.112	0.412
-741.112	-86.317	-0.144	-0.045
-740.098	-22.996	-0.087	0.053
-739.083	-38.725	-0.146	0.078
-738.069	-79.863	0.029	-0.010
-737.054	98.771	-0.211	0.247
-736.039	-200.000	0.016	-0.086
-735.025	800.000	0.025	0.104
-734.010	-118.013	-0.246	-0.045
-732.996	-200.000	-0.013	-0.238
-731.981	245.450	-0.098	-0.166
-730.966	-74.469	-0.183	0.067
-729.952	-48.265	-0.310	-0.152
-728.937	637.075	-0.017	0.045
-727.923	738.419	-0.046	0.125
-726.908	-54.971	-0.151	0.069
-725.894	-200.000	0.070	-0.545
-724.879	224.189	0.042	-0.068
-723.864	7.476	-0.019	-0.015
-722.850	800.000	0.021	-0.076
-721.835	-102.930	-0.256	-0.062
-720.821	-137.395	-0.099	-0.011
-719.806	-124.738	-0.411	-0.064
-718.791	-187.873	-0.342	-0.005
-717.777	127.922	-0.193	-0.249
-716.762	-200.000	-0.025	-0.122
-715.748	-110.356	0.301	-0.063
-714.733	-17.327	0.130	-0.083
-713.718	-136.325	-0.685	-0.081
-712.704	-200.000	-0.067	0.000
-711.689	-125.968	0.306	0.047
-710.675	-106.766	0.250	-0.056
-709.660	-200.000	-0.045	0.208
-708.645	109.031	-0.067	-0.081
-707.631	-183.297	0.049	-0.001
-706.616	395.864	0.082	0.174
-705.602	73.022	0.397	0.419
-704.587	-99.075	-0.068	-0.018
-703.572	207.434	0.069	-0.109
-702.558	65.658	0.132	-0.136
-701.543	800.000	-0.071	0.242
-700.529	4.122	0.112	0.083
-699.514	66.011	-0.108	-0.111
-698.499	-65.815	-0.081	-0.033
-697.485	-29.899	0.417	-0.240
-696.470	-200.000	0.004	-0.063
-695.456	124.945	-0.209	0.266
-694.441	-84.210	-0.353	-0.113
-693.426	165.031	-0.052	-0.074
-692.412	-200.000	-0.019	0.224
-691.397	-200.000	-0.018	-0.267
-690.383	-162.808	-0.121	-0.006
-689.368	0.533	-0.224	0.162
-688.354	630.475	0.036	0.092
-687.339	-63.972	0.120	-0.050
-686.324	-200.000	0.014	-0.181
-685.310	-200.000	-0.007	0.323
-684.295	60.099	0.146	0.146
-683.281	167.077	-0.266	0.382
-682.266	800.000	0.107	0.409
-681.251	-40.656	-0.284	0.149
-680.237	-47.892	0.181	0.089
-679.222	-43.840	-0.153	-0.078
-678.208	800.000	0.053	-0.182
-677.193	200.605	-0.129	-0.201
-676.178	-139.486	-0.179	0.019
-675.164	-85.128	-0.329	0.104
-674.149	4.330	0.163	0.120
-673.135	-200.000	0.033	0.213
-672.120	800.000	0.107	-0.412
-671.105	72.347	-0.182	-0.192
-670.091	431.622	-0.065	-0.143
-669.076	-200.000	-0.001	-0.085
-668.062	-200.000	-0.005	0.061
-667.047	23.565	0.228	0.190
-666.032	-55.898	-0.297	0.134
-665.018	-145.365	-0.270	-0.025
-664.003	100.652	0.156	0.183
-662.989	800.000	0.011	-0.041
-661.974	302.862	0.118	-0.220
-660.959	138.597	0.111	-0.147
-659.945	-200.000	0.021	-0.245
-658.930	-105.538	-0.171	-0.039
-657.916	224.763	-0.096	-0.157
-656.901	-200.000	0.017	-0.224
-655.886	800.000	0.047	-0.196
-654.872	-68.972	-0.331	-0.129
-653.857	165.743	0.188	-0.268
-652.843	16.153	-0.323	-0.258
-651.828	568.907	-0.110	-0.270
-650.814	-99.989	0.232	-0.058
-649.799	725.452	0.133	0.357
-648.784	800.000	0.097	-0.272
-647.770	-200.000	0.005	0.195
-646.755	800.000	0.077	-0.264
-645.741	-36.037	-0.265	0.145
-644.726	800.000	-0.009	-0.031
-643.711	-21.145	0.093	-0.057
-642.697	800.000	-0.024	0.073
-641.682	-38.697	-0.190	-0.101
-640.668	-200.000	0.046	-0.398
-639.653	800.000	-0.028	0.097
-638.638	148.897	0.143	0.195
-637.624	-11.801	-0.111	0.074
-636.609	-50.873	0.041	0.019
-635.595	800.000	-0.095	-0.409
-634.580	26.899	-0.213	-0.181
-633.565	-155.615	0.195	-0.013
-632.551	-200.000	-0.029	-0.139
-631.536	800.000	0.040	0.151
-630.522	-105.462	0.122	0.028
-629.507	71.474	-0.151	-0.159
-628.492	-84.420	0.082	0.026
-627.478	-200.000	0.006	0.151
-626.463	-101.251	-0.055	0.014
-625.449	-162.150	0.184	0.009
-624.434	107.133	0.086	-0.103
-623.419	-45.692	0.249	0.124
-622.405	-200.000	-0.449	-0.001
-621.390	58.754	0.124	0.123
-620.376	-46.394	-0.191	-0.095
-619.361	-200.000	0.012	0.074
-618.346	87.302	0.112	-0.125
-617.332	-67.905	-0.316	-0.125
-616.317	35.652	-0.209	0.185
-615.303	14.271	0.151	-0.119
-614.288	-137.774	-0.097	-0.011
-613.273	-64.855	-0.195	0.080
-612.259	26.703	-0.374	0.316
-611.244	122.542	0.178	-0.224
-610.230	-177.670	0.322	0.008
-609.215	800.000	-0.025	0.107
-608.201	-175.552	-0.022	0.001
-607.186	63.292	-0.147	-0.149
-606.171	800.000	-0.151	-0.537
-605.157	158.305	0.129	-0.180
-604.142	-200.000	0.011	0.174
-603.128	283.777	-0.107	-0.193
-602.113	68.147	0.227	0.234
-601.098	-47.186	-0.179	-0.088
-600.084	187.149	0.167	-0.252
-599.069	248.257	0.157	-0.268
-598.055	49.998	-0.131	0.125
-597.040	-71.830	0.253	0.095
-596.025	44.313	-0.144	-0.133
-595.011	-200.000	-0.041	0.352
-593.996	529.478	0.061	-0.144
-592.982	-2.764	-0.139	-0.098
-591.967	-200.000	-0.014	0.272
-590.952	53.417	0.221	-0.213
-589.938	318.267	0.046	0.087
-588.923	110.773	0.126	-0.153
-587.909	-131.601	0.322	-0.043
-586.894	433.310	0.050	0.108
-585.879	775.589	-0.143	-0.392
-584.865	-110.846	0.435	-0.090
-583.850	800.000	-0.093	-0.266
-582.836	-181.445	-0.193	0.004
-581.821	22.929	0.037	-0.031
-580.806	-151.909	0.210	-0.015
-579.792	-200.000	0.058	-0.261
-578.777	147.420	-0.135	-0.183
-577.763	177.840	-0.187	-0.274
-576.748	221.852	0.112	-0.181
-575.733	697.518	-0.101	-0.267
-574.719	-200.000	-0.073	-0.373
-573.704	-189.040	-0.050	0.001
-572.690	-134.871	0.248	0.030
-571.675	-57.668	-0.192	-0.085
-570.661	-93.300	-0.414	-0.116
-569.646	19.917	-0.269	0.218
-568.631	200.390	-0.113	0.174
-567.617	-38.471	0.118	-0.063
-566.602	519.782	0.060	0.142
-565.588	501.967	0.133	-0.309
-564.573	-200.000	-0.032	-0.308
-563.558	33.262	-0.178	-0.156
-562.544	800.000	-0.053	-0.213
-561.529	73.007	-0.105	0.110
-560.515	27.515	-0.172	-0.146
-559.500	-60.057	-0.083	0.035
-558.485	680.674	0.054	0.141
-557.471	192.039	-0.155	-0.236
-556.456	36.284	-0.096	-0.085
-555.442	64.293	0.063	-0.064
-554.427	193.487	0.166	-0.253
-553.412	64.567	-0.099	0.101
-552.398	-150.783	-0.059	0.005
-551.383	84.363	0.280	0.308
-550.369	800.000	-0.072	-0.227
-549.354	55.592	-0.267	-0.260
-548.339	11.734	0.233	-0.180
-547.325	-43.310	0.066	0.034
-546.310	362.158	-0.330	-0.667
-545.296	11.700	-0.314	-0.242
-544.281	800.000	0.045	0.130
-543.266	-70.708	0.232	0.088
-542.252	-200.000	-0.005	-0.144
-541.237	-87.064	0.229	0.070
-540.223	288.376	-0.093	-0.169
-539.208	-9.622	-0.244	-0.164
-538.193	348.116	0.169	0.336
-537.179	277.768	-0.107	0.191
-536.164	-101.053	0.173	0.043
-535.150	-200.000	0.056	0.305
-534.135	306.195	-0.093	0.173
-533.121	417.755	0.077	0.165
-532.106	800.000	-0.014	0.060
-531.091	-200.000	0.014	0.414
-530.077	-200.000	-0.009	-0.131
-529.062	6.876	-0.368	0.275
-528.048	-2.152	0.169	-0.119
-527.033	-200.000	0.009	-0.147
-526.018	-158.119	-0.313	-0.018
-525.004	-130.456	0.265	-0.036
-523.989	198.188	0.062	-0.095
-522.975	214.534	0.120	0.191
-521.960	67.969	-0.051	-0.052
-520.945	-200.000	0.010	0.252
-519.931	627.122	0.086	0.217
-518.916	800.000	0.060	-0.172
-517.902	-135.092	-0.192	-0.023
-516.887	19.517	0.355	0.287
-515.872	-62.446	-0.132	0.055
-514.858	19.993	-0.111	0.090
-513.843	800.000	-0.030	0.113
-512.829	332.017	0.203	0.394
-511.814	-160.206	0.119	0.006
-510.799	656.910	-0.065	0.168
-509.785	800.000	-0.126	0.401
-508.770	-62.205	0.372	0.156
-507.756	428.990	0.070	-0.151
-506.741	18.378	0.248	-0.199
-505.726	-200.000	0.022	-0.306
-504.712	146.009	0.198	-0.266
-503.697	194.806	0.122	0.186
-502.683	-7.037	0.169	-0.115
-501.668	62.671	-0.181	-0.182
-500.653	539.935	0.058	0.139
-499.639	-200.000	0.011	-0.172
-498.624	233.747	0.185	-0.306
-497.610	785.282	-0.149	-0.410
-496.595	68.233	0.083	0.086
-495.581	38.895	0.128	0.115
-494.566	-100.226	-0.150	0.038
-493.551	-65.033	0.145	-0.059
-492.537	-200.000	-0.033	0.274
-491.522	422.223	-0.041	0.089
-490.508	267.430	0.176	0.309
-489.493	800.000	-0.154	0.494
-488.478	714.883	-0.144	-0.383
-487.464	-200.000	0.010	0.081
-486.449	-200.000	0.016	0.231
-485.435	-85.405	0.154	0.048
-484.420	6.822	0.153	-0.114
-483.405	-200.000	0.029	0.175
-482.391	-13.225	0.106	0.069
-481.376	-154.426	-0.156	0.010
-480.362	-46.114	-0.167	0.083
-479.347	76.010	-0.261	-0.277
-478.332	-127.794	0.168	0.024
-477.318	181.517	-0.051	-0.075
-476.303	-200.000	-0.029	-0.277
-475.289	-85.561	0.062	-0.019
-474.274	14.461	0.150	-0.118
-473.259	188.734	0.149	-0.224
-472.245	260.091	0.041	0.071
-471.230	-60.694	0.169	-0.072
-470.216	391.469	0.089	-0.184
-469.201	-108.380	0.128	0.028
-468.186	800.000	-0.065	-0.222
-467.172	-90.958	-0.226	-0.065
-466.157	202.654	-0.062	0.096
-465.143	-71.460	-0.405	0.152
-464.128	-175.484	-0.146	-0.004
-463.113	-60.706	-0.076	0.032
-462.099	373.792	0.109	-0.223
-461.084	-109.869	0.251	0.053
-460.070	-139.141	0.285	-0.031
-459.055	128.383	-0.224	0.286
-458.040	800.000	-0.026	0.078
-457.026	76.735	-0.224	0.239
-456.011	-97.458	0.053	-0.014
-454.997	80.211	0.196	-0.211
-453.982	800.000	-0.044	0.128
-452.968	186.793	0.174	0.260
-451.953	-139.957	-0.282	0.030
-450.938	800.000	-0.035	-0.101
-449.924	-200.000	-0.006	0.028
-448.909	-200.000	0.046	0.205
-447.895	116.721	-0.109	0.134
-446.880	-200.000	-0.014	0.115
-445.865	-19.918	-0.102	0.063
-444.851	46.583	-0.127	0.118
-443.836	53.812	-0.053	0.051
-442.822	-0.115	0.111	-0.079
-441.807	-101.992	-0.440	-0.106
-440.792	-104.018	-0.097	-0.023
-439.778	-200.000	0.020	0.100
-438.763	800.000	0.057	0.222
-437.749	-146.770	0.041	-0.004
-436.734	-5.571	0.256	0.176
-435.719	-96.063	-0.164	0.044
-434.705	800.000	0.054	0.211
-433.690	-200.000	-0.005	0.114
-432.676	-108.602	0.256	-0.055
-431.661	-200.000	-0.036	0.165
-430.646	-19.536	-0.208	-0.129
-429.632	-200.000	-0.015	-0.137
-428.617	-200.000	0.102	0.527
-427.603	-24.552	-0.185	-0.110
-426.588	105.453	0.184	-0.218
-425.573	-28.259	-0.290	-0.167
-424.559	-102.420	0.303	-0.073
-423.544	-178.833	-0.384	-0.009
-422.530	-200.000	0.010	0.234
-421.515	-26.743	0.241	0.141
-420.500	-11.234	-0.033	0.022
-419.486	-70.048	-0.104	-0.040
-418.471	-162.528	0.335	0.017
-417.457	154.827	-0.079	0.108
-416.442	241.701	-0.173	0.290
-415.428	-132.174	0.209	-0.027
-414.413	66.490	0.315	-0.320
-413.398	-200.000	-0.006	0.107
-412.384	-200.000	-0.043	0.390
-411.369	-200.000	-0.029	-0.251
-410.355	-138.531	0.276	0.030
-409.340	800.000	0.062	0.181
-408.325	800.000	0.045	-0.158
-407.311	170.494	0.151	0.216
-406.296	141.487	0.157	0.207
-405.282	-18.015	0.167	0.105
-404.267	800.000	-0.017	0.070
-403.252	234.334	-0.089	-0.148
-402.238	-200.000	-0.001	-0.038
-401.223	77.916	-0.228	0.243
-400.209	-53.359	-0.171	-0.078
-399.194	-32.500	0.089	-0.049
-398.179	-28.970	0.272	0.156
-397.165	222.506	0.150	0.241
-396.150	-57.784	-0.412	-0.180
-395.136	93.339	0.042	-0.048
-394.121	-54.160	-0.111	0.051
-393.106	-128.370	0.260	0.037
-392.092	238.241	0.007	0.011
-391.077	-200.000	-0.044	0.263
-390.063	-66.894	0.256	0.101
-389.048	-54.136	0.367	-0.167
-388.033	-40.175	-0.226	0.118
-387.019	93.216	0.170	-0.192
-386.004	158.987	-0.136	0.188
-384.990	-200.000	0.090	0.396
-383.975	-13.034	-0.097	0.063
-382.960	-7.104	0.059	0.040
-381.946	-136.836	-0.112	0.013
-380.931	-99.354	-0.205	0.052
-379.917	-200.000	0.019	-0.086
-378.902	-20.369	-0.154	-0.095
-377.888	-172.292	-0.331	-0.011
-376.873	800.000	0.022	0.091
-375.858	-98.387	-0.306	0.078
-374.844	-200.000	0.248	-0.001
-373.829	-44.846	-0.261	-0.130
-372.815	-24.711	0.066	0.039
-371.800	214.161	-0.102	-0.161
-370.785	-200.000	0.030	0.314
-369.771	800.000	-0.124	-0.356
-368.756	-200.000	0.009	-0.046
-367.742	-7.098	0.387	0.262
-366.727	-136.537	0.462	0.054
-365.712	-200.000	0.019	0.246
-364.698	800.000	0.077	-0.286
-363.683	295.445	0.079	0.145
-362.669	348.291	0.050	0.099
-361.654	-5.616	0.117	0.080
-360.639	2.583	-0.281	0.203
-359.625	163.547	0.176	0.247
-358.610	-200.000	0.006	-0.097
-357.596	-34.366	0.187	-0.102
-356.581	800.000	0.068	-0.198
-355.566	-200.000	0.012	-0.253
-354.552	153.864	-0.104	0.143
-353.537	30.639	-0.196	0.167
-352.523	-24.782	-0.049	-0.029
-351.508	29.064	-0.444	-0.376
-350.493	-75.501	-0.136	-0.048
-349.479	800.000	0.111	-0.407
-348.464	59.567	-0.258	-0.254
-347.450	-200.000	-0.016	-0.214
-346.435	-44.564	0.280	-0.140
-345.420	-200.000	0.024	-0.144
-344.406	193.440	-0.118	-0.178
-343.391	-53.972	0.071	0.032
-342.377	448.404	-0.158	0.348
-341.362	166.813	0.119	-0.169
-340.348	-47.221	0.296	-0.144
-339.333	400.888	0.132	-0.276
-338.318	-124.272	0.226	-0.035
-337.304	-144.900	-0.176	-0.016
-336.289	-23.057	-0.273	0.164
-335.275	-66.310	0.135	-0.054
-334.260	58.084	-0.087	0.085
-333.245	216.840	-0.130	0.206
-332.231	230.955	0.111	0.180
-331.216	91.410	-0.114	0.128
-330.202	489.076	-0.059	0.134
-329.187	800.000	0.046	0.150
-328.172	129.491	0.053	0.068
-327.158	-200.000	-0.016	0.073
-326.143	378.308	0.020	0.041
-325.129	-67.776	-0.241	-0.094
-324.114	44.863	0.222	-0.204
-323.099	-123.743	-0.260	0.041
-322.085	-85.311	-0.165	-0.051
-321.070	-200.000	0.028	0.377
-320.056	697.182	0.102	-0.267
-319.041	-200.000	0.007	0.204
-318.026	-164.745	-0.228	-0.010
-317.012	-200.000	0.068	-0.357
-315.997	178.780	-0.121	0.176
-314.983	399.776	-0.115	0.240
-313.968	800.000	-0.185	-0.571
-312.953	-200.000	0.033	-0.220
-311.939	9.900	0.094	0.071
-310.924	31.583	-0.166	-0.142
-309.910	241.533	-0.129	0.215
-308.895	151.155	0.056	-0.076
-307.880	70.226	-0.237	0.244
-306.866	336.028	0.161	0.312
-305.851	314.560	0.091	-0.171
-304.837	800.000	-0.030	-0.095
-303.822	123.425	0.153	-0.191
-302.807	-76.264	0.323	-0.113
-301.793	-189.894	-0.078	-0.001
-300.778	147.927	-0.063	0.085
-299.764	446.730	0.086	0.188
-298.749	-22.361	-0.127	-0.077
-297.735	-200.000	0.012	0.370
-296.720	-9.484	0.287	0.191
-295.705	-74.866	-0.196	0.070
-294.691	102.222	0.051	-0.059
-293.676	94.093	0.088	0.099
-292.662	-76.154	0.232	-0.082
-291.647	-100.159	-0.070	0.017
-290.632	800.000	0.044	0.123
-289.618	130.407	-0.094	0.120
-288.603	-200.000	0.026	-0.230
-287.589	-3.103	0.311	-0.216
-286.574	198.856	-0.128	-0.195
-285.559	-150.210	0.272	0.021
-284.545	-200.000	0.007	-0.075
-283.530	448.536	0.177	0.388
-282.516	-125.769	0.165	0.025
-281.501	625.721	-0.081	0.204
-280.486	138.612	0.148	-0.193
-279.472	-200.000	-0.010	-0.243
-278.457	9.835	-0.138	0.104
-277.443	-200.000	-0.060	-0.344
-276.428	14.033	-0.111	0.086
-275.413	-200.000	-0.035	0.418
-274.399	-200.000	-0.045	0.234
-273.384	534.728	-0.021	0.050
-272.370	-7.412	-0.205	0.138
-271.355	-101.442	0.385	0.093
-270.340	99.995	-0.192	-0.222
-269.326	-200.000	0.016	-0.230
-268.311	800.000	0.094	0.293
-267.297	12.038	0.294	-0.225
-266.282	-200.000	0.003	0.075
-265.267	-21.636	-0.165	0.100
-264.253	-166.205	0.185	0.008
-263.238	787.070	-0.104	0.283
-262.224	-200.000	0.079	0.451
-261.209	-39.500	0.279	-0.146
-260.195	-122.842	-0.191	-0.031
-259.180	800.000	0.074	0.242
-258.165	-200.000	0.031	-0.141
-257.151	263.932	-0.119	-0.206
-256.136	-59.491	0.126	-0.054
-255.122	170.096	0.106	0.150
-254.107	-200.000	-0.023	-0.187
-253.092	-200.000	0.047	0.220
-252.078	-4.914	-0.074	-0.051
-251.063	-131.877	0.085	0.011
-250.049	-85.964	-0.198	0.061
-249.034	-135.930	-0.469	0.055
-248.019	-26.942	0.179	-0.104
-247.005	12.397	-0.291	-0.223
-245.990	480.476	0.093	0.209
-244.976	-200.000	-0.001	-0.267
-243.961	20.460	-0.064	-0.052
-242.946	138.109	-0.205	0.267
-241.932	-10.884	-0.217	0.143
-240.917	573.545	-0.060	-0.146
-239.903	188.646	0.124	0.184
-238.888	-146.030	-0.164	0.014
-237.873	198.248	-0.178	0.271
-236.859	-158.582	-0.228	0.013
-235.844	-141.189	0.521	-0.053
-234.830	-140.935	-0.046	-0.005
-233.815	40.127	0.092	0.082
-232.800	80.779	-0.240	0.258
-231.786	85.764	-0.258	-0.282
-230.771	49.689	-0.061	0.057
-229.757	-200.000	0.018	-0.278
-228.742	58.255	0.058	0.056
-227.727	152.743	-0.177	-0.240
-226.713	800.000	0.050	-0.164
-225.698	-200.000	0.028	0.143
-224.684	-11.618	0.210	-0.137
-223.669	331.228	0.128	0.244
-222.655	-116.441	0.207	0.038
-221.640	-143.269	-0.207	-0.020
-220.625	-55.813	-0.246	0.109
-219.611	-38.641	-0.171	-0.089
-218.596	-67.297	0.285	0.111
-217.582	-116.210	0.250	0.046
-216.567	-86.734	0.156	-0.047
-215.552	800.000	0.048	-0.157
-214.538	-36.702	-0.145	-0.077
-213.523	-200.000	0.033	-0.210
-212.509	121.411	-0.201	-0.248
-211.494	50.642	0.256	0.240
-210.479	-67.093	0.202	-0.079
-209.465	1.133	0.080	0.057
-208.450	-189.104	-0.289	0.003
-207.436	75.571	-0.320	-0.335
-206.421	-0.830	0.250	-0.176
-205.406	800.000	-0.019	-0.058
-204.392	-90.830	0.155	-0.044
-203.377	800.000	-0.051	0.192
-202.363	-124.815	0.387	-0.059
-201.348	323.014	0.105	0.198
-200.333	103.729	-0.065	0.076
-199.319	28.091	0.281	-0.235
-198.304	21.758	-0.211	-0.170
-197.290	148.319	-0.184	-0.246
-196.275	-139.540	-0.120	-0.013
-195.260	-200.000	-0.005	-0.096
-194.246	-79.718	0.111	0.037
-193.231	4.749	-0.294	-0.214
-192.217	-200.000	-0.007	0.034
-191.202	-73.172	-0.076	-0.028
-190.187	-73.509	-0.213	-0.077
-189.173	-200.000	-0.002	-0.189
-188.158	34.312	0.366	0.317
-187.144	-131.226	-0.092	0.012
-186.129	89.418	-0.125	-0.139
-185.114	-126.391	0.507	0.075
-184.100	371.778	-0.080	0.160
-183.085	153.604	0.128	0.174
-182.071	-200.000	0.044	-0.309
-181.056	-46.377	0.214	-0.104
-180.042	-95.901	0.021	0.005
-179.027	-200.000	-0.031	0.307
-178.012	-200.000	-0.118	-0.513
-176.998	-42.199	0.090	0.046
-175.983	22.310	0.205	0.166
-174.969	223.842	-0.078	0.124
-173.954	132.826	0.058	-0.074
-172.939	283.682	-0.077	0.136
-171.925	-200.000	0.045	-0.308
-170.910	-37.144	-0.154	-0.081
-169.896	-30.892	-0.263	0.147
-168.881	-26.473	0.141	0.082
-167.866	531.570	0.057	0.134
-166.852	-181.221	-0.297	-0.006
-165.837	-63.302	0.132	0.054
-164.823	-104.574	0.156	-0.036
-163.808	-200.000	0.005	0.367
-162.793	-10.714	0.279	0.183
-161.779	215.461	0.179	-0.282
-160.764	-151.770	-0.392	-0.029
-159.750	-112.555	-0.217	0.043
-158.735	-140.922	-0.202	0.021
-157.720	243.418	-0.224	0.372
-156.706	17.421	0.182	0.143
-155.691	20.389	-0.238	-0.191
-154.677	184.999	-0.238	0.350
-153.662	88.880	0.162	-0.179
-152.647	49.860	0.026	0.024
-151.633	-6.430	-0.125	-0.084
-150.618	334.182	0.032	-0.061
-149.604	-12.493	0.120	-0.078
-148.589	-0.481	0.057	-0.040
-147.574	-91.106	-0.105	-0.030
-146.560	-80.571	0.647	0.213
-145.545	646.279	0.039	-0.098
-144.531	-200.000	0.032	0.200
-143.516	197.065	-0.055	0.083
-142.502	-200.000	-0.023	0.202
-141.487	231.691	-0.076	-0.124
-140.472	-0.016	0.122	0.086
-139.458	-149.453	0.189	-0.015
-138.443	-37.763	-0.285	-0.150
-137.429	-32.854	-0.097	-0.053
-136.414	-72.140	-0.143	-0.053
-135.399	-200.000	-0.021	0.090
-134.385	-53.130	-0.256	0.116
-133.370	-194.241	0.219	-0.002
-132.356	-93.402	-0.181	0.050
-131.341	-200.000	0.004	-0.100
-130.326	94.820	0.051	0.058
-129.312	35.571	0.174	0.152
-128.297	433.808	0.166	0.357
-127.283	-154.738	0.131	0.009
-126.268	-200.000	-0.082	-0.475
-125.253	-200.000	0.019	0.258
-124.239	-136.126	-0.279	-0.032
-123.224	-200.000	0.011	-0.241
-122.210	-80.931	-0.334	-0.109
-121.195	250.814	-0.071	-0.119
