DTS Sentinel unit serial number:	SN413079Multiplexer serial number:	ORYXHardware model number:	OX4-SRSoftware version number:	ORYX F/W v4.00 Oryx Data Collector v3.7.2.0data status	okinstallation	princeton_trtdifferential loss correction	single-endedforward channel	channel 4reverse channel	N/Adate	2019/09/13time	03:41:35forward acquisition time	60.00reverse acquisition time	0.00gamma	496.2192k internal	0.2320k external	0.2320temperature offset calibration	1.0194default loss term (dB/km)	0.3790temperature slope calibration	1.0000multiplexer offset coefficient	1.0000multiplexer slope coefficient	1.0000fibre end	0.00T internal ref (°C)	27.20T ext. ref 1 (°C)	4.07T ext. ref 2 (°C)	21.58length (m)	temperature (°C)	Stokes	anti-Stokes-747.200	-34.293	0.161	-0.089
-746.185	3.359	-0.130	0.096
-745.171	800.000	-0.074	0.325
-744.156	-129.617	-0.041	-0.006
-743.142	-32.905	0.095	-0.054
-742.127	-95.982	-0.025	-0.007
-741.112	-175.312	0.165	0.005
-740.098	22.073	-0.066	0.055
-739.083	-120.096	0.239	-0.041
-738.069	-60.788	-0.455	0.195
-737.054	800.000	0.033	-0.112
-736.039	187.140	-0.133	-0.201
-735.025	-6.130	0.239	-0.165
-734.010	800.000	-0.031	-0.110
-732.996	-100.255	-0.041	-0.010
-731.981	-121.060	-0.217	-0.037
-730.966	800.000	0.096	0.362
-729.952	-171.152	-0.283	-0.010
-728.937	-200.000	-0.028	-0.346
-727.923	-59.169	-0.383	-0.167
-726.908	539.582	0.091	-0.220
-725.894	-58.866	-0.232	0.102
-724.879	-200.000	-0.011	0.066
-723.864	229.789	-0.208	0.343
-722.850	43.644	-0.238	0.220
-721.835	410.024	-0.118	-0.253
-720.821	126.574	-0.158	-0.202
-719.806	-200.000	-0.046	0.299
-718.791	432.418	0.044	-0.096
-717.777	-59.292	-0.344	0.150
-716.762	-16.977	-0.202	-0.129
-715.748	249.653	0.096	-0.165
-714.733	-52.594	0.113	0.053
-713.718	281.015	-0.126	0.228
-712.704	330.489	-0.115	0.224
-711.689	-54.385	0.473	0.217
-710.675	-76.082	-0.102	0.036
-709.660	776.342	0.053	0.147
-708.645	51.306	0.186	-0.179
-707.631	-200.000	0.002	-0.091
-706.616	800.000	0.092	-0.322
-705.602	53.246	0.075	0.073
-704.587	-77.838	0.224	0.078
-703.572	-104.582	0.318	-0.074
-702.558	145.405	0.193	-0.261
-701.543	-47.880	0.225	-0.110
-700.529	654.332	-0.077	-0.199
-699.514	-77.556	0.095	0.033
-698.499	-200.000	0.055	0.312
-697.485	142.804	-0.093	-0.125
-696.470	79.642	-0.124	-0.134
-695.456	-43.690	-0.048	-0.025
-694.441	-200.000	0.016	-0.095
-693.426	-11.377	-0.104	-0.069
-692.412	-136.310	0.070	0.008
-691.397	800.000	-0.080	-0.243
-690.383	-8.424	-0.166	-0.113
-689.368	-46.296	0.153	-0.076
-688.354	-133.162	0.083	-0.011
-687.339	800.000	-0.084	-0.289
-686.324	-54.446	-0.061	-0.028
-685.310	474.250	-0.136	-0.310
-684.295	-82.730	-0.233	0.076
-683.281	223.165	-0.124	-0.201
-682.266	-42.049	-0.204	-0.105
-681.251	243.226	-0.131	0.222
-680.237	118.106	-0.076	0.094
-679.222	56.370	0.236	-0.232
-678.208	800.000	0.040	0.173
-677.193	-66.288	0.093	-0.037
-676.178	91.441	0.095	-0.107
-675.164	-123.870	-0.267	-0.042
-674.149	800.000	0.114	-0.443
-673.135	30.184	-0.227	0.195
-672.120	800.000	0.035	0.129
-671.105	-110.111	-0.134	0.028
-670.091	-34.007	0.074	-0.041
-669.076	-200.000	-0.005	-0.031
-668.062	-166.059	0.332	-0.014
-667.047	-65.674	0.118	-0.048
-666.032	619.457	-0.047	-0.119
-665.018	31.100	0.158	-0.137
-664.003	-24.651	-0.228	-0.137
-662.989	-104.567	0.082	-0.019
-661.974	48.268	-0.081	-0.077
-660.959	-142.628	0.290	0.029
-659.945	26.134	0.049	0.041
-658.930	-95.928	0.125	-0.034
-657.916	800.000	-0.024	-0.102
-656.901	-10.731	0.158	0.105
-655.886	99.231	0.233	-0.271
-654.872	8.371	-0.190	0.144
-653.857	800.000	-0.046	0.130
-652.843	326.319	-0.093	-0.180
-651.828	-200.000	-0.027	0.168
-650.814	21.005	0.318	0.260
-649.799	37.683	-0.255	0.228
-648.784	800.000	0.034	0.146
-647.770	715.119	0.031	-0.084
-646.755	-200.000	0.018	-0.134
-645.741	-111.340	0.199	-0.041
-644.726	101.585	-0.224	-0.263
-643.711	99.188	0.098	-0.114
-642.697	254.250	-0.265	0.457
-641.682	124.703	-0.053	0.067
-640.668	800.000	-0.045	0.140
-639.653	-134.162	-0.129	-0.016
-638.638	-112.604	-0.507	0.102
-637.624	-100.135	-0.128	0.032
-636.609	-134.128	0.234	-0.029
-635.595	-116.310	-0.440	-0.082
-634.580	174.163	0.264	0.384
-633.565	-200.000	-0.002	-0.069
-632.551	-53.943	0.035	0.016
-631.536	-0.426	0.221	0.158
-630.522	117.862	0.326	-0.405
-629.507	800.000	-0.110	-0.436
-628.492	213.884	0.070	0.112
-627.478	-108.305	0.207	0.045
-626.463	-200.000	0.024	0.177
-625.449	-146.411	-0.087	0.008
-624.434	208.879	0.173	0.273
-623.419	113.705	0.132	-0.161
-622.405	-126.841	-0.159	-0.024
-621.390	-200.000	0.009	0.299
-620.376	-200.000	0.013	-0.089
-619.361	426.055	-0.168	-0.363
-618.346	-72.684	0.196	-0.073
-617.332	174.381	0.064	0.093
-616.317	471.413	-0.051	0.115
-615.303	-73.290	-0.037	-0.014
-614.288	-187.688	-0.321	0.004
-613.273	85.028	0.053	-0.059
-612.259	-25.495	0.133	-0.079
-611.244	302.655	-0.209	0.390
-610.230	7.663	0.383	-0.288
-609.215	107.086	0.183	-0.219
-608.201	-168.491	0.421	-0.016
-607.186	-200.000	0.010	-0.265
-606.171	-40.957	0.141	0.073
-605.157	95.346	0.078	0.089
-604.142	-39.674	0.102	-0.054
-603.128	221.019	-0.051	0.083
-602.113	-200.000	0.070	-0.312
-601.098	148.112	0.197	-0.267
-600.084	-101.113	0.072	0.018
-599.069	-1.346	-0.027	0.019
-598.055	-200.000	0.012	-0.059
-597.040	207.537	0.054	0.084
-596.025	800.000	-0.066	-0.191
-595.011	800.000	0.066	-0.269
-593.996	-95.966	-0.143	0.038
-592.982	-50.902	0.215	0.102
-591.967	126.548	0.027	0.034
-590.952	-132.423	-0.383	0.050
-589.938	-14.622	0.231	-0.149
-588.923	-110.522	0.119	0.025
-587.909	89.566	0.152	0.170
-586.894	-200.000	-0.007	-0.359
-585.879	178.943	-0.057	0.084
-584.865	-90.596	-0.082	0.024
-583.850	-155.423	0.165	-0.011
-582.836	-6.711	0.412	-0.282
-581.821	-127.286	-0.304	-0.045
-580.806	-129.540	0.173	-0.024
-579.792	28.856	0.102	-0.087
-578.777	-23.231	-0.156	0.094
-577.763	-200.000	-0.040	0.187
-576.748	162.508	-0.077	0.108
-575.733	-60.733	-0.307	0.131
-574.719	25.649	-0.173	-0.145
-573.704	-93.887	-0.197	0.055
-572.690	21.630	0.153	0.125
-571.675	-200.000	-0.076	0.355
-570.661	-84.054	0.210	-0.067
-569.646	626.070	0.107	-0.270
-568.631	-73.945	-0.137	0.050
-567.617	376.141	0.180	0.369
-566.602	26.566	0.098	0.082
-565.588	-147.858	-0.275	0.023
-564.573	16.509	0.081	0.064
-563.558	203.830	-0.159	0.247
-562.544	416.007	-0.189	0.405
-561.529	-200.000	0.056	0.261
-560.515	233.422	-0.051	0.084
-559.500	12.189	-0.222	-0.172
-558.485	-17.427	-0.198	-0.125
-557.471	77.804	0.083	-0.088
-556.456	-200.000	0.044	0.212
-555.442	16.664	-0.192	-0.153
-554.427	-200.000	0.006	-0.170
-553.412	-164.331	-0.086	0.004
-552.398	570.194	-0.122	-0.299
-551.383	-200.000	-0.013	-0.113
-550.369	14.514	-0.031	0.024
-549.354	-12.718	0.121	0.079
-548.339	-166.633	-0.348	0.015
-547.325	222.909	0.193	0.312
-546.310	-200.000	0.023	-0.122
-545.296	-41.086	-0.146	0.075
-544.281	762.722	-0.105	0.285
-543.266	-26.696	-0.125	0.073
-542.252	-62.718	-0.058	-0.024
-541.237	-200.000	0.010	0.065
-540.223	800.000	-0.053	0.179
-539.208	-51.261	-0.150	-0.070
-538.193	-180.777	-0.008	-0.000
-537.179	-79.216	0.399	0.136
-536.164	-9.491	0.029	-0.020
-535.150	-200.000	-0.003	-0.322
-534.135	-81.649	-0.253	0.083
-533.121	222.753	-0.049	-0.080
-532.106	280.531	0.034	0.060
-531.091	-58.582	-0.076	0.033
-530.077	152.821	-0.079	0.108
-529.062	346.082	-0.107	-0.210
-528.048	660.468	0.100	0.258
-527.033	88.969	-0.119	0.132
-526.018	-119.677	-0.271	0.047
-525.004	-112.931	-0.116	0.023
-523.989	281.554	-0.058	-0.105
-522.975	-126.075	-0.407	0.061
-521.960	2.511	0.230	-0.167
-520.945	-89.006	0.158	0.047
-519.931	800.000	-0.027	0.096
-518.916	-43.932	-0.372	0.187
-517.902	291.156	0.084	-0.154
-516.887	-111.768	-0.194	0.039
-515.872	213.959	-0.159	-0.252
-514.858	-53.099	0.372	-0.171
-513.843	-195.727	0.428	0.003
-512.829	-126.916	0.236	-0.035
-511.814	-200.000	0.004	0.268
-510.799	558.327	0.061	-0.148
-509.785	50.100	0.128	-0.121
-508.770	316.553	-0.092	-0.173
-507.756	202.110	0.306	0.473
-506.741	-200.000	-0.014	0.171
-505.726	85.013	-0.381	-0.418
-504.712	608.908	0.057	-0.142
-503.697	-107.905	-0.270	-0.059
-502.683	209.496	-0.276	-0.433
-501.668	800.000	-0.087	0.284
-500.653	-80.188	-0.283	-0.095
-499.639	39.492	0.023	-0.020
-498.624	92.244	0.396	-0.447
-497.610	158.172	0.227	0.315
-496.595	298.138	0.104	0.191
-495.581	-16.530	0.150	-0.095
-494.566	-138.861	0.041	-0.004
-493.551	35.373	0.160	0.141
-492.537	-200.000	0.019	-0.164
-491.522	800.000	0.084	-0.328
-490.508	-200.000	0.003	-0.333
-489.493	3.153	0.153	0.112
-488.478	-38.624	0.219	0.116
-487.464	589.043	0.135	0.334
-486.449	-50.021	-0.076	0.036
-485.435	-2.537	-0.246	0.172
-484.420	-7.908	-0.207	-0.140
-483.405	212.682	0.040	-0.063
-482.391	-176.975	0.319	-0.008
-481.376	-6.253	-0.173	0.118
-480.362	58.735	0.219	0.216
-479.347	47.976	0.116	-0.109
-478.332	13.470	0.158	-0.123
-477.318	-200.000	0.042	-0.263
-476.303	-109.526	-0.383	0.081
-475.289	335.196	0.164	0.319
-474.274	-132.111	-0.175	0.023
-473.259	-107.283	0.242	0.053
-472.245	375.755	-0.046	-0.095
-471.230	-143.910	0.433	-0.041
-470.216	-7.547	0.086	0.058
-469.201	-200.000	0.017	0.094
-468.186	-17.566	0.157	-0.099
-467.172	161.857	-0.214	0.300
-466.157	68.288	-0.179	0.184
-465.143	-47.715	0.090	0.044
-464.128	117.603	0.085	-0.105
-463.113	-200.000	0.179	-0.001
-462.099	-115.204	-0.354	0.067
-461.084	800.000	-0.010	-0.042
-460.070	107.562	-0.108	-0.128
-459.055	7.379	-0.166	-0.124
-458.040	150.516	0.144	0.196
-457.026	-200.000	0.028	-0.355
-456.011	-200.000	-0.001	0.026
-454.997	-133.028	0.406	-0.052
-453.982	800.000	-0.093	0.295
-452.968	-165.404	-0.264	-0.012
-451.953	-200.000	0.053	-0.468
-450.938	30.577	0.525	-0.449
-449.924	800.000	-0.080	-0.233
-448.909	-200.000	-0.001	0.178
-447.895	36.868	-0.278	0.246
-446.880	-200.000	-0.026	-0.169
-445.865	445.879	0.148	0.325
-444.851	-151.003	-0.232	-0.018
-443.836	-200.000	-0.029	0.240
-442.822	8.048	-0.104	-0.078
-441.807	69.111	0.086	-0.088
-440.792	-123.889	-0.233	-0.037
-439.778	-46.337	0.175	-0.086
-438.763	800.000	-0.048	-0.164
-437.749	-85.706	0.122	0.038
-436.734	776.610	0.064	-0.176
-435.719	-66.480	0.050	-0.020
-434.705	-200.000	-0.013	-0.138
-433.690	-48.555	-0.493	-0.237
-432.676	-123.125	-0.042	0.007
-431.661	134.948	0.210	-0.273
-430.646	-72.718	-0.148	-0.054
-429.632	-200.000	-0.020	0.158
-428.617	20.360	0.013	-0.010
-427.603	-200.000	0.020	0.263
-426.588	3.319	0.235	-0.171
-425.573	194.760	0.136	0.207
-424.559	-17.272	0.273	-0.172
-423.544	344.850	0.126	-0.246
-422.530	-150.607	-0.358	-0.027
-421.515	-7.510	-0.240	-0.162
-420.500	800.000	-0.125	-0.358
-419.486	-94.632	-0.098	-0.027
-418.471	-200.000	0.017	0.096
-417.457	800.000	-0.042	-0.166
-416.442	784.842	0.040	0.109
-415.428	-13.582	0.249	0.161
-414.413	-33.518	0.281	0.155
-413.398	800.000	0.046	0.150
-412.384	800.000	0.023	0.071
-411.369	-200.000	-0.042	-0.231
-410.355	143.369	-0.237	-0.315
-409.340	160.370	0.254	0.354
-408.325	-31.875	-0.085	0.047
-407.311	29.475	-0.181	-0.153
-406.296	-200.000	-0.005	-0.072
-405.282	-39.309	-0.151	-0.079
-404.267	310.182	0.047	-0.087
-403.252	197.047	0.210	-0.320
-402.238	384.153	-0.064	-0.131
-401.223	-85.897	-0.288	-0.089
-400.209	-21.960	-0.314	0.190
-399.194	399.117	0.029	-0.061
-398.179	226.652	-0.088	-0.143
-397.165	-35.148	0.166	-0.090
-396.150	-200.000	-0.049	0.226
-395.136	8.805	0.038	0.029
-394.121	-200.000	-0.026	-0.158
-393.106	-200.000	-0.022	-0.225
-392.092	422.542	0.059	0.126
-391.077	217.729	0.039	0.062
-390.063	2.362	0.198	0.143
-389.048	-20.683	-0.152	0.093
-388.033	-111.854	-0.365	0.074
-387.019	7.660	0.233	0.174
-386.004	-79.465	0.278	-0.094
-384.990	578.608	-0.111	0.270
-383.975	-4.047	0.295	-0.204
-382.960	-54.419	-0.150	-0.068
-381.946	-200.000	-0.022	0.237
-380.931	3.271	0.188	-0.136
-379.917	129.096	-0.034	-0.044
-378.902	-137.625	0.227	-0.026
-377.888	-36.779	-0.191	-0.102
-376.873	242.937	-0.146	-0.243
-375.858	49.648	0.153	0.144
-374.844	-200.000	-0.050	-0.252
-373.829	-113.308	0.161	-0.032
-372.815	-52.769	-0.166	-0.076
-371.800	89.599	0.123	-0.137
-370.785	397.853	-0.102	0.213
-369.771	13.030	0.232	-0.179
-368.756	505.677	-0.141	0.326
-367.742	-160.042	0.117	0.006
-366.727	5.194	-0.199	-0.146
-365.712	-136.010	-0.111	-0.013
-364.698	111.873	0.172	-0.207
-363.683	-44.976	-0.326	-0.162
-362.669	-158.727	0.276	-0.016
-361.654	-200.000	0.041	-0.246
-360.639	24.806	0.093	-0.077
-359.625	706.130	-0.047	-0.124
-358.610	800.000	0.093	-0.263
-357.596	105.350	-0.283	-0.333
-356.581	23.966	0.166	-0.137
-355.566	-129.930	0.148	-0.020
-354.552	-69.667	-0.368	0.140
-353.537	72.202	0.330	0.342
-352.523	-200.000	0.002	-0.098
-351.508	-200.000	0.002	-0.254
-350.493	-131.494	0.295	-0.039
-349.479	-18.964	0.125	0.077
-348.464	-124.794	-0.400	0.062
-347.450	-13.536	0.012	-0.008
-346.435	-92.346	-0.177	-0.050
-345.420	-200.000	0.009	-0.153
-344.406	-58.489	0.290	-0.125
-343.391	-200.000	-0.066	0.399
-342.377	-72.682	-0.105	-0.039
-341.362	-200.000	-0.007	-0.038
-340.348	547.107	-0.033	0.078
-339.333	-131.567	0.098	0.013
-338.318	800.000	0.127	0.392
-337.304	-22.844	-0.044	-0.027
-336.289	-37.250	-0.204	0.109
-335.275	-200.000	-0.011	0.066
-334.260	-117.205	0.164	-0.030
-333.245	119.445	-0.135	-0.167
-332.231	-200.000	0.010	0.253
-331.216	181.672	-0.167	0.244
-330.202	-200.000	-0.026	-0.219
-329.187	800.000	0.028	-0.097
-328.172	289.277	-0.160	0.288
-327.158	282.312	0.122	0.218
-326.143	-48.987	0.198	0.094
-325.129	27.544	0.229	-0.192
-324.114	50.826	-0.104	-0.098
-323.099	-166.227	0.229	-0.010
-322.085	-117.874	0.208	0.037
-321.070	-126.802	0.359	0.053
-320.056	-154.161	-0.353	-0.024
-319.041	-200.000	-0.012	-0.179
-318.026	-200.000	-0.008	-0.254
-317.012	11.387	0.211	-0.161
-315.997	4.682	0.218	0.159
-314.983	-107.937	-0.293	0.063
-313.968	482.648	-0.120	-0.272
-312.953	412.993	0.099	-0.210
-311.939	97.918	-0.052	-0.059
-310.924	-122.300	0.067	0.011
-309.910	-200.000	-0.004	-0.081
-308.895	-92.306	-0.197	0.055
-307.880	172.204	0.143	-0.204
-306.866	-15.469	0.430	0.273
-305.851	423.050	-0.070	0.150
-304.837	77.055	-0.264	-0.279
-303.822	-1.487	-0.181	0.127
-302.807	753.822	-0.097	-0.260
-301.793	324.704	-0.094	0.178
-300.778	-91.147	-0.117	-0.033
-299.764	-149.110	-0.233	-0.019
-298.749	800.000	0.073	-0.234
-297.735	800.000	0.106	0.337
-296.720	800.000	-0.065	-0.219
-295.705	-200.000	0.012	-0.078
-294.691	-91.062	-0.154	-0.044
-293.676	155.780	0.085	-0.116
-292.662	14.314	0.073	-0.056
-291.647	234.444	0.110	0.181
-290.632	800.000	0.123	0.432
-289.618	-60.043	0.205	-0.087
-288.603	-156.191	-0.201	0.013
-287.589	800.000	0.020	0.066
-286.574	196.882	0.057	0.086
-285.559	117.137	0.201	-0.246
-284.545	-110.451	0.201	0.041
-283.530	-29.104	0.183	-0.104
-282.516	-34.642	-0.200	-0.109
-281.501	-133.630	0.209	0.026
-280.486	-43.530	0.051	0.025
-279.472	28.195	-0.072	0.060
-278.457	-200.000	-0.020	-0.184
-277.443	26.974	0.203	0.169
-276.428	-26.701	-0.310	-0.180
-275.413	-138.969	0.081	0.009
-274.399	-75.396	-0.322	0.114
-273.384	23.758	-0.225	-0.184
-272.370	-56.873	0.200	-0.088
-271.355	256.051	-0.095	-0.161
-270.340	86.176	0.108	0.118
-269.326	-65.811	0.456	0.181
-268.311	-200.000	0.009	0.130
-267.297	-16.641	-0.246	0.155
-266.282	77.646	0.123	-0.130
-265.267	-154.113	-0.168	-0.011
-264.253	800.000	0.053	0.151
-263.238	-41.375	0.279	-0.143
-262.224	-97.399	-0.273	-0.070
-261.209	16.082	0.206	0.161
-260.195	432.848	0.082	-0.176
-259.180	-79.514	0.242	-0.081
-258.165	-85.365	0.269	-0.083
-257.151	207.984	-0.179	-0.278
-256.136	800.000	0.077	-0.323
-255.122	-134.652	0.268	0.032
-254.107	407.455	-0.133	-0.278
-253.092	-200.000	-0.027	0.299
-252.078	257.045	-0.066	-0.113
-251.063	-200.000	0.052	0.278
-250.049	-81.459	0.125	0.041
-249.034	424.563	-0.073	-0.155
-248.019	-200.000	-0.029	0.160
-247.005	800.000	0.022	0.074
-245.990	-108.209	-0.080	-0.017
-244.976	459.357	-0.181	0.400
-243.961	184.747	0.091	-0.134
-242.946	319.667	-0.083	0.157
-241.932	314.911	0.091	0.171
-240.917	-32.644	0.104	-0.058
-239.903	110.525	0.092	-0.110
-238.888	0.841	-0.201	-0.143
-237.873	479.139	0.125	0.281
-236.859	-105.451	-0.276	0.062
-235.844	504.059	-0.097	0.221
-234.830	-37.097	0.224	-0.119
-233.815	62.403	-0.194	-0.192
-232.800	20.241	-0.214	-0.172
-231.786	-95.295	0.167	0.045
-230.771	738.046	-0.048	0.126
-229.757	-126.477	0.227	-0.034
-228.742	-149.469	0.073	0.006
-227.727	-104.994	0.211	0.048
-226.713	71.840	0.080	0.082
-225.698	-87.706	-0.153	0.046
-224.684	-29.036	-0.123	0.070
-223.669	-200.000	-0.031	0.406
-222.655	-200.000	0.000	0.069
-221.640	-200.000	-0.020	0.344
-220.625	800.000	0.001	-0.003
-219.611	-80.787	-0.244	-0.080
-218.596	800.000	0.017	0.059
-217.582	153.584	-0.310	0.421
-216.567	-167.046	0.142	0.006
-215.552	-200.000	0.035	0.262
-214.538	-200.000	0.045	0.230
-213.523	549.954	0.111	0.265
-212.509	791.254	0.077	-0.211
-211.494	-59.914	0.546	0.231
-210.479	-37.424	-0.102	-0.054
-209.465	146.414	0.229	0.305
-208.450	132.390	0.277	0.353
-207.436	110.334	-0.268	0.319
-206.421	-171.820	0.029	-0.001
-205.406	-101.025	-0.294	0.071
-204.392	136.415	-0.052	0.067
-203.377	-90.477	-0.535	-0.154
-202.363	409.693	0.130	-0.272
-201.348	-154.672	-0.241	-0.016
-200.333	-200.000	0.025	-0.131
-199.319	-7.857	-0.163	0.109
-198.304	-76.292	0.155	-0.054
-197.290	518.006	0.045	0.105
-196.275	-146.280	-0.363	0.032
-195.260	-188.001	0.431	-0.006
-194.246	800.000	-0.053	-0.228
-193.231	-172.717	0.023	0.001
-192.217	-200.000	-0.021	0.412
-191.202	-82.250	0.279	0.090
-190.187	-88.830	-0.357	-0.105
-189.173	-85.945	-0.292	-0.090
-188.158	-200.000	0.050	0.292
-187.144	-31.470	-0.158	-0.088
-186.129	-125.992	0.151	-0.022
-185.114	408.031	0.028	-0.058
-184.100	346.037	0.028	-0.055
-183.085	526.152	-0.070	0.164
-182.071	172.366	-0.050	-0.071
-181.056	-19.647	-0.348	-0.213
-180.042	-98.313	0.177	0.045
-179.027	-200.000	-0.014	0.285
-178.012	-23.473	-0.238	-0.141
-176.998	-95.889	-0.247	0.065
-175.983	800.000	-0.054	-0.209
-174.969	262.718	-0.196	0.336
-173.954	736.105	-0.101	-0.269
-172.939	-47.403	0.253	-0.122
-171.925	150.383	-0.096	0.130
-170.910	-200.000	0.038	-0.297
-169.896	-4.489	0.142	-0.097
-168.881	534.645	0.053	0.124
-167.866	341.148	0.037	0.071
-166.852	-200.000	-0.033	-0.198
-165.837	-79.866	-0.313	0.104
-164.823	-200.000	-0.045	0.371
-163.808	-180.773	0.072	0.001
-162.793	240.210	-0.144	0.237
-161.779	-93.190	0.172	0.047
-160.764	26.762	-0.095	-0.079
-159.750	115.738	0.134	0.162
-158.735	800.000	0.095	0.263
-157.720	-163.064	-0.291	0.014
-156.706	-50.837	0.023	0.011
-155.691	800.000	-0.081	-0.226
-154.677	-13.601	-0.075	0.048
-153.662	-70.111	0.176	-0.066
-152.647	790.102	-0.019	-0.053
-151.633	-200.000	0.019	0.194
-150.618	-92.046	-0.164	-0.046
-149.604	-142.386	-0.267	-0.026
-148.589	64.197	0.134	0.134
-147.574	-200.000	-0.028	-0.392
-146.560	-73.099	0.290	-0.105
-145.545	-179.897	0.082	0.002
-144.531	35.525	0.340	0.295
-143.516	-200.000	-0.038	0.261
-142.502	-200.000	-0.006	-0.178
-141.487	102.628	-0.154	-0.178
-140.472	42.955	0.216	0.195
-139.458	-200.000	0.027	0.152
-138.443	800.000	-0.072	0.236
-137.429	-115.110	0.244	-0.046
-136.414	-200.000	0.021	-0.195
-135.399	800.000	-0.100	-0.316
-134.385	-23.960	0.217	0.128
-133.370	400.325	-0.163	0.339
-132.356	-27.114	-0.179	0.103
-131.341	-15.225	-0.142	-0.089
-130.326	-73.093	-0.132	-0.048
-129.312	-200.000	0.055	0.328
-128.297	-122.662	-0.051	0.008
-127.283	-126.293	-0.309	-0.046
-126.268	-25.203	0.249	0.146
-125.253	-200.000	-0.000	-0.264
-124.239	-93.273	0.256	-0.070
-123.224	-200.000	0.005	-0.142
-122.210	-120.894	-0.090	0.015
