DTS Sentinel unit serial number:	SN413079Multiplexer serial number:	ORYXHardware model number:	OX4-SRSoftware version number:	ORYX F/W v4.00 Oryx Data Collector v3.7.2.0data status	okinstallation	princeton_trtdifferential loss correction	single-endedforward channel	channel 4reverse channel	N/Adate	2019/09/18time	11:49:35forward acquisition time	60.00reverse acquisition time	0.00gamma	496.2192k internal	0.2309k external	0.2309temperature offset calibration	0.9983default loss term (dB/km)	0.3790temperature slope calibration	1.0000multiplexer offset coefficient	1.0000multiplexer slope coefficient	1.0000fibre end	0.00T internal ref (°C)	31.23T ext. ref 1 (°C)	0.46T ext. ref 2 (°C)	28.27length (m)	temperature (°C)	Stokes	anti-Stokes-747.200	-200.000	-0.053	0.412
-746.185	30.718	-0.212	0.185
-745.171	-40.922	-0.316	0.166
-744.156	-200.000	-0.075	0.368
-743.142	-78.745	-0.302	0.105
-742.127	-47.090	0.262	0.130
-741.112	-140.627	-0.435	-0.046
-740.098	35.605	-0.284	0.254
-739.083	800.000	-0.059	0.207
-738.069	-26.099	0.033	0.020
-737.054	-111.580	-0.273	0.056
-736.039	800.000	-0.068	0.222
-735.025	-51.207	0.214	-0.102
-734.010	37.925	-0.141	-0.127
-732.996	-120.466	-0.180	-0.031
-731.981	92.172	0.097	0.111
-730.966	27.006	0.198	0.169
-729.952	-200.000	0.039	-0.235
-728.937	-23.131	0.034	-0.021
-727.923	193.950	-0.059	0.091
-726.908	-145.633	0.278	0.025
-725.894	94.847	0.210	0.242
-724.879	800.000	0.095	-0.318
-723.864	-60.034	-0.150	0.065
-722.850	800.000	0.014	0.044
-721.835	-200.000	0.024	-0.227
-720.821	-111.925	0.290	-0.059
-719.806	10.435	-0.252	-0.195
-718.791	800.000	-0.046	-0.203
-717.777	-121.531	0.264	0.044
-716.762	-163.747	0.518	0.025
-715.748	-98.252	-0.118	0.031
-714.733	-9.856	-0.131	0.089
-713.718	497.652	0.020	-0.046
-712.704	66.597	-0.222	-0.229
-711.689	800.000	0.050	0.178
-710.675	-115.439	-0.348	-0.067
-709.660	127.055	-0.203	-0.262
-708.645	-127.004	0.347	0.052
-707.631	134.350	0.083	-0.110
-706.616	363.802	0.132	-0.269
-705.602	18.921	-0.138	0.112
-704.587	-120.829	0.341	0.058
-703.572	-16.162	-0.383	0.247
-702.558	-50.225	-0.138	-0.066
-701.543	61.834	0.130	-0.131
-700.529	-38.692	-0.228	-0.122
-699.514	108.912	0.188	-0.228
-698.499	800.000	0.080	-0.286
-697.485	38.897	-0.051	0.046
-696.470	233.540	0.148	0.247
-695.456	800.000	0.138	0.433
-694.441	-49.628	-0.163	-0.079
-693.426	-42.279	-0.135	0.070
-692.412	800.000	-0.018	0.074
-691.397	362.321	-0.137	0.279
-690.383	188.458	-0.055	-0.084
-689.368	712.310	-0.041	0.111
-688.354	637.338	-0.031	0.079
-687.339	43.915	0.039	-0.037
-686.324	83.618	-0.273	-0.302
-685.310	800.000	0.179	-0.506
-684.295	51.635	0.154	-0.148
-683.281	-48.582	0.233	-0.113
-682.266	-200.000	-0.007	-0.399
-681.251	-188.843	0.125	-0.002
-680.237	-123.167	0.335	-0.054
-679.222	4.530	-0.102	-0.075
-678.208	-142.686	0.481	-0.048
-677.193	1.518	-0.266	-0.194
-676.178	-200.000	-0.036	-0.200
-675.164	-113.787	0.201	0.040
-674.149	8.040	0.132	-0.100
-673.135	366.374	0.089	0.181
-672.120	-200.000	-0.010	-0.450
-671.105	99.473	0.087	0.102
-670.091	-200.000	0.044	0.362
-669.076	202.932	0.160	-0.250
-668.062	80.420	-0.138	0.151
-667.047	-48.207	-0.199	-0.097
-666.032	-15.097	0.260	0.168
-665.018	7.886	-0.398	0.302
-664.003	-123.814	-0.168	0.027
-662.989	-14.991	-0.130	0.084
-661.974	-61.995	0.206	0.087
-660.959	18.081	-0.127	0.102
-659.945	-200.000	-0.029	0.164
-658.930	713.524	-0.126	-0.338
-657.916	-27.825	-0.136	-0.080
-656.901	-104.502	0.016	0.004
-655.886	102.098	-0.198	0.234
-654.872	439.812	-0.056	-0.124
-653.857	-70.660	0.365	-0.140
-652.843	-112.991	0.249	0.050
-651.828	2.229	0.377	-0.276
-650.814	-177.432	0.189	0.005
-649.799	-122.992	-0.131	-0.021
-648.784	-192.838	-0.184	-0.002
-647.770	-67.736	-0.079	0.031
-646.755	-24.422	0.416	-0.251
-645.741	-39.836	0.246	0.130
-644.726	-104.020	-0.081	-0.019
-643.711	-88.201	-0.086	-0.026
-642.697	-95.240	-0.151	-0.041
-641.682	-189.498	0.287	-0.003
-640.668	800.000	-0.028	0.096
-639.653	800.000	-0.091	-0.304
-638.638	419.968	0.124	0.268
-637.624	-63.582	-0.198	0.082
-636.609	-61.027	-0.296	0.126
-635.595	-53.541	0.311	-0.144
-634.580	44.744	-0.165	0.154
-633.565	744.331	-0.037	-0.100
-632.551	157.538	0.106	-0.149
-631.536	-37.836	-0.417	-0.224
-630.522	647.065	0.065	0.169
-629.507	-143.091	0.187	0.018
-628.492	-91.381	-0.149	-0.043
-627.478	-18.427	-0.278	-0.176
-626.463	-82.402	-0.138	0.045
-625.449	-57.279	0.191	-0.085
-624.434	499.958	0.135	-0.316
-623.419	51.613	-0.187	0.180
-622.405	-123.089	0.466	0.076
-621.390	-146.305	-0.050	-0.004
-620.376	-75.019	-0.190	0.069
-619.361	-200.000	0.009	-0.163
-618.346	-200.000	-0.013	0.183
-617.332	-114.699	-0.125	-0.024
-616.317	34.785	-0.131	0.116
-615.303	23.419	-0.215	-0.178
-614.288	85.036	0.075	-0.084
-613.273	102.491	0.093	-0.110
-612.259	-92.305	-0.239	-0.068
-611.244	-200.000	-0.016	-0.210
-610.230	84.929	0.229	-0.254
-609.215	-158.773	0.263	0.015
-608.201	698.903	0.047	-0.125
-607.186	220.835	0.315	-0.510
-606.171	800.000	-0.054	-0.177
-605.157	800.000	0.008	0.023
-604.142	-122.216	0.183	0.030
-603.128	476.436	-0.072	-0.165
-602.113	-200.000	-0.021	0.403
-601.098	-26.158	-0.055	-0.033
-600.084	-59.412	-0.158	0.069
-599.069	-200.000	0.024	0.197
-598.055	591.648	0.066	0.165
-597.040	800.000	-0.065	0.238
-596.025	-29.792	-0.065	-0.037
-595.011	82.108	-0.060	0.066
-593.996	207.351	0.219	-0.345
-592.982	16.109	-0.087	-0.069
-591.967	-200.000	-0.032	-0.198
-590.952	87.076	-0.073	0.082
-589.938	724.729	-0.056	-0.150
-588.923	-200.000	0.045	-0.216
-587.909	-37.214	-0.238	0.128
-586.894	29.948	-0.217	0.187
-585.879	130.693	0.192	-0.248
-584.865	255.830	0.134	-0.232
-583.850	473.474	0.113	0.257
-582.836	18.283	0.076	0.061
-581.821	-200.000	-0.043	-0.249
-580.806	800.000	-0.081	0.244
-579.792	-200.000	0.009	0.344
-578.777	-12.708	-0.086	0.056
-577.763	54.910	0.074	0.073
-576.748	-139.950	0.284	-0.030
-575.733	800.000	-0.048	0.206
-574.719	-148.917	-0.079	0.006
-573.704	-181.392	0.102	0.002
-572.690	800.000	0.049	-0.164
-571.675	18.966	0.253	-0.205
-570.661	-200.000	0.060	-0.400
-569.646	800.000	-0.115	-0.394
-568.631	-157.421	-0.366	-0.022
-567.617	-200.000	-0.004	-0.341
-566.602	800.000	-0.015	0.064
-565.588	-125.920	-0.177	-0.027
-564.573	216.160	0.072	0.115
-563.558	90.127	0.286	-0.322
-562.544	-147.394	-0.274	-0.023
-561.529	127.329	0.178	0.228
-560.515	127.265	0.200	0.256
-559.500	800.000	-0.062	0.209
-558.485	-11.564	-0.150	0.099
-557.471	800.000	-0.122	0.480
-556.456	-45.930	-0.104	-0.052
-555.442	-65.471	-0.112	0.045
-554.427	7.434	-0.132	-0.100
-553.412	-10.577	0.102	0.068
-552.398	-76.176	-0.107	-0.038
-551.383	54.756	0.104	-0.101
-550.369	616.293	-0.032	0.081
-549.354	800.000	-0.054	-0.163
-548.339	-200.000	-0.045	-0.235
-547.325	390.099	-0.072	-0.151
-546.310	11.643	-0.048	0.037
-545.296	-132.491	-0.090	0.012
-544.281	-34.644	-0.223	0.123
-543.266	-19.677	0.236	-0.147
-542.252	256.642	0.159	0.276
-541.237	800.000	0.089	0.340
-540.223	-63.645	-0.090	0.037
-539.208	-109.009	0.165	-0.036
-538.193	-23.173	-0.291	-0.176
-537.179	316.884	-0.104	-0.198
-536.164	321.180	0.245	-0.470
-535.150	249.959	0.138	-0.237
-534.135	-96.443	0.134	-0.036
-533.121	580.920	-0.118	0.292
-532.106	452.286	-0.044	-0.098
-531.091	79.114	0.160	0.172
-530.077	186.322	0.124	0.186
-529.062	-86.313	-0.196	0.061
-528.048	800.000	0.078	-0.232
-527.033	72.399	-0.041	0.043
-526.018	800.000	0.048	-0.155
-525.004	-100.852	-0.257	0.064
-523.989	506.163	0.097	0.228
-522.975	554.614	0.129	0.312
-521.960	-87.279	0.334	-0.102
-520.945	-187.713	0.150	-0.002
-519.931	404.605	-0.114	-0.243
-518.916	166.239	0.133	0.190
-517.902	292.980	-0.085	0.156
-516.887	-47.661	0.295	0.144
-515.872	406.239	0.046	0.098
-514.858	241.930	0.099	0.167
-513.843	-129.460	-0.046	0.006
-512.829	134.154	-0.078	0.102
-511.814	355.245	0.068	-0.136
-510.799	312.316	-0.130	-0.245
-509.785	290.906	-0.155	-0.283
-508.770	-77.660	0.438	-0.153
-507.756	-100.019	-0.217	-0.054
-506.741	73.951	0.107	0.113
-505.726	-200.000	0.019	0.097
-504.712	48.056	-0.184	-0.173
-503.697	36.175	-0.137	0.121
-502.683	800.000	-0.025	-0.111
-501.668	800.000	0.048	0.135
-500.653	116.679	-0.154	0.190
-499.639	800.000	0.060	0.246
-498.624	30.167	-0.115	0.099
-497.610	452.075	0.058	-0.129
-496.595	-2.743	0.284	0.200
-495.581	800.000	0.048	-0.145
-494.566	-138.894	-0.205	-0.022
-493.551	-200.000	-0.043	-0.198
-492.537	207.547	-0.207	-0.325
-491.522	27.899	0.317	-0.269
-490.508	118.376	0.029	-0.036
-489.493	800.000	-0.063	0.206
-488.478	21.665	0.070	-0.058
-487.464	-37.983	-0.159	-0.085
-486.449	-152.933	-0.210	0.015
-485.435	151.097	0.282	-0.386
-484.420	278.898	-0.153	-0.275
-483.405	-51.925	-0.233	-0.109
-482.391	206.414	0.059	-0.092
-481.376	245.277	-0.256	-0.434
-480.362	-84.625	0.316	0.100
-479.347	-138.178	0.157	0.018
-478.332	41.795	0.233	-0.213
-477.318	-200.000	-0.067	-0.000
-476.303	423.208	-0.084	0.182
-475.289	68.455	0.148	-0.152
-474.274	347.398	-0.082	-0.162
-473.259	-4.859	-0.283	0.196
-472.245	59.605	0.486	0.481
-471.230	25.384	-0.080	-0.066
-470.216	0.104	-0.128	0.092
-469.201	93.323	0.131	0.149
-468.186	-51.094	0.383	-0.180
-467.172	72.513	0.173	0.181
-466.157	523.355	0.112	0.264
-465.143	-65.790	0.153	0.062
-464.128	800.000	0.144	-0.422
-463.113	56.711	-0.021	-0.020
-462.099	-9.309	-0.398	-0.267
-461.084	-65.495	0.395	0.159
-460.070	800.000	-0.061	0.209
-459.055	-19.224	0.120	-0.075
-458.040	-200.000	-0.093	0.435
-457.026	67.059	0.109	-0.112
-456.011	-70.034	-0.274	-0.105
-454.997	-200.000	-0.007	0.078
-453.982	-112.228	-0.102	-0.021
-452.968	-51.527	0.150	0.071
-451.953	643.078	0.126	-0.323
-450.938	-134.641	0.609	0.075
-449.924	97.134	-0.130	0.149
-448.909	133.764	0.135	0.176
-447.895	-13.549	-0.258	-0.168
-446.880	375.585	-0.160	0.328
-445.865	665.503	0.108	0.279
-444.851	-200.000	0.015	-0.162
-443.836	-139.428	0.071	0.008
-442.822	-119.216	-0.104	-0.018
-441.807	-200.000	0.009	-0.126
-440.792	443.132	-0.003	-0.007
-439.778	153.817	-0.165	-0.227
-438.763	-47.734	-0.254	0.124
-437.749	153.818	-0.058	0.080
-436.734	800.000	0.026	-0.106
-435.719	12.176	0.243	-0.188
-434.705	291.056	0.163	-0.297
-433.690	487.867	-0.086	-0.196
-432.676	800.000	-0.091	-0.341
-431.661	-74.183	0.201	-0.073
-430.646	-189.637	0.029	0.000
-429.632	-178.722	-0.184	-0.004
-428.617	-116.505	-0.418	0.077
-427.603	-123.124	0.199	0.032
-426.588	-166.083	0.136	0.006
-425.573	800.000	-0.045	-0.164
-424.559	-200.000	0.010	0.049
-423.544	-138.290	0.156	-0.017
-422.530	-44.957	-0.299	-0.150
-421.515	-41.759	0.059	0.030
-420.500	800.000	-0.043	0.163
-419.486	-82.747	-0.056	0.018
-418.471	-155.651	0.383	0.025
-417.457	-23.254	-0.104	-0.063
-416.442	106.656	-0.032	0.038
-415.428	36.906	0.155	-0.137
-414.413	226.953	-0.116	0.189
-413.398	-185.196	0.328	-0.005
-412.384	-97.342	-0.227	0.059
-411.369	-135.211	0.084	-0.010
-410.355	-116.958	0.301	-0.055
-409.340	800.000	-0.017	-0.049
-408.325	779.010	-0.053	0.145
-407.311	29.922	-0.127	-0.108
-406.296	33.370	-0.158	0.137
-405.282	-121.281	0.206	-0.035
-404.267	-200.000	0.021	0.161
-403.252	-200.000	0.020	-0.136
-402.238	-181.892	-0.270	-0.005
-401.223	-15.012	-0.136	-0.087
-400.209	-162.808	0.128	0.006
-399.194	-200.000	0.000	-0.205
-398.179	421.645	0.084	0.180
-397.165	-200.000	0.002	0.100
-396.150	-200.000	0.005	-0.077
-395.136	27.113	-0.201	0.169
-394.121	596.425	0.076	0.189
-393.106	-166.592	0.126	-0.005
-392.092	-200.000	0.019	-0.196
-391.077	-96.867	-0.115	0.030
-390.063	-200.000	-0.016	0.244
-389.048	58.383	0.058	0.057
-388.033	-136.650	0.271	0.031
-387.019	-84.385	0.188	0.059
-386.004	-29.712	0.476	-0.272
-384.990	-137.298	0.104	0.012
-383.975	275.386	0.144	0.255
-382.960	-70.730	0.122	-0.046
-381.946	32.482	-0.209	0.181
-380.931	188.037	0.177	-0.265
-379.917	2.518	0.119	0.086
-378.902	800.000	0.131	0.483
-377.888	800.000	0.045	0.159
-376.873	800.000	-0.107	-0.393
-375.858	29.020	0.139	-0.118
-374.844	-200.000	0.030	0.244
-373.829	-84.328	-0.296	0.094
-372.815	-49.098	0.103	0.050
-371.800	105.688	0.235	0.278
-370.785	-92.436	-0.372	-0.105
-369.771	346.101	-0.059	0.115
-368.756	-200.000	0.014	-0.224
-367.742	-53.503	0.126	0.058
-366.727	-200.000	-0.020	-0.218
-365.712	165.789	-0.084	-0.119
-364.698	51.150	-0.133	0.126
-363.683	-8.753	-0.105	0.071
-362.669	-200.000	0.151	-0.665
-361.654	-76.397	-0.067	-0.024
-360.639	-73.012	-0.159	0.059
-359.625	-200.000	-0.010	0.071
-358.610	-60.417	0.417	0.178
-357.596	-167.921	0.114	0.004
-356.581	-200.000	-0.043	0.251
-355.566	-64.313	-0.183	0.075
-354.552	-84.370	-0.276	0.087
-353.537	-167.582	0.005	0.000
-352.523	72.608	-0.176	0.184
-351.508	-124.888	0.301	0.047
-350.493	97.990	-0.261	0.300
-349.479	800.000	-0.082	-0.239
-348.464	143.394	-0.172	0.229
-347.450	-62.489	0.120	-0.050
-346.435	-38.867	0.108	-0.057
-345.420	241.946	0.022	0.037
-344.406	399.369	0.097	-0.204
-343.391	-50.788	-0.170	0.080
-342.377	-70.427	-0.348	0.132
-341.362	-20.124	0.108	0.067
-340.348	-200.000	0.001	0.139
-339.333	-27.660	0.170	0.099
-338.318	-136.975	-0.405	-0.046
-337.304	-85.733	0.085	0.026
-336.289	48.616	-0.152	-0.143
-335.275	-99.514	-0.131	0.033
-334.260	661.663	-0.015	0.039
-333.245	-122.269	-0.124	0.020
-332.231	146.902	0.220	-0.296
-331.216	-5.154	0.071	0.049
-330.202	82.294	-0.130	-0.141
-329.187	-200.000	0.023	-0.268
-328.172	-200.000	0.002	0.159
-327.158	-200.000	0.042	0.221
-326.143	140.043	0.011	0.015
-325.129	-200.000	0.020	-0.135
-324.114	3.658	-0.103	-0.075
-323.099	-200.000	0.023	-0.151
-322.085	-6.689	-0.240	0.163
-321.070	-200.000	-0.017	0.262
-320.056	-200.000	0.002	0.120
-319.041	800.000	-0.039	0.113
-318.026	506.452	0.039	-0.090
-317.012	78.895	-0.187	0.200
-315.997	800.000	0.071	-0.284
-314.983	32.488	-0.133	-0.114
-313.968	800.000	0.046	0.158
-312.953	-46.401	-0.218	-0.107
-311.939	-200.000	-0.018	0.236
-310.924	14.207	-0.126	-0.098
-309.910	540.579	-0.028	0.067
-308.895	94.926	-0.110	0.125
-307.880	-134.595	-0.289	-0.035
-306.866	386.504	-0.095	-0.196
-305.851	251.630	-0.201	0.341
-304.837	800.000	0.037	0.139
-303.822	-200.000	-0.159	0.001
-302.807	-186.376	-0.101	-0.001
-301.793	-190.871	-0.274	-0.003
-300.778	-1.739	-0.121	-0.085
-299.764	540.124	-0.073	0.172
-298.749	800.000	0.062	-0.269
-297.735	-200.000	0.013	-0.235
-296.720	-44.165	0.023	-0.012
-295.705	114.795	-0.203	0.247
-294.691	800.000	0.045	0.153
-293.676	-35.602	0.153	-0.083
-292.662	-159.094	-0.188	0.011
-291.647	396.853	0.179	0.373
-290.632	74.576	-0.189	0.199
-289.618	194.580	0.042	-0.064
-288.603	-10.034	-0.020	-0.013
-287.589	-7.321	0.163	-0.110
-286.574	800.000	-0.055	0.239
-285.559	191.181	0.073	-0.110
-284.545	-1.173	-0.237	0.167
-283.530	291.182	0.164	-0.297
-282.516	-195.997	0.174	0.001
-281.501	184.653	0.088	0.129
-280.486	-94.141	0.001	0.000
-279.472	-81.844	-0.257	-0.084
-278.457	-66.251	-0.176	0.070
-277.443	109.046	-0.269	0.321
-276.428	-200.000	0.003	0.166
-275.413	-128.628	0.122	0.017
-274.399	-99.127	0.132	0.033
-273.384	7.871	-0.179	-0.134
-272.370	-0.998	0.182	-0.128
-271.355	-200.000	-0.130	-0.571
-270.340	-200.000	0.026	0.226
-269.326	113.025	0.148	0.179
-268.311	-44.172	0.438	-0.219
-267.297	14.876	0.166	0.130
-266.282	495.833	-0.155	0.355
-265.267	-31.570	-0.217	-0.122
-264.253	-124.751	-0.122	-0.019
-263.238	-32.963	0.105	-0.058
-262.224	-86.558	0.118	0.036
-261.209	-27.703	-0.263	0.152
-260.195	-61.197	0.074	0.031
-259.180	123.663	-0.199	0.249
-258.165	2.222	-0.143	0.103
-257.151	-200.000	0.033	0.161
-256.136	640.923	0.048	0.121
-255.122	67.183	0.203	0.206
-254.107	-23.500	0.325	0.195
-253.092	140.427	0.263	-0.346
-252.078	143.147	-0.137	0.181
-251.063	78.988	0.308	-0.329
-250.049	800.000	-0.029	-0.085
-249.034	82.962	0.043	-0.046
-248.019	-119.997	0.167	0.029
-247.005	742.418	-0.078	-0.209
-245.990	-118.869	-0.281	-0.049
-244.976	-200.000	0.031	0.578
-243.961	-200.000	0.043	-0.200
-242.946	63.193	-0.197	0.197
-241.932	-45.579	0.172	0.085
-240.917	-63.664	-0.131	-0.053
-239.903	360.885	-0.288	0.575
-238.888	174.089	-0.058	0.084
-237.873	-113.735	-0.111	-0.022
-236.859	34.233	0.292	-0.253
-235.844	16.586	-0.115	-0.091
-234.830	490.175	-0.221	-0.504
-233.815	-171.254	0.265	-0.009
-232.800	-200.000	0.011	0.142
-231.786	-144.720	0.247	0.023
-230.771	-200.000	0.023	-0.127
-229.757	-93.352	-0.118	0.033
-228.742	-94.546	-0.345	0.094
-227.727	187.955	0.095	0.141
-226.713	-111.460	-0.395	-0.080
-225.698	800.000	0.037	0.117
-224.684	199.670	-0.075	-0.115
-223.669	-10.068	0.166	-0.110
-222.655	284.774	-0.099	0.177
-221.640	-142.588	0.070	-0.007
-220.625	7.297	0.201	0.149
-219.611	-200.000	-0.029	0.222
-218.596	-185.975	0.428	-0.006
-217.582	-2.238	0.123	-0.086
-216.567	-72.181	-0.113	0.042
-215.552	-166.491	-0.149	-0.006
-214.538	0.427	-0.237	-0.168
-213.523	800.000	-0.049	0.183
-212.509	800.000	0.123	0.397
-211.494	-68.537	-0.240	0.093
-210.479	-130.856	0.463	-0.062
-209.465	800.000	0.033	0.112
-208.450	-200.000	-0.052	-0.459
-207.436	-45.324	0.139	-0.069
-206.421	-87.622	-0.142	0.043
-205.406	-141.138	0.113	0.011
-204.392	490.084	-0.093	0.211
-203.377	-33.191	-0.143	-0.079
-202.363	-44.688	0.300	-0.149
-201.348	27.967	-0.252	-0.212
-200.333	-43.785	0.154	0.077
-199.319	-32.952	0.292	-0.161
-198.304	-200.000	-0.080	-0.402
-197.290	736.269	-0.044	-0.117
-196.275	-34.169	0.174	-0.095
-195.260	6.868	-0.029	-0.022
-194.246	800.000	0.039	0.144
-193.231	-200.000	0.006	-0.300
-192.217	-18.565	-0.077	-0.048
-191.202	-130.970	-0.199	-0.026
-190.187	800.000	-0.042	0.132
-189.173	-85.124	-0.346	0.108
-188.158	-200.000	-0.024	-0.244
-187.144	69.299	-0.032	-0.033
-186.129	-41.846	0.166	0.085
-185.114	-16.769	0.211	0.133
-184.100	-187.358	0.217	0.003
-183.085	800.000	-0.099	-0.286
-182.071	-55.133	-0.288	0.129
-181.056	-46.022	0.235	0.115
-180.042	624.600	0.086	0.216
-179.027	-100.485	0.166	-0.041
-178.012	103.865	0.200	-0.234
-176.998	117.853	-0.135	-0.166
-175.983	-200.000	0.015	0.234
-174.969	112.795	0.094	-0.113
-173.954	-18.787	-0.149	0.092
-172.939	-102.827	0.371	0.088
-171.925	240.173	0.150	0.248
-170.910	-200.000	0.021	-0.149
-169.896	455.594	0.111	0.244
-168.881	-150.205	-0.475	-0.036
-167.866	-47.306	-0.236	-0.114
-166.852	-200.000	0.014	-0.067
-165.837	-131.637	-0.333	0.043
-164.823	-200.000	-0.009	-0.044
-163.808	-72.655	0.453	-0.166
-162.793	-82.250	-0.048	-0.015
-161.779	800.000	-0.022	0.079
-160.764	-70.394	0.365	-0.137
-159.750	60.881	-0.150	0.148
-158.735	182.784	-0.081	0.119
-157.720	800.000	0.059	0.189
-156.706	800.000	0.051	0.199
-155.691	-27.369	-0.075	0.043
-154.677	-0.331	-0.271	-0.191
-153.662	597.035	0.088	-0.216
-152.647	368.554	0.036	0.072
-151.633	800.000	-0.079	0.220
-150.618	-125.176	0.047	0.007
-149.604	687.231	0.125	-0.325
-148.589	-159.189	-0.358	-0.020
-147.574	446.146	0.145	0.315
-146.560	61.751	0.076	0.075
-145.545	345.572	0.122	0.239
-144.531	41.261	-0.285	-0.256
-143.516	-148.987	-0.151	-0.012
-142.502	-35.052	0.064	-0.035
-141.487	39.173	-0.123	0.109
-140.472	-59.240	0.024	-0.010
-139.458	93.817	0.028	-0.031
-138.443	-200.000	0.001	0.093
-137.429	-131.306	-0.233	-0.031
-136.414	-136.493	0.294	0.034
-135.399	800.000	-0.106	0.371
-134.385	-200.000	-0.009	0.164
-133.370	-200.000	-0.096	0.563
-132.356	-43.354	-0.266	0.133
-131.341	-126.369	-0.107	0.016
-130.326	290.800	-0.116	-0.209
-129.312	-9.472	-0.340	0.225
-128.297	-110.202	-0.303	0.063
-127.283	76.895	0.102	0.107
-126.268	1.408	-0.163	0.116
-125.253	-200.000	-0.022	0.163
-124.239	-56.355	0.198	-0.087
-123.224	181.974	-0.190	-0.278
-122.210	250.275	0.036	-0.060
-121.195	35.615	0.309	-0.270
-120.180	-144.165	-0.213	-0.020
