DTS Sentinel unit serial number:	SN413079Multiplexer serial number:	ORYXHardware model number:	OX4-SRSoftware version number:	ORYX F/W v4.00 Oryx Data Collector v3.7.2.0data status	okinstallation	princeton_trtdifferential loss correction	single-endedforward channel	channel 4reverse channel	N/Adate	2019/09/14time	14:05:35forward acquisition time	60.00reverse acquisition time	0.00gamma	496.2192k internal	0.2290k external	0.2290temperature offset calibration	1.0148default loss term (dB/km)	0.3790temperature slope calibration	1.0000multiplexer offset coefficient	1.0000multiplexer slope coefficient	1.0000fibre end	0.00T internal ref (°C)	38.19T ext. ref 1 (°C)	4.99T ext. ref 2 (°C)	36.94length (m)	temperature (°C)	Stokes	anti-Stokes-747.200	-200.000	0.062	0.423
-746.185	-200.000	0.059	0.314
-745.171	-148.793	-0.089	-0.007
-744.156	-72.621	0.418	0.158
-743.142	45.368	0.304	-0.287
-742.127	-60.199	-0.252	-0.110
-741.112	-200.000	-0.004	-0.141
-740.098	18.457	0.110	0.090
-739.083	623.409	0.134	-0.345
-738.069	340.264	-0.145	0.290
-737.054	14.694	-0.070	0.056
-736.039	449.050	0.016	0.037
-735.025	800.000	0.066	0.226
-734.010	-200.000	-0.032	-0.179
-732.996	800.000	0.057	0.221
-731.981	125.535	0.292	0.377
-730.966	29.302	-0.195	-0.170
-729.952	800.000	-0.039	-0.134
-728.937	-200.000	-0.024	0.198
-727.923	488.478	-0.125	0.291
-726.908	48.186	-0.268	0.257
-725.894	46.404	0.176	0.167
-724.879	-155.469	-0.060	-0.004
-723.864	-200.000	0.049	0.303
-722.850	528.863	0.071	-0.171
-721.835	800.000	-0.047	-0.206
-720.821	465.305	0.173	-0.396
-719.806	-176.013	-0.109	-0.003
-718.791	144.270	-0.168	-0.229
-717.777	-126.028	-0.344	0.053
-716.762	11.333	-0.263	-0.206
-715.748	56.761	0.205	0.204
-714.733	145.098	-0.024	0.033
-713.718	800.000	-0.050	-0.185
-712.704	-88.073	0.085	-0.026
-711.689	31.326	-0.072	0.064
-710.675	-94.434	-0.228	0.064
-709.660	-200.000	0.027	0.226
-708.645	731.943	-0.054	0.149
-707.631	80.997	-0.298	0.329
-706.616	65.895	0.035	0.037
-705.602	-200.000	-0.010	0.449
-704.587	-75.937	-0.389	0.141
-703.572	79.405	0.126	-0.138
-702.558	-15.642	-0.218	0.142
-701.543	147.254	0.041	0.056
-700.529	-189.123	-0.094	-0.001
-699.514	92.738	-0.100	0.115
-698.499	-152.979	-0.308	-0.022
-697.485	640.070	-0.132	0.344
-696.470	-15.650	-0.073	-0.047
-695.456	376.545	0.117	0.245
-694.441	-189.133	-0.052	0.001
-693.426	56.818	0.102	0.102
-692.412	-87.250	0.339	0.105
-691.397	800.000	-0.092	-0.296
-690.383	-200.000	-0.012	-0.139
-689.368	-115.323	0.168	-0.033
-688.354	-133.357	-0.349	0.045
-687.339	-54.259	0.321	-0.149
-686.324	-75.242	-0.293	-0.107
-685.310	-16.607	0.032	0.021
-684.295	-52.059	0.170	-0.081
-683.281	800.000	0.056	-0.229
-682.266	-33.479	-0.202	0.114
-681.251	-200.000	-0.021	0.245
-680.237	78.816	-0.269	-0.294
-679.222	-73.607	0.222	0.083
-678.208	-70.652	-0.202	-0.078
-677.193	-200.000	-0.017	-0.141
-676.178	256.340	-0.115	0.201
-675.164	800.000	-0.058	-0.172
-674.149	360.245	-0.205	-0.420
-673.135	-200.000	0.046	-0.276
-672.120	149.535	-0.184	0.254
-671.105	-121.841	0.078	-0.013
-670.091	-95.125	0.179	0.049
-669.076	-172.465	-0.312	0.010
-668.062	-54.427	0.164	0.076
-667.047	-40.131	-0.039	-0.021
-666.032	269.439	0.083	-0.149
-665.018	183.026	0.198	0.298
-664.003	-83.711	-0.140	0.046
-662.989	-200.000	-0.011	0.160
-661.974	-200.000	0.036	-0.175
-660.959	800.000	-0.082	-0.297
-659.945	-56.745	-0.459	0.207
-658.930	25.749	0.112	-0.096
-657.916	82.499	0.229	-0.254
-656.901	-84.838	0.063	-0.020
-655.886	37.424	0.214	0.193
-654.872	73.648	-0.245	-0.262
-653.857	-200.000	0.010	-0.085
-652.843	-50.577	-0.091	0.044
-651.828	-132.934	-0.529	-0.069
-650.814	-95.181	-0.206	0.057
-649.799	-200.000	-0.003	-0.191
-648.784	-200.000	-0.012	0.207
-647.770	668.341	0.132	-0.348
-646.755	109.031	0.104	-0.127
-645.741	253.167	-0.075	-0.131
-644.726	800.000	0.043	0.168
-643.711	-200.000	-0.034	0.236
-642.697	368.082	0.167	-0.345
-641.682	-116.159	0.102	0.019
-640.668	-99.295	0.177	-0.046
-639.653	-126.748	0.221	0.033
-638.638	-200.000	-0.014	-0.146
-637.624	81.082	-0.269	0.296
-636.609	386.444	-0.112	0.237
-635.595	-22.016	-0.269	-0.167
-634.580	-183.033	-0.122	-0.002
-633.565	-68.458	-0.195	-0.077
-632.551	-200.000	-0.029	-0.294
-631.536	-120.919	0.178	-0.031
-630.522	-200.000	0.037	-0.195
-629.507	-141.169	0.249	-0.026
-628.492	127.202	0.214	0.277
-627.478	-200.000	0.008	0.415
-626.463	-200.000	0.005	-0.173
-625.449	761.703	0.121	0.334
-624.434	34.035	-0.143	-0.127
-623.419	176.222	0.113	-0.168
-622.405	89.942	0.059	-0.067
-621.390	-66.605	-0.203	0.082
-620.376	-200.000	0.020	-0.106
-619.361	87.255	-0.213	-0.241
-618.346	-63.489	0.157	0.066
-617.332	-200.000	-0.007	0.457
-616.317	296.367	-0.109	-0.204
-615.303	-29.213	-0.083	0.048
-614.288	11.274	-0.146	-0.114
-613.273	126.593	-0.147	0.190
-612.259	-23.543	0.089	-0.055
-611.244	-200.000	0.100	-0.476
-610.230	800.000	0.156	-0.473
-609.215	-200.000	-0.028	0.571
-608.201	73.174	-0.380	-0.405
-607.186	-160.186	-0.302	0.017
-606.171	-200.000	0.020	0.208
-605.157	800.000	-0.046	-0.183
-604.142	-200.000	-0.012	-0.248
-603.128	-200.000	0.042	-0.266
-602.113	-89.046	-0.309	0.093
-601.098	4.722	0.202	0.151
-600.084	217.463	-0.071	0.115
-599.069	414.304	0.062	-0.135
-598.055	745.983	-0.109	0.299
-597.040	288.327	-0.137	0.253
-596.025	112.006	0.248	0.305
-595.011	800.000	0.086	0.290
-593.996	499.686	0.085	-0.198
-592.982	226.855	0.100	-0.166
-591.967	191.484	-0.205	-0.315
-590.952	1.970	0.132	-0.097
-589.938	-130.544	0.271	-0.037
-588.923	-200.000	-0.003	0.144
-587.909	89.645	-0.099	-0.112
-586.894	-84.954	0.237	-0.076
-585.879	5.839	0.104	0.078
-584.865	-24.328	0.275	0.167
-583.850	-121.507	0.221	0.037
-582.836	-200.000	0.001	0.032
-581.821	-68.458	-0.339	0.134
-580.806	-129.628	-0.218	-0.031
-579.792	42.556	-0.168	0.155
-578.777	117.441	0.029	-0.036
-577.763	14.306	-0.096	0.076
-576.748	74.043	-0.070	-0.075
-575.733	-51.538	-0.258	-0.123
-574.719	6.556	-0.182	-0.138
-573.704	800.000	0.042	-0.144
-572.690	-58.139	-0.208	-0.092
-571.675	-20.116	0.132	-0.083
-570.661	24.615	-0.169	-0.142
-569.646	800.000	0.161	0.465
-568.631	-5.215	-0.124	0.087
-567.617	-104.032	0.045	0.011
-566.602	10.668	-0.196	0.152
-565.588	-97.220	-0.246	0.065
-564.573	-163.843	0.227	-0.011
-563.558	-84.706	0.292	-0.093
-562.544	-100.836	-0.338	0.085
-561.529	-26.847	-0.124	0.074
-560.515	-200.000	-0.008	-0.274
-559.500	63.142	0.149	0.152
-558.485	139.905	-0.026	-0.035
-557.471	-54.225	0.238	0.110
-556.456	10.048	-0.195	-0.150
-555.442	9.557	-0.105	-0.081
-554.427	800.000	-0.075	-0.303
-553.412	-115.539	0.242	-0.046
-552.398	-200.000	0.010	0.141
-551.383	-30.514	-0.185	-0.106
-550.369	-200.000	0.057	0.484
-549.354	-18.002	0.111	-0.070
-548.339	-22.387	-0.094	-0.058
-547.325	119.167	0.034	0.042
-546.310	43.153	0.208	0.193
-545.296	800.000	0.028	0.116
-544.281	149.748	-0.108	-0.149
-543.266	-200.000	-0.028	0.185
-542.252	-165.759	0.231	0.010
-541.237	314.089	0.094	-0.179
-540.223	-49.897	0.303	0.146
-539.208	42.082	-0.181	0.167
-538.193	-200.000	-0.050	-0.335
-537.179	-48.951	0.192	0.093
-536.164	645.762	-0.105	-0.271
-535.150	-36.304	-0.118	0.064
-534.135	207.302	-0.032	-0.051
-533.121	-62.454	-0.203	-0.086
-532.106	177.009	0.141	0.209
-531.091	26.336	0.203	-0.172
-530.077	-71.443	0.221	0.084
-529.062	-64.562	0.395	0.163
-528.048	-12.412	-0.253	-0.168
-527.033	-60.756	-0.181	-0.078
-526.018	-4.725	-0.263	0.185
-525.004	20.691	0.048	0.039
-523.989	-200.000	-0.039	0.310
-522.975	-17.887	-0.188	0.119
-521.960	800.000	0.030	-0.114
-520.945	-117.222	0.282	-0.052
-519.931	800.000	0.078	0.229
-518.916	-200.000	-0.021	-0.243
-517.902	166.812	-0.063	-0.090
-516.887	-132.325	-0.200	0.026
-515.872	528.111	-0.033	0.078
-514.858	-173.453	-0.179	-0.005
-513.843	-200.000	-0.030	-0.345
-512.829	139.741	-0.251	-0.336
-511.814	81.838	-0.105	-0.115
-510.799	85.672	0.041	-0.046
-509.785	79.249	0.122	-0.133
-508.770	-199.149	-0.028	0.000
-507.756	-48.465	0.032	0.015
-506.741	21.460	-0.277	-0.228
-505.726	-7.975	0.141	0.096
-504.712	-31.530	0.121	-0.069
-503.697	-200.000	-0.013	0.180
-502.683	-128.097	-0.168	-0.024
-501.668	347.982	-0.073	0.146
-500.653	721.546	-0.084	0.228
-499.639	-95.946	0.275	0.074
-498.624	-46.923	-0.201	0.100
-497.610	304.573	-0.061	0.115
-496.595	-103.471	-0.316	0.075
-495.581	505.278	-0.143	0.337
-494.566	52.738	-0.178	-0.172
-493.551	534.682	-0.044	0.106
-492.537	-138.625	-0.088	0.010
-491.522	-200.000	-0.008	-0.121
-490.508	-103.833	-0.328	-0.078
-489.493	-47.795	0.455	0.224
-488.478	-96.437	0.158	0.042
-487.464	18.013	0.227	-0.184
-486.449	84.312	-0.106	-0.118
-485.435	-36.138	0.332	0.182
-484.420	147.572	0.288	0.394
-483.405	-200.000	-0.017	-0.174
-482.391	-174.319	0.304	-0.009
-481.376	318.448	-0.130	-0.250
-480.362	-198.785	-0.554	-0.003
-479.347	131.429	0.034	-0.044
-478.332	-85.215	-0.205	0.065
-477.318	-155.693	0.373	0.024
-476.303	491.913	-0.023	-0.053
-475.289	-200.000	-0.017	0.114
-474.274	83.948	-0.363	-0.401
-473.259	-18.906	0.156	-0.098
-472.245	-1.374	-0.326	0.234
-471.230	800.000	-0.036	-0.121
-470.216	-111.892	0.381	0.078
-469.201	-200.000	0.003	-0.150
-468.186	800.000	-0.081	0.262
-467.172	102.159	-0.079	-0.093
-466.157	-56.326	-0.058	0.026
-465.143	800.000	0.036	-0.138
-464.128	295.245	-0.157	-0.291
-463.113	-98.789	0.168	0.043
-462.099	-149.814	-0.282	0.022
-461.084	61.087	0.046	0.046
-460.070	-41.772	0.235	-0.122
-459.055	-45.273	-0.456	-0.229
-458.040	149.898	0.162	-0.223
-457.026	-113.343	-0.288	0.057
-456.011	68.227	-0.083	0.086
-454.997	-200.000	0.021	0.160
-453.982	-200.000	-0.025	0.226
-452.968	-111.430	-0.163	0.034
-451.953	252.708	0.180	-0.310
-450.938	-200.000	-0.033	-0.348
-449.924	-44.136	0.160	-0.082
-448.909	40.496	-0.188	0.172
-447.895	800.000	-0.069	0.295
-446.880	197.357	-0.142	0.219
-445.865	221.810	-0.167	-0.272
-444.851	-58.104	-0.320	0.141
-443.836	-27.384	-0.132	0.078
-442.822	143.056	0.234	-0.316
-441.807	-200.000	-0.006	-0.078
-440.792	-89.775	0.237	-0.070
-439.778	-99.289	0.303	0.077
-438.763	-50.629	0.297	0.141
-437.749	28.061	0.080	-0.069
-436.734	-53.617	0.189	0.087
-435.719	-38.231	0.074	0.040
-434.705	124.513	-0.085	-0.109
-433.690	98.304	0.082	0.095
-432.676	800.000	-0.013	-0.051
-431.661	141.695	-0.162	0.217
-430.646	-59.184	0.267	0.117
-429.632	-200.000	0.001	0.035
-428.617	13.632	0.310	-0.244
-427.603	-95.193	0.239	0.065
-426.588	800.000	0.069	-0.231
-425.573	-55.340	-0.181	0.082
-424.559	-64.668	0.187	-0.077
-423.544	-7.228	-0.081	-0.056
-422.530	758.391	-0.063	-0.172
-421.515	244.510	0.223	0.378
-420.500	-200.000	-0.051	-0.344
-419.486	-200.000	-0.056	0.395
-418.471	-20.272	-0.083	-0.052
-417.457	-200.000	-0.021	-0.116
-416.442	325.611	-0.070	-0.135
-415.428	-200.000	0.014	-0.395
-414.413	-121.580	0.163	0.027
-413.398	312.708	0.169	-0.321
-412.384	-109.501	0.220	-0.047
-411.369	-107.960	0.368	-0.081
-410.355	134.607	0.156	0.205
-409.340	542.572	0.111	-0.268
-408.325	41.907	0.068	0.063
-407.311	39.463	0.167	0.151
-406.296	755.041	-0.087	0.239
-405.282	-200.000	0.026	0.151
-404.267	-47.285	-0.145	0.072
-403.252	264.455	-0.144	-0.253
-402.238	42.857	0.066	-0.060
-401.223	81.208	-0.064	0.070
-400.209	32.436	-0.099	0.086
-399.194	77.281	-0.167	0.179
-398.179	-200.000	-0.030	-0.147
-397.165	-200.000	0.011	0.579
-396.150	77.235	0.114	-0.123
-395.136	398.652	-0.110	0.233
-394.121	-200.000	-0.006	0.096
-393.106	-200.000	-0.001	-0.153
-392.092	-200.000	0.010	0.166
-391.077	-200.000	-0.083	0.430
-390.063	-140.398	0.272	-0.029
-389.048	-200.000	-0.015	0.274
-388.033	800.000	-0.115	-0.389
-387.019	171.483	-0.108	0.156
-386.004	-200.000	0.014	0.302
-384.990	110.678	-0.016	-0.019
-383.975	128.982	0.065	0.084
-382.960	-76.651	0.114	-0.040
-381.946	-200.000	0.038	0.182
-380.931	-39.113	0.110	-0.058
-379.917	-35.370	0.201	0.111
-378.902	800.000	0.062	0.243
-377.888	800.000	-0.034	0.117
-376.873	105.321	0.358	0.427
-375.858	223.867	-0.112	-0.183
-374.844	-84.336	-0.464	-0.148
-373.829	-200.000	0.017	-0.080
-372.815	325.979	0.064	-0.123
-371.800	800.000	-0.142	-0.415
-370.785	-56.741	-0.184	-0.082
-369.771	236.022	0.084	0.141
-368.756	4.005	0.243	0.179
-367.742	-94.946	0.449	-0.123
-366.727	-144.041	-0.367	-0.035
-365.712	-200.000	-0.022	-0.125
-364.698	800.000	-0.016	-0.057
-363.683	-46.845	0.221	0.109
-362.669	-200.000	0.022	-0.106
-361.654	-45.945	-0.258	-0.128
-360.639	-163.741	0.200	-0.010
-359.625	182.885	0.272	-0.405
-358.610	-96.974	0.159	-0.042
-357.596	800.000	-0.043	0.130
-356.581	-74.020	-0.340	-0.124
-355.566	-200.000	-0.020	0.325
-354.552	-197.765	-0.098	0.001
-353.537	47.788	0.075	0.070
-352.523	800.000	0.089	-0.323
-351.508	151.599	0.084	0.116
-350.493	15.538	0.026	-0.021
-349.479	-200.000	0.014	-0.183
-348.464	-115.688	0.244	-0.046
-347.450	-10.479	-0.111	0.074
-346.435	67.666	0.248	0.256
-345.420	557.424	0.127	0.309
-344.406	47.827	-0.235	-0.222
-343.391	-200.000	0.008	-0.264
-342.377	13.559	0.215	-0.168
-341.362	-200.000	-0.027	0.127
-340.348	-99.183	0.163	-0.042
-339.333	-67.919	0.402	-0.158
-338.318	135.548	-0.065	-0.085
-337.304	-83.714	-0.209	-0.067
-336.289	-200.000	0.057	0.410
-335.275	797.900	-0.033	-0.092
-334.260	167.033	-0.167	0.239
-333.245	-200.000	-0.012	-0.075
-332.231	800.000	-0.066	-0.217
-331.216	-32.802	-0.172	0.096
-330.202	-59.625	-0.133	0.057
-329.187	-80.843	-0.212	0.071
-328.172	61.246	-0.190	0.190
-327.158	103.663	-0.240	-0.284
-326.143	800.000	-0.061	-0.200
-325.129	118.936	-0.049	0.061
-324.114	-104.522	0.242	-0.056
-323.099	164.114	0.200	-0.285
-322.085	613.047	-0.031	-0.077
-321.070	-87.055	-0.239	-0.073
-320.056	-91.836	-0.240	-0.069
-319.041	-31.537	0.270	-0.153
-318.026	655.111	0.071	-0.185
-317.012	29.913	-0.366	-0.314
-315.997	278.470	0.155	0.279
-314.983	-200.000	0.018	0.218
-313.968	80.936	-0.143	-0.156
-312.953	-200.000	-0.002	0.135
-311.939	-200.000	0.009	0.425
-310.924	55.921	-0.222	0.217
-309.910	671.763	0.097	-0.254
-308.895	-110.647	-0.190	-0.040
-307.880	43.455	0.037	0.034
-306.866	148.946	0.078	0.106
-305.851	-200.000	-0.057	-0.304
-304.837	186.703	-0.123	0.184
-303.822	-93.462	-0.201	0.056
-302.807	265.192	0.102	-0.179
-301.793	38.534	0.110	0.099
-300.778	-130.973	-0.214	-0.029
-299.764	-200.000	-0.023	0.275
-298.749	-46.584	-0.143	-0.070
-297.735	38.309	0.056	-0.050
-296.720	-54.677	-0.063	-0.029
-295.705	132.023	0.145	0.187
-294.691	324.714	-0.112	0.216
-293.676	198.323	0.029	0.045
-292.662	800.000	-0.026	-0.072
-291.647	800.000	-0.119	-0.346
-290.632	-96.894	0.311	-0.082
-289.618	-102.910	0.119	-0.029
-288.603	111.735	0.016	0.019
-287.589	28.756	0.231	-0.197
-286.574	28.142	0.098	0.083
-285.559	-200.000	-0.001	-0.247
-284.545	400.220	0.131	-0.275
-283.530	-3.637	-0.268	-0.188
-282.516	-67.931	-0.185	0.073
-281.501	223.565	0.225	0.366
-280.486	69.276	0.171	-0.177
-279.472	-200.000	0.029	0.136
-278.457	-200.000	0.038	0.179
-277.443	-46.106	0.146	0.072
-276.428	-200.000	0.006	-0.034
-275.413	-0.947	0.152	0.108
-274.399	800.000	0.141	-0.436
-273.384	-143.523	-0.077	-0.007
-272.370	-100.374	-0.046	-0.011
-271.355	-200.000	0.009	-0.395
-270.340	-18.584	-0.075	-0.047
-269.326	18.083	0.097	-0.078
-268.311	-118.479	-0.080	0.014
-267.297	-54.730	-0.092	-0.042
-266.282	-200.000	-0.052	0.288
-265.267	-106.686	0.262	0.059
-264.253	62.093	0.068	-0.069
-263.238	-90.426	0.132	-0.039
-262.224	-135.438	-0.041	0.005
-261.209	32.227	-0.105	0.092
-260.195	575.918	-0.034	-0.084
-259.180	-200.000	-0.015	0.073
-258.165	479.750	0.033	-0.076
-257.151	505.616	-0.125	0.290
-256.136	800.000	0.060	0.192
-255.122	98.778	0.029	0.034
-254.107	225.967	-0.147	-0.239
-253.092	32.378	-0.171	-0.149
-252.078	-67.343	0.299	0.118
-251.063	520.001	0.035	-0.083
-250.049	39.617	0.310	0.279
-249.034	14.035	-0.203	0.159
-248.019	-103.225	-0.423	0.100
-247.005	-200.000	-0.084	0.453
-245.990	219.640	0.046	-0.074
-244.976	767.785	0.077	-0.209
-243.961	421.857	0.141	0.303
-242.946	-90.898	-0.475	0.137
-241.932	-139.704	0.340	-0.036
-240.917	-60.377	0.145	0.062
-239.903	-156.799	0.076	-0.005
-238.888	-54.061	-0.183	0.084
-237.873	-200.000	0.012	0.165
-236.859	-118.664	0.334	-0.059
-235.844	608.133	-0.082	0.205
-234.830	-200.000	0.008	0.261
-233.815	-102.420	0.081	-0.020
-232.800	-57.343	0.165	-0.073
-231.786	-13.347	-0.218	0.142
-230.771	52.899	0.169	0.162
-229.757	40.206	-0.063	0.057
-228.742	-200.000	0.023	0.317
-227.727	91.584	-0.145	0.164
-226.713	84.280	-0.275	-0.302
-225.698	176.944	-0.293	0.428
-224.684	-57.972	0.060	0.026
-223.669	800.000	0.036	-0.117
-222.655	-200.000	-0.024	-0.117
-221.640	15.067	0.148	-0.116
-220.625	-200.000	-0.017	-0.248
-219.611	-88.920	-0.201	-0.060
-218.596	-16.966	0.280	-0.177
-217.582	416.598	-0.161	-0.344
-216.567	-200.000	-0.005	-0.131
-215.552	54.244	0.169	-0.163
-214.538	800.000	0.031	0.127
-213.523	800.000	-0.079	-0.249
-212.509	468.445	0.079	-0.177
-211.494	-51.032	0.199	-0.094
-210.479	-42.344	-0.139	-0.071
-209.465	-178.515	-0.347	0.008
-208.450	123.049	-0.111	-0.139
-207.436	-168.626	-0.013	0.000
-206.421	-32.875	0.110	0.062
-205.406	-200.000	0.010	-0.269
-204.392	-95.757	0.038	0.010
-203.377	-118.194	0.187	0.033
-202.363	-200.000	-0.091	-0.412
-201.348	-200.000	0.045	0.372
-200.333	57.080	0.215	0.210
-199.319	113.232	-0.113	-0.137
-198.304	800.000	0.091	0.262
-197.290	-155.425	-0.141	-0.009
-196.275	84.763	0.157	0.173
-195.260	9.667	0.094	-0.071
-194.246	-200.000	-0.016	0.184
-193.231	-91.927	-0.074	-0.021
-192.217	40.631	0.125	0.113
-191.202	-101.209	0.094	0.023
-190.187	-33.463	0.202	-0.112
-189.173	800.000	-0.038	0.131
-188.158	-200.000	0.053	0.345
-187.144	-39.968	0.175	0.091
-186.129	-200.000	-0.043	-0.247
-185.114	-11.955	-0.182	0.119
-184.100	44.020	0.195	0.179
-183.085	-33.934	-0.225	-0.124
-182.071	-200.000	-0.054	0.323
-181.056	-8.377	0.235	0.159
-180.042	4.395	-0.378	-0.278
-179.027	-200.000	0.018	0.379
-178.012	-200.000	-0.023	-0.307
-176.998	-63.868	-0.229	0.094
-175.983	105.518	0.053	-0.063
-174.969	418.065	-0.026	-0.055
-173.954	800.000	-0.010	-0.037
-172.939	-200.000	-0.044	0.260
-171.925	-53.029	0.243	0.112
-170.910	191.187	-0.134	0.201
-169.896	-97.647	-0.222	0.058
-168.881	-123.770	0.178	0.028
-167.866	-200.000	-0.002	-0.149
-166.852	-70.557	-0.073	0.028
-165.837	-1.557	0.199	-0.140
-164.823	-69.564	0.293	-0.112
-163.808	-99.664	0.068	0.017
-162.793	369.204	0.110	-0.223
-161.779	506.666	0.135	0.314
-160.764	41.327	-0.279	-0.252
-159.750	7.050	-0.252	-0.188
-158.735	83.798	-0.092	-0.100
-157.720	526.571	-0.029	0.069
-156.706	44.327	-0.250	0.230
-155.691	-15.060	0.287	-0.184
-154.677	-60.994	0.082	-0.035
-153.662	282.461	-0.082	-0.147
-152.647	-96.404	-0.334	0.088
-151.633	-96.845	0.131	0.034
-150.618	178.730	0.180	-0.263
-149.604	444.337	0.144	0.316
-148.589	800.000	0.090	0.268
-147.574	698.820	0.132	-0.348
-146.560	-62.769	-0.137	-0.057
-145.545	-129.251	0.420	0.059
-144.531	-81.501	-0.296	-0.097
-143.516	-155.412	-0.158	-0.010
-142.502	66.522	0.135	0.138
-141.487	-144.175	-0.094	0.009
-140.472	-144.887	-0.392	-0.036
-139.458	25.258	-0.211	-0.175
-138.443	800.000	-0.038	0.121
-137.429	-76.988	-0.305	-0.107
-136.414	-200.000	-0.078	0.346
-135.399	-66.120	0.098	0.039
-134.385	110.730	0.240	-0.288
-133.370	-44.052	0.091	-0.046
-132.356	53.244	-0.112	0.107
-131.341	-88.827	-0.177	0.052
-130.326	800.000	0.067	-0.198
-129.312	-84.123	0.280	-0.089
-128.297	-176.832	0.197	-0.005
-127.283	-83.529	0.409	0.131
-126.268	-200.000	-0.072	0.417
-125.253	-85.355	-0.110	-0.034
-124.239	44.844	-0.174	0.160
-123.224	-200.000	0.006	0.147
-122.210	-131.638	-0.181	0.024
-121.195	-200.000	0.048	-0.356
