DTS Sentinel unit serial number:	SN413079Multiplexer serial number:	ORYXHardware model number:	OX4-SRSoftware version number:	ORYX F/W v4.00 Oryx Data Collector v3.7.2.0data status	okinstallation	princeton_trtdifferential loss correction	single-endedforward channel	channel 4reverse channel	N/Adate	2019/09/19time	10:53:35forward acquisition time	60.00reverse acquisition time	0.00gamma	496.2192k internal	0.2328k external	0.2328temperature offset calibration	1.0019default loss term (dB/km)	0.3790temperature slope calibration	1.0000multiplexer offset coefficient	1.0000multiplexer slope coefficient	1.0000fibre end	0.00T internal ref (°C)	24.77T ext. ref 1 (°C)	0.75T ext. ref 2 (°C)	20.18length (m)	temperature (°C)	Stokes	anti-Stokes-747.200	506.465	0.046	-0.108
-746.185	-24.549	-0.620	0.372
-745.171	267.230	-0.073	-0.129
-744.156	800.000	0.091	0.377
-743.142	206.323	-0.066	0.103
-742.127	263.032	-0.064	0.113
-741.112	51.288	0.175	0.167
-740.098	-44.889	0.095	-0.048
-739.083	-200.000	0.050	0.269
-738.069	220.688	0.202	0.327
-737.054	35.897	-0.218	-0.193
-736.039	-68.211	-0.158	-0.062
-735.025	466.050	0.140	0.317
-734.010	56.454	-0.289	-0.283
-732.996	-129.101	-0.215	-0.030
-731.981	438.237	0.137	-0.301
-730.966	800.000	-0.083	-0.257
-729.952	-92.367	-0.182	0.052
-728.937	800.000	0.029	0.093
-727.923	-97.043	0.207	0.055
-726.908	-81.418	0.243	-0.081
-725.894	130.066	-0.133	-0.171
-724.879	-78.709	-0.210	0.072
-723.864	-76.614	0.229	0.081
-722.850	542.646	0.096	-0.230
-721.835	800.000	0.045	-0.162
-720.821	-44.188	-0.138	0.070
-719.806	65.442	0.224	-0.229
-718.791	-69.645	-0.077	0.030
-717.777	800.000	0.067	0.200
-716.762	233.035	-0.222	0.367
-715.748	394.931	-0.115	-0.240
-714.733	-200.000	0.046	-0.217
-713.718	-13.436	0.158	-0.103
-712.704	-75.485	0.115	-0.041
-711.689	555.623	-0.107	0.259
-710.675	233.232	0.189	0.312
-709.660	383.456	0.130	-0.269
-708.645	800.000	-0.083	-0.261
-707.631	-72.388	-0.128	-0.048
-706.616	-154.373	0.184	-0.012
-705.602	800.000	0.070	-0.200
-704.587	-128.191	0.162	0.023
-703.572	370.520	-0.039	0.079
-702.558	-200.000	0.035	0.163
-701.543	-109.861	0.422	0.089
-700.529	-192.382	-0.122	-0.001
-699.514	-82.554	-0.175	0.057
-698.499	-200.000	-0.019	-0.206
-697.485	-62.457	-0.379	0.158
-696.470	-101.754	0.150	0.037
-695.456	-99.703	-0.208	-0.052
-694.441	-34.683	-0.067	0.037
-693.426	215.108	-0.081	-0.129
-692.412	45.174	0.179	0.166
-691.397	-200.000	0.038	-0.181
-690.383	-4.337	-0.068	-0.047
-689.368	-3.968	-0.260	0.181
-688.354	-129.504	0.323	-0.045
-687.339	73.287	0.227	-0.239
-686.324	-122.547	0.198	-0.032
-685.310	-200.000	0.005	0.387
-684.295	93.942	-0.126	0.144
-683.281	-83.132	0.303	-0.098
-682.266	137.172	-0.184	-0.242
-681.251	-192.826	-0.098	-0.001
-680.237	358.035	0.111	-0.224
-679.222	-24.940	0.058	-0.035
-678.208	-77.208	-0.135	-0.047
-677.193	641.997	-0.113	-0.289
-676.178	800.000	-0.124	-0.428
-675.164	-51.343	0.188	0.088
-674.149	607.687	-0.088	-0.221
-673.135	-2.511	0.143	0.101
-672.120	-161.421	-0.351	-0.018
-671.105	-118.973	0.279	-0.049
-670.091	90.248	0.228	0.256
-669.076	29.051	-0.040	0.034
-668.062	-200.000	-0.022	-0.358
-667.047	-200.000	-0.003	-0.104
-666.032	-66.328	0.056	-0.022
-665.018	800.000	0.067	-0.189
-664.003	-183.492	0.394	0.007
-662.989	-200.000	0.057	0.349
-661.974	-200.000	0.001	0.055
-660.959	-200.000	-0.027	-0.180
-659.945	800.000	-0.076	-0.324
-658.930	-21.143	0.065	-0.040
-657.916	745.862	-0.115	-0.310
-656.901	-200.000	-0.038	0.367
-655.886	290.259	0.088	0.160
-654.872	800.000	0.089	0.270
-653.857	-107.473	0.116	-0.025
-652.843	293.200	0.048	0.088
-651.828	-37.461	0.142	0.076
-650.814	-46.543	0.271	-0.134
-649.799	285.801	0.061	0.111
-648.784	654.729	-0.102	0.262
-647.770	19.185	0.315	0.254
-646.755	-137.671	0.340	-0.038
-645.741	-117.727	-0.153	0.028
-644.726	-2.721	-0.372	-0.261
-643.711	-23.346	0.146	-0.088
-642.697	116.055	-0.111	0.136
-641.682	-21.059	-0.055	-0.034
-640.668	-0.659	-0.149	-0.106
-639.653	-200.000	0.021	-0.304
-638.638	800.000	0.086	-0.259
-637.624	-4.471	-0.095	-0.066
-636.609	-117.142	0.057	-0.010
-635.595	800.000	-0.075	0.240
-634.580	-2.485	0.148	0.104
-633.565	800.000	-0.010	0.033
-632.551	-200.000	0.049	0.286
-631.536	-121.868	-0.152	0.025
-630.522	-153.844	0.173	0.012
-629.507	-89.080	-0.213	0.063
-628.492	728.357	-0.073	0.196
-627.478	-125.968	-0.091	0.014
-626.463	162.870	0.252	0.355
-625.449	137.629	0.106	-0.139
-624.434	-28.825	-0.331	-0.191
-623.419	93.090	-0.082	-0.093
-622.405	-200.000	-0.302	0.000
-621.390	-200.000	0.038	0.172
-620.376	118.123	-0.202	-0.250
-619.361	-126.195	-0.200	-0.030
-618.346	70.587	-0.127	0.132
-617.332	-110.879	-0.116	0.024
-616.317	-127.253	-0.254	-0.037
-615.303	-200.000	-0.003	-0.124
-614.288	1.986	-0.175	-0.127
-613.273	-171.730	-0.341	-0.011
-612.259	52.325	0.148	0.141
-611.244	-37.882	-0.136	-0.073
-610.230	-200.000	0.020	0.153
-609.215	-200.000	0.001	0.361
-608.201	617.958	0.110	0.278
-607.186	-185.092	0.187	-0.003
-606.171	741.006	0.102	-0.274
-605.157	-90.656	0.162	0.047
-604.142	-120.649	0.265	-0.045
-603.128	-200.000	-0.032	-0.207
-602.113	165.220	-0.132	-0.186
-601.098	246.390	0.171	-0.289
-600.084	-79.378	-0.171	-0.058
-599.069	458.247	0.065	0.146
-598.055	800.000	-0.089	0.302
-597.040	42.448	-0.113	0.103
-596.025	-200.000	-0.011	-0.083
-595.011	-148.139	0.143	0.012
-593.996	78.945	-0.184	-0.198
-592.982	-166.269	-0.083	-0.004
-591.967	-149.212	0.194	-0.016
-590.952	90.056	0.315	-0.353
-589.938	-124.583	0.107	-0.017
-588.923	61.758	0.189	0.188
-587.909	46.131	0.197	-0.183
-586.894	-30.126	0.102	-0.058
-585.879	64.263	-0.144	-0.145
-584.865	-15.962	0.326	-0.208
-583.850	58.971	0.251	-0.247
-582.836	-89.166	0.095	-0.028
-581.821	19.938	-0.138	0.111
-580.806	800.000	0.050	0.154
-579.792	1.225	0.149	0.107
-578.777	-44.247	0.083	-0.041
-577.763	141.246	-0.054	0.071
-576.748	-55.432	-0.216	0.097
-575.733	800.000	-0.041	-0.150
-574.719	31.451	0.065	0.056
-573.704	522.919	-0.028	-0.067
-572.690	197.816	0.095	-0.145
-571.675	-48.539	-0.052	0.025
-570.661	-200.000	-0.047	0.316
-569.646	168.003	-0.273	0.388
-568.631	-197.769	0.396	0.002
-567.617	104.994	-0.175	-0.206
-566.602	-144.007	-0.305	-0.029
-565.588	83.026	-0.037	0.040
-564.573	-92.530	0.364	0.102
-563.558	19.495	0.110	-0.089
-562.544	800.000	0.105	0.306
-561.529	-48.673	0.378	-0.182
-560.515	800.000	0.150	0.456
-559.500	800.000	0.042	-0.153
-558.485	-200.000	0.005	0.082
-557.471	87.422	-0.342	-0.379
-556.456	44.027	0.178	-0.163
-555.442	-99.128	-0.235	-0.060
-554.427	271.178	0.099	-0.175
-553.412	800.000	0.060	-0.219
-552.398	178.251	0.086	-0.125
-551.383	291.783	-0.086	0.156
-550.369	800.000	-0.084	-0.319
-549.354	-36.302	0.391	0.211
-548.339	91.722	-0.266	-0.299
-547.325	76.189	0.098	-0.103
-546.310	9.724	-0.199	-0.151
-545.296	-200.000	-0.003	-0.098
-544.281	-112.646	-0.055	0.011
-543.266	-200.000	0.012	-0.108
-542.252	551.637	-0.072	-0.173
-541.237	166.067	0.135	-0.191
-540.223	22.734	0.216	-0.177
-539.208	21.109	-0.167	-0.136
-538.193	371.022	0.132	0.267
-537.179	9.114	-0.082	0.062
-536.164	3.445	-0.298	0.217
-535.150	-161.933	-0.085	0.004
-534.135	23.477	0.013	0.011
-533.121	-104.221	-0.431	-0.100
-532.106	-19.066	0.155	-0.096
-531.091	34.666	-0.179	-0.157
-530.077	28.555	-0.167	0.141
-529.062	62.796	0.193	-0.193
-528.048	162.389	-0.131	-0.183
-527.033	20.053	-0.347	-0.280
-526.018	-200.000	-0.036	0.313
-525.004	-47.124	0.161	0.078
-523.989	330.825	-0.101	-0.194
-522.975	-200.000	-0.064	0.324
-521.960	137.114	-0.065	-0.085
-520.945	800.000	-0.077	-0.308
-519.931	-200.000	0.052	0.382
-518.916	-107.581	0.517	0.113
-517.902	103.861	-0.289	0.339
-516.887	557.865	-0.118	0.283
-515.872	-5.358	0.046	0.031
-514.858	390.423	-0.054	0.113
-513.843	-132.746	-0.353	0.045
-512.829	-200.000	0.008	0.139
-511.814	-200.000	-0.033	-0.299
-510.799	-200.000	0.003	-0.153
-509.785	84.679	0.091	-0.100
-508.770	-97.002	-0.426	-0.111
-507.756	-200.000	-0.007	-0.183
-506.741	423.167	0.039	0.084
-505.726	-200.000	-0.009	-0.182
-504.712	60.680	0.075	0.074
-503.697	-15.204	0.086	-0.055
-502.683	73.137	0.104	-0.109
-501.668	-71.368	-0.175	-0.066
-500.653	-26.140	0.271	0.159
-499.639	-99.468	-0.013	-0.003
-498.624	64.665	-0.048	0.048
-497.610	360.769	0.092	0.184
-496.595	-112.045	0.473	-0.095
-495.581	-135.487	-0.213	-0.025
-494.566	4.229	-0.049	-0.036
-493.551	211.645	0.228	0.358
-492.537	-85.623	0.209	-0.065
-491.522	-200.000	0.025	-0.110
-490.508	-200.000	-0.002	-0.173
-489.493	-200.000	0.001	-0.119
-488.478	-122.570	-0.276	0.045
-487.464	10.771	0.177	0.135
-486.449	-200.000	0.001	-0.047
-485.435	54.810	-0.314	0.302
-484.420	-49.023	-0.265	0.127
-483.405	800.000	-0.019	-0.076
-482.391	-200.000	-0.302	-0.001
-481.376	-194.510	-0.097	0.001
-480.362	478.521	0.208	0.469
-479.347	2.131	0.404	0.291
-478.332	-106.819	-0.175	-0.039
-477.318	800.000	-0.038	-0.115
-476.303	-200.000	0.025	-0.118
-475.289	-109.640	-0.246	0.052
-474.274	-118.743	0.115	-0.020
-473.259	-200.000	0.004	-0.471
-472.245	23.026	0.250	-0.205
-471.230	-128.606	0.068	-0.010
-470.216	-200.000	0.020	-0.135
-469.201	-58.468	0.022	0.010
-468.186	28.220	0.162	0.136
-467.172	-98.782	-0.201	-0.051
-466.157	-27.128	-0.349	-0.203
-465.143	-116.555	-0.262	0.048
-464.128	-200.000	0.023	0.360
-463.113	-115.912	-0.132	0.024
-462.099	2.564	0.142	-0.103
-461.084	-69.493	-0.207	0.079
-460.070	259.660	0.165	-0.285
-459.055	800.000	-0.082	-0.283
-458.040	800.000	0.074	-0.231
-457.026	-36.203	0.081	0.043
-456.011	95.328	-0.037	0.042
-454.997	-200.000	-0.062	-0.287
-453.982	68.977	0.129	-0.132
-452.968	-200.000	0.005	-0.232
-451.953	-150.420	0.093	-0.007
-450.938	90.320	-0.159	0.178
-449.924	-167.299	0.148	-0.006
-448.909	-189.231	-0.349	-0.004
-447.895	-38.274	-0.179	-0.095
-446.880	10.420	0.404	-0.306
-445.865	-29.090	0.123	-0.070
-444.851	94.712	-0.201	0.228
-443.836	147.666	-0.087	0.117
-442.822	-115.895	-0.311	0.058
-441.807	-193.028	-0.149	0.001
-440.792	636.332	0.115	0.291
-439.778	-146.379	0.422	-0.037
-438.763	800.000	-0.094	0.315
-437.749	-171.737	0.299	-0.010
-436.734	-105.077	-0.150	0.034
-435.719	98.257	-0.252	-0.289
-434.705	-112.878	0.203	-0.040
-433.690	40.064	-0.260	-0.233
-432.676	-1.491	-0.157	0.110
-431.661	-123.752	0.069	0.011
-430.646	-153.084	-0.223	0.016
-429.632	-200.000	0.006	0.254
-428.617	465.211	-0.069	0.155
-427.603	-200.000	0.031	-0.189
-426.588	95.659	-0.111	-0.126
-425.573	-200.000	0.036	0.452
-424.559	-166.906	-0.197	0.008
-423.544	405.355	-0.094	-0.197
-422.530	-103.097	-0.077	0.018
-421.515	-16.288	0.120	-0.076
-420.500	-165.158	0.139	0.006
-419.486	477.789	0.121	0.272
-418.471	342.995	-0.123	0.239
-417.457	293.001	-0.226	0.409
-416.442	122.092	0.168	0.208
-415.428	-108.120	-0.439	0.095
-414.413	-11.941	-0.334	-0.218
-413.398	28.512	-0.208	0.175
-412.384	800.000	-0.118	0.355
-411.369	225.471	0.152	0.246
-410.355	-38.504	0.226	0.119
-409.340	800.000	-0.037	-0.151
-408.325	191.552	-0.211	-0.316
-407.311	-54.281	0.107	-0.048
-406.296	254.247	0.314	0.534
-405.282	182.140	0.191	0.279
-404.267	-17.368	0.253	0.158
-403.252	-60.958	-0.118	0.050
-402.238	-108.642	0.231	-0.049
-401.223	-200.000	-0.006	-0.084
-400.209	528.077	0.135	-0.317
-399.194	-9.442	-0.180	0.119
-398.179	-11.786	0.201	-0.131
-397.165	508.427	-0.023	-0.053
-396.150	-37.031	-0.061	-0.032
-395.136	238.827	0.062	0.102
-394.121	-100.094	0.174	-0.043
-393.106	-56.220	0.419	-0.185
-392.092	403.535	-0.034	-0.072
-391.077	23.314	-0.054	0.044
-390.063	-76.935	-0.218	-0.076
-389.048	-200.000	0.021	0.278
-388.033	48.064	0.243	0.226
-387.019	434.328	0.163	-0.352
-386.004	800.000	-0.083	-0.253
-384.990	-111.349	-0.238	-0.048
-383.975	141.311	-0.269	-0.353
-382.960	-200.000	-0.011	-0.125
-381.946	41.913	-0.067	0.060
-380.931	-109.755	-0.055	-0.011
-379.917	-48.063	0.131	0.063
-378.902	-52.328	0.170	0.078
-377.888	373.521	0.093	-0.189
-376.873	-93.866	-0.227	0.062
-375.858	-27.253	0.277	0.160
-374.844	-49.658	-0.173	-0.082
-373.829	468.306	0.101	-0.225
-372.815	-200.000	0.006	0.067
-371.800	-101.058	-0.210	0.051
-370.785	-42.112	-0.111	0.056
-369.771	-83.128	0.251	0.080
-368.756	128.779	0.145	0.184
-367.742	-2.570	0.086	-0.060
-366.727	-100.045	-0.331	-0.082
-365.712	800.000	0.057	-0.194
-364.698	-148.036	0.511	-0.042
-363.683	-200.000	0.005	-0.188
-362.669	-200.000	0.027	0.161
-361.654	-200.000	-0.047	-0.283
-360.639	-116.231	-0.390	-0.072
-359.625	-171.132	0.195	0.007
-358.610	-200.000	-0.058	0.381
-357.596	230.191	0.197	-0.320
-356.581	-104.338	-0.063	0.015
-355.566	90.452	-0.117	0.130
-354.552	74.224	0.037	0.039
-353.537	136.057	-0.034	0.044
-352.523	-138.205	0.039	0.004
-351.508	51.662	0.159	0.150
-350.493	-30.545	0.318	-0.179
-349.479	-45.094	-0.060	-0.030
-348.464	-78.016	-0.179	0.061
-347.450	-200.000	-0.029	0.241
-346.435	-94.707	-0.569	0.153
-345.420	800.000	-0.031	-0.106
-344.406	-59.908	-0.176	0.075
-343.391	-200.000	-0.041	0.209
-342.377	-200.000	0.004	-0.071
-341.362	87.009	-0.120	-0.132
-340.348	-48.336	0.076	0.036
-339.333	-200.000	-0.009	0.042
-338.318	-200.000	-0.004	-0.145
-337.304	71.836	-0.179	-0.185
-336.289	310.810	-0.133	0.248
-335.275	172.022	0.051	-0.073
-334.260	60.725	0.161	-0.158
-333.245	-200.000	-0.024	0.223
-332.231	-200.000	-0.013	-0.356
-331.216	-200.000	0.005	-0.036
-330.202	-125.224	0.077	0.012
-329.187	-200.000	0.003	-0.217
-328.172	-165.285	0.312	0.014
-327.158	-102.026	0.235	-0.056
-326.143	6.257	0.208	-0.153
-325.129	800.000	0.107	0.342
-324.114	-46.931	0.111	-0.054
-323.099	800.000	-0.010	0.043
-322.085	84.724	0.188	0.204
-321.070	85.782	-0.056	-0.061
-320.056	138.635	-0.073	-0.095
-319.041	-95.891	-0.250	-0.066
-318.026	25.273	-0.080	-0.066
-317.012	-64.675	0.024	0.010
-315.997	81.852	-0.067	-0.072
-314.983	29.283	-0.099	-0.084
-313.968	-121.128	0.249	0.041
-312.953	-108.072	0.208	-0.045
-311.939	-200.000	-0.013	-0.161
-310.924	-3.409	0.070	-0.048
-309.910	-200.000	-0.229	-0.001
-308.895	800.000	0.153	-0.466
-307.880	-50.572	-0.451	0.210
-306.866	-104.132	0.237	-0.055
-305.851	63.333	-0.041	0.041
-304.837	800.000	0.026	0.081
-303.822	430.691	-0.170	0.365
-302.807	6.779	-0.156	-0.115
-301.793	-48.149	0.264	-0.126
-300.778	209.500	-0.085	0.132
-299.764	38.426	0.158	-0.140
-298.749	-200.000	0.001	-0.117
-297.735	-20.040	0.129	0.079
-296.720	-200.000	0.019	0.257
-295.705	-200.000	-0.009	0.108
-294.691	-136.099	0.215	0.025
-293.676	-0.834	0.067	0.047
-292.662	19.430	-0.100	-0.080
-291.647	-200.000	-0.009	-0.095
-290.632	-53.088	-0.142	0.065
-289.618	800.000	0.052	0.146
-288.603	-163.768	-0.205	0.010
-287.589	-25.412	0.298	0.174
-286.574	-72.768	-0.191	-0.069
-285.559	62.913	-0.060	-0.060
-284.545	-16.766	-0.119	-0.074
-283.530	70.396	0.082	-0.084
-282.516	128.745	0.208	0.263
-281.501	74.840	0.287	0.300
-280.486	-200.000	-0.011	0.249
-279.472	171.453	0.118	0.168
-278.457	105.285	-0.092	-0.108
-277.443	-25.292	0.208	-0.122
-276.428	117.190	0.116	0.141
-275.413	128.116	-0.149	-0.188
-274.399	284.931	-0.185	0.330
-273.384	-9.520	-0.231	0.153
-272.370	800.000	-0.057	-0.232
-271.355	394.448	0.044	0.091
-270.340	197.336	-0.135	0.203
-269.326	379.149	0.157	0.318
-268.311	382.105	0.137	-0.278
-267.297	-133.562	0.270	-0.034
-266.282	800.000	-0.068	-0.206
-265.267	-200.000	-0.044	-0.515
-264.253	-15.200	-0.109	-0.069
-263.238	15.458	-0.330	0.256
-262.224	-200.000	0.038	-0.363
-261.209	150.397	0.061	0.082
-260.195	407.356	0.048	-0.101
-259.180	800.000	-0.009	0.033
-258.165	-200.000	0.047	0.314
-257.151	585.132	0.070	0.169
-256.136	-97.041	0.326	-0.084
-255.122	-0.253	-0.216	0.152
-254.107	-101.070	-0.162	-0.039
-253.092	182.000	-0.089	0.129
-252.078	689.546	0.073	0.189
-251.063	0.721	0.248	-0.176
-250.049	800.000	0.045	-0.154
-249.034	-200.000	-0.004	0.134
-248.019	88.227	-0.071	0.078
-247.005	224.977	0.010	0.016
-245.990	499.676	0.087	0.199
-244.976	-13.068	0.089	-0.057
-243.961	545.772	-0.080	0.188
-242.946	800.000	-0.051	0.146
-241.932	-200.000	-0.067	-0.295
-240.917	-37.117	-0.238	-0.126
-239.903	-53.028	-0.067	0.031
-238.888	231.812	0.163	0.264
-237.873	210.212	-0.134	0.208
-236.859	-40.215	-0.145	0.075
-235.844	-32.364	0.177	-0.097
-234.830	-124.517	-0.334	0.051
-233.815	449.319	0.031	-0.068
-232.800	-129.690	0.035	-0.005
-231.786	-143.115	0.146	-0.014
-230.771	-89.728	-0.263	0.076
-229.757	499.491	0.028	-0.065
-228.742	-152.318	0.171	0.012
-227.727	49.296	-0.039	0.036
-226.713	102.382	-0.116	-0.134
-225.698	381.038	0.084	-0.171
-224.684	-5.436	-0.276	-0.187
-223.669	-200.000	-0.011	0.138
-222.655	-130.470	-0.295	0.039
-221.640	31.105	0.092	0.078
-220.625	800.000	-0.079	0.219
-219.611	253.895	0.118	-0.200
-218.596	-200.000	0.051	-0.399
-217.582	183.353	0.024	-0.035
-216.567	63.232	0.174	-0.172
-215.552	-114.806	0.313	0.059
-214.538	800.000	0.038	-0.125
-213.523	90.295	0.028	0.031
-212.509	-151.165	0.160	-0.012
-211.494	415.170	-0.117	0.246
-210.479	12.537	0.169	-0.129
-209.465	-200.000	-0.013	0.146
-208.450	-14.485	-0.051	-0.032
-207.436	-66.468	0.042	0.017
-206.421	-110.499	0.172	-0.035
-205.406	-200.000	-0.022	0.176
-204.392	-200.000	0.001	0.730
-203.377	800.000	0.032	0.113
-202.363	41.776	0.321	-0.287
-201.348	-115.124	-0.133	-0.025
-200.333	272.587	-0.081	0.141
-199.319	520.950	0.060	0.139
-198.304	-200.000	0.003	0.014
-197.290	202.624	-0.070	0.107
-196.275	596.921	0.056	-0.136
-195.260	51.554	-0.168	0.157
-194.246	-56.612	0.327	-0.143
-193.231	-32.843	-0.501	-0.275
-192.217	-39.231	0.085	0.044
-191.202	-200.000	0.022	-0.353
-190.187	-200.000	0.019	-0.285
-189.173	-200.000	0.038	-0.203
-188.158	-200.000	-0.024	-0.109
-187.144	-13.457	0.324	0.207
-186.129	4.466	-0.083	-0.060
-185.114	37.494	-0.087	0.076
-184.100	71.620	0.235	0.241
-183.085	-0.810	-0.161	0.113
-182.071	-122.839	0.097	0.015
-181.056	800.000	-0.010	0.035
-180.042	-35.362	0.053	0.028
-179.027	454.451	0.086	-0.187
-178.012	88.152	0.061	0.067
-176.998	105.555	0.209	-0.243
-175.983	-4.086	-0.287	0.196
-174.969	680.729	0.143	0.368
-173.954	-200.000	-0.043	-0.369
-172.939	-200.000	-0.063	0.317
-171.925	-143.776	-0.108	-0.010
-170.910	-51.534	-0.205	0.094
-169.896	310.303	-0.073	-0.135
-168.881	210.287	0.086	-0.134
-167.866	175.542	0.103	0.147
-166.852	4.821	0.264	-0.191
-165.837	-200.000	0.012	0.175
-164.823	-152.734	0.292	0.020
-163.808	166.851	0.064	0.090
-162.793	-32.384	0.200	0.110
-161.779	-84.082	-0.144	0.045
-160.764	800.000	-0.048	-0.185
-159.750	-41.058	-0.195	-0.099
-158.735	109.127	-0.259	-0.305
-157.720	-200.000	0.074	-0.390
-156.706	143.189	0.095	-0.124
-155.691	87.556	0.168	0.184
-154.677	-200.000	-0.052	0.302
-153.662	8.301	0.279	0.207
-152.647	-110.836	0.079	0.016
-151.633	800.000	-0.038	-0.107
-150.618	800.000	0.054	-0.149
-149.604	49.895	-0.272	0.252
-148.589	82.104	0.055	0.059
-147.574	-108.304	-0.177	-0.038
-146.560	435.151	-0.114	0.244
-145.545	-161.305	-0.322	-0.016
-144.531	722.728	-0.097	-0.255
-143.516	56.376	-0.103	0.098
-142.502	439.311	-0.135	-0.290
-141.487	136.146	0.101	-0.130
-140.472	522.422	-0.059	-0.137
-139.458	-179.571	-0.083	-0.002
-138.443	-200.000	-0.034	0.284
-137.429	70.884	-0.337	0.344
-136.414	42.477	0.067	0.060
-135.399	235.275	0.154	-0.251
-134.385	275.526	-0.096	0.167
-133.370	291.024	-0.056	0.100
-132.356	-181.191	-0.006	-0.000
-131.341	-200.000	0.021	-0.395
-130.326	-5.174	-0.338	0.229
-129.312	24.339	0.195	0.158
-128.297	8.067	0.175	0.129
-127.283	-200.000	-0.061	0.465
-126.268	-200.000	-0.025	0.124
-125.253	298.002	0.116	-0.210
-124.239	-40.361	-0.161	-0.082
-123.224	800.000	-0.093	0.267
-122.210	223.044	-0.078	0.124
-121.195	-200.000	0.019	-0.373
