DTS Sentinel unit serial number:	SN413079Multiplexer serial number:	ORYXHardware model number:	OX4-SRSoftware version number:	ORYX F/W v4.00 Oryx Data Collector v3.7.2.0data status	okinstallation	princeton_trtdifferential loss correction	single-endedforward channel	channel 4reverse channel	N/Adate	2019/09/15time	14:05:34forward acquisition time	60.00reverse acquisition time	0.00gamma	496.2192k internal	0.2289k external	0.2289temperature offset calibration	0.9995default loss term (dB/km)	0.3790temperature slope calibration	1.0000multiplexer offset coefficient	1.0000multiplexer slope coefficient	1.0000fibre end	0.00T internal ref (°C)	38.61T ext. ref 1 (°C)	4.94T ext. ref 2 (°C)	35.79length (m)	temperature (°C)	Stokes	anti-Stokes-747.200	75.041	-0.166	-0.179
-746.185	433.500	0.067	0.149
-745.171	-15.548	0.402	0.263
-744.156	800.000	-0.043	-0.135
-743.142	279.641	-0.141	0.259
-742.127	-91.226	-0.151	0.044
-741.112	-103.904	-0.097	-0.023
-740.098	-40.948	0.150	0.079
-739.083	259.350	0.089	0.158
-738.069	-7.970	0.178	0.123
-737.054	499.899	0.089	-0.209
-736.039	-36.335	-0.349	-0.193
-735.025	59.283	0.168	-0.170
-734.010	97.096	0.036	0.043
-732.996	800.000	-0.067	0.193
-731.981	800.000	-0.071	-0.213
-730.966	129.713	-0.202	0.264
-729.952	447.485	-0.037	-0.084
-728.937	82.542	-0.125	0.139
-727.923	38.782	0.069	-0.063
-726.908	-128.784	0.278	-0.040
-725.894	340.058	0.065	-0.131
-724.879	-56.496	0.305	0.139
-723.864	247.675	-0.116	0.202
-722.850	110.204	0.061	-0.075
-721.835	800.000	-0.068	-0.206
-720.821	-85.362	-0.287	0.092
-719.806	259.278	0.079	0.140
-718.791	154.430	0.245	-0.344
-717.777	560.293	0.041	0.101
-716.762	-12.534	0.287	-0.192
-715.748	616.001	-0.015	0.038
-714.733	-144.625	-0.149	-0.014
-713.718	-104.173	0.151	0.036
-712.704	-200.000	0.004	0.086
-711.689	-84.185	0.309	-0.100
-710.675	20.512	-0.072	-0.059
-709.660	-200.000	-0.012	0.058
-708.645	141.773	-0.188	-0.256
-707.631	800.000	-0.035	-0.131
-706.616	-132.844	-0.159	-0.021
-705.602	-18.995	0.300	0.191
-704.587	25.613	0.045	0.038
-703.572	-7.003	-0.190	-0.132
-702.558	-56.416	0.052	0.024
-701.543	-74.837	0.195	-0.072
-700.529	800.000	0.024	0.104
-699.514	-7.638	-0.178	0.123
-698.499	-60.691	0.340	-0.147
-697.485	-121.820	-0.334	0.056
-696.470	200.755	0.079	0.125
-695.456	222.895	-0.106	0.175
-694.441	-82.430	0.117	-0.039
-693.426	-8.696	-0.298	0.204
-692.412	269.702	-0.117	-0.211
-691.397	145.796	0.099	-0.135
-690.383	341.293	-0.172	-0.344
-689.368	-86.705	-0.230	-0.072
-688.354	-82.029	-0.200	-0.067
-687.339	-113.481	0.539	0.108
-686.324	-33.380	0.234	-0.132
-685.310	-163.918	0.310	0.015
-684.295	6.352	-0.144	-0.109
-683.281	-79.671	0.183	0.063
-682.266	-200.000	0.004	-0.033
-681.251	41.417	-0.095	-0.088
-680.237	-200.000	-0.002	-0.254
-679.222	-133.727	-0.350	-0.045
-678.208	-137.666	-0.225	-0.026
-677.193	-200.000	0.004	-0.107
-676.178	262.994	-0.183	-0.325
-675.164	88.055	-0.273	-0.309
-674.149	8.645	0.207	-0.160
-673.135	-118.826	0.162	0.029
-672.120	239.762	0.053	0.090
-671.105	419.110	-0.069	0.151
-670.091	800.000	-0.152	-0.462
-669.076	384.088	0.095	-0.200
-668.062	-200.000	-0.034	0.191
-667.047	-200.000	-0.001	-0.023
-666.032	24.694	-0.167	0.142
-665.018	48.282	-0.094	-0.090
-664.003	354.307	-0.095	-0.193
-662.989	59.587	-0.388	-0.391
-661.974	410.461	-0.029	-0.063
-660.959	-40.701	-0.195	0.103
-659.945	-113.079	-0.253	-0.051
-658.930	-98.887	-0.051	0.013
-657.916	-38.962	-0.113	-0.061
-656.901	-97.268	0.081	-0.022
-655.886	-63.543	-0.255	0.107
-654.872	-90.353	-0.175	-0.052
-653.857	-13.658	-0.210	0.139
-652.843	-200.000	0.009	-0.481
-651.828	-68.230	0.325	0.129
-650.814	370.362	-0.032	-0.067
-649.799	278.094	0.113	-0.205
-648.784	9.608	-0.195	-0.151
-647.770	-75.236	-0.269	-0.098
-646.755	-138.399	0.202	-0.023
-645.741	544.168	-0.109	0.265
-644.726	36.678	-0.275	0.248
-643.711	-33.056	0.222	-0.126
-642.697	99.630	-0.090	-0.106
-641.682	-184.197	0.124	-0.002
-640.668	-200.000	-0.033	-0.272
-639.653	337.930	-0.016	-0.031
-638.638	115.556	0.288	-0.359
-637.624	-107.953	-0.286	-0.063
-636.609	800.000	0.055	0.240
-635.595	-200.000	0.045	-0.376
-634.580	-20.864	-0.208	0.130
-633.565	-200.000	-0.026	-0.148
-632.551	30.504	-0.211	0.184
-631.536	499.597	-0.064	0.152
-630.522	-42.796	-0.141	0.073
-629.507	31.934	-0.160	-0.140
-628.492	-200.000	0.024	0.303
-627.478	-86.921	0.295	-0.092
-626.463	800.000	-0.082	0.300
-625.449	108.795	-0.148	-0.180
-624.434	-50.462	-0.130	0.063
-623.419	-18.785	-0.153	-0.097
-622.405	-200.000	-0.034	-0.156
-621.390	183.755	-0.028	-0.042
-620.376	46.154	0.077	-0.073
-619.361	11.022	-0.338	-0.264
-618.346	-200.000	0.064	-0.365
-617.332	104.063	0.078	0.094
-616.317	800.000	0.037	0.138
-615.303	296.182	0.191	-0.357
-614.288	800.000	0.132	-0.380
-613.273	34.997	0.088	-0.079
-612.259	492.782	-0.097	-0.227
-611.244	-108.878	0.157	-0.034
-610.230	-84.841	0.139	-0.045
-609.215	513.994	-0.150	-0.356
-608.201	353.699	0.099	-0.200
-607.186	-200.000	0.013	0.062
-606.171	800.000	-0.094	-0.285
-605.157	466.861	-0.197	-0.449
-604.142	-200.000	0.115	0.625
-603.128	-200.000	0.021	0.354
-602.113	-200.000	-0.005	-0.027
-601.098	-200.000	-0.006	0.080
-600.084	-52.664	-0.142	0.067
-599.069	-41.798	0.322	-0.169
-598.055	791.777	-0.010	0.028
-597.040	10.812	0.077	0.060
-596.025	105.715	-0.147	0.178
-595.011	-20.636	0.083	-0.052
-593.996	-65.439	-0.283	-0.116
-592.982	84.946	-0.119	0.133
-591.967	52.089	-0.106	-0.103
-590.952	57.323	0.072	-0.071
-589.938	-41.209	0.114	-0.060
-588.923	-65.362	0.076	-0.031
-587.909	211.975	0.087	-0.140
-586.894	27.680	-0.187	0.160
-585.879	-133.028	0.200	-0.026
-584.865	643.858	0.079	0.206
-583.850	-3.838	0.090	0.063
-582.836	187.572	0.111	-0.168
-581.821	-66.797	0.389	-0.157
-580.806	31.609	-0.285	-0.250
-579.792	800.000	0.073	0.290
-578.777	13.664	-0.161	-0.128
-577.763	-200.000	-0.016	0.077
-576.748	310.648	-0.066	-0.127
-575.733	80.189	-0.156	-0.170
-574.719	210.921	-0.164	-0.263
-573.704	-14.718	0.252	-0.165
-572.690	-105.941	-0.079	-0.018
-571.675	-200.000	-0.016	-0.083
-570.661	2.078	0.293	-0.216
-569.646	-200.000	-0.035	0.187
-568.631	111.140	0.045	-0.056
-567.617	-200.000	-0.206	0.000
-566.602	79.614	-0.232	-0.253
-565.588	800.000	0.035	0.105
-564.573	-200.000	0.008	0.154
-563.558	-80.550	-0.071	0.024
-562.544	-200.000	0.004	0.053
-561.529	204.953	0.048	0.076
-560.515	-80.410	-0.018	0.006
-559.500	-200.000	-0.044	-0.366
-558.485	-9.227	0.087	-0.059
-557.471	250.800	-0.167	-0.288
-556.456	44.134	0.062	0.058
-555.442	-48.771	0.150	-0.073
-554.427	15.830	0.515	-0.412
-553.412	164.543	0.090	-0.130
-552.398	800.000	0.077	-0.244
-551.383	800.000	0.091	0.316
-550.369	800.000	0.053	-0.188
-549.354	-109.342	-0.376	0.081
-548.339	-59.504	0.043	0.019
-547.325	-86.619	-0.337	-0.105
-546.310	-200.000	-0.048	0.277
-545.296	255.455	-0.091	0.159
-544.281	165.960	-0.036	-0.052
-543.266	-200.000	0.004	0.219
-542.252	800.000	0.150	0.493
-541.237	-29.453	-0.407	0.237
-540.223	57.033	0.307	0.305
-539.208	-94.930	0.052	0.014
-538.193	389.365	-0.006	-0.013
-537.179	-92.464	-0.194	0.056
-536.164	41.835	0.205	0.189
-535.150	-200.000	-0.028	-0.335
-534.135	800.000	0.027	-0.116
-533.121	-165.575	0.212	-0.009
-532.106	-67.904	-0.530	0.210
-531.091	247.990	0.131	-0.226
-530.077	800.000	-0.062	0.176
-529.062	-38.711	0.262	0.140
-528.048	800.000	0.038	0.135
-527.033	-200.000	0.008	0.402
-526.018	-33.534	-0.183	-0.103
-525.004	263.946	-0.264	-0.467
-523.989	-35.440	-0.261	0.144
-522.975	-31.065	-0.191	-0.110
-521.960	19.874	-0.328	-0.268
-520.945	-33.942	0.143	0.080
-519.931	588.890	-0.152	-0.382
-518.916	-45.405	-0.258	-0.130
-517.902	-137.168	0.278	0.032
-516.887	-200.000	0.018	-0.158
-515.872	-122.116	0.147	0.024
-514.858	276.144	-0.023	0.041
-513.843	314.539	-0.164	0.313
-512.829	393.296	-0.149	-0.314
-511.814	-99.254	0.169	0.043
-510.799	-161.329	-0.222	0.012
-509.785	-200.000	-0.045	0.203
-508.770	-200.000	-0.006	-0.044
-507.756	189.450	0.166	-0.253
-506.741	61.104	-0.138	0.139
-505.726	120.080	0.057	-0.072
-504.712	138.134	0.254	-0.339
-503.697	-123.706	-0.112	-0.018
-502.683	-200.000	-0.030	-0.300
-501.668	-30.592	-0.060	-0.035
-500.653	-76.310	-0.132	-0.047
-499.639	190.425	0.150	-0.228
-498.624	-200.000	-0.024	-0.285
-497.610	-58.839	-0.370	0.163
-496.595	197.403	-0.096	-0.149
-495.581	163.800	0.088	-0.126
-494.566	-200.000	0.001	-0.056
-493.551	40.322	-0.279	-0.255
-492.537	-38.014	0.146	0.078
-491.522	-200.000	-0.013	0.317
-490.508	-200.000	0.026	0.131
-489.493	-88.539	0.152	0.046
-488.478	-90.131	-0.220	-0.065
-487.464	-200.000	-0.031	0.152
-486.449	-145.858	0.065	-0.006
-485.435	800.000	-0.093	-0.265
-484.420	-124.951	-0.319	0.050
-483.405	-200.000	-0.004	0.140
-482.391	-57.786	0.307	0.136
-481.376	31.281	-0.047	-0.041
-480.362	172.633	0.136	-0.199
-479.347	-13.990	-0.129	0.084
-478.332	-200.000	0.041	-0.313
-477.318	211.877	0.129	0.207
-476.303	800.000	0.042	0.131
-475.289	-200.000	0.036	0.332
-474.274	778.793	0.037	0.104
-473.259	800.000	-0.108	0.308
-472.245	-76.024	0.039	-0.014
-471.230	-126.504	-0.067	0.010
-470.216	175.072	-0.039	-0.058
-469.201	29.178	0.069	0.059
-468.186	435.847	0.066	0.145
-467.172	533.831	-0.059	0.142
-466.157	159.638	0.122	0.172
-465.143	485.757	0.092	-0.212
-464.128	-5.986	-0.226	0.157
-463.113	-200.000	-0.039	0.306
-462.099	-6.262	0.385	-0.267
-461.084	513.174	-0.095	0.224
-460.070	157.182	-0.057	-0.080
-459.055	158.992	-0.126	-0.177
-458.040	513.173	-0.055	0.131
-457.026	164.634	0.131	0.188
-456.011	-14.355	0.126	-0.082
-454.997	-200.000	-0.016	0.140
-453.982	-200.000	-0.002	0.070
-452.968	800.000	-0.063	-0.242
-451.953	160.411	-0.194	0.274
-450.938	532.879	0.131	0.313
-449.924	-126.716	-0.134	0.020
-448.909	-200.000	0.001	-0.404
-447.895	384.819	-0.020	-0.043
-446.880	129.304	-0.051	0.066
-445.865	-122.124	-0.191	0.032
-444.851	215.370	-0.070	0.113
-443.836	95.960	0.165	-0.191
-442.822	-200.000	0.050	0.236
-441.807	28.831	0.160	0.138
-440.792	166.197	-0.204	0.293
-439.778	28.247	0.158	0.135
-438.763	-35.810	0.067	-0.037
-437.749	-12.225	0.382	-0.253
-436.734	-200.000	0.006	0.129
-435.719	27.756	0.162	-0.138
-434.705	-22.438	-0.164	0.100
-433.690	-95.091	0.087	-0.024
-432.676	800.000	0.060	0.185
-431.661	800.000	-0.039	-0.135
-430.646	-24.896	0.271	-0.163
-429.632	800.000	-0.082	-0.264
-428.617	550.366	-0.050	0.120
-427.603	390.468	-0.205	0.431
-426.588	-91.062	-0.243	0.071
-425.573	711.995	0.090	0.242
-424.559	71.658	0.241	0.253
-423.544	-123.621	-0.166	-0.027
-422.530	-40.337	-0.081	-0.043
-421.515	-200.000	0.015	-0.153
-420.500	-31.281	0.316	-0.180
-419.486	-192.310	0.430	0.004
-418.471	282.225	-0.089	0.162
-417.457	-63.436	-0.403	-0.168
-416.442	-32.988	0.254	0.143
-415.428	53.654	-0.219	0.212
-414.413	780.764	0.092	-0.254
-413.398	11.434	0.522	-0.404
-412.384	144.246	0.118	-0.159
-411.369	158.715	-0.251	0.353
-410.355	-200.000	0.028	0.229
-409.340	-139.142	-0.153	0.017
-408.325	25.144	0.276	-0.232
-407.311	12.970	-0.154	-0.120
-406.296	-128.269	0.317	-0.046
-405.282	110.927	0.149	0.182
-404.267	20.441	0.182	0.149
-403.252	53.304	-0.122	0.118
-402.238	-113.228	0.066	-0.013
-401.223	-200.000	0.018	0.088
-400.209	-151.462	-0.043	0.003
-399.194	-101.546	0.169	0.042
-398.179	237.091	-0.084	0.141
-397.165	800.000	-0.040	-0.129
-396.150	-197.184	0.210	-0.001
-395.136	800.000	0.093	-0.263
-394.121	65.693	-0.156	0.160
-393.106	518.157	-0.056	0.132
-392.092	-126.007	0.240	0.036
-391.077	32.189	0.163	0.142
-390.063	-86.685	0.284	0.088
-389.048	-113.699	0.375	-0.074
-388.033	-200.000	-0.053	-0.331
-387.019	574.817	0.044	0.108
-386.004	-91.181	0.283	0.082
-384.990	-86.423	-0.225	-0.070
-383.975	-54.475	-0.177	0.081
-382.960	-20.890	0.139	-0.086
-381.946	-36.963	-0.202	-0.110
-380.931	44.701	0.187	-0.173
-379.917	-12.478	0.451	0.298
-378.902	-34.221	-0.155	0.086
-377.888	415.417	-0.145	0.312
-376.873	2.485	-0.214	0.157
-375.858	88.992	0.091	0.102
-374.844	-79.059	-0.129	0.044
-373.829	800.000	0.065	-0.217
-372.815	157.736	0.102	0.143
-371.800	800.000	0.143	-0.464
-370.785	-200.000	0.073	-0.375
-369.771	402.801	-0.005	0.011
-368.756	800.000	0.021	0.060
-367.742	-200.000	-0.022	-0.224
-366.727	-107.955	-0.248	-0.054
-365.712	25.253	-0.160	0.134
-364.698	183.718	-0.077	-0.115
-363.683	800.000	0.083	0.324
-362.669	-52.187	0.156	-0.073
-361.654	-200.000	-0.025	-0.205
-360.639	-130.919	-0.215	0.029
-359.625	74.919	-0.135	0.143
-358.610	800.000	0.043	0.156
-357.596	-74.051	-0.223	0.082
-356.581	-169.205	-0.179	-0.007
-355.566	93.940	0.159	0.182
-354.552	183.267	-0.178	-0.266
-353.537	176.862	-0.077	-0.113
-352.523	-97.467	-0.238	0.063
-351.508	-111.870	-0.213	-0.043
-350.493	158.562	-0.208	0.292
-349.479	53.805	-0.230	-0.223
-348.464	-80.509	-0.208	0.070
-347.450	800.000	-0.095	-0.359
-346.435	-200.000	0.046	-0.205
-345.420	-200.000	0.009	-0.242
-344.406	-158.175	0.028	-0.002
-343.391	597.220	0.079	0.198
-342.377	-44.411	-0.078	-0.039
-341.362	91.051	-0.110	-0.124
-340.348	743.707	-0.034	-0.093
-339.333	800.000	-0.095	-0.286
-338.318	1.571	0.181	-0.131
-337.304	-112.393	-0.199	0.040
-336.289	76.388	0.177	-0.189
-335.275	16.721	0.168	0.134
-334.260	800.000	0.072	0.294
-333.245	275.514	-0.101	-0.181
-332.231	8.832	0.108	-0.082
-331.216	-200.000	-0.041	0.208
-330.202	159.904	-0.143	0.202
-329.187	-200.000	0.003	0.015
-328.172	-102.023	-0.318	-0.077
-327.158	-52.230	0.071	0.033
-326.143	618.141	0.082	0.207
-325.129	-200.000	0.071	0.000
-324.114	173.954	-0.194	0.283
-323.099	-26.929	-0.237	-0.140
-322.085	-134.097	0.249	0.031
-321.070	-169.987	-0.288	0.010
-320.056	212.079	-0.127	-0.201
-319.041	173.626	0.250	0.364
-318.026	542.734	0.186	0.447
-317.012	160.174	-0.100	0.140
-315.997	-166.847	0.042	0.002
-314.983	467.015	0.050	-0.112
-313.968	-35.791	-0.199	-0.109
-312.953	-200.000	0.004	-0.122
-311.939	59.360	0.279	0.277
-310.924	-107.008	0.220	-0.049
-309.910	-1.931	-0.183	0.130
-308.895	-200.000	-0.000	-0.191
-307.880	163.152	-0.046	0.066
-306.866	-33.451	0.246	0.137
-305.851	404.233	0.100	0.213
-304.837	472.440	0.024	-0.053
-303.822	800.000	0.004	-0.013
-302.807	800.000	-0.128	-0.492
-301.793	263.526	-0.221	-0.387
-300.778	-14.128	0.482	-0.313
-299.764	686.661	0.104	0.274
-298.749	-200.000	-0.192	0.000
-297.735	800.000	0.029	0.105
-296.720	170.201	-0.221	0.318
-295.705	-60.675	0.207	0.088
-294.691	230.791	0.082	-0.136
-293.676	120.759	0.212	0.266
-292.662	-87.508	-0.090	-0.027
-291.647	54.803	0.183	-0.178
-290.632	-200.000	-0.008	-0.211
-289.618	-10.702	-0.318	0.212
-288.603	800.000	0.031	0.127
-287.589	-200.000	-0.047	-0.308
-286.574	-158.543	-0.148	-0.009
-285.559	-200.000	-0.046	0.233
-284.545	-123.454	-0.228	-0.037
-283.530	648.137	0.027	0.068
-282.516	-26.935	0.209	-0.123
-281.501	689.343	0.104	-0.273
-280.486	704.754	0.132	0.351
-279.472	-200.000	-0.009	0.300
-278.457	-150.758	0.201	0.015
-277.443	362.012	-0.048	-0.097
-276.428	53.294	-0.272	-0.262
-275.413	-130.491	0.402	0.055
-274.399	-200.000	-0.053	0.284
-273.384	-186.291	-0.324	0.005
-272.370	800.000	0.012	-0.052
-271.355	-57.300	-0.208	0.092
-270.340	-141.078	0.151	0.016
-269.326	800.000	0.067	-0.249
-268.311	147.072	0.275	-0.373
-267.297	37.387	0.126	-0.112
-266.282	39.350	0.128	0.116
-265.267	8.617	-0.348	0.264
-264.253	800.000	-0.035	0.135
-263.238	0.480	-0.123	-0.088
-262.224	244.224	0.253	0.428
-261.209	800.000	0.100	0.319
-260.195	137.734	-0.193	0.254
-259.180	9.126	0.132	-0.100
-258.165	314.765	-0.038	0.071
-257.151	800.000	-0.046	-0.198
-256.136	-200.000	0.063	0.000
-255.122	-27.421	-0.186	-0.109
-254.107	-121.747	-0.114	0.019
-253.092	-20.836	-0.151	-0.093
-252.078	-200.000	0.005	-0.027
-251.063	104.479	0.116	-0.138
-250.049	-200.000	0.015	-0.205
-249.034	177.363	0.042	0.062
-248.019	333.846	-0.207	0.403
-247.005	30.553	0.219	-0.188
-245.990	10.802	-0.110	-0.085
-244.976	-107.099	-0.464	-0.103
-243.961	-200.000	0.005	-0.235
-242.946	-163.784	0.476	-0.022
-241.932	82.424	-0.060	0.065
-240.917	91.519	0.129	0.146
-239.903	-15.852	-0.106	0.068
-238.888	-29.912	0.270	0.155
-237.873	487.119	-0.117	0.269
-236.859	-97.055	0.307	-0.081
-235.844	-197.496	0.241	-0.002
-234.830	173.911	-0.099	0.144
-233.815	757.284	0.106	0.287
-232.800	13.923	0.166	-0.130
-231.786	-89.214	0.311	-0.092
-230.771	-200.000	-0.022	0.240
-229.757	144.438	-0.021	0.028
-228.742	38.819	0.227	0.203
-227.727	-162.583	-0.230	0.011
-226.713	-33.511	0.153	0.085
-225.698	-75.698	-0.332	-0.118
-224.684	-46.159	-0.075	-0.037
-223.669	28.726	-0.222	0.189
-222.655	-200.000	0.042	-0.274
-221.640	670.870	-0.032	-0.083
-220.625	-98.485	0.308	-0.079
-219.611	209.679	0.043	-0.068
-218.596	542.004	0.034	0.081
-217.582	-62.002	0.344	0.144
-216.567	-200.000	0.035	0.174
-215.552	-9.460	-0.097	-0.065
-214.538	-95.388	-0.026	-0.007
-213.523	-24.017	-0.153	0.092
-212.509	-114.058	0.245	0.048
-211.494	318.410	0.164	-0.312
-210.479	-126.983	-0.241	-0.036
-209.465	-200.000	0.022	-0.182
-208.450	-36.182	-0.177	0.096
-207.436	800.000	0.099	0.304
-206.421	13.251	0.153	0.119
-205.406	-131.924	-0.002	0.000
-204.392	29.446	-0.387	-0.330
-203.377	121.557	0.085	0.106
-202.363	-38.522	0.218	0.116
-201.348	-78.352	0.266	-0.092
-200.333	90.657	0.204	-0.229
-199.319	121.490	0.178	0.222
-198.304	800.000	-0.072	-0.277
-197.290	-1.427	-0.176	-0.124
-196.275	-200.000	-0.055	0.380
-195.260	30.907	-0.140	0.120
-194.246	-28.317	0.203	0.117
-193.231	-200.000	-0.034	-0.191
-192.217	-59.809	0.215	0.092
-191.202	-67.852	-0.048	-0.019
-190.187	-200.000	-0.022	0.373
-189.173	-95.801	0.462	-0.124
-188.158	723.990	-0.012	0.033
-187.144	-200.000	-0.018	-0.244
-186.129	60.535	-0.150	-0.149
-185.114	86.727	-0.134	0.148
-184.100	-62.558	0.191	0.080
-183.085	-7.999	0.196	-0.133
-182.071	-42.792	0.110	-0.056
-181.056	800.000	-0.033	0.113
-180.042	78.796	0.141	-0.151
-179.027	800.000	-0.086	0.260
-178.012	96.988	0.156	-0.179
-176.998	-95.141	-0.270	0.073
-175.983	-7.819	0.196	-0.133
-174.969	-200.000	-0.036	0.322
-173.954	7.771	-0.089	0.067
-172.939	-94.098	-0.460	-0.126
-171.925	-103.069	-0.085	0.020
-170.910	-200.000	-0.005	0.062
-169.896	153.282	0.041	-0.056
-168.881	-151.190	0.233	0.017
-167.866	-200.000	-0.038	0.168
-166.852	-112.601	-0.144	-0.029
-165.837	-21.216	-0.386	0.237
-164.823	-132.752	-0.350	-0.045
-163.808	-85.882	-0.273	-0.085
-162.793	-56.117	0.216	-0.096
-161.779	-200.000	0.005	0.031
-160.764	-125.051	0.283	-0.044
-159.750	-118.464	0.379	0.067
-158.735	454.398	0.081	-0.180
-157.720	-200.000	-0.001	0.131
-156.706	-151.919	-0.359	-0.026
-155.691	-200.000	0.023	-0.128
-154.677	-126.147	-0.260	0.039
-153.662	800.000	0.084	0.281
-152.647	577.619	0.118	0.289
-151.633	-8.132	-0.053	-0.036
-150.618	800.000	0.072	-0.254
-149.604	249.252	0.159	-0.270
-148.589	-118.829	-0.248	0.044
-147.574	157.176	0.186	-0.258
-146.560	-200.000	0.058	-0.306
-145.545	-71.432	0.301	-0.113
-144.531	132.195	0.105	-0.136
-143.516	-200.000	-0.015	-0.069
-142.502	-40.207	0.208	-0.108
-141.487	800.000	0.075	-0.304
-140.472	800.000	0.060	-0.199
-139.458	-184.700	-0.279	-0.004
-138.443	-200.000	-0.014	-0.147
-137.429	-152.945	-0.226	0.016
-136.414	5.403	0.142	0.105
-135.399	-84.466	0.047	-0.015
-134.385	-124.887	-0.091	-0.014
-133.370	243.118	-0.055	-0.092
-132.356	-32.761	0.289	-0.161
-131.341	342.536	-0.060	-0.118
-130.326	-33.433	0.166	0.092
-129.312	-6.446	-0.281	0.192
-128.297	-200.000	0.038	-0.179
-127.283	2.114	0.163	0.118
-126.268	60.528	-0.118	-0.116
-125.253	147.781	-0.199	-0.268
-124.239	-17.806	0.177	0.111
-123.224	115.362	-0.120	0.147
-122.210	800.000	0.079	-0.222
-121.195	159.974	0.117	-0.163
