DTS Sentinel unit serial number:	SN413079Multiplexer serial number:	ORYXHardware model number:	OX4-SRSoftware version number:	ORYX F/W v4.00 Oryx Data Collector v3.7.2.0data status	okinstallation	princeton_trtdifferential loss correction	single-endedforward channel	channel 4reverse channel	N/Adate	2019/09/15time	11:45:35forward acquisition time	60.00reverse acquisition time	0.00gamma	496.2192k internal	0.2297k external	0.2297temperature offset calibration	1.0015default loss term (dB/km)	0.3790temperature slope calibration	1.0000multiplexer offset coefficient	1.0000multiplexer slope coefficient	1.0000fibre end	0.00T internal ref (°C)	34.31T ext. ref 1 (°C)	5.05T ext. ref 2 (°C)	29.93length (m)	temperature (°C)	Stokes	anti-Stokes-747.200	54.872	-0.084	0.083
-746.185	-90.508	-0.027	-0.008
-745.171	128.568	-0.105	-0.136
-744.156	800.000	0.078	0.283
-743.142	800.000	-0.052	-0.190
-742.127	-64.928	-0.146	0.060
-741.112	55.307	-0.132	0.130
-740.098	93.446	0.039	-0.045
-739.083	-41.829	0.228	0.119
-738.069	451.141	0.050	0.112
-737.054	-16.917	-0.034	0.022
-736.039	-106.440	-0.306	0.070
-735.025	800.000	0.118	0.424
-734.010	-109.965	0.147	-0.031
-732.996	562.088	-0.102	-0.251
-731.981	-118.083	-0.118	0.021
-730.966	102.790	0.261	-0.311
-729.952	-66.597	-0.063	0.025
-728.937	252.025	-0.139	0.242
-727.923	-156.656	0.293	0.018
-726.908	24.579	-0.110	-0.093
-725.894	-182.578	0.075	-0.001
-724.879	800.000	-0.089	0.330
-723.864	-200.000	-0.028	-0.369
-722.850	-60.956	-0.280	-0.121
-721.835	-104.285	-0.205	0.049
-720.821	34.507	-0.056	0.050
-719.806	59.224	-0.087	-0.088
-718.791	-8.503	0.149	0.102
-717.777	77.343	-0.066	-0.071
-716.762	-143.775	-0.234	-0.023
-715.748	93.085	-0.142	0.164
-714.733	36.744	-0.326	0.294
-713.718	-44.504	0.262	0.134
-712.704	169.346	0.298	0.434
-711.689	-200.000	0.014	-0.285
-710.675	176.389	-0.046	0.068
-709.660	35.183	0.060	-0.053
-708.645	461.161	-0.031	-0.071
-707.631	-102.648	0.145	0.035
-706.616	800.000	0.044	0.128
-705.602	-200.000	0.014	-0.182
-704.587	-15.072	-0.183	-0.120
-703.572	-71.478	0.218	-0.083
-702.558	-99.701	0.201	-0.051
-701.543	-89.346	0.350	-0.105
-700.529	-200.000	-0.030	-0.143
-699.514	206.364	-0.133	-0.211
-698.499	216.895	-0.169	-0.274
-697.485	93.972	-0.272	0.314
-696.470	-142.398	-0.209	0.021
-695.456	-200.000	0.063	0.296
-694.441	800.000	-0.073	-0.259
-693.426	-200.000	-0.013	-0.149
-692.412	-86.380	0.152	0.048
-691.397	348.837	-0.039	-0.078
-690.383	-133.425	0.287	-0.037
-689.368	-154.203	0.219	0.015
-688.354	-113.798	-0.289	-0.057
-687.339	-116.307	-0.163	0.031
-686.324	147.529	-0.235	-0.323
-685.310	-151.695	-0.122	0.009
-684.295	270.408	0.202	-0.361
-683.281	145.389	-0.242	-0.330
-682.266	-200.000	-0.032	0.262
-681.251	157.849	-0.077	-0.108
-680.237	-115.966	0.294	-0.056
-679.222	32.139	-0.259	-0.228
-678.208	-200.000	-0.014	-0.239
-677.193	4.994	0.216	0.162
-676.178	-200.000	-0.347	0.001
-675.164	-200.000	0.073	-0.396
-674.149	41.153	-0.079	-0.073
-673.135	-22.901	-0.195	-0.120
-672.120	43.682	0.051	0.048
-671.105	52.689	-0.195	-0.189
-670.091	78.034	0.152	-0.165
-669.076	25.900	-0.076	-0.064
-668.062	528.992	0.194	-0.466
-667.047	94.415	0.339	-0.392
-666.032	27.073	0.094	0.081
-665.018	481.499	-0.112	-0.260
-664.003	97.839	-0.224	0.262
-662.989	307.656	0.151	-0.287
-661.974	121.967	0.170	0.216
-660.959	237.926	0.131	-0.221
-659.945	269.335	0.160	-0.286
-658.930	800.000	0.088	-0.250
-657.916	345.137	0.091	-0.182
-656.901	60.547	-0.088	0.088
-655.886	75.762	-0.182	-0.196
-654.872	-128.853	-0.069	0.010
-653.857	-24.158	-0.082	0.050
-652.843	1.421	0.108	0.079
-651.828	-124.610	-0.083	-0.013
-650.814	800.000	0.086	-0.346
-649.799	-67.240	-0.308	-0.123
-648.784	49.342	-0.291	-0.278
-647.770	-200.000	0.017	0.097
-646.755	-128.823	-0.154	-0.022
-645.741	-27.186	-0.052	0.031
-644.726	-114.849	0.122	-0.024
-643.711	-70.066	0.281	-0.109
-642.697	800.000	0.077	-0.308
-641.682	-200.000	-0.018	0.228
-640.668	-102.973	-0.326	-0.079
-639.653	286.552	-0.084	0.155
-638.638	285.745	-0.221	-0.405
-637.624	-28.146	-0.021	0.012
-636.609	-138.105	0.104	-0.012
-635.595	800.000	-0.094	-0.270
-634.580	165.923	-0.215	-0.309
-633.565	100.441	-0.070	-0.082
-632.551	18.311	0.082	-0.066
-631.536	-52.828	-0.106	0.049
-630.522	350.480	-0.084	-0.169
-629.507	-97.396	0.284	0.075
-628.492	-85.733	-0.241	0.076
-627.478	42.933	-0.141	-0.130
-626.463	-47.705	-0.241	0.119
-625.449	-107.663	-0.187	0.041
-624.434	-64.932	-0.216	0.089
-623.419	97.105	-0.037	0.043
-622.405	800.000	-0.060	-0.248
-621.390	592.594	0.045	0.112
-620.376	-200.000	-0.001	-0.061
-619.361	-68.861	-0.337	-0.132
-618.346	-69.057	0.237	-0.093
-617.332	53.979	-0.060	-0.059
-616.317	95.824	-0.197	-0.229
-615.303	324.366	-0.116	-0.225
-614.288	800.000	-0.041	0.138
-613.273	31.284	-0.106	-0.093
-612.259	182.382	-0.049	-0.073
-611.244	32.503	0.225	-0.197
-610.230	-1.791	0.216	-0.154
-609.215	509.773	-0.235	-0.555
-608.201	-200.000	-0.031	-0.276
-607.186	38.110	-0.040	0.036
-606.171	296.041	-0.173	0.323
-605.157	-57.942	0.138	-0.061
-604.142	298.899	0.129	0.241
-603.128	543.999	-0.041	0.099
-602.113	-87.307	0.218	-0.067
-601.098	-200.000	0.013	0.087
-600.084	-68.539	-0.148	0.058
-599.069	78.978	-0.104	0.113
-598.055	-104.701	-0.296	-0.069
-597.040	-45.492	-0.197	0.099
-596.025	-174.919	-0.185	-0.005
-595.011	719.809	0.072	0.195
-593.996	267.159	-0.097	-0.173
-592.982	26.265	-0.141	-0.120
-591.967	800.000	-0.072	0.231
-590.952	45.843	-0.110	-0.103
-589.938	-53.704	0.090	0.042
-588.923	633.561	-0.028	0.072
-587.909	800.000	-0.085	-0.339
-586.894	248.431	0.175	-0.301
-585.879	175.821	0.055	0.082
-584.865	-167.652	0.309	-0.012
-583.850	505.401	-0.061	-0.144
-582.836	-33.582	0.345	-0.194
-581.821	-13.764	-0.155	-0.102
-580.806	471.616	-0.146	0.333
-579.792	499.162	0.149	0.348
-578.777	-121.651	0.144	-0.024
-577.763	-94.057	0.147	-0.041
-576.748	112.663	0.114	0.140
-575.733	800.000	-0.016	-0.055
-574.719	-120.875	0.166	-0.028
-573.704	-145.509	0.289	-0.026
-572.690	149.049	-0.225	-0.309
-571.675	337.881	0.082	0.161
-570.661	-188.547	0.151	-0.002
-569.646	-74.245	0.094	-0.034
-568.631	800.000	-0.040	0.118
-567.617	83.079	0.273	0.301
-566.602	433.016	-0.125	0.275
-565.588	21.382	0.095	-0.078
-564.573	-200.000	-0.074	-0.457
-563.558	208.918	0.158	0.251
-562.544	-33.058	0.370	0.208
-561.529	-61.102	-0.069	-0.029
-560.515	-134.897	0.286	0.035
-559.500	800.000	-0.105	0.329
-558.485	800.000	-0.059	0.217
-557.471	249.143	0.203	0.349
-556.456	-200.000	0.013	-0.097
-555.442	-200.000	-0.023	0.412
-554.427	-96.644	0.132	-0.035
-553.412	31.459	0.038	0.033
-552.398	-116.723	-0.308	-0.057
-551.383	399.316	-0.114	0.243
-550.369	-200.000	0.024	-0.138
-549.354	442.389	0.173	0.383
-548.339	2.866	0.141	0.104
-547.325	800.000	-0.028	-0.103
-546.310	-170.152	-0.402	0.014
-545.296	800.000	0.070	-0.302
-544.281	104.867	-0.135	-0.161
-543.266	91.342	0.229	0.260
-542.252	800.000	0.053	-0.213
-541.237	101.677	0.319	-0.377
-540.223	-132.698	-0.159	0.021
-539.208	-58.071	-0.233	0.103
-538.193	571.408	0.044	0.108
-537.179	-200.000	-0.038	-0.536
-536.164	-200.000	0.035	-0.255
-535.150	536.391	0.220	-0.528
-534.135	-200.000	-0.009	-0.120
-533.121	178.687	0.171	0.253
-532.106	-87.432	0.296	0.091
-531.091	221.819	-0.280	-0.455
-530.077	-200.000	-0.025	-0.378
-529.062	193.823	-0.061	-0.094
-528.048	-200.000	0.043	-0.225
-527.033	591.900	0.123	-0.307
-526.018	-200.000	-0.025	-0.271
-525.004	380.582	0.107	-0.221
-523.989	332.750	-0.261	-0.510
-522.975	74.567	0.090	-0.096
-521.960	-94.956	0.029	0.008
-520.945	-133.551	-0.167	0.021
-519.931	-200.000	0.006	0.199
-518.916	158.825	-0.195	-0.274
-517.902	156.025	0.203	0.283
-516.887	-200.000	0.006	-0.115
-515.872	260.554	0.106	-0.186
-514.858	-160.943	-0.158	0.008
-513.843	-88.741	-0.189	-0.057
-512.829	-200.000	-0.011	0.274
-511.814	-200.000	-0.020	0.191
-510.799	-177.710	0.191	0.005
-509.785	-128.622	0.327	-0.047
-508.770	178.454	-0.187	0.276
-507.756	-200.000	-0.037	-0.377
-506.741	-107.784	0.210	-0.046
-505.726	-135.955	-0.310	-0.037
-504.712	800.000	-0.071	0.228
-503.697	666.146	0.027	-0.071
-502.683	-31.774	0.059	-0.034
-501.668	800.000	0.134	0.523
-500.653	-57.842	0.289	0.128
-499.639	-200.000	0.070	-0.334
-498.624	188.464	-0.244	-0.369
-497.610	-200.000	0.001	0.010
-496.595	15.969	-0.125	-0.100
-495.581	800.000	0.041	0.179
-494.566	-200.000	0.049	0.299
-493.551	55.446	0.116	0.114
-492.537	103.851	0.111	0.132
-491.522	160.564	-0.177	0.250
-490.508	-124.877	-0.208	-0.032
-489.493	-200.000	-0.017	0.202
-488.478	-172.410	-0.325	-0.010
-487.464	189.903	-0.174	0.264
-486.449	91.865	-0.019	0.022
-485.435	-168.636	0.310	0.012
-484.420	23.291	0.214	-0.178
-483.405	-75.832	-0.341	0.122
-482.391	-155.336	-0.094	0.006
-481.376	-89.973	-0.111	-0.033
-480.362	-61.572	0.194	0.082
-479.347	-200.000	-0.319	-0.001
-478.332	-109.983	0.223	-0.047
-477.318	-89.464	0.186	0.055
-476.303	-161.901	0.199	0.010
-475.289	-199.008	-0.302	0.002
-474.274	-106.838	0.231	-0.052
-473.259	-0.637	0.102	-0.073
-472.245	800.000	-0.043	-0.172
-471.230	-89.424	0.235	-0.070
-470.216	-64.277	-0.237	-0.098
-469.201	-38.438	0.275	0.147
-468.186	-45.615	0.208	0.104
-467.172	-114.993	-0.259	0.050
-466.157	58.974	0.243	0.241
-465.143	68.240	-0.275	0.284
-464.128	604.124	0.102	-0.256
-463.113	-200.000	0.086	0.473
-462.099	-71.035	-0.176	0.067
-461.084	42.677	-0.065	0.059
-460.070	800.000	0.071	0.304
-459.055	3.196	0.333	0.244
-458.040	680.971	-0.126	-0.331
-457.026	-200.000	-0.013	0.232
-456.011	172.626	-0.159	0.231
-454.997	369.729	-0.128	-0.261
-453.982	-122.749	-0.239	0.039
-452.968	411.832	-0.100	0.214
-451.953	559.478	-0.161	-0.392
-450.938	117.136	0.013	0.016
-449.924	745.888	-0.037	-0.102
-448.909	-12.647	-0.226	0.148
-447.895	174.213	0.136	0.198
-446.880	800.000	-0.014	0.040
-445.865	231.708	0.088	-0.145
-444.851	271.871	0.160	-0.285
-443.836	-94.631	0.091	-0.025
-442.822	-61.012	0.269	0.114
-441.807	-200.000	0.001	0.194
-440.792	-200.000	-0.010	-0.202
-439.778	-137.219	0.409	-0.047
-438.763	12.287	-0.155	-0.120
-437.749	-64.996	0.271	0.110
-436.734	595.185	-0.071	-0.177
-435.719	250.140	0.061	0.104
-434.705	-200.000	0.073	-0.324
-433.690	-15.285	-0.211	-0.136
-432.676	284.526	0.134	0.243
-431.661	30.164	0.134	0.115
-430.646	-33.090	-0.243	-0.136
-429.632	126.714	-0.289	-0.370
-428.617	219.911	-0.068	-0.110
-427.603	377.638	-0.110	0.228
-426.588	-142.305	0.103	-0.010
-425.573	800.000	0.093	-0.261
-424.559	227.081	-0.027	0.045
-423.544	303.826	-0.061	0.113
-422.530	112.380	-0.115	-0.141
-421.515	97.887	-0.098	0.114
-420.500	-83.009	0.227	0.074
-419.486	-128.115	-0.266	-0.038
-418.471	-200.000	-0.026	-0.169
-417.457	-200.000	-0.077	-0.484
-416.442	-22.674	-0.123	0.075
-415.428	240.222	0.155	0.260
-414.413	184.070	-0.106	0.158
-413.398	-109.931	0.091	0.019
-412.384	-130.033	0.169	-0.023
-411.369	-47.803	-0.146	-0.071
-410.355	-105.353	0.295	0.068
-409.340	-200.000	0.004	0.268
-408.325	353.619	0.209	-0.417
-407.311	-70.959	-0.051	-0.019
-406.296	19.714	0.199	0.162
-405.282	-127.625	-0.138	0.020
-404.267	-50.830	0.305	0.144
-403.252	-32.140	-0.283	0.159
-402.238	-101.348	-0.211	-0.052
-401.223	-116.379	0.277	0.052
-400.209	58.227	0.072	-0.071
-399.194	543.390	-0.156	0.374
-398.179	-138.084	0.118	-0.013
-397.165	-200.000	-0.029	-0.179
-396.150	92.340	-0.070	0.080
-395.136	-26.559	-0.116	0.068
-394.121	-59.197	0.156	-0.068
-393.106	515.847	0.108	0.254
-392.092	25.388	0.191	0.160
-391.077	21.542	0.224	0.184
-390.063	-200.000	-0.001	0.085
-389.048	-52.438	0.558	0.260
-388.033	-96.341	-0.122	0.033
-387.019	800.000	-0.031	-0.092
-386.004	-75.746	0.237	-0.085
-384.990	35.758	-0.081	-0.071
-383.975	-149.330	-0.067	0.005
-382.960	87.573	0.157	0.175
-381.946	261.867	-0.115	0.201
-380.931	651.681	0.098	-0.252
-379.917	-155.372	-0.332	0.022
-378.902	426.444	-0.081	0.176
-377.888	165.746	-0.200	-0.285
-376.873	-100.621	-0.555	0.138
-375.858	-200.000	0.017	0.246
-374.844	-200.000	0.046	0.318
-373.829	-154.800	0.192	0.013
-372.815	55.947	-0.159	0.155
-371.800	-86.074	-0.351	-0.109
-370.785	80.525	-0.187	0.202
-369.771	-200.000	-0.005	-0.047
-368.756	-65.075	-0.097	0.039
-367.742	-200.000	0.008	-0.055
-366.727	-96.581	0.428	0.113
-365.712	-200.000	-0.045	0.256
-364.698	48.354	-0.121	-0.114
-363.683	-200.000	-0.015	0.103
-362.669	55.724	0.099	0.096
-361.654	-99.142	-0.311	-0.079
-360.639	-52.148	0.157	-0.073
-359.625	220.797	0.096	0.154
-358.610	-99.658	0.124	0.031
-357.596	-14.875	-0.201	0.130
-356.581	-107.166	0.105	-0.023
-355.566	290.250	-0.124	0.227
-354.552	64.647	-0.059	-0.060
-353.537	-55.020	-0.207	0.094
-352.523	84.120	0.258	0.283
-351.508	-109.895	-0.374	-0.079
-350.493	-153.126	-0.491	0.035
-349.479	-174.572	-0.340	-0.010
-348.464	-200.000	-0.018	-0.165
-347.450	190.393	-0.113	0.170
-346.435	-173.857	-0.307	0.009
-345.420	24.431	-0.138	-0.114
-344.406	800.000	-0.033	0.131
-343.391	-98.110	-0.116	-0.030
-342.377	151.205	0.068	0.093
-341.362	800.000	0.083	-0.241
-340.348	58.334	0.132	0.130
-339.333	800.000	-0.097	-0.422
-338.318	-101.564	-0.472	0.115
-337.304	-12.968	0.258	-0.169
-336.289	-86.845	-0.068	0.021
-335.275	800.000	-0.038	-0.155
-334.260	7.852	-0.233	0.176
-333.245	-200.000	0.009	0.233
-332.231	46.495	0.120	0.112
-331.216	395.252	-0.139	0.292
-330.202	209.336	0.120	0.188
-329.187	-104.389	-0.115	-0.027
-328.172	118.181	0.096	-0.119
-327.158	-63.691	-0.099	-0.041
-326.143	171.828	-0.150	0.216
-325.129	800.000	-0.072	-0.217
-324.114	-50.832	0.237	0.112
-323.099	163.141	-0.057	-0.080
-322.085	583.397	0.067	0.166
-321.070	162.308	0.128	-0.180
-320.056	-5.130	-0.274	-0.189
-319.041	5.531	0.084	0.062
-318.026	89.637	0.047	-0.053
-317.012	76.554	0.282	-0.300
-315.997	-18.262	-0.236	-0.148
-314.983	-160.414	-0.410	-0.022
-313.968	65.922	0.076	0.077
-312.953	-34.442	-0.296	-0.163
-311.939	-94.953	-0.251	0.068
-310.924	378.441	0.209	0.430
-309.910	-200.000	0.041	-0.302
-308.895	800.000	-0.016	0.059
-307.880	-200.000	-0.010	-0.268
-306.866	-200.000	0.018	0.110
-305.851	-3.682	0.178	-0.124
-304.837	-200.000	0.001	-0.108
-303.822	-57.429	0.226	-0.100
-302.807	800.000	0.073	-0.207
-301.793	800.000	0.044	-0.158
-300.778	-192.177	0.204	0.002
-299.764	-130.020	-0.082	-0.011
-298.749	113.983	0.163	-0.199
-297.735	219.275	-0.121	0.194
-296.720	192.211	-0.135	-0.205
-295.705	-105.440	0.376	0.086
-294.691	25.765	-0.089	0.074
-293.676	-22.357	0.207	-0.126
-292.662	-200.000	-0.013	0.140
-291.647	-112.697	0.352	-0.070
-290.632	-55.804	-0.445	-0.200
-289.618	-50.171	0.136	-0.065
-288.603	-103.997	0.181	-0.042
-287.589	-99.621	0.223	0.056
-286.574	35.090	0.034	-0.030
-285.559	-65.220	0.225	0.091
-284.545	-76.057	0.123	-0.044
-283.530	591.060	-0.107	-0.264
-282.516	31.813	-0.259	0.223
-281.501	8.377	-0.171	0.129
-280.486	-200.000	0.003	-0.112
-279.472	-83.274	0.257	-0.083
-278.457	-53.263	-0.250	-0.115
-277.443	-153.622	-0.366	0.025
-276.428	-64.421	0.114	-0.046
-275.413	682.680	0.029	-0.077
-274.399	557.327	-0.063	-0.152
-273.384	-20.090	0.206	-0.128
-272.370	633.378	-0.024	0.062
-271.355	175.078	0.237	0.344
-270.340	-47.749	0.161	0.078
-269.326	178.143	-0.124	-0.182
-268.311	-136.575	0.325	0.038
-267.297	21.411	0.057	-0.047
-266.282	-119.220	0.161	0.028
-265.267	-128.806	-0.228	-0.032
-264.253	123.089	0.125	0.157
-263.238	800.000	0.074	-0.306
-262.224	637.516	-0.046	0.116
-261.209	-71.359	0.201	-0.075
-260.195	-41.925	-0.102	-0.052
-259.180	-129.063	0.424	0.059
-258.165	-110.333	-0.070	-0.015
-257.151	-18.391	-0.127	-0.079
-256.136	768.440	-0.068	-0.186
-255.122	-200.000	0.024	-0.306
-254.107	-21.059	0.128	0.078
-253.092	800.000	0.105	-0.364
-252.078	-200.000	0.041	0.226
-251.063	800.000	0.089	-0.339
-250.049	60.429	0.106	-0.105
-249.034	-67.637	0.316	-0.124
-248.019	-118.055	0.232	0.041
-247.005	-160.258	0.177	-0.010
-245.990	4.215	0.110	-0.080
-244.976	53.840	0.089	-0.086
-243.961	-200.000	-0.043	0.234
-242.946	268.750	-0.167	0.293
-241.932	-106.153	0.149	0.033
-240.917	800.000	0.048	0.156
-239.903	-123.961	0.060	-0.009
-238.888	-200.000	0.082	-0.386
-237.873	140.215	0.199	0.262
-236.859	301.514	-0.152	0.282
-235.844	68.666	-0.109	0.112
-234.830	-130.587	0.009	0.001
-233.815	-75.852	-0.082	0.029
-232.800	-200.000	0.029	0.131
-231.786	-200.000	0.044	-0.276
-230.771	-65.050	0.265	0.107
-229.757	800.000	-0.016	0.056
-228.742	49.344	0.108	0.102
-227.727	-133.301	0.326	-0.041
-226.713	-200.000	-0.036	-0.313
-225.698	-200.000	-0.002	-0.254
-224.684	-7.645	0.143	0.096
-223.669	-200.000	0.012	0.223
-222.655	-4.855	-0.198	0.136
-221.640	431.709	-0.011	0.025
-220.625	800.000	-0.056	-0.227
-219.611	-100.774	-0.066	0.016
-218.596	-200.000	0.036	0.406
-217.582	-200.000	0.058	-0.312
-216.567	-79.232	0.163	0.055
-215.552	800.000	0.059	0.206
-214.538	81.671	0.147	0.159
-213.523	34.476	-0.178	0.156
-212.509	128.300	-0.125	0.159
-211.494	-54.608	0.222	0.101
-210.479	-196.949	-0.011	0.000
-209.465	470.545	0.138	0.311
-208.450	-45.996	-0.042	-0.021
-207.436	387.286	0.050	0.103
-206.421	-200.000	-0.022	-0.157
-205.406	489.701	-0.076	0.174
-204.392	-10.795	0.248	0.164
-203.377	415.550	0.108	-0.229
-202.363	-25.398	-0.251	0.148
-201.348	56.047	0.198	0.192
-200.333	800.000	0.082	0.274
-199.319	84.268	-0.120	0.131
-198.304	800.000	0.105	0.319
-197.290	-179.634	-0.149	-0.003
-196.275	-33.711	-0.155	-0.085
-195.260	-81.276	0.299	0.099
-194.246	-21.792	0.134	0.082
-193.231	800.000	0.154	-0.660
-192.217	-150.235	-0.229	-0.018
-191.202	-127.589	0.371	0.054
-190.187	-130.027	0.300	-0.041
-189.173	-93.118	0.123	-0.034
-188.158	-77.863	-0.168	-0.058
-187.144	24.728	-0.198	-0.164
-186.129	-81.814	-0.094	-0.031
-185.114	-200.000	0.061	-0.267
-184.100	-88.937	-0.226	0.067
-183.085	-200.000	-0.006	-0.081
-182.071	-17.543	-0.272	-0.171
-181.056	-47.177	0.156	0.076
-180.042	-140.133	0.220	-0.023
-179.027	-69.964	-0.349	-0.133
-178.012	-98.663	-0.119	-0.030
-176.998	-38.832	0.217	0.114
-175.983	316.711	-0.108	0.203
-174.969	-111.461	-0.140	0.028
-173.954	-14.488	-0.199	-0.128
-172.939	117.793	0.319	0.392
-171.925	800.000	-0.171	-0.485
-170.910	350.213	-0.069	0.136
-169.896	800.000	0.031	0.107
-168.881	-200.000	0.013	0.139
-167.866	800.000	-0.055	0.175
-166.852	-74.175	-0.068	-0.024
-165.837	90.228	0.058	0.065
-164.823	188.557	0.167	0.250
-163.808	142.679	0.052	-0.068
-162.793	-200.000	-0.020	0.089
-161.779	-48.689	-0.386	-0.185
-160.764	-200.000	0.115	-0.001
-159.750	-169.211	-0.492	-0.018
-158.735	523.793	0.121	0.284
-157.720	800.000	0.072	0.208
-156.706	-200.000	0.032	-0.192
-155.691	-25.781	0.044	-0.026
-154.677	94.546	-0.104	0.118
-153.662	33.267	-0.287	0.248
-152.647	800.000	-0.058	0.213
-151.633	-100.742	0.117	0.029
-150.618	-102.329	0.166	-0.040
-149.604	56.944	0.137	0.134
-148.589	-2.177	0.097	-0.068
-147.574	130.886	0.030	0.038
-146.560	98.904	-0.253	-0.291
-145.545	800.000	-0.154	-0.508
-144.531	31.658	-0.300	-0.257
-143.516	-158.147	0.202	0.012
-142.502	800.000	0.097	-0.411
-141.487	127.016	-0.228	0.289
-140.472	-200.000	-0.047	0.243
-139.458	-200.000	-0.004	-0.145
-138.443	133.682	0.246	0.317
-137.429	-200.000	-0.035	-0.225
-136.414	155.520	0.101	-0.139
-135.399	-200.000	0.045	-0.337
-134.385	800.000	0.064	-0.250
-133.370	800.000	-0.073	-0.210
-132.356	107.373	0.217	-0.258
-131.341	-200.000	0.011	0.123
-130.326	-17.960	-0.112	0.070
-129.312	203.252	-0.085	0.131
-128.297	-200.000	0.026	-0.222
-127.283	-200.000	-0.017	-0.112
-126.268	-76.790	-0.315	-0.110
-125.253	-200.000	-0.014	-0.185
-124.239	-31.804	-0.359	-0.201
-123.224	707.404	0.036	0.096
-122.210	-81.113	-0.063	-0.021
