DTS Sentinel unit serial number:	SN413079Multiplexer serial number:	ORYXHardware model number:	OX4-SRSoftware version number:	ORYX F/W v4.00 Oryx Data Collector v3.7.2.0data status	okinstallation	princeton_trtdifferential loss correction	single-endedforward channel	channel 4reverse channel	N/Adate	2019/09/16time	10:25:35forward acquisition time	60.00reverse acquisition time	0.00gamma	496.2192k internal	0.2300k external	0.2300temperature offset calibration	0.9958default loss term (dB/km)	0.3790temperature slope calibration	1.0000multiplexer offset coefficient	1.0000multiplexer slope coefficient	1.0000fibre end	0.00T internal ref (°C)	35.02T ext. ref 1 (°C)	12.54T ext. ref 2 (°C)	33.38length (m)	temperature (°C)	Stokes	anti-Stokes-747.200	-121.611	-0.083	0.014
-746.185	-134.243	-0.165	-0.021
-745.171	-85.986	0.167	-0.053
-744.156	-200.000	0.028	0.366
-743.142	-121.738	-0.315	-0.053
-742.127	-16.962	-0.230	-0.148
-741.112	204.685	-0.131	0.207
-740.098	-200.000	-0.044	0.351
-739.083	-94.832	-0.061	0.017
-738.069	800.000	-0.133	0.399
-737.054	-200.000	-0.011	0.247
-736.039	-65.841	-0.200	-0.081
-735.025	170.242	0.169	0.247
-734.010	-193.584	-0.183	-0.002
-732.996	-61.073	0.087	-0.037
-731.981	-34.702	0.269	-0.150
-730.966	800.000	-0.054	0.157
-729.952	-115.192	-0.236	0.046
-728.937	77.804	-0.141	0.153
-727.923	142.507	-0.229	-0.310
-726.908	800.000	0.125	-0.428
-725.894	14.329	-0.187	-0.149
-724.879	-200.000	-0.026	-0.178
-723.864	-6.054	0.111	-0.077
-722.850	54.948	0.138	0.135
-721.835	800.000	-0.078	-0.230
-720.821	-84.462	-0.311	0.100
-719.806	133.064	-0.242	-0.319
-718.791	-200.000	0.035	0.244
-717.777	-56.671	-0.121	0.055
-716.762	574.214	-0.121	-0.300
-715.748	-200.000	-0.006	0.099
-714.733	91.977	-0.176	0.201
-713.718	433.291	-0.063	-0.139
-712.704	771.281	-0.044	-0.121
-711.689	221.933	-0.090	-0.148
-710.675	-54.274	0.250	-0.116
-709.660	-200.000	-0.042	0.191
-708.645	-200.000	0.037	-0.242
-707.631	254.496	-0.150	0.262
-706.616	-193.300	-0.112	-0.001
-705.602	156.217	0.061	0.085
-704.587	800.000	-0.066	0.225
-703.572	-108.622	-0.094	-0.020
-702.558	-200.000	0.017	0.139
-701.543	-25.944	0.124	-0.074
-700.529	-73.882	-0.162	-0.060
-699.514	-200.000	-0.010	-0.298
-698.499	-200.000	-0.018	0.173
-697.485	37.338	0.081	-0.073
-696.470	72.155	0.180	-0.191
-695.456	-83.528	-0.374	-0.122
-694.441	156.961	-0.121	-0.171
-693.426	-40.421	-0.185	-0.098
-692.412	800.000	0.080	0.273
-691.397	277.772	0.088	-0.159
-690.383	354.221	-0.094	-0.191
-689.368	505.754	0.106	-0.251
-688.354	62.744	-0.136	-0.138
-687.339	800.000	-0.074	-0.273
-686.324	143.627	0.119	0.161
-685.310	371.843	-0.069	0.144
-684.295	-160.838	0.048	0.003
-683.281	-90.195	0.120	-0.036
-682.266	98.615	-0.181	0.213
-681.251	130.014	-0.088	-0.114
-680.237	244.841	0.117	-0.200
-679.222	88.931	-0.125	-0.142
-678.208	137.615	0.061	0.082
-677.193	9.633	0.149	-0.115
-676.178	-46.739	0.130	0.065
-675.164	-55.076	0.215	-0.098
-674.149	-102.586	-0.235	-0.057
-673.135	-114.822	0.210	0.041
-672.120	659.288	0.170	-0.445
-671.105	-15.357	-0.080	0.052
-670.091	87.154	-0.128	-0.144
-669.076	-85.319	-0.090	-0.028
-668.062	234.111	0.131	0.219
-667.047	-53.192	0.407	0.190
-666.032	-69.584	-0.162	0.063
-665.018	315.793	-0.124	0.239
-664.003	-200.000	-0.000	0.053
-662.989	-73.121	-0.342	-0.127
-661.974	765.112	0.050	0.137
-660.959	-25.988	-0.169	0.101
-659.945	530.424	-0.015	-0.036
-658.930	-99.451	-0.168	-0.043
-657.916	62.838	0.154	-0.157
-656.901	439.094	0.070	-0.154
-655.886	-134.551	-0.157	0.019
-654.872	93.853	-0.113	0.130
-653.857	-137.507	-0.647	-0.074
-652.843	-200.000	0.002	-0.180
-651.828	297.913	0.114	0.213
-650.814	-6.059	0.121	0.084
-649.799	-133.094	0.408	0.053
-648.784	-108.156	-0.047	-0.010
-647.770	-133.443	0.119	0.015
-646.755	-200.000	-0.035	-0.398
-645.741	201.831	0.039	0.061
-644.726	-81.839	-0.518	-0.172
-643.711	-34.643	-0.189	-0.105
-642.697	-200.000	-0.008	0.093
-641.682	286.848	0.101	-0.185
-640.668	800.000	0.060	-0.169
-639.653	48.158	-0.133	-0.126
-638.638	-103.460	0.179	-0.043
-637.624	-200.000	0.009	0.259
-636.609	-200.000	0.020	0.256
-635.595	715.448	-0.076	-0.204
-634.580	-37.859	-0.041	0.022
-633.565	31.344	-0.129	0.113
-632.551	243.218	0.040	0.068
-631.536	-200.000	-0.023	-0.147
-630.522	8.709	-0.379	0.290
-629.507	-72.432	-0.206	-0.077
-628.492	-67.615	0.203	-0.081
-627.478	6.512	0.180	-0.136
-626.463	157.951	0.114	-0.160
-625.449	-29.322	-0.193	-0.112
-624.434	-200.000	0.167	-0.001
-623.419	800.000	0.033	-0.104
-622.405	-200.000	-0.092	-0.463
-621.390	-185.241	0.224	-0.004
-620.376	-5.491	-0.176	-0.123
-619.361	187.846	0.130	-0.197
-618.346	-15.675	-0.272	-0.176
-617.332	-155.178	-0.090	0.006
-616.317	-193.269	-0.096	-0.001
-615.303	-200.000	-0.012	0.289
-614.288	-63.854	0.356	0.148
-613.273	332.476	-0.073	-0.143
-612.259	53.920	-0.041	0.040
-611.244	59.911	-0.130	0.130
-610.230	-200.000	-0.037	-0.329
-609.215	406.472	0.088	0.189
-608.201	800.000	0.036	0.132
-607.186	76.951	-0.072	-0.077
-606.171	243.567	0.043	-0.074
-605.157	-86.034	-0.269	-0.084
-604.142	-161.993	0.178	0.009
-603.128	-19.104	-0.092	0.058
-602.113	-8.477	-0.423	0.288
-601.098	-200.000	-0.021	-0.358
-600.084	70.549	-0.340	-0.357
-599.069	-91.368	0.118	-0.034
-598.055	197.701	0.243	0.377
-597.040	-123.615	-0.340	0.055
-596.025	131.505	-0.133	-0.173
-595.011	218.531	-0.085	-0.138
-593.996	-117.157	-0.484	0.089
-592.982	401.155	0.183	0.389
-591.967	109.520	0.066	-0.080
-590.952	-160.871	-0.091	-0.005
-589.938	800.000	-0.109	0.314
-588.923	-140.424	0.096	0.010
-587.909	-200.000	-0.009	-0.109
-586.894	-11.136	-0.138	0.093
-585.879	-36.695	0.327	0.178
-584.865	-200.000	-0.021	0.092
-583.850	227.405	-0.132	0.218
-582.836	458.670	-0.126	0.285
-581.821	289.171	-0.105	0.193
-580.806	-156.623	-0.079	0.005
-579.792	288.911	0.011	-0.020
-578.777	21.198	-0.044	-0.036
-577.763	44.659	-0.118	-0.110
-576.748	-98.317	0.031	-0.008
-575.733	46.407	-0.145	0.137
-574.719	183.103	-0.046	0.068
-573.704	-156.762	0.413	-0.026
-572.690	-82.892	-0.406	-0.133
-571.675	-200.000	-0.003	-0.184
-570.661	-125.017	-0.225	-0.035
-569.646	-200.000	-0.054	0.292
-568.631	-91.469	0.215	0.062
-567.617	800.000	0.076	0.332
-566.602	718.572	0.135	-0.363
-565.588	-200.000	0.005	0.155
-564.573	-200.000	-0.021	0.241
-563.558	-134.697	-0.213	0.026
-562.544	-64.991	0.139	-0.057
-561.529	792.762	0.056	0.156
-560.515	800.000	-0.076	0.324
-559.500	800.000	-0.087	-0.280
-558.485	68.273	0.238	-0.246
-557.471	-31.906	0.421	-0.239
-556.456	-154.002	0.205	0.014
-555.442	6.195	-0.279	0.210
-554.427	115.221	-0.118	-0.146
-553.412	-39.861	0.385	-0.204
-552.398	780.309	-0.116	-0.322
-551.383	-33.649	-0.259	0.145
-550.369	275.895	0.142	0.255
-549.354	724.448	0.085	0.230
-548.339	14.019	-0.235	0.185
-547.325	-168.548	0.164	-0.006
-546.310	-200.000	-0.003	0.333
-545.296	-163.173	0.069	-0.003
-544.281	123.913	0.111	0.141
-543.266	-200.000	0.001	0.322
-542.252	44.853	0.022	-0.020
-541.237	142.493	0.061	0.081
-540.223	-24.775	0.193	-0.116
-539.208	-200.000	-0.041	0.335
-538.193	-15.443	0.160	-0.104
-537.179	-200.000	-0.001	-0.030
-536.164	-95.874	0.335	-0.090
-535.150	-163.990	0.177	0.008
-534.135	134.500	-0.260	-0.341
-533.121	258.306	-0.132	0.229
-532.106	67.251	-0.228	0.236
-531.091	172.094	-0.071	-0.103
-530.077	492.162	0.139	-0.322
-529.062	-200.000	0.008	-0.083
-528.048	-157.177	0.112	0.007
-527.033	221.752	0.302	0.491
-526.018	8.433	-0.200	0.152
-525.004	800.000	-0.035	-0.121
-523.989	-96.714	0.166	0.044
-522.975	111.944	0.087	0.107
-521.960	-3.634	-0.349	0.246
-520.945	19.446	-0.210	-0.170
-519.931	-44.853	0.175	-0.088
-518.916	419.531	-0.076	-0.165
-517.902	358.401	0.073	0.148
-516.887	-119.157	0.161	-0.028
-515.872	2.312	-0.071	0.052
-514.858	-200.000	0.003	-0.092
-513.843	781.488	-0.136	-0.378
-512.829	432.949	0.053	-0.116
-511.814	-130.541	-0.202	0.028
-510.799	-30.344	-0.116	0.067
-509.785	-200.000	-0.003	0.071
-508.770	-200.000	0.012	0.169
-507.756	-81.675	-0.154	-0.051
-506.741	-134.178	-0.112	0.014
-505.726	-0.691	-0.079	0.056
-504.712	-95.063	0.247	0.067
-503.697	9.480	-0.200	0.153
-502.683	-48.607	0.216	-0.105
-501.668	28.195	0.235	-0.200
-500.653	800.000	0.045	-0.161
-499.639	-197.545	0.279	-0.002
-498.624	-7.956	0.109	0.074
-497.610	94.927	-0.026	-0.030
-496.595	-200.000	0.014	-0.089
-495.581	800.000	-0.099	0.344
-494.566	293.342	-0.049	0.091
-493.551	-17.765	-0.063	-0.040
-492.537	1.319	-0.157	-0.114
-491.522	800.000	0.016	0.068
-490.508	-87.033	-0.289	-0.089
-489.493	-200.000	-0.019	-0.394
-488.478	-200.000	-0.039	0.277
-487.464	800.000	-0.040	0.133
-486.449	439.647	-0.045	0.100
-485.435	-86.752	0.214	0.066
-484.420	138.460	0.062	0.082
-483.405	-144.826	-0.267	-0.025
-482.391	-131.141	-0.229	0.031
-481.376	-200.000	-0.028	0.144
-480.362	-93.714	-0.281	0.078
-479.347	23.310	-0.131	0.108
-478.332	800.000	-0.091	-0.368
-477.318	800.000	0.014	0.041
-476.303	214.053	0.135	-0.215
-475.289	676.062	-0.053	-0.139
-474.274	-91.186	-0.177	-0.051
-473.259	-35.803	-0.126	0.069
-472.245	86.367	-0.141	-0.157
-471.230	800.000	-0.067	-0.240
-470.216	145.536	-0.086	0.116
-469.201	-50.302	-0.252	-0.120
-468.186	34.001	-0.033	0.029
-467.172	-5.143	0.225	0.156
-466.157	-125.107	-0.137	-0.021
-465.143	34.994	0.051	-0.045
-464.128	-200.000	0.020	-0.148
-463.113	-141.382	-0.173	0.018
-462.099	-139.592	-0.095	0.010
-461.084	64.328	0.055	-0.056
-460.070	-129.965	-0.283	0.039
-459.055	292.480	0.317	0.582
-458.040	-145.140	0.262	-0.024
-457.026	-99.441	-0.100	-0.025
-456.011	-53.453	-0.268	0.124
-454.997	-121.170	0.261	-0.044
-453.982	325.891	0.127	0.245
-452.968	-200.000	0.011	-0.116
-451.953	-12.094	-0.134	-0.088
-450.938	-200.000	-0.022	0.162
-449.924	-66.525	0.378	0.151
-448.909	800.000	-0.042	-0.156
-447.895	145.404	-0.071	0.096
-446.880	800.000	0.054	-0.170
-445.865	87.735	-0.110	0.123
-444.851	-152.590	-0.257	-0.019
-443.836	-118.924	0.134	-0.024
-442.822	53.266	0.112	0.108
-441.807	439.398	0.071	-0.157
-440.792	800.000	-0.051	-0.169
-439.778	-1.321	-0.110	-0.078
-438.763	-123.408	-0.123	-0.020
-437.749	104.035	0.182	0.216
-436.734	-126.052	-0.538	-0.081
-435.719	43.693	0.200	0.185
-434.705	-11.847	-0.037	-0.025
-433.690	-82.178	0.078	-0.026
-432.676	-200.000	-0.019	0.166
-431.661	-125.827	0.351	0.053
-430.646	-139.966	-0.235	-0.025
-429.632	-68.794	0.196	0.076
-428.617	-200.000	-0.041	0.240
-427.603	381.614	0.099	-0.204
-426.588	-39.619	-0.383	-0.202
-425.573	-15.853	-0.154	-0.099
-424.559	-43.606	-0.283	0.144
-423.544	-200.000	-0.007	-0.260
-422.530	87.837	-0.105	0.117
-421.515	105.650	0.074	0.088
-420.500	-200.000	-0.012	-0.269
-419.486	302.714	0.065	-0.121
-418.471	129.268	0.129	-0.165
-417.457	-67.768	-0.119	0.047
-416.442	-93.454	-0.113	-0.031
-415.428	-200.000	-0.010	-0.191
-414.413	-136.754	-0.191	-0.022
-413.398	-13.412	0.192	-0.125
-412.384	300.881	-0.146	0.272
-411.369	73.148	-0.134	-0.141
-410.355	54.464	0.122	0.118
-409.340	333.918	-0.127	-0.248
-408.325	27.804	0.115	0.098
-407.311	-200.000	-0.058	-0.547
-406.296	-144.013	0.121	0.011
-405.282	-48.074	0.145	-0.070
-404.267	101.297	-0.027	-0.032
-403.252	-200.000	0.033	-0.201
-402.238	-200.000	-0.002	-0.076
-401.223	100.415	-0.080	0.094
-400.209	-148.204	-0.242	0.020
-399.194	-24.056	-0.072	0.043
-398.179	-200.000	-0.042	-0.400
-397.165	95.050	-0.154	-0.177
-396.150	-200.000	0.050	0.263
-395.136	33.994	0.266	0.234
-394.121	-115.952	0.310	0.058
-393.106	-200.000	0.007	0.102
-392.092	-200.000	-0.027	0.149
-391.077	-8.879	0.380	-0.256
-390.063	-38.714	-0.142	-0.076
-389.048	800.000	-0.056	-0.167
-388.033	32.938	0.284	0.248
-387.019	-33.478	0.195	0.109
-386.004	-146.585	0.287	-0.025
-384.990	208.406	0.152	-0.238
-383.975	-81.437	0.512	0.170
-382.960	238.269	0.151	0.252
-381.946	-200.000	0.023	0.106
-380.931	52.795	-0.162	0.155
-379.917	-87.566	-0.269	0.082
-378.902	9.157	-0.141	0.107
-377.888	-163.209	-0.188	0.009
-376.873	55.729	-0.104	0.102
-375.858	546.008	-0.045	-0.107
-374.844	-200.000	0.029	-0.178
-373.829	331.784	0.008	0.016
-372.815	220.821	-0.005	0.009
-371.800	800.000	0.038	-0.149
-370.785	-115.370	-0.147	0.028
-369.771	183.057	0.167	0.248
-368.756	-35.871	-0.162	-0.088
-367.742	-50.075	-0.359	0.171
-366.727	-133.527	0.308	0.039
-365.712	800.000	0.130	0.422
-364.698	-186.765	-0.208	-0.003
-363.683	-80.873	-0.208	0.069
-362.669	-200.000	-0.008	-0.322
-361.654	800.000	-0.027	-0.103
-360.639	-121.407	-0.132	-0.022
-359.625	89.110	0.153	-0.171
-358.610	637.657	0.043	-0.110
-357.596	-31.797	-0.250	0.141
-356.581	16.114	0.113	0.090
-355.566	-133.001	0.078	0.010
-354.552	800.000	0.074	0.297
-353.537	82.799	0.120	0.131
-352.523	486.458	0.064	-0.146
-351.508	375.912	-0.249	0.510
-350.493	800.000	0.103	0.432
-349.479	800.000	-0.023	0.077
-348.464	-84.932	0.092	-0.029
-347.450	90.827	-0.088	0.100
-346.435	-29.222	0.046	0.026
-345.420	800.000	-0.014	0.042
-344.406	-21.230	-0.380	-0.233
-343.391	21.281	0.056	-0.045
-342.377	480.521	0.022	-0.051
-341.362	551.762	0.176	-0.424
-340.348	-200.000	0.096	0.442
-339.333	-87.245	0.066	0.020
-338.318	-18.822	0.214	0.134
-337.304	-200.000	0.018	-0.150
-336.289	800.000	-0.082	0.332
-335.275	96.993	0.078	-0.090
-334.260	-34.823	-0.054	0.030
-333.245	312.558	-0.120	-0.226
-332.231	237.455	0.071	-0.118
-331.216	187.335	0.107	-0.160
-330.202	39.803	-0.255	-0.230
-329.187	800.000	-0.125	-0.517
-328.172	-200.000	0.006	-0.085
-327.158	800.000	-0.071	0.274
-326.143	129.675	-0.057	0.073
-325.129	23.351	0.170	-0.141
-324.114	32.927	-0.150	-0.130
-323.099	36.077	-0.233	-0.206
-322.085	-67.535	0.253	0.100
-321.070	-132.256	-0.295	0.038
-320.056	316.385	-0.178	0.337
-319.041	-200.000	-0.001	0.019
-318.026	78.001	-0.210	0.225
-317.012	42.456	-0.217	0.198
-315.997	181.306	-0.125	-0.184
-314.983	-200.000	0.009	-0.091
-313.968	59.906	-0.197	-0.195
-312.953	-127.715	0.345	0.050
-311.939	-26.853	-0.195	0.114
-310.924	800.000	-0.098	0.282
-309.910	210.093	0.046	-0.072
-308.895	-99.995	0.193	0.048
-307.880	-65.244	0.187	-0.076
-306.866	800.000	0.115	0.456
-305.851	677.489	0.099	-0.258
-304.837	57.295	0.196	-0.192
-303.822	-146.697	0.133	-0.012
-302.807	-39.823	0.220	-0.115
-301.793	-71.014	-0.314	0.118
-300.778	-129.736	0.348	-0.048
-299.764	-39.760	-0.226	0.118
-298.749	235.431	0.067	-0.111
-297.735	240.072	-0.201	0.335
-296.720	-98.193	-0.082	0.021
-295.705	-125.363	0.418	-0.064
-294.691	438.042	0.051	-0.112
-293.676	-132.274	-0.228	0.030
-292.662	358.548	-0.164	-0.328
-291.647	-12.955	0.050	-0.032
-290.632	-54.561	-0.214	0.097
-289.618	-62.751	0.187	-0.078
-288.603	-128.595	0.114	-0.016
-287.589	-166.316	0.309	-0.013
-286.574	-200.000	0.017	-0.229
-285.559	-88.612	0.319	0.095
-284.545	-142.653	0.397	-0.039
-283.530	800.000	-0.062	-0.197
-282.516	280.835	0.034	-0.060
-281.501	69.628	-0.231	0.239
-280.486	-137.728	-0.236	-0.027
-279.472	-200.000	-0.032	0.315
-278.457	161.123	0.044	-0.061
-277.443	404.678	0.078	-0.164
-276.428	91.111	-0.261	0.293
-275.413	-83.215	0.141	-0.045
-274.399	-76.300	0.552	-0.195
-273.384	-159.249	0.346	0.019
-272.370	485.718	-0.240	-0.548
-271.355	-182.795	0.207	0.004
-270.340	-17.650	0.105	0.066
-269.326	119.642	-0.069	0.085
-268.311	144.117	0.236	-0.315
-267.297	-12.410	0.239	0.156
-266.282	5.505	-0.165	0.122
-265.267	428.496	0.107	-0.230
-264.253	-200.000	-0.037	0.237
-263.238	-120.387	0.202	0.034
-262.224	21.737	-0.104	0.084
-261.209	213.378	0.206	0.327
-260.195	298.800	0.053	0.098
-259.180	722.167	-0.059	0.158
-258.165	800.000	-0.073	0.278
-257.151	-200.000	0.002	-0.034
-256.136	-141.485	0.191	0.019
-255.122	-111.985	-0.216	-0.044
-254.107	-200.000	-0.004	-0.067
-253.092	-28.173	-0.157	0.091
-252.078	559.831	0.072	0.174
-251.063	-59.697	-0.163	0.070
-250.049	252.152	0.139	-0.237
-249.034	-200.000	-0.062	-0.400
-248.019	451.304	-0.151	-0.335
-247.005	189.254	-0.132	-0.198
-245.990	-182.409	0.110	-0.002
-244.976	15.123	-0.217	-0.170
-243.961	-152.867	0.286	0.020
-242.946	31.958	-0.137	-0.118
-241.932	-133.559	-0.051	-0.006
-240.917	-43.778	0.287	0.144
-239.903	-117.932	0.151	-0.027
-238.888	-7.669	-0.119	0.080
-237.873	-125.512	0.214	0.033
-236.859	-55.641	0.433	0.194
-235.844	-200.000	-0.003	-0.089
-234.830	-168.821	0.320	0.012
-233.815	-99.251	0.104	0.026
-232.800	-99.747	0.088	-0.022
-231.786	719.263	0.052	0.137
-230.771	800.000	0.036	0.120
-229.757	52.908	0.240	0.230
-228.742	-83.671	0.382	0.122
-227.727	-7.103	0.181	0.123
-226.713	800.000	0.087	0.324
-225.698	-11.791	0.177	0.116
-224.684	556.477	0.114	0.273
-223.669	105.540	-0.089	0.105
-222.655	127.615	0.179	0.227
-221.640	121.386	-0.076	-0.095
-220.625	97.158	-0.142	0.163
-219.611	136.210	0.113	-0.147
-218.596	114.644	-0.055	0.067
-217.582	-30.025	-0.321	-0.182
-216.567	117.867	-0.319	-0.392
-215.552	-200.000	0.019	-0.220
-214.538	-106.045	-0.320	-0.072
-213.523	-200.000	0.007	0.264
-212.509	800.000	-0.020	-0.063
-211.494	59.986	-0.368	0.363
-210.479	-200.000	-0.039	-0.234
-209.465	-157.519	-0.105	0.006
-208.450	6.840	-0.105	-0.078
-207.436	399.463	-0.056	0.116
-206.421	91.994	-0.087	0.098
-205.406	-60.755	0.333	0.141
-204.392	-200.000	0.122	-0.618
-203.377	274.927	0.027	-0.048
-202.363	-70.680	0.230	0.087
-201.348	-105.464	0.135	0.031
-200.333	-44.928	0.282	0.140
-199.319	-184.360	0.079	-0.001
-198.304	-132.465	0.234	-0.030
-197.290	264.898	0.107	0.187
-196.275	-200.000	-0.002	0.248
-195.260	38.347	-0.084	-0.075
-194.246	-124.902	-0.260	0.040
-193.231	95.986	0.140	0.159
-192.217	800.000	0.071	-0.209
-191.202	800.000	0.055	-0.163
-190.187	85.167	-0.366	-0.401
-189.173	-77.000	0.202	0.070
-188.158	-10.839	-0.285	0.188
-187.144	-200.000	0.021	-0.186
-186.129	279.181	0.038	-0.068
-185.114	217.582	-0.138	-0.219
-184.100	800.000	0.144	-0.457
-183.085	-200.000	0.002	-0.049
-182.071	-47.143	0.214	0.104
-181.056	-200.000	0.064	-0.414
-180.042	110.640	-0.133	-0.160
-179.027	-40.283	-0.300	0.156
-178.012	-149.090	-0.151	0.012
-176.998	130.346	0.241	-0.308
-175.983	190.109	0.011	0.016
-174.969	-111.542	-0.158	0.032
-173.954	-112.700	0.055	-0.011
-172.939	-120.570	-0.043	0.007
-171.925	-43.360	-0.226	0.114
-170.910	-33.995	0.384	0.211
-169.896	405.355	-0.138	0.290
-168.881	164.137	0.229	0.322
-167.866	49.655	0.067	-0.063
-166.852	246.219	-0.132	-0.222
-165.837	17.559	-0.155	-0.123
-164.823	51.161	-0.211	-0.199
-163.808	-200.000	0.064	-0.610
-162.793	95.684	0.080	-0.091
-161.779	76.517	0.128	0.136
-160.764	-75.743	-0.074	0.026
-159.750	-200.000	0.030	-0.149
-158.735	428.889	0.048	0.103
-157.720	27.533	0.051	-0.043
-156.706	-98.121	0.075	0.019
-155.691	123.346	-0.143	-0.179
-154.677	-151.063	0.251	-0.019
-153.662	305.336	0.056	0.104
-152.647	-200.000	-0.004	-0.092
-151.633	778.479	0.053	0.145
-150.618	-200.000	0.027	0.134
-149.604	-69.145	-0.210	-0.081
-148.589	-200.000	-0.059	-0.441
-147.574	-195.959	0.395	-0.003
-146.560	-143.576	0.484	0.046
-145.545	800.000	-0.060	-0.209
-144.531	215.594	0.082	-0.129
-143.516	154.832	0.155	-0.213
-142.502	414.895	-0.066	0.141
-141.487	-163.884	0.108	-0.005
-140.472	-142.035	0.077	-0.008
-139.458	-200.000	0.027	-0.176
-138.443	-97.257	-0.093	-0.024
-137.429	238.888	-0.194	0.321
-136.414	11.953	0.218	0.167
-135.399	378.976	0.073	0.149
-134.385	160.159	0.021	-0.029
-133.370	-44.862	-0.269	0.134
-132.356	89.071	0.112	0.124
-131.341	-125.666	0.065	-0.010
-130.326	-85.718	0.178	0.055
-129.312	-178.957	0.173	0.004
-128.297	-97.058	0.084	0.022
-127.283	-69.384	-0.301	-0.115
-126.268	290.349	0.087	-0.157
-125.253	-26.656	-0.144	-0.084
-124.239	-200.000	-0.021	0.109
-123.224	37.480	-0.042	0.037
-122.210	21.424	-0.185	0.149
