DTS Sentinel unit serial number:	SN413079Multiplexer serial number:	ORYXHardware model number:	OX4-SRSoftware version number:	ORYX F/W v4.00 Oryx Data Collector v3.7.2.0data status	okinstallation	princeton_trtdifferential loss correction	single-endedforward channel	channel 4reverse channel	N/Adate	2019/09/13time	19:09:35forward acquisition time	60.00reverse acquisition time	0.00gamma	496.2192k internal	0.2313k external	0.2313temperature offset calibration	1.0171default loss term (dB/km)	0.3790temperature slope calibration	1.0000multiplexer offset coefficient	1.0000multiplexer slope coefficient	1.0000fibre end	0.00T internal ref (°C)	31.56T ext. ref 1 (°C)	3.84T ext. ref 2 (°C)	24.90length (m)	temperature (°C)	Stokes	anti-Stokes-747.200	402.775	-0.010	0.022
-746.185	-98.485	0.198	-0.051
-745.171	-162.496	-0.143	-0.007
-744.156	-152.685	0.274	0.020
-743.142	60.139	-0.259	0.260
-742.127	209.726	-0.160	-0.254
-741.112	10.125	0.201	-0.155
-740.098	113.471	0.037	0.045
-739.083	62.261	0.289	-0.293
-738.069	45.615	0.086	0.081
-737.054	-79.425	-0.232	0.080
-736.039	83.878	0.157	-0.174
-735.025	-48.998	0.211	0.102
-734.010	-200.000	0.022	0.257
-732.996	97.548	-0.032	0.037
-731.981	-200.000	0.034	-0.345
-730.966	1.028	-0.179	0.130
-729.952	-200.000	0.146	-0.000
-728.937	276.815	-0.003	-0.006
-727.923	-200.000	0.006	-0.070
-726.908	-200.000	-0.022	0.151
-725.894	-91.379	0.173	-0.050
-724.879	-121.790	-0.360	-0.060
-723.864	800.000	0.007	-0.026
-722.850	-200.000	0.044	-0.246
-721.835	800.000	-0.074	0.214
-720.821	14.705	0.191	-0.151
-719.806	-51.806	-0.071	0.033
-718.791	-33.512	-0.384	-0.215
-717.777	-200.000	0.025	-0.133
-716.762	-135.881	-0.137	0.016
-715.748	-163.947	0.294	0.014
-714.733	30.929	-0.132	-0.115
-713.718	588.246	-0.111	-0.276
-712.704	-9.034	-0.227	-0.154
-711.689	-62.457	0.064	-0.027
-710.675	69.821	-0.053	0.056
-709.660	-38.416	0.236	0.127
-708.645	81.710	-0.133	-0.146
-707.631	-200.000	0.010	0.071
-706.616	-200.000	-0.027	0.162
-705.602	508.808	-0.062	0.145
-704.587	159.756	-0.141	-0.199
-703.572	-42.490	0.126	-0.065
-702.558	104.315	0.051	-0.061
-701.543	-40.796	-0.137	-0.072
-700.529	-68.291	-0.095	-0.037
-699.514	-33.848	-0.186	-0.104
-698.499	-162.219	-0.195	0.010
-697.485	-153.100	-0.203	0.014
-696.470	10.188	-0.354	-0.273
-695.456	94.759	0.225	-0.259
-694.441	-56.515	-0.308	-0.138
-693.426	-13.539	0.334	-0.219
-692.412	-99.664	-0.283	0.072
-691.397	-200.000	0.002	0.067
-690.383	-200.000	-0.011	0.075
-689.368	-91.647	-0.236	0.068
-688.354	604.987	0.046	-0.115
-687.339	800.000	0.043	-0.161
-686.324	-200.000	0.028	-0.194
-685.310	481.904	-0.125	-0.287
-684.295	800.000	-0.055	-0.179
-683.281	-200.000	-0.001	-0.321
-682.266	-23.537	-0.353	-0.215
-681.251	222.626	-0.182	-0.297
-680.237	-200.000	0.034	0.276
-679.222	668.577	-0.069	0.181
-678.208	-113.345	-0.195	-0.039
-677.193	347.817	-0.125	0.250
-676.178	-200.000	0.024	-0.316
-675.164	-38.664	0.273	-0.146
-674.149	-200.000	0.044	-0.248
-673.135	-200.000	-0.028	-0.145
-672.120	-129.419	0.262	-0.037
-671.105	-117.203	0.381	-0.070
-670.091	800.000	-0.031	0.134
-669.076	-117.567	0.221	-0.040
-668.062	-42.528	-0.158	-0.081
-667.047	-200.000	0.025	-0.433
-666.032	-69.089	0.069	-0.027
-665.018	382.453	0.016	0.032
-664.003	-93.095	-0.256	-0.072
-662.989	-66.057	0.158	-0.064
-661.974	16.835	0.189	-0.152
-660.959	800.000	-0.080	0.287
-659.945	-58.528	0.131	-0.057
-658.930	223.931	-0.068	-0.112
-657.916	-11.544	-0.194	-0.129
-656.901	-200.000	-0.009	-0.182
-655.886	-163.454	0.123	0.006
-654.872	-200.000	0.033	0.171
-653.857	-200.000	-0.032	-0.320
-652.843	-137.832	-0.160	-0.018
-651.828	800.000	-0.101	-0.306
-650.814	-200.000	-0.042	-0.279
-649.799	-142.519	-0.113	0.011
-648.784	-57.278	-0.053	-0.024
-647.770	37.887	0.207	-0.186
-646.755	-10.582	-0.074	-0.049
-645.741	28.658	0.166	0.142
-644.726	186.570	0.169	-0.254
-643.711	367.730	0.185	-0.377
-642.697	-200.000	0.067	0.319
-641.682	800.000	-0.056	0.232
-640.668	-99.480	0.290	0.074
-639.653	-200.000	-0.004	-0.098
-638.638	114.538	0.145	-0.179
-637.624	800.000	-0.028	-0.085
-636.609	-120.872	-0.303	-0.052
-635.595	-117.610	-0.157	-0.029
-634.580	-160.647	0.556	0.030
-633.565	25.056	-0.097	-0.082
-632.551	740.760	-0.022	-0.059
-631.536	-90.712	0.166	0.048
-630.522	-176.727	0.182	0.005
-629.507	120.728	0.118	0.148
-628.492	195.092	-0.103	0.158
-627.478	-84.161	-0.243	-0.078
-626.463	-200.000	0.027	0.139
-625.449	-164.088	-0.400	-0.019
-624.434	-200.000	-0.041	-0.465
-623.419	122.283	-0.077	-0.097
-622.405	441.781	-0.037	0.081
-621.390	75.006	0.158	-0.168
-620.376	453.557	-0.089	0.199
-619.361	84.164	-0.180	0.198
-618.346	-152.837	-0.289	0.021
-617.332	-51.143	0.190	0.090
-616.317	159.683	-0.123	0.174
-615.303	800.000	0.057	0.191
-614.288	66.206	0.128	0.131
-613.273	8.889	0.065	-0.050
-612.259	-94.136	0.223	-0.062
-611.244	281.652	-0.246	-0.445
-610.230	375.185	-0.085	-0.175
-609.215	49.717	0.110	0.105
-608.201	127.109	0.052	0.066
-607.186	610.140	0.101	-0.256
-606.171	13.773	-0.341	-0.267
-605.157	-200.000	-0.048	-0.356
-604.142	-15.521	-0.361	-0.233
-603.128	-167.898	0.165	-0.007
-602.113	266.270	-0.062	-0.109
-601.098	2.475	-0.223	-0.163
-600.084	790.880	0.089	-0.246
-599.069	800.000	-0.057	-0.225
-598.055	-108.017	-0.155	-0.034
-597.040	-170.803	0.025	0.001
-596.025	-200.000	-0.032	-0.174
-595.011	-88.513	-0.116	0.035
-593.996	66.600	0.036	-0.037
-592.982	800.000	-0.117	-0.428
-591.967	800.000	-0.104	-0.406
-590.952	-200.000	0.032	0.234
-589.938	87.131	-0.144	-0.161
-588.923	-158.038	-0.204	0.012
-587.909	-61.276	-0.129	-0.055
-586.894	-32.686	0.259	-0.145
-585.879	-200.000	0.069	0.328
-584.865	-87.534	0.470	-0.143
-583.850	103.973	-0.190	0.226
-582.836	-105.995	-0.258	-0.059
-581.821	205.366	-0.055	-0.087
-580.806	71.278	-0.136	0.143
-579.792	436.305	0.073	0.161
-578.777	219.323	-0.161	0.260
-577.763	-85.338	0.313	0.099
-576.748	-200.000	0.017	0.104
-575.733	800.000	-0.044	0.129
-574.719	-54.119	0.174	0.080
-573.704	-200.000	-0.032	-0.215
-572.690	-37.628	-0.074	-0.040
-571.675	-31.594	-0.309	0.175
-570.661	31.888	0.134	-0.116
-569.646	735.989	-0.186	0.503
-568.631	221.563	0.106	-0.172
-567.617	326.800	0.008	-0.016
-566.602	-159.256	-0.233	0.013
-565.588	-149.761	0.117	-0.009
-564.573	-132.547	0.056	-0.007
-563.558	221.473	-0.091	0.147
-562.544	67.702	-0.342	-0.352
-561.529	-98.323	-0.165	-0.043
-560.515	-200.000	-0.005	-0.372
-559.500	-114.138	-0.124	0.024
-558.485	-134.230	0.213	-0.026
-557.471	166.642	-0.175	-0.251
-556.456	-58.496	-0.164	0.072
-555.442	113.458	-0.030	0.036
-554.427	153.847	-0.136	-0.188
-553.412	43.464	-0.155	0.143
-552.398	-14.509	-0.187	-0.121
-551.383	499.013	0.122	-0.284
-550.369	194.934	-0.062	-0.094
-549.354	-164.517	0.264	0.012
-548.339	58.429	-0.150	-0.148
-547.325	-93.732	0.123	-0.034
-546.310	-49.970	-0.178	-0.085
-545.296	57.060	0.452	0.444
-544.281	-68.658	-0.138	0.054
-543.266	-200.000	-0.025	-0.366
-542.252	-200.000	0.000	0.068
-541.237	525.254	0.154	-0.365
-540.223	443.016	0.092	0.204
-539.208	-64.679	-0.256	0.104
-538.193	-92.630	0.285	-0.080
-537.179	-115.579	0.055	0.010
-536.164	-44.931	0.188	0.094
-535.150	-200.000	0.022	-0.369
-534.135	379.202	-0.105	-0.217
-533.121	73.143	0.033	0.034
-532.106	-16.730	-0.131	-0.083
-531.091	20.125	-0.133	-0.108
-530.077	798.398	0.106	-0.295
-529.062	233.562	0.044	0.073
-528.048	-200.000	0.012	0.059
-527.033	-200.000	-0.052	-0.243
-526.018	-200.000	-0.010	-0.087
-525.004	-200.000	-0.001	0.324
-523.989	55.798	-0.237	0.231
-522.975	-200.000	-0.000	-0.050
-521.960	-200.000	0.026	-0.121
-520.945	72.845	0.063	-0.066
-519.931	134.228	-0.043	-0.056
-518.916	164.686	0.126	0.179
-517.902	343.189	0.090	-0.177
-516.887	737.631	0.066	-0.179
-515.872	800.000	0.036	0.101
-514.858	-200.000	-0.002	-0.058
-513.843	416.664	-0.088	-0.190
-512.829	116.143	0.236	-0.291
-511.814	-200.000	0.014	-0.178
-510.799	29.767	-0.059	-0.051
-509.785	-200.000	0.027	-0.305
-508.770	-108.939	0.303	0.065
-507.756	800.000	0.133	-0.471
-506.741	234.812	0.162	-0.269
-505.726	61.991	-0.168	0.168
-504.712	-37.727	0.190	-0.101
-503.697	-173.762	-0.279	-0.008
-502.683	63.256	-0.237	0.238
-501.668	711.503	0.086	0.229
-500.653	-60.850	-0.113	0.048
-499.639	-147.988	-0.321	0.027
-498.624	800.000	-0.033	-0.140
-497.610	84.601	0.073	0.081
-496.595	216.082	-0.152	-0.243
-495.581	-200.000	-0.072	-0.380
-494.566	-49.627	0.285	-0.136
-493.551	-92.979	-0.324	0.091
-492.537	-200.000	-0.010	0.126
-491.522	-96.051	0.361	0.096
-490.508	-86.882	0.266	-0.082
-489.493	-147.696	0.097	-0.008
-488.478	-11.624	-0.331	0.219
-487.464	245.428	0.031	0.052
-486.449	405.003	0.074	-0.156
-485.435	-200.000	-0.011	0.411
-484.420	-26.635	0.042	-0.025
-483.405	796.420	0.074	0.204
-482.391	-25.648	-0.174	0.103
-481.376	73.388	-0.143	0.150
-480.362	531.452	-0.032	0.076
-479.347	-145.624	0.290	0.026
-478.332	13.311	-0.218	0.170
-477.318	-70.412	0.255	0.097
-476.303	109.664	-0.095	0.114
-475.289	800.000	-0.073	-0.270
-474.274	26.916	0.075	-0.063
-473.259	-34.313	-0.138	-0.076
-472.245	643.330	-0.071	-0.181
-471.230	37.581	-0.270	-0.241
-470.216	-200.000	-0.070	0.416
-469.201	-47.202	0.040	0.019
-468.186	6.494	-0.158	0.117
-467.172	41.614	0.226	0.205
-466.157	-200.000	0.030	-0.224
-465.143	-112.820	-0.335	-0.067
-464.128	-95.108	0.123	0.033
-463.113	-200.000	-0.027	-0.120
-462.099	508.532	0.052	0.121
-461.084	-139.581	0.242	0.026
-460.070	-134.479	-0.150	-0.018
-459.055	800.000	0.039	0.130
-458.040	-126.807	0.081	0.012
-457.026	-6.643	0.128	-0.087
-456.011	-19.887	0.361	-0.223
-454.997	48.518	0.222	-0.208
-453.982	6.603	-0.135	0.101
-452.968	140.333	0.140	-0.185
-451.953	274.747	0.086	-0.153
-450.938	-141.589	-0.489	0.049
-449.924	136.388	-0.069	-0.090
-448.909	-200.000	-0.059	0.282
-447.895	77.603	-0.172	-0.184
-446.880	800.000	-0.028	-0.085
-445.865	800.000	-0.019	-0.060
-444.851	96.068	0.100	-0.114
-443.836	208.508	-0.034	-0.053
-442.822	-169.829	-0.336	0.012
-441.807	0.953	0.224	0.161
-440.792	800.000	-0.035	-0.116
-439.778	22.052	0.104	-0.085
-438.763	453.694	-0.161	0.358
-437.749	207.730	0.078	0.123
-436.734	-37.330	0.159	0.085
-435.719	-110.960	-0.297	-0.061
-434.705	800.000	-0.043	0.136
-433.690	800.000	-0.108	-0.424
-432.676	17.243	0.226	0.179
-431.661	-142.110	-0.105	0.010
-430.646	800.000	-0.050	0.204
-429.632	-17.495	-0.281	-0.177
-428.617	-29.018	-0.328	0.189
-427.603	-178.208	0.279	-0.007
-426.588	-23.668	-0.293	-0.176
-425.573	800.000	-0.035	0.142
-424.559	-200.000	0.010	0.117
-423.544	800.000	0.029	0.119
-422.530	234.852	-0.062	-0.103
-421.515	442.770	0.086	-0.189
-420.500	10.172	-0.229	-0.175
-419.486	-200.000	-0.032	-0.246
-418.471	469.546	0.096	0.215
-417.457	0.521	0.082	-0.059
-416.442	186.000	0.038	0.056
-415.428	702.812	0.089	0.235
-414.413	-115.366	-0.175	0.033
-413.398	16.016	0.170	0.134
-412.384	-200.000	0.000	-0.132
-411.369	-27.692	0.209	-0.121
-410.355	-125.657	0.193	0.029
-409.340	-39.690	-0.266	-0.139
-408.325	-186.270	0.049	0.001
-407.311	54.468	-0.094	0.090
-406.296	-200.000	-0.002	-0.259
-405.282	-200.000	0.023	-0.318
-404.267	0.528	-0.038	-0.027
-403.252	-96.480	-0.056	-0.015
-402.238	-51.485	0.313	-0.146
-401.223	-39.926	-0.053	-0.028
-400.209	7.168	-0.225	0.168
-399.194	-200.000	0.034	0.258
-398.179	39.561	0.012	0.011
-397.165	136.116	0.140	0.183
-396.150	4.772	0.125	-0.092
-395.136	212.613	-0.100	-0.158
-394.121	33.769	0.336	0.293
-393.106	385.264	0.168	-0.348
-392.092	-33.569	-0.145	-0.080
-391.077	-51.098	0.320	0.150
-390.063	-118.627	0.195	-0.034
-389.048	800.000	-0.083	0.355
-388.033	210.188	0.060	0.094
-387.019	-42.708	-0.375	-0.191
-386.004	-200.000	0.032	0.168
-384.990	86.072	0.165	0.181
-383.975	247.838	-0.117	-0.198
-382.960	133.620	-0.193	0.250
-381.946	215.008	0.169	-0.268
-380.931	-93.869	-0.126	-0.035
-379.917	-168.972	0.247	-0.009
-378.902	-157.805	-0.061	-0.004
-377.888	145.936	-0.017	0.023
-376.873	195.101	-0.085	-0.130
-375.858	200.542	-0.033	-0.051
-374.844	-200.000	0.043	-0.206
-373.829	528.734	0.205	-0.485
-372.815	-84.200	0.228	0.072
-371.800	-125.605	-0.117	-0.018
-370.785	-200.000	0.018	0.234
-369.771	-161.104	-0.360	0.019
-368.756	75.445	-0.155	-0.163
-367.742	-125.609	0.051	0.008
-366.727	87.379	0.248	0.275
-365.712	-200.000	0.000	0.297
-364.698	-16.164	-0.514	0.326
-363.683	-2.852	0.331	0.231
-362.669	-114.486	0.202	-0.039
-361.654	206.317	0.061	-0.094
-360.639	-200.000	-0.050	-0.358
-359.625	120.496	-0.126	-0.156
-358.610	-159.552	-0.260	-0.014
-357.596	1.561	0.117	-0.084
-356.581	780.405	-0.088	-0.241
-355.566	-42.232	0.184	-0.094
-354.552	-200.000	-0.029	-0.276
-353.537	82.208	0.185	-0.200
-352.523	-80.276	-0.179	0.060
-351.508	-100.228	0.071	0.018
-350.493	-105.214	0.139	-0.032
-349.479	574.879	-0.136	-0.332
-348.464	-100.042	0.204	-0.051
-347.450	38.644	-0.026	0.023
-346.435	-41.937	0.270	-0.138
-345.420	-101.925	-0.355	-0.086
-344.406	269.726	-0.120	0.211
-343.391	88.757	0.021	0.023
-342.377	248.666	-0.161	0.272
-341.362	-155.466	0.338	-0.022
-340.348	-99.971	-0.200	-0.050
-339.333	-35.683	0.136	-0.074
-338.318	800.000	0.052	-0.195
-337.304	-200.000	0.081	0.409
-336.289	123.790	-0.147	0.185
-335.275	-69.036	0.175	-0.067
-334.260	370.035	0.095	0.192
-333.245	-40.824	-0.229	0.118
-332.231	448.244	-0.080	0.175
-331.216	71.038	0.135	0.140
-330.202	800.000	-0.064	-0.268
-329.187	24.020	-0.267	-0.220
-328.172	-200.000	-0.004	0.086
-327.158	59.090	0.104	0.102
-326.143	-85.555	0.048	0.015
-325.129	776.224	-0.060	-0.164
-324.114	-182.784	0.333	-0.006
-323.099	-141.150	0.372	0.038
-322.085	-20.000	-0.309	0.190
-321.070	367.783	0.089	-0.180
-320.056	-4.520	0.173	0.119
-319.041	-56.766	-0.238	-0.105
-318.026	-45.076	0.025	-0.013
-317.012	-40.316	0.111	0.057
-315.997	-66.529	-0.055	-0.022
-314.983	-19.759	0.044	0.027
-313.968	-76.652	-0.175	-0.061
-312.953	-87.698	-0.304	0.092
-311.939	-200.000	-0.001	-0.175
-310.924	-45.835	-0.212	-0.104
-309.910	77.231	0.104	-0.110
-308.895	209.476	0.189	-0.295
-307.880	170.607	-0.146	-0.208
-306.866	383.044	-0.014	-0.029
-305.851	-160.791	0.136	0.007
-304.837	96.138	0.122	0.139
-303.822	-200.000	-0.006	0.109
-302.807	-133.514	0.261	-0.033
-301.793	-100.279	-0.140	-0.035
-300.778	260.788	0.081	0.140
-299.764	-200.000	-0.017	0.297
-298.749	215.965	0.010	-0.016
-297.735	-85.612	-0.064	-0.020
-296.720	-106.877	0.184	0.041
-295.705	-62.263	0.194	-0.080
-294.691	-200.000	-0.012	0.198
-293.676	-115.033	-0.052	-0.010
-292.662	-144.226	0.274	-0.026
-291.647	-69.917	-0.236	0.090
-290.632	-178.967	0.285	-0.006
-289.618	-200.000	0.016	0.271
-288.603	-77.223	-0.399	0.138
-287.589	347.483	0.071	-0.140
-286.574	347.907	0.176	0.346
-285.559	-200.000	0.026	-0.214
-284.545	-200.000	0.047	-0.262
-283.530	-200.000	0.057	0.254
-282.516	800.000	0.071	0.211
-281.501	-98.673	0.517	0.131
-280.486	-154.403	0.108	0.007
-279.472	18.126	-0.118	0.094
-278.457	-109.559	-0.147	-0.031
-277.443	-115.882	-0.408	0.076
-276.428	-55.668	0.196	-0.087
-275.413	-200.000	0.035	0.160
-274.399	158.008	0.162	-0.224
-273.384	87.545	-0.171	-0.189
-272.370	-141.482	-0.423	-0.043
-271.355	-67.438	-0.156	0.061
-270.340	-64.852	-0.157	0.063
-269.326	465.332	-0.071	0.159
-268.311	-200.000	0.021	-0.267
-267.297	-66.703	0.237	-0.094
-266.282	-200.000	0.029	0.296
-265.267	-153.261	0.453	-0.031
-264.253	-21.426	0.200	-0.121
-263.238	800.000	0.027	-0.106
-262.224	39.953	-0.218	0.195
-261.209	-67.822	0.294	0.114
-260.195	564.682	0.105	0.253
-259.180	800.000	-0.040	0.115
-258.165	-27.927	0.283	0.163
-257.151	-200.000	-0.034	0.196
-256.136	-53.439	0.454	0.207
-255.122	22.748	0.155	-0.127
-254.107	259.577	0.112	-0.192
-253.092	22.430	-0.157	0.128
-252.078	-14.364	-0.230	0.147
-251.063	-64.581	0.275	-0.111
-250.049	-200.000	-0.014	0.166
-249.034	-200.000	0.025	-0.265
-248.019	-119.205	0.079	0.014
-247.005	113.637	0.125	0.151
-245.990	-106.027	0.189	-0.042
-244.976	32.863	0.137	0.118
-243.961	-21.288	0.016	-0.010
-242.946	800.000	-0.035	0.136
-241.932	71.707	0.142	0.147
-240.917	800.000	0.085	0.295
-239.903	800.000	-0.066	0.262
-238.888	-122.546	-0.229	-0.037
-237.873	-200.000	0.122	0.809
-236.859	-68.160	-0.074	0.029
-235.844	270.803	-0.116	-0.204
-234.830	-101.755	-0.070	-0.017
-233.815	800.000	0.116	0.327
-232.800	-146.941	-0.046	0.004
-231.786	-137.724	0.146	-0.016
-230.771	-139.621	-0.061	-0.006
-229.757	800.000	0.054	0.175
-228.742	70.781	-0.170	-0.175
-227.727	-25.136	-0.318	0.188
-226.713	800.000	-0.083	-0.255
-225.698	-200.000	0.001	0.367
-224.684	798.862	0.071	-0.194
-223.669	-200.000	-0.006	-0.053
-222.655	142.108	0.182	0.240
-221.640	-200.000	0.000	-0.478
-220.625	-84.287	0.256	0.081
-219.611	-200.000	-0.002	0.095
-218.596	242.457	0.075	0.124
-217.582	800.000	-0.055	0.167
-216.567	-14.755	-0.170	0.108
-215.552	-91.474	-0.436	-0.124
-214.538	-200.000	-0.024	-0.296
-213.523	22.476	-0.202	0.165
-212.509	-0.483	0.156	0.110
-211.494	-104.029	0.109	-0.025
-210.479	-74.784	-0.186	-0.066
-209.465	47.743	0.105	0.098
-208.450	201.003	0.217	0.332
-207.436	-15.959	-0.278	0.176
-206.421	-200.000	-0.021	0.100
-205.406	347.803	-0.035	-0.069
-204.392	-102.032	-0.062	0.015
-203.377	-101.421	-0.132	0.032
-202.363	183.291	0.110	-0.162
-201.348	11.951	-0.127	0.097
-200.333	22.039	-0.225	0.182
-199.319	-78.605	0.083	-0.028
-198.304	787.358	-0.059	-0.162
-197.290	-9.656	0.095	0.063
-196.275	-200.000	-0.006	0.098
-195.260	-200.000	0.004	0.071
-194.246	5.131	0.268	0.196
-193.231	246.230	-0.125	0.209
-192.217	-135.301	-0.180	-0.021
-191.202	-66.025	-0.210	-0.083
-190.187	100.985	0.100	0.116
-189.173	58.577	-0.244	0.238
-188.158	-48.531	0.433	-0.207
-187.144	-171.869	0.369	0.012
-186.129	43.252	0.167	0.151
-185.114	-200.000	0.020	0.140
-184.100	-131.941	-0.168	0.022
-183.085	800.000	-0.093	0.328
-182.071	213.233	-0.160	-0.251
-181.056	-67.785	0.089	0.035
-180.042	169.723	-0.086	-0.121
-179.027	800.000	0.005	0.016
-178.012	800.000	-0.012	0.053
-176.998	185.478	-0.049	-0.072
-175.983	800.000	-0.018	0.049
-174.969	-109.230	0.167	-0.035
-173.954	800.000	-0.101	0.333
-172.939	-62.517	-0.241	0.099
-171.925	-128.268	-0.030	0.004
-170.910	-200.000	0.012	-0.267
-169.896	54.857	-0.099	-0.095
-168.881	235.675	-0.116	0.190
-167.866	-174.793	0.166	-0.005
-166.852	-200.000	-0.004	0.122
-165.837	-200.000	0.037	0.274
-164.823	102.754	-0.197	0.228
-163.808	30.353	-0.043	0.036
-162.793	98.331	0.240	0.274
-161.779	210.734	-0.075	0.116
-160.764	800.000	0.051	-0.162
-159.750	-87.983	0.215	-0.064
-158.735	20.355	-0.149	-0.119
-157.720	305.730	0.170	0.314
-156.706	204.395	-0.148	0.227
-155.691	505.349	0.057	0.130
-154.677	27.676	0.206	-0.172
-153.662	-200.000	-0.009	0.228
-152.647	-84.922	0.179	-0.056
-151.633	158.688	-0.199	-0.274
-150.618	-109.861	0.180	0.037
-149.604	-73.642	0.386	0.139
-148.589	8.672	-0.378	0.282
-147.574	27.455	-0.022	0.018
-146.560	-54.271	0.132	-0.059
-145.545	-98.426	0.318	-0.081
-144.531	-148.815	-0.348	-0.028
-143.516	-85.553	0.056	0.017
-142.502	-155.079	0.255	0.017
-141.487	459.910	0.107	-0.236
-140.472	323.462	-0.128	-0.242
-139.458	-200.000	-0.029	0.352
-138.443	-177.551	0.183	0.004
-137.429	-114.347	-0.066	-0.013
-136.414	364.139	0.038	0.075
-135.399	310.512	0.091	0.168
-134.385	215.118	-0.039	0.062
-133.370	85.173	0.218	0.237
-132.356	-87.149	0.045	0.013
-131.341	-64.718	-0.228	-0.092
-130.326	800.000	-0.074	0.286
-129.312	128.830	0.099	-0.125
-128.297	800.000	0.063	0.235
-127.283	2.561	-0.141	-0.101
-126.268	184.449	-0.223	0.328
-125.253	-200.000	0.040	-0.244
-124.239	505.970	0.123	0.283
-123.224	-78.944	-0.292	0.099
-122.210	-72.931	0.165	0.060
