DTS Sentinel unit serial number:	SN413079Multiplexer serial number:	ORYXHardware model number:	OX4-SRSoftware version number:	ORYX F/W v4.00 Oryx Data Collector v3.7.2.0data status	okinstallation	princeton_trtdifferential loss correction	single-endedforward channel	channel 4reverse channel	N/Adate	2019/09/17time	12:45:35forward acquisition time	60.00reverse acquisition time	0.00gamma	496.2192k internal	0.2302k external	0.2302temperature offset calibration	0.9989default loss term (dB/km)	0.3790temperature slope calibration	1.0000multiplexer offset coefficient	1.0000multiplexer slope coefficient	1.0000fibre end	0.00T internal ref (°C)	32.58T ext. ref 1 (°C)	0.42T ext. ref 2 (°C)	30.73length (m)	temperature (°C)	Stokes	anti-Stokes-747.200	-200.000	-0.024	-0.280
-746.185	-103.042	-0.524	-0.127
-745.171	102.897	0.340	0.406
-744.156	-134.347	-0.261	-0.033
-743.142	224.711	0.042	0.070
-742.127	566.818	0.176	0.436
-741.112	23.464	-0.256	-0.215
-740.098	800.000	0.185	0.556
-739.083	-73.432	0.243	-0.090
-738.069	-69.569	-0.341	0.133
-737.054	-21.803	0.044	0.027
-736.039	-200.000	0.027	-0.339
-735.025	34.885	0.287	-0.256
-734.010	-156.219	-0.296	-0.019
-732.996	-5.468	-0.299	-0.209
-731.981	236.180	0.084	0.142
-730.966	-200.000	-0.022	-0.172
-729.952	72.568	0.111	0.118
-728.937	708.236	-0.018	0.047
-727.923	208.649	-0.087	0.139
-726.908	-72.549	-0.165	0.062
-725.894	-47.448	-0.154	-0.077
-724.879	159.034	-0.197	-0.278
-723.864	-200.000	0.065	-0.347
-722.850	-200.000	-0.055	-0.362
-721.835	-135.710	0.111	-0.013
-720.821	-57.193	-0.269	0.121
-719.806	15.361	0.151	-0.121
-718.791	-117.137	0.180	-0.033
-717.777	-136.851	-0.210	0.025
-716.762	-168.560	0.257	0.010
-715.748	-200.000	0.017	-0.378
-714.733	68.856	-0.092	-0.097
-713.718	-200.000	0.043	-0.308
-712.704	22.913	0.298	-0.249
-711.689	800.000	0.054	0.157
-710.675	-47.663	0.335	-0.165
-709.660	-169.887	0.052	0.002
-708.645	157.430	0.094	-0.133
-707.631	148.245	0.159	-0.218
-706.616	-200.000	-0.019	-0.107
-705.602	322.268	0.085	-0.165
-704.587	-154.072	0.275	0.019
-703.572	87.126	-0.296	-0.332
-702.558	4.746	-0.136	-0.102
-701.543	556.859	0.022	-0.053
-700.529	-79.936	-0.056	-0.019
-699.514	800.000	-0.090	0.325
-698.499	-95.335	0.169	-0.046
-697.485	-152.423	0.488	0.036
-696.470	101.524	-0.100	-0.119
-695.456	303.300	-0.113	0.212
-694.441	620.427	-0.090	0.230
-693.426	177.109	-0.166	-0.246
-692.412	11.785	-0.077	-0.060
-691.397	-200.000	0.044	0.216
-690.383	-81.324	0.104	0.035
-689.368	-200.000	-0.002	-0.161
-688.354	-122.425	0.146	-0.024
-687.339	286.663	-0.037	-0.069
-686.324	800.000	0.042	0.128
-685.310	130.647	-0.113	0.147
-684.295	-104.885	-0.087	-0.020
-683.281	68.388	-0.292	-0.304
-682.266	78.447	-0.292	0.317
-681.251	274.096	-0.112	0.201
-680.237	-140.088	-0.231	0.025
-679.222	304.460	-0.088	0.167
-678.208	-200.000	-0.032	-0.143
-677.193	-137.913	0.323	-0.037
-676.178	83.871	-0.232	-0.257
-675.164	-29.499	-0.185	-0.108
-674.149	54.423	-0.062	-0.060
-673.135	128.973	0.049	0.064
-672.120	-200.000	0.028	-0.192
-671.105	800.000	-0.032	0.132
-670.091	-44.594	-0.098	0.050
-669.076	800.000	-0.113	-0.330
-668.062	-200.000	0.000	0.381
-667.047	-126.865	-0.204	-0.031
-666.032	83.113	0.053	-0.059
-665.018	64.822	0.070	0.072
-664.003	-200.000	-0.036	-0.285
-662.989	-144.382	0.314	-0.030
-661.974	94.758	-0.106	0.122
-660.959	-200.000	-0.008	0.511
-659.945	347.633	0.085	0.170
-658.930	-173.937	-0.064	0.002
-657.916	-7.781	0.213	0.146
-656.901	-200.000	-0.018	0.194
-655.886	-57.379	-0.264	-0.118
-654.872	800.000	0.067	0.233
-653.857	800.000	-0.103	0.338
-652.843	-200.000	0.052	-0.324
-651.828	40.752	-0.134	0.122
-650.814	-9.566	-0.341	0.231
-649.799	-10.216	0.195	-0.132
-648.784	51.959	0.341	-0.330
-647.770	223.801	0.182	-0.298
-646.755	800.000	0.041	0.163
-645.741	335.363	-0.070	-0.138
-644.726	26.832	0.358	0.304
-643.711	-1.988	-0.057	0.041
-642.697	444.159	-0.067	0.149
-641.682	-97.460	-0.374	0.099
-640.668	-16.595	0.355	-0.228
-639.653	384.419	0.203	-0.424
-638.638	-83.525	0.148	-0.048
-637.624	800.000	-0.035	-0.105
-636.609	462.418	0.031	-0.070
-635.595	65.835	-0.170	0.175
-634.580	800.000	-0.027	0.089
-633.565	-88.680	0.182	-0.055
-632.551	-94.975	0.229	0.063
-631.536	87.333	-0.102	0.114
-630.522	613.045	-0.054	0.136
-629.507	-200.000	-0.004	-0.272
-628.492	383.382	-0.126	0.262
-627.478	228.050	-0.158	0.261
-626.463	745.556	-0.109	0.296
-625.449	-156.406	0.097	-0.006
-624.434	-53.749	-0.114	-0.053
-623.419	6.498	-0.094	-0.071
-622.405	800.000	-0.006	-0.023
-621.390	427.433	0.030	0.067
-620.376	800.000	0.065	-0.188
-619.361	-46.913	-0.375	0.186
-618.346	44.062	-0.161	0.150
-617.332	800.000	-0.083	-0.321
-616.317	6.721	-0.444	0.335
-615.303	-200.000	-0.012	0.085
-614.288	-200.000	-0.028	-0.199
-613.273	-200.000	0.096	0.501
-612.259	722.927	-0.088	0.238
-611.244	-200.000	0.010	-0.083
-610.230	117.855	0.188	-0.235
-609.215	394.581	-0.039	-0.083
-608.201	-41.782	0.126	-0.066
-607.186	0.098	-0.061	0.044
-606.171	-200.000	0.001	-0.300
-605.157	119.581	-0.067	-0.085
-604.142	-200.000	-0.020	0.303
-603.128	23.684	0.179	-0.150
-602.113	-155.729	-0.240	0.016
-601.098	-46.459	-0.153	-0.076
-600.084	-200.000	0.004	0.090
-599.069	46.572	-0.032	0.030
-598.055	-16.135	-0.169	-0.109
-597.040	74.981	0.079	-0.084
-596.025	43.923	-0.061	0.056
-595.011	-79.490	0.137	0.047
-593.996	800.000	0.062	0.225
-592.982	-68.177	-0.287	0.113
-591.967	218.272	0.032	-0.052
-590.952	-90.029	-0.046	0.014
-589.938	788.063	0.152	0.422
-588.923	800.000	0.088	0.322
-587.909	-200.000	-0.004	0.027
-586.894	-114.946	-0.177	-0.034
-585.879	20.512	-0.063	-0.052
-584.865	36.153	-0.181	0.162
-583.850	382.323	0.023	-0.047
-582.836	10.449	-0.115	-0.089
-581.821	118.376	-0.206	-0.257
-580.806	-158.278	-0.466	-0.028
-579.792	-23.073	0.158	0.096
-578.777	730.198	-0.108	0.291
-577.763	-63.117	-0.300	0.125
-576.748	716.748	0.035	-0.094
-575.733	-200.000	-0.000	-0.152
-574.719	-127.480	-0.250	0.037
-573.704	63.235	-0.109	-0.111
-572.690	18.478	0.351	-0.284
-571.675	-81.194	-0.242	0.081
-570.661	31.696	0.310	0.270
-569.646	390.043	-0.106	0.222
-568.631	-40.792	-0.253	0.132
-567.617	-91.917	-0.244	-0.070
-566.602	-19.767	0.055	-0.034
-565.588	800.000	0.035	-0.108
-564.573	-200.000	0.038	0.270
-563.558	-20.561	0.036	0.023
-562.544	800.000	-0.049	0.138
-561.529	97.389	-0.094	-0.109
-560.515	-152.408	0.145	0.011
-559.500	553.802	0.090	-0.219
-558.485	3.312	0.481	-0.354
-557.471	641.757	0.056	-0.145
-556.456	-200.000	0.001	0.158
-555.442	-200.000	-0.041	0.200
-554.427	-113.061	0.364	-0.073
-553.412	-200.000	-0.014	-0.107
-552.398	546.195	0.059	-0.143
-551.383	-2.603	-0.271	0.192
-550.369	800.000	-0.022	0.071
-549.354	-167.274	0.371	-0.015
-548.339	-9.839	0.267	0.180
-547.325	-5.086	-0.343	0.239
-546.310	135.646	-0.097	0.127
-545.296	-175.509	-0.113	0.003
-544.281	-200.000	-0.007	0.222
-543.266	-97.703	-0.190	-0.050
-542.252	-200.000	-0.033	-0.170
-541.237	-43.781	0.059	-0.030
-540.223	305.610	-0.126	0.237
-539.208	226.596	0.145	-0.238
-538.193	800.000	0.087	0.302
-537.179	-184.928	-0.221	0.004
-536.164	-88.774	0.096	-0.029
-535.150	-200.000	-0.024	-0.300
-534.135	-6.509	-0.325	-0.224
-533.121	159.227	0.099	-0.140
-532.106	-150.490	0.408	-0.032
-531.091	-200.000	0.022	0.147
-530.077	-50.119	0.214	-0.102
-529.062	81.207	-0.161	-0.176
-528.048	-200.000	0.005	-0.066
-527.033	-40.830	0.184	-0.096
-526.018	7.987	-0.211	0.160
-525.004	-41.491	0.293	0.153
-523.989	37.998	-0.073	0.066
-522.975	29.085	-0.318	-0.273
-521.960	33.617	0.215	-0.188
-520.945	15.750	-0.118	-0.094
-519.931	-200.000	-0.011	0.103
-518.916	-152.972	0.079	-0.006
-517.902	124.472	-0.147	-0.187
-516.887	800.000	-0.049	0.145
-515.872	96.222	0.193	0.223
-514.858	-200.000	0.058	-0.372
-513.843	-200.000	0.031	-0.232
-512.829	349.001	0.088	0.175
-511.814	-31.253	-0.284	-0.161
-510.799	156.895	-0.419	0.585
-509.785	208.306	0.213	-0.337
-508.770	-65.850	0.170	-0.069
-507.756	19.756	0.349	-0.284
-506.741	-126.056	-0.186	0.028
-505.726	6.308	0.049	0.037
-504.712	177.189	0.105	-0.154
-503.697	-200.000	-0.007	0.052
-502.683	-88.477	-0.094	-0.028
-501.668	-145.791	-0.081	0.007
-500.653	319.047	0.070	-0.134
-499.639	19.362	0.364	0.295
-498.624	-200.000	-0.020	0.098
-497.610	368.564	0.129	-0.264
-496.595	-37.489	-0.275	-0.148
-495.581	17.402	-0.262	-0.210
-494.566	-81.740	0.216	0.071
-493.551	-43.139	-0.185	0.095
-492.537	-80.443	0.164	-0.055
-491.522	-49.024	0.406	0.196
-490.508	800.000	0.029	0.103
-489.493	800.000	-0.039	-0.122
-488.478	127.622	-0.063	0.081
-487.464	150.454	-0.128	0.176
-486.449	-81.068	0.327	0.109
-485.435	800.000	0.026	-0.083
-484.420	-35.115	0.283	0.155
-483.405	-13.916	-0.120	-0.078
-482.391	78.671	-0.288	-0.310
-481.376	-200.000	-0.004	-0.067
-480.362	111.401	-0.173	0.211
-479.347	-127.158	-0.106	-0.016
-478.332	-65.083	0.288	-0.117
-477.318	419.850	0.137	0.296
-476.303	-12.082	-0.211	-0.139
-475.289	28.366	-0.365	0.311
-474.274	-200.000	-0.103	-0.542
-473.259	-21.045	0.159	-0.098
-472.245	690.152	-0.083	-0.220
-471.230	-200.000	0.010	-0.084
-470.216	-123.139	0.072	0.012
-469.201	-20.306	-0.164	-0.102
-468.186	-51.943	-0.066	-0.031
-467.172	-200.000	0.029	-0.266
-466.157	-82.330	0.039	0.013
-465.143	365.314	0.033	0.067
-464.128	800.000	0.065	0.259
-463.113	-200.000	-0.018	0.088
-462.099	800.000	0.095	0.332
-461.084	-112.921	-0.250	0.050
-460.070	42.951	-0.193	0.177
-459.055	-17.383	0.272	0.173
-458.040	-6.890	-0.194	-0.133
-457.026	-33.947	-0.086	0.048
-456.011	-200.000	0.016	-0.075
-454.997	101.628	0.205	-0.241
-453.982	-106.906	-0.212	0.047
-452.968	13.453	0.474	-0.371
-451.953	-56.403	0.092	-0.041
-450.938	106.989	-0.061	-0.073
-449.924	-200.000	-0.010	-0.486
-448.909	-39.211	0.142	0.075
-447.895	-200.000	0.045	-0.225
-446.880	-200.000	-0.012	0.124
-445.865	-47.801	-0.068	-0.033
-444.851	-128.282	0.051	0.007
-443.836	-129.088	-0.380	0.053
-442.822	-50.070	-0.196	-0.093
-441.807	-126.330	0.091	-0.014
-440.792	-140.089	-0.246	-0.026
-439.778	-43.840	-0.315	0.160
-438.763	-13.292	0.133	-0.087
-437.749	-200.000	-0.028	-0.167
-436.734	-20.311	-0.289	0.179
-435.719	-42.072	-0.172	0.089
-434.705	-200.000	0.046	0.221
-433.690	-148.201	-0.187	0.016
-432.676	-84.576	-0.182	0.058
-431.661	126.560	0.189	0.241
-430.646	22.561	-0.315	0.260
-429.632	-40.793	0.404	-0.211
-428.617	643.195	-0.039	-0.099
-427.603	341.237	0.173	-0.341
-426.588	99.064	0.244	-0.283
-425.573	167.604	0.138	0.197
-424.559	-142.536	0.191	0.019
-423.544	-74.947	0.059	0.021
-422.530	-100.445	-0.291	0.073
-421.515	-31.141	-0.214	0.121
-420.500	665.702	-0.038	0.100
-419.486	-55.479	-0.105	0.048
-418.471	-108.009	-0.248	0.054
-417.457	-127.481	-0.076	0.011
-416.442	-51.940	0.217	0.102
-415.428	-111.823	-0.242	-0.049
-414.413	-200.000	-0.031	-0.174
-413.398	-200.000	0.000	0.343
-412.384	22.234	0.077	-0.063
-411.369	-96.476	-0.224	0.060
-410.355	-97.592	-0.071	0.019
-409.340	800.000	-0.091	-0.295
-408.325	59.724	0.166	-0.164
-407.311	38.308	0.131	-0.117
-406.296	383.915	-0.114	0.236
-405.282	30.775	0.149	-0.129
-404.267	-200.000	-0.002	-0.134
-403.252	-62.347	0.058	0.024
-402.238	-200.000	0.043	0.327
-401.223	-115.300	-0.249	0.047
-400.209	-63.427	0.064	0.027
-399.194	-134.186	0.123	-0.015
-398.179	-138.721	0.311	-0.034
-397.165	502.065	-0.047	-0.109
-396.150	-24.713	-0.178	0.106
-395.136	28.918	0.162	-0.138
-394.121	-50.388	0.199	-0.095
-393.106	76.318	-0.066	-0.070
-392.092	-200.000	0.015	-0.192
-391.077	-44.532	-0.209	0.105
-390.063	168.457	0.145	0.208
-389.048	-200.000	0.037	0.439
-388.033	236.890	0.016	0.026
-387.019	220.751	0.207	0.334
-386.004	-77.815	-0.387	0.135
-384.990	800.000	-0.050	0.182
-383.975	-1.804	0.077	-0.054
-382.960	800.000	0.118	-0.395
-381.946	244.761	-0.118	0.199
-380.931	-200.000	0.037	0.287
-379.917	587.794	0.032	0.078
-378.902	800.000	0.082	0.322
-377.888	-105.668	0.277	0.063
-376.873	-8.850	0.087	0.058
-375.858	-102.352	0.136	0.033
-374.844	-200.000	0.042	-0.292
-373.829	800.000	0.097	0.380
-372.815	800.000	-0.095	-0.339
-371.800	37.707	0.115	-0.103
-370.785	-200.000	-0.023	0.178
-369.771	800.000	-0.087	0.258
-368.756	9.824	-0.212	0.162
-367.742	-200.000	-0.002	0.271
-366.727	-200.000	0.032	-0.176
-365.712	-38.614	0.330	-0.175
-364.698	-144.238	-0.184	-0.017
-363.683	322.001	-0.004	0.007
-362.669	403.517	-0.114	0.242
-361.654	-190.411	0.263	0.003
-360.639	16.322	0.187	-0.148
-359.625	14.618	-0.152	-0.119
-358.610	-200.000	-0.036	0.159
-357.596	735.858	-0.056	-0.151
-356.581	800.000	0.038	-0.136
-355.566	-95.195	-0.385	0.104
-354.552	-147.690	0.181	-0.015
-353.537	24.574	-0.163	0.135
-352.523	171.492	0.129	0.186
-351.508	139.733	0.075	0.100
-350.493	-200.000	-0.059	-0.294
-349.479	800.000	0.037	-0.120
-348.464	800.000	-0.065	-0.187
-347.450	-24.755	0.247	-0.147
-346.435	-61.218	-0.359	-0.152
-345.420	-26.923	-0.288	-0.169
-344.406	-76.857	-0.209	0.073
-343.391	-19.974	-0.155	0.096
-342.377	73.054	0.107	0.112
-341.362	450.793	0.081	0.180
-340.348	761.351	0.131	0.357
-339.333	-58.175	0.103	0.045
-338.318	800.000	0.013	-0.036
-337.304	-200.000	0.037	-0.272
-336.289	594.232	0.080	-0.199
-335.275	151.844	0.109	0.149
-334.260	-42.950	0.089	0.045
-333.245	-53.131	-0.158	0.073
-332.231	-13.474	0.207	0.135
-331.216	2.524	-0.222	0.161
-330.202	-200.000	0.004	0.083
-329.187	-200.000	0.001	-0.336
-328.172	-176.238	-0.164	-0.004
-327.158	-62.734	-0.229	-0.095
-326.143	573.359	0.118	0.288
-325.129	-14.960	-0.087	-0.056
-324.114	-119.103	0.065	-0.011
-323.099	-62.217	-0.118	-0.049
-322.085	-111.202	0.130	0.027
-321.070	91.284	-0.045	0.051
-320.056	72.223	0.149	-0.155
-319.041	389.709	-0.036	0.075
-318.026	-200.000	0.003	0.033
-317.012	67.307	-0.127	-0.130
-315.997	67.698	-0.073	-0.075
-314.983	609.795	-0.069	0.174
-313.968	84.874	0.098	0.108
-312.953	800.000	0.081	-0.322
-311.939	-61.197	-0.344	0.145
-310.924	-5.935	0.166	0.114
-309.910	-53.716	-0.073	-0.034
-308.895	-200.000	0.011	0.184
-307.880	688.205	0.163	0.428
-306.866	200.252	0.128	0.197
-305.851	43.284	-0.157	-0.144
-304.837	-53.852	-0.075	0.034
-303.822	-160.714	0.225	0.012
-302.807	-200.000	-0.004	-0.023
-301.793	-97.180	0.218	0.057
-300.778	-200.000	0.003	0.410
-299.764	-200.000	0.002	-0.122
-298.749	231.996	-0.084	-0.138
-297.735	-168.969	0.359	0.013
-296.720	-200.000	0.026	0.122
-295.705	165.957	-0.136	0.192
-294.691	-114.370	0.098	0.019
-293.676	-77.376	-0.113	0.039
-292.662	68.107	-0.178	0.182
-291.647	-42.182	0.155	0.079
-290.632	1.912	0.115	0.083
-289.618	-108.364	-0.051	-0.011
-288.603	-130.220	0.245	0.033
-287.589	68.735	0.081	0.083
-286.574	250.934	-0.075	0.128
-285.559	-28.330	0.268	-0.155
-284.545	-27.451	-0.262	-0.152
-283.530	-91.376	0.163	-0.047
-282.516	-101.906	-0.255	0.062
-281.501	-101.295	0.300	0.073
-280.486	-10.863	-0.136	-0.090
-279.472	-200.000	-0.034	0.183
-278.457	-62.571	0.159	-0.066
-277.443	-76.961	0.226	-0.079
-276.428	800.000	-0.116	-0.360
-275.413	341.310	-0.147	-0.288
-274.399	-150.838	-0.349	0.026
-273.384	-95.856	0.351	0.094
-272.370	-200.000	0.039	0.282
-271.355	800.000	0.058	-0.182
-270.340	43.837	0.125	0.114
-269.326	-174.084	-0.293	0.009
-268.311	800.000	-0.031	-0.133
-267.297	-33.718	0.285	-0.157
-266.282	-87.482	0.323	0.098
-265.267	74.653	-0.107	-0.113
-264.253	208.094	-0.103	-0.161
-263.238	113.904	0.126	-0.153
-262.224	53.097	0.106	0.102
-261.209	800.000	-0.078	0.264
-260.195	203.499	0.191	-0.295
-259.180	800.000	-0.050	0.145
-258.165	160.475	0.136	-0.190
-257.151	126.488	0.172	-0.218
-256.136	-37.220	0.155	0.083
-255.122	7.364	0.244	0.182
-254.107	800.000	0.114	0.323
-253.092	-200.000	0.058	0.261
-252.078	-93.625	-0.204	-0.056
-251.063	454.409	-0.061	-0.136
-250.049	-200.000	-0.012	0.140
-249.034	-2.932	0.052	0.036
-248.019	237.528	-0.174	-0.289
-247.005	-127.190	-0.119	0.017
-245.990	-200.000	0.017	-0.195
-244.976	117.763	0.046	-0.056
-243.961	157.384	0.043	-0.059
-242.946	-64.675	0.214	0.087
-241.932	31.058	-0.228	-0.195
-240.917	-12.543	-0.244	-0.159
-239.903	413.251	-0.040	-0.086
-238.888	-67.795	0.200	0.078
-237.873	-130.070	-0.116	0.016
-236.859	62.426	-0.020	0.020
-235.844	22.059	0.165	-0.135
-234.830	-116.885	-0.407	0.074
-233.815	10.458	0.276	0.210
-232.800	78.674	-0.071	-0.076
-231.786	800.000	-0.022	-0.092
-230.771	714.582	0.031	0.081
-229.757	-135.460	-0.421	-0.050
-228.742	-31.908	-0.193	-0.108
-227.727	-119.502	-0.234	0.041
-226.713	173.401	-0.199	-0.286
-225.698	471.379	-0.070	-0.156
-224.684	-93.456	-0.150	-0.041
-223.669	-18.609	-0.212	0.132
-222.655	-64.885	-0.136	0.055
-221.640	-82.028	-0.202	0.066
-220.625	-74.857	-0.127	-0.046
-219.611	-200.000	-0.015	-0.104
-218.596	532.303	0.034	-0.081
-217.582	13.058	0.152	-0.117
-216.567	798.485	0.098	-0.269
-215.552	-106.922	0.130	0.029
-214.538	-200.000	0.063	0.289
-213.523	48.050	-0.128	-0.119
-212.509	71.323	-0.099	-0.103
-211.494	-200.000	-0.085	-0.466
-210.479	198.276	0.330	-0.504
-209.465	40.909	0.094	-0.085
-208.450	-117.479	-0.057	0.010
-207.436	-44.735	0.376	-0.187
-206.421	-81.122	0.231	-0.076
-205.406	-200.000	-0.063	0.388
-204.392	471.958	0.103	-0.231
-203.377	11.531	0.091	0.070
-202.363	-41.303	-0.239	-0.123
-201.348	-20.564	-0.439	0.269
-200.333	-157.862	0.108	-0.006
-199.319	800.000	0.134	0.392
-198.304	-200.000	0.015	-0.270
-197.290	-2.385	0.230	-0.161
-196.275	-178.026	-0.162	0.004
-195.260	-110.371	0.413	-0.086
-194.246	-103.532	0.328	-0.077
-193.231	24.937	0.178	-0.147
-192.217	-179.955	0.152	0.003
-191.202	-200.000	-0.002	-0.337
-190.187	-200.000	-0.034	0.151
-189.173	316.581	0.057	-0.108
-188.158	800.000	-0.069	0.251
-187.144	-200.000	-0.006	0.478
-186.129	-0.262	-0.099	-0.070
-185.114	18.611	0.136	-0.109
-184.100	10.225	0.135	-0.103
-183.085	576.937	0.034	0.083
-182.071	-46.627	0.155	-0.076
-181.056	800.000	-0.040	0.139
-180.042	39.315	0.208	0.186
-179.027	363.453	0.036	0.073
-178.012	75.932	-0.308	-0.325
-176.998	600.363	0.109	-0.269
-175.983	26.791	0.093	0.077
-174.969	-37.415	-0.466	0.248
-173.954	-200.000	0.007	-0.082
-172.939	211.700	0.272	-0.427
-171.925	-200.000	0.041	-0.238
-170.910	-200.000	-0.042	-0.207
-169.896	800.000	-0.028	0.100
-168.881	265.997	-0.055	0.095
-167.866	384.381	-0.119	0.244
-166.852	-50.676	-0.167	-0.078
-165.837	163.650	-0.126	-0.177
-164.823	-18.848	-0.066	0.041
-163.808	3.023	0.104	0.075
-162.793	35.155	0.178	-0.155
-161.779	7.803	-0.052	-0.039
-160.764	-38.773	0.105	0.055
-159.750	-200.000	0.181	0.001
-158.735	6.760	-0.227	0.168
-157.720	63.596	0.142	0.142
-156.706	-62.849	0.153	-0.063
-155.691	-58.918	0.202	0.087
-154.677	-200.000	0.067	-0.492
-153.662	42.319	-0.102	0.092
-152.647	26.858	0.147	0.123
-151.633	-200.000	-0.123	0.578
-150.618	239.545	-0.034	0.057
-149.604	-10.845	-0.114	-0.075
-148.589	-200.000	-0.044	0.247
-147.574	-46.955	-0.211	0.102
-146.560	132.767	-0.129	0.165
-145.545	-165.116	0.084	-0.004
-144.531	-108.672	0.254	-0.054
-143.516	394.198	0.048	0.100
-142.502	-194.239	-0.487	-0.004
-141.487	17.623	0.160	-0.127
-140.472	278.299	-0.157	-0.279
-139.458	44.053	0.351	0.320
-138.443	438.715	0.169	0.368
-137.429	-67.771	-0.147	-0.057
-136.414	29.011	0.163	-0.137
-135.399	-93.189	0.113	-0.031
-134.385	261.567	0.278	0.480
-133.370	-177.402	0.201	-0.005
-132.356	-200.000	0.011	0.082
-131.341	-33.875	0.209	-0.114
-130.326	-200.000	-0.019	0.284
-129.312	-200.000	-0.001	0.296
-128.297	112.845	-0.104	0.125
-127.283	390.245	0.038	0.078
-126.268	3.917	0.108	0.079
-125.253	-102.467	0.223	0.053
-124.239	128.887	0.092	0.117
-123.224	-112.008	-0.157	-0.031
-122.210	-33.011	0.137	0.076
-121.195	-200.000	0.009	0.217
-120.180	-103.750	0.165	-0.038
