DTS Sentinel unit serial number:	SN413079Multiplexer serial number:	ORYXHardware model number:	OX4-SRSoftware version number:	ORYX F/W v4.00 Oryx Data Collector v3.7.2.0data status	okinstallation	princeton_trtdifferential loss correction	single-endedforward channel	channel 4reverse channel	N/Adate	2019/09/12time	19:16:19forward acquisition time	15.00reverse acquisition time	0.00gamma	496.2192k internal	0.2308k external	0.2308temperature offset calibration	1.0141default loss term (dB/km)	0.3790temperature slope calibration	1.0000multiplexer offset coefficient	1.0000multiplexer slope coefficient	1.0000fibre end	0.00T internal ref (°C)	32.50T ext. ref 1 (°C)	3.19T ext. ref 2 (°C)	27.01length (m)	temperature (°C)	Stokes	anti-Stokes-747.200	104.821	0.363	0.434
-746.185	-70.961	-0.321	-0.123
-745.171	62.712	-0.134	-0.136
-744.156	-200.000	0.083	-0.686
-743.142	-200.000	0.069	0.764
-742.127	290.821	-0.301	0.556
-741.112	384.691	0.184	0.385
-740.098	800.000	-0.100	0.285
-739.083	-43.921	0.736	0.376
-738.069	636.092	0.298	0.768
-737.054	272.789	-0.150	-0.269
-736.039	800.000	-0.345	1.213
-735.025	223.745	0.352	0.578
-734.010	-28.228	-0.716	-0.420
-732.996	220.256	0.245	-0.398
-731.981	-200.000	0.057	-0.471
-730.966	-99.219	-0.104	0.027
-729.952	-85.685	-0.328	-0.104
-728.937	39.099	-0.456	-0.414
-727.923	93.861	0.082	0.095
-726.908	-200.000	-0.060	0.443
-725.894	-109.388	-0.141	0.030
-724.879	800.000	0.045	0.192
-723.864	-123.330	0.212	0.034
-722.850	76.421	-0.241	0.259
-721.835	800.000	0.047	0.161
-720.821	237.476	-0.210	-0.353
-719.806	225.597	0.392	-0.646
-718.791	364.194	0.205	-0.418
-717.777	295.778	-0.314	0.585
-716.762	800.000	-0.144	-0.503
-715.748	175.959	0.144	-0.212
-714.733	-50.187	-0.501	-0.241
-713.718	567.764	0.119	-0.294
-712.704	-95.809	0.349	0.095
-711.689	-110.590	-0.434	0.091
-710.675	800.000	0.063	-0.265
-709.660	281.356	-0.050	0.091
-708.645	259.744	0.334	0.585
-707.631	-69.507	0.612	0.238
-706.616	-128.213	0.062	0.009
-705.602	-134.280	-0.674	0.084
-704.587	341.004	0.525	1.040
-703.572	-200.000	-0.071	0.786
-702.558	-200.000	0.056	-0.506
-701.543	15.648	-0.497	0.396
-700.529	-46.525	0.632	-0.315
-699.514	4.186	-0.303	-0.225
-698.499	-130.130	0.697	-0.096
-697.485	391.415	0.124	0.262
-696.470	36.551	0.686	-0.615
-695.456	800.000	-0.478	-1.518
-694.441	7.418	-0.032	0.025
-693.426	234.637	-0.434	-0.726
-692.412	322.508	-0.164	0.317
-691.397	145.957	0.390	-0.531
-690.383	800.000	0.342	1.129
-689.368	31.770	0.396	-0.345
-688.354	-113.253	-0.254	0.051
-687.339	31.808	-0.104	-0.090
-686.324	-200.000	-0.060	0.316
-685.310	-200.000	-0.039	0.427
-684.295	-58.642	-0.153	0.067
-683.281	-30.146	-0.556	0.321
-682.266	103.482	-0.204	0.243
-681.251	-64.748	0.896	0.368
-680.237	242.623	0.436	-0.739
-679.222	105.875	-0.248	-0.297
-678.208	14.663	0.453	-0.359
-677.193	-116.568	0.299	-0.056
-676.178	-114.902	-0.899	0.174
-675.164	501.668	-0.240	0.561
-674.149	330.132	-0.203	0.397
-673.135	-42.184	-0.127	-0.066
-672.120	24.200	0.511	0.428
-671.105	-18.127	0.255	0.162
-670.091	115.627	0.152	-0.188
-669.076	82.976	-0.531	0.586
-668.062	73.041	0.992	-1.050
-667.047	131.400	-0.517	-0.673
-666.032	800.000	-0.334	1.019
-665.018	16.437	0.705	-0.564
-664.003	-200.000	-0.090	0.467
-662.989	717.208	-0.208	-0.560
-661.974	800.000	-0.129	0.389
-660.959	-55.360	0.148	0.067
-659.945	-200.000	0.008	-0.165
-658.930	-87.812	0.602	0.184
-657.916	83.009	0.136	-0.150
-656.901	59.956	0.287	-0.287
-655.886	-79.475	0.592	-0.203
-654.872	800.000	0.231	-0.813
-653.857	-200.000	-0.020	0.550
-652.843	-144.877	-0.709	-0.066
-651.828	800.000	0.152	0.433
-650.814	133.971	-0.031	-0.041
-649.799	317.731	-0.505	0.967
-648.784	800.000	0.053	-0.163
-647.770	86.986	-0.319	0.357
-646.755	-32.645	0.594	0.335
-645.741	196.582	0.217	-0.335
-644.726	121.797	0.258	-0.326
-643.711	-200.000	-0.106	-0.615
-642.697	46.353	-0.457	-0.429
-641.682	603.674	-0.385	-0.969
-640.668	800.000	0.174	0.672
-639.653	-63.844	-0.647	-0.268
-638.638	-200.000	-0.056	-0.688
-637.624	335.690	-0.127	0.249
-636.609	-200.000	0.337	-0.001
-635.595	316.973	0.281	0.537
-634.580	23.197	-0.575	0.478
-633.565	-103.818	0.304	0.072
-632.551	-200.000	-0.050	-0.633
-631.536	189.140	0.104	-0.157
-630.522	-96.547	-0.409	-0.109
-629.507	-200.000	0.010	-0.657
-628.492	-188.838	-1.027	0.013
-627.478	8.951	0.386	0.295
-626.463	-109.270	-1.246	-0.267
-625.449	-31.003	0.458	-0.262
-624.434	-96.239	0.500	-0.134
-623.419	-135.798	-0.611	0.073
-622.405	-141.859	-0.531	-0.054
-621.390	-116.384	-0.529	-0.099
-620.376	62.282	-0.480	0.485
-619.361	-36.492	0.783	0.426
-618.346	-42.944	0.865	-0.444
-617.332	-116.336	-0.792	0.148
-616.317	-10.830	-0.027	-0.018
-615.303	-131.268	0.400	0.054
-614.288	-200.000	-0.141	-0.782
-613.273	145.146	0.162	-0.219
-612.259	371.164	0.270	-0.553
-611.244	-83.347	-0.692	-0.225
-610.230	-200.000	-0.134	-0.736
-609.215	455.040	0.157	-0.352
-608.201	-200.000	0.126	-0.651
-607.186	-67.676	-0.921	0.365
-606.171	-200.000	-0.058	-0.487
-605.157	-23.348	-0.877	-0.533
-604.142	379.791	-0.178	-0.370
-603.128	-200.000	0.017	0.099
-602.113	249.374	0.035	-0.059
-601.098	-24.579	-0.448	-0.270
-600.084	233.470	0.186	-0.309
-599.069	-200.000	-0.002	-0.219
-598.055	-200.000	-0.012	-0.068
-597.040	408.565	0.113	-0.241
-596.025	-80.991	-0.306	-0.102
-595.011	800.000	-0.032	-0.112
-593.996	-72.821	0.636	-0.237
-592.982	800.000	0.067	-0.195
-591.967	127.439	-0.394	0.505
-590.952	800.000	0.009	0.027
-589.938	-99.458	1.024	-0.260
-588.923	-170.374	-0.819	-0.029
-587.909	-9.293	0.812	-0.548
-586.894	800.000	-0.103	-0.335
-585.879	-68.606	0.203	0.079
-584.865	-46.874	0.237	-0.117
-583.850	-200.000	0.096	-0.541
-582.836	103.351	0.417	-0.494
-581.821	-200.000	-0.009	0.436
-580.806	190.094	-0.147	0.223
-579.792	0.820	-0.223	-0.161
-578.777	400.622	-0.096	0.202
-577.763	-155.601	1.387	-0.090
-576.748	211.561	0.282	-0.449
-575.733	-200.000	0.158	0.804
-574.719	137.524	0.519	-0.686
-573.704	-48.156	0.513	-0.250
-572.690	-200.000	0.030	-0.261
-571.675	-200.000	-0.018	-0.285
-570.661	130.400	0.436	-0.564
-569.646	-200.000	-0.106	-0.623
-568.631	-55.902	0.760	-0.342
-567.617	2.618	-0.163	-0.119
-566.602	-151.455	0.759	0.057
-565.588	800.000	0.167	0.497
-564.573	-71.291	0.579	-0.219
-563.558	166.182	-0.212	0.303
-562.544	-124.903	-0.513	0.080
-561.529	-61.340	0.280	-0.119
-560.515	-95.681	-0.800	0.216
-559.500	-155.950	0.429	-0.028
-558.485	-200.000	-0.031	0.469
-557.471	-200.000	0.042	0.997
-556.456	-64.492	-0.280	-0.115
-555.442	-83.103	0.660	0.214
-554.427	88.467	0.254	0.285
-553.412	-20.293	-0.635	0.395
-552.398	92.989	-0.178	0.203
-551.383	800.000	0.101	-0.319
-550.369	-25.560	0.319	-0.190
-549.354	111.839	-0.507	0.618
-548.339	33.612	0.062	-0.054
-547.325	-17.692	-1.184	0.750
-546.310	412.135	-0.325	0.697
-545.296	-200.000	-0.003	0.231
-544.281	114.679	-0.283	0.348
-543.266	-62.867	-0.964	0.402
-542.252	50.792	0.262	0.250
-541.237	768.944	0.104	0.286
-540.223	198.290	0.555	-0.856
-539.208	-200.000	0.165	-0.767
-538.193	21.221	-0.483	0.396
-537.179	3.603	-0.767	0.564
-536.164	375.464	-0.380	0.782
-535.150	-97.271	0.714	0.188
-534.135	-11.572	0.535	0.354
-533.121	251.203	0.069	0.118
-532.106	84.752	0.479	-0.528
-531.091	-11.789	0.464	-0.307
-530.077	119.263	-0.391	-0.487
-529.062	439.171	-0.168	0.370
-528.048	60.131	0.269	0.268
-527.033	-59.650	0.542	0.234
-526.018	-64.852	-1.032	-0.421
-525.004	258.637	0.100	-0.173
-523.989	-43.071	-0.200	0.102
-522.975	130.652	-0.393	0.508
-521.960	-200.000	0.069	0.351
-520.945	55.494	0.241	-0.235
-519.931	-119.355	0.405	0.071
-518.916	663.938	-0.058	0.151
-517.902	90.364	-0.421	-0.475
-516.887	-9.600	-0.404	0.271
-515.872	-114.860	0.351	-0.067
-514.858	-200.000	-0.047	0.426
-513.843	-49.091	0.293	-0.141
-512.829	107.759	0.273	0.328
-511.814	800.000	0.219	-0.756
-510.799	462.612	0.261	0.587
-509.785	21.394	-0.383	0.314
-508.770	80.554	-0.232	0.252
-507.756	-152.955	-1.053	-0.075
-506.741	-59.637	0.748	-0.323
-505.726	249.912	-0.221	0.378
-504.712	40.715	-0.586	-0.532
-503.697	-19.821	0.702	-0.437
-502.683	156.410	-0.181	-0.252
-501.668	-105.047	-0.297	-0.069
-500.653	-200.000	0.070	0.594
-499.639	-134.612	0.262	0.032
-498.624	247.618	0.039	-0.067
-497.610	800.000	0.132	-0.455
-496.595	118.227	0.505	-0.627
-495.581	39.286	-0.729	0.657
-494.566	27.201	-0.691	0.584
-493.551	15.871	0.182	-0.145
-492.537	-18.238	0.260	-0.164
-491.522	-200.000	-0.028	0.224
-490.508	-200.000	0.068	1.109
-489.493	-29.844	0.435	-0.250
-488.478	279.631	-0.160	0.287
-487.464	-200.000	-0.036	0.220
-486.449	12.731	-0.804	-0.624
-485.435	240.463	0.540	-0.906
-484.420	-200.000	0.103	0.553
-483.405	-71.353	-0.605	0.228
-482.391	-141.429	0.662	-0.067
-481.376	-50.122	-0.240	0.114
-480.362	-5.068	-0.387	-0.268
-479.347	-20.744	0.660	0.408
-478.332	-175.937	-0.390	0.010
-477.318	-200.000	0.157	0.845
-476.303	-98.589	0.203	-0.052
-475.289	-48.655	-0.312	0.151
-474.274	-200.000	0.034	0.275
-473.259	-32.095	-0.722	0.406
-472.245	-192.784	0.610	-0.006
-471.230	-134.944	-0.525	0.064
-470.216	135.174	-0.274	0.358
-469.201	-200.000	-0.123	0.554
-468.186	401.839	-0.349	-0.738
-467.172	-100.539	1.057	-0.263
-466.157	92.196	0.327	0.370
-465.143	-200.000	0.047	-0.248
-464.128	-200.000	0.038	-0.300
-463.113	54.830	-0.663	0.643
-462.099	3.647	-0.306	0.224
-461.084	99.883	0.116	0.135
-460.070	-11.688	-0.523	0.345
-459.055	-105.162	0.602	-0.138
-458.040	-200.000	0.132	0.839
-457.026	144.711	-0.218	0.293
-456.011	-136.916	-0.564	-0.065
-454.997	147.322	0.393	0.532
-453.982	178.823	0.160	0.235
-452.968	-136.210	0.555	0.065
-451.953	-178.399	-0.881	-0.021
-450.938	-200.000	-0.186	-1.096
-449.924	-117.933	0.161	0.029
-448.909	800.000	-0.062	0.243
-447.895	-173.529	0.627	-0.019
-446.880	-200.000	-0.011	-0.143
-445.865	139.032	-0.104	-0.137
-444.851	42.533	-0.167	-0.153
-443.836	-45.428	0.291	0.145
-442.822	-146.525	0.211	-0.018
-441.807	-30.942	0.397	0.225
-440.792	263.458	0.193	-0.337
-439.778	-200.000	-0.203	-0.000
-438.763	508.721	-0.172	-0.402
-437.749	-139.266	0.634	-0.069
-436.734	639.357	-0.252	-0.643
-435.719	-67.306	0.396	0.156
-434.705	113.171	0.521	-0.635
-433.690	-152.265	0.786	0.057
-432.676	383.778	0.179	0.370
-431.661	-21.418	0.295	0.181
-430.646	-200.000	0.132	0.796
-429.632	-28.064	0.515	-0.299
-428.617	55.392	-0.219	-0.213
-427.603	184.801	-0.298	0.444
-426.588	88.474	0.378	0.421
-425.573	6.548	-0.081	0.060
-424.559	-19.576	-0.360	-0.224
-423.544	-27.370	-0.789	-0.461
-422.530	-58.558	0.551	-0.240
-421.515	800.000	0.096	0.326
-420.500	800.000	0.258	-0.936
-419.486	-103.922	-0.573	0.134
-418.471	800.000	0.217	0.629
-417.457	421.080	0.144	-0.310
-416.442	162.816	-0.216	0.304
-415.428	-27.726	0.853	-0.497
-414.413	206.174	0.416	-0.649
-413.398	-0.296	-0.434	0.309
-412.384	348.809	-0.142	-0.282
-411.369	-183.019	0.278	0.005
-410.355	-40.241	-0.262	0.137
-409.340	-64.388	0.296	-0.121
-408.325	-65.951	0.372	-0.149
-407.311	-200.000	-0.020	-0.448
-406.296	-61.617	-0.312	0.131
-405.282	31.315	0.508	0.437
-404.267	-134.435	-0.643	-0.079
-403.252	-105.520	-0.945	-0.215
-402.238	-179.495	0.256	0.006
-401.223	-113.808	-0.322	-0.063
-400.209	-60.528	-0.346	0.147
-399.194	7.593	0.509	-0.382
-398.179	344.421	0.306	-0.603
-397.165	653.621	-0.269	-0.691
-396.150	43.181	-0.436	0.399
-395.136	300.021	-0.346	-0.640
-394.121	-144.000	0.369	-0.035
-393.106	-184.962	-0.617	0.010
-392.092	-76.277	-0.441	0.156
-391.077	73.792	0.375	-0.394
-390.063	-66.018	0.250	-0.100
-389.048	69.178	-0.622	-0.642
-388.033	-118.387	-0.282	0.050
-387.019	42.637	0.510	0.465
-386.004	-87.474	0.301	0.091
-384.990	-19.489	0.193	0.120
-383.975	-35.262	0.647	0.353
-382.960	128.227	0.206	0.263
-381.946	61.658	0.556	0.555
-380.931	-5.519	-0.483	-0.332
-379.917	-81.868	-0.498	0.163
-378.902	-181.476	0.561	0.011
-377.888	-23.583	-0.195	0.117
-376.873	-200.000	0.642	-0.001
-375.858	-200.000	-0.021	-0.248
-374.844	42.669	-0.623	-0.569
-373.829	-200.000	0.011	0.188
-372.815	213.429	-0.296	-0.469
-371.800	-200.000	-0.060	0.804
-370.785	-22.683	1.140	0.690
-369.771	-33.842	-0.312	0.172
-368.756	433.834	-0.573	1.247
-367.742	-61.543	-0.418	0.176
-366.727	-200.000	0.122	0.785
-365.712	-200.000	-0.021	0.162
-364.698	532.293	0.045	0.107
-363.683	68.404	-0.189	0.194
-362.669	59.981	-0.505	0.500
-361.654	-28.404	-0.415	0.240
-360.639	-66.074	-0.686	0.274
-359.625	-46.420	-0.661	0.325
-358.610	201.937	0.067	-0.104
-357.596	-47.471	0.235	0.114
-356.581	-93.589	-0.678	0.187
-355.566	142.590	0.347	-0.462
-354.552	-200.000	0.922	0.000
-353.537	-26.513	-0.112	-0.066
-352.523	204.389	0.335	-0.520
-351.508	-200.000	-0.044	0.807
-350.493	278.940	-0.276	0.492
-349.479	800.000	0.222	-0.854
-348.464	777.579	0.092	-0.252
-347.450	-200.000	0.047	-0.811
-346.435	-119.169	-1.170	-0.204
-345.420	-34.346	0.183	-0.100
-344.406	241.147	0.339	-0.566
-343.391	800.000	-0.223	-0.757
-342.377	174.777	0.433	0.627
-341.362	-200.000	-0.031	0.522
-340.348	-161.434	-0.783	-0.040
-339.333	-200.000	0.080	-0.516
-338.318	41.719	0.505	0.458
-337.304	800.000	-0.163	0.548
-336.289	-200.000	-0.029	-0.141
-335.275	-200.000	0.001	0.273
-334.260	-56.327	-0.545	-0.242
-333.245	-200.000	0.157	-1.164
-332.231	-200.000	0.002	-0.293
-331.216	97.517	0.165	-0.189
-330.202	327.799	-0.302	0.580
-329.187	-105.439	-0.250	0.057
-328.172	43.503	-0.260	0.238
-327.158	-37.505	-0.669	0.357
-326.143	-200.000	-0.018	0.671
-325.129	-160.159	0.586	-0.032
-324.114	777.378	0.225	0.613
-323.099	800.000	0.165	-0.463
-322.085	-59.322	-0.296	0.127
-321.070	-28.114	0.274	-0.158
-320.056	-35.748	-0.473	0.256
-319.041	270.578	0.060	0.106
-318.026	-16.246	0.422	-0.268
-317.012	-57.972	-0.610	-0.266
-315.997	-20.920	-0.152	-0.093
-314.983	-116.010	-0.070	-0.013
-313.968	163.440	-0.232	0.326
-312.953	95.244	-0.183	0.208
-311.939	341.427	-0.085	0.167
-310.924	50.576	0.408	-0.385
-309.910	-122.398	0.228	-0.037
-308.895	44.792	-0.397	0.365
-307.880	-200.000	-0.025	0.410
-306.866	-20.791	0.334	-0.205
-305.851	131.874	-0.505	0.649
-304.837	-191.698	0.186	-0.002
-303.822	113.592	0.111	0.134
-302.807	21.282	0.144	0.117
-301.793	-200.000	-0.069	-0.744
-300.778	728.457	0.206	0.548
-299.764	-36.418	-0.685	-0.368
-298.749	33.948	0.301	-0.261
-297.735	165.622	-0.403	-0.569
-296.720	-200.000	-0.084	-0.552
-295.705	-149.232	1.108	0.088
-294.691	-200.000	0.149	0.802
-293.676	-185.677	-0.335	-0.005
-292.662	800.000	-0.101	0.394
-291.647	-200.000	-0.032	0.749
-290.632	-89.386	0.598	0.176
-289.618	-200.000	0.108	-0.597
-288.603	49.276	-0.548	0.515
-287.589	33.964	-0.664	-0.577
-286.574	-177.542	-0.313	-0.008
-285.559	-71.754	-1.178	-0.439
-284.545	83.936	-0.177	0.192
-283.530	-13.884	-0.315	0.203
-282.516	318.787	-0.080	0.152
-281.501	800.000	-0.192	-0.662
-280.486	-74.814	-0.518	-0.186
-279.472	-46.437	0.444	0.218
-278.457	186.365	-0.225	-0.334
-277.443	-74.860	0.943	0.338
-276.428	2.351	-0.269	0.194
-275.413	219.023	-0.113	-0.181
-274.399	147.941	-0.336	0.453
-273.384	-118.648	-0.339	-0.060
-272.370	-34.399	-0.352	-0.193
-271.355	-199.825	0.206	-0.001
-270.340	-143.231	1.098	-0.105
-269.326	110.033	0.286	-0.342
-268.311	92.890	0.036	0.041
-267.297	-57.340	-0.797	-0.349
-266.282	-17.803	0.699	0.438
-265.267	62.468	-0.618	0.616
-264.253	-74.580	0.367	0.132
-263.238	800.000	-0.236	1.023
-262.224	-134.092	-0.214	0.026
-261.209	-77.514	0.459	0.159
-260.195	-36.490	-0.376	0.202
-259.180	-155.273	0.505	0.033
-258.165	-200.000	0.052	0.567
-257.151	-200.000	-0.308	0.002
-256.136	236.026	0.045	0.074
-255.122	142.847	0.224	-0.297
-254.107	-200.000	0.078	0.574
-253.092	-114.991	-0.529	-0.100
-252.078	-0.511	-0.582	0.412
-251.063	-200.000	-0.051	-0.522
-250.049	-81.525	-0.748	-0.245
-249.034	337.256	0.087	-0.169
-248.019	-165.300	0.476	0.021
-247.005	-162.522	-0.740	-0.036
-245.990	-200.000	-0.018	-0.349
-244.976	9.715	0.302	-0.228
-243.961	18.704	1.340	1.069
-242.946	-148.094	0.791	0.065
-241.932	270.413	0.417	-0.730
-240.917	385.159	-0.132	0.271
-239.903	-200.000	-0.020	0.103
-238.888	162.146	0.277	0.386
-237.873	90.288	0.119	0.132
-236.859	153.557	-0.069	0.095
-235.844	800.000	-0.074	-0.235
-234.830	-200.000	-0.087	-0.542
-233.815	-116.163	0.635	0.118
-232.800	568.810	-0.237	-0.573
-231.786	-92.938	0.382	-0.106
-230.771	800.000	-0.196	-0.564
-229.757	-200.000	0.062	-0.271
-228.742	-36.404	-0.133	-0.071
-227.727	-72.491	-0.695	-0.256
-226.713	-19.679	-0.404	0.249
-225.698	-128.194	-0.471	0.067
-224.684	34.615	0.525	0.457
-223.669	384.193	-0.160	-0.329
-222.655	-26.126	0.287	0.168
-221.640	-117.249	0.344	0.062
-220.625	-145.984	-1.349	-0.119
-219.611	-200.000	-0.308	1.445
-218.596	75.784	-0.463	-0.487
-217.582	-171.204	0.108	-0.004
-216.567	-65.467	0.206	-0.082
-215.552	-200.000	0.010	-0.301
-214.538	-198.565	0.639	-0.004
-213.523	-200.000	-0.105	-1.051
-212.509	370.585	0.412	0.831
-211.494	-117.177	0.884	-0.160
-210.479	-79.946	0.802	-0.268
-209.465	-200.000	0.075	-0.353
-208.450	800.000	-0.208	-0.773
-207.436	37.431	-0.093	0.082
-206.421	-101.364	0.513	-0.124
-205.406	80.807	0.289	-0.310
-204.392	-200.000	0.456	-0.001
-203.377	-10.621	-0.235	-0.155
-202.363	-13.081	0.636	-0.412
-201.348	89.518	0.151	-0.168
-200.333	2.449	0.612	-0.441
-199.319	24.283	-0.054	-0.044
-198.304	800.000	0.294	-0.868
-197.290	-97.299	0.418	0.108
-196.275	-200.000	0.000	-0.373
-195.260	-200.000	-0.048	-0.280
-194.246	-152.662	0.335	-0.024
-193.231	-200.000	0.025	0.556
-192.217	-122.157	0.605	-0.099
-191.202	-170.630	-0.735	-0.025
-190.187	79.911	-0.261	0.279
-189.173	-87.890	0.152	-0.045
-188.158	-44.874	0.891	-0.442
-187.144	290.736	0.046	0.084
-186.129	-61.272	0.620	-0.260
-185.114	-200.000	0.033	-0.320
-184.100	15.920	-0.865	-0.677
-183.085	-200.000	0.081	0.380
-182.071	-67.233	-0.328	0.129
-181.056	-200.000	0.002	0.102
-180.042	6.013	0.341	-0.251
-179.027	800.000	0.127	-0.386
-178.012	65.784	-0.463	0.467
-176.998	800.000	-0.031	-0.134
-175.983	-30.534	-0.262	0.147
-174.969	98.469	0.189	0.216
-173.954	88.417	0.117	-0.129
-172.939	-22.053	-0.661	0.399
-171.925	220.953	0.291	0.464
-170.910	-119.867	0.399	0.068
-169.896	-200.000	-0.005	0.370
-168.881	-22.166	0.383	-0.231
-167.866	-74.324	-0.214	-0.077
-166.852	-59.529	0.644	0.275
-165.837	-66.812	-0.427	0.168
-164.823	-143.262	-0.198	0.019
-163.808	-110.850	-0.555	0.114
-162.793	800.000	0.188	0.752
-161.779	12.495	0.535	-0.410
-160.764	-200.000	0.100	-0.445
-159.750	-29.900	0.544	-0.308
-158.735	-10.670	-0.189	-0.124
-157.720	464.103	0.187	0.416
-156.706	-5.472	-0.690	0.470
-155.691	-200.000	0.112	0.588
-154.677	105.555	0.198	0.232
-153.662	-101.801	-0.332	-0.080
-152.647	-84.079	0.371	-0.117
-151.633	-8.090	0.723	0.484
-150.618	-151.402	-0.835	-0.062
-149.604	-28.223	0.342	0.196
-148.589	-100.138	-0.205	0.051
-147.574	-138.812	0.656	0.071
-146.560	800.000	0.128	0.485
-145.545	370.870	0.153	0.309
-144.531	-116.690	0.461	0.084
-143.516	-93.870	0.082	0.022
-142.502	-200.000	-0.010	0.672
-141.487	63.715	-0.384	-0.383
-140.472	-200.000	-0.004	0.310
-139.458	247.072	0.541	0.906
-138.443	586.026	0.184	0.450
-137.429	63.661	0.349	-0.347
-136.414	-200.000	0.030	-0.241
-135.399	-152.533	-0.376	-0.027
-134.385	-64.309	-0.626	-0.253
-133.370	-140.070	0.143	-0.015
-132.356	-200.000	-0.047	0.748
-131.341	-200.000	-0.001	0.060
-130.326	-145.268	1.172	0.105
-129.312	800.000	0.119	0.328
-128.297	-167.699	0.140	0.006
-127.283	800.000	0.075	-0.246
-126.268	-200.000	0.044	-0.253
-125.253	-200.000	-0.041	-0.200
-124.239	22.308	0.697	0.565
-123.224	-29.048	-0.830	-0.473
-122.210	-174.474	0.960	0.027
-121.195	186.573	-0.264	-0.389
