DTS Sentinel unit serial number:	SN413079Multiplexer serial number:	ORYXHardware model number:	OX4-SRSoftware version number:	ORYX F/W v4.00 Oryx Data Collector v3.7.2.0data status	okinstallation	princeton_trtdifferential loss correction	single-endedforward channel	channel 4reverse channel	N/Adate	2019/09/19time	08:29:35forward acquisition time	60.00reverse acquisition time	0.00gamma	496.2192k internal	0.2340k external	0.2340temperature offset calibration	1.0019default loss term (dB/km)	0.3790temperature slope calibration	1.0000multiplexer offset coefficient	1.0000multiplexer slope coefficient	1.0000fibre end	0.00T internal ref (°C)	20.66T ext. ref 1 (°C)	0.57T ext. ref 2 (°C)	16.35length (m)	temperature (°C)	Stokes	anti-Stokes-747.200	-200.000	-0.059	0.316
-746.185	176.041	-0.104	0.152
-745.171	800.000	-0.051	0.177
-744.156	-65.360	-0.398	0.161
-743.142	71.549	0.175	0.182
-742.127	354.107	0.066	0.131
-741.112	-40.019	0.339	-0.177
-740.098	-102.561	0.104	-0.025
-739.083	-116.226	-0.228	-0.042
-738.069	-200.000	0.024	0.299
-737.054	107.055	-0.151	0.179
-736.039	53.513	0.023	0.022
-735.025	-91.807	-0.252	0.072
-734.010	133.586	0.082	-0.106
-732.996	-85.337	0.151	-0.047
-731.981	800.000	-0.042	0.165
-730.966	383.198	0.078	-0.162
-729.952	-200.000	0.053	-0.382
-728.937	102.985	-0.332	-0.389
-727.923	16.214	-0.313	-0.247
-726.908	76.348	0.230	-0.244
-725.894	-82.924	-0.105	0.034
-724.879	-119.736	-0.098	-0.017
-723.864	800.000	0.008	0.022
-722.850	-104.853	0.365	-0.084
-721.835	800.000	-0.116	-0.498
-720.821	-200.000	-0.004	0.027
-719.806	800.000	-0.075	0.283
-718.791	-98.411	-0.258	-0.066
-717.777	433.242	-0.082	0.177
-716.762	686.954	0.122	-0.320
-715.748	-175.926	-0.155	0.004
-714.733	800.000	-0.098	0.299
-713.718	0.060	0.102	-0.073
-712.704	739.918	0.019	-0.050
-711.689	-137.502	-0.148	-0.017
-710.675	-200.000	0.024	-0.223
-709.660	11.050	-0.174	0.133
-708.645	-200.000	0.002	0.058
-707.631	439.115	-0.127	-0.277
-706.616	-18.717	0.198	0.124
-705.602	-200.000	0.054	-0.257
-704.587	-85.328	-0.450	0.141
-703.572	604.727	-0.122	0.303
-702.558	-200.000	-0.021	-0.192
-701.543	800.000	0.020	0.075
-700.529	320.590	-0.028	0.053
-699.514	-28.661	-0.051	-0.029
-698.499	-97.815	0.297	0.077
-697.485	128.850	-0.092	0.118
-696.470	-200.000	0.068	-0.312
-695.456	131.250	-0.131	-0.168
-694.441	511.607	-0.077	-0.180
-693.426	-117.290	0.224	0.041
-692.412	-47.776	0.257	0.125
-691.397	-200.000	0.019	0.127
-690.383	800.000	0.078	0.316
-689.368	6.656	-0.281	-0.209
-688.354	105.454	0.025	0.029
-687.339	-200.000	-0.054	-0.469
-686.324	-85.929	-0.159	-0.049
-685.310	-123.452	-0.143	0.023
-684.295	12.110	0.167	-0.129
-683.281	-0.012	-0.031	-0.022
-682.266	251.588	0.057	0.098
-681.251	-114.669	0.392	-0.075
-680.237	-106.535	0.206	0.046
-679.222	-200.000	-0.007	-0.276
-678.208	4.938	0.120	-0.089
-677.193	800.000	-0.073	0.206
-676.178	-89.404	0.105	-0.031
-675.164	800.000	0.025	0.100
-674.149	41.426	0.154	-0.139
-673.135	789.153	-0.053	-0.146
-672.120	-4.445	0.079	0.055
-671.105	15.333	-0.068	0.053
-670.091	-200.000	-0.047	0.242
-669.076	194.711	0.046	0.069
-668.062	251.124	0.115	0.196
-667.047	-200.000	-0.042	-0.192
-666.032	132.406	-0.114	0.147
-665.018	-60.029	-0.161	-0.069
-664.003	169.914	0.201	0.287
-662.989	-49.972	-0.348	0.165
-661.974	679.104	-0.040	0.105
-660.959	81.934	-0.119	-0.128
-659.945	-200.000	0.044	-0.382
-658.930	259.074	0.151	0.260
-657.916	-123.022	-0.132	0.021
-656.901	508.756	0.164	0.380
-655.886	-200.000	0.047	0.219
-654.872	-200.000	0.002	0.044
-653.857	97.262	0.099	-0.114
-652.843	279.538	0.137	-0.244
-651.828	-10.335	-0.132	-0.088
-650.814	-69.871	0.032	0.012
-649.799	-200.000	0.006	0.169
-648.784	-15.072	0.152	-0.097
-647.770	-50.488	0.140	0.066
-646.755	800.000	0.093	0.392
-645.741	396.184	-0.058	-0.121
-644.726	-200.000	-0.037	-0.208
-643.711	-200.000	0.066	-0.317
-642.697	-9.109	0.135	0.090
-641.682	99.901	0.223	-0.258
-640.668	-147.250	-0.192	0.016
-639.653	800.000	0.111	0.334
-638.638	469.821	-0.060	-0.134
-637.624	-200.000	-0.067	0.356
-636.609	160.177	-0.216	0.301
-635.595	504.011	0.142	-0.328
-634.580	21.063	0.154	-0.125
-633.565	-22.552	-0.126	-0.076
-632.551	83.974	-0.101	-0.110
-631.536	344.149	-0.038	-0.074
-630.522	-64.980	-0.213	-0.086
-629.507	538.770	0.038	0.090
-628.492	486.049	-0.041	-0.093
-627.478	-45.202	0.250	-0.124
-626.463	800.000	0.101	-0.295
-625.449	28.809	0.359	-0.304
-624.434	800.000	-0.039	0.167
-623.419	-10.944	-0.166	-0.109
-622.405	250.053	0.085	-0.144
-621.390	262.593	0.174	-0.301
-620.376	9.150	0.156	-0.117
-619.361	-110.970	-0.429	-0.088
-618.346	359.779	-0.181	-0.362
-617.332	42.919	0.223	0.203
-616.317	27.544	0.191	-0.160
-615.303	-200.000	0.025	-0.141
-614.288	-89.190	-0.125	0.037
-613.273	-32.878	-0.263	-0.146
-612.259	-74.024	0.067	-0.024
-611.244	174.285	-0.246	0.354
-610.230	427.845	-0.136	0.293
-609.215	-75.934	-0.227	-0.080
-608.201	77.585	0.209	0.222
-607.186	-200.000	-0.053	0.311
-606.171	-200.000	0.008	0.124
-605.157	85.368	0.168	0.184
-604.142	-200.000	0.036	-0.240
-603.128	767.433	-0.037	-0.101
-602.113	800.000	0.085	-0.291
-601.098	-162.257	-0.181	-0.009
-600.084	800.000	0.073	-0.202
-599.069	-91.551	-0.189	-0.054
-598.055	-82.909	-0.159	0.051
-597.040	-26.071	0.258	0.151
-596.025	-173.410	0.295	-0.009
-595.011	-200.000	-0.376	0.001
-593.996	438.874	0.090	-0.196
-592.982	169.153	-0.238	-0.339
-591.967	618.734	0.086	-0.216
-590.952	-67.978	0.295	-0.115
-589.938	-75.241	0.197	0.070
-588.923	-187.380	-0.628	-0.008
-587.909	-32.846	0.236	0.131
-586.894	-123.929	-0.325	0.051
-585.879	114.545	0.039	0.047
-584.865	94.656	0.168	-0.190
-583.850	-200.000	0.046	-0.374
-582.836	-137.251	-0.348	-0.039
-581.821	282.527	-0.061	-0.110
-580.806	-145.364	0.188	0.017
-579.792	758.389	-0.036	0.096
-578.777	76.382	-0.109	0.115
-577.763	27.139	-0.233	-0.195
-576.748	800.000	0.123	-0.428
-575.733	164.653	0.160	0.225
-574.719	-200.000	0.017	0.192
-573.704	-116.678	-0.190	0.035
-572.690	291.218	-0.061	-0.111
-571.675	-5.817	0.140	0.095
-570.661	-200.000	-0.002	0.085
-569.646	32.663	0.090	0.077
-568.631	-80.892	0.339	-0.112
-567.617	475.585	-0.127	0.285
-566.602	133.752	-0.104	-0.133
-565.588	-200.000	0.022	0.269
-564.573	-171.617	0.315	-0.010
-563.558	-200.000	-0.009	-0.177
-562.544	421.216	-0.050	0.107
-561.529	589.468	-0.095	-0.233
-560.515	-194.464	0.444	-0.004
-559.500	-200.000	-0.168	-0.001
-558.485	-200.000	-0.028	0.192
-557.471	-142.006	-0.251	0.025
-556.456	16.830	0.147	0.116
-555.442	-161.630	0.264	0.013
-554.427	-200.000	-0.039	0.302
-553.412	28.330	-0.132	0.111
-552.398	-54.822	-0.164	-0.074
-551.383	-200.000	-0.018	-0.394
-550.369	171.404	0.170	-0.242
-549.354	800.000	0.040	-0.127
-548.339	-41.084	-0.099	-0.051
-547.325	-75.144	-0.229	0.082
-546.310	0.336	0.226	-0.161
-545.296	-10.526	-0.282	0.186
-544.281	14.444	0.338	-0.262
-543.266	117.775	-0.216	-0.265
-542.252	-53.422	-0.074	-0.034
-541.237	238.072	0.098	-0.161
-540.223	-8.400	-0.066	-0.044
-539.208	-116.249	0.118	-0.022
-538.193	-67.266	-0.245	0.096
-537.179	-166.713	0.108	0.004
-536.164	800.000	-0.070	-0.261
-535.150	66.965	-0.215	0.218
-534.135	30.125	0.077	0.065
-533.121	-200.000	0.023	0.226
-532.106	312.525	-0.024	-0.045
-531.091	-134.644	-0.206	-0.025
-530.077	654.647	-0.107	0.273
-529.062	800.000	0.120	0.397
-528.048	-127.131	0.150	0.022
-527.033	345.367	-0.119	-0.233
-526.018	396.504	0.120	-0.249
-525.004	119.687	0.124	-0.152
-523.989	208.652	-0.083	0.129
-522.975	-11.122	-0.016	0.011
-521.960	-103.816	0.108	-0.025
-520.945	-175.330	0.261	-0.007
-519.931	279.036	-0.092	0.162
-518.916	-200.000	0.020	0.306
-517.902	-73.761	-0.181	-0.065
-516.887	742.362	-0.006	0.016
-515.872	800.000	-0.051	-0.163
-514.858	159.411	-0.201	-0.278
-513.843	205.826	0.060	0.093
-512.829	-30.821	0.181	0.102
-511.814	-200.000	-0.041	-0.228
-510.799	-126.284	0.287	-0.043
-509.785	21.287	-0.109	0.088
-508.770	157.174	0.155	-0.213
-507.756	-200.000	-0.065	0.316
-506.741	338.177	0.236	0.455
-505.726	-174.450	-0.048	0.001
-504.712	147.789	-0.071	-0.095
-503.697	-116.401	-0.055	0.010
-502.683	-164.772	-0.139	0.006
-501.668	-189.189	-0.191	0.002
-500.653	83.565	0.146	-0.158
-499.639	521.560	-0.079	-0.183
-498.624	85.144	0.052	0.056
-497.610	769.758	-0.054	-0.145
-496.595	522.323	-0.118	-0.276
-495.581	58.371	-0.142	0.139
-494.566	-9.104	-0.095	0.063
-493.551	-200.000	0.042	0.210
-492.537	71.729	-0.182	-0.188
-491.522	84.321	-0.112	-0.122
-490.508	-200.000	0.025	0.145
-489.493	-58.182	-0.362	-0.156
-488.478	26.131	0.380	-0.315
-487.464	-75.343	-0.260	-0.092
-486.449	800.000	0.032	0.111
-485.435	633.948	0.115	-0.289
-484.420	-128.185	-0.346	0.049
-483.405	-163.705	-0.143	0.007
-482.391	19.269	0.090	-0.071
-481.376	754.631	-0.079	0.212
-480.362	56.986	0.062	-0.060
-479.347	800.000	0.048	0.137
-478.332	-200.000	-0.015	0.108
-477.318	-200.000	-0.008	-0.051
-476.303	3.864	-0.065	-0.047
-475.289	74.992	-0.156	-0.163
-474.274	327.976	-0.153	-0.291
-473.259	335.568	0.075	-0.144
-472.245	21.553	-0.187	-0.151
-471.230	-108.345	0.054	-0.012
-470.216	195.074	-0.010	-0.015
-469.201	-88.492	-0.537	-0.159
-468.186	-200.000	0.057	0.364
-467.172	-89.480	-0.266	-0.078
-466.157	477.009	-0.123	0.275
-465.143	-200.000	-0.011	0.168
-464.128	406.403	-0.083	0.175
-463.113	1.873	-0.192	0.137
-462.099	96.877	0.075	0.085
-461.084	24.605	-0.048	0.039
-460.070	800.000	-0.054	0.192
-459.055	38.257	-0.063	-0.055
-458.040	35.197	-0.137	-0.119
-457.026	-200.000	0.155	-0.000
-456.011	48.854	0.191	-0.177
-454.997	-90.959	-0.163	-0.046
-453.982	-200.000	-0.051	-0.267
-452.968	223.976	0.182	-0.291
-451.953	35.873	0.201	-0.175
-450.938	312.127	0.114	-0.212
-449.924	121.882	-0.319	0.395
-448.909	-200.000	0.232	-0.001
-447.895	-200.000	-0.018	-0.133
-446.880	226.060	-0.041	-0.065
-445.865	-169.452	-0.188	0.007
-444.851	800.000	0.089	-0.310
-443.836	-74.051	-0.196	0.071
-442.822	-130.395	0.421	0.057
-441.807	800.000	0.076	-0.229
-440.792	-77.839	-0.310	0.106
-439.778	-182.994	0.127	-0.002
-438.763	-122.603	-0.138	0.022
-437.749	-92.787	0.091	-0.025
-436.734	-8.546	-0.006	-0.004
-435.719	88.214	0.074	-0.081
-434.705	800.000	0.130	0.408
-433.690	499.386	0.130	0.297
-432.676	300.337	0.076	-0.138
-431.661	-200.000	-0.038	-0.209
-430.646	800.000	-0.007	-0.020
-429.632	199.689	-0.229	0.347
-428.617	-45.065	0.121	-0.060
-427.603	24.529	0.126	0.103
-426.588	52.765	-0.240	-0.227
-425.573	800.000	0.042	-0.180
-424.559	119.353	0.175	0.215
-423.544	64.867	0.180	-0.180
-422.530	66.281	-0.131	0.132
-421.515	800.000	0.028	0.118
-420.500	-200.000	0.051	0.262
-419.486	-200.000	-0.001	0.250
-418.471	-111.706	0.123	-0.025
-417.457	51.597	-0.186	0.175
-416.442	-200.000	0.009	0.258
-415.428	18.958	0.117	-0.093
-414.413	-22.406	-0.217	-0.130
-413.398	-20.176	0.186	-0.114
-412.384	12.731	0.131	0.100
-411.369	-54.593	-0.072	-0.032
-410.355	-200.000	-0.077	0.336
-409.340	118.992	0.062	-0.076
-408.325	-98.895	-0.081	-0.020
-407.311	379.927	-0.040	0.082
-406.296	227.350	0.080	-0.128
-405.282	-48.872	0.077	-0.036
-404.267	76.661	0.100	-0.105
-403.252	513.965	-0.055	-0.127
-402.238	-66.936	0.069	0.027
-401.223	-19.795	-0.115	-0.070
-400.209	226.530	0.062	0.100
-399.194	124.376	-0.109	0.136
-398.179	87.151	-0.084	0.092
-397.165	213.773	-0.097	-0.152
-396.150	-143.577	0.112	-0.010
-395.136	72.132	0.135	0.139
-394.121	212.576	-0.205	-0.319
-393.106	13.062	0.366	-0.280
-392.092	-200.000	-0.022	0.358
-391.077	-77.081	-0.079	0.027
-390.063	49.224	0.140	0.130
-389.048	800.000	0.036	0.142
-388.033	-53.198	-0.226	0.103
-387.019	-109.132	-0.085	0.018
-386.004	-29.159	-0.119	0.067
-384.990	296.558	-0.102	-0.185
-383.975	26.312	0.105	-0.087
-382.960	-12.065	-0.236	-0.153
-381.946	-44.466	0.399	0.197
-380.931	-200.000	-0.032	-0.391
-379.917	118.513	-0.128	0.156
-378.902	800.000	-0.039	0.148
-377.888	-112.565	-0.154	0.030
-376.873	-42.346	-0.086	-0.043
-375.858	726.612	0.179	0.473
-374.844	87.562	-0.130	0.143
-373.829	115.555	0.117	-0.141
-372.815	613.372	0.048	-0.119
-371.800	81.299	-0.212	-0.226
-370.785	466.804	0.141	0.312
-369.771	-9.004	0.122	0.081
-368.756	800.000	0.038	0.122
-367.742	-136.667	-0.461	-0.053
-366.727	37.366	0.091	-0.080
-365.712	800.000	0.049	0.211
-364.698	481.518	-0.142	-0.318
-363.683	800.000	-0.012	-0.047
-362.669	-5.022	-0.311	-0.212
-361.654	-44.916	0.224	-0.110
-360.639	86.074	0.075	0.081
-359.625	114.397	-0.111	0.134
-358.610	311.953	-0.024	0.044
-357.596	231.021	0.096	0.156
-356.581	675.437	-0.126	0.322
-355.566	233.476	-0.037	-0.060
-354.552	58.639	0.223	-0.216
-353.537	337.273	-0.051	-0.098
-352.523	48.815	-0.342	-0.317
-351.508	-69.964	-0.346	-0.130
-350.493	800.000	-0.085	0.330
-349.479	116.275	0.180	-0.217
-348.464	-97.997	0.097	0.025
-347.450	392.845	-0.045	-0.093
-346.435	-160.290	-0.173	-0.009
-345.420	-133.414	-0.345	0.043
-344.406	232.353	0.134	0.218
-343.391	-45.947	0.175	-0.085
-342.377	-150.709	0.181	0.014
-341.362	6.907	-0.203	0.149
-340.348	320.376	0.058	-0.109
-339.333	-165.663	-0.375	0.016
-338.318	-200.000	-0.058	0.278
-337.304	800.000	0.092	0.336
-336.289	662.751	0.202	0.514
-335.275	-105.902	-0.127	0.028
-334.260	12.152	-0.160	0.121
-333.245	-79.005	-0.228	-0.077
-332.231	-200.000	-0.036	-0.158
-331.216	-63.688	-0.250	-0.101
-330.202	78.177	-0.115	0.121
-329.187	800.000	-0.099	0.280
-328.172	-32.949	0.162	-0.089
-327.158	-129.663	0.149	-0.020
-326.143	439.342	-0.116	-0.249
-325.129	301.251	0.087	0.158
-324.114	-78.437	-0.013	-0.004
-323.099	622.007	-0.076	0.190
-322.085	519.714	-0.082	0.189
-321.070	-200.000	-0.018	0.442
-320.056	-200.000	-0.015	-0.380
-319.041	271.745	0.258	-0.448
-318.026	-46.024	-0.273	0.133
-317.012	-37.470	0.465	-0.245
-315.997	94.291	-0.213	0.239
-314.983	679.591	-0.061	0.158
-313.968	210.791	-0.018	-0.028
-312.953	122.516	0.050	-0.062
-311.939	-144.355	0.298	-0.027
-310.924	-200.000	-0.011	-0.051
-309.910	-164.583	0.212	0.009
-308.895	-200.000	-0.015	0.091
-307.880	-31.836	-0.198	-0.109
-306.866	100.063	-0.104	0.119
-305.851	76.007	-0.257	0.268
-304.837	-13.014	0.234	0.150
-303.822	-92.774	0.349	0.096
-302.807	-200.000	0.008	-0.377
-301.793	166.501	-0.105	-0.147
-300.778	523.841	-0.125	-0.289
-299.764	800.000	-0.092	-0.288
-298.749	130.144	-0.153	-0.194
-297.735	92.577	0.282	0.313
-296.720	-1.199	-0.060	0.042
-295.705	-200.000	-0.019	0.413
-294.691	-95.785	-0.156	-0.041
-293.676	-7.029	-0.119	-0.080
-292.662	-98.151	0.079	0.020
-291.647	8.723	-0.468	-0.347
-290.632	-200.000	0.057	-0.295
-289.618	-25.698	-0.238	0.138
-288.603	800.000	0.089	-0.268
-287.589	-200.000	0.042	0.294
-286.574	-190.734	0.224	-0.002
-285.559	-117.419	-0.320	-0.057
-284.545	800.000	0.030	-0.099
-283.530	-200.000	0.009	0.260
-282.516	-77.364	-0.097	-0.033
-281.501	213.074	0.139	-0.216
-280.486	-109.858	0.086	0.018
-279.472	671.216	0.105	-0.269
-278.457	1.193	-0.231	-0.163
-277.443	773.095	-0.066	0.177
-276.428	-200.000	-0.051	-0.351
-275.413	800.000	0.076	0.236
-274.399	-54.932	0.132	0.059
-273.384	-80.011	-0.259	-0.085
-272.370	-54.702	0.164	0.073
-271.355	-107.114	0.281	-0.061
-270.340	-16.203	-0.139	-0.087
-269.326	-6.386	0.131	0.088
-268.311	-112.583	-0.382	-0.075
-267.297	640.592	-0.054	-0.135
-266.282	-200.000	0.003	-0.176
-265.267	-71.677	-0.130	-0.048
-264.253	-88.474	0.184	0.054
-263.238	-93.103	-0.149	0.041
-262.224	-75.879	0.261	0.091
-261.209	28.936	-0.103	0.086
-260.195	-78.721	0.413	-0.139
-259.180	409.006	0.130	0.270
-258.165	-135.049	-0.161	0.019
-257.151	88.399	0.204	0.222
-256.136	-89.510	0.351	0.102
-255.122	-76.572	-0.274	-0.095
-254.107	800.000	-0.066	0.205
-253.092	-200.000	-0.007	-0.129
-252.078	-160.164	-0.239	-0.013
-251.063	261.621	-0.073	-0.125
-250.049	88.589	0.045	0.050
-249.034	-5.217	0.393	0.266
-248.019	247.879	0.043	-0.071
-247.005	-41.547	0.397	0.201
-245.990	-200.000	0.065	-0.365
-244.976	40.056	-0.070	-0.062
-243.961	-200.000	0.016	-0.118
-242.946	7.168	0.327	-0.240
-241.932	-48.301	0.048	-0.023
-240.917	-200.000	-0.003	0.028
-239.903	318.832	0.167	0.312
-238.888	-78.965	0.152	-0.051
-237.873	-200.000	-0.031	0.412
-236.859	-200.000	-0.048	0.322
-235.844	12.316	0.054	-0.041
-234.830	-135.095	0.363	0.043
-233.815	171.401	0.099	0.139
-232.800	376.663	-0.090	-0.180
-231.786	19.035	0.045	-0.036
-230.771	180.469	0.072	-0.104
-229.757	1.823	-0.045	0.032
-228.742	-167.398	-0.143	-0.006
-227.727	-148.206	0.177	-0.014
-226.713	23.423	0.045	0.037
-225.698	800.000	0.058	0.192
-224.684	800.000	0.024	-0.096
-223.669	-190.847	0.246	0.003
-222.655	556.103	0.090	0.214
-221.640	-126.753	-0.171	-0.025
-220.625	32.172	0.146	-0.124
-219.611	-200.000	0.012	-0.133
-218.596	-200.000	0.029	-0.173
-217.582	-107.649	0.151	-0.032
-216.567	-86.546	-0.210	0.063
-215.552	800.000	0.028	0.078
-214.538	-122.141	-0.512	0.082
-213.523	-149.414	0.214	-0.017
-212.509	-122.424	0.114	-0.018
-211.494	18.391	-0.063	0.050
-210.479	-200.000	0.021	0.216
-209.465	43.014	0.222	-0.199
-208.450	499.925	0.031	-0.070
-207.436	-2.515	-0.231	0.159
-206.421	-171.421	-0.167	0.005
-205.406	207.381	0.095	0.145
-204.392	105.076	-0.139	0.161
-203.377	328.084	0.141	-0.266
-202.363	-60.114	0.162	0.068
-201.348	-123.517	0.267	0.042
-200.333	146.863	0.110	0.145
-199.319	10.761	-0.190	-0.143
-198.304	-139.528	0.161	0.017
-197.290	-41.183	-0.333	-0.169
-196.275	-38.464	0.043	0.022
-195.260	-166.263	0.268	-0.011
-194.246	-7.288	0.352	0.234
-193.231	-126.060	-0.263	-0.039
-192.217	-200.000	0.012	0.249
-191.202	-93.889	0.089	-0.024
-190.187	118.424	0.224	-0.271
-189.173	12.365	0.091	0.069
-188.158	-11.589	-0.054	-0.035
-187.144	-171.408	-0.137	0.004
-186.129	-95.441	0.110	-0.029
-185.114	-95.152	-0.107	-0.028
-184.100	730.297	-0.040	0.106
-183.085	-200.000	0.074	0.343
-182.071	161.537	-0.103	-0.141
-181.056	-75.080	-0.051	0.018
-180.042	239.155	-0.145	-0.237
-179.027	-27.317	0.240	-0.137
-178.012	41.856	-0.217	0.193
-176.998	52.693	0.439	0.411
-175.983	172.225	-0.085	0.119
-174.969	-103.595	0.170	0.039
-173.954	-2.220	0.127	0.087
-172.939	-200.000	0.016	0.280
-171.925	-200.000	0.029	-0.215
-170.910	-99.724	0.214	0.053
-169.896	-137.926	0.268	-0.029
-168.881	72.581	0.096	0.098
-167.866	258.172	0.161	0.272
-166.852	800.000	0.150	0.496
-165.837	-49.843	0.089	-0.042
-164.823	-200.000	0.042	0.235
-163.808	54.853	0.103	-0.098
-162.793	-200.000	-0.042	0.587
-161.779	-101.860	-0.153	-0.036
-160.764	-200.000	0.040	0.286
-159.750	-0.749	-0.199	-0.138
-158.735	-200.000	0.004	-0.074
-157.720	-200.000	0.025	-0.321
-156.706	-71.623	-0.058	-0.021
-155.691	-119.466	0.191	-0.032
-154.677	-200.000	0.136	-0.587
-153.662	-74.111	-0.180	-0.064
-152.647	-90.138	0.088	0.025
-151.633	-11.368	0.159	0.102
-150.618	-7.753	0.196	0.130
-149.604	193.364	-0.138	0.205
-148.589	-46.443	0.226	0.109
-147.574	31.557	0.095	-0.080
-146.560	-19.067	-0.360	0.219
-145.545	133.049	0.033	0.042
-144.531	199.937	0.062	-0.093
-143.516	-161.906	0.164	0.008
-142.502	-173.377	0.264	-0.008
-141.487	18.361	0.155	-0.121
-140.472	18.221	-0.253	-0.198
-139.458	356.044	-0.059	-0.116
-138.443	66.401	0.169	-0.168
-137.429	800.000	-0.027	0.087
-136.414	-200.000	0.052	0.472
-135.399	-200.000	-0.007	-0.076
-134.385	-80.053	0.210	0.069
-133.370	-200.000	0.046	-0.482
-132.356	800.000	0.139	0.426
-131.341	499.762	0.069	-0.156
-130.326	-124.604	0.392	0.060
-129.312	800.000	-0.088	-0.239
-128.297	-200.000	0.044	0.266
-127.283	-200.000	-0.169	0.000
-126.268	145.924	-0.100	0.131
-125.253	368.697	-0.150	-0.297
-124.239	-200.000	0.004	0.035
-123.224	401.978	-0.037	-0.076
-122.210	458.459	-0.089	0.194
-121.195	800.000	0.088	-0.257
