DTS Sentinel unit serial number:	SN413079Multiplexer serial number:	ORYXHardware model number:	OX4-SRSoftware version number:	ORYX F/W v4.00 Oryx Data Collector v3.7.2.0data status	okinstallation	princeton_trtdifferential loss correction	single-endedforward channel	channel 4reverse channel	N/Adate	2019/09/16time	09:09:34forward acquisition time	60.00reverse acquisition time	0.00gamma	496.2192k internal	0.2308k external	0.2308temperature offset calibration	0.9967default loss term (dB/km)	0.3790temperature slope calibration	1.0000multiplexer offset coefficient	1.0000multiplexer slope coefficient	1.0000fibre end	0.00T internal ref (°C)	30.89T ext. ref 1 (°C)	12.10T ext. ref 2 (°C)	28.25length (m)	temperature (°C)	Stokes	anti-Stokes-747.200	-88.719	0.050	0.015
-746.185	447.357	-0.056	0.125
-745.171	-2.369	0.382	0.272
-744.156	-33.399	0.102	0.057
-743.142	-5.607	-0.101	-0.070
-742.127	-200.000	-0.044	0.256
-741.112	-4.845	0.277	0.194
-740.098	-200.000	-0.037	-0.305
-739.083	-131.452	0.274	-0.037
-738.069	623.573	-0.083	0.211
-737.054	-200.000	0.029	-0.248
-736.039	-105.721	-0.272	-0.062
-735.025	-61.599	0.437	0.186
-734.010	34.499	-0.244	0.216
-732.996	197.206	-0.121	0.188
-731.981	-90.697	0.157	-0.046
-730.966	-200.000	0.012	0.251
-729.952	-200.000	0.011	-0.195
-728.937	214.657	-0.218	0.350
-727.923	-200.000	-0.026	-0.209
-726.908	37.437	0.155	0.140
-725.894	561.314	-0.113	-0.277
-724.879	-190.806	0.097	-0.001
-723.864	800.000	-0.082	-0.281
-722.850	-63.150	0.200	-0.084
-721.835	-200.000	-0.024	0.282
-720.821	-30.942	-0.269	-0.154
-719.806	37.871	-0.221	-0.199
-718.791	-46.855	-0.206	-0.102
-717.777	-200.000	0.021	0.303
-716.762	466.675	0.043	-0.099
-715.748	790.315	0.090	0.251
-714.733	638.658	-0.072	0.187
-713.718	-200.000	-0.007	-0.218
-712.704	-104.969	0.223	0.052
-711.689	-0.401	-0.069	0.050
-710.675	-200.000	0.020	-0.211
-709.660	385.439	-0.108	0.226
-708.645	800.000	-0.084	0.305
-707.631	32.756	-0.255	0.224
-706.616	-75.192	-0.075	-0.027
-705.602	-16.343	-0.263	-0.169
-704.587	-62.276	0.270	0.114
-703.572	-147.309	-0.317	0.027
-702.558	56.722	0.452	-0.446
-701.543	-200.000	0.012	-0.275
-700.529	96.807	-0.272	0.316
-699.514	-26.273	0.202	-0.120
-698.499	-98.756	-0.286	-0.074
-697.485	-105.144	-0.177	-0.041
-696.470	654.043	-0.100	-0.260
-695.456	624.236	0.084	0.214
-694.441	-71.041	-0.121	-0.046
-693.426	9.733	0.437	0.336
-692.412	-200.000	-0.025	-0.409
-691.397	279.356	-0.209	-0.379
-690.383	-200.000	-0.033	-0.364
-689.368	-87.369	-0.208	0.064
-688.354	68.997	-0.117	0.122
-687.339	-143.540	-0.338	0.033
-686.324	202.190	0.114	0.179
-685.310	-200.000	0.020	0.196
-684.295	-141.128	-0.220	-0.023
-683.281	800.000	0.086	0.361
-682.266	189.581	0.189	-0.287
-681.251	171.844	0.099	-0.145
-680.237	-58.585	-0.197	0.086
-679.222	-200.000	0.007	0.119
-678.208	-17.154	-0.185	0.118
-677.193	-138.694	-0.256	0.028
-676.178	44.860	0.100	-0.093
-675.164	800.000	-0.044	-0.131
-674.149	101.065	0.099	0.117
-673.135	-138.441	-0.132	0.015
-672.120	301.689	0.033	-0.062
-671.105	-166.888	-0.351	-0.015
-670.091	-140.820	0.072	0.008
-669.076	31.556	0.274	0.239
-668.062	45.893	-0.193	-0.181
-667.047	-200.000	-0.018	-0.351
-666.032	-200.000	-0.308	0.000
-665.018	-96.654	-0.197	0.053
-664.003	-97.159	0.050	-0.013
-662.989	-123.522	-0.037	0.006
-661.974	101.135	-0.140	0.165
-660.959	800.000	-0.046	0.144
-659.945	120.266	-0.172	0.217
-658.930	-78.510	0.172	0.060
-657.916	-34.538	-0.182	-0.101
-656.901	-27.920	-0.085	0.050
-655.886	-163.316	0.364	0.018
-654.872	-200.000	-0.046	-0.356
-653.857	-200.000	0.036	-0.174
-652.843	-54.742	-0.191	0.087
-651.828	800.000	0.045	0.151
-650.814	258.409	0.158	0.275
-649.799	-50.457	-0.170	0.081
-648.784	-68.145	0.064	0.025
-647.770	-61.649	-0.188	-0.080
-646.755	258.541	-0.043	-0.076
-645.741	19.798	0.307	0.250
-644.726	75.801	0.146	-0.156
-643.711	-51.465	0.201	0.095
-642.697	-200.000	-0.030	-0.253
-641.682	329.728	-0.120	-0.233
-640.668	-39.369	-0.201	-0.107
-639.653	37.685	-0.096	0.086
-638.638	-200.000	0.034	0.225
-637.624	-55.460	0.321	-0.146
-636.609	-76.065	-0.276	-0.099
-635.595	280.623	-0.195	-0.352
-634.580	-115.916	-0.274	-0.052
-633.565	-200.000	-0.018	0.213
-632.551	13.802	0.046	0.036
-631.536	382.489	-0.132	0.276
-630.522	351.251	0.165	0.330
-629.507	-19.691	-0.183	-0.115
-628.492	15.835	-0.131	-0.104
-627.478	15.545	-0.129	0.103
-626.463	-200.000	-0.010	0.069
-625.449	-49.331	-0.081	0.039
-624.434	253.917	0.276	-0.476
-623.419	18.264	-0.180	-0.145
-622.405	-169.794	-0.116	-0.004
-621.390	-200.000	-0.035	0.175
-620.376	-44.506	-0.163	-0.082
-619.361	-200.000	0.017	-0.145
-618.346	800.000	-0.012	0.045
-617.332	-4.405	0.241	-0.168
-616.317	800.000	0.054	0.192
-615.303	-86.972	-0.193	-0.059
-614.288	-162.615	-0.118	0.006
-613.273	99.899	0.235	0.275
-612.259	182.448	-0.093	-0.138
-611.244	800.000	-0.106	0.296
-610.230	-95.449	0.220	0.060
-609.215	63.332	0.311	-0.316
-608.201	-124.377	0.120	-0.019
-607.186	-101.808	-0.305	0.075
-606.171	-200.000	0.030	0.232
-605.157	-181.310	0.186	0.004
-604.142	174.954	0.130	-0.190
-603.128	-6.128	-0.117	0.081
-602.113	130.679	0.051	-0.066
-601.098	-200.000	-0.032	-0.216
-600.084	26.646	0.301	-0.254
-599.069	21.131	-0.174	-0.142
-598.055	40.314	-0.076	0.069
-597.040	-3.011	-0.104	0.073
-596.025	430.040	-0.061	-0.134
-595.011	-35.918	0.263	0.144
-593.996	800.000	0.026	0.086
-592.982	800.000	-0.068	-0.213
-591.967	-172.868	-0.361	0.011
-590.952	-200.000	-0.036	-0.527
-589.938	142.774	0.120	0.161
-588.923	-63.843	-0.217	-0.090
-587.909	-15.754	0.060	-0.039
-586.894	800.000	-0.065	0.201
-585.879	-33.427	0.222	0.124
-584.865	-12.942	0.113	-0.074
-583.850	70.981	0.053	-0.056
-582.836	-200.000	-0.002	-0.192
-581.821	-158.070	-0.189	-0.011
-580.806	-82.755	-0.218	0.071
-579.792	265.145	0.138	0.243
-578.777	136.747	-0.228	0.300
-577.763	-126.656	0.203	-0.030
-576.748	-200.000	0.013	0.304
-575.733	-21.171	-0.093	0.058
-574.719	-200.000	0.040	-0.284
-573.704	22.277	0.157	-0.129
-572.690	8.027	-0.029	0.022
-571.675	800.000	-0.021	-0.068
-570.661	-59.316	0.287	0.125
-569.646	800.000	-0.010	-0.030
-568.631	-83.252	-0.053	0.017
-567.617	800.000	0.053	-0.156
-566.602	-46.652	-0.078	-0.038
-565.588	61.967	0.067	0.068
-564.573	-132.458	-0.429	0.056
-563.558	-16.961	-0.032	-0.020
-562.544	391.941	0.047	0.098
-561.529	-56.683	-0.323	-0.144
-560.515	14.194	0.090	-0.071
-559.500	52.832	-0.403	-0.389
-558.485	108.487	-0.251	-0.302
-557.471	75.265	-0.149	-0.158
-556.456	-38.268	0.272	0.145
-555.442	-91.607	-0.253	-0.073
-554.427	800.000	0.024	0.103
-553.412	592.068	0.088	-0.219
-552.398	88.251	0.116	0.130
-551.383	-149.262	-0.253	-0.020
-550.369	-63.305	-0.239	-0.099
-549.354	-200.000	0.004	0.368
-548.339	252.780	-0.250	0.431
-547.325	800.000	0.035	-0.149
-546.310	-120.615	-0.384	-0.066
-545.296	60.614	0.203	-0.203
-544.281	10.619	0.099	0.076
-543.266	40.446	-0.106	-0.096
-542.252	-24.048	-0.107	-0.064
-541.237	-200.000	-0.013	-0.208
-540.223	15.032	0.128	-0.101
-539.208	354.637	-0.038	0.076
-538.193	-126.872	-0.275	0.041
-537.179	109.872	-0.090	0.109
-536.164	-75.094	-0.337	-0.122
-535.150	14.333	-0.109	-0.086
-534.135	348.716	-0.046	0.091
-533.121	44.123	0.248	0.229
-532.106	262.590	-0.014	0.024
-531.091	-146.504	-0.062	-0.005
-530.077	800.000	0.042	0.146
-529.062	-47.718	0.235	0.115
-528.048	800.000	-0.084	-0.271
-527.033	-200.000	0.035	0.166
-526.018	-103.805	0.167	0.039
-525.004	-200.000	0.056	0.271
-523.989	800.000	-0.061	-0.186
-522.975	-59.274	-0.363	0.157
-521.960	-200.000	0.050	0.392
-520.945	149.869	-0.104	-0.142
-519.931	242.807	-0.116	-0.196
-518.916	60.575	-0.328	-0.327
-517.902	-5.683	-0.070	-0.048
-516.887	47.803	0.170	0.160
-515.872	-184.411	0.252	-0.004
-514.858	60.297	-0.116	0.116
-513.843	1.896	-0.240	-0.174
-512.829	-35.552	-0.130	-0.071
-511.814	800.000	0.083	-0.241
-510.799	-60.916	-0.278	0.119
-509.785	212.552	-0.047	0.074
-508.770	-113.733	0.072	-0.014
-507.756	73.488	0.079	-0.083
-506.741	393.818	0.071	-0.148
-505.726	-53.654	-0.155	-0.071
-504.712	367.881	-0.204	-0.414
-503.697	58.239	0.150	-0.148
-502.683	-63.863	-0.167	-0.069
-501.668	-92.467	0.232	0.066
-500.653	-200.000	-0.039	0.174
-499.639	-200.000	0.013	0.379
-498.624	47.112	0.183	0.172
-497.610	-82.031	-0.214	0.070
-496.595	333.003	-0.029	-0.057
-495.581	9.900	-0.291	-0.222
-494.566	-9.773	0.068	0.046
-493.551	-140.851	0.256	0.027
-492.537	268.648	0.083	0.146
-491.522	-19.966	0.418	-0.260
-490.508	317.707	-0.014	0.026
-489.493	-69.973	0.237	-0.091
-488.478	-200.000	0.057	0.250
-487.464	112.716	-0.059	0.071
-486.449	428.205	-0.040	0.088
-485.435	91.799	-0.113	-0.128
-484.420	-83.359	0.178	0.057
-483.405	-200.000	-0.047	0.302
-482.391	219.146	0.091	-0.146
-481.376	81.339	-0.194	-0.211
-480.362	-200.000	-0.037	0.261
-479.347	227.082	0.071	0.116
-478.332	-96.640	-0.222	-0.059
-477.318	51.291	-0.134	-0.127
-476.303	-128.072	0.280	0.040
-475.289	48.370	0.137	-0.129
-474.274	47.869	-0.082	0.077
-473.259	123.997	-0.213	0.269
-472.245	-200.000	0.004	-0.089
-471.230	-151.308	-0.308	0.023
-470.216	5.913	-0.029	-0.022
-469.201	-82.103	-0.157	-0.052
-468.186	-68.696	0.306	-0.119
-467.172	800.000	-0.156	-0.454
-466.157	152.164	0.041	-0.056
-465.143	317.372	-0.113	-0.215
-464.128	-74.944	-0.415	0.149
-463.113	15.075	0.115	0.091
-462.099	37.613	-0.083	-0.074
-461.084	314.344	-0.115	-0.218
-460.070	-51.715	0.025	0.012
-459.055	312.804	-0.022	0.041
-458.040	310.517	-0.113	0.212
-457.026	26.723	0.136	0.114
-456.011	800.000	-0.086	0.354
-454.997	-169.415	0.165	-0.006
-453.982	501.272	-0.069	-0.160
-452.968	-115.453	0.078	0.015
-451.953	-87.706	-0.186	0.056
-450.938	80.565	0.292	0.317
-449.924	273.787	0.177	0.315
-448.909	-105.137	-0.072	0.017
-447.895	-200.000	-0.025	0.290
-446.880	-75.375	0.363	0.130
-445.865	193.296	0.150	-0.229
-444.851	-115.865	-0.182	0.034
-443.836	-14.181	0.344	-0.223
-442.822	56.112	-0.343	0.335
-441.807	-50.452	0.165	0.078
-440.792	276.799	-0.140	0.251
-439.778	-200.000	0.021	-0.182
-438.763	102.332	0.143	-0.168
-437.749	242.090	-0.154	0.259
-436.734	-175.864	0.072	-0.002
-435.719	212.247	0.039	-0.062
-434.705	253.667	-0.060	0.103
-433.690	769.436	-0.176	-0.480
-432.676	32.910	-0.164	-0.143
-431.661	800.000	0.139	0.397
-430.646	-200.000	0.007	-0.183
-429.632	134.980	0.085	-0.111
-428.617	-42.834	-0.105	-0.054
-427.603	-76.020	-0.301	0.107
-426.588	76.925	0.067	0.071
-425.573	21.050	0.208	-0.169
-424.559	199.114	0.339	-0.522
-423.544	13.060	-0.178	-0.139
-422.530	235.698	-0.142	-0.235
-421.515	-200.000	-0.003	0.055
-420.500	565.685	0.029	-0.071
-419.486	27.591	-0.128	0.108
-418.471	289.052	0.044	-0.080
-417.457	-98.195	-0.208	-0.054
-416.442	177.812	0.071	-0.104
-415.428	-200.000	-0.023	-0.260
-414.413	-101.792	0.017	0.004
-413.398	-88.278	-0.097	0.029
-412.384	-24.548	-0.272	-0.163
-411.369	-120.501	0.339	0.058
-410.355	62.677	-0.163	-0.164
-409.340	-129.368	0.330	0.046
-408.325	-147.939	0.440	-0.037
-407.311	3.180	0.258	-0.188
-406.296	-107.388	-0.314	-0.069
-405.282	-200.000	-0.001	-0.046
-404.267	544.730	0.046	0.109
-403.252	24.229	-0.095	0.078
-402.238	-122.973	-0.344	-0.056
-401.223	54.942	0.109	0.105
-400.209	-10.326	-0.231	0.154
-399.194	-100.350	0.160	-0.040
-398.179	-53.569	-0.051	0.024
-397.165	18.284	0.164	0.132
-396.150	-3.252	0.336	0.235
-395.136	800.000	-0.049	-0.183
-394.121	800.000	0.043	-0.151
-393.106	-49.001	0.344	0.165
-392.092	-64.935	0.408	-0.165
-391.077	187.520	0.233	0.349
-390.063	116.859	0.202	-0.248
-389.048	-200.000	-0.007	0.120
-388.033	57.808	-0.265	0.259
-387.019	12.827	-0.214	-0.166
-386.004	-70.469	-0.185	-0.070
-384.990	-97.791	-0.338	-0.088
-383.975	-200.000	-0.032	0.296
-382.960	-200.000	-0.008	-0.034
-381.946	115.483	-0.165	0.201
-380.931	-89.518	-0.291	-0.086
-379.917	-44.976	-0.380	-0.189
-378.902	56.518	-0.144	0.140
-377.888	528.190	0.080	0.189
-376.873	-200.000	-0.009	-0.268
-375.858	-67.896	-0.385	0.151
-374.844	183.140	-0.196	-0.291
-373.829	800.000	0.067	0.184
-372.815	502.127	0.084	-0.195
-371.800	-70.198	0.397	0.151
-370.785	184.394	0.115	0.170
-369.771	37.464	0.252	0.224
-368.756	-52.060	0.469	0.218
-367.742	223.671	0.081	0.130
-366.727	55.649	0.046	0.045
-365.712	38.689	0.181	-0.162
-364.698	-200.000	-0.031	-0.209
-363.683	800.000	0.070	-0.224
-362.669	166.684	-0.099	-0.141
-361.654	-82.428	-0.115	0.037
-360.639	-200.000	0.000	0.163
-359.625	-147.083	0.395	0.034
-358.610	-142.369	-0.199	0.020
-357.596	800.000	-0.121	-0.352
-356.581	-90.699	-0.365	0.106
-355.566	-69.075	-0.302	0.117
-354.552	-107.007	-0.248	0.055
-353.537	-200.000	0.010	-0.111
-352.523	366.212	-0.017	0.034
-351.508	-200.000	-0.078	0.000
-350.493	-65.801	-0.327	0.131
-349.479	440.834	-0.016	-0.035
-348.464	-110.075	0.207	-0.043
-347.450	23.110	0.154	0.127
-346.435	-87.962	0.279	-0.084
-345.420	7.989	-0.052	0.039
-344.406	-129.347	-0.092	-0.013
-343.391	-100.311	0.136	-0.034
-342.377	-45.418	0.126	-0.062
-341.362	-35.247	0.208	-0.113
-340.348	-200.000	0.009	-0.087
-339.333	-200.000	-0.015	0.088
-338.318	229.165	0.054	0.088
-337.304	140.126	0.355	0.469
-336.289	-200.000	-0.008	-0.109
-335.275	677.447	0.114	0.296
-334.260	110.926	0.103	0.124
-333.245	446.153	0.062	0.137
-332.231	-127.591	0.287	-0.042
-331.216	800.000	0.015	-0.046
-330.202	-200.000	-0.046	-0.307
-329.187	119.644	0.210	-0.261
-328.172	800.000	0.077	-0.330
-327.158	-200.000	-0.020	-0.223
-326.143	-84.338	-0.075	0.024
-325.129	-81.243	0.319	-0.105
-324.114	784.573	-0.134	0.368
-323.099	159.891	0.189	-0.263
-322.085	124.450	0.246	-0.310
-321.070	-130.455	-0.100	-0.013
-320.056	169.672	0.123	-0.176
-319.041	0.382	-0.387	0.276
-318.026	-200.000	-0.031	0.413
-317.012	-49.365	-0.140	-0.067
-315.997	96.733	0.037	-0.042
-314.983	-31.999	0.128	-0.072
-313.968	376.610	-0.034	-0.068
-312.953	78.405	-0.157	0.167
-311.939	-90.815	-0.327	-0.094
-310.924	-162.924	0.232	0.011
-309.910	-150.420	0.254	0.019
-308.895	-47.253	0.180	-0.087
-307.880	-42.335	0.045	0.023
-306.866	-143.945	0.137	-0.013
-305.851	-200.000	-0.045	0.462
-304.837	-200.000	0.057	0.349
-303.822	50.299	-0.089	0.084
-302.807	800.000	0.099	0.387
-301.793	-74.300	0.148	0.053
-300.778	-38.476	0.168	-0.088
-299.764	44.822	0.248	-0.228
-298.749	-42.739	0.335	0.170
-297.735	11.794	0.155	-0.119
-296.720	291.974	0.091	-0.166
-295.705	-134.952	0.211	0.025
-294.691	107.248	-0.084	-0.100
-293.676	15.701	-0.138	0.109
-292.662	-200.000	-0.001	0.181
-291.647	-93.357	-0.179	0.049
-290.632	383.549	0.063	0.130
-289.618	-139.348	0.165	-0.018
-288.603	-153.161	0.278	0.019
-287.589	-79.495	-0.251	-0.085
-286.574	-200.000	0.030	-0.393
-285.559	-102.642	0.320	-0.076
-284.545	800.000	0.008	-0.032
-283.530	-8.596	-0.165	0.111
-282.516	800.000	0.095	0.275
-281.501	10.433	0.231	-0.175
-280.486	191.345	0.124	0.186
-279.472	800.000	0.127	-0.546
-278.457	-36.553	0.341	-0.183
-277.443	-200.000	0.014	-0.242
-276.428	-39.968	0.093	0.048
-275.413	199.313	-0.149	-0.228
-274.399	800.000	-0.111	-0.405
-273.384	127.770	0.086	0.109
-272.370	24.901	-0.236	-0.195
-271.355	529.961	-0.074	0.174
-270.340	-82.152	0.162	0.053
-269.326	800.000	-0.138	0.412
-268.311	81.712	0.232	0.251
-267.297	119.506	0.204	-0.252
-266.282	-128.060	-0.238	0.034
-265.267	153.131	-0.167	0.228
-264.253	-116.758	0.394	0.072
-263.238	-80.979	0.244	0.081
-262.224	-125.434	-0.162	0.025
-261.209	-200.000	-0.097	0.750
-260.195	-14.527	-0.315	0.202
-259.180	-24.160	-0.292	-0.174
-258.165	-94.968	0.170	0.046
-257.151	-200.000	0.014	0.062
-256.136	202.868	-0.241	-0.372
-255.122	800.000	-0.071	0.257
-254.107	191.604	-0.145	0.218
-253.092	7.073	0.098	-0.073
-252.078	-82.598	-0.173	0.056
-251.063	-109.726	-0.113	0.024
-250.049	-27.683	-0.271	0.157
-249.034	-200.000	0.001	0.336
-248.019	800.000	0.063	-0.237
-247.005	199.465	-0.038	-0.058
-245.990	357.276	0.151	-0.299
-244.976	16.367	-0.170	-0.134
-243.961	800.000	-0.072	-0.252
-242.946	192.236	0.165	0.247
-241.932	800.000	-0.047	0.197
-240.917	800.000	0.106	0.405
-239.903	9.484	-0.342	0.258
-238.888	110.303	0.148	0.177
-237.873	800.000	0.058	0.170
-236.859	800.000	-0.115	0.385
-235.844	-36.010	-0.143	0.077
-234.830	171.208	0.047	-0.068
-233.815	404.349	-0.077	0.163
-232.800	425.917	0.021	0.045
-231.786	-200.000	-0.043	0.263
-230.771	20.477	0.169	-0.136
-229.757	5.780	0.103	0.076
-228.742	168.046	0.173	0.246
-227.727	-81.279	-0.113	-0.037
-226.713	-9.402	-0.309	-0.206
-225.698	-40.911	0.048	0.025
-224.684	-2.942	0.180	0.125
-223.669	-28.322	-0.287	-0.165
-222.655	-63.870	-0.272	-0.111
-221.640	629.121	0.020	0.052
-220.625	-162.435	0.149	-0.007
-219.611	144.511	0.219	-0.292
-218.596	-178.210	-0.073	0.002
-217.582	47.607	-0.174	-0.162
-216.567	123.543	-0.053	-0.066
-215.552	-200.000	0.019	0.199
-214.538	800.000	0.005	-0.016
-213.523	258.243	0.024	0.040
-212.509	-116.366	-0.249	-0.046
-211.494	-200.000	-0.042	0.262
-210.479	311.422	0.054	0.101
-209.465	-134.348	0.283	-0.035
-208.450	407.668	-0.064	-0.135
-207.436	-147.315	-0.210	0.018
-206.421	-117.673	-0.237	0.042
-205.406	762.530	0.169	0.455
-204.392	800.000	0.112	-0.318
-203.377	110.185	0.128	0.153
-202.363	690.154	-0.081	0.210
-201.348	59.944	0.278	-0.273
-200.333	-100.316	0.235	-0.058
-199.319	-92.255	-0.015	0.004
-198.304	-104.617	-0.444	0.102
-197.290	774.554	-0.099	-0.269
-196.275	188.380	-0.009	-0.014
-195.260	58.383	0.105	0.103
-194.246	800.000	-0.060	0.187
-193.231	800.000	0.052	-0.178
-192.217	71.514	0.125	-0.129
-191.202	356.713	-0.186	-0.369
-190.187	261.388	-0.016	-0.028
-189.173	154.799	0.212	0.290
-188.158	275.250	-0.102	-0.180
-187.144	-39.185	0.161	-0.084
-186.129	-121.099	-0.023	-0.004
-185.114	-122.394	-0.234	-0.038
-184.100	-200.000	-0.006	0.170
-183.085	-47.228	0.120	0.058
-182.071	199.973	-0.160	-0.243
-181.056	160.371	0.205	-0.284
-180.042	-116.222	0.397	0.073
-179.027	7.673	0.144	0.107
-178.012	-12.076	-0.044	-0.028
-176.998	-200.000	0.000	0.078
-175.983	-71.500	-0.245	-0.091
-174.969	-200.000	0.011	0.069
-173.954	-200.000	0.018	-0.159
-172.939	-200.000	0.038	0.418
-171.925	-64.648	0.270	0.109
-170.910	98.222	-0.228	-0.261
-169.896	-143.797	-0.075	0.007
-168.881	4.708	0.107	-0.078
-167.866	254.875	0.199	-0.338
-166.852	55.959	0.046	-0.044
-165.837	432.258	0.021	0.045
-164.823	72.626	0.161	0.167
-163.808	-200.000	0.013	0.256
-162.793	-101.405	0.296	-0.072
-161.779	-132.256	0.276	-0.036
-160.764	-200.000	0.024	-0.428
-159.750	42.523	0.144	-0.130
-158.735	-99.929	-0.422	0.105
-157.720	-118.170	0.241	-0.043
-156.706	800.000	0.063	0.251
-155.691	-200.000	0.033	0.298
-154.677	266.442	0.104	-0.181
-153.662	261.751	-0.178	-0.307
-152.647	800.000	-0.026	-0.091
-151.633	-107.145	0.253	-0.055
-150.618	-9.015	-0.145	-0.096
-149.604	-93.716	0.329	0.090
-148.589	-0.654	-0.268	0.189
-147.574	-200.000	0.009	0.182
-146.560	-200.000	0.023	0.156
-145.545	717.186	-0.110	0.291
-144.531	-10.276	-0.250	0.165
-143.516	-32.542	0.098	0.054
-142.502	96.821	0.185	0.211
-141.487	-96.105	0.210	0.056
-140.472	-37.429	-0.154	0.082
-139.458	19.844	-0.107	0.086
-138.443	28.509	0.288	0.242
-137.429	-112.467	0.142	0.028
-136.414	-89.765	-0.104	-0.030
-135.399	-200.000	0.048	-0.237
-134.385	-0.482	-0.312	-0.220
-133.370	174.168	-0.152	0.218
-132.356	-21.259	-0.153	0.093
-131.341	-182.242	0.292	0.005
-130.326	84.823	0.177	-0.192
-129.312	-45.916	-0.158	-0.077
-128.297	-31.414	0.368	0.206
-127.283	-45.065	-0.484	-0.239
-126.268	699.557	0.060	0.156
-125.253	766.730	-0.131	0.353
-124.239	169.253	-0.057	0.081
-123.224	-200.000	0.046	0.498
-122.210	800.000	0.020	0.076
-121.195	-89.080	0.653	0.192
-120.180	88.686	-0.090	0.099
