DTS Sentinel unit serial number:	SN413079Multiplexer serial number:	ORYXHardware model number:	OX4-SRSoftware version number:	ORYX F/W v4.00 Oryx Data Collector v3.7.2.0data status	okinstallation	princeton_trtdifferential loss correction	single-endedforward channel	channel 4reverse channel	N/Adate	2019/09/14time	09:53:35forward acquisition time	60.00reverse acquisition time	0.00gamma	496.2192k internal	0.2302k external	0.2302temperature offset calibration	1.0136default loss term (dB/km)	0.3790temperature slope calibration	1.0000multiplexer offset coefficient	1.0000multiplexer slope coefficient	1.0000fibre end	0.00T internal ref (°C)	32.67T ext. ref 1 (°C)	3.96T ext. ref 2 (°C)	31.03length (m)	temperature (°C)	Stokes	anti-Stokes-747.200	-200.000	-0.024	0.203
-746.185	-200.000	0.084	0.416
-745.171	149.826	0.035	-0.049
-744.156	4.349	-0.297	0.222
-743.142	-61.363	-0.109	-0.047
-742.127	-97.753	-0.147	0.039
-741.112	364.733	-0.159	-0.326
-740.098	144.974	-0.199	0.272
-739.083	637.750	0.082	0.212
-738.069	145.427	-0.189	0.258
-737.054	-200.000	-0.046	0.295
-736.039	50.698	-0.367	0.353
-735.025	800.000	-0.096	0.408
-734.010	-81.667	-0.353	0.118
-732.996	-200.000	-0.045	-0.287
-731.981	52.743	-0.125	0.121
-730.966	-144.055	-0.179	-0.017
-729.952	800.000	-0.039	-0.117
-728.937	-200.000	-0.003	-0.352
-727.923	-200.000	-0.001	0.193
-726.908	72.334	-0.102	-0.108
-725.894	-119.171	-0.057	0.010
-724.879	-200.000	0.003	0.082
-723.864	-115.184	-0.325	-0.063
-722.850	-101.369	-0.171	0.042
-721.835	54.966	-0.305	-0.300
-720.821	800.000	-0.062	-0.242
-719.806	32.600	-0.348	0.306
-718.791	-44.021	-0.173	0.088
-717.777	217.190	0.201	0.325
-716.762	-78.862	-0.239	0.083
-715.748	-200.000	-0.004	-0.243
-714.733	-136.273	-0.250	-0.030
-713.718	-200.000	0.026	-0.271
-712.704	52.340	0.066	-0.065
-711.689	-11.695	-0.250	-0.167
-710.675	109.802	-0.153	-0.186
-709.660	416.554	-0.113	-0.245
-708.645	-79.549	-0.263	-0.090
-707.631	115.284	-0.104	-0.129
-706.616	-200.000	-0.050	0.235
-705.602	247.506	0.105	-0.181
-704.587	363.900	-0.046	-0.095
-703.572	-200.000	-0.033	-0.185
-702.558	-122.965	-0.121	-0.020
-701.543	-42.926	-0.122	-0.063
-700.529	-200.000	-0.068	0.320
-699.514	-200.000	0.002	-0.021
-698.499	630.782	0.098	-0.252
-697.485	-92.513	-0.246	0.070
-696.470	228.373	-0.053	-0.089
-695.456	-54.202	-0.367	-0.170
-694.441	-166.401	0.176	0.008
-693.426	374.819	0.182	-0.376
-692.412	-200.000	0.000	-0.007
-691.397	222.675	0.157	0.256
-690.383	-101.939	-0.242	0.060
-689.368	-89.385	-0.321	0.096
-688.354	-22.989	0.126	-0.077
-687.339	800.000	0.052	-0.155
-686.324	59.210	0.030	0.030
-685.310	-128.521	-0.297	0.043
-684.295	800.000	0.036	0.132
-683.281	-200.000	0.010	0.120
-682.266	40.596	-0.273	0.250
-681.251	-200.000	0.017	-0.201
-680.237	124.778	-0.112	-0.143
-679.222	800.000	-0.042	0.125
-678.208	519.515	-0.109	0.261
-677.193	-200.000	-0.015	0.185
-676.178	-31.472	0.066	-0.038
-675.164	-26.080	0.040	-0.024
-674.149	6.737	0.181	0.137
-673.135	5.118	-0.067	0.050
-672.120	-200.000	-0.012	0.193
-671.105	139.270	0.283	0.379
-670.091	-86.586	-0.184	0.057
-669.076	185.742	-0.145	-0.219
-668.062	294.318	-0.026	-0.047
-667.047	-138.287	0.320	-0.036
-666.032	-93.272	-0.209	0.059
-665.018	294.255	-0.083	-0.154
-664.003	-200.000	0.026	-0.155
-662.989	-197.566	-0.146	0.001
-661.974	-131.079	0.192	0.026
-660.959	-37.216	-0.247	-0.134
-659.945	-39.792	-0.090	-0.048
-658.930	-200.000	-0.045	-0.231
-657.916	-200.000	0.016	0.308
-656.901	-127.129	0.450	-0.067
-655.886	2.229	-0.223	-0.164
-654.872	-200.000	-0.024	0.177
-653.857	38.576	-0.151	-0.137
-652.843	59.594	-0.028	-0.028
-651.828	-94.134	-0.055	-0.015
-650.814	-46.395	0.212	-0.106
-649.799	-14.737	-0.302	-0.197
-648.784	-56.987	-0.260	-0.117
-647.770	-81.572	-0.227	0.076
-646.755	-116.343	0.182	0.034
-645.741	-147.331	0.026	-0.002
-644.726	119.244	-0.042	-0.053
-643.711	-93.573	0.165	-0.046
-642.697	-59.152	-0.273	0.120
-641.682	-170.952	-0.170	0.006
-640.668	27.206	-0.162	0.138
-639.653	-4.910	-0.170	-0.119
-638.638	-200.000	0.046	0.294
-637.624	303.018	-0.067	0.125
-636.609	64.020	-0.135	0.138
-635.595	-185.212	-0.248	-0.004
-634.580	-64.278	0.319	-0.132
-633.565	20.042	-0.032	-0.026
-632.551	-81.001	-0.223	0.075
-631.536	125.116	0.206	-0.263
-630.522	322.036	0.157	-0.303
-629.507	96.580	-0.108	0.125
-628.492	800.000	0.064	0.259
-627.478	-174.043	-0.416	-0.012
-626.463	14.064	-0.159	0.125
-625.449	-105.308	0.133	0.031
-624.434	-91.577	0.210	0.061
-623.419	-117.375	0.138	0.025
-622.405	-92.599	-0.204	-0.058
-621.390	-74.701	0.139	-0.051
-620.376	623.825	0.131	-0.334
-619.361	-105.650	-0.199	0.046
-618.346	264.604	0.053	-0.093
-617.332	269.900	-0.078	0.140
-616.317	-42.018	0.070	0.036
-615.303	-61.300	-0.080	0.034
-614.288	-127.509	-0.321	0.047
-613.273	-47.147	-0.415	-0.205
-612.259	8.613	-0.152	-0.116
-611.244	-200.000	-0.004	0.237
-610.230	31.965	-0.095	0.083
-609.215	-200.000	-0.072	0.417
-608.201	-200.000	0.027	0.243
-607.186	-200.000	0.013	0.269
-606.171	-166.243	0.145	-0.006
-605.157	242.567	0.113	-0.191
-604.142	734.406	-0.046	-0.126
-603.128	397.649	-0.069	-0.146
-602.113	-83.540	0.097	0.031
-601.098	-200.000	-0.046	-0.245
-600.084	-41.383	0.392	-0.204
-599.069	-50.885	-0.054	0.026
-598.055	-51.630	-0.205	-0.097
-597.040	-114.947	0.108	0.021
-596.025	231.087	-0.087	0.144
-595.011	6.340	-0.188	0.141
-593.996	636.009	-0.057	0.145
-592.982	-101.662	0.035	-0.009
-591.967	139.987	-0.082	-0.109
-590.952	-200.000	0.010	-0.149
-589.938	800.000	0.073	0.225
-588.923	800.000	-0.113	-0.431
-587.909	800.000	0.113	-0.350
-586.894	409.466	-0.166	0.357
-585.879	-87.316	-0.040	-0.012
-584.865	-200.000	-0.017	-0.111
-583.850	-200.000	0.007	-0.086
-582.836	-78.839	0.166	-0.057
-581.821	-23.851	0.143	-0.087
-580.806	-101.773	0.393	-0.096
-579.792	-35.366	-0.165	-0.091
-578.777	510.224	0.030	0.071
-577.763	21.219	-0.170	-0.139
-576.748	77.493	-0.188	0.203
-575.733	-42.494	-0.213	0.110
-574.719	-164.283	-0.365	0.017
-573.704	250.243	-0.155	0.267
-572.690	139.568	0.115	-0.154
-571.675	-73.835	0.239	-0.088
-570.661	-70.570	0.214	0.082
-569.646	-200.000	-0.012	0.064
-568.631	800.000	0.046	0.172
-567.617	-35.457	0.227	0.125
-566.602	-185.708	0.082	-0.001
-565.588	-106.572	0.132	0.030
-564.573	-113.551	-0.119	0.024
-563.558	-64.991	0.293	-0.120
-562.544	381.226	-0.132	0.275
-561.529	333.219	-0.135	-0.263
-560.515	-200.000	0.021	0.101
-559.500	-200.000	0.013	0.153
-558.485	-117.581	0.154	-0.028
-557.471	614.131	0.107	-0.271
-556.456	-181.357	-0.263	-0.005
-555.442	212.077	-0.026	-0.041
-554.427	-52.779	0.093	0.043
-553.412	800.000	-0.101	-0.396
-552.398	-108.230	-0.114	0.025
-551.383	-126.886	-0.277	-0.041
-550.369	473.553	0.041	-0.092
-549.354	590.398	0.033	-0.081
-548.339	-80.572	0.123	-0.041
-547.325	207.424	0.160	-0.252
-546.310	-67.611	-0.261	-0.103
-545.296	113.402	-0.181	-0.222
-544.281	800.000	-0.070	0.231
-543.266	800.000	0.036	-0.129
-542.252	-200.000	0.082	-0.433
-541.237	800.000	-0.091	-0.300
-540.223	800.000	0.059	0.175
-539.208	-133.538	-0.143	-0.018
-538.193	-155.664	0.163	-0.011
-537.179	504.921	-0.060	-0.139
-536.164	-200.000	-0.021	0.358
-535.150	46.726	-0.100	0.094
-534.135	-113.879	-0.302	-0.059
-533.121	800.000	-0.071	-0.270
-532.106	-200.000	0.011	0.400
-531.091	136.388	0.130	0.172
-530.077	-154.262	0.199	0.014
-529.062	506.677	-0.064	-0.150
-528.048	96.363	-0.108	0.124
-527.033	-155.253	0.210	0.014
-526.018	-200.000	-0.034	0.296
-525.004	140.496	-0.025	-0.033
-523.989	-200.000	0.010	-0.108
-522.975	-60.178	0.142	0.061
-521.960	100.986	0.247	-0.290
-520.945	592.601	-0.198	0.494
-519.931	592.443	0.020	-0.050
-518.916	-200.000	-0.022	-0.210
-517.902	-93.739	0.176	-0.049
-516.887	401.867	0.055	-0.116
-515.872	-133.492	0.439	-0.056
-514.858	-200.000	0.021	0.278
-513.843	249.396	-0.062	0.107
-512.829	4.673	0.275	0.204
-511.814	-71.422	0.132	0.050
-510.799	-150.634	-0.329	0.025
-509.785	-30.105	-0.130	-0.075
-508.770	135.231	-0.101	-0.133
-507.756	-200.000	0.047	-0.212
-506.741	-166.837	-0.238	-0.010
-505.726	345.293	-0.084	-0.166
-504.712	-67.874	-0.289	-0.114
-503.697	-0.720	0.205	-0.147
-502.683	427.698	-0.159	0.345
-501.668	-200.000	0.010	0.226
-500.653	800.000	0.110	0.371
-499.639	15.173	0.109	-0.086
-498.624	-71.151	0.223	0.084
-497.610	-38.133	-0.079	0.042
-496.595	30.231	-0.120	-0.103
-495.581	495.852	-0.142	0.330
-494.566	-200.000	0.025	0.215
-493.551	800.000	-0.122	0.433
-492.537	-13.781	0.078	0.051
-491.522	800.000	-0.047	-0.174
-490.508	-200.000	0.010	0.057
-489.493	-50.000	0.175	0.084
-488.478	-78.190	0.136	0.047
-487.464	176.325	0.217	0.317
-486.449	800.000	-0.079	-0.337
-485.435	-27.648	-0.264	0.155
-484.420	-140.804	0.188	-0.020
-483.405	100.432	0.126	-0.147
-482.391	-127.448	-0.128	0.019
-481.376	-59.261	-0.393	0.171
-480.362	-77.134	0.234	-0.082
-479.347	209.131	0.209	-0.330
-478.332	-200.000	-0.021	-0.319
-477.318	131.764	0.119	-0.154
-476.303	-200.000	0.039	0.402
-475.289	115.459	-0.202	0.249
-474.274	-55.671	0.244	-0.110
-473.259	-79.978	-0.053	-0.018
-472.245	800.000	0.038	-0.137
-471.230	-28.036	-0.234	0.137
-470.216	336.806	-0.149	-0.292
-469.201	-2.333	-0.173	0.122
-468.186	-91.154	-0.090	0.026
-467.172	-106.756	0.181	0.041
-466.157	-125.806	0.247	-0.038
-465.143	-52.133	-0.234	-0.109
-464.128	61.859	0.101	0.102
-463.113	-200.000	-0.003	0.014
-462.099	800.000	-0.090	-0.256
-461.084	-200.000	0.015	-0.467
-460.070	312.759	-0.205	-0.389
-459.055	800.000	-0.080	0.264
-458.040	100.724	-0.131	0.153
-457.026	95.575	-0.255	0.293
-456.011	252.461	0.218	-0.375
-454.997	-200.000	0.001	0.220
-453.982	-133.029	0.244	0.031
-452.968	-132.022	-0.052	-0.007
-451.953	143.645	-0.092	-0.123
-450.938	83.025	0.079	-0.086
-449.924	-137.648	-0.194	0.022
-448.909	800.000	0.080	-0.290
-447.895	-200.000	-0.017	-0.088
-446.880	-95.185	-0.208	0.057
-445.865	7.329	-0.067	0.051
-444.851	-151.325	-0.042	-0.003
-443.836	-1.029	-0.333	0.237
-442.822	-200.000	0.033	-0.257
-441.807	443.922	0.025	-0.055
-440.792	74.125	-0.148	0.157
-439.778	-116.837	-0.274	0.051
-438.763	47.698	0.142	0.133
-437.749	172.699	-0.181	0.262
-436.734	16.120	-0.290	-0.230
-435.719	-200.000	-0.029	-0.161
-434.705	-200.000	0.016	-0.213
-433.690	-87.842	0.191	0.058
-432.676	492.218	-0.115	-0.265
-431.661	800.000	-0.026	0.092
-430.646	800.000	-0.111	0.324
-429.632	153.464	-0.068	-0.093
-428.617	284.804	-0.071	-0.128
-427.603	-133.458	-0.080	0.010
-426.588	-200.000	-0.011	-0.140
-425.573	628.689	0.028	0.070
-424.559	-200.000	-0.009	-0.196
-423.544	11.024	-0.251	-0.193
-422.530	56.894	-0.060	0.058
-421.515	179.347	-0.135	-0.198
-420.500	105.544	-0.091	-0.108
-419.486	-7.479	0.197	0.134
-418.471	364.997	0.061	-0.123
-417.457	-10.807	-0.076	-0.051
-416.442	73.283	-0.080	0.084
-415.428	703.254	0.032	0.086
-414.413	-181.007	-0.150	-0.003
-413.398	254.515	-0.121	0.208
-412.384	-145.895	0.111	0.010
-411.369	-189.756	-0.385	-0.004
-410.355	375.979	-0.196	0.403
-409.340	-200.000	0.005	-0.157
-408.325	78.122	-0.108	0.116
-407.311	800.000	0.077	0.220
-406.296	-72.513	-0.067	-0.025
-405.282	-200.000	-0.035	-0.293
-404.267	-48.183	-0.267	-0.130
-403.252	123.925	0.071	-0.089
-402.238	-49.013	-0.069	0.033
-401.223	237.453	0.059	-0.098
-400.209	133.457	0.176	0.229
-399.194	90.886	-0.151	-0.170
-398.179	72.048	0.285	-0.299
-397.165	-15.200	0.143	-0.092
-396.150	382.610	0.135	0.280
-395.136	-79.333	-0.161	-0.055
-394.121	227.320	-0.076	-0.125
-393.106	-36.087	-0.238	-0.129
-392.092	-148.240	0.280	-0.023
-391.077	-165.188	-0.318	0.014
-390.063	482.460	0.136	0.312
-389.048	-80.572	0.141	-0.047
-388.033	-64.947	-0.189	0.077
-387.019	403.079	0.117	-0.248
-386.004	800.000	-0.050	0.191
-384.990	-164.134	0.211	0.010
-383.975	-200.000	-0.018	0.165
-382.960	-15.789	0.274	0.176
-381.946	-89.069	0.272	0.081
-380.931	-60.089	-0.309	0.132
-379.917	7.255	-0.204	0.153
-378.902	-186.969	0.169	-0.002
-377.888	-123.215	-0.199	-0.032
-376.873	-183.888	0.191	-0.003
-375.858	-177.787	-0.241	-0.006
-374.844	13.269	-0.187	0.145
-373.829	800.000	0.051	0.165
-372.815	323.760	-0.090	0.173
-371.800	-200.000	-0.065	0.472
-370.785	-200.000	0.001	0.019
-369.771	48.770	-0.061	0.057
-368.756	241.899	-0.065	0.108
-367.742	484.805	-0.048	0.110
-366.727	398.856	0.144	0.303
-365.712	-200.000	-0.016	0.126
-364.698	-200.000	-0.017	-0.196
-363.683	-129.529	0.301	-0.042
-362.669	163.944	0.071	-0.100
-361.654	618.734	0.026	-0.066
-360.639	72.080	0.034	-0.036
-359.625	153.660	-0.209	0.288
-358.610	25.018	-0.143	-0.119
-357.596	-72.420	0.323	-0.120
-356.581	-200.000	-0.023	-0.548
-355.566	59.515	0.141	-0.139
-354.552	-131.387	0.029	-0.004
-353.537	-129.960	0.266	0.037
-352.523	-68.558	-0.109	0.043
-351.508	-181.723	-0.097	0.002
-350.493	61.154	-0.198	-0.197
-349.479	-105.750	0.077	-0.017
-348.464	-96.339	-0.435	0.116
-347.450	202.023	0.271	-0.420
-346.435	285.412	0.055	0.100
-345.420	380.713	0.127	0.262
-344.406	-200.000	0.049	0.234
-343.391	-42.188	-0.126	0.065
-342.377	108.611	-0.050	0.060
-341.362	392.634	-0.128	-0.268
-340.348	407.842	-0.050	0.107
-339.333	34.309	-0.294	0.257
-338.318	466.077	-0.124	0.278
-337.304	800.000	0.098	-0.283
-336.289	47.689	0.093	0.087
-335.275	-46.882	-0.260	0.128
-334.260	668.507	0.033	0.086
-333.245	462.187	-0.156	0.350
-332.231	800.000	0.021	0.079
-331.216	128.678	-0.110	-0.141
-330.202	2.065	-0.082	0.060
-329.187	-8.822	0.266	-0.179
-328.172	-200.000	0.006	-0.173
-327.158	-49.750	0.246	0.117
-326.143	-61.403	0.244	0.103
-325.129	-200.000	-0.004	0.364
-324.114	-77.156	0.277	0.097
-323.099	-13.835	-0.291	-0.189
-322.085	34.699	-0.123	-0.108
-321.070	-28.046	0.125	-0.072
-320.056	21.569	-0.115	-0.094
-319.041	43.248	-0.194	-0.177
-318.026	-84.753	-0.243	-0.077
-317.012	-23.926	0.094	-0.056
-315.997	-146.595	-0.235	-0.020
-314.983	-104.089	-0.095	0.022
-313.968	61.876	-0.228	-0.228
-312.953	72.459	-0.084	0.087
-311.939	-123.244	-0.203	-0.033
-310.924	9.206	-0.238	-0.180
-309.910	-127.261	0.129	0.019
-308.895	116.584	-0.047	0.058
-307.880	800.000	0.046	0.141
-306.866	-119.339	0.155	-0.027
-305.851	-117.749	0.062	0.011
-304.837	-85.170	0.405	0.127
-303.822	213.277	0.161	-0.254
-302.807	-39.974	0.222	-0.116
-301.793	-200.000	-0.010	0.101
-300.778	193.422	-0.045	-0.069
-299.764	-200.000	0.051	0.261
-298.749	-2.707	-0.193	0.135
-297.735	482.419	-0.092	0.209
-296.720	-200.000	0.014	-0.078
-295.705	481.280	-0.068	-0.154
-294.691	-20.995	0.138	0.085
-293.676	-155.333	0.117	0.008
-292.662	800.000	0.035	-0.122
-291.647	236.327	0.153	0.254
-290.632	187.033	0.228	-0.340
-289.618	-126.160	0.071	0.011
-288.603	177.696	0.146	0.214
-287.589	-179.838	0.146	0.003
-286.574	4.345	-0.202	0.148
-285.559	304.978	0.086	0.159
-284.545	250.872	0.171	-0.291
-283.530	124.515	-0.082	0.103
-282.516	-107.501	0.335	0.073
-281.501	-200.000	0.071	0.499
-280.486	146.942	0.018	-0.024
-279.472	-84.231	-0.268	-0.085
-278.457	285.214	-0.046	0.083
-277.443	-123.528	0.050	0.008
-276.428	-200.000	0.005	-0.119
-275.413	103.231	0.051	-0.060
-274.399	-200.000	-0.006	-0.075
-273.384	741.834	-0.124	0.334
-272.370	751.406	0.070	-0.188
-271.355	126.790	0.020	0.026
-270.340	67.798	-0.289	-0.295
-269.326	268.921	0.108	-0.190
-268.311	-200.000	-0.070	-0.355
-267.297	117.248	0.264	0.325
-266.282	-200.000	0.045	-0.301
-265.267	-200.000	0.036	-0.276
-264.253	-200.000	0.031	-0.427
-263.238	-200.000	0.007	-0.176
-262.224	32.769	0.154	-0.133
-261.209	586.434	-0.114	-0.281
-260.195	800.000	0.082	-0.243
-259.180	-200.000	-0.026	0.242
-258.165	-3.168	-0.188	0.131
-257.151	-130.020	0.297	0.041
-256.136	28.239	-0.142	-0.120
-255.122	-129.003	-0.076	-0.011
-254.107	-149.814	0.321	0.025
-253.092	17.649	0.240	-0.191
-252.078	-81.209	0.238	0.079
-251.063	-200.000	0.037	0.326
-250.049	349.416	0.053	-0.105
-249.034	800.000	-0.034	0.098
-248.019	800.000	-0.024	-0.081
-247.005	-51.352	0.198	-0.092
-245.990	233.480	-0.076	-0.125
-244.976	331.051	0.080	-0.154
-243.961	-132.836	-0.431	0.055
-242.946	-28.874	0.138	-0.079
-241.932	-116.677	0.369	0.068
-240.917	-76.316	0.230	0.081
-239.903	800.000	0.037	0.126
-238.888	-200.000	0.047	-0.208
-237.873	-26.752	0.179	0.104
-236.859	800.000	0.038	-0.120
-235.844	427.900	0.054	-0.117
-234.830	-200.000	-0.039	0.254
-233.815	-152.278	-0.040	-0.003
-232.800	-47.271	0.136	-0.066
-231.786	185.006	0.207	-0.306
-230.771	-126.568	-0.266	-0.039
-229.757	-6.882	0.156	0.106
-228.742	-106.360	0.072	0.016
-227.727	388.493	0.150	0.311
-226.713	800.000	-0.134	0.427
-225.698	-107.317	0.141	0.031
-224.684	-20.559	-0.117	0.072
-223.669	-7.478	0.202	0.136
-222.655	800.000	0.050	-0.180
-221.640	800.000	-0.070	-0.211
-220.625	46.995	0.195	0.181
-219.611	797.427	0.089	-0.246
-218.596	33.434	0.074	0.064
-217.582	-44.463	0.091	-0.045
-216.567	1.674	0.297	-0.213
-215.552	-126.926	0.116	-0.017
-214.538	382.453	0.093	0.191
-213.523	6.963	-0.255	0.190
-212.509	668.229	-0.108	-0.278
-211.494	-27.696	0.127	-0.073
-210.479	800.000	-0.018	-0.077
-209.465	-42.671	0.213	-0.108
-208.450	-91.058	-0.194	-0.056
-207.436	-48.392	-0.082	0.039
-206.421	-98.536	0.227	0.058
-205.406	-39.685	-0.160	-0.084
-204.392	-185.284	0.604	-0.009
-203.377	32.702	0.134	0.116
-202.363	-200.000	0.018	0.091
-201.348	-78.350	0.371	0.127
-200.333	-200.000	-0.019	-0.148
-199.319	-103.533	-0.333	0.078
-198.304	556.052	0.076	0.182
-197.290	-87.093	-0.113	-0.034
-196.275	-141.148	0.157	0.016
-195.260	305.869	-0.091	-0.168
-194.246	306.072	0.174	0.322
-193.231	-86.067	0.258	-0.079
-192.217	-4.112	-0.191	-0.132
-191.202	180.298	0.187	-0.274
-190.187	488.986	0.039	0.089
-189.173	-97.677	-0.115	0.030
-188.158	-1.831	0.203	-0.143
-187.144	800.000	-0.071	0.203
-186.129	64.575	-0.224	0.225
-185.114	204.583	0.078	-0.121
-184.100	-15.819	-0.273	0.173
-183.085	335.754	0.072	0.139
-182.071	-144.149	-0.203	-0.019
-181.056	-79.354	-0.112	0.038
-180.042	-200.000	-0.006	0.293
-179.027	-153.313	-0.127	-0.009
-178.012	-45.497	0.096	0.047
-176.998	-160.196	0.223	-0.012
-175.983	-34.321	-0.112	0.061
-174.969	800.000	-0.036	-0.138
-173.954	50.743	0.059	-0.056
-172.939	-118.394	0.286	0.050
-171.925	139.126	0.182	0.238
-170.910	-0.610	0.269	-0.190
-169.896	-84.528	0.285	-0.090
-168.881	333.086	0.096	-0.186
-167.866	-58.875	0.176	-0.076
-166.852	151.986	-0.129	-0.176
-165.837	-19.801	0.132	-0.081
-164.823	-180.647	0.133	-0.003
-163.808	-200.000	-0.090	-0.395
-162.793	196.944	0.234	0.355
-161.779	192.760	-0.047	0.070
-160.764	-130.395	-0.123	-0.017
-159.750	-84.746	0.143	0.045
-158.735	13.121	-0.182	0.140
-157.720	44.280	0.111	0.101
-156.706	-72.141	-0.316	0.117
-155.691	-200.000	-0.004	0.325
-154.677	-75.870	0.380	-0.134
-153.662	-57.486	0.131	0.057
-152.647	414.785	0.036	-0.077
-151.633	-200.000	-0.005	-0.042
-150.618	-200.000	0.035	0.264
-149.604	800.000	-0.092	0.304
-148.589	-200.000	-0.043	0.329
-147.574	-54.256	0.165	-0.075
-146.560	214.731	0.137	-0.215
-145.545	336.385	-0.116	0.224
-144.531	262.971	-0.033	-0.057
-143.516	-200.000	0.002	0.023
-142.502	0.466	-0.155	-0.110
-141.487	-200.000	0.031	-0.168
-140.472	-161.602	-0.319	0.016
-139.458	800.000	-0.047	0.159
-138.443	400.607	-0.075	0.157
-137.429	34.785	-0.071	0.062
-136.414	-200.000	0.036	-0.408
-135.399	32.398	0.216	0.186
-134.385	-46.662	-0.379	0.185
-133.370	-51.611	0.136	-0.063
-132.356	749.602	-0.031	0.083
-131.341	142.908	-0.058	0.076
-130.326	-200.000	-0.050	-0.261
-129.312	38.081	-0.248	0.219
-128.297	-75.446	0.134	-0.047
-127.283	-4.132	-0.191	0.132
-126.268	45.796	0.208	-0.192
-125.253	55.960	0.133	-0.129
-124.239	64.250	0.146	0.146
-123.224	-104.868	0.075	0.017
-122.210	155.049	0.192	0.263
