DTS Sentinel unit serial number:	SN413079Multiplexer serial number:	ORYXHardware model number:	OX4-SRSoftware version number:	ORYX F/W v4.00 Oryx Data Collector v3.7.2.0data status	okinstallation	princeton_trtdifferential loss correction	single-endedforward channel	channel 4reverse channel	N/Adate	2019/09/17time	07:21:35forward acquisition time	60.00reverse acquisition time	0.00gamma	496.2192k internal	0.2320k external	0.2320temperature offset calibration	0.9985default loss term (dB/km)	0.3790temperature slope calibration	1.0000multiplexer offset coefficient	1.0000multiplexer slope coefficient	1.0000fibre end	0.00T internal ref (°C)	27.23T ext. ref 1 (°C)	0.12T ext. ref 2 (°C)	21.45length (m)	temperature (°C)	Stokes	anti-Stokes-747.200	78.373	0.120	-0.130
-746.185	690.829	-0.045	0.120
-745.171	113.932	-0.112	0.137
-744.156	-74.263	0.089	0.033
-743.142	-191.035	-0.190	-0.002
-742.127	140.659	0.068	-0.090
-741.112	-170.193	-0.164	-0.006
-740.098	215.801	0.086	-0.139
-739.083	-111.958	-0.021	-0.004
-738.069	800.000	-0.068	0.205
-737.054	-200.000	0.015	-0.261
-736.039	-0.773	0.069	0.049
-735.025	800.000	0.015	0.056
-734.010	-149.467	-0.175	0.014
-732.996	313.405	0.078	-0.149
-731.981	-49.490	-0.139	0.067
-730.966	-46.434	-0.287	0.143
-729.952	-27.649	-0.206	-0.121
-728.937	-26.320	-0.204	-0.121
-727.923	122.472	0.075	-0.095
-726.908	-69.862	0.065	-0.025
-725.894	800.000	0.015	0.053
-724.879	270.268	0.182	-0.322
-723.864	-1.546	-0.301	0.215
-722.850	-23.340	-0.190	0.115
-721.835	-200.000	0.035	0.186
-720.821	60.279	-0.302	-0.302
-719.806	84.849	-0.287	-0.318
-718.791	-57.452	0.245	0.109
-717.777	-26.712	-0.164	-0.097
-716.762	125.236	-0.166	0.212
-715.748	700.984	-0.089	-0.237
-714.733	-120.200	0.080	-0.014
-713.718	-200.000	-0.001	0.135
-712.704	-121.172	-0.107	-0.018
-711.689	-155.894	-0.163	0.010
-710.675	-200.000	0.020	-0.108
-709.660	-129.402	-0.216	-0.030
-708.645	179.972	-0.159	-0.235
-707.631	-149.750	0.276	0.022
-706.616	-109.072	-0.280	-0.060
-705.602	-172.233	-0.524	0.017
-704.587	294.131	0.062	-0.114
-703.572	-200.000	-0.044	-0.234
-702.558	131.892	-0.053	-0.069
-701.543	-103.497	0.167	-0.040
-700.529	161.709	-0.071	-0.101
-699.514	-200.000	0.072	-0.390
-698.499	4.183	-0.197	0.146
-697.485	553.058	-0.024	-0.059
-696.470	61.458	-0.115	-0.116
-695.456	139.528	-0.023	0.031
-694.441	-23.713	-0.176	0.107
-693.426	25.294	-0.276	-0.232
-692.412	-64.594	-0.245	0.100
-691.397	-38.201	0.056	0.030
-690.383	-53.914	0.187	-0.086
-689.368	-4.623	-0.149	0.104
-688.354	-200.000	-0.005	-0.282
-687.339	146.395	-0.120	0.162
-686.324	-200.000	-0.025	0.313
-685.310	732.062	0.009	0.025
-684.295	-82.854	-0.107	-0.035
-683.281	-98.272	0.102	0.026
-682.266	-16.859	-0.056	-0.035
-681.251	-141.470	0.152	-0.015
-680.237	478.713	-0.076	0.173
-679.222	-72.308	0.157	-0.059
-678.208	800.000	0.052	-0.153
-677.193	-73.394	-0.149	-0.055
-676.178	-93.573	0.477	0.133
-675.164	308.025	-0.250	-0.470
-674.149	-95.779	-0.150	-0.040
-673.135	-200.000	0.014	-0.376
-672.120	11.171	0.048	0.037
-671.105	37.935	0.077	0.069
-670.091	350.562	-0.061	0.122
-669.076	800.000	0.038	0.115
-668.062	-200.000	-0.013	0.059
-667.047	136.325	0.088	0.115
-666.032	800.000	0.057	-0.169
-665.018	32.152	-0.133	-0.116
-664.003	-110.276	-0.180	0.038
-662.989	-200.000	-0.039	-0.180
-661.974	-37.773	0.105	-0.056
-660.959	-200.000	0.004	0.428
-659.945	-84.455	-0.156	-0.050
-658.930	-0.228	0.152	-0.109
-657.916	-77.882	0.411	-0.143
-656.901	-200.000	0.037	-0.218
-655.886	13.514	0.091	0.071
-654.872	210.290	0.104	-0.165
-653.857	800.000	-0.032	-0.109
-652.843	581.965	-0.073	0.179
-651.828	390.820	0.110	-0.230
-650.814	-90.910	-0.089	0.026
-649.799	-34.841	-0.086	0.048
-648.784	191.645	0.180	0.274
-647.770	-165.863	-0.282	-0.012
-646.755	146.397	0.113	0.153
-645.741	-136.760	0.171	0.020
-644.726	-151.895	-0.367	0.027
-643.711	800.000	-0.026	-0.110
-642.697	213.797	0.043	-0.069
-641.682	315.136	0.132	0.251
-640.668	-200.000	0.008	-0.181
-639.653	-200.000	-0.012	-0.100
-638.638	121.830	-0.110	-0.138
-637.624	8.765	0.490	-0.372
-636.609	-49.840	-0.467	0.223
-635.595	-76.305	-0.157	-0.056
-634.580	-132.524	-0.680	0.088
-633.565	-66.607	0.220	-0.088
-632.551	107.227	0.218	-0.261
-631.536	188.387	-0.103	0.155
-630.522	288.661	-0.114	-0.208
-629.507	228.855	-0.077	0.126
-628.492	-43.462	0.056	-0.028
-627.478	800.000	-0.060	-0.235
-626.463	-75.552	-0.054	0.019
-625.449	21.170	-0.156	-0.128
-624.434	-102.965	-0.247	0.059
-623.419	43.895	-0.302	-0.279
-622.405	59.861	0.145	-0.144
-621.390	800.000	0.018	-0.068
-620.376	800.000	0.109	-0.404
-619.361	-200.000	-0.028	0.137
-618.346	-26.736	-0.148	-0.087
-617.332	-6.921	-0.065	-0.044
-616.317	-35.855	0.059	-0.032
-615.303	-200.000	-0.013	0.149
-614.288	46.151	-0.143	0.134
-613.273	106.503	-0.277	0.330
-612.259	437.827	0.030	0.066
-611.244	-88.419	-0.447	-0.134
-610.230	-200.000	-0.005	0.025
-609.215	711.059	0.039	-0.103
-608.201	-200.000	-0.041	-0.319
-607.186	-71.299	0.336	-0.127
-606.171	344.544	0.172	0.340
-605.157	-111.687	0.085	0.017
-604.142	-146.392	0.397	0.035
-603.128	-200.000	-0.037	0.176
-602.113	202.208	-0.184	0.286
-601.098	27.539	0.161	-0.136
-600.084	-55.218	-0.179	-0.081
-599.069	-83.534	-0.103	-0.033
-598.055	-200.000	0.055	-0.270
-597.040	30.549	0.223	0.192
-596.025	107.683	0.290	-0.347
-595.011	-29.866	0.162	0.093
-593.996	8.426	-0.094	-0.071
-592.982	800.000	-0.094	-0.262
-591.967	314.728	-0.161	-0.305
-590.952	645.663	-0.057	-0.147
-589.938	-35.828	-0.086	0.047
-588.923	-200.000	-0.058	-0.328
-587.909	13.491	0.160	-0.125
-586.894	286.827	0.150	-0.272
-585.879	2.209	-0.159	-0.116
-584.865	36.632	-0.080	0.071
-583.850	4.048	0.089	-0.065
-582.836	39.362	-0.112	0.101
-581.821	-43.073	-0.177	-0.090
-580.806	200.798	-0.090	-0.140
-579.792	349.014	-0.108	0.213
-578.777	-200.000	-0.048	0.376
-577.763	80.481	-0.238	-0.258
-576.748	-140.769	0.052	0.005
-575.733	-200.000	0.031	0.257
-574.719	-42.135	0.321	0.165
-573.704	29.983	-0.280	0.239
-572.690	-126.498	0.337	-0.050
-571.675	-70.569	0.192	0.073
-570.661	-196.738	0.077	-0.001
-569.646	-200.000	-0.002	0.183
-568.631	-200.000	0.023	-0.117
-567.617	-200.000	0.123	-0.616
-566.602	55.231	-0.082	0.079
-565.588	-115.949	0.056	0.010
-564.573	50.728	0.295	-0.280
-563.558	224.612	-0.190	0.308
-562.544	128.935	-0.040	-0.051
-561.529	46.806	-0.172	-0.161
-560.515	-81.692	0.214	0.070
-559.500	-51.619	0.189	-0.088
-558.485	168.347	-0.094	0.135
-557.471	66.623	-0.281	-0.287
-556.456	-157.561	-0.144	-0.009
-555.442	268.558	0.020	0.034
-554.427	-39.700	0.207	0.108
-553.412	-42.886	0.155	-0.079
-552.398	34.911	-0.168	0.148
-551.383	-23.550	0.252	-0.152
-550.369	-106.543	-0.121	-0.027
-549.354	-200.000	-0.029	0.142
-548.339	-88.928	0.297	-0.088
-547.325	42.342	-0.143	-0.131
-546.310	-83.417	-0.088	0.028
-545.296	74.120	0.175	0.184
-544.281	20.507	-0.176	0.143
-543.266	-116.752	0.439	0.081
-542.252	51.809	0.131	0.125
-541.237	177.972	0.238	-0.348
-540.223	-50.406	-0.163	-0.077
-539.208	88.995	-0.085	-0.095
-538.193	-200.000	0.031	-0.216
-537.179	-200.000	-0.008	-0.353
-536.164	-22.078	0.138	-0.084
-535.150	800.000	0.099	-0.378
-534.135	-53.826	-0.387	0.177
-533.121	-200.000	0.046	-0.245
-532.106	-111.370	0.239	-0.049
-531.091	-180.121	-0.297	0.006
-530.077	84.984	0.248	0.273
-529.062	158.539	0.256	0.356
-528.048	-60.635	-0.075	-0.032
-527.033	3.009	0.101	0.074
-526.018	-119.120	-0.549	0.096
-525.004	-200.000	-0.044	-0.315
-523.989	-13.767	-0.238	0.154
-522.975	334.614	-0.082	-0.160
-521.960	-62.910	-0.208	0.086
-520.945	-84.084	-0.300	-0.095
-519.931	-200.000	0.004	-0.082
-518.916	-71.980	-0.112	-0.042
-517.902	-67.759	-0.149	-0.059
-516.887	-47.641	-0.177	-0.086
-515.872	-93.877	-0.056	0.015
-514.858	-200.000	-0.058	0.279
-513.843	-36.143	-0.266	-0.144
-512.829	60.282	0.071	-0.070
-511.814	-200.000	-0.053	-0.306
-510.799	77.387	0.072	0.077
-509.785	-12.682	-0.125	-0.082
-508.770	375.345	0.134	0.273
-507.756	-175.204	0.142	-0.004
-506.741	663.614	-0.074	-0.192
-505.726	-90.120	0.246	-0.072
-504.712	-156.926	0.127	0.008
-503.697	-200.000	-0.043	0.216
-502.683	269.619	-0.128	0.225
-501.668	140.184	0.153	0.202
-500.653	158.878	-0.080	0.111
-499.639	-200.000	0.006	0.032
-498.624	-55.691	0.146	-0.066
-497.610	113.315	0.134	0.162
-496.595	216.589	0.073	0.116
-495.581	-85.736	0.090	-0.028
-494.566	-164.076	-0.174	0.008
-493.551	373.479	0.107	-0.217
-492.537	800.000	-0.063	-0.179
-491.522	-68.920	0.421	-0.163
-490.508	800.000	0.136	-0.460
-489.493	-162.195	-0.173	-0.009
-488.478	-34.149	-0.059	0.032
-487.464	310.988	0.046	0.086
-486.449	-200.000	0.005	-0.052
-485.435	-60.715	0.052	0.022
-484.420	1.060	-0.324	-0.233
-483.405	-200.000	-0.033	0.147
-482.391	800.000	0.034	0.108
-481.376	-83.161	0.168	0.054
-480.362	91.913	0.061	-0.069
-479.347	-72.198	0.082	0.031
-478.332	-128.276	-0.233	0.033
-477.318	-106.276	0.180	-0.040
-476.303	-90.455	0.339	-0.098
-475.289	107.140	-0.094	0.112
-474.274	-39.991	0.150	-0.078
-473.259	-200.000	-0.010	-0.108
-472.245	-77.938	0.543	0.187
-471.230	-154.312	0.118	-0.008
-470.216	-63.381	-0.251	-0.103
-469.201	-200.000	0.022	0.160
-468.186	496.622	-0.128	0.293
-467.172	-200.000	-0.011	0.236
-466.157	-200.000	-0.005	0.061
-465.143	9.805	-0.152	-0.116
-464.128	-200.000	-0.028	-0.235
-463.113	92.686	0.053	0.060
-462.099	-200.000	-0.054	0.324
-461.084	60.008	0.076	-0.075
-460.070	800.000	-0.023	0.087
-459.055	110.541	0.065	0.078
-458.040	254.005	0.133	0.227
-457.026	58.360	0.123	-0.121
-456.011	-161.190	0.155	-0.008
-454.997	110.082	0.141	0.169
-453.982	-76.369	-0.189	-0.066
-452.968	800.000	-0.065	-0.209
-451.953	78.240	0.192	0.205
-450.938	-46.943	-0.184	-0.090
-449.924	-23.627	-0.173	0.104
-448.909	529.801	0.068	-0.160
-447.895	44.043	0.168	-0.154
-446.880	-60.714	0.289	-0.122
-445.865	-42.188	0.153	0.078
-444.851	407.774	-0.306	0.647
-443.836	108.408	0.200	-0.238
-442.822	471.747	-0.117	-0.263
-441.807	800.000	-0.048	0.173
-440.792	-56.529	0.279	0.124
-439.778	-51.411	-0.172	0.080
-438.763	-50.792	-0.086	-0.040
-437.749	312.992	-0.082	0.153
-436.734	-59.586	0.319	0.137
-435.719	-200.000	-0.003	-0.024
-434.705	-200.000	0.002	0.281
-433.690	258.191	-0.113	0.194
-432.676	104.821	0.113	-0.133
-431.661	75.610	-0.221	-0.233
-430.646	15.953	-0.203	-0.160
-429.632	-72.890	-0.096	0.035
-428.617	-96.378	0.257	0.068
-427.603	800.000	0.049	-0.165
-426.588	-200.000	-0.013	0.119
-425.573	196.767	-0.253	0.385
-424.559	800.000	-0.041	0.122
-423.544	92.104	0.145	-0.163
-422.530	-59.873	-0.145	0.062
-421.515	278.631	-0.065	-0.116
-420.500	55.339	0.131	-0.126
-419.486	-200.000	0.037	0.174
-418.471	800.000	-0.035	-0.128
-417.457	-200.000	0.028	0.216
-416.442	113.615	0.176	0.213
-415.428	-65.497	-0.118	0.048
-414.413	453.549	0.145	0.320
-413.398	88.045	0.099	-0.110
-412.384	-200.000	0.018	-0.220
-411.369	-88.552	-0.196	-0.058
-410.355	45.579	-0.292	0.269
-409.340	-200.000	-0.031	0.224
-408.325	91.949	-0.217	-0.244
-407.311	-200.000	0.004	0.158
-406.296	-44.054	-0.149	0.075
-405.282	-75.447	0.080	-0.029
-404.267	227.711	-0.187	-0.303
-403.252	115.239	0.082	0.100
-402.238	-200.000	0.001	0.122
-401.223	353.562	-0.209	0.414
-400.209	-8.070	0.165	-0.111
-399.194	-131.539	-0.349	0.046
-398.179	-89.858	0.247	-0.072
-397.165	-12.407	-0.386	0.251
-396.150	-200.000	0.019	-0.177
-395.136	800.000	-0.065	0.210
-394.121	-109.034	-0.258	0.055
-393.106	800.000	-0.122	-0.352
-392.092	800.000	-0.025	0.095
-391.077	93.874	0.087	-0.099
-390.063	81.542	-0.152	-0.164
-389.048	-100.354	-0.329	-0.081
-388.033	-200.000	-0.050	0.305
-387.019	-200.000	-0.017	-0.333
-386.004	-79.510	0.165	-0.056
-384.990	159.177	0.187	0.259
-383.975	134.985	0.055	-0.072
-382.960	49.840	0.183	-0.172
-381.946	524.290	0.101	0.237
-380.931	562.436	0.030	-0.073
-379.917	92.129	-0.166	-0.187
-378.902	-200.000	-0.012	-0.415
-377.888	108.407	-0.066	-0.079
-376.873	-37.262	-0.058	0.031
-375.858	-48.153	-0.061	0.029
-374.844	73.954	0.120	-0.125
-373.829	226.854	0.053	0.086
-372.815	-200.000	0.000	-0.039
-371.800	60.089	0.148	0.146
-370.785	-200.000	-0.003	-0.124
-369.771	-75.844	-0.140	-0.049
-368.756	84.456	0.069	0.075
-367.742	-187.215	-0.378	0.005
-366.727	-200.000	-0.173	0.000
-365.712	-101.858	0.138	-0.033
-364.698	-200.000	0.029	0.293
-363.683	-96.994	-0.211	0.055
-362.669	775.019	0.109	-0.297
-361.654	-137.612	-0.067	0.007
-360.639	-89.896	0.359	0.104
-359.625	-75.495	0.081	-0.029
-358.610	-121.163	-0.281	0.047
-357.596	-87.343	0.180	-0.054
-356.581	-195.753	-0.216	-0.002
-355.566	-89.445	-0.225	0.066
-354.552	800.000	-0.078	-0.300
-353.537	-200.000	-0.035	-0.236
-352.523	0.766	-0.130	-0.092
-351.508	-28.641	0.227	0.130
-350.493	117.538	0.394	-0.483
-349.479	800.000	-0.045	0.126
-348.464	-123.757	0.369	0.058
-347.450	118.726	-0.108	-0.132
-346.435	-200.000	-0.021	0.266
-345.420	13.427	0.128	-0.098
-344.406	-91.252	-0.134	0.038
-343.391	-1.572	0.262	0.184
-342.377	154.383	-0.046	-0.062
-341.362	800.000	0.172	0.593
-340.348	-58.842	-0.259	0.111
-339.333	-125.869	-0.100	0.015
-338.318	46.138	0.089	0.082
-337.304	-200.000	-0.014	0.406
-336.289	-200.000	0.014	-0.373
-335.275	-200.000	-0.019	-0.090
-334.260	151.487	-0.106	0.143
-333.245	-172.281	0.179	-0.006
-332.231	800.000	0.056	-0.208
-331.216	800.000	0.052	0.198
-330.202	514.045	-0.087	0.201
-329.187	-188.981	-0.141	-0.002
-328.172	-35.099	-0.154	-0.083
-327.158	-43.866	0.315	0.158
-326.143	129.939	0.189	0.241
-325.129	-115.927	-0.159	0.029
-324.114	48.612	0.228	-0.213
-323.099	-60.752	-0.137	-0.058
-322.085	800.000	0.028	-0.122
-321.070	281.464	0.090	-0.161
-320.056	-103.590	-0.190	0.044
-319.041	308.118	-0.070	-0.131
-318.026	378.357	-0.110	0.224
-317.012	-200.000	0.001	-0.039
-315.997	-129.033	0.244	-0.034
-314.983	-161.942	0.149	0.007
-313.968	-150.571	0.190	-0.014
-312.953	132.311	-0.236	0.302
-311.939	322.110	0.110	-0.209
-310.924	-35.018	-0.331	-0.179
-309.910	300.414	0.119	0.219
-308.895	-116.043	0.436	-0.081
-307.880	100.526	-0.109	-0.126
-306.866	277.711	0.176	0.312
-305.851	486.757	-0.009	-0.020
-304.837	-142.516	0.147	-0.014
-303.822	26.605	0.132	0.110
-302.807	-200.000	-0.020	-0.106
-301.793	395.019	0.050	0.104
-300.778	800.000	0.098	0.380
-299.764	596.312	0.085	-0.209
-298.749	-70.959	0.114	0.043
-297.735	271.742	0.046	-0.081
-296.720	676.378	-0.065	-0.167
-295.705	-40.941	-0.405	-0.208
-294.691	345.960	-0.024	-0.047
-293.676	219.557	0.039	0.062
-292.662	378.401	-0.143	-0.290
-291.647	-135.620	0.128	0.015
-290.632	-33.585	0.109	0.060
-289.618	202.268	0.053	0.081
-288.603	-62.948	0.128	-0.053
-287.589	126.714	-0.053	0.067
-286.574	-133.238	-0.206	0.026
-285.559	-200.000	-0.042	0.000
-284.545	95.051	0.137	0.155
-283.530	-200.000	-0.030	0.177
-282.516	163.177	-0.166	0.231
-281.501	-9.978	-0.354	-0.234
-280.486	293.907	-0.083	-0.151
-279.472	-132.368	-0.171	-0.022
-278.457	177.259	0.080	0.115
-277.443	800.000	-0.032	0.091
-276.428	8.859	0.113	-0.084
-275.413	-43.310	0.217	0.109
-274.399	11.428	-0.095	0.073
-273.384	327.577	0.057	-0.108
-272.370	-16.090	0.024	0.015
-271.355	43.513	-0.132	-0.119
-270.340	-138.183	0.137	0.015
-269.326	289.420	0.136	0.245
-268.311	-125.521	0.216	-0.033
-267.297	-59.606	0.290	0.124
-266.282	800.000	-0.107	-0.395
-265.267	148.528	0.111	0.149
-264.253	41.213	0.174	-0.156
-263.238	-200.000	-0.034	0.168
-262.224	9.058	0.360	-0.270
-261.209	7.766	0.267	0.198
-260.195	-100.445	-0.401	0.099
-259.180	-43.595	-0.196	-0.098
-258.165	-200.000	-0.005	0.117
-257.151	-162.986	0.193	0.009
-256.136	-89.577	0.134	0.039
-255.122	-200.000	-0.023	0.137
-254.107	-101.936	-0.094	0.022
-253.092	199.082	0.326	-0.495
-252.078	78.129	-0.284	0.301
-251.063	27.266	0.137	0.114
-250.049	85.968	0.130	-0.141
-249.034	-200.000	-0.012	0.126
-248.019	-134.867	0.235	-0.028
-247.005	-200.000	0.003	-0.165
-245.990	47.622	-0.182	-0.169
-244.976	-83.015	0.100	0.032
-243.961	712.246	-0.119	0.311
-242.946	-4.064	0.023	0.016
-241.932	63.727	-0.186	-0.186
-240.917	133.029	0.111	0.142
-239.903	-200.000	0.013	0.184
-238.888	14.263	0.237	-0.183
-237.873	3.948	-0.175	0.127
-236.859	-200.000	0.006	-0.111
-235.844	-200.000	-0.027	-0.291
-234.830	236.438	0.100	0.164
-233.815	-21.954	-0.289	-0.174
-232.800	345.308	-0.138	0.268
-231.786	-159.990	-0.530	-0.029
-230.771	-200.000	-0.061	0.292
-229.757	37.831	0.196	0.173
-228.742	384.292	-0.102	0.209
-227.727	-91.002	-0.292	0.083
-226.713	-57.007	-0.097	0.042
-225.698	-200.000	0.019	-0.139
-224.684	-200.000	0.003	0.052
-223.669	-96.615	0.147	-0.038
-222.655	-191.871	-0.114	-0.001
-221.640	25.830	-0.020	0.017
-220.625	-160.208	0.129	0.007
-219.611	-103.903	-0.125	-0.029
-218.596	19.607	0.309	0.246
-217.582	141.846	0.103	-0.136
-216.567	361.221	0.167	0.331
-215.552	193.278	0.089	-0.133
-214.538	-135.575	0.123	-0.014
-213.523	-157.366	-0.289	-0.017
-212.509	43.991	-0.175	-0.159
-211.494	371.439	-0.100	0.202
-210.479	165.299	-0.056	0.078
-209.465	-200.000	-0.034	0.292
-208.450	-150.948	0.330	-0.025
-207.436	-200.000	0.005	-0.108
-206.421	-24.053	0.049	-0.029
-205.406	217.971	0.051	0.080
-204.392	27.402	0.235	0.196
-203.377	93.491	-0.224	-0.252
-202.363	800.000	-0.027	-0.111
-201.348	-156.583	-0.143	-0.009
-200.333	31.059	-0.089	0.076
-199.319	71.109	-0.282	-0.290
-198.304	357.870	0.113	-0.224
-197.290	-31.849	0.214	-0.119
-196.275	167.480	-0.105	0.148
-195.260	-84.739	-0.021	-0.006
-194.246	707.999	-0.038	-0.101
-193.231	800.000	-0.038	-0.110
-192.217	-84.552	-0.119	-0.037
-191.202	0.735	-0.262	-0.186
-190.187	499.063	0.220	0.501
-189.173	29.967	0.135	0.114
-188.158	800.000	-0.023	0.095
-187.144	105.430	0.168	-0.197
-186.129	72.020	0.115	-0.118
-185.114	-142.694	-0.079	-0.008
-184.100	800.000	-0.117	0.448
-183.085	80.469	0.410	0.437
-182.071	-20.644	-0.341	-0.207
-181.056	-0.288	0.109	0.077
-180.042	-30.325	-0.137	-0.077
-179.027	-40.271	-0.129	-0.066
-178.012	-81.666	-0.348	-0.113
-176.998	-32.712	-0.163	-0.090
-175.983	-137.079	0.264	0.030
-174.969	-114.599	0.298	0.057
-173.954	229.145	-0.108	0.175
-172.939	-200.000	-0.019	-0.102
-171.925	289.932	0.087	-0.155
-170.910	-200.000	-0.032	-0.138
-169.896	676.691	-0.138	-0.356
-168.881	148.667	0.153	-0.205
-167.866	377.525	-0.033	-0.067
-166.852	43.229	0.129	-0.117
-165.837	322.041	0.129	0.242
-164.823	63.509	0.166	0.165
-163.808	-105.717	0.126	0.028
-162.793	74.681	-0.133	-0.138
-161.779	48.909	0.283	0.263
-160.764	-50.514	0.095	0.044
-159.750	692.519	0.075	0.193
-158.735	-200.000	0.014	0.218
-157.720	21.872	0.127	0.102
-156.706	41.074	0.084	-0.075
-155.691	476.847	-0.049	0.110
-154.677	120.696	-0.295	-0.362
-153.662	-28.101	0.127	0.073
-152.647	-41.123	0.085	0.044
-151.633	15.645	-0.012	-0.009
-150.618	52.997	0.177	-0.167
-149.604	800.000	0.027	0.078
-148.589	-78.820	-0.380	-0.128
-147.574	-187.987	-0.239	0.003
-146.560	147.415	0.147	0.195
-145.545	-200.000	-0.006	0.188
-144.531	311.305	0.164	-0.305
-143.516	205.757	0.140	-0.215
-142.502	-45.801	-0.162	0.079
-141.487	-89.105	0.168	0.049
-140.472	83.691	0.115	-0.124
-139.458	143.058	-0.158	-0.207
-138.443	-113.461	-0.106	-0.021
-137.429	-177.902	-0.247	-0.006
-136.414	-54.651	-0.117	-0.052
-135.399	-55.540	0.567	-0.251
-134.385	-104.360	-0.048	0.011
-133.370	34.423	-0.208	-0.179
-132.356	47.429	0.178	0.164
-131.341	638.463	-0.051	0.128
-130.326	800.000	-0.089	-0.255
-129.312	360.158	-0.107	-0.211
-128.297	-101.030	-0.133	0.032
-127.283	-63.806	0.178	-0.072
-126.268	55.343	0.253	-0.242
-125.253	-32.987	0.219	-0.120
-124.239	1.580	-0.102	-0.072
-123.224	20.833	-0.165	0.132
-122.210	88.483	0.088	0.096
-121.195	11.690	0.167	0.127
