DTS Sentinel unit serial number:	SN413079Multiplexer serial number:	ORYXHardware model number:	OX4-SRSoftware version number:	ORYX F/W v4.00 Oryx Data Collector v3.7.2.0data status	okinstallation	princeton_trtdifferential loss correction	single-endedforward channel	channel 4reverse channel	N/Adate	2019/09/14time	19:37:34forward acquisition time	60.00reverse acquisition time	0.00gamma	496.2192k internal	0.2304k external	0.2304temperature offset calibration	1.0098default loss term (dB/km)	0.3790temperature slope calibration	1.0000multiplexer offset coefficient	1.0000multiplexer slope coefficient	1.0000fibre end	0.00T internal ref (°C)	34.59T ext. ref 1 (°C)	4.86T ext. ref 2 (°C)	28.83length (m)	temperature (°C)	Stokes	anti-Stokes-747.200	53.686	-0.182	-0.178
-746.185	-200.000	0.010	0.308
-745.171	383.754	-0.069	0.144
-744.156	-73.976	-0.169	0.062
-743.142	204.879	0.208	-0.329
-742.127	-100.887	-0.354	0.089
-741.112	60.821	0.118	-0.120
-740.098	597.905	0.172	0.434
-739.083	15.039	-0.229	0.182
-738.069	-27.087	-0.257	0.153
-737.054	401.826	0.165	-0.353
-736.039	451.937	-0.129	-0.291
-735.025	-43.159	0.384	0.198
-734.010	442.499	0.144	0.321
-732.996	257.979	0.080	-0.140
-731.981	41.132	0.077	0.071
-730.966	399.060	0.115	-0.246
-729.952	39.401	-0.145	0.132
-728.937	-143.969	0.206	0.020
-727.923	-94.694	0.120	-0.033
-726.908	48.179	-0.147	0.140
-725.894	-200.000	0.021	-0.206
-724.879	-200.000	-0.034	-0.240
-723.864	-200.000	-0.034	-0.167
-722.850	45.136	-0.075	-0.070
-721.835	58.415	0.218	-0.217
-720.821	-46.349	0.096	-0.048
-719.806	-156.404	0.178	0.011
-718.791	19.625	0.050	0.041
-717.777	3.649	-0.368	0.273
-716.762	-128.576	0.161	-0.023
-715.748	800.000	0.058	-0.211
-714.733	-28.850	0.292	-0.171
-713.718	-67.965	-0.256	-0.102
-712.704	-200.000	-0.036	-0.250
-711.689	355.227	0.019	-0.038
-710.675	-59.853	0.210	-0.091
-709.660	33.572	-0.328	0.290
-708.645	223.696	-0.162	-0.267
-707.631	-200.000	0.143	0.001
-706.616	-61.198	-0.181	0.077
-705.602	-200.000	0.087	-0.505
-704.587	198.518	-0.200	-0.311
-703.572	668.519	0.071	0.186
-702.558	19.120	0.103	0.084
-701.543	-145.660	0.265	0.024
-700.529	-200.000	-0.008	-0.313
-699.514	191.256	0.237	-0.362
-698.499	25.153	0.151	0.127
-697.485	101.751	0.235	0.279
-696.470	-114.857	0.292	0.057
-695.456	121.518	-0.045	0.057
-694.441	800.000	-0.041	-0.128
-693.426	-155.493	-0.245	-0.016
-692.412	563.746	0.026	-0.064
-691.397	-23.001	-0.173	0.106
-690.383	-140.139	-0.194	0.021
-689.368	21.730	0.217	-0.180
-688.354	277.013	0.041	-0.074
-687.339	8.101	0.124	-0.095
-686.324	800.000	0.074	-0.256
-685.310	-200.000	-0.014	-0.267
-684.295	68.939	-0.062	0.065
-683.281	-44.755	-0.055	0.028
-682.266	-105.330	-0.067	-0.016
-681.251	-97.402	0.111	-0.029
-680.237	368.426	-0.051	0.106
-679.222	-145.093	-0.275	0.025
-678.208	-200.000	-0.017	0.332
-677.193	174.254	-0.048	-0.071
-676.178	-200.000	-0.004	0.072
-675.164	-21.455	0.021	0.013
-674.149	-100.243	0.299	0.075
-673.135	-200.000	0.004	0.043
-672.120	-2.910	-0.138	0.098
-671.105	800.000	-0.089	-0.279
-670.091	-200.000	0.013	-0.201
-669.076	-53.942	-0.287	0.133
-668.062	31.920	-0.138	-0.120
-667.047	216.973	-0.083	0.134
-666.032	189.886	0.030	0.045
-665.018	-88.447	0.130	0.039
-664.003	800.000	0.048	-0.154
-662.989	281.494	0.205	-0.373
-661.974	469.221	0.087	-0.197
-660.959	122.416	0.126	0.160
-659.945	172.953	0.090	-0.132
-658.930	-200.000	0.041	-0.187
-657.916	154.958	-0.301	-0.419
-656.901	800.000	0.063	0.229
-655.886	192.658	0.184	0.281
-654.872	68.552	0.143	-0.149
-653.857	114.663	-0.130	-0.161
-652.843	-124.147	0.189	-0.030
-651.828	151.021	-0.106	0.146
-650.814	-25.882	-0.261	-0.156
-649.799	664.965	-0.043	-0.113
-648.784	-38.208	-0.261	0.140
-647.770	-197.661	0.243	-0.002
-646.755	447.903	-0.126	-0.282
-645.741	-200.000	-0.010	-0.128
-644.726	-14.531	0.153	-0.100
-643.711	-56.908	-0.133	-0.059
-642.697	234.049	0.057	0.095
-641.682	-79.046	-0.574	-0.198
-640.668	182.525	-0.193	0.289
-639.653	-200.000	-0.008	0.157
-638.638	-200.000	0.006	-0.125
-637.624	-75.169	-0.403	-0.146
-636.609	-175.013	0.108	-0.003
-635.595	-166.879	0.291	0.012
-634.580	-15.562	0.142	-0.092
-633.565	-153.847	-0.415	-0.029
-632.551	-21.440	-0.076	-0.047
-631.536	-200.000	-0.011	0.152
-630.522	-200.000	-0.020	0.187
-629.507	-200.000	0.007	0.308
-628.492	109.000	0.251	-0.305
-627.478	119.194	0.021	0.026
-626.463	288.995	0.151	-0.278
-625.449	800.000	0.050	-0.218
-624.434	773.231	0.047	-0.131
-623.419	-45.768	0.277	0.139
-622.405	-1.895	-0.140	0.100
-621.390	-133.391	0.023	0.003
-620.376	800.000	0.054	-0.226
-619.361	-200.000	-0.024	-0.235
-618.346	75.057	-0.087	0.093
-617.332	-200.000	-0.010	-0.156
-616.317	152.989	-0.124	-0.171
-615.303	-200.000	0.032	0.213
-614.288	-200.000	0.014	0.197
-613.273	171.377	0.107	0.155
-612.259	94.118	0.164	0.188
-611.244	-65.924	0.251	0.102
-610.230	-114.716	-0.036	-0.007
-609.215	-107.664	-0.123	0.027
-608.201	-64.053	-0.119	-0.049
-607.186	376.327	0.174	0.360
-606.171	800.000	0.100	0.328
-605.157	-200.000	0.038	-0.190
-604.142	-200.000	-0.046	-0.248
-603.128	134.468	-0.130	0.170
-602.113	800.000	-0.055	-0.210
-601.098	-94.162	-0.070	0.019
-600.084	441.716	0.087	0.193
-599.069	-125.653	-0.194	0.030
-598.055	108.557	-0.100	-0.121
-597.040	-48.708	-0.227	-0.111
-596.025	-200.000	0.012	0.079
-595.011	-60.133	-0.103	0.045
-593.996	319.810	-0.056	-0.108
-592.982	-104.541	-0.372	-0.087
-591.967	800.000	-0.065	-0.284
-590.952	1.532	-0.172	-0.125
-589.938	800.000	0.093	-0.260
-588.923	-200.000	0.014	0.066
-587.909	-200.000	0.053	0.266
-586.894	-200.000	0.018	0.190
-585.879	171.540	-0.086	-0.125
-584.865	283.669	0.037	-0.066
-583.850	-97.356	0.194	-0.051
-582.836	-128.298	0.122	-0.018
-581.821	-23.862	-0.206	0.125
-580.806	18.149	0.175	-0.142
-579.792	378.363	0.175	0.363
-578.777	800.000	0.059	0.164
-577.763	15.169	0.106	0.084
-576.748	-197.486	0.113	0.001
-575.733	-14.327	0.082	-0.053
-574.719	515.010	0.201	-0.476
-573.704	5.268	-0.331	-0.247
-572.690	122.914	0.035	0.044
-571.675	800.000	-0.110	-0.442
-570.661	47.387	-0.297	-0.280
-569.646	-200.000	-0.002	-0.278
-568.631	-56.547	-0.241	-0.108
-567.617	-200.000	-0.056	0.286
-566.602	159.883	-0.107	0.151
-565.588	-116.649	0.083	-0.016
-564.573	74.353	0.048	0.051
-563.558	-143.632	0.073	-0.007
-562.544	81.135	-0.168	0.184
-561.529	-200.000	0.018	0.122
-560.515	444.907	0.108	-0.239
-559.500	-25.282	-0.257	-0.154
-558.485	89.156	0.049	0.055
-557.471	151.304	0.104	0.143
-556.456	-148.315	0.381	0.032
-555.442	-156.345	-0.259	0.016
-554.427	-85.991	-0.176	-0.055
-553.412	-63.498	-0.296	0.123
-552.398	32.320	0.320	-0.279
-551.383	-113.971	0.327	-0.064
-550.369	800.000	-0.064	-0.234
-549.354	27.799	0.092	-0.078
-548.339	-124.715	-0.286	-0.045
-547.325	-153.796	-0.078	0.005
-546.310	593.298	-0.088	0.219
-545.296	287.373	0.033	-0.061
-544.281	-200.000	0.001	-0.087
-543.266	70.662	-0.113	0.118
-542.252	7.838	0.196	-0.148
-541.237	800.000	0.032	0.110
-540.223	-30.802	-0.006	-0.003
-539.208	-11.092	-0.097	-0.065
-538.193	9.936	0.053	0.040
-537.179	-21.089	0.169	0.105
-536.164	-105.888	-0.325	0.074
-535.150	264.770	0.065	0.115
-534.135	-7.455	-0.048	-0.032
-533.121	-93.192	0.206	0.058
-532.106	122.948	-0.161	0.204
-531.091	-76.437	-0.023	-0.008
-530.077	-0.130	0.065	0.047
-529.062	661.202	0.113	-0.294
-528.048	-200.000	-0.033	-0.306
-527.033	-55.588	0.118	0.054
-526.018	-200.000	-0.024	-0.251
-525.004	-3.203	-0.109	0.077
-523.989	52.187	0.108	-0.103
-522.975	369.606	0.232	-0.474
-521.960	-91.242	-0.101	-0.029
-520.945	-55.814	-0.382	0.172
-519.931	128.809	0.161	0.208
-518.916	-190.618	0.184	0.002
-517.902	-200.000	-0.014	-0.299
-516.887	-78.341	0.147	-0.051
-515.872	800.000	0.059	0.179
-514.858	-22.776	-0.223	-0.136
-513.843	-111.200	0.090	0.019
-512.829	-87.556	0.047	0.014
-511.814	-94.040	0.329	0.091
-510.799	-200.000	0.033	-0.310
-509.785	8.669	-0.257	-0.196
-508.770	-200.000	0.033	0.151
-507.756	800.000	0.090	0.332
-506.741	-200.000	-0.065	0.292
-505.726	81.861	0.197	-0.215
-504.712	-194.281	-0.171	0.001
-503.697	-200.000	0.014	-0.212
-502.683	465.259	-0.135	0.304
-501.668	62.729	-0.246	-0.248
-500.653	-76.425	-0.157	-0.056
-499.639	-8.270	-0.180	-0.122
-498.624	214.240	0.049	-0.077
-497.610	800.000	0.054	0.172
-496.595	62.756	-0.185	-0.187
-495.581	99.143	-0.037	-0.043
-494.566	-154.674	0.198	-0.013
-493.551	253.254	0.011	0.019
-492.537	79.458	-0.147	0.159
-491.522	730.729	-0.020	0.055
-490.508	52.326	0.104	-0.100
-489.493	-7.377	-0.254	0.173
-488.478	-68.716	0.117	0.046
-487.464	63.463	-0.119	0.120
-486.449	6.543	0.187	-0.140
-485.435	506.847	-0.066	0.155
-484.420	-63.910	-0.108	0.045
-483.405	-123.873	-0.318	-0.051
-482.391	-200.000	0.022	0.298
-481.376	800.000	0.014	0.054
-480.362	562.829	0.128	0.312
-479.347	207.327	-0.130	-0.204
-478.332	47.373	-0.132	0.124
-477.318	438.010	0.109	0.239
-476.303	-200.000	-0.027	-0.132
-475.289	800.000	-0.152	-0.502
-474.274	-132.518	-0.263	-0.034
-473.259	454.197	-0.099	-0.220
-472.245	-3.538	0.214	-0.150
-471.230	-78.889	0.246	-0.085
-470.216	-92.646	-0.088	0.025
-469.201	307.228	0.097	-0.183
-468.186	-129.102	0.225	-0.032
-467.172	-134.248	-0.309	0.038
-466.157	91.426	0.086	0.097
-465.143	800.000	-0.047	0.189
-464.128	7.599	0.089	0.067
-463.113	-200.000	0.026	-0.219
-462.099	12.833	0.172	-0.134
-461.084	97.831	-0.166	0.192
-460.070	-29.856	0.317	-0.182
-459.055	-200.000	0.086	-0.406
-458.040	-128.980	-0.536	-0.076
-457.026	800.000	0.092	-0.267
-456.011	-200.000	0.031	0.236
-454.997	-148.943	0.224	0.018
-453.982	-6.129	-0.217	-0.149
-452.968	-200.000	0.024	0.267
-451.953	-200.000	-0.015	0.084
-450.938	502.385	-0.032	-0.075
-449.924	-28.749	0.495	0.287
-448.909	-105.588	0.188	-0.043
-447.895	-200.000	0.012	0.446
-446.880	370.312	0.046	-0.094
-445.865	-50.383	0.209	0.100
-444.851	13.117	0.151	-0.117
-443.836	-200.000	0.046	0.285
-442.822	393.878	-0.074	-0.156
-441.807	-0.682	-0.200	-0.143
-440.792	-107.389	0.169	-0.037
-439.778	10.101	0.111	-0.085
-438.763	206.650	-0.128	-0.201
-437.749	-104.711	0.107	-0.025
-436.734	-78.714	-0.150	0.051
-435.719	238.459	0.203	-0.340
-434.705	328.198	0.034	-0.065
-433.690	2.839	0.136	-0.099
-432.676	115.734	0.253	-0.312
-431.661	68.258	0.045	-0.047
-430.646	31.167	-0.085	-0.073
-429.632	595.988	-0.048	-0.119
-428.617	74.992	0.126	-0.134
-427.603	792.338	0.176	0.487
-426.588	-58.529	-0.145	-0.063
-425.573	530.642	0.077	-0.182
-424.559	20.792	0.108	0.088
-423.544	-66.923	-0.136	-0.054
-422.530	-65.901	-0.129	-0.052
-421.515	83.298	-0.132	0.145
-420.500	-63.029	-0.123	0.051
-419.486	-22.515	-0.127	0.077
-418.471	-88.970	-0.235	-0.070
-417.457	-127.564	-0.124	0.018
-416.442	-200.000	0.014	-0.235
-415.428	6.191	0.260	0.194
-414.413	-200.000	0.153	0.001
-413.398	-200.000	0.026	-0.267
-412.384	-200.000	0.040	0.237
-411.369	25.723	-0.276	-0.231
-410.355	188.815	-0.162	-0.243
-409.340	39.893	-0.034	-0.030
-408.325	-116.573	0.106	0.020
-407.311	-55.386	-0.243	0.110
-406.296	221.247	-0.121	-0.196
-405.282	-110.673	0.110	-0.023
-404.267	42.888	0.163	0.150
-403.252	75.615	0.083	-0.088
-402.238	113.909	0.169	-0.207
-401.223	-4.261	-0.335	0.233
-400.209	800.000	-0.040	-0.146
-399.194	176.636	-0.034	-0.049
-398.179	-99.806	-0.120	0.030
-397.165	38.447	0.066	0.060
-396.150	-36.385	0.153	0.083
-395.136	73.502	0.047	-0.049
-394.121	9.178	-0.241	-0.183
-393.106	800.000	-0.030	-0.131
-392.092	-125.300	0.151	0.023
-391.077	-48.039	0.062	-0.030
-390.063	104.385	0.226	0.267
-389.048	800.000	-0.041	0.115
-388.033	317.784	-0.052	-0.099
-387.019	555.744	0.053	-0.128
-386.004	-158.978	0.343	0.020
-384.990	-24.452	-0.291	0.174
-383.975	379.652	0.132	0.272
-382.960	364.489	0.153	-0.309
-381.946	457.446	0.064	0.142
-380.931	359.907	-0.084	0.170
-379.917	208.431	0.050	0.079
-378.902	-200.000	0.010	0.175
-377.888	800.000	-0.030	-0.128
-376.873	119.944	0.216	0.269
-375.858	-175.229	0.218	0.006
-374.844	532.319	0.068	-0.161
-373.829	-45.061	0.119	-0.060
-372.815	800.000	0.084	-0.279
-371.800	-200.000	0.033	-0.231
-370.785	800.000	-0.065	0.201
-369.771	-57.824	-0.512	0.225
-368.756	-126.604	0.466	0.069
-367.742	-42.618	-0.217	-0.111
-366.727	50.756	-0.164	0.156
-365.712	264.606	0.116	0.203
-364.698	-200.000	0.029	-0.216
-363.683	40.685	-0.281	-0.255
-362.669	-20.069	0.220	-0.136
-361.654	-200.000	-0.025	0.174
-360.639	74.006	0.113	0.119
-359.625	-85.626	-0.181	0.056
-358.610	-200.000	-0.015	-0.131
-357.596	202.685	-0.169	-0.261
-356.581	-93.977	-0.223	0.062
-355.566	2.423	0.226	-0.164
-354.552	-2.167	0.155	0.109
-353.537	800.000	-0.034	-0.099
-352.523	274.240	0.143	-0.254
-351.508	-81.698	0.101	-0.033
-350.493	157.035	-0.128	0.177
-349.479	-115.021	0.146	-0.028
-348.464	67.384	0.181	-0.185
-347.450	-88.804	-0.300	0.089
-346.435	-200.000	-0.025	0.500
-345.420	14.253	0.150	-0.117
-344.406	-119.743	-0.172	-0.030
-343.391	769.346	-0.042	-0.114
-342.377	645.633	0.114	-0.292
-341.362	-200.000	-0.007	0.300
-340.348	-200.000	-0.003	-0.176
-339.333	-143.266	-0.303	0.029
-338.318	-200.000	-0.059	0.395
-337.304	58.516	-0.067	-0.066
-336.289	-107.988	0.229	-0.050
-335.275	86.238	-0.029	0.032
-334.260	22.921	0.006	-0.005
-333.245	-95.175	0.118	-0.032
-332.231	-79.413	-0.180	0.061
-331.216	172.951	0.214	-0.309
-330.202	-82.001	-0.287	0.094
-329.187	800.000	-0.054	-0.191
-328.172	-163.318	0.289	0.014
-327.158	-200.000	0.024	-0.214
-326.143	-163.429	-0.135	0.006
-325.129	741.991	-0.065	0.175
-324.114	800.000	-0.082	-0.279
-323.099	-84.686	0.301	0.095
-322.085	66.858	0.232	0.237
-321.070	-63.403	-0.380	-0.157
-320.056	-139.899	0.086	-0.009
-319.041	800.000	0.097	0.409
-318.026	-27.405	0.098	0.057
-317.012	-25.762	0.167	0.099
-315.997	-76.832	-0.010	0.004
-314.983	-200.000	-0.010	-0.060
-313.968	-200.000	0.021	0.154
-312.953	670.449	-0.093	0.241
-311.939	697.180	-0.060	-0.159
-310.924	-36.937	0.121	0.065
-309.910	678.138	-0.093	0.242
-308.895	-157.295	-0.149	0.009
-307.880	636.553	-0.085	-0.217
-306.866	45.732	-0.115	0.106
-305.851	-200.000	0.047	-0.303
-304.837	301.605	0.014	-0.027
-303.822	-69.178	-0.136	-0.052
-302.807	342.354	0.086	0.168
-301.793	800.000	0.051	-0.214
-300.778	-51.482	-0.135	-0.063
-299.764	-63.922	-0.287	-0.117
-298.749	360.160	-0.130	0.261
-297.735	-16.162	-0.061	0.039
-296.720	-200.000	-0.001	0.265
-295.705	-36.379	-0.522	0.282
-294.691	-121.414	0.087	-0.015
-293.676	-115.260	0.166	0.031
-292.662	800.000	-0.115	0.503
-291.647	-10.227	0.280	-0.186
-290.632	-161.524	0.149	0.008
-289.618	42.999	0.064	-0.058
-288.603	567.583	-0.090	0.220
-287.589	800.000	-0.096	0.281
-286.574	800.000	-0.038	0.158
-285.559	213.418	-0.051	0.081
-284.545	225.012	0.220	0.357
-283.530	-74.158	0.005	0.002
-282.516	-133.719	-0.084	0.010
-281.501	561.783	-0.051	0.123
-280.486	-200.000	0.023	0.112
-279.472	-200.000	0.035	0.218
-278.457	31.755	0.053	-0.046
-277.443	-155.172	0.196	0.013
-276.428	-42.883	0.050	0.025
-275.413	-180.461	-0.017	0.000
-274.399	140.308	0.159	0.209
-273.384	-182.149	0.234	-0.004
-272.370	513.762	-0.073	-0.171
-271.355	-114.724	-0.318	0.061
-270.340	47.686	0.156	0.145
-269.326	-17.454	-0.140	-0.088
-268.311	479.436	0.007	-0.017
-267.297	106.941	-0.017	-0.020
-266.282	-200.000	0.026	-0.160
-265.267	-200.000	0.001	0.300
-264.253	531.731	0.062	0.147
-263.238	-200.000	-0.002	0.265
-262.224	-142.286	-0.160	0.016
-261.209	800.000	-0.039	-0.168
-260.195	368.731	0.155	0.313
-259.180	-200.000	-0.013	0.119
-258.165	96.722	0.056	0.064
-257.151	130.698	0.032	0.041
-256.136	-19.268	-0.325	0.201
-255.122	-200.000	-0.037	0.165
-254.107	237.865	-0.178	0.295
-253.092	-31.305	-0.196	0.110
-252.078	-162.280	-0.200	-0.010
-251.063	-41.005	-0.257	0.132
-250.049	515.451	0.115	0.268
-249.034	800.000	0.081	-0.342
-248.019	-158.642	0.282	-0.016
-247.005	-200.000	0.023	0.100
-245.990	-200.000	-0.006	0.232
-244.976	-53.762	0.121	0.055
-243.961	-200.000	-0.029	-0.212
-242.946	-89.234	-0.235	-0.069
-241.932	266.003	0.135	0.235
-240.917	800.000	-0.113	0.373
-239.903	-15.974	0.259	0.165
-238.888	28.618	-0.184	0.155
-237.873	18.752	-0.304	0.243
-236.859	-11.240	0.186	0.122
-235.844	-200.000	-0.046	-0.208
-234.830	710.175	0.114	-0.300
-233.815	45.150	-0.092	0.085
-232.800	-34.785	0.180	0.098
-231.786	23.657	0.099	0.081
-230.771	-19.484	0.111	-0.069
-229.757	-78.560	-0.121	0.041
-228.742	-117.014	-0.429	-0.078
-227.727	-1.122	-0.138	-0.097
-226.713	240.942	0.223	0.372
-225.698	-135.507	-0.115	-0.014
-224.684	476.219	-0.205	-0.463
-223.669	490.276	0.077	0.176
-222.655	800.000	-0.119	-0.490
-221.640	-113.780	0.199	-0.039
-220.625	800.000	0.025	-0.103
-219.611	-78.684	-0.126	0.043
-218.596	2.681	0.105	-0.076
-217.582	-23.292	0.369	-0.221
-216.567	-200.000	-0.017	-0.216
-215.552	-56.063	-0.259	-0.115
-214.538	-200.000	0.002	0.013
-213.523	-182.911	0.242	-0.004
-212.509	-138.414	0.070	-0.008
-211.494	180.974	0.262	0.384
-210.479	84.630	0.207	0.226
-209.465	-59.332	-0.077	0.033
-208.450	344.735	-0.121	-0.236
-207.436	-38.788	0.286	-0.151
-206.421	-200.000	-0.009	-0.207
-205.406	-135.717	0.175	-0.021
-204.392	800.000	0.050	-0.163
-203.377	-200.000	0.043	-0.351
-202.363	751.311	0.095	-0.255
-201.348	800.000	-0.032	0.089
-200.333	-61.206	-0.490	0.206
-199.319	-74.175	-0.128	0.046
-198.304	-82.577	0.219	0.071
-197.290	232.814	0.146	0.239
-196.275	-102.495	0.266	-0.064
-195.260	-154.923	0.116	-0.008
-194.246	800.000	0.080	0.330
-193.231	32.072	0.272	-0.234
-192.217	65.078	0.134	-0.135
-191.202	-73.589	0.136	-0.049
-190.187	-82.985	-0.131	-0.042
-189.173	-200.000	0.035	0.228
-188.158	-37.114	-0.200	0.107
-187.144	-159.427	0.184	-0.010
-186.129	-13.972	0.067	0.043
-185.114	-84.312	0.145	-0.046
-184.100	-200.000	0.020	0.263
-183.085	63.658	0.170	0.170
-182.071	59.780	-0.125	-0.123
-181.056	-129.432	-0.142	-0.020
-180.042	-30.453	0.121	-0.068
-179.027	-144.394	0.232	0.021
-178.012	56.140	0.165	-0.160
-176.998	-200.000	-0.014	0.275
-175.983	-200.000	0.041	-0.268
-174.969	-200.000	-0.028	-0.222
-173.954	-5.867	-0.067	-0.046
-172.939	800.000	0.021	0.064
-171.925	-200.000	-0.019	-0.454
-170.910	302.924	0.082	0.150
-169.896	-114.620	0.119	-0.023
-168.881	631.363	-0.156	-0.394
-167.866	-200.000	-0.211	-0.001
-166.852	-133.648	0.158	0.020
-165.837	28.339	-0.132	0.111
-164.823	-127.364	-0.293	0.043
-163.808	-104.818	0.083	0.019
-162.793	496.944	0.004	-0.009
-161.779	800.000	0.070	-0.242
-160.764	-132.342	0.317	-0.041
-159.750	-19.202	0.162	0.100
-158.735	-162.658	-0.354	0.017
-157.720	251.259	-0.192	0.325
-156.706	424.176	0.163	0.348
-155.691	-82.357	-0.226	0.073
-154.677	-200.000	0.022	-0.291
-153.662	82.948	0.121	0.131
-152.647	-20.053	-0.129	-0.079
-151.633	-200.000	0.061	0.296
-150.618	-105.891	-0.210	-0.047
-149.604	800.000	0.069	-0.218
-148.589	705.532	-0.041	0.108
-147.574	-200.000	-0.011	0.346
-146.560	-16.534	0.345	-0.217
-145.545	-200.000	0.396	0.000
-144.531	800.000	0.088	0.272
-143.516	-200.000	0.006	0.029
-142.502	800.000	0.076	-0.212
-141.487	80.948	0.175	-0.187
-140.472	-200.000	0.037	-0.173
-139.458	-87.289	0.145	-0.044
-138.443	-102.375	-0.231	0.055
-137.429	125.681	-0.149	-0.187
-136.414	-1.468	0.462	0.324
-135.399	336.696	0.095	-0.183
-134.385	800.000	-0.062	-0.209
-133.370	-71.674	-0.075	0.028
-132.356	68.034	-0.198	0.201
-131.341	-200.000	0.089	0.496
-130.326	333.621	-0.131	0.252
-129.312	243.872	-0.179	0.298
-128.297	266.189	-0.095	-0.165
-127.283	-157.204	-0.154	-0.009
-126.268	-131.912	0.078	-0.010
-125.253	454.723	-0.059	-0.131
-124.239	737.560	-0.054	0.143
-123.224	-102.746	-0.501	0.119
-122.210	131.691	-0.180	0.230
-121.195	24.882	-0.109	-0.090
