DTS Sentinel unit serial number:	SN413079Multiplexer serial number:	ORYXHardware model number:	OX4-SRSoftware version number:	ORYX F/W v4.00 Oryx Data Collector v3.7.2.0data status	okinstallation	princeton_trtdifferential loss correction	single-endedforward channel	channel 4reverse channel	N/Adate	2019/09/17time	06:37:34forward acquisition time	60.00reverse acquisition time	0.00gamma	496.2192k internal	0.2318k external	0.2318temperature offset calibration	0.9986default loss term (dB/km)	0.3790temperature slope calibration	1.0000multiplexer offset coefficient	1.0000multiplexer slope coefficient	1.0000fibre end	0.00T internal ref (°C)	28.00T ext. ref 1 (°C)	0.13T ext. ref 2 (°C)	21.33length (m)	temperature (°C)	Stokes	anti-Stokes-747.200	-47.734	-0.181	0.089
-746.185	16.742	0.178	0.143
-745.171	189.487	0.172	0.261
-744.156	800.000	-0.102	0.420
-743.142	-200.000	0.008	-0.078
-742.127	38.412	0.090	-0.082
-741.112	181.201	-0.061	0.090
-740.098	-125.497	-0.051	0.008
-739.083	-137.843	-0.235	0.027
-738.069	240.940	0.022	0.038
-737.054	102.247	-0.017	0.020
-736.039	-152.795	-0.268	0.019
-735.025	18.649	0.187	0.151
-734.010	481.324	-0.127	-0.292
-732.996	597.988	0.118	0.297
-731.981	-71.403	0.088	-0.033
-730.966	-52.932	0.116	-0.054
-729.952	45.211	0.229	-0.214
-728.937	-81.236	-0.462	-0.154
-727.923	412.247	0.127	-0.274
-726.908	95.082	-0.028	0.033
-725.894	-90.068	-0.181	0.053
-724.879	-9.509	-0.247	0.167
-723.864	-200.000	-0.004	-0.016
-722.850	-21.196	-0.106	-0.066
-721.835	-200.000	0.071	-0.336
-720.821	617.484	0.080	-0.202
-719.806	104.255	0.276	0.328
-718.791	-154.045	-0.219	0.015
-717.777	221.136	0.144	0.233
-716.762	-41.176	-0.128	0.067
-715.748	-200.000	-0.016	-0.122
-714.733	-30.347	-0.232	-0.133
-713.718	800.000	-0.065	0.238
-712.704	800.000	0.034	-0.118
-711.689	108.436	-0.086	-0.104
-710.675	-200.000	-0.028	-0.602
-709.660	11.364	0.174	-0.135
-708.645	-27.416	0.312	-0.183
-707.631	-200.000	-0.113	-0.542
-706.616	142.381	0.191	-0.256
-705.602	-200.000	-0.002	0.140
-704.587	360.309	-0.044	0.089
-703.572	55.145	-0.238	0.233
-702.558	25.613	-0.111	0.093
-701.543	158.674	0.131	-0.184
-700.529	34.894	-0.041	-0.036
-699.514	-125.482	0.247	0.038
-698.499	-42.201	-0.426	0.220
-697.485	-152.740	0.131	-0.009
-696.470	106.318	-0.115	0.138
-695.456	-200.000	0.025	-0.240
-694.441	800.000	-0.017	0.049
-693.426	-200.000	0.007	-0.125
-692.412	800.000	-0.047	0.143
-691.397	-95.999	-0.337	-0.091
-690.383	89.227	0.041	0.046
-689.368	-42.734	0.133	-0.068
-688.354	-52.096	0.109	-0.051
-687.339	-90.151	0.103	-0.030
-686.324	-112.519	-0.195	0.039
-685.310	-63.364	0.085	-0.035
-684.295	348.275	-0.273	-0.543
-683.281	-64.218	0.071	0.029
-682.266	287.900	-0.045	0.082
-681.251	-200.000	0.000	-0.337
-680.237	-200.000	-0.011	0.286
-679.222	671.401	0.097	0.253
-678.208	101.651	-0.097	-0.115
-677.193	-200.000	-0.002	-0.059
-676.178	-72.503	0.258	0.096
-675.164	-59.011	-0.110	-0.048
-674.149	-114.904	-0.244	-0.047
-673.135	800.000	-0.037	0.111
-672.120	217.054	-0.165	-0.265
-671.105	-51.154	0.359	-0.170
-670.091	-200.000	0.008	-0.289
-669.076	52.048	-0.399	-0.384
-668.062	-94.924	0.166	0.045
-667.047	352.521	0.059	0.119
-666.032	-200.000	-0.005	-0.049
-665.018	-50.826	-0.203	0.096
-664.003	-63.458	-0.294	0.122
-662.989	-130.143	0.209	0.029
-661.974	-200.000	-0.021	0.168
-660.959	280.552	-0.266	-0.480
-659.945	-1.812	-0.247	-0.176
-658.930	162.515	-0.204	-0.288
-657.916	478.623	-0.058	0.133
-656.901	800.000	-0.023	0.094
-655.886	460.216	-0.091	0.204
-654.872	371.656	-0.146	-0.299
-653.857	800.000	0.102	-0.307
-652.843	11.947	-0.139	-0.108
-651.828	-63.035	-0.170	-0.071
-650.814	109.276	0.125	-0.150
-649.799	-200.000	-0.002	-0.382
-648.784	49.850	-0.071	-0.067
-647.770	39.530	-0.143	-0.129
-646.755	9.100	0.197	-0.150
-645.741	369.061	-0.018	-0.038
-644.726	185.858	-0.114	-0.171
-643.711	-62.796	0.278	0.116
-642.697	-174.777	0.248	0.007
-641.682	5.069	-0.285	-0.211
-640.668	-24.828	-0.224	0.134
-639.653	118.096	-0.168	-0.208
-638.638	-200.000	0.025	0.144
-637.624	315.904	-0.085	-0.162
-636.609	63.324	-0.201	-0.203
-635.595	-50.164	-0.134	0.064
-634.580	-132.551	0.225	0.029
-633.565	268.698	-0.077	0.135
-632.551	-93.932	0.126	-0.035
-631.536	-86.803	0.217	-0.067
-630.522	146.672	0.053	-0.072
-629.507	800.000	0.044	0.193
-628.492	-23.357	0.164	-0.099
-627.478	8.098	-0.117	0.089
-626.463	-119.371	0.068	0.012
-625.449	-20.703	-0.034	-0.021
-624.434	47.389	0.328	0.308
-623.419	-152.656	-0.032	-0.002
-622.405	335.720	0.087	-0.170
-621.390	-71.267	0.338	-0.128
-620.376	-51.481	0.234	0.110
-619.361	-138.175	0.266	-0.030
-618.346	43.293	0.155	-0.143
-617.332	-11.905	-0.097	0.064
-616.317	-131.674	0.132	0.017
-615.303	800.000	-0.142	-0.418
-614.288	188.700	0.124	0.187
-613.273	4.961	0.109	0.081
-612.259	-49.628	-0.118	-0.057
-611.244	223.976	0.143	-0.233
-610.230	116.207	0.062	-0.076
-609.215	264.251	-0.183	0.321
-608.201	-86.572	-0.356	0.110
-607.186	-104.443	0.331	-0.077
-606.171	-47.589	0.415	-0.203
-605.157	-152.442	-0.503	0.036
-604.142	800.000	-0.118	-0.458
-603.128	293.359	0.076	0.139
-602.113	-28.314	-0.136	0.079
-601.098	756.853	-0.052	0.143
-600.084	-93.562	0.224	-0.062
-599.069	-137.663	0.223	0.025
-598.055	-169.635	-0.226	0.008
-597.040	-28.176	0.186	-0.108
-596.025	6.649	-0.382	-0.286
-595.011	-23.861	-0.287	-0.173
-593.996	-20.832	0.243	-0.150
-592.982	-9.063	-0.152	-0.103
-591.967	-78.327	0.176	0.061
-590.952	170.100	0.044	-0.064
-589.938	89.088	0.141	-0.157
-588.923	-200.000	0.013	0.099
-587.909	335.487	0.069	-0.135
-586.894	-113.589	0.203	-0.040
-585.879	-5.093	-0.284	-0.197
-584.865	800.000	-0.060	0.214
-583.850	-79.362	0.053	0.018
-582.836	245.602	-0.150	-0.254
-581.821	800.000	-0.037	-0.111
-580.806	171.591	0.150	-0.217
-579.792	254.170	-0.110	-0.189
-578.777	-200.000	0.026	-0.129
-577.763	-65.386	-0.275	-0.111
-576.748	800.000	-0.085	0.277
-575.733	-49.313	0.202	-0.097
-574.719	-44.531	-0.256	-0.129
-573.704	800.000	0.051	0.162
-572.690	-72.594	0.128	-0.048
-571.675	189.102	-0.071	0.107
-570.661	-6.111	-0.089	0.061
-569.646	213.176	-0.049	0.077
-568.631	104.068	-0.111	-0.131
-567.617	-90.472	0.161	0.047
-566.602	-132.091	-0.294	-0.038
-565.588	622.884	-0.016	0.042
-564.573	15.707	0.087	-0.069
-563.558	59.249	-0.152	-0.151
-562.544	-200.000	-0.041	0.232
-561.529	341.596	-0.130	0.256
-560.515	-91.814	0.104	-0.030
-559.500	-138.691	-0.268	-0.029
-558.485	-200.000	0.015	-0.247
-557.471	134.020	0.162	0.211
-556.456	-82.817	0.184	-0.060
-555.442	-200.000	-0.023	-0.104
-554.427	291.233	0.071	0.129
-553.412	386.566	0.071	-0.148
-552.398	-200.000	0.038	0.289
-551.383	-200.000	-0.033	-0.332
-550.369	128.911	0.040	0.052
-549.354	11.911	0.278	-0.214
-548.339	-200.000	-0.005	0.202
-547.325	-200.000	0.069	-0.309
-546.310	-200.000	-0.073	-0.416
-545.296	43.480	0.333	-0.306
-544.281	-54.390	-0.223	0.102
-543.266	14.442	0.166	-0.130
-542.252	129.553	-0.075	0.096
-541.237	-43.849	0.274	0.139
-540.223	-200.000	-0.010	0.049
-539.208	144.284	0.025	-0.033
-538.193	514.179	0.154	-0.361
-537.179	800.000	0.050	-0.219
-536.164	167.754	0.052	0.074
-535.150	-149.406	0.179	-0.014
-534.135	297.104	0.107	0.196
-533.121	-139.167	0.250	0.027
-532.106	-131.379	0.027	-0.004
-531.091	781.087	-0.080	0.221
-530.077	800.000	0.085	0.336
-529.062	800.000	0.008	0.028
-528.048	417.680	-0.199	0.427
-527.033	-91.464	-0.270	-0.077
-526.018	-60.907	-0.145	-0.062
-525.004	57.881	0.171	0.168
-523.989	-60.792	0.323	-0.137
-522.975	196.078	0.350	0.535
-521.960	-76.860	-0.110	0.038
-520.945	-130.485	-0.090	0.012
-519.931	-15.083	0.157	0.101
-518.916	12.421	-0.121	0.094
-517.902	800.000	0.055	0.167
-516.887	87.777	0.055	0.061
-515.872	-163.110	0.247	-0.012
-514.858	123.938	0.025	-0.032
-513.843	178.073	-0.208	0.304
-512.829	154.400	0.073	0.100
-511.814	-200.000	0.005	-0.167
-510.799	35.398	0.290	-0.255
-509.785	126.227	-0.257	0.326
-508.770	146.775	-0.128	0.173
-507.756	-66.799	0.304	-0.120
-506.741	-2.218	0.110	-0.077
-505.726	8.994	-0.250	0.189
-504.712	508.504	0.071	0.166
-503.697	314.643	-0.138	0.260
-502.683	-36.094	-0.226	0.123
-501.668	800.000	0.045	0.130
-500.653	709.950	-0.136	0.360
-499.639	3.571	0.146	-0.107
-498.624	-163.842	0.497	-0.023
-497.610	101.555	-0.114	-0.133
-496.595	-21.596	-0.241	0.147
-495.581	-71.537	-0.148	-0.056
-494.566	34.696	-0.170	-0.149
-493.551	-46.250	-0.280	-0.138
-492.537	800.000	0.073	-0.278
-491.522	-200.000	0.009	0.075
-490.508	84.267	-0.120	0.132
-489.493	800.000	0.089	0.250
-488.478	-159.012	0.163	0.009
-487.464	-110.292	0.165	-0.034
-486.449	14.867	0.209	-0.164
-485.435	800.000	-0.040	-0.161
-484.420	-26.973	0.162	0.095
-483.405	-72.182	-0.095	0.035
-482.391	-153.305	-0.341	0.024
-481.376	136.806	-0.173	-0.226
-480.362	137.888	0.162	0.213
-479.347	-51.840	-0.245	-0.114
-478.332	-104.052	0.233	-0.054
-477.318	-200.000	0.023	-0.191
-476.303	8.018	0.148	0.111
-475.289	69.626	-0.238	-0.245
-474.274	522.000	0.098	-0.231
-473.259	129.822	0.238	-0.305
-472.245	68.447	-0.182	0.187
-471.230	-200.000	-0.040	-0.277
-470.216	800.000	0.051	-0.216
-469.201	168.157	-0.033	-0.046
-468.186	213.422	0.114	-0.181
-467.172	-134.522	-0.247	-0.030
-466.157	137.879	-0.131	0.171
-465.143	800.000	-0.068	0.290
-464.128	-163.164	0.088	0.004
-463.113	-200.000	-0.064	0.282
-462.099	-31.143	0.221	0.125
-461.084	-15.459	-0.078	0.050
-460.070	6.547	0.094	-0.070
-459.055	118.344	-0.165	-0.204
-458.040	-39.807	0.134	-0.070
-457.026	800.000	0.037	0.133
-456.011	-200.000	0.015	-0.264
-454.997	-200.000	0.073	-0.518
-453.982	-200.000	-0.073	0.324
-452.968	-200.000	-0.017	-0.410
-451.953	-200.000	-0.012	-0.079
-450.938	17.466	0.153	-0.121
-449.924	-200.000	0.026	-0.125
-448.909	-66.715	0.240	0.095
-447.895	404.727	0.122	0.257
-446.880	-97.477	-0.185	0.048
-445.865	-200.000	0.032	-0.500
-444.851	-12.785	0.120	-0.078
-443.836	800.000	-0.072	-0.223
-442.822	-88.246	0.321	-0.096
-441.807	-200.000	0.006	0.035
-440.792	44.646	0.130	-0.119
-439.778	800.000	0.042	0.163
-438.763	-90.475	-0.417	0.121
-437.749	-53.931	-0.186	-0.085
-436.734	16.149	-0.105	0.083
-435.719	-157.345	-0.225	0.014
-434.705	403.647	0.061	-0.128
-433.690	39.509	-0.116	-0.104
-432.676	28.236	-0.201	-0.170
-431.661	33.091	-0.158	0.137
-430.646	-110.653	-0.187	-0.039
-429.632	800.000	0.063	-0.263
-428.617	32.707	-0.364	-0.315
-427.603	194.811	0.178	-0.270
-426.588	-24.882	0.204	0.121
-425.573	423.009	-0.057	-0.122
-424.559	629.702	0.051	-0.128
-423.544	-98.619	0.155	-0.039
-422.530	-200.000	-0.063	-0.425
-421.515	71.367	-0.197	0.205
-420.500	-86.288	0.388	0.120
-419.486	-200.000	0.016	0.140
-418.471	-44.919	0.096	-0.048
-417.457	464.013	-0.046	-0.103
-416.442	-91.875	-0.156	0.044
-415.428	-200.000	-0.064	0.354
-414.413	-158.283	-0.241	-0.014
-413.398	8.012	-0.400	-0.300
-412.384	-53.531	-0.159	-0.073
-411.369	-200.000	0.038	0.213
-410.355	-200.000	-0.071	0.407
-409.340	53.109	-0.270	0.259
-408.325	71.862	0.163	-0.169
-407.311	-88.141	-0.244	0.073
-406.296	149.302	0.054	-0.073
-405.282	-15.037	-0.237	-0.152
-404.267	-72.414	0.284	0.105
-403.252	800.000	0.094	0.343
-402.238	800.000	0.020	-0.073
-401.223	484.436	0.054	-0.123
-400.209	800.000	0.066	0.229
-399.194	394.733	0.093	0.194
-398.179	-21.707	-0.192	0.117
-397.165	-200.000	0.015	-0.238
-396.150	356.042	-0.026	-0.051
-395.136	433.900	0.158	0.343
-394.121	-107.575	-0.158	-0.034
-393.106	-1.963	-0.139	0.097
-392.092	-200.000	-0.043	0.319
-391.077	154.444	-0.023	0.032
-390.063	297.558	0.081	-0.149
-389.048	21.318	0.255	-0.207
-388.033	-48.101	0.191	-0.092
-387.019	-200.000	-0.038	0.177
-386.004	20.914	0.178	-0.144
-384.990	800.000	0.030	-0.122
-383.975	43.950	-0.090	0.082
-382.960	130.217	-0.119	0.152
-381.946	-104.664	-0.100	-0.023
-380.931	124.705	-0.113	0.142
-379.917	-75.281	0.045	0.016
-378.902	-200.000	0.012	-0.113
-377.888	159.911	0.238	-0.332
-376.873	116.224	-0.137	-0.167
-375.858	-200.000	-0.000	0.147
-374.844	104.805	-0.115	-0.135
-373.829	-200.000	0.004	0.093
-372.815	-20.083	-0.273	-0.168
-371.800	619.665	0.091	0.228
-370.785	800.000	-0.122	0.343
-369.771	67.482	0.264	-0.269
-368.756	-37.072	0.137	0.073
-367.742	-200.000	-0.034	0.411
-366.727	190.679	-0.153	0.230
-365.712	-73.430	-0.200	0.073
-364.698	294.653	-0.010	-0.019
-363.683	-19.934	0.341	0.210
-362.669	105.340	-0.145	-0.170
-361.654	-195.424	0.391	0.003
-360.639	54.634	-0.074	0.071
-359.625	-140.210	0.140	0.015
-358.610	800.000	0.042	0.127
-357.596	279.180	0.173	-0.308
-356.581	115.160	0.090	0.109
-355.566	-176.220	0.230	-0.006
-354.552	-151.907	0.160	0.012
-353.537	49.643	0.147	0.138
-352.523	800.000	-0.062	-0.175
-351.508	776.991	-0.057	-0.156
-350.493	601.264	0.069	-0.170
-349.479	231.385	-0.192	0.313
-348.464	-37.244	0.106	0.056
-347.450	-110.856	0.393	-0.081
-346.435	315.518	0.042	-0.079
-345.420	800.000	0.070	-0.226
-344.406	-200.000	0.016	0.128
-343.391	-200.000	-0.024	0.199
-342.377	800.000	-0.002	0.011
-341.362	24.330	-0.189	-0.155
-340.348	109.350	-0.146	0.174
-339.333	800.000	-0.116	0.414
-338.318	-200.000	-0.033	0.311
-337.304	-113.011	-0.356	0.070
-336.289	185.535	0.116	-0.172
-335.275	-71.491	-0.352	0.131
-334.260	172.810	-0.098	-0.141
-333.245	800.000	0.042	0.152
-332.231	800.000	0.083	-0.242
-331.216	768.850	0.145	-0.393
-330.202	800.000	0.063	-0.259
-329.187	-51.082	-0.253	0.118
-328.172	-16.543	0.385	0.243
-327.158	48.669	-0.060	0.056
-326.143	60.572	-0.232	0.229
-325.129	-1.666	-0.155	-0.109
-324.114	-108.042	0.437	0.095
-323.099	-86.057	0.256	0.079
-322.085	12.196	0.146	0.112
-321.070	334.999	0.203	0.392
-320.056	-200.000	-0.062	0.399
-319.041	-95.212	0.073	0.020
-318.026	37.975	-0.282	0.249
-317.012	-65.431	0.186	0.074
-315.997	318.787	-0.019	-0.035
-314.983	519.323	-0.085	0.198
-313.968	-99.442	0.020	0.005
-312.953	56.613	0.034	-0.033
-311.939	-15.092	0.067	0.043
-310.924	-139.463	0.461	0.049
-309.910	-200.000	0.023	0.141
-308.895	-180.972	-0.100	0.002
-307.880	-120.718	0.141	0.024
-306.866	-100.262	-0.159	-0.039
-305.851	145.780	0.173	-0.231
-304.837	-200.000	0.020	-0.144
-303.822	-58.785	-0.119	0.051
-302.807	800.000	0.080	0.238
-301.793	12.612	0.288	0.221
-300.778	-200.000	-0.227	0.000
-299.764	-200.000	-0.026	-0.168
-298.749	144.516	-0.015	-0.020
-297.735	-200.000	0.024	-0.108
-296.720	-187.715	-0.198	0.003
-295.705	-200.000	0.001	-0.131
-294.691	386.332	-0.091	-0.187
-293.676	-143.237	-0.164	0.016
-292.662	414.214	-0.077	0.163
-291.647	779.045	-0.044	0.120
-290.632	705.653	-0.087	0.227
-289.618	64.076	0.178	0.178
-288.603	607.201	-0.064	0.158
-287.589	303.226	0.046	0.084
-286.574	-200.000	-0.074	-0.413
-285.559	455.774	-0.117	-0.257
-284.545	-127.615	0.149	-0.021
-283.530	-141.805	-0.025	0.002
-282.516	44.108	0.208	-0.190
-281.501	435.469	0.070	-0.152
-280.486	320.928	-0.123	-0.233
-279.472	-200.000	0.029	0.127
-278.457	144.788	-0.195	0.258
-277.443	-200.000	0.046	-0.348
-276.428	-91.649	0.043	-0.012
-275.413	-123.169	-0.070	0.011
-274.399	-41.393	0.454	0.232
-273.384	-42.706	-0.165	0.084
-272.370	-200.000	0.002	-0.096
-271.355	365.639	-0.120	0.241
-270.340	-91.452	0.179	0.051
-269.326	-112.801	0.373	-0.074
-268.311	-200.000	0.009	-0.147
-267.297	-200.000	-0.001	0.136
-266.282	22.629	-0.025	0.021
-265.267	-13.094	-0.091	-0.059
-264.253	-8.927	0.179	0.119
-263.238	-200.000	-0.166	-0.001
-262.224	-159.214	-0.060	-0.003
-261.209	-200.000	-0.002	0.319
-260.195	117.155	-0.225	-0.274
-259.180	-151.888	0.221	0.016
-258.165	-97.260	-0.345	0.089
-257.151	755.445	-0.073	0.197
-256.136	-200.000	-0.035	0.254
-255.122	439.263	-0.047	-0.102
-254.107	800.000	0.142	0.424
-253.092	370.829	-0.043	0.087
-252.078	-0.975	0.066	-0.046
-251.063	-200.000	-0.034	-0.186
-250.049	414.364	-0.180	-0.380
-249.034	223.507	-0.082	-0.132
-248.019	30.030	-0.097	0.082
-247.005	118.074	0.125	-0.153
-245.990	-167.059	0.086	0.003
-244.976	399.755	-0.059	0.122
-243.961	-200.000	0.005	0.239
-242.946	-119.303	0.158	0.027
-241.932	800.000	0.052	-0.198
-240.917	-200.000	-0.007	-0.287
-239.903	308.197	0.082	0.152
-238.888	-200.000	0.006	0.217
-237.873	-85.229	0.373	0.116
-236.859	95.291	-0.137	0.155
-235.844	91.030	-0.182	0.203
-234.830	-53.754	0.188	-0.085
-233.815	41.240	0.209	0.188
-232.800	800.000	-0.086	-0.312
-231.786	-54.761	0.301	0.135
-230.771	552.889	0.069	-0.165
-229.757	-80.751	0.290	0.096
-228.742	-149.464	-0.345	-0.027
-227.727	-126.603	0.265	-0.039
-226.713	17.801	0.088	0.069
-225.698	-5.794	0.113	0.077
-224.684	452.041	-0.072	0.159
-223.669	25.851	-0.276	-0.228
-222.655	-83.881	-0.116	0.037
-221.640	675.954	-0.123	0.317
-220.625	-200.000	0.160	-0.001
-219.611	5.559	0.013	-0.009
-218.596	-82.755	-0.195	-0.062
-217.582	168.015	-0.077	0.109
-216.567	197.879	-0.072	0.109
-215.552	-152.000	-0.149	0.011
-214.538	800.000	-0.053	0.193
-213.523	-200.000	0.005	0.189
-212.509	150.731	-0.196	-0.264
-211.494	57.526	0.124	-0.120
-210.479	800.000	-0.052	-0.177
-209.465	29.871	-0.187	0.158
-208.450	115.624	0.180	0.218
-207.436	800.000	-0.130	-0.360
-206.421	48.514	-0.380	0.353
-205.406	-29.092	-0.095	0.054
-204.392	778.245	-0.098	0.266
-203.377	58.558	0.176	-0.171
-202.363	112.528	-0.161	-0.193
-201.348	-2.740	0.128	-0.088
-200.333	-138.310	-0.261	0.029
-199.319	-47.282	0.190	-0.092
-198.304	-200.000	0.000	-0.280
-197.290	-200.000	0.016	-0.182
-196.275	501.732	-0.073	-0.168
-195.260	-105.085	0.155	0.035
-194.246	87.480	-0.216	-0.237
-193.231	-200.000	-0.015	-0.090
-192.217	58.213	-0.139	0.135
-191.202	-200.000	0.055	-0.281
-190.187	41.413	-0.160	0.144
-189.173	-200.000	-0.036	0.167
-188.158	-1.906	0.076	-0.053
-187.144	-200.000	-0.024	0.161
-186.129	-27.905	-0.111	-0.064
-185.114	230.939	-0.208	0.337
-184.100	-5.843	-0.067	-0.046
-183.085	-200.000	0.008	-0.215
-182.071	37.945	0.051	0.045
-181.056	-5.980	0.242	0.164
-180.042	-200.000	0.015	0.280
-179.027	-18.850	-0.214	0.132
-178.012	384.389	-0.092	-0.188
-176.998	-148.662	0.301	-0.024
-175.983	344.547	0.152	0.295
-174.969	53.834	-0.217	-0.207
-173.954	129.716	-0.064	-0.082
-172.939	-200.000	0.015	0.106
-171.925	2.717	-0.084	0.060
-170.910	71.006	-0.105	-0.108
-169.896	142.643	-0.094	-0.124
-168.881	220.036	0.131	0.208
-167.866	-200.000	0.012	0.105
-166.852	-38.444	-0.207	0.108
-165.837	-200.000	0.028	0.139
-164.823	115.922	0.160	-0.194
-163.808	-52.359	-0.119	-0.054
-162.793	336.306	-0.065	-0.126
-161.779	-92.998	-0.082	-0.023
-160.764	-200.000	-0.052	0.247
-159.750	-129.378	0.210	0.029
-158.735	646.668	-0.115	-0.290
-157.720	-92.031	-0.378	0.106
-156.706	-69.800	-0.098	-0.037
-155.691	-200.000	0.010	0.240
-154.677	471.679	0.076	-0.169
-153.662	-61.451	-0.207	0.086
-152.647	-101.781	-0.369	0.088
-151.633	-200.000	0.007	-0.272
-150.618	181.602	-0.358	0.521
-149.604	-48.590	0.496	0.236
-148.589	424.355	-0.093	0.198
-147.574	53.003	-0.233	-0.221
-146.560	160.672	0.183	-0.253
-145.545	-200.000	0.004	0.159
-144.531	-107.959	0.277	-0.060
-143.516	388.629	-0.119	-0.244
-142.502	-79.992	-0.371	-0.123
-141.487	-82.272	0.381	0.123
-140.472	70.113	-0.296	0.302
-139.458	43.194	-0.250	0.225
-138.443	574.825	-0.066	-0.160
-137.429	23.044	0.199	-0.161
-136.414	78.657	0.109	0.115
-135.399	195.776	-0.279	-0.420
-134.385	-43.839	-0.331	-0.165
-133.370	12.037	-0.204	-0.155
-132.356	233.505	-0.176	0.286
-131.341	17.666	0.117	-0.092
-130.326	-200.000	-0.048	0.369
-129.312	732.737	-0.130	0.344
-128.297	-200.000	0.006	-0.032
-127.283	27.830	0.123	-0.102
-126.268	-200.000	0.443	0.000
-125.253	325.965	0.110	0.208
-124.239	-29.321	-0.128	0.073
-123.224	-125.014	0.097	-0.015
-122.210	28.748	0.187	0.157
-121.195	-200.000	-0.017	0.117
