DTS Sentinel unit serial number:	SN413079Multiplexer serial number:	ORYXHardware model number:	OX4-SRSoftware version number:	ORYX F/W v4.00 Oryx Data Collector v3.7.2.0data status	okinstallation	princeton_trtdifferential loss correction	single-endedforward channel	channel 4reverse channel	N/Adate	2019/09/13time	20:29:34forward acquisition time	60.00reverse acquisition time	0.00gamma	496.2192k internal	0.2318k external	0.2318temperature offset calibration	1.0133default loss term (dB/km)	0.3790temperature slope calibration	1.0000multiplexer offset coefficient	1.0000multiplexer slope coefficient	1.0000fibre end	0.00T internal ref (°C)	29.12T ext. ref 1 (°C)	3.17T ext. ref 2 (°C)	23.69length (m)	temperature (°C)	Stokes	anti-Stokes-747.200	147.170	0.063	-0.086
-746.185	-180.450	-0.142	-0.003
-745.171	-82.554	-0.336	-0.110
-744.156	-162.984	-0.326	0.016
-743.142	-5.030	0.109	0.076
-742.127	-104.283	-0.128	0.030
-741.112	57.075	0.025	-0.025
-740.098	-55.421	-0.150	-0.068
-739.083	52.103	-0.319	-0.307
-738.069	100.512	-0.099	0.116
-737.054	21.703	0.214	0.176
-736.039	-200.000	-0.031	-0.367
-735.025	800.000	0.093	-0.390
-734.010	157.493	0.143	-0.201
-732.996	-146.425	-0.368	-0.032
-731.981	36.574	0.363	0.324
-730.966	-7.237	-0.213	-0.146
-729.952	515.093	0.077	-0.181
-728.937	-59.681	-0.169	-0.073
-727.923	-116.473	0.132	0.025
-726.908	-49.204	0.166	-0.080
-725.894	371.454	-0.061	0.126
-724.879	12.852	0.241	0.188
-723.864	-200.000	-0.056	-0.263
-722.850	195.954	-0.124	0.192
-721.835	90.708	-0.436	0.493
-720.821	723.640	-0.145	0.391
-719.806	-146.946	0.111	0.010
-718.791	-200.000	-0.001	-0.137
-717.777	37.697	-0.125	-0.112
-716.762	-85.134	0.176	0.056
-715.748	33.023	-0.108	0.095
-714.733	800.000	-0.098	0.411
-713.718	-83.461	0.562	-0.182
-712.704	-27.709	-0.327	0.192
-711.689	-36.137	-0.252	-0.138
-710.675	114.367	0.136	-0.167
-709.660	-178.104	-0.261	-0.006
-708.645	-19.420	-0.234	0.147
-707.631	-178.262	0.387	0.009
-706.616	-200.000	0.023	0.363
-705.602	122.345	-0.174	0.219
-704.587	-200.000	-0.025	0.184
-703.572	84.722	-0.153	0.169
-702.558	-84.490	-0.137	-0.044
-701.543	439.296	0.181	0.400
-700.529	-200.000	-0.012	0.077
-699.514	210.177	0.120	0.191
-698.499	-19.860	-0.393	-0.245
-697.485	59.240	-0.150	0.149
-696.470	-200.000	0.025	0.143
-695.456	-67.385	0.118	-0.047
-694.441	516.612	-0.076	-0.180
-693.426	-9.253	-0.101	0.068
-692.412	119.809	-0.120	0.150
-691.397	104.942	-0.119	-0.142
-690.383	144.851	-0.124	-0.167
-689.368	126.939	0.180	-0.230
-688.354	309.583	0.150	0.283
-687.339	654.009	-0.081	0.209
-686.324	16.352	0.183	-0.146
-685.310	-129.693	-0.425	-0.059
-684.295	224.863	-0.116	0.189
-683.281	90.109	0.198	-0.224
-682.266	-97.659	-0.090	-0.024
-681.251	-150.137	0.127	-0.010
-680.237	58.242	0.262	-0.260
-679.222	-200.000	-0.014	0.123
-678.208	-200.000	0.012	0.078
-677.193	-200.000	0.001	0.346
-676.178	-191.646	0.221	0.002
-675.164	418.373	0.070	0.150
-674.149	52.379	-0.272	0.262
-673.135	193.152	-0.257	-0.393
-672.120	-22.942	-0.193	-0.117
-671.105	119.453	0.064	-0.080
-670.091	-147.273	-0.252	-0.022
-669.076	146.897	0.098	-0.133
-668.062	-37.962	-0.376	-0.202
-667.047	-200.000	-0.007	-0.077
-666.032	127.307	-0.107	-0.138
-665.018	0.833	0.300	0.217
-664.003	-9.625	0.289	-0.194
-662.989	-83.003	-0.185	0.060
-661.974	204.749	0.106	0.166
-660.959	-145.178	-0.206	-0.019
-659.945	-177.933	0.510	0.012
-658.930	-62.341	0.317	0.133
-657.916	-200.000	0.049	0.261
-656.901	800.000	-0.081	-0.234
-655.886	-200.000	0.025	0.138
-654.872	20.507	-0.195	-0.159
-653.857	800.000	-0.073	-0.225
-652.843	149.446	0.172	-0.235
-651.828	-136.088	-0.238	0.028
-650.814	312.880	-0.033	0.062
-649.799	-200.000	0.025	-0.348
-648.784	-83.411	-0.071	0.023
-647.770	-56.706	-0.142	-0.063
-646.755	47.266	-0.095	-0.089
-645.741	236.568	0.262	-0.437
-644.726	-200.000	-0.012	0.053
-643.711	-119.538	0.123	-0.021
-642.697	-200.000	-0.035	-0.286
-641.682	499.278	0.057	0.131
-640.668	580.465	0.053	0.131
-639.653	-159.596	0.061	-0.003
-638.638	-32.443	-0.259	0.145
-637.624	800.000	0.108	-0.329
-636.609	-105.205	-0.261	0.060
-635.595	21.676	0.208	0.170
-634.580	-123.839	0.136	0.022
-633.565	-96.114	-0.266	-0.071
-632.551	800.000	-0.042	-0.158
-631.536	800.000	-0.053	-0.160
-630.522	800.000	-0.079	-0.265
-629.507	-67.156	0.141	-0.056
-628.492	-200.000	-0.069	-0.328
-627.478	-20.528	-0.179	-0.111
-626.463	-64.010	-0.272	-0.112
-625.449	-109.082	0.391	-0.084
-624.434	25.372	-0.158	-0.132
-623.419	800.000	0.041	0.178
-622.405	120.499	0.090	0.113
-621.390	-82.371	-0.098	-0.032
-620.376	98.378	0.176	-0.205
-619.361	187.310	0.105	-0.157
-618.346	-112.663	-0.163	0.033
-617.332	719.071	0.101	-0.271
-616.317	-200.000	-0.003	-0.113
-615.303	-126.014	0.056	0.008
-614.288	7.098	0.062	-0.047
-613.273	-4.958	0.315	-0.218
-612.259	800.000	0.053	0.195
-611.244	21.001	0.252	0.205
-610.230	-200.000	-0.007	0.105
-609.215	-61.112	0.172	0.073
-608.201	245.048	0.070	0.118
-607.186	-200.000	-0.015	0.402
-606.171	324.508	0.020	-0.039
-605.157	702.542	-0.029	-0.078
-604.142	-66.950	-0.347	0.138
-603.128	103.914	-0.153	0.181
-602.113	-24.765	0.099	-0.059
-601.098	-119.969	0.337	-0.058
-600.084	-57.812	0.041	0.018
-599.069	-113.071	0.138	-0.027
-598.055	-80.086	-0.063	-0.021
-597.040	507.278	-0.144	-0.336
-596.025	-34.895	-0.283	0.156
-595.011	-200.000	-0.052	0.284
-593.996	398.498	0.090	-0.189
-592.982	-133.000	-0.327	0.042
-591.967	-9.408	-0.141	0.094
-590.952	511.869	-0.068	-0.160
-589.938	130.945	0.090	-0.117
-588.923	-93.894	-0.472	0.131
-587.909	63.312	0.138	0.139
-586.894	-200.000	0.025	0.114
-585.879	-200.000	0.007	0.131
-584.865	195.431	-0.062	-0.095
-583.850	225.715	-0.114	0.186
-582.836	-110.706	0.362	0.075
-581.821	-89.796	-0.325	-0.096
-580.806	-200.000	0.027	0.132
-579.792	80.636	0.269	0.291
-578.777	291.117	0.057	0.104
-577.763	800.000	-0.075	0.220
-576.748	356.717	-0.061	-0.122
-575.733	-122.385	0.436	0.071
-574.719	800.000	0.043	-0.149
-573.704	-44.352	-0.188	-0.094
-572.690	-46.151	-0.086	0.042
-571.675	125.482	-0.186	-0.237
-570.661	548.362	-0.025	0.059
-569.646	-96.040	0.142	-0.038
-568.631	102.187	-0.243	0.285
-567.617	800.000	0.095	0.362
-566.602	-39.264	-0.174	-0.092
-565.588	234.523	-0.078	0.128
-564.573	294.903	0.158	-0.291
-563.558	43.978	-0.077	-0.071
-562.544	800.000	0.014	-0.050
-561.529	-200.000	-0.002	0.248
-560.515	800.000	-0.079	-0.233
-559.500	-87.894	-0.184	-0.056
-558.485	-59.394	0.351	0.151
-557.471	-105.092	0.421	-0.097
-556.456	129.906	0.222	0.285
-555.442	800.000	-0.087	-0.332
-554.427	-120.888	0.118	-0.020
-553.412	0.200	0.240	0.172
-552.398	185.483	0.229	0.341
-551.383	-200.000	-0.025	-0.267
-550.369	-200.000	0.004	-0.243
-549.354	784.864	0.051	-0.142
-548.339	-73.767	0.097	-0.035
-547.325	-200.000	0.006	-0.119
-546.310	-127.771	-0.184	0.027
-545.296	-200.000	0.001	0.122
-544.281	-19.364	-0.201	-0.125
-543.266	-200.000	-0.003	-0.031
-542.252	-141.560	-0.088	0.009
-541.237	23.839	0.086	0.071
-540.223	59.436	-0.109	-0.108
-539.208	631.105	0.064	-0.163
-538.193	-11.640	-0.123	0.081
-537.179	-59.989	0.321	-0.138
-536.164	-200.000	0.002	-0.269
-535.150	186.710	-0.327	-0.488
-534.135	107.342	0.129	0.154
-533.121	34.374	0.035	0.030
-532.106	257.873	-0.162	0.281
-531.091	62.197	0.307	0.307
-530.077	-74.630	-0.273	-0.098
-529.062	515.073	-0.142	-0.332
-528.048	-167.972	-0.264	0.010
-527.033	39.350	0.194	0.175
-526.018	175.521	0.019	-0.028
-525.004	-158.246	0.233	0.014
-523.989	-129.868	0.083	-0.011
-522.975	270.600	-0.145	0.257
-521.960	420.227	-0.091	-0.196
-520.945	84.906	-0.052	0.057
-519.931	216.661	0.143	-0.229
-518.916	4.114	-0.098	-0.072
-517.902	315.339	0.103	-0.196
-516.887	181.104	0.266	0.392
-515.872	-135.316	0.142	0.017
-514.858	454.013	0.050	0.110
-513.843	-200.000	0.002	-0.422
-512.829	55.727	0.244	0.237
-511.814	-200.000	0.060	0.358
-510.799	36.041	-0.141	-0.124
-509.785	-200.000	0.005	0.286
-508.770	309.405	-0.171	-0.320
-507.756	-200.000	-0.012	-0.366
-506.741	-65.024	0.220	0.089
-505.726	-46.097	0.224	-0.110
-504.712	-32.780	-0.155	-0.086
-503.697	-96.411	0.183	-0.049
-502.683	62.254	0.253	0.253
-501.668	-200.000	0.011	-0.101
-500.653	690.256	0.099	-0.261
-499.639	19.408	-0.045	-0.036
-498.624	-152.105	-0.228	0.017
-497.610	-24.737	0.037	0.022
-496.595	66.620	-0.127	0.130
-495.581	-148.313	0.244	0.020
-494.566	-93.052	-0.023	0.007
-493.551	-148.742	-0.270	-0.022
-492.537	153.166	-0.149	-0.204
-491.522	-111.666	0.159	0.032
-490.508	22.721	0.327	0.269
-489.493	159.267	0.170	-0.237
-488.478	-148.769	-0.027	0.002
-487.464	-92.419	-0.115	0.032
-486.449	-62.718	0.276	0.115
-485.435	-200.000	-0.005	0.224
-484.420	-159.488	-0.224	-0.012
-483.405	200.633	-0.060	0.093
-482.391	-200.000	0.040	0.214
-481.376	-84.272	0.149	0.047
-480.362	100.929	0.092	-0.107
-479.347	-200.000	-0.006	-0.421
-478.332	190.190	-0.274	-0.412
-477.318	-137.005	0.349	0.040
-476.303	438.071	0.129	-0.282
-475.289	-200.000	0.005	0.403
-474.274	-45.298	-0.257	-0.128
-473.259	800.000	0.076	-0.252
-472.245	-125.171	0.288	-0.044
-471.230	79.231	-0.108	0.116
-470.216	-143.648	0.153	-0.015
-469.201	-33.350	0.077	-0.042
-468.186	-49.484	0.091	0.044
-467.172	277.397	0.096	-0.171
-466.157	-40.309	0.151	-0.079
-465.143	587.198	-0.063	0.155
-464.128	136.940	-0.215	0.281
-463.113	-200.000	-0.003	0.507
-462.099	-25.143	-0.155	0.092
-461.084	-45.572	0.188	-0.093
-460.070	192.420	0.126	0.190
-459.055	-200.000	-0.013	-0.257
-458.040	391.425	-0.096	0.199
-457.026	-33.653	-0.061	-0.034
-456.011	-151.666	-0.108	0.008
-454.997	800.000	0.018	-0.051
-453.982	4.719	0.170	0.125
-452.968	413.266	-0.035	0.075
-451.953	57.104	-0.227	-0.221
-450.938	-73.558	0.249	-0.091
-449.924	413.106	0.116	0.248
-448.909	219.234	-0.189	-0.302
-447.895	-200.000	0.105	-0.533
-446.880	-140.060	0.473	0.050
-445.865	-55.898	0.249	-0.111
-444.851	158.544	-0.105	0.145
-443.836	407.632	0.078	-0.165
-442.822	800.000	-0.095	-0.309
-441.807	800.000	-0.010	0.031
-440.792	137.345	0.071	-0.094
-439.778	-14.331	-0.273	0.176
-438.763	181.907	0.133	-0.195
-437.749	800.000	0.081	-0.329
-436.734	-200.000	-0.070	0.311
-435.719	-108.652	0.139	0.030
-434.705	129.548	0.146	-0.187
-433.690	410.582	-0.138	-0.292
-432.676	776.322	-0.081	0.222
-431.661	86.710	0.029	-0.032
-430.646	-200.000	-0.012	-0.120
-429.632	236.325	-0.047	0.078
-428.617	800.000	-0.043	0.184
-427.603	-136.595	-0.207	0.024
-426.588	-128.948	-0.176	-0.025
-425.573	800.000	0.060	-0.182
-424.559	12.277	0.130	0.100
-423.544	500.860	-0.118	0.272
-422.530	-144.713	-0.258	-0.024
-421.515	470.203	-0.068	0.154
-420.500	-154.932	0.248	0.016
-419.486	21.173	0.235	-0.190
-418.471	27.624	0.144	0.121
-417.457	-132.719	0.351	0.045
-416.442	-200.000	0.023	-0.319
-415.428	-200.000	-0.053	-0.317
-414.413	148.070	-0.034	0.046
-413.398	-12.429	-0.111	0.073
-412.384	-54.103	-0.230	0.105
-411.369	800.000	-0.008	-0.032
-410.355	-15.043	-0.182	0.116
-409.340	-154.167	0.331	0.022
-408.325	-200.000	0.019	0.404
-407.311	-19.760	0.319	-0.197
-406.296	-5.898	0.435	-0.297
-405.282	-90.626	-0.253	-0.073
-404.267	-72.356	0.194	-0.072
-403.252	-200.000	-0.008	0.189
-402.238	580.465	-0.138	0.336
-401.223	-200.000	-0.001	0.074
-400.209	97.217	-0.137	0.157
-399.194	219.728	-0.058	-0.092
-398.179	-160.558	0.061	-0.003
-397.165	-70.770	-0.170	0.064
-396.150	-200.000	-0.022	0.171
-395.136	95.838	-0.254	-0.290
-394.121	-60.009	0.248	0.106
-393.106	-23.748	-0.227	0.136
-392.092	658.514	-0.124	-0.318
-391.077	-200.000	-0.041	-0.268
-390.063	2.229	0.125	0.090
-389.048	-92.798	0.331	0.092
-388.033	-40.285	0.230	-0.119
-387.019	-200.000	-0.015	0.286
-386.004	-34.657	-0.034	0.019
-384.990	-200.000	0.005	0.043
-383.975	292.319	0.109	0.198
-382.960	124.235	-0.041	0.052
-381.946	540.957	0.132	-0.313
-380.931	84.630	-0.201	-0.219
-379.917	-192.349	-0.316	-0.003
-378.902	32.652	-0.070	-0.061
-377.888	-126.910	-0.386	-0.057
-376.873	-172.246	-0.181	-0.006
-375.858	-98.654	-0.045	-0.012
-374.844	523.233	0.087	-0.204
-373.829	457.836	-0.049	0.108
-372.815	382.161	-0.136	0.278
-371.800	800.000	0.093	-0.290
-370.785	204.782	0.045	0.070
-369.771	145.347	0.170	0.227
-368.756	233.770	-0.032	0.053
-367.742	-155.956	0.082	-0.005
-366.727	-200.000	0.039	0.331
-365.712	-76.098	0.054	0.019
-364.698	237.519	0.059	0.098
-363.683	59.450	-0.231	0.227
-362.669	-42.113	0.036	0.018
-361.654	531.502	-0.072	0.169
-360.639	-200.000	0.006	0.065
-359.625	482.146	-0.059	0.134
-358.610	183.844	0.063	-0.093
-357.596	-200.000	0.011	-0.061
-356.581	23.224	0.066	0.054
-355.566	381.902	0.045	0.091
-354.552	152.746	-0.181	-0.246
-353.537	128.772	0.290	0.368
-352.523	-1.780	0.038	-0.026
-351.508	-66.981	-0.233	-0.092
-350.493	23.058	-0.156	0.128
-349.479	395.206	-0.043	-0.089
-348.464	-101.438	-0.268	0.065
-347.450	-200.000	-0.051	-0.386
-346.435	450.393	-0.039	0.086
-345.420	238.302	-0.047	-0.078
-344.406	-200.000	0.039	0.216
-343.391	-137.812	-0.120	-0.013
-342.377	-145.483	0.085	-0.008
-341.362	800.000	-0.041	-0.123
-340.348	-200.000	-0.003	-0.115
-339.333	167.857	0.131	0.186
-338.318	98.215	-0.105	0.121
-337.304	40.628	-0.243	0.218
-336.289	478.478	0.092	-0.209
-335.275	55.704	-0.131	-0.126
-334.260	-74.993	0.356	0.127
-333.245	46.474	-0.194	0.180
-332.231	800.000	0.054	-0.228
-331.216	-84.223	-0.370	-0.117
-330.202	800.000	0.091	-0.337
-329.187	40.275	0.144	0.129
-328.172	-116.466	-0.346	0.064
-327.158	-146.302	0.214	0.019
-326.143	259.173	0.108	-0.186
-325.129	-59.363	0.085	0.036
-324.114	-200.000	-0.008	0.160
-323.099	445.550	-0.101	0.221
-322.085	-52.268	0.256	-0.118
-321.070	-200.000	0.057	0.329
-320.056	100.475	0.026	-0.030
-319.041	179.669	-0.085	0.124
-318.026	-186.656	0.410	0.006
-317.012	-159.807	-0.165	0.009
-315.997	-151.979	0.290	-0.021
-314.983	37.245	-0.035	-0.031
-313.968	-60.948	0.067	-0.028
-312.953	-200.000	-0.008	-0.056
-311.939	342.699	0.071	0.138
-310.924	28.242	0.099	0.083
-309.910	-40.233	0.146	-0.076
-308.895	-155.603	-0.116	0.007
-307.880	-200.000	0.064	-0.286
-306.866	-200.000	-0.016	0.142
-305.851	-200.000	-0.118	-0.620
-304.837	88.842	-0.067	0.074
-303.822	800.000	-0.085	0.247
-302.807	-93.582	-0.233	0.064
-301.793	800.000	-0.113	0.426
-300.778	2.104	-0.150	-0.108
-299.764	249.826	-0.144	0.244
-298.749	800.000	-0.036	0.103
-297.735	-200.000	-0.007	-0.154
-296.720	69.551	0.151	-0.154
-295.705	-114.145	0.075	0.014
-294.691	-20.282	0.285	0.175
-293.676	11.365	0.050	-0.038
-292.662	-200.000	-0.008	0.298
-291.647	800.000	-0.018	-0.071
-290.632	-162.613	-0.400	-0.020
-289.618	-89.284	-0.176	-0.051
-288.603	-200.000	-0.032	0.470
-287.589	-200.000	0.031	0.188
-286.574	213.141	-0.074	-0.116
-285.559	56.208	-0.194	-0.187
-284.545	163.158	-0.175	-0.244
-283.530	-28.201	0.275	-0.158
-282.516	-19.083	0.246	-0.152
-281.501	-109.066	0.029	0.006
-280.486	100.723	-0.059	-0.068
-279.472	691.244	-0.071	-0.186
-278.457	300.959	0.065	-0.119
-277.443	146.874	-0.106	0.141
-276.428	-118.094	-0.367	0.065
-275.413	14.924	0.056	0.044
-274.399	101.490	-0.169	0.196
-273.384	-38.892	0.222	-0.116
-272.370	241.481	0.079	0.131
-271.355	80.560	-0.114	-0.122
-270.340	21.509	-0.176	0.142
-269.326	-98.264	0.130	-0.033
-268.311	0.365	0.507	-0.360
-267.297	800.000	0.061	-0.233
-266.282	-25.646	-0.076	0.044
-265.267	800.000	0.099	-0.271
-264.253	-22.671	-0.178	0.107
-263.238	483.115	-0.175	0.395
-262.224	800.000	-0.126	0.416
-261.209	609.418	-0.101	0.250
-260.195	-36.902	0.491	0.262
-259.180	-200.000	0.027	0.392
-258.165	-91.852	0.227	0.064
-257.151	64.550	0.144	0.144
-256.136	-171.964	-0.230	-0.007
-255.122	-200.000	-0.097	0.435
-254.107	41.459	-0.049	0.044
-253.092	800.000	-0.057	0.195
-252.078	800.000	-0.100	-0.390
-251.063	185.729	0.073	-0.108
-250.049	-64.133	-0.193	0.078
-249.034	-63.546	0.107	0.044
-248.019	-18.749	-0.168	0.104
-247.005	295.854	0.130	0.236
-245.990	-41.497	0.241	0.123
-244.976	-77.746	-0.137	-0.047
-243.961	-125.338	-0.252	0.038
-242.946	800.000	-0.058	0.182
-241.932	-71.172	-0.249	-0.093
-240.917	106.758	-0.068	-0.081
-239.903	-200.000	-0.037	-0.266
-238.888	-17.150	-0.157	-0.098
-237.873	-200.000	-0.013	-0.168
-236.859	150.144	0.232	-0.312
-235.844	-200.000	-0.011	-0.267
-234.830	167.370	0.141	-0.199
-233.815	-146.139	-0.069	0.006
-232.800	-200.000	-0.013	-0.170
-231.786	800.000	0.050	0.193
-230.771	3.323	-0.180	0.130
-229.757	-84.504	-0.143	-0.045
-228.742	446.958	-0.049	0.108
-227.727	-125.726	0.197	-0.030
-226.713	83.118	0.047	0.050
-225.698	357.772	-0.103	0.204
-224.684	-200.000	0.027	-0.180
-223.669	-6.103	0.181	-0.123
-222.655	-200.000	0.041	0.292
-221.640	800.000	-0.084	0.280
-220.625	573.467	-0.058	-0.141
-219.611	-200.000	-0.029	-0.137
-218.596	800.000	0.070	-0.249
-217.582	-200.000	-0.020	-0.208
-216.567	-49.493	-0.228	-0.108
-215.552	80.144	0.048	0.052
-214.538	-112.151	-0.400	-0.080
-213.523	66.068	-0.259	-0.260
-212.509	197.510	0.150	0.226
-211.494	-91.419	0.163	0.046
-210.479	182.772	-0.148	0.216
-209.465	-16.455	0.302	-0.190
-208.450	800.000	-0.055	0.213
-207.436	-44.587	0.117	0.058
-206.421	-200.000	-0.013	-0.261
-205.406	536.541	-0.049	-0.115
-204.392	62.812	0.172	0.171
-203.377	-96.892	-0.278	0.072
-202.363	800.000	-0.054	-0.175
-201.348	-157.239	-0.222	-0.013
-200.333	-152.282	0.228	-0.016
-199.319	337.129	-0.082	0.158
-198.304	-111.566	0.395	-0.080
-197.290	-200.000	0.021	-0.304
-196.275	-19.436	0.144	-0.088
-195.260	-200.000	0.055	0.403
-194.246	-11.878	-0.247	-0.161
-193.231	348.003	0.214	-0.417
-192.217	88.479	-0.220	-0.242
-191.202	-41.602	0.383	-0.195
-190.187	112.573	-0.060	0.072
-189.173	800.000	-0.161	0.452
-188.158	-73.626	0.083	-0.030
-187.144	-81.552	-0.239	-0.078
-186.129	-115.631	0.068	-0.013
-185.114	-137.656	0.293	-0.033
-184.100	-127.175	-0.209	0.030
-183.085	49.891	0.122	0.114
-182.071	-107.497	-0.286	-0.062
-181.056	310.547	-0.069	0.129
-180.042	3.454	-0.242	0.175
-179.027	-87.092	-0.199	0.060
-178.012	17.626	0.012	0.009
-176.998	4.056	-0.190	0.137
-175.983	-27.297	-0.275	0.159
-174.969	-59.855	-0.127	0.054
-173.954	-200.000	0.336	-0.001
-172.939	-93.168	0.376	0.103
-171.925	365.268	0.199	0.397
-170.910	169.455	0.076	-0.107
-169.896	576.776	0.046	0.111
-168.881	-200.000	0.006	0.115
-167.866	-200.000	-0.001	-0.094
-166.852	-200.000	-0.053	-0.383
-165.837	737.317	0.112	0.297
-164.823	195.519	-0.169	0.254
-163.808	-118.537	-0.317	-0.055
-162.793	546.356	0.097	-0.228
-161.779	416.208	-0.153	0.322
-160.764	-200.000	-0.033	0.149
-159.750	169.581	0.089	0.125
-158.735	343.752	-0.140	-0.271
-157.720	532.800	-0.032	-0.076
-156.706	-200.000	0.013	0.110
-155.691	-200.000	0.003	0.172
-154.677	-17.273	-0.241	-0.150
-153.662	773.608	-0.070	0.188
-152.647	-121.815	-0.233	-0.038
-151.633	800.000	0.046	-0.178
-150.618	399.018	0.183	-0.378
-149.604	255.544	-0.024	0.041
-148.589	29.158	-0.141	-0.118
-147.574	800.000	-0.094	-0.299
-146.560	-53.101	-0.188	0.085
-145.545	-68.744	0.206	-0.079
-144.531	279.457	0.090	-0.159
-143.516	238.620	-0.030	-0.048
-142.502	800.000	0.146	0.406
-141.487	-200.000	0.021	0.115
-140.472	-5.663	-0.283	0.192
-139.458	-200.000	0.007	0.177
-138.443	-102.318	-0.289	0.068
-137.429	-27.998	0.259	0.148
-136.414	182.840	0.095	0.138
-135.399	115.404	0.174	0.210
-134.385	-40.378	0.226	-0.116
-133.370	-7.225	0.159	0.107
-132.356	-200.000	0.003	0.190
-131.341	575.003	0.111	-0.268
-130.326	-48.709	-0.226	-0.107
-129.312	27.012	0.300	-0.249
-128.297	29.978	0.142	-0.120
-127.283	118.608	0.293	-0.358
-126.268	800.000	0.016	-0.059
-125.253	15.333	0.103	-0.080
-124.239	-47.229	0.268	0.129
-123.224	-21.421	-0.218	-0.132
-122.210	-94.601	0.234	0.063
