DTS Sentinel unit serial number:	SN413079Multiplexer serial number:	ORYXHardware model number:	OX4-SRSoftware version number:	ORYX F/W v4.00 Oryx Data Collector v3.7.2.0data status	okinstallation	princeton_trtdifferential loss correction	single-endedforward channel	channel 4reverse channel	N/Adate	2019/09/17time	19:37:35forward acquisition time	60.00reverse acquisition time	0.00gamma	496.2192k internal	0.2307k external	0.2307temperature offset calibration	0.9982default loss term (dB/km)	0.3790temperature slope calibration	1.0000multiplexer offset coefficient	1.0000multiplexer slope coefficient	1.0000fibre end	0.00T internal ref (°C)	35.77T ext. ref 1 (°C)	0.24T ext. ref 2 (°C)	24.59length (m)	temperature (°C)	Stokes	anti-Stokes-747.200	506.310	0.052	0.122
-746.185	3.603	-0.385	0.285
-745.171	-4.907	0.279	-0.196
-744.156	-32.273	-0.034	-0.019
-743.142	-8.349	-0.110	-0.075
-742.127	-14.256	-0.391	0.256
-741.112	-84.546	0.091	0.029
-740.098	-134.938	0.228	-0.028
-739.083	-200.000	-0.008	-0.372
-738.069	-47.377	-0.133	0.066
-737.054	86.584	-0.005	-0.006
-736.039	352.020	0.099	-0.199
-735.025	-94.508	0.398	0.110
-734.010	3.273	0.126	0.093
-732.996	-65.292	-0.172	-0.070
-731.981	-200.000	0.022	0.467
-730.966	-170.638	0.328	-0.012
-729.952	250.577	-0.075	-0.129
-728.937	117.943	0.227	0.284
-727.923	427.184	-0.057	0.125
-726.908	10.097	-0.133	-0.102
-725.894	244.073	0.091	0.156
-724.879	407.047	0.066	0.142
-723.864	-129.647	0.306	-0.043
-722.850	14.226	-0.128	0.101
-721.835	70.857	-0.011	0.011
-720.821	-81.878	0.179	0.060
-719.806	478.298	-0.043	0.100
-718.791	433.719	-0.009	-0.020
-717.777	-54.694	0.032	0.015
-716.762	-110.705	-0.129	0.027
-715.748	42.021	0.160	0.148
-714.733	237.465	-0.231	0.389
-713.718	357.904	0.116	-0.236
-712.704	-106.528	0.213	-0.048
-711.689	540.607	-0.093	-0.225
-710.675	800.000	-0.025	-0.086
-709.660	-200.000	-0.057	-0.312
-708.645	800.000	0.118	-0.500
-707.631	85.043	-0.383	-0.426
-706.616	27.637	0.220	-0.188
-705.602	-200.000	0.067	-0.330
-704.587	-200.000	0.061	-0.301
-703.572	360.802	-0.060	-0.122
-702.558	800.000	-0.022	-0.072
-701.543	-51.121	0.376	-0.179
-700.529	405.333	0.112	0.241
-699.514	-56.920	0.193	0.087
-698.499	229.026	0.184	0.305
-697.485	75.986	-0.142	0.153
-696.470	-200.000	0.064	-0.396
-695.456	11.499	-0.273	0.212
-694.441	800.000	0.019	0.073
-693.426	-91.132	0.172	-0.050
-692.412	75.892	0.304	-0.326
-691.397	-76.459	-0.329	0.117
-690.383	1.410	-0.133	-0.097
-689.368	91.472	0.064	0.073
-688.354	-200.000	-0.000	-0.069
-687.339	800.000	-0.132	0.387
-686.324	383.121	0.033	0.069
-685.310	-200.000	0.002	-0.156
-684.295	50.076	-0.275	-0.263
-683.281	217.682	0.062	-0.101
-682.266	242.256	-0.130	-0.221
-681.251	26.841	0.118	-0.101
-680.237	-200.000	0.004	-0.143
-679.222	344.569	0.176	0.350
-678.208	-111.380	-0.039	-0.008
-677.193	-200.000	0.021	0.185
-676.178	357.769	-0.067	0.135
-675.164	800.000	0.060	0.259
-674.149	-200.000	0.013	-0.188
-673.135	428.264	0.074	0.161
-672.120	597.031	-0.085	0.214
-671.105	99.565	0.176	-0.207
-670.091	-200.000	0.011	-0.148
-669.076	-68.278	-0.233	-0.092
-668.062	-24.321	-0.028	-0.017
-667.047	381.710	-0.126	-0.262
-666.032	-38.286	0.117	-0.063
-665.018	425.489	-0.107	-0.233
-664.003	31.217	0.059	0.052
-662.989	-25.351	0.277	0.166
-661.974	41.388	0.138	0.126
-660.959	800.000	-0.087	-0.298
-659.945	-144.938	0.198	-0.018
-658.930	-88.916	0.249	0.075
-657.916	166.733	-0.139	-0.200
-656.901	-102.622	0.158	-0.038
-655.886	64.728	-0.081	-0.083
-654.872	-134.219	0.616	-0.077
-653.857	173.847	0.103	0.151
-652.843	800.000	0.055	0.219
-651.828	42.399	0.076	-0.070
-650.814	-109.518	0.228	-0.049
-649.799	-200.000	0.009	-0.205
-648.784	-98.162	0.090	0.023
-647.770	-164.122	0.323	0.015
-646.755	-52.886	0.243	0.113
-645.741	21.941	0.284	-0.234
-644.726	-87.013	-0.026	0.008
-643.711	-15.793	0.125	-0.080
-642.697	699.481	-0.104	-0.277
-641.682	-157.711	-0.099	0.006
-640.668	-25.724	-0.210	0.125
-639.653	644.419	-0.077	-0.200
-638.638	-105.431	-0.170	0.039
-637.624	107.833	0.067	-0.080
-636.609	-154.172	-0.157	-0.011
-635.595	-35.040	-0.104	-0.058
-634.580	28.921	-0.256	0.220
-633.565	17.311	-0.072	-0.058
-632.551	-96.732	-0.161	-0.043
-631.536	70.735	0.086	0.090
-630.522	494.318	-0.081	-0.188
-629.507	24.471	-0.280	0.235
-628.492	135.099	-0.172	0.227
-627.478	15.134	0.116	0.092
-626.463	208.004	0.132	-0.209
-625.449	236.602	0.073	0.123
-624.434	645.491	0.033	0.086
-623.419	250.524	-0.062	0.106
-622.405	29.995	-0.265	0.229
-621.390	-146.877	-0.174	0.015
-620.376	-129.834	0.126	0.018
-619.361	-73.703	-0.390	0.144
-618.346	-76.878	0.272	0.096
-617.332	-200.000	0.000	-0.246
-616.317	-103.333	-0.284	-0.068
-615.303	599.146	-0.096	0.241
-614.288	-80.558	-0.217	-0.073
-613.273	46.621	-0.289	-0.272
-612.259	-66.257	0.150	0.060
-611.244	203.185	0.035	0.055
-610.230	-88.913	0.210	0.063
-609.215	-110.196	0.254	-0.053
-608.201	-58.743	-0.063	-0.028
-607.186	538.465	0.046	0.111
-606.171	779.871	0.070	0.192
-605.157	240.602	0.048	-0.080
-604.142	7.155	-0.122	-0.092
-603.128	-53.761	0.247	0.114
-602.113	800.000	0.024	-0.099
-601.098	800.000	-0.054	0.173
-600.084	-200.000	0.023	-0.113
-599.069	236.398	-0.199	-0.333
-598.055	286.485	0.078	-0.142
-597.040	-200.000	-0.017	0.257
-596.025	800.000	0.010	-0.032
-595.011	-35.072	-0.204	-0.112
-593.996	384.828	-0.108	0.225
-592.982	-172.715	0.079	-0.003
-591.967	-116.090	-0.143	0.027
-590.952	-56.935	0.205	-0.091
-589.938	-68.359	-0.147	-0.058
-588.923	-99.086	0.183	-0.047
-587.909	800.000	-0.075	-0.303
-586.894	-96.784	-0.277	-0.074
-585.879	-67.521	-0.181	0.072
-584.865	-126.149	0.260	-0.039
-583.850	-81.602	0.155	0.051
-582.836	-32.741	-0.138	-0.077
-581.821	-19.673	-0.080	0.050
-580.806	12.854	-0.281	-0.220
-579.792	-160.554	-0.219	0.012
-578.777	20.811	0.170	-0.139
-577.763	56.893	0.204	-0.200
-576.748	107.578	-0.120	0.145
-575.733	-200.000	0.035	-0.218
-574.719	-185.440	-0.508	-0.008
-573.704	-119.470	0.160	0.028
-572.690	-200.000	-0.090	0.501
-571.675	-9.976	0.219	0.147
-570.661	92.864	-0.105	0.119
-569.646	-111.537	0.122	0.025
-568.631	-68.992	0.217	0.085
-567.617	800.000	0.062	-0.230
-566.602	357.960	0.110	0.221
-565.588	-54.599	0.304	0.139
-564.573	104.066	-0.210	0.249
-563.558	-82.107	0.302	-0.100
-562.544	-47.396	0.346	-0.170
-561.529	508.122	-0.056	-0.131
-560.515	36.540	-0.246	-0.219
-559.500	-125.934	-0.090	-0.014
-558.485	107.882	0.187	0.225
-557.471	324.287	-0.172	0.332
-556.456	-200.000	0.021	-0.177
-555.442	800.000	-0.060	0.224
-554.427	148.045	0.236	0.321
-553.412	-161.423	-0.081	0.004
-552.398	-51.644	-0.216	0.102
-551.383	-200.000	0.005	-0.149
-550.369	-2.744	-0.217	-0.153
-549.354	24.019	-0.199	0.166
-548.339	-86.057	0.318	-0.099
-547.325	-108.786	0.204	-0.044
-546.310	-136.681	-0.223	0.026
-545.296	-133.922	-0.338	0.042
-544.281	800.000	0.029	-0.087
-543.266	800.000	0.098	-0.293
-542.252	-200.000	0.016	-0.262
-541.237	-200.000	0.005	-0.212
-540.223	159.951	-0.123	-0.172
-539.208	117.135	-0.171	-0.212
-538.193	-110.100	-0.077	0.016
-537.179	30.147	-0.150	0.129
-536.164	-0.745	-0.292	-0.208
-535.150	-113.555	0.206	0.041
-534.135	-111.929	0.026	0.005
-533.121	-200.000	-0.249	0.001
-532.106	19.842	0.345	-0.280
-531.091	800.000	-0.057	-0.253
-530.077	426.454	0.094	-0.205
-529.062	657.495	-0.059	-0.153
-528.048	800.000	0.020	-0.085
-527.033	-100.993	0.195	0.048
-526.018	373.186	-0.096	-0.198
-525.004	675.504	0.085	-0.222
-523.989	-200.000	-0.020	0.253
-522.975	-90.867	0.138	0.040
-521.960	226.342	-0.061	0.099
-520.945	512.903	-0.051	0.120
-519.931	-35.376	-0.375	0.205
-518.916	45.598	-0.142	0.133
-517.902	122.568	-0.280	-0.353
-516.887	-19.111	-0.225	0.141
-515.872	31.591	0.143	-0.124
-514.858	142.479	0.051	-0.068
-513.843	800.000	-0.036	-0.109
-512.829	-41.430	-0.130	-0.068
-511.814	515.958	-0.166	-0.391
-510.799	800.000	-0.012	-0.043
-509.785	-31.803	-0.160	-0.090
-508.770	-60.430	0.277	0.119
-507.756	-103.383	0.106	0.025
-506.741	800.000	-0.111	-0.352
-505.726	266.079	0.096	0.169
-504.712	56.989	0.184	0.180
-503.697	-4.529	0.255	0.177
-502.683	-146.123	0.136	-0.012
-501.668	-139.251	-0.227	-0.025
-500.653	-200.000	-0.053	-0.366
-499.639	-200.000	-0.014	0.222
-498.624	-40.377	0.255	-0.133
-497.610	144.828	-0.034	-0.046
-496.595	195.352	-0.058	0.089
-495.581	800.000	0.124	-0.366
-494.566	-56.608	0.223	-0.100
-493.551	230.568	-0.051	-0.083
-492.537	-170.415	-0.364	0.013
-491.522	9.183	-0.149	-0.114
-490.508	361.486	-0.144	0.290
-489.493	-68.661	0.364	-0.142
-488.478	27.471	-0.065	-0.055
-487.464	-109.811	-0.085	0.018
-486.449	490.729	0.090	-0.207
-485.435	-108.733	0.201	-0.043
-484.420	-101.543	-0.109	0.027
-483.405	-165.226	0.197	-0.009
-482.391	-200.000	-0.029	-0.233
-481.376	-7.285	-0.195	0.133
-480.362	302.283	-0.141	0.262
-479.347	-200.000	-0.007	0.040
-478.332	63.686	0.175	0.177
-477.318	-53.057	-0.216	-0.100
-476.303	-119.726	0.174	-0.030
-475.289	229.693	0.053	0.088
-474.274	84.114	-0.295	-0.324
-473.259	-200.000	-0.036	0.342
-472.245	-2.599	0.012	-0.008
-471.230	-88.384	0.181	-0.055
-470.216	308.878	-0.051	0.095
-469.201	-200.000	0.094	-0.461
-468.186	-52.351	0.288	-0.134
-467.172	-99.649	-0.030	-0.008
-466.157	-200.000	0.037	-0.479
-465.143	387.655	-0.109	0.227
-464.128	-200.000	0.020	0.270
-463.113	111.277	-0.095	-0.115
-462.099	-200.000	-0.011	0.282
-461.084	241.313	0.100	0.167
-460.070	-65.790	0.093	-0.037
-459.055	800.000	-0.097	0.273
-458.040	-134.051	0.305	0.038
-457.026	-43.860	-0.267	0.135
-456.011	-55.154	0.196	0.088
-454.997	79.566	0.210	0.227
-453.982	-200.000	-0.000	-0.122
-452.968	-167.203	0.441	0.018
-451.953	800.000	0.096	0.289
-450.938	237.885	-0.122	-0.203
-449.924	60.345	0.158	-0.157
-448.909	-200.000	0.000	0.118
-447.895	687.760	-0.139	0.364
-446.880	-200.000	0.012	0.173
-445.865	107.226	-0.147	-0.175
-444.851	47.476	-0.079	-0.074
-443.836	211.022	0.041	-0.065
-442.822	-33.373	-0.139	-0.078
-441.807	-116.033	0.357	0.067
-440.792	393.501	-0.108	0.226
-439.778	434.793	-0.090	-0.196
-438.763	-106.928	0.172	0.038
-437.749	310.206	-0.135	0.254
-436.734	206.291	0.024	0.037
-435.719	542.955	-0.157	-0.375
-434.705	156.835	0.133	-0.185
-433.690	667.843	-0.097	-0.251
-432.676	446.407	0.043	0.095
-431.661	-200.000	-0.056	-0.271
-430.646	-59.076	0.250	-0.108
-429.632	800.000	-0.066	0.254
-428.617	-103.688	-0.223	-0.053
-427.603	648.031	0.068	-0.175
-426.588	-18.682	0.130	0.082
-425.573	-200.000	0.017	0.266
-424.559	389.201	-0.086	0.180
-423.544	-151.537	0.167	0.012
-422.530	-0.956	0.129	-0.092
-421.515	-49.397	0.033	-0.016
-420.500	-49.767	0.138	-0.066
-419.486	-200.000	0.072	0.346
-418.471	-58.068	0.133	-0.058
-417.457	-21.273	0.241	-0.148
-416.442	431.448	-0.010	-0.021
-415.428	-200.000	0.037	0.270
-414.413	37.853	-0.046	-0.041
-413.398	800.000	0.052	-0.225
-412.384	-76.527	-0.165	-0.058
-411.369	40.968	-0.215	-0.195
-410.355	-146.337	-0.339	-0.030
-409.340	687.945	-0.039	0.101
-408.325	800.000	-0.070	-0.262
-407.311	-141.599	0.219	-0.022
-406.296	800.000	0.160	-0.473
-405.282	18.660	-0.184	0.148
-404.267	800.000	-0.041	-0.134
-403.252	-54.793	0.314	0.142
-402.238	206.941	0.118	-0.185
-401.223	51.094	0.051	-0.049
-400.209	-200.000	-0.028	-0.190
-399.194	8.393	0.368	0.277
-398.179	-132.802	0.175	-0.022
-397.165	-21.504	0.065	-0.040
-396.150	-69.788	0.047	-0.018
-395.136	-100.558	0.239	-0.059
-394.121	14.590	-0.189	-0.148
-393.106	233.432	-0.157	0.259
-392.092	-152.492	0.128	0.009
-391.077	-200.000	0.010	0.180
-390.063	88.246	0.044	-0.049
-389.048	-97.336	-0.226	-0.059
-388.033	29.779	0.022	-0.019
-387.019	42.732	0.100	0.091
-386.004	336.053	-0.164	0.319
-384.990	800.000	0.016	-0.063
-383.975	130.377	0.193	0.248
-382.960	-17.600	-0.203	0.128
-381.946	151.708	-0.167	0.228
-380.931	385.956	0.093	0.193
-379.917	-200.000	0.014	-0.147
-378.902	49.163	0.423	-0.399
-377.888	313.801	-0.173	-0.327
-376.873	32.730	-0.129	0.112
-375.858	800.000	-0.024	-0.083
-374.844	-200.000	-0.013	0.162
-373.829	-200.000	-0.026	0.240
-372.815	-200.000	-0.015	0.166
-371.800	-127.380	-0.191	-0.028
-370.785	-200.000	0.012	0.248
-369.771	47.147	-0.087	0.081
-368.756	-114.120	0.144	0.028
-367.742	151.889	0.197	0.269
-366.727	-45.941	-0.170	-0.084
-365.712	-200.000	0.025	0.127
-364.698	10.811	-0.174	-0.133
-363.683	73.189	0.261	-0.273
-362.669	-200.000	0.010	0.140
-361.654	-200.000	-0.065	-0.307
-360.639	210.111	-0.204	0.320
-359.625	-108.135	0.107	-0.023
-358.610	-16.376	0.113	0.072
-357.596	654.655	-0.083	-0.214
-356.581	-27.954	0.021	-0.012
-355.566	26.915	0.181	-0.152
-354.552	764.277	0.056	0.152
-353.537	-67.645	-0.253	0.099
-352.523	-75.213	-0.079	0.028
-351.508	-127.998	0.298	-0.043
-350.493	-142.621	-0.184	0.018
-349.479	70.231	0.073	0.075
-348.464	-39.973	0.183	0.096
-347.450	81.531	-0.153	-0.165
-346.435	-88.110	0.351	-0.105
-345.420	-78.809	-0.201	0.068
-344.406	484.859	0.145	-0.329
-343.391	-144.208	-0.133	-0.012
-342.377	800.000	-0.140	-0.420
-341.362	172.800	-0.105	0.151
-340.348	-168.774	-0.096	0.004
-339.333	54.539	0.114	0.110
-338.318	220.941	0.110	0.177
-337.304	40.108	0.136	-0.123
-336.289	-200.000	0.064	-0.415
-335.275	348.793	-0.153	-0.302
-334.260	-200.000	0.027	0.129
-333.245	-200.000	0.059	0.322
-332.231	-200.000	0.019	-0.357
-331.216	-79.679	0.377	0.127
-330.202	-168.812	-0.207	0.008
-329.187	602.007	-0.079	0.195
-328.172	-17.300	-0.098	-0.062
-327.158	705.318	0.136	-0.359
-326.143	-157.354	-0.286	0.017
-325.129	19.004	0.193	0.155
-324.114	-138.213	-0.073	-0.008
-323.099	495.493	-0.202	0.465
-322.085	-32.855	0.176	0.098
-321.070	50.896	0.250	-0.237
-320.056	9.706	0.228	-0.173
-319.041	800.000	-0.062	-0.204
-318.026	168.943	-0.104	0.148
-317.012	800.000	-0.047	-0.175
-315.997	-140.308	-0.352	-0.037
-314.983	3.572	0.420	0.306
-313.968	-22.941	0.139	-0.084
-312.953	502.612	-0.120	0.276
-311.939	276.750	0.047	-0.084
-310.924	800.000	0.021	-0.059
-309.910	-47.575	-0.299	0.145
-308.895	-31.208	0.215	0.121
-307.880	265.170	-0.106	0.185
-306.866	279.065	-0.118	0.210
-305.851	-200.000	0.102	0.467
-304.837	-149.048	0.240	-0.019
-303.822	-63.475	-0.133	-0.055
-302.807	47.520	0.383	-0.357
-301.793	96.074	-0.220	-0.251
-300.778	29.418	0.207	0.176
-299.764	-120.610	-0.043	-0.007
-298.749	-158.786	-0.254	-0.015
-297.735	-84.273	0.197	0.062
-296.720	206.204	0.031	0.049
-295.705	-49.133	0.203	0.097
-294.691	180.517	-0.067	-0.098
-293.676	-71.801	-0.217	-0.081
-292.662	628.915	-0.033	-0.084
-291.647	-200.000	0.015	0.247
-290.632	-12.725	0.280	0.183
-289.618	262.183	-0.087	-0.150
-288.603	68.436	0.185	0.190
-287.589	-29.915	-0.287	-0.163
-286.574	22.885	-0.117	0.095
-285.559	-17.986	0.139	-0.087
-284.545	-200.000	-0.025	0.187
-283.530	208.469	0.098	-0.153
-282.516	-11.617	0.152	0.100
-281.501	119.319	0.085	-0.105
-280.486	250.224	0.069	0.117
-279.472	-200.000	0.057	0.401
-278.457	-140.842	-0.215	0.022
-277.443	188.955	-0.227	-0.339
-276.428	-65.693	-0.082	-0.033
-275.413	800.000	0.054	-0.235
-274.399	800.000	-0.044	0.129
-273.384	443.290	-0.102	0.224
-272.370	642.160	-0.136	0.346
-271.355	63.072	-0.258	-0.258
-270.340	-40.279	-0.213	0.111
-269.326	-102.161	0.287	-0.069
-268.311	800.000	-0.104	-0.319
-267.297	-88.011	0.185	-0.055
-266.282	141.403	-0.087	0.114
-265.267	-26.596	0.288	0.168
-264.253	208.085	0.282	-0.439
-263.238	-184.497	0.351	-0.006
-262.224	-200.000	-0.045	0.228
-261.209	608.324	0.061	0.152
-260.195	44.541	0.188	0.172
-259.180	49.138	-0.323	0.303
-258.165	91.476	-0.082	-0.092
-257.151	22.172	-0.226	0.184
-256.136	800.000	0.036	-0.102
-255.122	200.964	-0.104	0.159
-254.107	113.323	-0.046	0.056
-253.092	1.551	-0.074	-0.053
-252.078	-200.000	-0.012	-0.249
-251.063	-150.305	-0.168	-0.013
-250.049	-116.657	-0.329	0.060
-249.034	-12.303	0.382	-0.249
-248.019	-67.299	0.092	0.036
-247.005	92.074	0.119	0.133
-245.990	-129.666	-0.097	-0.013
-244.976	-113.683	-0.449	0.087
-243.961	800.000	-0.012	0.038
-242.946	800.000	-0.047	-0.182
-241.932	-2.442	-0.221	0.154
-240.917	16.832	0.178	-0.141
-239.903	95.067	-0.112	0.127
-238.888	-163.099	-0.084	-0.004
-237.873	-79.085	0.166	0.056
-236.859	-19.523	0.122	-0.076
-235.844	27.983	-0.061	0.051
-234.830	259.890	0.116	0.200
-233.815	151.853	0.125	0.169
-232.800	-78.374	-0.163	0.056
-231.786	98.342	0.044	0.050
-230.771	-37.766	-0.132	0.070
-229.757	-200.000	-0.033	-0.184
-228.742	66.180	-0.136	0.138
-227.727	-107.372	0.180	0.039
-226.713	570.653	0.059	0.144
-225.698	-105.347	0.248	0.056
-224.684	-15.942	-0.247	-0.157
-223.669	389.747	0.081	-0.166
-222.655	237.416	-0.024	-0.040
-221.640	152.122	0.089	-0.122
-220.625	-47.441	0.132	0.064
-219.611	602.588	-0.106	0.263
-218.596	-123.398	0.382	-0.061
-217.582	-155.369	-0.064	0.004
-216.567	-200.000	0.004	-0.194
-215.552	665.903	0.086	0.222
-214.538	479.142	-0.102	-0.230
-213.523	-112.543	-0.154	-0.031
-212.509	800.000	0.021	-0.082
-211.494	-200.000	0.000	-0.187
-210.479	-200.000	-0.012	-0.075
-209.465	1.862	-0.297	0.213
-208.450	136.663	0.044	0.057
-207.436	16.216	0.200	0.157
-206.421	188.706	-0.086	-0.129
-205.406	-177.095	-0.107	-0.003
-204.392	20.969	0.183	0.148
-203.377	1.384	-0.170	-0.122
-202.363	-98.057	0.189	-0.049
-201.348	800.000	-0.058	-0.197
-200.333	26.657	0.228	-0.190
-199.319	0.409	-0.417	0.297
-198.304	-105.144	0.142	0.032
-197.290	-200.000	-0.000	0.352
-196.275	-24.764	-0.204	-0.121
-195.260	-170.551	0.102	-0.004
-194.246	-127.848	-0.274	0.039
-193.231	596.061	-0.061	-0.149
-192.217	130.458	-0.096	0.122
-191.202	37.007	-0.322	0.283
-190.187	447.673	-0.136	0.298
-189.173	18.417	0.028	0.022
-188.158	-200.000	-0.067	-0.354
-187.144	101.623	-0.127	-0.148
-186.129	-13.264	-0.187	-0.121
-185.114	-32.624	-0.022	-0.012
-184.100	-43.832	-0.238	0.119
-183.085	-117.503	0.176	-0.032
-182.071	-59.325	0.311	0.133
-181.056	176.155	-0.124	-0.179
-180.042	-138.580	0.187	0.020
-179.027	55.821	0.184	-0.177
-178.012	361.362	-0.123	-0.245
-176.998	254.749	-0.103	-0.176
-175.983	-200.000	-0.051	0.249
-174.969	273.563	0.043	0.076
-173.954	-200.000	-0.064	0.330
-172.939	-67.462	0.043	-0.017
-171.925	-121.944	0.169	-0.028
-170.910	189.135	-0.062	0.092
-169.896	118.080	0.277	0.340
-168.881	-200.000	0.023	0.155
-167.866	800.000	0.089	-0.246
-166.852	278.566	0.056	0.100
-165.837	47.223	-0.032	0.030
-164.823	-30.385	0.082	0.046
-163.808	452.473	0.087	-0.191
-162.793	800.000	-0.112	-0.361
-161.779	-153.044	0.088	-0.006
-160.764	66.978	0.248	0.251
-159.750	800.000	0.019	-0.070
-158.735	-163.031	0.265	-0.013
-157.720	544.419	0.078	0.186
-156.706	-42.438	0.108	0.055
-155.691	633.056	-0.015	0.038
-154.677	-101.600	0.050	-0.012
-153.662	122.469	-0.314	0.390
-152.647	-200.000	-0.013	0.108
-151.633	-200.000	0.021	-0.110
-150.618	-200.000	0.102	-0.506
-149.604	-200.000	0.009	-0.054
-148.589	-113.005	-0.099	-0.019
-147.574	-50.226	0.098	0.046
-146.560	800.000	0.057	-0.202
-145.545	333.297	0.038	0.073
-144.531	-182.794	0.148	-0.003
-143.516	-6.204	0.135	0.092
-142.502	47.134	0.190	0.176
-141.487	328.161	-0.164	-0.313
-140.472	800.000	-0.036	0.108
-139.458	-47.900	0.337	0.162
-138.443	-19.687	0.291	0.178
-137.429	-34.798	-0.105	0.057
-136.414	177.159	-0.164	-0.238
-135.399	-200.000	0.053	-0.243
-134.385	-104.704	0.319	0.073
-133.370	800.000	0.045	-0.142
-132.356	-200.000	0.032	-0.239
-131.341	29.208	0.291	0.245
-130.326	-200.000	-0.026	-0.182
-129.312	174.765	0.104	-0.150
-128.297	800.000	-0.074	-0.254
-127.283	-172.708	-0.284	0.009
-126.268	-200.000	-0.006	-0.338
-125.253	-99.387	0.179	-0.045
-124.239	258.771	0.150	0.256
-123.224	12.774	0.101	-0.077
-122.210	-200.000	-0.036	0.313
-121.195	683.585	0.134	0.347
