DTS Sentinel unit serial number:	SN413079Multiplexer serial number:	ORYXHardware model number:	OX4-SRSoftware version number:	ORYX F/W v4.00 Oryx Data Collector v3.7.2.0data status	okinstallation	princeton_trtdifferential loss correction	single-endedforward channel	channel 4reverse channel	N/Adate	2019/09/18time	17:09:35forward acquisition time	60.00reverse acquisition time	0.00gamma	496.2192k internal	0.2291k external	0.2291temperature offset calibration	1.0008default loss term (dB/km)	0.3790temperature slope calibration	1.0000multiplexer offset coefficient	1.0000multiplexer slope coefficient	1.0000fibre end	0.00T internal ref (°C)	39.87T ext. ref 1 (°C)	0.87T ext. ref 2 (°C)	34.09length (m)	temperature (°C)	Stokes	anti-Stokes-747.200	-137.304	0.661	-0.077
-746.185	-200.000	0.093	0.425
-745.171	-200.000	-0.026	0.232
-744.156	381.632	0.144	0.303
-743.142	-111.472	-0.374	0.078
-742.127	-36.212	0.279	0.154
-741.112	-200.000	0.028	0.167
-740.098	28.944	-0.158	0.137
-739.083	40.026	-0.221	0.203
-738.069	45.000	0.121	0.114
-737.054	800.000	-0.034	-0.116
-736.039	800.000	0.036	-0.102
-735.025	-104.800	-0.154	-0.036
-734.010	148.092	-0.110	-0.153
-732.996	-106.585	-0.110	0.025
-731.981	167.216	-0.279	-0.405
-730.966	27.603	-0.182	-0.156
-729.952	320.159	-0.206	-0.400
-728.937	147.737	-0.120	0.165
-727.923	-166.580	0.290	-0.012
-726.908	81.338	-0.182	-0.202
-725.894	87.709	-0.175	-0.199
-724.879	-142.036	-0.182	-0.019
-723.864	-82.055	0.108	0.036
-722.850	-200.000	0.017	-0.161
-721.835	-200.000	-0.015	0.097
-720.821	-104.440	-0.201	0.048
-719.806	-50.098	0.211	-0.102
-718.791	800.000	0.024	-0.074
-717.777	-200.000	-0.033	-0.409
-716.762	108.959	-0.245	-0.299
-715.748	417.553	-0.052	-0.114
-714.733	-65.087	-0.295	0.122
-713.718	-72.803	-0.106	0.040
-712.704	214.493	-0.136	-0.221
-711.689	-200.000	0.120	-0.000
-710.675	-74.591	-0.292	-0.108
-709.660	59.169	0.096	0.097
-708.645	-76.276	0.168	-0.061
-707.631	-11.606	0.169	-0.113
-706.616	180.973	-0.147	-0.221
-705.602	120.698	0.369	-0.469
-704.587	52.929	-0.086	-0.084
-703.572	130.637	-0.045	-0.059
-702.558	-170.223	0.108	-0.004
-701.543	-90.859	-0.040	0.012
-700.529	-10.532	0.091	0.062
-699.514	92.247	-0.218	-0.252
-698.499	-91.661	-0.123	-0.036
-697.485	24.107	0.196	0.166
-696.470	800.000	-0.077	0.220
-695.456	800.000	-0.059	-0.217
-694.441	-200.000	-0.035	-0.164
-693.426	192.522	0.159	-0.245
-692.412	800.000	-0.045	-0.173
-691.397	-109.395	0.435	0.094
-690.383	-155.793	-0.186	0.012
-689.368	170.356	-0.171	-0.250
-688.354	-200.000	0.002	-0.227
-687.339	186.518	0.054	-0.083
-686.324	-2.097	0.233	-0.167
-685.310	443.462	0.037	-0.084
-684.295	-74.238	0.212	-0.078
-683.281	9.523	-0.062	-0.048
-682.266	-170.176	-0.145	-0.005
-681.251	208.254	-0.085	-0.136
-680.237	-74.932	-0.242	-0.089
-679.222	152.131	0.092	-0.129
-678.208	-103.173	0.150	0.036
-677.193	-86.523	0.053	-0.017
-676.178	-152.007	-0.197	0.015
-675.164	-200.000	-0.037	0.260
-674.149	115.007	-0.171	-0.213
-673.135	-74.556	-0.140	-0.051
-672.120	171.186	-0.032	0.048
-671.105	-61.408	0.187	-0.080
-670.091	-77.035	0.385	-0.137
-669.076	-75.631	0.246	0.089
-668.062	-164.819	0.167	0.008
-667.047	800.000	0.047	0.157
-666.032	-57.482	-0.025	0.011
-665.018	280.743	0.149	0.271
-664.003	247.389	-0.148	-0.255
-662.989	-51.171	0.307	-0.147
-661.974	-85.150	-0.233	0.074
-660.959	-15.447	-0.085	0.056
-659.945	-200.000	0.007	-0.122
-658.930	-63.820	0.151	0.063
-657.916	-44.837	-0.331	0.168
-656.901	42.234	0.224	0.207
-655.886	192.756	-0.197	-0.303
-654.872	-122.590	0.263	0.044
-653.857	-200.000	0.002	-0.283
-652.843	-161.597	-0.181	0.009
-651.828	800.000	0.189	0.554
-650.814	736.031	-0.097	-0.266
-649.799	800.000	-0.015	-0.057
-648.784	-71.002	0.250	-0.096
-647.770	28.672	0.039	-0.034
-646.755	-113.644	-0.042	0.008
-645.741	3.735	-0.312	-0.232
-644.726	-190.752	-0.160	0.002
-643.711	-80.389	-0.162	-0.055
-642.697	-75.017	-0.042	-0.015
-641.682	432.612	0.077	0.171
-640.668	454.744	-0.043	-0.097
-639.653	800.000	-0.085	0.239
-638.638	800.000	-0.059	0.204
-637.624	199.501	0.040	-0.063
-636.609	-59.998	-0.055	-0.024
-635.595	65.503	-0.089	-0.092
-634.580	169.412	-0.112	0.163
-633.565	759.178	0.075	0.208
-632.551	-200.000	-0.064	-0.377
-631.536	-200.000	0.036	-0.374
-630.522	-118.648	-0.253	-0.046
-629.507	38.162	0.140	0.127
-628.492	-59.675	-0.080	0.035
-627.478	577.420	0.064	-0.159
-626.463	753.258	0.058	0.159
-625.449	-182.871	0.192	0.004
-624.434	-26.262	0.088	-0.053
-623.419	800.000	0.026	-0.100
-622.405	5.828	0.110	-0.083
-621.390	-143.822	0.264	-0.025
-620.376	326.805	-0.147	-0.288
-619.361	57.790	-0.108	0.107
-618.346	78.089	-0.194	-0.211
-617.332	-103.733	-0.153	-0.037
-616.317	800.000	0.088	-0.338
-615.303	-122.632	0.130	0.021
-614.288	800.000	-0.039	0.140
-613.273	-91.819	0.149	-0.043
-612.259	451.469	-0.149	-0.336
-611.244	-31.994	0.218	-0.124
-610.230	26.723	-0.199	-0.170
-609.215	86.000	-0.009	0.011
-608.201	-4.616	-0.004	-0.003
-607.186	142.596	0.139	0.188
-606.171	-35.413	-0.346	0.192
-605.157	-200.000	0.012	-0.307
-604.142	-27.666	0.190	-0.112
-603.128	13.749	-0.108	0.086
-602.113	115.324	0.215	0.267
-601.098	-200.000	0.047	-0.291
-600.084	-200.000	-0.046	-0.292
-599.069	-148.755	0.236	-0.019
-598.055	79.844	0.172	-0.188
-597.040	170.317	-0.236	-0.344
-596.025	204.533	0.128	0.201
-595.011	150.658	-0.177	-0.245
-593.996	800.000	0.087	0.262
-592.982	-200.000	0.002	-0.070
-591.967	800.000	0.101	-0.405
-590.952	71.704	-0.193	-0.204
-589.938	43.846	0.177	-0.165
-588.923	255.524	0.048	-0.084
-587.909	16.767	0.200	0.161
-586.894	224.968	-0.130	-0.214
-585.879	-120.190	-0.318	-0.055
-584.865	-75.483	-0.262	0.095
-583.850	-158.390	-0.345	-0.020
-582.836	-133.545	-0.076	-0.010
-581.821	177.675	-0.077	0.114
-580.806	-68.771	-0.317	0.125
-579.792	-45.733	-0.025	-0.013
-578.777	-200.000	-0.018	0.241
-577.763	21.078	-0.059	0.049
-576.748	800.000	0.081	0.233
-575.733	-112.836	0.237	0.048
-574.719	290.451	-0.104	0.192
-573.704	170.356	0.205	0.299
-572.690	-170.809	-0.292	0.010
-571.675	179.152	-0.278	0.414
-570.661	200.211	0.307	0.479
-569.646	-158.635	-0.429	-0.025
-568.631	639.069	0.066	-0.172
-567.617	53.330	-0.154	-0.150
-566.602	148.858	0.105	0.144
-565.588	-72.509	0.142	-0.053
-564.573	-137.111	0.158	-0.018
-563.558	411.899	-0.101	-0.217
-562.544	-200.000	0.001	-0.115
-561.529	222.177	-0.163	-0.267
-560.515	10.437	0.117	0.091
-559.500	-109.152	-0.141	0.031
-558.485	-35.405	-0.181	0.100
-557.471	35.579	-0.357	0.319
-556.456	-200.000	0.028	-0.202
-555.442	62.565	-0.122	0.124
-554.427	136.283	0.160	-0.212
-553.412	469.069	-0.194	-0.443
-552.398	515.492	0.108	-0.257
-551.383	303.182	-0.130	-0.245
-550.369	-106.489	-0.238	-0.054
-549.354	230.087	-0.055	-0.092
-548.339	132.317	0.121	0.158
-547.325	-200.000	-0.008	0.040
-546.310	-31.013	-0.239	0.137
-545.296	-35.562	-0.141	0.078
-544.281	-200.000	-0.000	-0.010
-543.266	113.768	0.130	-0.161
-542.252	47.945	-0.209	-0.199
-541.237	-200.000	-0.061	0.320
-540.223	-9.361	-0.142	-0.096
-539.208	-193.032	0.283	-0.003
-538.193	52.746	0.099	0.096
-537.179	314.958	-0.090	-0.172
-536.164	373.746	0.198	-0.410
-535.150	363.397	-0.047	-0.096
-534.135	-47.772	-0.216	0.106
-533.121	-103.756	0.267	-0.064
-532.106	-200.000	-0.015	-0.098
-531.091	344.097	-0.140	-0.278
-530.077	-91.924	-0.080	-0.023
-529.062	800.000	0.086	0.286
-528.048	-32.324	-0.109	-0.062
-527.033	-200.000	0.006	-0.038
-526.018	800.000	-0.078	-0.286
-525.004	-200.000	-0.021	-0.194
-523.989	-107.534	0.080	-0.018
-522.975	-200.000	-0.002	-0.087
-521.960	684.340	-0.047	0.125
-520.945	627.318	-0.150	-0.385
-519.931	39.508	0.280	-0.255
-518.916	-134.212	0.556	-0.069
-517.902	-170.567	-0.178	-0.006
-516.887	-200.000	0.037	-0.288
-515.872	429.915	-0.050	-0.109
-514.858	570.675	-0.090	-0.222
-513.843	-200.000	-0.036	0.182
-512.829	-200.000	0.015	-0.137
-511.814	113.606	-0.188	-0.232
-510.799	167.618	0.022	0.031
-509.785	440.118	-0.071	-0.158
-508.770	-38.500	-0.203	0.109
-507.756	-138.514	0.145	0.016
-506.741	-119.217	-0.286	0.051
-505.726	-112.548	0.212	0.043
-504.712	564.202	0.065	-0.161
-503.697	-87.515	0.299	-0.092
-502.683	-18.785	-0.096	-0.060
-501.668	280.013	0.015	0.028
-500.653	-167.300	-0.420	0.017
-499.639	-88.147	-0.027	0.008
-498.624	-18.146	0.451	-0.286
-497.610	-200.000	0.008	0.154
-496.595	-127.322	-0.169	0.025
-495.581	-200.000	-0.036	0.313
-494.566	-200.000	0.024	0.237
-493.551	-22.859	0.216	0.132
-492.537	22.612	-0.123	0.102
-491.522	15.525	0.284	0.227
-490.508	-200.000	-0.227	-0.001
-489.493	344.199	-0.263	0.524
-488.478	53.224	0.189	0.184
-487.464	-67.938	-0.086	0.034
-486.449	669.139	0.114	0.300
-485.435	-200.000	-0.055	-0.285
-484.420	-156.046	-0.187	0.012
-483.405	55.840	-0.045	0.045
-482.391	-8.924	-0.095	0.065
-481.376	-39.174	-0.265	-0.141
-480.362	16.957	-0.251	0.201
-479.347	-68.703	0.077	-0.030
-478.332	104.713	-0.152	-0.181
-477.318	-71.892	-0.332	-0.125
-476.303	-15.043	0.287	0.186
-475.289	161.600	0.101	0.143
-474.274	-71.984	-0.121	0.046
-473.259	258.808	-0.169	-0.295
-472.245	100.935	-0.170	0.200
-471.230	-81.290	0.151	-0.051
-470.216	168.126	-0.225	0.325
-469.201	-41.997	-0.188	0.097
-468.186	-200.000	-0.041	0.200
-467.172	687.096	0.088	-0.234
-466.157	-54.756	0.372	0.170
-465.143	-200.000	-0.014	0.093
-464.128	-55.446	0.109	0.049
-463.113	-200.000	0.012	0.285
-462.099	-200.000	0.033	-0.156
-461.084	800.000	0.065	0.193
-460.070	149.408	0.188	-0.258
-459.055	585.900	-0.064	0.160
-458.040	-69.328	0.235	0.091
-457.026	-121.015	-0.350	-0.060
-456.011	-184.225	-0.189	-0.003
-454.997	-64.824	-0.320	0.131
-453.982	-200.000	0.008	-0.175
-452.968	172.567	-0.131	0.190
-451.953	-108.484	-0.175	0.038
-450.938	-96.560	-0.200	0.053
-449.924	244.135	-0.090	-0.153
-448.909	-69.670	-0.236	-0.091
-447.895	-14.273	0.182	0.119
-446.880	291.225	0.297	-0.548
-445.865	-200.000	0.006	0.284
-444.851	-54.027	-0.146	-0.067
-443.836	-65.274	0.204	0.083
-442.822	-181.196	0.529	0.011
-441.807	800.000	-0.093	-0.300
-440.792	279.443	-0.077	-0.139
-439.778	-135.763	-0.187	0.022
-438.763	19.786	0.090	-0.074
-437.749	324.471	0.024	0.047
-436.734	800.000	0.048	0.205
-435.719	135.627	-0.073	-0.097
-434.705	17.186	0.304	0.244
-433.690	-200.000	-0.019	0.269
-432.676	-200.000	0.048	-0.302
-431.661	553.239	-0.078	-0.191
-430.646	370.156	-0.031	-0.064
-429.632	-200.000	0.029	0.401
-428.617	-200.000	-0.018	-0.087
-427.603	527.211	0.039	0.094
-426.588	144.885	-0.108	0.146
-425.573	-22.118	0.091	0.056
-424.559	236.594	0.160	-0.268
-423.544	-88.461	0.330	-0.099
-422.530	-106.606	-0.311	0.070
-421.515	10.810	0.044	-0.034
-420.500	-139.164	-0.072	0.008
-419.486	-13.401	0.062	0.041
-418.471	-153.547	0.343	0.024
-417.457	-62.943	-0.193	0.081
-416.442	800.000	-0.075	0.275
-415.428	-107.482	-0.192	-0.043
-414.413	-200.000	0.013	-0.098
-413.398	-52.235	-0.305	-0.143
-412.384	225.855	-0.016	-0.026
-411.369	-97.988	-0.279	-0.073
-410.355	38.219	-0.320	0.288
-409.340	-117.818	0.099	-0.018
-408.325	534.527	0.025	0.061
-407.311	88.663	0.209	-0.235
-406.296	663.253	-0.062	-0.161
-405.282	-200.000	-0.087	-0.401
-404.267	-200.000	0.026	-0.293
-403.252	-65.178	-0.155	-0.063
-402.238	-100.470	-0.046	-0.012
-401.223	-200.000	-0.007	0.205
-400.209	-134.419	0.420	0.052
-399.194	-200.000	-0.051	-0.243
-398.179	-2.943	0.027	0.019
-397.165	46.435	0.192	0.180
-396.150	-200.000	0.009	0.119
-395.136	173.940	-0.084	0.122
-394.121	41.144	0.148	0.135
-393.106	73.696	-0.076	0.081
-392.092	237.333	0.103	-0.172
-391.077	488.498	0.121	-0.278
-390.063	-200.000	-0.003	0.117
-389.048	-200.000	-0.004	-0.094
-388.033	-200.000	-0.008	-0.302
-387.019	-81.319	0.231	-0.077
-386.004	-95.706	-0.143	-0.039
-384.990	100.793	-0.214	0.252
-383.975	-200.000	-0.033	0.432
-382.960	800.000	-0.043	-0.176
-381.946	170.501	0.117	0.169
-380.931	-200.000	-0.029	-0.140
-379.917	-75.609	0.303	-0.109
-378.902	-117.568	0.258	-0.047
-377.888	-158.447	0.178	-0.010
-376.873	152.118	-0.166	0.228
-375.858	-88.291	-0.014	-0.004
-374.844	-200.000	0.040	-0.223
-373.829	32.139	0.155	-0.135
-372.815	536.919	0.144	-0.345
-371.800	800.000	0.097	0.275
-370.785	408.344	0.080	0.171
-369.771	125.064	0.178	0.227
-368.756	113.153	-0.244	0.299
-367.742	136.514	0.170	0.224
-366.727	-59.463	0.149	-0.065
-365.712	568.139	0.034	0.084
-364.698	-51.259	0.075	-0.035
-363.683	16.532	-0.436	-0.347
-362.669	42.390	0.365	0.335
-361.654	184.100	0.128	-0.191
-360.639	-46.462	-0.154	-0.076
-359.625	-63.497	0.169	-0.070
-358.610	221.630	0.130	0.212
-357.596	-200.000	-0.004	-0.259
-356.581	-200.000	-0.061	-0.271
-355.566	130.313	0.179	0.231
-354.552	741.201	0.076	0.207
-353.537	-71.973	0.234	0.088
-352.523	-70.093	-0.227	0.087
-351.508	-200.000	-0.025	-0.418
-350.493	-200.000	-0.007	0.263
-349.479	257.684	0.054	-0.094
-348.464	86.960	0.087	-0.097
-347.450	-200.000	-0.003	-0.090
-346.435	777.919	-0.042	0.116
-345.420	231.590	-0.120	0.199
-344.406	-200.000	0.076	0.413
-343.391	800.000	0.038	-0.150
-342.377	116.036	0.112	-0.138
-341.362	-112.270	0.050	0.010
-340.348	18.096	0.295	0.237
-339.333	800.000	0.029	-0.094
-338.318	800.000	-0.043	0.177
-337.304	-70.709	0.405	-0.154
-336.289	800.000	0.122	-0.406
-335.275	96.109	0.080	0.092
-334.260	41.433	0.129	0.118
-333.245	-200.000	0.008	0.194
-332.231	-39.333	0.194	-0.103
-331.216	-162.112	0.266	0.013
-330.202	-200.000	-0.257	-0.001
-329.187	282.526	0.056	-0.101
-328.172	-2.130	-0.066	0.047
-327.158	-52.340	0.158	-0.074
-326.143	-26.820	0.175	0.103
-325.129	-71.017	-0.109	0.042
-324.114	-44.054	-0.294	0.149
-323.099	97.688	0.200	0.231
-322.085	135.423	-0.044	0.057
-321.070	81.235	-0.041	-0.045
-320.056	-200.000	-0.003	0.342
-319.041	-200.000	0.016	-0.178
-318.026	0.381	-0.193	0.139
-317.012	-187.685	0.249	-0.003
-315.997	-200.000	0.065	0.314
-314.983	650.546	0.053	0.137
-313.968	75.498	-0.200	-0.212
-312.953	-200.000	0.069	-0.327
-311.939	214.379	-0.086	-0.136
-310.924	95.393	-0.226	-0.260
-309.910	-108.493	0.271	0.059
-308.895	20.649	0.025	0.020
-307.880	81.199	-0.170	0.185
-306.866	262.469	0.150	-0.263
-305.851	800.000	-0.049	0.196
-304.837	186.512	-0.073	0.110
-303.822	-100.630	-0.120	0.030
-302.807	-52.803	-0.095	-0.044
-301.793	118.541	0.023	-0.028
-300.778	-101.264	-0.213	-0.052
-299.764	-142.104	-0.337	-0.034
-298.749	153.575	-0.055	0.076
-297.735	80.971	-0.029	0.032
-296.720	122.623	0.104	0.131
-295.705	-200.000	-0.025	-0.246
-294.691	-72.712	0.205	0.076
-293.676	-102.745	-0.278	-0.067
-292.662	-200.000	0.075	0.544
-291.647	104.522	0.025	0.030
-290.632	800.000	-0.074	0.213
-289.618	-34.002	0.111	-0.062
-288.603	-200.000	0.067	0.302
-287.589	144.911	0.083	-0.111
-286.574	38.096	-0.089	0.080
-285.559	3.175	-0.246	0.180
-284.545	-139.935	-0.261	0.028
-283.530	39.217	-0.206	0.185
-282.516	154.316	-0.116	0.160
-281.501	14.142	-0.119	-0.094
-280.486	214.629	0.068	0.108
-279.472	183.724	0.125	-0.185
-278.457	800.000	-0.073	-0.263
-277.443	361.705	0.090	0.181
-276.428	284.737	0.120	-0.218
-275.413	69.778	-0.277	0.287
-274.399	800.000	-0.069	0.240
-273.384	8.858	-0.113	0.086
-272.370	171.026	0.104	0.151
-271.355	-16.242	0.333	0.213
-270.340	727.117	-0.011	0.029
-269.326	-87.223	-0.042	0.013
-268.311	563.004	0.056	0.136
-267.297	800.000	-0.054	-0.196
-266.282	-38.185	0.386	0.206
-265.267	-177.638	0.174	0.004
-264.253	800.000	-0.158	-0.442
-263.238	-200.000	0.030	-0.270
-262.224	31.902	0.258	-0.223
-261.209	-71.764	0.145	-0.054
-260.195	212.225	-0.065	0.103
-259.180	174.020	-0.023	-0.034
-258.165	415.260	0.142	0.303
-257.151	-109.489	0.172	0.036
-256.136	-121.196	-0.227	-0.038
-255.122	800.000	0.018	0.060
-254.107	24.297	0.021	0.018
-253.092	-200.000	0.008	-0.136
-252.078	106.821	-0.220	0.263
-251.063	-26.881	0.038	0.022
-250.049	-13.585	-0.151	-0.098
-249.034	800.000	0.083	-0.299
-248.019	-131.043	-0.513	-0.069
-247.005	-200.000	0.010	-0.199
-245.990	129.395	0.129	0.165
-244.976	-156.407	-0.214	0.013
-243.961	-101.023	0.311	0.077
-242.946	157.753	-0.085	-0.118
-241.932	-21.923	0.096	0.058
-240.917	800.000	0.087	0.277
-239.903	-64.895	-0.243	-0.099
-238.888	600.833	-0.064	0.160
-237.873	-200.000	-0.043	-0.274
-236.859	-200.000	0.033	-0.182
-235.844	41.346	0.271	0.246
-234.830	301.108	0.140	0.259
-233.815	-200.000	0.004	0.241
-232.800	-149.951	0.085	0.007
-231.786	-200.000	-0.001	-0.160
-230.771	-45.461	0.203	0.101
-229.757	-80.017	0.102	0.034
-228.742	-96.988	0.109	-0.029
-227.727	131.359	0.066	-0.085
-226.713	800.000	-0.083	-0.314
-225.698	-49.756	-0.220	-0.105
-224.684	-127.615	0.144	-0.021
-223.669	-108.156	0.224	-0.049
-222.655	145.427	0.143	-0.192
-221.640	-200.000	0.012	0.095
-220.625	-94.948	0.275	0.075
-219.611	101.046	-0.044	-0.051
-218.596	-20.039	-0.141	0.087
-217.582	-200.000	-0.009	0.590
-216.567	-60.403	0.273	0.116
-215.552	694.332	-0.092	-0.241
-214.538	-200.000	0.042	-0.469
-213.523	181.684	-0.181	-0.268
-212.509	74.957	0.319	0.337
-211.494	-115.032	-0.158	0.030
-210.479	45.129	-0.191	-0.176
-209.465	177.410	-0.301	-0.440
-208.450	-100.216	0.263	-0.065
-207.436	163.597	-0.128	0.181
-206.421	3.530	0.255	0.186
-205.406	616.261	0.093	-0.233
-204.392	-84.180	0.320	-0.102
-203.377	54.290	0.249	0.240
-202.363	-34.912	0.261	0.143
-201.348	29.047	0.147	-0.125
-200.333	46.965	-0.219	0.204
-199.319	-200.000	0.015	-0.092
-198.304	-200.000	-0.022	-0.304
-197.290	799.515	-0.153	-0.423
-196.275	-91.084	0.148	0.043
-195.260	-200.000	-0.055	0.275
-194.246	-103.810	0.347	0.081
-193.231	135.144	-0.259	0.338
-192.217	189.277	0.058	0.087
-191.202	133.605	0.075	0.097
-190.187	-34.514	0.111	-0.061
-189.173	-159.622	0.149	0.008
-188.158	44.078	-0.149	0.137
-187.144	-77.700	0.211	-0.073
-186.129	-27.315	0.254	-0.148
-185.114	-132.191	-0.173	0.023
-184.100	168.530	0.061	-0.087
-183.085	-40.960	0.084	0.044
-182.071	11.486	-0.060	0.046
-181.056	-200.000	-0.010	0.093
-180.042	-167.054	0.059	-0.002
-179.027	-200.000	-0.004	0.218
-178.012	181.622	-0.115	0.169
-176.998	145.170	-0.080	-0.107
-175.983	248.830	0.118	-0.200
-174.969	276.443	0.100	-0.178
-173.954	227.484	0.165	-0.268
-172.939	-195.681	0.056	0.000
-171.925	-200.000	0.054	0.324
-170.910	-45.179	-0.200	-0.099
-169.896	26.429	-0.198	0.166
-168.881	16.330	-0.146	0.115
-167.866	-168.364	0.315	0.012
-166.852	194.266	-0.182	-0.276
-165.837	-119.642	0.091	0.016
-164.823	680.988	-0.042	0.111
-163.808	800.000	0.027	-0.106
-162.793	800.000	-0.099	0.326
-161.779	-200.000	0.027	-0.310
-160.764	-200.000	0.040	0.280
-159.750	207.207	-0.176	0.275
-158.735	-200.000	-0.050	0.308
-157.720	800.000	-0.098	0.392
-156.706	132.815	-0.160	0.206
-155.691	2.278	-0.101	0.073
-154.677	-200.000	-0.004	-0.182
-153.662	-17.694	0.368	-0.231
-152.647	-127.862	-0.346	-0.050
-151.633	-200.000	-0.035	0.274
-150.618	-113.791	-0.161	0.031
-149.604	269.508	-0.038	-0.066
-148.589	19.194	0.074	-0.060
-147.574	86.440	-0.080	-0.089
-146.560	-119.020	-0.082	0.014
-145.545	-38.963	-0.144	0.076
-144.531	-179.672	-0.371	-0.008
-143.516	-200.000	-0.038	0.355
-142.502	-50.957	0.133	-0.063
-141.487	156.486	-0.080	-0.110
-140.472	-200.000	0.040	-0.211
-139.458	745.763	-0.086	0.232
-138.443	-200.000	-0.032	0.223
-137.429	189.893	-0.116	-0.175
-136.414	-101.390	-0.053	-0.013
-135.399	-25.490	0.267	-0.157
-134.385	57.171	0.213	0.208
-133.370	800.000	-0.082	-0.347
-132.356	-200.000	0.055	-0.449
-131.341	-117.130	-0.061	-0.011
-130.326	-33.650	-0.268	0.148
-129.312	-73.497	-0.079	0.029
-128.297	-163.251	-0.184	-0.009
-127.283	66.327	-0.132	-0.134
-126.268	800.000	-0.047	-0.146
-125.253	106.349	0.129	-0.152
-124.239	-3.027	0.214	-0.149
-123.224	-142.214	0.206	-0.020
