DTS Sentinel unit serial number:	SN413079Multiplexer serial number:	ORYXHardware model number:	OX4-SRSoftware version number:	ORYX F/W v4.00 Oryx Data Collector v3.7.2.0data status	okinstallation	princeton_trtdifferential loss correction	single-endedforward channel	channel 4reverse channel	N/Adate	2019/09/11time	20:23:11forward acquisition time	60.00reverse acquisition time	0.00gamma	496.2192k internal	0.2302k external	0.2302temperature offset calibration	1.0055default loss term (dB/km)	0.3790temperature slope calibration	1.0000multiplexer offset coefficient	1.0000multiplexer slope coefficient	1.0000fibre end	0.00T internal ref (°C)	37.87T ext. ref 1 (°C)	1.48T ext. ref 2 (°C)	31.57length (m)	temperature (°C)	Stokes	anti-Stokes-747.200	16.364	0.253	0.204
-746.185	800.000	0.079	-0.243
-745.171	800.000	0.043	-0.137
-744.156	-61.505	-0.292	0.125
-743.142	69.000	0.016	-0.016
-742.127	-200.000	0.049	0.365
-741.112	25.159	0.297	-0.251
-740.098	441.465	0.071	0.158
-739.083	-200.000	-0.002	-0.054
-738.069	-44.759	0.111	-0.057
-737.054	-116.019	0.157	0.030
-736.039	-66.346	0.076	-0.031
-735.025	-183.908	0.225	-0.004
-734.010	22.767	-0.211	0.176
-732.996	800.000	0.039	-0.170
-731.981	-58.289	-0.104	-0.046
-730.966	-200.000	-0.041	0.190
-729.952	-200.000	-0.020	-0.137
-728.937	28.119	-0.226	0.194
-727.923	188.152	-0.200	0.304
-726.908	39.441	-0.405	-0.369
-725.894	-52.253	-0.170	0.080
-724.879	800.000	-0.035	0.104
-723.864	41.485	-0.371	0.342
-722.850	422.916	-0.092	-0.202
-721.835	-200.000	-0.056	-0.516
-720.821	-87.060	0.017	-0.005
-719.806	-200.000	-0.005	0.304
-718.791	-6.234	0.059	0.041
-717.777	-200.000	-0.002	0.250
-716.762	-54.793	0.206	0.095
-715.748	-19.066	-0.138	-0.087
-714.733	-105.465	0.312	-0.072
-713.718	130.839	0.049	0.064
-712.704	75.856	0.092	-0.099
-711.689	-200.000	0.022	-0.427
-710.675	-86.652	-0.246	0.077
-709.660	-200.000	0.009	0.116
-708.645	-110.716	0.591	0.124
-707.631	-200.000	-0.055	-0.273
-706.616	-200.000	0.125	-0.000
-705.602	418.271	-0.046	-0.100
-704.587	-200.000	0.008	0.075
-703.572	-5.702	-0.220	-0.153
-702.558	257.422	0.114	0.199
-701.543	-6.369	0.081	-0.056
-700.529	-7.105	-0.359	-0.248
-699.514	73.157	-0.281	-0.299
-698.499	764.611	0.056	-0.156
-697.485	-200.000	0.004	-0.036
-696.470	-186.940	-0.221	-0.003
-695.456	-109.873	-0.046	0.010
-694.441	345.332	0.132	0.264
-693.426	-23.508	0.102	-0.062
-692.412	-151.479	0.128	-0.010
-691.397	629.847	0.037	-0.094
-690.383	-17.438	0.100	-0.064
-689.368	-78.051	0.416	-0.146
-688.354	-200.000	0.001	0.011
-687.339	-200.000	-0.007	0.160
-686.324	143.174	-0.098	0.133
-685.310	528.784	-0.096	-0.230
-684.295	-86.242	-0.206	0.064
-683.281	-121.481	0.174	-0.029
-682.266	-200.000	-0.009	-0.364
-681.251	61.835	-0.157	-0.159
-680.237	-125.088	-0.045	0.007
-679.222	232.458	0.136	0.227
-678.208	-200.000	0.011	0.136
-677.193	-200.000	-0.020	-0.249
-676.178	800.000	-0.061	-0.260
-675.164	-200.000	-0.064	-0.363
-674.149	-200.000	0.002	0.116
-673.135	800.000	0.043	0.150
-672.120	-31.158	-0.317	-0.181
-671.105	-200.000	0.005	-0.191
-670.091	-200.000	-0.051	0.270
-669.076	152.700	0.198	-0.275
-668.062	86.667	0.180	0.202
-667.047	-144.743	0.157	0.015
-666.032	-200.000	0.002	-0.057
-665.018	-108.679	0.259	-0.057
-664.003	193.020	0.040	-0.061
-662.989	-200.000	-0.070	0.384
-661.974	800.000	-0.025	-0.093
-660.959	-121.919	0.071	0.012
-659.945	-5.243	-0.168	0.117
-658.930	-64.240	0.135	0.056
-657.916	800.000	-0.098	0.385
-656.901	-86.987	0.225	-0.070
-655.886	-69.124	-0.367	0.143
-654.872	-65.229	-0.449	-0.184
-653.857	315.968	0.083	0.160
-652.843	193.841	-0.067	0.103
-651.828	800.000	0.034	0.149
-650.814	-151.520	0.114	0.009
-649.799	-45.689	0.110	-0.055
-648.784	-51.536	0.098	-0.047
-647.770	-129.616	-0.155	-0.022
-646.755	21.884	-0.323	0.267
-645.741	84.178	-0.084	-0.094
-644.726	-200.000	0.005	0.159
-643.711	96.822	0.066	0.077
-642.697	54.911	0.175	-0.171
-641.682	-200.000	-0.038	0.381
-640.668	699.239	-0.031	-0.083
-639.653	-200.000	-0.021	-0.612
-638.638	-200.000	0.004	-0.124
-637.624	-71.186	0.365	-0.139
-636.609	-150.641	0.231	0.018
-635.595	800.000	0.091	-0.255
-634.580	-82.485	-0.288	-0.095
-633.565	181.063	-0.144	-0.214
-632.551	598.514	-0.059	0.150
-631.536	-6.199	-0.127	0.088
-630.522	-59.938	-0.103	-0.045
-629.507	-98.769	0.203	-0.052
-628.492	41.877	-0.318	-0.292
-627.478	-45.252	0.440	-0.222
-626.463	-17.783	0.295	-0.188
-625.449	121.340	0.025	-0.031
-624.434	-28.329	0.173	-0.101
-623.419	-61.103	-0.122	-0.052
-622.405	-132.339	-0.358	-0.047
-621.390	5.945	0.206	0.155
-620.376	67.306	0.029	0.030
-619.361	-200.000	0.007	0.193
-618.346	238.696	0.055	0.092
-617.332	-200.000	0.026	-0.190
-616.317	-200.000	-0.129	0.001
-615.303	-77.871	0.261	0.091
-614.288	164.538	0.116	0.166
-613.273	68.383	-0.107	0.111
-612.259	117.805	-0.149	0.185
-611.244	62.286	0.302	0.306
-610.230	356.236	-0.088	-0.178
-609.215	-53.954	-0.098	-0.045
-608.201	-46.495	-0.237	0.118
-607.186	-35.892	0.248	0.136
-606.171	197.540	0.046	-0.071
-605.157	-1.639	-0.361	0.258
-604.142	84.142	0.102	0.113
-603.128	158.414	-0.125	-0.175
-602.113	42.051	-0.078	0.072
-601.098	-56.671	-0.170	-0.076
-600.084	67.104	0.158	0.163
-599.069	-200.000	0.034	0.177
-598.055	-1.402	-0.146	0.104
-597.040	-11.430	0.199	0.133
-596.025	80.086	0.206	-0.224
-595.011	-93.514	0.251	0.070
-593.996	501.402	-0.060	-0.140
-592.982	50.225	-0.079	0.075
-591.967	37.597	-0.332	-0.299
-590.952	800.000	0.052	0.194
-589.938	-122.280	0.409	-0.068
-588.923	3.472	0.291	-0.215
-587.909	-200.000	-0.007	-0.174
-586.894	67.361	-0.134	-0.139
-585.879	800.000	-0.045	0.136
-584.865	-137.132	0.121	-0.014
-583.850	180.532	0.067	-0.099
-582.836	-51.311	0.226	-0.107
-581.821	-180.358	-0.146	0.003
-580.806	-6.328	-0.170	0.118
-579.792	3.147	-0.142	0.105
-578.777	122.413	0.096	0.122
-577.763	384.812	0.112	-0.233
-576.748	10.476	-0.057	-0.044
-575.733	-173.078	-0.401	-0.012
-574.719	199.283	-0.022	0.034
-573.704	-44.259	-0.514	-0.261
-572.690	91.957	-0.363	-0.414
-571.675	-71.750	0.160	-0.060
-570.661	-90.244	0.223	-0.066
-569.646	-103.938	-0.225	-0.053
-568.631	-175.410	-0.134	0.004
-567.617	800.000	-0.047	0.174
-566.602	-37.260	0.144	0.078
-565.588	-133.692	0.102	0.013
-564.573	800.000	-0.051	0.156
-563.558	800.000	-0.032	-0.103
-562.544	-176.613	0.297	0.008
-561.529	20.019	-0.270	-0.220
-560.515	-149.826	0.389	-0.031
-559.500	-81.986	-0.097	-0.032
-558.485	-89.274	-0.140	0.042
-557.471	33.487	-0.331	-0.291
-556.456	48.817	-0.148	0.141
-555.442	-5.972	-0.157	-0.108
-554.427	800.000	0.091	-0.258
-553.412	17.229	-0.298	-0.239
-552.398	-140.196	-0.165	0.017
-551.383	-9.103	-0.078	-0.053
-550.369	-105.588	0.190	0.044
-549.354	250.448	-0.036	0.062
-548.339	-200.000	0.014	-0.111
-547.325	-76.585	-0.131	0.047
-546.310	-12.005	-0.320	0.212
-545.296	159.288	0.110	-0.155
-544.281	118.553	0.102	0.127
-543.266	-72.917	-0.357	-0.133
-542.252	163.937	-0.035	0.049
-541.237	744.361	0.017	0.046
-540.223	-167.911	-0.105	-0.004
-539.208	1.418	0.211	-0.153
-538.193	-68.701	-0.238	0.093
-537.179	-57.966	0.201	0.089
-536.164	-50.771	-0.209	0.099
-535.150	63.297	0.211	0.214
-534.135	800.000	-0.049	-0.205
-533.121	-200.000	-0.000	-0.091
-532.106	-69.876	0.197	0.076
-531.091	143.452	-0.185	0.249
-530.077	600.915	0.076	-0.191
-529.062	27.502	0.065	0.056
-528.048	-107.617	-0.079	0.017
-527.033	-10.799	-0.115	-0.077
-526.018	-200.000	0.026	-0.167
-525.004	-200.000	0.033	0.000
-523.989	800.000	-0.107	0.434
-522.975	-200.000	-0.036	-0.205
-521.960	-43.728	-0.308	-0.157
-520.945	-200.000	0.006	-0.083
-519.931	-73.215	0.108	0.040
-518.916	95.016	-0.106	-0.122
-517.902	107.393	-0.041	-0.049
-516.887	786.131	0.139	-0.385
-515.872	612.659	0.048	0.121
-514.858	180.742	0.118	0.176
-513.843	-94.931	0.170	-0.047
-512.829	30.126	-0.177	0.152
-511.814	-115.513	-0.243	0.046
-510.799	800.000	0.057	-0.171
-509.785	22.724	0.239	0.198
-508.770	800.000	-0.044	-0.181
-507.756	4.411	-0.308	-0.228
-506.741	-52.613	0.214	0.100
-505.726	800.000	-0.039	-0.147
-504.712	-191.702	-0.427	0.004
-503.697	-200.000	-0.050	0.337
-502.683	-186.459	-0.166	-0.002
-501.668	-45.466	0.364	-0.182
-500.653	86.718	-0.297	0.331
-499.639	37.262	-0.207	-0.185
-498.624	110.788	-0.033	0.040
-497.610	59.073	0.063	-0.063
-496.595	71.212	-0.115	-0.121
-495.581	-71.683	0.458	0.172
-494.566	-200.000	0.046	0.204
-493.551	800.000	-0.084	0.296
-492.537	800.000	-0.059	-0.176
-491.522	800.000	0.078	0.301
-490.508	800.000	0.058	0.226
-489.493	-42.182	-0.194	-0.100
-488.478	-200.000	0.067	0.398
-487.464	-200.000	-0.027	-0.438
-486.449	-18.924	0.149	0.094
-485.435	449.476	0.044	0.098
-484.420	101.502	-0.096	0.113
-483.405	-126.573	-0.167	0.025
-482.391	241.620	0.071	-0.119
-481.376	-200.000	-0.006	-0.246
-480.362	-61.861	0.374	0.158
-479.347	-200.000	0.012	-0.103
-478.332	-200.000	-0.016	-0.162
-477.318	-66.260	-0.341	-0.137
-476.303	-140.503	0.024	0.002
-475.289	800.000	-0.015	-0.052
-474.274	800.000	0.049	-0.173
-473.259	66.932	-0.100	-0.103
-472.245	-55.276	0.163	-0.074
-471.230	337.525	-0.273	-0.535
-470.216	-200.000	0.032	-0.369
-469.201	333.629	-0.076	0.149
-468.186	-84.914	0.165	0.052
-467.172	-33.535	0.401	-0.223
-466.157	702.566	0.119	-0.317
-465.143	318.799	0.081	-0.154
-464.128	-26.657	0.221	-0.131
-463.113	-200.000	-0.001	0.323
-462.099	-200.000	0.016	0.170
-461.084	204.719	0.049	0.076
-460.070	-169.154	0.047	0.002
-459.055	-127.662	-0.092	0.013
-458.040	60.442	-0.189	0.189
-457.026	587.466	-0.070	-0.172
-456.011	-81.744	-0.287	-0.095
-454.997	-43.539	-0.096	0.049
-453.982	-200.000	-0.007	-0.070
-452.968	-92.385	-0.199	0.056
-451.953	-200.000	0.019	0.128
-450.938	-15.481	-0.224	0.144
-449.924	50.522	0.056	-0.053
-448.909	-200.000	-0.021	-0.144
-447.895	800.000	0.074	-0.216
-446.880	-100.284	-0.445	0.111
-445.865	800.000	0.023	0.094
-444.851	-87.739	-0.246	-0.075
-443.836	-4.118	0.090	0.063
-442.822	-200.000	-0.005	0.392
-441.807	127.494	0.067	0.086
-440.792	-131.420	-0.137	0.018
-439.778	286.341	0.053	0.096
-438.763	-196.070	-0.127	-0.001
-437.749	-49.459	0.116	0.056
-436.734	50.058	-0.184	-0.175
-435.719	-200.000	0.001	-0.199
-434.705	-87.025	-0.048	0.015
-433.690	800.000	-0.023	0.076
-432.676	-93.077	-0.119	0.033
-431.661	260.693	0.110	0.191
-430.646	-20.850	-0.128	-0.079
-429.632	-200.000	0.017	-0.205
-428.617	182.994	-0.041	0.061
-427.603	-71.544	0.147	-0.055
-426.588	-200.000	0.037	-0.229
-425.573	-200.000	0.026	-0.219
-424.559	-78.372	0.192	0.066
-423.544	800.000	0.127	0.369
-422.530	-6.887	0.507	-0.347
-421.515	-200.000	0.008	-0.542
-420.500	-200.000	0.054	-0.444
-419.486	-200.000	-0.031	0.367
-418.471	800.000	-0.095	-0.300
-417.457	12.111	-0.088	0.068
-416.442	380.206	-0.060	-0.123
-415.428	-121.882	-0.177	0.029
-414.413	-87.927	0.116	0.035
-413.398	-200.000	-0.021	-0.133
-412.384	-89.711	-0.098	-0.029
-411.369	-91.459	0.253	0.073
-410.355	292.545	-0.161	0.294
-409.340	8.365	-0.255	-0.193
-408.325	800.000	-0.064	0.189
-407.311	144.707	0.158	0.213
-406.296	-145.009	0.042	0.004
-405.282	91.523	-0.113	0.127
-404.267	-89.740	0.117	-0.034
-403.252	210.303	0.056	-0.089
-402.238	800.000	-0.047	0.132
-401.223	-4.477	-0.226	-0.157
-400.209	-145.234	0.264	0.024
-399.194	23.744	0.330	-0.273
-398.179	-69.003	-0.150	0.058
-397.165	800.000	0.056	-0.180
-396.150	800.000	0.081	0.284
-395.136	240.427	-0.115	0.193
-394.121	91.757	0.053	-0.060
-393.106	-121.361	-0.332	-0.056
-392.092	302.472	-0.160	-0.298
-391.077	86.872	0.330	0.366
-390.063	78.832	0.487	-0.523
-389.048	70.038	0.349	-0.362
-388.033	-116.177	-0.226	0.042
-387.019	-25.060	-0.216	0.129
-386.004	99.143	0.254	-0.295
-384.990	151.778	-0.093	-0.127
-383.975	800.000	-0.081	0.250
-382.960	-50.835	0.152	-0.072
-381.946	-129.264	0.363	0.051
-380.931	-39.748	-0.267	-0.140
-379.917	800.000	-0.102	-0.379
-378.902	114.110	-0.090	-0.110
-377.888	-97.298	-0.087	0.023
-376.873	-70.708	0.166	-0.063
-375.858	-8.051	-0.234	0.158
-374.844	179.453	-0.004	-0.006
-373.829	318.395	0.017	-0.032
-372.815	-200.000	0.027	0.213
-371.800	181.923	-0.103	-0.153
-370.785	164.368	0.121	0.172
-369.771	-54.450	0.236	-0.107
-368.756	-200.000	-0.010	-0.179
-367.742	1.732	-0.035	0.025
-366.727	768.881	0.064	-0.174
-365.712	-142.471	-0.072	0.007
-364.698	800.000	0.142	0.437
-363.683	-59.960	-0.177	-0.076
-362.669	181.580	0.117	0.173
-361.654	-200.000	0.032	-0.200
-360.639	-200.000	0.033	0.300
-359.625	-61.607	0.152	-0.064
-358.610	-156.406	0.345	0.022
-357.596	-76.224	0.262	-0.093
-356.581	56.332	-0.298	-0.291
-355.566	518.113	-0.091	0.215
-354.552	-40.271	0.032	0.017
-353.537	-200.000	0.002	-0.143
-352.523	-200.000	0.022	-0.124
-351.508	-42.027	0.151	0.078
-350.493	-32.300	-0.225	0.126
-349.479	-48.080	-0.141	-0.068
-348.464	800.000	0.046	-0.153
-347.450	20.078	-0.249	0.202
-346.435	-42.465	0.164	-0.084
-345.420	-200.000	0.001	-0.318
-344.406	540.524	-0.070	-0.166
-343.391	17.372	-0.122	-0.097
-342.377	79.164	0.286	0.307
-341.362	-56.271	-0.496	-0.221
-340.348	-200.000	-0.002	0.069
-339.333	-200.000	-0.000	-0.143
-338.318	425.445	-0.031	-0.067
-337.304	-91.700	-0.408	-0.116
-336.289	-200.000	0.003	-0.119
-335.275	135.983	0.089	-0.116
-334.260	800.000	-0.055	-0.221
-333.245	602.451	0.084	-0.210
-332.231	35.947	-0.109	0.096
-331.216	-82.572	-0.244	-0.079
-330.202	54.158	-0.104	-0.100
-329.187	-134.055	-0.061	0.008
-328.172	-200.000	0.017	0.109
-327.158	525.470	0.042	0.099
-326.143	477.413	0.027	-0.062
-325.129	-81.951	-0.184	-0.060
-324.114	-160.269	0.366	0.020
-323.099	-82.391	0.191	0.062
-322.085	314.535	0.189	0.356
-321.070	-139.127	0.167	0.018
-320.056	-57.811	-0.197	-0.086
-319.041	-200.000	-0.009	0.044
-318.026	800.000	-0.074	-0.287
-317.012	800.000	0.046	-0.172
-315.997	37.581	0.214	0.190
-314.983	800.000	-0.095	-0.297
-313.968	780.577	-0.093	0.255
-312.953	-95.925	0.114	-0.030
-311.939	-200.000	0.063	-0.304
-310.924	-96.878	-0.088	0.023
-309.910	-71.263	-0.277	-0.104
-308.895	-104.672	-0.172	0.040
-307.880	-160.320	0.159	0.009
-306.866	0.152	-0.265	0.189
-305.851	-200.000	0.034	0.214
-304.837	-50.350	-0.285	0.135
-303.822	-200.000	-0.090	0.491
-302.807	45.237	0.229	0.211
-301.793	13.843	0.240	-0.187
-300.778	71.350	0.079	0.082
-299.764	-36.728	-0.224	-0.120
-298.749	-37.320	-0.163	-0.087
-297.735	-200.000	-0.048	0.308
-296.720	114.516	0.142	-0.174
-295.705	-200.000	-0.022	0.437
-294.691	53.138	0.302	0.289
-293.676	275.436	-0.082	-0.145
-292.662	133.984	-0.143	0.186
-291.647	800.000	-0.090	0.331
-290.632	379.348	-0.077	0.158
-289.618	800.000	-0.038	0.133
-288.603	-200.000	0.005	-0.081
-287.589	263.940	-0.134	0.233
-286.574	35.255	0.294	0.258
-285.559	-200.000	0.019	0.126
-284.545	-73.821	0.342	0.125
-283.530	697.347	0.095	-0.250
-282.516	354.496	0.029	0.058
-281.501	80.142	-0.321	-0.346
-280.486	-200.000	0.011	-0.050
-279.472	800.000	0.035	-0.153
-278.457	-115.984	-0.434	-0.081
-277.443	-200.000	-0.051	0.456
-276.428	134.583	-0.102	0.132
-275.413	-200.000	-0.012	-0.222
-274.399	52.533	0.036	-0.035
-273.384	311.743	-0.135	0.253
-272.370	-200.000	-0.016	-0.157
-271.355	800.000	0.049	-0.159
-270.340	605.363	0.055	0.137
-269.326	-58.304	-0.330	0.143
-268.311	-149.335	0.089	0.007
-267.297	-200.000	0.083	0.426
-266.282	678.034	-0.091	-0.236
-265.267	-121.537	0.133	0.022
-264.253	398.727	0.082	0.172
-263.238	71.397	-0.211	0.219
-262.224	118.128	0.127	0.156
-261.209	-86.749	-0.204	0.062
-260.195	-186.504	0.176	0.003
-259.180	5.465	0.182	0.134
-258.165	-200.000	-0.006	0.212
-257.151	353.393	0.123	0.243
-256.136	91.617	-0.259	-0.291
-255.122	-121.138	0.311	-0.052
-254.107	-85.356	-0.199	-0.062
-253.092	101.267	-0.214	0.249
-252.078	46.154	0.174	-0.161
-251.063	-168.329	0.473	0.018
-250.049	117.145	-0.170	-0.208
-249.034	-130.745	0.451	0.061
-248.019	800.000	-0.078	0.256
-247.005	800.000	-0.053	-0.220
-245.990	794.740	-0.067	-0.183
-244.976	800.000	0.204	-0.567
-243.961	54.502	-0.123	-0.119
-242.946	202.709	0.195	-0.301
-241.932	-47.657	0.288	0.140
-240.917	-85.488	0.307	-0.096
-239.903	262.269	0.125	0.217
-238.888	259.600	0.042	-0.073
-237.873	178.852	-0.016	-0.024
-236.859	-72.567	-0.573	-0.211
-235.844	-158.506	0.110	0.006
-234.830	-128.428	-0.099	-0.014
-233.815	121.529	0.173	0.216
-232.800	354.227	0.171	0.339
-231.786	800.000	0.026	0.097
-230.771	-191.027	0.111	0.001
-229.757	-75.856	-0.256	0.091
-228.742	-45.401	-0.225	-0.111
-227.727	-132.204	-0.354	-0.046
-226.713	-200.000	0.017	-0.111
-225.698	-130.095	0.248	-0.034
-224.684	-83.378	-0.261	0.084
-223.669	-45.447	-0.116	0.058
-222.655	11.858	0.142	-0.109
-221.640	249.200	-0.020	0.034
-220.625	236.617	-0.180	0.297
-219.611	-169.931	-0.166	-0.006
-218.596	202.164	-0.160	0.246
-217.582	-89.476	-0.331	0.097
-216.567	283.404	0.099	0.178
-215.552	-111.697	-0.255	0.052
-214.538	728.402	-0.119	-0.316
-213.523	-3.125	0.262	-0.182
-212.509	-89.283	-0.156	-0.046
-211.494	547.801	-0.141	0.338
-210.479	651.505	0.053	-0.136
-209.465	-99.683	0.271	0.068
-208.450	-173.178	-0.224	-0.007
-207.436	800.000	0.042	0.121
-206.421	800.000	-0.070	0.307
-205.406	153.931	-0.115	-0.158
-204.392	-54.660	0.295	-0.133
-203.377	760.307	-0.087	0.236
-202.363	-200.000	0.033	0.244
-201.348	-200.000	-0.062	0.330
-200.333	800.000	0.070	0.305
-199.319	-76.945	-0.219	0.076
-198.304	-130.171	0.133	0.018
-197.290	101.011	0.333	0.386
-196.275	-188.453	0.228	-0.003
-195.260	122.050	0.191	-0.238
-194.246	-200.000	-0.025	0.162
-193.231	-200.000	0.078	0.353
-192.217	-6.043	0.163	-0.111
-191.202	-52.795	-0.106	-0.049
-190.187	71.466	-0.180	0.187
-189.173	-200.000	-0.037	-0.186
-188.158	-41.211	-0.371	-0.191
-187.144	-158.876	0.313	-0.018
-186.129	556.563	0.063	-0.152
-185.114	140.872	0.126	-0.165
-184.100	173.854	0.090	0.129
-183.085	-48.649	0.120	-0.057
-182.071	8.425	0.350	-0.263
-181.056	442.127	-0.190	0.415
-180.042	-102.903	-0.171	0.040
-179.027	540.664	-0.068	0.162
-178.012	-7.937	0.224	-0.151
-176.998	503.084	0.099	0.229
-175.983	-78.651	-0.308	-0.105
-174.969	-42.119	0.444	-0.226
-173.954	-142.502	0.088	-0.009
-172.939	-200.000	-0.004	0.156
-171.925	97.428	0.359	0.411
-170.910	346.553	0.220	0.431
-169.896	-114.587	-0.262	0.050
-168.881	72.331	-0.242	0.251
-167.866	80.385	0.247	0.265
-166.852	-19.413	0.229	0.142
-165.837	800.000	0.084	-0.300
-164.823	-200.000	0.017	-0.223
-163.808	-200.000	-0.019	-0.402
-162.793	341.166	0.181	-0.352
-161.779	465.682	-0.155	0.345
-160.764	-110.060	0.460	-0.096
-159.750	-133.585	0.316	0.039
-158.735	-88.278	0.120	0.036
-157.720	113.290	0.246	-0.297
-156.706	800.000	-0.109	0.303
-155.691	110.331	0.212	0.254
-154.677	166.194	0.086	0.121
-153.662	-2.202	0.205	0.143
-152.647	-16.126	0.136	0.086
-151.633	-200.000	0.054	0.280
-150.618	205.504	-0.176	-0.272
-149.604	-34.300	0.238	0.130
-148.589	-155.117	0.209	-0.014
-147.574	800.000	-0.028	0.091
-146.560	-92.100	-0.261	0.073
-145.545	60.961	0.309	-0.305
-144.531	-200.000	-0.087	-0.588
-143.516	-33.560	-0.210	-0.115
-142.502	-15.793	-0.175	0.111
-141.487	-200.000	0.012	-0.122
-140.472	800.000	0.068	-0.270
-139.458	-88.814	0.209	-0.062
-138.443	198.498	0.239	0.364
-137.429	71.284	-0.187	0.193
-136.414	303.557	0.103	-0.189
-135.399	19.546	0.212	0.169
-134.385	-86.357	-0.096	0.029
-133.370	336.189	-0.140	0.270
-132.356	-172.360	0.364	0.012
-131.341	5.356	-0.051	-0.037
-130.326	-60.897	0.218	0.092
-129.312	92.631	-0.031	-0.034
-128.297	-72.841	0.209	-0.077
-127.283	-200.000	0.010	0.222
-126.268	36.579	0.106	0.093
-125.253	18.868	-0.159	-0.126
-124.239	800.000	0.049	0.162
-123.224	-38.499	-0.268	-0.141
-122.210	800.000	0.068	-0.202
-121.195	444.453	0.064	-0.141
-120.180	-200.000	-0.037	0.324
