DTS Sentinel unit serial number:	SN413079Multiplexer serial number:	ORYXHardware model number:	OX4-SRSoftware version number:	ORYX F/W v4.00 Oryx Data Collector v3.7.2.0data status	okinstallation	princeton_trtdifferential loss correction	single-endedforward channel	channel 4reverse channel	N/Adate	2019/09/18time	18:13:35forward acquisition time	60.00reverse acquisition time	0.00gamma	496.2192k internal	0.2292k external	0.2292temperature offset calibration	1.0019default loss term (dB/km)	0.3790temperature slope calibration	1.0000multiplexer offset coefficient	1.0000multiplexer slope coefficient	1.0000fibre end	0.00T internal ref (°C)	39.00T ext. ref 1 (°C)	0.93T ext. ref 2 (°C)	32.23length (m)	temperature (°C)	Stokes	anti-Stokes-747.200	800.000	-0.074	0.307
-746.185	-29.953	0.146	0.085
-745.171	-200.000	-0.023	0.148
-744.156	800.000	-0.032	0.138
-743.142	128.010	0.239	0.311
-742.127	-107.808	-0.485	0.108
-741.112	250.210	0.068	-0.118
-740.098	800.000	-0.090	0.361
-739.083	800.000	0.082	0.243
-738.069	50.547	0.156	0.151
-737.054	52.977	-0.225	0.220
-736.039	229.456	-0.145	0.242
-735.025	55.326	0.035	-0.034
-734.010	800.000	-0.025	0.097
-732.996	-200.000	0.026	-0.538
-731.981	-200.000	-0.001	-0.334
-730.966	37.410	0.184	-0.167
-729.952	102.324	-0.094	-0.113
-728.937	-200.000	-0.004	0.091
-727.923	-200.000	-0.024	0.123
-726.908	286.383	0.151	0.280
-725.894	800.000	-0.125	-0.380
-724.879	-65.662	-0.277	-0.114
-723.864	-98.018	0.220	-0.058
-722.850	-170.128	-0.112	0.004
-721.835	-144.599	-0.057	-0.005
-720.821	23.061	0.130	0.109
-719.806	315.573	0.070	-0.136
-718.791	-126.418	0.234	0.036
-717.777	800.000	0.046	0.132
-716.762	-29.744	0.097	0.057
-715.748	20.170	-0.149	-0.123
-714.733	-89.596	0.183	-0.055
-713.718	-3.104	0.090	-0.064
-712.704	34.375	-0.097	0.087
-711.689	18.829	-0.137	0.112
-710.675	-19.257	-0.373	0.236
-709.660	138.045	-0.069	0.092
-708.645	-200.000	0.032	0.254
-707.631	13.168	-0.135	0.107
-706.616	-81.614	-0.021	0.007
-705.602	800.000	-0.075	-0.216
-704.587	-36.126	0.119	-0.066
-703.572	18.935	-0.217	0.177
-702.558	-118.115	-0.274	-0.050
-701.543	408.232	0.043	-0.094
-700.529	68.797	0.231	0.242
-699.514	65.689	0.150	0.155
-698.499	549.992	0.054	-0.131
-697.485	97.655	0.102	-0.120
-696.470	-200.000	0.044	-0.227
-695.456	-200.000	0.002	-0.255
-694.441	-163.606	-0.116	-0.006
-693.426	-31.407	0.230	0.132
-692.412	270.725	-0.066	-0.119
-691.397	-184.869	0.133	0.002
-690.383	237.144	-0.150	0.254
-689.368	-200.000	0.002	0.123
-688.354	90.534	0.127	-0.145
-687.339	645.802	0.081	-0.212
-686.324	35.882	-0.135	-0.121
-685.310	90.862	0.098	0.112
-684.295	34.992	-0.068	0.061
-683.281	800.000	0.040	-0.148
-682.266	279.189	0.155	0.282
-681.251	244.449	-0.113	0.194
-680.237	-75.988	0.208	0.075
-679.222	608.836	0.072	-0.183
-678.208	185.616	0.117	0.178
-677.193	-120.860	0.136	0.023
-676.178	-3.755	0.073	0.052
-675.164	800.000	0.096	0.324
-674.149	-117.116	0.358	0.067
-673.135	-68.987	-0.063	-0.025
-672.120	15.928	0.108	-0.086
-671.105	800.000	0.030	-0.112
-670.091	800.000	0.051	0.189
-669.076	113.052	0.296	0.366
-668.062	-151.486	-0.187	-0.014
-667.047	737.044	-0.037	-0.102
-666.032	-27.649	-0.087	-0.052
-665.018	-92.146	-0.266	-0.077
-664.003	-72.331	0.074	-0.028
-662.989	-48.631	0.187	-0.092
-661.974	34.922	-0.113	-0.101
-660.959	-16.842	0.030	-0.019
-659.945	-14.121	0.152	-0.100
-658.930	76.381	0.340	0.368
-657.916	34.355	0.172	-0.153
-656.901	-8.851	0.211	-0.145
-655.886	800.000	-0.018	0.059
-654.872	-67.704	-0.359	-0.143
-653.857	800.000	-0.069	0.206
-652.843	-106.196	0.485	-0.111
-651.828	167.238	-0.090	0.131
-650.814	18.633	-0.359	0.293
-649.799	-90.119	0.287	-0.085
-648.784	-200.000	-0.021	0.149
-647.770	-108.490	0.142	-0.031
-646.755	136.319	-0.125	0.167
-645.741	800.000	-0.070	-0.234
-644.726	-170.130	-0.265	0.010
-643.711	-200.000	-0.006	0.130
-642.697	154.708	-0.119	-0.166
-641.682	-148.330	-0.284	0.024
-640.668	-125.146	0.202	0.032
-639.653	800.000	-0.053	-0.233
-638.638	-200.000	-0.029	-0.149
-637.624	-14.204	0.195	0.128
-636.609	-129.744	0.136	-0.019
-635.595	-4.470	0.344	0.242
-634.580	103.039	-0.203	0.242
-633.565	285.550	-0.037	0.068
-632.551	565.344	-0.077	0.191
-631.536	207.894	0.054	-0.086
-630.522	800.000	0.078	-0.346
-629.507	-46.948	0.232	-0.116
-628.492	33.328	-0.193	0.171
-627.478	-155.993	0.311	0.020
-626.463	58.925	0.266	-0.267
-625.449	-73.315	-0.249	-0.093
-624.434	-62.477	-0.193	-0.082
-623.419	-167.908	-0.205	0.008
-622.405	-3.191	-0.206	0.147
-621.390	345.824	-0.057	-0.115
-620.376	585.990	-0.094	-0.235
-619.361	288.262	0.094	0.173
-618.346	27.715	-0.175	0.150
-617.332	-30.317	-0.226	-0.131
-616.317	-128.067	-0.433	0.063
-615.303	393.033	0.107	-0.226
-614.288	12.691	0.255	-0.201
-613.273	78.663	-0.064	0.070
-612.259	-200.000	0.016	-0.462
-611.244	-105.001	0.340	-0.079
-610.230	52.982	0.148	-0.145
-609.215	-3.721	-0.212	-0.150
-608.201	-66.108	-0.134	-0.055
-607.186	-200.000	0.014	0.404
-606.171	443.235	0.127	-0.283
-605.157	56.295	0.134	0.132
-604.142	-40.971	-0.237	-0.125
-603.128	-200.000	0.008	-0.053
-602.113	-83.355	0.107	-0.035
-601.098	-200.000	-0.003	-0.124
-600.084	16.439	0.246	0.198
-599.069	461.162	-0.019	-0.042
-598.055	-200.000	0.060	-0.338
-597.040	-1.398	-0.234	-0.168
-596.025	78.409	-0.224	0.244
-595.011	-200.000	0.002	-0.032
-593.996	-33.307	0.014	0.008
-592.982	-97.014	-0.338	0.090
-591.967	800.000	0.071	-0.233
-590.952	800.000	-0.066	-0.237
-589.938	-13.070	-0.326	0.216
-588.923	-57.424	0.178	-0.080
-587.909	-200.000	-0.007	-0.153
-586.894	450.509	-0.209	0.470
-585.879	-48.184	-0.106	0.052
-584.865	79.768	-0.184	-0.201
-583.850	-200.000	0.020	0.155
-582.836	-4.399	0.406	0.285
-581.821	-200.000	0.001	-0.041
-580.806	-200.000	0.033	-0.285
-579.792	-200.000	0.045	-0.252
-578.777	-92.702	0.205	0.058
-577.763	234.924	0.172	0.288
-576.748	-200.000	-0.000	-0.174
-575.733	-101.195	-0.089	-0.022
-574.719	275.909	0.108	0.194
-573.704	517.214	0.089	-0.212
-572.690	155.201	0.219	0.306
-571.675	800.000	-0.097	0.367
-570.661	800.000	-0.060	0.176
-569.646	558.621	-0.059	0.144
-568.631	537.473	-0.064	-0.154
-567.617	-200.000	-0.022	-0.210
-566.602	-200.000	0.021	0.221
-565.588	144.733	0.023	-0.032
-564.573	-110.536	0.410	-0.086
-563.558	-18.560	0.226	0.143
-562.544	73.699	-0.079	-0.085
-561.529	-40.077	-0.173	0.092
-560.515	497.739	-0.037	0.087
-559.500	-200.000	-0.074	-0.444
-558.485	-88.033	-0.091	0.028
-557.471	-64.522	0.126	-0.052
-556.456	-102.903	0.364	-0.088
-555.442	554.104	-0.006	0.014
-554.427	-100.129	0.135	-0.034
-553.412	-200.000	-0.005	-0.038
-552.398	55.114	0.215	-0.211
-551.383	-70.704	-0.284	0.109
-550.369	800.000	0.154	-0.468
-549.354	-200.000	0.016	-0.143
-548.339	154.755	0.099	-0.138
-547.325	800.000	0.043	-0.159
-546.310	344.331	-0.129	0.257
-545.296	-5.066	0.072	-0.050
-544.281	-105.885	0.236	-0.054
-543.266	800.000	-0.023	-0.091
-542.252	553.925	-0.021	-0.051
-541.237	458.023	0.078	0.176
-540.223	88.928	-0.103	0.116
-539.208	-200.000	0.039	0.258
-538.193	-122.583	-0.386	0.064
-537.179	-70.832	0.198	-0.076
-536.164	-200.000	-0.008	0.193
-535.150	-64.567	0.364	0.150
-534.135	-200.000	-0.026	-0.176
-533.121	-200.000	-0.055	-0.364
-532.106	400.506	-0.118	-0.251
-531.091	278.971	0.142	0.258
-530.077	-101.099	0.159	0.040
-529.062	-112.672	-0.387	-0.078
-528.048	165.349	-0.089	0.128
-527.033	80.965	-0.093	0.102
-526.018	32.200	0.159	-0.139
-525.004	426.633	-0.069	-0.151
-523.989	336.562	-0.168	0.332
-522.975	365.098	-0.057	-0.116
-521.960	10.159	-0.055	-0.043
-520.945	67.867	-0.129	0.134
-519.931	-103.786	-0.428	-0.102
-518.916	800.000	0.039	-0.148
-517.902	-56.217	0.063	0.029
-516.887	-171.183	-0.249	0.009
-515.872	-200.000	-0.007	0.282
-514.858	-11.989	0.131	-0.087
-513.843	22.672	-0.118	-0.098
-512.829	-49.826	-0.113	0.054
-511.814	452.975	0.043	-0.098
-510.799	-195.242	-0.284	0.002
-509.785	-200.000	0.010	-0.244
-508.770	-200.000	-0.029	-0.137
-507.756	800.000	0.046	0.137
-506.741	-200.000	-0.008	-0.149
-505.726	-41.334	-0.157	0.082
-504.712	4.951	0.038	0.029
-503.697	27.771	-0.293	-0.250
-502.683	-144.312	0.280	-0.026
-501.668	-200.000	-0.001	-0.186
-500.653	-10.442	0.322	-0.216
-499.639	237.258	0.042	0.070
-498.624	90.666	0.185	-0.210
-497.610	800.000	0.091	0.398
-496.595	465.834	-0.037	0.083
-495.581	36.240	0.039	-0.035
-494.566	800.000	0.027	-0.096
-493.551	-27.440	-0.074	0.043
-492.537	43.821	-0.193	0.179
-491.522	-49.510	0.149	0.072
-490.508	198.241	0.005	-0.008
-489.493	14.923	-0.178	0.141
-488.478	278.546	0.032	0.058
-487.464	-77.088	0.328	-0.116
-486.449	800.000	-0.052	0.184
-485.435	492.935	-0.026	-0.060
-484.420	-129.979	0.374	0.052
-483.405	-44.215	-0.332	-0.169
-482.391	-200.000	0.013	-0.243
-481.376	-156.603	0.330	-0.021
-480.362	800.000	0.022	-0.091
-479.347	-66.132	0.437	0.177
-478.332	396.044	-0.128	0.271
-477.318	241.884	0.047	0.079
-476.303	-9.972	0.159	-0.107
-475.289	81.133	-0.405	-0.443
-474.274	306.562	-0.118	-0.223
-473.259	-82.096	-0.297	0.098
-472.245	-200.000	-0.019	-0.339
-471.230	42.676	-0.080	-0.074
-470.216	-200.000	0.236	0.000
-469.201	-200.000	0.011	-0.086
-468.186	-200.000	-0.017	-0.083
-467.172	259.268	0.084	-0.147
-466.157	-146.791	0.209	-0.018
-465.143	-49.258	-0.075	-0.036
-464.128	115.566	0.148	0.183
-463.113	108.096	-0.068	0.082
-462.099	-129.858	-0.186	-0.026
-461.084	-127.560	0.272	-0.040
-460.070	80.448	-0.236	-0.258
-459.055	-200.000	-0.010	-0.119
-458.040	697.596	-0.078	0.208
-457.026	-119.823	0.307	-0.054
-456.011	621.825	0.015	0.038
-454.997	536.452	0.112	-0.269
-453.982	12.416	-0.195	0.152
-452.968	-4.867	0.062	0.043
-451.953	-106.909	-0.257	0.058
-450.938	-200.000	-0.027	0.247
-449.924	-200.000	-0.006	-0.181
-448.909	-84.502	-0.153	0.049
-447.895	-57.506	0.229	0.102
-446.880	-200.000	-0.027	-0.260
-445.865	93.681	0.197	0.226
-444.851	-16.296	-0.119	-0.076
-443.836	191.996	0.086	-0.132
-442.822	-86.788	0.139	-0.043
-441.807	76.927	-0.091	-0.098
-440.792	242.228	0.270	0.457
-439.778	-11.334	0.187	0.125
-438.763	463.053	-0.094	0.213
-437.749	800.000	-0.066	-0.250
-436.734	-111.683	-0.221	0.045
-435.719	-9.810	-0.195	0.132
-434.705	-200.000	-0.018	0.183
-433.690	-200.000	0.074	0.329
-432.676	-200.000	0.014	0.064
-431.661	-161.900	0.094	0.005
-430.646	-132.550	-0.149	-0.019
-429.632	171.143	-0.155	-0.225
-428.617	666.650	0.012	-0.033
-427.603	-200.000	0.072	0.467
-426.588	249.852	-0.090	-0.155
-425.573	800.000	-0.005	-0.019
-424.559	42.121	-0.048	0.044
-423.544	13.068	0.125	0.098
-422.530	-103.116	-0.187	-0.045
-421.515	800.000	0.079	0.253
-420.500	-200.000	-0.013	-0.206
-419.486	-111.329	-0.256	-0.053
-418.471	229.232	-0.100	-0.165
-417.457	-113.562	-0.196	-0.039
-416.442	-128.554	0.294	0.042
-415.428	-122.955	-0.089	-0.014
-414.413	334.120	-0.031	-0.060
-413.398	85.945	0.120	-0.133
-412.384	800.000	-0.071	-0.269
-411.369	-9.713	0.209	-0.141
-410.355	187.654	0.066	-0.099
-409.340	-155.553	0.272	0.018
-408.325	-200.000	0.039	0.224
-407.311	-94.998	-0.202	-0.055
-406.296	-200.000	0.029	-0.234
-405.282	391.678	0.094	-0.197
-404.267	-162.282	-0.137	-0.007
-403.252	-96.065	-0.100	-0.027
-402.238	431.918	0.115	-0.251
-401.223	174.536	0.131	-0.192
-400.209	-200.000	0.062	-0.351
-399.194	204.840	0.156	0.245
-398.179	8.550	-0.274	0.208
-397.165	-109.210	0.103	-0.022
-396.150	215.616	0.027	-0.044
-395.136	-200.000	-0.029	-0.292
-394.121	208.188	-0.130	0.205
-393.106	-135.702	0.179	-0.021
-392.092	98.245	-0.125	-0.145
-391.077	381.564	-0.036	0.075
-390.063	-97.674	0.146	-0.038
-389.048	-50.777	-0.120	0.057
-388.033	-85.627	0.106	0.033
-387.019	9.882	0.210	0.161
-386.004	-106.188	-0.139	-0.031
-384.990	-115.170	0.128	-0.025
-383.975	27.946	0.143	-0.121
-382.960	172.456	-0.052	-0.076
-381.946	50.394	-0.086	0.082
-380.931	-200.000	0.139	-0.000
-379.917	68.428	0.054	-0.056
-378.902	189.629	-0.148	-0.224
-377.888	61.053	-0.344	-0.345
-376.873	-121.000	0.319	0.054
-375.858	126.534	-0.130	0.166
-374.844	89.944	0.075	0.085
-373.829	-43.194	-0.331	-0.169
-372.815	-200.000	0.099	-0.464
-371.800	49.070	0.228	-0.216
-370.785	-88.556	-0.104	0.031
-369.771	20.299	0.145	-0.118
-368.756	150.373	-0.161	-0.221
-367.742	-200.000	-0.104	0.549
-366.727	800.000	0.022	0.093
-365.712	-58.959	-0.173	0.076
-364.698	2.807	0.107	-0.078
-363.683	-108.995	0.102	0.022
-362.669	-200.000	-0.017	-0.123
-361.654	254.459	0.092	-0.159
-360.639	-106.707	0.336	-0.075
-359.625	-35.471	-0.121	0.066
-358.610	800.000	-0.042	0.126
-357.596	-54.980	-0.241	0.110
-356.581	38.423	-0.192	-0.173
-355.566	98.418	-0.058	-0.068
-354.552	-120.729	0.064	-0.011
-353.537	-200.000	0.062	-0.356
-352.523	164.584	0.144	0.205
-351.508	-84.392	-0.101	-0.032
-350.493	-81.830	-0.378	-0.125
-349.479	15.102	-0.101	0.079
-348.464	-31.924	-0.194	-0.110
-347.450	170.106	0.082	0.118
-346.435	-15.895	0.131	0.084
-345.420	-200.000	0.038	0.170
-344.406	-200.000	0.019	0.405
-343.391	-47.578	-0.252	0.123
-342.377	22.520	0.019	-0.016
-341.362	356.469	-0.109	0.220
-340.348	48.074	-0.096	-0.090
-339.333	-200.000	0.020	0.379
-338.318	800.000	0.057	-0.205
-337.304	-165.996	0.380	0.016
-336.289	161.149	-0.026	-0.036
-335.275	63.888	0.062	0.063
-334.260	-110.963	0.104	0.022
-333.245	-163.031	0.430	0.021
-332.231	-41.607	-0.211	0.109
-331.216	79.090	0.238	-0.257
-330.202	58.520	-0.159	0.157
-329.187	-144.990	-0.234	-0.021
-328.172	438.960	-0.096	0.210
-327.158	477.151	0.078	0.177
-326.143	-117.428	0.146	0.027
-325.129	800.000	0.073	-0.246
-324.114	108.786	-0.267	-0.321
-323.099	-200.000	0.036	0.312
-322.085	800.000	-0.079	0.230
-321.070	89.415	-0.109	-0.122
-320.056	388.669	-0.091	-0.190
-319.041	-73.259	-0.314	-0.116
-318.026	800.000	0.130	0.390
-317.012	-103.230	-0.150	-0.036
-315.997	22.188	0.177	0.145
-314.983	800.000	0.039	0.147
-313.968	-83.632	0.204	0.066
-312.953	509.352	0.073	0.170
-311.939	-1.821	0.183	-0.130
-310.924	137.967	0.093	-0.123
-309.910	-200.000	0.054	-0.293
-308.895	-126.387	-0.179	-0.027
-307.880	800.000	-0.057	-0.196
-306.866	-106.401	0.159	0.036
-305.851	-70.738	-0.156	0.059
-304.837	-118.356	0.331	0.059
-303.822	13.943	0.282	0.221
-302.807	526.667	-0.036	-0.084
-301.793	-64.015	0.208	-0.086
-300.778	180.600	-0.118	0.174
-299.764	-27.005	-0.198	-0.117
-298.749	112.470	0.064	-0.078
-297.735	141.764	0.019	-0.026
-296.720	-74.331	-0.231	0.084
-295.705	-200.000	0.020	0.327
-294.691	-184.947	0.134	0.002
-293.676	-134.032	-0.215	0.027
-292.662	-117.888	-0.029	-0.005
-291.647	-62.331	0.227	0.095
-290.632	-199.026	0.117	0.001
-289.618	-171.605	-0.296	-0.010
-288.603	-109.619	0.247	0.052
-287.589	-83.032	-0.061	-0.020
-286.574	-200.000	-0.003	-0.174
-285.559	-91.961	-0.423	-0.120
-284.545	45.809	0.084	0.078
-283.530	84.700	0.099	0.109
-282.516	282.730	-0.083	-0.150
-281.501	-118.692	-0.055	0.010
-280.486	-159.718	-0.136	-0.008
-279.472	-200.000	-0.024	0.318
-278.457	667.119	0.088	-0.228
-277.443	47.341	-0.085	0.079
-276.428	-200.000	0.003	0.133
-275.413	-124.117	-0.056	-0.009
-274.399	-127.577	0.028	-0.004
-273.384	163.864	0.287	0.406
-272.370	-19.288	0.086	0.054
-271.355	-200.000	-0.016	-0.093
-270.340	800.000	-0.035	0.136
-269.326	337.547	0.155	0.303
-268.311	273.912	0.108	0.193
-267.297	661.740	-0.113	0.293
-266.282	-106.946	0.376	0.084
-265.267	-58.481	-0.236	0.103
-264.253	76.943	-0.233	-0.249
-263.238	575.664	0.061	0.149
-262.224	31.179	0.105	-0.090
-261.209	-31.561	-0.195	0.110
-260.195	-200.000	0.012	-0.266
-259.180	110.331	-0.054	-0.065
-258.165	-107.802	-0.064	0.014
-257.151	-122.577	0.235	0.038
-256.136	-65.110	0.152	-0.062
-255.122	-145.090	-0.336	0.031
-254.107	-161.068	-0.324	-0.017
-253.092	-81.399	-0.216	0.071
-252.078	-67.907	0.194	-0.076
-251.063	-200.000	-0.054	-0.387
-250.049	150.502	-0.283	-0.386
-249.034	-200.000	-0.013	0.112
-248.019	-84.508	0.298	-0.094
-247.005	-77.850	-0.219	0.076
-245.990	-69.502	-0.130	0.050
-244.976	-83.308	-0.262	0.084
-243.961	598.026	0.057	-0.142
-242.946	-178.803	-0.074	-0.002
-241.932	800.000	0.032	0.092
-240.917	-36.779	-0.233	-0.125
-239.903	52.543	-0.257	-0.246
-238.888	-200.000	0.018	-0.110
-237.873	-55.988	-0.098	0.044
-236.859	800.000	0.043	0.137
-235.844	-49.067	-0.226	0.108
-234.830	-200.000	-0.038	0.328
-233.815	-37.588	0.135	-0.072
-232.800	800.000	-0.114	-0.372
-231.786	-200.000	0.066	0.307
-230.771	-75.567	0.115	0.041
-229.757	-91.760	-0.283	0.081
-228.742	99.472	0.235	0.273
-227.727	800.000	-0.008	0.034
-226.713	-195.200	-0.205	-0.002
-225.698	-200.000	-0.086	0.413
-224.684	-8.998	0.317	0.213
-223.669	720.643	0.103	0.273
-222.655	8.217	0.413	0.311
-221.640	644.595	-0.130	0.332
-220.625	-200.000	0.050	0.223
-219.611	-200.000	-0.049	0.244
-218.596	108.715	0.055	-0.066
-217.582	9.105	0.295	-0.223
-216.567	-126.525	0.344	0.051
-215.552	88.834	-0.096	-0.107
-214.538	59.150	0.096	0.095
-213.523	183.624	0.154	0.228
-212.509	-200.000	-0.017	-0.141
-211.494	-183.630	0.161	-0.003
-210.479	-100.276	0.084	-0.021
-209.465	48.287	-0.102	0.096
-208.450	-48.578	0.186	-0.090
-207.436	-62.964	0.059	-0.024
-206.421	25.987	0.166	0.139
-205.406	121.166	0.181	-0.225
-204.392	196.338	-0.072	-0.110
-203.377	-200.000	0.007	-0.133
-202.363	198.203	0.159	-0.244
-201.348	11.622	-0.048	0.037
-200.333	-44.959	0.224	0.112
-199.319	-165.042	-0.154	0.007
-198.304	34.882	0.189	-0.165
-197.290	176.770	-0.032	-0.046
-196.275	103.109	-0.098	0.115
-195.260	-200.000	0.007	-0.079
-194.246	-52.944	-0.118	0.054
-193.231	-200.000	-0.006	0.370
-192.217	-200.000	-0.000	-0.302
-191.202	33.182	-0.185	0.161
-190.187	-200.000	0.027	0.154
-189.173	-50.536	0.181	0.085
-188.158	795.270	0.105	0.291
-187.144	-107.154	-0.247	0.055
-186.129	800.000	-0.086	-0.264
-185.114	258.406	0.177	0.305
-184.100	-65.026	-0.252	0.102
-183.085	148.217	0.024	-0.032
-182.071	-54.643	0.351	0.159
-181.056	-55.305	0.256	-0.115
-180.042	133.858	0.082	0.107
-179.027	-21.057	-0.271	0.166
-178.012	-200.000	-0.046	-0.249
-176.998	10.885	-0.032	0.024
-175.983	-200.000	0.004	0.044
-174.969	-88.709	-0.230	-0.068
-173.954	342.227	0.028	-0.054
-172.939	-15.464	-0.253	-0.162
-171.925	359.934	0.117	-0.234
-170.910	655.488	0.104	0.267
-169.896	-200.000	-0.054	0.274
-168.881	-98.572	-0.132	-0.034
-167.866	643.795	0.055	0.139
-166.852	110.034	0.057	-0.069
-165.837	531.295	-0.036	-0.086
-164.823	-200.000	0.020	0.359
-163.808	570.221	0.122	0.298
-162.793	-33.969	0.281	0.154
-161.779	180.848	-0.107	-0.157
-160.764	-61.049	-0.179	0.076
-159.750	169.983	0.157	0.225
-158.735	256.506	-0.251	-0.431
-157.720	120.699	-0.162	-0.201
-156.706	479.725	0.137	0.311
-155.691	-200.000	0.080	0.457
-154.677	330.342	0.035	-0.067
-153.662	21.066	-0.258	-0.210
-152.647	-12.943	0.107	-0.070
-151.633	567.227	-0.157	-0.382
-150.618	-13.805	0.184	-0.119
-149.604	27.712	0.042	0.035
-148.589	-49.728	-0.125	0.059
-147.574	-41.692	0.372	-0.191
-146.560	-200.000	0.011	0.094
-145.545	800.000	-0.098	0.342
-144.531	38.987	-0.054	0.048
-143.516	-61.192	-0.200	-0.084
-142.502	-60.855	-0.227	-0.096
-141.487	800.000	0.014	-0.059
-140.472	-103.648	0.295	-0.069
-139.458	49.741	0.050	0.047
-138.443	77.618	0.133	-0.141
-137.429	4.810	-0.125	0.092
-136.414	-125.445	-0.317	-0.048
-135.399	-118.562	0.153	-0.027
-134.385	457.394	-0.064	0.141
-133.370	90.847	0.144	0.161
-132.356	-133.558	-0.158	0.020
-131.341	-134.858	-0.289	0.035
-130.326	32.068	0.166	-0.143
-129.312	-79.658	-0.307	-0.104
-128.297	-200.000	-0.009	0.249
-127.283	-5.603	0.038	-0.026
-126.268	-77.498	0.459	0.159
-125.253	-200.000	-0.058	0.349
-124.239	-82.034	0.162	-0.053
-123.224	391.436	0.038	0.080
-122.210	-40.597	0.148	-0.077
-121.195	9.023	-0.046	-0.034
