DTS Sentinel unit serial number:	SN413079Multiplexer serial number:	ORYXHardware model number:	OX4-SRSoftware version number:	ORYX F/W v4.00 Oryx Data Collector v3.7.2.0data status	okinstallation	princeton_trtdifferential loss correction	single-endedforward channel	channel 4reverse channel	N/Adate	2019/09/16time	08:29:34forward acquisition time	60.00reverse acquisition time	0.00gamma	496.2192k internal	0.2312k external	0.2312temperature offset calibration	0.9975default loss term (dB/km)	0.3790temperature slope calibration	1.0000multiplexer offset coefficient	1.0000multiplexer slope coefficient	1.0000fibre end	0.00T internal ref (°C)	29.27T ext. ref 1 (°C)	11.90T ext. ref 2 (°C)	25.77length (m)	temperature (°C)	Stokes	anti-Stokes-747.200	417.383	0.148	-0.321
-746.185	-200.000	0.001	0.095
-745.171	-30.135	0.128	0.074
-744.156	51.650	0.185	0.179
-743.142	-143.134	0.268	0.026
-742.127	104.764	-0.157	-0.188
-741.112	-129.523	-0.104	-0.015
-740.098	-167.595	-0.263	-0.011
-739.083	-168.842	-0.353	0.013
-738.069	-188.234	-0.408	0.005
-737.054	-134.224	-0.166	-0.021
-736.039	-200.000	0.002	0.144
-735.025	165.177	-0.205	0.294
-734.010	150.083	-0.167	-0.230
-732.996	-200.000	-0.013	-0.331
-731.981	-200.000	0.023	0.127
-730.966	206.023	-0.178	-0.281
-729.952	-30.162	-0.060	-0.034
-728.937	6.515	0.109	0.082
-727.923	101.264	-0.168	-0.199
-726.908	-200.000	0.011	-0.160
-725.894	-105.290	-0.337	0.078
-724.879	-112.012	-0.151	0.031
-723.864	-200.000	-0.055	0.380
-722.850	-200.000	-0.037	-0.361
-721.835	493.722	0.025	-0.059
-720.821	-200.000	-0.003	-0.129
-719.806	720.938	0.187	-0.503
-718.791	124.393	-0.104	0.132
-717.777	-99.556	0.077	-0.020
-716.762	-101.627	0.169	-0.042
-715.748	-12.927	0.212	-0.140
-714.733	800.000	-0.081	0.252
-713.718	20.360	-0.128	-0.105
-712.704	-200.000	0.093	-0.460
-711.689	-15.171	0.119	-0.077
-710.675	-128.998	-0.243	0.035
-709.660	-89.076	-0.144	-0.043
-708.645	312.238	-0.065	-0.124
-707.631	43.572	0.044	-0.041
-706.616	86.871	-0.079	0.088
-705.602	-4.014	-0.174	0.123
-704.587	-200.000	0.006	-0.462
-703.572	-51.498	-0.120	-0.057
-702.558	306.923	-0.088	0.167
-701.543	194.001	0.252	0.387
-700.529	582.600	0.048	-0.120
-699.514	248.941	0.054	-0.093
-698.499	183.382	0.119	0.178
-697.485	224.302	0.070	0.114
-696.470	-124.164	0.317	-0.050
-695.456	-132.193	-0.417	-0.055
-694.441	192.273	0.014	-0.021
-693.426	-200.000	0.008	-0.281
-692.412	349.186	0.113	0.227
-691.397	150.363	-0.216	0.297
-690.383	371.270	-0.120	-0.247
-689.368	-49.162	0.117	-0.057
-688.354	194.606	-0.111	-0.170
-687.339	-103.865	0.218	-0.052
-686.324	88.539	0.106	0.119
-685.310	-200.000	-0.018	0.122
-684.295	-87.977	-0.277	-0.084
-683.281	58.390	-0.234	0.232
-682.266	-57.002	-0.182	-0.081
-681.251	-67.180	-0.221	0.088
-680.237	-200.000	0.025	-0.233
-679.222	45.508	-0.120	0.112
-678.208	800.000	0.056	0.174
-677.193	800.000	0.044	0.163
-676.178	800.000	-0.027	-0.095
-675.164	-47.858	-0.072	0.035
-674.149	-200.000	0.023	-0.197
-673.135	-79.248	0.307	-0.105
-672.120	-101.653	0.181	0.044
-671.105	-200.000	0.019	0.099
-670.091	81.745	-0.195	0.214
-669.076	-66.422	-0.103	0.042
-668.062	-93.424	-0.368	-0.103
-667.047	638.136	-0.096	0.248
-666.032	-200.000	0.012	0.119
-665.018	-129.783	0.155	0.022
-664.003	260.843	-0.036	-0.062
-662.989	85.718	0.174	-0.193
-661.974	-10.583	0.299	-0.200
-660.959	800.000	-0.116	-0.502
-659.945	6.316	0.095	0.072
-658.930	800.000	0.097	-0.286
-657.916	426.134	0.076	-0.166
-656.901	-48.853	0.170	0.082
-655.886	348.519	0.147	-0.294
-654.872	-200.000	0.007	0.228
-653.857	800.000	0.035	-0.138
-652.843	-60.345	-0.278	-0.120
-651.828	-200.000	0.063	-0.345
-650.814	201.192	0.167	0.261
-649.799	-69.005	0.130	-0.051
-648.784	-200.000	0.034	0.273
-647.770	-200.000	-0.005	0.116
-646.755	-27.262	-0.046	0.027
-645.741	-6.369	-0.104	-0.072
-644.726	36.706	0.122	0.109
-643.711	161.953	0.017	0.024
-642.697	202.742	-0.040	0.063
-641.682	48.364	0.120	0.113
-640.668	628.774	-0.045	-0.115
-639.653	-90.431	0.310	0.091
-638.638	-200.000	0.006	-0.192
-637.624	-91.911	-0.082	0.024
-636.609	-200.000	0.001	-0.131
-635.595	-114.578	-0.254	0.049
-634.580	204.079	0.294	0.460
-633.565	-96.432	-0.226	0.060
-632.551	682.536	-0.088	0.232
-631.536	86.571	-0.207	-0.231
-630.522	587.720	-0.046	-0.115
-629.507	114.661	0.079	-0.098
-628.492	-69.709	-0.051	0.020
-627.478	-185.150	-0.244	0.004
-626.463	-200.000	-0.010	-0.279
-625.449	-200.000	0.015	0.274
-624.434	-200.000	-0.217	-0.000
-623.419	101.794	0.224	0.264
-622.405	460.117	-0.072	0.162
-621.390	-41.848	-0.192	0.099
-620.376	236.608	-0.036	-0.060
-619.361	-5.471	0.133	0.092
-618.346	800.000	-0.056	0.224
-617.332	-200.000	0.028	0.208
-616.317	-200.000	0.023	0.137
-615.303	-200.000	-0.025	-0.364
-614.288	503.379	-0.070	0.163
-613.273	-59.720	-0.028	0.012
-612.259	-61.547	0.414	0.175
-611.244	-85.301	-0.255	0.080
-610.230	47.231	-0.311	0.292
-609.215	147.732	0.083	0.113
-608.201	800.000	0.076	-0.219
-607.186	73.309	0.137	-0.145
-606.171	-14.431	0.159	-0.104
-605.157	158.976	0.146	-0.204
-604.142	-43.361	0.142	0.072
-603.128	278.256	0.062	-0.111
-602.113	-123.251	-0.193	-0.031
-601.098	-103.188	0.181	-0.043
-600.084	-200.000	-0.040	0.363
-599.069	-107.104	-0.065	-0.015
-598.055	-12.230	0.259	-0.171
-597.040	-200.000	0.000	-0.278
-596.025	800.000	0.032	0.133
-595.011	-101.748	-0.272	0.067
-593.996	-200.000	-0.055	0.375
-592.982	-89.244	0.031	0.009
-591.967	228.060	-0.168	-0.276
-590.952	-88.959	-0.252	-0.075
-589.938	-183.566	0.218	-0.004
-588.923	188.440	0.174	-0.263
-587.909	79.772	0.022	0.023
-586.894	800.000	0.080	-0.346
-585.879	-200.000	0.036	-0.171
-584.865	-46.833	-0.364	-0.180
-583.850	666.672	0.065	0.168
-582.836	225.364	0.079	-0.130
-581.821	157.473	0.045	-0.063
-580.806	-128.692	-0.143	0.020
-579.792	800.000	0.117	-0.334
-578.777	32.385	-0.074	-0.064
-577.763	-99.663	-0.225	-0.057
-576.748	-136.995	0.384	0.044
-575.733	68.561	0.066	0.068
-574.719	18.825	-0.276	-0.223
-573.704	-170.298	0.458	0.016
-572.690	-3.557	-0.346	-0.243
-571.675	32.235	-0.163	-0.142
-570.661	327.011	0.205	-0.396
-569.646	-56.185	0.294	-0.132
-568.631	-200.000	-0.002	-0.354
-567.617	209.187	-0.016	0.025
-566.602	152.104	0.183	-0.252
-565.588	-99.859	-0.287	0.072
-564.573	-200.000	-0.037	0.291
-563.558	83.347	-0.234	-0.257
-562.544	-157.702	0.257	0.015
-561.529	-200.000	0.066	0.354
-560.515	180.446	-0.143	0.212
-559.500	-200.000	0.010	-0.148
-558.485	45.333	-0.199	0.185
-557.471	-105.883	-0.115	0.026
-556.456	-110.797	0.182	0.038
-555.442	800.000	-0.048	-0.196
-554.427	119.235	0.123	-0.154
-553.412	163.487	-0.146	-0.207
-552.398	119.240	-0.115	0.143
-551.383	21.985	0.312	0.256
-550.369	308.128	0.058	-0.110
-549.354	-200.000	-0.013	0.168
-548.339	73.240	-0.140	0.148
-547.325	2.722	-0.203	-0.148
-546.310	-26.580	0.313	-0.185
-545.296	800.000	-0.104	-0.439
-544.281	276.789	-0.148	-0.265
-543.266	-200.000	-0.007	-0.178
-542.252	800.000	-0.105	0.369
-541.237	-104.759	-0.318	0.074
-540.223	-58.935	-0.295	0.128
-539.208	-200.000	0.017	-0.181
-538.193	-9.916	0.097	-0.065
-537.179	-113.149	-0.109	-0.022
-536.164	-67.646	0.315	0.124
-535.150	49.374	-0.120	-0.113
-534.135	-200.000	0.037	0.296
-533.121	-138.765	0.211	-0.023
-532.106	-37.157	-0.050	0.027
-531.091	-23.094	-0.210	-0.127
-530.077	114.624	0.124	-0.152
-529.062	67.044	0.106	0.109
-528.048	88.180	0.120	0.134
-527.033	674.239	0.057	-0.149
-526.018	-200.000	0.007	-0.362
-525.004	37.937	-0.112	-0.100
-523.989	-182.417	0.254	0.005
-522.975	-200.000	-0.031	-0.214
-521.960	-200.000	0.002	-0.121
-520.945	4.287	0.096	-0.070
-519.931	254.744	-0.116	0.199
-518.916	800.000	-0.072	0.217
-517.902	-200.000	-0.027	0.195
-516.887	-38.346	0.098	-0.052
-515.872	69.099	-0.244	-0.252
-514.858	-45.622	0.382	-0.190
-513.843	119.098	-0.134	0.167
-512.829	-86.849	-0.204	0.063
-511.814	-169.435	-0.226	-0.008
-510.799	-155.316	0.355	-0.023
-509.785	35.401	0.058	-0.051
-508.770	-110.423	-0.053	0.011
-507.756	-200.000	0.009	0.170
-506.741	-200.000	-0.008	-0.265
-505.726	800.000	0.085	0.343
-504.712	99.149	-0.078	-0.091
-503.697	75.857	-0.112	-0.119
-502.683	-87.776	-0.166	0.050
-501.668	-200.000	0.040	-0.360
-500.653	-101.555	-0.048	-0.012
-499.639	38.841	0.360	0.323
-498.624	-43.366	0.282	-0.143
-497.610	270.104	-0.163	-0.288
-496.595	-44.627	-0.010	0.005
-495.581	89.574	-0.091	0.102
-494.566	-88.265	-0.232	0.070
-493.551	10.865	0.130	0.100
-492.537	-26.175	-0.183	0.108
-491.522	800.000	-0.082	-0.290
-490.508	444.772	0.152	0.336
-489.493	-56.777	0.220	-0.098
-488.478	-47.399	0.192	0.094
-487.464	-125.275	0.241	-0.037
-486.449	251.638	0.150	0.256
-485.435	-99.446	-0.332	-0.084
-484.420	410.109	0.191	-0.406
-483.405	-14.648	0.124	-0.080
-482.391	-200.000	-0.012	-0.330
-481.376	124.762	0.148	-0.187
-480.362	-5.030	0.172	-0.119
-479.347	-200.000	-0.028	0.258
-478.332	300.621	0.148	-0.275
-477.318	781.795	0.077	-0.211
-476.303	-23.973	-0.214	-0.129
-475.289	52.690	0.144	0.138
-474.274	-200.000	-0.017	0.184
-473.259	-63.973	-0.182	-0.075
-472.245	-2.268	0.144	0.101
-471.230	190.771	0.160	-0.241
-470.216	-50.535	-0.236	0.112
-469.201	-87.377	-0.285	0.087
-468.186	124.789	0.060	-0.075
-467.172	-112.686	-0.258	0.052
-466.157	800.000	0.028	0.090
-465.143	-22.031	0.416	0.253
-464.128	-135.490	0.291	0.035
-463.113	800.000	0.049	-0.141
-462.099	585.883	-0.115	0.285
-461.084	-200.000	0.027	-0.141
-460.070	127.224	-0.273	0.348
-459.055	781.778	-0.076	0.208
-458.040	71.798	-0.157	0.164
-457.026	38.061	0.088	0.078
-456.011	-89.336	-0.045	0.013
-454.997	162.590	0.145	-0.204
-453.982	-200.000	0.047	0.351
-452.968	29.658	0.052	-0.044
-451.953	-25.222	0.159	-0.095
-450.938	-93.694	-0.130	0.036
-449.924	19.223	0.065	-0.053
-448.909	269.253	0.131	-0.231
-447.895	-62.075	0.129	0.054
-446.880	800.000	0.080	-0.259
-445.865	-200.000	-0.004	-0.334
-444.851	-200.000	-0.009	0.116
-443.836	-24.199	-0.365	-0.218
-442.822	401.875	0.080	0.168
-441.807	-155.923	0.197	-0.013
-440.792	-200.000	0.126	0.582
-439.778	800.000	-0.076	-0.230
-438.763	-200.000	-0.035	0.270
-437.749	-133.810	0.317	0.039
-436.734	-200.000	0.050	-0.273
-435.719	800.000	0.137	-0.413
-434.705	-132.620	-0.182	-0.023
-433.690	272.887	0.084	-0.149
-432.676	-145.519	-0.071	0.006
-431.661	55.508	-0.080	-0.078
-430.646	-183.302	0.161	-0.003
-429.632	83.107	0.087	0.095
-428.617	-44.499	0.197	0.099
-427.603	800.000	0.080	-0.223
-426.588	414.531	-0.046	0.098
-425.573	-200.000	-0.057	0.302
-424.559	36.926	-0.086	0.076
-423.544	-53.202	0.265	-0.122
-422.530	800.000	-0.101	0.289
-421.515	-74.664	0.043	-0.015
-420.500	-110.159	-0.206	0.043
-419.486	165.056	-0.167	-0.236
-418.471	96.970	0.123	0.142
-417.457	-102.887	0.272	0.065
-416.442	800.000	-0.034	-0.126
-415.428	64.958	0.067	-0.067
-414.413	-119.285	0.172	-0.030
-413.398	23.998	0.193	-0.159
-412.384	-146.132	0.220	0.019
-411.369	800.000	-0.097	-0.326
-410.355	-84.375	0.148	0.047
-409.340	778.617	-0.026	-0.072
-408.325	41.468	-0.224	-0.203
-407.311	-152.899	-0.118	-0.008
-406.296	43.293	0.210	-0.192
-405.282	307.518	-0.084	0.157
-404.267	218.425	0.178	0.284
-403.252	-200.000	0.004	0.127
-402.238	179.659	-0.166	-0.244
-401.223	800.000	0.038	-0.133
-400.209	119.530	-0.092	-0.115
-399.194	136.721	0.058	-0.076
-398.179	-130.995	-0.122	-0.016
-397.165	800.000	0.077	-0.246
-396.150	406.754	-0.035	0.073
-395.136	4.088	-0.187	0.137
-394.121	-200.000	-0.015	0.170
-393.106	189.736	-0.064	0.096
-392.092	17.263	-0.224	-0.178
-391.077	14.708	0.103	-0.080
-390.063	-106.522	-0.083	-0.019
-389.048	-110.454	-0.090	-0.019
-388.033	205.484	0.080	0.124
-387.019	-82.144	-0.192	0.063
-386.004	800.000	0.026	0.082
-384.990	-146.687	0.093	0.008
-383.975	800.000	0.035	-0.104
-382.960	800.000	-0.066	-0.227
-381.946	47.756	-0.138	0.129
-380.931	800.000	-0.071	-0.229
-379.917	521.976	0.177	0.415
-378.902	50.724	-0.339	0.321
-377.888	134.826	0.029	-0.037
-376.873	-108.713	0.159	0.034
-375.858	264.747	0.168	-0.292
-374.844	301.294	-0.155	-0.286
-373.829	83.286	-0.145	0.158
-372.815	-111.397	-0.296	0.060
-371.800	800.000	0.020	-0.073
-370.785	-200.000	-0.003	0.172
-369.771	-200.000	-0.051	0.227
-368.756	-200.000	0.154	-0.001
-367.742	-68.532	0.153	0.059
-366.727	26.618	0.317	0.265
-365.712	-161.006	-0.034	0.002
-364.698	179.972	-0.036	0.053
-363.683	-200.000	0.091	-0.427
-362.669	66.133	0.082	0.083
-361.654	-47.456	0.117	-0.057
-360.639	538.194	-0.092	-0.219
-359.625	36.931	0.200	-0.176
-358.610	-179.577	-0.106	-0.002
-357.596	-77.203	0.101	-0.035
-356.581	1.343	0.124	-0.089
-355.566	800.000	-0.043	-0.164
-354.552	444.378	0.159	0.349
-353.537	-38.170	-0.534	-0.283
-352.523	-32.589	0.215	0.119
-351.508	148.592	0.155	-0.209
-350.493	-42.329	-0.267	0.136
-349.479	363.890	0.156	-0.314
-348.464	-200.000	0.009	-0.238
-347.450	-88.047	-0.430	0.129
-346.435	-40.098	0.266	-0.138
-345.420	350.795	0.085	0.169
-344.406	-110.708	0.079	0.016
-343.391	-87.613	0.247	0.074
-342.377	-86.408	0.052	-0.016
-341.362	-200.000	-0.386	0.000
-340.348	148.095	0.049	0.066
-339.333	-200.000	0.056	0.258
-338.318	145.966	-0.173	0.232
-337.304	14.758	-0.168	0.131
-336.289	-108.553	0.047	-0.010
-335.275	-200.000	0.019	0.120
-334.260	114.934	0.076	-0.093
-333.245	212.468	-0.085	0.134
-332.231	-84.053	0.103	-0.033
-331.216	-139.027	-0.229	0.025
-330.202	-39.067	-0.328	0.172
-329.187	-200.000	0.025	0.165
-328.172	-148.280	-0.183	0.015
-327.158	228.580	-0.066	-0.107
-326.143	1.600	-0.305	0.219
-325.129	10.622	0.337	-0.256
-324.114	-200.000	-0.049	0.343
-323.099	-120.810	-0.188	0.032
-322.085	-48.414	-0.222	0.107
-321.070	65.631	0.121	-0.122
-320.056	-56.238	-0.401	0.178
-319.041	800.000	-0.012	0.032
-318.026	-200.000	0.057	-0.431
-317.012	-200.000	-0.056	-0.321
-315.997	93.508	-0.083	-0.094
-314.983	-200.000	-0.006	-0.029
-313.968	-33.663	0.249	0.137
-312.953	-164.782	-0.175	0.008
-311.939	800.000	-0.080	0.247
-310.924	637.895	0.128	0.324
-309.910	52.671	-0.165	0.157
-308.895	28.107	-0.130	-0.109
-307.880	189.677	-0.069	-0.104
-306.866	42.849	-0.230	-0.209
-305.851	800.000	-0.079	-0.332
-304.837	-108.274	-0.199	0.043
-303.822	-200.000	-0.004	0.181
-302.807	-200.000	0.006	0.225
-301.793	534.261	0.029	0.069
-300.778	-169.042	-0.195	0.007
-299.764	800.000	0.016	0.056
-298.749	-126.472	-0.232	0.034
-297.735	329.236	0.156	0.299
-296.720	63.662	-0.156	0.156
-295.705	134.810	-0.149	0.193
-294.691	-104.090	0.225	-0.052
-293.676	95.877	-0.059	-0.067
-292.662	78.521	0.135	0.144
-291.647	-36.491	0.060	0.032
-290.632	223.362	0.018	-0.029
-289.618	-200.000	0.035	0.306
-288.603	-3.325	0.263	0.183
-287.589	-30.675	-0.204	-0.115
-286.574	63.845	0.163	-0.164
-285.559	-39.950	0.136	-0.071
-284.545	276.575	0.160	0.284
-283.530	123.427	0.239	-0.299
-282.516	178.183	-0.161	-0.235
-281.501	-200.000	-0.032	0.152
-280.486	-93.682	0.163	-0.045
-279.472	-92.895	-0.126	0.035
-278.457	800.000	-0.038	0.122
-277.443	23.492	0.275	0.225
-276.428	-104.032	-0.073	0.017
-275.413	87.494	0.295	-0.325
-274.399	-200.000	-0.030	-0.178
-273.384	-200.000	0.014	-0.116
-272.370	-54.796	-0.252	0.113
-271.355	0.552	-0.332	0.236
-270.340	54.292	-0.309	0.296
-269.326	252.088	-0.050	0.084
-268.311	-153.733	-0.247	-0.017
-267.297	-9.741	0.089	-0.059
-266.282	-200.000	-0.037	0.200
-265.267	800.000	-0.057	0.191
-264.253	275.208	0.107	0.189
-263.238	-0.069	-0.192	-0.136
-262.224	-83.483	-0.214	0.068
-261.209	-40.168	0.351	-0.182
-260.195	-104.727	-0.297	0.068
-259.180	-31.978	0.156	-0.087
-258.165	800.000	0.078	0.249
-257.151	-25.633	0.239	0.141
-256.136	64.566	0.064	0.064
-255.122	-200.000	-0.041	0.202
-254.107	-88.990	-0.253	-0.074
-253.092	29.402	-0.217	-0.183
-252.078	-200.000	0.000	0.255
-251.063	-178.807	-0.101	0.002
-250.049	-172.546	0.325	0.010
-249.034	155.243	0.166	0.228
-248.019	152.820	-0.201	0.273
-247.005	800.000	0.082	-0.244
-245.990	-200.000	-0.011	-0.155
-244.976	708.234	0.057	0.149
-243.961	154.943	0.076	-0.103
-242.946	8.661	-0.261	0.196
-241.932	-200.000	-0.029	-0.310
-240.917	-134.647	0.189	-0.023
-239.903	-200.000	0.030	0.424
-238.888	142.407	-0.182	-0.241
-237.873	38.363	-0.225	-0.199
-236.859	-167.713	0.533	-0.021
-235.844	-70.708	0.256	0.096
-234.830	144.059	-0.110	-0.146
-233.815	5.485	-0.166	-0.122
-232.800	-200.000	-0.024	-0.199
-231.786	43.863	-0.044	-0.040
-230.771	-76.322	-0.219	0.077
-229.757	-29.278	-0.223	-0.127
-228.742	148.131	-0.095	-0.128
-227.727	29.115	0.148	0.125
-226.713	-43.483	-0.155	-0.078
-225.698	48.061	0.295	0.274
-224.684	-185.857	-0.285	0.004
-223.669	114.415	0.149	0.181
-222.655	-200.000	-0.001	0.078
-221.640	766.695	0.110	-0.297
-220.625	-149.635	-0.028	-0.002
-219.611	-52.154	0.159	-0.073
-218.596	-153.769	-0.056	-0.004
-217.582	6.579	-0.329	0.243
-216.567	74.175	-0.231	0.241
-215.552	-133.474	0.096	0.012
-214.538	-65.854	-0.191	0.076
-213.523	-120.904	0.244	0.041
-212.509	49.066	-0.061	0.057
-211.494	254.151	-0.237	0.403
-210.479	-118.242	-0.181	0.032
-209.465	77.534	-0.070	0.074
-208.450	-119.501	0.338	-0.058
-207.436	-200.000	-0.022	-0.258
-206.421	180.371	-0.154	0.224
-205.406	-112.273	0.212	0.042
-204.392	800.000	0.069	-0.222
-203.377	217.201	0.176	-0.278
-202.363	-174.860	-0.236	-0.007
-201.348	-200.000	-0.083	0.476
-200.333	-163.139	0.355	0.017
-199.319	54.715	0.061	-0.058
-198.304	441.849	0.059	-0.127
-197.290	-52.128	-0.099	-0.046
-196.275	-24.411	-0.242	-0.143
-195.260	-145.361	0.540	-0.048
-194.246	42.261	0.065	0.059
-193.231	-133.247	0.238	0.030
-192.217	115.265	0.131	0.159
-191.202	800.000	0.014	0.049
-190.187	-200.000	0.043	-0.241
-189.173	281.904	0.169	-0.301
-188.158	-140.324	-0.228	0.024
-187.144	-102.777	0.209	0.049
-186.129	-34.239	0.105	-0.057
-185.114	228.475	-0.184	-0.297
-184.100	-185.146	0.216	-0.003
-183.085	159.157	0.018	-0.025
-182.071	327.364	0.007	0.013
-181.056	45.297	-0.132	-0.121
-180.042	-71.048	0.138	-0.051
-179.027	26.023	0.286	-0.237
-178.012	-106.179	0.268	0.060
-176.998	-90.590	-0.149	0.043
-175.983	-46.502	-0.128	-0.062
-174.969	77.443	0.126	0.133
-173.954	498.831	0.142	-0.325
-172.939	800.000	0.026	0.073
-171.925	-79.595	0.197	0.066
-170.910	23.880	-0.236	-0.193
-169.896	-106.582	-0.058	-0.013
-168.881	152.917	-0.132	-0.180
-167.866	-191.168	-0.327	-0.003
-166.852	208.932	0.203	0.315
-165.837	213.664	0.109	0.171
-164.823	502.463	-0.152	0.350
-163.808	-51.259	0.152	-0.071
-162.793	800.000	0.080	-0.322
-161.779	800.000	0.057	0.241
-160.764	156.227	-0.304	0.416
-159.750	218.107	-0.128	0.203
-158.735	-30.968	-0.111	0.062
-157.720	67.154	0.125	-0.126
-156.706	4.800	0.183	-0.134
-155.691	-96.442	-0.133	0.035
-154.677	800.000	0.073	-0.286
-153.662	68.064	-0.371	0.377
-152.647	-85.283	0.258	-0.080
-151.633	-41.551	0.148	0.076
-150.618	-200.000	-0.011	0.091
-149.604	557.801	-0.140	0.334
-148.589	14.712	0.208	-0.161
-147.574	105.432	0.207	-0.243
-146.560	91.388	-0.049	0.054
-145.545	-200.000	-0.012	0.442
-144.531	-68.417	-0.023	-0.009
-143.516	67.611	-0.178	0.180
-142.502	-71.847	-0.051	-0.019
-141.487	14.571	-0.169	-0.131
-140.472	-109.719	0.284	-0.059
-139.458	39.450	-0.186	0.166
-138.443	-92.603	-0.029	-0.008
-137.429	-134.686	0.247	-0.030
-136.414	172.186	-0.144	-0.206
-135.399	-200.000	0.072	-0.486
-134.385	189.477	0.271	0.402
-133.370	43.113	0.187	-0.169
-132.356	577.886	0.020	-0.048
-131.341	-81.801	-0.197	-0.064
-130.326	111.445	0.068	0.082
-129.312	635.948	0.022	-0.055
-128.297	-117.843	0.193	0.034
-127.283	-106.919	0.343	-0.075
-126.268	86.887	-0.205	0.224
-125.253	-200.000	0.008	-0.097
-124.239	-53.995	-0.182	0.082
-123.224	80.135	-0.089	-0.094
-122.210	-200.000	-0.037	0.309
-121.195	215.451	0.074	0.117
