DTS Sentinel unit serial number:	SN413079Multiplexer serial number:	ORYXHardware model number:	OX4-SRSoftware version number:	ORYX F/W v4.00 Oryx Data Collector v3.7.2.0data status	okinstallation	princeton_trtdifferential loss correction	single-endedforward channel	channel 4reverse channel	N/Adate	2019/09/12time	08:43:10forward acquisition time	60.00reverse acquisition time	0.00gamma	496.2192k internal	0.2301k external	0.2301temperature offset calibration	1.0067default loss term (dB/km)	0.3790temperature slope calibration	1.0000multiplexer offset coefficient	1.0000multiplexer slope coefficient	1.0000fibre end	0.00T internal ref (°C)	33.87T ext. ref 1 (°C)	1.73T ext. ref 2 (°C)	30.33length (m)	temperature (°C)	Stokes	anti-Stokes-747.200	-16.445	-0.168	0.109
-746.185	800.000	-0.089	0.296
-745.171	-188.001	0.509	-0.007
-744.156	-83.206	0.225	-0.074
-743.142	148.240	-0.218	-0.300
-742.127	347.390	0.179	0.359
-741.112	-200.000	0.021	0.172
-740.098	-191.433	-0.124	-0.001
-739.083	113.271	-0.119	0.147
-738.069	560.194	0.159	0.390
-737.054	-75.563	0.107	0.039
-736.039	-200.000	0.009	0.044
-735.025	203.725	-0.076	-0.120
-734.010	-147.776	-0.346	0.030
-732.996	-114.540	0.318	0.062
-731.981	-29.622	-0.313	-0.182
-730.966	24.449	-0.235	0.198
-729.952	800.000	0.044	-0.138
-728.937	-112.150	0.253	-0.052
-727.923	-78.306	-0.436	-0.152
-726.908	483.915	-0.009	0.020
-725.894	47.664	-0.231	0.220
-724.879	62.689	0.250	0.255
-723.864	-161.152	-0.364	-0.019
-722.850	-4.158	0.141	0.099
-721.835	-88.250	-0.129	0.039
-720.821	7.991	-0.134	0.102
-719.806	-149.618	-0.296	-0.024
-718.791	-158.313	0.275	-0.016
-717.777	-59.559	0.301	-0.132
-716.762	490.959	0.108	-0.251
-715.748	31.044	-0.307	-0.268
-714.733	-92.687	-0.050	-0.014
-713.718	151.774	-0.198	-0.275
-712.704	43.403	-0.032	0.029
-711.689	-71.660	-0.310	0.118
-710.675	-132.458	-0.148	0.019
-709.660	-36.493	-0.324	0.178
-708.645	491.890	-0.065	0.152
-707.631	-9.328	-0.343	-0.233
-706.616	9.757	0.222	0.171
-705.602	-66.279	0.045	0.018
-704.587	21.323	-0.184	-0.152
-703.572	-72.589	0.198	-0.074
-702.558	35.494	0.102	-0.091
-701.543	-200.000	0.000	0.415
-700.529	-123.199	0.064	0.010
-699.514	-3.481	0.217	0.154
-698.499	-64.303	-0.202	-0.084
-697.485	-200.000	-0.006	-0.524
-696.470	-129.726	0.375	0.053
-695.456	212.787	0.206	-0.330
-694.441	3.533	0.231	0.171
-693.426	94.423	-0.112	-0.130
-692.412	-121.019	-0.335	-0.057
-691.397	-29.440	-0.078	-0.045
-690.383	90.040	0.226	-0.257
-689.368	-98.120	-0.218	0.057
-688.354	-89.540	0.270	0.081
-687.339	-49.541	-0.082	-0.040
-686.324	161.433	0.086	0.122
-685.310	-43.541	0.247	-0.127
-684.295	550.464	-0.051	-0.125
-683.281	-27.317	0.192	-0.114
-682.266	-200.000	0.055	0.366
-681.251	-97.960	-0.514	0.135
-680.237	-133.621	0.111	-0.014
-679.222	441.092	0.038	0.084
-678.208	-200.000	0.027	-0.146
-677.193	726.470	-0.101	-0.275
-676.178	800.000	-0.049	-0.211
-675.164	-200.000	0.039	-0.273
-674.149	405.876	0.130	-0.279
-673.135	-200.000	-0.034	0.195
-672.120	74.419	-0.135	0.144
-671.105	439.838	0.027	0.060
-670.091	-151.873	-0.162	-0.012
-669.076	-14.957	0.044	-0.029
-668.062	-200.000	-0.002	-0.275
-667.047	120.760	-0.250	-0.316
-666.032	-115.377	0.056	-0.011
-665.018	45.007	-0.188	-0.176
-664.003	800.000	0.009	-0.031
-662.989	-85.539	0.154	0.049
-661.974	101.662	-0.228	-0.270
-660.959	800.000	0.094	0.366
-659.945	86.085	-0.093	-0.104
-658.930	313.492	-0.200	-0.382
-657.916	-138.934	-0.232	0.026
-656.901	-14.508	-0.481	-0.315
-655.886	800.000	-0.054	-0.172
-654.872	250.135	0.019	0.033
-653.857	304.574	-0.115	-0.218
-652.843	54.646	0.268	-0.262
-651.828	-90.738	0.156	-0.046
-650.814	-142.081	-0.294	0.030
-649.799	132.898	0.085	-0.112
-648.784	-193.061	-0.059	-0.001
-647.770	89.458	0.191	0.216
-646.755	-3.918	-0.061	-0.043
-645.741	-154.379	0.165	0.011
-644.726	-161.725	-0.233	0.012
-643.711	136.290	0.240	-0.318
-642.697	98.682	-0.217	0.254
-641.682	160.743	0.201	0.284
-640.668	-17.767	-0.180	0.115
-639.653	-67.220	0.094	-0.038
-638.638	278.477	0.063	0.114
-637.624	-200.000	-0.135	-0.000
-636.609	-131.784	-0.194	0.026
-635.595	276.382	-0.187	-0.337
-634.580	14.180	-0.293	-0.232
-633.565	298.398	-0.141	0.262
-632.551	-200.000	-0.046	0.432
-631.536	-18.396	0.186	-0.118
-630.522	-137.337	-0.191	-0.022
-629.507	-167.712	-0.303	-0.012
-628.492	-90.623	0.182	0.053
-627.478	800.000	-0.065	-0.190
-626.463	800.000	-0.081	-0.272
-625.449	-79.387	0.162	0.056
-624.434	552.743	-0.038	-0.094
-623.419	428.501	0.087	-0.190
-622.405	-105.522	0.042	-0.010
-621.390	-102.073	-0.418	0.102
-620.376	-200.000	-0.009	-0.107
-619.361	-200.000	-0.037	0.196
-618.346	7.523	-0.243	0.185
-617.332	-111.464	0.319	-0.066
-616.317	-124.607	0.070	0.011
-615.303	-151.442	0.291	0.022
-614.288	24.733	-0.322	0.270
-613.273	31.198	0.194	0.169
-612.259	28.286	0.136	0.116
-611.244	-200.000	0.012	0.088
-610.230	-71.915	-0.286	-0.108
-609.215	-82.310	-0.030	-0.010
-608.201	-200.000	0.010	0.055
-607.186	-80.938	0.160	0.054
-606.171	-61.136	0.103	0.044
-605.157	-49.355	-0.289	0.140
-604.142	-108.339	-0.383	-0.084
-603.128	650.964	0.128	0.333
-602.113	4.390	-0.093	-0.069
-601.098	608.656	0.023	-0.058
-600.084	43.836	0.227	-0.211
-599.069	-200.000	-0.014	-0.131
-598.055	321.779	-0.264	0.509
-597.040	-127.908	-0.195	0.028
-596.025	283.139	0.130	-0.236
-595.011	-101.677	0.369	0.091
-593.996	259.198	-0.089	0.156
-592.982	764.046	0.056	-0.153
-591.967	-118.867	-0.158	0.028
-590.952	415.289	-0.031	-0.066
-589.938	-152.924	-0.121	0.009
-588.923	16.366	0.168	-0.134
-587.909	-105.908	0.371	0.085
-586.894	-127.623	-0.190	-0.028
-585.879	202.336	0.180	0.281
-584.865	-117.314	-0.126	-0.023
-583.850	800.000	-0.052	0.177
-582.836	-113.249	0.100	0.020
-581.821	800.000	-0.098	0.346
-580.806	431.310	0.148	-0.325
-579.792	-20.003	-0.151	-0.094
-578.777	503.222	-0.068	-0.160
-577.763	43.745	0.100	0.093
-576.748	85.463	0.018	0.020
-575.733	-200.000	-0.017	-0.181
-574.719	-200.000	-0.000	-0.172
-573.704	745.967	0.060	0.163
-572.690	-200.000	0.061	-0.286
-571.675	380.646	0.072	-0.150
-570.661	-121.110	0.486	0.083
-569.646	-200.000	0.058	-0.284
-568.631	-46.696	-0.095	-0.047
-567.617	-121.581	-0.310	-0.052
-566.602	-200.000	0.009	0.043
-565.588	-146.473	-0.123	0.011
-564.573	-113.612	-0.180	0.036
-563.558	-200.000	0.019	-0.101
-562.544	312.895	0.157	-0.298
-561.529	-200.000	0.222	-0.001
-560.515	-41.826	-0.355	-0.184
-559.500	19.126	-0.334	-0.271
-558.485	800.000	-0.039	-0.112
-557.471	695.499	0.066	0.176
-556.456	-200.000	-0.012	0.129
-555.442	-141.643	0.178	-0.018
-554.427	-79.078	-0.413	0.142
-553.412	30.550	0.124	-0.108
-552.398	192.353	-0.184	0.281
-551.383	-92.564	-0.206	0.058
-550.369	-138.219	0.105	-0.012
-549.354	-200.000	0.033	0.317
-548.339	-58.084	-0.082	0.036
-547.325	167.504	0.106	-0.152
-546.310	109.581	0.173	0.210
-545.296	10.215	-0.029	-0.022
-544.281	800.000	0.038	0.147
-543.266	-200.000	0.008	0.068
-542.252	-200.000	0.040	-0.193
-541.237	-35.819	0.091	0.050
-540.223	-103.970	0.107	-0.025
-539.208	-86.066	0.373	0.116
-538.193	1.898	-0.253	-0.184
-537.179	-200.000	0.031	0.178
-536.164	-126.861	-0.356	0.053
-535.150	-44.648	0.208	0.105
-534.135	277.679	-0.171	0.307
-533.121	-67.918	-0.434	0.171
-532.106	150.475	-0.226	-0.311
-531.091	-200.000	-0.008	-0.124
-530.077	-113.418	-0.079	-0.016
-529.062	68.885	0.066	-0.069
-528.048	160.753	-0.185	-0.261
-527.033	-129.641	-0.075	0.010
-526.018	339.749	-0.079	0.155
-525.004	53.175	-0.213	-0.206
-523.989	-28.607	-0.217	-0.126
-522.975	-40.799	0.129	-0.068
-521.960	226.546	0.143	-0.234
-520.945	-200.000	0.037	-0.316
-519.931	-14.209	0.109	0.071
-518.916	141.517	0.207	0.277
-517.902	201.501	0.099	0.154
-516.887	-12.152	-0.017	0.011
-515.872	41.813	0.226	-0.207
-514.858	-182.754	0.548	-0.010
-513.843	115.309	0.104	0.128
-512.829	140.925	0.153	-0.204
-511.814	11.270	0.110	0.085
-510.799	-19.222	0.037	-0.023
-509.785	800.000	-0.061	-0.221
-508.770	787.266	0.097	-0.269
-507.756	-200.000	0.008	-0.294
-506.741	800.000	0.036	0.113
-505.726	-94.702	0.189	-0.052
-504.712	-126.442	-0.194	0.029
-503.697	800.000	0.103	-0.368
-502.683	-46.759	-0.251	-0.124
-501.668	800.000	-0.053	-0.174
-500.653	-158.818	0.251	-0.014
-499.639	281.853	-0.077	0.139
-498.624	301.010	-0.055	0.103
-497.610	-150.550	-0.259	0.020
-496.595	-60.323	0.278	-0.119
-495.581	779.083	-0.092	-0.254
-494.566	-200.000	-0.001	-0.056
-493.551	240.010	-0.050	0.084
-492.537	-200.000	-0.014	0.128
-491.522	-196.134	0.144	0.001
-490.508	-105.128	0.202	0.047
-489.493	-134.721	-0.106	0.013
-488.478	71.652	0.158	-0.166
-487.464	-200.000	-0.006	-0.104
-486.449	-200.000	-0.011	0.081
-485.435	-43.850	-0.157	-0.080
-484.420	18.605	0.119	0.096
-483.405	537.516	0.105	-0.252
-482.391	353.372	0.086	-0.173
-481.376	338.248	-0.169	0.332
-480.362	69.184	-0.023	0.024
-479.347	-200.000	-0.007	0.116
-478.332	-83.279	-0.167	-0.054
-477.318	-32.613	-0.232	0.130
-476.303	-200.000	0.050	0.657
-475.289	461.799	0.163	-0.366
-474.274	-152.859	0.120	-0.009
-473.259	-200.000	-0.010	0.094
-472.245	-80.285	-0.220	0.074
-471.230	686.513	0.143	-0.376
-470.216	316.186	-0.109	-0.207
-469.201	800.000	-0.021	0.069
-468.186	-16.255	0.032	0.020
-467.172	18.300	-0.129	-0.104
-466.157	76.598	-0.105	-0.112
-465.143	523.535	0.077	0.183
-464.128	-99.077	0.143	-0.037
-463.113	4.352	0.307	0.227
-462.099	-74.825	0.241	0.087
-461.084	-8.283	-0.101	0.068
-460.070	96.353	-0.119	0.137
-459.055	-11.851	-0.416	0.275
-458.040	-12.481	-0.182	0.120
-457.026	800.000	0.039	0.157
-456.011	-18.274	-0.285	-0.179
-454.997	-65.864	-0.216	0.087
-453.982	-126.317	-0.349	0.053
-452.968	-69.110	-0.058	-0.022
-451.953	131.180	0.055	-0.071
-450.938	-200.000	0.029	-0.188
-449.924	215.621	0.215	-0.345
-448.909	120.255	0.158	-0.198
-447.895	45.983	-0.228	-0.213
-446.880	199.879	-0.192	0.297
-445.865	-44.359	-0.179	0.090
-444.851	-200.000	0.018	0.090
-443.836	-5.165	-0.313	-0.217
-442.822	-171.884	-0.225	0.007
-441.807	219.408	-0.134	0.216
-440.792	-179.988	0.347	-0.007
-439.778	-71.332	0.182	0.069
-438.763	306.772	0.183	0.343
-437.749	-94.524	-0.166	-0.045
-436.734	37.591	-0.051	0.046
-435.719	23.461	0.126	0.105
-434.705	97.238	-0.042	0.049
-433.690	36.188	0.029	-0.026
-432.676	-185.213	-0.453	0.007
-431.661	152.048	0.163	0.224
-430.646	-117.987	-0.077	-0.014
-429.632	-165.220	-0.101	0.005
-428.617	166.807	0.116	0.166
-427.603	-78.327	-0.313	-0.108
-426.588	460.581	0.093	0.208
-425.573	-200.000	0.002	-0.310
-424.559	-5.388	-0.234	0.162
-423.544	-115.209	-0.134	0.026
-422.530	-200.000	0.053	0.236
-421.515	-200.000	0.053	-0.264
-420.500	-120.936	0.237	0.040
-419.486	270.864	0.128	0.227
-418.471	-71.432	0.257	0.097
-417.457	-19.248	0.195	-0.122
-416.442	-25.133	0.258	-0.154
-415.428	800.000	0.041	-0.126
-414.413	800.000	0.128	-0.413
-413.398	-200.000	-0.029	0.185
-412.384	25.613	0.131	0.110
-411.369	474.578	-0.049	0.111
-410.355	-80.253	-0.163	0.055
-409.340	625.576	0.043	0.109
-408.325	-200.000	0.033	0.244
-407.311	51.868	-0.164	-0.157
-406.296	800.000	0.048	-0.162
-405.282	-44.368	-0.141	0.071
-404.267	-103.107	-0.380	0.091
-403.252	-200.000	-0.072	0.359
-402.238	-150.435	-0.161	0.012
-401.223	-94.833	-0.168	-0.046
-400.209	-62.692	0.511	-0.213
-399.194	-44.380	0.247	0.125
-398.179	-34.793	-0.083	-0.046
-397.165	800.000	-0.038	0.106
-396.150	705.473	-0.126	0.334
-395.136	800.000	0.080	0.298
-394.121	-65.385	0.223	-0.090
-393.106	109.872	0.090	0.108
-392.092	-200.000	-0.035	0.179
-391.077	102.474	0.071	-0.083
-390.063	108.855	0.105	0.126
-389.048	-147.444	-0.232	0.020
-388.033	16.692	-0.217	-0.172
-387.019	282.797	-0.025	0.046
-386.004	185.220	-0.107	-0.159
-384.990	-200.000	-0.011	-0.383
-383.975	-124.993	-0.135	0.021
-382.960	637.397	0.089	-0.227
-381.946	280.972	-0.033	-0.060
-380.931	800.000	-0.056	-0.244
-379.917	-31.356	0.209	0.118
-378.902	-82.430	-0.103	0.034
-377.888	-200.000	0.024	-0.237
-376.873	148.246	-0.331	0.449
-375.858	159.382	0.060	-0.083
-374.844	29.607	0.018	-0.016
-373.829	445.523	0.055	-0.121
-372.815	-57.264	0.391	-0.173
-371.800	800.000	0.060	-0.181
-370.785	42.620	0.188	0.172
-369.771	72.503	0.151	0.158
-368.756	-123.224	0.184	-0.030
-367.742	-7.555	0.098	0.067
-366.727	-114.570	-0.330	-0.064
-365.712	61.352	0.118	-0.118
-364.698	242.707	0.039	-0.066
-363.683	-84.810	0.132	-0.042
-362.669	800.000	0.076	-0.225
-361.654	221.458	0.125	0.202
-360.639	293.807	0.142	-0.261
-359.625	-60.560	-0.135	0.057
-358.610	-9.502	-0.240	0.161
-357.596	-39.846	0.260	-0.136
-356.581	-56.227	-0.034	0.015
-355.566	-162.931	0.139	0.007
-354.552	-44.260	0.214	-0.108
-353.537	30.829	0.265	0.228
-352.523	171.610	-0.015	0.021
-351.508	-100.496	-0.136	-0.034
-350.493	-11.108	0.053	0.035
-349.479	178.795	-0.102	0.150
-348.464	113.817	0.072	-0.088
-347.450	103.196	-0.049	-0.058
-346.435	311.787	0.121	-0.228
-345.420	1.092	-0.106	-0.076
-344.406	-200.000	-0.113	0.535
-343.391	20.663	0.179	0.145
-342.377	77.857	0.098	0.104
-341.362	172.635	-0.188	-0.271
-340.348	-6.416	-0.189	0.129
-339.333	-121.970	0.267	-0.044
-338.318	26.758	0.124	-0.104
-337.304	-200.000	-0.045	-0.232
-336.289	-200.000	-0.023	-0.193
-335.275	-19.980	-0.056	0.035
-334.260	-126.468	-0.252	-0.038
-333.245	14.118	-0.122	-0.095
-332.231	-200.000	0.006	-0.219
-331.216	13.253	0.105	0.082
-330.202	-132.595	0.086	-0.011
-329.187	75.892	0.083	-0.088
-328.172	800.000	0.116	0.331
-327.158	165.233	-0.145	-0.205
-326.143	-200.000	0.252	0.000
-325.129	-90.942	-0.281	-0.081
-324.114	-98.655	0.141	-0.036
-323.099	258.398	-0.200	0.345
-322.085	-121.581	0.222	-0.037
-321.070	-200.000	-0.001	0.207
-320.056	-200.000	0.048	0.261
-319.041	-200.000	-0.045	0.293
-318.026	-48.580	-0.109	-0.052
-317.012	-10.399	0.176	-0.117
-315.997	-74.966	-0.329	-0.118
-314.983	460.020	0.148	-0.331
-313.968	-200.000	0.030	-0.555
-312.953	-63.083	0.187	0.077
-311.939	-200.000	0.064	-0.377
-310.924	-97.179	-0.276	-0.072
-309.910	-200.000	-0.006	0.064
-308.895	-200.000	0.041	-0.382
-307.880	-98.930	0.273	-0.069
-306.866	-200.000	0.000	-0.069
-305.851	-1.447	-0.363	-0.256
-304.837	35.117	-0.115	-0.101
-303.822	-15.636	0.268	0.172
-302.807	800.000	-0.053	0.222
-301.793	310.233	-0.090	0.169
-300.778	800.000	0.072	-0.202
-299.764	-45.090	-0.055	-0.028
-298.749	6.888	0.094	-0.070
-297.735	154.798	-0.187	-0.257
-296.720	291.348	0.126	0.230
-295.705	31.311	0.282	-0.242
-294.691	22.434	0.227	0.186
-293.676	-148.372	0.197	0.016
-292.662	800.000	-0.043	-0.185
-291.647	23.112	0.133	0.109
-290.632	4.635	-0.258	0.189
-289.618	800.000	-0.109	-0.365
-288.603	64.920	0.191	0.193
-287.589	65.741	-0.080	0.081
-286.574	-103.558	-0.231	-0.054
-285.559	-58.783	-0.128	0.055
-284.545	-32.450	-0.141	-0.079
-283.530	-164.957	-0.286	0.013
-282.516	93.897	-0.306	-0.347
-281.501	621.308	-0.076	0.191
-280.486	-200.000	0.027	-0.129
-279.472	-200.000	-0.055	0.287
-278.457	-200.000	0.013	-0.284
-277.443	-2.975	-0.367	-0.257
-276.428	45.146	-0.159	0.146
-275.413	-119.150	-0.172	0.030
-274.399	170.133	0.109	0.157
-273.384	348.534	-0.168	-0.332
-272.370	95.064	-0.112	-0.128
-271.355	-148.384	0.275	0.023
-270.340	-48.594	0.266	0.128
-269.326	270.677	-0.094	-0.166
-268.311	-67.563	-0.269	0.105
-267.297	-81.715	-0.371	0.122
-266.282	800.000	-0.075	0.276
-265.267	-170.041	0.359	0.013
-264.253	800.000	0.017	0.073
-263.238	290.361	0.050	0.091
-262.224	76.040	0.252	0.267
-261.209	-200.000	0.035	0.436
-260.195	-109.922	-0.026	0.005
-259.180	800.000	-0.037	0.137
-258.165	-48.572	0.323	0.155
-257.151	-200.000	0.011	-0.135
-256.136	-80.520	0.093	-0.031
-255.122	135.727	0.149	-0.194
-254.107	-179.704	-0.259	0.006
-253.092	-101.268	-0.213	0.052
-252.078	-3.802	0.057	0.039
-251.063	-173.312	0.427	-0.013
-250.049	-51.167	0.102	-0.048
-249.034	612.691	0.036	0.091
-248.019	-200.000	0.018	-0.389
-247.005	454.096	-0.171	0.379
-245.990	174.493	-0.018	0.026
-244.976	266.062	0.200	-0.349
-243.961	41.165	0.135	-0.122
-242.946	-154.372	0.151	-0.010
-241.932	-200.000	-0.024	0.313
-240.917	-200.000	0.058	-0.335
-239.903	310.406	0.048	0.091
-238.888	-200.000	0.011	-0.242
-237.873	-59.913	-0.226	0.097
-236.859	44.436	0.175	-0.161
-235.844	-46.877	0.148	0.072
-234.830	-63.217	-0.271	-0.112
-233.815	-200.000	0.001	-0.289
-232.800	-95.515	-0.029	0.008
-231.786	50.772	0.112	0.106
-230.771	800.000	-0.057	0.198
-229.757	396.640	-0.111	-0.231
-228.742	-21.496	0.168	-0.103
-227.727	-69.691	-0.206	-0.079
-226.713	800.000	0.037	0.154
-225.698	-149.498	0.118	-0.009
-224.684	741.246	-0.078	-0.210
-223.669	664.834	0.094	-0.243
-222.655	800.000	0.101	-0.383
-221.640	20.429	-0.147	-0.118
-220.625	-37.111	0.236	-0.126
-219.611	521.181	0.073	0.172
-218.596	-200.000	-0.009	0.083
-217.582	305.106	-0.121	0.225
-216.567	75.847	0.170	-0.180
-215.552	26.194	-0.178	-0.148
-214.538	-17.769	-0.086	-0.054
-213.523	-200.000	-0.007	-0.174
-212.509	440.815	0.159	0.348
-211.494	-200.000	0.010	0.167
-210.479	800.000	-0.028	0.080
-209.465	-42.329	0.069	-0.035
-208.450	287.292	-0.139	0.250
-207.436	-148.059	0.101	-0.008
-206.421	24.069	-0.070	0.058
-205.406	800.000	-0.083	-0.284
-204.392	-124.572	0.125	-0.019
-203.377	-6.599	0.165	0.112
-202.363	198.991	-0.061	-0.093
-201.348	12.693	-0.171	0.132
-200.333	800.000	-0.056	0.189
-199.319	-13.544	-0.226	0.146
-198.304	151.162	-0.040	-0.055
-197.290	109.795	-0.076	0.090
-196.275	6.901	-0.289	0.215
-195.260	721.554	-0.056	0.148
-194.246	-200.000	0.007	0.252
-193.231	800.000	0.037	0.149
-192.217	-200.000	0.014	0.314
-191.202	-32.014	0.283	0.158
-190.187	-200.000	0.031	-0.216
-189.173	-19.273	-0.192	0.119
-188.158	17.732	0.364	0.289
-187.144	23.939	-0.337	0.277
-186.129	-139.303	0.026	-0.003
-185.114	178.877	-0.113	0.165
-184.100	-136.154	0.324	-0.038
-183.085	800.000	-0.019	-0.071
-182.071	210.385	-0.060	0.094
-181.056	-9.359	-0.216	0.144
-180.042	-100.810	0.335	-0.082
-179.027	81.445	0.159	-0.171
-178.012	-116.012	0.264	0.049
-176.998	800.000	0.046	0.171
-175.983	-35.930	-0.070	0.038
-174.969	800.000	-0.125	0.490
-173.954	78.417	-0.105	0.112
-172.939	-5.391	0.128	-0.088
-171.925	153.116	-0.091	-0.124
-170.910	490.898	0.064	0.147
-169.896	-200.000	-0.023	-0.206
-168.881	-200.000	-0.020	0.139
-167.866	800.000	-0.068	0.261
-166.852	285.081	0.185	-0.333
-165.837	-138.396	0.202	-0.022
-164.823	-200.000	0.019	-0.097
-163.808	-144.178	-0.250	0.023
-162.793	373.267	-0.160	0.324
-161.779	-50.289	-0.079	0.037
-160.764	324.365	0.218	-0.415
-159.750	190.042	0.211	-0.315
-158.735	-82.916	0.025	-0.008
-157.720	191.289	0.175	-0.263
-156.706	-136.390	0.153	0.018
-155.691	-175.887	0.454	0.012
-154.677	-200.000	-0.006	-0.224
-153.662	-200.000	0.021	0.133
-152.647	-200.000	0.029	0.132
-151.633	492.345	0.060	0.137
-150.618	49.777	-0.139	-0.131
-149.604	-18.229	-0.033	-0.021
-148.589	-200.000	-0.032	-0.261
-147.574	6.335	-0.190	-0.140
-146.560	160.077	-0.205	0.284
-145.545	-14.525	-0.292	-0.187
-144.531	-200.000	0.007	-0.182
-143.516	-123.255	-0.133	-0.021
-142.502	528.951	-0.056	0.132
-141.487	800.000	0.058	-0.208
-140.472	442.510	0.039	0.086
-139.458	-200.000	-0.026	-0.330
-138.443	113.350	-0.099	0.120
-137.429	411.342	0.134	0.284
-136.414	56.051	-0.218	0.211
-135.399	9.514	0.203	0.153
-134.385	220.371	0.102	-0.163
-133.370	135.172	0.240	-0.311
-132.356	424.436	-0.039	-0.083
-131.341	-82.617	-0.176	-0.057
-130.326	83.279	-0.386	0.418
-129.312	-200.000	-0.032	0.232
-128.297	20.508	0.199	-0.160
-127.283	-121.856	-0.239	-0.039
-126.268	-56.554	0.254	0.112
-125.253	391.762	0.195	-0.403
-124.239	-27.710	0.182	0.105
-123.224	-4.243	0.211	0.145
-122.210	411.405	-0.033	-0.070
-121.195	174.247	-0.205	0.295
