DTS Sentinel unit serial number:	SN413079Multiplexer serial number:	ORYXHardware model number:	OX4-SRSoftware version number:	ORYX F/W v4.00 Oryx Data Collector v3.7.2.0data status	okinstallation	princeton_trtdifferential loss correction	single-endedforward channel	channel 4reverse channel	N/Adate	2019/09/12time	17:23:11forward acquisition time	60.00reverse acquisition time	0.00gamma	496.2192k internal	0.2307k external	0.2307temperature offset calibration	1.0129default loss term (dB/km)	0.3790temperature slope calibration	1.0000multiplexer offset coefficient	1.0000multiplexer slope coefficient	1.0000fibre end	0.00T internal ref (°C)	34.83T ext. ref 1 (°C)	2.87T ext. ref 2 (°C)	28.70length (m)	temperature (°C)	Stokes	anti-Stokes-747.200	-126.762	0.021	0.003
-746.185	-164.757	-0.403	0.018
-745.171	-71.793	0.191	0.072
-744.156	-200.000	-0.003	0.218
-743.142	86.052	0.204	-0.228
-742.127	-128.415	-0.260	-0.038
-741.112	65.399	0.191	0.196
-740.098	-200.000	0.028	-0.133
-739.083	397.497	0.025	-0.053
-738.069	-200.000	0.025	0.179
-737.054	-72.792	-0.156	0.058
-736.039	51.029	-0.006	0.005
-735.025	70.435	0.090	0.095
-734.010	800.000	-0.087	-0.368
-732.996	248.834	-0.152	-0.262
-731.981	190.984	0.061	-0.094
-730.966	-200.000	-0.057	-0.288
-729.952	768.059	-0.053	0.147
-728.937	-195.653	0.319	0.002
-727.923	175.394	-0.132	0.195
-726.908	800.000	0.109	-0.389
-725.894	-200.000	0.004	0.040
-724.879	-54.710	0.263	-0.121
-723.864	800.000	-0.076	-0.250
-722.850	-149.294	0.392	-0.032
-721.835	-30.277	-0.276	-0.159
-720.821	-200.000	0.021	-0.405
-719.806	32.468	0.188	0.165
-718.791	-176.807	0.196	-0.005
-717.777	299.389	-0.054	-0.102
-716.762	111.241	0.051	0.062
-715.748	390.743	-0.093	0.197
-714.733	25.134	-0.076	-0.064
-713.718	542.495	-0.098	-0.238
-712.704	-17.130	0.149	0.095
-711.689	800.000	0.094	-0.404
-710.675	-55.739	-0.082	-0.037
-709.660	800.000	-0.119	-0.415
-708.645	2.265	-0.120	-0.088
-707.631	315.778	0.045	-0.086
-706.616	-102.094	-0.295	-0.072
-705.602	723.134	-0.073	-0.196
-704.587	108.220	-0.096	-0.116
-703.572	14.089	0.321	-0.254
-702.558	-146.125	0.205	0.018
-701.543	-10.432	-0.208	-0.140
-700.529	-95.935	0.193	-0.052
-699.514	-123.823	0.052	-0.008
-698.499	5.419	0.452	-0.339
-697.485	-200.000	0.034	0.189
-696.470	-77.644	0.117	0.041
-695.456	223.144	-0.031	0.050
-694.441	-80.494	-0.112	-0.038
-693.426	-36.555	-0.179	-0.098
-692.412	118.168	0.114	-0.143
-691.397	287.088	-0.174	-0.319
-690.383	-27.489	0.147	-0.087
-689.368	-95.557	-0.276	0.075
-688.354	235.082	0.152	-0.255
-687.339	-200.000	-0.001	0.168
-686.324	-21.098	-0.328	-0.204
-685.310	170.496	0.154	0.224
-684.295	-25.020	-0.218	-0.131
-683.281	-53.505	0.259	-0.120
-682.266	396.541	-0.029	0.061
-681.251	800.000	0.084	0.281
-680.237	126.652	-0.094	-0.121
-679.222	54.589	-0.123	-0.120
-678.208	-200.000	0.038	-0.390
-677.193	275.340	-0.097	-0.174
-676.178	702.299	-0.051	-0.136
-675.164	101.242	-0.066	-0.078
-674.149	476.485	0.043	-0.099
-673.135	308.152	0.104	0.196
-672.120	-200.000	-0.044	0.344
-671.105	-58.026	0.326	0.144
-670.091	-200.000	0.000	-0.176
-669.076	-4.488	-0.170	0.119
-668.062	5.452	0.059	-0.044
-667.047	313.189	-0.067	-0.127
-666.032	494.907	0.011	-0.026
-665.018	-96.164	-0.394	-0.106
-664.003	179.757	0.132	-0.195
-662.989	-185.623	0.111	-0.002
-661.974	-32.592	0.053	-0.030
-660.959	-55.631	-0.094	0.043
-659.945	66.990	0.086	0.089
-658.930	179.799	0.064	-0.095
-657.916	800.000	0.059	0.191
-656.901	-88.627	0.249	-0.075
-655.886	-200.000	0.005	0.058
-654.872	-3.168	0.101	0.072
-653.857	-80.223	0.269	-0.091
-652.843	-200.000	-0.029	0.162
-651.828	-45.231	0.119	-0.060
-650.814	800.000	-0.024	0.071
-649.799	-200.000	-0.003	-0.114
-648.784	281.556	-0.129	0.234
-647.770	-55.113	-0.200	0.091
-646.755	-153.579	0.253	-0.018
-645.741	-120.992	-0.019	-0.003
-644.726	-3.933	-0.129	0.091
-643.711	114.789	0.117	0.145
-642.697	42.685	-0.199	-0.183
-641.682	-33.584	-0.463	0.259
-640.668	561.372	0.017	0.042
-639.653	-90.163	0.190	-0.056
-638.638	800.000	-0.055	-0.213
-637.624	-35.159	0.106	0.059
-636.609	-200.000	0.016	0.255
-635.595	-77.268	0.234	0.083
-634.580	161.608	-0.169	-0.240
-633.565	-78.799	-0.296	-0.102
-632.551	-91.476	0.079	0.023
-631.536	87.479	0.229	0.256
-630.522	-6.130	-0.076	-0.053
-629.507	-184.616	-0.319	-0.005
-628.492	166.520	-0.167	0.240
-627.478	-8.336	0.220	-0.150
-626.463	-137.522	0.053	0.006
-625.449	333.564	-0.013	-0.025
-624.434	-121.264	-0.049	-0.008
-623.419	-7.259	0.139	-0.095
-622.405	-105.161	0.383	0.089
-621.390	142.910	-0.162	0.218
-620.376	-67.986	-0.068	0.027
-619.361	-2.256	-0.139	-0.099
-618.346	225.396	-0.181	0.296
-617.332	459.295	-0.056	-0.126
-616.317	-191.862	-0.201	-0.002
-615.303	32.487	0.130	0.113
-614.288	198.518	0.130	0.201
-613.273	-73.359	0.212	-0.078
-612.259	-200.000	-0.052	-0.258
-611.244	85.594	-0.116	0.129
-610.230	-43.399	0.067	0.034
-609.215	-82.551	0.272	0.089
-608.201	-23.676	-0.185	-0.112
-607.186	-36.051	0.188	-0.103
-606.171	-165.676	0.208	-0.009
-605.157	-105.834	0.310	0.071
-604.142	-157.047	-0.405	0.025
-603.128	37.792	-0.249	-0.223
-602.113	70.219	0.219	-0.229
-601.098	-46.734	-0.247	-0.122
-600.084	5.393	0.072	0.054
-599.069	-135.722	0.113	0.013
-598.055	-47.602	-0.047	0.023
-597.040	499.872	-0.149	0.347
-596.025	4.548	0.029	-0.022
-595.011	-156.485	0.311	-0.020
-593.996	622.156	-0.087	-0.221
-592.982	-200.000	0.012	-0.093
-591.967	-200.000	-0.015	0.180
-590.952	53.208	-0.195	0.189
-589.938	-130.775	0.098	0.013
-588.923	33.233	-0.220	-0.193
-587.909	-111.004	0.286	0.059
-586.894	-128.220	-0.258	0.037
-585.879	378.783	0.057	-0.118
-584.865	103.695	0.189	0.224
-583.850	800.000	-0.097	0.276
-582.836	722.731	0.130	-0.350
-581.821	270.774	0.056	-0.100
-580.806	800.000	-0.040	-0.136
-579.792	800.000	-0.099	-0.297
-578.777	-93.625	-0.185	0.052
-577.763	275.618	0.147	-0.264
-576.748	119.682	-0.234	0.293
-575.733	-109.956	-0.236	-0.050
-574.719	-200.000	0.002	0.067
-573.704	538.595	0.118	-0.282
-572.690	-200.000	-0.020	0.102
-571.675	40.855	-0.147	0.134
-570.661	45.851	-0.056	0.052
-569.646	-6.754	-0.155	-0.106
-568.631	-63.203	-0.090	0.038
-567.617	150.621	0.035	0.048
-566.602	171.915	-0.039	0.057
-565.588	-200.000	0.047	0.282
-564.573	-200.000	0.002	0.253
-563.558	-145.354	-0.177	0.016
-562.544	61.695	0.143	0.144
-561.529	298.911	-0.103	0.191
-560.515	-200.000	0.015	-0.161
-559.500	8.826	0.234	0.178
-558.485	561.057	0.052	0.128
-557.471	201.141	0.054	-0.083
-556.456	113.041	-0.097	-0.119
-555.442	187.212	-0.256	-0.386
-554.427	800.000	0.040	-0.171
-553.412	-82.189	0.283	0.093
-552.398	-141.853	0.288	-0.029
-551.383	82.723	-0.127	-0.139
-550.369	-98.605	-0.370	-0.095
-549.354	-200.000	0.080	0.380
-548.339	800.000	-0.042	0.138
-547.325	-110.510	0.464	-0.097
-546.310	726.764	0.106	-0.285
-545.296	-50.793	-0.165	0.079
-544.281	147.487	-0.084	0.114
-543.266	-43.256	0.099	0.051
-542.252	800.000	-0.042	0.175
-541.237	-200.000	0.105	-0.465
-540.223	250.674	0.061	-0.104
-539.208	24.336	0.249	-0.208
-538.193	-169.500	-0.133	-0.005
-537.179	-175.422	-0.100	0.003
-536.164	88.817	0.058	-0.066
-535.150	-10.334	0.188	-0.126
-534.135	-52.167	-0.124	-0.058
-533.121	-141.301	0.358	0.037
-532.106	-55.324	-0.157	-0.071
-531.091	800.000	0.090	-0.360
-530.077	-140.185	-0.136	-0.014
-529.062	-200.000	-0.020	0.157
-528.048	-139.091	0.177	-0.019
-527.033	-200.000	-0.016	-0.090
-526.018	-65.939	0.309	-0.124
-525.004	134.555	0.175	0.229
-523.989	-56.177	-0.282	-0.127
-522.975	137.151	0.018	0.023
-521.960	-11.877	-0.366	-0.242
-520.945	-42.742	0.099	-0.051
-519.931	-200.000	-0.014	-0.076
-518.916	800.000	0.124	-0.394
-517.902	-200.000	-0.017	0.164
-516.887	106.357	0.102	0.122
-515.872	-125.146	-0.153	-0.024
-514.858	22.972	-0.186	-0.153
-513.843	800.000	-0.032	0.124
-512.829	800.000	-0.047	0.201
-511.814	-127.556	-0.265	-0.039
-510.799	-60.186	-0.283	-0.121
-509.785	40.657	0.166	-0.151
-508.770	-83.777	-0.346	-0.111
-507.756	-200.000	-0.001	0.048
-506.741	-88.562	0.126	-0.038
-505.726	53.824	0.179	0.174
-504.712	134.912	0.043	-0.056
-503.697	58.181	0.206	-0.203
-502.683	-160.600	0.183	-0.010
-501.668	-41.596	-0.168	0.087
-500.653	301.839	-0.022	-0.041
-499.639	74.817	0.062	-0.065
-498.624	-200.000	-0.045	-0.235
-497.610	60.377	0.216	-0.215
-496.595	-36.087	0.118	0.064
-495.581	554.097	0.054	-0.131
-494.566	-103.820	-0.408	-0.096
-493.551	398.303	0.122	-0.257
-492.537	157.079	-0.100	0.139
-491.522	-200.000	0.035	-0.300
-490.508	148.002	-0.133	0.181
-489.493	-37.853	0.286	-0.153
-488.478	109.952	-0.197	-0.238
-487.464	21.140	0.366	-0.299
-486.449	-129.503	0.251	0.035
-485.435	-200.000	-0.020	0.454
-484.420	219.602	-0.153	0.246
-483.405	-200.000	0.021	0.181
-482.391	-83.031	0.129	-0.042
-481.376	27.158	-0.234	0.198
-480.362	355.901	0.014	-0.028
-479.347	63.943	0.201	0.203
-478.332	800.000	0.016	-0.045
-477.318	258.891	0.142	-0.246
-476.303	321.519	0.083	0.160
-475.289	-76.181	0.342	0.121
-474.274	18.023	0.226	0.182
-473.259	-40.784	0.201	0.104
-472.245	-200.000	-0.023	-0.186
-471.230	662.956	0.079	-0.204
-470.216	342.892	-0.138	0.272
-469.201	102.152	-0.141	-0.166
-468.186	-1.981	-0.270	-0.191
-467.172	70.278	0.076	-0.079
-466.157	800.000	-0.083	0.299
-465.143	-31.779	-0.402	0.227
-464.128	36.597	0.116	0.103
-463.113	25.283	-0.172	-0.144
-462.099	58.385	0.083	-0.082
-461.084	-26.929	-0.225	0.132
-460.070	-78.579	0.202	-0.070
-459.055	173.967	0.130	-0.189
-458.040	200.972	0.120	0.186
-457.026	-84.257	0.274	0.087
-456.011	12.332	-0.395	-0.306
-454.997	307.330	-0.100	0.187
-453.982	-200.000	-0.002	0.089
-452.968	-145.757	0.298	0.027
-451.953	-128.683	0.096	0.014
-450.938	-6.304	-0.172	0.118
-449.924	-200.000	-0.017	0.109
-448.909	766.139	-0.056	0.154
-447.895	-113.454	0.419	0.083
-446.880	-200.000	0.003	-0.055
-445.865	800.000	-0.055	-0.173
-444.851	439.637	-0.195	-0.428
-443.836	-200.000	-0.006	0.369
-442.822	-83.267	-0.448	-0.145
-441.807	36.492	0.074	0.065
-440.792	62.549	-0.156	-0.157
-439.778	-89.823	0.306	-0.090
-438.763	396.802	0.114	0.238
-437.749	800.000	-0.008	-0.034
-436.734	-200.000	-0.002	-0.047
-435.719	276.696	-0.047	0.084
-434.705	250.977	0.049	-0.084
-433.690	-76.429	-0.244	-0.086
-432.676	31.339	-0.073	0.063
-431.661	60.937	0.147	0.147
-430.646	-33.934	-0.059	0.032
-429.632	50.224	-0.163	-0.155
-428.617	59.271	-0.121	0.120
-427.603	37.457	-0.228	0.203
-426.588	146.476	0.091	-0.122
-425.573	-17.282	0.097	-0.061
-424.559	-40.512	-0.102	-0.053
-423.544	152.533	0.091	-0.125
-422.530	-140.488	0.280	-0.029
-421.515	388.861	-0.240	-0.498
-420.500	-200.000	0.019	-0.443
-419.486	-200.000	0.154	0.000
-418.471	-141.245	0.180	0.018
-417.457	-200.000	-0.041	0.364
-416.442	-200.000	-0.011	-0.291
-415.428	-65.411	-0.254	-0.103
-414.413	12.617	0.182	0.141
-413.398	26.611	-0.209	0.175
-412.384	-12.715	-0.248	-0.162
-411.369	282.078	0.138	-0.249
-410.355	83.113	-0.081	-0.088
-409.340	-200.000	-0.002	-0.040
-408.325	-200.000	0.001	0.212
-407.311	103.920	0.176	-0.207
-406.296	800.000	0.063	-0.264
-405.282	124.024	0.176	0.221
-404.267	81.032	0.109	0.118
-403.252	800.000	-0.054	-0.191
-402.238	-200.000	-0.064	-0.349
-401.223	8.619	-0.225	-0.170
-400.209	-18.022	-0.197	-0.124
-399.194	-76.287	-0.232	-0.082
-398.179	-49.356	-0.202	0.096
-397.165	418.870	0.049	0.106
-396.150	-200.000	-0.002	0.053
-395.136	-200.000	0.022	0.127
-394.121	293.334	0.184	-0.337
-393.106	-200.000	0.000	0.000
-392.092	-186.801	-0.255	-0.004
-391.077	-54.016	-0.088	0.040
-390.063	-200.000	0.032	-0.420
-389.048	-200.000	0.003	-0.179
-388.033	-12.953	-0.087	0.057
-387.019	-23.530	-0.166	0.100
-386.004	-122.142	-0.306	-0.050
-384.990	-37.251	-0.131	-0.070
-383.975	367.229	0.037	-0.074
-382.960	-141.614	0.261	0.026
-381.946	800.000	0.077	-0.217
-380.931	800.000	-0.037	-0.141
-379.917	-37.103	0.201	-0.108
-378.902	-200.000	0.005	-0.426
-377.888	-49.758	0.180	0.086
-376.873	219.988	0.144	0.231
-375.858	682.096	-0.097	0.254
-374.844	-106.854	-0.181	0.040
-373.829	800.000	0.064	0.187
-372.815	63.911	0.152	0.153
-371.800	-200.000	-0.038	-0.221
-370.785	-186.176	-0.359	-0.005
-369.771	800.000	0.002	-0.005
-368.756	388.826	-0.170	0.354
-367.742	-200.000	-0.009	-0.105
-366.727	-29.673	-0.420	0.240
-365.712	203.673	-0.044	0.068
-364.698	-122.056	-0.321	0.053
-363.683	800.000	-0.036	0.129
-362.669	-111.083	0.231	-0.047
-361.654	-92.811	0.484	0.136
-360.639	-16.535	-0.190	0.121
-359.625	-200.000	0.041	-0.375
-358.610	284.087	0.094	-0.170
-357.596	454.234	-0.087	-0.193
-356.581	-45.576	0.139	0.069
-355.566	104.093	0.107	-0.126
-354.552	-7.494	0.325	-0.220
-353.537	23.582	0.122	0.101
-352.523	-175.808	-0.517	-0.014
-351.508	376.323	-0.120	0.245
-350.493	90.280	-0.072	0.081
-349.479	155.889	-0.197	-0.272
-348.464	459.193	-0.088	-0.195
-347.450	-16.515	-0.091	-0.058
-346.435	-103.593	0.267	0.063
-345.420	86.191	0.161	-0.177
-344.406	-14.223	0.146	0.095
-343.391	-33.887	-0.128	-0.070
-342.377	800.000	0.103	0.293
-341.362	133.993	-0.118	-0.153
-340.348	-200.000	0.032	0.214
-339.333	90.964	0.317	0.356
-338.318	-27.443	0.159	-0.093
-337.304	-51.272	-0.357	0.167
-336.289	354.788	0.107	-0.213
-335.275	261.659	-0.121	0.210
-334.260	100.304	0.237	-0.275
-333.245	-113.369	0.242	-0.048
-332.231	800.000	0.050	0.184
-331.216	88.746	0.125	0.139
-330.202	53.514	0.142	-0.136
-329.187	800.000	-0.048	-0.173
-328.172	-13.863	0.152	-0.098
-327.158	-94.078	-0.078	-0.022
-326.143	401.149	0.069	-0.145
-325.129	-54.252	-0.195	-0.089
-324.114	-181.656	0.127	0.002
-323.099	-85.256	-0.371	0.116
-322.085	230.335	-0.177	0.290
-321.070	-200.000	-0.013	0.310
-320.056	171.817	0.232	0.334
-319.041	800.000	0.067	-0.265
-318.026	-93.545	-0.235	-0.065
-317.012	800.000	0.041	-0.143
-315.997	23.787	0.144	0.119
-314.983	-101.716	0.245	0.059
-313.968	332.696	0.092	-0.178
-312.953	-93.438	0.108	0.030
-311.939	-200.000	-0.004	0.108
-310.924	-110.474	0.127	-0.026
-309.910	276.337	-0.154	-0.273
-308.895	-200.000	0.017	0.435
-307.880	-200.000	0.004	-0.087
-306.866	278.118	0.203	0.362
-305.851	-200.000	0.033	-0.278
-304.837	-200.000	-0.032	0.166
-303.822	33.059	-0.263	0.228
-302.807	102.344	-0.141	-0.165
-301.793	800.000	0.091	-0.319
-300.778	-200.000	0.008	0.256
-299.764	71.960	-0.174	-0.181
-298.749	-102.820	0.342	0.081
-297.735	-200.000	0.079	-0.448
-296.720	-84.192	0.259	-0.082
-295.705	184.703	-0.062	-0.092
-294.691	-69.568	-0.077	-0.029
-293.676	-200.000	0.010	-0.229
-292.662	-43.189	-0.206	-0.104
-291.647	-200.000	0.005	0.205
-290.632	-200.000	0.005	-0.142
-289.618	10.189	-0.390	-0.296
-288.603	-117.275	-0.168	-0.030
-287.589	-15.094	-0.203	-0.130
-286.574	-32.088	0.161	-0.090
-285.559	3.272	-0.142	-0.104
-284.545	-54.723	0.140	-0.063
-283.530	-200.000	-0.003	0.267
-282.516	-200.000	0.007	-0.086
-281.501	800.000	-0.090	-0.373
-280.486	800.000	0.185	0.630
-279.472	100.358	0.133	0.154
-278.457	-127.701	0.508	-0.073
-277.443	-200.000	0.005	-0.176
-276.428	275.557	0.115	0.203
-275.413	-200.000	-0.015	0.258
-274.399	800.000	0.018	0.070
-273.384	151.961	0.265	-0.361
-272.370	-107.389	-0.106	-0.023
-271.355	-129.531	-0.098	0.014
-270.340	-149.584	0.188	0.015
-269.326	209.949	0.119	0.186
-268.311	-200.000	-0.269	-0.000
-267.297	-200.000	0.077	0.388
-266.282	93.123	-0.040	-0.045
-265.267	303.524	-0.057	0.106
-264.253	17.190	-0.220	0.174
-263.238	-200.000	-0.311	0.000
-262.224	-200.000	-0.017	0.106
-261.209	-200.000	0.047	0.221
-260.195	75.954	0.288	-0.304
-259.180	112.651	0.210	0.254
-258.165	-200.000	0.003	0.127
-257.151	78.294	-0.156	-0.166
-256.136	199.064	0.031	-0.048
-255.122	-121.830	-0.183	0.030
-254.107	20.633	0.125	0.101
-253.092	239.434	-0.022	0.036
-252.078	-91.904	0.166	0.047
-251.063	-71.025	0.301	-0.113
-250.049	-49.582	0.044	-0.021
-249.034	-12.709	0.288	-0.187
-248.019	-60.405	-0.343	-0.146
-247.005	-200.000	0.003	-0.296
-245.990	515.539	0.177	-0.413
-244.976	148.052	-0.087	-0.117
-243.961	121.900	-0.217	0.270
-242.946	-200.000	-0.004	-0.071
-241.932	16.248	-0.240	-0.189
-240.917	12.109	0.380	-0.291
-239.903	112.248	0.067	-0.081
-238.888	770.878	-0.074	0.201
-237.873	-200.000	-0.007	-0.087
-236.859	756.625	0.124	0.335
-235.844	800.000	0.113	0.384
-234.830	-127.564	-0.167	-0.024
-233.815	79.845	-0.189	0.202
-232.800	-160.248	0.156	0.008
-231.786	176.882	-0.076	-0.110
-230.771	800.000	0.040	-0.132
-229.757	-99.619	0.350	0.088
-228.742	98.728	0.182	0.209
-227.727	-200.000	-0.021	0.189
-226.713	232.163	0.227	0.371
-225.698	-200.000	-0.002	0.164
-224.684	3.074	-0.187	0.136
-223.669	-103.466	0.284	0.067
-222.655	230.497	0.119	0.195
-221.640	-62.872	-0.089	-0.037
-220.625	297.838	-0.178	0.327
-219.611	800.000	-0.027	0.092
-218.596	62.292	-0.267	-0.266
-217.582	531.251	-0.130	-0.306
-216.567	112.664	-0.294	0.354
-215.552	129.277	0.251	0.319
-214.538	-200.000	0.003	0.146
-213.523	6.621	0.187	-0.138
-212.509	301.664	0.070	0.129
-211.494	-96.067	0.393	-0.104
-210.479	-108.573	-0.122	-0.026
-209.465	431.942	-0.028	0.061
-208.450	21.296	0.221	0.179
-207.436	735.054	0.016	0.043
-206.421	-177.706	0.354	0.009
-205.406	106.761	-0.215	0.254
-204.392	-200.000	0.044	0.247
-203.377	-200.000	-0.035	-0.239
-202.363	749.918	0.067	0.180
-201.348	340.525	0.105	0.203
-200.333	800.000	-0.020	0.062
-199.319	-200.000	0.002	-0.232
-198.304	800.000	-0.132	0.382
-197.290	111.542	-0.064	0.077
-196.275	-60.539	0.347	0.147
-195.260	-114.358	-0.322	-0.062
-194.246	-88.915	0.073	-0.022
-193.231	-10.665	0.092	0.061
-192.217	293.034	-0.217	-0.394
-191.202	-58.510	-0.060	0.026
-190.187	-29.820	0.103	0.058
-189.173	109.302	0.146	0.174
-188.158	-17.024	0.178	0.112
-187.144	800.000	0.043	-0.137
-186.129	-65.026	-0.215	-0.086
-185.114	379.297	-0.077	-0.156
-184.100	16.412	0.268	0.211
-183.085	277.816	0.144	0.256
-182.071	268.341	0.046	-0.080
-181.056	-5.880	-0.186	0.127
-180.042	262.656	0.111	-0.191
-179.027	26.015	-0.188	0.156
-178.012	-194.147	0.047	0.000
-176.998	55.452	0.076	0.073
-175.983	-200.000	-0.019	-0.355
-174.969	39.283	-0.299	0.266
-173.954	-61.080	0.173	0.072
-172.939	728.643	0.050	0.131
-171.925	-27.036	-0.196	0.114
-170.910	-78.216	-0.159	0.054
-169.896	-200.000	0.004	-0.038
-168.881	-15.275	-0.198	-0.126
-167.866	-152.680	-0.227	0.016
-166.852	-200.000	-0.023	-0.111
-165.837	178.987	0.052	0.076
-164.823	176.394	-0.099	0.144
-163.808	-23.825	-0.139	-0.082
-162.793	-125.033	0.029	-0.004
-161.779	-65.522	-0.124	0.049
-160.764	-181.348	0.175	-0.003
-159.750	-30.560	-0.108	0.061
-158.735	-23.011	0.290	0.174
-157.720	104.122	-0.256	0.300
-156.706	80.898	-0.079	-0.084
-155.691	-200.000	-0.031	-0.344
-154.677	-70.739	-0.300	0.113
-153.662	-37.443	-0.260	0.138
-152.647	-114.593	-0.183	-0.035
-151.633	-197.459	0.349	0.002
-150.618	-17.082	-0.143	-0.090
-149.604	-200.000	-0.005	0.177
-148.589	-123.242	0.546	-0.087
-147.574	-200.000	0.025	0.197
-146.560	-24.159	0.159	-0.094
-145.545	-200.000	0.043	-0.323
-144.531	-200.000	-0.021	-0.100
-143.516	16.639	-0.127	-0.100
-142.502	800.000	0.168	0.480
-141.487	-91.948	0.245	0.069
-140.472	-68.289	0.313	-0.121
-139.458	800.000	0.072	0.214
-138.443	-3.890	0.360	0.248
-137.429	76.934	-0.154	-0.163
-136.414	81.091	0.229	-0.245
-135.399	-66.017	-0.185	-0.073
-134.385	-200.000	-0.077	-0.344
-133.370	-74.790	0.099	-0.035
-132.356	-12.347	-0.201	-0.130
-131.341	-62.365	-0.071	-0.029
-130.326	-116.634	-0.142	-0.026
-129.312	-97.327	0.256	-0.066
-128.297	99.545	0.081	0.093
-127.283	-28.838	-0.158	0.090
-126.268	11.313	0.057	-0.043
-125.253	-116.099	0.171	-0.031
-124.239	53.696	0.295	-0.281
-123.224	-57.956	-0.142	-0.062
-122.210	-70.922	0.123	0.046
-121.195	-200.000	0.018	0.270
