DTS Sentinel unit serial number:	SN413079Multiplexer serial number:	ORYXHardware model number:	OX4-SRSoftware version number:	ORYX F/W v4.00 Oryx Data Collector v3.7.2.0data status	okinstallation	princeton_trtdifferential loss correction	single-endedforward channel	channel 4reverse channel	N/Adate	2019/09/19time	02:37:35forward acquisition time	60.00reverse acquisition time	0.00gamma	496.2192k internal	0.2340k external	0.2340temperature offset calibration	1.0027default loss term (dB/km)	0.3790temperature slope calibration	1.0000multiplexer offset coefficient	1.0000multiplexer slope coefficient	1.0000fibre end	0.00T internal ref (°C)	20.97T ext. ref 1 (°C)	0.66T ext. ref 2 (°C)	14.70length (m)	temperature (°C)	Stokes	anti-Stokes-747.200	-72.471	-0.013	-0.005
-746.185	-127.568	0.251	-0.036
-745.171	-162.297	-0.393	0.020
-744.156	-151.313	-0.091	-0.007
-743.142	-147.231	0.166	-0.014
-742.127	800.000	-0.084	0.333
-741.112	-36.888	0.115	-0.062
-740.098	420.913	-0.205	0.440
-739.083	-21.568	-0.128	-0.078
-738.069	-59.795	-0.227	0.098
-737.054	272.116	0.064	0.113
-736.039	-3.767	-0.208	-0.145
-735.025	458.630	0.167	-0.373
-734.010	12.972	-0.207	-0.160
-732.996	14.451	-0.124	-0.097
-731.981	-104.982	-0.108	-0.025
-730.966	800.000	-0.048	0.169
-729.952	323.316	0.075	-0.143
-728.937	215.870	-0.089	-0.141
-727.923	-126.424	0.058	0.009
-726.908	800.000	-0.049	-0.212
-725.894	105.946	-0.056	-0.067
-724.879	179.096	0.044	0.064
-723.864	85.268	-0.165	0.181
-722.850	29.517	-0.069	0.059
-721.835	800.000	-0.049	0.181
-720.821	-13.082	-0.147	0.096
-719.806	-200.000	0.067	0.575
-718.791	-200.000	-0.018	0.120
-717.777	50.824	0.071	0.067
-716.762	-156.748	0.213	-0.013
-715.748	-200.000	-0.017	0.119
-714.733	134.851	0.172	-0.224
-713.718	71.872	0.148	0.155
-712.704	180.461	0.081	0.119
-711.689	800.000	-0.062	-0.186
-710.675	-1.580	0.176	-0.124
-709.660	-110.453	-0.259	-0.054
-708.645	-200.000	-0.202	-0.001
-707.631	207.754	0.192	-0.300
-706.616	789.233	-0.174	-0.480
-705.602	284.918	-0.182	0.327
-704.587	-200.000	-0.039	0.216
-703.572	-200.000	0.006	-0.089
-702.558	-140.865	0.228	0.023
-701.543	308.012	-0.052	-0.098
-700.529	-165.968	-0.258	0.011
-699.514	-107.286	0.226	-0.050
-698.499	-200.000	-0.050	-0.291
-697.485	-200.000	-0.056	-0.261
-696.470	260.018	-0.111	0.192
-695.456	377.292	0.113	0.231
-694.441	-150.545	0.283	0.022
-693.426	596.903	0.095	-0.236
-692.412	211.941	0.116	-0.182
-691.397	426.401	-0.116	-0.249
-690.383	-71.595	-0.105	-0.039
-689.368	415.086	-0.067	-0.142
-688.354	87.682	-0.256	-0.284
-687.339	-81.864	-0.019	-0.006
-686.324	113.349	0.121	0.147
-685.310	37.557	-0.242	0.214
-684.295	100.112	0.255	-0.296
-683.281	-5.568	-0.123	0.084
-682.266	41.234	0.126	0.114
-681.251	-200.000	-0.033	0.463
-680.237	353.134	0.157	-0.311
-679.222	-200.000	0.074	-0.334
-678.208	749.376	-0.053	0.144
-677.193	119.462	0.231	-0.287
-676.178	117.846	-0.055	0.067
-675.164	-118.012	-0.163	0.029
-674.149	-50.683	-0.363	-0.171
-673.135	-143.715	0.119	-0.011
-672.120	140.584	-0.058	0.077
-671.105	626.642	-0.114	-0.288
-670.091	326.828	0.020	0.037
-669.076	-200.000	0.027	0.236
-668.062	384.841	-0.091	-0.188
-667.047	641.123	-0.120	-0.305
-666.032	-104.549	0.185	0.043
-665.018	-136.715	0.321	-0.037
-664.003	-200.000	-0.014	0.196
-662.989	-114.093	-0.209	0.040
-661.974	-7.632	-0.173	-0.117
-660.959	-105.727	-0.313	0.071
-659.945	800.000	-0.129	0.423
-658.930	-140.144	-0.332	-0.035
-657.916	85.604	0.130	-0.143
-656.901	-200.000	0.018	0.148
-655.886	-200.000	0.011	0.241
-654.872	66.957	-0.131	0.133
-653.857	36.139	-0.091	0.080
-652.843	-200.000	-0.055	-0.328
-651.828	316.586	0.079	-0.148
-650.814	302.887	0.125	-0.231
-649.799	-200.000	-0.022	-0.116
-648.784	-121.610	0.121	-0.020
-647.770	-53.458	0.194	0.089
-646.755	120.640	-0.237	-0.294
-645.741	-126.438	-0.164	-0.024
-644.726	-110.502	-0.163	-0.034
-643.711	-92.681	0.257	0.072
-642.697	71.951	-0.113	-0.118
-641.682	89.600	-0.060	0.067
-640.668	-81.973	-0.415	0.135
-639.653	145.169	0.205	-0.274
-638.638	19.081	-0.295	0.236
-637.624	-200.000	-0.034	0.192
-636.609	-124.639	0.385	0.060
-635.595	217.819	-0.217	-0.346
-634.580	-168.367	0.352	-0.013
-633.565	270.829	-0.122	-0.215
-632.551	-89.379	0.251	0.074
-631.536	-200.000	0.021	-0.255
-630.522	-134.081	0.359	0.044
-629.507	77.015	-0.171	0.181
-628.492	265.740	0.101	0.177
-627.478	383.737	0.036	-0.073
-626.463	-38.828	-0.312	0.164
-625.449	800.000	0.092	-0.260
-624.434	-200.000	-0.035	-0.207
-623.419	-200.000	-0.016	-0.090
-622.405	51.411	0.140	-0.133
-621.390	347.083	0.116	0.228
-620.376	119.234	0.127	0.157
-619.361	34.866	-0.223	-0.195
-618.346	61.466	0.122	-0.121
-617.332	-108.187	0.301	-0.065
-616.317	-99.202	-0.220	-0.056
-615.303	342.600	0.050	-0.097
-614.288	-200.000	0.019	0.202
-613.273	-22.253	-0.014	-0.009
-612.259	7.288	-0.185	-0.138
-611.244	-185.959	-0.205	0.003
-610.230	175.725	-0.075	-0.109
-609.215	-93.716	-0.074	-0.020
-608.201	25.797	-0.109	-0.091
-607.186	171.897	0.016	0.023
-606.171	800.000	-0.060	0.183
-605.157	800.000	-0.070	-0.234
-604.142	-11.912	-0.167	-0.109
-603.128	-45.765	-0.132	-0.065
-602.113	-26.485	-0.201	0.117
-601.098	189.224	0.177	0.264
-600.084	-62.737	0.088	-0.036
-599.069	-29.175	0.045	-0.026
-598.055	311.391	0.063	-0.118
-597.040	800.000	-0.026	0.090
-596.025	425.724	-0.039	-0.085
-595.011	-130.282	0.177	0.024
-593.996	652.980	0.082	0.209
-592.982	0.963	-0.126	0.090
-591.967	-97.665	-0.245	-0.063
-590.952	-29.161	-0.122	-0.069
-589.938	-129.327	-0.231	0.032
-588.923	-119.809	-0.288	-0.049
-587.909	-200.000	-0.027	-0.271
-586.894	-78.801	0.211	0.072
-585.879	1.833	-0.184	-0.132
-584.865	6.666	-0.188	-0.139
-583.850	130.961	0.310	0.397
-582.836	145.484	0.166	-0.221
-581.821	-200.000	-0.076	-0.398
-580.806	-13.588	-0.252	-0.163
-579.792	-57.132	0.163	0.072
-578.777	440.302	-0.148	0.323
-577.763	544.253	-0.088	-0.210
-576.748	-45.515	0.155	0.077
-575.733	-98.582	-0.176	0.045
-574.719	800.000	-0.025	0.090
-573.704	-40.783	0.248	-0.128
-572.690	0.482	-0.150	0.107
-571.675	20.030	0.117	-0.094
-570.661	156.694	-0.104	0.143
-569.646	-200.000	-0.013	-0.147
-568.631	59.819	-0.110	-0.108
-567.617	-82.283	-0.131	0.042
-566.602	253.169	-0.164	-0.278
-565.588	59.496	-0.115	0.113
-564.573	800.000	-0.034	-0.119
-563.558	413.084	-0.130	-0.275
-562.544	1.452	-0.146	-0.104
-561.529	58.872	-0.031	0.030
-560.515	274.429	-0.022	0.038
-559.500	226.457	-0.100	0.162
-558.485	625.739	-0.007	-0.018
-557.471	-92.983	-0.253	0.070
-556.456	-200.000	0.003	-0.197
-555.442	800.000	-0.069	0.244
-554.427	160.615	0.110	0.153
-553.412	2.826	0.300	-0.216
-552.398	72.361	0.091	0.094
-551.383	346.618	-0.111	-0.218
-550.369	-119.706	0.279	0.048
-549.354	-71.109	0.407	0.152
-548.339	255.874	0.095	-0.162
-547.325	-104.252	0.246	0.057
-546.310	-137.833	-0.099	0.011
-545.296	800.000	-0.102	-0.314
-544.281	291.424	0.061	-0.110
-543.266	-87.454	-0.053	-0.016
-542.252	-200.000	-0.003	-0.121
-541.237	197.839	0.047	-0.071
-540.223	-139.583	0.233	-0.025
-539.208	97.072	-0.143	-0.163
-538.193	41.498	-0.203	-0.183
-537.179	140.632	-0.145	0.191
-536.164	-200.000	-0.034	0.281
-535.150	-14.933	-0.131	-0.083
-534.135	172.678	-0.185	-0.265
-533.121	44.359	-0.227	-0.207
-532.106	336.737	0.099	0.191
-531.091	88.481	0.028	0.030
-530.077	-200.000	-0.017	-0.077
-529.062	-200.000	-0.005	-0.054
-528.048	800.000	-0.020	-0.078
-527.033	249.416	-0.120	-0.203
-526.018	-100.984	-0.158	-0.039
-525.004	-200.000	-0.005	-0.198
-523.989	-26.610	-0.170	-0.099
-522.975	-200.000	0.002	-0.238
-521.960	-11.546	0.254	0.166
-520.945	-158.918	0.341	0.019
-519.931	627.809	-0.150	0.378
-518.916	-56.959	0.065	-0.028
-517.902	-64.799	0.199	-0.080
-516.887	423.585	-0.204	0.436
-515.872	-6.118	-0.252	-0.171
-514.858	-76.107	0.033	-0.011
-513.843	800.000	0.066	0.262
-512.829	-109.172	-0.167	-0.035
-511.814	-19.515	-0.221	-0.136
-510.799	800.000	-0.024	-0.099
-509.785	-200.000	-0.013	-0.166
-508.770	-121.235	0.238	-0.039
-507.756	-200.000	0.024	0.204
-506.741	-200.000	0.044	-0.460
-505.726	-189.921	-0.151	0.002
-504.712	719.212	-0.051	0.136
-503.697	-191.131	0.252	0.003
-502.683	-84.911	-0.149	-0.047
-501.668	800.000	0.050	0.141
-500.653	-86.292	-0.290	0.089
-499.639	-55.706	0.326	-0.145
-498.624	215.129	-0.062	-0.098
-497.610	-157.786	0.368	0.022
-496.595	-23.459	-0.256	0.153
-495.581	-15.892	-0.168	0.106
-494.566	243.520	-0.088	0.146
-493.551	-68.126	0.203	0.079
-492.537	287.014	-0.165	-0.296
-491.522	286.647	-0.118	-0.212
-490.508	-200.000	-0.061	-0.332
-489.493	358.351	0.142	0.282
-488.478	-200.000	0.009	0.180
-487.464	139.527	0.080	-0.105
-486.449	23.992	0.103	-0.085
-485.435	-50.472	-0.083	0.039
-484.420	800.000	0.095	0.285
-483.405	31.726	-0.054	-0.046
-482.391	-129.981	-0.121	-0.016
-481.376	146.862	0.046	-0.061
-480.362	116.700	-0.193	0.234
-479.347	-42.960	0.198	-0.100
-478.332	-200.000	0.007	0.036
-477.318	0.209	0.176	0.124
-476.303	50.772	-0.297	0.279
-475.289	484.231	-0.124	0.279
-474.274	-61.234	-0.095	0.040
-473.259	-6.915	-0.093	0.063
-472.245	-200.000	-0.001	0.057
-471.230	-200.000	-0.008	-0.172
-470.216	-200.000	0.005	-0.062
-469.201	-200.000	0.043	0.227
-468.186	-81.065	-0.273	0.090
-467.172	316.137	-0.146	-0.273
-466.157	80.356	-0.102	-0.109
-465.143	800.000	0.059	0.162
-464.128	-110.757	-0.257	-0.052
-463.113	449.284	-0.283	0.619
-462.099	165.831	0.265	-0.372
-461.084	-117.378	0.325	-0.058
-460.070	-200.000	0.059	0.332
-459.055	388.094	-0.093	0.191
-458.040	800.000	0.080	-0.258
-457.026	283.549	-0.177	0.315
-456.011	-55.692	0.278	0.123
-454.997	-200.000	-0.020	0.144
-453.982	-148.128	0.125	0.010
-452.968	131.124	-0.062	0.078
-451.953	-109.923	0.619	0.129
-450.938	63.597	-0.081	0.081
-449.924	-23.993	-0.402	-0.238
-448.909	-5.571	0.261	0.177
-447.895	-134.885	-0.365	-0.044
-446.880	64.406	0.283	0.283
-445.865	-8.476	-0.246	-0.164
-444.851	205.042	0.161	0.247
-443.836	273.681	0.152	0.266
-442.822	382.640	-0.121	-0.246
-441.807	-200.000	0.047	-0.230
-440.792	601.572	0.053	-0.131
-439.778	691.766	-0.127	0.330
-438.763	42.723	0.202	0.182
-437.749	800.000	0.084	0.310
-436.734	-200.000	0.014	-0.061
-435.719	-5.280	0.281	0.191
-434.705	-86.800	-0.265	-0.080
-433.690	-29.489	0.043	0.024
-432.676	183.114	0.079	-0.116
-431.661	-200.000	-0.001	0.130
-430.646	276.832	0.129	0.226
-429.632	70.465	0.084	0.086
-428.617	-200.000	-0.018	-0.096
-427.603	-200.000	-0.078	-0.530
-426.588	-200.000	-0.015	-0.372
-425.573	472.366	-0.100	0.223
-424.559	-62.022	-0.288	0.119
-423.544	276.543	0.205	0.361
-422.530	166.417	0.082	0.115
-421.515	-200.000	-0.021	-0.181
-420.500	800.000	0.047	0.180
-419.486	-92.470	-0.225	0.063
-418.471	-200.000	0.017	-0.136
-417.457	281.971	0.128	0.227
-416.442	-79.041	-0.246	-0.083
-415.428	38.220	-0.075	0.066
-414.413	452.926	-0.065	-0.143
-413.398	-46.733	0.080	0.039
-412.384	3.445	0.120	-0.087
-411.369	-161.719	0.276	0.014
-410.355	389.415	0.071	0.145
-409.340	-124.005	-0.209	-0.032
-408.325	800.000	0.081	-0.246
-407.311	456.455	0.113	0.247
-406.296	-107.444	-0.061	-0.013
-405.282	800.000	0.030	0.103
-404.267	-200.000	0.008	-0.143
-403.252	-106.482	0.173	0.038
-402.238	357.175	-0.092	0.181
-401.223	800.000	-0.029	0.091
-400.209	-84.107	-0.108	-0.034
-399.194	440.140	-0.099	-0.215
-398.179	51.671	-0.157	0.147
-397.165	-50.315	-0.228	-0.107
-396.150	-16.385	0.267	0.167
-395.136	-9.591	-0.344	0.227
-394.121	77.100	-0.082	0.087
-393.106	-2.106	0.012	-0.009
-392.092	531.827	-0.046	-0.108
-391.077	-80.287	0.426	-0.141
-390.063	-5.859	0.348	-0.236
-389.048	800.000	-0.130	-0.464
-388.033	713.897	0.062	0.161
-387.019	-42.883	0.229	0.115
-386.004	-200.000	0.019	0.132
-384.990	460.893	0.054	0.119
-383.975	-200.000	-0.009	-0.158
-382.960	-200.000	0.010	-0.109
-381.946	33.654	0.319	-0.274
-380.931	61.442	-0.125	0.122
-379.917	326.701	-0.099	-0.187
-378.902	-200.000	-0.001	0.085
-377.888	-200.000	-0.011	-0.075
-376.873	-104.151	-0.077	-0.018
-375.858	-200.000	0.033	0.284
-374.844	-65.594	0.338	-0.134
-373.829	800.000	-0.044	0.127
-372.815	800.000	0.073	0.217
-371.800	800.000	-0.074	-0.243
-370.785	-200.000	-0.024	-0.173
-369.771	-7.029	0.118	0.079
-368.756	-200.000	0.016	0.117
-367.742	-86.417	-0.048	0.015
-366.727	-200.000	0.014	0.689
-365.712	-34.385	0.183	0.099
-364.698	-101.165	0.230	0.056
-363.683	-108.658	-0.114	0.024
-362.669	-89.196	-0.219	-0.064
-361.654	-49.385	-0.304	0.143
-360.639	-108.244	-0.182	-0.039
-359.625	92.766	-0.272	0.304
-358.610	-153.522	-0.147	0.010
-357.596	2.260	0.118	0.084
-356.581	800.000	0.069	-0.281
-355.566	31.882	0.105	-0.089
-354.552	-200.000	0.045	0.228
-353.537	90.716	0.201	-0.222
-352.523	14.331	0.083	-0.064
-351.508	8.200	-0.097	-0.072
-350.493	-28.793	-0.284	-0.161
-349.479	800.000	0.032	-0.123
-348.464	265.089	-0.110	-0.189
-347.450	-52.881	-0.173	-0.079
-346.435	-72.516	0.167	-0.061
-345.420	303.313	0.103	0.188
-344.406	-113.688	0.142	0.027
-343.391	-127.368	-0.392	0.056
-342.377	36.361	0.309	0.269
-341.362	800.000	-0.038	-0.109
-340.348	-21.246	-0.171	0.103
-339.333	110.266	-0.156	-0.185
-338.318	-78.471	-0.219	0.074
-337.304	800.000	0.105	-0.304
-336.289	-200.000	0.024	-0.228
-335.275	600.902	-0.089	-0.219
-334.260	800.000	-0.056	-0.218
-333.245	74.807	0.168	0.175
-332.231	-85.269	-0.277	0.085
-331.216	-32.904	0.104	-0.057
-330.202	-24.938	0.099	0.058
-329.187	800.000	0.041	0.153
-328.172	-200.000	-0.001	0.254
-327.158	-115.562	-0.366	0.068
-326.143	318.194	-0.133	-0.248
-325.129	-163.076	-0.052	-0.002
-324.114	-96.518	0.261	-0.068
-323.099	-80.382	-0.030	-0.010
-322.085	163.456	-0.062	-0.085
-321.070	-200.000	0.095	-0.479
-320.056	198.515	0.114	-0.172
-319.041	250.129	0.074	0.123
-318.026	560.422	-0.187	0.445
-317.012	138.754	0.171	0.222
-315.997	800.000	0.105	0.362
-314.983	219.203	0.183	-0.288
-313.968	34.176	0.137	0.117
-312.953	800.000	0.092	0.341
-311.939	388.059	0.102	0.207
-310.924	-200.000	0.004	-0.175
-309.910	-200.000	0.071	-0.310
-308.895	-113.393	0.092	0.018
-307.880	-82.900	-0.247	-0.079
-306.866	92.100	0.170	0.188
-305.851	-151.897	-0.206	0.015
-304.837	660.271	-0.105	-0.267
-303.822	-129.764	-0.243	-0.033
-302.807	-73.077	-0.327	-0.118
-301.793	-78.572	-0.181	0.061
-300.778	800.000	-0.087	0.303
-299.764	468.780	0.109	0.241
-298.749	201.281	-0.206	-0.313
-297.735	78.056	0.258	0.271
-296.720	249.126	-0.327	0.546
-295.705	-200.000	0.041	-0.448
-294.691	-110.145	-0.227	0.047
-293.676	800.000	0.183	0.509
-292.662	36.728	-0.179	-0.156
-291.647	11.521	0.380	0.287
-290.632	800.000	0.051	-0.198
-289.618	-12.929	0.321	-0.206
-288.603	-200.000	-0.026	0.330
-287.589	146.581	-0.212	0.280
-286.574	72.449	-0.158	-0.163
-285.559	5.373	-0.153	0.111
-284.545	124.661	-0.182	0.225
-283.530	-200.000	-0.033	0.181
-282.516	-126.675	-0.607	0.088
-281.501	-200.000	0.013	0.079
-280.486	-200.000	0.029	-0.231
-279.472	-200.000	-0.016	-0.098
-278.457	252.770	-0.220	-0.370
-277.443	-22.768	0.142	0.085
-276.428	-126.243	-0.147	-0.022
-275.413	384.288	-0.055	-0.111
-274.399	800.000	-0.048	-0.195
-273.384	71.698	-0.114	-0.117
-272.370	594.368	0.170	-0.413
-271.355	28.557	0.170	-0.142
-270.340	346.373	0.074	0.143
-269.326	34.091	0.240	-0.206
-268.311	-143.457	0.215	0.020
-267.297	31.271	0.153	-0.129
-266.282	800.000	0.065	-0.270
-265.267	-200.000	0.017	0.245
-264.253	-84.745	0.058	-0.018
-263.238	511.497	-0.062	-0.142
-262.224	-16.352	0.128	0.080
-261.209	-76.068	-0.301	-0.105
-260.195	-82.226	-0.174	-0.056
-259.180	-188.116	-0.130	-0.002
-258.165	-34.657	0.090	0.048
-257.151	-81.021	-0.150	-0.049
-256.136	86.781	-0.033	0.036
-255.122	430.911	0.267	-0.569
-254.107	-49.476	-0.218	-0.102
-253.092	-118.672	-0.093	-0.016
-252.078	-82.751	0.264	0.084
-251.063	800.000	0.059	-0.175
-250.049	9.605	0.178	-0.133
-249.034	175.930	-0.228	-0.325
-248.019	229.289	-0.072	-0.115
-247.005	48.285	0.251	-0.231
-245.990	797.957	0.066	-0.179
-244.976	221.114	-0.105	-0.165
-243.961	-200.000	0.059	0.291
-242.946	118.700	0.090	0.109
-241.932	137.334	-0.020	-0.026
-240.917	-41.213	-0.092	-0.046
-239.903	405.709	0.097	-0.201
-238.888	-13.151	0.258	0.165
-237.873	203.188	-0.176	0.267
-236.859	-200.000	0.060	-0.291
-235.844	-200.000	0.007	-0.136
-234.830	5.230	0.158	0.115
-233.815	800.000	0.094	-0.304
-232.800	297.396	0.159	-0.287
-231.786	-45.574	0.377	0.184
-230.771	-89.985	-0.256	0.073
-229.757	132.798	-0.185	0.234
-228.742	-85.496	0.406	-0.124
-227.727	-200.000	-0.032	-0.282
-226.713	171.426	0.175	-0.247
-225.698	-200.000	-0.032	0.372
-224.684	19.757	-0.028	-0.022
-223.669	13.253	-0.081	0.061
-222.655	-200.000	0.206	0.000
-221.640	22.016	-0.133	0.107
-220.625	-200.000	-0.003	0.219
-219.611	273.388	-0.081	-0.141
-218.596	6.713	0.082	-0.060
-217.582	139.356	0.098	-0.126
-216.567	800.000	-0.092	0.346
-215.552	12.975	0.257	-0.195
-214.538	113.773	-0.121	-0.144
-213.523	570.482	0.028	0.067
-212.509	-66.513	-0.101	0.039
-211.494	800.000	-0.040	-0.157
-210.479	-200.000	0.043	0.186
-209.465	-200.000	0.025	0.255
-208.450	40.766	-0.088	-0.078
-207.436	295.252	0.132	-0.237
-206.421	-130.445	0.141	-0.019
-205.406	76.573	-0.231	-0.240
-204.392	611.559	0.102	0.251
-203.377	30.678	0.330	-0.277
-202.363	800.000	0.050	-0.188
-201.348	-200.000	-0.075	0.331
-200.333	-141.925	0.051	0.005
-199.319	145.057	0.205	0.269
-198.304	-17.930	0.337	-0.208
-197.290	-144.716	0.127	0.011
-196.275	-120.294	-0.013	0.002
-195.260	-137.945	0.129	-0.014
-194.246	-48.866	0.135	0.063
-193.231	-42.231	0.192	-0.096
-192.217	-200.000	-0.083	0.397
-191.202	-101.109	0.156	0.038
-190.187	219.426	-0.210	0.330
-189.173	100.248	0.123	0.140
-188.158	800.000	0.031	-0.122
-187.144	-155.872	0.359	0.022
-186.129	378.146	-0.076	0.152
-185.114	-147.735	-0.264	-0.022
-184.100	-0.612	0.212	-0.148
-183.085	-72.307	0.247	0.090
-182.071	-23.871	-0.149	0.088
-181.056	-9.043	0.276	0.181
-180.042	-81.671	-0.140	0.045
-179.027	0.298	-0.135	0.095
-178.012	-200.000	0.001	0.049
-176.998	-21.828	-0.317	-0.189
-175.983	-18.720	0.365	-0.223
-174.969	-18.359	0.184	0.113
-173.954	-84.096	0.174	0.054
-172.939	800.000	0.065	0.195
-171.925	46.816	0.186	-0.169
-170.910	-200.000	-0.005	0.155
-169.896	-81.821	-0.042	-0.013
-168.881	-82.882	0.527	-0.167
-167.866	-200.000	-0.039	0.203
-166.852	-200.000	-0.025	-0.165
-165.837	800.000	-0.136	0.387
-164.823	800.000	-0.063	0.269
-163.808	169.759	0.108	0.151
-162.793	18.370	0.212	0.166
-161.779	-129.265	-0.235	0.032
-160.764	-59.856	-0.097	0.041
-159.750	-200.000	0.002	-0.198
-158.735	90.282	-0.184	0.202
-157.720	-12.402	0.203	0.130
-156.706	51.198	-0.162	0.150
-155.691	240.232	-0.031	0.051
-154.677	445.756	0.076	0.163
-153.662	-200.000	0.017	-0.220
-152.647	-82.490	-0.350	0.111
-151.633	-77.070	0.187	-0.064
-150.618	-166.584	0.206	-0.008
-149.604	46.893	-0.112	-0.102
-148.589	87.568	-0.076	-0.083
-147.574	74.122	0.309	0.317
-146.560	800.000	0.075	0.247
-145.545	-200.000	0.018	0.169
-144.531	-111.852	0.194	0.038
-143.516	-200.000	-0.008	0.265
-142.502	-200.000	-0.082	0.451
-141.487	-40.224	0.257	0.131
-140.472	-92.024	-0.301	0.084
-139.458	800.000	0.093	-0.348
-138.443	-200.000	0.021	0.136
-137.429	402.295	0.090	-0.185
-136.414	-45.929	-0.122	-0.059
-135.399	-72.813	-0.085	0.031
-134.385	405.730	0.132	0.273
-133.370	-26.471	-0.083	0.048
-132.356	376.738	0.014	0.029
-131.341	-200.000	0.004	-0.092
-130.326	-200.000	-0.011	-0.124
-129.312	-132.920	0.190	-0.024
-128.297	54.308	0.108	-0.102
-127.283	-67.019	0.569	-0.220
-126.268	-12.715	0.242	0.155
-125.253	-200.000	-0.016	-0.130
-124.239	93.213	-0.136	-0.150
-123.224	104.223	0.135	0.155
-122.210	55.134	-0.073	0.069
-121.195	-117.333	0.140	0.025
