DTS Sentinel unit serial number:	SN413079Multiplexer serial number:	ORYXHardware model number:	OX4-SRSoftware version number:	ORYX F/W v4.00 Oryx Data Collector v3.7.2.0data status	okinstallation	princeton_trtdifferential loss correction	single-endedforward channel	channel 4reverse channel	N/Adate	2019/09/12time	18:03:19forward acquisition time	15.00reverse acquisition time	0.00gamma	496.2192k internal	0.2306k external	0.2306temperature offset calibration	1.0135default loss term (dB/km)	0.3790temperature slope calibration	1.0000multiplexer offset coefficient	1.0000multiplexer slope coefficient	1.0000fibre end	0.00T internal ref (°C)	33.75T ext. ref 1 (°C)	2.92T ext. ref 2 (°C)	28.27length (m)	temperature (°C)	Stokes	anti-Stokes-747.200	59.025	-0.215	0.216
-746.185	63.866	0.246	-0.252
-745.171	59.134	0.428	0.428
-744.156	328.153	0.176	0.343
-743.142	-45.046	0.332	0.168
-742.127	415.971	0.155	-0.337
-741.112	24.016	-0.712	0.597
-740.098	425.632	-0.169	-0.371
-739.083	322.715	-0.244	-0.473
-738.069	-30.449	1.157	0.667
-737.054	-67.192	0.423	0.169
-736.039	-43.954	-0.251	0.129
-735.025	-138.467	-0.645	-0.072
-734.010	208.853	-0.631	1.003
-732.996	-133.086	-0.593	-0.076
-731.981	-110.559	0.903	-0.190
-730.966	800.000	-0.086	-0.337
-729.952	-69.318	-0.399	0.156
-728.937	-200.000	0.000	-0.591
-727.923	0.103	-0.513	0.371
-726.908	-17.721	0.433	-0.277
-725.894	-74.547	-0.263	0.096
-724.879	95.534	0.228	-0.264
-723.864	-131.318	0.531	-0.072
-722.850	529.644	-0.118	-0.284
-721.835	-200.000	0.068	0.419
-720.821	800.000	-0.124	0.468
-719.806	-200.000	0.021	-0.272
-718.791	-167.661	0.758	0.031
-717.777	43.261	0.850	0.789
-716.762	-162.943	0.649	0.032
-715.748	800.000	0.066	0.240
-714.733	1.780	-0.457	0.335
-713.718	-153.997	0.301	0.021
-712.704	131.907	-0.460	-0.601
-711.689	-159.809	0.563	-0.031
-710.675	-106.871	0.712	0.160
-709.660	-56.625	0.411	-0.185
-708.645	229.552	0.188	0.311
-707.631	2.468	0.591	0.435
-706.616	69.884	-0.351	-0.368
-705.602	121.258	0.078	0.099
-704.587	-146.749	0.427	-0.038
-703.572	217.029	0.318	0.515
-702.558	-200.000	-0.031	0.317
-701.543	-200.000	0.005	-0.417
-700.529	-14.232	0.355	0.232
-699.514	800.000	-0.269	-0.841
-698.499	605.975	-0.069	-0.176
-697.485	-200.000	0.124	1.303
-696.470	-200.000	-0.029	0.139
-695.456	-141.105	-0.249	0.026
-694.441	1.240	-0.502	-0.366
-693.426	-200.000	0.125	0.897
-692.412	-200.000	0.043	0.802
-691.397	73.815	-0.417	-0.444
-690.383	-200.000	-0.143	0.771
-689.368	-200.000	0.091	1.065
-688.354	359.824	0.113	0.229
-687.339	373.052	-0.103	-0.212
-686.324	-200.000	0.040	-0.456
-685.310	-200.000	0.123	-0.569
-684.295	29.542	0.376	0.325
-683.281	-89.407	-0.586	-0.175
-682.266	166.435	0.528	0.759
-681.251	-142.912	0.287	-0.028
-680.237	-41.993	-0.206	-0.107
-679.222	-200.000	0.063	0.414
-678.208	774.812	-0.262	-0.726
-677.193	-200.000	0.022	0.204
-676.178	-59.781	0.911	0.396
-675.164	346.824	-0.134	0.267
-674.149	-171.057	0.467	0.016
-673.135	-121.101	0.612	-0.104
-672.120	11.064	-0.506	-0.393
-671.105	164.210	0.102	-0.146
-670.091	-177.539	0.482	-0.012
-669.076	598.659	-0.231	-0.581
-668.062	-44.047	0.652	-0.332
-667.047	-112.972	0.663	0.133
-666.032	-24.283	0.713	-0.431
-665.018	-200.000	0.035	-0.950
-664.003	-134.436	0.287	0.036
-662.989	86.284	-0.495	0.553
-661.974	-138.303	-0.390	0.044
-660.959	-90.300	-0.115	0.034
-659.945	426.986	0.085	0.187
-658.930	-173.412	0.586	0.018
-657.916	-92.936	-0.543	0.154
-656.901	86.870	-0.559	0.625
-655.886	-117.212	0.658	0.121
-654.872	-0.264	0.461	-0.332
-653.857	244.479	-0.420	0.715
-652.843	-50.873	0.118	-0.056
-651.828	-103.624	0.269	0.064
-650.814	-121.490	0.322	0.054
-649.799	-21.171	-0.464	-0.287
-648.784	-200.000	-0.041	-0.471
-647.770	800.000	0.074	0.270
-646.755	-200.000	-0.049	0.707
-645.741	64.531	0.070	0.072
-644.726	-68.188	-0.328	-0.129
-643.711	597.176	-0.132	0.332
-642.697	39.879	-0.062	0.057
-641.682	51.899	-0.143	-0.138
-640.668	85.341	-0.365	-0.405
-639.653	800.000	-0.173	-0.600
-638.638	-77.600	0.712	0.250
-637.624	-64.973	0.123	-0.050
-636.609	800.000	-0.120	-0.346
-635.595	466.517	0.090	0.204
-634.580	400.703	0.183	-0.389
-633.565	-74.613	-0.387	-0.141
-632.551	800.000	-0.141	-0.402
-631.536	365.638	-0.214	-0.437
-630.522	-8.646	-0.446	0.303
-629.507	-109.460	-0.604	-0.129
-628.492	-41.217	-0.596	-0.311
-627.478	-200.000	0.142	-0.746
-626.463	-200.000	-0.040	1.050
-625.449	-115.175	-0.129	-0.025
-624.434	168.776	0.322	0.464
-623.419	-200.000	0.003	0.367
-622.405	-120.105	0.366	0.063
-621.390	800.000	-0.137	0.399
-620.376	100.698	0.483	0.568
-619.361	21.798	-0.657	0.542
-618.346	-76.838	-0.567	-0.201
-617.332	175.833	0.371	0.544
-616.317	92.819	0.290	0.331
-615.303	91.752	-0.513	-0.584
-614.288	32.567	-0.094	0.082
-613.273	322.466	-0.247	-0.475
-612.259	-34.233	0.212	-0.118
-611.244	343.962	-0.169	0.336
-610.230	16.781	-0.198	0.159
-609.215	-70.875	0.757	-0.289
-608.201	800.000	0.193	-0.794
-607.186	-8.505	-0.486	0.330
-606.171	-46.364	-0.311	-0.154
-605.157	313.503	0.094	0.179
-604.142	-135.103	0.561	0.068
-603.128	1.004	-0.462	0.335
-602.113	-118.412	0.167	0.030
-601.098	-200.000	0.045	0.265
-600.084	-41.195	0.413	-0.215
-599.069	-44.345	0.130	-0.066
-598.055	-142.212	0.335	0.034
-597.040	506.193	-0.045	-0.106
-596.025	4.894	0.230	0.171
-595.011	-200.000	-0.113	-0.623
-593.996	-200.000	0.029	0.171
-592.982	404.876	-0.179	0.381
-591.967	82.605	-0.451	0.495
-590.952	-200.000	0.014	-0.944
-589.938	-58.235	0.289	0.127
-588.923	96.108	0.460	-0.531
-587.909	-200.000	0.067	0.692
-586.894	367.628	-0.441	0.900
-585.879	-200.000	0.103	-0.501
-584.865	-147.064	0.538	-0.047
-583.850	-60.660	-0.780	-0.335
-582.836	-68.545	0.252	0.099
-581.821	-54.433	-0.349	0.160
-580.806	-68.760	-0.208	0.081
-579.792	167.822	0.240	0.345
-578.777	-75.463	0.649	0.234
-577.763	-76.440	0.387	0.138
-576.748	154.630	-0.328	-0.455
-575.733	-200.000	0.031	-0.138
-574.719	-200.000	0.041	-0.657
-573.704	-200.000	-0.009	-0.468
-572.690	-171.834	0.115	-0.004
-571.675	138.597	0.074	0.099
-570.661	800.000	-0.214	-0.616
-569.646	800.000	-0.276	0.838
-568.631	485.822	0.153	0.352
-567.617	800.000	-0.020	-0.087
-566.602	-65.084	-0.231	0.094
-565.588	148.126	0.451	0.615
-564.573	669.843	-0.190	0.497
-563.558	98.877	-0.478	0.558
-562.544	-200.000	-0.026	-0.762
-561.529	-2.344	0.435	0.308
-560.515	33.954	0.170	-0.149
-559.500	-200.000	0.042	-0.558
-558.485	111.131	-0.244	0.297
-557.471	-200.000	0.176	0.865
-556.456	-1.755	0.330	0.235
-555.442	21.157	-0.536	0.439
-554.427	-56.398	0.245	-0.110
-553.412	-108.141	0.606	-0.132
-552.398	-4.172	-0.292	-0.204
-551.383	273.064	-0.284	0.506
-550.369	-162.363	-0.561	0.028
-549.354	156.649	-0.312	0.434
-548.339	-102.901	0.240	0.058
-547.325	519.090	0.322	-0.762
-546.310	800.000	-0.201	-0.789
-545.296	-87.733	0.551	0.168
-544.281	-200.000	0.013	0.243
-543.266	167.914	-0.324	-0.465
-542.252	-162.408	0.553	0.028
-541.237	-141.124	0.638	0.066
-540.223	800.000	0.237	-1.015
-539.208	-51.991	-0.149	-0.070
-538.193	-15.360	-0.151	0.098
-537.179	800.000	-0.217	-0.789
-536.164	56.239	0.630	0.617
-535.150	-175.275	0.080	-0.002
-534.135	236.658	0.197	0.328
-533.121	-96.277	-0.970	-0.259
-532.106	-200.000	0.000	0.428
-531.091	-38.279	-0.917	0.490
-530.077	-200.000	-0.004	-0.174
-529.062	101.628	0.414	-0.487
-528.048	-200.000	-0.053	-0.373
-527.033	91.370	0.844	0.956
-526.018	-4.708	0.727	0.506
-525.004	-200.000	-0.049	0.465
-523.989	-200.000	0.002	0.386
-522.975	-10.775	0.055	0.036
-521.960	-34.109	-0.766	0.425
-520.945	253.840	0.488	-0.841
-519.931	-200.000	-0.166	-0.885
-518.916	145.137	0.585	0.790
-517.902	-126.167	0.484	-0.073
-516.887	-200.000	-0.008	-0.323
-515.872	187.437	0.075	0.113
-514.858	-161.134	0.856	-0.045
-513.843	-104.744	0.245	-0.057
-512.829	372.599	-0.387	-0.793
-511.814	67.589	-0.520	0.535
-510.799	702.313	0.201	-0.535
-509.785	-87.615	0.775	-0.236
-508.770	29.520	-0.272	0.233
-507.756	54.744	-0.393	-0.382
-506.741	-60.511	0.376	0.161
-505.726	98.691	-0.246	0.286
-504.712	-200.000	0.017	-0.261
-503.697	557.411	0.339	-0.824
-502.683	-102.319	-0.481	-0.116
-501.668	494.571	-0.236	0.547
-500.653	800.000	-0.267	1.078
-499.639	-153.308	-0.388	-0.027
-498.624	-64.507	-0.822	-0.337
-497.610	-200.000	0.035	-0.516
-496.595	33.326	0.295	0.258
-495.581	328.475	0.325	0.629
-494.566	49.884	0.533	0.506
-493.551	-180.920	0.950	-0.019
-492.537	-150.896	-0.534	-0.041
-491.522	-116.418	-0.480	0.089
-490.508	-200.000	0.024	-0.706
-489.493	800.000	-0.095	-0.367
-488.478	-119.827	0.297	0.051
-487.464	-77.782	0.234	0.081
-486.449	800.000	-0.197	-0.679
-485.435	87.254	-0.279	-0.310
-484.420	586.478	0.046	-0.114
-483.405	122.528	0.292	0.368
-482.391	-200.000	-0.171	-0.861
-481.376	79.272	0.369	0.398
-480.362	-165.026	-0.055	0.002
-479.347	-31.687	-0.565	-0.319
-478.332	-57.163	0.036	-0.016
-477.318	277.121	0.150	0.268
-476.303	71.578	-0.250	-0.262
-475.289	212.683	0.336	-0.533
-474.274	800.000	-0.223	-0.731
-473.259	-55.925	0.247	-0.111
-472.245	497.831	-0.109	0.253
-471.230	800.000	-0.310	0.929
-470.216	-50.466	0.718	-0.341
-469.201	26.925	0.525	-0.443
-468.186	-61.457	-0.145	-0.061
-467.172	-106.755	-0.744	-0.166
-466.157	2.312	0.232	0.169
-465.143	27.875	0.180	-0.152
-464.128	800.000	0.012	0.049
-463.113	50.935	-0.471	0.450
-462.099	-5.076	-0.202	-0.140
-461.084	-200.000	-0.142	-1.306
-460.070	437.820	0.196	-0.430
-459.055	-124.994	-0.545	-0.084
-458.040	370.079	0.241	0.492
-457.026	-3.342	-0.646	0.452
-456.011	790.588	-0.175	-0.483
-454.997	211.279	-0.269	0.426
-453.982	-31.246	-0.499	-0.283
-452.968	736.413	-0.120	-0.324
-451.953	-27.292	0.342	-0.200
-450.938	550.540	-0.127	-0.306
-449.924	22.211	-0.204	-0.168
-448.909	41.211	0.160	-0.145
-447.895	-28.964	0.664	0.384
-446.880	-153.729	1.021	0.071
-445.865	192.034	0.194	-0.294
-444.851	800.000	0.369	-1.134
-443.836	-59.558	1.026	-0.443
-442.822	-128.267	0.940	-0.135
-441.807	-200.000	0.053	0.296
-440.792	-191.215	0.605	0.006
-439.778	-200.000	-0.112	-0.573
-438.763	-141.124	-0.205	-0.021
-437.749	266.504	-0.340	0.598
-436.734	-40.893	0.259	0.135
-435.719	495.892	0.151	0.349
-434.705	-57.188	-0.818	-0.362
-433.690	-5.786	0.259	0.178
-432.676	-200.000	-0.017	0.363
-431.661	-88.119	-0.191	-0.058
-430.646	-200.000	0.036	-0.361
-429.632	-7.829	0.403	-0.274
-428.617	554.968	0.122	-0.295
-427.603	-20.701	0.073	0.045
-426.588	-200.000	0.058	0.627
-425.573	54.497	-0.653	-0.632
-424.559	-200.000	0.059	-1.070
-423.544	12.685	-0.843	-0.654
-422.530	-112.537	-0.950	0.190
-421.515	-45.708	0.214	0.106
-420.500	63.876	0.417	-0.420
-419.486	88.548	-0.571	-0.637
-418.471	-200.000	-0.002	-0.433
-417.457	-52.795	0.280	0.130
-416.442	800.000	0.221	0.851
-415.428	-45.862	0.211	0.104
-414.413	-144.583	0.226	-0.021
-413.398	-39.289	0.397	0.209
-412.384	-200.000	0.004	0.488
-411.369	-163.259	1.183	-0.057
-410.355	-156.302	-0.482	-0.030
-409.340	-200.000	0.029	-0.364
-408.325	100.648	0.335	0.391
-407.311	-171.674	0.311	0.010
-406.296	800.000	-0.113	0.466
-405.282	-200.000	-0.140	-0.650
-404.267	-200.000	-0.108	-0.624
-403.252	-98.165	-0.448	0.116
-402.238	-33.175	-0.454	0.252
-401.223	800.000	-0.195	0.732
-400.209	-88.719	0.251	-0.075
-399.194	63.660	0.570	-0.575
-398.179	79.813	0.323	-0.348
-397.165	-118.768	-0.903	-0.160
-396.150	168.226	0.141	-0.201
-395.136	227.357	0.179	-0.292
-394.121	36.201	0.077	0.068
-393.106	-129.734	0.016	0.002
-392.092	-132.778	-0.576	0.074
-391.077	-27.413	0.324	-0.189
-390.063	-20.489	-0.539	0.332
-389.048	437.009	-0.307	0.672
-388.033	32.844	0.290	0.252
-387.019	-133.710	-0.861	0.108
-386.004	69.007	-0.318	0.328
-384.990	-111.115	-0.815	-0.168
-383.975	-50.216	0.432	-0.205
-382.960	-55.816	-0.531	-0.238
-381.946	-111.231	0.261	-0.054
-380.931	-200.000	0.057	0.514
-379.917	-42.868	-0.397	-0.202
-378.902	-113.763	0.847	-0.165
-377.888	800.000	0.193	0.753
-376.873	-19.502	-0.277	0.172
-375.858	800.000	-0.166	0.574
-374.844	-151.647	-0.510	0.038
-373.829	31.003	-0.827	0.711
-372.815	501.737	-0.277	-0.641
-371.800	-200.000	0.013	-0.742
-370.785	-200.000	0.044	0.568
-369.771	-3.692	0.725	-0.505
-368.756	-200.000	-0.112	-0.001
-367.742	-147.939	-0.752	-0.063
-366.727	-128.145	0.511	0.073
-365.712	67.093	-0.138	0.141
-364.698	84.200	0.210	-0.230
-363.683	-200.000	-0.005	0.097
-362.669	-23.706	-0.270	-0.162
-361.654	-57.157	0.832	0.367
-360.639	188.589	0.132	-0.198
-359.625	151.009	-0.035	0.048
-358.610	-200.000	0.051	0.655
-357.596	-200.000	0.013	0.212
-356.581	-200.000	0.063	0.362
-355.566	242.590	0.203	0.340
-354.552	40.704	-0.247	0.223
-353.537	59.913	-0.542	-0.536
-352.523	-34.627	0.279	-0.153
-351.508	-117.542	-0.520	-0.094
-350.493	-85.805	-0.225	-0.070
-349.479	-143.847	0.335	0.032
-348.464	-148.797	-0.623	0.051
-347.450	-200.000	0.064	0.639
-346.435	200.124	-0.533	-0.820
-345.420	181.925	0.540	-0.796
-344.406	-128.799	0.541	-0.076
-343.391	247.403	0.439	0.742
-342.377	-4.706	0.290	0.200
-341.362	586.720	-0.233	-0.573
-340.348	482.259	-0.405	0.921
-339.333	-150.436	0.669	0.051
-338.318	-138.774	0.275	0.030
-337.304	10.407	0.680	-0.518
-336.289	125.506	0.607	0.767
-335.275	800.000	0.116	-0.401
-334.260	-93.078	-0.773	-0.216
-333.245	-151.789	0.891	0.066
-332.231	131.865	-0.361	0.464
-331.216	73.991	0.355	-0.373
-330.202	800.000	0.179	0.573
-329.187	186.408	0.307	0.457
-328.172	-200.000	0.027	-0.206
-327.158	-200.000	0.064	-0.350
-326.143	-82.867	0.182	-0.059
-325.129	-138.211	0.834	-0.092
-324.114	-200.000	-0.081	-0.748
-323.099	-56.756	-0.328	0.145
-322.085	-200.000	0.075	-0.595
-321.070	-142.001	-0.336	-0.033
-320.056	220.494	0.311	0.499
-319.041	322.061	0.332	0.631
-318.026	561.665	-0.100	0.242
-317.012	47.877	-0.273	0.255
-315.997	-200.000	-0.020	0.186
-314.983	-200.000	0.033	0.404
-313.968	-75.995	-0.653	0.231
-312.953	-108.397	-0.360	-0.078
-311.939	-36.899	-1.397	0.749
-310.924	164.962	-0.304	-0.430
-309.910	11.509	-0.738	0.566
-308.895	-200.000	-0.007	-0.385
-307.880	729.446	0.210	-0.562
-306.866	-200.000	0.117	0.550
-305.851	-29.707	0.397	0.226
-304.837	89.830	-0.318	0.355
-303.822	153.126	0.150	0.205
-302.807	-200.000	0.088	0.703
-301.793	-139.116	-0.410	0.044
-300.778	-200.000	0.015	0.504
-299.764	800.000	-0.286	-0.915
-298.749	28.538	-0.486	-0.411
-297.735	131.789	0.250	-0.322
-296.720	347.604	-0.246	-0.484
-295.705	32.053	0.610	0.526
-294.691	36.856	0.658	0.582
-293.676	208.868	-0.198	0.309
-292.662	-169.267	-0.660	0.024
-291.647	-104.512	-0.720	0.166
-290.632	38.480	-0.383	-0.341
-289.618	306.393	0.296	-0.551
-288.603	-112.107	0.383	-0.077
-287.589	800.000	0.074	0.324
-286.574	-69.168	0.442	-0.170
-285.559	151.286	0.413	-0.562
-284.545	-65.253	0.629	-0.253
-283.530	-200.000	0.029	1.056
-282.516	-67.388	-0.116	-0.046
-281.501	-88.339	-0.547	-0.163
-280.486	737.654	-0.106	0.283
-279.472	95.282	0.800	-0.910
-278.457	343.892	-0.383	0.750
-277.443	77.991	0.267	0.285
-276.428	-88.845	-0.439	-0.130
-275.413	-200.000	-0.011	0.801
-274.399	173.772	-0.330	0.475
-273.384	112.863	0.306	0.370
-272.370	181.359	-0.309	-0.454
-271.355	25.042	0.659	0.546
-270.340	800.000	0.144	0.526
-269.326	-8.607	0.355	-0.238
-268.311	-167.435	0.965	0.039
-267.297	-19.164	0.506	-0.314
-266.282	-63.164	-0.412	-0.170
-265.267	800.000	-0.209	0.652
-264.253	-200.000	0.050	-0.580
-263.238	425.616	-0.075	-0.160
-262.224	-92.833	0.492	0.137
-261.209	-200.000	-0.098	-0.477
-260.195	475.765	0.162	0.365
-259.180	-179.699	-0.980	-0.021
-258.165	-200.000	-0.025	-0.475
-257.151	-155.973	0.496	0.031
-256.136	-200.000	-0.049	0.240
-255.122	-200.000	0.016	-0.206
-254.107	-200.000	0.053	-0.282
-253.092	-124.750	0.139	0.021
-252.078	-200.000	0.024	-0.190
-251.063	40.928	-0.570	0.513
-250.049	-19.205	0.326	-0.202
-249.034	162.367	-0.428	-0.599
-248.019	-38.859	-0.731	-0.384
-247.005	800.000	0.122	-0.513
-245.990	6.452	0.274	-0.203
-244.976	-156.524	0.275	-0.017
-243.961	335.066	0.147	0.283
-242.946	-115.706	-0.111	-0.021
-241.932	109.078	-0.375	-0.448
-240.917	-92.119	-0.133	-0.037
-239.903	-170.016	-0.527	-0.019
-238.888	258.669	0.258	0.444
-237.873	610.114	-0.141	-0.351
-236.859	160.462	-0.326	0.453
-235.844	3.398	-0.166	0.120
-234.830	-108.392	-0.220	-0.047
-233.815	-200.000	0.103	-0.677
-232.800	594.207	0.225	0.554
-231.786	-161.259	0.558	-0.029
-230.771	158.210	0.535	0.740
-229.757	-92.588	0.366	-0.102
-228.742	-74.140	-0.876	-0.316
-227.727	162.097	-0.124	0.173
-226.713	-42.121	0.755	-0.385
-225.698	74.279	0.227	0.237
-224.684	267.474	0.348	0.606
-223.669	591.096	0.318	0.781
-222.655	-50.904	-0.585	0.274
-221.640	-200.000	-0.012	0.342
-220.625	-70.960	0.207	-0.078
-219.611	-200.000	0.036	-0.431
-218.596	362.169	-0.513	-1.027
-217.582	89.030	0.162	-0.179
-216.567	419.607	-0.232	-0.495
-215.552	-171.173	-0.850	0.029
-214.538	-42.808	-1.008	-0.511
-213.523	150.439	0.312	0.422
-212.509	-0.335	-0.252	-0.178
-211.494	280.687	0.151	0.269
-210.479	97.957	0.627	0.718
-209.465	-200.000	-0.008	0.180
-208.450	-200.000	0.044	-1.114
-207.436	-200.000	-0.103	0.558
-206.421	800.000	-0.064	0.260
-205.406	160.431	-0.067	-0.093
-204.392	-200.000	0.251	1.131
-203.377	-200.000	0.003	0.385
-202.363	-200.000	-0.009	-0.290
-201.348	-6.967	0.142	-0.096
-200.333	17.799	-0.382	-0.303
-199.319	800.000	-0.266	0.836
-198.304	-200.000	-0.054	0.429
-197.290	183.664	-0.229	-0.337
-196.275	-82.880	-0.736	-0.237
-195.260	-112.926	0.790	0.156
-194.246	-200.000	-0.021	0.579
-193.231	-200.000	0.081	-0.796
-192.217	19.070	0.677	0.541
-191.202	-200.000	-0.168	-0.000
-190.187	-18.889	-0.395	-0.245
-189.173	-200.000	-0.050	0.360
-188.158	758.600	-0.024	0.065
-187.144	800.000	0.135	-0.557
-186.129	-200.000	-0.060	-0.572
-185.114	90.305	-0.040	-0.044
-184.100	-122.065	0.444	0.073
-183.085	79.570	0.326	0.348
-182.071	-156.154	-0.052	0.003
-181.056	-46.448	0.396	0.193
-180.042	-118.013	-0.587	0.105
-179.027	-130.147	-0.956	0.130
-178.012	-134.723	1.067	0.129
-176.998	-200.000	-0.105	-0.560
-175.983	800.000	-0.239	0.871
-174.969	-98.327	-0.316	-0.081
-173.954	381.142	0.252	-0.515
-172.939	-200.000	0.009	0.711
-171.925	487.930	0.268	-0.610
-170.910	303.175	-0.503	0.928
-169.896	-32.546	-0.195	0.108
-168.881	93.523	-0.301	-0.339
-167.866	156.957	0.352	-0.484
-166.852	43.793	0.559	-0.509
-165.837	-112.969	-0.384	0.076
-164.823	-17.938	0.816	-0.509
-163.808	-95.868	-0.585	-0.155
-162.793	-104.598	0.435	-0.100
-161.779	-200.000	0.083	-0.474
-160.764	-38.201	-0.621	-0.327
-159.750	-147.094	0.415	0.035
-158.735	93.097	-0.422	0.474
-157.720	-10.479	-0.213	-0.140
-156.706	34.803	-0.283	0.246
-155.691	-200.000	0.012	0.116
-154.677	225.232	-0.660	1.062
-153.662	-44.558	1.018	-0.506
-152.647	16.068	-0.173	0.135
-151.633	-58.350	0.560	-0.242
-150.618	269.282	0.321	0.559
-149.604	606.430	0.192	0.476
-148.589	359.134	0.256	-0.509
-147.574	-74.224	0.300	-0.108
-146.560	38.715	-0.645	-0.572
-145.545	109.909	-0.870	-1.037
-144.531	-109.384	0.761	0.160
-143.516	800.000	0.171	-0.723
-142.502	178.840	-0.505	0.734
-141.487	-83.736	0.346	-0.110
-140.472	-150.234	0.292	-0.022
-139.458	-143.024	-0.461	-0.044
-138.443	-103.413	-0.531	0.124
-137.429	-57.737	0.392	0.170
-136.414	87.224	-0.077	0.084
-135.399	-84.996	0.269	0.084
-134.385	-200.000	0.061	0.296
-133.370	-67.153	-0.186	-0.073
-132.356	-163.716	0.636	-0.030
-131.341	378.084	-0.239	-0.485
-130.326	365.808	-0.390	0.781
-129.312	-200.000	-0.065	0.340
-128.297	800.000	0.181	-0.716
-127.283	-138.617	-0.462	-0.050
-126.268	-200.000	0.008	0.483
-125.253	440.396	-0.100	0.217
-124.239	-2.122	0.754	0.526
-123.224	99.915	-0.340	-0.391
-122.210	-35.663	-0.835	-0.450
-121.195	201.069	0.181	0.276
