DTS Sentinel unit serial number:	SN413079Multiplexer serial number:	ORYXHardware model number:	OX4-SRSoftware version number:	ORYX F/W v4.00 Oryx Data Collector v3.7.2.0data status	okinstallation	princeton_trtdifferential loss correction	single-endedforward channel	channel 4reverse channel	N/Adate	2019/09/11time	04:55:11forward acquisition time	60.00reverse acquisition time	0.00gamma	496.2192k internal	0.2316k external	0.2316temperature offset calibration	0.9945default loss term (dB/km)	0.3790temperature slope calibration	1.0000multiplexer offset coefficient	1.0000multiplexer slope coefficient	1.0000fibre end	0.00T internal ref (°C)	29.50T ext. ref 1 (°C)	-0.26T ext. ref 2 (°C)	23.30length (m)	temperature (°C)	Stokes	anti-Stokes-747.200	-107.461	0.223	0.049
-746.185	-74.606	-0.124	-0.045
-745.171	250.625	-0.079	-0.136
-744.156	-84.640	-0.564	-0.180
-743.142	-200.000	-0.038	-0.417
-742.127	112.405	-0.252	0.308
-741.112	510.325	0.045	0.105
-740.098	-200.000	0.004	0.025
-739.083	-11.540	-0.140	0.093
-738.069	-154.175	-0.439	-0.030
-737.054	-200.000	-0.052	0.370
-736.039	18.765	-0.266	-0.215
-735.025	-200.000	-0.049	0.272
-734.010	67.121	-0.360	-0.372
-732.996	-86.019	0.258	-0.081
-731.981	225.497	-0.178	0.291
-730.966	269.165	-0.096	-0.170
-729.952	-48.320	-0.051	-0.025
-728.937	-200.000	-0.010	0.228
-727.923	148.851	-0.187	-0.255
-726.908	800.000	0.033	-0.111
-725.894	-200.000	-0.018	0.226
-724.879	-200.000	0.076	0.349
-723.864	-103.905	-0.143	-0.034
-722.850	221.036	-0.062	-0.101
-721.835	13.021	0.069	-0.054
-720.821	-200.000	-0.007	0.139
-719.806	-200.000	-0.049	-0.252
-718.791	-19.346	-0.145	0.091
-717.777	-200.000	0.040	-0.288
-716.762	-123.160	-0.176	0.029
-715.748	83.757	-0.031	0.034
-714.733	-128.350	0.226	-0.033
-713.718	-200.000	-0.024	0.129
-712.704	-142.854	0.152	-0.015
-711.689	-29.695	-0.241	-0.139
-710.675	64.201	-0.200	-0.204
-709.660	284.678	0.106	0.194
-708.645	15.920	-0.121	-0.096
-707.631	800.000	-0.056	0.202
-706.616	-68.505	-0.310	0.122
-705.602	37.342	-0.240	-0.216
-704.587	-40.088	-0.192	-0.101
-703.572	-75.471	-0.267	-0.096
-702.558	296.763	-0.069	-0.128
-701.543	-200.000	-0.006	-0.380
-700.529	-97.437	0.278	0.073
-699.514	-200.000	0.014	-0.138
-698.499	-43.234	-0.333	-0.170
-697.485	-77.769	-0.242	0.085
-696.470	8.956	-0.258	0.197
-695.456	-200.000	-0.016	-0.223
-694.441	-93.117	0.227	0.064
-693.426	-113.975	0.371	-0.073
-692.412	-124.353	-0.169	-0.027
-691.397	-37.919	0.163	-0.088
-690.383	-132.596	-0.219	0.028
-689.368	800.000	-0.087	-0.267
-688.354	-200.000	-0.010	0.046
-687.339	3.000	-0.062	-0.045
-686.324	64.423	0.189	0.193
-685.310	800.000	-0.023	0.089
-684.295	-200.000	0.023	-0.169
-683.281	174.668	-0.234	0.342
-682.266	304.161	-0.013	-0.025
-681.251	-200.000	0.011	-0.271
-680.237	-200.000	0.034	0.352
-679.222	800.000	-0.054	-0.202
-678.208	-66.820	0.057	-0.023
-677.193	-28.786	0.026	0.015
-676.178	-123.649	-0.156	0.025
-675.164	-200.000	-0.047	-0.229
-674.149	433.244	-0.072	0.158
-673.135	85.563	-0.306	-0.340
-672.120	-99.981	-0.467	-0.118
-671.105	-27.977	-0.349	0.204
-670.091	-200.000	-0.021	-0.149
-669.076	-37.307	-0.147	0.079
-668.062	73.259	-0.196	0.207
-667.047	92.672	-0.185	0.211
-666.032	-200.000	-0.026	0.119
-665.018	-58.348	-0.266	-0.117
-664.003	-193.256	-0.242	0.002
-662.989	-175.746	-0.529	-0.014
-661.974	316.582	-0.107	0.205
-660.959	-149.580	0.144	-0.012
-659.945	798.151	0.047	-0.132
-658.930	134.196	-0.273	-0.357
-657.916	151.155	-0.060	0.083
-656.901	-200.000	0.015	0.280
-655.886	-56.102	0.237	0.107
-654.872	291.451	-0.050	-0.091
-653.857	-32.606	-0.177	0.099
-652.843	296.751	0.019	0.036
-651.828	-200.000	0.016	-0.092
-650.814	71.088	0.130	-0.136
-649.799	239.725	0.120	-0.202
-648.784	800.000	0.096	-0.333
-647.770	749.873	-0.075	-0.205
-646.755	7.727	-0.151	0.114
-645.741	-94.976	-0.152	-0.042
-644.726	131.399	0.123	0.160
-643.711	637.535	0.037	-0.096
-642.697	31.745	-0.153	0.132
-641.682	201.503	0.158	0.246
-640.668	-71.350	0.129	0.049
-639.653	252.053	0.032	0.055
-638.638	-130.980	-0.306	0.041
-637.624	-60.807	-0.114	-0.049
-636.609	-56.409	-0.314	-0.141
-635.595	800.000	0.026	-0.076
-634.580	800.000	0.052	0.155
-633.565	-5.696	0.109	-0.076
-632.551	112.964	-0.191	0.234
-631.536	-200.000	-0.012	-0.166
-630.522	-113.190	0.103	-0.020
-629.507	-175.491	-0.505	-0.014
-628.492	148.337	-0.105	-0.142
-627.478	171.764	0.034	0.049
-626.463	19.632	0.206	-0.167
-625.449	-23.243	-0.136	-0.082
-624.434	-15.822	0.297	-0.191
-623.419	-193.739	0.131	-0.001
-622.405	-82.148	0.316	-0.104
-621.390	581.256	-0.060	0.148
-620.376	-200.000	-0.022	-0.148
-619.361	-187.149	-0.307	-0.004
-618.346	-113.286	-0.070	0.014
-617.332	205.391	0.001	-0.001
-616.317	390.647	0.102	0.213
-615.303	-131.483	0.220	-0.029
-614.288	-200.000	-0.042	0.276
-613.273	-62.392	-0.266	-0.112
-612.259	84.192	-0.127	-0.140
-611.244	137.761	0.027	0.035
-610.230	-200.000	0.004	0.436
-609.215	29.095	-0.103	0.088
-608.201	-200.000	0.003	0.159
-607.186	-187.700	-0.229	0.003
-606.171	-63.455	0.199	-0.082
-605.157	-114.625	-0.173	-0.033
-604.142	640.573	0.103	-0.265
-603.128	-129.935	-0.345	-0.048
-602.113	-23.151	-0.116	0.070
-601.098	-200.000	0.021	-0.118
-600.084	-154.133	-0.222	0.015
-599.069	638.220	-0.089	-0.229
-598.055	-41.451	0.316	0.164
-597.040	-2.213	0.203	-0.144
-596.025	387.343	-0.032	0.068
-595.011	95.168	-0.063	0.072
-593.996	800.000	0.065	-0.231
-592.982	-200.000	0.002	-0.106
-591.967	737.616	-0.043	-0.117
-590.952	535.771	0.055	-0.132
-589.938	-96.206	-0.156	-0.042
-588.923	-200.000	0.007	0.047
-587.909	-110.240	-0.094	-0.020
-586.894	16.602	-0.055	-0.044
-585.879	127.228	-0.180	-0.230
-584.865	-63.717	-0.321	0.133
-583.850	-151.590	-0.114	0.008
-582.836	71.575	0.102	-0.107
-581.821	-11.577	-0.201	0.133
-580.806	-112.457	-0.214	-0.043
-579.792	88.966	0.030	0.033
-578.777	800.000	0.113	-0.365
-577.763	246.571	0.223	0.379
-576.748	42.135	-0.156	0.142
-575.733	222.964	0.071	-0.115
-574.719	-122.295	0.301	-0.049
-573.704	-45.369	0.165	-0.082
-572.690	-64.191	-0.205	0.084
-571.675	-200.000	-0.028	0.172
-570.661	62.793	-0.221	0.222
-569.646	675.280	0.063	0.164
-568.631	355.482	-0.144	-0.288
-567.617	29.031	0.353	-0.301
-566.602	461.958	0.036	0.081
-565.588	-200.000	0.017	-0.105
-564.573	-60.423	0.383	-0.164
-563.558	800.000	-0.141	-0.398
-562.544	-70.260	-0.089	0.034
-561.529	-200.000	0.004	0.228
-560.515	191.206	0.144	0.217
-559.500	267.553	-0.029	-0.052
-558.485	21.724	-0.210	0.172
-557.471	-73.894	-0.141	0.052
-556.456	-0.127	-0.249	-0.178
-555.442	-138.177	-0.349	0.039
-554.427	-11.614	0.231	-0.153
-553.412	-134.323	-0.098	-0.012
-552.398	-25.046	0.224	-0.134
-551.383	-164.144	-0.184	-0.009
-550.369	-200.000	-0.101	-0.597
-549.354	36.243	0.161	-0.142
-548.339	182.910	0.245	0.364
-547.325	800.000	-0.033	-0.113
-546.310	-106.601	-0.123	-0.028
-545.296	-126.520	0.202	0.030
-544.281	-51.261	-0.256	-0.121
-543.266	-59.406	0.115	-0.049
-542.252	-11.079	-0.164	0.109
-541.237	-200.000	-0.012	-0.063
-540.223	-115.479	0.167	0.032
-539.208	-36.265	-0.162	-0.088
-538.193	800.000	-0.064	-0.256
-537.179	411.175	-0.149	-0.317
-536.164	-17.605	-0.168	-0.106
-535.150	-79.947	0.105	-0.036
-534.135	800.000	-0.070	-0.268
-533.121	-84.800	-0.149	0.047
-532.106	146.308	0.077	0.104
-531.091	-148.199	-0.349	0.029
-530.077	800.000	0.039	0.152
-529.062	-3.259	0.207	-0.145
-528.048	71.379	-0.135	0.141
-527.033	484.480	-0.089	0.204
-526.018	-129.412	0.480	-0.067
-525.004	175.208	-0.083	-0.121
-523.989	155.256	-0.108	-0.150
-522.975	800.000	-0.048	-0.178
-521.960	-133.585	0.080	-0.010
-520.945	327.518	0.053	0.102
-519.931	78.542	-0.091	-0.097
-518.916	242.511	0.279	0.469
-517.902	-200.000	-0.008	0.194
-516.887	166.214	-0.112	-0.159
-515.872	-141.295	0.175	0.018
-514.858	453.029	0.136	-0.302
-513.843	708.637	0.041	0.109
-512.829	-95.323	-0.271	0.073
-511.814	-200.000	-0.033	-0.357
-510.799	355.832	-0.057	-0.113
-509.785	121.207	-0.135	0.168
-508.770	756.867	0.103	0.281
-507.756	683.591	-0.083	-0.219
-506.741	-122.725	-0.231	0.038
-505.726	141.370	-0.166	0.221
-504.712	-65.966	0.269	-0.108
-503.697	-148.351	-0.247	0.020
-502.683	800.000	-0.081	-0.262
-501.668	-200.000	0.022	0.126
-500.653	-73.421	-0.117	-0.043
-499.639	71.401	-0.199	-0.208
-498.624	222.637	-0.204	0.329
-497.610	48.864	-0.193	0.182
-496.595	-200.000	0.022	-0.131
-495.581	800.000	0.113	-0.468
-494.566	309.985	0.138	-0.260
-493.551	-13.024	-0.202	0.132
-492.537	632.634	0.111	-0.283
-491.522	58.712	0.431	0.424
-490.508	110.774	0.179	0.215
-489.493	-200.000	0.026	-0.266
-488.478	-119.581	0.168	0.029
-487.464	-57.467	-0.040	0.017
-486.449	304.206	-0.176	0.328
-485.435	388.031	0.146	0.302
-484.420	209.648	-0.085	-0.133
-483.405	-175.665	-0.321	0.009
-482.391	432.980	-0.021	0.046
-481.376	-155.636	0.425	-0.027
-480.362	65.636	0.158	-0.160
-479.347	232.000	0.121	0.199
-478.332	800.000	-0.055	0.182
-477.318	-39.003	0.222	-0.117
-476.303	-97.845	0.118	0.031
-475.289	-173.917	0.263	0.008
-474.274	-71.546	-0.021	-0.008
-473.259	113.416	0.081	0.099
-472.245	-105.229	-0.130	-0.030
-471.230	-138.273	0.167	-0.018
-470.216	800.000	0.071	-0.208
-469.201	-49.618	0.316	0.151
-468.186	-200.000	0.061	-0.370
-467.172	486.844	0.114	0.261
-466.157	115.392	0.066	-0.080
-465.143	720.444	-0.050	0.133
-464.128	800.000	0.124	0.505
-463.113	-200.000	-0.005	-0.118
-462.099	85.108	-0.193	0.212
-461.084	-171.209	-0.196	-0.007
-460.070	-200.000	0.007	0.078
-459.055	-79.100	-0.382	-0.130
-458.040	-57.930	0.158	0.069
-457.026	156.882	-0.237	0.328
-456.011	-51.663	0.443	-0.207
-454.997	-61.184	0.314	-0.133
-453.982	95.342	-0.118	-0.135
-452.968	-50.701	0.107	-0.050
-451.953	87.905	0.101	-0.113
-450.938	-200.000	-0.007	0.037
-449.924	-109.681	0.107	0.023
-448.909	186.009	-0.104	-0.154
-447.895	-36.367	0.032	-0.017
-446.880	-51.168	0.357	0.167
-445.865	130.742	0.103	-0.132
-444.851	800.000	-0.056	0.180
-443.836	11.225	-0.061	-0.047
-442.822	-200.000	-0.031	-0.269
-441.807	-200.000	-0.018	0.275
-440.792	-200.000	-0.019	0.242
-439.778	-200.000	-0.066	0.324
-438.763	-127.680	-0.162	0.023
-437.749	278.499	0.058	-0.103
-436.734	800.000	0.048	0.148
-435.719	305.895	-0.146	-0.272
-434.705	44.441	-0.094	0.087
-433.690	-33.568	-0.017	0.009
-432.676	-93.951	0.081	0.022
-431.661	-46.997	0.123	0.060
-430.646	800.000	0.061	0.184
-429.632	-200.000	-0.015	-0.252
-428.617	-200.000	0.040	0.209
-427.603	273.615	0.074	-0.130
-426.588	307.331	-0.124	-0.231
-425.573	336.555	-0.057	0.111
-424.559	-0.467	-0.217	0.154
-423.544	-36.834	0.238	0.128
-422.530	-109.425	0.374	0.079
-421.515	140.821	-0.059	-0.077
-420.500	-85.466	0.264	-0.082
-419.486	-200.000	-0.007	0.111
-418.471	-139.943	0.213	-0.022
-417.457	-200.000	0.017	0.115
-416.442	42.927	0.095	0.087
-415.428	754.218	0.119	0.322
-414.413	191.935	0.299	0.451
-413.398	-29.917	-0.250	0.142
-412.384	-200.000	-0.013	-0.096
-411.369	561.865	-0.059	-0.143
-410.355	-200.000	0.004	0.106
-409.340	124.661	-0.086	-0.108
-408.325	-200.000	-0.065	-0.338
-407.311	3.224	-0.307	-0.223
-406.296	428.776	0.122	0.264
-405.282	-58.075	0.220	0.096
-404.267	800.000	0.130	0.359
-403.252	-200.000	-0.048	-0.267
-402.238	800.000	-0.036	0.098
-401.223	197.874	0.103	0.157
-400.209	263.962	0.036	-0.062
-399.194	-179.973	-0.437	-0.009
-398.179	-121.887	-0.196	-0.032
-397.165	-145.896	0.317	-0.028
-396.150	57.514	-0.152	-0.149
-395.136	-200.000	0.029	0.195
-394.121	154.975	-0.170	-0.234
-393.106	-200.000	-0.084	-0.398
-392.092	-7.505	0.127	-0.086
-391.077	-200.000	-0.034	-0.246
-390.063	-134.827	-0.108	-0.013
-389.048	46.359	-0.181	-0.168
-388.033	-75.739	-0.252	0.089
-387.019	-111.062	-0.108	-0.022
-386.004	-200.000	0.014	-0.118
-384.990	30.348	-0.277	0.237
-383.975	-200.000	-0.009	0.125
-382.960	127.770	-0.047	-0.059
-381.946	-83.886	0.144	0.046
-380.931	-82.131	-0.273	0.089
-379.917	180.681	0.098	0.143
-378.902	-165.874	0.262	-0.011
-377.888	121.483	0.071	0.089
-376.873	-95.574	-0.083	0.022
-375.858	-74.207	0.212	0.076
-374.844	-200.000	-0.005	0.348
-373.829	-192.284	0.071	-0.001
-372.815	-175.536	0.231	0.006
-371.800	482.525	-0.102	-0.230
-370.785	-169.111	-0.065	0.002
-369.771	234.502	0.058	0.095
-368.756	800.000	0.051	-0.178
-367.742	-130.172	0.308	-0.042
-366.727	-188.848	0.241	-0.003
-365.712	800.000	0.035	0.121
-364.698	103.573	-0.260	0.304
-363.683	-200.000	-0.005	0.106
-362.669	92.092	0.177	0.199
-361.654	-200.000	-0.025	0.392
-360.639	30.096	0.342	0.291
-359.625	-200.000	0.007	-0.508
-358.610	-84.497	0.088	0.028
-357.596	800.000	0.081	-0.235
-356.581	397.375	-0.151	-0.315
-355.566	-102.275	-0.242	0.058
-354.552	-110.165	0.164	0.034
-353.537	205.379	-0.037	-0.057
-352.523	-200.000	-0.013	0.187
-351.508	6.007	-0.313	0.231
-350.493	-200.000	-0.036	-0.268
-349.479	-15.013	0.267	-0.170
-348.464	42.471	0.131	0.119
-347.450	800.000	-0.078	-0.255
-346.435	-17.400	0.113	-0.071
-345.420	-200.000	-0.004	0.028
-344.406	-157.991	0.346	0.020
-343.391	-57.904	-0.213	-0.093
-342.377	-24.130	0.194	-0.115
-341.362	-50.737	-0.094	-0.044
-340.348	113.700	0.027	0.033
-339.333	136.478	0.171	-0.223
-338.318	-86.732	-0.260	0.079
-337.304	-123.445	-0.278	-0.044
-336.289	-36.120	0.138	0.074
-335.275	147.743	-0.208	-0.279
-334.260	54.307	-0.184	-0.177
-333.245	-75.228	0.311	0.111
-332.231	-150.381	-0.073	-0.006
-331.216	354.255	-0.047	0.092
-330.202	268.016	0.203	-0.355
-329.187	-57.249	-0.128	-0.056
-328.172	-200.000	0.006	0.111
-327.158	99.096	0.099	0.114
-326.143	-200.000	0.037	-0.233
-325.129	171.771	0.309	-0.443
-324.114	286.285	0.040	-0.073
-323.099	-53.204	0.287	0.131
-322.085	-84.933	-0.379	-0.119
-321.070	3.239	-0.222	0.161
-320.056	-200.000	0.017	-0.118
-319.041	222.540	0.326	-0.523
-318.026	-74.369	0.341	0.123
-317.012	-200.000	-0.058	-0.329
-315.997	65.613	-0.152	-0.153
-314.983	-79.928	0.378	0.126
-313.968	278.568	-0.063	-0.111
-312.953	232.314	-0.235	0.384
-311.939	57.949	-0.270	0.263
-310.924	147.968	-0.041	-0.056
-309.910	-134.409	0.032	0.004
-308.895	10.492	0.241	-0.183
-307.880	-38.296	-0.404	-0.213
-306.866	-123.072	-0.200	-0.032
-305.851	-200.000	0.017	-0.101
-304.837	740.641	-0.071	-0.190
-303.822	727.516	-0.060	0.159
-302.807	800.000	0.093	0.315
-301.793	50.401	0.086	0.081
-300.778	-116.961	0.264	-0.048
-299.764	-200.000	0.036	0.164
-298.749	8.741	-0.114	-0.085
-297.735	-38.982	0.241	0.127
-296.720	-0.688	0.099	0.070
-295.705	140.814	-0.161	-0.212
-294.691	-49.921	-0.393	0.186
-293.676	143.128	0.096	-0.127
-292.662	114.806	-0.103	0.125
-291.647	223.607	0.170	-0.274
-290.632	-200.000	-0.009	0.182
-289.618	-168.177	-0.337	-0.013
-288.603	-200.000	-0.008	0.078
-287.589	-33.440	0.315	0.174
-286.574	-200.000	0.009	-0.231
-285.559	-144.018	0.275	0.026
-284.545	12.970	0.299	-0.230
-283.530	-15.481	-0.432	0.275
-282.516	800.000	-0.102	0.299
-281.501	-29.835	-0.161	-0.091
-280.486	-82.167	0.184	-0.060
-279.472	-11.527	-0.205	-0.134
-278.457	-200.000	-0.081	-0.363
-277.443	-200.000	0.002	0.030
-276.428	-200.000	-0.063	-0.289
-275.413	-200.000	-0.011	0.066
-274.399	-200.000	0.028	-0.158
-273.384	70.585	0.131	-0.135
-272.370	-19.839	0.133	0.082
-271.355	-51.094	0.103	-0.048
-270.340	-117.624	0.274	-0.049
-269.326	114.340	0.082	0.100
-268.311	-69.222	0.062	0.024
-267.297	149.113	0.112	-0.151
-266.282	128.179	0.098	0.124
-265.267	386.834	0.134	0.275
-264.253	-200.000	0.026	-0.115
-263.238	-81.716	0.398	0.130
-262.224	800.000	-0.020	0.069
-261.209	606.898	0.113	-0.281
-260.195	-69.332	-0.163	-0.062
-259.180	-200.000	0.014	0.176
-258.165	10.565	-0.052	-0.040
-257.151	51.431	0.246	-0.232
-256.136	184.542	-0.145	-0.213
-255.122	105.661	-0.180	-0.211
-254.107	346.479	-0.056	-0.110
-253.092	-19.934	0.218	0.134
-252.078	138.878	0.029	-0.038
-251.063	65.537	0.160	-0.161
-250.049	-85.897	0.382	0.117
-249.034	52.297	-0.286	-0.271
-248.019	-85.494	0.242	0.075
-247.005	-200.000	-0.024	-0.222
-245.990	151.954	-0.111	0.151
-244.976	-16.775	-0.200	0.126
-243.961	117.975	0.231	-0.283
-242.946	-200.000	0.040	-0.312
-241.932	332.979	0.040	0.077
-240.917	252.071	-0.073	0.124
-239.903	-46.875	-0.154	0.075
-238.888	158.913	-0.133	0.183
-237.873	310.775	-0.091	0.170
-236.859	111.128	-0.178	-0.212
-235.844	-105.015	0.232	-0.053
-234.830	181.987	-0.054	0.080
-233.815	329.886	-0.108	-0.207
-232.800	-187.922	-0.354	-0.005
-231.786	90.176	-0.071	0.079
-230.771	-200.000	-0.002	-0.174
-229.757	-200.000	0.069	0.461
-228.742	101.635	0.171	0.198
-227.727	-71.737	-0.303	0.112
-226.713	47.146	0.027	0.025
-225.698	441.743	0.115	0.250
-224.684	68.374	0.236	-0.240
-223.669	21.591	0.166	-0.134
-222.655	21.819	0.093	-0.076
-221.640	43.218	0.126	-0.114
-220.625	-83.687	-0.419	-0.133
-219.611	-0.491	-0.130	-0.092
-218.596	800.000	0.083	0.267
-217.582	127.794	0.261	0.329
-216.567	800.000	0.070	-0.281
-215.552	223.655	-0.084	0.134
-214.538	41.016	0.220	0.197
-213.523	40.229	-0.145	0.130
-212.509	111.163	0.171	0.204
-211.494	800.000	0.047	0.173
-210.479	252.338	0.136	0.230
-209.465	463.273	-0.181	0.402
-208.450	-20.932	-0.375	-0.228
-207.436	162.783	0.033	-0.046
-206.421	-200.000	-0.006	0.244
-205.406	800.000	0.082	0.267
-204.392	800.000	-0.081	0.228
-203.377	48.142	-0.265	0.245
-202.363	-200.000	0.052	0.224
-201.348	800.000	0.055	0.161
-200.333	800.000	-0.096	0.373
-199.319	-200.000	0.093	0.428
-198.304	-33.127	0.182	0.100
-197.290	-101.347	-0.172	-0.042
-196.275	-42.053	-0.227	0.115
-195.260	-200.000	-0.070	0.314
-194.246	146.578	0.170	-0.226
-193.231	800.000	-0.071	0.284
-192.217	34.412	-0.020	0.018
-191.202	-148.853	-0.347	-0.028
-190.187	-90.679	-0.359	0.103
-189.173	800.000	-0.083	0.306
-188.158	-114.257	-0.139	-0.027
-187.144	-200.000	0.004	-0.105
-186.129	-127.664	0.108	0.015
-185.114	6.271	0.110	0.081
-184.100	214.893	-0.027	0.042
-183.085	-200.000	-0.005	0.071
-182.071	97.403	0.045	0.051
-181.056	-200.000	-0.009	0.092
-180.042	-200.000	0.022	-0.125
-179.027	19.346	-0.128	-0.102
-178.012	123.356	0.058	-0.073
-176.998	-177.627	-0.336	0.008
-175.983	-109.903	0.189	0.039
-174.969	292.933	-0.026	0.047
-173.954	620.066	-0.077	0.192
-172.939	-70.939	0.205	-0.076
-171.925	-77.871	-0.336	-0.115
-170.910	-61.141	0.079	-0.033
-169.896	180.676	-0.036	0.053
-168.881	-14.257	0.324	-0.207
-167.866	-120.229	0.165	0.028
-166.852	27.830	-0.257	-0.214
-165.837	800.000	-0.098	-0.293
-164.823	579.664	0.105	-0.256
-163.808	-50.108	0.361	0.169
-162.793	-34.130	-0.203	-0.111
-161.779	-105.101	0.140	0.032
-160.764	347.552	0.170	-0.331
-159.750	82.917	-0.249	0.268
-158.735	782.157	0.104	-0.281
-157.720	95.652	0.246	0.278
-156.706	-165.853	0.131	-0.006
-155.691	617.875	-0.065	0.162
-154.677	97.436	0.062	-0.071
-153.662	-30.042	-0.380	0.214
-152.647	-156.620	-0.349	0.021
-151.633	182.061	0.181	0.263
-150.618	-200.000	-0.048	-0.247
-149.604	4.043	0.190	-0.138
-148.589	500.138	-0.096	0.219
-147.574	117.187	0.098	0.119
-146.560	-200.000	0.078	0.350
-145.545	-119.651	0.096	-0.016
-144.531	-200.000	-0.014	0.342
-143.516	-90.140	-0.069	-0.020
-142.502	252.969	0.013	-0.022
-141.487	172.703	0.139	-0.198
-140.472	94.690	-0.339	0.381
-139.458	422.724	0.136	0.290
-138.443	-29.005	-0.400	0.227
-137.429	-107.291	0.178	-0.039
-136.414	-84.168	-0.228	0.072
-135.399	9.126	0.054	-0.040
-134.385	738.480	-0.111	-0.294
-133.370	-61.069	0.334	-0.140
-132.356	-4.515	0.351	0.240
-131.341	667.182	0.076	0.195
-130.326	-81.626	0.108	-0.035
-129.312	275.507	-0.038	-0.067
-128.297	497.284	-0.133	0.304
-127.283	657.878	0.115	-0.291
-126.268	-141.214	0.166	0.017
-125.253	-61.941	-0.016	0.006
-124.239	-200.000	-0.054	-0.381
-123.224	-48.249	-0.084	0.040
