DTS Sentinel unit serial number:	SN413079Multiplexer serial number:	ORYXHardware model number:	OX4-SRSoftware version number:	ORYX F/W v4.00 Oryx Data Collector v3.7.2.0data status	okinstallation	princeton_trtdifferential loss correction	single-endedforward channel	channel 4reverse channel	N/Adate	2019/09/18time	04:45:35forward acquisition time	60.00reverse acquisition time	0.00gamma	496.2192k internal	0.2332k external	0.2332temperature offset calibration	0.9996default loss term (dB/km)	0.3790temperature slope calibration	1.0000multiplexer offset coefficient	1.0000multiplexer slope coefficient	1.0000fibre end	0.00T internal ref (°C)	23.44T ext. ref 1 (°C)	0.18T ext. ref 2 (°C)	17.88length (m)	temperature (°C)	Stokes	anti-Stokes-747.200	-14.535	-0.166	-0.107
-746.185	-186.216	0.325	-0.005
-745.171	91.191	0.191	-0.216
-744.156	183.391	-0.180	0.268
-743.142	-68.205	-0.288	0.113
-742.127	-73.228	-0.336	0.124
-741.112	-200.000	0.005	0.209
-740.098	167.094	0.195	0.279
-739.083	152.714	0.092	-0.127
-738.069	-38.497	-0.178	0.095
-737.054	-133.071	0.115	0.015
-736.039	13.666	-0.157	0.123
-735.025	0.944	0.414	0.299
-734.010	-148.761	-0.271	0.022
-732.996	149.557	-0.367	-0.500
-731.981	97.319	-0.155	-0.179
-730.966	-14.663	-0.254	-0.164
-729.952	-200.000	-0.002	-0.069
-728.937	28.934	0.106	-0.090
-727.923	657.635	-0.114	0.296
-726.908	14.020	0.282	-0.221
-725.894	91.380	-0.250	-0.282
-724.879	269.548	0.059	0.103
-723.864	-41.490	-0.150	-0.078
-722.850	74.810	-0.070	0.074
-721.835	489.119	-0.086	0.199
-720.821	-200.000	-0.025	-0.168
-719.806	231.714	-0.120	0.198
-718.791	-200.000	-0.045	0.418
-717.777	299.639	0.136	-0.251
-716.762	-85.923	0.177	0.055
-715.748	-83.761	-0.295	-0.094
-714.733	61.958	0.123	0.124
-713.718	9.785	0.116	0.088
-712.704	-48.839	-0.223	0.108
-711.689	7.152	-0.180	0.135
-710.675	106.727	-0.307	-0.366
-709.660	-200.000	-0.006	-0.028
-708.645	-31.282	-0.102	-0.057
-707.631	778.467	-0.088	-0.242
-706.616	-80.582	0.186	-0.062
-705.602	-200.000	-0.033	0.177
-704.587	257.619	-0.046	-0.079
-703.572	316.132	-0.122	-0.232
-702.558	-34.478	-0.267	0.147
-701.543	800.000	0.037	0.112
-700.529	-83.368	0.088	0.028
-699.514	-200.000	-0.006	-0.212
-698.499	179.814	-0.046	-0.068
-697.485	800.000	0.062	-0.173
-696.470	-35.224	0.229	-0.125
-695.456	124.074	-0.106	0.133
-694.441	-1.874	-0.198	0.140
-693.426	800.000	0.020	-0.065
-692.412	66.178	-0.240	0.244
-691.397	-63.929	-0.146	0.060
-690.383	-122.052	-0.265	-0.044
-689.368	-46.596	0.075	0.037
-688.354	67.357	-0.143	-0.147
-687.339	-200.000	0.047	-0.224
-686.324	-200.000	-0.023	0.514
-685.310	-200.000	-0.010	-0.094
-684.295	800.000	-0.136	0.428
-683.281	-157.315	0.296	0.018
-682.266	38.438	-0.251	0.225
-681.251	114.903	0.253	-0.310
-680.237	131.192	-0.131	0.169
-679.222	-122.428	-0.244	0.040
-678.208	-82.354	0.006	0.002
-677.193	-21.562	0.273	0.167
-676.178	-21.558	-0.123	-0.076
-675.164	-70.474	-0.131	0.050
-674.149	-24.532	-0.245	-0.146
-673.135	-84.059	-0.308	-0.098
-672.120	-41.780	-0.176	-0.091
-671.105	-200.000	-0.039	-0.548
-670.091	800.000	0.069	-0.281
-669.076	-40.661	0.520	0.271
-668.062	40.284	-0.220	0.199
-667.047	-200.000	-0.042	-0.348
-666.032	-200.000	-0.388	0.000
-665.018	-74.249	0.452	0.164
-664.003	800.000	-0.074	-0.289
-662.989	13.474	0.091	0.071
-661.974	-200.000	-0.075	-0.387
-660.959	252.251	0.061	-0.105
-659.945	-54.158	0.271	-0.124
-658.930	176.171	0.115	-0.168
-657.916	673.202	-0.059	-0.153
-656.901	-28.438	-0.262	-0.152
-655.886	691.225	-0.049	-0.130
-654.872	-37.024	0.551	-0.296
-653.857	39.283	0.272	-0.244
-652.843	260.064	0.127	-0.220
-651.828	-200.000	0.046	-0.343
-650.814	-200.000	-0.027	-0.193
-649.799	-196.197	-0.200	0.001
-648.784	35.954	-0.293	-0.259
-647.770	642.860	-0.073	-0.186
-646.755	-200.000	0.002	0.142
-645.741	118.054	-0.130	0.161
-644.726	-60.706	-0.053	0.022
-643.711	121.529	-0.222	0.277
-642.697	-200.000	0.014	0.290
-641.682	-85.423	-0.376	0.117
-640.668	-72.616	-0.216	0.080
-639.653	-97.294	0.041	-0.011
-638.638	800.000	-0.077	-0.282
-637.624	-157.717	0.354	0.021
-636.609	-72.558	0.323	0.119
-635.595	800.000	0.119	0.358
-634.580	104.250	-0.210	-0.247
-633.565	117.469	0.326	-0.402
-632.551	157.613	0.233	-0.324
-631.536	388.593	-0.083	0.172
-630.522	-200.000	0.019	-0.248
-629.507	90.756	-0.292	-0.328
-628.492	95.741	-0.324	-0.370
-627.478	586.398	0.087	-0.215
-626.463	129.381	-0.292	0.374
-625.449	194.375	-0.108	0.164
-624.434	800.000	0.076	-0.256
-623.419	-139.706	-0.362	0.039
-622.405	114.173	0.122	0.148
-621.390	66.712	-0.146	-0.149
-620.376	95.144	0.283	-0.323
-619.361	31.703	-0.083	-0.071
-618.346	36.671	-0.231	-0.204
-617.332	-78.602	-0.329	-0.113
-616.317	-200.000	0.017	-0.206
-615.303	582.471	-0.078	-0.190
-614.288	-200.000	-0.020	0.147
-613.273	313.288	0.067	0.127
-612.259	-24.745	0.134	0.080
-611.244	55.421	-0.186	-0.180
-610.230	-200.000	-0.025	-0.159
-609.215	-200.000	-0.004	0.348
-608.201	-96.882	-0.379	0.099
-607.186	282.733	0.146	-0.263
-606.171	164.700	0.048	-0.068
-605.157	159.321	0.193	0.269
-604.142	-119.926	-0.076	0.013
-603.128	72.458	0.369	-0.385
-602.113	-120.235	0.294	-0.050
-601.098	281.918	-0.111	0.199
-600.084	-200.000	-0.030	-0.267
-599.069	36.501	-0.195	-0.172
-598.055	209.999	0.113	-0.177
-597.040	-200.000	-0.046	-0.494
-596.025	147.699	-0.154	-0.208
-595.011	103.844	-0.028	-0.032
-593.996	-161.315	0.243	-0.013
-592.982	-28.359	0.042	-0.024
-591.967	430.476	-0.085	-0.184
-590.952	-200.000	0.158	-0.000
-589.938	-81.456	-0.078	0.026
-588.923	-200.000	-0.004	-0.052
-587.909	50.873	0.070	-0.066
-586.894	-130.402	-0.321	0.043
-585.879	-24.719	0.311	0.185
-584.865	-33.040	0.166	-0.092
-583.850	455.623	0.111	-0.247
-582.836	-72.201	-0.318	-0.118
-581.821	-1.210	0.217	-0.153
-580.806	562.556	0.059	-0.143
-579.792	5.764	-0.077	0.057
-578.777	-73.483	-0.167	-0.061
-577.763	-17.229	-0.241	-0.152
-576.748	-48.222	-0.232	0.112
-575.733	800.000	-0.074	-0.219
-574.719	-200.000	-0.042	-0.272
-573.704	-11.858	-0.028	-0.018
-572.690	-200.000	0.030	-0.153
-571.675	418.148	0.165	-0.352
-570.661	-73.828	-0.164	0.059
-569.646	-200.000	0.054	-0.473
-568.631	7.800	-0.070	-0.052
-567.617	123.702	-0.107	0.134
-566.602	-170.945	-0.411	-0.014
-565.588	-23.982	-0.053	-0.032
-564.573	-95.083	0.214	0.058
-563.558	724.316	-0.050	-0.133
-562.544	-102.315	-0.342	0.082
-561.529	-166.255	-0.162	-0.007
-560.515	35.260	0.089	0.078
-559.500	-110.574	0.212	0.044
-558.485	18.514	0.075	-0.060
-557.471	172.227	0.146	0.210
-556.456	736.078	0.050	-0.133
-555.442	-130.933	-0.329	-0.044
-554.427	47.974	0.150	-0.140
-553.412	24.749	0.116	-0.096
-552.398	-44.417	0.185	0.092
-551.383	-138.651	0.180	0.020
-550.369	-200.000	0.011	-0.256
-549.354	496.276	0.071	-0.163
-548.339	120.685	0.296	0.367
-547.325	-145.624	-0.305	-0.027
-546.310	-7.530	0.145	-0.098
-545.296	25.020	-0.097	-0.080
-544.281	3.129	0.230	-0.167
-543.266	341.154	0.037	0.073
-542.252	-62.202	0.112	-0.047
-541.237	25.107	0.250	-0.207
-540.223	800.000	0.095	0.345
-539.208	-48.833	-0.039	-0.019
-538.193	-115.190	0.292	0.055
-537.179	-120.622	-0.339	-0.057
-536.164	-5.114	0.217	0.149
-535.150	-60.708	0.098	0.041
-534.135	800.000	-0.073	0.254
-533.121	-106.677	0.065	0.014
-532.106	-45.007	-0.187	0.093
-531.091	800.000	0.039	0.163
-530.077	426.176	-0.031	-0.067
-529.062	-35.002	0.059	-0.032
-528.048	-77.795	-0.186	-0.064
-527.033	-110.722	-0.154	-0.032
-526.018	-200.000	0.038	0.169
-525.004	-29.530	-0.225	-0.128
-523.989	-84.073	0.374	-0.119
-522.975	-7.313	-0.394	-0.266
-521.960	800.000	-0.058	-0.159
-520.945	800.000	-0.036	-0.148
-519.931	-155.716	-0.080	-0.005
-518.916	-200.000	0.014	-0.104
-517.902	-200.000	0.007	-0.198
-516.887	-113.826	0.329	-0.064
-515.872	262.148	-0.024	-0.042
-514.858	-137.791	-0.277	0.031
-513.843	255.738	-0.031	0.053
-512.829	23.393	-0.043	0.035
-511.814	800.000	0.071	-0.260
-510.799	-92.036	-0.095	-0.027
-509.785	-103.614	-0.091	0.021
-508.770	-156.239	-0.146	0.009
-507.756	-147.025	0.426	-0.036
-506.741	514.475	-0.063	0.147
-505.726	196.550	-0.108	-0.164
-504.712	-99.895	0.293	0.073
-503.697	68.030	-0.025	0.025
-502.683	254.738	-0.126	0.216
-501.668	-200.000	-0.024	-0.132
-500.653	261.131	0.229	-0.396
-499.639	-97.583	0.131	-0.034
-498.624	97.962	0.064	-0.073
-497.610	-200.000	-0.011	-0.277
-496.595	-127.013	-0.104	-0.015
-495.581	-200.000	0.012	-0.581
-494.566	40.712	0.077	0.069
-493.551	-158.422	-0.055	0.003
-492.537	497.445	-0.179	-0.410
-491.522	-85.000	0.052	-0.016
-490.508	-187.441	-0.088	0.001
-489.493	440.725	-0.195	-0.425
-488.478	701.202	0.111	-0.290
-487.464	-13.934	-0.116	-0.075
-486.449	-123.387	-0.097	0.015
-485.435	-111.251	0.190	-0.039
-484.420	-200.000	-0.039	-0.495
-483.405	6.767	0.211	0.156
-482.391	-28.436	0.110	0.063
-481.376	-200.000	0.006	0.102
-480.362	94.742	0.093	-0.106
-479.347	13.931	0.157	-0.121
-478.332	-75.984	-0.337	0.119
-477.318	-62.383	0.314	-0.130
-476.303	-200.000	0.038	0.173
-475.289	196.135	-0.114	0.173
-474.274	800.000	0.112	-0.359
-473.259	-39.337	-0.355	-0.185
-472.245	-83.870	0.313	0.099
-471.230	229.458	-0.070	0.114
-470.216	238.210	-0.066	0.109
-469.201	-200.000	-0.001	-0.076
-468.186	591.786	-0.096	-0.235
-467.172	-162.259	-0.294	0.015
-466.157	-102.469	-0.065	0.015
-465.143	16.469	-0.056	0.044
-464.128	181.285	0.051	-0.074
-463.113	800.000	-0.033	0.120
-462.099	44.329	0.193	0.177
-461.084	287.784	-0.113	0.203
-460.070	-200.000	0.033	0.155
-459.055	334.152	0.153	-0.294
-458.040	234.237	-0.066	0.109
-457.026	-73.103	0.249	0.091
-456.011	-71.393	0.319	0.119
-454.997	800.000	-0.265	0.767
-453.982	36.157	-0.023	0.020
-452.968	800.000	0.014	0.046
-451.953	582.662	0.081	-0.197
-450.938	-104.962	-0.041	-0.009
-449.924	42.565	0.220	0.199
-448.909	278.824	-0.096	0.170
-447.895	800.000	0.045	-0.147
-446.880	100.404	0.192	-0.221
-445.865	-200.000	0.033	-0.170
-444.851	-162.731	-0.151	-0.007
-443.836	800.000	-0.067	0.217
-442.822	607.469	-0.104	-0.258
-441.807	-200.000	0.052	0.332
-440.792	-103.027	0.157	-0.037
-439.778	-174.347	0.155	-0.004
-438.763	488.941	0.196	0.445
-437.749	-86.263	0.188	-0.058
-436.734	-200.000	0.047	0.206
-435.719	461.500	0.050	-0.110
-434.705	28.357	-0.039	-0.033
-433.690	-33.397	-0.164	-0.090
-432.676	2.763	-0.195	-0.141
-431.661	128.562	0.093	0.118
-430.646	408.552	-0.021	0.043
-429.632	-169.449	-0.260	0.009
-428.617	-18.057	-0.194	-0.121
-427.603	800.000	-0.063	0.237
-426.588	63.868	-0.201	0.201
-425.573	570.239	0.101	0.243
-424.559	106.010	-0.316	0.372
-423.544	11.719	-0.274	0.209
-422.530	216.577	0.097	-0.153
-421.515	-51.703	0.246	-0.114
-420.500	-62.076	-0.024	0.010
-419.486	-168.353	-0.128	-0.005
-418.471	102.994	0.315	0.367
-417.457	608.135	0.090	0.224
-416.442	-48.660	-0.130	-0.062
-415.428	-200.000	-0.075	-0.394
-414.413	-92.614	0.067	0.019
-413.398	800.000	-0.116	0.414
-412.384	-136.211	0.205	0.024
-411.369	257.157	0.064	-0.109
-410.355	375.883	0.199	-0.403
-409.340	-200.000	0.041	-0.179
-408.325	-200.000	0.005	0.379
-407.311	800.000	0.157	0.436
-406.296	-62.343	0.212	-0.088
-405.282	-147.184	-0.525	0.044
-404.267	769.602	0.046	-0.125
-403.252	339.330	-0.170	0.329
-402.238	162.034	0.196	0.272
-401.223	-200.000	0.040	0.230
-400.209	-4.757	0.050	0.034
-399.194	147.202	0.111	0.148
-398.179	-89.146	0.324	-0.095
-397.165	-52.765	-0.338	-0.155
-396.150	396.496	-0.015	-0.032
-395.136	697.421	-0.101	-0.264
-394.121	800.000	-0.008	-0.031
-393.106	-56.871	-0.323	-0.142
-392.092	-26.166	-0.114	-0.067
-391.077	-200.000	0.026	-0.389
-390.063	-67.904	-0.261	-0.101
-389.048	70.262	-0.057	0.059
-388.033	-12.988	-0.147	0.095
-387.019	133.315	-0.222	0.284
-386.004	-200.000	0.029	0.127
-384.990	-200.000	0.024	0.296
-383.975	-200.000	-0.004	-0.049
-382.960	-200.000	0.022	0.107
-381.946	394.940	0.066	0.137
-380.931	37.125	-0.109	0.095
-379.917	-91.402	0.279	-0.079
-378.902	-113.162	-0.201	0.039
-377.888	-200.000	-0.003	0.387
-376.873	3.435	0.205	0.148
-375.858	170.916	-0.216	-0.307
-374.844	-84.403	0.100	0.031
-373.829	326.266	-0.108	-0.204
-372.815	-86.212	0.094	-0.029
-371.800	436.190	-0.075	-0.163
-370.785	-200.000	0.034	0.197
-369.771	-134.547	-0.313	-0.038
-368.756	-111.948	-0.191	-0.038
-367.742	205.659	0.092	0.141
-366.727	-100.548	-0.287	-0.070
-365.712	-170.056	0.078	-0.003
-364.698	86.363	-0.201	0.220
-363.683	800.000	0.018	0.077
-362.669	-85.620	0.090	0.028
-361.654	-58.727	-0.074	0.032
-360.639	-200.000	-0.057	0.282
-359.625	334.806	0.084	0.162
-358.610	-121.218	0.161	-0.027
-357.596	-80.606	0.075	-0.025
-356.581	-73.844	0.200	-0.072
-355.566	142.403	0.225	0.296
-354.552	-48.239	0.311	0.149
-353.537	58.520	0.218	-0.212
-352.523	-81.227	0.092	-0.030
-351.508	-21.479	-0.226	0.137
-350.493	800.000	0.032	0.131
-349.479	132.949	-0.295	-0.377
-348.464	800.000	0.096	-0.312
-347.450	-80.350	-0.272	0.090
-346.435	150.409	0.089	-0.120
-345.420	59.802	0.259	0.253
-344.406	-85.281	-0.209	0.065
-343.391	242.455	0.056	-0.093
-342.377	-34.248	-0.279	-0.152
-341.362	-75.560	0.150	0.053
-340.348	-200.000	-0.034	-0.449
-339.333	389.186	0.123	-0.252
-338.318	185.442	-0.107	-0.158
-337.304	-53.369	0.179	-0.081
-336.289	-200.000	0.008	-0.343
-335.275	250.374	0.159	0.268
-334.260	800.000	0.049	0.209
-333.245	800.000	-0.060	0.185
-332.231	16.132	0.230	-0.180
-331.216	-118.767	-0.324	-0.057
-330.202	-200.000	-0.046	0.259
-329.187	-200.000	0.009	-0.194
-328.172	-200.000	0.006	0.391
-327.158	-77.071	0.336	0.116
-326.143	197.133	0.153	0.231
-325.129	109.530	0.044	0.052
-324.114	-107.091	0.287	0.063
-323.099	-31.061	-0.019	0.010
-322.085	-131.577	-0.180	-0.023
-321.070	-166.579	0.254	-0.010
-320.056	-113.132	-0.132	0.026
-319.041	-39.799	0.365	-0.189
-318.026	-123.053	-0.166	0.026
-317.012	455.994	-0.028	0.061
-315.997	-121.619	0.392	-0.064
-314.983	-200.000	-0.019	0.381
-313.968	-76.474	0.312	0.108
-312.953	-147.749	-0.205	-0.017
-311.939	800.000	0.029	-0.108
-310.924	6.561	-0.196	-0.144
-309.910	145.547	0.174	0.231
-308.895	43.141	-0.321	0.290
-307.880	11.332	0.186	0.141
-306.866	23.715	-0.166	0.135
-305.851	2.971	0.116	0.083
-304.837	-111.183	0.208	-0.042
-303.822	-200.000	-0.010	0.276
-302.807	-74.426	-0.106	0.038
-301.793	6.478	0.303	-0.222
-300.778	-57.988	0.092	0.040
-299.764	-72.923	-0.167	-0.061
-298.749	-200.000	-0.045	-0.407
-297.735	-200.000	-0.020	0.159
-296.720	-200.000	0.000	0.005
-295.705	568.756	-0.038	0.091
-294.691	764.585	0.040	0.108
-293.676	-99.101	0.188	-0.047
-292.662	-173.055	0.308	0.009
-291.647	-106.430	0.183	-0.040
-290.632	-200.000	0.018	-0.287
-289.618	261.670	0.177	0.303
-288.603	-15.926	0.174	-0.109
-287.589	-136.334	0.123	0.014
-286.574	746.826	-0.091	0.242
-285.559	134.915	0.071	0.091
-284.545	156.973	-0.042	-0.057
-283.530	24.822	-0.118	-0.097
-282.516	-60.021	0.286	-0.121
-281.501	-12.320	0.183	0.118
-280.486	146.035	-0.136	0.180
-279.472	-34.126	-0.201	0.109
-278.457	460.937	0.062	-0.137
-277.443	653.068	-0.108	0.273
-276.428	117.195	-0.098	0.119
-275.413	-93.234	0.134	-0.037
-274.399	238.678	-0.152	0.250
-273.384	-200.000	-0.070	0.368
-272.370	82.499	0.095	0.102
-271.355	473.433	-0.089	0.199
-270.340	800.000	0.129	-0.390
-269.326	800.000	0.032	0.088
-268.311	-200.000	-0.043	-0.297
-267.297	111.554	-0.137	-0.163
-266.282	-200.000	-0.011	-0.121
-265.267	-200.000	-0.008	0.289
-264.253	422.401	-0.093	0.197
-263.238	800.000	-0.074	0.213
-262.224	7.595	-0.193	-0.143
-261.209	-200.000	0.013	0.155
-260.195	800.000	-0.008	-0.024
-259.180	-200.000	-0.010	-0.164
-258.165	541.212	-0.071	-0.167
-257.151	26.528	-0.112	0.092
-256.136	124.973	-0.145	0.180
-255.122	631.609	0.092	0.229
-254.107	-0.480	-0.010	0.007
-253.092	-200.000	0.003	-0.109
-252.078	-3.703	-0.241	-0.165
-251.063	-200.000	-0.017	0.100
-250.049	368.291	-0.079	0.159
-249.034	800.000	0.029	-0.085
-248.019	-74.953	0.283	0.100
-247.005	-90.507	0.131	-0.038
-245.990	-200.000	0.052	-0.353
-244.976	800.000	-0.114	0.366
-243.961	101.549	-0.108	-0.125
-242.946	-41.147	0.108	-0.055
-241.932	-62.329	0.365	-0.150
-240.917	800.000	0.079	-0.337
-239.903	-152.362	-0.177	-0.013
-238.888	9.527	-0.043	-0.032
-237.873	51.944	0.058	0.054
-236.859	-43.937	-0.119	0.059
-235.844	653.004	0.024	-0.060
-234.830	-174.287	0.244	0.007
-233.815	31.651	-0.116	-0.098
-232.800	800.000	-0.031	0.121
-231.786	-32.383	0.060	0.033
-230.771	58.718	0.089	0.087
-229.757	800.000	0.075	-0.254
-228.742	-146.734	0.237	-0.020
-227.727	41.163	0.067	-0.060
-226.713	155.536	-0.222	0.302
-225.698	-158.991	-0.304	-0.017
-224.684	-200.000	0.000	-0.019
-223.669	-145.564	-0.405	0.036
-222.655	800.000	0.160	0.528
-221.640	307.871	0.134	0.246
-220.625	164.006	-0.148	0.206
-219.611	71.811	-0.097	0.100
-218.596	120.408	0.019	0.023
-217.582	-33.354	0.334	-0.182
-216.567	30.613	0.171	0.144
-215.552	-200.000	-0.040	0.217
-214.538	320.705	-0.009	-0.016
-213.523	781.877	0.070	0.189
-212.509	-67.246	0.164	-0.063
-211.494	800.000	-0.068	0.228
-210.479	-200.000	-0.048	-0.279
-209.465	-200.000	0.006	0.105
-208.450	800.000	0.106	-0.291
-207.436	-101.208	0.149	0.036
-206.421	-200.000	-0.001	0.108
-205.406	-26.957	-0.266	-0.153
-204.392	-116.442	-0.609	0.111
-203.377	286.446	0.107	0.190
-202.363	-111.449	-0.199	-0.040
-201.348	80.630	-0.208	0.221
-200.333	-93.783	-0.241	-0.065
-199.319	-156.535	0.125	-0.008
-198.304	-89.816	-0.088	0.025
-197.290	800.000	0.055	0.171
-196.275	356.323	-0.080	0.157
-195.260	-27.448	-0.092	-0.053
-194.246	-200.000	0.033	-0.153
-193.231	-112.015	0.150	0.030
-192.217	-200.000	-0.008	0.053
-191.202	-200.000	0.024	0.317
-190.187	800.000	0.027	0.091
-189.173	-200.000	0.017	-0.094
-188.158	800.000	0.051	0.152
-187.144	476.513	0.069	0.154
-186.129	-8.871	-0.116	-0.077
-185.114	-51.879	0.149	0.068
-184.100	84.247	-0.093	0.100
-183.085	-64.796	0.143	0.057
-182.071	76.207	0.247	0.258
-181.056	144.684	-0.215	0.282
-180.042	-165.911	0.446	0.019
-179.027	-66.221	-0.241	0.094
-178.012	30.002	0.175	0.147
-176.998	-152.652	-0.100	0.007
-175.983	91.052	-0.034	-0.038
-174.969	800.000	-0.065	-0.281
-173.954	93.736	-0.225	0.251
-172.939	100.217	0.090	-0.103
-171.925	85.634	-0.284	-0.307
-170.910	-53.536	-0.136	-0.061
-169.896	218.585	0.275	-0.432
-168.881	-33.104	0.212	0.115
-167.866	281.767	-0.145	-0.256
-166.852	-200.000	-0.022	-0.104
-165.837	-200.000	-0.049	0.267
-164.823	238.973	0.206	0.337
-163.808	-114.748	0.293	-0.055
-162.793	27.203	0.183	-0.151
-161.779	-200.000	0.017	-0.227
-160.764	-40.315	-0.198	0.101
-159.750	-64.410	-0.325	0.130
-158.735	2.602	0.180	0.128
-157.720	-75.855	0.437	0.152
-156.706	-200.000	0.022	0.139
-155.691	314.426	0.153	-0.284
-154.677	-200.000	0.018	0.157
-153.662	-17.310	-0.236	0.146
-152.647	17.636	0.154	0.120
-151.633	800.000	-0.085	-0.248
-150.618	42.483	-0.259	0.231
-149.604	-124.527	-0.285	0.044
-148.589	26.506	-0.062	0.051
-147.574	-200.000	0.055	0.284
-146.560	-95.414	-0.107	0.028
-145.545	88.060	0.263	-0.287
-144.531	800.000	-0.010	-0.036
-143.516	-35.105	0.220	-0.118
-142.502	-107.944	0.137	0.029
-141.487	-56.978	0.097	-0.042
-140.472	19.690	0.200	0.158
-139.458	800.000	-0.033	0.104
-138.443	-45.763	-0.050	-0.024
-137.429	367.661	-0.101	-0.201
-136.414	-107.085	0.163	0.035
-135.399	588.279	-0.102	0.247
-134.385	63.043	-0.160	-0.157
-133.370	-19.134	-0.256	0.156
-132.356	743.455	0.080	-0.211
-131.341	-36.703	-0.279	0.147
-130.326	37.909	-0.198	0.173
-129.312	-109.575	-0.121	0.025
-128.297	156.021	-0.078	0.106
-127.283	-200.000	0.054	0.237
-126.268	800.000	-0.030	-0.114
-125.253	83.741	0.096	-0.103
-124.239	-164.957	-0.221	0.010
-123.224	379.402	-0.085	-0.171
-122.210	615.035	0.093	0.230
-121.195	-91.629	0.200	0.056
