DTS Sentinel unit serial number:	SN413079Multiplexer serial number:	ORYXHardware model number:	OX4-SRSoftware version number:	ORYX F/W v4.00 Oryx Data Collector v3.7.2.0data status	okinstallation	princeton_trtdifferential loss correction	single-endedforward channel	channel 4reverse channel	N/Adate	2019/09/12time	19:56:19forward acquisition time	15.00reverse acquisition time	0.00gamma	496.2192k internal	0.2310k external	0.2310temperature offset calibration	1.0158default loss term (dB/km)	0.3790temperature slope calibration	1.0000multiplexer offset coefficient	1.0000multiplexer slope coefficient	1.0000fibre end	0.00T internal ref (°C)	31.81T ext. ref 1 (°C)	3.37T ext. ref 2 (°C)	26.32length (m)	temperature (°C)	Stokes	anti-Stokes-747.200	30.101	-0.643	0.557
-746.185	526.012	0.455	1.088
-745.171	371.138	-0.140	0.289
-744.156	187.509	0.488	0.739
-743.142	216.159	-0.206	-0.332
-742.127	193.464	0.296	0.454
-741.112	-200.000	-0.038	-0.471
-740.098	-200.000	0.002	0.155
-739.083	-18.410	0.399	0.253
-738.069	-4.412	0.505	0.355
-737.054	-200.000	-0.044	0.330
-736.039	-200.000	0.032	0.298
-735.025	480.818	0.129	0.297
-734.010	-129.033	-0.229	-0.033
-732.996	800.000	-0.061	-0.251
-731.981	-177.097	-0.411	-0.010
-730.966	83.193	0.392	0.433
-729.952	800.000	0.224	0.690
-728.937	-19.356	-0.718	-0.452
-727.923	-2.422	0.293	0.209
-726.908	-44.888	-0.275	0.139
-725.894	-15.301	-0.668	0.434
-724.879	-77.219	0.537	-0.190
-723.864	-80.521	-0.306	0.104
-722.850	-200.000	-0.010	0.332
-721.835	3.371	0.176	0.130
-720.821	37.937	-0.360	-0.325
-719.806	-4.342	0.301	-0.212
-718.791	-71.878	-0.359	-0.136
-717.777	-39.157	-0.796	0.424
-716.762	-110.424	0.364	0.077
-715.748	259.115	-0.300	0.525
-714.733	-75.975	-0.659	0.236
-713.718	-91.969	0.846	-0.243
-712.704	-18.022	-0.512	0.325
-711.689	-53.216	0.392	0.183
-710.675	-200.000	0.002	-0.567
-709.660	92.541	0.290	0.332
-708.645	-91.647	-0.216	-0.062
-707.631	394.520	0.135	0.286
-706.616	113.724	-0.443	-0.546
-705.602	-166.962	-0.539	0.022
-704.587	-35.152	-0.427	-0.236
-703.572	239.392	-0.489	0.826
-702.558	-111.107	-0.811	0.168
-701.543	-200.000	0.088	0.470
-700.529	314.204	-0.427	0.815
-699.514	-200.000	0.043	1.293
-698.499	1.406	0.932	0.680
-697.485	7.729	-0.279	0.212
-696.470	-55.037	0.709	-0.324
-695.456	360.555	-0.294	0.596
-694.441	-127.888	-0.640	-0.093
-693.426	-30.735	0.353	-0.202
-692.412	-200.000	-0.023	-0.968
-691.397	800.000	-0.157	0.522
-690.383	-145.300	-0.261	-0.024
-689.368	-45.231	0.472	-0.238
-688.354	-58.199	0.302	0.133
-687.339	86.869	0.342	-0.383
-686.324	19.416	0.554	-0.451
-685.310	-94.612	0.274	0.076
-684.295	800.000	-0.095	-0.267
-683.281	-82.855	-0.528	-0.173
-682.266	77.997	-0.598	0.647
-681.251	505.858	-0.213	-0.501
-680.237	-92.876	-0.411	-0.116
-679.222	-147.505	-0.300	0.026
-678.208	68.584	-0.155	-0.161
-677.193	12.862	0.161	0.126
-676.178	312.595	0.238	0.454
-675.164	-65.461	0.331	0.135
-674.149	53.914	0.824	-0.802
-673.135	337.886	0.126	-0.249
-672.120	-104.526	0.974	-0.228
-671.105	800.000	-0.259	0.749
-670.091	36.281	0.292	-0.260
-669.076	-122.309	0.473	-0.078
-668.062	438.450	-0.467	1.032
-667.047	-200.000	-0.047	-0.490
-666.032	-140.401	0.202	0.021
-665.018	-94.250	1.103	-0.306
-664.003	-79.972	-0.598	0.203
-662.989	-32.022	-0.485	-0.275
-661.974	800.000	-0.258	0.836
-660.959	643.725	-0.028	0.072
-659.945	28.079	-0.556	0.475
-658.930	-167.577	0.425	-0.017
-657.916	92.550	-0.823	-0.940
-656.901	-145.934	-0.527	-0.047
-655.886	-200.000	0.079	0.809
-654.872	615.864	-0.022	-0.055
-653.857	-200.000	-0.073	0.341
-652.843	-200.000	0.009	0.432
-651.828	-21.247	-0.260	-0.161
-650.814	-73.784	0.634	0.233
-649.799	-200.000	0.012	0.185
-648.784	-45.178	-0.099	-0.050
-647.770	-3.314	-0.876	0.618
-646.755	-98.656	0.506	0.131
-645.741	700.349	0.245	0.651
-644.726	-200.000	-0.261	-1.243
-643.711	292.394	-0.107	-0.197
-642.697	-200.000	0.010	0.409
-641.682	-200.000	-0.016	-0.915
-640.668	194.908	0.434	-0.666
-639.653	-200.000	-0.198	-0.946
-638.638	800.000	-0.186	0.803
-637.624	-200.000	-0.248	1.223
-636.609	-200.000	0.064	-0.314
-635.595	-114.417	-0.358	-0.070
-634.580	-125.850	0.305	-0.047
-633.565	-121.206	-0.739	-0.125
-632.551	2.410	-0.510	0.373
-631.536	513.262	0.012	0.028
-630.522	-200.000	0.027	-0.315
-629.507	2.478	-0.285	-0.209
-628.492	-200.000	0.082	0.417
-627.478	76.924	-0.516	0.553
-626.463	209.801	0.184	-0.292
-625.449	-105.583	0.503	-0.115
-624.434	-70.705	-0.860	-0.329
-623.419	-200.000	0.102	0.670
-622.405	53.386	-0.658	-0.637
-621.390	31.833	0.606	-0.527
-620.376	314.783	0.183	-0.348
-619.361	779.796	-0.244	0.673
-618.346	13.090	-0.492	0.385
-617.332	-41.980	0.601	-0.311
-616.317	80.374	-0.329	-0.358
-615.303	64.047	0.312	0.317
-614.288	53.699	0.189	0.183
-613.273	800.000	-0.024	-0.088
-612.259	-37.954	0.407	0.219
-611.244	800.000	-0.072	-0.219
-610.230	147.931	0.178	0.242
-609.215	-53.953	-0.441	0.203
-608.201	-15.903	0.081	-0.052
-607.186	-68.321	0.187	-0.074
-606.171	82.935	-0.510	0.561
-605.157	198.884	-0.118	-0.183
-604.142	169.999	-0.224	-0.323
-603.128	8.176	0.291	-0.221
-602.113	-112.210	-0.723	-0.147
-601.098	400.651	0.097	-0.206
-600.084	800.000	0.100	-0.344
-599.069	-57.568	0.529	-0.234
-598.055	143.540	0.489	0.658
-597.040	109.827	-0.484	0.586
-596.025	177.891	-0.681	-1.002
-595.011	128.234	0.351	-0.451
-593.996	-200.000	0.007	-0.732
-592.982	800.000	-0.180	-0.579
-591.967	-200.000	-0.164	-0.788
-590.952	325.313	-0.477	-0.921
-589.938	-81.510	-0.184	0.061
-588.923	-150.720	0.551	0.042
-587.909	-23.303	0.106	0.065
-586.894	54.860	0.276	-0.268
-585.879	245.499	0.154	-0.262
-584.865	-67.776	-0.061	-0.024
-583.850	528.712	-0.288	0.685
-582.836	-22.542	-0.850	-0.519
-581.821	-44.911	0.296	0.149
-580.806	-106.240	0.784	-0.177
-579.792	47.047	-0.427	-0.401
-578.777	800.000	-0.101	-0.390
-577.763	800.000	-0.152	0.616
-576.748	-200.000	0.069	-0.310
-575.733	511.176	-0.195	0.458
-574.719	800.000	0.100	-0.407
-573.704	0.684	-0.055	0.040
-572.690	800.000	0.255	-1.058
-571.675	-24.823	0.479	0.287
-570.661	199.476	0.335	-0.517
-569.646	-200.000	-0.001	-0.522
-568.631	-45.980	-0.534	0.266
-567.617	279.097	0.298	-0.536
-566.602	-9.789	-0.922	-0.619
-565.588	8.842	0.428	0.326
-564.573	-25.240	0.196	-0.117
-563.558	-110.971	0.256	-0.053
-562.544	-121.504	0.736	0.123
-561.529	-164.333	-0.194	-0.009
-560.515	-155.410	0.542	-0.035
-559.500	-119.210	-0.363	0.064
-558.485	-177.577	0.872	-0.021
-557.471	-200.000	-0.127	1.063
-556.456	-54.559	0.490	0.224
-555.442	-195.737	0.469	0.003
-554.427	-119.422	-0.230	-0.040
-553.412	-200.000	-0.262	1.240
-552.398	-94.973	-0.304	-0.083
-551.383	-122.680	-0.372	-0.061
-550.369	800.000	0.172	-0.744
-549.354	-200.000	0.075	-0.740
-548.339	135.022	-0.209	-0.274
-547.325	-30.619	0.682	0.389
-546.310	17.359	-0.567	-0.454
-545.296	800.000	-0.206	0.807
-544.281	-200.000	0.135	1.004
-543.266	146.098	-0.030	0.041
-542.252	-74.807	-0.231	-0.084
-541.237	123.867	0.559	0.708
-540.223	-200.000	-0.018	0.171
-539.208	-96.168	-0.485	0.130
-538.193	800.000	0.126	-0.373
-537.179	-73.336	0.636	0.234
-536.164	-132.313	-0.172	0.022
-535.150	-19.041	0.074	0.047
-534.135	6.325	0.600	-0.449
-533.121	-200.000	0.028	0.343
-532.106	-77.454	0.332	0.116
-531.091	-48.295	-0.985	-0.479
-530.077	8.887	0.290	0.221
-529.062	128.785	-0.354	-0.454
-528.048	-110.299	0.474	0.099
-527.033	-129.612	0.589	-0.082
-526.018	686.910	-0.335	0.882
-525.004	390.139	-0.442	-0.923
-523.989	282.103	-0.385	-0.696
-522.975	42.956	0.546	0.501
-521.960	7.278	-0.951	0.715
-520.945	568.055	-0.076	0.187
-519.931	139.745	0.508	-0.674
-518.916	-162.541	0.383	-0.019
-517.902	-151.648	0.319	0.024
-516.887	-75.568	-0.524	0.188
-515.872	-100.665	0.271	-0.067
-514.858	-107.122	0.502	0.111
-513.843	-200.000	-0.018	0.154
-512.829	-153.010	0.843	0.060
-511.814	65.232	0.177	0.181
-510.799	-29.340	-0.719	0.414
-509.785	-103.975	-0.592	0.139
-508.770	-1.557	0.260	-0.184
-507.756	249.415	-0.367	0.627
-506.741	142.278	0.632	0.844
-505.726	154.868	-0.189	0.261
-504.712	-32.244	0.521	-0.293
-503.697	-200.000	-0.168	-1.194
-502.683	196.842	-0.284	0.435
-501.668	-27.286	-0.207	0.121
-500.653	67.961	0.511	0.526
-499.639	236.251	0.525	0.874
-498.624	418.969	0.210	-0.452
-497.610	69.225	-0.818	-0.846
-496.595	-16.902	-0.314	0.199
-495.581	234.154	-0.293	-0.486
-494.566	250.987	-0.334	-0.571
-493.551	-138.216	-0.767	-0.086
-492.537	800.000	-0.379	-1.166
-491.522	-200.000	0.179	1.220
-490.508	115.951	-0.306	-0.377
-489.493	-42.718	-1.147	-0.587
-488.478	62.522	0.201	0.202
-487.464	-134.026	-0.471	0.059
-486.449	152.383	0.462	0.634
-485.435	123.966	0.269	0.339
-484.420	334.267	0.308	0.600
-483.405	-200.000	-0.143	-0.648
-482.391	-200.000	0.086	-1.482
-481.376	-200.000	0.026	-0.187
-480.362	-64.642	0.226	-0.092
-479.347	-133.834	-0.240	0.030
-478.332	-100.850	-0.108	0.027
-477.318	-31.259	-0.643	0.364
-476.303	800.000	-0.061	-0.180
-475.289	-154.179	-0.599	-0.041
-474.274	-74.915	0.672	-0.242
-473.259	-91.762	-0.143	0.041
-472.245	-200.000	-0.118	-1.303
-471.230	-200.000	-0.054	-0.444
-470.216	29.066	0.321	-0.274
-469.201	202.221	-0.796	1.234
-468.186	-57.801	-0.390	-0.172
-467.172	-72.879	0.469	-0.173
-466.157	-162.825	0.163	-0.008
-465.143	-105.575	-0.405	-0.092
-464.128	-85.659	0.758	-0.237
-463.113	94.242	-0.396	-0.452
-462.099	-90.865	0.234	0.068
-461.084	-93.945	-0.332	-0.092
-460.070	-159.615	-0.340	0.019
-459.055	-167.073	0.649	-0.027
-458.040	7.028	0.510	-0.382
-457.026	-188.062	0.232	-0.003
-456.011	-28.356	-0.336	0.195
-454.997	-33.509	0.348	-0.193
-453.982	-65.235	0.523	-0.212
-452.968	800.000	-0.056	0.178
-451.953	23.763	0.534	-0.442
-450.938	-200.000	0.019	0.476
-449.924	800.000	0.206	-0.873
-448.909	-4.165	0.148	0.103
-447.895	-200.000	0.095	-0.993
-446.880	-200.000	0.018	0.330
-445.865	800.000	-0.087	0.243
-444.851	-125.446	0.804	-0.123
-443.836	800.000	-0.234	-0.673
-442.822	216.294	-0.468	-0.747
-441.807	-200.000	-0.006	-0.592
-440.792	-72.452	0.695	-0.258
-439.778	-129.331	-0.840	-0.117
-438.763	-200.000	-0.036	1.263
-437.749	125.313	0.275	0.347
-436.734	-81.348	-0.373	0.123
-435.719	40.667	0.443	0.400
-434.705	800.000	0.032	-0.138
-433.690	62.052	0.603	0.603
-432.676	-161.637	-0.489	-0.025
-431.661	-122.841	-0.283	-0.046
-430.646	-200.000	0.135	1.060
-429.632	-90.280	0.646	0.188
-428.617	-98.343	0.336	-0.086
-427.603	428.257	-0.250	-0.542
-426.588	75.019	0.194	-0.205
-425.573	-200.000	0.011	0.285
-424.559	-86.772	0.343	0.105
-423.544	43.631	-0.155	0.142
-422.530	-200.000	-0.067	0.450
-421.515	325.785	0.288	0.552
-420.500	488.464	-0.174	0.399
-419.486	-60.731	-0.070	0.030
-418.471	-171.682	0.568	0.019
-417.457	337.648	0.594	-1.158
-416.442	-149.412	0.531	0.042
-415.428	33.648	0.310	0.270
-414.413	435.225	-0.104	0.226
-413.398	800.000	-0.075	-0.214
-412.384	253.845	0.337	0.577
-411.369	-200.000	0.023	0.179
-410.355	-75.239	0.578	-0.207
-409.340	-160.492	-0.856	-0.046
-408.325	800.000	-0.279	0.865
-407.311	-200.000	0.107	-0.596
-406.296	-48.683	-0.661	0.318
-405.282	-113.965	-0.425	-0.083
-404.267	-175.226	-0.085	0.002
-403.252	162.285	0.448	0.629
-402.238	-80.816	-1.009	0.336
-401.223	-3.285	-1.106	-0.772
-400.209	22.277	-0.286	-0.234
-399.194	246.250	0.366	0.619
-398.179	-58.751	-0.443	0.192
-397.165	-200.000	0.006	0.199
-396.150	-114.346	0.585	-0.113
-395.136	11.625	-0.610	-0.469
-394.121	800.000	-0.180	-0.728
-393.106	751.385	0.256	0.692
-392.092	600.421	0.115	-0.286
-391.077	-200.000	0.089	-0.467
-390.063	9.657	0.453	0.344
-389.048	67.227	0.309	0.316
-388.033	-95.567	-0.478	0.128
-387.019	199.404	0.684	-1.050
-386.004	-154.924	-0.543	0.036
-384.990	494.994	0.188	-0.432
-383.975	-200.000	-0.000	0.102
-382.960	-152.215	0.598	-0.043
-381.946	-89.742	-0.548	-0.161
-380.931	98.444	0.118	-0.136
-379.917	31.434	0.502	-0.432
-378.902	95.444	-0.183	-0.209
-377.888	-200.000	0.011	0.768
-376.873	605.880	0.157	0.392
-375.858	-200.000	-0.112	0.493
-374.844	-56.967	-0.263	0.116
-373.829	-90.927	0.541	0.156
-372.815	-79.572	-0.665	0.225
-371.800	65.790	0.532	0.540
-370.785	-200.000	-0.051	0.433
-369.771	431.956	-0.246	0.534
-368.756	800.000	-0.199	-0.612
-367.742	156.384	-0.136	0.188
-366.727	800.000	0.064	0.248
-365.712	-100.639	-0.368	-0.091
-364.698	-40.080	0.919	0.480
-363.683	-103.653	-0.709	0.166
-362.669	90.107	-0.278	-0.310
-361.654	800.000	0.083	-0.275
-360.639	15.664	-0.341	-0.268
-359.625	-77.275	0.284	-0.099
-358.610	621.767	-0.071	0.180
-357.596	385.347	0.283	-0.584
-356.581	142.217	0.196	0.261
-355.566	-200.000	-0.001	-0.563
-354.552	67.823	0.371	-0.380
-353.537	18.777	0.357	0.286
-352.523	-12.682	-0.890	-0.581
-351.508	263.577	0.428	-0.744
-350.493	709.602	0.221	-0.585
-349.479	800.000	0.212	-0.713
-348.464	112.723	-0.063	-0.076
-347.450	-86.414	-0.294	0.090
-346.435	66.827	-0.706	0.718
-345.420	800.000	-0.139	0.428
-344.406	-115.151	0.602	-0.114
-343.391	28.443	-0.277	0.234
-342.377	-200.000	0.119	-0.624
-341.362	-200.000	0.184	-0.956
-340.348	-112.555	0.945	-0.188
-339.333	-85.509	0.304	0.094
-338.318	-200.000	0.059	0.732
-337.304	-126.500	-0.561	-0.083
-336.289	-200.000	0.051	-0.664
-335.275	-64.495	0.716	-0.291
-334.260	536.062	0.137	0.324
-333.245	253.507	-0.280	0.478
-332.231	360.250	-0.592	1.184
-331.216	-200.000	-0.083	0.451
-330.202	149.897	-0.078	0.105
-329.187	-4.170	-0.094	0.065
-328.172	-133.041	1.136	0.144
-327.158	-75.822	0.938	0.332
-326.143	312.995	0.179	-0.335
-325.129	-19.521	-0.139	0.086
-324.114	312.452	0.418	0.783
-323.099	33.633	0.063	0.055
-322.085	-55.118	0.161	0.072
-321.070	136.543	-0.195	-0.255
-320.056	-4.583	0.272	-0.187
-319.041	-192.120	0.150	-0.001
-318.026	118.619	0.106	-0.131
-317.012	101.034	0.133	0.155
-315.997	-200.000	-0.028	0.460
-314.983	800.000	0.236	-0.680
-313.968	293.916	-0.128	-0.233
-312.953	-103.898	0.211	-0.049
-311.939	38.673	0.303	0.270
-310.924	69.252	0.341	0.350
-309.910	-68.931	-0.270	-0.104
-308.895	-137.016	0.382	-0.044
-307.880	-178.861	0.274	0.006
-306.866	-200.000	-0.049	-0.411
-305.851	244.355	-0.230	-0.385
-304.837	-131.058	-0.562	-0.075
-303.822	332.862	-0.293	0.566
-302.807	309.713	0.283	0.529
-301.793	294.327	0.414	0.754
-300.778	-48.419	0.045	-0.022
-299.764	-99.285	-0.669	-0.169
-298.749	-200.000	-0.088	0.392
-297.735	74.836	0.337	-0.354
-296.720	195.416	-0.115	0.174
-295.705	383.851	-0.104	0.213
-294.691	287.497	0.055	-0.100
-293.676	-42.896	-0.623	0.316
-292.662	800.000	-0.106	0.437
-291.647	-57.163	-1.144	0.503
-290.632	-136.842	0.595	-0.068
-289.618	538.116	0.111	0.263
-288.603	46.089	0.428	0.395
-287.589	-174.068	-0.567	-0.017
-286.574	-200.000	-0.109	-1.104
-285.559	-129.440	-0.922	0.128
-284.545	179.429	0.096	0.140
-283.530	392.877	-0.356	0.739
-282.516	-145.275	0.704	0.064
-281.501	-35.699	-0.693	-0.375
-280.486	-200.000	0.319	-1.572
-279.472	-91.991	-0.314	0.089
-278.457	-125.851	1.084	-0.163
-277.443	800.000	-0.128	-0.357
-276.428	-106.626	-0.301	0.067
-275.413	-200.000	-0.179	0.839
-274.399	4.494	0.496	0.363
-273.384	-200.000	0.045	0.437
-272.370	-45.485	0.258	-0.128
-271.355	-101.145	0.497	-0.121
-270.340	756.942	-0.052	0.140
-269.326	0.956	-0.188	0.135
-268.311	82.219	-0.103	-0.112
-267.297	-47.666	-0.023	0.011
-266.282	188.228	0.418	0.623
-265.267	-67.174	-0.407	-0.160
-264.253	-60.811	0.670	-0.283
-263.238	88.288	0.539	-0.596
-262.224	-200.000	0.000	-0.042
-261.209	-57.761	1.024	0.447
-260.195	32.694	0.230	0.198
-259.180	-79.129	0.739	-0.250
-258.165	12.219	-0.825	0.633
-257.151	29.282	0.358	0.303
-256.136	-200.000	-0.676	-0.001
-255.122	800.000	-0.303	1.215
-254.107	-200.000	0.018	0.282
-253.092	-66.298	1.051	0.417
-252.078	-200.000	0.115	0.626
-251.063	-8.800	0.339	-0.227
-250.049	-125.773	0.263	0.040
-249.034	439.241	-0.217	0.472
-248.019	-200.000	0.030	0.607
-247.005	201.480	0.473	0.725
-245.990	-79.594	-0.541	0.182
-244.976	-200.000	-0.109	-1.186
-243.961	33.651	0.361	0.313
-242.946	-24.182	0.530	0.315
-241.932	-42.415	-0.104	-0.053
-240.917	-200.000	-0.035	0.353
-239.903	11.043	0.846	0.644
-238.888	661.594	-0.234	0.601
-237.873	-200.000	-0.051	-0.278
-236.859	346.150	0.169	-0.331
-235.844	5.717	0.843	0.621
-234.830	-17.799	-0.230	-0.144
-233.815	438.289	-0.332	-0.721
-232.800	28.968	0.104	-0.088
-231.786	-200.000	0.046	-0.360
-230.771	226.507	-0.244	-0.395
-229.757	-117.375	-0.289	0.052
-228.742	-200.000	-0.007	0.063
-227.727	189.648	-0.564	-0.841
-226.713	800.000	-0.030	-0.091
-225.698	91.274	-0.321	0.358
-224.684	188.700	-0.328	-0.488
-223.669	-97.707	-0.677	0.175
-222.655	49.933	0.239	-0.225
-221.640	800.000	-0.193	-0.680
-220.625	537.861	-0.265	0.626
-219.611	8.070	0.070	-0.052
-218.596	-103.782	-0.435	0.101
-217.582	-48.469	-0.541	-0.259
-216.567	-78.178	0.521	-0.178
-215.552	-27.566	-0.267	-0.154
-214.538	800.000	0.165	-0.588
-213.523	-200.000	-0.068	0.514
-212.509	-109.212	-1.055	-0.223
-211.494	108.564	-0.380	-0.452
-210.479	-48.930	-0.226	0.108
-209.465	-29.470	-0.417	-0.237
-208.450	36.802	0.229	-0.202
-207.436	-113.153	-0.481	-0.094
-206.421	-87.201	0.524	-0.158
-205.406	71.123	0.337	-0.348
-204.392	-133.279	-0.451	0.057
-203.377	-200.000	0.059	-0.261
-202.363	-82.733	-0.484	-0.156
-201.348	17.339	0.630	-0.497
-200.333	393.241	-0.303	0.626
-199.319	-31.792	-0.305	0.170
-198.304	-103.226	-0.589	-0.138
-197.290	-120.262	-0.521	0.088
-196.275	66.809	0.630	0.638
-195.260	-70.974	-0.295	-0.110
-194.246	59.147	-0.616	0.603
-193.231	50.089	0.228	0.214
-192.217	16.846	0.489	-0.385
-191.202	-61.031	-0.033	0.014
-190.187	-183.778	-0.856	-0.014
-189.173	-91.276	0.927	0.264
-188.158	146.736	0.570	0.761
-187.144	-93.143	0.451	0.125
-186.129	-8.969	-0.744	-0.495
-185.114	-200.000	-0.065	0.610
-184.100	-178.940	-0.042	-0.001
-183.085	-38.896	-0.563	0.295
-182.071	111.344	-0.283	0.339
-181.056	88.258	0.560	-0.617
-180.042	800.000	-0.329	-0.941
-179.027	515.412	-0.147	-0.342
-178.012	73.865	-0.235	-0.244
-176.998	800.000	0.115	0.385
-175.983	800.000	-0.053	-0.212
-174.969	800.000	-0.184	-0.610
-173.954	-146.963	0.231	-0.020
-172.939	385.372	0.055	0.112
-171.925	-187.225	-0.467	-0.006
-170.910	-200.000	-0.062	0.946
-169.896	-57.556	0.758	0.330
-168.881	381.468	0.113	-0.230
-167.866	-40.834	0.945	-0.486
-166.852	-84.232	0.856	0.269
-165.837	-150.589	-0.299	0.023
-164.823	314.313	0.206	0.386
-163.808	37.878	-0.574	0.507
-162.793	800.000	0.250	0.843
-161.779	15.082	0.139	0.108
-160.764	199.892	-0.583	-0.889
-159.750	-67.696	-0.287	0.111
-158.735	800.000	0.141	-0.425
-157.720	-168.236	-0.534	0.020
-156.706	-200.000	-0.052	-0.679
-155.691	241.510	0.151	-0.251
-154.677	147.647	-0.230	0.307
-153.662	800.000	-0.328	1.054
-152.647	-200.000	0.067	0.500
-151.633	-132.654	-0.515	0.065
-150.618	-86.258	-0.441	-0.135
-149.604	17.316	-0.277	0.218
-148.589	-62.915	-0.175	0.072
-147.574	-26.514	0.612	-0.356
-146.560	-64.526	-0.248	-0.100
-145.545	-200.000	-0.060	0.328
-144.531	-81.090	-0.111	0.036
-143.516	-143.934	-0.167	0.016
-142.502	800.000	-0.213	0.648
-141.487	-2.911	0.687	-0.476
-140.472	-109.488	-0.814	0.170
-139.458	-200.000	0.103	0.882
-138.443	-22.655	-0.316	0.190
-137.429	-200.000	0.071	-0.764
-136.414	-200.000	-0.026	0.245
-135.399	128.170	-0.424	-0.535
-134.385	-119.166	0.786	-0.136
-133.370	-56.751	0.333	-0.146
-132.356	445.293	-0.144	0.313
-131.341	416.531	-0.244	0.517
-130.326	800.000	-0.078	-0.245
-129.312	-98.883	0.126	-0.032
-128.297	241.492	0.292	-0.484
-127.283	136.179	0.148	0.192
-126.268	800.000	-0.234	0.967
-125.253	92.378	0.400	0.447
-124.239	9.372	0.670	-0.503
-123.224	-85.039	0.217	0.067
-122.210	-200.000	0.037	-0.206
-121.195	-85.478	-0.270	0.083
