DTS Sentinel unit serial number:	SN413079Multiplexer serial number:	ORYXHardware model number:	OX4-SRSoftware version number:	ORYX F/W v4.00 Oryx Data Collector v3.7.2.0data status	okinstallation	princeton_trtdifferential loss correction	single-endedforward channel	channel 4reverse channel	N/Adate	2019/09/16time	22:53:35forward acquisition time	60.00reverse acquisition time	0.00gamma	496.2192k internal	0.2313k external	0.2313temperature offset calibration	0.9978default loss term (dB/km)	0.3790temperature slope calibration	1.0000multiplexer offset coefficient	1.0000multiplexer slope coefficient	1.0000fibre end	0.00T internal ref (°C)	30.44T ext. ref 1 (°C)	0.10T ext. ref 2 (°C)	24.02length (m)	temperature (°C)	Stokes	anti-Stokes-747.200	-136.566	-0.066	0.008
-746.185	61.972	-0.034	-0.035
-745.171	-76.562	-0.219	-0.078
-744.156	-200.000	-0.015	0.216
-743.142	81.866	0.120	-0.131
-742.127	-44.840	-0.240	0.121
-741.112	78.338	-0.238	0.257
-740.098	4.951	-0.362	-0.270
-739.083	-33.882	0.151	0.084
-738.069	332.657	0.123	0.241
-737.054	-200.000	-0.014	0.264
-736.039	-200.000	-0.017	0.100
-735.025	-200.000	-0.026	0.600
-734.010	-81.560	-0.217	0.072
-732.996	532.593	-0.066	0.159
-731.981	-54.166	-0.181	0.083
-730.966	586.749	-0.022	0.055
-729.952	-173.411	-0.249	-0.008
-728.937	-200.000	0.028	-0.141
-727.923	-45.524	0.334	-0.168
-726.908	169.425	-0.191	-0.276
-725.894	-130.473	-0.104	-0.014
-724.879	-65.917	0.135	0.055
-723.864	12.490	-0.327	-0.256
-722.850	-200.000	0.027	-0.131
-721.835	19.888	-0.214	-0.174
-720.821	-74.714	-0.256	0.093
-719.806	544.969	-0.014	-0.034
-718.791	-42.676	0.132	0.068
-717.777	77.278	-0.139	0.150
-716.762	635.374	-0.038	0.097
-715.748	-54.618	-0.209	0.096
-714.733	-113.724	0.101	-0.020
-713.718	0.381	-0.190	0.138
-712.704	252.288	-0.095	-0.163
-711.689	288.966	-0.128	0.234
-710.675	44.400	-0.138	-0.129
-709.660	262.667	-0.082	-0.145
-708.645	-200.000	-0.008	0.042
-707.631	800.000	0.091	-0.375
-706.616	-84.106	-0.159	-0.051
-705.602	-30.720	0.103	-0.059
-704.587	132.790	0.021	0.028
-703.572	141.187	-0.150	-0.202
-702.558	-131.483	-0.394	0.053
-701.543	-122.856	0.059	-0.010
-700.529	361.421	-0.030	0.061
-699.514	800.000	-0.083	-0.244
-698.499	-139.435	-0.158	0.017
-697.485	-197.929	-0.257	0.002
-696.470	136.453	-0.084	0.111
-695.456	-200.000	-0.040	0.197
-694.441	-58.389	-0.240	-0.106
-693.426	-132.357	-0.225	-0.029
-692.412	-55.243	-0.156	0.071
-691.397	-46.383	-0.130	0.065
-690.383	-112.054	0.192	0.039
-689.368	-200.000	0.010	-0.320
-688.354	-200.000	0.057	0.279
-687.339	-200.000	-0.076	-0.366
-686.324	2.152	-0.141	-0.103
-685.310	800.000	0.045	-0.200
-684.295	472.951	-0.072	-0.163
-683.281	-200.000	0.009	-0.086
-682.266	-145.365	0.058	-0.005
-681.251	-106.561	0.151	0.034
-680.237	286.555	-0.108	-0.198
-679.222	-200.000	-0.015	-0.286
-678.208	626.954	0.040	0.101
-677.193	-169.254	0.196	0.007
-676.178	-127.495	-0.461	-0.068
-675.164	82.765	-0.174	0.191
-674.149	-51.337	-0.148	0.070
-673.135	-77.093	0.188	0.066
-672.120	-41.251	-0.108	-0.056
-671.105	180.098	0.055	0.082
-670.091	-62.427	-0.170	0.072
-669.076	-150.759	-0.230	-0.018
-668.062	106.908	0.054	-0.065
-667.047	800.000	-0.054	-0.237
-666.032	737.227	-0.054	-0.147
-665.018	-200.000	-0.005	0.071
-664.003	-67.022	-0.297	-0.119
-662.989	295.301	0.020	-0.038
-661.974	-62.777	0.377	-0.158
-660.959	-38.133	0.393	-0.211
-659.945	-93.179	0.169	-0.048
-658.930	75.337	-0.193	-0.206
-657.916	-141.940	0.015	-0.002
-656.901	237.716	0.123	-0.206
-655.886	-200.000	0.028	-0.131
-654.872	213.750	0.056	0.089
-653.857	800.000	0.026	0.101
-652.843	-95.850	-0.259	0.070
-651.828	-154.569	0.230	-0.015
-650.814	13.237	-0.097	-0.076
-649.799	141.615	0.086	-0.115
-648.784	247.221	-0.090	-0.153
-647.770	-119.369	0.098	-0.017
-646.755	-61.686	-0.228	-0.097
-645.741	403.539	-0.051	0.107
-644.726	32.539	0.358	-0.313
-643.711	59.925	0.112	-0.112
-642.697	-58.763	0.096	-0.042
-641.682	-2.226	-0.094	-0.066
-640.668	502.572	0.023	-0.054
-639.653	-75.312	0.204	0.073
-638.638	-200.000	-0.002	-0.154
-637.624	-172.240	-0.048	-0.002
-636.609	-200.000	-0.005	-0.317
-635.595	-51.382	0.257	0.121
-634.580	122.193	-0.250	0.315
-633.565	631.755	-0.039	0.101
-632.551	-153.115	0.189	-0.013
-631.536	-117.428	-0.172	-0.032
-630.522	-151.220	-0.307	-0.023
-629.507	27.670	-0.061	-0.052
-628.492	-39.125	-0.113	0.060
-627.478	54.995	0.147	-0.143
-626.463	7.411	0.193	-0.146
-625.449	-92.636	0.055	-0.015
-624.434	-110.130	-0.209	-0.044
-623.419	-133.461	0.209	0.026
-622.405	291.779	-0.224	-0.411
-621.390	3.102	-0.185	-0.136
-620.376	800.000	-0.042	-0.171
-619.361	71.268	0.187	-0.196
-618.346	346.565	0.096	-0.191
-617.332	208.063	0.178	-0.281
-616.317	-200.000	-0.040	-0.406
-615.303	18.525	-0.149	0.120
-614.288	800.000	-0.056	0.185
-613.273	-158.907	-0.110	0.006
-612.259	171.085	-0.026	0.038
-611.244	496.108	0.028	-0.066
-610.230	-63.318	0.169	-0.070
-609.215	139.318	0.061	0.081
-608.201	165.347	-0.207	0.295
-607.186	15.663	0.257	-0.204
-606.171	106.242	0.321	0.384
-605.157	74.709	0.129	0.137
-604.142	209.086	-0.158	-0.250
-603.128	86.384	-0.041	-0.045
-602.113	408.073	-0.153	0.327
-601.098	800.000	-0.030	0.124
-600.084	292.448	0.155	0.284
-599.069	216.266	0.104	0.166
-598.055	-54.882	0.135	0.061
-597.040	691.642	0.103	-0.272
-596.025	137.151	0.191	-0.251
-595.011	800.000	-0.082	-0.310
-593.996	54.220	0.107	0.104
-592.982	-200.000	0.010	0.061
-591.967	777.782	-0.071	0.196
-590.952	-71.257	-0.355	-0.134
-589.938	-200.000	0.004	-0.028
-588.923	800.000	-0.052	0.206
-587.909	330.093	-0.093	0.180
-586.894	139.752	-0.271	-0.360
-585.879	87.618	0.058	-0.065
-584.865	-200.000	0.177	-0.001
-583.850	-124.593	-0.341	0.053
-582.836	691.636	-0.107	0.282
-581.821	270.199	-0.043	0.076
-580.806	800.000	-0.023	0.096
-579.792	641.817	-0.020	-0.051
-578.777	-6.747	-0.253	-0.173
-577.763	-169.329	0.314	-0.012
-576.748	684.241	-0.089	0.233
-575.733	178.450	-0.116	0.170
-574.719	550.771	0.098	-0.238
-573.704	30.312	-0.102	0.088
-572.690	800.000	0.027	-0.108
-571.675	-113.363	0.138	-0.027
-570.661	-51.011	-0.225	0.107
-569.646	-200.000	0.008	0.156
-568.631	800.000	-0.086	-0.277
-567.617	340.552	-0.133	-0.261
-566.602	349.161	-0.074	-0.147
-565.588	-116.895	-0.259	-0.048
-564.573	-110.703	0.249	0.052
-563.558	-200.000	0.002	0.212
-562.544	30.140	-0.240	-0.206
-561.529	-43.168	0.245	-0.125
-560.515	-23.772	0.156	0.094
-559.500	-200.000	0.021	-0.428
-558.485	-91.437	-0.265	-0.076
-557.471	-200.000	0.015	0.103
-556.456	800.000	0.044	0.140
-555.442	-200.000	0.014	-0.272
-554.427	-45.818	-0.231	-0.115
-553.412	8.766	-0.244	0.185
-552.398	-66.990	0.045	0.018
-551.383	-200.000	-0.010	-0.187
-550.369	-133.406	-0.361	-0.046
-549.354	49.567	-0.239	0.227
-548.339	220.717	0.057	-0.091
-547.325	79.879	-0.143	-0.155
-546.310	-5.258	-0.170	-0.117
-545.296	551.931	0.046	0.111
-544.281	-107.532	-0.166	-0.037
-543.266	-11.958	0.177	0.116
-542.252	91.796	-0.304	-0.345
-541.237	187.582	-0.099	-0.148
-540.223	56.216	-0.164	0.160
-539.208	-40.103	-0.162	0.085
-538.193	124.077	-0.172	-0.217
-537.179	-94.629	-0.238	-0.065
-536.164	800.000	-0.058	0.226
-535.150	-44.510	-0.049	-0.025
-534.135	181.123	0.105	-0.155
-533.121	-96.370	-0.044	-0.012
-532.106	111.823	-0.155	-0.189
-531.091	-200.000	0.002	0.271
-530.077	-102.949	-0.101	-0.024
-529.062	-1.661	-0.351	0.249
-528.048	-40.385	-0.305	-0.160
-527.033	162.945	0.138	-0.195
-526.018	-54.730	0.460	-0.209
-525.004	-99.817	0.139	0.035
-523.989	1.953	0.087	0.063
-522.975	-30.992	-0.206	-0.117
-521.960	-183.829	-0.144	-0.002
-520.945	222.098	-0.094	0.151
-519.931	-93.772	-0.066	0.018
-518.916	-130.082	-0.298	-0.041
-517.902	-200.000	-0.046	-0.233
-516.887	-32.383	0.188	-0.105
-515.872	92.514	0.334	0.379
-514.858	-200.000	-0.002	0.206
-513.843	-200.000	0.004	0.081
-512.829	-96.837	0.143	0.038
-511.814	24.436	-0.007	-0.006
-510.799	-42.839	-0.140	0.072
-509.785	-200.000	-0.020	-0.118
-508.770	-98.433	0.020	0.005
-507.756	-200.000	0.029	-0.145
-506.741	-142.658	0.075	-0.007
-505.726	-5.355	-0.147	-0.102
-504.712	302.202	-0.170	0.316
-503.697	-137.878	0.163	0.018
-502.683	51.774	0.226	0.216
-501.668	-67.623	-0.236	-0.093
-500.653	-200.000	-0.003	0.268
-499.639	-69.387	0.624	-0.241
-498.624	11.043	0.117	0.089
-497.610	-200.000	0.001	-0.055
-496.595	40.398	0.163	0.147
-495.581	-200.000	-0.018	0.174
-494.566	63.742	0.244	0.247
-493.551	148.523	0.072	0.097
-492.537	690.759	0.110	0.289
-491.522	-70.722	0.490	0.186
-490.508	5.526	0.100	-0.074
-489.493	-58.341	-0.045	-0.020
-488.478	-200.000	0.007	-0.309
-487.464	142.829	0.295	-0.393
-486.449	546.861	0.104	0.250
-485.435	-44.751	-0.254	0.127
-484.420	-9.183	0.123	0.082
-483.405	121.050	0.012	0.015
-482.391	800.000	0.048	0.160
-481.376	-12.496	-0.162	0.106
-480.362	-108.451	0.159	-0.034
-479.347	-93.401	-0.340	0.094
-478.332	668.814	-0.049	0.127
-477.318	-29.132	0.144	-0.083
-476.303	119.924	-0.045	0.056
-475.289	502.779	-0.061	0.141
-474.274	-8.824	-0.037	-0.025
-473.259	-200.000	0.021	0.143
-472.245	-148.018	0.040	-0.003
-471.230	108.074	0.084	-0.101
-470.216	-13.144	0.170	-0.111
-469.201	172.357	0.086	-0.124
-468.186	58.098	0.254	-0.249
-467.172	-200.000	-0.028	0.181
-466.157	-31.379	0.056	-0.032
-465.143	-80.560	-0.097	0.033
-464.128	-123.215	-0.469	-0.075
-463.113	-78.431	0.168	0.058
-462.099	-110.907	0.258	0.053
-461.084	10.613	-0.371	0.284
-460.070	800.000	0.043	0.175
-459.055	-200.000	-0.047	0.561
-458.040	114.030	-0.253	-0.309
-457.026	-200.000	0.027	-0.155
-456.011	58.693	-0.103	0.102
-454.997	-31.849	0.272	0.153
-453.982	27.018	-0.414	0.348
-452.968	-82.201	-0.122	0.040
-451.953	-25.236	-0.086	0.051
-450.938	800.000	-0.097	-0.378
-449.924	-136.763	-0.141	-0.016
-448.909	154.427	-0.147	-0.202
-447.895	-51.431	0.447	0.210
-446.880	800.000	-0.167	0.553
-445.865	53.271	0.155	-0.149
-444.851	-200.000	0.028	-0.124
-443.836	-200.000	-0.007	0.029
-442.822	-115.782	-0.060	0.011
-441.807	315.785	0.060	0.114
-440.792	-200.000	0.016	0.081
-439.778	-200.000	-0.004	0.021
-438.763	179.983	-0.029	-0.043
-437.749	533.292	0.155	-0.368
-436.734	-105.481	-0.150	-0.034
-435.719	-90.074	-0.283	-0.082
-434.705	1.159	-0.076	0.055
-433.690	-97.359	-0.064	-0.017
-432.676	-109.782	0.167	-0.035
-431.661	473.426	0.163	0.368
-430.646	-200.000	-0.011	0.337
-429.632	-54.796	-0.213	-0.096
-428.617	-31.492	0.354	-0.200
-427.603	800.000	-0.016	0.057
-426.588	170.878	-0.166	0.238
-425.573	-79.416	0.294	-0.100
-424.559	-131.645	0.175	0.023
-423.544	-158.574	-0.019	-0.001
-422.530	-79.345	0.244	-0.083
-421.515	800.000	-0.048	0.186
-420.500	441.158	-0.126	-0.276
-419.486	168.657	0.117	0.167
-418.471	41.670	0.073	-0.066
-417.457	54.552	0.172	0.166
-416.442	-54.959	-0.117	-0.053
-415.428	-35.616	0.009	-0.005
-414.413	-107.005	0.113	0.025
-413.398	-61.771	0.335	0.140
-412.384	-200.000	-0.002	0.295
-411.369	-47.064	0.168	-0.082
-410.355	-200.000	0.030	-0.239
-409.340	-92.644	-0.473	0.133
-408.325	-53.418	0.394	0.181
-407.311	-101.356	0.496	-0.121
-406.296	608.712	0.163	-0.407
-405.282	800.000	0.024	0.065
-404.267	-48.380	0.420	0.203
-403.252	-18.547	-0.335	0.209
-402.238	-200.000	-0.003	0.096
-401.223	-200.000	-0.009	-0.085
-400.209	184.477	-0.283	0.420
-399.194	-200.000	0.007	0.107
-398.179	-150.041	-0.182	-0.014
-397.165	22.899	0.161	-0.132
-396.150	285.225	0.053	-0.096
-395.136	-128.076	0.252	-0.036
-394.121	202.793	0.092	0.143
-393.106	406.833	0.045	0.096
-392.092	-200.000	0.015	0.380
-391.077	-106.455	0.083	-0.019
-390.063	421.130	0.122	-0.262
-389.048	800.000	-0.063	-0.203
-388.033	73.338	-0.210	-0.220
-387.019	-100.120	0.147	0.037
-386.004	111.211	-0.043	-0.051
-384.990	-116.626	0.356	-0.066
-383.975	-161.840	0.150	0.008
-382.960	-144.164	-0.096	0.009
-381.946	-12.597	0.227	-0.148
-380.931	-68.836	0.333	-0.129
-379.917	-29.423	-0.114	-0.065
-378.902	59.103	-0.123	-0.121
-377.888	110.602	0.172	0.207
-376.873	178.388	0.169	-0.246
-375.858	-184.099	0.200	-0.003
-374.844	48.181	-0.329	-0.308
-373.829	8.221	-0.171	0.128
-372.815	237.399	0.115	0.190
-371.800	265.590	0.116	0.201
-370.785	-191.612	0.097	0.001
-369.771	72.134	0.305	-0.317
-368.756	-161.159	0.178	0.009
-367.742	800.000	0.043	-0.127
-366.727	334.702	-0.150	-0.291
-365.712	-118.743	0.400	-0.070
-364.698	140.373	0.066	0.087
-363.683	122.303	-0.166	0.208
-362.669	-73.364	0.216	-0.079
-361.654	-168.397	-0.373	0.014
-360.639	800.000	0.087	0.275
-359.625	800.000	-0.022	0.082
-358.610	91.771	0.136	0.153
-357.596	203.058	0.169	0.261
-356.581	-43.113	-0.395	-0.200
-355.566	169.293	0.029	-0.041
-354.552	-85.448	0.222	0.069
-353.537	-200.000	0.385	0.000
-352.523	-17.300	0.018	-0.011
-351.508	601.180	0.085	0.212
-350.493	112.485	-0.172	-0.208
-349.479	102.686	0.033	-0.038
-348.464	-200.000	0.018	-0.085
-347.450	258.048	0.190	-0.326
-346.435	-62.761	0.222	-0.092
-345.420	-24.403	-0.313	0.187
-344.406	193.842	0.095	-0.144
-343.391	124.040	-0.146	-0.183
-342.377	-43.175	-0.291	-0.147
-341.362	99.570	0.069	0.080
-340.348	182.194	0.145	0.214
-339.333	131.163	0.228	0.292
-338.318	-61.093	-0.190	0.080
-337.304	-31.835	-0.201	0.112
-336.289	-42.406	-0.333	-0.169
-335.275	507.388	-0.151	0.349
-334.260	800.000	-0.015	0.056
-333.245	5.873	-0.451	-0.333
-332.231	87.456	-0.055	0.060
-331.216	-86.331	0.129	0.040
-330.202	208.058	0.040	-0.063
-329.187	-200.000	-0.006	0.149
-328.172	800.000	-0.119	-0.332
-327.158	-58.938	0.055	0.024
-326.143	19.507	-0.132	0.106
-325.129	12.283	0.266	0.204
-324.114	186.081	-0.068	-0.100
-323.099	186.534	0.053	-0.079
-322.085	215.380	0.139	-0.220
-321.070	405.112	-0.141	0.297
-320.056	-200.000	-0.000	0.089
-319.041	-121.518	-0.221	0.037
-318.026	800.000	-0.008	0.027
-317.012	-154.936	0.231	0.015
-315.997	800.000	0.075	0.215
-314.983	-200.000	0.016	-0.161
-313.968	-68.563	-0.073	0.028
-312.953	310.294	-0.248	0.462
-311.939	-110.466	-0.097	0.020
-310.924	-69.299	-0.433	0.166
-309.910	48.968	-0.085	-0.079
-308.895	-73.227	-0.180	0.066
-307.880	333.603	-0.110	-0.213
-306.866	-140.617	0.080	-0.008
-305.851	13.300	-0.233	0.180
-304.837	320.119	0.072	0.136
-303.822	-200.000	0.006	-0.048
-302.807	-200.000	0.005	-0.168
-301.793	0.326	-0.309	-0.220
-300.778	-25.498	-0.082	0.048
-299.764	12.180	-0.030	0.023
-298.749	-13.205	0.258	0.167
-297.735	-200.000	-0.058	-0.260
-296.720	263.790	-0.113	0.196
-295.705	-200.000	-0.089	0.484
-294.691	-62.553	-0.213	-0.088
-293.676	-27.294	-0.277	-0.160
-292.662	-72.056	0.247	-0.092
-291.647	-125.077	0.231	0.035
-290.632	-200.000	0.013	0.183
-289.618	311.620	-0.140	0.262
-288.603	10.624	0.250	-0.190
-287.589	-200.000	0.026	0.241
-286.574	358.477	0.099	-0.197
-285.559	230.112	-0.150	0.244
-284.545	8.847	-0.056	0.042
-283.530	800.000	-0.050	0.170
-282.516	800.000	-0.094	-0.281
-281.501	217.413	-0.271	-0.430
-280.486	800.000	0.120	-0.463
-279.472	-46.714	-0.210	0.102
-278.457	4.559	-0.174	-0.127
-277.443	-35.697	-0.134	-0.072
-276.428	-47.590	-0.165	-0.080
-275.413	-200.000	0.029	-0.348
-274.399	316.189	0.086	-0.162
-273.384	-161.393	0.353	-0.018
-272.370	47.518	-0.081	-0.075
-271.355	-200.000	-0.003	0.209
-270.340	-200.000	0.009	-0.181
-269.326	-126.192	-0.201	-0.030
-268.311	800.000	0.027	-0.117
-267.297	800.000	0.113	0.319
-266.282	41.131	0.207	-0.186
-265.267	352.275	0.084	0.165
-264.253	-132.686	0.181	-0.023
-263.238	34.716	0.323	-0.281
-262.224	410.400	0.204	-0.430
-261.209	87.337	0.264	-0.291
-260.195	520.426	0.062	0.144
-259.180	-38.833	-0.272	-0.143
-258.165	51.705	0.212	0.201
-257.151	554.308	-0.069	0.165
-256.136	-31.685	0.031	-0.018
-255.122	-200.000	-0.017	-0.258
-254.107	-41.595	-0.113	-0.058
-253.092	-32.731	0.214	-0.118
-252.078	-147.583	0.111	-0.009
-251.063	-8.064	0.188	0.126
-250.049	454.222	0.119	0.262
-249.034	-130.695	-0.053	-0.007
-248.019	-200.000	0.015	0.277
-247.005	-27.763	0.080	0.046
-245.990	-200.000	-0.010	0.154
-244.976	621.129	0.038	0.096
-243.961	-69.511	-0.199	0.076
-242.946	-200.000	0.022	0.404
-241.932	406.213	0.066	0.139
-240.917	-200.000	0.070	-0.388
-239.903	689.494	-0.185	-0.481
-238.888	-142.104	-0.049	0.005
-237.873	45.164	-0.238	0.218
-236.859	113.109	0.099	-0.120
-235.844	-43.431	0.281	0.141
-234.830	-92.515	-0.143	0.040
-233.815	58.266	-0.025	0.024
-232.800	218.465	-0.121	-0.191
-231.786	-200.000	0.018	-0.095
-230.771	-116.747	-0.143	-0.026
-229.757	489.972	0.111	-0.253
-228.742	-177.210	-0.225	0.006
-227.727	-157.462	0.359	0.021
-226.713	-89.760	-0.488	-0.142
-225.698	-126.059	-0.366	-0.055
-224.684	-47.374	0.269	-0.130
-223.669	65.339	-0.080	-0.081
-222.655	553.256	0.088	-0.209
-221.640	-89.475	0.093	-0.027
-220.625	-143.001	0.294	0.028
-219.611	161.530	-0.095	-0.131
-218.596	-38.462	-0.248	0.130
-217.582	69.892	-0.155	-0.159
-216.567	-90.825	-0.097	-0.028
-215.552	-82.613	-0.347	0.112
-214.538	-26.076	0.238	-0.139
-213.523	800.000	-0.040	0.135
-212.509	28.740	0.179	-0.150
-211.494	11.701	-0.056	0.043
-210.479	140.217	0.184	-0.241
-209.465	372.975	0.063	0.127
-208.450	139.444	-0.155	-0.203
-207.436	-88.314	0.169	0.050
-206.421	238.741	-0.190	0.313
-205.406	254.019	-0.043	-0.073
-204.392	663.236	-0.102	0.262
-203.377	364.502	-0.072	0.143
-202.363	-140.589	-0.074	0.008
-201.348	-175.186	0.267	0.007
-200.333	800.000	0.015	-0.061
-199.319	195.309	-0.034	-0.052
-198.304	-200.000	-0.023	-0.276
-197.290	800.000	0.040	0.128
-196.275	-175.302	0.144	0.004
-195.260	-200.000	0.140	-0.000
-194.246	-146.025	-0.172	-0.015
-193.231	-200.000	0.002	0.290
-192.217	-52.430	0.287	0.132
-191.202	-136.902	0.059	0.007
-190.187	-33.190	0.248	-0.137
-189.173	-112.809	-0.329	0.065
-188.158	-151.195	0.139	-0.010
-187.144	47.463	0.128	0.118
-186.129	-146.755	0.333	-0.029
-185.114	-200.000	-0.010	0.108
-184.100	29.554	0.392	0.330
-183.085	12.741	-0.190	0.146
-182.071	135.634	0.157	0.202
-181.056	-145.463	0.345	-0.031
-180.042	-33.499	-0.159	-0.087
-179.027	2.428	0.197	-0.142
-178.012	800.000	-0.114	-0.435
-176.998	-71.689	-0.138	-0.051
-175.983	-11.126	-0.354	0.232
-174.969	-200.000	-0.064	0.291
-173.954	-200.000	0.008	-0.038
-172.939	-7.523	-0.229	-0.154
-171.925	-55.607	-0.159	-0.070
-170.910	395.611	0.110	0.227
-169.896	520.487	0.039	0.091
-168.881	800.000	-0.046	-0.136
-167.866	310.249	0.090	0.167
-166.852	338.468	0.104	0.200
-165.837	-24.999	0.241	0.141
-164.823	-133.952	0.073	-0.009
-163.808	-192.341	0.309	-0.003
-162.793	-11.757	-0.273	-0.177
-161.779	-116.632	0.109	0.020
-160.764	-40.197	-0.172	0.089
-159.750	81.542	-0.003	-0.003
-158.735	-185.554	-0.261	-0.004
-157.720	-41.020	-0.079	0.041
-156.706	-62.413	-0.216	0.089
-155.691	139.950	-0.094	0.123
-154.677	-1.381	-0.029	-0.020
-153.662	-66.465	-0.435	0.171
-152.647	489.191	0.096	-0.218
-151.633	-200.000	0.024	-0.195
-150.618	31.358	0.079	0.068
-149.604	280.451	0.222	0.394
-148.589	-200.000	-0.029	-0.189
-147.574	-200.000	0.004	-0.136
-146.560	80.587	0.113	-0.120
-145.545	148.163	0.109	0.145
-144.531	80.858	0.252	-0.269
-143.516	-0.491	0.126	-0.089
-142.502	211.126	0.082	0.128
-141.487	-35.001	0.335	-0.181
-140.472	486.915	0.146	-0.331
-139.458	62.223	0.032	-0.031
-138.443	800.000	0.034	-0.100
-137.429	-6.544	-0.213	-0.144
-136.414	732.527	-0.100	0.266
-135.399	35.852	-0.265	-0.230
-134.385	-151.567	0.205	0.015
-133.370	-92.251	-0.061	-0.017
-132.356	-123.475	0.262	0.041
-131.341	-200.000	0.022	0.304
-130.326	-200.000	-0.019	0.313
-129.312	800.000	0.025	-0.069
-128.297	800.000	-0.074	0.225
-127.283	250.757	-0.049	-0.083
-126.268	-200.000	0.007	-0.105
-125.253	-17.132	-0.149	0.093
-124.239	-105.030	-0.165	-0.037
-123.224	-18.665	0.332	-0.205
-122.210	-4.758	-0.306	0.209
