DTS Sentinel unit serial number:	SN413079Multiplexer serial number:	ORYXHardware model number:	OX4-SRSoftware version number:	ORYX F/W v4.00 Oryx Data Collector v3.7.2.0data status	okinstallation	princeton_trtdifferential loss correction	single-endedforward channel	channel 4reverse channel	N/Adate	2019/09/15time	11:09:35forward acquisition time	60.00reverse acquisition time	0.00gamma	496.2192k internal	0.2298k external	0.2298temperature offset calibration	1.0018default loss term (dB/km)	0.3790temperature slope calibration	1.0000multiplexer offset coefficient	1.0000multiplexer slope coefficient	1.0000fibre end	0.00T internal ref (°C)	34.28T ext. ref 1 (°C)	5.05T ext. ref 2 (°C)	29.72length (m)	temperature (°C)	Stokes	anti-Stokes-747.200	-154.173	0.183	-0.013
-746.185	100.323	0.149	0.176
-745.171	-200.000	-0.041	-0.245
-744.156	-38.740	-0.105	0.057
-743.142	-200.000	-0.019	-0.199
-742.127	-59.346	0.241	0.106
-741.112	-200.000	0.205	0.001
-740.098	800.000	0.036	0.159
-739.083	-200.000	-0.067	-0.303
-738.069	-159.583	0.228	-0.013
-737.054	-91.354	0.185	0.054
-736.039	204.942	0.181	0.287
-735.025	119.133	-0.156	-0.197
-734.010	-41.898	-0.350	-0.183
-732.996	98.447	-0.199	-0.234
-731.981	-118.485	0.215	-0.039
-730.966	-200.000	0.013	0.221
-729.952	-199.847	-0.145	0.001
-728.937	-200.000	0.017	-0.192
-727.923	-200.000	-0.020	0.362
-726.908	-200.000	0.033	-0.163
-725.894	800.000	0.040	-0.143
-724.879	-22.771	-0.081	-0.050
-723.864	23.457	0.228	0.191
-722.850	-200.000	0.001	-0.221
-721.835	280.055	0.141	0.258
-720.821	-200.000	-0.024	0.156
-719.806	-52.049	-0.119	-0.056
-718.791	-125.233	-0.373	0.058
-717.777	-24.517	0.261	-0.158
-716.762	153.971	0.080	0.112
-715.748	-40.158	0.084	0.045
-714.733	-200.000	0.002	-0.110
-713.718	-111.375	-0.036	0.008
-712.704	668.383	-0.072	0.189
-711.689	-36.334	-0.213	0.117
-710.675	-35.454	-0.262	0.145
-709.660	90.755	-0.153	-0.174
-708.645	195.356	0.135	0.209
-707.631	-200.000	-0.011	0.224
-706.616	-200.000	-0.044	0.198
-705.602	11.595	0.164	-0.128
-704.587	-200.000	-0.038	-0.194
-703.572	153.485	0.059	0.082
-702.558	47.087	-0.118	-0.112
-701.543	13.145	0.130	-0.102
-700.529	-85.851	-0.141	-0.044
-699.514	800.000	0.058	0.237
-698.499	177.796	0.201	0.299
-697.485	-62.440	-0.295	-0.125
-696.470	38.933	-0.323	-0.294
-695.456	-43.444	0.183	-0.094
-694.441	-111.784	0.366	0.076
-693.426	-200.000	-0.002	0.113
-692.412	29.281	-0.099	0.086
-691.397	232.137	-0.071	0.119
-690.383	-179.124	-0.062	-0.001
-689.368	-200.000	-0.031	0.331
-688.354	62.046	0.135	0.137
-687.339	-124.417	-0.007	-0.001
-686.324	-47.235	0.106	-0.053
-685.310	-11.998	-0.438	0.292
-684.295	-133.563	0.322	-0.041
-683.281	11.008	-0.205	-0.160
-682.266	624.657	-0.047	0.121
-681.251	-109.067	0.215	-0.047
-680.237	33.684	0.081	0.072
-679.222	800.000	-0.037	-0.142
-678.208	10.381	0.049	0.038
-677.193	96.792	-0.086	-0.100
-676.178	800.000	0.062	-0.253
-675.164	-26.330	-0.218	0.130
-674.149	-200.000	-0.067	-0.435
-673.135	45.585	-0.038	0.036
-672.120	-200.000	-0.003	0.250
-671.105	800.000	-0.045	-0.139
-670.091	-200.000	-0.047	0.251
-669.076	-110.873	-0.238	-0.050
-668.062	592.546	-0.062	-0.157
-667.047	-200.000	0.022	0.184
-666.032	-82.073	0.299	0.099
-665.018	-200.000	-0.006	0.194
-664.003	-200.000	0.042	-0.235
-662.989	-200.000	0.011	-0.143
-661.974	-200.000	-0.006	-0.192
-660.959	251.666	-0.192	0.332
-659.945	-96.977	-0.148	0.040
-658.930	59.064	0.048	0.048
-657.916	-136.987	-0.204	0.024
-656.901	-44.912	0.133	-0.067
-655.886	-127.967	-0.565	0.082
-654.872	234.998	-0.141	0.237
-653.857	35.160	0.191	0.170
-652.843	-40.682	-0.132	-0.070
-651.828	14.421	-0.192	-0.152
-650.814	104.891	0.181	0.217
-649.799	198.955	-0.209	-0.326
-648.784	-76.753	-0.339	-0.121
-647.770	8.086	-0.092	-0.070
-646.755	-165.158	0.329	0.015
-645.741	-10.833	0.045	0.030
-644.726	260.259	-0.108	-0.190
-643.711	6.726	-0.247	0.187
-642.697	-200.000	-0.016	0.105
-641.682	-116.572	0.238	-0.045
-640.668	94.657	-0.186	-0.215
-639.653	-72.408	-0.230	0.086
-638.638	43.577	0.236	-0.219
-637.624	118.795	-0.042	-0.053
-636.609	-200.000	-0.023	-0.263
-635.595	67.758	-0.076	0.079
-634.580	-88.859	-0.383	-0.115
-633.565	-51.741	-0.170	0.080
-632.551	-60.580	0.277	0.120
-631.536	-200.000	-0.033	-0.312
-630.522	-200.000	-0.009	-0.195
-629.507	-163.076	0.358	-0.018
-628.492	-83.713	0.389	-0.126
-627.478	800.000	0.041	-0.167
-626.463	-200.000	0.009	0.337
-625.449	86.842	0.287	0.322
-624.434	-200.000	0.025	-0.260
-623.419	99.071	-0.117	-0.137
-622.405	-24.584	0.108	0.065
-621.390	-58.499	0.016	-0.007
-620.376	-88.981	-0.180	0.054
-619.361	-103.975	-0.302	-0.072
-618.346	15.609	-0.326	-0.261
-617.332	511.125	0.090	0.214
-616.317	-88.740	0.215	-0.065
-615.303	-8.256	-0.292	0.199
-614.288	-200.000	-0.007	0.137
-613.273	-29.761	-0.201	0.117
-612.259	-200.000	-0.009	-0.207
-611.244	800.000	-0.055	0.183
-610.230	800.000	0.069	0.209
-609.215	-200.000	-0.014	-0.079
-608.201	-61.354	-0.323	0.138
-607.186	-200.000	0.064	-0.295
-606.171	418.903	-0.159	-0.345
-605.157	138.078	-0.150	-0.200
-604.142	-75.956	-0.211	-0.076
-603.128	429.932	0.083	-0.182
-602.113	324.513	0.084	0.162
-601.098	-92.022	-0.349	0.100
-600.084	537.879	-0.121	-0.293
-599.069	0.668	-0.262	-0.190
-598.055	104.063	0.302	0.361
-597.040	-83.216	-0.147	-0.048
-596.025	146.418	-0.145	-0.198
-595.011	-50.472	-0.280	-0.134
-593.996	-38.072	-0.187	0.101
-592.982	799.241	-0.030	-0.084
-591.967	229.200	0.179	0.296
-590.952	800.000	-0.184	0.554
-589.938	455.349	0.031	-0.069
-588.923	-57.198	0.334	-0.149
-587.909	776.854	0.013	-0.036
-586.894	428.843	0.068	0.148
-585.879	-180.748	0.150	-0.003
-584.865	-200.000	-0.007	0.108
-583.850	68.693	0.146	-0.152
-582.836	185.539	0.065	-0.098
-581.821	107.724	0.144	0.173
-580.806	-200.000	-0.008	-0.356
-579.792	534.171	-0.085	0.204
-578.777	-198.949	0.309	0.002
-577.763	-32.859	0.264	0.149
-576.748	113.221	-0.281	-0.346
-575.733	-200.000	-0.002	-0.298
-574.719	25.206	-0.098	0.082
-573.704	-108.676	-0.152	-0.033
-572.690	-200.000	0.021	-0.108
-571.675	-114.388	0.361	-0.070
-570.661	800.000	0.102	-0.332
-569.646	-122.582	-0.203	0.033
-568.631	800.000	0.046	-0.194
-567.617	114.125	0.106	-0.131
-566.602	-70.656	-0.144	-0.055
-565.588	51.881	-0.103	0.099
-564.573	20.884	0.211	-0.173
-563.558	28.098	-0.069	0.059
-562.544	465.456	-0.167	0.380
-561.529	-59.024	-0.219	-0.096
-560.515	-132.534	-0.130	-0.017
-559.500	89.713	-0.263	0.297
-558.485	-80.504	-0.553	0.187
-557.471	360.946	0.121	0.245
-556.456	419.198	0.081	0.175
-555.442	-25.458	-0.209	-0.125
-554.427	442.928	-0.073	-0.163
-553.412	-200.000	0.008	0.204
-552.398	-200.000	-0.032	0.261
-551.383	0.414	-0.148	0.107
-550.369	100.248	0.038	-0.045
-549.354	199.423	0.134	0.207
-548.339	-24.558	-0.111	-0.067
-547.325	-200.000	-0.013	0.286
-546.310	-34.458	-0.177	-0.098
-545.296	-30.383	0.191	-0.110
-544.281	-200.000	0.062	0.000
-543.266	800.000	-0.104	0.374
-542.252	800.000	-0.078	-0.235
-541.237	374.137	0.098	-0.202
-540.223	-65.115	0.034	-0.014
-539.208	-200.000	0.026	0.219
-538.193	-170.907	0.238	-0.008
-537.179	800.000	-0.071	-0.289
-536.164	-200.000	-0.021	-0.182
-535.150	-147.396	0.194	-0.017
-534.135	-27.164	-0.241	0.142
-533.121	0.538	-0.162	0.117
-532.106	-106.372	0.078	-0.018
-531.091	423.452	0.129	-0.280
-530.077	-49.476	0.314	0.152
-529.062	800.000	-0.029	-0.083
-528.048	21.198	0.182	-0.150
-527.033	-96.198	-0.467	0.125
-526.018	-85.040	0.115	0.037
-525.004	746.390	0.076	-0.206
-523.989	72.228	0.192	-0.203
-522.975	-200.000	-0.020	0.194
-521.960	800.000	-0.075	-0.265
-520.945	38.149	0.254	-0.229
-519.931	224.019	0.080	0.130
-518.916	-163.990	-0.224	0.011
-517.902	-124.828	-0.127	0.020
-516.887	104.410	0.150	-0.179
-515.872	378.636	-0.047	0.097
-514.858	-79.436	-0.178	-0.061
-513.843	800.000	-0.132	0.401
-512.829	-200.000	-0.042	0.402
-511.814	-200.000	0.002	0.199
-510.799	273.077	0.045	-0.081
-509.785	-73.035	-0.160	-0.059
-508.770	-56.252	0.273	0.123
-507.756	400.326	0.136	0.287
-506.741	-82.237	-0.017	-0.006
-505.726	-36.509	-0.166	0.090
-504.712	-134.664	0.224	0.028
-503.697	800.000	0.067	0.281
-502.683	-16.456	0.250	0.160
-501.668	-93.625	0.217	0.061
-500.653	-172.265	0.114	-0.004
-499.639	-200.000	0.006	0.248
-498.624	-140.959	-0.100	-0.010
-497.610	-83.827	0.327	0.105
-496.595	-31.906	-0.283	0.161
-495.581	-200.000	0.027	-0.197
-494.566	140.924	-0.114	0.152
-493.551	94.666	0.343	0.394
-492.537	-200.000	-0.035	0.170
-491.522	792.483	0.077	0.213
-490.508	-9.376	-0.079	-0.054
-489.493	64.274	-0.108	-0.110
-488.478	247.689	0.187	0.320
-487.464	203.256	0.187	0.292
-486.449	190.888	0.153	0.233
-485.435	-83.993	-0.115	0.037
-484.420	-73.978	0.266	-0.098
-483.405	-65.486	-0.066	-0.027
-482.391	84.386	0.157	0.174
-481.376	-138.558	-0.112	-0.012
-480.362	800.000	0.050	-0.178
-479.347	-37.173	0.074	-0.040
-478.332	800.000	-0.090	-0.274
-477.318	-200.000	-0.006	-0.262
-476.303	135.255	-0.107	-0.140
-475.289	-97.824	-0.058	0.015
-474.274	-41.904	0.240	0.124
-473.259	217.935	-0.085	-0.137
-472.245	-200.000	0.046	-0.511
-471.230	116.090	-0.132	0.163
-470.216	-79.267	-0.202	0.069
-469.201	-183.663	-0.270	-0.005
-468.186	247.153	0.059	0.101
-467.172	-200.000	-0.020	0.121
-466.157	-189.157	-0.259	0.003
-465.143	232.948	-0.055	-0.092
-464.128	229.017	0.129	0.212
-463.113	800.000	-0.115	-0.387
-462.099	184.334	0.268	0.401
-461.084	64.611	-0.164	0.167
-460.070	-39.936	-0.181	-0.095
-459.055	482.735	0.151	-0.345
-458.040	-12.626	-0.052	-0.034
-457.026	-110.880	0.336	0.070
-456.011	-200.000	0.005	-0.148
-454.997	37.110	-0.098	-0.087
-453.982	-200.000	-0.336	-0.001
-452.968	-83.907	0.258	-0.083
-451.953	274.412	0.107	-0.192
-450.938	-73.823	-0.133	0.049
-449.924	800.000	-0.075	0.217
-448.909	71.535	0.146	-0.153
-447.895	-70.317	-0.157	-0.060
-446.880	-200.000	-0.047	-0.000
-445.865	-200.000	-0.062	-0.347
-444.851	-105.176	-0.168	0.039
-443.836	200.913	0.077	-0.119
-442.822	207.468	-0.077	-0.121
-441.807	159.107	-0.093	-0.130
-440.792	332.164	-0.120	0.234
-439.778	-50.747	0.198	0.094
-438.763	-74.014	0.288	0.105
-437.749	107.838	-0.198	0.237
-436.734	800.000	0.035	-0.100
-435.719	225.304	0.079	-0.128
-434.705	-55.667	0.250	0.113
-433.690	463.068	0.050	-0.112
-432.676	-200.000	-0.002	-0.116
-431.661	-8.423	0.169	-0.114
-430.646	-200.000	0.036	0.207
-429.632	-14.644	0.049	-0.032
-428.617	16.530	0.304	-0.242
-427.603	-200.000	0.034	0.160
-426.588	-74.814	-0.169	-0.061
-425.573	99.126	-0.170	0.198
-424.559	-159.767	-0.282	0.016
-423.544	-103.587	0.069	-0.016
-422.530	-2.970	0.247	-0.174
-421.515	-92.551	-0.336	-0.095
-420.500	322.357	0.026	0.050
-419.486	-137.609	0.376	-0.043
-418.471	119.441	-0.120	-0.149
-417.457	54.366	0.175	0.170
-416.442	38.540	-0.107	0.096
-415.428	114.822	0.193	0.237
-414.413	153.468	0.047	0.065
-413.398	800.000	0.092	0.393
-412.384	-168.506	-0.206	-0.008
-411.369	345.820	0.056	0.110
-410.355	800.000	-0.048	-0.157
-409.340	-45.150	0.030	0.015
-408.325	67.739	0.186	0.191
-407.311	-159.093	-0.315	0.018
-406.296	-40.678	0.226	0.118
-405.282	35.249	0.039	-0.034
-404.267	-91.639	0.193	-0.055
-403.252	-38.265	0.091	-0.048
-402.238	128.307	-0.088	-0.113
-401.223	406.234	-0.032	0.068
-400.209	53.422	0.332	-0.321
-399.194	-200.000	-0.008	-0.344
-398.179	-112.463	-0.069	-0.014
-397.165	800.000	-0.026	-0.090
-396.150	-78.435	-0.264	-0.091
-395.136	547.251	-0.125	0.302
-394.121	201.156	-0.097	-0.150
-393.106	-30.052	-0.105	-0.060
-392.092	-113.864	0.373	0.073
-391.077	800.000	-0.047	-0.155
-390.063	-200.000	-0.060	0.336
-389.048	695.040	0.144	0.381
-388.033	-33.190	-0.038	-0.021
-387.019	-101.739	0.187	0.046
-386.004	800.000	0.069	0.295
-384.990	-46.298	0.010	-0.005
-383.975	-114.026	0.275	-0.054
-382.960	-200.000	-0.083	-0.440
-381.946	51.589	0.106	-0.101
-380.931	121.537	0.118	0.148
-379.917	-200.000	0.010	0.174
-378.902	304.438	0.125	-0.233
-377.888	-44.145	0.186	-0.094
-376.873	-141.736	-0.296	-0.030
-375.858	76.866	0.116	0.124
-374.844	-53.197	-0.273	0.126
-373.829	326.257	-0.125	-0.240
-372.815	-200.000	0.001	-0.261
-371.800	43.018	-0.099	0.091
-370.785	457.609	0.068	-0.153
-369.771	-86.138	0.045	0.014
-368.756	-39.502	-0.237	-0.125
-367.742	44.763	0.292	0.270
-366.727	608.967	-0.069	-0.174
-365.712	485.195	0.082	-0.189
-364.698	-72.427	0.135	-0.050
-363.683	179.837	0.174	-0.257
-362.669	757.778	0.137	-0.373
-361.654	137.952	0.150	-0.198
-360.639	476.955	0.104	-0.236
-359.625	4.027	-0.056	0.041
-358.610	41.888	-0.177	-0.162
-357.596	-200.000	0.004	0.080
-356.581	533.154	0.105	-0.251
-355.566	-200.000	-0.006	0.048
-354.552	-25.901	-0.298	0.176
-353.537	173.163	-0.169	0.244
-352.523	22.826	0.024	0.020
-351.508	-133.670	-0.152	0.019
-350.493	-80.099	-0.214	0.072
-349.479	-39.490	0.166	0.087
-348.464	-200.000	0.012	-0.311
-347.450	76.607	-0.202	-0.216
-346.435	800.000	0.015	0.053
-345.420	-22.186	-0.336	0.205
-344.406	407.440	0.044	0.093
-343.391	800.000	0.074	-0.256
-342.377	-192.233	-0.248	-0.002
-341.362	-123.034	-0.193	0.031
-340.348	32.318	0.156	-0.135
-339.333	-99.305	-0.506	0.128
-338.318	-45.267	0.111	0.055
-337.304	-123.089	0.097	0.016
-336.289	123.277	-0.109	0.137
-335.275	121.132	0.265	-0.332
-334.260	800.000	0.033	-0.129
-333.245	22.467	0.231	0.190
-332.231	-200.000	0.038	0.185
-331.216	-117.747	0.412	0.074
-330.202	-179.902	0.069	0.001
-329.187	-62.101	-0.144	-0.060
-328.172	78.436	0.104	-0.112
-327.158	-11.780	-0.372	0.245
-326.143	-115.624	-0.061	-0.011
-325.129	336.899	-0.081	-0.157
-324.114	-33.579	-0.257	0.142
-323.099	-67.128	0.280	-0.111
-322.085	161.723	-0.042	0.058
-321.070	-20.495	0.195	-0.120
-320.056	-200.000	-0.009	0.085
-319.041	-59.466	0.195	0.084
-318.026	-66.573	0.155	0.062
-317.012	-66.271	0.176	-0.070
-315.997	-60.959	0.185	-0.078
-314.983	-39.643	0.049	0.026
-313.968	40.921	-0.122	-0.110
-312.953	50.661	-0.140	-0.133
-311.939	800.000	-0.021	0.080
-310.924	-200.000	0.006	0.043
-309.910	109.702	-0.115	0.138
-308.895	-83.607	-0.008	0.003
-307.880	323.606	0.025	0.048
-306.866	-200.000	-0.018	0.287
-305.851	-163.883	0.294	0.014
-304.837	197.185	-0.188	-0.287
-303.822	-108.060	0.238	0.052
-302.807	173.744	-0.226	-0.328
-301.793	-118.423	0.106	-0.019
-300.778	-61.774	-0.207	0.087
-299.764	119.047	0.148	0.183
-298.749	530.712	-0.046	0.109
-297.735	-197.229	-0.303	0.002
-296.720	82.405	-0.155	-0.169
-295.705	17.584	-0.144	0.115
-294.691	-55.337	0.138	0.062
-293.676	167.195	0.107	-0.153
-292.662	-200.000	-0.033	-0.421
-291.647	-200.000	0.005	-0.172
-290.632	-200.000	0.043	-0.199
-289.618	-43.773	0.166	0.084
-288.603	97.445	0.076	0.088
-287.589	-80.148	-0.186	0.062
-286.574	162.113	0.152	-0.213
-285.559	-123.275	0.324	0.052
-284.545	800.000	0.042	0.154
-283.530	-57.546	-0.180	0.079
-282.516	308.505	0.071	-0.132
-281.501	-200.000	0.037	0.181
-280.486	-57.970	-0.172	-0.075
-279.472	800.000	0.089	0.249
-278.457	332.413	0.161	0.312
-277.443	-93.126	0.202	-0.056
-276.428	-4.214	-0.135	0.093
-275.413	139.409	0.103	-0.136
-274.399	-0.343	0.180	0.128
-273.384	800.000	0.127	-0.353
-272.370	-24.716	-0.266	-0.159
-271.355	28.804	-0.061	0.052
-270.340	-180.712	-0.069	-0.001
-269.326	-123.180	0.396	0.064
-268.311	800.000	-0.030	-0.103
-267.297	-129.640	-0.174	-0.024
-266.282	27.090	-0.227	-0.191
-265.267	-158.113	-0.073	-0.004
-264.253	34.056	-0.275	0.240
-263.238	35.324	0.284	0.250
-262.224	40.146	0.200	0.180
-261.209	-200.000	-0.005	0.229
-260.195	283.728	-0.134	0.240
-259.180	61.069	-0.061	-0.061
-258.165	-136.018	0.038	0.005
-257.151	-48.526	0.166	-0.080
-256.136	139.110	0.141	-0.186
-255.122	-12.681	0.196	-0.128
-254.107	25.996	0.079	0.066
-253.092	200.919	-0.050	0.076
-252.078	800.000	0.109	-0.309
-251.063	-200.000	0.006	0.182
-250.049	800.000	0.089	0.311
-249.034	72.613	0.201	0.210
-248.019	285.173	-0.071	0.128
-247.005	45.221	-0.157	-0.145
-245.990	-110.632	-0.113	0.023
-244.976	800.000	-0.083	0.249
-243.961	-200.000	-0.017	0.236
-242.946	727.832	-0.104	-0.277
-241.932	326.685	-0.072	-0.137
-240.917	-108.265	-0.221	-0.048
-239.903	-162.135	0.220	0.011
-238.888	-75.260	-0.051	0.018
-237.873	-196.391	-0.185	0.001
-236.859	52.592	-0.031	-0.030
-235.844	-72.581	-0.304	-0.112
-234.830	-157.829	-0.315	0.019
-233.815	300.689	0.178	0.329
-232.800	-200.000	0.042	-0.304
-231.786	-75.165	0.440	0.157
-230.771	-200.000	0.011	0.055
-229.757	800.000	-0.050	0.154
-228.742	87.309	0.204	0.225
-227.727	-60.599	-0.071	-0.030
-226.713	19.432	-0.260	-0.209
-225.698	53.625	0.044	-0.042
-224.684	444.576	0.085	0.186
-223.669	800.000	0.054	0.206
-222.655	341.207	0.227	0.444
-221.640	-30.038	0.263	0.150
-220.625	-92.652	-0.411	0.115
-219.611	-200.000	0.002	0.158
-218.596	21.913	0.252	0.205
-217.582	-200.000	-0.001	0.078
-216.567	18.481	-0.124	-0.099
-215.552	-40.236	0.176	-0.092
-214.538	-94.129	0.102	-0.028
-213.523	163.655	-0.168	-0.236
-212.509	-99.650	-0.288	0.072
-211.494	800.000	-0.054	-0.215
-210.479	800.000	0.014	-0.063
-209.465	-73.938	0.139	-0.050
-208.450	-200.000	0.016	-0.361
-207.436	29.781	0.061	-0.052
-206.421	-200.000	-0.028	-0.388
-205.406	554.740	0.114	0.274
-204.392	800.000	-0.081	0.257
-203.377	99.079	-0.171	-0.198
-202.363	173.099	0.197	0.284
-201.348	-81.077	-0.130	0.043
-200.333	-19.607	-0.283	-0.175
-199.319	27.955	0.070	-0.059
-198.304	249.470	0.055	-0.093
-197.290	-200.000	0.022	0.120
-196.275	3.957	0.087	-0.064
-195.260	-200.000	-0.060	-0.275
-194.246	800.000	-0.068	-0.262
-193.231	-200.000	0.008	-0.152
-192.217	214.241	0.088	0.140
-191.202	800.000	0.078	0.232
-190.187	800.000	0.089	0.294
-189.173	-200.000	-0.030	0.307
-188.158	-36.936	0.097	0.052
-187.144	182.263	0.037	0.055
-186.129	178.303	0.120	0.175
-185.114	-174.496	-0.267	0.008
-184.100	19.233	-0.014	0.011
-183.085	-153.922	0.236	-0.016
-182.071	121.528	-0.059	-0.073
-181.056	-66.555	0.080	-0.032
-180.042	4.986	0.232	0.170
-179.027	-108.381	0.252	0.054
-178.012	19.505	-0.051	0.041
-176.998	190.591	0.145	0.218
-175.983	-200.000	-0.023	0.154
-174.969	5.452	-0.330	0.243
-173.954	-113.376	-0.235	-0.046
-172.939	7.398	-0.276	-0.206
-171.925	302.963	-0.180	-0.332
-170.910	-160.366	0.388	0.021
-169.896	213.772	0.119	0.188
-168.881	-23.204	-0.164	-0.098
-167.866	341.854	0.102	-0.199
-166.852	-128.577	0.335	0.047
-165.837	-40.781	0.081	0.042
-164.823	561.083	-0.095	0.228
-163.808	-97.953	-0.208	-0.054
-162.793	-200.000	-0.009	0.306
-161.779	5.483	0.047	0.035
-160.764	-41.193	-0.263	0.136
-159.750	-32.560	-0.498	-0.277
-158.735	800.000	0.098	-0.357
-157.720	-151.675	-0.383	-0.028
-156.706	-2.482	0.250	-0.174
-155.691	-40.024	0.133	0.069
-154.677	241.319	0.104	-0.173
-153.662	48.585	-0.071	0.067
-152.647	-64.212	-0.173	-0.070
-151.633	93.390	0.326	-0.368
-150.618	167.098	-0.130	0.184
-149.604	463.965	0.122	0.272
-148.589	148.268	-0.108	0.146
-147.574	133.685	-0.288	0.372
-146.560	17.285	0.153	-0.121
-145.545	363.622	0.191	-0.383
-144.531	236.112	-0.103	-0.170
-143.516	24.178	0.073	-0.060
-142.502	-136.330	0.163	0.019
-141.487	-142.823	0.034	-0.003
-140.472	-126.234	-0.126	0.019
-139.458	39.912	0.246	-0.220
-138.443	24.521	0.187	-0.154
-137.429	-200.000	0.073	0.489
-136.414	-66.062	-0.140	0.056
-135.399	-79.200	0.229	-0.077
-134.385	800.000	-0.123	0.387
-133.370	-21.706	-0.099	0.060
-132.356	-122.949	-0.227	-0.036
-131.341	-14.264	0.043	-0.028
-130.326	733.169	-0.111	0.297
-129.312	-200.000	-0.006	-0.057
-128.297	-52.447	-0.054	-0.025
-127.283	-133.056	-0.060	-0.008
-126.268	-52.363	0.214	-0.098
-125.253	-57.729	-0.142	0.062
-124.239	9.115	-0.088	0.066
-123.224	-196.201	0.172	0.001
-122.210	800.000	-0.067	-0.184
-121.195	19.350	-0.092	0.073
