DTS Sentinel unit serial number:	SN413079Multiplexer serial number:	ORYXHardware model number:	OX4-SRSoftware version number:	ORYX F/W v4.00 Oryx Data Collector v3.7.2.0data status	okinstallation	princeton_trtdifferential loss correction	single-endedforward channel	channel 4reverse channel	N/Adate	2019/09/18time	18:45:35forward acquisition time	60.00reverse acquisition time	0.00gamma	496.2192k internal	0.2299k external	0.2299temperature offset calibration	1.0023default loss term (dB/km)	0.3790temperature slope calibration	1.0000multiplexer offset coefficient	1.0000multiplexer slope coefficient	1.0000fibre end	0.00T internal ref (°C)	37.47T ext. ref 1 (°C)	0.93T ext. ref 2 (°C)	27.80length (m)	temperature (°C)	Stokes	anti-Stokes-747.200	14.912	0.132	-0.105
-746.185	72.318	-0.200	0.212
-745.171	67.240	0.131	0.137
-744.156	-94.492	-0.233	-0.065
-743.142	-102.863	0.495	-0.120
-742.127	-55.758	-0.238	0.108
-741.112	-177.960	0.255	-0.006
-740.098	76.070	0.210	0.226
-739.083	-94.614	0.155	0.043
-738.069	114.729	-0.035	0.043
-737.054	137.071	-0.181	0.241
-736.039	11.696	-0.266	-0.208
-735.025	-200.000	0.030	0.142
-734.010	152.467	-0.196	0.273
-732.996	-200.000	0.023	-0.735
-731.981	79.307	-0.194	-0.212
-730.966	-104.626	0.246	0.058
-729.952	14.650	0.048	-0.038
-728.937	800.000	-0.041	-0.132
-727.923	429.384	-0.034	-0.074
-726.908	-76.525	-0.341	0.122
-725.894	-3.434	-0.111	-0.079
-724.879	15.096	0.294	-0.235
-723.864	-103.875	0.187	-0.045
-722.850	-200.000	-0.026	0.191
-721.835	-154.229	0.184	-0.013
-720.821	800.000	0.113	0.420
-719.806	-200.000	0.030	0.191
-718.791	119.584	-0.099	0.125
-717.777	36.143	-0.282	-0.253
-716.762	-0.767	-0.071	-0.051
-715.748	-200.000	-0.057	-0.390
-714.733	-91.351	0.269	0.078
-713.718	-175.434	-0.168	0.005
-712.704	-104.130	-0.060	0.014
-711.689	-113.874	0.194	0.038
-710.675	800.000	0.056	0.202
-709.660	-200.000	-0.047	0.271
-708.645	163.284	-0.268	0.384
-707.631	-200.000	0.099	-0.523
-706.616	-67.306	-0.320	-0.128
-705.602	-130.016	0.239	0.033
-704.587	18.795	0.123	0.100
-703.572	-8.447	0.196	0.135
-702.558	-160.012	0.263	0.015
-701.543	-200.000	0.053	-0.245
-700.529	261.914	0.065	-0.114
-699.514	-200.000	0.191	-0.001
-698.499	667.263	0.109	-0.287
-697.485	113.245	-0.186	-0.230
-696.470	-120.469	0.169	-0.029
-695.456	99.192	-0.216	-0.255
-694.441	338.794	-0.156	-0.310
-693.426	138.400	-0.168	-0.225
-692.412	-27.989	-0.257	0.152
-691.397	-65.953	-0.144	-0.059
-690.383	729.142	0.096	-0.261
-689.368	800.000	-0.025	-0.074
-688.354	-115.232	-0.237	0.046
-687.339	-158.064	-0.128	0.008
-686.324	-141.807	-0.356	-0.036
-685.310	-152.650	0.271	-0.020
-684.295	-200.000	-0.002	-0.142
-683.281	-64.959	0.395	0.162
-682.266	185.300	-0.232	0.351
-681.251	36.516	0.159	0.143
-680.237	-200.000	-0.005	-0.053
-679.222	-200.000	0.027	-0.154
-678.208	194.482	0.178	0.275
-677.193	56.602	0.059	-0.059
-676.178	-32.183	-0.081	-0.046
-675.164	-137.760	0.323	0.037
-674.149	-78.283	-0.290	0.101
-673.135	-200.000	-0.056	-0.275
-672.120	800.000	-0.055	0.234
-671.105	-200.000	0.020	0.218
-670.091	-175.291	-0.123	0.003
-669.076	-94.112	-0.224	-0.062
-668.062	383.378	-0.058	-0.121
-667.047	-66.249	0.222	-0.090
-666.032	150.210	0.163	-0.225
-665.018	-200.000	-0.033	-0.188
-664.003	-34.037	0.189	0.106
-662.989	-200.000	0.019	-0.140
-661.974	-96.649	0.178	-0.048
-660.959	0.138	-0.157	-0.114
-659.945	800.000	0.021	-0.069
-658.930	338.766	0.192	-0.380
-657.916	293.290	0.045	-0.084
-656.901	-200.000	-0.000	0.127
-655.886	-17.626	-0.265	-0.169
-654.872	800.000	0.053	0.199
-653.857	87.871	-0.163	0.184
-652.843	-132.052	0.128	0.017
-651.828	-37.292	-0.239	-0.130
-650.814	98.469	0.204	-0.239
-649.799	7.576	0.247	0.188
-648.784	-148.341	-0.148	0.012
-647.770	-62.198	-0.123	-0.052
-646.755	-117.999	-0.259	0.047
-645.741	247.515	-0.016	0.027
-644.726	641.604	0.070	0.180
-643.711	-34.881	-0.315	-0.175
-642.697	-200.000	-0.099	0.000
-641.682	-96.972	0.085	0.023
-640.668	586.871	0.029	0.073
-639.653	-200.000	0.032	0.269
-638.638	93.661	0.119	0.137
-637.624	32.378	0.236	-0.207
-636.609	135.699	0.224	-0.296
-635.595	800.000	0.050	0.152
-634.580	-200.000	-0.021	-0.314
-633.565	-38.665	0.072	0.039
-632.551	800.000	-0.025	0.075
-631.536	13.988	0.281	0.222
-630.522	269.632	-0.073	0.130
-629.507	-112.616	-0.054	-0.011
-628.492	57.486	0.131	0.130
-627.478	-200.000	-0.047	-0.216
-626.463	200.077	0.137	-0.214
-625.449	-32.036	0.317	0.180
-624.434	170.618	-0.163	-0.238
-623.419	18.025	0.152	-0.123
-622.405	39.392	-0.094	-0.085
-621.390	142.340	0.072	-0.098
-620.376	-199.706	-0.073	0.000
-619.361	28.733	-0.218	-0.188
-618.346	800.000	0.082	0.301
-617.332	740.468	-0.028	-0.076
-616.317	360.545	0.121	0.245
-615.303	409.698	0.070	0.150
-614.288	8.673	-0.104	0.080
-613.273	735.850	0.095	0.258
-612.259	276.469	0.050	0.090
-611.244	-200.000	0.029	-0.201
-610.230	-200.000	-0.024	-0.185
-609.215	-200.000	-0.016	-0.095
-608.201	-88.432	-0.272	0.083
-607.186	-148.821	0.255	-0.021
-606.171	182.962	-0.282	-0.422
-605.157	321.505	-0.101	0.194
-604.142	418.828	-0.083	0.180
-603.128	-200.000	-0.004	-0.153
-602.113	21.189	0.093	-0.077
-601.098	-143.827	-0.073	0.007
-600.084	800.000	-0.026	0.090
-599.069	800.000	-0.053	-0.155
-598.055	500.888	-0.142	0.331
-597.040	6.427	0.536	0.404
-596.025	-200.000	0.030	-0.147
-595.011	44.338	-0.198	0.184
-593.996	593.302	0.034	-0.084
-592.982	-105.512	0.185	-0.043
-591.967	-200.000	0.031	0.196
-590.952	222.999	0.055	0.091
-589.938	-39.921	0.014	0.008
-588.923	38.966	-0.177	-0.161
-587.909	414.119	0.108	0.234
-586.894	119.326	-0.087	-0.110
-585.879	-200.000	0.042	0.193
-584.865	118.791	0.186	0.233
-583.850	800.000	0.046	-0.154
-582.836	-98.519	-0.179	0.046
-581.821	-134.612	0.050	-0.006
-580.806	101.488	-0.075	0.089
-579.792	800.000	0.161	0.460
-578.777	800.000	0.050	0.200
-577.763	-81.961	0.251	0.083
-576.748	334.873	0.076	0.148
-575.733	-72.008	-0.221	0.083
-574.719	-200.000	-0.061	-0.333
-573.704	92.103	0.043	-0.049
-572.690	-48.341	0.211	-0.103
-571.675	-200.000	-0.005	-0.253
-570.661	-87.145	0.238	0.073
-569.646	800.000	0.012	0.047
-568.631	-200.000	0.017	0.269
-567.617	-200.000	-0.039	-0.263
-566.602	367.283	0.167	0.342
-565.588	800.000	-0.107	0.340
-564.573	-70.380	0.035	-0.013
-563.558	35.757	-0.272	-0.242
-562.544	800.000	-0.061	-0.244
-561.529	81.674	-0.250	-0.274
-560.515	-101.882	0.132	-0.032
-559.500	39.505	-0.197	0.178
-558.485	800.000	-0.088	-0.302
-557.471	65.524	0.112	-0.114
-556.456	85.382	0.125	-0.139
-555.442	-200.000	-0.006	0.227
-554.427	800.000	0.035	-0.114
-553.412	-92.497	0.067	-0.019
-552.398	-89.250	-0.371	0.111
-551.383	-200.000	-0.018	-0.289
-550.369	94.604	-0.083	-0.095
-549.354	-200.000	0.021	-0.263
-548.339	-33.733	0.131	0.073
-547.325	-6.672	0.132	0.091
-546.310	82.719	-0.012	-0.013
-545.296	-200.000	0.020	-0.218
-544.281	24.415	-0.065	0.055
-543.266	-118.619	0.601	0.107
-542.252	-97.759	-0.212	0.055
-541.237	448.088	-0.191	0.427
-540.223	-200.000	-0.028	0.184
-539.208	294.477	0.127	0.235
-538.193	-41.534	-0.061	0.032
-537.179	0.362	-0.189	0.136
-536.164	-174.286	0.037	0.001
-535.150	-200.000	-0.009	-0.164
-534.135	-44.005	-0.058	0.030
-533.121	16.961	0.245	0.196
-532.106	-110.699	-0.083	-0.017
-531.091	-163.310	-0.146	-0.007
-530.077	-133.191	0.196	-0.025
-529.062	-200.000	0.003	0.032
-528.048	200.270	-0.166	-0.259
-527.033	382.222	0.107	-0.222
-526.018	-43.044	0.184	-0.094
-525.004	-200.000	-0.024	-0.147
-523.989	-200.000	0.012	-0.310
-522.975	-200.000	-0.018	-0.167
-521.960	-35.515	-0.066	-0.036
-520.945	-89.689	0.094	-0.028
-519.931	70.886	-0.091	-0.095
-518.916	-61.339	0.091	0.039
-517.902	250.007	0.050	-0.085
-516.887	-100.638	-0.082	-0.021
-515.872	148.451	0.138	0.189
-514.858	-200.000	0.016	0.331
-513.843	71.730	-0.162	0.170
-512.829	800.000	-0.077	0.243
-511.814	462.364	-0.107	-0.242
-510.799	108.489	-0.105	0.126
-509.785	79.295	-0.231	0.251
-508.770	-200.000	0.004	0.084
-507.756	-10.769	-0.143	-0.095
-506.741	-28.649	-0.037	-0.022
-505.726	110.586	-0.148	0.180
-504.712	230.687	-0.097	0.161
-503.697	-200.000	0.057	-0.280
-502.683	-58.235	0.252	0.111
-501.668	83.161	-0.258	-0.284
-500.653	-27.130	0.076	0.044
-499.639	-200.000	0.013	0.142
-498.624	-200.000	-0.034	0.259
-497.610	36.854	0.261	0.233
-496.595	-77.856	0.125	0.044
-495.581	210.208	-0.101	-0.161
-494.566	-61.939	0.144	0.061
-493.551	-200.000	-0.011	0.229
-492.537	123.318	-0.171	0.216
-491.522	-68.339	-0.172	0.068
-490.508	134.581	-0.142	0.187
-489.493	800.000	0.039	0.137
-488.478	1.413	0.143	-0.104
-487.464	44.031	0.178	-0.164
-486.449	-57.274	-0.247	-0.110
-485.435	-200.000	-0.017	-0.156
-484.420	-200.000	0.074	-0.458
-483.405	39.416	0.142	0.128
-482.391	703.129	0.056	0.148
-481.376	4.770	0.198	-0.147
-480.362	105.718	0.206	-0.246
-479.347	-137.676	0.277	-0.031
-478.332	483.403	-0.071	-0.163
-477.318	-200.000	-0.030	0.366
-476.303	-121.194	0.032	0.005
-475.289	-160.976	-0.229	-0.012
-474.274	-19.293	0.231	-0.144
-473.259	-14.725	0.149	0.097
-472.245	670.577	0.070	-0.183
-471.230	800.000	0.043	0.146
-470.216	188.249	0.025	0.038
-469.201	-200.000	-0.066	0.318
-468.186	-22.600	-0.156	-0.095
-467.172	-200.000	0.010	0.076
-466.157	-200.000	0.004	-0.221
-465.143	-39.605	0.111	0.058
-464.128	-100.251	-0.112	-0.028
-463.113	-80.007	-0.202	0.069
-462.099	-200.000	0.043	0.391
-461.084	800.000	-0.094	-0.280
-460.070	368.098	0.074	-0.152
-459.055	48.760	-0.260	-0.246
-458.040	-7.235	-0.080	-0.055
-457.026	-47.729	-0.305	0.149
-456.011	34.841	-0.074	-0.065
-454.997	-47.769	-0.170	0.083
-453.982	419.524	-0.034	0.073
-452.968	123.530	0.014	-0.017
-451.953	194.834	0.210	0.321
-450.938	-152.888	-0.114	-0.008
-449.924	-79.933	0.098	-0.033
-448.909	-36.355	0.038	-0.021
-447.895	800.000	0.151	-0.422
-446.880	-70.527	-0.236	0.090
-445.865	-115.421	0.253	-0.048
-444.851	96.789	-0.123	0.142
-443.836	249.503	0.231	0.396
-442.822	136.774	0.132	-0.174
-441.807	-200.000	-0.043	-0.203
-440.792	-12.259	0.268	0.177
-439.778	-200.000	-0.015	0.174
-438.763	-200.000	0.026	-0.175
-437.749	717.934	0.061	-0.164
-436.734	-128.658	0.045	-0.006
-435.719	-200.000	-0.002	-0.043
-434.705	-157.269	-0.431	0.026
-433.690	-40.281	0.133	0.070
-432.676	253.383	0.190	0.328
-431.661	-145.401	0.186	-0.017
-430.646	-153.792	-0.071	0.005
-429.632	-38.367	0.207	-0.111
-428.617	-40.046	-0.251	-0.132
-427.603	381.678	-0.103	-0.213
-426.588	686.268	0.049	-0.130
-425.573	13.457	0.052	-0.041
-424.559	-64.674	0.134	0.055
-423.544	192.830	-0.007	0.011
-422.530	-200.000	0.029	-0.281
-421.515	-177.490	-0.238	-0.006
-420.500	-200.000	0.008	0.270
-419.486	-135.028	0.447	0.054
-418.471	-113.065	-0.404	-0.080
-417.457	-1.248	0.101	-0.072
-416.442	157.401	-0.165	-0.230
-415.428	-23.056	-0.282	-0.171
-414.413	120.595	0.079	0.099
-413.398	349.730	0.134	-0.266
-412.384	-200.000	-0.071	-0.326
-411.369	-198.169	0.188	-0.001
-410.355	471.607	-0.024	0.054
-409.340	-131.010	-0.317	-0.043
-408.325	-200.000	0.010	0.080
-407.311	-18.279	-0.271	0.171
-406.296	-1.878	0.167	0.118
-405.282	-19.678	-0.093	-0.058
-404.267	347.254	-0.099	-0.197
-403.252	3.438	0.166	-0.121
-402.238	351.481	0.074	0.148
-401.223	-65.145	0.124	0.050
-400.209	-72.700	-0.324	-0.120
-399.194	-200.000	0.011	-0.174
-398.179	37.360	-0.200	0.179
-397.165	-71.121	0.368	-0.139
-396.150	-72.821	-0.315	0.117
-395.136	-26.380	0.385	0.227
-394.121	-166.590	0.212	-0.009
-393.106	-117.764	0.331	0.060
-392.092	509.766	0.099	0.232
-391.077	136.085	-0.057	-0.075
-390.063	-182.533	-0.219	0.004
-389.048	205.565	-0.239	0.374
-388.033	-71.578	0.289	0.109
-387.019	123.016	0.196	0.247
-386.004	-4.865	-0.172	0.119
-384.990	68.067	0.106	-0.109
-383.975	-200.000	0.011	-0.159
-382.960	-200.000	0.001	-0.173
-381.946	-22.758	0.281	-0.171
-380.931	54.668	-0.239	-0.232
-379.917	-200.000	-0.013	-0.115
-378.902	-49.056	0.098	-0.047
-377.888	454.572	0.044	-0.099
-376.873	-74.260	0.128	0.047
-375.858	449.969	0.071	0.158
-374.844	351.324	0.115	0.229
-373.829	673.538	-0.044	0.114
-372.815	-56.871	-0.236	-0.105
-371.800	726.913	-0.039	-0.106
-370.785	-17.855	-0.144	0.091
-369.771	137.558	-0.101	0.133
-368.756	-200.000	-0.027	-0.217
-367.742	7.522	0.155	0.116
-366.727	483.361	0.093	0.213
-365.712	-200.000	-0.011	0.369
-364.698	-190.808	0.091	0.001
-363.683	263.286	-0.170	-0.298
-362.669	-135.049	0.295	-0.036
-361.654	441.892	0.142	0.313
-360.639	-200.000	-0.053	-0.415
-359.625	70.155	0.090	0.093
-358.610	29.926	0.130	0.112
-357.596	-49.325	-0.125	-0.060
-356.581	-130.345	-0.150	0.020
-355.566	179.241	-0.089	0.131
-354.552	-64.051	0.223	-0.092
-353.537	-0.969	-0.184	0.131
-352.523	176.333	-0.109	-0.159
-351.508	34.013	-0.031	-0.027
-350.493	800.000	-0.024	0.078
-349.479	800.000	0.062	-0.190
-348.464	-58.234	-0.110	0.048
-347.450	-31.179	-0.067	-0.038
-346.435	98.394	-0.105	0.122
-345.420	-200.000	0.039	-0.435
-344.406	-136.048	-0.435	-0.051
-343.391	-200.000	-0.002	0.052
-342.377	-200.000	-0.040	-0.235
-341.362	472.954	-0.022	-0.050
-340.348	800.000	0.056	-0.183
-339.333	113.500	0.170	-0.208
-338.318	149.442	-0.127	0.172
-337.304	800.000	-0.027	0.111
-336.289	299.079	-0.055	-0.101
-335.275	-77.076	0.250	0.088
-334.260	-26.093	-0.104	-0.061
-333.245	800.000	0.093	-0.278
-332.231	-5.033	-0.027	0.019
-331.216	225.723	0.073	0.119
-330.202	46.548	0.160	0.150
-329.187	-86.311	0.231	0.071
-328.172	-88.159	-0.322	-0.097
-327.158	-200.000	-0.002	0.023
-326.143	-36.093	-0.117	0.063
-325.129	-174.519	0.146	0.004
-324.114	66.880	0.095	-0.097
-323.099	-43.116	-0.163	-0.083
-322.085	-200.000	-0.036	-0.302
-321.070	46.540	0.121	0.113
-320.056	-72.859	0.075	-0.028
-319.041	144.632	0.171	0.230
-318.026	49.818	-0.132	-0.125
-317.012	120.060	0.170	-0.212
-315.997	-142.039	-0.231	-0.023
-314.983	194.888	0.158	-0.241
-313.968	-200.000	-0.052	-0.245
-312.953	-137.660	-0.193	-0.022
-311.939	-65.681	0.200	0.081
-310.924	-63.812	-0.027	0.011
-309.910	385.684	0.014	-0.030
-308.895	-200.000	0.027	-0.496
-307.880	-23.326	0.280	0.169
-306.866	-178.663	-0.182	0.004
-305.851	-154.119	-0.174	-0.012
-304.837	192.279	0.099	-0.150
-303.822	800.000	-0.080	-0.244
-302.807	40.168	-0.178	-0.161
-301.793	59.157	-0.162	0.160
-300.778	-104.428	0.164	-0.038
-299.764	800.000	0.077	0.290
-298.749	17.630	0.199	-0.159
-297.735	228.406	0.093	-0.152
-296.720	-200.000	0.015	-0.179
-295.705	-200.000	-0.003	-0.261
-294.691	68.426	0.078	-0.080
-293.676	-200.000	0.023	-0.184
-292.662	99.749	0.165	-0.191
-291.647	800.000	0.054	-0.166
-290.632	-187.978	-0.048	0.001
-289.618	23.599	0.055	0.045
-288.603	-29.699	-0.092	-0.052
-287.589	225.165	-0.142	0.230
-286.574	800.000	0.107	-0.309
-285.559	-200.000	0.224	0.000
-284.545	-7.109	0.078	0.053
-283.530	-200.000	0.039	0.221
-282.516	-200.000	-0.263	-0.001
-281.501	-126.925	-0.171	0.025
-280.486	630.485	0.028	-0.070
-279.472	-76.100	0.191	0.068
-278.457	800.000	0.129	-0.378
-277.443	443.513	-0.071	0.157
-276.428	-155.693	-0.172	0.011
-275.413	-200.000	-0.013	0.097
-274.399	13.335	-0.224	-0.174
-273.384	-25.976	-0.232	-0.137
-272.370	-200.000	0.015	0.204
-271.355	-50.340	-0.447	-0.212
-270.340	142.722	-0.243	0.323
-269.326	-200.000	-0.008	0.188
-268.311	-200.000	0.024	-0.174
-267.297	407.445	-0.153	0.324
-266.282	313.890	-0.195	0.368
-265.267	-200.000	0.011	0.192
-264.253	-200.000	-0.005	-0.200
-263.238	136.298	0.117	0.152
-262.224	-75.228	0.213	-0.076
-261.209	-121.060	0.236	-0.040
-260.195	108.872	-0.154	-0.184
-259.180	12.414	0.341	-0.263
-258.165	-38.672	0.219	0.116
-257.151	105.283	-0.209	0.247
-256.136	-129.041	0.173	-0.024
-255.122	232.041	0.023	0.038
-254.107	539.578	0.048	-0.115
-253.092	772.757	0.203	0.553
-252.078	-71.709	-0.105	-0.039
-251.063	-20.276	0.078	0.048
-250.049	-93.466	0.261	0.072
-249.034	26.680	-0.189	0.158
-248.019	249.080	0.027	-0.046
-247.005	-90.598	-0.161	0.047
-245.990	240.119	0.054	-0.089
-244.976	55.264	-0.216	-0.209
-243.961	-192.712	-0.084	0.001
-242.946	800.000	0.150	-0.473
-241.932	-200.000	-0.024	-0.159
-240.917	241.931	0.045	-0.075
-239.903	800.000	-0.109	0.349
-238.888	241.390	-0.144	0.240
-237.873	-200.000	0.007	-0.236
-236.859	-38.417	-0.057	-0.030
-235.844	-163.220	0.234	-0.011
-234.830	97.537	-0.356	0.409
-233.815	595.137	-0.147	0.363
-232.800	148.023	0.082	-0.110
-231.786	-149.060	-0.137	0.011
-230.771	-86.706	0.129	-0.039
-229.757	-19.005	0.125	-0.078
-228.742	-159.609	-0.216	0.012
-227.727	71.861	-0.073	0.076
-226.713	428.648	0.169	0.366
-225.698	-195.198	0.114	-0.001
-224.684	-71.493	0.478	-0.179
-223.669	486.960	0.058	0.131
-222.655	-74.683	-0.174	-0.062
-221.640	-168.615	-0.255	0.010
-220.625	355.533	-0.038	0.075
-219.611	-136.477	-0.061	-0.007
-218.596	112.633	0.084	0.101
-217.582	-77.632	-0.119	-0.041
-216.567	-20.137	-0.216	-0.133
-215.552	-12.043	0.236	0.154
-214.538	800.000	0.029	-0.123
-213.523	-200.000	-0.007	-0.039
-212.509	181.307	-0.284	-0.417
-211.494	-200.000	-0.068	0.310
-210.479	800.000	-0.071	-0.220
-209.465	-160.039	-0.095	-0.005
-208.450	-110.080	0.081	-0.017
-207.436	25.851	-0.008	0.006
-206.421	-19.632	-0.098	-0.061
-205.406	285.391	0.023	0.042
-204.392	40.738	-0.141	-0.127
-203.377	101.295	-0.069	0.080
-202.363	-42.953	-0.207	0.105
-201.348	-200.000	-0.019	-0.096
-200.333	125.072	-0.150	-0.188
-199.319	-7.980	0.150	0.101
-198.304	381.989	-0.043	-0.089
-197.290	-200.000	0.006	0.033
-196.275	172.333	0.262	-0.377
-195.260	305.468	-0.012	0.021
-194.246	-200.000	-0.002	0.179
-193.231	-15.481	0.168	0.107
-192.217	6.370	-0.133	-0.099
-191.202	414.290	0.031	-0.066
-190.187	265.817	0.042	-0.074
-189.173	95.871	-0.291	-0.331
-188.158	86.320	-0.264	0.290
-187.144	800.000	0.045	0.170
-186.129	-129.279	0.069	0.010
-185.114	142.750	0.259	0.343
-184.100	-36.511	0.259	0.139
-183.085	800.000	-0.098	0.402
-182.071	-40.606	-0.324	-0.168
-181.056	-200.000	-0.030	-0.172
-180.042	-200.000	0.057	-0.277
-179.027	60.916	0.173	-0.171
-178.012	-144.841	-0.259	-0.024
-176.998	-200.000	0.016	-0.119
-175.983	800.000	-0.042	-0.140
-174.969	239.452	-0.226	-0.376
-173.954	-62.857	0.195	0.080
-172.939	94.897	-0.159	-0.181
-171.925	-105.995	-0.235	-0.053
-170.910	800.000	-0.022	0.068
-169.896	128.274	0.226	0.287
-168.881	-200.000	0.030	0.429
-167.866	737.711	0.049	0.131
-166.852	800.000	-0.026	0.093
-165.837	-200.000	0.020	0.091
-164.823	89.845	0.218	0.242
-163.808	-167.283	0.363	-0.015
-162.793	-121.984	-0.262	-0.043
-161.779	-96.351	-0.156	0.041
-160.764	-25.932	-0.187	0.110
-159.750	-200.000	0.002	0.161
-158.735	-46.900	0.140	-0.068
-157.720	27.650	0.042	0.036
-156.706	17.518	0.191	-0.151
-155.691	-200.000	0.043	0.285
-154.677	800.000	0.011	-0.031
-153.662	-200.000	-0.017	-0.115
-152.647	-12.303	-0.009	0.006
-151.633	-64.526	-0.210	0.085
-150.618	166.413	-0.132	0.187
-149.604	-50.214	0.160	0.076
-148.589	-200.000	-0.019	-0.333
-147.574	-122.324	-0.206	-0.033
-146.560	-200.000	-0.003	0.105
-145.545	-155.007	0.096	-0.006
-144.531	800.000	-0.078	-0.218
-143.516	-200.000	-0.006	-0.327
-142.502	345.053	-0.145	0.284
-141.487	-82.794	-0.088	0.028
-140.472	-108.783	0.247	0.053
-139.458	800.000	0.111	-0.315
-138.443	188.093	-0.045	0.066
-137.429	272.850	-0.057	-0.100
-136.414	277.013	-0.050	-0.089
-135.399	-94.712	0.499	-0.135
-134.385	36.394	0.120	0.106
-133.370	-39.352	-0.338	-0.177
-132.356	-200.000	-0.020	-0.217
-131.341	-50.676	0.085	-0.040
-130.326	-108.511	0.147	-0.031
-129.312	-41.181	0.068	0.035
-128.297	-111.468	0.180	0.036
-127.283	291.414	0.023	0.042
-126.268	-200.000	-0.044	-0.372
-125.253	-200.000	0.036	0.194
-124.239	-200.000	0.057	-0.408
-123.224	186.057	-0.058	-0.086
-122.210	-64.208	-0.205	-0.083
