DTS Sentinel unit serial number:	SN413079Multiplexer serial number:	ORYXHardware model number:	OX4-SRSoftware version number:	ORYX F/W v4.00 Oryx Data Collector v3.7.2.0data status	okinstallation	princeton_trtdifferential loss correction	single-endedforward channel	channel 4reverse channel	N/Adate	2019/09/15time	19:21:34forward acquisition time	60.00reverse acquisition time	0.00gamma	496.2192k internal	0.2296k external	0.2296temperature offset calibration	0.9926default loss term (dB/km)	0.3790temperature slope calibration	1.0000multiplexer offset coefficient	1.0000multiplexer slope coefficient	1.0000fibre end	0.00T internal ref (°C)	39.70T ext. ref 1 (°C)	7.24T ext. ref 2 (°C)	29.13length (m)	temperature (°C)	Stokes	anti-Stokes-747.200	800.000	-0.111	0.349
-746.185	126.046	-0.116	0.150
-745.171	-200.000	0.029	-0.249
-744.156	519.553	0.015	-0.036
-743.142	-24.546	0.143	-0.087
-742.127	800.000	-0.136	0.570
-741.112	59.183	0.332	0.334
-740.098	-200.000	-0.056	0.364
-739.083	-2.010	-0.109	0.078
-738.069	-65.680	-0.396	0.162
-737.054	183.041	-0.081	0.121
-736.039	201.447	-0.050	0.079
-735.025	146.968	0.421	0.578
-734.010	-181.362	-0.131	-0.003
-732.996	-160.846	-0.225	-0.012
-731.981	176.847	-0.277	-0.411
-730.966	-200.000	-0.033	-0.245
-729.952	84.373	-0.222	-0.248
-728.937	57.958	-0.006	0.006
-727.923	-200.000	0.114	-0.543
-726.908	-47.052	-0.075	-0.037
-725.894	372.307	0.105	-0.218
-724.879	266.095	0.148	-0.264
-723.864	2.298	-0.231	0.170
-722.850	-12.928	-0.284	-0.189
-721.835	-200.000	0.008	-0.043
-720.821	-200.000	0.030	0.232
-719.806	118.101	-0.051	-0.064
-718.791	-88.824	-0.589	0.179
-717.777	-148.788	-0.505	-0.042
-716.762	42.927	-0.286	-0.266
-715.748	65.070	0.201	0.207
-714.733	-8.315	0.239	0.164
-713.718	20.781	0.165	-0.137
-712.704	-39.299	-0.259	-0.139
-711.689	677.465	0.035	0.093
-710.675	100.605	0.231	-0.273
-709.660	-200.000	-0.013	0.383
-708.645	-11.649	-0.289	-0.194
-707.631	-127.248	0.212	0.032
-706.616	377.332	0.050	-0.103
-705.602	496.674	-0.200	0.470
-704.587	-50.780	-0.150	0.072
-703.572	-80.441	0.222	0.076
-702.558	122.535	0.075	-0.096
-701.543	-138.163	-0.398	-0.045
-700.529	-200.000	0.022	-0.152
-699.514	-15.764	0.155	-0.101
-698.499	-200.000	-0.046	0.291
-697.485	-200.000	-0.032	0.175
-696.470	-19.599	-0.157	0.099
-695.456	511.702	0.136	-0.323
-694.441	-134.624	0.149	0.019
-693.426	-5.315	-0.125	-0.087
-692.412	273.537	0.187	-0.338
-691.397	-103.866	0.203	-0.048
-690.383	-69.045	-0.106	-0.041
-689.368	586.275	-0.025	-0.064
-688.354	-200.000	-0.009	-0.112
-687.339	-83.868	0.188	-0.061
-686.324	-62.947	0.053	-0.022
-685.310	-114.263	-0.220	-0.043
-684.295	800.000	0.085	-0.299
-683.281	-86.236	0.021	0.007
-682.266	170.488	0.074	-0.108
-681.251	800.000	0.047	0.199
-680.237	-71.226	0.136	-0.052
-679.222	-58.398	-0.166	0.074
-678.208	-200.000	-0.008	0.044
-677.193	-200.000	0.006	-0.070
-676.178	-12.732	0.351	-0.233
-675.164	-0.709	0.194	-0.140
-674.149	-83.557	-0.106	-0.035
-673.135	91.531	0.236	-0.270
-672.120	-57.266	0.168	0.075
-671.105	24.650	-0.098	0.083
-670.091	-75.007	-0.063	-0.023
-669.076	-24.146	-0.152	0.093
-668.062	265.251	0.040	-0.071
-667.047	89.325	-0.247	0.281
-666.032	-160.545	0.182	-0.010
-665.018	800.000	-0.021	-0.088
-664.003	-60.691	-0.191	-0.082
-662.989	800.000	0.024	-0.076
-661.974	-89.867	-0.206	0.061
-660.959	-59.111	-0.109	-0.048
-659.945	282.683	0.095	-0.174
-658.930	795.096	-0.084	0.235
-657.916	-200.000	-0.417	0.002
-656.901	-200.000	0.033	0.148
-655.886	159.118	-0.248	-0.351
-654.872	327.298	0.015	-0.029
-653.857	-200.000	0.013	0.092
-652.843	-200.000	0.006	0.086
-651.828	129.073	-0.076	-0.098
-650.814	141.711	0.137	-0.184
-649.799	-200.000	-0.007	-0.068
-648.784	121.349	0.054	0.069
-647.770	27.082	0.325	-0.278
-646.755	-1.631	0.173	0.124
-645.741	184.146	0.228	-0.343
-644.726	409.135	0.114	0.245
-643.711	-119.252	-0.404	-0.072
-642.697	-119.372	0.197	-0.035
-641.682	-100.296	0.145	0.037
-640.668	800.000	-0.104	0.429
-639.653	-35.663	0.063	0.035
-638.638	153.601	0.159	0.222
-637.624	96.856	0.197	-0.229
-636.609	-51.646	-0.140	-0.067
-635.595	607.193	-0.182	-0.461
-634.580	570.471	0.125	-0.309
-633.565	289.683	0.145	-0.267
-632.551	-87.191	-0.365	-0.113
-631.536	279.958	-0.097	0.176
-630.522	800.000	0.020	-0.084
-629.507	583.715	0.061	-0.154
-628.492	-11.330	-0.389	-0.260
-627.478	144.351	-0.141	-0.192
-626.463	189.345	-0.081	0.124
-625.449	-85.352	-0.162	-0.052
-624.434	800.000	0.039	0.122
-623.419	-51.030	0.114	-0.055
-622.405	-36.479	0.352	-0.193
-621.390	-46.462	-0.467	0.233
-620.376	-112.098	-0.484	0.099
-619.361	172.472	0.153	-0.224
-618.346	800.000	0.060	0.210
-617.332	-36.782	-0.195	0.106
-616.317	-200.000	0.047	0.317
-615.303	-154.709	-0.243	-0.016
-614.288	-189.009	0.299	-0.004
-613.273	800.000	-0.024	-0.087
-612.259	194.966	-0.130	-0.201
-611.244	-99.237	-0.185	0.047
-610.230	235.462	0.083	-0.139
-609.215	-121.469	-0.023	0.004
-608.201	380.613	-0.004	-0.008
-607.186	51.415	-0.245	-0.236
-606.171	145.808	-0.055	0.074
-605.157	800.000	-0.055	0.222
-604.142	-58.649	-0.146	-0.064
-603.128	-26.411	0.086	0.051
-602.113	-15.226	0.211	0.137
-601.098	-92.860	-0.150	0.043
-600.084	-200.000	-0.012	0.371
-599.069	294.743	0.059	-0.110
-598.055	491.136	0.101	-0.235
-597.040	39.110	0.236	0.214
-596.025	-200.000	0.008	0.061
-595.011	29.030	-0.058	-0.050
-593.996	-27.076	-0.066	0.039
-592.982	5.519	0.167	0.125
-591.967	-6.500	0.466	-0.323
-590.952	-74.176	0.215	0.079
-589.938	-116.305	-0.170	0.032
-588.923	404.747	-0.088	-0.189
-587.909	-117.645	-0.279	-0.051
-586.894	-128.502	-0.185	-0.027
-585.879	-79.292	0.092	-0.032
-584.865	62.417	-0.122	-0.124
-583.850	-200.000	0.012	-0.374
-582.836	-4.854	0.100	-0.070
-581.821	247.702	-0.109	-0.188
-580.806	99.908	0.063	-0.074
-579.792	-24.935	-0.185	-0.111
-578.777	-133.484	-0.176	0.022
-577.763	800.000	0.059	0.178
-576.748	-166.399	0.561	0.024
-575.733	-140.777	0.260	-0.027
-574.719	203.985	-0.123	0.193
-573.704	-39.989	0.180	-0.095
-572.690	-139.328	0.229	0.025
-571.675	33.673	-0.127	0.112
-570.661	-3.635	0.271	0.191
-569.646	194.714	-0.134	-0.206
-568.631	68.394	0.102	0.106
-567.617	492.209	-0.081	-0.188
-566.602	-200.000	0.040	-0.258
-565.588	-200.000	-0.036	0.169
-564.573	-80.105	-0.188	0.064
-563.558	-70.156	-0.230	-0.089
-562.544	-200.000	-0.018	0.359
-561.529	222.415	-0.081	-0.133
-560.515	-200.000	-0.047	0.211
-559.500	800.000	-0.051	0.162
-558.485	-16.380	-0.333	0.214
-557.471	-108.915	-0.329	-0.071
-556.456	243.912	0.173	-0.294
-555.442	180.471	0.152	-0.226
-554.427	-58.240	-0.190	0.084
-553.412	-141.052	0.216	0.022
-552.398	114.540	-0.178	-0.220
-551.383	-25.187	-0.061	0.037
-550.369	726.930	0.108	-0.291
-549.354	98.069	0.043	-0.050
-548.339	-65.522	0.518	-0.211
-547.325	24.059	-0.223	0.186
-546.310	800.000	-0.033	-0.119
-545.296	-52.811	0.320	0.149
-544.281	45.528	0.122	0.114
-543.266	63.839	-0.418	0.426
-542.252	-43.071	0.100	0.051
-541.237	-99.927	0.187	0.047
-540.223	8.138	-0.225	0.171
-539.208	-200.000	0.053	-0.261
-538.193	-52.365	0.143	0.067
-537.179	-200.000	0.021	-0.298
-536.164	32.692	-0.101	-0.089
-535.150	-93.037	-0.292	-0.082
-534.135	480.382	0.120	-0.277
-533.121	-80.762	-0.124	-0.042
-532.106	233.702	-0.133	-0.222
-531.091	-104.011	0.236	0.056
-530.077	46.414	-0.161	-0.151
-529.062	-200.000	0.023	0.438
-528.048	-118.987	0.294	0.052
-527.033	109.602	-0.308	-0.374
-526.018	-140.128	-0.085	0.009
-525.004	729.044	0.097	-0.262
-523.989	-200.000	0.039	-0.180
-522.975	-200.000	-0.009	0.049
-521.960	31.554	-0.291	0.254
-520.945	-55.955	0.208	0.094
-519.931	800.000	0.048	-0.173
-518.916	-200.000	-0.002	0.161
-517.902	-33.131	0.324	0.182
-516.887	39.193	-0.092	0.083
-515.872	48.416	-0.070	-0.066
-514.858	24.771	-0.182	-0.153
-513.843	319.911	-0.159	0.306
-512.829	-146.372	0.319	0.028
-511.814	-87.254	0.269	0.083
-510.799	79.381	0.102	0.111
-509.785	39.965	0.252	-0.229
-508.770	127.804	0.139	-0.179
-507.756	-200.000	0.017	-0.159
-506.741	198.387	0.122	0.190
-505.726	-74.615	0.233	0.085
-504.712	302.566	-0.103	0.193
-503.697	-46.143	0.321	0.160
-502.683	-200.000	0.025	-0.201
-501.668	32.911	-0.179	0.157
-500.653	98.968	0.143	0.168
-499.639	-170.639	0.251	0.009
-498.624	228.171	-0.099	0.163
-497.610	-11.138	0.176	-0.117
-496.595	-114.308	-0.215	0.042
-495.581	-200.000	0.027	-0.223
-494.566	-105.990	0.170	0.039
-493.551	540.740	0.058	0.140
-492.537	355.407	0.038	-0.076
-491.522	-58.464	-0.321	-0.141
-490.508	-103.145	-0.186	0.045
-489.493	-158.772	0.217	-0.013
-488.478	19.660	0.188	-0.153
-487.464	-15.370	-0.196	-0.127
-486.449	-176.933	0.074	-0.002
-485.435	-100.286	-0.124	0.031
-484.420	-200.000	-0.001	-0.096
-483.405	556.451	-0.092	0.223
-482.391	-20.750	0.090	-0.056
-481.376	-148.547	0.342	-0.028
-480.362	254.685	0.113	0.195
-479.347	119.379	-0.120	0.150
-478.332	8.059	-0.156	-0.118
-477.318	-35.387	0.378	-0.208
-476.303	-162.114	0.220	0.011
-475.289	-64.662	0.157	0.065
-474.274	208.247	0.102	-0.160
-473.259	-200.000	-0.019	0.115
-472.245	47.363	-0.074	-0.070
-471.230	-40.732	0.322	0.168
-470.216	-200.000	-0.130	-0.580
-469.201	800.000	0.096	-0.290
-468.186	261.116	0.081	0.142
-467.172	176.264	0.080	-0.118
-466.157	-200.000	0.033	0.246
-465.143	800.000	0.011	-0.044
-464.128	380.117	0.048	-0.100
-463.113	-200.000	0.003	-0.375
-462.099	-200.000	0.058	-0.401
-461.084	-60.054	-0.043	-0.018
-460.070	148.578	-0.133	-0.182
-459.055	800.000	-0.067	-0.221
-458.040	800.000	0.062	0.202
-457.026	183.419	0.070	-0.105
-456.011	-200.000	-0.035	-0.233
-454.997	79.927	0.303	-0.329
-453.982	-200.000	-0.014	-0.083
-452.968	169.390	-0.044	0.063
-451.953	-38.197	-0.100	-0.053
-450.938	800.000	-0.064	-0.234
-449.924	800.000	-0.058	0.223
-448.909	590.841	-0.025	0.061
-447.895	229.385	0.116	-0.192
-446.880	209.554	-0.134	0.212
-445.865	-104.390	-0.217	-0.051
-444.851	39.200	-0.243	0.219
-443.836	37.672	0.156	0.140
-442.822	-12.450	-0.142	0.094
-441.807	-100.844	-0.202	-0.050
-440.792	800.000	-0.091	-0.295
-439.778	519.497	0.049	-0.115
-438.763	92.920	-0.071	0.081
-437.749	436.062	-0.124	0.272
-436.734	108.241	-0.143	0.172
-435.719	200.981	-0.116	-0.181
-434.705	-200.000	0.003	-0.153
-433.690	83.282	-0.156	0.172
-432.676	78.529	0.220	0.237
-431.661	800.000	0.070	-0.217
-430.646	-155.687	0.183	-0.012
-429.632	199.141	0.147	-0.227
-428.617	800.000	-0.057	-0.196
-427.603	551.785	0.073	-0.176
-426.588	-171.925	-0.330	0.011
-425.573	-140.990	0.416	-0.043
-424.559	-200.000	0.034	0.171
-423.544	-10.263	-0.100	-0.067
-422.530	-3.667	-0.201	0.141
-421.515	-173.536	0.148	0.004
-420.500	800.000	0.067	-0.237
-419.486	-48.222	0.094	-0.046
-418.471	-177.260	-0.280	0.007
-417.457	-64.757	-0.066	-0.027
-416.442	-200.000	-0.068	0.421
-415.428	-126.109	0.312	0.047
-414.413	800.000	0.100	-0.339
-413.398	-109.476	0.107	-0.023
-412.384	-140.816	-0.159	-0.017
-411.369	-121.563	-0.091	-0.015
-410.355	375.006	-0.144	-0.296
-409.340	-76.518	-0.328	-0.116
-408.325	540.707	-0.054	0.129
-407.311	-139.562	0.118	-0.013
-406.296	458.087	0.057	-0.128
-405.282	97.969	-0.056	-0.065
-404.267	-200.000	0.035	0.314
-403.252	257.391	-0.109	0.188
-402.238	-134.399	0.115	0.014
-401.223	520.580	0.038	0.089
-400.209	-155.256	0.309	-0.020
-399.194	800.000	-0.081	0.238
-398.179	260.181	-0.089	0.154
-397.165	139.346	0.163	-0.217
-396.150	-200.000	0.030	0.207
-395.136	193.254	0.120	-0.183
-394.121	800.000	0.021	0.071
-393.106	34.295	-0.148	-0.130
-392.092	-200.000	0.024	-0.255
-391.077	475.399	0.210	0.478
-390.063	-200.000	0.040	-0.273
-389.048	22.817	0.187	-0.155
-388.033	273.946	0.073	-0.131
-387.019	-94.796	0.237	-0.065
-386.004	-200.000	0.017	-0.085
-384.990	-120.836	0.449	-0.076
-383.975	-127.145	0.200	0.030
-382.960	-9.447	0.118	0.079
-381.946	374.048	-0.103	0.210
-380.931	-199.269	-0.325	-0.002
-379.917	142.907	-0.199	0.267
-378.902	340.261	-0.131	-0.258
-377.888	-66.492	-0.255	0.102
-376.873	172.606	-0.086	0.125
-375.858	-58.993	0.135	-0.059
-374.844	-123.213	-0.339	0.055
-373.829	218.452	-0.014	-0.023
-372.815	13.594	0.057	-0.045
-371.800	31.393	0.096	0.083
-370.785	800.000	-0.048	0.176
-369.771	800.000	-0.029	0.122
-368.756	-200.000	0.047	0.308
-367.742	351.574	0.182	0.364
-366.727	112.276	-0.096	-0.117
-365.712	82.840	-0.234	0.256
-364.698	-5.012	0.239	0.165
-363.683	345.267	0.175	0.346
-362.669	-200.000	0.027	0.297
-361.654	800.000	-0.045	-0.153
-360.639	53.460	-0.121	0.117
-359.625	-68.850	-0.050	0.020
-358.610	-115.008	0.196	-0.037
-357.596	800.000	0.115	-0.362
-356.581	-200.000	0.003	-0.060
-355.566	72.266	-0.058	0.061
-354.552	541.758	0.020	0.048
-353.537	-200.000	0.041	0.189
-352.523	800.000	0.033	-0.143
-351.508	158.593	-0.158	0.221
-350.493	225.083	0.043	0.070
-349.479	-65.010	-0.148	-0.060
-348.464	-200.000	-0.112	-0.525
-347.450	-88.151	0.212	-0.064
-346.435	-176.154	0.142	0.004
-345.420	800.000	-0.091	-0.270
-344.406	622.365	-0.154	0.390
-343.391	-12.678	-0.248	0.163
-342.377	-101.519	0.291	-0.071
-341.362	800.000	-0.041	0.158
-340.348	800.000	-0.092	0.379
-339.333	-177.274	-0.150	0.004
-338.318	11.641	0.076	-0.059
-337.304	-200.000	-0.036	0.194
-336.289	336.754	-0.151	0.296
-335.275	-200.000	0.007	-0.036
-334.260	44.358	0.174	-0.161
-333.245	-200.000	0.006	0.496
-332.231	30.043	-0.167	-0.143
-331.216	-110.967	-0.098	0.020
-330.202	345.295	0.213	-0.420
-329.187	30.405	0.144	-0.124
-328.172	-24.306	-0.186	-0.111
-327.158	-200.000	0.026	-0.262
-326.143	97.149	0.225	0.259
-325.129	605.833	0.033	-0.083
-324.114	-103.784	0.133	0.031
-323.099	99.304	0.035	0.041
-322.085	-77.321	0.289	0.101
-321.070	-88.439	0.191	0.057
-320.056	100.556	-0.121	0.141
-319.041	43.223	0.147	-0.135
-318.026	-43.655	-0.077	0.039
-317.012	-37.611	0.160	-0.086
-315.997	-50.477	0.231	-0.110
-314.983	-29.757	0.073	0.042
-313.968	19.100	0.090	-0.073
-312.953	349.274	0.170	0.337
-311.939	-128.867	-0.429	0.061
-310.924	564.090	-0.081	0.196
-309.910	-52.172	0.158	-0.074
-308.895	397.963	0.156	-0.328
-307.880	-5.556	-0.214	-0.148
-306.866	800.000	0.018	-0.051
-305.851	-169.768	-0.212	-0.008
-304.837	-92.791	0.017	0.005
-303.822	62.113	0.105	0.105
-302.807	170.351	-0.101	-0.144
-301.793	-103.909	-0.094	0.022
-300.778	73.223	0.302	-0.317
-299.764	-200.000	0.002	0.278
-298.749	662.406	0.028	-0.071
-297.735	-200.000	0.002	-0.171
-296.720	-113.561	-0.105	0.021
-295.705	8.253	-0.305	-0.230
-294.691	-133.398	-0.158	0.020
-293.676	-59.122	-0.018	-0.008
-292.662	-116.895	-0.057	-0.010
-291.647	692.060	0.082	0.216
-290.632	-162.177	-0.309	-0.016
-289.618	-67.239	0.375	0.148
-288.603	123.004	0.119	0.150
-287.589	34.112	-0.030	-0.026
-286.574	-103.436	0.158	0.037
-285.559	-87.005	-0.225	-0.069
-284.545	354.911	-0.054	-0.107
-283.530	-116.851	0.087	0.016
-282.516	800.000	0.056	-0.186
-281.501	182.765	-0.207	0.306
-280.486	-120.430	0.086	0.015
-279.472	-163.598	0.280	-0.013
-278.457	-63.620	0.136	-0.056
-277.443	-200.000	0.007	-0.254
-276.428	-200.000	0.021	0.310
-275.413	-107.347	-0.350	0.077
-274.399	-108.241	0.060	-0.013
-273.384	-16.898	-0.164	-0.104
-272.370	-22.264	0.129	0.078
-271.355	-58.435	-0.464	-0.202
-270.340	-51.498	-0.016	0.007
-269.326	800.000	-0.170	-0.470
-268.311	378.608	0.130	0.267
-267.297	-98.682	-0.391	0.100
-266.282	-62.837	0.200	0.083
-265.267	-69.692	0.030	0.012
-264.253	51.258	0.066	0.063
-263.238	569.823	-0.097	-0.236
-262.224	800.000	-0.067	0.276
-261.209	-200.000	-0.080	0.428
-260.195	-1.326	-0.236	0.167
-259.180	4.023	-0.097	0.071
-258.165	-88.532	-0.225	0.067
-257.151	-200.000	0.005	0.119
-256.136	-61.077	0.173	0.073
-255.122	-69.882	-0.213	0.081
-254.107	-200.000	0.008	0.085
-253.092	-76.976	0.142	-0.050
-252.078	800.000	-0.116	0.341
-251.063	-200.000	0.023	-0.136
-250.049	145.454	-0.149	0.200
-249.034	-200.000	0.115	0.592
-248.019	570.961	-0.040	0.097
-247.005	156.122	0.196	-0.271
-245.990	606.361	0.056	-0.140
-244.976	171.093	0.163	0.234
-243.961	17.388	-0.428	0.340
-242.946	147.045	0.167	0.225
-241.932	-200.000	-0.058	-0.402
-240.917	-200.000	-0.018	0.123
-239.903	452.061	0.026	-0.059
-238.888	105.787	0.124	0.147
-237.873	-200.000	-0.019	-0.303
-236.859	-123.448	-0.327	0.052
-235.844	263.171	0.066	0.114
-234.830	17.124	0.032	0.026
-233.815	52.958	0.150	0.144
-232.800	382.391	0.044	-0.090
-231.786	-200.000	0.026	0.178
-230.771	800.000	-0.046	-0.169
-229.757	32.272	-0.258	0.223
-228.742	-200.000	0.021	0.148
-227.727	800.000	-0.058	-0.212
-226.713	113.950	-0.142	0.172
-225.698	-200.000	0.007	-0.268
-224.684	-126.800	0.310	-0.046
-223.669	-200.000	-0.144	-0.000
-222.655	184.356	-0.042	-0.062
-221.640	162.868	-0.083	-0.117
-220.625	-200.000	-0.023	-0.158
-219.611	19.101	-0.156	-0.125
-218.596	89.643	0.180	-0.201
-217.582	-200.000	-0.069	-0.389
-216.567	-112.484	-0.054	0.011
-215.552	339.389	-0.093	0.182
-214.538	174.350	-0.088	0.128
-213.523	-24.655	0.064	-0.038
-212.509	-200.000	0.007	-0.137
-211.494	-200.000	-0.002	-0.228
-210.479	-17.564	0.053	-0.033
-209.465	800.000	0.120	0.399
-208.450	800.000	0.115	0.483
-207.436	-67.823	-0.382	0.149
-206.421	62.473	-0.215	-0.215
-205.406	70.575	0.122	0.126
-204.392	273.597	0.186	0.329
-203.377	-9.981	0.006	-0.004
-202.363	800.000	-0.046	0.168
-201.348	-73.815	0.077	0.028
-200.333	-148.136	0.212	0.018
-199.319	-200.000	0.074	0.335
-198.304	-81.824	-0.324	0.106
-197.290	285.931	0.012	0.021
-196.275	-127.768	-0.106	0.015
-195.260	122.544	-0.164	-0.206
-194.246	800.000	-0.100	-0.380
-193.231	-27.518	0.045	0.026
-192.217	-150.175	0.157	0.012
-191.202	68.707	0.057	-0.059
-190.187	-44.842	-0.110	-0.055
-189.173	48.372	-0.139	0.130
-188.158	-200.000	-0.033	0.170
-187.144	-110.384	0.236	0.049
-186.129	-47.347	-0.089	-0.044
-185.114	-39.934	0.280	-0.146
-184.100	-0.247	-0.144	0.102
-183.085	129.622	-0.238	-0.303
-182.071	13.844	0.125	-0.097
-181.056	-200.000	-0.006	0.258
-180.042	-127.638	0.221	-0.032
-179.027	126.007	-0.187	-0.236
-178.012	161.628	-0.260	-0.363
-176.998	84.647	-0.178	0.195
-175.983	154.563	-0.111	-0.152
-174.969	-200.000	0.022	-0.114
-173.954	-200.000	0.015	-0.288
-172.939	-200.000	0.028	-0.211
-171.925	110.929	0.128	0.154
-170.910	800.000	-0.028	0.087
-169.896	-117.557	0.327	-0.059
-168.881	-200.000	-0.013	-0.106
-167.866	788.081	-0.103	0.282
-166.852	-200.000	-0.010	0.162
-165.837	-15.205	0.361	0.231
-164.823	-68.035	0.100	-0.039
-163.808	158.270	-0.169	0.234
-162.793	-11.797	-0.060	0.039
-161.779	133.382	0.056	-0.072
-160.764	-100.851	-0.383	0.094
-159.750	-89.139	-0.188	-0.055
-158.735	412.699	-0.079	0.167
-157.720	197.976	0.085	0.130
-156.706	-122.110	-0.159	0.026
-155.691	91.893	-0.130	0.146
-154.677	800.000	0.019	-0.079
-153.662	41.767	-0.034	-0.031
-152.647	327.759	0.049	0.095
-151.633	119.601	0.115	-0.142
-150.618	-49.184	-0.287	0.137
-149.604	-200.000	0.003	0.353
-148.589	-131.952	0.194	-0.025
-147.574	800.000	-0.060	0.225
-146.560	27.478	-0.250	-0.209
-145.545	-200.000	-0.041	0.386
-144.531	653.512	-0.110	-0.281
-143.516	-16.474	0.137	0.087
-142.502	244.809	0.247	-0.414
-141.487	-200.000	-0.214	-0.000
-140.472	-40.778	-0.192	-0.099
-139.458	800.000	0.043	-0.168
-138.443	32.185	0.254	0.218
-137.429	-200.000	0.042	0.196
-136.414	194.242	0.208	-0.314
-135.399	800.000	-0.031	-0.106
-134.385	-26.006	0.189	-0.111
-133.370	-103.187	-0.165	-0.039
-132.356	12.925	0.069	-0.053
-131.341	-200.000	0.050	0.266
-130.326	117.222	-0.133	0.162
-129.312	-200.000	0.009	0.296
-128.297	82.308	0.068	0.073
-127.283	-0.737	0.106	0.075
-126.268	-61.363	-0.190	0.080
-125.253	-25.142	-0.145	0.086
-124.239	-79.593	-0.116	0.039
-123.224	61.108	0.067	-0.067
-122.210	-31.486	0.382	0.214
-121.195	-200.000	0.067	0.329
