DTS Sentinel unit serial number:	SN413079Multiplexer serial number:	ORYXHardware model number:	OX4-SRSoftware version number:	ORYX F/W v4.00 Oryx Data Collector v3.7.2.0data status	okinstallation	princeton_trtdifferential loss correction	single-endedforward channel	channel 4reverse channel	N/Adate	2019/09/13time	03:25:34forward acquisition time	60.00reverse acquisition time	0.00gamma	496.2192k internal	0.2319k external	0.2319temperature offset calibration	1.0195default loss term (dB/km)	0.3790temperature slope calibration	1.0000multiplexer offset coefficient	1.0000multiplexer slope coefficient	1.0000fibre end	0.00T internal ref (°C)	27.34T ext. ref 1 (°C)	4.11T ext. ref 2 (°C)	21.89length (m)	temperature (°C)	Stokes	anti-Stokes-747.200	-187.803	0.168	0.002
-746.185	44.587	-0.040	-0.037
-745.171	164.596	0.129	-0.185
-744.156	107.924	-0.056	-0.067
-743.142	549.272	0.079	-0.190
-742.127	496.577	-0.131	0.304
-741.112	-60.477	0.248	0.106
-740.098	-65.992	-0.108	0.044
-739.083	-112.919	-0.209	0.042
-738.069	66.407	0.193	0.198
-737.054	-104.129	0.079	0.019
-736.039	-115.146	-0.600	0.115
-735.025	-36.167	-0.208	-0.114
-734.010	800.000	0.030	-0.096
-732.996	-35.401	-0.140	-0.077
-731.981	44.899	0.176	-0.164
-730.966	721.092	-0.161	-0.433
-729.952	-113.370	0.060	0.012
-728.937	83.227	0.183	-0.202
-727.923	-43.495	-0.236	0.120
-726.908	-22.750	0.379	-0.232
-725.894	275.713	0.146	0.262
-724.879	-94.795	-0.296	-0.081
-723.864	-49.176	-0.513	-0.248
-722.850	29.895	-0.194	-0.167
-721.835	314.196	-0.134	-0.255
-720.821	380.631	-0.058	0.120
-719.806	-49.641	0.101	-0.049
-718.791	-125.388	-0.279	-0.043
-717.777	26.496	0.158	-0.134
-716.762	189.168	-0.219	-0.332
-715.748	800.000	0.040	0.145
-714.733	-121.626	0.267	0.045
-713.718	3.327	-0.097	0.072
-712.704	354.303	-0.069	-0.138
-711.689	800.000	0.081	-0.234
-710.675	-200.000	0.054	-0.239
-709.660	279.575	-0.136	-0.245
-708.645	-144.770	0.177	-0.016
-707.631	413.659	-0.085	-0.184
-706.616	37.142	0.054	-0.048
-705.602	-196.205	-0.175	-0.001
-704.587	189.459	-0.177	0.268
-703.572	124.690	0.112	0.142
-702.558	800.000	-0.043	0.150
-701.543	-39.927	-0.214	0.113
-700.529	-200.000	0.006	0.106
-699.514	800.000	0.095	0.290
-698.499	48.006	-0.082	-0.078
-697.485	-200.000	0.054	0.258
-696.470	-155.036	-0.177	0.012
-695.456	27.037	-0.193	-0.163
-694.441	-64.946	-0.308	-0.126
-693.426	136.019	-0.188	-0.247
-692.412	114.017	0.277	0.340
-691.397	203.380	0.044	0.068
-690.383	-97.614	0.286	0.075
-689.368	262.248	0.054	0.094
-688.354	-47.058	0.227	0.112
-687.339	277.703	-0.140	0.251
-686.324	69.441	-0.060	0.062
-685.310	-9.458	0.063	0.042
-684.295	125.785	-0.068	-0.087
-683.281	-200.000	-0.020	0.119
-682.266	63.037	-0.151	0.153
-681.251	295.804	-0.165	0.305
-680.237	-111.708	0.420	0.086
-679.222	-120.820	-0.203	-0.035
-678.208	-53.993	-0.119	0.055
-677.193	227.372	-0.040	-0.066
-676.178	-200.000	-0.028	0.170
-675.164	428.480	-0.081	0.177
-674.149	-200.000	-0.026	-0.150
-673.135	-132.958	0.197	0.025
-672.120	-169.540	-0.367	-0.013
-671.105	0.111	0.182	0.131
-670.091	-83.441	-0.079	-0.025
-669.076	-155.876	0.225	-0.014
-668.062	-97.180	-0.198	0.052
-667.047	10.642	0.228	0.175
-666.032	258.914	0.092	0.159
-665.018	-27.223	-0.237	-0.139
-664.003	-200.000	0.059	-0.364
-662.989	481.324	-0.092	-0.210
-661.974	593.098	-0.073	-0.181
-660.959	22.469	0.428	-0.353
-659.945	-66.775	-0.246	-0.098
-658.930	1.202	-0.307	0.222
-657.916	-64.855	-0.435	-0.177
-656.901	-181.397	-0.167	-0.003
-655.886	-200.000	0.021	-0.256
-654.872	118.570	-0.379	-0.472
-653.857	4.730	-0.054	0.040
-652.843	-200.000	0.005	-0.039
-651.828	186.169	0.093	-0.139
-650.814	800.000	0.059	0.232
-649.799	19.408	-0.232	0.188
-648.784	39.425	0.212	-0.192
-647.770	562.707	0.062	-0.151
-646.755	-150.720	0.117	0.009
-645.741	-106.585	-0.559	0.125
-644.726	128.211	-0.222	0.285
-643.711	-148.786	0.309	-0.025
-642.697	-96.197	-0.181	0.048
-641.682	-200.000	0.022	0.150
-640.668	-200.000	-0.027	0.239
-639.653	60.972	-0.122	0.122
-638.638	264.833	0.075	0.131
-637.624	163.724	-0.076	0.108
-636.609	-144.013	-0.392	-0.037
-635.595	510.424	0.132	-0.310
-634.580	136.132	0.259	0.340
-633.565	-79.343	0.343	-0.117
-632.551	401.663	-0.103	0.218
-631.536	-41.607	0.111	0.058
-630.522	-27.841	0.083	-0.049
-629.507	90.396	-0.173	0.194
-628.492	-173.218	0.259	0.008
-627.478	-19.213	-0.231	-0.145
-626.463	-60.844	-0.136	0.058
-625.449	-67.413	-0.115	-0.046
-624.434	-6.396	-0.063	-0.043
-623.419	-200.000	-0.025	0.129
-622.405	70.410	0.075	-0.078
-621.390	-200.000	-0.025	0.312
-620.376	416.171	-0.065	0.139
-619.361	-115.800	-0.262	0.049
-618.346	137.604	0.158	-0.208
-617.332	-44.531	-0.242	0.122
-616.317	-41.172	0.191	0.099
-615.303	34.982	0.043	0.038
-614.288	4.114	0.290	-0.213
-613.273	-153.852	-0.121	0.008
-612.259	22.570	0.035	-0.029
-611.244	-85.810	-0.160	-0.050
-610.230	-4.459	-0.152	0.106
-609.215	-75.054	-0.249	-0.090
-608.201	-200.000	-0.059	-0.349
-607.186	198.027	-0.088	0.136
-606.171	258.827	-0.087	-0.151
-605.157	326.671	-0.097	-0.187
-604.142	-43.633	-0.389	-0.197
-603.128	-151.348	-0.119	0.009
-602.113	-195.489	0.175	0.001
-601.098	-200.000	0.003	-0.228
-600.084	-73.307	0.191	-0.070
-599.069	800.000	0.009	0.040
-598.055	-119.350	0.190	0.033
-597.040	195.754	-0.149	0.228
-596.025	-165.619	0.106	-0.005
-595.011	41.076	-0.193	0.175
-593.996	-4.655	0.103	-0.072
-592.982	251.541	-0.136	0.232
-591.967	67.486	-0.078	-0.081
-590.952	-200.000	0.013	-0.272
-589.938	-106.993	0.320	0.071
-588.923	90.266	-0.144	0.162
-587.909	-149.968	0.197	-0.015
-586.894	-200.000	0.008	-0.112
-585.879	-106.162	-0.297	-0.067
-584.865	-118.708	0.127	0.023
-583.850	162.799	0.127	0.180
-582.836	-200.000	0.005	0.061
-581.821	733.690	0.165	-0.444
-580.806	-200.000	0.034	-0.242
-579.792	-89.550	0.410	-0.121
-578.777	306.315	0.201	0.377
-577.763	-116.740	0.377	0.069
-576.748	-200.000	-0.018	-0.162
-575.733	-26.241	0.194	-0.114
-574.719	-38.510	-0.170	0.090
-573.704	800.000	-0.051	-0.192
-572.690	-108.597	-0.120	-0.026
-571.675	5.696	-0.263	-0.195
-570.661	-55.491	0.341	0.154
-569.646	90.466	0.185	0.207
-568.631	193.360	-0.046	-0.070
-567.617	70.139	0.036	0.037
-566.602	-29.227	0.197	-0.113
-565.588	-25.998	-0.239	0.141
-564.573	-200.000	0.008	0.067
-563.558	-79.102	-0.062	0.021
-562.544	387.432	0.209	-0.434
-561.529	-200.000	-0.106	-0.000
-560.515	-200.000	0.005	-0.422
-559.500	-42.972	-0.117	0.060
-558.485	-111.706	0.121	0.025
-557.471	-200.000	0.159	0.000
-556.456	368.126	-0.138	-0.281
-555.442	-97.088	0.062	0.016
-554.427	157.668	-0.097	0.134
-553.412	743.949	-0.067	0.181
-552.398	-81.865	0.376	0.123
-551.383	131.409	0.203	0.262
-550.369	-23.495	-0.199	-0.120
-549.354	93.874	0.241	0.274
-548.339	-200.000	-0.015	0.150
-547.325	-64.009	0.274	-0.113
-546.310	-53.861	-0.165	0.075
-545.296	800.000	-0.061	0.205
-544.281	270.911	0.073	0.128
-543.266	-107.118	-0.309	0.068
-542.252	-99.557	-0.232	0.058
-541.237	-200.000	-0.009	-0.272
-540.223	-1.817	0.305	0.215
-539.208	138.025	-0.096	-0.126
-538.193	123.623	-0.137	-0.172
-537.179	708.939	-0.038	0.101
-536.164	-139.117	-0.354	-0.038
-535.150	-158.712	-0.115	0.007
-534.135	-157.887	-0.197	-0.012
-533.121	2.649	-0.256	0.186
-532.106	28.886	0.245	-0.208
-531.091	-200.000	-0.044	0.274
-530.077	-107.965	0.243	0.053
-529.062	-57.592	0.072	0.032
-528.048	800.000	0.029	-0.097
-527.033	-200.000	-0.302	0.000
-526.018	396.155	-0.116	0.243
-525.004	732.289	0.109	-0.293
-523.989	327.455	0.264	-0.507
-522.975	22.555	-0.343	-0.281
-521.960	378.212	0.072	0.147
-520.945	-185.521	-0.032	-0.000
-519.931	-64.259	-0.286	0.117
-518.916	134.157	-0.169	0.220
-517.902	83.443	-0.054	-0.059
-516.887	-56.905	0.394	0.174
-515.872	-114.954	-0.203	-0.039
-514.858	-13.010	-0.175	-0.114
-513.843	350.881	0.126	-0.250
-512.829	-8.501	-0.199	0.134
-511.814	-200.000	0.016	0.193
-510.799	-79.710	-0.134	0.045
-509.785	642.254	-0.060	-0.153
-508.770	126.815	0.323	0.411
-507.756	383.244	-0.020	-0.041
-506.741	189.663	-0.197	0.297
-505.726	-28.570	0.205	0.119
-504.712	14.725	0.380	0.298
-503.697	257.689	-0.070	0.121
-502.683	-200.000	-0.017	-0.139
-501.668	104.700	-0.190	0.224
-500.653	-39.227	-0.150	-0.079
-499.639	800.000	-0.018	-0.077
-498.624	-21.274	-0.019	-0.011
-497.610	56.699	-0.306	0.298
-496.595	311.433	-0.074	0.139
-495.581	36.928	0.178	-0.157
-494.566	-76.476	0.045	-0.016
-493.551	-200.000	0.018	-0.097
-492.537	800.000	-0.061	-0.173
-491.522	126.845	-0.120	-0.153
-490.508	-99.001	0.150	0.038
-489.493	61.023	-0.156	0.155
-488.478	800.000	-0.078	-0.281
-487.464	144.720	-0.161	0.215
-486.449	-141.934	-0.046	0.005
-485.435	800.000	0.074	0.244
-484.420	800.000	0.052	-0.225
-483.405	94.730	-0.225	0.257
-482.391	-175.587	-0.231	-0.006
-481.376	-90.580	-0.162	-0.047
-480.362	-200.000	0.046	-0.266
-479.347	-200.000	-0.011	0.217
-478.332	-130.942	0.164	-0.022
-477.318	-200.000	-0.007	-0.056
-476.303	166.280	-0.054	0.077
-475.289	-131.985	-0.098	-0.013
-474.274	254.201	-0.141	0.242
-473.259	-45.847	0.353	-0.175
-472.245	-93.967	0.131	0.036
-471.230	529.299	-0.126	0.298
-470.216	-140.545	-0.323	0.034
-469.201	392.748	-0.127	0.264
-468.186	559.671	0.087	0.210
-467.172	800.000	-0.047	0.145
-466.157	-200.000	0.068	0.326
-465.143	-200.000	-0.030	-0.342
-464.128	-56.288	-0.319	-0.142
-463.113	237.603	0.207	-0.343
-462.099	-48.456	-0.326	0.157
-461.084	225.596	0.068	-0.110
-460.070	277.175	0.198	0.352
-459.055	-96.234	0.171	-0.045
-458.040	-200.000	0.000	-0.032
-457.026	-60.008	-0.293	0.125
-456.011	583.770	-0.077	0.189
-454.997	-99.343	0.156	0.039
-453.982	86.372	-0.199	-0.219
-452.968	-19.117	-0.149	-0.092
-451.953	-69.432	-0.185	0.071
-450.938	26.060	0.177	-0.148
-449.924	-65.426	0.187	0.075
-448.909	-200.000	-0.034	0.259
-447.895	-145.762	-0.359	0.032
-446.880	800.000	-0.033	0.139
-445.865	-200.000	-0.030	-0.131
-444.851	636.364	-0.163	-0.413
-443.836	9.126	-0.173	0.131
-442.822	-172.232	-0.106	-0.003
-441.807	6.116	-0.179	0.133
-440.792	248.523	0.086	-0.145
-439.778	28.234	0.242	-0.204
-438.763	-200.000	-0.034	-0.373
-437.749	211.428	0.125	-0.196
-436.734	800.000	0.052	0.204
-435.719	-74.993	-0.076	0.027
-434.705	-200.000	-0.004	0.125
-433.690	391.770	-0.043	0.090
-432.676	-136.014	0.406	0.048
-431.661	6.798	0.080	0.060
-430.646	88.695	0.201	0.223
-429.632	603.073	-0.151	-0.374
-428.617	-200.000	0.025	0.190
-427.603	36.160	0.396	-0.348
-426.588	-13.963	0.012	0.008
-425.573	800.000	0.032	-0.095
-424.559	-167.697	-0.292	-0.012
-423.544	-138.475	-0.199	-0.022
-422.530	-143.163	0.418	-0.040
-421.515	-200.000	0.026	0.115
-420.500	-30.823	0.102	-0.058
-419.486	800.000	0.138	0.430
-418.471	-200.000	0.044	0.292
-417.457	17.792	0.178	0.141
-416.442	267.834	0.246	-0.430
-415.428	112.536	-0.076	-0.092
-414.413	-200.000	-0.006	-0.123
-413.398	-200.000	-0.060	-0.407
-412.384	-200.000	0.044	-0.266
-411.369	-12.218	0.130	0.085
-410.355	800.000	-0.147	0.453
-409.340	245.052	0.129	-0.217
-408.325	-98.884	0.480	-0.122
-407.311	-200.000	-0.016	0.117
-406.296	142.627	0.059	-0.078
-405.282	306.650	-0.238	0.441
-404.267	652.125	0.080	0.204
-403.252	-200.000	-0.066	-0.494
-402.238	-107.548	0.143	0.031
-401.223	-200.000	0.021	0.224
-400.209	-200.000	-0.030	-0.257
-399.194	70.248	-0.135	-0.139
-398.179	83.126	0.097	0.105
-397.165	13.683	0.048	0.037
-396.150	-60.455	0.280	0.119
-395.136	-200.000	-0.038	-0.264
-394.121	151.473	0.195	0.265
-393.106	-200.000	0.024	0.222
-392.092	530.688	-0.068	0.161
-391.077	-200.000	-0.041	-0.389
-390.063	-28.008	-0.194	-0.112
-389.048	66.112	0.060	0.060
-388.033	116.996	0.242	-0.296
-387.019	-47.200	0.167	0.081
-386.004	173.636	0.262	-0.377
-384.990	210.680	-0.269	0.422
-383.975	-138.996	0.093	-0.010
-382.960	161.034	0.136	-0.190
-381.946	554.774	0.104	-0.249
-380.931	-200.000	0.004	-0.490
-379.917	-46.244	-0.229	-0.112
-378.902	-200.000	0.040	-0.261
-377.888	-5.858	0.292	-0.199
-376.873	368.156	0.178	0.359
-375.858	800.000	0.047	0.191
-374.844	178.876	-0.186	-0.272
-373.829	-193.816	-0.265	-0.002
-372.815	119.658	0.204	0.252
-371.800	72.651	-0.069	0.072
-370.785	-88.673	-0.152	0.045
-369.771	116.354	-0.103	0.126
-368.756	-68.214	-0.341	-0.132
-367.742	-43.405	-0.114	-0.057
-366.727	-11.949	-0.294	0.192
-365.712	114.518	0.115	0.140
-364.698	83.954	-0.062	-0.068
-363.683	-200.000	0.034	0.191
-362.669	-148.230	-0.253	-0.021
-361.654	-117.179	0.321	0.058
-360.639	-125.231	0.122	-0.019
-359.625	-57.618	-0.107	-0.047
-358.610	-63.352	-0.024	0.010
-357.596	115.104	0.125	-0.152
-356.581	-158.098	0.046	-0.003
-355.566	800.000	0.071	0.239
-354.552	613.056	0.035	-0.088
-353.537	-200.000	-0.033	0.306
-352.523	68.860	0.045	0.046
-351.508	-200.000	-0.020	-0.180
-350.493	-119.923	-0.254	-0.043
-349.479	52.014	-0.206	-0.196
-348.464	-157.676	0.318	-0.019
-347.450	191.235	-0.352	0.528
-346.435	-129.149	0.189	0.026
-345.420	-38.544	-0.123	-0.065
-344.406	117.205	0.144	0.177
-343.391	-122.741	0.113	-0.018
-342.377	93.901	0.139	0.157
-341.362	391.057	-0.098	-0.204
-340.348	-25.954	-0.090	0.053
-339.333	-76.157	0.176	-0.062
-338.318	-150.839	-0.062	0.005
-337.304	171.986	0.180	-0.257
-336.289	-200.000	-0.055	-0.266
-335.275	-49.378	-0.163	-0.078
-334.260	-70.075	0.141	-0.054
-333.245	-107.198	0.148	-0.032
-332.231	703.819	0.085	-0.224
-331.216	-11.947	0.196	-0.128
-330.202	-134.210	0.490	-0.060
-329.187	-200.000	0.059	-0.321
-328.172	-99.176	-0.243	-0.061
-327.158	-110.096	-0.285	0.059
-326.143	145.090	0.206	-0.274
-325.129	136.571	-0.211	0.274
-324.114	-200.000	0.000	0.380
-323.099	225.500	0.065	0.105
-322.085	-200.000	-0.034	0.284
-321.070	668.918	0.087	-0.225
-320.056	800.000	0.013	-0.045
-319.041	-200.000	-0.025	0.235
-318.026	598.386	0.045	0.111
-317.012	262.213	0.163	-0.281
-315.997	-200.000	0.008	0.112
-314.983	800.000	0.065	-0.193
-313.968	-25.000	0.221	-0.131
-312.953	238.695	-0.077	-0.127
-311.939	558.980	0.149	0.357
-310.924	-33.036	-0.239	-0.132
-309.910	-200.000	-0.030	-0.214
-308.895	138.482	0.147	-0.192
-307.880	367.600	-0.074	0.149
-306.866	-200.000	-0.005	-0.181
-305.851	94.998	0.241	-0.273
-304.837	509.078	0.144	0.333
-303.822	-200.000	0.005	-0.229
-302.807	800.000	-0.045	-0.156
-301.793	-147.773	-0.091	-0.008
-300.778	-140.755	-0.183	-0.019
-299.764	627.859	0.092	0.230
-298.749	520.851	-0.131	-0.305
-297.735	-200.000	-0.046	0.268
-296.720	-200.000	0.033	0.196
-295.705	14.675	-0.153	-0.119
-294.691	314.797	-0.050	-0.093
-293.676	-172.804	0.140	-0.004
-292.662	800.000	0.078	0.283
-291.647	-121.423	-0.294	0.049
-290.632	-159.962	-0.128	-0.007
-289.618	171.969	-0.236	-0.337
-288.603	180.725	0.098	0.142
-287.589	800.000	0.085	0.294
-286.574	-22.594	-0.078	0.047
-285.559	-30.627	-0.101	-0.057
-284.545	15.222	0.108	-0.084
-283.530	-160.137	0.232	-0.012
-282.516	190.419	0.078	-0.117
-281.501	-200.000	0.010	-0.308
-280.486	-200.000	-0.189	-0.001
-279.472	-73.007	-0.077	-0.028
-278.457	800.000	-0.080	0.235
-277.443	45.100	-0.045	-0.042
-276.428	505.905	-0.073	0.169
-275.413	136.953	-0.026	0.034
-274.399	-200.000	0.027	0.312
-273.384	411.186	-0.051	-0.107
-272.370	-200.000	0.005	0.173
-271.355	285.296	-0.101	-0.181
-270.340	-200.000	0.020	0.132
-269.326	39.359	0.160	-0.142
-268.311	98.525	0.167	0.192
-267.297	-200.000	0.104	-0.514
-266.282	39.138	0.062	0.055
-265.267	-63.811	0.194	0.079
-264.253	449.480	-0.041	0.090
-263.238	-93.914	0.183	-0.050
-262.224	61.850	-0.123	0.122
-261.209	-200.000	0.027	0.364
-260.195	-13.083	0.271	-0.175
-259.180	-200.000	-0.033	-0.240
-258.165	-154.247	-0.184	0.012
-257.151	-67.230	0.262	0.103
-256.136	291.742	0.139	-0.251
-255.122	-66.014	-0.117	-0.046
-254.107	800.000	-0.020	-0.059
-253.092	-200.000	0.001	-0.348
-252.078	-69.458	0.326	-0.124
-251.063	7.439	-0.418	-0.310
-250.049	414.444	0.075	-0.158
-249.034	-70.986	0.286	0.107
-248.019	-200.000	-0.002	-0.100
-247.005	800.000	0.026	0.081
-245.990	-200.000	-0.015	0.165
-244.976	22.925	-0.133	-0.108
-243.961	-122.611	-0.164	0.026
-242.946	99.517	0.098	-0.112
-241.932	-200.000	-0.068	0.328
-240.917	-128.291	-0.317	-0.045
-239.903	800.000	-0.040	0.114
-238.888	-112.432	0.171	-0.034
-237.873	-67.138	-0.140	0.055
-236.859	66.503	-0.063	0.064
-235.844	-66.688	0.043	0.017
-234.830	-38.666	0.122	0.064
-233.815	-41.014	0.272	-0.139
-232.800	566.249	-0.102	-0.246
-231.786	800.000	0.073	-0.301
-230.771	-169.465	-0.338	0.012
-229.757	-119.491	0.283	0.049
-228.742	-155.702	0.151	0.010
-227.727	244.215	-0.193	0.321
-226.713	355.812	-0.068	-0.133
-225.698	678.110	-0.028	-0.072
-224.684	-71.245	-0.155	0.058
-223.669	-200.000	-0.037	-0.298
-222.655	368.470	0.148	-0.296
-221.640	-166.058	-0.042	-0.002
-220.625	-160.227	-0.082	0.004
-219.611	2.551	0.255	0.183
-218.596	557.695	-0.066	-0.158
-217.582	-196.438	-0.528	0.004
-216.567	-9.721	-0.131	-0.087
-215.552	200.033	0.147	-0.223
-214.538	-37.401	-0.069	0.037
-213.523	-79.750	-0.268	0.090
-212.509	-48.243	-0.026	-0.012
-211.494	222.395	-0.063	-0.101
-210.479	-200.000	-0.006	0.336
-209.465	-30.698	-0.223	0.125
-208.450	-200.000	0.048	0.483
-207.436	40.896	-0.148	0.133
-206.421	-200.000	0.020	-0.107
-205.406	407.828	0.110	-0.230
-204.392	-111.072	0.244	0.050
-203.377	158.753	0.189	-0.260
-202.363	-14.038	-0.090	-0.057
-201.348	-200.000	-0.027	-0.172
-200.333	800.000	0.082	0.237
-199.319	-17.684	0.252	0.157
-198.304	29.859	-0.329	0.278
-197.290	36.018	-0.090	-0.079
-196.275	29.212	-0.199	0.168
-195.260	414.814	-0.096	-0.202
-194.246	24.868	0.076	-0.062
-193.231	-175.972	0.175	-0.005
-192.217	-36.260	0.325	0.173
-191.202	-7.435	0.265	0.178
-190.187	-200.000	0.000	-0.153
-189.173	152.988	-0.245	-0.331
-188.158	-13.906	-0.345	-0.221
-187.144	-200.000	0.023	0.143
-186.129	800.000	0.051	0.148
-185.114	369.539	-0.059	0.118
-184.100	307.431	0.025	0.045
-183.085	800.000	0.031	-0.086
-182.071	210.734	-0.069	-0.107
-181.056	-169.384	-0.110	-0.004
-180.042	-200.000	0.018	0.400
-179.027	-106.303	-0.172	0.038
-178.012	800.000	-0.138	-0.389
-176.998	-200.000	-0.009	0.109
-175.983	-58.422	0.178	0.076
-174.969	-200.000	-0.001	-0.118
-173.954	-121.270	0.336	-0.055
-172.939	28.882	0.461	0.386
-171.925	-139.873	0.083	-0.009
-170.910	-114.959	0.152	0.029
-169.896	23.906	-0.189	-0.155
-168.881	-84.254	0.169	-0.053
-167.866	-120.564	0.221	-0.037
-166.852	102.342	-0.249	0.288
-165.837	161.881	0.058	0.080
-164.823	-200.000	-0.293	0.001
-163.808	-200.000	-0.033	0.239
-162.793	-23.848	0.221	-0.131
-161.779	7.320	0.155	0.115
-160.764	-61.203	0.068	0.028
-159.750	-182.611	0.142	-0.003
-158.735	-39.815	-0.093	-0.048
-157.720	130.216	0.106	0.134
-156.706	198.107	0.119	0.180
-155.691	142.486	-0.157	-0.206
-154.677	361.298	0.168	-0.332
-153.662	-6.539	-0.263	0.177
-152.647	77.774	0.166	-0.175
-151.633	-146.962	-0.138	-0.012
-150.618	-44.088	-0.203	0.101
-149.604	-148.557	0.459	0.037
-148.589	51.557	0.341	-0.320
-147.574	-70.434	0.356	-0.133
-146.560	-200.000	-0.003	0.115
-145.545	90.081	-0.108	-0.119
-144.531	-200.000	-0.025	-0.215
-143.516	32.712	0.417	0.357
-142.502	23.931	0.065	0.053
-141.487	-94.315	0.444	-0.120
-140.472	261.660	0.017	-0.029
-139.458	800.000	-0.154	-0.463
-138.443	403.813	0.094	-0.196
-137.429	-200.000	0.001	-0.197
-136.414	380.200	-0.097	-0.197
-135.399	-97.901	0.203	-0.052
-134.385	-96.397	-0.343	-0.090
-133.370	187.767	-0.039	0.057
-132.356	10.478	-0.277	0.208
-131.341	62.085	0.209	-0.206
-130.326	232.478	-0.099	0.161
-129.312	800.000	0.090	0.260
-128.297	-157.687	-0.343	0.020
-127.283	-200.000	0.030	0.198
-126.268	83.647	-0.125	-0.135
-125.253	800.000	-0.067	-0.213
-124.239	372.828	0.059	0.119
-123.224	-3.746	0.145	0.099
-122.210	-200.000	-0.030	-0.226
