DTS Sentinel unit serial number:	SN413079Multiplexer serial number:	ORYXHardware model number:	OX4-SRSoftware version number:	ORYX F/W v4.00 Oryx Data Collector v3.7.2.0data status	okinstallation	princeton_trtdifferential loss correction	single-endedforward channel	channel 4reverse channel	N/Adate	2019/09/12time	09:35:10forward acquisition time	60.00reverse acquisition time	0.00gamma	496.2192k internal	0.2296k external	0.2296temperature offset calibration	1.0067default loss term (dB/km)	0.3790temperature slope calibration	1.0000multiplexer offset coefficient	1.0000multiplexer slope coefficient	1.0000fibre end	0.00T internal ref (°C)	35.62T ext. ref 1 (°C)	1.80T ext. ref 2 (°C)	32.71length (m)	temperature (°C)	Stokes	anti-Stokes-747.200	160.330	0.118	0.168
-746.185	-200.000	0.012	0.359
-745.171	800.000	0.070	0.246
-744.156	-200.000	-0.034	0.367
-743.142	800.000	-0.028	-0.080
-742.127	-200.000	-0.002	0.042
-741.112	-73.460	-0.143	-0.053
-740.098	-79.530	0.191	-0.066
-739.083	-67.693	0.416	-0.166
-738.069	-0.367	0.147	0.107
-737.054	-130.051	-0.212	-0.030
-736.039	288.047	-0.135	-0.250
-735.025	43.305	0.203	-0.189
-734.010	-110.433	-0.518	-0.110
-732.996	201.452	-0.134	-0.211
-731.981	-108.702	0.446	-0.098
-730.966	-40.573	0.162	-0.086
-729.952	-151.246	0.085	0.006
-728.937	-126.301	-0.280	-0.043
-727.923	-144.131	-0.136	0.013
-726.908	-125.891	-0.121	-0.019
-725.894	195.990	0.035	-0.054
-724.879	-63.955	-0.220	-0.092
-723.864	618.938	-0.048	-0.124
-722.850	428.289	0.176	-0.388
-721.835	-183.263	0.138	0.002
-720.821	-72.280	-0.120	-0.045
-719.806	800.000	0.138	-0.501
-718.791	6.517	-0.175	-0.132
-717.777	175.047	-0.142	0.209
-716.762	13.630	-0.291	0.230
-715.748	58.255	-0.247	0.248
-714.733	122.859	-0.039	-0.050
-713.718	-144.633	0.237	0.022
-712.704	800.000	0.082	0.232
-711.689	-118.732	0.428	-0.077
-710.675	-65.923	0.399	-0.163
-709.660	198.957	0.074	-0.116
-708.645	9.029	-0.129	0.099
-707.631	-200.000	-0.006	0.144
-706.616	-52.047	0.150	-0.071
-705.602	28.459	-0.051	0.044
-704.587	382.612	0.092	0.192
-703.572	452.048	-0.045	0.101
-702.558	441.316	-0.119	-0.266
-701.543	-200.000	0.022	0.276
-700.529	800.000	-0.087	-0.264
-699.514	-30.685	0.338	-0.195
-698.499	600.085	-0.155	-0.392
-697.485	800.000	-0.044	-0.141
-696.470	-141.038	0.412	-0.043
-695.456	-41.091	-0.025	-0.013
-694.441	-157.775	-0.191	-0.012
-693.426	-31.370	0.071	-0.041
-692.412	-23.834	-0.186	-0.114
-691.397	-99.081	-0.073	0.019
-690.383	437.575	0.117	0.259
-689.368	88.162	0.097	0.110
-688.354	-200.000	0.004	0.241
-687.339	-107.697	-0.343	-0.076
-686.324	19.666	0.138	0.113
-685.310	242.292	0.082	0.140
-684.295	90.903	0.114	0.130
-683.281	-157.859	0.112	0.007
-682.266	88.091	0.158	0.178
-681.251	800.000	0.027	0.082
-680.237	800.000	0.091	-0.307
-679.222	403.997	-0.042	0.090
-678.208	-200.000	-0.032	-0.223
-677.193	-200.000	0.051	-0.331
-676.178	-121.423	-0.028	-0.005
-675.164	-118.712	-0.190	0.034
-674.149	-53.949	-0.061	0.028
-673.135	-200.000	0.001	-0.039
-672.120	-116.889	-0.019	-0.004
-671.105	-68.860	-0.230	0.090
-670.091	-200.000	0.055	-0.351
-669.076	96.896	-0.212	-0.247
-668.062	-116.054	-0.288	-0.055
-667.047	-200.000	-0.081	-0.409
-666.032	-22.066	0.113	-0.070
-665.018	-200.000	-0.025	-0.197
-664.003	-106.987	-0.374	0.084
-662.989	39.275	0.221	0.202
-661.974	20.012	0.106	-0.087
-660.959	566.285	-0.143	-0.353
-659.945	69.009	-0.047	-0.050
-658.930	-200.000	-0.056	-0.259
-657.916	772.402	0.080	0.223
-656.901	-10.724	0.240	0.162
-655.886	800.000	0.079	-0.256
-654.872	-200.000	-0.004	0.040
-653.857	-181.419	0.371	0.007
-652.843	-8.874	-0.080	-0.055
-651.828	-29.900	-0.088	0.051
-650.814	209.828	0.126	0.202
-649.799	-200.000	-0.083	0.423
-648.784	-200.000	-0.007	0.144
-647.770	-150.672	-0.153	-0.012
-646.755	-105.980	-0.215	-0.049
-645.741	99.980	-0.041	0.048
-644.726	-151.099	0.020	-0.002
-643.711	-85.929	-0.192	0.061
-642.697	-28.793	-0.106	-0.062
-641.682	-200.000	-0.061	0.451
-640.668	-128.008	-0.102	-0.015
-639.653	25.606	-0.306	0.259
-638.638	-190.933	-0.310	-0.003
-637.624	-135.440	0.179	0.022
-636.609	-39.902	-0.156	0.083
-635.595	-200.000	0.048	0.332
-634.580	800.000	-0.076	0.279
-633.565	701.894	-0.092	0.246
-632.551	293.615	0.140	-0.260
-631.536	350.663	0.055	-0.111
-630.522	-9.311	0.372	-0.253
-629.507	800.000	-0.028	0.080
-628.492	-200.000	0.062	-0.292
-627.478	-200.000	0.051	-0.233
-626.463	800.000	0.040	0.122
-625.449	406.770	0.112	-0.240
-624.434	-30.536	-0.408	-0.235
-623.419	-200.000	0.051	-0.277
-622.405	-43.470	-0.113	-0.058
-621.390	-38.156	-0.158	-0.085
-620.376	-200.000	-0.006	-0.191
-619.361	43.256	0.228	-0.211
-618.346	339.924	0.040	-0.079
-617.332	-116.667	-0.222	0.041
-616.317	26.996	0.179	0.153
-615.303	263.234	0.188	0.332
-614.288	800.000	-0.026	-0.113
-613.273	-78.323	-0.130	-0.046
-612.259	-200.000	-0.001	-0.055
-611.244	-200.000	-0.073	0.364
-610.230	701.610	-0.032	-0.087
-609.215	566.965	-0.126	0.310
-608.201	-200.000	0.000	-0.088
-607.186	-95.274	-0.408	-0.112
-606.171	714.181	0.078	-0.211
-605.157	-181.188	0.168	0.003
-604.142	22.690	-0.080	0.067
-603.128	-200.000	-0.018	0.218
-602.113	-127.772	-0.287	-0.042
-601.098	-137.523	-0.236	0.027
-600.084	-25.065	0.283	0.170
-599.069	30.668	-0.241	-0.209
-598.055	-44.523	-0.301	-0.153
-597.040	-198.481	-0.336	-0.002
-596.025	-155.343	0.215	0.014
-595.011	-154.857	-0.097	0.007
-593.996	223.005	-0.012	0.019
-592.982	-135.453	-0.271	0.033
-591.967	578.558	0.018	0.045
-590.952	15.323	-0.146	0.116
-589.938	800.000	0.039	0.137
-588.923	19.069	-0.176	0.143
-587.909	173.024	0.019	-0.029
-586.894	-195.289	-0.135	0.001
-585.879	-108.449	-0.234	-0.051
-584.865	-119.263	-0.163	0.029
-583.850	16.723	0.144	0.116
-582.836	-200.000	0.039	-0.266
-581.821	800.000	-0.036	-0.139
-580.806	75.573	-0.053	-0.057
-579.792	-51.614	-0.127	-0.060
-578.777	-35.198	0.245	-0.135
-577.763	-200.000	-0.004	-0.200
-576.748	77.289	0.137	-0.148
-575.733	-200.000	-0.019	-0.161
-574.719	75.727	-0.132	0.142
-573.704	125.892	-0.249	0.319
-572.690	104.810	-0.244	0.292
-571.675	367.538	0.117	-0.240
-570.661	153.583	0.224	-0.312
-569.646	-189.475	0.122	0.001
-568.631	-101.717	-0.276	0.068
-567.617	722.608	-0.030	-0.080
-566.602	800.000	-0.010	0.036
-565.588	-33.851	-0.295	-0.165
-564.573	-200.000	0.007	0.100
-563.558	-200.000	0.022	0.215
-562.544	-19.915	-0.176	-0.110
-561.529	-120.458	0.223	0.038
-560.515	-7.328	0.110	0.076
-559.500	344.567	-0.138	0.274
-558.485	616.476	0.055	0.139
-557.471	-148.771	0.359	-0.030
-556.456	-192.193	-0.139	-0.001
-555.442	220.652	0.225	0.365
-554.427	-99.421	0.383	-0.098
-553.412	28.244	-0.259	0.222
-552.398	-50.128	-0.227	0.109
-551.383	800.000	0.041	0.117
-550.369	220.058	-0.125	-0.203
-549.354	105.885	-0.118	0.142
-548.339	-137.798	0.574	-0.065
-547.325	140.515	0.021	-0.027
-546.310	800.000	0.061	-0.205
-545.296	-130.219	0.277	0.038
-544.281	51.858	-0.227	0.219
-543.266	-92.244	0.235	0.067
-542.252	-200.000	-0.048	-0.220
-541.237	-5.563	0.373	-0.260
-540.223	-121.965	0.184	-0.031
-539.208	-200.000	-0.009	-0.065
-538.193	38.818	0.111	0.100
-537.179	-200.000	0.032	0.214
-536.164	104.197	0.431	-0.514
-535.150	-96.735	0.228	0.061
-534.135	-200.000	-0.017	0.219
-533.121	6.591	-0.243	0.183
-532.106	-179.336	-0.297	0.007
-531.091	-200.000	0.000	-0.087
-530.077	27.957	0.257	0.219
-529.062	377.551	-0.024	0.050
-528.048	-200.000	-0.049	0.308
-527.033	800.000	0.094	0.383
-526.018	-200.000	-0.026	0.155
-525.004	-200.000	-0.084	-0.379
-523.989	-114.474	-0.306	-0.060
-522.975	467.411	-0.121	-0.274
-521.960	-52.097	-0.150	-0.070
-520.945	201.128	0.136	0.212
-519.931	-164.517	0.054	0.003
-518.916	-65.760	0.099	-0.040
-517.902	-153.788	0.335	-0.023
-516.887	69.905	0.107	0.112
-515.872	-200.000	0.423	-0.000
-514.858	73.056	0.351	0.371
-513.843	209.881	0.123	0.195
-512.829	-73.414	-0.212	-0.078
-511.814	-48.102	-0.044	0.022
-510.799	249.974	0.069	-0.118
-509.785	-73.230	0.404	0.150
-508.770	4.120	-0.185	0.137
-507.756	-94.808	0.269	-0.074
-506.741	-132.489	-0.335	-0.044
-505.726	800.000	0.017	0.067
-504.712	-200.000	0.015	-0.087
-503.697	-7.703	-0.116	-0.079
-502.683	-20.976	-0.164	-0.102
-501.668	-200.000	0.034	0.161
-500.653	-78.194	0.191	-0.066
-499.639	362.553	-0.059	-0.120
-498.624	136.143	-0.036	0.048
-497.610	-31.450	0.101	0.057
-496.595	-165.495	-0.207	0.009
-495.581	37.597	0.100	0.090
-494.566	-46.528	0.124	0.061
-493.551	800.000	-0.038	-0.137
-492.537	-120.352	0.069	0.012
-491.522	-1.285	-0.106	-0.076
-490.508	-38.789	0.404	0.216
-489.493	-200.000	0.007	0.064
-488.478	-114.885	-0.128	-0.025
-487.464	800.000	0.079	-0.268
-486.449	-200.000	0.023	0.235
-485.435	-130.682	0.320	0.044
-484.420	-47.078	0.266	0.131
-483.405	-56.844	-0.149	0.067
-482.391	-162.259	0.167	0.008
-481.376	447.970	0.053	-0.117
-480.362	-26.574	0.057	-0.034
-479.347	-200.000	0.022	-0.303
-478.332	-135.157	0.495	0.060
-477.318	-171.952	0.118	-0.004
-476.303	-127.912	0.276	0.040
-475.289	-95.176	0.194	-0.053
-474.274	800.000	-0.103	0.343
-473.259	472.082	-0.073	-0.167
-472.245	314.551	-0.112	0.214
-471.230	-161.815	-0.182	-0.009
-470.216	442.109	0.088	0.195
-469.201	59.033	0.127	-0.126
-468.186	-32.277	0.069	-0.039
-467.172	228.575	0.060	0.098
-466.157	-200.000	0.028	-0.315
-465.143	-138.309	-0.350	-0.039
-464.128	-63.151	0.126	0.052
-463.113	463.814	-0.032	0.073
-462.099	47.759	-0.221	-0.208
-461.084	-200.000	0.006	-0.095
-460.070	-128.817	0.159	-0.023
-459.055	800.000	-0.056	-0.223
-458.040	452.534	0.013	-0.029
-457.026	-10.276	0.115	-0.077
-456.011	-200.000	-0.014	-0.148
-454.997	-3.967	0.322	0.226
-453.982	317.443	-0.259	-0.495
-452.968	69.308	-0.247	0.256
-451.953	800.000	-0.063	-0.236
-450.938	800.000	-0.124	0.347
-449.924	-143.537	0.310	-0.030
-448.909	-157.646	-0.158	-0.010
-447.895	-200.000	0.018	0.165
-446.880	200.084	0.054	-0.083
-445.865	11.037	0.038	0.029
-444.851	61.263	0.173	0.174
-443.836	-32.555	0.353	-0.199
-442.822	41.671	0.038	-0.035
-441.807	-200.000	0.007	-0.056
-440.792	-52.479	-0.281	-0.131
-439.778	133.669	-0.063	0.083
-438.763	-76.443	-0.256	0.091
-437.749	482.189	-0.139	-0.318
-436.734	-200.000	-0.038	-0.199
-435.719	220.770	-0.233	0.378
-434.705	-200.000	-0.012	0.215
-433.690	-17.021	0.208	0.133
-432.676	192.283	-0.177	0.269
-431.661	-86.856	-0.431	0.133
-430.646	384.188	0.031	0.064
-429.632	800.000	-0.073	0.306
-428.617	446.404	0.110	-0.244
-427.603	-23.547	0.282	0.171
-426.588	149.591	-0.134	-0.184
-425.573	-38.055	0.056	0.030
-424.559	442.456	0.074	-0.164
-423.544	-200.000	-0.401	0.000
-422.530	-25.269	0.316	0.189
-421.515	159.181	0.064	-0.090
-420.500	-200.000	0.027	-0.152
-419.486	-21.429	0.008	0.005
-418.471	-120.377	-0.109	-0.019
-417.457	-17.679	0.113	-0.071
-416.442	-99.681	0.106	-0.027
-415.428	228.695	-0.116	0.190
-414.413	-13.752	-0.176	-0.115
-413.398	800.000	0.044	-0.136
-412.384	-70.906	-0.302	-0.115
-411.369	433.986	0.153	0.335
-410.355	-200.000	-0.039	-0.263
-409.340	-200.000	0.021	-0.098
-408.325	295.231	-0.068	-0.125
-407.311	40.808	0.108	0.098
-406.296	800.000	-0.047	-0.204
-405.282	-44.780	0.365	0.183
-404.267	-51.288	0.261	-0.123
-403.252	-136.134	0.202	0.024
-402.238	800.000	0.090	-0.392
-401.223	182.632	0.202	-0.300
-400.209	-200.000	0.069	0.320
-399.194	800.000	-0.029	0.098
-398.179	102.121	-0.027	0.032
-397.165	-104.240	0.200	-0.047
-396.150	-51.014	-0.157	-0.074
-395.136	-200.000	0.054	0.289
-394.121	-138.845	0.319	-0.035
-393.106	116.694	0.064	-0.079
-392.092	171.789	0.141	-0.204
-391.077	-134.884	0.141	0.017
-390.063	-118.720	-0.343	-0.061
-389.048	7.742	-0.229	-0.173
-388.033	-132.554	0.382	0.049
-387.019	384.566	0.097	0.201
-386.004	-200.000	-0.028	0.135
-384.990	217.176	-0.230	-0.370
-383.975	-18.344	0.243	0.153
-382.960	19.450	0.196	-0.159
-381.946	65.095	0.200	-0.204
-380.931	265.654	-0.038	-0.068
-379.917	-49.726	-0.121	0.058
-378.902	-200.000	0.048	0.222
-377.888	3.411	-0.122	0.089
-376.873	-200.000	-0.084	-0.422
-375.858	150.278	0.168	-0.230
-374.844	800.000	0.046	-0.197
-373.829	410.924	-0.122	0.261
-372.815	-68.804	-0.175	-0.068
-371.800	800.000	0.091	-0.330
-370.785	172.686	-0.178	-0.258
-369.771	800.000	-0.055	-0.229
-368.756	-200.000	0.032	-0.181
-367.742	-178.280	0.202	-0.005
-366.727	8.316	-0.458	0.347
-365.712	45.231	0.153	0.142
-364.698	-144.647	-0.116	0.011
-363.683	-100.866	-0.211	-0.052
-362.669	-22.642	-0.086	0.052
-361.654	-102.283	-0.159	0.039
-360.639	467.874	0.172	-0.387
-359.625	-170.181	-0.108	0.004
-358.610	-138.841	0.155	-0.017
-357.596	314.207	0.094	-0.177
-356.581	55.696	0.220	0.214
-355.566	800.000	0.214	0.608
-354.552	800.000	-0.023	0.079
-353.537	-34.359	0.092	-0.051
-352.523	25.223	0.126	-0.105
-351.508	31.268	-0.228	-0.197
-350.493	769.825	-0.146	0.400
-349.479	490.564	-0.070	0.161
-348.464	361.354	-0.176	-0.355
-347.450	-158.525	0.030	0.002
-346.435	800.000	0.071	-0.204
-345.420	-88.041	0.041	0.012
-344.406	-52.546	-0.317	0.147
-343.391	-19.858	-0.327	-0.203
-342.377	361.521	0.163	-0.329
-341.362	-151.716	0.184	-0.014
-340.348	472.493	0.037	0.083
-339.333	311.175	-0.044	-0.084
-338.318	-48.326	-0.284	-0.138
-337.304	-45.100	-0.369	-0.184
-336.289	249.428	-0.056	0.095
-335.275	-53.393	0.294	0.136
-334.260	-50.970	-0.251	0.119
-333.245	-200.000	-0.007	-0.138
-332.231	-13.088	0.185	0.121
-331.216	19.172	0.295	0.238
-330.202	310.754	-0.191	-0.359
-329.187	-200.000	-0.002	-0.134
-328.172	800.000	0.059	0.207
-327.158	-200.000	0.040	-0.335
-326.143	140.313	-0.250	0.331
-325.129	558.743	-0.025	-0.060
-324.114	-200.000	0.035	-0.277
-323.099	-52.639	0.023	0.011
-322.085	-200.000	0.057	0.282
-321.070	-57.393	-0.138	0.061
-320.056	504.845	0.055	-0.129
-319.041	-68.737	-0.287	0.112
-318.026	-200.000	0.065	0.332
-317.012	38.849	-0.091	-0.082
-315.997	728.855	0.088	-0.235
-314.983	532.640	-0.134	-0.319
-313.968	379.761	-0.182	0.375
-312.953	-167.136	0.186	-0.008
-311.939	-159.449	0.081	0.005
-310.924	352.152	0.121	-0.240
-309.910	48.798	-0.258	0.243
-308.895	-21.794	0.087	-0.053
-307.880	622.514	0.085	-0.214
-306.866	-155.159	-0.180	0.012
-305.851	-200.000	0.003	-0.204
-304.837	-140.617	-0.017	-0.002
-303.822	-94.871	-0.194	-0.053
-302.807	89.486	-0.092	-0.103
-301.793	46.987	0.287	0.268
-300.778	160.288	-0.046	-0.064
-299.764	-9.943	-0.194	0.129
-298.749	-200.000	-0.021	-0.350
-297.735	194.969	0.204	0.312
-296.720	34.299	0.159	-0.139
-295.705	-200.000	0.002	-0.035
-294.691	26.825	0.168	-0.141
-293.676	144.817	-0.060	0.081
-292.662	-200.000	0.036	0.219
-291.647	-200.000	-0.043	0.255
-290.632	-85.422	0.117	-0.037
-289.618	-29.550	0.051	-0.030
-288.603	800.000	0.044	0.141
-287.589	125.300	-0.209	-0.264
-286.574	-200.000	0.002	0.124
-285.559	800.000	0.078	-0.308
-284.545	724.001	-0.053	-0.140
-283.530	800.000	-0.009	-0.026
-282.516	-51.044	-0.358	0.168
-281.501	-35.720	0.343	0.186
-280.486	800.000	-0.023	-0.089
-279.472	-115.631	-0.261	-0.049
-278.457	-98.529	-0.173	-0.044
-277.443	-200.000	-0.021	-0.307
-276.428	93.919	-0.094	-0.106
-275.413	251.489	-0.135	-0.230
-274.399	97.933	-0.236	0.272
-273.384	-106.466	0.398	0.089
-272.370	-61.927	-0.122	-0.051
-271.355	-21.693	-0.121	0.074
-270.340	800.000	-0.110	0.349
-269.326	17.667	0.044	-0.035
-268.311	-56.544	-0.291	-0.129
-267.297	236.320	-0.047	0.078
-266.282	800.000	-0.051	-0.149
-265.267	36.800	-0.120	-0.107
-264.253	800.000	-0.027	-0.078
-263.238	-200.000	-0.005	-0.146
-262.224	-200.000	0.016	-0.171
-261.209	-200.000	-0.049	0.380
-260.195	800.000	0.096	0.308
-259.180	-200.000	-0.013	0.236
-258.165	117.635	-0.208	0.256
-257.151	-71.841	-0.363	0.135
-256.136	-46.441	0.254	-0.125
-255.122	800.000	0.094	-0.347
-254.107	-54.516	0.187	0.085
-253.092	5.857	0.050	-0.037
-252.078	129.575	0.124	-0.158
-251.063	-144.024	0.317	-0.030
-250.049	76.555	-0.094	-0.100
-249.034	244.868	0.087	0.146
-248.019	329.783	-0.076	0.146
-247.005	-36.329	0.219	0.118
-245.990	-112.203	0.143	0.029
-244.976	800.000	0.015	0.065
-243.961	356.515	-0.068	0.136
-242.946	800.000	-0.034	0.140
-241.932	298.630	-0.101	0.186
-240.917	-185.713	0.288	-0.004
-239.903	61.732	-0.069	-0.069
-238.888	-133.361	0.236	0.030
-237.873	27.100	0.032	-0.027
-236.859	53.763	-0.220	-0.212
-235.844	-200.000	0.008	-0.400
-234.830	14.322	-0.377	-0.295
-233.815	191.775	-0.086	0.130
-232.800	96.487	0.328	0.376
-231.786	395.638	0.093	-0.195
-230.771	-200.000	-0.013	-0.107
-229.757	-18.439	0.271	0.170
-228.742	-200.000	0.043	0.202
-227.727	605.443	-0.072	0.180
-226.713	277.598	0.083	0.148
-225.698	3.379	0.263	0.192
-224.684	-60.314	-0.237	-0.101
-223.669	-146.424	0.290	0.025
-222.655	-114.558	-0.205	-0.039
-221.640	134.558	0.126	-0.164
-220.625	93.456	0.108	-0.122
-219.611	517.775	0.043	-0.101
-218.596	-82.026	-0.378	0.124
-217.582	-106.331	-0.200	0.045
-216.567	3.278	-0.302	-0.220
-215.552	76.904	-0.096	0.102
-214.538	-5.741	-0.178	-0.122
-213.523	189.225	0.076	0.114
-212.509	-167.766	0.044	0.002
-211.494	-0.822	0.143	0.101
-210.479	128.916	-0.060	0.077
-209.465	-111.703	0.175	0.036
-208.450	-39.321	0.035	0.019
-207.436	420.727	0.033	0.071
-206.421	-200.000	0.032	0.195
-205.406	44.843	-0.184	0.170
-204.392	-103.187	-0.398	-0.094
-203.377	-144.117	0.162	-0.015
-202.363	642.121	-0.126	-0.321
-201.348	-76.094	0.241	-0.085
-200.333	-200.000	0.038	-0.208
-199.319	175.027	-0.132	0.192
-198.304	-101.869	-0.262	-0.063
-197.290	201.967	-0.090	0.138
-196.275	12.612	0.111	0.086
-195.260	-79.201	-0.166	-0.056
-194.246	80.295	0.081	-0.087
-193.231	-113.707	-0.403	0.079
-192.217	-154.674	-0.202	0.013
-191.202	202.030	-0.248	0.383
-190.187	-157.135	-0.603	-0.037
-189.173	-25.704	-0.073	0.043
-188.158	-153.092	0.342	-0.024
-187.144	50.819	-0.328	-0.311
-186.129	-80.280	0.425	0.142
-185.114	-123.400	-0.149	0.024
-184.100	-12.032	-0.135	0.089
-183.085	-200.000	0.042	0.212
-182.071	183.329	0.066	-0.098
-181.056	-154.089	0.489	0.033
-180.042	800.000	0.042	0.147
-179.027	-122.985	0.368	-0.059
-178.012	-119.183	-0.228	-0.040
-176.998	59.674	-0.057	0.056
-175.983	-9.866	0.275	-0.183
-174.969	-27.091	0.188	0.110
-173.954	-200.000	0.020	-0.352
-172.939	29.382	0.155	0.132
-171.925	800.000	0.051	0.188
-170.910	0.641	0.280	-0.200
-169.896	-200.000	0.014	-0.175
-168.881	-159.451	0.229	-0.013
-167.866	-52.122	-0.174	-0.081
-166.852	-83.148	0.368	0.118
-165.837	-139.775	0.162	0.017
-164.823	-200.000	0.052	0.313
-163.808	208.523	0.064	-0.099
-162.793	-200.000	-0.020	-0.341
-161.779	-160.297	-0.122	-0.007
-160.764	25.775	0.093	0.077
-159.750	499.452	0.043	-0.099
-158.735	-200.000	-0.026	-0.150
-157.720	-40.040	0.058	-0.030
-156.706	63.077	0.074	0.074
-155.691	209.023	-0.186	0.291
-154.677	-54.736	-0.196	-0.088
-153.662	244.965	-0.152	0.255
-152.647	118.337	0.214	-0.263
-151.633	-129.684	0.304	-0.042
-150.618	241.918	-0.010	0.017
-149.604	340.953	-0.126	0.245
-148.589	59.808	-0.073	-0.072
-147.574	-200.000	0.026	-0.299
-146.560	279.312	0.084	-0.150
-145.545	-132.144	-0.379	-0.049
-144.531	-105.723	-0.104	-0.023
-143.516	148.458	-0.218	0.294
-142.502	58.265	0.047	0.046
-141.487	87.445	-0.158	-0.175
-140.472	-22.182	0.099	-0.060
-139.458	613.850	0.036	-0.091
-138.443	-200.000	0.076	-0.489
-137.429	-85.635	0.101	-0.031
-136.414	104.894	0.168	-0.198
-135.399	14.392	0.093	0.073
-134.385	-16.204	0.076	-0.048
-133.370	800.000	0.076	0.236
-132.356	138.928	0.091	-0.119
-131.341	800.000	0.017	-0.050
-130.326	65.850	-0.061	0.062
-129.312	-59.311	0.189	0.081
-128.297	449.283	0.158	0.347
-127.283	-81.191	0.397	-0.131
-126.268	-200.000	0.013	-0.387
-125.253	-94.001	-0.049	-0.013
-124.239	-200.000	0.024	0.191
-123.224	-131.246	0.187	0.025
-122.210	-23.607	-0.155	-0.093
