DTS Sentinel unit serial number:	SN413079Multiplexer serial number:	ORYXHardware model number:	OX4-SRSoftware version number:	ORYX F/W v4.00 Oryx Data Collector v3.7.2.0data status	okinstallation	princeton_trtdifferential loss correction	single-endedforward channel	channel 4reverse channel	N/Adate	2019/09/18time	22:09:35forward acquisition time	60.00reverse acquisition time	0.00gamma	496.2192k internal	0.2332k external	0.2332temperature offset calibration	1.0032default loss term (dB/km)	0.3790temperature slope calibration	1.0000multiplexer offset coefficient	1.0000multiplexer slope coefficient	1.0000fibre end	0.00T internal ref (°C)	24.44T ext. ref 1 (°C)	0.80T ext. ref 2 (°C)	18.22length (m)	temperature (°C)	Stokes	anti-Stokes-747.200	-16.653	-0.206	-0.131
-746.185	-200.000	0.038	0.502
-745.171	-41.712	0.256	0.132
-744.156	176.849	0.125	0.183
-743.142	153.639	-0.012	-0.017
-742.127	106.729	-0.121	0.144
-741.112	-64.800	0.462	0.188
-740.098	457.306	-0.010	-0.023
-739.083	200.817	0.042	-0.065
-738.069	-124.533	-0.270	-0.042
-737.054	-32.306	0.217	-0.122
-736.039	-28.276	-0.200	0.116
-735.025	-57.002	0.436	0.193
-734.010	185.651	-0.151	-0.225
-732.996	-41.379	-0.155	-0.080
-731.981	-118.278	-0.054	0.010
-730.966	-114.207	0.234	-0.045
-729.952	-200.000	0.020	-0.096
-728.937	374.225	-0.159	-0.326
-727.923	-114.747	0.098	0.019
-726.908	800.000	-0.082	-0.294
-725.894	184.948	0.063	-0.093
-724.879	-200.000	-0.014	-0.076
-723.864	-186.468	-0.183	0.003
-722.850	800.000	-0.034	-0.097
-721.835	481.481	0.111	-0.253
-720.821	408.147	-0.014	0.030
-719.806	-150.865	-0.127	-0.010
-718.791	49.708	-0.154	0.146
-717.777	-200.000	0.008	-0.194
-716.762	-140.742	-0.175	-0.018
-715.748	78.686	-0.164	-0.177
-714.733	69.361	0.077	-0.080
-713.718	-56.840	-0.389	-0.173
-712.704	-200.000	-0.006	-0.308
-711.689	800.000	-0.077	-0.279
-710.675	-15.641	0.134	-0.086
-709.660	-117.760	0.131	-0.024
-708.645	-200.000	0.010	0.073
-707.631	141.800	0.073	-0.097
-706.616	139.196	-0.161	-0.213
-705.602	-200.000	0.007	-0.265
-704.587	-151.694	-0.109	0.008
-703.572	-200.000	0.024	0.172
-702.558	-200.000	0.005	-0.279
-701.543	-127.279	0.322	0.047
-700.529	-44.452	-0.121	0.061
-699.514	-200.000	-0.023	0.133
-698.499	-48.173	-0.043	0.021
-697.485	63.982	-0.080	0.080
-696.470	42.677	-0.263	0.241
-695.456	20.088	0.050	0.040
-694.441	-42.187	-0.098	-0.050
-693.426	-28.223	-0.211	-0.122
-692.412	800.000	0.053	-0.193
-691.397	800.000	-0.012	-0.049
-690.383	-48.717	-0.234	-0.113
-689.368	37.744	-0.044	-0.039
-688.354	800.000	-0.062	-0.182
-687.339	-200.000	0.025	-0.137
-686.324	331.123	-0.092	-0.178
-685.310	-185.085	-0.116	-0.002
-684.295	203.796	-0.065	-0.101
-683.281	124.553	-0.270	0.341
-682.266	-200.000	-0.002	-0.030
-681.251	800.000	0.094	-0.270
-680.237	-200.000	-0.013	-0.105
-679.222	73.069	0.164	0.172
-678.208	-200.000	-0.010	0.141
-677.193	-68.025	-0.211	-0.082
-676.178	-17.620	-0.128	0.081
-675.164	38.707	-0.293	0.263
-674.149	-112.483	0.339	-0.068
-673.135	701.867	-0.098	-0.260
-672.120	-109.707	0.163	-0.034
-671.105	-200.000	0.012	0.205
-670.091	800.000	-0.082	-0.280
-669.076	310.049	-0.086	-0.162
-668.062	-7.432	-0.179	-0.122
-667.047	42.334	0.018	0.017
-666.032	677.017	0.192	0.502
-665.018	800.000	-0.055	0.213
-664.003	-157.804	0.164	-0.010
-662.989	800.000	0.091	0.256
-661.974	231.884	-0.031	0.051
-660.959	-108.018	-0.343	-0.075
-659.945	-200.000	-0.000	-0.230
-658.930	95.280	-0.191	-0.218
-657.916	-39.220	-0.126	-0.067
-656.901	800.000	-0.063	0.261
-655.886	-83.017	-0.235	-0.076
-654.872	-200.000	-0.026	0.121
-653.857	26.954	0.031	0.026
-652.843	-200.000	0.009	-0.115
-651.828	210.677	0.110	0.173
-650.814	-200.000	-0.008	0.336
-649.799	800.000	-0.080	0.231
-648.784	800.000	0.069	-0.258
-647.770	-200.000	0.039	-0.204
-646.755	-175.154	-0.132	0.004
-645.741	800.000	-0.023	0.101
-644.726	-122.703	0.190	-0.031
-643.711	197.637	-0.178	-0.273
-642.697	44.309	0.119	-0.110
-641.682	61.842	-0.106	-0.106
-640.668	-200.000	0.033	0.207
-639.653	403.718	0.018	0.038
-638.638	-161.560	-0.083	0.004
-637.624	312.728	0.099	0.187
-636.609	-200.000	-0.066	-0.487
-635.595	-200.000	-0.019	-0.330
-634.580	142.285	0.075	-0.099
-633.565	114.729	-0.109	0.133
-632.551	-127.839	0.236	0.034
-631.536	-132.806	0.048	0.006
-630.522	382.188	-0.099	0.203
-629.507	-200.000	-0.029	0.292
-628.492	-28.056	-0.252	-0.146
-627.478	-66.527	-0.050	0.020
-626.463	238.189	0.170	0.283
-625.449	-88.941	0.330	0.098
-624.434	547.757	-0.096	0.230
-623.419	-67.132	0.116	-0.046
-622.405	-42.662	0.106	0.054
-621.390	196.959	0.103	0.157
-620.376	800.000	0.105	0.404
-619.361	-109.882	-0.272	0.057
-618.346	718.375	0.065	-0.173
-617.332	184.046	-0.040	0.059
-616.317	-0.631	-0.148	0.105
-615.303	-34.734	0.133	-0.073
-614.288	-78.602	0.262	0.090
-613.273	800.000	0.042	-0.130
-612.259	92.240	0.124	-0.139
-611.244	-137.123	-0.340	-0.039
-610.230	-136.198	-0.174	0.020
-609.215	-56.694	-0.087	0.038
-608.201	51.814	0.159	0.151
-607.186	-76.853	0.078	-0.027
-606.171	-88.332	0.328	-0.098
-605.157	367.715	0.143	-0.290
-604.142	-136.179	-0.421	-0.049
-603.128	-200.000	-0.004	-0.020
-602.113	-200.000	-0.015	0.105
-601.098	-200.000	-0.024	-0.336
-600.084	-146.046	0.052	0.005
-599.069	-76.805	0.207	-0.072
-598.055	413.829	-0.149	-0.317
-597.040	476.491	0.046	0.104
-596.025	-16.506	0.180	0.114
-595.011	800.000	-0.077	0.231
-593.996	52.756	0.186	0.177
-592.982	175.330	-0.036	0.053
-591.967	-93.184	0.297	0.083
-590.952	-154.790	-0.117	0.008
-589.938	14.295	-0.236	-0.184
-588.923	225.420	0.018	0.030
-587.909	380.412	-0.045	-0.093
-586.894	-156.241	0.236	0.015
-585.879	-200.000	0.011	-0.244
-584.865	296.673	-0.058	0.106
-583.850	42.171	-0.167	0.152
-582.836	-38.676	-0.111	-0.059
-581.821	36.520	-0.034	-0.030
-580.806	-147.033	-0.218	0.019
-579.792	-74.526	-0.347	-0.125
-578.777	-200.000	-0.009	0.259
-577.763	-200.000	-0.005	-0.115
-576.748	800.000	0.051	0.208
-575.733	800.000	0.067	-0.266
-574.719	800.000	-0.086	-0.297
-573.704	800.000	0.059	0.198
-572.690	-132.823	0.288	-0.037
-571.675	709.571	0.063	-0.166
-570.661	63.947	0.057	-0.057
-569.646	-150.646	0.138	0.010
-568.631	364.503	0.044	0.089
-567.617	-193.024	-0.303	-0.003
-566.602	-160.737	-0.142	-0.008
-565.588	71.021	0.208	-0.215
-564.573	-200.000	0.007	0.179
-563.558	48.720	-0.202	-0.190
-562.544	136.635	0.079	0.102
-561.529	214.058	0.135	0.214
-560.515	78.337	-0.071	-0.075
-559.500	-85.237	-0.372	-0.116
-558.485	-42.073	-0.102	0.052
-557.471	-200.000	0.032	-0.188
-556.456	-56.550	0.381	-0.169
-555.442	-73.712	-0.077	0.028
-554.427	-61.900	0.464	-0.194
-553.412	-77.266	0.354	-0.123
-552.398	-63.654	0.320	0.131
-551.383	-176.300	-0.283	0.007
-550.369	-200.000	-0.024	-0.148
-549.354	-136.182	-0.219	-0.026
-548.339	50.795	0.125	0.118
-547.325	273.010	0.054	-0.095
-546.310	97.074	0.129	-0.147
-545.296	157.785	-0.109	0.151
-544.281	39.571	-0.148	0.132
-543.266	381.487	-0.110	0.226
-542.252	132.088	0.206	0.265
-541.237	-34.338	0.209	-0.114
-540.223	100.069	0.097	-0.112
-539.208	-104.686	-0.226	-0.052
-538.193	130.923	0.219	0.280
-537.179	-23.536	-0.169	0.101
-536.164	800.000	0.045	-0.131
-535.150	-102.872	-0.265	0.063
-534.135	-22.908	0.230	-0.139
-533.121	247.739	0.106	-0.179
-532.106	-70.650	0.049	-0.019
-531.091	-66.803	-0.317	0.125
-530.077	-92.115	-0.151	-0.043
-529.062	-165.611	0.286	0.012
-528.048	-54.458	-0.143	0.065
-527.033	357.729	-0.073	-0.144
-526.018	-85.117	0.114	0.035
-525.004	67.140	0.233	-0.237
-523.989	46.503	-0.342	0.317
-522.975	-174.884	0.192	-0.005
-521.960	-200.000	0.001	-0.141
-520.945	-35.269	-0.141	0.076
-519.931	-3.415	-0.104	-0.072
-518.916	233.091	-0.122	-0.199
-517.902	-200.000	0.007	0.180
-516.887	-175.536	0.289	0.008
-515.872	-119.930	-0.142	0.024
-514.858	109.859	0.063	-0.076
-513.843	-200.000	-0.027	-0.292
-512.829	-150.726	-0.247	-0.019
-511.814	-87.538	-0.123	0.037
-510.799	-79.723	-0.220	-0.074
-509.785	-98.989	0.214	0.054
-508.770	-75.745	-0.359	0.127
-507.756	-31.239	-0.112	0.063
-506.741	-200.000	0.002	0.154
-505.726	310.417	-0.093	-0.174
-504.712	310.846	-0.100	0.186
-503.697	212.644	0.028	0.044
-502.683	253.330	-0.093	0.159
-501.668	-130.813	0.152	0.020
-500.653	420.005	-0.207	0.442
-499.639	314.622	-0.043	-0.080
-498.624	290.200	0.085	-0.154
-497.610	453.556	-0.089	0.196
-496.595	527.040	-0.174	0.408
-495.581	-13.915	-0.237	-0.153
-494.566	-200.000	0.634	-0.001
-493.551	112.820	-0.152	-0.183
-492.537	-200.000	-0.033	-0.231
-491.522	-55.550	-0.232	0.103
-490.508	-200.000	0.040	0.250
-489.493	-29.565	-0.070	-0.040
-488.478	294.811	0.084	0.152
-487.464	146.698	-0.133	-0.179
-486.449	105.186	0.130	0.153
-485.435	80.349	0.182	-0.195
-484.420	0.339	0.192	0.137
-483.405	9.158	-0.106	-0.079
-482.391	553.156	0.023	0.055
-481.376	-200.000	0.018	-0.186
-480.362	-75.981	-0.062	0.022
-479.347	800.000	0.039	0.152
-478.332	-200.000	-0.021	-0.236
-477.318	24.218	0.081	0.066
-476.303	-96.714	0.078	0.020
-475.289	-148.254	-0.197	0.016
-474.274	53.680	-0.138	-0.132
-473.259	208.486	0.178	0.276
-472.245	-200.000	-0.022	-0.507
-471.230	784.571	0.080	0.217
-470.216	78.937	0.238	0.253
-469.201	182.639	0.087	-0.128
-468.186	-137.164	0.307	0.035
-467.172	298.288	-0.096	-0.176
-466.157	259.462	0.087	-0.149
-465.143	800.000	-0.079	0.295
-464.128	-100.242	-0.209	-0.052
-463.113	113.813	-0.074	-0.090
-462.099	173.323	-0.136	0.196
-461.084	-165.238	0.182	-0.008
-460.070	175.437	0.085	-0.123
-459.055	-43.665	-0.163	-0.082
-458.040	-144.000	-0.154	-0.014
-457.026	108.410	0.147	0.175
-456.011	-34.657	-0.117	0.064
-454.997	-200.000	0.005	0.340
-453.982	-92.495	0.115	-0.032
-452.968	240.685	-0.052	0.087
-451.953	79.870	-0.143	0.153
-450.938	23.256	-0.241	-0.197
-449.924	-5.632	-0.279	0.191
-448.909	14.612	0.110	-0.086
-447.895	-200.000	-0.006	-0.119
-446.880	800.000	-0.035	0.105
-445.865	-200.000	-0.034	-0.238
-444.851	-99.333	-0.207	0.052
-443.836	-45.086	0.125	-0.062
-442.822	-85.645	-0.499	-0.154
-441.807	-26.762	-0.126	0.073
-440.792	127.405	-0.256	0.323
-439.778	33.113	0.124	0.107
-438.763	15.187	-0.205	0.160
-437.749	-67.197	-0.064	-0.025
-436.734	-183.986	0.292	-0.005
-435.719	-45.093	0.216	0.107
-434.705	-29.792	0.268	-0.152
-433.690	7.727	0.230	0.171
-432.676	-200.000	0.003	0.318
-431.661	108.218	-0.148	-0.175
-430.646	-90.333	0.235	0.068
-429.632	628.791	0.094	-0.237
-428.617	-54.813	-0.200	-0.090
-427.603	527.122	0.112	-0.263
-426.588	36.129	0.137	-0.120
-425.573	512.286	-0.091	-0.210
-424.559	800.000	-0.071	-0.235
-423.544	-75.381	-0.262	-0.093
-422.530	-169.748	0.413	-0.015
-421.515	12.326	-0.120	-0.091
-420.500	-200.000	0.145	0.000
-419.486	412.784	0.050	0.105
-418.471	-65.647	0.282	0.112
-417.457	-36.563	0.194	-0.104
-416.442	-138.969	0.167	0.018
-415.428	288.885	-0.060	0.108
-414.413	-76.970	-0.275	-0.095
-413.398	-11.450	-0.200	0.131
-412.384	-200.000	-0.054	0.288
-411.369	-89.823	-0.028	0.008
-410.355	-200.000	0.000	-0.073
-409.340	-200.000	-0.002	-0.476
-408.325	233.084	-0.135	-0.220
-407.311	-91.852	0.066	0.018
-406.296	-135.524	0.151	-0.018
-405.282	315.060	0.159	-0.298
-404.267	-200.000	0.108	0.576
-403.252	-54.416	-0.202	-0.091
-402.238	-148.040	-0.230	-0.019
-401.223	41.192	0.151	-0.135
-400.209	9.060	0.216	0.162
-399.194	63.755	0.102	0.101
-398.179	800.000	-0.063	0.203
-397.165	492.722	0.065	0.148
-396.150	20.450	-0.147	-0.118
-395.136	-136.706	0.182	0.021
-394.121	-93.005	-0.419	-0.116
-393.106	-73.637	-0.036	-0.013
-392.092	-200.000	0.006	-0.284
-391.077	-200.000	0.023	-0.419
-390.063	37.341	0.363	0.319
-389.048	130.485	0.176	0.223
-388.033	-169.266	0.331	-0.012
-387.019	-112.229	0.106	-0.021
-386.004	-171.648	0.253	-0.008
-384.990	-33.181	-0.049	0.027
-383.975	75.490	-0.239	0.250
-382.960	43.638	-0.235	0.214
-381.946	-4.774	0.058	0.040
-380.931	-200.000	0.014	-0.150
-379.917	-2.475	0.179	0.125
-378.902	617.296	-0.213	0.530
-377.888	177.436	-0.126	-0.181
-376.873	262.911	-0.223	-0.384
-375.858	-90.774	0.088	0.025
-374.844	425.480	0.046	0.099
-373.829	-23.877	-0.250	-0.148
-372.815	-200.000	-0.029	0.127
-371.800	-70.125	0.219	0.083
-370.785	18.939	0.066	0.052
-369.771	-55.872	0.107	0.047
-368.756	142.252	0.065	0.086
-367.742	-21.064	-0.187	0.113
-366.727	516.967	-0.090	0.208
-365.712	93.266	0.088	0.099
-364.698	3.456	0.251	0.181
-363.683	-200.000	-0.005	0.271
-362.669	-94.029	0.293	-0.080
-361.654	-200.000	-0.003	-0.359
-360.639	-200.000	0.054	-0.246
-359.625	-200.000	0.013	-0.166
-358.610	800.000	-0.081	-0.299
-357.596	-200.000	0.016	-0.404
-356.581	-139.953	0.325	-0.034
-355.566	120.031	0.241	-0.296
-354.552	800.000	-0.031	-0.113
-353.537	-94.435	0.431	0.116
-352.523	-99.587	-0.317	0.079
-351.508	271.678	0.040	0.070
-350.493	-32.992	0.098	-0.054
-349.479	629.936	-0.080	-0.201
-348.464	38.194	-0.077	-0.068
-347.450	-200.000	0.004	-0.280
-346.435	-185.385	0.163	0.002
-345.420	-60.249	-0.259	-0.109
-344.406	-25.057	0.384	0.226
-343.391	-17.835	0.276	-0.172
-342.377	-200.000	-0.026	0.204
-341.362	491.817	-0.012	-0.027
-340.348	405.276	-0.093	-0.195
-339.333	124.060	-0.163	0.203
-338.318	-92.833	-0.126	0.035
-337.304	113.883	-0.172	0.208
-336.289	-138.470	0.093	-0.010
-335.275	114.329	-0.136	0.164
-334.260	65.940	-0.154	0.154
-333.245	168.143	-0.002	0.003
-332.231	300.494	-0.031	-0.057
-331.216	526.245	0.152	0.354
-330.202	87.006	0.074	-0.081
-329.187	-97.115	0.108	0.028
-328.172	190.147	-0.154	-0.229
-327.158	-200.000	-0.008	0.107
-326.143	372.591	0.085	0.170
-325.129	-200.000	-0.009	-0.172
-324.114	33.830	0.209	0.180
-323.099	-24.369	-0.177	0.105
-322.085	100.273	-0.137	0.158
-321.070	597.472	0.021	0.052
-320.056	-68.000	0.146	0.056
-319.041	-45.900	-0.181	-0.089
-318.026	20.502	-0.015	0.012
-317.012	-57.269	0.329	-0.143
-315.997	-200.000	0.018	0.106
-314.983	800.000	0.084	0.253
-313.968	800.000	0.040	-0.157
-312.953	21.658	-0.326	-0.263
-311.939	-176.744	0.113	-0.003
-310.924	540.807	-0.118	0.278
-309.910	155.972	-0.029	0.039
-308.895	-90.456	-0.074	0.021
-307.880	164.376	-0.057	0.080
-306.866	-111.852	0.267	-0.053
-305.851	-200.000	0.001	-0.137
-304.837	84.290	-0.215	-0.232
-303.822	37.433	0.143	-0.125
-302.807	-71.464	-0.292	-0.108
-301.793	-81.436	0.137	0.045
-300.778	-80.500	-0.336	-0.111
-299.764	51.647	0.213	0.201
-298.749	12.332	-0.477	0.364
-297.735	-166.655	0.117	-0.005
-296.720	172.244	0.237	-0.338
-295.705	-9.428	-0.234	0.154
-294.691	-200.000	0.026	-0.238
-293.676	-167.265	-0.125	0.005
-292.662	-128.095	0.406	0.058
-291.647	-160.033	-0.239	0.013
-290.632	-57.521	-0.149	0.065
-289.618	16.906	-0.278	0.218
-288.603	114.961	-0.165	-0.199
-287.589	219.872	0.126	-0.199
-286.574	-53.153	0.332	-0.151
-285.559	-200.000	-0.005	-0.041
-284.545	800.000	-0.054	0.181
-283.530	-200.000	-0.055	-0.505
-282.516	800.000	0.123	-0.465
-281.501	-167.727	0.111	-0.004
-280.486	-93.132	-0.274	0.075
-279.472	413.333	0.090	0.189
-278.457	-107.536	-0.125	-0.027
-277.443	-56.336	-0.138	-0.061
-276.428	-100.451	-0.136	-0.033
-275.413	-81.212	0.143	0.047
-274.399	-35.330	0.234	-0.126
-273.384	-15.679	0.097	-0.061
-272.370	48.027	0.137	-0.127
-271.355	568.249	-0.094	0.226
-270.340	156.230	-0.240	-0.327
-269.326	-107.294	-0.498	0.108
-268.311	165.445	-0.054	0.075
-267.297	-200.000	0.016	-0.194
-266.282	83.749	-0.251	-0.270
-265.267	120.915	0.086	0.105
-264.253	800.000	0.085	0.348
-263.238	800.000	0.026	0.083
-262.224	-200.000	0.064	0.411
-261.209	52.388	0.292	0.275
-260.195	-96.620	-0.215	-0.056
-259.180	-200.000	0.057	0.345
-258.165	259.528	0.044	0.076
-257.151	498.580	0.036	-0.082
-256.136	528.804	-0.106	-0.246
-255.122	-200.000	0.051	-0.253
-254.107	226.965	0.187	-0.299
-253.092	371.645	-0.043	0.086
-252.078	-109.379	-0.222	-0.046
-251.063	-72.124	-0.205	0.075
-250.049	118.041	0.053	-0.065
-249.034	-6.388	0.301	0.203
-248.019	-78.457	0.100	0.034
-247.005	-89.318	0.183	0.053
-245.990	-200.000	0.027	0.163
-244.976	-56.070	-0.082	0.036
-243.961	-119.523	-0.323	-0.055
-242.946	-200.000	-0.020	0.179
-241.932	-200.000	0.004	-0.088
-240.917	-119.525	0.155	-0.026
-239.903	-166.113	0.131	0.006
-238.888	-141.672	-0.271	0.027
-237.873	0.932	-0.081	0.058
-236.859	-159.814	-0.368	0.020
-235.844	-178.817	0.058	-0.001
-234.830	-200.000	-0.010	0.053
-233.815	7.806	-0.045	0.033
-232.800	404.884	-0.022	-0.045
-231.786	-110.967	-0.122	-0.025
-230.771	53.864	0.291	0.275
-229.757	116.826	-0.022	-0.027
-228.742	-15.744	0.077	0.048
-227.727	-200.000	0.006	-0.184
-226.713	105.481	0.078	0.091
-225.698	-25.367	-0.268	0.156
-224.684	-200.000	0.034	0.247
-223.669	800.000	0.042	-0.175
-222.655	-181.325	0.208	-0.004
-221.640	-141.750	0.198	0.020
-220.625	-77.554	0.062	0.021
-219.611	-162.918	0.278	-0.013
-218.596	47.908	0.089	-0.082
-217.582	45.479	0.145	-0.132
-216.567	-200.000	-0.030	0.249
-215.552	122.615	0.151	0.186
-214.538	-152.594	0.248	0.017
-213.523	555.451	0.037	-0.089
-212.509	-111.891	-0.144	0.029
-211.494	-108.644	-0.202	-0.043
-210.479	-4.679	-0.196	-0.133
-209.465	224.673	-0.096	-0.152
-208.450	56.767	-0.103	-0.098
-207.436	-154.720	-0.189	0.012
-206.421	226.373	-0.104	-0.166
-205.406	403.799	0.038	-0.078
-204.392	-200.000	-0.022	-0.239
-203.377	339.157	-0.072	-0.139
-202.363	-200.000	0.023	0.269
-201.348	242.690	0.115	-0.190
-200.333	-10.955	0.301	-0.196
-199.319	262.497	-0.034	-0.059
-198.304	167.405	-0.193	-0.270
-197.290	-80.161	-0.194	-0.064
-196.275	299.473	-0.055	-0.099
-195.260	-200.000	0.022	0.221
-194.246	398.830	-0.096	0.197
-193.231	-200.000	0.020	0.410
-192.217	-80.488	-0.145	-0.048
-191.202	-7.512	-0.189	0.126
-190.187	388.463	0.061	0.123
-189.173	5.764	0.200	-0.145
-188.158	-116.140	-0.231	-0.042
-187.144	-200.000	-0.006	-0.166
-186.129	800.000	0.063	-0.174
-185.114	-59.285	-0.243	0.103
-184.100	-87.426	-0.128	0.038
-183.085	-98.465	-0.106	-0.027
-182.071	23.376	-0.287	0.232
-181.056	-67.964	0.217	0.083
-180.042	317.849	0.238	-0.444
-179.027	-200.000	0.045	-0.195
-178.012	-135.027	-0.115	-0.014
-176.998	-200.000	-0.007	0.054
-175.983	355.901	-0.055	0.107
-174.969	-1.341	0.038	-0.026
-173.954	-52.785	0.232	-0.105
-172.939	800.000	-0.034	0.137
-171.925	19.384	-0.132	-0.104
-170.910	-200.000	0.066	0.452
-169.896	800.000	0.073	0.237
-168.881	800.000	0.095	-0.278
-167.866	-87.999	0.166	-0.049
-166.852	383.043	0.050	-0.101
-165.837	33.507	-0.067	0.057
-164.823	-157.630	0.205	0.012
-163.808	-199.738	-0.068	-0.000
-162.793	126.683	0.081	0.101
-161.779	-121.989	-0.185	0.030
-160.764	221.333	0.091	0.143
-159.750	-93.332	0.119	0.032
-158.735	-143.319	0.379	-0.036
-157.720	-18.817	-0.051	-0.031
-156.706	-39.494	-0.419	0.216
-155.691	-109.508	0.211	-0.044
-154.677	2.456	0.186	0.132
-153.662	-165.208	-0.231	0.010
-152.647	138.622	-0.065	0.084
-151.633	-200.000	0.019	-0.084
-150.618	-200.000	0.003	0.391
-149.604	47.756	-0.132	-0.121
-148.589	-200.000	0.011	0.238
-147.574	318.069	-0.138	-0.256
-146.560	-16.619	-0.227	-0.142
-145.545	4.153	-0.214	-0.154
-144.531	-200.000	0.036	-0.317
-143.516	-144.417	-0.069	0.006
-142.502	435.074	-0.059	0.125
-141.487	440.499	0.041	-0.088
-140.472	800.000	-0.156	0.463
-139.458	-200.000	-0.024	0.110
-138.443	393.995	0.096	0.197
-137.429	715.006	0.102	0.266
-136.414	231.527	0.177	0.286
-135.399	-169.469	0.213	0.008
-134.385	800.000	-0.100	-0.331
-133.370	404.310	-0.112	-0.232
-132.356	-63.900	0.133	-0.053
-131.341	-47.243	-0.127	-0.061
-130.326	-4.883	0.252	-0.171
-129.312	81.755	0.176	0.187
-128.297	-159.066	0.408	-0.023
-127.283	-168.771	0.209	-0.008
-126.268	-160.090	0.419	0.022
-125.253	-26.408	-0.548	0.316
-124.239	112.045	-0.100	-0.119
-123.224	-200.000	-0.005	-0.028
-122.210	713.077	0.066	-0.170
