DTS Sentinel unit serial number:	SN413079Multiplexer serial number:	ORYXHardware model number:	OX4-SRSoftware version number:	ORYX F/W v4.00 Oryx Data Collector v3.7.2.0data status	okinstallation	princeton_trtdifferential loss correction	single-endedforward channel	channel 4reverse channel	N/Adate	2019/09/17time	08:57:35forward acquisition time	60.00reverse acquisition time	0.00gamma	496.2192k internal	0.2316k external	0.2316temperature offset calibration	0.9984default loss term (dB/km)	0.3790temperature slope calibration	1.0000multiplexer offset coefficient	1.0000multiplexer slope coefficient	1.0000fibre end	0.00T internal ref (°C)	27.97T ext. ref 1 (°C)	0.14T ext. ref 2 (°C)	23.97length (m)	temperature (°C)	Stokes	anti-Stokes-747.200	-193.533	0.442	0.004
-746.185	470.408	-0.118	0.270
-745.171	-200.000	0.008	-0.173
-744.156	126.064	-0.289	0.370
-743.142	-155.938	-0.325	0.021
-742.127	-79.394	0.101	0.035
-741.112	-78.152	-0.193	-0.067
-740.098	800.000	0.075	0.319
-739.083	-91.056	-0.296	0.086
-738.069	-200.000	-0.053	0.308
-737.054	-147.725	0.269	-0.023
-736.039	800.000	-0.074	-0.312
-735.025	129.357	-0.007	-0.010
-734.010	13.355	0.084	-0.066
-732.996	-146.747	0.135	0.012
-731.981	-200.000	-0.003	-0.285
-730.966	-83.134	-0.081	0.026
-729.952	-165.006	-0.333	-0.015
-728.937	-28.677	-0.231	-0.134
-727.923	400.101	-0.245	-0.519
-726.908	-200.000	0.029	-0.138
-725.894	-110.771	-0.258	0.054
-724.879	144.639	0.101	-0.136
-723.864	241.531	-0.117	0.197
-722.850	800.000	-0.092	0.356
-721.835	43.884	0.137	-0.127
-720.821	-18.175	-0.261	-0.165
-719.806	136.722	-0.043	0.057
-718.791	-28.711	0.068	-0.039
-717.777	-200.000	0.020	-0.237
-716.762	188.743	0.009	-0.014
-715.748	41.185	0.080	0.073
-714.733	-134.736	-0.187	0.023
-713.718	-53.966	-0.060	-0.028
-712.704	-200.000	-0.011	0.071
-711.689	115.698	-0.128	-0.158
-710.675	-200.000	-0.021	0.160
-709.660	58.054	0.495	-0.491
-708.645	-123.637	0.372	0.060
-707.631	-68.556	-0.225	0.088
-706.616	-116.865	0.353	-0.065
-705.602	160.471	-0.065	0.092
-704.587	482.211	0.049	0.113
-703.572	-20.325	0.028	-0.018
-702.558	-200.000	-0.001	0.094
-701.543	258.616	0.176	0.307
-700.529	-200.000	0.002	0.168
-699.514	87.369	0.179	-0.200
-698.499	-64.585	-0.280	-0.115
-697.485	-200.000	-0.032	-0.165
-696.470	-162.468	0.216	-0.011
-695.456	2.968	0.193	-0.142
-694.441	-83.199	-0.138	-0.045
-693.426	800.000	0.030	-0.121
-692.412	-48.889	-0.074	0.036
-691.397	-106.036	-0.125	-0.028
-690.383	138.583	0.057	-0.075
-689.368	-4.261	-0.265	0.186
-688.354	-42.131	-0.304	0.157
-687.339	-200.000	0.028	0.135
-686.324	800.000	-0.097	-0.386
-685.310	-200.000	-0.015	0.071
-684.295	131.263	-0.187	0.242
-683.281	442.335	0.122	-0.271
-682.266	-127.207	0.083	-0.012
-681.251	247.202	-0.151	0.258
-680.237	800.000	0.052	-0.158
-679.222	596.271	0.066	0.166
-678.208	-200.000	-0.020	-0.115
-677.193	-127.641	0.255	0.037
-676.178	-110.087	0.142	0.030
-675.164	-172.515	-0.373	-0.012
-674.149	-200.000	-0.019	-0.099
-673.135	-200.000	-0.013	0.388
-672.120	-102.175	0.226	-0.055
-671.105	-71.706	-0.218	-0.082
-670.091	-94.174	-0.158	0.044
-669.076	-200.000	0.011	-0.234
-668.062	117.999	-0.057	-0.071
-667.047	-123.670	-0.110	-0.018
-666.032	-200.000	-0.014	-0.241
-665.018	64.934	-0.092	0.094
-664.003	144.647	-0.123	-0.166
-662.989	-34.838	-0.082	0.045
-661.974	800.000	-0.081	-0.334
-660.959	21.795	0.077	-0.064
-659.945	-53.101	0.133	-0.062
-658.930	633.894	-0.121	-0.309
-657.916	800.000	0.029	-0.125
-656.901	-200.000	0.041	0.210
-655.886	800.000	0.155	-0.487
-654.872	-60.542	-0.437	0.187
-653.857	-200.000	-0.017	-0.419
-652.843	-19.102	0.125	-0.078
-651.828	64.266	-0.125	0.127
-650.814	-5.305	0.040	0.028
-649.799	-82.924	0.167	0.054
-648.784	-200.000	0.036	-0.353
-647.770	-127.682	-0.231	0.034
-646.755	-28.280	0.254	0.148
-645.741	-109.997	-0.041	0.009
-644.726	800.000	0.061	-0.172
-643.711	-60.575	0.110	-0.047
-642.697	-0.005	-0.250	0.179
-641.682	-200.000	0.021	-0.114
-640.668	-0.208	-0.218	-0.156
-639.653	16.623	-0.266	-0.212
-638.638	285.030	-0.161	-0.292
-637.624	-50.951	-0.224	-0.106
-636.609	128.937	-0.167	-0.215
-635.595	-149.683	0.155	0.012
-634.580	800.000	0.079	0.307
-633.565	-53.312	0.090	-0.042
-632.551	-138.754	-0.340	-0.037
-631.536	-26.870	-0.066	0.039
-630.522	-106.621	-0.309	0.069
-629.507	-43.457	-0.202	-0.103
-628.492	40.212	0.139	0.126
-627.478	101.310	0.054	0.063
-626.463	165.688	-0.213	0.304
-625.449	-69.552	0.096	0.037
-624.434	-65.100	-0.308	-0.125
-623.419	-200.000	-0.063	0.375
-622.405	-136.117	-0.290	-0.034
-621.390	101.908	-0.122	0.144
-620.376	18.328	0.117	-0.094
-619.361	122.946	0.102	-0.129
-618.346	-3.255	0.137	-0.096
-617.332	-133.297	0.248	-0.032
-616.317	10.778	0.105	0.081
-615.303	-11.646	0.328	-0.217
-614.288	-83.904	0.034	-0.011
-613.273	-34.541	0.263	-0.145
-612.259	486.778	0.022	-0.051
-611.244	-46.168	-0.044	0.022
-610.230	-10.602	-0.256	0.171
-609.215	-176.049	-0.428	-0.011
-608.201	-102.949	0.279	0.067
-607.186	375.537	-0.104	-0.214
-606.171	77.299	0.104	0.111
-605.157	114.028	-0.158	0.194
-604.142	-10.407	-0.134	0.090
-603.128	-200.000	0.039	-0.180
-602.113	-115.668	-0.358	0.068
-601.098	59.367	-0.205	-0.203
-600.084	164.239	-0.088	0.125
-599.069	-133.542	-0.297	-0.038
-598.055	81.973	-0.129	0.140
-597.040	67.586	-0.174	0.179
-596.025	-167.212	0.195	0.008
-595.011	305.567	0.151	-0.284
-593.996	-115.838	0.148	0.028
-592.982	-181.709	-0.260	0.005
-591.967	75.348	0.187	-0.198
-590.952	800.000	0.064	-0.245
-589.938	359.911	-0.106	-0.214
-588.923	-91.276	-0.146	0.042
-587.909	-131.799	-0.063	-0.008
-586.894	-18.449	-0.105	0.066
-585.879	176.981	0.199	0.291
-584.865	800.000	0.095	-0.283
-583.850	202.813	0.122	-0.189
-582.836	-31.028	0.229	0.130
-581.821	-24.950	0.293	0.175
-580.806	800.000	0.103	0.293
-579.792	-2.794	-0.229	-0.161
-578.777	-200.000	0.009	-0.419
-577.763	-200.000	-0.008	-0.104
-576.748	-28.947	0.183	-0.106
-575.733	-87.857	0.227	-0.069
-574.719	39.356	-0.131	0.118
-573.704	298.499	-0.044	0.081
-572.690	-200.000	0.015	-0.133
-571.675	45.006	0.126	0.116
-570.661	44.569	-0.156	-0.145
-569.646	602.755	-0.169	0.424
-568.631	-47.882	0.316	0.154
-567.617	455.671	0.147	0.329
-566.602	-160.397	-0.206	-0.011
-565.588	148.970	0.115	0.156
-564.573	206.640	0.169	-0.265
-563.558	-200.000	-0.021	-0.131
-562.544	-200.000	-0.011	0.099
-561.529	367.759	0.115	-0.235
-560.515	-62.253	-0.382	0.160
-559.500	81.127	-0.174	-0.189
-558.485	-37.323	-0.150	-0.081
-557.471	386.850	-0.281	-0.585
-556.456	63.204	0.231	0.233
-555.442	800.000	-0.063	0.256
-554.427	-107.036	0.257	-0.057
-553.412	-7.898	-0.093	-0.063
-552.398	-42.266	-0.162	0.083
-551.383	-51.795	-0.062	-0.029
-550.369	10.240	-0.249	-0.190
-549.354	-45.266	-0.355	-0.177
-548.339	-11.670	0.326	0.216
-547.325	800.000	-0.054	-0.172
-546.310	-96.353	0.596	0.158
-545.296	-189.379	-0.323	0.004
-544.281	65.389	-0.242	0.246
-543.266	-185.364	0.285	0.004
-542.252	-154.004	-0.054	0.004
-541.237	696.756	0.130	-0.344
-540.223	-113.598	0.550	0.108
-539.208	800.000	0.010	0.035
-538.193	-48.214	0.063	0.031
-537.179	115.965	-0.151	0.186
-536.164	299.150	0.219	-0.405
-535.150	-12.266	-0.118	-0.078
-534.135	23.850	-0.055	0.045
-533.121	-200.000	-0.096	-0.645
-532.106	-3.537	-0.164	-0.114
-531.091	-59.188	-0.061	0.026
-530.077	-107.746	-0.385	0.084
-529.062	91.080	0.037	0.042
-528.048	-142.567	-0.285	0.028
-527.033	121.828	-0.044	-0.055
-526.018	-42.199	0.139	0.072
-525.004	-34.119	-0.381	0.211
-523.989	5.702	0.355	0.263
-522.975	-200.000	-0.010	-0.132
-521.960	-87.610	-0.276	-0.084
-520.945	7.958	0.110	-0.083
-519.931	629.303	0.114	-0.290
-518.916	-88.229	-0.143	-0.043
-517.902	-188.802	-0.326	0.004
-516.887	-2.418	-0.359	-0.253
-515.872	-126.203	-0.068	-0.010
-514.858	800.000	-0.052	0.217
-513.843	-89.823	-0.243	0.071
-512.829	176.936	-0.022	0.032
-511.814	4.963	0.086	0.064
-510.799	800.000	-0.031	0.090
-509.785	-92.150	-0.255	0.072
-508.770	-12.168	0.394	-0.259
-507.756	23.308	-0.258	-0.213
-506.741	222.450	-0.035	0.056
-505.726	800.000	-0.099	0.422
-504.712	-200.000	0.079	0.484
-503.697	690.783	0.111	-0.292
-502.683	-184.019	-0.191	0.003
-501.668	-170.080	-0.316	0.011
-500.653	10.478	0.048	0.037
-499.639	-47.110	0.393	0.193
-498.624	-71.590	0.074	-0.028
-497.610	-134.058	-0.166	-0.021
-496.595	586.733	0.078	0.193
-495.581	291.560	0.036	-0.066
-494.566	-200.000	-0.029	-0.147
-493.551	-200.000	-0.003	0.077
-492.537	-68.478	-0.230	0.089
-491.522	-46.888	-0.118	-0.058
-490.508	77.079	0.116	-0.124
-489.493	-200.000	-0.017	0.090
-488.478	-122.510	0.073	0.012
-487.464	-48.837	-0.299	0.144
-486.449	246.847	-0.126	-0.213
-485.435	316.131	0.044	0.083
-484.420	687.818	0.066	0.172
-483.405	-200.000	0.032	-0.301
-482.391	-200.000	-0.025	0.131
-481.376	-200.000	-0.040	-0.177
-480.362	-82.324	0.212	-0.069
-479.347	160.224	0.141	0.196
-478.332	-79.342	0.299	0.102
-477.318	305.437	-0.132	-0.246
-476.303	354.010	0.096	0.191
-475.289	7.955	-0.172	-0.129
-474.274	-200.000	-0.037	0.304
-473.259	118.050	0.279	-0.344
-472.245	27.829	-0.218	-0.184
-471.230	800.000	0.069	0.223
-470.216	177.216	0.092	-0.134
-469.201	-45.727	0.291	0.144
-468.186	-22.489	0.201	0.122
-467.172	354.891	0.112	0.223
-466.157	-200.000	0.008	0.051
-465.143	-200.000	0.020	-0.213
-464.128	-51.325	-0.090	-0.042
-463.113	-114.132	0.323	0.063
-462.099	-200.000	-0.055	0.292
-461.084	-200.000	0.014	-0.061
-460.070	-51.926	0.064	0.030
-459.055	66.915	0.338	0.344
-458.040	23.721	-0.281	-0.232
-457.026	237.833	-0.145	-0.242
-456.011	-76.871	-0.229	-0.080
-454.997	397.236	-0.053	-0.111
-453.982	295.480	-0.059	0.108
-452.968	-185.013	0.245	-0.004
-451.953	-31.079	0.229	0.129
-450.938	-108.090	0.434	-0.094
-449.924	-200.000	0.022	-0.378
-448.909	-124.894	-0.148	0.023
-447.895	-17.486	-0.258	0.163
-446.880	-46.876	-0.408	0.200
-445.865	523.542	-0.063	-0.148
-444.851	-17.503	-0.179	-0.113
-443.836	39.344	-0.262	0.235
-442.822	-65.032	-0.051	0.021
-441.807	-122.073	0.049	-0.008
-440.792	-141.761	0.179	-0.018
-439.778	800.000	0.152	-0.446
-438.763	261.254	0.130	-0.226
-437.749	346.721	0.043	0.084
-436.734	-84.804	-0.292	-0.092
-435.719	-19.831	0.273	0.169
-434.705	-178.110	-0.138	0.003
-433.690	-56.385	0.287	0.128
-432.676	208.519	-0.024	0.038
-431.661	-55.430	-0.294	-0.132
-430.646	128.159	0.097	-0.124
-429.632	4.784	-0.149	0.110
-428.617	290.346	-0.158	-0.287
-427.603	-70.397	-0.255	-0.097
-426.588	-200.000	-0.007	0.029
-425.573	-172.573	-0.096	-0.003
-424.559	-10.501	-0.349	0.231
-423.544	13.961	0.123	0.096
-422.530	340.738	-0.151	0.295
-421.515	-200.000	-0.004	0.026
-420.500	-111.921	0.114	-0.023
-419.486	-65.592	-0.104	0.042
-418.471	800.000	-0.083	0.287
-417.457	-200.000	0.002	-0.024
-416.442	-138.620	-0.299	0.033
-415.428	-19.985	-0.084	-0.052
-414.413	556.609	0.013	-0.031
-413.398	52.113	0.257	-0.245
-412.384	-26.100	0.192	-0.113
-411.369	-200.000	-0.056	-0.401
-410.355	167.506	-0.021	0.030
-409.340	-134.532	0.303	0.037
-408.325	-3.247	-0.314	-0.219
-407.311	-93.119	0.302	0.084
-406.296	-200.000	-0.043	-0.227
-405.282	145.325	0.201	-0.270
-404.267	-119.339	-0.321	0.056
-403.252	-133.769	-0.396	-0.049
-402.238	181.793	0.029	0.043
-401.223	74.398	0.047	0.049
-400.209	-78.211	0.190	0.065
-399.194	-200.000	-0.224	-0.001
-398.179	386.234	0.109	-0.224
-397.165	9.624	0.143	-0.108
-396.150	21.889	-0.209	-0.170
-395.136	-178.319	-0.226	0.005
-394.121	692.462	-0.149	0.390
-393.106	-160.392	-0.239	0.013
-392.092	132.433	-0.031	0.040
-391.077	-71.170	0.162	0.061
-390.063	-140.035	-0.356	-0.038
-389.048	-23.945	-0.086	0.052
-388.033	-175.901	-0.156	-0.004
-387.019	168.701	0.052	-0.074
-386.004	34.707	-0.008	-0.007
-384.990	-200.000	-0.014	0.140
-383.975	-200.000	-0.043	0.473
-382.960	-26.003	0.088	-0.052
-381.946	800.000	0.098	0.313
-380.931	78.481	0.185	0.198
-379.917	153.057	-0.234	-0.320
-378.902	37.452	0.179	-0.159
-377.888	27.758	0.127	0.107
-376.873	-56.932	0.125	0.055
-375.858	279.677	0.199	-0.356
-374.844	313.511	0.134	0.252
-373.829	-95.282	0.062	-0.017
-372.815	-147.207	0.080	0.007
-371.800	584.845	0.068	0.167
-370.785	274.592	0.029	0.051
-369.771	213.248	-0.074	0.117
-368.756	800.000	0.070	0.221
-367.742	-159.781	-0.156	0.009
-366.727	102.496	-0.065	-0.076
-365.712	-200.000	0.012	0.237
-364.698	20.385	0.045	-0.036
-363.683	-70.827	0.061	0.023
-362.669	-140.938	-0.043	0.004
-361.654	-200.000	-0.041	-0.541
-360.639	-200.000	-0.008	0.060
-359.625	116.239	0.105	-0.129
-358.610	800.000	0.111	-0.382
-357.596	104.258	-0.139	0.164
-356.581	21.851	0.244	0.199
-355.566	66.688	-0.163	0.166
-354.552	-62.956	0.146	-0.060
-353.537	-200.000	-0.022	0.174
-352.523	-112.237	0.304	0.061
-351.508	-116.881	-0.239	0.044
-350.493	50.736	-0.154	0.146
-349.479	153.460	0.012	-0.017
-348.464	-200.000	-0.001	-0.076
-347.450	-200.000	0.001	-0.238
-346.435	-69.058	0.344	-0.132
-345.420	-200.000	0.091	0.464
-344.406	65.442	0.186	-0.187
-343.391	36.066	-0.067	-0.059
-342.377	-57.879	0.250	-0.109
-341.362	-84.866	0.277	0.087
-340.348	800.000	0.123	0.445
-339.333	205.498	0.103	-0.160
-338.318	-39.149	0.297	0.156
-337.304	84.187	0.149	-0.163
-336.289	168.314	-0.038	-0.054
-335.275	-24.948	-0.153	0.090
-334.260	-144.929	-0.481	-0.044
-333.245	112.921	0.079	0.095
-332.231	500.878	-0.072	-0.165
-331.216	-200.000	0.104	0.483
-330.202	57.649	0.076	0.074
-329.187	182.462	0.079	0.116
-328.172	-97.724	-0.202	-0.052
-327.158	328.573	-0.117	0.224
-326.143	24.710	0.251	0.207
-325.129	-131.102	0.175	-0.023
-324.114	582.943	0.062	0.151
-323.099	583.629	0.086	0.211
-322.085	360.063	-0.034	-0.068
-321.070	13.044	-0.069	0.053
-320.056	58.073	-0.072	0.070
-319.041	-63.417	0.162	-0.067
-318.026	22.697	0.101	-0.082
-317.012	3.641	0.223	-0.162
-315.997	-32.169	-0.081	-0.045
-314.983	-63.828	0.097	-0.040
-313.968	-1.297	0.275	-0.193
-312.953	526.456	-0.071	0.166
-311.939	-200.000	-0.039	-0.291
-310.924	270.714	-0.087	0.152
-309.910	178.550	0.068	0.100
-308.895	-200.000	0.076	-0.383
-307.880	-114.384	-0.137	-0.026
-306.866	-200.000	-0.005	-0.123
-305.851	115.613	0.069	0.085
-304.837	55.535	-0.034	0.033
-303.822	-61.977	-0.147	-0.061
-302.807	-5.354	-0.218	0.149
-301.793	-54.114	0.435	-0.197
-300.778	800.000	-0.109	-0.366
-299.764	54.787	-0.072	-0.069
-298.749	800.000	-0.063	-0.256
-297.735	-35.181	0.068	0.037
-296.720	-86.079	-0.046	0.014
-295.705	512.861	0.062	0.144
-294.691	-200.000	0.069	-0.531
-293.676	800.000	0.025	-0.085
-292.662	-101.418	0.296	0.072
-291.647	-17.514	0.188	-0.117
-290.632	5.764	0.230	-0.169
-289.618	-53.833	-0.069	0.031
-288.603	72.513	0.083	0.087
-287.589	800.000	0.064	0.237
-286.574	112.403	-0.050	-0.060
-285.559	-200.000	-0.033	-0.256
-284.545	-142.504	0.109	0.011
-283.530	68.762	0.132	0.135
-282.516	9.614	0.178	0.134
-281.501	162.986	0.038	0.053
-280.486	323.539	0.108	0.205
-279.472	-97.976	-0.353	0.091
-278.457	800.000	-0.107	-0.369
-277.443	399.498	-0.054	0.114
-276.428	800.000	0.060	0.199
-275.413	-200.000	0.008	-0.168
-274.399	-200.000	-0.002	-0.201
-273.384	-37.891	0.051	0.027
-272.370	-128.464	0.123	-0.017
-271.355	-62.572	0.186	0.077
-270.340	-139.867	0.141	0.015
-269.326	23.830	0.225	-0.184
-268.311	800.000	0.058	-0.163
-267.297	-200.000	-0.059	0.327
-266.282	-200.000	-0.031	-0.158
-265.267	800.000	-0.051	0.152
-264.253	-104.273	0.157	-0.036
-263.238	-200.000	0.011	0.090
-262.224	62.521	0.150	0.149
-261.209	-133.623	0.229	0.028
-260.195	-53.113	-0.312	-0.143
-259.180	800.000	0.093	-0.320
-258.165	-34.333	0.126	-0.069
-257.151	244.962	-0.056	0.093
-256.136	172.719	-0.147	-0.211
-255.122	-200.000	-0.012	-0.202
-254.107	-113.340	-0.020	0.004
-253.092	-107.360	-0.235	0.051
-252.078	-120.571	0.332	0.056
-251.063	-200.000	-0.007	0.185
-250.049	-64.487	-0.139	-0.056
-249.034	800.000	0.011	0.040
-248.019	-111.089	-0.029	0.006
-247.005	571.052	0.079	-0.191
-245.990	106.816	-0.030	-0.035
-244.976	-200.000	-0.063	0.335
-243.961	538.201	-0.079	-0.187
-242.946	-121.152	0.193	-0.032
-241.932	97.689	0.134	0.153
-240.917	-98.925	-0.282	-0.071
-239.903	192.230	-0.040	0.060
-238.888	-200.000	-0.027	-0.143
-237.873	155.528	0.094	0.128
-236.859	-9.246	-0.082	-0.054
-235.844	368.241	0.030	-0.061
-234.830	-72.492	0.230	-0.084
-233.815	178.303	0.109	-0.158
-232.800	-127.222	0.360	0.052
-231.786	-111.164	0.244	-0.050
-230.771	303.838	0.037	0.068
-229.757	-0.765	0.355	-0.250
-228.742	-200.000	0.033	-0.238
-227.727	129.059	0.053	0.068
-226.713	101.289	0.240	0.278
-225.698	-46.141	-0.134	-0.066
-224.684	27.553	0.364	-0.304
-223.669	92.115	-0.163	-0.182
-222.655	-78.774	0.134	-0.045
-221.640	-110.302	-0.030	0.006
-220.625	-70.960	0.184	0.069
-219.611	800.000	-0.090	0.385
-218.596	-108.273	0.119	-0.026
-217.582	115.106	-0.069	0.083
-216.567	-200.000	-0.060	-0.337
-215.552	-200.000	0.069	0.361
-214.538	-85.681	0.229	0.071
-213.523	-129.209	-0.163	0.023
-212.509	243.378	-0.074	0.124
-211.494	-117.598	0.217	0.039
-210.479	-123.711	0.283	0.044
-209.465	-19.385	0.035	-0.021
-208.450	-55.017	-0.184	-0.082
-207.436	-82.851	0.252	0.081
-206.421	-200.000	0.019	0.109
-205.406	91.025	0.265	0.295
-204.392	50.264	-0.323	-0.302
-203.377	90.831	0.113	-0.126
-202.363	-67.789	0.095	-0.037
-201.348	-200.000	-0.043	0.214
-200.333	-18.114	-0.363	0.225
-199.319	-122.500	-0.339	-0.055
-198.304	20.360	-0.300	0.241
-197.290	800.000	-0.020	0.071
-196.275	-26.431	0.063	0.037
-195.260	153.061	0.080	-0.109
-194.246	-103.942	-0.141	0.033
-193.231	7.907	0.223	0.166
-192.217	-200.000	0.093	0.414
-191.202	210.793	0.148	0.230
-190.187	162.057	-0.121	0.169
-189.173	-200.000	-0.016	0.191
-188.158	5.597	-0.139	0.102
-187.144	29.165	-0.239	-0.201
-186.129	212.573	0.073	0.114
-185.114	-46.948	0.055	0.027
-184.100	187.888	-0.115	0.171
-183.085	32.400	-0.154	-0.131
-182.071	-174.405	-0.222	0.006
-181.056	-90.449	0.224	-0.064
-180.042	22.045	0.136	-0.110
-179.027	195.516	0.202	0.305
-178.012	-200.000	0.023	0.112
-176.998	99.440	-0.252	0.289
-175.983	-200.000	0.049	0.252
-174.969	-200.000	0.026	0.146
-173.954	-8.595	-0.204	0.135
-172.939	-81.818	-0.271	0.088
-171.925	391.761	0.089	-0.184
-170.910	-43.925	-0.136	0.068
-169.896	-149.016	-0.144	-0.011
-168.881	-177.673	-0.093	0.002
-167.866	800.000	-0.043	-0.172
-166.852	-106.532	0.114	0.025
-165.837	-21.861	-0.233	-0.141
-164.823	-200.000	0.048	0.207
-163.808	42.338	-0.232	-0.209
-162.793	800.000	0.078	-0.267
-161.779	-87.196	-0.184	0.055
-160.764	-200.000	-0.006	-0.167
-159.750	33.493	0.103	0.088
-158.735	202.812	-0.163	0.250
-157.720	150.512	0.247	-0.332
-156.706	800.000	-0.044	0.168
-155.691	730.494	-0.101	0.268
-154.677	800.000	0.017	-0.061
-153.662	-200.000	0.021	-0.122
-152.647	-57.931	0.482	-0.209
-151.633	126.117	-0.160	0.200
-150.618	41.936	0.308	-0.276
-149.604	-200.000	0.066	-0.437
-148.589	-67.580	0.149	-0.058
-147.574	550.097	0.066	0.156
-146.560	-200.000	0.017	0.108
-145.545	800.000	-0.032	0.132
-144.531	-68.412	-0.188	0.072
-143.516	-28.396	-0.160	0.091
-142.502	-82.304	0.139	0.045
-141.487	106.430	-0.193	0.226
-140.472	275.703	-0.144	-0.253
-139.458	5.227	-0.240	-0.175
-138.443	297.407	0.185	0.336
-137.429	-200.000	-0.008	0.383
-136.414	198.867	-0.041	0.061
-135.399	85.896	0.099	-0.107
-134.385	-165.680	-0.280	0.012
-133.370	-93.482	0.202	0.055
-132.356	-200.000	-0.001	-0.103
-131.341	226.472	0.058	-0.093
-130.326	134.703	0.155	-0.199
-129.312	-200.000	-0.013	0.198
-128.297	-88.191	-0.432	0.128
-127.283	-173.807	0.261	0.008
-126.268	327.677	0.064	0.122
-125.253	123.013	0.154	-0.191
-124.239	-139.804	0.416	-0.044
-123.224	130.210	-0.023	0.029
-122.210	53.477	-0.141	-0.134
-121.195	800.000	0.047	-0.202
