DTS Sentinel unit serial number:	SN413079Multiplexer serial number:	ORYXHardware model number:	OX4-SRSoftware version number:	ORYX F/W v4.00 Oryx Data Collector v3.7.2.0data status	okinstallation	princeton_trtdifferential loss correction	single-endedforward channel	channel 4reverse channel	N/Adate	2019/09/18time	11:09:35forward acquisition time	60.00reverse acquisition time	0.00gamma	496.2192k internal	0.2312k external	0.2312temperature offset calibration	0.9985default loss term (dB/km)	0.3790temperature slope calibration	1.0000multiplexer offset coefficient	1.0000multiplexer slope coefficient	1.0000fibre end	0.00T internal ref (°C)	29.56T ext. ref 1 (°C)	0.41T ext. ref 2 (°C)	26.44length (m)	temperature (°C)	Stokes	anti-Stokes-747.200	-35.208	-0.271	-0.150
-746.185	800.000	-0.011	0.045
-745.171	48.489	-0.151	0.143
-744.156	157.802	-0.293	0.412
-743.142	-24.082	-0.194	0.118
-742.127	-7.394	0.129	0.089
-741.112	-200.000	0.041	-0.476
-740.098	-200.000	0.044	0.359
-739.083	-200.000	0.093	-0.496
-738.069	249.819	0.182	0.313
-737.054	42.281	-0.294	0.271
-736.039	-94.625	-0.254	0.070
-735.025	66.099	0.277	0.285
-734.010	-58.873	-0.429	-0.188
-732.996	-62.337	-0.199	-0.084
-731.981	14.197	-0.068	0.054
-730.966	-11.503	-0.256	-0.171
-729.952	-47.694	0.169	-0.083
-728.937	224.203	-0.035	-0.057
-727.923	-85.595	-0.114	-0.036
-726.908	-57.115	-0.393	-0.176
-725.894	70.196	-0.137	-0.143
-724.879	-21.937	0.375	-0.231
-723.864	259.616	-0.099	-0.173
-722.850	22.075	-0.254	0.210
-721.835	44.805	-0.175	-0.163
-720.821	-70.547	-0.240	-0.092
-719.806	139.356	0.196	-0.261
-718.791	30.490	0.177	-0.153
-717.777	-8.438	0.339	-0.231
-716.762	308.621	-0.092	-0.174
-715.748	-16.344	0.356	0.229
-714.733	631.402	-0.039	-0.100
-713.718	800.000	-0.048	0.170
-712.704	183.322	-0.114	-0.171
-711.689	-160.812	0.468	0.025
-710.675	-70.190	-0.393	0.151
-709.660	228.665	0.045	-0.075
-708.645	-47.904	0.457	-0.224
-707.631	-54.292	0.298	-0.137
-706.616	-200.000	0.002	-0.277
-705.602	430.693	-0.038	-0.082
-704.587	28.388	0.120	0.103
-703.572	-47.744	0.136	0.067
-702.558	800.000	-0.122	-0.408
-701.543	800.000	0.075	0.225
-700.529	550.496	0.071	-0.171
-699.514	234.621	-0.092	-0.153
-698.499	-200.000	0.035	0.163
-697.485	-97.657	0.145	0.038
-696.470	144.626	-0.066	-0.089
-695.456	-187.892	0.258	-0.003
-694.441	800.000	-0.101	0.290
-693.426	-57.942	-0.215	-0.095
-692.412	271.877	-0.169	0.301
-691.397	-106.161	-0.367	0.083
-690.383	347.079	-0.097	0.193
-689.368	-200.000	0.006	-0.135
-688.354	249.200	-0.098	0.168
-687.339	-40.274	0.051	-0.027
-686.324	-3.139	-0.091	-0.064
-685.310	-200.000	-0.013	0.059
-684.295	329.341	0.111	0.217
-683.281	-105.431	-0.435	0.100
-682.266	-114.074	0.702	-0.138
-681.251	800.000	-0.018	0.061
-680.237	800.000	-0.073	0.301
-679.222	-25.378	0.062	0.037
-678.208	-80.412	-0.130	0.044
-677.193	-200.000	0.021	-0.125
-676.178	44.739	0.125	-0.117
-675.164	-200.000	-0.032	-0.202
-674.149	226.479	0.066	-0.108
-673.135	-139.730	0.403	0.043
-672.120	-200.000	-0.013	0.408
-671.105	-200.000	0.016	0.110
-670.091	72.294	-0.160	-0.169
-669.076	-125.218	-0.255	0.039
-668.062	558.738	-0.160	-0.391
-667.047	-82.052	-0.522	0.173
-666.032	16.312	-0.164	-0.131
-665.018	51.414	-0.096	0.092
-664.003	-200.000	0.068	0.392
-662.989	436.384	-0.066	-0.145
-661.974	369.005	-0.050	0.102
-660.959	241.345	0.064	-0.109
-659.945	31.455	-0.092	-0.080
-658.930	-200.000	0.015	0.210
-657.916	-200.000	-0.001	-0.027
-656.901	-200.000	-0.020	-0.167
-655.886	540.246	0.120	-0.290
-654.872	-71.664	-0.222	-0.084
-653.857	151.781	0.190	0.262
-652.843	-113.090	0.435	0.087
-651.828	-54.152	-0.424	0.195
-650.814	467.242	-0.109	0.246
-649.799	2.962	-0.133	0.098
-648.784	-200.000	0.040	0.187
-647.770	-28.305	-0.161	-0.094
-646.755	762.758	0.053	-0.147
-645.741	-93.203	-0.349	-0.098
-644.726	42.843	-0.245	-0.225
-643.711	-33.968	0.208	0.115
-642.697	-138.975	0.033	0.004
-641.682	92.222	0.155	0.176
-640.668	10.823	0.136	0.105
-639.653	-200.000	0.023	-0.326
-638.638	316.080	-0.022	0.042
-637.624	-105.831	0.021	0.005
-636.609	-72.760	0.300	0.112
-635.595	788.627	0.046	-0.128
-634.580	800.000	-0.082	-0.299
-633.565	-88.537	0.162	-0.049
-632.551	123.413	0.050	-0.063
-631.536	205.014	0.086	0.134
-630.522	64.779	-0.221	0.225
-629.507	800.000	0.020	-0.063
-628.492	-26.266	0.157	0.093
-627.478	-85.947	0.390	0.122
-626.463	407.057	0.166	-0.355
-625.449	-2.172	0.230	-0.163
-624.434	306.623	-0.117	-0.221
-623.419	-27.068	-0.205	-0.121
-622.405	-140.733	-0.121	0.013
-621.390	800.000	-0.071	0.217
-620.376	-123.699	0.073	0.012
-619.361	-100.295	-0.260	-0.065
-618.346	-103.819	0.255	-0.060
-617.332	-129.035	-0.054	0.008
-616.317	-200.000	0.029	0.162
-615.303	-109.289	-0.126	0.027
-614.288	299.854	-0.124	0.231
-613.273	-160.723	0.190	0.010
-612.259	-128.796	-0.274	-0.039
-611.244	-49.439	0.249	-0.120
-610.230	-200.000	0.018	-0.316
-609.215	233.959	-0.054	-0.090
-608.201	-176.189	0.039	-0.001
-607.186	800.000	-0.028	-0.118
-606.171	109.923	-0.153	-0.185
-605.157	523.007	0.083	-0.196
-604.142	-77.115	-0.171	0.060
-603.128	126.985	-0.030	0.038
-602.113	-200.000	-0.032	0.240
-601.098	31.109	-0.160	0.139
-600.084	-128.961	-0.080	0.011
-599.069	-59.316	0.220	-0.095
-598.055	800.000	-0.036	0.104
-597.040	-61.077	-0.165	-0.070
-596.025	-150.742	-0.183	-0.014
-595.011	-200.000	-0.007	-0.189
-593.996	800.000	-0.097	0.383
-592.982	-24.672	0.180	0.108
-591.967	-200.000	-0.043	0.298
-590.952	-137.664	0.089	-0.010
-589.938	-200.000	-0.062	-0.376
-588.923	-83.334	-0.378	-0.122
-587.909	-200.000	0.044	-0.267
-586.894	-51.482	0.098	-0.046
-585.879	-123.852	0.289	-0.046
-584.865	-10.113	0.180	-0.120
-583.850	-120.071	0.134	0.023
-582.836	-20.897	0.265	-0.164
-581.821	60.365	-0.100	-0.099
-580.806	-108.390	0.116	-0.025
-579.792	98.984	-0.067	-0.078
-578.777	-200.000	0.013	-0.131
-577.763	-129.192	-0.257	-0.036
-576.748	-84.685	-0.084	0.027
-575.733	304.482	-0.070	-0.131
-574.719	-195.111	-0.085	-0.001
-573.704	-200.000	0.013	-0.136
-572.690	-14.251	-0.277	-0.180
-571.675	88.278	-0.142	-0.158
-570.661	-26.108	-0.161	0.095
-569.646	419.739	-0.076	-0.165
-568.631	-80.711	-0.121	-0.041
-567.617	-200.000	0.039	-0.246
-566.602	228.998	0.153	0.251
-565.588	800.000	-0.052	0.222
-564.573	69.350	0.123	-0.127
-563.558	-200.000	0.024	-0.391
-562.544	-44.025	0.220	0.111
-561.529	364.649	-0.173	-0.351
-560.515	800.000	-0.097	-0.329
-559.500	800.000	0.062	0.174
-558.485	-112.097	-0.295	0.060
-557.471	78.126	-0.033	-0.035
-556.456	-9.585	-0.123	-0.082
-555.442	49.789	0.095	-0.090
-554.427	-200.000	0.055	-0.264
-553.412	-136.637	0.276	0.032
-552.398	-200.000	0.064	0.345
-551.383	-175.434	-0.329	0.009
-550.369	118.216	-0.025	-0.031
-549.354	49.049	0.275	-0.260
-548.339	-86.012	0.049	0.015
-547.325	-100.923	0.331	-0.082
-546.310	176.008	-0.117	0.171
-545.296	-26.834	0.260	0.153
-544.281	-188.153	-0.189	-0.002
-543.266	89.179	-0.210	0.235
-542.252	181.459	-0.095	0.141
-541.237	-200.000	0.019	0.151
-540.223	-200.000	-0.031	0.194
-539.208	-64.275	-0.140	-0.057
-538.193	-200.000	-0.035	0.217
-537.179	-153.278	-0.236	0.017
-536.164	-111.945	-0.352	-0.072
-535.150	71.421	-0.088	-0.092
-534.135	181.586	0.075	0.111
-533.121	-190.956	-0.252	-0.003
-532.106	-42.138	0.225	0.116
-531.091	-200.000	-0.013	-0.104
-530.077	-133.550	-0.015	0.002
-529.062	-200.000	0.034	0.196
-528.048	365.489	-0.047	0.096
-527.033	-57.719	0.250	-0.110
-526.018	156.504	-0.143	-0.199
-525.004	333.548	-0.098	-0.190
-523.989	76.416	0.085	0.090
-522.975	-54.932	0.137	-0.062
-521.960	0.883	-0.185	-0.133
-520.945	-200.000	-0.012	-0.055
-519.931	65.052	0.080	0.081
-518.916	-200.000	-0.002	-0.300
-517.902	-200.000	0.007	-0.326
-516.887	800.000	0.032	0.117
-515.872	-9.084	-0.237	0.159
-514.858	127.672	0.104	-0.133
-513.843	197.438	0.091	-0.140
-512.829	730.842	0.120	-0.323
-511.814	-200.000	0.015	0.150
-510.799	-42.379	-0.078	0.040
-509.785	-200.000	0.012	0.071
-508.770	-91.960	0.174	-0.049
-507.756	62.315	0.372	0.373
-506.741	82.706	0.160	-0.175
-505.726	3.163	0.298	0.218
-504.712	800.000	-0.008	0.034
-503.697	-96.815	-0.141	-0.037
-502.683	-76.947	-0.323	-0.114
-501.668	-200.000	0.021	-0.169
-500.653	-37.998	-0.124	-0.066
-499.639	-73.153	0.174	-0.064
-498.624	45.364	0.259	0.240
-497.610	-156.105	-0.055	0.003
-496.595	-74.235	0.372	0.135
-495.581	-178.467	0.074	0.002
-494.566	-18.789	0.185	0.116
-493.551	59.643	-0.289	0.286
-492.537	800.000	-0.044	-0.191
-491.522	45.232	0.051	-0.048
-490.508	-189.363	-0.378	0.004
-489.493	-200.000	0.033	0.151
-488.478	-200.000	-0.020	-0.122
-487.464	-150.416	-0.120	-0.009
-486.449	-87.597	-0.243	-0.074
-485.435	40.683	0.345	0.313
-484.420	185.629	0.097	0.144
-483.405	291.455	0.115	-0.209
-482.391	-200.000	-0.003	-0.170
-481.376	800.000	-0.072	0.317
-480.362	498.522	-0.054	0.124
-479.347	401.278	-0.098	-0.206
-478.332	321.679	0.080	-0.152
-477.318	55.050	-0.116	0.112
-476.303	20.404	0.017	-0.014
-475.289	13.372	-0.190	-0.148
-474.274	379.698	-0.102	0.209
-473.259	39.893	-0.074	0.067
-472.245	-200.000	0.036	-0.202
-471.230	40.617	-0.193	0.175
-470.216	-120.250	0.186	-0.032
-469.201	-15.893	-0.267	0.171
-468.186	-134.746	-0.152	-0.019
-467.172	-70.230	0.256	0.097
-466.157	163.681	-0.124	-0.174
-465.143	800.000	0.077	-0.237
-464.128	-124.161	-0.182	0.029
-463.113	-200.000	0.007	-0.112
-462.099	-106.974	-0.081	0.018
-461.084	800.000	0.028	-0.106
-460.070	264.210	-0.099	-0.172
-459.055	-3.232	-0.093	-0.065
-458.040	730.204	-0.171	-0.458
-457.026	63.527	0.101	0.102
-456.011	-15.841	0.207	0.132
-454.997	-200.000	-0.051	0.428
-453.982	-176.697	-0.157	0.004
-452.968	-200.000	-0.071	-0.513
-451.953	-186.599	0.468	-0.007
-450.938	-29.276	-0.175	0.101
-449.924	-98.833	0.130	0.033
-448.909	-50.884	0.281	0.132
-447.895	263.466	0.028	0.049
-446.880	33.586	0.198	0.172
-445.865	512.807	0.143	0.334
-444.851	27.784	-0.146	0.124
-443.836	-200.000	0.034	-0.316
-442.822	-168.892	0.148	0.006
-441.807	800.000	0.016	0.066
-440.792	-127.574	-0.363	-0.053
-439.778	22.851	0.093	0.077
-438.763	800.000	0.061	0.190
-437.749	443.044	0.061	0.134
-436.734	-40.398	0.364	-0.189
-435.719	114.895	-0.193	0.236
-434.705	118.540	0.062	0.077
-433.690	81.192	0.259	0.281
-432.676	-136.854	0.191	0.022
-431.661	22.065	0.258	-0.211
-430.646	-200.000	0.002	-0.220
-429.632	-46.710	0.278	-0.136
-428.617	-83.908	0.158	-0.050
-427.603	25.719	0.155	0.129
-426.588	-124.774	0.119	-0.018
-425.573	-1.432	0.243	-0.171
-424.559	214.379	0.189	0.299
-423.544	800.000	0.014	0.057
-422.530	-32.346	0.114	-0.064
-421.515	-155.350	-0.385	0.025
-420.500	-134.331	0.471	0.058
-419.486	602.442	0.068	-0.169
-418.471	800.000	-0.066	0.264
-417.457	-57.801	0.187	0.082
-416.442	-101.744	-0.287	-0.070
-415.428	-38.231	-0.215	-0.114
-414.413	128.508	0.202	-0.258
-413.398	582.217	-0.100	0.245
-412.384	490.162	-0.055	0.126
-411.369	-173.978	0.181	-0.005
-410.355	-200.000	-0.048	0.321
-409.340	-34.908	0.162	0.088
-408.325	-106.257	-0.251	-0.056
-407.311	-200.000	-0.036	0.161
-406.296	-136.213	0.292	0.034
-405.282	14.868	-0.111	-0.087
-404.267	125.409	-0.046	-0.059
-403.252	-136.660	0.252	-0.029
-402.238	6.248	0.244	0.182
-401.223	-55.182	-0.212	0.095
-400.209	-200.000	0.002	0.168
-399.194	-131.139	-0.145	0.019
-398.179	71.117	-0.127	-0.132
-397.165	-35.801	0.099	-0.054
-396.150	-85.882	-0.076	0.024
-395.136	-137.910	0.239	0.027
-394.121	-200.000	0.035	0.308
-393.106	-86.396	-0.257	-0.079
-392.092	394.981	0.108	0.225
-391.077	-151.398	0.348	-0.026
-390.063	169.196	-0.056	-0.080
-389.048	-200.000	0.053	-0.309
-388.033	39.041	-0.446	-0.399
-387.019	-200.000	0.015	-0.125
-386.004	-4.549	-0.257	0.178
-384.990	-141.088	0.171	-0.017
-383.975	-117.154	0.348	-0.063
-382.960	-72.969	-0.278	-0.102
-381.946	-136.688	-0.502	-0.058
-380.931	369.048	0.198	-0.402
-379.917	56.970	-0.020	0.020
-378.902	-136.288	0.165	0.019
-377.888	-187.346	0.290	-0.004
-376.873	-14.434	0.138	-0.089
-375.858	122.703	-0.165	-0.206
-374.844	127.315	-0.249	-0.316
-373.829	800.000	-0.043	-0.186
-372.815	-130.885	0.206	-0.028
-371.800	91.044	-0.178	-0.200
-370.785	595.546	0.016	0.039
-369.771	-174.689	-0.112	-0.003
-368.756	-113.741	-0.131	-0.025
-367.742	370.556	-0.097	-0.197
-366.727	-19.287	0.044	0.027
-365.712	791.478	-0.086	0.237
-364.698	-121.512	-0.084	0.014
-363.683	-48.555	0.182	-0.087
-362.669	17.274	-0.212	0.169
-361.654	-81.108	-0.211	-0.070
-360.639	-138.223	-0.241	0.027
-359.625	-200.000	0.042	0.334
-358.610	-111.452	0.294	0.060
-357.596	154.054	0.057	0.078
-356.581	-130.783	0.071	-0.009
-355.566	710.229	-0.077	-0.203
-354.552	160.856	0.109	0.152
-353.537	-64.166	0.243	0.099
-352.523	36.323	0.221	-0.195
-351.508	-200.000	0.090	-0.410
-350.493	42.850	0.160	-0.146
-349.479	-7.560	-0.129	0.087
-348.464	-200.000	-0.028	-0.139
-347.450	372.183	-0.239	-0.484
-346.435	314.309	-0.128	-0.241
-345.420	-2.404	0.139	-0.097
-344.406	-146.982	0.049	0.004
-343.391	-137.483	-0.348	-0.039
-342.377	-200.000	0.014	-0.131
-341.362	-200.000	-0.043	0.211
-340.348	-90.693	-0.261	-0.075
-339.333	140.960	-0.184	-0.243
-338.318	133.676	0.105	0.136
-337.304	2.382	0.246	-0.178
-336.289	53.711	-0.188	-0.181
-335.275	-134.845	-0.152	-0.018
-334.260	-28.847	-0.237	0.136
-333.245	14.878	-0.178	0.139
-332.231	-147.711	-0.419	-0.035
-331.216	33.163	0.206	-0.178
-330.202	17.863	-0.086	0.068
-329.187	-66.750	-0.171	0.068
-328.172	118.101	0.188	0.231
-327.158	800.000	0.027	0.091
-326.143	-102.840	-0.344	0.082
-325.129	800.000	0.049	0.147
-324.114	268.800	-0.094	0.165
-323.099	-11.903	0.206	0.135
-322.085	581.626	-0.104	-0.255
-321.070	390.006	-0.024	-0.050
-320.056	-122.184	0.377	0.062
-319.041	-77.544	-0.236	-0.082
-318.026	800.000	-0.007	0.032
-317.012	109.789	0.273	0.326
-315.997	-200.000	-0.007	0.178
-314.983	-200.000	0.039	-0.290
-313.968	-16.694	-0.195	-0.123
-312.953	800.000	-0.043	-0.120
-311.939	-200.000	-0.023	0.215
-310.924	-144.602	-0.131	-0.012
-309.910	-102.683	0.218	0.052
-308.895	-200.000	-0.054	0.367
-307.880	59.303	0.323	0.318
-306.866	800.000	-0.005	-0.017
-305.851	-135.943	0.637	-0.075
-304.837	-200.000	0.018	-0.095
-303.822	-9.762	-0.321	0.213
-302.807	328.736	-0.096	-0.185
-301.793	-200.000	0.002	-0.009
-300.778	-132.139	0.058	0.008
-299.764	-36.824	0.414	-0.222
-298.749	61.819	-0.074	0.073
-297.735	352.366	-0.160	0.317
-296.720	-200.000	0.028	0.225
-295.705	159.968	-0.141	0.196
-294.691	-30.692	0.036	-0.020
-293.676	-49.436	-0.259	0.123
-292.662	-61.874	-0.121	0.051
-291.647	7.565	-0.171	0.127
-290.632	194.681	0.178	-0.269
-289.618	800.000	0.018	0.070
-288.603	60.086	0.254	-0.250
-287.589	118.955	0.190	0.234
-286.574	-150.483	-0.050	0.004
-285.559	77.179	0.234	0.248
-284.545	20.532	-0.084	0.068
-283.530	-69.174	0.156	0.060
-282.516	124.559	0.097	-0.121
-281.501	59.014	-0.048	0.047
-280.486	10.118	-0.119	0.090
-279.472	800.000	-0.079	0.278
-278.457	-200.000	0.016	-0.294
-277.443	-75.637	0.077	-0.027
-276.428	-200.000	0.092	0.434
-275.413	79.081	0.065	-0.070
-274.399	55.576	0.187	-0.180
-273.384	378.703	0.127	0.259
-272.370	86.976	0.083	-0.092
-271.355	-111.258	0.283	-0.058
-270.340	-200.000	-0.007	-0.203
-269.326	800.000	0.020	0.076
-268.311	82.266	-0.108	-0.117
-267.297	530.267	-0.038	0.089
-266.282	48.727	0.171	0.160
-265.267	-73.922	0.311	-0.112
-264.253	279.833	0.096	0.171
-263.238	800.000	-0.012	0.034
-262.224	-65.640	-0.226	0.090
-261.209	-105.033	-0.192	0.044
-260.195	800.000	-0.057	-0.209
-259.180	-200.000	0.024	-0.179
-258.165	800.000	0.010	0.027
-257.151	93.246	0.130	-0.146
-256.136	-59.924	0.182	-0.078
-255.122	-93.192	0.336	0.093
-254.107	455.415	-0.101	0.222
-253.092	273.134	0.270	-0.474
-252.078	-165.123	-0.512	-0.023
-251.063	-193.328	-0.308	0.003
-250.049	-146.999	-0.381	0.033
-249.034	-51.012	-0.274	-0.128
-248.019	-41.821	0.316	0.161
-247.005	800.000	-0.093	0.299
-245.990	-139.399	-0.260	-0.028
-244.976	800.000	0.043	-0.169
-243.961	-104.807	0.385	0.088
-242.946	207.741	-0.111	0.172
-241.932	222.854	0.179	0.287
-240.917	-5.366	0.426	0.291
-239.903	-88.536	-0.224	0.066
-238.888	66.541	-0.227	-0.230
-237.873	-131.903	-0.061	-0.008
-236.859	-175.050	0.209	0.006
-235.844	11.984	-0.228	-0.175
-234.830	-159.723	-0.297	-0.016
-233.815	800.000	-0.094	0.320
-232.800	-86.405	-0.284	0.087
-231.786	800.000	0.073	-0.263
-230.771	48.647	0.174	0.162
-229.757	-200.000	-0.014	-0.068
-228.742	12.132	-0.198	0.151
-227.727	123.631	-0.025	0.031
-226.713	-5.625	-0.256	-0.175
-225.698	136.417	-0.256	0.332
-224.684	-111.229	-0.339	0.069
-223.669	-63.780	0.274	0.111
-222.655	330.775	-0.091	-0.174
-221.640	170.029	-0.315	0.447
-220.625	800.000	-0.094	-0.259
-219.611	800.000	0.163	-0.512
-218.596	-44.079	-0.197	0.098
-217.582	525.715	0.105	0.247
-216.567	232.105	-0.026	0.043
-215.552	-200.000	-0.014	0.297
-214.538	-176.710	-0.065	0.002
-213.523	-92.905	-0.219	0.061
-212.509	-117.725	0.085	0.015
-211.494	-200.000	-0.039	-0.215
-210.479	800.000	-0.059	0.163
-209.465	-200.000	-0.089	-0.389
-208.450	400.304	-0.140	0.292
-207.436	138.416	0.058	-0.075
-206.421	-18.170	-0.360	0.224
-205.406	431.926	0.024	0.051
-204.392	56.714	-0.123	0.119
-203.377	800.000	0.103	0.287
-202.363	114.661	-0.174	0.211
-201.348	800.000	-0.113	-0.334
-200.333	537.653	0.042	0.099
-199.319	74.209	-0.101	-0.106
-198.304	238.194	0.126	0.208
-197.290	-74.679	-0.191	0.068
-196.275	-2.598	0.243	0.169
-195.260	55.218	0.116	0.112
-194.246	-21.970	-0.157	0.095
-193.231	194.768	0.026	0.040
-192.217	-12.538	0.108	0.070
-191.202	-72.805	0.070	-0.025
-190.187	331.529	-0.045	0.086
-189.173	-80.289	-0.031	-0.010
-188.158	148.268	0.195	0.261
-187.144	573.278	-0.036	0.088
-186.129	-100.181	-0.272	-0.067
-185.114	-121.904	0.441	0.072
-184.100	687.304	-0.041	0.106
-183.085	28.788	-0.068	-0.057
-182.071	-4.481	0.163	0.111
-181.056	51.345	0.153	0.144
-180.042	-200.000	-0.064	0.285
-179.027	-200.000	-0.041	-0.198
-178.012	-8.385	0.086	0.057
-176.998	-200.000	0.008	0.040
-175.983	-48.317	-0.172	0.082
-174.969	-200.000	-0.042	-0.291
-173.954	-200.000	0.027	0.311
-172.939	-14.186	0.283	-0.181
-171.925	234.636	0.090	-0.147
-170.910	-13.994	0.167	0.107
-169.896	3.941	-0.264	0.191
-168.881	293.277	-0.103	-0.186
-167.866	-74.660	0.194	-0.069
-166.852	-72.910	0.292	0.106
-165.837	-115.334	0.112	0.021
-164.823	84.058	0.150	-0.163
-163.808	33.000	0.192	0.165
-162.793	-85.099	0.323	0.100
-161.779	-96.769	-0.267	-0.070
-160.764	-200.000	-0.028	-0.140
-159.750	-137.557	-0.242	-0.027
-158.735	429.010	-0.088	-0.189
-157.720	11.147	-0.102	-0.078
-156.706	800.000	-0.040	-0.145
-155.691	-15.033	0.195	0.124
-154.677	-200.000	0.022	0.217
-153.662	800.000	0.132	-0.573
-152.647	185.208	0.066	0.097
-151.633	31.614	-0.163	-0.139
-150.618	-21.216	-0.269	0.163
-149.604	-85.625	0.097	-0.030
-148.589	295.947	0.062	-0.112
-147.574	34.158	-0.200	0.173
-146.560	-4.798	0.029	0.020
-145.545	-38.994	0.282	-0.147
-144.531	-49.310	0.123	0.058
-143.516	115.744	0.049	0.060
-142.502	13.873	-0.205	-0.158
-141.487	800.000	0.098	-0.335
-140.472	-200.000	-0.027	-0.130
-139.458	99.327	0.159	-0.182
-138.443	220.828	-0.261	-0.415
-137.429	529.212	-0.145	-0.340
-136.414	-86.925	0.100	0.030
-135.399	-149.636	-0.138	-0.011
-134.385	-200.000	0.020	0.183
-133.370	157.460	-0.136	0.187
-132.356	-200.000	0.051	-0.226
-131.341	165.829	0.340	0.477
-130.326	338.023	-0.103	-0.198
-129.312	408.277	0.037	0.078
-128.297	36.358	0.261	0.228
-127.283	-52.346	0.245	-0.112
-126.268	46.431	-0.056	-0.051
-125.253	-46.319	0.114	0.056
-124.239	800.000	-0.059	-0.230
-123.224	486.382	0.034	-0.078
-122.210	-70.369	0.197	-0.074
-121.195	367.865	-0.037	0.074
