DTS Sentinel unit serial number:	SN413079Multiplexer serial number:	ORYXHardware model number:	OX4-SRSoftware version number:	ORYX F/W v4.00 Oryx Data Collector v3.7.2.0data status	okinstallation	princeton_trtdifferential loss correction	single-endedforward channel	channel 4reverse channel	N/Adate	2019/09/16time	05:25:35forward acquisition time	60.00reverse acquisition time	0.00gamma	496.2192k internal	0.2321k external	0.2321temperature offset calibration	0.9980default loss term (dB/km)	0.3790temperature slope calibration	1.0000multiplexer offset coefficient	1.0000multiplexer slope coefficient	1.0000fibre end	0.00T internal ref (°C)	27.28T ext. ref 1 (°C)	11.11T ext. ref 2 (°C)	22.12length (m)	temperature (°C)	Stokes	anti-Stokes-747.200	183.361	-0.068	-0.102
-746.185	32.532	-0.142	0.124
-745.171	160.750	0.060	0.085
-744.156	800.000	-0.090	0.324
-743.142	187.453	-0.130	0.195
-742.127	246.733	0.065	0.111
-741.112	-97.175	-0.298	-0.079
-740.098	800.000	-0.061	0.187
-739.083	800.000	-0.119	-0.500
-738.069	533.197	-0.209	0.500
-737.054	-2.277	-0.136	-0.097
-736.039	-12.908	-0.171	-0.113
-735.025	112.214	0.094	0.115
-734.010	485.971	0.092	-0.211
-732.996	-106.059	-0.194	-0.044
-731.981	800.000	-0.079	-0.263
-730.966	130.487	-0.223	-0.288
-729.952	-149.649	-0.275	-0.022
-728.937	800.000	0.074	0.221
-727.923	-154.340	-0.071	-0.005
-726.908	-30.535	-0.157	0.090
-725.894	800.000	-0.066	0.236
-724.879	661.713	0.120	-0.311
-723.864	18.794	-0.070	-0.057
-722.850	-31.380	-0.205	0.116
-721.835	88.051	0.080	-0.089
-720.821	-125.572	-0.404	-0.062
-719.806	800.000	-0.068	0.259
-718.791	-167.182	-0.328	0.013
-717.777	-51.126	-0.156	0.074
-716.762	399.084	-0.217	0.460
-715.748	-142.760	0.230	0.023
-714.733	62.123	0.074	0.075
-713.718	-200.000	-0.019	-0.119
-712.704	380.847	-0.170	-0.352
-711.689	-111.902	-0.251	0.051
-710.675	-200.000	0.002	0.145
-709.660	-200.000	0.014	-0.074
-708.645	541.863	-0.136	0.327
-707.631	-23.707	0.103	0.062
-706.616	-59.500	-0.323	-0.140
-705.602	225.970	-0.100	0.164
-704.587	-1.262	-0.259	-0.185
-703.572	490.861	0.070	-0.163
-702.558	-200.000	0.048	-0.583
-701.543	800.000	0.130	0.403
-700.529	-200.000	0.041	0.411
-699.514	724.920	-0.118	0.318
-698.499	211.516	0.023	0.036
-697.485	-97.263	0.248	-0.065
-696.470	209.592	0.136	-0.215
-695.456	-56.435	-0.207	0.093
-694.441	-147.070	0.535	-0.046
-693.426	-200.000	-0.024	-0.126
-692.412	-200.000	0.039	0.193
-691.397	-13.735	0.165	0.108
-690.383	-200.000	-0.035	-0.201
-689.368	800.000	-0.056	0.207
-688.354	-200.000	0.031	-0.208
-687.339	-173.836	-0.191	-0.006
-686.324	322.124	-0.102	0.195
-685.310	-8.695	-0.104	0.070
-684.295	-4.115	-0.112	-0.078
-683.281	1.486	-0.129	0.093
-682.266	-158.591	0.350	-0.020
-681.251	634.723	-0.096	0.246
-680.237	-182.627	-0.151	0.003
-679.222	285.938	-0.029	-0.053
-678.208	-200.000	0.040	0.338
-677.193	-106.082	-0.087	0.020
-676.178	256.059	-0.056	0.097
-675.164	-79.216	-0.059	-0.020
-674.149	-132.805	0.278	-0.036
-673.135	-200.000	-0.015	0.290
-672.120	25.514	0.192	-0.161
-671.105	214.474	-0.050	0.079
-670.091	-65.716	0.097	-0.039
-669.076	452.794	-0.102	0.226
-668.062	-18.709	-0.044	0.028
-667.047	-160.445	0.245	0.013
-666.032	-200.000	-0.005	0.078
-665.018	341.660	-0.103	0.202
-664.003	73.240	-0.236	0.249
-662.989	800.000	0.045	-0.150
-661.974	63.443	0.099	-0.100
-660.959	200.245	-0.192	-0.298
-659.945	135.878	0.235	0.308
-658.930	201.397	0.138	-0.214
-657.916	-200.000	-0.016	-0.377
-656.901	-153.464	0.173	0.012
-655.886	-93.719	0.095	0.026
-654.872	800.000	0.040	0.118
-653.857	66.833	0.137	0.141
-652.843	82.508	0.155	-0.170
-651.828	536.653	0.019	0.047
-650.814	184.367	0.029	0.044
-649.799	-200.000	0.006	0.071
-648.784	-37.716	0.310	-0.166
-647.770	800.000	-0.090	-0.260
-646.755	-157.097	0.110	-0.007
-645.741	80.451	-0.362	0.393
-644.726	-122.081	-0.090	-0.015
-643.711	445.739	-0.090	-0.199
-642.697	214.305	0.105	0.167
-641.682	-200.000	0.004	-0.250
-640.668	673.159	0.053	-0.138
-639.653	-30.825	-0.154	-0.088
-638.638	87.442	0.135	0.150
-637.624	81.314	-0.093	0.101
-636.609	800.000	0.011	-0.045
-635.595	-200.000	0.013	0.077
-634.580	-55.047	-0.130	0.059
-633.565	-200.000	0.013	-0.279
-632.551	-200.000	-0.012	0.147
-631.536	285.493	-0.084	0.152
-630.522	800.000	0.124	-0.397
-629.507	26.554	0.083	-0.070
-628.492	-35.523	0.327	0.179
-627.478	-62.792	-0.227	-0.095
-626.463	8.219	0.147	0.111
-625.449	-34.718	-0.060	0.033
-624.434	-0.260	0.227	0.163
-623.419	-129.483	-0.046	-0.006
-622.405	-0.819	-0.281	0.200
-621.390	-0.369	0.101	-0.072
-620.376	800.000	0.041	0.117
-619.361	-58.783	-0.316	0.138
-618.346	-134.181	0.216	0.027
-617.332	104.546	0.159	0.188
-616.317	763.923	0.009	-0.024
-615.303	-64.777	0.193	-0.079
-614.288	-44.336	-0.172	-0.087
-613.273	118.812	-0.120	-0.149
-612.259	-200.000	-0.053	-0.253
-611.244	-200.000	-0.024	0.132
-610.230	-200.000	-0.021	0.294
-609.215	131.206	0.114	0.147
-608.201	-64.814	-0.391	-0.159
-607.186	-37.412	-0.039	0.021
-606.171	-56.448	0.375	-0.167
-605.157	-70.077	-0.299	-0.114
-604.142	-138.218	-0.276	0.031
-603.128	-118.861	0.467	-0.082
-602.113	50.112	0.195	0.185
-601.098	-64.470	-0.174	0.071
-600.084	23.516	-0.073	0.060
-599.069	-35.498	0.232	-0.127
-598.055	-83.371	-0.026	0.008
-597.040	-5.099	0.287	-0.199
-596.025	-72.171	0.274	-0.102
-595.011	91.201	0.235	-0.266
-593.996	71.895	-0.100	0.104
-592.982	-21.440	-0.120	0.073
-591.967	-139.894	0.291	0.031
-590.952	45.802	0.227	-0.211
-589.938	198.166	-0.132	-0.203
-588.923	57.716	-0.046	-0.046
-587.909	-200.000	0.004	-0.060
-586.894	-140.248	0.370	-0.039
-585.879	-200.000	0.005	-0.198
-584.865	80.656	0.175	0.189
-583.850	-115.027	-0.151	0.029
-582.836	-38.032	0.061	0.032
-581.821	-48.048	0.330	0.160
-580.806	49.279	0.225	0.213
-579.792	-200.000	-0.043	-0.280
-578.777	119.703	0.069	-0.085
-577.763	-200.000	-0.018	-0.148
-576.748	168.617	0.234	0.335
-575.733	343.908	-0.057	-0.112
-574.719	-139.060	-0.073	0.008
-573.704	-200.000	-0.047	0.214
-572.690	179.233	-0.128	-0.188
-571.675	157.591	0.080	-0.112
-570.661	-200.000	-0.002	0.009
-569.646	29.469	-0.315	0.269
-568.631	38.402	-0.236	0.211
-567.617	-110.422	-0.043	-0.009
-566.602	-200.000	-0.041	-0.221
-565.588	-13.984	-0.144	0.094
-564.573	49.798	-0.263	-0.248
-563.558	7.351	-0.118	-0.088
-562.544	-200.000	0.205	0.001
-561.529	-118.709	0.077	-0.014
-560.515	274.733	0.134	0.238
-559.500	12.855	0.082	0.064
-558.485	-39.988	0.172	-0.090
-557.471	-200.000	-0.009	0.135
-556.456	184.180	0.037	0.055
-555.442	37.448	0.050	0.045
-554.427	-161.521	0.166	0.009
-553.412	-154.938	-0.427	-0.028
-552.398	-142.127	0.218	-0.022
-551.383	-73.297	-0.306	0.112
-550.369	-133.737	0.057	0.007
-549.354	800.000	-0.029	0.093
-548.339	-159.706	0.199	-0.011
-547.325	273.488	-0.189	-0.336
-546.310	-34.314	0.279	0.153
-545.296	-112.862	-0.214	0.043
-544.281	800.000	-0.098	0.292
-543.266	112.502	0.131	0.159
-542.252	-106.751	-0.346	-0.077
-541.237	800.000	0.055	-0.197
-540.223	65.821	-0.270	0.275
-539.208	29.649	-0.267	0.228
-538.193	207.438	0.238	0.372
-537.179	179.189	0.130	-0.190
-536.164	-200.000	-0.011	-0.080
-535.150	261.370	-0.057	0.099
-534.135	-129.211	-0.205	-0.029
-533.121	-49.292	-0.188	0.090
-532.106	-131.828	-0.101	0.013
-531.091	-200.000	0.024	-0.132
-530.077	-177.577	-0.119	0.003
-529.062	800.000	-0.038	-0.139
-528.048	-133.943	-0.254	0.032
-527.033	76.915	0.203	-0.216
-526.018	211.830	-0.104	-0.164
-525.004	-90.472	0.221	-0.064
-523.989	-25.909	-0.068	-0.040
-522.975	0.570	0.208	-0.149
-521.960	148.293	-0.095	0.128
-520.945	71.460	0.198	0.206
-519.931	262.706	-0.224	-0.389
-518.916	-200.000	0.037	0.299
-517.902	-200.000	-0.006	-0.163
-516.887	-200.000	0.025	-0.202
-515.872	50.654	-0.086	0.082
-514.858	632.097	0.141	0.356
-513.843	21.578	0.137	0.112
-512.829	477.430	-0.126	0.286
-511.814	-178.884	-0.126	-0.003
-510.799	-200.000	0.037	-0.172
-509.785	-98.155	0.301	-0.078
-508.770	-7.878	-0.144	-0.098
-507.756	28.124	-0.131	0.111
-506.741	379.273	0.076	0.155
-505.726	-200.000	0.023	0.202
-504.712	-200.000	0.005	0.145
-503.697	-161.283	-0.176	0.009
-502.683	-95.938	0.337	0.090
-501.668	336.100	-0.050	-0.097
-500.653	-95.226	-0.208	-0.056
-499.639	-200.000	0.004	0.054
-498.624	578.172	-0.094	0.231
-497.610	162.314	0.128	0.180
-496.595	266.863	0.104	-0.183
-495.581	13.791	-0.128	-0.100
-494.566	-39.463	0.329	-0.172
-493.551	608.090	-0.040	-0.099
-492.537	-48.307	0.012	-0.006
-491.522	28.930	0.071	0.060
-490.508	-200.000	0.069	-0.357
-489.493	-17.823	0.262	-0.165
-488.478	182.039	0.195	-0.287
-487.464	191.142	-0.178	0.269
-486.449	-113.381	0.148	0.029
-485.435	565.392	-0.160	-0.387
-484.420	800.000	-0.055	-0.237
-483.405	323.874	-0.072	0.137
-482.391	-14.015	-0.157	0.102
-481.376	-200.000	0.068	-0.486
-480.362	800.000	0.062	0.215
-479.347	-9.423	-0.060	-0.040
-478.332	-93.665	0.168	-0.046
-477.318	800.000	0.095	-0.337
-476.303	-139.395	-0.115	-0.012
-475.289	-36.716	-0.174	-0.094
-474.274	-200.000	-0.019	-0.104
-473.259	-169.686	-0.314	0.011
-472.245	79.746	0.162	0.174
-471.230	-31.218	-0.252	0.142
-470.216	284.546	0.041	0.073
-469.201	138.039	-0.053	0.069
-468.186	12.460	0.038	0.030
-467.172	-26.065	-0.178	0.105
-466.157	-124.208	-0.406	0.064
-465.143	123.037	-0.238	0.298
-464.128	249.547	-0.180	-0.306
-463.113	800.000	0.074	0.238
-462.099	-38.050	0.298	-0.158
-461.084	-112.366	0.132	0.026
-460.070	355.826	-0.160	0.319
-459.055	329.451	0.105	-0.202
-458.040	-144.193	0.352	-0.033
-457.026	-49.735	-0.102	-0.048
-456.011	-200.000	0.021	-0.163
-454.997	-172.247	-0.378	0.012
-453.982	-84.346	-0.161	-0.051
-452.968	111.615	-0.129	-0.155
-451.953	-107.867	-0.209	0.045
-450.938	688.767	0.085	-0.221
-449.924	800.000	-0.045	-0.139
-448.909	-200.000	-0.001	-0.209
-447.895	353.224	0.059	-0.118
-446.880	-69.057	0.280	-0.108
-445.865	-70.806	-0.054	0.020
-444.851	283.903	0.039	-0.069
-443.836	-21.629	-0.085	0.052
-442.822	200.068	-0.049	-0.075
-441.807	373.124	-0.159	-0.322
-440.792	800.000	-0.063	-0.276
-439.778	-200.000	0.024	0.167
-438.763	31.498	0.258	0.222
-437.749	-200.000	-0.010	-0.382
-436.734	-21.353	-0.187	0.114
-435.719	105.821	-0.135	-0.160
-434.705	-3.819	-0.205	0.142
-433.690	150.768	0.063	-0.085
-432.676	-45.037	-0.178	0.088
-431.661	800.000	-0.059	0.254
-430.646	-107.189	-0.191	-0.042
-429.632	-30.018	-0.285	0.162
-428.617	-8.375	-0.304	-0.204
-427.603	-52.731	-0.379	0.175
-426.588	1.626	0.084	0.060
-425.573	33.255	0.181	-0.156
-424.559	-200.000	0.034	-0.537
-423.544	-171.158	0.231	-0.008
-422.530	-200.000	0.015	0.126
-421.515	-81.371	-0.287	0.095
-420.500	-100.354	0.148	-0.037
-419.486	17.379	-0.227	-0.180
-418.471	-200.000	-0.043	-0.335
-417.457	77.796	0.191	-0.203
-416.442	96.014	0.064	-0.073
-415.428	-46.399	0.238	-0.117
-414.413	71.016	0.142	0.147
-413.398	147.860	-0.073	-0.098
-412.384	800.000	-0.036	-0.105
-411.369	800.000	0.020	0.083
-410.355	-200.000	0.085	-0.497
-409.340	-90.276	0.523	-0.152
-408.325	-30.018	-0.214	0.121
-407.311	10.630	-0.134	0.102
-406.296	213.549	0.187	0.295
-405.282	653.289	-0.022	0.055
-404.267	-129.887	0.269	0.037
-403.252	-29.928	0.293	-0.166
-402.238	-32.471	-0.116	0.064
-401.223	41.485	-0.196	0.177
-400.209	800.000	-0.064	-0.259
-399.194	-200.000	-0.009	0.265
-398.179	43.262	-0.186	-0.170
-397.165	106.560	0.133	0.157
-396.150	-53.676	0.243	0.111
-395.136	-200.000	0.045	0.448
-394.121	100.417	0.043	0.050
-393.106	-50.188	-0.348	-0.164
-392.092	-200.000	0.017	0.104
-391.077	127.465	0.024	-0.030
-390.063	114.669	-0.288	-0.350
-389.048	-29.638	-0.089	0.050
-388.033	800.000	0.066	-0.204
-387.019	-3.629	0.278	0.192
-386.004	-112.670	0.344	0.068
-384.990	800.000	-0.008	-0.035
-383.975	603.133	-0.044	0.110
-382.960	-47.329	0.218	-0.106
-381.946	95.740	-0.224	-0.255
-380.931	-109.899	-0.200	-0.042
-379.917	-174.443	-0.178	-0.005
-378.902	276.767	-0.120	0.212
-377.888	105.778	0.016	-0.019
-376.873	-96.720	0.290	0.076
-375.858	-200.000	-0.010	0.160
-374.844	167.359	-0.277	-0.391
-373.829	800.000	0.054	0.147
-372.815	-76.725	-0.177	-0.062
-371.800	-25.063	-0.035	0.021
-370.785	-200.000	0.002	0.040
-369.771	-86.198	0.079	-0.024
-368.756	68.165	-0.100	0.101
-367.742	-87.314	0.094	-0.028
-366.727	36.621	0.193	0.170
-365.712	-200.000	0.026	-0.125
-364.698	496.973	-0.020	0.046
-363.683	-15.032	0.247	-0.157
-362.669	-120.893	-0.270	-0.045
-361.654	-162.896	-0.276	-0.013
-360.639	-61.351	-0.356	-0.149
-359.625	32.076	0.319	-0.274
-358.610	330.208	0.093	-0.178
-357.596	-185.060	-0.405	0.006
-356.581	734.667	0.126	-0.336
-355.566	195.781	-0.217	0.329
-354.552	800.000	-0.005	0.016
-353.537	800.000	-0.113	0.379
-352.523	408.734	0.040	0.085
-351.508	98.193	0.090	0.103
-350.493	103.452	-0.052	-0.061
-349.479	785.167	0.028	0.077
-348.464	-59.816	-0.336	-0.143
-347.450	-74.103	0.056	-0.020
-346.435	-200.000	0.055	-0.333
-345.420	203.617	-0.103	-0.158
-344.406	158.337	0.123	0.170
-343.391	121.811	-0.170	0.210
-342.377	252.671	-0.162	0.274
-341.362	-186.830	-0.110	-0.002
-340.348	382.031	0.138	0.282
-339.333	679.565	0.039	0.102
-338.318	-200.000	-0.015	-0.135
-337.304	-107.454	0.082	0.018
-336.289	-140.332	-0.052	0.005
-335.275	800.000	0.093	-0.310
-334.260	-60.682	-0.303	0.128
-333.245	-128.414	0.234	0.033
-332.231	240.666	0.041	-0.069
-331.216	95.220	-0.324	-0.367
-330.202	-96.622	0.120	-0.032
-329.187	-175.304	-0.069	0.002
-328.172	30.592	0.346	-0.294
-327.158	-200.000	0.037	-0.330
-326.143	-114.984	-0.108	0.020
-325.129	125.434	-0.267	0.335
-324.114	88.804	0.078	-0.086
-323.099	-200.000	0.007	0.093
-322.085	109.838	0.152	-0.182
-321.070	-200.000	0.010	-0.266
-320.056	-19.426	-0.051	-0.031
-319.041	151.405	-0.093	0.125
-318.026	-200.000	-0.007	-0.241
-317.012	400.757	-0.031	0.065
-315.997	92.678	-0.157	-0.176
-314.983	34.224	0.187	0.162
-313.968	173.050	0.147	0.210
-312.953	132.352	-0.255	0.327
-311.939	-125.917	0.163	-0.024
-310.924	91.239	-0.106	-0.118
-309.910	-50.404	-0.304	-0.143
-308.895	-46.341	0.088	0.043
-307.880	-109.890	0.399	-0.083
-306.866	-116.621	0.383	0.070
-305.851	800.000	0.045	-0.161
-304.837	-185.283	0.312	-0.005
-303.822	800.000	-0.050	0.146
-302.807	800.000	0.080	0.342
-301.793	800.000	-0.060	-0.166
-300.778	119.384	-0.108	-0.133
-299.764	-123.314	0.209	0.033
-298.749	-77.643	-0.188	0.065
-297.735	469.699	0.204	0.454
-296.720	-144.050	-0.322	0.030
-295.705	-19.191	0.194	0.120
-294.691	-192.881	0.352	-0.003
-293.676	-36.476	-0.357	-0.191
-292.662	800.000	-0.025	0.107
-291.647	367.833	-0.096	-0.192
-290.632	-86.839	0.290	-0.088
-289.618	626.369	0.101	-0.253
-288.603	-95.792	-0.202	-0.054
-287.589	-61.218	-0.445	0.186
-286.574	96.878	0.138	-0.157
-285.559	-58.597	0.077	0.033
-284.545	-46.416	-0.044	0.022
-283.530	-20.821	-0.225	0.137
-282.516	800.000	-0.101	-0.324
-281.501	190.814	0.202	-0.302
-280.486	157.058	-0.087	-0.119
-279.472	-200.000	0.002	0.157
-278.457	60.500	-0.243	0.238
-277.443	9.256	0.200	0.150
-276.428	-200.000	0.042	0.229
-275.413	83.202	0.223	0.241
-274.399	-69.960	0.187	-0.071
-273.384	-61.773	-0.289	-0.120
-272.370	84.201	-0.048	-0.052
-271.355	-200.000	0.000	0.054
-270.340	-169.390	0.316	0.012
-269.326	-39.560	-0.170	-0.088
-268.311	184.313	-0.147	-0.216
-267.297	-4.802	0.281	0.192
-266.282	-135.986	0.378	0.044
-265.267	-115.618	0.063	-0.012
-264.253	-200.000	-0.036	-0.375
-263.238	800.000	0.059	-0.230
-262.224	553.507	0.093	0.223
-261.209	637.422	-0.029	0.073
-260.195	-43.069	0.407	-0.205
-259.180	121.980	-0.091	0.113
-258.165	-200.000	0.006	0.060
-257.151	-156.767	0.120	0.007
-256.136	-200.000	-0.026	0.168
-255.122	800.000	0.088	0.264
-254.107	-30.905	0.291	-0.163
-253.092	-200.000	0.017	-0.248
-252.078	3.714	0.198	0.143
-251.063	54.556	0.151	0.144
-250.049	800.000	-0.027	-0.078
-249.034	350.250	0.096	0.187
-248.019	334.679	-0.078	-0.151
-247.005	152.812	0.191	0.259
-245.990	-150.851	-0.281	-0.021
-244.976	-11.904	-0.148	0.096
-243.961	800.000	0.063	0.217
-242.946	-200.000	0.033	0.318
-241.932	402.230	-0.031	0.064
-240.917	-42.071	-0.216	-0.109
-239.903	-30.524	0.244	-0.137
-238.888	88.241	-0.189	-0.208
-237.873	-34.996	0.186	-0.100
-236.859	-61.126	-0.140	-0.058
-235.844	-146.788	0.356	-0.030
-234.830	-200.000	0.013	0.203
-233.815	-38.226	-0.087	0.046
-232.800	-24.181	-0.412	-0.244
-231.786	-200.000	-0.009	0.088
-230.771	339.061	0.032	-0.061
-229.757	-200.000	0.042	0.201
-228.742	-125.862	0.416	-0.062
-227.727	-65.144	-0.319	-0.127
-226.713	-33.908	0.244	-0.133
-225.698	-47.025	0.376	-0.182
-224.684	-60.843	-0.251	-0.105
-223.669	-10.973	0.082	0.054
-222.655	-73.199	-0.145	0.053
-221.640	-169.600	0.299	0.011
-220.625	-17.562	-0.317	0.198
-219.611	-200.000	0.054	0.363
-218.596	-53.104	0.145	-0.066
-217.582	22.300	-0.362	0.293
-216.567	261.649	0.087	0.149
-215.552	407.289	0.115	0.240
-214.538	-80.311	-0.200	0.066
-213.523	353.505	-0.082	-0.161
-212.509	-99.953	0.232	-0.057
-211.494	-11.166	0.040	-0.026
-210.479	-28.004	-0.173	-0.099
-209.465	-117.810	-0.127	0.023
-208.450	117.777	-0.100	-0.122
-207.436	-77.867	0.414	-0.141
-206.421	-200.000	0.010	0.065
-205.406	-15.937	-0.205	0.129
-204.392	5.500	-0.090	-0.065
-203.377	-132.863	-0.443	-0.056
-202.363	-200.000	0.013	-0.211
-201.348	311.748	0.129	-0.239
-200.333	-200.000	-0.006	0.251
-199.319	110.078	0.167	0.198
-198.304	99.109	0.024	-0.027
-197.290	-200.000	-0.006	0.129
-196.275	-114.029	0.297	0.057
-195.260	223.583	-0.088	0.141
-194.246	-150.790	0.171	0.013
-193.231	437.958	0.101	0.218
-192.217	-144.388	-0.157	0.014
-191.202	643.549	0.148	0.372
-190.187	-200.000	0.037	0.219
-189.173	51.315	-0.246	0.231
-188.158	-109.701	-0.292	-0.061
-187.144	-200.000	-0.038	0.187
-186.129	-200.000	0.002	0.165
-185.114	216.496	-0.143	0.224
-184.100	-200.000	0.021	-0.155
-183.085	-15.486	-0.144	-0.091
-182.071	305.687	0.013	0.024
-181.056	-153.335	0.488	0.034
-180.042	118.419	-0.100	0.122
-179.027	-200.000	-0.188	0.000
-178.012	-52.373	0.106	-0.049
-176.998	322.507	-0.033	-0.063
-175.983	462.940	-0.122	0.270
-174.969	-70.620	0.087	-0.032
-173.954	-0.938	0.404	0.283
-172.939	-77.641	-0.134	-0.046
-171.925	344.644	-0.133	0.257
-170.910	-126.506	-0.168	0.025
-169.896	712.012	0.034	-0.090
-168.881	197.517	0.018	-0.026
-167.866	49.285	0.051	0.047
-166.852	-158.504	0.157	-0.009
-165.837	-108.072	0.261	0.056
-164.823	450.318	-0.165	0.360
-163.808	-96.860	0.171	0.044
-162.793	118.136	0.202	0.246
-161.779	-83.810	-0.238	0.075
-160.764	-18.051	0.157	-0.097
-159.750	-40.442	-0.499	-0.256
-158.735	800.000	0.052	0.208
-157.720	-33.431	0.151	0.083
-156.706	42.026	0.166	-0.149
-155.691	-200.000	0.017	0.243
-154.677	77.156	0.165	0.174
-153.662	121.429	0.289	-0.355
-152.647	95.430	-0.190	-0.214
-151.633	-178.725	-0.358	-0.008
-150.618	-90.726	0.019	0.005
-149.604	-54.806	-0.100	-0.045
-148.589	800.000	-0.054	-0.166
-147.574	-68.094	-0.441	0.170
-146.560	-200.000	-0.002	0.099
-145.545	-200.000	-0.001	-0.045
-144.531	280.853	-0.255	0.451
-143.516	-41.594	0.142	0.072
-142.502	37.211	0.107	-0.094
-141.487	-126.356	0.052	-0.008
-140.472	800.000	0.026	0.086
-139.458	-200.000	0.049	0.324
-138.443	366.759	0.072	-0.143
-137.429	63.659	0.104	0.104
-136.414	39.246	-0.087	0.076
-135.399	-200.000	0.052	-0.246
-134.385	-200.000	0.058	-0.483
-133.370	264.393	0.190	-0.326
-132.356	-200.000	0.012	-0.351
-131.341	800.000	-0.037	-0.154
-130.326	14.642	0.247	-0.191
-129.312	-200.000	-0.039	0.194
-128.297	414.364	0.072	-0.151
-127.283	660.016	0.144	0.367
-126.268	-22.158	-0.110	0.066
-125.253	-200.000	-0.033	0.359
-124.239	-107.367	0.375	0.081
-123.224	-200.000	-0.000	-0.082
-122.210	-200.000	0.008	0.053
-121.195	-101.361	0.199	-0.048
