DTS Sentinel unit serial number:	SN413079Multiplexer serial number:	ORYXHardware model number:	OX4-SRSoftware version number:	ORYX F/W v4.00 Oryx Data Collector v3.7.2.0data status	okinstallation	princeton_trtdifferential loss correction	single-endedforward channel	channel 4reverse channel	N/Adate	2019/09/12time	18:12:19forward acquisition time	15.00reverse acquisition time	0.00gamma	496.2192k internal	0.2307k external	0.2307temperature offset calibration	1.0129default loss term (dB/km)	0.3790temperature slope calibration	1.0000multiplexer offset coefficient	1.0000multiplexer slope coefficient	1.0000fibre end	0.00T internal ref (°C)	33.56T ext. ref 1 (°C)	2.95T ext. ref 2 (°C)	28.16length (m)	temperature (°C)	Stokes	anti-Stokes-747.200	140.767	0.097	-0.131
-746.185	-68.247	-0.220	0.087
-745.171	-129.436	0.441	0.062
-744.156	443.557	0.249	0.556
-743.142	-200.000	0.110	0.590
-742.127	-160.736	-0.495	0.027
-741.112	-200.000	0.031	0.155
-740.098	18.241	0.137	-0.112
-739.083	-200.000	-0.185	-1.022
-738.069	-174.953	-0.757	0.022
-737.054	-200.000	-0.025	0.237
-736.039	258.377	0.108	-0.190
-735.025	-125.736	0.251	-0.039
-734.010	-12.234	0.703	0.468
-732.996	-124.624	-1.483	0.234
-731.981	-200.000	0.025	-0.186
-730.966	-13.733	-0.615	-0.404
-729.952	800.000	-0.123	-0.436
-728.937	-200.000	-0.040	0.445
-727.923	515.268	0.166	-0.395
-726.908	-24.676	0.466	0.282
-725.894	532.908	0.237	0.570
-724.879	4.988	-0.893	0.668
-723.864	126.660	-0.247	0.318
-722.850	-134.864	-0.769	0.095
-721.835	499.514	-0.125	-0.293
-720.821	363.842	-0.388	-0.793
-719.806	475.424	0.181	0.415
-718.791	108.581	-0.285	0.345
-717.777	800.000	0.099	0.340
-716.762	298.846	0.201	-0.377
-715.748	138.360	0.405	-0.539
-714.733	-200.000	-0.020	-0.419
-713.718	63.895	0.130	-0.133
-712.704	53.081	-0.314	-0.305
-711.689	413.038	-0.154	-0.333
-710.675	7.831	-0.336	-0.256
-709.660	800.000	-0.103	0.446
-708.645	-17.604	0.299	-0.191
-707.631	-73.832	-0.504	-0.186
-706.616	-200.000	0.029	-0.305
-705.602	51.709	-0.335	0.324
-704.587	-35.039	-0.728	0.403
-703.572	-153.303	0.713	-0.050
-702.558	-200.000	-0.001	0.228
-701.543	-51.933	-0.371	0.175
-700.529	435.843	0.099	0.220
-699.514	234.047	0.297	-0.496
-698.499	420.530	0.082	-0.178
-697.485	-101.943	-0.251	0.062
-696.470	-161.509	0.613	0.032
-695.456	-18.669	-0.895	-0.566
-694.441	239.730	0.293	-0.495
-693.426	361.388	-0.221	0.449
-692.412	452.680	0.250	-0.561
-691.397	-200.000	0.011	-0.454
-690.383	-36.321	0.675	-0.369
-689.368	-158.827	0.482	-0.028
-688.354	-147.911	-0.373	-0.032
-687.339	-105.928	-0.951	0.217
-686.324	-200.000	0.099	-0.720
-685.310	-43.100	-0.897	-0.461
-684.295	-85.601	-0.538	0.170
-683.281	-200.000	-0.041	-0.365
-682.266	67.494	-0.240	-0.249
-681.251	78.236	-0.230	-0.249
-680.237	106.968	-0.590	-0.711
-679.222	322.322	-0.161	0.311
-678.208	-200.000	0.093	0.533
-677.193	-200.000	0.099	-0.876
-676.178	-23.646	0.557	0.339
-675.164	-200.000	0.124	0.645
-674.149	105.121	-0.279	0.334
-673.135	-44.983	-0.131	0.066
-672.120	-165.911	-0.951	-0.041
-671.105	-200.000	-0.088	0.603
-670.091	-200.000	0.070	0.669
-669.076	800.000	0.056	0.186
-668.062	133.499	0.193	-0.253
-667.047	152.750	-0.626	-0.867
-666.032	-78.170	0.322	-0.112
-665.018	800.000	0.204	0.647
-664.003	-200.000	-0.333	0.000
-662.989	-54.834	1.035	-0.473
-661.974	365.730	0.020	0.040
-660.959	-156.824	0.068	0.004
-659.945	28.376	-0.492	0.422
-658.930	42.851	0.603	-0.557
-657.916	-150.622	-0.880	0.068
-656.901	626.249	0.197	-0.503
-655.886	-200.000	0.078	-1.387
-654.872	303.984	0.210	-0.395
-653.857	-22.179	0.798	-0.490
-652.843	126.562	-0.475	0.609
-651.828	6.960	0.680	0.514
-650.814	-184.987	-0.163	0.003
-649.799	-53.103	0.600	-0.279
-648.784	-17.229	-0.611	0.390
-647.770	-134.049	-0.614	-0.077
-646.755	-200.000	0.001	-0.292
-645.741	-19.669	-0.539	0.338
-644.726	800.000	0.158	-0.523
-643.711	-200.000	0.008	0.677
-642.697	279.654	-0.203	0.367
-641.682	800.000	0.093	0.294
-640.668	311.726	-0.422	0.801
-639.653	67.155	-0.103	-0.107
-638.638	-181.830	0.652	0.013
-637.624	800.000	0.052	0.220
-636.609	-25.661	0.242	-0.145
-635.595	47.621	-0.159	-0.150
-634.580	-200.000	0.050	-0.267
-633.565	-73.717	-0.330	-0.122
-632.551	367.923	0.336	-0.688
-631.536	-200.000	0.066	-0.651
-630.522	-43.853	1.066	-0.543
-629.507	15.419	-0.515	0.409
-628.492	136.156	-0.373	-0.492
-627.478	-200.000	0.005	0.039
-626.463	-55.483	0.094	-0.043
-625.449	85.631	-0.099	0.110
-624.434	-111.442	-0.316	0.065
-623.419	-200.000	-0.007	0.362
-622.405	-200.000	0.105	0.526
-621.390	69.530	-0.372	-0.388
-620.376	-35.927	-0.564	-0.309
-619.361	-80.392	-0.312	0.105
-618.346	-200.000	0.086	-0.614
-617.332	-176.750	0.406	-0.010
-616.317	-200.000	0.128	0.703
-615.303	-200.000	-0.064	0.485
-614.288	800.000	0.253	0.726
-613.273	-125.972	-0.395	-0.060
-612.259	-172.281	0.602	-0.019
-611.244	-16.457	-0.287	-0.184
-610.230	-200.000	0.133	-0.674
-609.215	107.026	-0.451	-0.542
-608.201	52.452	0.291	0.281
-607.186	-20.830	-0.636	0.394
-606.171	-92.918	0.281	0.079
-605.157	-158.161	0.059	0.003
-604.142	124.468	0.196	-0.249
-603.128	-200.000	-0.007	0.345
-602.113	800.000	0.143	-0.403
-601.098	26.132	-0.565	0.477
-600.084	255.908	-0.188	-0.326
-599.069	-79.613	0.594	-0.203
-598.055	-57.031	0.761	0.339
-597.040	206.851	-0.355	0.560
-596.025	429.142	0.120	0.263
-595.011	13.712	0.120	-0.094
-593.996	59.083	-0.221	-0.220
-592.982	14.073	-0.126	0.099
-591.967	51.967	-0.085	-0.081
-590.952	222.025	-0.366	-0.596
-589.938	-97.290	-0.113	0.030
-588.923	-78.683	-0.713	0.246
-587.909	-180.502	-0.306	0.006
-586.894	-177.746	-0.753	-0.018
-585.879	-116.630	-1.112	0.207
-584.865	-109.662	0.474	-0.101
-583.850	-200.000	0.037	-0.450
-582.836	75.651	-0.590	-0.630
-581.821	-200.000	0.075	-0.489
-580.806	-200.000	-0.095	0.554
-579.792	-95.106	1.430	0.390
-578.777	68.393	0.225	0.233
-577.763	-200.000	-0.084	0.480
-576.748	16.011	-0.347	0.276
-575.733	-200.000	-0.003	-0.123
-574.719	-200.000	0.074	0.651
-573.704	-124.018	-0.868	0.138
-572.690	346.524	0.268	0.533
-571.675	-140.752	-0.507	-0.053
-570.661	-174.247	-0.209	-0.006
-569.646	-44.118	-0.257	-0.130
-568.631	4.120	0.325	0.240
-567.617	-74.813	-0.128	0.047
-566.602	783.388	0.229	0.633
-565.588	-80.221	-0.901	0.305
-564.573	-71.286	0.377	0.143
-563.558	-97.383	0.261	-0.069
-562.544	-73.500	0.429	-0.158
-561.529	-96.954	0.336	0.089
-560.515	209.573	0.201	-0.318
-559.500	-27.210	0.079	0.047
-558.485	-15.541	-0.418	0.270
-557.471	495.193	-0.193	-0.448
-556.456	107.639	-0.127	0.153
-555.442	345.673	0.113	-0.225
-554.427	-114.904	0.201	-0.039
-553.412	-155.691	-0.530	-0.034
-552.398	-200.000	-0.004	-0.423
-551.383	-158.863	0.669	0.038
-550.369	261.735	0.669	-1.170
-549.354	156.280	0.457	-0.637
-548.339	-111.040	0.729	0.151
-547.325	800.000	-0.225	-0.841
-546.310	355.312	0.399	-0.801
-545.296	-35.385	-0.403	-0.221
-544.281	161.190	0.446	-0.630
-543.266	35.667	0.222	0.197
-542.252	800.000	-0.159	-0.454
-541.237	-200.000	0.047	-0.334
-540.223	494.407	-0.167	-0.388
-539.208	54.251	-0.503	0.489
-538.193	-26.018	-0.078	-0.046
-537.179	-39.175	0.260	0.138
-536.164	747.566	-0.160	0.434
-535.150	800.000	-0.165	-0.470
-534.135	-200.000	0.034	-0.439
-533.121	-187.390	-0.228	-0.003
-532.106	-176.625	0.966	0.025
-531.091	487.105	0.309	-0.710
-530.077	-22.319	0.511	-0.312
-529.062	17.017	-0.182	0.145
-528.048	340.969	0.295	0.580
-527.033	-131.874	0.290	0.038
-526.018	-29.165	-0.586	-0.339
-525.004	-59.563	-0.172	0.074
-523.989	800.000	-0.045	-0.138
-522.975	742.779	-0.288	-0.780
-521.960	26.069	0.084	-0.071
-520.945	-108.624	-0.510	-0.110
-519.931	-200.000	0.077	-0.468
-518.916	125.632	-0.596	-0.759
-517.902	334.692	-0.149	-0.291
-516.887	318.144	0.640	-1.221
-515.872	449.656	-0.213	0.474
-514.858	-200.000	-0.035	-0.761
-513.843	387.848	-0.054	0.112
-512.829	85.109	-0.242	-0.268
-511.814	61.774	0.273	0.274
-510.799	481.451	-0.207	0.475
-509.785	800.000	0.123	-0.418
-508.770	-167.591	0.626	0.025
-507.756	-140.945	-0.219	-0.023
-506.741	54.618	0.421	0.409
-505.726	57.276	-0.392	0.386
-504.712	-200.000	-0.166	-0.975
-503.697	590.722	0.351	-0.873
-502.683	-200.000	-1.091	0.002
-501.668	100.016	0.529	-0.618
-500.653	-88.007	-0.799	0.242
-499.639	800.000	-0.166	-0.592
-498.624	-46.387	0.305	0.151
-497.610	43.490	-0.149	0.137
-496.595	-200.000	-0.053	0.571
-495.581	-70.060	-0.163	-0.063
-494.566	-200.000	0.039	-0.265
-493.551	-137.720	-0.521	0.059
-492.537	-60.365	-0.371	-0.159
-491.522	-143.162	0.630	-0.061
-490.508	-153.086	-0.443	0.031
-489.493	53.807	-0.455	-0.440
-488.478	-30.082	0.297	-0.170
-487.464	102.257	-0.248	-0.292
-486.449	182.829	0.391	0.581
-485.435	-104.171	0.453	-0.106
-484.420	-33.512	0.461	-0.257
-483.405	-18.164	-0.200	0.126
-482.391	-139.516	0.523	-0.056
-481.376	-200.000	-0.101	-0.662
-480.362	514.355	0.110	0.258
-479.347	-200.000	-0.001	-0.756
-478.332	-200.000	-0.026	0.215
-477.318	-24.029	0.329	0.198
-476.303	154.158	0.213	-0.294
-475.289	224.176	0.370	-0.601
-474.274	-200.000	0.033	0.747
-473.259	27.244	-0.406	-0.343
-472.245	5.300	-0.295	-0.219
-471.230	20.960	0.487	-0.398
-470.216	11.914	0.707	-0.547
-469.201	-38.255	0.464	-0.247
-468.186	-101.283	0.650	0.160
-467.172	-7.783	0.312	-0.212
-466.157	26.999	0.819	0.691
-465.143	509.484	-0.096	0.224
-464.128	-126.226	-0.317	0.048
-463.113	103.337	0.286	-0.337
-462.099	-103.893	-0.490	-0.115
-461.084	800.000	-0.120	0.447
-460.070	-30.002	0.379	0.217
-459.055	-200.000	0.000	-0.388
-458.040	-11.336	-0.206	0.137
-457.026	-121.139	0.330	-0.056
-456.011	-118.121	-0.538	-0.097
-454.997	138.322	0.104	0.138
-453.982	800.000	0.106	-0.374
-452.968	-151.562	-0.406	0.030
-451.953	-200.000	-0.128	0.584
-450.938	-147.894	0.666	-0.056
-449.924	-51.651	0.488	-0.229
-448.909	68.437	0.529	-0.545
-447.895	41.884	-0.312	-0.285
-446.880	800.000	-0.205	0.877
-445.865	800.000	0.109	-0.456
-444.851	290.707	-0.288	0.526
-443.836	-155.512	0.297	-0.019
-442.822	122.367	-0.281	-0.354
-441.807	-116.764	0.509	0.094
-440.792	141.110	0.132	0.176
-439.778	501.947	0.369	-0.856
-438.763	-200.000	0.003	-0.097
-437.749	180.144	-0.597	-0.879
-436.734	-186.908	-1.141	-0.016
-435.719	399.784	-0.064	0.134
-434.705	-99.880	0.466	-0.117
-433.690	-200.000	-0.018	0.661
-432.676	-200.000	-0.028	-0.900
-431.661	522.566	0.254	-0.599
-430.646	435.531	-0.475	-1.039
-429.632	800.000	0.253	-0.878
-428.617	-62.878	0.602	0.250
-427.603	800.000	0.035	0.119
-426.588	-110.730	0.410	-0.085
-425.573	800.000	0.310	0.876
-424.559	-200.000	0.025	0.770
-423.544	-158.200	0.956	0.056
-422.530	147.886	-0.269	0.365
-421.515	184.284	-0.327	-0.487
-420.500	-135.177	0.213	0.026
-419.486	800.000	-0.072	0.286
-418.471	-200.000	0.145	-0.791
-417.457	-81.477	0.548	-0.181
-416.442	-56.280	0.252	0.112
-415.428	94.409	-0.495	-0.565
-414.413	-200.000	-0.018	0.273
-413.398	-200.000	0.029	0.513
-412.384	74.328	-0.419	0.442
-411.369	800.000	-0.186	0.716
-410.355	-52.693	-0.787	-0.365
-409.340	-42.296	0.570	0.292
-408.325	-154.138	0.236	-0.016
-407.311	-200.000	-0.066	0.339
-406.296	800.000	-0.146	-0.500
-405.282	24.466	0.322	-0.267
-404.267	-30.300	-0.726	-0.414
-403.252	800.000	-0.188	0.701
-402.238	-32.999	-0.235	-0.131
-401.223	-200.000	-0.032	-0.180
-400.209	8.952	0.408	-0.309
-399.194	-56.542	-0.426	0.189
-398.179	21.161	0.437	-0.356
-397.165	-75.554	-0.065	-0.023
-396.150	125.140	0.065	-0.082
-395.136	-200.000	-0.019	-0.220
-394.121	501.572	-0.261	0.604
-393.106	800.000	0.259	0.788
-392.092	-200.000	0.074	-0.490
-391.077	-99.783	0.866	0.218
-390.063	-159.638	0.370	0.021
-389.048	182.321	-0.369	0.545
-388.033	-100.918	0.914	-0.225
-387.019	800.000	-0.041	0.166
-386.004	81.559	-0.298	-0.323
-384.990	-158.220	0.189	0.011
-383.975	-15.949	0.483	-0.308
-382.960	-200.000	-0.000	-0.323
-381.946	-138.481	-0.163	0.018
-380.931	130.969	-0.402	-0.518
-379.917	607.668	-0.128	-0.319
-378.902	-19.537	0.300	-0.186
-377.888	166.719	0.109	0.154
-376.873	-54.465	-0.492	0.224
-375.858	-122.551	0.860	-0.140
-374.844	56.664	-0.117	0.114
-373.829	43.544	-0.607	-0.556
-372.815	800.000	-0.097	-0.280
-371.800	-182.918	-0.553	0.010
-370.785	-24.789	-0.740	-0.440
-369.771	11.552	-0.400	0.307
-368.756	-50.391	0.387	0.183
-367.742	800.000	-0.123	-0.381
-366.727	-172.895	-0.192	-0.006
-365.712	-117.704	0.443	0.080
-364.698	90.707	0.554	-0.622
-363.683	121.364	0.215	0.269
-362.669	344.198	0.399	0.785
-361.654	-31.478	0.417	0.235
-360.639	147.193	-0.253	0.341
-359.625	-188.426	-0.658	0.008
-358.610	-200.000	-0.034	-0.635
-357.596	236.439	-0.470	0.780
-356.581	368.392	0.249	0.504
-355.566	476.468	-0.050	0.113
-354.552	-200.000	-0.173	1.138
-353.537	65.678	-0.085	-0.087
-352.523	44.676	0.259	-0.238
-351.508	-73.837	0.579	0.211
-350.493	800.000	-0.338	0.948
-349.479	605.518	0.236	0.587
-348.464	232.403	-0.306	0.503
-347.450	-15.586	0.398	-0.254
-346.435	800.000	-0.057	-0.208
-345.420	-133.780	0.822	-0.102
-344.406	-200.000	-0.042	0.365
-343.391	725.267	0.222	0.592
-342.377	180.326	0.410	-0.602
-341.362	-52.867	-0.614	0.283
-340.348	39.310	0.345	-0.309
-339.333	-24.171	0.669	-0.400
-338.318	139.902	-0.345	0.455
-337.304	-200.000	-0.029	0.458
-336.289	81.459	-0.633	0.685
-335.275	190.562	0.539	0.811
-334.260	6.811	-0.399	-0.297
-333.245	-62.841	-0.790	0.327
-332.231	-28.947	-0.579	0.333
-331.216	-162.409	-1.013	0.050
-330.202	-148.344	-0.039	-0.003
-329.187	13.387	-0.514	0.399
-328.172	40.154	-0.115	-0.103
-327.158	24.136	-0.623	0.515
-326.143	-200.000	0.060	0.340
-325.129	5.518	-0.655	-0.484
-324.114	-33.691	-0.226	0.125
-323.099	-84.249	-0.533	-0.169
-322.085	-56.348	-0.486	0.216
-321.070	-200.000	0.004	0.116
-320.056	143.602	-0.361	0.481
-319.041	100.890	-0.357	0.415
-318.026	62.868	-0.314	0.314
-317.012	800.000	-0.110	-0.321
-315.997	-200.000	-0.004	-0.229
-314.983	20.184	-0.527	-0.426
-313.968	-200.000	-0.103	0.481
-312.953	-24.352	0.163	0.097
-311.939	-200.000	0.007	0.393
-310.924	-200.000	0.026	0.366
-309.910	197.155	0.146	0.223
-308.895	499.148	-0.230	-0.530
-307.880	-200.000	-0.143	-0.631
-306.866	110.227	0.617	0.741
-305.851	800.000	-0.183	0.712
-304.837	-40.827	0.396	0.205
-303.822	265.807	0.109	0.190
-302.807	73.369	0.614	-0.643
-301.793	-150.054	-0.267	0.021
-300.778	331.773	-0.330	-0.637
-299.764	-164.189	0.932	0.043
-298.749	228.606	0.430	0.700
-297.735	-200.000	-0.133	0.721
-296.720	359.631	-0.253	-0.506
-295.705	36.297	-0.133	0.117
-294.691	-82.130	-0.518	-0.169
-293.676	-200.000	-0.146	-0.930
-292.662	-101.372	0.428	0.104
-291.647	268.715	0.204	-0.357
-290.632	71.284	-0.428	-0.444
-289.618	249.725	-0.216	-0.366
-288.603	-200.000	-0.007	0.170
-287.589	-146.571	-0.485	-0.042
-286.574	-182.362	0.513	0.009
-285.559	328.446	0.197	0.377
-284.545	-200.000	0.054	0.640
-283.530	38.108	0.158	-0.140
-282.516	800.000	0.190	-0.547
-281.501	-96.794	0.122	-0.032
-280.486	-19.742	0.483	0.298
-279.472	-157.481	0.108	0.006
-278.457	-200.000	0.107	0.494
-277.443	47.860	-1.013	0.945
-276.428	-167.895	0.821	-0.032
-275.413	-57.790	-0.656	0.287
-274.399	-41.919	-0.112	0.057
-273.384	800.000	-0.095	0.358
-272.370	-77.416	0.791	0.274
-271.355	-45.125	0.444	-0.220
-270.340	800.000	-0.077	-0.272
-269.326	437.233	-0.030	-0.066
-268.311	-35.141	-0.590	-0.321
-267.297	-119.280	-0.226	0.039
-266.282	172.602	-0.036	0.052
-265.267	226.280	-0.183	-0.296
-264.253	800.000	0.016	-0.050
-263.238	-200.000	-0.071	-0.440
-262.224	800.000	0.142	-0.522
-261.209	-50.242	-0.608	0.287
-260.195	-119.001	-0.820	-0.143
-259.180	-200.000	-0.457	0.000
-258.165	35.851	-0.447	0.392
-257.151	-45.495	-0.874	0.432
-256.136	-15.559	0.505	-0.322
-255.122	-35.268	-0.653	0.355
-254.107	-200.000	0.135	-0.803
-253.092	-36.512	1.026	0.551
-252.078	797.163	-0.132	0.363
-251.063	106.084	0.340	0.401
-250.049	-153.408	0.071	-0.005
-249.034	-101.743	0.305	0.074
-248.019	78.212	0.253	0.270
-247.005	74.045	0.298	-0.312
-245.990	-138.447	-0.387	-0.042
-244.976	-71.119	-0.605	0.227
-243.961	343.726	0.396	0.774
-242.946	-145.252	0.268	-0.024
-241.932	-136.270	0.233	0.027
-240.917	39.467	0.533	0.476
-239.903	-120.824	0.682	0.115
-238.888	-200.000	0.020	0.629
-237.873	-143.523	0.649	-0.062
-236.859	162.817	0.578	0.808
-235.844	-72.459	-0.172	0.063
-234.830	371.784	0.200	-0.405
-233.815	800.000	-0.201	0.785
-232.800	-200.000	-0.021	0.148
-231.786	11.417	0.393	-0.300
-230.771	-183.048	-0.917	-0.016
-229.757	424.593	0.189	-0.406
-228.742	-200.000	-0.045	1.097
-227.727	-99.098	0.250	0.063
-226.713	-200.000	-0.030	-0.762
-225.698	800.000	-0.153	0.575
-224.684	-200.000	0.061	-0.609
-223.669	-33.181	0.485	0.268
-222.655	-200.000	-0.033	-0.486
-221.640	-129.053	-0.429	0.060
-220.625	202.033	-0.233	0.358
-219.611	-200.000	-0.100	-0.550
-218.596	258.456	0.218	-0.374
-217.582	16.312	0.482	0.379
-216.567	-74.209	-0.026	0.009
-215.552	-62.945	-0.519	-0.214
-214.538	-128.468	0.546	0.077
-213.523	-170.803	-0.349	0.012
-212.509	570.060	0.114	-0.277
-211.494	-87.637	-0.185	-0.056
-210.479	-161.297	-0.131	-0.007
-209.465	-144.723	-0.450	-0.041
-208.450	-79.843	0.384	-0.129
-207.436	85.824	0.720	0.789
-206.421	-200.000	-0.099	1.074
-205.406	670.558	0.281	-0.724
-204.392	-200.000	0.009	-0.051
-203.377	643.920	0.012	-0.030
-202.363	728.216	-0.103	-0.274
-201.348	207.064	-0.357	0.555
-200.333	50.187	0.232	-0.218
-199.319	194.591	-0.219	0.330
-198.304	-157.332	-0.250	-0.015
-197.290	440.318	0.081	-0.177
-196.275	-15.186	0.165	0.105
-195.260	800.000	-0.074	0.309
-194.246	800.000	0.187	0.762
-193.231	351.661	-0.251	0.495
-192.217	-48.867	-0.404	0.193
-191.202	-1.836	0.530	0.371
-190.187	-200.000	0.504	-0.002
-189.173	501.269	-0.126	-0.289
-188.158	800.000	0.116	-0.364
-187.144	800.000	0.234	1.008
-186.129	-200.000	0.105	-0.602
-185.114	292.958	0.333	0.605
-184.100	217.395	0.079	-0.126
-183.085	-70.022	-0.900	0.341
-182.071	-131.255	0.739	0.098
-181.056	800.000	-0.177	-0.694
-180.042	-200.000	0.000	-0.085
-179.027	431.903	-0.281	0.606
-178.012	245.133	-0.118	-0.197
-176.998	305.757	-0.100	0.184
-175.983	-33.805	0.698	-0.383
-174.969	-142.916	0.817	-0.079
-173.954	800.000	0.367	-1.052
-172.939	12.202	0.595	-0.455
-171.925	449.872	-0.055	-0.121
-170.910	567.913	0.221	0.533
-169.896	-80.142	0.393	-0.131
-168.881	226.544	-0.141	-0.228
-167.866	-105.146	0.684	-0.155
-166.852	146.806	-0.090	-0.120
-165.837	-87.190	-0.633	0.191
-164.823	-31.267	-0.357	0.200
-163.808	-200.000	-0.021	-0.405
-162.793	-90.350	0.442	-0.128
-161.779	21.156	0.221	0.178
-160.764	15.374	-0.311	0.243
-159.750	239.098	-0.239	0.395
-158.735	-15.449	-0.736	0.468
-157.720	-130.706	-0.780	-0.104
-156.706	64.612	-0.267	-0.268
-155.691	121.928	-0.391	-0.485
-154.677	486.943	-0.099	0.225
-153.662	123.504	0.341	-0.425
-152.647	-200.000	0.028	0.712
-151.633	-200.000	0.010	0.237
-150.618	-149.097	-0.633	-0.050
-149.604	189.376	-0.323	0.481
-148.589	97.072	0.287	0.328
-147.574	-168.727	-0.330	0.012
-146.560	295.662	0.376	0.683
-145.545	-50.073	0.691	0.325
-144.531	800.000	0.153	0.633
-143.516	-200.000	0.108	-0.517
-142.502	-73.973	-0.049	0.018
-141.487	-144.814	0.775	0.071
-140.472	68.667	-0.351	-0.357
-139.458	26.490	-0.859	0.713
-138.443	0.223	1.000	-0.709
-137.429	-86.154	0.171	-0.052
-136.414	281.821	0.074	0.132
-135.399	-200.000	0.091	0.688
-134.385	504.840	0.082	-0.189
-133.370	80.661	-0.393	0.420
-132.356	12.896	0.611	-0.469
-131.341	136.801	0.230	-0.298
-130.326	215.963	0.188	0.297
-129.312	-200.000	-0.092	-0.922
-128.297	-83.982	-0.681	0.215
-127.283	800.000	-0.159	-0.520
-126.268	-126.883	0.456	-0.067
-125.253	37.110	0.354	-0.311
-124.239	-110.388	0.430	-0.089
-123.224	-2.166	0.252	-0.176
