DTS Sentinel unit serial number:	SN413079Multiplexer serial number:	ORYXHardware model number:	OX4-SRSoftware version number:	ORYX F/W v4.00 Oryx Data Collector v3.7.2.0data status	okinstallation	princeton_trtdifferential loss correction	single-endedforward channel	channel 4reverse channel	N/Adate	2019/09/15time	16:17:35forward acquisition time	60.00reverse acquisition time	0.00gamma	496.2192k internal	0.2276k external	0.2276temperature offset calibration	0.9940default loss term (dB/km)	0.3790temperature slope calibration	1.0000multiplexer offset coefficient	1.0000multiplexer slope coefficient	1.0000fibre end	0.00T internal ref (°C)	43.50T ext. ref 1 (°C)	5.46T ext. ref 2 (°C)	39.91length (m)	temperature (°C)	Stokes	anti-Stokes-747.200	-0.772	0.078	0.057
-746.185	-200.000	0.063	0.368
-745.171	175.736	-0.079	0.118
-744.156	613.197	-0.127	0.327
-743.142	94.025	0.188	-0.219
-742.127	-35.478	-0.152	0.085
-741.112	124.930	-0.218	-0.282
-740.098	-35.087	-0.347	-0.195
-739.083	65.994	0.347	-0.362
-738.069	-200.000	0.050	0.274
-737.054	800.000	0.071	0.215
-736.039	-200.000	-0.008	-0.047
-735.025	-69.423	0.079	0.031
-734.010	-78.693	-0.237	-0.084
-732.996	-62.560	-0.091	0.039
-731.981	413.818	0.040	-0.088
-730.966	84.794	0.376	-0.425
-729.952	559.347	0.090	0.223
-728.937	373.870	0.119	0.249
-727.923	634.204	0.161	-0.421
-726.908	-200.000	-0.051	-0.262
-725.894	46.628	0.141	0.134
-724.879	15.075	0.253	-0.204
-723.864	460.317	0.076	-0.173
-722.850	31.135	-0.074	0.066
-721.835	-200.000	0.013	-0.115
-720.821	409.867	-0.051	-0.111
-719.806	-7.842	-0.020	0.014
-718.791	-200.000	-0.002	0.082
-717.777	-101.984	-0.223	0.055
-716.762	-123.738	0.014	-0.002
-715.748	-53.507	0.222	0.105
-714.733	-85.962	-0.249	0.079
-713.718	90.085	0.212	-0.244
-712.704	-91.551	-0.135	-0.040
-711.689	-30.537	-0.133	-0.078
-710.675	157.176	-0.148	0.210
-709.660	-8.165	-0.284	-0.197
-708.645	225.544	-0.101	0.168
-707.631	-72.355	0.072	0.027
-706.616	800.000	0.045	-0.176
-705.602	731.831	-0.167	-0.459
-704.587	-200.000	-0.041	-0.350
-703.572	-28.346	0.033	-0.020
-702.558	183.614	0.008	-0.012
-701.543	-200.000	-0.029	0.224
-700.529	265.634	0.050	0.090
-699.514	179.215	0.088	0.133
-698.499	695.686	-0.119	-0.321
-697.485	187.913	0.106	0.163
-696.470	-121.926	-0.097	-0.016
-695.456	212.500	0.183	0.297
-694.441	-48.367	0.216	0.107
-693.426	-200.000	-0.067	-0.326
-692.412	358.436	0.145	0.298
-691.397	128.844	0.071	0.093
-690.383	-200.000	0.002	-0.198
-689.368	-200.000	0.006	0.257
-688.354	2.769	-0.143	-0.107
-687.339	169.535	0.175	-0.257
-686.324	-132.919	-0.498	-0.065
-685.310	37.809	-0.122	0.112
-684.295	800.000	-0.023	-0.070
-683.281	-15.471	-0.137	0.090
-682.266	591.933	-0.113	0.287
-681.251	-151.831	-0.224	-0.017
-680.237	-108.426	-0.120	0.026
-679.222	-134.530	-0.242	-0.030
-678.208	800.000	0.111	0.342
-677.193	-200.000	-0.014	0.329
-676.178	132.101	-0.144	-0.191
-675.164	-14.341	-0.273	0.181
-674.149	-117.631	0.361	0.067
-673.135	-120.158	0.409	-0.072
-672.120	-200.000	-0.004	0.084
-671.105	800.000	0.052	0.196
-670.091	40.820	0.129	0.119
-669.076	-200.000	-0.003	-0.171
-668.062	72.248	0.157	-0.169
-667.047	-52.584	-0.217	-0.103
-666.032	-146.065	-0.205	0.019
-665.018	91.559	-0.195	0.225
-664.003	42.631	-0.130	0.121
-662.989	263.435	-0.043	-0.076
-661.974	-51.142	-0.193	0.093
-660.959	-137.599	-0.455	0.053
-659.945	-66.694	0.335	-0.136
-658.930	-200.000	0.013	-0.070
-657.916	229.004	-0.161	0.269
-656.901	-25.931	0.230	-0.139
-655.886	-30.890	-0.323	0.188
-654.872	134.297	-0.253	-0.337
-653.857	-200.000	-0.399	-0.000
-652.843	-38.706	-0.245	0.133
-651.828	800.000	0.066	-0.194
-650.814	-15.056	0.119	-0.079
-649.799	209.517	-0.061	-0.099
-648.784	-34.899	-0.028	-0.016
-647.770	-200.000	-0.053	-0.252
-646.755	-109.330	-0.305	-0.066
-645.741	-200.000	-0.020	0.136
-644.726	800.000	0.042	-0.133
-643.711	-110.755	0.175	0.037
-642.697	6.736	-0.343	-0.262
-641.682	-200.000	0.015	0.069
-640.668	-122.449	0.195	0.033
-639.653	-57.160	0.034	0.015
-638.638	28.765	-0.088	-0.076
-637.624	-30.745	-0.142	0.082
-636.609	-170.991	0.212	0.007
-635.595	-46.723	0.122	-0.061
-634.580	-200.000	-0.001	0.241
-633.565	-139.825	-0.204	0.022
-632.551	800.000	-0.095	0.320
-631.536	-30.114	-0.495	0.289
-630.522	247.336	0.115	0.199
-629.507	-130.663	0.142	-0.020
-628.492	800.000	-0.076	0.220
-627.478	-63.700	-0.245	0.103
-626.463	-165.303	0.329	0.015
-625.449	282.370	0.065	0.119
-624.434	-41.973	-0.312	0.164
-623.419	-135.663	-0.277	0.034
-622.405	-116.692	-0.240	-0.045
-621.390	-200.000	-0.021	-0.160
-620.376	800.000	0.075	-0.216
-619.361	744.097	-0.044	0.122
-618.346	-200.000	-0.025	-0.164
-617.332	-174.934	-0.240	0.007
-616.317	162.158	-0.193	0.278
-615.303	312.129	-0.125	-0.241
-614.288	130.660	0.052	0.068
-613.273	108.690	-0.034	-0.041
-612.259	-200.000	-0.022	0.114
-611.244	125.277	0.122	-0.158
-610.230	266.925	-0.097	0.174
-609.215	-63.230	-0.176	0.074
-608.201	234.520	0.128	0.217
-607.186	43.370	0.087	0.082
-606.171	800.000	0.036	0.113
-605.157	562.388	-0.058	-0.144
-604.142	297.816	0.291	-0.548
-603.128	-200.000	0.018	0.101
-602.113	-102.766	-0.445	0.109
-601.098	271.207	0.119	-0.214
-600.084	-200.000	-0.014	-0.151
-599.069	-33.435	0.133	0.075
-598.055	208.358	0.100	0.161
-597.040	71.006	0.167	-0.177
-596.025	-43.607	-0.038	-0.020
-595.011	800.000	-0.036	-0.113
-593.996	-200.000	-0.001	0.102
-592.982	18.609	-0.206	-0.169
-591.967	-180.900	0.408	-0.008
-590.952	-2.114	0.060	0.043
-589.938	-29.458	-0.132	0.077
-588.923	-96.525	0.226	-0.061
-587.909	-137.269	0.094	-0.011
-586.894	-200.000	0.046	-0.302
-585.879	-56.789	-0.136	0.062
-584.865	-138.395	-0.282	-0.032
-583.850	134.521	-0.127	0.169
-582.836	800.000	0.170	-0.523
-581.821	-5.343	-0.203	-0.143
-580.806	-76.931	0.336	-0.120
-579.792	800.000	-0.056	-0.240
-578.777	800.000	-0.072	-0.298
-577.763	-135.111	-0.274	-0.034
-576.748	-140.224	-0.256	0.028
-575.733	-200.000	-0.006	-0.414
-574.719	208.595	0.238	0.381
-573.704	-60.089	-0.135	-0.059
-572.690	162.288	-0.223	-0.321
-571.675	332.360	-0.036	-0.071
-570.661	-200.000	0.052	-0.288
-569.646	-128.228	-0.271	-0.040
-568.631	83.110	-0.003	0.003
-567.617	800.000	-0.059	-0.232
-566.602	19.201	-0.117	0.096
-565.588	187.609	-0.146	0.223
-564.573	-49.527	-0.161	-0.079
-563.558	-200.000	-0.033	-0.225
-562.544	-200.000	-0.049	0.326
-561.529	-200.000	-0.001	-0.028
-560.515	-200.000	-0.071	-0.365
-559.500	-22.786	0.223	-0.137
-558.485	271.608	-0.183	0.329
-557.471	283.969	-0.112	-0.205
-556.456	-200.000	-0.049	0.342
-555.442	-95.326	0.332	-0.091
-554.427	28.194	0.254	-0.219
-553.412	-96.947	-0.160	0.043
-552.398	-81.858	-0.136	-0.045
-551.383	-54.750	-0.419	0.194
-550.369	-200.000	-0.034	0.169
-549.354	160.344	-0.177	-0.252
-548.339	-172.744	-0.345	-0.011
-547.325	-200.000	-0.044	0.260
-546.310	-200.000	0.031	0.292
-545.296	-200.000	-0.026	-0.261
-544.281	100.801	0.026	-0.030
-543.266	585.747	0.030	0.076
-542.252	-165.306	-0.338	0.015
-541.237	-10.388	-0.157	-0.106
-540.223	13.847	0.125	-0.099
-539.208	253.530	-0.098	0.171
-538.193	429.552	-0.074	-0.164
-537.179	-170.896	-0.110	0.004
-536.164	25.072	-0.175	0.148
-535.150	505.344	0.034	-0.080
-534.135	800.000	-0.038	-0.158
-533.121	710.335	-0.118	-0.320
-532.106	-33.697	0.162	-0.091
-531.091	143.290	0.076	-0.104
-530.077	20.990	0.303	-0.251
-529.062	-118.064	-0.094	-0.017
-528.048	356.967	0.119	-0.242
-527.033	308.945	-0.135	-0.257
-526.018	800.000	-0.046	-0.132
-525.004	18.311	-0.262	-0.214
-523.989	-173.159	0.192	-0.006
-522.975	543.903	0.105	0.255
-521.960	350.466	-0.157	0.318
-520.945	800.000	-0.062	-0.199
-519.931	59.342	-0.218	-0.219
-518.916	-153.613	0.351	-0.025
-517.902	-140.085	0.281	0.030
-516.887	434.413	0.082	0.181
-515.872	800.000	0.042	0.163
-514.858	800.000	-0.103	-0.330
-513.843	-200.000	0.006	-0.065
-512.829	238.061	-0.037	-0.062
-511.814	-63.386	0.097	0.041
-510.799	-117.230	-0.176	-0.033
-509.785	640.799	-0.069	-0.180
-508.770	-45.657	0.121	-0.061
-507.756	-33.092	-0.233	-0.132
-506.741	800.000	0.054	0.172
-505.726	354.795	0.024	0.049
-504.712	17.794	-0.106	0.086
-503.697	210.252	-0.187	-0.300
-502.683	700.047	-0.036	0.095
-501.668	-119.505	-0.300	-0.053
-500.653	512.257	-0.113	-0.268
-499.639	-108.458	0.290	-0.064
-498.624	-152.704	0.380	0.028
-497.610	-99.721	-0.326	0.083
-496.595	28.431	-0.078	-0.067
-495.581	-74.400	0.359	-0.132
-494.566	84.964	0.104	-0.117
-493.551	-33.983	-0.350	-0.197
-492.537	-27.627	-0.123	0.073
-491.522	239.572	0.208	0.353
-490.508	-200.000	-0.022	0.110
-489.493	3.325	-0.086	-0.064
-488.478	-93.274	-0.210	-0.059
-487.464	800.000	-0.028	-0.091
-486.449	-112.078	-0.177	0.036
-485.435	800.000	-0.037	-0.137
-484.420	-61.890	-0.072	0.031
-483.405	367.032	-0.089	0.183
-482.391	692.448	0.173	0.461
-481.376	-200.000	0.018	-0.385
-480.362	-32.899	-0.140	-0.079
-479.347	800.000	-0.043	-0.129
-478.332	-139.955	-0.238	-0.026
-477.318	202.488	0.234	-0.368
-476.303	539.739	-0.038	0.093
-475.289	-149.727	0.229	0.018
-474.274	-115.433	0.344	0.066
-473.259	-149.872	-0.146	-0.012
-472.245	5.233	-0.022	0.016
-471.230	-78.333	0.142	-0.050
-470.216	334.419	0.105	0.206
-469.201	339.168	0.102	-0.202
-468.186	-141.164	-0.428	-0.044
-467.172	-200.000	0.042	0.270
-466.157	-71.369	0.453	-0.173
-465.143	-200.000	-0.029	0.146
-464.128	800.000	0.009	-0.031
-463.113	374.005	0.063	0.131
-462.099	13.063	-0.242	-0.191
-461.084	-8.677	0.164	-0.112
-460.070	-118.322	-0.148	-0.027
-459.055	-153.738	0.444	-0.031
-458.040	-12.832	-0.248	0.165
-457.026	260.497	-0.174	0.307
-456.011	32.964	0.107	0.094
-454.997	-200.000	0.002	-0.195
-453.982	599.531	0.141	-0.356
-452.968	62.848	0.196	0.200
-451.953	14.384	0.015	0.012
-450.938	-135.374	-0.250	-0.030
-449.924	-200.000	0.033	-0.209
-448.909	-200.000	-0.017	0.165
-447.895	738.788	-0.051	-0.140
-446.880	-34.032	-0.391	0.219
-445.865	-9.711	0.061	-0.042
-444.851	-200.000	0.015	0.185
-443.836	76.248	0.095	-0.103
-442.822	-200.000	0.064	-0.375
-441.807	-143.177	0.172	-0.017
-440.792	167.767	-0.073	0.106
-439.778	-200.000	-0.056	-0.313
-438.763	-129.580	0.354	0.050
-437.749	103.224	-0.191	0.228
-436.734	-200.000	0.011	0.268
-435.719	-11.435	0.102	-0.068
-434.705	-163.147	0.256	-0.013
-433.690	-20.158	0.147	0.092
-432.676	631.506	0.072	-0.187
-431.661	243.984	0.136	0.233
-430.646	221.596	0.099	0.163
-429.632	323.333	-0.062	0.121
-428.617	75.796	-0.141	-0.152
-427.603	-159.583	-0.105	0.006
-426.588	328.930	-0.131	0.256
-425.573	-200.000	0.016	0.245
-424.559	800.000	0.041	-0.168
-423.544	279.250	-0.084	0.153
-422.530	111.610	-0.074	0.091
-421.515	-200.000	-0.046	0.248
-420.500	193.701	-0.097	0.149
-419.486	-74.472	-0.166	-0.061
-418.471	-200.000	-0.034	0.285
-417.457	46.943	0.037	-0.035
-416.442	-200.000	0.019	0.150
-415.428	-2.552	-0.032	0.023
-414.413	-97.443	0.195	-0.052
-413.398	93.989	-0.301	-0.347
-412.384	-98.982	0.328	0.085
-411.369	-119.244	0.269	0.048
-410.355	721.849	0.113	-0.305
-409.340	-43.051	0.185	0.096
-408.325	467.129	-0.093	-0.212
-407.311	-200.000	-0.021	0.148
-406.296	-16.731	-0.180	0.116
-405.282	26.478	-0.194	0.165
-404.267	693.133	-0.104	-0.277
-403.252	-200.000	-0.045	-0.210
-402.238	-62.919	0.068	0.029
-401.223	-200.000	-0.065	-0.442
-400.209	-136.188	0.210	0.025
-399.194	-152.140	0.105	0.008
-398.179	-200.000	0.053	0.329
-397.165	-200.000	0.014	0.174
-396.150	372.099	-0.194	0.400
-395.136	-128.376	0.172	0.025
-394.121	495.019	-0.090	-0.211
-393.106	-19.361	-0.125	0.079
-392.092	800.000	0.070	0.277
-391.077	651.409	-0.019	-0.049
-390.063	191.963	-0.251	-0.385
-389.048	264.815	0.199	0.352
-388.033	-200.000	0.021	-0.335
-387.019	579.290	-0.151	-0.377
-386.004	-32.982	0.141	-0.080
-384.990	-40.025	-0.200	-0.106
-383.975	244.194	-0.072	-0.123
-382.960	-90.813	0.133	-0.039
-381.946	235.946	-0.053	0.088
-380.931	-200.000	0.010	-0.456
-379.917	265.700	0.124	0.220
-378.902	158.501	-0.152	-0.214
-377.888	88.131	0.249	-0.281
-376.873	-200.000	0.003	0.035
-375.858	-200.000	-0.013	0.092
-374.844	179.424	-0.085	-0.126
-373.829	4.967	0.147	0.110
-372.815	290.065	0.046	0.085
-371.800	-23.244	0.231	-0.141
-370.785	-200.000	0.003	-0.169
-369.771	800.000	0.002	-0.008
-368.756	69.063	0.059	0.061
-367.742	-162.997	-0.019	-0.001
-366.727	36.467	-0.210	-0.188
-365.712	800.000	-0.083	0.273
-364.698	-102.736	-0.084	-0.020
-363.683	-35.694	0.155	0.085
-362.669	-17.843	-0.079	-0.051
-361.654	-45.200	-0.133	0.067
-360.639	13.325	-0.132	0.104
-359.625	6.966	0.106	0.080
-358.610	362.950	-0.020	0.041
-357.596	-85.433	-0.129	0.041
-356.581	148.081	-0.098	0.135
-355.566	-118.793	-0.082	-0.015
-354.552	-80.778	0.121	0.041
-353.537	163.343	0.336	0.479
-352.523	-79.631	0.244	-0.084
-351.508	78.286	-0.306	0.332
-350.493	-140.226	0.377	0.040
-349.479	185.511	-0.216	0.325
-348.464	259.328	-0.146	-0.255
-347.450	-134.493	0.087	-0.011
-346.435	-200.000	0.006	0.155
-345.420	76.090	0.066	0.071
-344.406	33.033	0.287	0.252
-343.391	-133.134	0.203	-0.026
-342.377	669.275	-0.057	0.151
-341.362	-18.872	-0.138	-0.087
-340.348	201.822	0.076	-0.119
-339.333	-200.000	-0.029	0.195
-338.318	-154.502	-0.385	0.026
-337.304	-57.365	0.322	0.144
-336.289	800.000	0.155	0.440
-335.275	-200.000	-0.003	0.409
-334.260	162.802	0.166	-0.236
-333.245	-4.102	-0.025	0.018
-332.231	-134.776	0.290	-0.036
-331.216	31.867	0.188	-0.164
-330.202	-142.509	0.225	0.022
-329.187	174.521	0.092	-0.135
-328.172	56.655	0.086	0.085
-327.158	492.041	-0.161	-0.373
-326.143	800.000	-0.049	-0.163
-325.129	444.507	-0.058	-0.129
-324.114	62.347	0.078	-0.079
-323.099	800.000	0.004	0.015
-322.085	32.324	0.077	0.067
-321.070	-200.000	0.024	0.404
-320.056	106.808	0.181	-0.217
-319.041	-70.364	0.104	0.040
-318.026	-48.803	0.192	-0.094
-317.012	247.507	-0.203	-0.347
-315.997	-200.000	0.025	0.363
-314.983	-200.000	0.004	0.199
-313.968	169.472	-0.204	-0.295
-312.953	231.546	-0.045	0.074
-311.939	-144.532	0.174	0.016
-310.924	39.210	-0.018	0.017
-309.910	800.000	0.031	0.132
-308.895	-48.697	-0.094	0.046
-307.880	232.243	-0.090	-0.150
-306.866	-200.000	-0.017	0.294
-305.851	93.603	-0.324	0.372
-304.837	-200.000	0.048	-0.226
-303.822	6.117	0.312	0.234
-302.807	800.000	0.058	0.227
-301.793	-181.930	0.085	0.002
-300.778	-43.180	0.132	-0.068
-299.764	-182.198	-0.196	-0.004
-298.749	-149.689	0.358	-0.029
-297.735	171.354	-0.081	-0.117
-296.720	-35.944	-0.094	-0.052
-295.705	57.749	0.211	0.209
-294.691	58.313	-0.056	-0.056
-293.676	139.073	-0.082	0.109
-292.662	-200.000	-0.039	0.266
-291.647	-184.920	0.148	0.002
-290.632	321.334	-0.081	0.156
-289.618	54.191	0.096	0.093
-288.603	94.833	-0.079	0.091
-287.589	286.963	0.040	0.073
-286.574	32.622	0.233	0.204
-285.559	123.276	0.266	0.337
-284.545	473.663	0.032	-0.074
-283.530	321.507	-0.150	0.289
-282.516	670.642	-0.073	-0.191
-281.501	800.000	-0.081	-0.350
-280.486	-36.788	-0.018	-0.010
-279.472	800.000	-0.114	0.369
-278.457	-123.499	0.257	-0.041
-277.443	36.550	0.247	0.220
-276.428	-87.860	-0.127	-0.039
-275.413	800.000	-0.056	-0.246
-274.399	69.800	-0.242	-0.252
-273.384	168.489	-0.189	0.273
-272.370	-41.288	-0.100	0.052
-271.355	-99.135	0.119	0.031
-270.340	121.620	0.150	0.189
-269.326	194.440	-0.042	0.064
-268.311	337.965	-0.128	-0.252
-267.297	-200.000	0.071	-0.496
-266.282	285.342	0.077	0.141
-265.267	711.799	0.044	0.117
-264.253	800.000	0.053	0.155
-263.238	800.000	0.049	-0.207
-262.224	125.249	-0.091	-0.116
-261.209	-200.000	-0.030	0.468
-260.195	84.656	0.027	0.030
-259.180	-66.560	-0.189	-0.076
-258.165	-29.027	0.068	0.039
-257.151	-25.006	0.218	-0.131
-256.136	665.984	-0.073	0.189
-255.122	-103.416	0.267	0.063
-254.107	-195.565	-0.473	0.003
-253.092	800.000	-0.016	0.066
-252.078	328.846	0.161	-0.312
-251.063	-200.000	0.006	-0.202
-250.049	-143.905	0.301	-0.029
-249.034	-73.223	0.237	0.088
-248.019	78.724	-0.070	0.076
-247.005	800.000	-0.051	0.211
-245.990	29.825	-0.300	0.258
-244.976	800.000	0.132	0.399
-243.961	-200.000	-0.003	0.034
-242.946	800.000	0.022	0.072
-241.932	-200.000	-0.018	0.144
-240.917	-70.686	-0.212	0.081
-239.903	117.998	-0.096	-0.120
-238.888	48.979	-0.166	-0.157
-237.873	-122.102	0.213	-0.035
-236.859	93.576	-0.146	0.167
-235.844	93.098	0.160	-0.183
-234.830	141.194	0.184	-0.245
-233.815	800.000	-0.044	-0.165
-232.800	-23.620	-0.197	-0.120
-231.786	800.000	0.014	-0.061
-230.771	738.219	-0.066	-0.179
-229.757	-200.000	0.046	0.360
-228.742	-86.322	0.087	-0.027
-227.727	-45.900	0.236	-0.117
-226.713	278.259	-0.122	-0.219
-225.698	-45.991	0.101	0.050
-224.684	-200.000	0.003	0.129
-223.669	26.183	0.227	-0.192
-222.655	91.685	0.148	-0.168
-221.640	800.000	0.053	-0.155
-220.625	-153.261	0.122	-0.009
-219.611	-40.051	0.273	-0.144
-218.596	-159.957	0.400	-0.022
-217.582	-200.000	0.007	-0.158
-216.567	642.537	0.105	-0.270
-215.552	800.000	0.023	0.068
-214.538	800.000	-0.047	0.141
-213.523	-200.000	0.024	0.153
-212.509	-75.767	-0.380	0.136
-211.494	495.952	-0.061	-0.141
-210.479	800.000	0.073	-0.210
-209.465	-48.360	-0.130	0.063
-208.450	-83.383	-0.174	0.056
-207.436	209.809	-0.202	0.319
-206.421	-93.054	0.029	-0.008
-205.406	125.044	0.083	-0.106
-204.392	-80.697	-0.081	0.027
-203.377	800.000	-0.123	-0.377
-202.363	36.920	0.093	-0.083
-201.348	320.261	0.076	0.145
-200.333	322.640	0.077	0.147
-199.319	-65.926	0.347	0.140
-198.304	800.000	0.077	0.303
-197.290	548.112	0.141	0.340
-196.275	-120.182	-0.076	0.013
-195.260	135.057	-0.126	-0.165
-194.246	-195.683	-0.285	-0.002
-193.231	800.000	-0.047	-0.162
-192.217	-169.111	-0.162	0.006
-191.202	-18.986	0.271	-0.170
-190.187	-131.143	0.479	0.064
-189.173	166.299	-0.070	-0.100
-188.158	-28.191	0.014	0.008
-187.144	-85.925	0.080	-0.025
-186.129	-23.822	0.243	0.147
-185.114	236.393	-0.121	0.201
-184.100	-15.563	0.101	-0.065
-183.085	40.862	0.130	0.118
-182.071	-7.381	0.281	0.192
-181.056	-200.000	-0.008	0.104
-180.042	-11.658	0.136	-0.090
-179.027	-200.000	0.032	0.217
-178.012	800.000	-0.087	0.242
-176.998	-59.276	-0.301	0.131
-175.983	800.000	0.063	0.220
-174.969	161.520	-0.092	-0.130
-173.954	-54.656	0.088	0.040
-172.939	173.628	0.083	0.121
-171.925	110.407	-0.051	0.062
-170.910	-200.000	0.031	-0.279
-169.896	-152.597	0.247	0.018
-168.881	-136.318	0.264	-0.031
-167.866	26.804	-0.116	-0.098
-166.852	143.038	-0.118	-0.158
-165.837	-116.639	0.153	-0.028
-164.823	-200.000	0.014	0.197
-163.808	-27.646	0.192	0.112
-162.793	-47.831	0.288	0.141
-161.779	-39.407	0.313	0.166
-160.764	-82.412	-0.381	0.125
-159.750	399.599	-0.079	-0.168
-158.735	298.334	-0.095	-0.176
-157.720	-110.265	0.257	0.054
-156.706	5.897	-0.158	0.118
-155.691	120.658	-0.166	-0.208
-154.677	-200.000	0.025	0.149
-153.662	142.760	-0.088	-0.117
-152.647	-10.600	-0.430	-0.286
-151.633	800.000	0.043	-0.156
-150.618	-68.265	0.202	-0.079
-149.604	-132.360	-0.091	0.012
-148.589	800.000	-0.042	-0.129
-147.574	-110.170	-0.262	0.055
-146.560	-200.000	-0.006	0.056
-145.545	189.574	0.158	-0.239
-144.531	-139.025	0.169	-0.018
-143.516	-31.037	0.162	0.092
-142.502	399.225	0.052	-0.109
-141.487	467.353	0.115	-0.259
-140.472	-162.722	0.212	-0.010
-139.458	-40.987	-0.325	-0.169
-138.443	-76.116	-0.226	0.080
-137.429	14.270	0.106	-0.084
-136.414	800.000	0.059	-0.256
-135.399	-14.499	0.070	0.045
-134.385	-22.356	0.075	0.045
-133.370	-92.040	-0.056	-0.016
-132.356	179.633	0.116	0.171
-131.341	81.918	0.281	0.307
-130.326	-68.623	0.132	-0.052
-129.312	-153.362	0.297	-0.021
-128.297	-32.987	-0.489	0.273
-127.283	800.000	-0.031	0.128
-126.268	-76.368	0.262	0.093
-125.253	346.216	-0.228	0.451
-124.239	185.683	-0.031	0.047
-123.224	-65.390	-0.075	0.030
-122.210	-72.006	0.232	-0.087
