DTS Sentinel unit serial number:	SN413079Multiplexer serial number:	ORYXHardware model number:	OX4-SRSoftware version number:	ORYX F/W v4.00 Oryx Data Collector v3.7.2.0data status	okinstallation	princeton_trtdifferential loss correction	single-endedforward channel	channel 4reverse channel	N/Adate	2019/09/17time	21:53:35forward acquisition time	60.00reverse acquisition time	0.00gamma	496.2192k internal	0.2329k external	0.2329temperature offset calibration	0.9995default loss term (dB/km)	0.3790temperature slope calibration	1.0000multiplexer offset coefficient	1.0000multiplexer slope coefficient	1.0000fibre end	0.00T internal ref (°C)	26.30T ext. ref 1 (°C)	0.17T ext. ref 2 (°C)	19.02length (m)	temperature (°C)	Stokes	anti-Stokes-747.200	-125.463	0.235	-0.036
-746.185	-1.145	-0.026	0.018
-745.171	77.363	-0.265	0.284
-744.156	177.208	0.116	0.170
-743.142	60.319	-0.121	-0.121
-742.127	147.072	-0.211	0.286
-741.112	-200.000	0.019	0.327
-740.098	-11.834	-0.079	0.052
-739.083	-24.351	-0.395	-0.237
-738.069	130.221	-0.167	0.216
-737.054	264.332	-0.054	0.094
-736.039	800.000	0.030	-0.125
-735.025	-200.000	0.015	0.141
-734.010	-72.483	-0.414	0.154
-732.996	-125.247	-0.247	-0.038
-731.981	800.000	-0.058	-0.219
-730.966	685.674	-0.060	0.158
-729.952	-118.290	-0.104	0.019
-728.937	800.000	-0.103	-0.300
-727.923	800.000	0.040	-0.117
-726.908	-200.000	-0.001	0.159
-725.894	-31.717	-0.275	0.155
-724.879	-32.542	-0.045	-0.025
-723.864	-61.145	0.301	-0.128
-722.850	-79.428	-0.123	0.042
-721.835	800.000	-0.022	-0.073
-720.821	-63.628	-0.232	-0.096
-719.806	800.000	-0.059	-0.215
-718.791	284.013	-0.070	0.126
-717.777	-161.861	-0.121	0.006
-716.762	-127.374	-0.182	0.027
-715.748	-38.401	-0.119	-0.063
-714.733	-18.372	0.179	0.113
-713.718	-200.000	0.002	0.459
-712.704	-2.426	-0.244	-0.172
-711.689	-200.000	0.033	0.218
-710.675	-104.844	0.282	0.065
-709.660	153.962	-0.382	0.527
-708.645	-41.117	-0.150	0.078
-707.631	352.213	0.052	0.103
-706.616	15.432	-0.308	-0.243
-705.602	-57.278	0.199	-0.088
-704.587	800.000	0.092	-0.333
-703.572	208.818	-0.101	-0.159
-702.558	-51.624	-0.106	-0.050
-701.543	-47.314	0.220	-0.108
-700.529	-34.047	0.244	-0.135
-699.514	-31.852	-0.103	0.058
-698.499	800.000	0.007	-0.025
-697.485	-135.812	-0.074	-0.009
-696.470	-103.458	-0.376	-0.089
-695.456	800.000	-0.031	0.112
-694.441	34.760	-0.150	0.132
-693.426	43.694	-0.135	0.125
-692.412	-55.992	0.118	-0.053
-691.397	800.000	0.056	-0.241
-690.383	-56.564	0.099	-0.044
-689.368	-114.470	-0.206	-0.040
-688.354	223.230	0.087	0.141
-687.339	-182.790	-0.160	0.003
-686.324	792.078	-0.028	-0.077
-685.310	-58.726	0.185	0.080
-684.295	-142.198	0.368	0.037
-683.281	-45.376	0.110	0.055
-682.266	-82.216	-0.195	0.064
-681.251	-200.000	0.036	0.438
-680.237	-176.623	-0.479	0.012
-679.222	119.800	-0.144	0.179
-678.208	43.802	0.093	0.086
-677.193	184.237	0.046	-0.069
-676.178	385.742	-0.121	0.251
-675.164	394.710	-0.284	0.594
-674.149	-66.508	0.251	0.100
-673.135	-176.242	0.246	0.006
-672.120	-1.272	0.135	-0.096
-671.105	16.581	0.039	-0.031
-670.091	-22.820	0.035	0.021
-669.076	-200.000	0.051	0.256
-668.062	-9.850	0.095	0.063
-667.047	579.016	-0.024	0.060
-666.032	-15.986	0.404	-0.258
-665.018	-77.144	0.200	0.070
-664.003	-29.029	0.100	-0.058
-662.989	-106.869	-0.100	-0.022
-661.974	46.250	0.073	0.068
-660.959	352.065	-0.151	0.300
-659.945	360.082	0.049	-0.098
-658.930	389.545	0.099	0.205
-657.916	178.492	0.125	0.183
-656.901	142.168	0.283	-0.378
-655.886	800.000	0.024	-0.081
-654.872	-102.312	0.352	-0.085
-653.857	-51.980	-0.182	-0.085
-652.843	74.644	-0.150	-0.159
-651.828	-53.992	-0.224	-0.103
-650.814	-35.919	-0.020	0.011
-649.799	-200.000	0.028	-0.274
-648.784	800.000	0.061	0.258
-647.770	17.754	-0.058	0.046
-646.755	-25.686	-0.131	-0.077
-645.741	-116.191	0.091	0.017
-644.726	244.105	-0.152	0.256
-643.711	-189.764	0.199	0.002
-642.697	-98.428	-0.167	0.043
-641.682	166.861	0.130	0.186
-640.668	225.035	0.152	-0.247
-639.653	800.000	0.021	-0.088
-638.638	800.000	-0.076	0.236
-637.624	191.554	0.135	0.204
-636.609	-17.317	0.287	-0.181
-635.595	59.946	-0.174	-0.172
-634.580	361.241	0.035	-0.071
-633.565	-97.128	0.103	-0.027
-632.551	4.612	0.035	-0.026
-631.536	-142.323	0.107	-0.011
-630.522	-53.051	-0.579	-0.267
-629.507	-200.000	0.024	0.261
-628.492	164.749	-0.106	-0.149
-627.478	15.820	0.158	0.125
-626.463	81.272	-0.071	0.077
-625.449	410.219	0.055	0.117
-624.434	-131.201	-0.190	0.025
-623.419	241.481	-0.125	-0.209
-622.405	427.979	-0.091	-0.197
-621.390	29.733	-0.249	-0.212
-620.376	-118.905	0.357	0.063
-619.361	529.433	-0.085	0.200
-618.346	800.000	-0.079	0.278
-617.332	-27.103	-0.128	-0.075
-616.317	157.904	0.058	-0.080
-615.303	-200.000	-0.006	0.227
-614.288	-200.000	0.007	0.124
-613.273	-115.353	-0.124	-0.023
-612.259	-55.858	0.095	0.042
-611.244	-41.743	-0.207	0.107
-610.230	256.208	-0.153	-0.264
-609.215	-200.000	0.025	-0.249
-608.201	-200.000	-0.012	-0.056
-607.186	-103.992	0.187	0.044
-606.171	92.393	-0.123	-0.139
-605.157	-151.650	-0.281	0.021
-604.142	-93.793	-0.172	0.048
-603.128	127.988	-0.098	0.125
-602.113	-164.101	0.100	-0.005
-601.098	501.442	-0.158	-0.365
-600.084	36.726	-0.114	-0.101
-599.069	-159.258	0.363	-0.020
-598.055	94.978	-0.170	-0.194
-597.040	473.960	0.023	0.053
-596.025	-91.220	-0.126	-0.036
-595.011	-137.220	-0.271	-0.031
-593.996	-36.473	0.172	-0.093
-592.982	-79.114	-0.324	0.110
-591.967	-70.092	0.189	0.072
-590.952	0.443	-0.256	-0.183
-589.938	-175.156	0.169	0.005
-588.923	-200.000	-0.047	-0.218
-587.909	800.000	-0.052	-0.192
-586.894	-125.183	-0.242	-0.037
-585.879	44.242	-0.166	0.152
-584.865	109.980	0.069	0.083
-583.850	-200.000	0.037	-0.292
-582.836	-200.000	-0.031	-0.278
-581.821	-200.000	0.018	-0.326
-580.806	-58.593	-0.180	-0.078
-579.792	117.843	0.185	-0.228
-578.777	-25.346	-0.166	0.098
-577.763	-102.798	-0.249	-0.059
-576.748	800.000	-0.068	0.239
-575.733	-108.142	0.088	0.019
-574.719	-136.134	0.140	-0.016
-573.704	-86.788	-0.145	-0.044
-572.690	800.000	0.080	0.313
-571.675	-200.000	-0.036	0.228
-570.661	800.000	0.099	0.333
-569.646	-93.944	0.139	0.038
-568.631	-113.369	-0.296	-0.058
-567.617	-52.282	-0.158	0.073
-566.602	-200.000	-0.049	0.283
-565.588	-120.127	-0.083	0.014
-564.573	426.051	0.022	0.047
-563.558	-46.275	-0.160	0.079
-562.544	-173.776	0.163	-0.005
-561.529	107.951	0.174	-0.208
-560.515	22.294	0.110	0.090
-559.500	-43.408	0.187	0.095
-558.485	236.200	0.135	0.224
-557.471	-10.102	-0.112	-0.074
-556.456	321.663	0.218	-0.414
-555.442	-29.861	-0.176	0.101
-554.427	-3.099	-0.073	0.051
-553.412	11.322	-0.087	0.066
-552.398	800.000	0.089	0.267
-551.383	505.323	-0.121	-0.280
-550.369	-200.000	-0.017	-0.149
-549.354	99.486	0.271	-0.314
-548.339	-135.296	-0.221	0.026
-547.325	-88.615	-0.261	0.078
-546.310	768.863	-0.017	0.047
-545.296	-56.569	0.143	0.064
-544.281	-170.278	0.107	0.004
-543.266	-72.630	-0.278	-0.103
-542.252	-33.964	0.284	0.156
-541.237	-190.850	0.614	0.006
-540.223	-99.990	0.023	0.006
-539.208	575.358	0.121	0.296
-538.193	-200.000	-0.009	-0.081
-537.179	-112.031	-0.337	0.068
-536.164	226.455	-0.128	-0.208
-535.150	124.198	-0.203	0.255
-534.135	67.096	0.206	0.210
-533.121	-26.203	-0.232	-0.136
-532.106	-47.707	-0.181	0.088
-531.091	-12.536	-0.089	-0.058
-530.077	-137.617	0.085	-0.010
-529.062	84.313	-0.057	-0.063
-528.048	-200.000	0.007	0.309
-527.033	168.014	-0.165	-0.234
-526.018	208.719	-0.076	0.119
-525.004	-69.504	0.183	0.070
-523.989	-134.562	-0.409	0.050
-522.975	-106.938	-0.195	0.043
-521.960	800.000	0.061	0.177
-520.945	239.798	0.148	0.245
-519.931	-18.204	-0.245	-0.153
-518.916	118.533	-0.217	-0.268
-517.902	-140.990	0.513	-0.053
-516.887	-37.961	-0.159	0.085
-515.872	124.816	0.070	-0.088
-514.858	-16.141	0.097	-0.061
-513.843	-200.000	0.015	-0.137
-512.829	246.567	-0.069	0.116
-511.814	304.410	-0.038	0.071
-510.799	-63.398	0.223	0.092
-509.785	800.000	0.074	0.242
-508.770	83.910	-0.034	-0.037
-507.756	486.506	-0.117	-0.267
-506.741	-0.237	0.370	0.263
-505.726	-200.000	-0.006	0.036
-504.712	-30.454	-0.117	0.067
-503.697	-105.411	-0.271	0.061
-502.683	656.318	0.049	0.125
-501.668	-41.010	-0.153	0.079
-500.653	-8.449	0.216	0.145
-499.639	-200.000	-0.018	-0.303
-498.624	-117.729	0.193	0.035
-497.610	326.235	0.008	-0.015
-496.595	-175.471	0.123	0.003
-495.581	-142.159	0.230	-0.023
-494.566	-200.000	-0.042	0.243
-493.551	800.000	0.069	-0.209
-492.537	-48.133	0.158	-0.076
-491.522	20.827	0.248	0.201
-490.508	614.326	-0.077	-0.192
-489.493	-57.790	-0.354	-0.155
-488.478	-36.533	-0.223	0.120
-487.464	21.582	0.060	-0.049
-486.449	408.944	0.130	0.275
-485.435	726.055	-0.028	0.076
-484.420	800.000	-0.077	0.219
-483.405	-200.000	0.018	-0.408
-482.391	119.704	-0.078	0.096
-481.376	-16.461	-0.153	0.097
-480.362	800.000	0.064	0.180
-479.347	-148.043	0.273	0.023
-478.332	5.747	0.180	0.133
-477.318	-140.168	-0.118	0.012
-476.303	-179.620	0.037	-0.001
-475.289	-200.000	-0.054	0.287
-474.274	248.348	0.002	0.003
-473.259	-200.000	-0.009	0.063
-472.245	156.518	0.211	-0.291
-471.230	372.485	0.023	0.046
-470.216	-15.462	-0.164	0.104
-469.201	-27.593	-0.164	-0.095
-468.186	-18.233	0.048	0.030
-467.172	-200.000	-0.033	0.232
-466.157	-200.000	-0.002	-0.381
-465.143	610.500	-0.100	-0.249
-464.128	-200.000	0.009	-0.088
-463.113	110.721	0.160	-0.192
-462.099	800.000	0.051	0.213
-461.084	-93.837	-0.499	-0.137
-460.070	280.544	-0.148	0.263
-459.055	800.000	-0.009	0.027
-458.040	-118.744	-0.246	0.043
-457.026	292.055	0.047	-0.085
-456.011	-16.606	-0.158	0.100
-454.997	44.020	0.172	-0.157
-453.982	52.857	-0.170	-0.161
-452.968	800.000	0.071	-0.278
-451.953	26.583	-0.274	-0.229
-450.938	177.161	0.062	-0.090
-449.924	-200.000	0.002	-0.143
-448.909	-88.386	-0.072	-0.021
-447.895	74.616	-0.155	-0.163
-446.880	-181.213	-0.125	-0.002
-445.865	147.046	0.122	0.163
-444.851	-200.000	-0.015	-0.208
-443.836	550.535	-0.125	-0.299
-442.822	269.815	-0.229	0.400
-441.807	-20.389	0.125	0.077
-440.792	-105.027	-0.307	-0.070
-439.778	-24.316	0.127	-0.075
-438.763	-75.752	0.075	-0.027
-437.749	-97.328	-0.193	0.050
-436.734	800.000	0.007	0.024
-435.719	-200.000	0.051	-0.249
-434.705	-133.820	-0.138	0.017
-433.690	-149.368	-0.175	0.014
-432.676	-41.868	0.091	-0.046
-431.661	8.711	0.242	-0.181
-430.646	459.081	-0.024	-0.052
-429.632	-146.165	0.322	-0.028
-428.617	-3.443	-0.039	0.027
-427.603	-92.355	-0.250	0.070
-426.588	149.861	0.138	-0.187
-425.573	-23.273	0.332	-0.199
-424.559	16.337	0.182	-0.143
-423.544	12.632	0.225	0.173
-422.530	-129.933	-0.149	-0.020
-421.515	-2.605	-0.190	-0.132
-420.500	85.193	-0.230	0.251
-419.486	324.775	-0.095	0.180
-418.471	-73.958	0.353	0.127
-417.457	163.598	0.084	-0.118
-416.442	2.248	0.097	-0.069
-415.428	-108.148	-0.396	0.085
-414.413	800.000	-0.067	0.274
-413.398	11.738	-0.246	-0.188
-412.384	800.000	-0.066	-0.226
-411.369	800.000	0.091	-0.319
-410.355	-88.695	0.445	-0.132
-409.340	-14.306	-0.141	0.090
-408.325	158.961	-0.144	0.199
-407.311	131.411	-0.045	-0.057
-406.296	450.265	-0.107	-0.235
-405.282	-37.597	-0.318	0.169
-404.267	-200.000	-0.044	0.274
-403.252	-10.680	-0.222	0.146
-402.238	68.062	0.144	-0.147
-401.223	-51.717	0.068	-0.031
-400.209	-200.000	0.039	0.201
-399.194	67.980	0.315	-0.321
-398.179	-187.486	0.275	-0.004
-397.165	-172.979	-0.379	0.012
-396.150	800.000	0.082	0.281
-395.136	-200.000	-0.007	0.184
-394.121	70.862	-0.229	0.236
-393.106	-125.761	-0.379	0.057
-392.092	570.915	0.077	-0.186
-391.077	-200.000	0.058	-0.380
-390.063	30.878	-0.271	-0.230
-389.048	-42.132	0.339	-0.172
-388.033	-33.120	0.179	0.099
-387.019	800.000	0.115	-0.366
-386.004	-200.000	0.036	-0.222
-384.990	-200.000	-0.045	-0.244
-383.975	-200.000	0.013	-0.130
-382.960	1.931	-0.138	0.099
-381.946	165.685	-0.072	0.101
-380.931	82.678	-0.050	-0.054
-379.917	-171.456	0.075	-0.002
-378.902	193.389	-0.097	-0.146
-377.888	98.548	0.114	0.130
-376.873	-149.501	0.288	0.023
-375.858	-200.000	-0.054	-0.338
-374.844	-200.000	0.003	0.033
-373.829	-125.902	-0.195	-0.029
-372.815	800.000	-0.044	-0.170
-371.800	385.813	0.013	-0.026
-370.785	-124.711	-0.308	-0.047
-369.771	-97.532	0.325	-0.084
-368.756	718.077	-0.029	0.078
-367.742	-61.305	-0.079	0.033
-366.727	327.821	0.128	0.244
-365.712	-200.000	-0.010	-0.071
-364.698	22.456	0.066	-0.054
-363.683	800.000	-0.024	-0.075
-362.669	-200.000	-0.056	0.342
-361.654	67.256	-0.331	-0.335
-360.639	738.031	0.069	-0.184
-359.625	137.641	-0.290	0.376
-358.610	-102.989	0.272	0.064
-357.596	-200.000	0.001	-0.200
-356.581	368.484	-0.074	-0.148
-355.566	-129.414	0.132	-0.018
-354.552	-69.501	0.155	0.059
-353.537	-74.442	0.230	-0.082
-352.523	800.000	-0.040	-0.119
-351.508	-147.073	0.223	-0.019
-350.493	-33.756	0.337	0.184
-349.479	-58.416	0.043	0.019
-348.464	281.054	-0.158	0.281
-347.450	800.000	-0.069	0.293
-346.435	43.532	0.131	-0.119
-345.420	-69.531	-0.198	0.075
-344.406	-133.470	0.173	-0.022
-343.391	-157.644	0.082	-0.005
-342.377	-200.000	0.018	-0.212
-341.362	-45.699	-0.391	0.192
-340.348	-200.000	-0.003	0.360
-339.333	687.815	0.064	0.166
-338.318	160.372	-0.121	0.168
-337.304	80.948	-0.192	-0.205
-336.289	-90.087	0.132	-0.038
-335.275	-200.000	-0.007	-0.069
-334.260	-71.929	0.302	0.111
-333.245	800.000	-0.094	0.282
-332.231	-200.000	0.009	-0.038
-331.216	246.269	0.153	0.256
-330.202	759.546	-0.023	0.062
-329.187	95.833	-0.174	-0.197
-328.172	-36.752	0.357	0.190
-327.158	-77.790	-0.225	0.077
-326.143	-56.734	0.139	0.061
-325.129	-128.941	0.374	-0.052
-324.114	-146.019	-0.207	-0.018
-323.099	186.127	0.141	0.208
-322.085	159.859	0.203	0.280
-321.070	17.589	-0.056	-0.044
-320.056	230.406	-0.050	-0.082
-319.041	213.761	0.155	0.244
-318.026	162.498	0.184	-0.256
-317.012	257.526	0.098	0.167
-315.997	-200.000	0.000	0.270
-314.983	169.277	0.091	-0.128
-313.968	-38.958	0.143	0.075
-312.953	-149.188	0.443	-0.035
-311.939	-88.471	-0.216	-0.064
-310.924	-12.237	0.324	0.210
-309.910	800.000	-0.122	0.444
-308.895	800.000	0.065	0.228
-307.880	-74.534	-0.032	0.012
-306.866	-200.000	0.044	-0.215
-305.851	15.435	-0.116	0.090
-304.837	-200.000	0.027	0.393
-303.822	-19.967	0.174	0.106
-302.807	-30.095	-0.121	-0.068
-301.793	-83.579	-0.161	-0.051
-300.778	-84.467	-0.377	0.118
-299.764	401.326	-0.085	-0.177
-298.749	-26.790	0.102	-0.059
-297.735	-200.000	-0.041	-0.435
-296.720	-108.714	-0.455	-0.097
-295.705	22.842	0.082	-0.066
-294.691	-69.345	-0.312	0.118
-293.676	13.643	0.245	0.189
-292.662	-200.000	0.010	-0.161
-291.647	239.217	0.256	0.422
-290.632	-36.330	-0.310	0.165
-289.618	-35.954	-0.129	0.069
-288.603	-200.000	0.005	0.150
-287.589	800.000	0.040	0.124
-286.574	-106.453	0.188	0.042
-285.559	34.513	0.194	-0.168
-284.545	-163.292	0.240	-0.011
-283.530	-82.575	0.314	0.101
-282.516	8.898	0.067	-0.050
-281.501	-72.413	0.452	-0.165
-280.486	-117.100	0.064	-0.012
-279.472	36.245	-0.112	0.098
-278.457	800.000	-0.076	0.289
-277.443	112.485	-0.168	-0.201
-276.428	800.000	-0.030	0.107
-275.413	800.000	0.049	0.159
-274.399	99.263	-0.147	0.168
-273.384	-23.034	0.189	-0.113
-272.370	-200.000	0.005	-0.083
-271.355	667.329	-0.154	-0.393
-270.340	-48.011	-0.278	0.133
-269.326	175.478	0.226	0.324
-268.311	102.575	-0.126	-0.146
-267.297	800.000	0.062	0.172
-266.282	20.682	0.251	0.201
-265.267	-46.783	-0.130	0.063
-264.253	-83.855	-0.248	0.078
-263.238	624.445	0.052	-0.130
-262.224	26.938	0.089	-0.074
-261.209	-200.000	-0.020	-0.348
-260.195	-52.778	-0.320	-0.146
-259.180	-118.044	0.228	-0.040
-258.165	800.000	0.020	0.082
-257.151	160.461	-0.133	0.184
-256.136	-200.000	-0.022	-0.204
-255.122	800.000	-0.012	-0.047
-254.107	50.767	0.056	-0.052
-253.092	24.769	0.231	-0.189
-252.078	-76.698	0.248	0.086
-251.063	113.802	-0.156	0.188
-250.049	-122.181	-0.250	0.041
-249.034	247.085	-0.007	-0.011
-248.019	148.429	0.152	0.203
-247.005	150.338	-0.206	0.277
-245.990	125.898	-0.300	-0.375
-244.976	252.539	-0.126	-0.212
-243.961	-159.421	0.133	0.007
-242.946	433.750	0.161	0.345
-241.932	176.063	0.163	-0.234
-240.917	-151.641	-0.024	0.002
-239.903	-197.927	0.159	0.001
-238.888	-30.153	0.410	0.230
-237.873	800.000	-0.115	0.345
-236.859	-200.000	0.053	0.254
-235.844	-24.175	0.071	0.042
-234.830	-123.634	0.137	0.021
-233.815	-200.000	0.032	-0.276
-232.800	157.367	0.148	-0.202
-231.786	333.838	0.208	-0.398
-230.771	800.000	-0.064	-0.273
-229.757	800.000	-0.080	-0.243
-228.742	-66.372	-0.149	-0.058
-227.727	-200.000	-0.004	-0.381
-226.713	-39.394	0.122	-0.063
-225.698	-69.187	0.278	-0.106
-224.684	140.954	0.131	0.171
-223.669	-28.254	0.182	-0.104
-222.655	-32.424	0.139	0.077
-221.640	-78.651	0.103	-0.035
-220.625	137.197	0.029	0.037
-219.611	-200.000	-0.002	0.330
-218.596	-37.865	-0.256	0.134
-217.582	-200.000	0.005	-0.094
-216.567	102.715	-0.252	-0.291
-215.552	-200.000	0.032	-0.158
-214.538	24.386	0.106	0.087
-213.523	576.386	-0.125	-0.301
-212.509	-161.139	-0.220	-0.011
-211.494	158.615	0.078	0.107
-210.479	-200.000	0.001	0.126
-209.465	178.120	-0.046	0.066
-208.450	-138.678	-0.254	0.027
-207.436	-139.669	0.096	0.010
-206.421	-28.976	-0.279	-0.158
-205.406	-81.046	0.085	-0.028
-204.392	225.430	0.163	0.261
-203.377	-200.000	0.020	-0.179
-202.363	313.051	-0.111	-0.206
-201.348	28.446	0.149	0.125
-200.333	-40.252	0.326	-0.168
-199.319	-200.000	-0.030	0.356
-198.304	-124.714	-0.349	0.053
-197.290	377.427	0.157	-0.317
-196.275	73.893	0.100	-0.103
-195.260	-138.021	-0.390	0.043
-194.246	800.000	-0.083	0.235
-193.231	-29.465	-0.029	-0.016
-192.217	30.892	0.269	0.227
-191.202	800.000	0.027	0.077
-190.187	-200.000	0.021	0.194
-189.173	800.000	0.088	-0.337
-188.158	800.000	-0.049	-0.172
-187.144	289.025	-0.031	0.055
-186.129	96.863	0.095	-0.107
-185.114	-200.000	-0.020	-0.306
-184.100	56.460	-0.089	0.085
-183.085	-39.756	0.154	-0.079
-182.071	-68.136	-0.261	0.100
-181.056	-200.000	0.087	-0.448
-180.042	59.985	0.248	-0.241
-179.027	282.596	0.025	0.044
-178.012	90.178	-0.139	-0.154
-176.998	-63.662	0.020	-0.008
-175.983	60.201	-0.243	0.237
-174.969	-86.128	0.365	0.111
-173.954	-6.582	-0.327	-0.220
-172.939	-132.529	0.312	0.039
-171.925	99.528	0.242	0.276
-170.910	52.261	0.138	0.130
-169.896	-111.365	0.055	0.011
-168.881	-99.275	-0.331	-0.082
-167.866	-65.166	0.258	-0.102
-166.852	145.562	0.060	0.079
-165.837	-107.141	0.168	0.037
-164.823	43.004	0.201	-0.181
-163.808	-74.977	-0.275	0.097
-162.793	104.382	-0.119	0.138
-161.779	-200.000	0.029	-0.164
-160.764	-71.906	0.352	-0.129
-159.750	430.942	0.042	0.090
-158.735	157.895	0.230	0.314
-157.720	-82.875	-0.258	-0.082
-156.706	800.000	-0.033	-0.103
-155.691	49.595	0.132	0.122
-154.677	-200.000	-0.015	0.172
-153.662	-99.014	0.279	0.070
-152.647	-200.000	-0.039	0.256
-151.633	-141.939	0.126	-0.012
-150.618	49.173	0.244	0.226
-149.604	38.709	-0.249	0.219
-148.589	-150.317	0.319	0.024
-147.574	-79.468	-0.117	-0.039
-146.560	-122.500	0.081	0.013
-145.545	-200.000	0.011	0.201
-144.531	44.984	-0.090	-0.081
-143.516	-2.406	-0.085	0.059
-142.502	-19.958	0.072	-0.044
-141.487	570.131	0.004	0.010
-140.472	-27.809	0.299	0.170
-139.458	32.593	-0.160	0.136
-138.443	145.050	0.154	0.203
-137.429	-42.242	0.064	-0.032
-136.414	-200.000	-0.020	0.093
-135.399	5.385	0.197	0.143
-134.385	-34.338	0.091	-0.049
-133.370	380.182	-0.084	0.169
-132.356	152.338	0.168	-0.226
-131.341	-200.000	-0.058	-0.269
-130.326	69.676	0.153	-0.155
-129.312	-37.039	0.279	-0.147
-128.297	-15.376	0.363	0.228
-127.283	704.082	-0.062	-0.160
-126.268	-43.612	-0.329	0.163
-125.253	195.610	0.096	-0.143
-124.239	-200.000	-0.003	0.177
-123.224	-0.985	-0.073	-0.051
-122.210	49.312	0.300	0.277
-121.195	141.986	0.265	0.345
