DTS Sentinel unit serial number:	SN413079Multiplexer serial number:	ORYXHardware model number:	OX4-SRSoftware version number:	ORYX F/W v4.00 Oryx Data Collector v3.7.2.0data status	okinstallation	princeton_trtdifferential loss correction	single-endedforward channel	channel 4reverse channel	N/Adate	2019/09/14time	01:17:34forward acquisition time	60.00reverse acquisition time	0.00gamma	496.2192k internal	0.2323k external	0.2323temperature offset calibration	1.0131default loss term (dB/km)	0.3790temperature slope calibration	1.0000multiplexer offset coefficient	1.0000multiplexer slope coefficient	1.0000fibre end	0.00T internal ref (°C)	26.41T ext. ref 1 (°C)	3.18T ext. ref 2 (°C)	21.44length (m)	temperature (°C)	Stokes	anti-Stokes-747.200	800.000	0.052	0.146
-746.185	800.000	-0.141	0.416
-745.171	-50.437	0.417	0.199
-744.156	-200.000	0.019	0.213
-743.142	-16.836	-0.020	0.013
-742.127	-200.000	0.003	0.367
-741.112	-98.531	-0.422	0.109
-740.098	-200.000	-0.060	0.311
-739.083	-200.000	-0.018	-0.100
-738.069	237.750	0.131	0.219
-737.054	135.602	-0.159	0.209
-736.039	-200.000	-0.018	0.137
-735.025	-134.538	0.077	0.009
-734.010	52.863	0.259	-0.250
-732.996	-200.000	-0.103	-0.566
-731.981	-107.229	-0.187	-0.042
-730.966	100.079	-0.028	0.033
-729.952	-11.076	-0.372	-0.248
-728.937	84.933	-0.198	-0.219
-727.923	540.831	0.030	-0.071
-726.908	542.034	0.086	0.207
-725.894	-104.169	-0.526	0.123
-724.879	690.416	0.080	-0.211
-723.864	-200.000	-0.057	-0.330
-722.850	92.505	0.130	-0.148
-721.835	609.697	0.110	0.277
-720.821	-7.435	-0.194	-0.133
-719.806	798.072	0.045	-0.124
-718.791	800.000	0.085	-0.299
-717.777	-200.000	0.002	-0.055
-716.762	136.825	-0.187	-0.246
-715.748	174.160	-0.052	-0.076
-714.733	-90.615	0.147	0.043
-713.718	-56.672	-0.215	-0.096
-712.704	177.630	-0.128	0.188
-711.689	-200.000	-0.019	-0.235
-710.675	800.000	0.114	0.335
-709.660	-200.000	0.005	-0.162
-708.645	203.182	0.174	-0.272
-707.631	-37.303	-0.194	-0.105
-706.616	800.000	-0.132	-0.405
-705.602	-27.889	0.276	-0.161
-704.587	-93.545	0.134	-0.037
-703.572	-111.497	0.188	0.039
-702.558	32.754	-0.137	0.119
-701.543	800.000	-0.054	0.150
-700.529	-63.417	-0.057	-0.023
-699.514	138.234	0.230	-0.304
-698.499	612.072	0.080	0.202
-697.485	450.276	-0.110	0.245
-696.470	225.377	-0.156	-0.254
-695.456	-171.231	-0.253	0.009
-694.441	-82.499	0.142	-0.046
-693.426	-149.123	0.352	-0.028
-692.412	800.000	0.091	0.278
-691.397	-65.443	-0.052	-0.021
-690.383	-200.000	0.025	-0.228
-689.368	-2.122	0.109	-0.077
-688.354	800.000	-0.055	0.207
-687.339	-132.771	-0.146	-0.019
-686.324	277.319	0.089	0.160
-685.310	-105.247	0.090	0.021
-684.295	75.435	-0.231	-0.246
-683.281	-85.197	-0.239	0.075
-682.266	44.671	0.178	-0.165
-681.251	282.399	0.052	0.095
-680.237	800.000	-0.075	-0.246
-679.222	71.824	0.299	-0.313
-678.208	22.621	0.148	0.122
-677.193	2.092	-0.266	-0.193
-676.178	113.845	0.256	-0.313
-675.164	800.000	0.103	-0.321
-674.149	-10.679	-0.308	-0.205
-673.135	97.242	0.186	-0.215
-672.120	800.000	-0.081	0.295
-671.105	-95.611	-0.315	-0.085
-670.091	-200.000	-0.034	-0.362
-669.076	147.214	0.092	0.124
-668.062	-114.995	-0.171	-0.033
-667.047	37.089	-0.175	-0.156
-666.032	-175.144	-0.116	0.003
-665.018	-121.546	0.118	-0.020
-664.003	-98.125	-0.057	0.015
-662.989	-100.456	-0.140	-0.035
-661.974	-30.966	-0.088	0.050
-660.959	51.468	0.104	0.100
-659.945	-39.146	-0.226	-0.120
-658.930	800.000	0.199	-0.594
-657.916	-63.068	-0.181	-0.075
-656.901	-184.984	-0.102	0.002
-655.886	-58.163	-0.083	0.036
-654.872	167.188	0.008	-0.011
-653.857	-200.000	-0.002	-0.212
-652.843	-200.000	0.016	0.287
-651.828	228.493	-0.077	-0.126
-650.814	800.000	0.060	-0.247
-649.799	248.068	-0.127	0.217
-648.784	50.509	-0.130	0.124
-647.770	-98.619	-0.290	0.074
-646.755	-17.379	0.162	-0.102
-645.741	139.370	-0.070	-0.093
-644.726	-132.880	0.148	-0.019
-643.711	-106.506	-0.475	0.107
-642.697	-31.184	0.280	-0.159
-641.682	-200.000	0.022	-0.204
-640.668	-139.297	-0.018	-0.002
-639.653	-22.149	-0.347	0.212
-638.638	99.085	-0.201	-0.234
-637.624	-200.000	0.035	0.301
-636.609	120.150	-0.027	0.033
-635.595	-200.000	-0.013	-0.087
-634.580	46.024	-0.134	0.125
-633.565	800.000	-0.015	0.049
-632.551	243.023	0.178	-0.299
-631.536	-153.608	-0.079	0.005
-630.522	178.205	-0.200	0.294
-629.507	-5.077	-0.040	-0.028
-628.492	-131.678	-0.321	0.042
-627.478	-99.674	0.117	0.030
-626.463	-72.045	0.293	-0.109
-625.449	421.301	-0.062	-0.134
-624.434	-44.290	-0.353	-0.178
-623.419	-200.000	0.002	-0.225
-622.405	-134.475	0.105	-0.013
-621.390	-16.219	0.224	0.143
-620.376	-200.000	0.035	-0.233
-619.361	-200.000	-0.018	-0.079
-618.346	193.094	-0.131	0.199
-617.332	182.232	0.050	-0.074
-616.317	-200.000	0.042	-0.190
-615.303	456.329	-0.082	0.184
-614.288	-200.000	0.013	-0.201
-613.273	-200.000	0.019	0.094
-612.259	306.050	-0.064	-0.120
-611.244	194.880	0.066	-0.101
-610.230	488.459	0.016	-0.037
-609.215	-34.448	0.290	-0.160
-608.201	174.344	0.128	-0.185
-607.186	800.000	-0.045	0.140
-606.171	237.072	0.164	-0.272
-605.157	255.395	-0.184	0.317
-604.142	316.676	0.094	-0.178
-603.128	72.791	-0.178	0.187
-602.113	-115.624	0.063	0.012
-601.098	-160.343	-0.124	-0.007
-600.084	-47.934	-0.280	-0.136
-599.069	142.654	0.136	-0.181
-598.055	41.966	-0.227	-0.207
-597.040	125.512	-0.052	-0.066
-596.025	53.941	-0.116	-0.111
-595.011	-106.353	0.143	0.032
-593.996	-46.005	0.167	-0.083
-592.982	-200.000	-0.038	-0.417
-591.967	299.412	-0.089	-0.165
-590.952	-91.679	-0.431	0.123
-589.938	-99.306	0.528	-0.134
-588.923	149.709	-0.085	0.115
-587.909	-200.000	-0.044	-0.283
-586.894	437.569	-0.131	-0.287
-585.879	-200.000	0.108	0.000
-584.865	-200.000	-0.052	0.434
-583.850	242.794	-0.255	-0.429
-582.836	97.962	0.037	-0.043
-581.821	-59.382	-0.177	-0.076
-580.806	-50.946	-0.127	-0.060
-579.792	-73.886	-0.153	-0.056
-578.777	-143.649	-0.393	0.037
-577.763	57.355	-0.084	0.082
-576.748	308.777	0.052	0.097
-575.733	126.665	-0.060	0.076
-574.719	340.436	-0.091	-0.179
-573.704	-11.054	-0.146	0.097
-572.690	186.214	-0.022	-0.032
-571.675	5.414	0.141	0.104
-570.661	-172.050	-0.132	0.004
-569.646	-22.327	0.335	-0.204
-568.631	-152.334	-0.215	0.016
-567.617	-81.864	-0.362	0.119
-566.602	-39.682	0.298	-0.156
-565.588	15.659	0.093	-0.073
-564.573	-200.000	-0.044	0.234
-563.558	102.452	-0.157	0.184
-562.544	-135.241	0.153	0.018
-561.529	44.527	-0.119	-0.110
-560.515	49.961	-0.277	-0.262
-559.500	219.734	-0.065	-0.104
-558.485	39.641	0.138	-0.124
-557.471	3.167	-0.095	-0.070
-556.456	696.543	-0.144	0.380
-555.442	4.079	0.262	-0.192
-554.427	-200.000	-0.043	-0.413
-553.412	-78.636	-0.177	-0.060
-552.398	-86.660	-0.374	-0.115
-551.383	-200.000	0.000	-0.141
-550.369	800.000	-0.073	-0.271
-549.354	-73.783	-0.278	0.101
-548.339	644.157	-0.059	-0.150
-547.325	-131.812	-0.408	-0.054
-546.310	-110.276	0.657	-0.137
-545.296	185.740	0.024	-0.035
-544.281	180.881	0.063	-0.093
-543.266	159.783	0.080	-0.112
-542.252	-40.643	0.331	0.172
-541.237	-116.498	0.235	0.043
-540.223	-85.294	-0.169	0.053
-539.208	-120.386	0.221	-0.038
-538.193	470.010	0.035	0.080
-537.179	800.000	0.097	0.326
-536.164	526.962	0.075	0.177
-535.150	655.422	-0.139	-0.358
-534.135	180.234	0.088	0.129
-533.121	161.261	-0.073	-0.102
-532.106	-47.026	-0.182	-0.089
-531.091	800.000	0.049	0.148
-530.077	91.375	-0.118	0.133
-529.062	42.950	0.057	-0.052
-528.048	-151.890	0.110	-0.008
-527.033	-53.403	-0.200	0.092
-526.018	-81.614	-0.268	0.088
-525.004	51.849	0.061	-0.058
-523.989	159.883	-0.179	0.249
-522.975	301.912	0.169	-0.313
-521.960	-10.651	-0.125	0.083
-520.945	-73.635	-0.222	0.081
-519.931	121.008	-0.057	-0.071
-518.916	78.172	-0.283	0.303
-517.902	-200.000	-0.048	0.512
-516.887	62.115	-0.218	0.217
-515.872	525.991	0.068	-0.160
-514.858	293.299	-0.086	-0.157
-513.843	201.319	0.127	-0.195
-512.829	-36.284	-0.105	0.057
-511.814	-3.024	-0.243	-0.170
-510.799	-97.381	0.468	-0.122
-509.785	138.154	-0.073	-0.096
-508.770	144.773	-0.108	-0.144
-507.756	140.866	-0.152	-0.200
-506.741	-200.000	-0.003	0.060
-505.726	-112.083	0.578	-0.116
-504.712	-112.418	0.229	-0.046
-503.697	105.714	0.204	-0.241
-502.683	-141.967	0.277	-0.028
-501.668	-68.442	-0.399	-0.155
-500.653	-106.559	0.158	0.035
-499.639	-85.821	0.218	0.068
-498.624	-200.000	-0.001	0.230
-497.610	-200.000	0.025	-0.367
-496.595	-200.000	-0.038	0.312
-495.581	-19.215	-0.096	0.059
-494.566	-141.810	-0.171	0.017
-493.551	-200.000	0.029	-0.194
-492.537	46.515	0.246	0.228
-491.522	-96.543	0.298	-0.079
-490.508	-200.000	0.050	0.413
-489.493	800.000	0.011	-0.046
-488.478	46.128	0.067	-0.062
-487.464	-200.000	0.041	-0.463
-486.449	-156.250	-0.173	-0.011
-485.435	-200.000	0.047	-0.210
-484.420	-4.710	-0.130	0.090
-483.405	59.108	-0.334	0.328
-482.391	314.887	-0.061	-0.114
-481.376	269.980	0.180	-0.316
-480.362	113.662	0.105	-0.127
-479.347	-200.000	-0.027	-0.271
-478.332	45.018	-0.238	0.219
-477.318	-38.275	-0.169	0.089
-476.303	206.529	-0.058	-0.090
-475.289	134.273	0.149	0.193
-474.274	-171.540	-0.193	-0.006
-473.259	368.359	0.046	-0.094
-472.245	800.000	-0.069	0.206
-471.230	-200.000	-0.014	-0.068
-470.216	-76.363	0.264	0.093
-469.201	6.829	-0.384	0.286
-468.186	-22.235	-0.171	-0.103
-467.172	87.188	0.081	-0.089
-466.157	-23.121	0.069	0.042
-465.143	-36.504	0.245	0.131
-464.128	-70.447	-0.020	0.008
-463.113	-116.463	0.415	-0.077
-462.099	278.591	-0.162	-0.288
-461.084	298.911	0.180	0.332
-460.070	376.396	0.057	0.116
-459.055	138.321	0.173	-0.227
-458.040	616.471	0.050	-0.126
-457.026	-46.316	0.112	0.055
-456.011	-200.000	-0.019	0.139
-454.997	-200.000	-0.012	0.393
-453.982	457.585	0.091	0.203
-452.968	76.574	0.216	0.229
-451.953	220.564	0.051	-0.082
-450.938	-9.451	0.184	-0.122
-449.924	180.810	0.109	0.161
-448.909	556.786	-0.093	0.225
-447.895	-129.512	-0.102	0.014
-446.880	313.728	0.213	-0.400
-445.865	-200.000	0.002	-0.015
-444.851	-175.768	0.431	0.012
-443.836	-200.000	0.039	-0.499
-442.822	276.038	-0.148	0.262
-441.807	119.862	0.140	0.173
-440.792	236.732	0.123	-0.203
-439.778	800.000	0.078	-0.241
-438.763	-38.995	0.059	0.031
-437.749	-63.442	0.203	0.083
-436.734	-165.306	-0.419	-0.018
-435.719	91.299	0.140	0.156
-434.705	-90.142	0.115	0.033
-433.690	651.748	-0.069	0.177
-432.676	800.000	0.139	-0.428
-431.661	121.214	-0.146	-0.182
-430.646	11.581	-0.200	-0.153
-429.632	-172.775	-0.105	-0.003
-428.617	-200.000	-0.011	0.133
-427.603	160.213	0.282	-0.392
-426.588	242.046	-0.026	0.043
-425.573	-111.834	-0.077	-0.016
-424.559	18.604	0.136	0.108
-423.544	-27.960	-0.078	-0.045
-422.530	-145.395	-0.150	0.013
-421.515	-200.000	0.012	-0.107
-420.500	800.000	-0.025	0.071
-419.486	360.389	0.092	0.183
-418.471	64.937	-0.145	-0.146
-417.457	-25.279	0.079	0.047
-416.442	800.000	0.068	0.215
-415.428	168.611	0.168	-0.238
-414.413	800.000	-0.089	-0.297
-413.398	-113.839	0.223	-0.043
-412.384	237.447	-0.305	0.505
-411.369	800.000	0.045	0.150
-410.355	17.196	0.104	-0.082
-409.340	-18.676	-0.235	0.146
-408.325	-155.881	0.352	0.022
-407.311	-16.067	0.075	-0.047
-406.296	800.000	0.074	0.224
-405.282	-130.869	0.223	-0.030
-404.267	75.293	0.083	-0.088
-403.252	-83.135	-0.380	-0.122
-402.238	-200.000	0.058	-0.301
-401.223	-123.776	-0.101	0.016
-400.209	-18.236	0.133	-0.083
-399.194	49.731	-0.115	0.108
-398.179	-19.780	0.250	-0.154
-397.165	331.298	-0.078	0.151
-396.150	779.425	-0.090	0.246
-395.136	-0.089	-0.244	0.173
-394.121	-90.033	-0.184	-0.054
-393.106	-49.265	-0.327	-0.156
-392.092	-96.382	-0.113	-0.030
-391.077	170.284	-0.221	-0.315
-390.063	65.866	-0.117	-0.118
-389.048	-122.016	0.274	0.045
-388.033	752.340	-0.131	0.353
-387.019	235.988	0.157	0.259
-386.004	32.182	0.067	0.057
-384.990	-76.537	0.036	-0.012
-383.975	-200.000	0.019	-0.189
-382.960	-200.000	0.042	-0.206
-381.946	-200.000	-0.006	-0.059
-380.931	-200.000	0.043	0.252
-379.917	-44.688	0.173	0.086
-378.902	800.000	0.150	0.438
-377.888	-68.558	0.229	-0.088
-376.873	107.087	0.144	-0.170
-375.858	283.404	0.081	-0.145
-374.844	37.358	-0.334	-0.295
-373.829	-200.000	0.004	0.245
-372.815	-200.000	0.005	-0.225
-371.800	289.697	-0.158	0.284
-370.785	464.821	-0.082	-0.183
-369.771	-75.396	-0.178	0.063
-368.756	41.382	-0.187	0.168
-367.742	158.297	-0.331	0.457
-366.727	198.352	0.145	0.220
-365.712	234.961	-0.108	0.178
-364.698	-200.000	0.024	0.313
-363.683	-112.952	0.222	0.044
-362.669	-7.443	0.126	0.085
-361.654	-197.864	-0.277	-0.002
-360.639	53.616	-0.097	0.092
-359.625	-118.974	0.384	0.067
-358.610	410.677	-0.120	0.254
-357.596	21.052	0.293	-0.236
-356.581	191.975	-0.101	0.152
-355.566	-80.979	0.334	-0.110
-354.552	-104.732	-0.265	0.061
-353.537	177.859	-0.216	-0.314
-352.523	-200.000	0.008	-0.077
-351.508	133.687	0.146	0.188
-350.493	81.145	-0.178	-0.191
-349.479	-49.886	-0.058	0.027
-348.464	85.686	0.181	0.197
-347.450	-134.738	-0.409	-0.049
-346.435	-0.420	-0.124	-0.088
-345.420	-200.000	0.027	0.387
-344.406	245.744	-0.076	0.128
-343.391	-21.862	0.229	0.138
-342.377	71.477	-0.086	-0.089
-341.362	-167.976	0.392	0.015
-340.348	-200.000	0.007	0.230
-339.333	800.000	0.023	-0.073
-338.318	250.905	0.042	-0.071
-337.304	-15.939	-0.129	0.081
-336.289	800.000	-0.113	0.311
-335.275	-200.000	0.020	-0.093
-334.260	-152.546	0.132	-0.009
-333.245	-77.321	-0.162	0.056
-332.231	31.843	-0.193	0.165
-331.216	202.416	0.181	0.278
-330.202	83.937	-0.094	-0.102
-329.187	-200.000	0.006	-0.320
-328.172	-29.993	-0.160	-0.091
-327.158	276.920	0.108	0.190
-326.143	-21.151	0.217	0.132
-325.129	-181.298	0.145	-0.003
-324.114	-169.623	-0.267	0.010
-323.099	737.814	-0.077	-0.205
-322.085	72.098	0.133	-0.138
-321.070	-81.322	-0.291	0.095
-320.056	-200.000	0.025	0.283
-319.041	757.617	-0.034	-0.090
-318.026	74.495	0.216	0.225
-317.012	361.467	0.028	-0.056
-315.997	-200.000	0.035	0.405
-314.983	173.727	0.026	-0.037
-313.968	28.742	-0.200	0.168
-312.953	-200.000	0.030	0.204
-311.939	-85.370	-0.263	0.081
-310.924	-59.105	0.186	0.080
-309.910	-18.441	0.158	0.098
-308.895	-200.000	0.008	0.079
-307.880	800.000	-0.136	-0.550
-306.866	362.796	0.114	0.228
-305.851	13.095	0.123	-0.094
-304.837	-146.231	-0.400	-0.035
-303.822	-53.061	0.144	0.066
-302.807	-200.000	-0.078	0.382
-301.793	-23.707	-0.110	0.065
-300.778	126.877	-0.101	0.127
-299.764	-76.821	-0.249	0.086
-298.749	-200.000	0.007	0.045
-297.735	800.000	-0.060	0.177
-296.720	800.000	0.033	-0.096
-295.705	-131.986	-0.093	-0.012
-294.691	-200.000	0.023	-0.105
-293.676	-72.286	0.209	0.077
-292.662	-200.000	0.032	0.446
-291.647	-161.568	-0.445	0.023
-290.632	377.068	0.057	-0.116
-289.618	59.497	-0.084	0.083
-288.603	308.955	-0.097	-0.180
-287.589	51.011	0.165	-0.156
-286.574	10.707	-0.192	0.145
-285.559	-22.697	0.298	-0.178
-284.545	386.542	-0.089	-0.183
-283.530	55.280	-0.038	0.037
-282.516	800.000	0.104	-0.338
-281.501	-20.348	0.274	0.167
-280.486	800.000	0.025	-0.072
-279.472	-200.000	-0.021	0.249
-278.457	642.726	0.170	-0.431
-277.443	-200.000	0.018	-0.445
-276.428	11.966	0.242	0.184
-275.413	26.494	0.214	0.178
-274.399	192.166	-0.196	0.294
-273.384	98.721	0.112	0.128
-272.370	-200.000	-0.032	0.256
-271.355	552.485	-0.089	0.212
-270.340	-200.000	0.006	0.117
-269.326	800.000	-0.007	0.028
-268.311	157.268	0.117	0.160
-267.297	-200.000	-0.042	0.258
-266.282	519.500	-0.183	-0.424
-265.267	68.965	-0.112	-0.114
-264.253	10.999	0.371	0.281
-263.238	349.606	0.088	0.172
-262.224	375.433	0.079	0.160
-261.209	-97.036	0.168	0.044
-260.195	-125.433	0.294	0.044
-259.180	709.846	0.088	0.231
-258.165	-109.463	-0.350	-0.073
-257.151	50.335	-0.133	-0.125
-256.136	144.815	-0.158	0.209
-255.122	-200.000	-0.048	0.310
-254.107	-120.516	0.012	-0.002
-253.092	167.598	-0.054	0.075
-252.078	-47.789	0.155	0.075
-251.063	199.401	0.234	0.355
-250.049	-18.303	-0.165	-0.102
-249.034	-69.640	0.404	-0.153
-248.019	226.228	-0.092	0.148
-247.005	12.797	0.101	0.078
-245.990	-200.000	0.031	0.280
-244.976	241.541	0.010	0.016
-243.961	-112.262	0.114	-0.023
-242.946	46.072	0.078	0.071
-241.932	-157.057	0.289	0.017
-240.917	226.077	-0.094	0.150
-239.903	-106.930	-0.371	-0.081
-238.888	740.336	-0.067	0.177
-237.873	-200.000	0.039	-0.384
-236.859	800.000	0.056	-0.196
-235.844	65.480	-0.095	0.095
-234.830	-78.437	-0.320	-0.109
-233.815	120.284	-0.041	0.050
-232.800	238.771	0.068	-0.112
-231.786	-181.973	0.291	0.005
-230.771	-143.084	0.110	0.011
-229.757	3.635	0.141	0.102
-228.742	-27.025	-0.193	-0.111
-227.727	-200.000	0.022	0.260
-226.713	800.000	0.069	-0.209
-225.698	800.000	0.060	-0.186
-224.684	232.716	0.203	0.331
-223.669	-6.718	0.116	0.078
-222.655	263.103	-0.035	-0.059
-221.640	772.732	-0.136	-0.368
-220.625	698.192	-0.120	0.312
-219.611	-131.799	-0.208	-0.027
-218.596	-157.453	0.252	-0.015
-217.582	-53.796	-0.283	-0.128
-216.567	55.484	-0.043	-0.041
-215.552	526.148	0.105	0.244
-214.538	204.088	0.376	-0.576
-213.523	-3.636	-0.155	0.107
-212.509	-105.711	-0.277	0.062
-211.494	34.152	0.255	0.220
-210.479	-200.000	0.029	-0.270
-209.465	-2.605	0.237	-0.164
-208.450	-200.000	-0.017	0.322
-207.436	-76.863	0.320	0.111
-206.421	-70.341	-0.285	0.107
-205.406	236.795	0.153	-0.250
-204.392	-88.154	-0.429	0.127
-203.377	63.162	0.194	-0.192
-202.363	-200.000	0.032	0.178
-201.348	273.341	0.057	-0.100
-200.333	-26.374	0.201	-0.117
-199.319	58.435	-0.033	0.032
-198.304	-49.113	0.478	-0.226
-197.290	-200.000	-0.037	-0.339
-196.275	-70.460	0.246	-0.092
-195.260	-73.013	-0.132	0.048
-194.246	-67.892	0.207	-0.080
-193.231	800.000	-0.094	-0.295
-192.217	-164.504	-0.299	0.013
-191.202	64.834	-0.078	-0.078
-190.187	202.966	-0.037	0.056
-189.173	187.522	-0.167	-0.246
-188.158	40.284	0.111	-0.099
-187.144	-118.195	0.527	0.093
-186.129	-66.508	0.211	-0.083
-185.114	214.416	-0.051	-0.080
-184.100	-2.786	0.237	-0.164
-183.085	-75.040	0.063	0.022
-182.071	243.562	-0.069	-0.114
-181.056	-200.000	-0.011	-0.201
-180.042	-200.000	0.064	0.550
-179.027	200.410	0.022	0.033
-178.012	47.879	0.192	-0.177
-176.998	128.063	0.122	0.153
-175.983	-195.513	0.187	-0.001
-174.969	224.646	-0.182	-0.290
-173.954	393.211	0.111	-0.227
-172.939	261.365	-0.104	0.179
-171.925	53.774	0.217	-0.205
-170.910	-163.305	0.264	-0.012
-169.896	-43.127	-0.303	0.151
-168.881	97.354	-0.242	0.274
-167.866	126.108	0.234	-0.292
-166.852	-200.000	-0.077	0.413
-165.837	-27.701	0.361	0.207
-164.823	291.556	0.179	-0.322
-163.808	-108.408	-0.272	0.058
-162.793	109.755	0.129	0.153
-161.779	800.000	-0.092	0.318
-160.764	393.238	-0.157	-0.322
-159.750	171.384	0.137	-0.194
-158.735	165.453	-0.180	-0.252
-157.720	392.104	0.093	-0.190
-156.706	-171.682	-0.101	-0.003
-155.691	11.787	-0.091	-0.069
-154.677	-95.597	0.108	0.029
-153.662	-60.765	-0.117	-0.049
-152.647	-127.665	-0.415	-0.059
-151.633	-171.105	-0.036	-0.001
-150.618	-200.000	-0.011	0.170
-149.604	362.420	0.120	-0.238
-148.589	-54.573	-0.308	-0.137
-147.574	-200.000	-0.087	0.426
-146.560	92.807	0.173	0.193
-145.545	-60.659	-0.274	0.115
-144.531	33.216	-0.022	0.019
-143.516	-200.000	0.037	-0.217
-142.502	550.722	-0.052	0.122
-141.487	800.000	-0.065	0.182
-140.472	-79.747	0.468	0.155
-139.458	-19.250	-0.121	-0.074
-138.443	-74.837	0.199	-0.071
-137.429	-193.965	-0.341	0.003
-136.414	353.821	-0.132	0.258
-135.399	-200.000	0.004	0.313
-134.385	-200.000	0.022	0.142
-133.370	175.799	0.099	-0.141
-132.356	56.358	0.073	0.070
-131.341	61.104	0.362	-0.354
-130.326	-175.016	-0.279	0.008
-129.312	-87.197	-0.284	-0.085
-128.297	54.228	-0.033	-0.031
-127.283	239.449	-0.086	-0.142
-126.268	-18.758	0.119	0.073
-125.253	219.006	-0.148	0.233
-124.239	21.674	-0.378	-0.304
-123.224	-200.000	0.040	-0.203
-122.210	177.536	0.077	0.111
-121.195	149.509	0.074	0.099
