DTS Sentinel unit serial number:	SN413079Multiplexer serial number:	ORYXHardware model number:	OX4-SRSoftware version number:	ORYX F/W v4.00 Oryx Data Collector v3.7.2.0data status	okinstallation	princeton_trtdifferential loss correction	single-endedforward channel	channel 4reverse channel	N/Adate	2019/09/14time	02:05:34forward acquisition time	60.00reverse acquisition time	0.00gamma	496.2192k internal	0.2323k external	0.2323temperature offset calibration	1.0131default loss term (dB/km)	0.3790temperature slope calibration	1.0000multiplexer offset coefficient	1.0000multiplexer slope coefficient	1.0000fibre end	0.00T internal ref (°C)	26.50T ext. ref 1 (°C)	3.21T ext. ref 2 (°C)	21.48length (m)	temperature (°C)	Stokes	anti-Stokes-747.200	-4.636	-0.121	-0.084
-746.185	-39.163	-0.241	0.128
-745.171	-200.000	-0.008	0.086
-744.156	240.359	-0.225	0.379
-743.142	-200.000	-0.023	0.154
-742.127	-24.498	0.180	-0.108
-741.112	-25.230	-0.073	0.043
-740.098	337.188	-0.108	0.211
-739.083	-31.172	0.196	-0.112
-738.069	-200.000	0.035	-0.537
-737.054	398.414	0.097	-0.204
-736.039	-38.789	0.228	-0.121
-735.025	-49.575	0.188	-0.090
-734.010	-177.580	0.024	0.001
-732.996	-137.587	-0.581	0.066
-731.981	-200.000	-0.020	0.330
-730.966	-98.102	0.240	-0.062
-729.952	-154.189	0.200	-0.014
-728.937	-125.273	-0.184	-0.028
-727.923	-124.225	-0.163	0.026
-726.908	-51.584	-0.161	0.076
-725.894	-75.759	-0.227	-0.081
-724.879	33.126	0.070	-0.061
-723.864	-200.000	-0.012	0.293
-722.850	20.506	-0.217	-0.177
-721.835	-200.000	0.001	-0.192
-720.821	146.394	0.225	-0.304
-719.806	599.982	0.043	0.109
-718.791	2.975	-0.130	-0.095
-717.777	800.000	0.046	0.173
-716.762	800.000	0.042	0.152
-715.748	-200.000	0.071	0.399
-714.733	800.000	0.047	-0.201
-713.718	-142.402	-0.327	0.032
-712.704	-152.259	0.092	-0.007
-711.689	224.045	0.052	0.084
-710.675	-82.991	0.156	-0.051
-709.660	79.295	-0.209	0.226
-708.645	-74.042	-0.377	0.138
-707.631	-200.000	0.008	0.082
-706.616	-133.516	-0.255	0.032
-705.602	-200.000	-0.006	-0.161
-704.587	79.163	-0.135	0.146
-703.572	283.032	-0.131	0.237
-702.558	-26.331	-0.072	0.043
-701.543	97.800	0.229	0.266
-700.529	-151.187	-0.155	0.012
-699.514	3.643	-0.261	0.192
-698.499	800.000	0.067	0.226
-697.485	-19.795	-0.079	0.049
-696.470	98.219	-0.386	-0.448
-695.456	358.129	-0.103	0.207
-694.441	-102.517	-0.060	0.014
-693.426	-174.811	0.271	-0.008
-692.412	72.714	-0.304	-0.320
-691.397	800.000	-0.096	-0.395
-690.383	-54.961	-0.232	0.105
-689.368	-200.000	0.002	0.169
-688.354	-200.000	0.021	-0.216
-687.339	-200.000	0.025	-0.157
-686.324	-81.466	0.346	-0.115
-685.310	273.569	0.039	0.070
-684.295	-200.000	-0.012	-0.100
-683.281	19.271	-0.282	0.228
-682.266	629.143	-0.073	0.187
-681.251	275.223	-0.194	-0.346
-680.237	-37.178	-0.282	-0.152
-679.222	-122.193	-0.224	-0.037
-678.208	134.282	-0.112	0.147
-677.193	122.749	0.049	0.062
-676.178	-50.707	-0.303	-0.144
-675.164	800.000	-0.059	0.215
-674.149	800.000	0.043	0.145
-673.135	23.322	-0.062	0.051
-672.120	136.766	-0.119	-0.157
-671.105	-200.000	-0.002	-0.181
-670.091	11.714	0.052	-0.040
-669.076	13.000	0.151	0.118
-668.062	-64.066	-0.067	-0.028
-667.047	-128.578	-0.380	0.054
-666.032	-118.018	-0.340	0.061
-665.018	199.521	0.121	0.188
-664.003	143.948	0.209	-0.281
-662.989	-83.759	-0.261	0.084
-661.974	-138.219	0.043	-0.005
-660.959	-54.431	-0.181	-0.083
-659.945	21.682	-0.363	0.297
-658.930	-50.538	0.255	0.121
-657.916	-135.639	0.386	-0.046
-656.901	-13.543	0.083	0.054
-655.886	198.391	0.111	0.170
-654.872	-200.000	0.028	-0.297
-653.857	-134.084	0.150	-0.019
-652.843	-200.000	-0.022	-0.239
-651.828	-200.000	0.032	0.210
-650.814	-85.187	0.273	0.086
-649.799	725.812	0.040	0.106
-648.784	-49.548	0.148	-0.071
-647.770	800.000	-0.036	0.129
-646.755	-200.000	0.037	0.236
-645.741	-61.759	-0.178	-0.075
-644.726	421.095	-0.074	-0.160
-643.711	-175.079	-0.276	-0.008
-642.697	40.681	-0.133	-0.121
-641.682	86.783	-0.060	-0.066
-640.668	800.000	0.030	-0.100
-639.653	126.371	-0.081	-0.103
-638.638	143.114	0.126	-0.168
-637.624	-200.000	0.029	-0.284
-636.609	-200.000	0.003	0.272
-635.595	-175.126	-0.036	0.001
-634.580	-25.843	0.130	-0.077
-633.565	-200.000	-0.036	0.504
-632.551	-78.077	-0.194	0.067
-631.536	27.120	-0.175	0.147
-630.522	-64.655	0.043	-0.017
-629.507	40.483	0.116	-0.105
-628.492	-108.994	-0.427	-0.092
-627.478	-136.375	0.259	-0.030
-626.463	-200.000	-0.010	-0.214
-625.449	188.868	0.243	-0.365
-624.434	-200.000	0.037	-0.264
-623.419	99.830	-0.213	-0.248
-622.405	-193.875	0.036	0.000
-621.390	-91.768	0.363	0.104
-620.376	103.325	0.132	0.155
-619.361	-200.000	-0.117	0.000
-618.346	-56.524	0.354	-0.158
-617.332	-200.000	-0.029	0.291
-616.317	8.151	-0.253	-0.191
-615.303	-200.000	0.053	-0.352
-614.288	-200.000	0.026	-0.244
-613.273	-115.109	0.438	0.083
-612.259	126.860	-0.146	0.185
-611.244	-81.338	-0.293	-0.097
-610.230	129.608	-0.110	-0.142
-609.215	196.353	-0.122	-0.186
-608.201	-7.366	0.116	-0.079
-607.186	-169.905	0.182	-0.007
-606.171	-200.000	-0.012	0.214
-605.157	30.138	-0.215	0.184
-604.142	-29.979	0.197	-0.113
-603.128	85.076	0.036	0.040
-602.113	-54.739	-0.033	-0.015
-601.098	800.000	0.027	-0.102
-600.084	120.214	-0.240	-0.299
-599.069	-97.638	0.051	-0.013
-598.055	-173.842	0.080	0.002
-597.040	239.862	0.149	-0.248
-596.025	-200.000	-0.017	-0.152
-595.011	-122.675	-0.133	0.022
-593.996	76.028	0.178	-0.189
-592.982	-200.000	-0.025	-0.224
-591.967	-110.097	0.245	-0.051
-590.952	-200.000	0.049	0.229
-589.938	-53.769	0.188	0.086
-588.923	-116.838	-0.211	0.039
-587.909	450.868	0.037	-0.083
-586.894	-93.246	-0.088	-0.025
-585.879	165.836	0.076	-0.108
-584.865	-7.025	0.090	-0.062
-583.850	-200.000	-0.065	0.639
-582.836	-200.000	0.009	0.163
-581.821	-128.865	0.287	-0.040
-580.806	93.302	0.140	0.159
-579.792	235.683	0.170	0.281
-578.777	-200.000	0.004	0.209
-577.763	-200.000	-0.044	-0.417
-576.748	-88.177	-0.165	-0.050
-575.733	800.000	-0.022	-0.076
-574.719	287.931	0.248	0.450
-573.704	800.000	0.095	-0.269
-572.690	79.196	-0.270	-0.290
-571.675	213.816	0.098	-0.156
-570.661	49.850	-0.141	-0.134
-569.646	800.000	0.028	0.118
-568.631	389.113	0.011	-0.023
-567.617	-200.000	-0.013	-0.075
-566.602	800.000	-0.048	-0.164
-565.588	800.000	0.068	-0.280
-564.573	38.782	-0.263	-0.236
-563.558	16.814	-0.240	-0.190
-562.544	800.000	-0.112	-0.392
-561.529	-160.471	-0.163	0.009
-560.515	-95.329	0.076	-0.020
-559.500	-54.459	-0.303	-0.138
-558.485	49.419	0.100	-0.094
-557.471	79.632	0.136	0.146
-556.456	171.809	0.140	-0.202
-555.442	-100.656	-0.466	-0.115
-554.427	138.577	0.139	-0.183
-553.412	800.000	0.070	0.240
-552.398	-125.103	-0.379	-0.058
-551.383	-82.116	0.064	0.021
-550.369	-120.073	-0.235	-0.040
-549.354	-200.000	-0.053	0.386
-548.339	55.451	-0.206	-0.200
-547.325	101.754	-0.139	0.162
-546.310	-126.425	0.279	-0.042
-545.296	-38.828	-0.284	-0.150
-544.281	-132.614	0.322	0.041
-543.266	-141.889	-0.260	-0.026
-542.252	800.000	0.073	-0.230
-541.237	308.489	-0.167	-0.312
-540.223	-200.000	0.000	0.063
-539.208	-51.899	0.291	0.135
-538.193	-34.454	-0.119	0.065
-537.179	-118.643	-0.163	-0.029
-536.164	233.875	0.123	-0.203
-535.150	113.917	0.190	-0.232
-534.135	576.832	0.106	0.260
-533.121	-75.211	0.119	0.043
-532.106	800.000	-0.056	-0.231
-531.091	-200.000	0.015	-0.271
-530.077	800.000	-0.036	0.107
-529.062	-200.000	0.030	0.163
-528.048	-30.329	0.094	0.053
-527.033	224.565	0.063	-0.102
-526.018	-107.629	-0.121	-0.026
-525.004	-115.075	0.075	0.014
-523.989	-200.000	0.018	0.084
-522.975	-118.529	0.177	-0.031
-521.960	-200.000	-0.070	-0.533
-520.945	43.185	0.278	-0.254
-519.931	70.545	-0.182	-0.188
-518.916	336.624	0.136	0.265
-517.902	-63.002	-0.343	0.142
-516.887	369.936	-0.100	-0.203
-515.872	-135.751	-0.158	-0.019
-514.858	-52.923	-0.201	0.093
-513.843	26.437	0.116	-0.097
-512.829	286.426	-0.175	-0.316
-511.814	145.747	0.091	-0.122
-510.799	269.776	0.164	-0.288
-509.785	80.823	-0.133	-0.144
-508.770	-200.000	0.018	-0.133
-507.756	-200.000	-0.040	0.252
-506.741	800.000	0.074	0.313
-505.726	151.942	-0.083	0.114
-504.712	223.305	-0.081	-0.131
-503.697	127.516	0.081	-0.102
-502.683	545.451	-0.122	0.292
-501.668	109.758	-0.067	-0.081
-500.653	-200.000	-0.006	-0.270
-499.639	414.087	-0.086	0.184
-498.624	254.640	0.109	-0.186
-497.610	29.263	-0.175	0.149
-496.595	-159.548	0.195	-0.011
-495.581	-165.035	0.107	-0.005
-494.566	-50.607	0.218	0.103
-493.551	-24.241	-0.130	-0.077
-492.537	475.284	-0.139	0.314
-491.522	-131.341	-0.160	0.021
-490.508	485.886	0.104	-0.238
-489.493	262.533	0.163	-0.283
-488.478	4.820	0.321	0.236
-487.464	430.928	-0.138	0.298
-486.449	800.000	0.035	0.137
-485.435	-117.110	0.319	0.058
-484.420	-200.000	-0.072	0.409
-483.405	-158.931	-0.182	0.010
-482.391	-134.063	0.289	-0.036
-481.376	-136.735	0.508	-0.059
-480.362	413.618	-0.095	0.201
-479.347	-200.000	0.014	0.137
-478.332	346.362	0.115	0.227
-477.318	-133.624	0.059	-0.007
-476.303	-200.000	0.046	0.314
-475.289	800.000	-0.025	0.097
-474.274	-41.751	0.251	0.129
-473.259	-45.017	-0.087	0.043
-472.245	263.069	-0.127	0.220
-471.230	-57.309	-0.111	-0.049
-470.216	-6.171	0.108	0.074
-469.201	-200.000	0.056	-0.314
-468.186	165.246	-0.060	0.085
-467.172	150.817	-0.122	-0.166
-466.157	-38.983	-0.147	-0.077
-465.143	800.000	-0.050	0.147
-464.128	-35.429	0.330	0.179
-463.113	-200.000	0.022	-0.116
-462.099	-74.041	0.255	-0.092
-461.084	8.001	0.247	0.185
-460.070	259.226	0.226	-0.390
-459.055	660.429	0.067	-0.173
-458.040	398.179	-0.148	-0.310
-457.026	400.651	-0.174	-0.364
-456.011	139.289	-0.293	-0.385
-454.997	-89.510	0.359	0.105
-453.982	-54.264	-0.332	0.150
-452.968	72.604	0.117	-0.122
-451.953	-111.624	0.143	0.029
-450.938	-200.000	-0.017	-0.168
-449.924	124.155	-0.218	-0.274
-448.909	46.661	-0.373	0.346
-447.895	48.639	0.324	0.303
-446.880	-12.344	-0.133	0.087
-445.865	793.961	-0.040	-0.110
-444.851	-104.900	-0.164	0.037
-443.836	-200.000	-0.004	-0.154
-442.822	633.441	0.087	-0.221
-441.807	-200.000	0.046	0.388
-440.792	63.520	0.159	0.159
-439.778	60.894	0.315	-0.312
-438.763	-49.958	0.199	0.094
-437.749	444.305	0.114	0.249
-436.734	114.449	-0.090	-0.110
-435.719	-133.562	-0.291	0.036
-434.705	-200.000	-0.023	-0.369
-433.690	-176.135	-0.434	-0.011
-432.676	-26.257	0.266	0.156
-431.661	-16.685	-0.291	-0.184
-430.646	235.606	0.151	0.249
-429.632	546.380	0.110	-0.263
-428.617	-200.000	-0.030	0.167
-427.603	45.331	-0.354	-0.326
-426.588	800.000	-0.079	0.291
-425.573	-125.207	-0.049	0.007
-424.559	157.485	-0.228	0.315
-423.544	206.790	-0.167	0.260
-422.530	176.343	-0.113	0.163
-421.515	-151.791	0.089	-0.007
-420.500	180.773	0.229	0.335
-419.486	49.327	0.184	0.173
-418.471	-200.000	0.075	0.349
-417.457	-109.540	0.143	-0.030
-416.442	-82.465	0.323	0.104
-415.428	-94.372	-0.279	-0.076
-414.413	50.148	-0.194	0.183
-413.398	-49.301	-0.197	-0.094
-412.384	130.262	0.084	-0.107
-411.369	800.000	0.069	0.199
-410.355	107.141	-0.232	-0.274
-409.340	-167.440	0.185	-0.007
-408.325	-200.000	0.005	-0.031
-407.311	-200.000	-0.295	0.001
-406.296	-112.212	0.302	-0.060
-405.282	-200.000	0.019	0.300
-404.267	-200.000	0.008	-0.103
-403.252	82.670	-0.099	-0.107
-402.238	800.000	-0.025	0.084
-401.223	60.989	0.125	-0.123
-400.209	800.000	0.120	-0.403
-399.194	800.000	0.017	0.060
-398.179	-56.974	-0.266	0.117
-397.165	34.762	-0.122	0.106
-396.150	-200.000	-0.018	0.255
-395.136	497.863	-0.254	0.582
-394.121	-185.006	0.453	0.007
-393.106	-68.708	-0.280	0.108
-392.092	351.755	-0.194	-0.382
-391.077	363.093	0.074	0.149
-390.063	800.000	-0.041	0.171
-389.048	-147.234	-0.040	0.003
-388.033	514.046	-0.080	-0.187
-387.019	-79.367	0.021	-0.007
-386.004	369.319	0.225	-0.453
-384.990	527.688	-0.150	-0.351
-383.975	361.566	0.097	-0.194
-382.960	32.330	-0.118	0.101
-381.946	115.030	-0.095	0.116
-380.931	-11.762	-0.278	-0.181
-379.917	-57.438	0.224	0.098
-378.902	-41.556	-0.107	-0.055
-377.888	-91.139	-0.079	0.023
-376.873	46.716	-0.068	0.063
-375.858	-145.651	-0.095	0.008
-374.844	65.731	0.183	-0.185
-373.829	800.000	-0.035	-0.133
-372.815	149.342	-0.154	0.208
-371.800	372.864	-0.066	0.133
-370.785	-27.381	-0.227	-0.131
-369.771	-200.000	-0.013	0.208
-368.756	800.000	-0.160	0.467
-367.742	-62.814	-0.174	0.072
-366.727	-161.586	-0.061	-0.003
-365.712	-106.204	-0.158	0.035
-364.698	-98.808	0.104	0.026
-363.683	-200.000	-0.060	0.315
-362.669	171.172	0.114	-0.162
-361.654	-111.220	0.280	0.057
-360.639	202.686	-0.020	-0.031
-359.625	-63.053	-0.084	0.035
-358.610	467.995	0.126	0.281
-357.596	-23.655	0.193	-0.115
-356.581	-94.122	-0.259	-0.071
-355.566	-143.075	0.519	-0.050
-354.552	-38.480	0.199	0.105
-353.537	335.103	-0.057	0.109
-352.523	167.805	0.115	-0.163
-351.508	104.021	-0.148	-0.173
-350.493	-181.195	0.135	0.003
-349.479	37.034	0.111	-0.098
-348.464	-200.000	-0.036	0.200
-347.450	158.536	-0.102	-0.141
-346.435	-159.258	-0.372	0.021
-345.420	800.000	-0.012	-0.035
-344.406	465.139	0.054	-0.119
-343.391	-200.000	-0.012	0.301
-342.377	-99.671	-0.091	0.023
-341.362	-83.859	-0.203	-0.064
-340.348	-54.997	0.238	-0.107
-339.333	-168.419	-0.125	-0.005
-338.318	201.268	0.093	0.143
-337.304	11.259	-0.164	0.125
-336.289	-9.259	-0.172	0.114
-335.275	-146.286	0.128	-0.011
-334.260	609.268	0.050	0.125
-333.245	-60.663	-0.221	-0.093
-332.231	-35.013	0.333	-0.181
-331.216	-200.000	-0.011	-0.146
-330.202	800.000	-0.099	0.351
-329.187	-71.956	0.139	-0.051
-328.172	-50.172	0.083	0.039
-327.158	42.769	0.218	0.197
-326.143	375.472	0.083	0.169
-325.129	0.410	0.382	0.271
-324.114	393.652	-0.116	-0.241
-323.099	371.489	-0.114	0.230
-322.085	-139.661	0.080	0.008
-321.070	-109.983	-0.240	0.050
-320.056	-15.601	-0.114	-0.072
-319.041	-109.801	0.110	0.023
-318.026	800.000	0.059	-0.191
-317.012	133.081	0.080	-0.102
-315.997	-94.525	-0.205	0.055
-314.983	-200.000	-0.029	0.274
-313.968	-200.000	-0.026	0.128
-312.953	112.230	-0.090	-0.109
-311.939	-200.000	-0.024	-0.165
-310.924	105.323	-0.147	0.172
-309.910	-132.714	0.216	0.027
-308.895	800.000	-0.060	0.227
-307.880	11.650	0.440	-0.335
-306.866	208.522	0.093	0.144
-305.851	508.126	0.156	0.360
-304.837	150.482	0.125	0.169
-303.822	644.123	0.045	0.114
-302.807	249.247	0.027	-0.045
-301.793	687.155	-0.058	-0.150
-300.778	-70.293	-0.368	-0.139
-299.764	800.000	-0.033	-0.094
-298.749	266.835	-0.199	-0.345
-297.735	-182.429	-0.299	-0.005
-296.720	-87.359	0.219	0.066
-295.705	118.325	-0.093	0.114
-294.691	192.919	0.102	0.153
-293.676	-79.814	0.138	-0.046
-292.662	-82.655	-0.080	-0.026
-291.647	-172.154	0.186	0.006
-290.632	-18.007	-0.158	0.098
-289.618	288.767	-0.080	-0.144
-288.603	-142.878	-0.152	-0.015
-287.589	-200.000	0.055	-0.349
-286.574	383.682	0.122	0.248
-285.559	-28.757	-0.196	0.112
-284.545	-109.598	0.230	0.048
-283.530	-5.126	0.215	0.147
-282.516	-200.000	0.012	0.065
-281.501	-25.151	-0.137	-0.081
-280.486	-32.606	0.196	0.108
-279.472	-74.764	-0.317	-0.113
-278.457	-84.645	-0.152	-0.048
-277.443	-135.165	0.165	0.020
-276.428	388.572	0.075	-0.155
-275.413	116.758	-0.224	-0.272
-274.399	150.729	0.128	-0.172
-273.384	-55.861	-0.300	-0.133
-272.370	-54.386	0.178	-0.080
-271.355	800.000	-0.067	0.243
-270.340	605.052	0.078	-0.192
-269.326	-94.038	-0.197	0.054
-268.311	111.985	-0.074	-0.088
-267.297	-78.559	0.210	-0.071
-266.282	12.266	-0.362	0.276
-265.267	19.369	0.115	-0.092
-264.253	531.360	0.049	0.114
-263.238	-200.000	-0.011	-0.060
-262.224	-200.000	-0.027	-0.241
-261.209	46.446	-0.231	0.212
-260.195	-27.734	-0.078	0.045
-259.180	800.000	0.071	0.307
-258.165	19.939	0.034	0.027
-257.151	800.000	-0.046	-0.165
-256.136	-60.432	-0.154	0.065
-255.122	106.493	0.078	-0.091
-254.107	80.282	0.122	0.130
-253.092	-200.000	-0.024	-0.312
-252.078	800.000	0.165	0.473
-251.063	-91.182	0.148	0.042
-250.049	-105.376	0.262	0.059
-249.034	-87.484	0.439	0.132
-248.019	-160.690	-0.319	-0.017
-247.005	-140.357	0.152	0.016
-245.990	89.237	-0.082	-0.091
-244.976	-200.000	-0.022	0.141
-243.961	-60.390	-0.160	0.067
-242.946	131.105	0.209	-0.266
-241.932	-58.965	0.180	-0.077
-240.917	-99.387	0.203	-0.051
-239.903	-200.000	-0.002	-0.276
-238.888	-81.520	0.337	-0.110
-237.873	366.614	-0.044	0.088
-236.859	-62.958	0.214	-0.088
-235.844	-144.171	-0.347	0.032
-234.830	-184.990	0.172	0.003
-233.815	-76.227	-0.187	-0.065
-232.800	-200.000	-0.017	0.347
-231.786	117.409	0.060	0.073
-230.771	-176.522	0.191	-0.005
-229.757	5.521	0.252	-0.184
-228.742	2.606	0.173	-0.124
-227.727	800.000	-0.068	0.210
-226.713	308.608	0.100	-0.185
-225.698	-128.241	-0.128	-0.018
-224.684	155.896	0.179	0.244
-223.669	-200.000	0.065	-0.323
-222.655	-86.258	-0.153	0.047
-221.640	213.144	0.096	0.150
-220.625	-129.543	-0.217	-0.030
-219.611	697.654	0.014	-0.037
-218.596	198.776	-0.120	0.182
-217.582	181.504	-0.086	0.125
-216.567	-168.890	0.327	0.012
-215.552	68.182	-0.172	0.175
-214.538	-134.798	0.244	-0.029
-213.523	-153.978	0.082	-0.006
-212.509	-31.482	0.124	-0.069
-211.494	112.878	-0.087	0.104
-210.479	800.000	-0.043	0.173
-209.465	319.687	0.067	-0.127
-208.450	743.893	-0.052	-0.139
-207.436	-26.844	0.200	-0.115
-206.421	63.712	-0.146	0.145
-205.406	567.379	0.103	-0.247
-204.392	-200.000	0.010	0.213
-203.377	-115.567	0.154	-0.029
-202.363	-173.422	-0.342	-0.010
-201.348	-117.101	-0.280	-0.050
-200.333	336.818	0.072	0.138
-199.319	116.027	0.200	0.242
-198.304	262.794	-0.192	0.330
-197.290	-198.179	-0.201	0.001
-196.275	-20.781	0.084	-0.051
-195.260	41.517	0.121	-0.109
-194.246	25.446	-0.231	0.190
-193.231	-117.561	-0.391	-0.070
-192.217	-200.000	-0.082	0.605
-191.202	-68.925	-0.291	0.111
-190.187	-27.407	-0.262	0.150
-189.173	-200.000	0.029	-0.183
-188.158	-2.947	-0.284	0.196
-187.144	405.086	-0.063	0.131
-186.129	181.121	-0.076	0.111
-185.114	170.088	0.137	-0.194
-184.100	-32.294	-0.266	-0.147
-183.085	800.000	0.087	0.307
-182.071	800.000	-0.049	0.141
-181.056	-44.137	-0.116	-0.058
-180.042	-97.128	0.447	-0.115
-179.027	27.119	0.230	-0.191
-178.012	657.468	0.018	-0.045
-176.998	-66.528	-0.163	-0.064
-175.983	-72.954	-0.042	-0.015
-174.969	-120.660	-0.073	0.012
-173.954	-77.746	0.211	0.072
-172.939	528.244	-0.114	-0.266
-171.925	-200.000	0.034	-0.352
-170.910	241.890	0.211	0.348
-169.896	-172.408	0.132	-0.004
-168.881	724.372	-0.072	-0.189
-167.866	-200.000	-0.525	-0.002
-166.852	-15.889	-0.049	0.031
-165.837	-111.532	-0.058	0.012
-164.823	-81.178	0.372	0.121
-163.808	-200.000	0.017	0.146
-162.793	73.672	0.158	0.163
-161.779	298.458	0.091	-0.166
-160.764	800.000	0.012	0.039
-159.750	-7.530	-0.073	0.048
-158.735	69.246	-0.146	0.148
-157.720	-42.572	-0.037	0.019
-156.706	9.206	0.093	0.069
-155.691	31.621	-0.109	0.093
-154.677	-75.740	0.371	-0.130
-153.662	-148.056	0.210	0.017
-152.647	-2.540	0.325	0.224
-151.633	-200.000	-0.017	-0.232
-150.618	27.963	-0.158	-0.131
-149.604	88.082	0.246	0.269
-148.589	-200.000	-0.011	-0.083
-147.574	99.705	-0.234	0.267
-146.560	-200.000	0.013	0.168
-145.545	-46.802	0.233	-0.112
-144.531	24.956	-0.275	0.225
-143.516	-200.000	0.044	-0.315
-142.502	-83.488	0.230	0.073
-141.487	-200.000	0.013	0.116
-140.472	-33.631	-0.224	-0.122
-139.458	-200.000	-0.010	0.227
-138.443	800.000	0.030	0.107
-137.429	-108.860	-0.303	0.064
-136.414	-79.612	0.135	0.045
-135.399	186.817	0.159	-0.233
-134.385	363.237	0.034	-0.066
-133.370	-133.806	-0.656	-0.080
-132.356	-123.431	-0.358	0.056
-131.341	-49.582	0.219	0.103
-130.326	165.441	-0.206	0.287
-129.312	209.508	0.087	-0.134
-128.297	-148.852	0.342	-0.027
-127.283	-44.966	0.273	-0.134
-126.268	-108.108	-0.137	-0.029
-125.253	698.062	0.091	0.237
-124.239	-200.000	0.040	0.212
-123.224	-82.651	0.158	0.051
-122.210	546.495	0.129	-0.305
