DTS Sentinel unit serial number:	SN413079Multiplexer serial number:	ORYXHardware model number:	OX4-SRSoftware version number:	ORYX F/W v4.00 Oryx Data Collector v3.7.2.0data status	okinstallation	princeton_trtdifferential loss correction	single-endedforward channel	channel 4reverse channel	N/Adate	2019/09/15time	13:41:35forward acquisition time	60.00reverse acquisition time	0.00gamma	496.2192k internal	0.2290k external	0.2290temperature offset calibration	0.9994default loss term (dB/km)	0.3790temperature slope calibration	1.0000multiplexer offset coefficient	1.0000multiplexer slope coefficient	1.0000fibre end	0.00T internal ref (°C)	37.91T ext. ref 1 (°C)	4.86T ext. ref 2 (°C)	35.13length (m)	temperature (°C)	Stokes	anti-Stokes-747.200	-78.063	-0.245	0.086
-746.185	94.995	-0.150	0.175
-745.171	131.899	-0.191	0.252
-744.156	-200.000	-0.010	0.158
-743.142	87.306	-0.109	0.124
-742.127	-79.565	0.192	0.067
-741.112	305.225	-0.105	0.200
-740.098	200.044	-0.032	-0.051
-739.083	-63.697	0.055	-0.023
-738.069	800.000	0.062	-0.197
-737.054	-14.643	0.209	-0.138
-736.039	-91.489	-0.162	0.047
-735.025	392.817	0.161	-0.343
-734.010	63.013	-0.313	-0.321
-732.996	800.000	-0.020	-0.072
-731.981	-1.778	-0.123	0.088
-730.966	-200.000	-0.009	0.202
-729.952	334.478	-0.015	0.030
-728.937	-73.212	-0.204	-0.076
-727.923	60.460	0.297	-0.301
-726.908	-200.000	0.000	-0.022
-725.894	-53.487	-0.214	0.100
-724.879	20.894	-0.180	-0.149
-723.864	-169.551	0.072	-0.003
-722.850	684.023	-0.144	-0.384
-721.835	-200.000	0.044	-0.332
-720.821	473.268	0.067	0.155
-719.806	-46.075	0.443	-0.223
-718.791	287.147	0.046	0.085
-717.777	-200.000	-0.022	-0.481
-716.762	-72.139	-0.247	-0.094
-715.748	-151.924	-0.137	0.010
-714.733	-33.636	0.033	-0.019
-713.718	-7.222	0.168	-0.117
-712.704	91.680	0.120	-0.138
-711.689	-81.778	-0.115	-0.039
-710.675	-86.426	-0.105	-0.033
-709.660	278.913	0.096	-0.176
-708.645	-115.790	0.023	0.004
-707.631	273.324	0.094	0.170
-706.616	117.013	-0.019	0.024
-705.602	-200.000	0.018	-0.210
-704.587	-34.219	-0.038	-0.021
-703.572	9.374	0.028	-0.022
-702.558	800.000	-0.042	-0.148
-701.543	-200.000	0.219	0.000
-700.529	693.061	-0.078	-0.209
-699.514	-88.278	-0.193	0.059
-698.499	207.019	0.066	0.105
-697.485	-200.000	0.057	-0.435
-696.470	-155.059	-0.174	-0.012
-695.456	563.003	-0.057	0.141
-694.441	-54.162	0.143	-0.066
-693.426	150.080	-0.169	-0.235
-692.412	800.000	-0.032	0.116
-691.397	-189.769	-0.253	0.003
-690.383	800.000	-0.033	0.128
-689.368	24.184	0.239	-0.201
-688.354	445.900	0.094	-0.211
-687.339	-22.936	-0.223	0.137
-686.324	-80.204	-0.182	0.062
-685.310	16.845	0.168	0.136
-684.295	43.176	-0.064	-0.060
-683.281	-119.846	-0.183	0.032
-682.266	139.082	-0.079	0.106
-681.251	32.423	-0.340	-0.301
-680.237	138.599	-0.134	0.180
-679.222	-46.486	0.137	0.068
-678.208	-200.000	-0.005	0.032
-677.193	-90.599	-0.088	-0.026
-676.178	-166.201	-0.134	0.006
-675.164	155.305	-0.126	0.177
-674.149	435.990	-0.028	-0.063
-673.135	-39.419	0.126	0.068
-672.120	71.781	-0.141	-0.150
-671.105	-76.019	0.312	0.113
-670.091	-80.181	-0.138	0.047
-669.076	5.765	0.084	0.063
-668.062	-200.000	-0.005	-0.205
-667.047	205.559	-0.092	0.146
-666.032	-96.851	0.079	-0.021
-665.018	-187.481	-0.327	-0.004
-664.003	-24.226	-0.261	-0.159
-662.989	-32.875	-0.231	-0.131
-661.974	586.160	-0.119	0.300
-660.959	3.295	0.049	0.036
-659.945	516.408	0.073	-0.174
-658.930	441.805	0.019	-0.042
-657.916	800.000	-0.059	-0.229
-656.901	-200.000	-0.005	-0.176
-655.886	416.791	0.051	-0.110
-654.872	800.000	-0.067	0.230
-653.857	-200.000	0.112	0.636
-652.843	-200.000	0.022	0.230
-651.828	-15.344	0.207	-0.135
-650.814	-64.985	0.335	0.138
-649.799	519.125	0.089	-0.213
-648.784	393.340	0.082	0.174
-647.770	355.398	-0.073	-0.147
-646.755	-93.241	-0.151	-0.043
-645.741	469.257	0.081	0.185
-644.726	800.000	0.059	-0.182
-643.711	-200.000	-0.010	0.287
-642.697	-200.000	0.042	-0.241
-641.682	209.784	0.079	0.126
-640.668	-72.800	-0.252	-0.095
-639.653	135.397	0.099	-0.132
-638.638	9.843	0.207	0.160
-637.624	-142.125	0.386	-0.039
-636.609	-80.887	0.251	0.085
-635.595	-112.284	0.157	0.032
-634.580	739.155	0.050	0.137
-633.565	-151.155	-0.023	0.002
-632.551	-200.000	0.019	0.243
-631.536	24.461	-0.104	0.088
-630.522	25.703	-0.164	-0.139
-629.507	281.666	-0.063	0.116
-628.492	183.630	0.239	-0.361
-627.478	1.692	-0.073	-0.053
-626.463	157.003	-0.157	0.221
-625.449	-19.983	0.113	0.071
-624.434	160.329	0.056	-0.080
-623.419	18.058	0.062	-0.050
-622.405	-163.469	0.235	0.011
-621.390	29.655	-0.115	0.100
-620.376	457.827	-0.146	0.332
-619.361	-200.000	-0.015	0.241
-618.346	164.079	0.032	0.046
-617.332	800.000	0.034	-0.138
-616.317	175.545	0.126	0.186
-615.303	-118.271	0.375	0.068
-614.288	-200.000	0.010	0.265
-613.273	-86.692	-0.288	0.090
-612.259	244.091	-0.049	-0.085
-611.244	-60.612	0.300	0.130
-610.230	40.990	0.123	0.113
-609.215	-25.334	-0.304	-0.183
-608.201	-47.938	0.185	0.091
-607.186	-200.000	0.016	-0.109
-606.171	-200.000	0.020	-0.167
-605.157	800.000	-0.110	0.323
-604.142	12.003	-0.161	-0.126
-603.128	-128.687	0.356	0.051
-602.113	196.885	0.072	0.111
-601.098	-112.263	0.122	0.025
-600.084	-181.232	0.183	0.004
-599.069	44.967	0.403	0.378
-598.055	-200.000	0.008	0.073
-597.040	148.241	0.134	-0.184
-596.025	119.085	0.099	-0.125
-595.011	161.777	-0.237	-0.338
-593.996	-63.332	0.229	-0.096
-592.982	258.599	0.152	0.266
-591.967	329.657	0.090	-0.177
-590.952	347.591	-0.073	-0.147
-589.938	800.000	0.053	0.201
-588.923	-42.517	-0.184	-0.096
-587.909	322.471	0.049	-0.095
-586.894	2.041	0.367	0.270
-585.879	139.388	-0.063	-0.084
-584.865	-90.663	0.184	-0.054
-583.850	-200.000	0.004	-0.306
-582.836	-151.325	0.305	0.023
-581.821	37.368	0.105	0.095
-580.806	423.748	-0.044	0.097
-579.792	-200.000	0.012	0.089
-578.777	-13.988	0.040	0.026
-577.763	102.810	0.132	0.157
-576.748	-93.780	-0.228	0.064
-575.733	116.716	0.197	-0.246
-574.719	6.187	-0.100	0.075
-573.704	-117.571	0.023	-0.004
-572.690	783.011	-0.081	0.225
-571.675	-45.501	0.112	-0.056
-570.661	350.913	0.036	0.073
-569.646	408.311	0.121	-0.260
-568.631	23.598	-0.304	-0.255
-567.617	9.647	-0.202	-0.156
-566.602	273.827	-0.088	-0.158
-565.588	-53.959	-0.167	-0.077
-564.573	362.701	-0.049	0.101
-563.558	228.080	-0.090	0.150
-562.544	50.797	-0.097	0.093
-561.529	59.087	0.200	-0.201
-560.515	81.256	-0.137	-0.150
-559.500	-30.403	-0.197	-0.114
-558.485	32.579	0.125	-0.110
-557.471	-200.000	-0.004	-0.071
-556.456	-10.076	0.159	-0.107
-555.442	553.770	-0.139	0.340
-554.427	-71.326	-0.216	-0.082
-553.412	44.760	-0.254	-0.237
-552.398	-162.865	-0.599	0.030
-551.383	-26.295	0.110	0.066
-550.369	800.000	-0.058	0.236
-549.354	-67.124	0.203	-0.081
-548.339	-28.073	0.055	-0.033
-547.325	-18.455	0.061	0.039
-546.310	118.261	0.080	0.100
-545.296	-200.000	0.027	-0.207
-544.281	3.331	0.141	-0.105
-543.266	-200.000	-0.031	-0.237
-542.252	-200.000	0.019	-0.208
-541.237	743.736	0.051	0.141
-540.223	-55.361	0.060	0.028
-539.208	223.251	0.111	-0.182
-538.193	-200.000	-0.046	0.262
-537.179	596.768	0.071	0.180
-536.164	-200.000	-0.039	0.286
-535.150	-13.863	-0.288	0.189
-534.135	-200.000	-0.016	-0.143
-533.121	8.895	0.164	0.126
-532.106	-200.000	0.029	-0.131
-531.091	-40.984	0.185	0.097
-530.077	79.732	0.064	0.070
-529.062	-96.026	0.070	-0.019
-528.048	-100.857	0.245	-0.061
-527.033	-200.000	0.039	-0.352
-526.018	-200.000	-0.018	-0.353
-525.004	-74.456	-0.132	0.048
-523.989	-51.553	-0.251	0.119
-522.975	-200.000	0.020	-0.239
-521.960	-25.355	0.265	0.159
-520.945	-200.000	-0.008	0.096
-519.931	183.243	0.081	-0.121
-518.916	-118.649	-0.286	0.051
-517.902	149.345	-0.294	-0.404
-516.887	697.201	0.176	-0.470
-515.872	-39.579	-0.322	-0.171
-514.858	-22.475	-0.195	0.120
-513.843	-16.928	-0.136	0.087
-512.829	-130.635	0.080	0.011
-511.814	-47.744	0.320	-0.157
-510.799	158.869	-0.262	-0.369
-509.785	-60.755	-0.114	0.049
-508.770	-81.733	0.273	-0.091
-507.756	167.405	0.114	0.165
-506.741	-72.551	-0.108	0.041
-505.726	17.873	-0.274	-0.221
-504.712	-58.315	-0.195	0.086
-503.697	-30.372	-0.327	0.189
-502.683	142.270	0.089	-0.120
-501.668	117.508	0.074	0.093
-500.653	297.147	0.037	-0.069
-499.639	-195.825	0.223	-0.002
-498.624	387.667	0.206	-0.432
-497.610	800.000	0.089	-0.348
-496.595	590.785	-0.014	0.034
-495.581	-54.755	-0.187	-0.086
-494.566	377.021	-0.108	0.223
-493.551	280.590	-0.139	0.251
-492.537	52.791	-0.190	0.185
-491.522	706.000	-0.066	0.177
-490.508	800.000	-0.089	-0.337
-489.493	-27.733	0.164	-0.096
-488.478	-86.917	-0.358	0.111
-487.464	-15.723	-0.041	0.027
-486.449	-87.561	-0.209	0.064
-485.435	-132.288	-0.334	0.044
-484.420	120.370	-0.121	0.152
-483.405	-167.911	0.301	-0.012
-482.391	5.864	-0.241	-0.181
-481.376	501.367	0.073	-0.170
-480.362	100.787	-0.324	-0.381
-479.347	-200.000	0.065	0.000
-478.332	672.801	0.112	-0.293
-477.318	-135.992	0.590	0.070
-476.303	-14.579	-0.259	-0.169
-475.289	-122.745	0.249	-0.041
-474.274	-97.425	-0.264	-0.070
-473.259	370.427	-0.088	0.181
-472.245	-200.000	-0.022	-0.445
-471.230	-200.000	-0.013	-0.148
-470.216	-51.879	0.318	0.150
-469.201	354.203	-0.113	0.228
-468.186	-109.687	0.148	-0.032
-467.172	-0.896	-0.048	-0.035
-466.157	-89.974	0.337	0.100
-465.143	-128.441	0.214	0.031
-464.128	86.301	0.139	0.155
-463.113	-200.000	0.039	-0.317
-462.099	339.174	0.088	0.173
-461.084	141.300	0.174	0.234
-460.070	-103.975	-0.271	-0.064
-459.055	60.696	-0.078	0.078
-458.040	-1.306	0.432	0.309
-457.026	237.239	-0.054	0.091
-456.011	-200.000	0.027	0.177
-454.997	-94.876	-0.032	0.009
-453.982	191.992	0.177	0.270
-452.968	-200.000	-0.026	0.149
-451.953	-181.374	-0.282	0.006
-450.938	-50.283	0.238	-0.114
-449.924	-200.000	0.018	0.088
-448.909	33.122	0.249	0.218
-447.895	18.896	0.175	0.142
-446.880	174.000	-0.104	0.152
-445.865	452.978	-0.051	0.115
-444.851	-200.000	-0.039	0.305
-443.836	29.981	0.177	0.153
-442.822	800.000	0.059	-0.201
-441.807	9.687	-0.186	-0.143
-440.792	211.423	-0.028	0.045
-439.778	743.265	-0.150	-0.408
-438.763	-105.379	-0.024	0.005
-437.749	235.761	0.040	0.068
-436.734	147.898	-0.063	0.087
-435.719	-34.871	0.192	-0.106
-434.705	-200.000	0.034	-0.304
-433.690	-200.000	0.006	-0.219
-432.676	141.817	-0.229	-0.307
-431.661	210.943	0.100	-0.160
-430.646	526.305	-0.067	-0.159
-429.632	-46.695	-0.209	-0.104
-428.617	288.896	0.150	0.276
-427.603	800.000	0.034	0.140
-426.588	-39.805	-0.156	0.082
-425.573	-72.667	0.237	0.088
-424.559	-2.341	0.121	0.086
-423.544	800.000	-0.076	-0.280
-422.530	82.011	-0.213	-0.233
-421.515	-132.275	0.082	-0.011
-420.500	245.823	-0.046	0.078
-419.486	-72.168	-0.375	0.141
-418.471	-200.000	-0.043	-0.314
-417.457	-9.207	-0.036	0.024
-416.442	94.460	0.175	-0.201
-415.428	-94.328	0.263	0.073
-414.413	-200.000	0.076	-0.347
-413.398	12.600	0.148	0.115
-412.384	515.830	-0.105	0.249
-411.369	-42.226	0.301	0.156
-410.355	-63.184	0.184	0.077
-409.340	-85.264	0.222	-0.070
-408.325	800.000	-0.006	0.022
-407.311	27.227	-0.244	-0.207
-406.296	58.841	0.066	0.066
-405.282	11.143	0.303	-0.234
-404.267	-154.965	-0.339	0.023
-403.252	-140.600	0.205	0.021
-402.238	-30.722	-0.105	-0.060
-401.223	632.419	0.078	-0.200
-400.209	49.594	-0.107	0.102
-399.194	133.784	0.036	-0.047
-398.179	480.003	-0.051	-0.117
-397.165	249.137	-0.084	-0.143
-396.150	355.806	-0.153	-0.309
-395.136	-200.000	0.023	0.154
-394.121	267.809	0.165	-0.292
-393.106	-76.760	0.235	-0.083
-392.092	218.985	-0.022	-0.036
-391.077	-114.233	0.050	-0.010
-390.063	84.838	-0.146	0.161
-389.048	264.928	-0.080	0.140
-388.033	-200.000	0.009	0.193
-387.019	404.896	-0.111	-0.236
-386.004	212.976	0.113	0.180
-384.990	577.370	0.087	0.215
-383.975	-78.251	0.097	-0.034
-382.960	-200.000	0.006	-0.095
-381.946	-8.712	0.307	-0.208
-380.931	283.823	0.021	0.039
-379.917	800.000	0.067	-0.220
-378.902	433.871	0.013	-0.028
-377.888	-168.233	-0.239	0.009
-376.873	408.825	0.048	0.103
-375.858	-200.000	-0.020	-0.185
-374.844	-114.585	0.195	0.038
-373.829	800.000	0.100	0.319
-372.815	69.375	-0.179	0.186
-371.800	722.604	-0.110	0.297
-370.785	17.530	-0.154	0.124
-369.771	43.889	0.150	-0.138
-368.756	-200.000	0.016	-0.172
-367.742	-42.462	-0.146	-0.075
-366.727	-20.052	-0.154	-0.096
-365.712	-174.372	0.183	-0.005
-364.698	298.712	0.117	0.218
-363.683	-115.629	-0.178	-0.034
-362.669	800.000	-0.022	-0.082
-361.654	184.643	-0.038	-0.057
-360.639	-200.000	-0.005	0.216
-359.625	11.384	0.156	0.121
-358.610	-81.460	-0.492	0.163
-357.596	800.000	-0.012	0.035
-356.581	102.575	0.080	0.094
-355.566	-200.000	-0.002	-0.217
-354.552	253.652	-0.087	0.149
-353.537	-1.440	0.319	0.227
-352.523	23.514	0.137	0.114
-351.508	-148.154	0.128	-0.011
-350.493	-18.504	-0.055	-0.035
-349.479	-200.000	-0.161	0.000
-348.464	-97.390	0.285	-0.075
-347.450	-88.333	0.230	-0.069
-346.435	687.937	0.135	0.356
-345.420	9.327	0.298	0.227
-344.406	-96.348	0.419	-0.112
-343.391	-160.116	0.198	0.011
-342.377	-35.263	-0.106	0.058
-341.362	75.819	-0.271	0.288
-340.348	103.091	0.021	-0.025
-339.333	-121.648	-0.258	0.043
-338.318	648.658	-0.049	-0.126
-337.304	-112.145	0.189	-0.038
-336.289	-200.000	-0.022	0.156
-335.275	-17.865	0.163	-0.103
-334.260	8.983	0.186	-0.141
-333.245	-200.000	0.004	0.037
-332.231	113.190	0.085	-0.104
-331.216	31.396	0.229	-0.198
-330.202	-16.752	0.164	0.105
-329.187	-27.198	0.106	0.062
-328.172	-113.698	0.056	-0.011
-327.158	47.013	0.132	0.124
-326.143	-81.447	-0.069	0.023
-325.129	-200.000	0.009	-0.259
-324.114	800.000	0.073	0.309
-323.099	9.810	-0.123	-0.094
-322.085	-152.291	-0.310	0.023
-321.070	-34.897	-0.270	0.149
-320.056	-176.836	-0.320	-0.008
-319.041	123.374	0.045	0.056
-318.026	-200.000	-0.000	0.088
-317.012	167.352	-0.144	-0.206
-315.997	-159.460	-0.282	0.016
-314.983	-11.168	-0.015	0.010
-313.968	-91.108	-0.156	0.045
-312.953	450.648	-0.058	-0.128
-311.939	-19.464	-0.123	0.077
-310.924	800.000	0.031	-0.107
-309.910	-9.343	0.102	0.069
-308.895	800.000	-0.104	0.322
-307.880	-200.000	-0.002	-0.102
-306.866	-118.345	0.301	-0.054
-305.851	104.315	0.168	0.199
-304.837	-38.629	-0.322	-0.171
-303.822	39.489	0.162	0.147
-302.807	-127.870	0.197	-0.029
-301.793	276.192	0.071	-0.126
-300.778	-119.900	0.221	0.038
-299.764	-138.275	-0.138	0.015
-298.749	645.356	-0.068	0.175
-297.735	-200.000	-0.002	0.170
-296.720	120.919	0.147	-0.184
-295.705	-38.401	-0.110	-0.059
-294.691	53.794	-0.053	0.051
-293.676	-138.752	0.201	-0.022
-292.662	-46.238	-0.078	-0.039
-291.647	104.503	0.195	-0.231
-290.632	-3.290	0.082	0.058
-289.618	122.091	-0.049	0.061
-288.603	66.448	-0.274	-0.280
-287.589	35.185	0.054	0.048
-286.574	-122.383	0.220	-0.036
-285.559	476.247	-0.142	0.322
-284.545	5.148	0.248	0.184
-283.530	19.262	-0.170	0.137
-282.516	14.706	-0.068	-0.054
-281.501	800.000	0.022	-0.076
-280.486	-200.000	0.015	0.151
-279.472	800.000	-0.094	-0.275
-278.457	800.000	0.030	-0.121
-277.443	12.835	-0.303	0.235
-276.428	-77.692	0.134	-0.047
-275.413	478.940	0.142	-0.323
-274.399	505.161	-0.228	-0.532
-273.384	-2.830	0.378	0.265
-272.370	-56.951	0.193	-0.086
-271.355	-77.106	0.231	0.081
-270.340	135.799	-0.183	0.239
-269.326	247.868	-0.156	-0.265
-268.311	-107.555	-0.268	-0.059
-267.297	-104.145	0.230	0.054
-266.282	-44.205	-0.160	0.081
-265.267	-200.000	-0.053	0.282
-264.253	-28.992	0.230	0.133
-263.238	800.000	0.064	0.248
-262.224	-171.414	0.182	0.006
-261.209	138.264	0.149	-0.197
-260.195	182.366	-0.062	-0.091
-259.180	2.970	-0.100	-0.073
-258.165	-123.514	0.146	0.023
-257.151	60.982	-0.094	-0.094
-256.136	100.438	-0.231	-0.270
-255.122	36.736	-0.178	-0.158
-254.107	162.963	-0.139	-0.196
-253.092	-115.933	-0.335	0.063
-252.078	16.691	0.079	-0.063
-251.063	-200.000	-0.002	-0.134
-250.049	-200.000	-0.003	0.129
-249.034	312.375	0.079	0.149
-248.019	58.043	-0.212	-0.209
-247.005	-82.236	0.342	0.112
-245.990	298.299	0.108	-0.199
-244.976	53.855	-0.161	0.155
-243.961	-65.893	-0.064	0.026
-242.946	-85.716	-0.147	-0.046
-241.932	-58.470	-0.190	0.083
-240.917	-200.000	0.006	-0.276
-239.903	296.827	-0.147	0.270
-238.888	-59.649	-0.324	-0.140
-237.873	-68.652	0.356	-0.138
-236.859	36.165	-0.080	0.070
-235.844	-59.646	-0.151	-0.065
-234.830	-85.501	-0.315	0.098
-233.815	-11.416	-0.073	0.048
-232.800	800.000	0.057	-0.206
-231.786	149.031	0.114	-0.155
-230.771	-10.885	0.226	-0.150
-229.757	800.000	-0.079	0.278
-228.742	-100.987	0.159	-0.039
-227.727	-80.605	-0.260	-0.087
-226.713	115.799	-0.187	0.229
-225.698	313.305	0.123	0.232
-224.684	-131.855	-0.149	-0.020
-223.669	15.812	-0.254	0.200
-222.655	-24.505	-0.105	0.063
-221.640	-51.315	0.194	0.091
-220.625	-131.368	-0.288	0.038
-219.611	-200.000	0.068	0.324
-218.596	-57.998	-0.162	-0.071
-217.582	218.848	-0.068	0.109
-216.567	501.276	-0.060	-0.139
-215.552	101.393	-0.139	0.162
-214.538	800.000	-0.062	0.245
-213.523	205.235	0.096	0.150
-212.509	-116.005	-0.438	0.082
-211.494	82.825	-0.103	0.113
-210.479	-34.476	0.102	0.056
-209.465	39.085	0.175	0.157
-208.450	-106.707	0.042	-0.009
-207.436	32.828	-0.179	0.155
-206.421	800.000	-0.085	0.243
-205.406	-86.902	-0.112	0.034
-204.392	337.833	0.103	0.202
-203.377	-117.594	-0.091	0.016
-202.363	-72.963	-0.336	0.124
-201.348	-143.836	0.182	0.017
-200.333	800.000	0.056	-0.159
-199.319	163.820	-0.080	-0.112
-198.304	-133.542	0.111	0.014
-197.290	775.801	0.051	0.139
-196.275	800.000	0.020	0.078
-195.260	-23.162	-0.292	0.176
-194.246	-61.037	-0.275	0.116
-193.231	-37.912	-0.108	-0.058
-192.217	-88.413	0.124	0.037
-191.202	-188.154	-0.358	-0.005
-190.187	-200.000	-0.009	0.221
-189.173	20.848	-0.185	-0.150
-188.158	-48.751	-0.338	0.163
-187.144	800.000	0.025	0.077
-186.129	800.000	-0.032	-0.088
-185.114	800.000	-0.088	-0.337
-184.100	-133.649	-0.330	-0.041
-183.085	-169.372	0.109	0.004
-182.071	-33.589	0.098	-0.054
-181.056	144.425	-0.171	-0.229
-180.042	800.000	0.104	-0.347
-179.027	202.008	0.150	-0.232
-178.012	-200.000	-0.025	-0.209
-176.998	-143.856	-0.315	-0.030
-175.983	21.101	0.075	0.061
-174.969	800.000	0.059	-0.168
-173.954	-5.373	-0.032	-0.022
-172.939	51.943	-0.147	0.141
-171.925	-25.083	-0.275	-0.163
-170.910	65.556	0.274	-0.277
-169.896	-159.741	-0.268	0.015
-168.881	-18.413	0.180	0.113
-167.866	-82.215	0.151	0.049
-166.852	11.330	-0.127	-0.097
-165.837	-58.516	0.297	0.129
-164.823	-71.426	0.106	-0.040
-163.808	-39.385	0.339	-0.178
-162.793	-28.582	-0.072	-0.042
-161.779	89.840	0.081	0.091
-160.764	720.087	-0.025	-0.067
-159.750	-121.202	0.164	0.027
-158.735	10.400	-0.165	-0.126
-157.720	31.841	-0.258	0.222
-156.706	-200.000	0.022	0.162
-155.691	-35.810	0.046	-0.025
-154.677	366.675	-0.046	0.093
-153.662	661.287	0.032	-0.084
-152.647	114.788	-0.139	0.169
-151.633	800.000	0.081	0.336
-150.618	-22.043	-0.139	-0.084
-149.604	-5.265	0.089	0.062
-148.589	-114.530	-0.046	-0.009
-147.574	-73.695	0.098	-0.036
-146.560	800.000	0.003	-0.014
-145.545	800.000	-0.062	0.200
-144.531	800.000	0.062	0.241
-143.516	56.452	0.138	0.134
-142.502	-40.624	0.131	0.068
-141.487	26.078	0.193	-0.161
-140.472	180.173	0.031	0.045
-139.458	-200.000	-0.006	-0.039
-138.443	-200.000	-0.004	0.130
-137.429	41.602	-0.071	0.064
-136.414	114.952	-0.122	0.149
-135.399	-8.839	0.249	-0.167
-134.385	12.222	-0.067	0.052
-133.370	180.172	-0.044	0.064
-132.356	-53.582	-0.227	0.104
-131.341	183.818	-0.071	0.105
-130.326	-200.000	0.011	0.156
-129.312	440.263	0.055	-0.120
-128.297	0.060	0.342	0.244
-127.283	-147.333	0.495	-0.042
-126.268	199.768	0.158	-0.243
-125.253	-124.282	-0.229	-0.036
-124.239	800.000	-0.016	-0.062
-123.224	-99.429	-0.119	0.030
-122.210	-55.846	0.076	-0.034
-121.195	159.027	0.138	-0.192
-120.180	-200.000	-0.007	0.169
-119.166	537.257	0.091	0.217
