DTS Sentinel unit serial number:	SN413079Multiplexer serial number:	ORYXHardware model number:	OX4-SRSoftware version number:	ORYX F/W v4.00 Oryx Data Collector v3.7.2.0data status	okinstallation	princeton_trtdifferential loss correction	single-endedforward channel	channel 4reverse channel	N/Adate	2019/09/15time	17:29:35forward acquisition time	60.00reverse acquisition time	0.00gamma	496.2192k internal	0.2275k external	0.2275temperature offset calibration	0.9922default loss term (dB/km)	0.3790temperature slope calibration	1.0000multiplexer offset coefficient	1.0000multiplexer slope coefficient	1.0000fibre end	0.00T internal ref (°C)	44.81T ext. ref 1 (°C)	6.14T ext. ref 2 (°C)	40.58length (m)	temperature (°C)	Stokes	anti-Stokes-747.200	46.231	-0.104	0.100
-746.185	-101.200	-0.055	0.014
-745.171	711.327	-0.105	-0.288
-744.156	-104.727	-0.146	0.035
-743.142	-116.576	0.201	-0.038
-742.127	133.555	-0.044	0.059
-741.112	463.072	-0.095	-0.218
-740.098	-200.000	-0.025	0.561
-739.083	800.000	0.068	0.300
-738.069	532.701	-0.063	0.153
-737.054	-53.202	0.276	-0.130
-736.039	-200.000	-0.040	-0.343
-735.025	-151.410	0.184	-0.014
-734.010	369.190	-0.061	-0.128
-732.996	597.161	-0.124	-0.316
-731.981	-200.000	-0.001	-0.081
-730.966	17.646	-0.116	-0.095
-729.952	15.638	-0.074	0.060
-728.937	-72.602	0.191	0.073
-727.923	-132.889	0.177	-0.023
-726.908	800.000	0.126	-0.359
-725.894	-200.000	-0.038	-0.306
-724.879	15.402	0.142	-0.115
-723.864	10.658	-0.036	0.029
-722.850	-200.000	0.043	0.221
-721.835	-200.000	-0.001	0.174
-720.821	5.478	-0.261	0.199
-719.806	435.290	0.106	0.238
-718.791	800.000	-0.094	-0.378
-717.777	-54.391	0.062	-0.029
-716.762	-130.119	-0.095	0.013
-715.748	91.143	0.068	0.079
-714.733	-83.289	0.054	-0.018
-713.718	56.409	-0.074	-0.074
-712.704	612.333	-0.135	-0.347
-711.689	-108.449	0.008	0.002
-710.675	-200.000	0.002	-0.028
-709.660	-84.161	0.269	0.088
-708.645	800.000	0.078	0.255
-707.631	-200.000	0.038	-0.352
-706.616	9.634	-0.213	-0.166
-705.602	105.765	0.152	-0.185
-704.587	-60.686	0.287	0.125
-703.572	-108.668	0.222	0.049
-702.558	-200.000	-0.020	-0.182
-701.543	-96.263	-0.045	-0.012
-700.529	-200.000	-0.006	-0.358
-699.514	-82.603	-0.162	-0.054
-698.499	800.000	0.080	-0.328
-697.485	380.849	0.221	-0.467
-696.470	-80.552	0.382	-0.131
-695.456	800.000	-0.063	-0.278
-694.441	356.532	-0.112	0.229
-693.426	25.379	0.202	0.173
-692.412	40.039	0.060	-0.055
-691.397	237.774	-0.126	0.215
-690.383	-77.990	0.300	-0.106
-689.368	-78.637	0.183	0.064
-688.354	-101.926	-0.089	-0.022
-687.339	-200.000	0.078	-0.359
-686.324	535.525	0.054	-0.132
-685.310	56.581	-0.115	0.116
-684.295	50.649	-0.054	-0.052
-683.281	-12.150	-0.160	0.108
-682.266	425.956	-0.075	0.166
-681.251	-200.000	-0.022	0.181
-680.237	-98.974	0.368	0.096
-679.222	173.229	-0.185	0.274
-678.208	160.098	-0.169	0.242
-677.193	70.512	-0.040	-0.043
-676.178	133.364	-0.118	-0.157
-675.164	-133.789	-0.177	-0.023
-674.149	800.000	-0.065	-0.254
-673.135	2.852	-0.055	-0.041
-672.120	-173.499	0.048	0.001
-671.105	9.758	-0.134	0.105
-670.091	158.246	0.020	-0.029
-669.076	16.926	-0.049	-0.040
-668.062	119.343	-0.037	-0.047
-667.047	-16.619	-0.030	0.020
-666.032	465.820	0.104	-0.239
-665.018	46.584	0.147	0.140
-664.003	318.125	-0.072	-0.140
-662.989	135.718	0.121	0.162
-661.974	-179.732	0.397	-0.009
-660.959	800.000	0.053	-0.170
-659.945	-200.000	-0.018	-0.153
-658.930	-123.620	-0.138	0.023
-657.916	-75.480	0.049	-0.018
-656.901	4.567	-0.262	-0.198
-655.886	-27.485	-0.152	-0.091
-654.872	-200.000	0.044	0.412
-653.857	200.637	-0.188	0.298
-652.843	135.734	-0.065	0.086
-651.828	477.731	0.140	-0.327
-650.814	203.090	0.125	0.198
-649.799	-42.717	-0.031	0.016
-648.784	206.206	-0.133	-0.212
-647.770	235.975	-0.114	0.194
-646.755	6.717	-0.052	0.040
-645.741	640.013	-0.151	-0.395
-644.726	277.148	-0.117	0.213
-643.711	25.163	-0.210	0.179
-642.697	28.944	0.276	-0.240
-641.682	785.446	0.128	0.361
-640.668	709.027	-0.017	-0.047
-639.653	-156.131	-0.304	0.020
-638.638	327.638	-0.089	-0.175
-637.624	-104.308	-0.165	0.039
-636.609	-109.167	0.327	0.071
-635.595	800.000	0.080	0.246
-634.580	-21.519	-0.202	0.127
-633.565	-33.462	0.247	-0.140
-632.551	443.108	-0.072	-0.162
-631.536	-7.842	0.099	0.068
-630.522	-168.908	0.551	0.021
-629.507	-200.000	0.011	-0.387
-628.492	-90.404	-0.233	0.069
-627.478	96.611	-0.160	-0.188
-626.463	-104.796	0.131	-0.031
-625.449	-170.302	-0.324	0.012
-624.434	-48.163	0.091	0.045
-623.419	-25.162	-0.041	0.025
-622.405	-138.300	-0.134	-0.015
-621.390	166.528	-0.169	0.245
-620.376	-110.411	-0.107	-0.023
-619.361	-97.714	0.210	0.056
-618.346	261.098	-0.141	0.251
-617.332	155.003	-0.084	0.119
-616.317	126.229	0.125	0.163
-615.303	-182.247	0.189	0.004
-614.288	-113.957	0.271	-0.054
-613.273	-117.949	0.250	-0.046
-612.259	-131.015	0.304	-0.042
-611.244	765.819	0.110	0.306
-610.230	104.652	-0.177	-0.214
-609.215	-64.582	-0.316	-0.132
-608.201	-143.682	-0.222	-0.022
-607.186	18.984	0.079	0.065
-606.171	-4.674	0.173	-0.122
-605.157	196.912	-0.178	-0.278
-604.142	172.148	-0.148	-0.219
-603.128	-133.360	0.255	-0.033
-602.113	9.925	0.098	-0.076
-601.098	-200.000	0.057	0.310
-600.084	97.537	-0.157	-0.184
-599.069	-75.045	-0.099	-0.036
-598.055	-179.826	-0.277	-0.006
-597.040	-76.814	-0.303	0.109
-596.025	148.271	-0.135	-0.186
-595.011	-200.000	0.009	0.092
-593.996	67.405	0.027	0.028
-592.982	-129.064	0.060	0.009
-591.967	-166.116	0.269	-0.012
-590.952	800.000	0.066	0.190
-589.938	5.582	0.090	-0.068
-588.923	-75.479	0.014	0.005
-587.909	-128.382	-0.204	-0.030
-586.894	-117.744	0.209	0.038
-585.879	-92.011	-0.133	-0.038
-584.865	-43.867	-0.148	-0.077
-583.850	207.213	0.234	0.374
-582.836	-200.000	0.053	0.303
-581.821	42.162	0.149	0.139
-580.806	-62.319	-0.155	-0.066
-579.792	46.111	0.088	-0.084
-578.777	274.074	0.090	0.164
-577.763	-200.000	-0.006	-0.063
-576.748	-29.639	-0.247	0.144
-575.733	-200.000	0.017	-0.225
-574.719	-166.428	0.129	0.006
-573.704	603.054	0.016	0.042
-572.690	139.395	0.153	0.207
-571.675	1.963	-0.137	0.101
-570.661	-55.759	-0.186	0.085
-569.646	130.850	0.121	0.160
-568.631	800.000	-0.020	0.073
-567.617	72.889	-0.050	-0.054
-566.602	-89.655	-0.408	-0.123
-565.588	-111.559	-0.213	-0.044
-564.573	-200.000	0.001	-0.310
-563.558	27.674	-0.250	-0.216
-562.544	-60.406	0.324	-0.141
-561.529	800.000	-0.011	-0.049
-560.515	-27.628	0.264	-0.157
-559.500	108.028	0.173	-0.211
-558.485	-4.051	-0.110	0.078
-557.471	-26.017	0.247	0.149
-556.456	-200.000	0.011	0.063
-555.442	67.720	-0.049	-0.051
-554.427	-79.098	0.093	-0.032
-553.412	800.000	0.132	0.450
-552.398	-89.890	0.165	-0.049
-551.383	15.073	0.154	-0.124
-550.369	-175.701	-0.094	0.003
-549.354	9.983	-0.138	0.107
-548.339	-125.926	0.139	0.021
-547.325	-85.509	-0.160	-0.051
-546.310	-42.655	-0.361	-0.188
-545.296	89.440	0.052	0.060
-544.281	143.380	-0.235	0.320
-543.266	800.000	0.043	0.123
-542.252	125.736	-0.125	0.162
-541.237	-200.000	0.069	0.324
-540.223	-85.728	0.186	0.059
-539.208	-122.335	0.241	0.040
-538.193	-144.142	0.049	-0.005
-537.179	-200.000	-0.011	-0.153
-536.164	-182.564	-0.122	0.002
-535.150	356.804	0.072	0.146
-534.135	-135.206	-0.058	0.007
-533.121	171.627	0.165	-0.242
-532.106	-200.000	-0.018	-0.141
-531.091	649.753	0.095	0.250
-530.077	-9.085	0.024	-0.017
-529.062	-62.904	0.290	-0.122
-528.048	307.031	-0.112	-0.213
-527.033	-200.000	0.021	-0.282
-526.018	43.482	0.073	0.068
-525.004	800.000	0.105	-0.367
-523.989	28.244	0.085	-0.074
-522.975	474.206	-0.127	0.293
-521.960	-200.000	-0.008	-0.047
-520.945	246.786	-0.138	-0.237
-519.931	701.601	-0.034	0.092
-518.916	-137.123	0.528	0.062
-517.902	-200.000	-0.005	0.038
-516.887	174.044	0.154	-0.228
-515.872	-43.865	0.189	-0.097
-514.858	-140.455	0.173	0.018
-513.843	4.446	0.121	0.091
-512.829	-106.896	0.154	-0.035
-511.814	12.392	0.300	-0.236
-510.799	-27.288	0.200	0.119
-509.785	-0.904	-0.270	0.196
-508.770	-81.255	0.088	-0.030
-507.756	-37.896	-0.059	0.032
-506.741	92.328	0.159	-0.183
-505.726	-47.105	0.017	-0.009
-504.712	40.915	-0.129	0.119
-503.697	-74.251	-0.105	0.039
-502.683	532.133	0.118	-0.285
-501.668	-200.000	0.061	-0.544
-500.653	342.699	0.195	-0.390
-499.639	-94.121	-0.240	0.067
-498.624	143.151	-0.110	0.149
-497.610	21.964	0.270	0.225
-496.595	132.425	-0.110	0.144
-495.581	-200.000	0.075	-0.376
-494.566	-52.619	-0.275	0.130
-493.551	29.656	0.081	-0.071
-492.537	126.311	-0.197	-0.255
-491.522	-3.880	-0.096	0.068
-490.508	-200.000	0.034	-0.186
-489.493	-53.440	-0.154	-0.072
-488.478	-83.421	0.012	-0.004
-487.464	92.125	0.253	0.290
-486.449	79.134	-0.109	-0.120
-485.435	-15.855	-0.114	-0.074
-484.420	800.000	-0.030	-0.109
-483.405	389.606	-0.065	0.138
-482.391	-143.206	0.142	-0.014
-481.376	-200.000	0.027	-0.380
-480.362	-74.778	-0.023	-0.008
-479.347	-200.000	-0.006	-0.116
-478.332	-200.000	0.005	-0.267
-477.318	30.734	-0.127	0.111
-476.303	453.387	0.100	-0.225
-475.289	-123.542	0.362	0.059
-474.274	-48.721	0.198	-0.097
-473.259	-40.200	-0.409	-0.217
-472.245	120.516	-0.192	0.244
-471.230	800.000	0.062	-0.243
-470.216	-200.000	-0.014	0.123
-469.201	-200.000	0.039	0.241
-468.186	46.207	-0.089	-0.084
-467.172	76.591	0.107	-0.116
-466.157	-200.000	-0.030	0.226
-465.143	-200.000	0.051	0.361
-464.128	15.224	-0.322	0.257
-463.113	321.908	0.086	0.166
-462.099	411.576	-0.138	-0.299
-461.084	800.000	0.023	-0.072
-460.070	-43.388	0.308	0.159
-459.055	-162.827	0.168	-0.008
-458.040	261.686	-0.088	0.155
-457.026	-39.887	0.211	0.112
-456.011	1.963	-0.236	0.173
-454.997	800.000	-0.013	0.047
-453.982	-63.094	0.151	0.064
-452.968	68.937	-0.076	0.080
-451.953	-97.171	0.107	0.029
-450.938	-42.257	-0.496	-0.258
-449.924	538.974	-0.113	-0.274
-448.909	572.833	-0.091	-0.226
-447.895	211.662	-0.080	0.129
-446.880	97.736	0.202	0.236
-445.865	-163.152	-0.339	0.017
-444.851	335.627	0.102	0.201
-443.836	-4.560	-0.149	0.105
-442.822	-166.457	0.264	0.011
-441.807	213.848	-0.112	0.181
-440.792	-6.361	0.357	0.248
-439.778	181.935	0.243	0.364
-438.763	-200.000	0.063	-0.337
-437.749	-200.000	-0.003	-0.161
-436.734	-200.000	-0.003	0.162
-435.719	800.000	0.064	0.247
-434.705	-61.567	0.070	-0.030
-433.690	556.988	-0.105	-0.257
-432.676	100.468	-0.096	-0.114
-431.661	246.896	-0.154	0.264
-430.646	800.000	-0.047	-0.165
-429.632	-77.253	0.306	0.108
-428.617	67.925	-0.256	-0.267
-427.603	-199.421	0.172	-0.001
-426.588	-92.111	-0.107	0.031
-425.573	43.573	0.235	0.219
-424.559	800.000	-0.050	-0.197
-423.544	-56.542	0.079	0.035
-422.530	383.287	0.136	0.285
-421.515	-124.723	0.205	0.032
-420.500	-57.395	-0.231	0.103
-419.486	18.680	-0.244	-0.199
-418.471	-61.130	0.367	0.158
-417.457	135.222	-0.073	-0.097
-416.442	-103.171	0.239	-0.057
-415.428	-92.756	-0.309	-0.088
-414.413	183.443	-0.177	0.266
-413.398	-99.418	-0.408	-0.105
-412.384	-41.834	0.300	0.157
-411.369	-200.000	-0.025	-0.201
-410.355	-55.102	-0.239	0.109
-409.340	-64.230	0.028	0.012
-408.325	-156.768	0.117	-0.007
-407.311	-2.448	0.333	0.238
-406.296	297.017	-0.223	0.417
-405.282	800.000	0.063	0.186
-404.267	-170.197	0.113	-0.004
-403.252	-74.806	-0.180	0.066
-402.238	118.554	-0.132	0.166
-401.223	-43.692	-0.153	0.079
-400.209	233.100	-0.070	0.118
-399.194	-137.628	0.262	-0.030
-398.179	456.313	-0.120	-0.272
-397.165	75.091	-0.172	0.184
-396.150	383.893	-0.133	0.280
-395.136	444.183	0.052	-0.116
-394.121	-200.000	0.025	-0.187
-393.106	253.106	-0.179	-0.310
-392.092	-200.000	0.003	0.201
-391.077	214.137	-0.191	-0.308
-390.063	-1.079	0.191	-0.137
-389.048	-72.012	0.172	0.065
-388.033	-23.961	-0.289	-0.176
-387.019	-114.571	-0.419	0.082
-386.004	37.022	0.206	0.185
-384.990	505.991	-0.142	0.334
-383.975	392.863	0.111	0.234
-382.960	-18.500	0.171	-0.109
-381.946	48.184	-0.138	0.131
-380.931	261.680	0.093	0.163
-379.917	-61.194	0.232	0.100
-378.902	-87.520	0.069	0.021
-377.888	-94.292	0.123	0.034
-376.873	-200.000	0.037	-0.309
-375.858	268.684	0.096	0.172
-374.844	800.000	0.051	-0.188
-373.829	256.480	0.092	-0.161
-372.815	-167.348	-0.159	0.006
-371.800	-200.000	-0.061	-0.326
-370.785	46.360	0.214	0.202
-369.771	-134.791	0.113	-0.014
-368.756	800.000	0.063	-0.274
-367.742	-27.576	-0.245	-0.145
-366.727	88.158	0.122	0.138
-365.712	-91.147	0.265	-0.077
-364.698	134.328	0.168	-0.221
-363.683	1.813	-0.165	0.121
-362.669	126.448	-0.258	-0.332
-361.654	-16.264	0.088	-0.057
-360.639	98.755	0.034	0.040
-359.625	-7.650	0.104	-0.071
-358.610	414.461	-0.130	-0.281
-357.596	-85.245	-0.204	-0.065
-356.581	-116.411	-0.211	0.040
-355.566	-31.831	-0.145	-0.082
-354.552	-200.000	0.067	0.508
-353.537	-35.512	0.362	-0.200
-352.523	-68.131	-0.499	0.198
-351.508	70.641	0.130	0.137
-350.493	23.337	0.288	-0.240
-349.479	51.891	0.066	-0.064
-348.464	28.241	0.100	0.085
-347.450	-200.000	-0.068	-0.367
-346.435	458.196	0.125	0.283
-345.420	-60.709	-0.112	0.048
-344.406	-200.000	0.006	-0.135
-343.391	-66.060	0.095	0.038
-342.377	800.000	-0.053	-0.168
-341.362	40.813	0.102	0.093
-340.348	-60.270	-0.027	-0.012
-339.333	-148.047	-0.270	-0.023
-338.318	800.000	-0.047	-0.152
-337.304	-135.099	-0.343	0.042
-336.289	-200.000	0.014	-0.191
-335.275	-93.689	-0.209	-0.059
-334.260	-117.531	-0.298	0.055
-333.245	91.265	-0.057	-0.065
-332.231	15.160	-0.191	0.152
-331.216	476.429	0.031	0.072
-330.202	-14.766	0.064	-0.042
-329.187	-200.000	-0.039	-0.460
-328.172	653.918	0.013	0.033
-327.158	86.526	0.147	0.164
-326.143	-110.310	-0.252	0.053
-325.129	2.027	-0.347	-0.254
-324.114	-200.000	0.017	0.240
-323.099	-200.000	-0.009	0.137
-322.085	-105.832	-0.282	0.065
-321.070	-124.386	-0.141	-0.022
-320.056	800.000	0.094	0.415
-319.041	-38.016	0.293	0.158
-318.026	800.000	-0.071	-0.216
-317.012	18.563	0.387	0.314
-315.997	-82.839	0.191	0.063
-314.983	-131.467	0.348	-0.047
-313.968	-200.000	-0.050	-0.528
-312.953	332.398	0.040	-0.078
-311.939	82.453	-0.156	0.171
-310.924	279.098	0.070	-0.126
-309.910	800.000	0.063	-0.206
-308.895	-160.674	-0.191	0.010
-307.880	-34.873	0.124	0.069
-306.866	-71.083	-0.144	0.055
-305.851	-200.000	0.039	-0.369
-304.837	348.756	0.126	0.253
-303.822	42.582	0.217	0.200
-302.807	296.162	0.204	-0.379
-301.793	-87.267	-0.384	0.118
-300.778	396.680	0.060	-0.128
-299.764	743.262	0.134	0.364
-298.749	-200.000	0.011	-0.163
-297.735	800.000	0.060	0.190
-296.720	-117.510	-0.104	-0.019
-295.705	-200.000	-0.050	0.271
-294.691	354.486	0.097	0.195
-293.676	-200.000	-0.001	-0.117
-292.662	800.000	-0.021	0.083
-291.647	-15.603	0.067	-0.044
-290.632	271.270	-0.132	-0.235
-289.618	74.207	0.131	0.139
-288.603	-143.238	0.343	0.033
-287.589	137.983	0.137	-0.181
-286.574	440.853	0.070	0.154
-285.559	-200.000	0.046	-0.234
-284.545	800.000	0.139	-0.468
-283.530	800.000	0.053	-0.188
-282.516	-39.302	-0.104	0.055
-281.501	132.452	-0.339	0.443
-280.486	107.841	0.198	0.239
-279.472	800.000	0.008	-0.031
-278.457	29.078	-0.046	-0.040
-277.443	-173.860	0.061	0.002
-276.428	-200.000	-0.023	0.104
-275.413	-200.000	-0.023	0.250
-274.399	170.088	0.294	0.426
-273.384	-84.177	-0.395	-0.127
-272.370	-69.213	0.364	-0.142
-271.355	-15.473	-0.195	-0.126
-270.340	-110.047	-0.127	0.027
-269.326	-200.000	0.375	0.001
-268.311	-69.270	0.189	0.073
-267.297	-200.000	-0.001	-0.138
-266.282	42.764	0.254	-0.234
-265.267	-200.000	0.058	-0.371
-264.253	-17.465	-0.212	-0.135
-263.238	-200.000	-0.011	0.095
-262.224	-180.599	0.203	0.004
-261.209	87.121	-0.150	0.168
-260.195	-57.482	-0.156	-0.069
-259.180	32.962	-0.101	-0.088
-258.165	-150.058	-0.182	-0.014
-257.151	800.000	-0.120	-0.426
-256.136	-55.397	0.041	0.019
-255.122	49.196	0.010	-0.010
-254.107	558.296	-0.047	0.116
-253.092	92.303	0.084	-0.096
-252.078	733.636	0.045	0.121
-251.063	217.372	0.122	-0.197
-250.049	-11.186	-0.191	-0.128
-249.034	-182.592	-0.163	0.003
-248.019	-122.657	0.325	-0.053
-247.005	-200.000	0.055	0.388
-245.990	-22.699	-0.199	-0.122
-244.976	120.045	0.178	-0.224
-243.961	93.165	0.123	0.141
-242.946	144.467	0.138	0.186
-241.932	800.000	0.068	-0.220
-240.917	-19.201	-0.249	0.156
-239.903	7.498	-0.191	-0.144
-238.888	-98.869	-0.232	-0.060
-237.873	-28.356	-0.364	-0.213
-236.859	-52.485	0.521	0.244
-235.844	-58.101	0.259	0.114
-234.830	-88.557	-0.046	-0.014
-233.815	-63.575	-0.258	-0.107
-232.800	2.810	0.225	0.165
-231.786	-200.000	0.046	-0.237
-230.771	760.692	0.086	-0.235
-229.757	-105.560	0.049	-0.011
-228.742	52.656	0.243	0.234
-227.727	53.136	0.046	-0.044
-226.713	-70.760	-0.039	0.015
-225.698	50.814	0.364	0.348
-224.684	-31.661	-0.250	0.142
-223.669	-95.273	-0.265	-0.072
-222.655	46.051	0.223	-0.208
-221.640	-200.000	-0.050	-0.242
-220.625	-200.000	0.028	0.177
-219.611	-135.289	0.181	0.022
-218.596	-27.021	-0.154	0.091
-217.582	-200.000	0.006	-0.486
-216.567	-84.411	0.168	-0.054
-215.552	75.282	-0.213	-0.227
-214.538	434.276	0.090	0.198
-213.523	179.917	0.012	-0.018
-212.509	-200.000	-0.006	0.099
-211.494	-64.350	-0.174	0.071
-210.479	-33.402	0.313	-0.175
-209.465	84.613	-0.115	-0.127
-208.450	-200.000	-0.021	0.180
-207.436	-86.559	-0.447	0.138
-206.421	800.000	0.063	0.192
-205.406	-3.309	0.233	0.164
-204.392	339.308	-0.112	-0.221
-203.377	-85.390	-0.230	-0.072
-202.363	-200.000	0.020	0.204
-201.348	-200.000	-0.026	-0.176
-200.333	800.000	0.061	-0.210
-199.319	-105.921	-0.212	-0.048
-198.304	264.440	0.067	-0.119
-197.290	102.282	0.196	0.232
-196.275	131.415	-0.127	-0.164
-195.260	800.000	-0.035	0.106
-194.246	5.967	0.202	0.151
-193.231	-136.504	-0.157	0.018
-192.217	-54.334	-0.214	0.098
-191.202	-122.110	0.241	-0.040
-190.187	-105.325	0.180	0.041
-189.173	-200.000	-0.003	-0.082
-188.158	143.039	-0.240	0.322
-187.144	-65.172	-0.247	0.100
-186.129	135.793	-0.072	-0.095
-185.114	-109.779	0.278	0.059
-184.100	-200.000	-0.058	0.287
-183.085	14.360	-0.123	-0.097
-182.071	408.325	0.110	0.235
-181.056	800.000	0.097	0.339
-180.042	800.000	-0.104	-0.386
-179.027	129.646	0.134	0.173
-178.012	-40.898	0.113	-0.059
-176.998	-200.000	0.012	0.232
-175.983	-71.645	-0.326	-0.123
-174.969	-47.825	-0.225	0.110
-173.954	31.780	-0.259	0.225
-172.939	-200.000	0.022	-0.190
-171.925	-48.142	-0.443	-0.216
-170.910	-17.821	-0.201	-0.127
-169.896	-65.731	-0.071	-0.029
-168.881	-200.000	-0.011	-0.327
-167.866	-200.000	-0.023	0.151
-166.852	-200.000	0.000	-0.164
-165.837	-200.000	0.038	-0.209
-164.823	-50.348	-0.062	0.029
-163.808	301.058	0.095	-0.176
-162.793	-83.795	-0.271	-0.087
-161.779	-21.147	-0.319	0.197
-160.764	788.943	0.055	-0.153
-159.750	8.516	0.308	0.233
-158.735	8.260	0.141	-0.107
-157.720	-200.000	0.025	-0.232
-156.706	729.999	0.047	0.126
-155.691	606.922	0.084	0.211
-154.677	18.484	-0.116	0.094
-153.662	-200.000	-0.040	0.248
-152.647	-200.000	-0.015	0.413
-151.633	800.000	0.020	0.057
-150.618	9.820	0.319	-0.244
-149.604	588.602	-0.177	0.440
-148.589	246.859	-0.073	-0.125
-147.574	-200.000	-0.016	-0.290
-146.560	-200.000	0.047	-0.278
-145.545	281.363	0.185	-0.334
-144.531	211.958	0.056	-0.089
-143.516	-200.000	-0.067	0.307
-142.502	19.967	0.050	0.041
-141.487	-46.174	0.078	0.039
-140.472	-200.000	-0.009	0.354
-139.458	362.041	-0.049	0.099
-138.443	55.879	-0.313	0.305
-137.429	-86.388	-0.315	0.097
-136.414	-99.284	0.199	-0.051
-135.399	411.134	-0.094	-0.201
-134.385	196.699	0.119	0.183
-133.370	800.000	0.041	0.128
-132.356	229.977	-0.136	-0.224
-131.341	-200.000	-0.018	-0.090
-130.326	22.839	0.200	0.165
-129.312	101.169	-0.191	0.224
-128.297	-101.458	-0.249	0.061
-127.283	10.754	-0.320	0.246
-126.268	-91.283	0.157	0.045
-125.253	51.323	0.296	-0.283
-124.239	-32.684	-0.318	0.178
-123.224	13.006	-0.031	-0.024
-122.210	138.700	0.124	-0.164
-121.195	800.000	-0.118	0.331
-120.180	-58.683	-0.170	0.074
