DTS Sentinel unit serial number:	SN413079Multiplexer serial number:	ORYXHardware model number:	OX4-SRSoftware version number:	ORYX F/W v4.00 Oryx Data Collector v3.7.2.0data status	okinstallation	princeton_trtdifferential loss correction	single-endedforward channel	channel 4reverse channel	N/Adate	2019/09/13time	17:25:34forward acquisition time	60.00reverse acquisition time	0.00gamma	496.2192k internal	0.2292k external	0.2292temperature offset calibration	1.0210default loss term (dB/km)	0.3790temperature slope calibration	1.0000multiplexer offset coefficient	1.0000multiplexer slope coefficient	1.0000fibre end	0.00T internal ref (°C)	36.12T ext. ref 1 (°C)	4.78T ext. ref 2 (°C)	30.98length (m)	temperature (°C)	Stokes	anti-Stokes-747.200	551.618	-0.033	0.081
-746.185	800.000	0.089	0.312
-745.171	723.212	-0.197	0.537
-744.156	4.303	0.293	0.219
-743.142	109.553	0.031	-0.037
-742.127	-110.854	0.188	-0.040
-741.112	24.805	0.212	-0.180
-740.098	-200.000	0.050	0.505
-739.083	-49.288	-0.421	-0.206
-738.069	2.750	0.076	-0.056
-737.054	-146.966	-0.257	0.023
-736.039	-53.880	-0.239	0.111
-735.025	-200.000	0.012	0.362
-734.010	516.436	0.008	0.019
-732.996	-78.116	-0.095	0.033
-731.981	27.972	0.127	-0.110
-730.966	12.687	-0.169	0.133
-729.952	-200.000	0.025	0.324
-728.937	800.000	-0.091	-0.310
-727.923	151.793	0.127	0.177
-726.908	-169.381	-0.133	-0.005
-725.894	-128.640	-0.294	0.042
-724.879	213.173	0.061	-0.099
-723.864	800.000	-0.099	-0.290
-722.850	-40.738	-0.117	-0.062
-721.835	800.000	0.018	0.053
-720.821	-200.000	0.009	0.146
-719.806	-200.000	-0.009	0.044
-718.791	-200.000	-0.064	-0.000
-717.777	-109.947	0.366	-0.078
-716.762	100.970	-0.071	-0.084
-715.748	-55.003	0.133	0.061
-714.733	0.444	-0.141	-0.103
-713.718	-102.221	-0.252	-0.062
-712.704	-94.820	0.084	-0.023
-711.689	37.297	0.161	0.146
-710.675	-64.986	0.364	-0.150
-709.660	17.488	-0.111	-0.090
-708.645	-44.265	-0.191	-0.098
-707.631	800.000	-0.052	0.188
-706.616	-73.356	-0.504	-0.188
-705.602	-26.894	0.335	0.200
-704.587	237.444	-0.153	0.259
-703.572	-31.054	-0.132	-0.076
-702.558	346.579	-0.099	0.198
-701.543	-200.000	0.027	-0.383
-700.529	-199.749	-0.182	0.001
-699.514	-99.845	0.242	0.062
-698.499	-121.680	0.107	-0.018
-697.485	33.758	-0.213	0.189
-696.470	54.455	-0.291	-0.286
-695.456	-13.069	0.149	0.099
-694.441	-93.307	-0.045	0.013
-693.426	-200.000	-0.063	-0.359
-692.412	-73.503	0.189	-0.070
-691.397	800.000	0.099	-0.366
-690.383	-200.000	-0.048	-0.369
-689.368	33.918	-0.118	-0.105
-688.354	-200.000	-0.056	0.280
-687.339	-101.027	-0.187	0.047
-686.324	62.368	0.035	-0.036
-685.310	0.229	0.086	-0.063
-684.295	86.888	0.119	0.134
-683.281	-53.630	-0.352	0.164
-682.266	-122.775	-0.238	-0.039
-681.251	-131.375	-0.215	0.029
-680.237	800.000	-0.019	-0.081
-679.222	-106.960	-0.075	-0.017
-678.208	-86.402	0.111	0.035
-677.193	-200.000	0.008	-0.260
-676.178	2.176	0.184	-0.136
-675.164	-180.503	-0.173	0.004
-674.149	-41.170	-0.260	-0.137
-673.135	-97.790	-0.141	0.037
-672.120	-147.872	-0.394	-0.034
-671.105	20.958	-0.062	0.052
-670.091	61.308	0.089	-0.090
-669.076	244.111	0.145	0.249
-668.062	723.270	0.102	0.278
-667.047	-110.086	0.127	-0.027
-666.032	-200.000	0.020	-0.164
-665.018	52.737	-0.149	-0.146
-664.003	219.259	0.102	0.166
-662.989	-200.000	-0.014	-0.231
-661.974	-4.554	-0.114	0.080
-660.959	-184.342	-0.304	-0.005
-659.945	-133.191	0.019	0.002
-658.930	800.000	-0.052	-0.205
-657.916	-200.000	0.034	-0.269
-656.901	44.764	0.225	0.211
-655.886	-66.102	-0.059	0.024
-654.872	261.306	0.043	0.075
-653.857	-142.107	-0.146	-0.015
-652.843	93.303	-0.120	-0.138
-651.828	-88.050	0.083	0.026
-650.814	-51.321	-0.272	-0.130
-649.799	-36.943	-0.265	0.145
-648.784	-27.921	-0.066	-0.039
-647.770	71.609	-0.103	0.109
-646.755	163.310	0.175	-0.252
-645.741	240.764	0.096	0.163
-644.726	133.783	-0.041	-0.055
-643.711	-114.623	-0.416	-0.081
-642.697	-41.668	-0.110	0.058
-641.682	-120.112	-0.112	-0.020
-640.668	344.678	-0.032	-0.065
-639.653	800.000	0.087	0.360
-638.638	351.221	0.086	-0.174
-637.624	-88.496	-0.270	-0.082
-636.609	238.745	-0.147	-0.250
-635.595	-200.000	0.008	0.154
-634.580	-200.000	0.011	0.306
-633.565	-94.809	0.149	-0.041
-632.551	20.933	-0.096	0.079
-631.536	-42.631	0.551	-0.286
-630.522	59.458	0.303	-0.305
-629.507	154.309	0.108	-0.151
-628.492	-18.053	0.194	-0.124
-627.478	-68.025	-0.037	0.015
-626.463	408.230	0.090	0.195
-625.449	172.127	-0.150	-0.220
-624.434	800.000	-0.032	-0.134
-623.419	-63.595	0.158	0.066
-622.405	92.531	-0.190	0.219
-621.390	1.088	0.167	-0.122
-620.376	-124.411	-0.440	-0.070
-619.361	-200.000	0.007	-0.118
-618.346	-48.576	-0.086	0.042
-617.332	404.979	-0.118	0.253
-616.317	369.891	0.096	0.197
-615.303	137.509	0.170	0.226
-614.288	-200.000	-0.011	-0.052
-613.273	-12.852	0.147	-0.097
-612.259	-10.601	-0.104	0.070
-611.244	384.031	0.086	-0.181
-610.230	-18.975	-0.180	0.114
-609.215	-200.000	-0.049	0.274
-608.201	4.805	0.233	0.174
-607.186	-92.884	-0.076	0.022
-606.171	-109.116	-0.495	-0.107
-605.157	-76.915	0.116	-0.041
-604.142	59.245	-0.245	-0.246
-603.128	800.000	0.034	-0.129
-602.113	-22.879	-0.198	0.122
-601.098	800.000	0.034	0.122
-600.084	667.031	-0.094	0.248
-599.069	-25.136	-0.239	0.144
-598.055	420.689	-0.215	-0.469
-597.040	404.150	0.087	0.187
-596.025	-130.289	-0.408	-0.056
-595.011	83.925	0.308	-0.342
-593.996	13.412	0.100	-0.079
-592.982	226.117	0.122	0.201
-591.967	800.000	-0.068	-0.219
-590.952	120.903	-0.111	0.141
-589.938	90.096	-0.224	0.255
-588.923	-133.773	0.137	0.017
-587.909	166.974	0.106	-0.153
-586.894	37.449	0.054	0.049
-585.879	-100.676	-0.060	0.015
-584.865	27.044	-0.296	0.253
-583.850	611.295	0.083	-0.211
-582.836	267.431	0.045	-0.081
-581.821	-86.859	-0.229	-0.071
-580.806	-71.746	0.158	0.060
-579.792	-200.000	0.009	0.199
-578.777	133.170	0.067	-0.088
-577.763	-120.810	0.253	-0.043
-576.748	22.166	0.062	0.051
-575.733	324.430	-0.127	0.247
-574.719	-200.000	0.028	-0.207
-573.704	224.433	-0.225	-0.370
-572.690	134.963	0.207	-0.273
-571.675	497.661	0.097	0.227
-570.661	-90.324	0.204	-0.060
-569.646	411.412	-0.022	-0.047
-568.631	18.063	-0.245	-0.198
-567.617	-200.000	0.034	0.234
-566.602	-12.364	-0.355	0.236
-565.588	57.867	0.066	0.066
-564.573	679.697	-0.112	0.296
-563.558	-20.408	0.086	0.054
-562.544	-45.908	0.237	-0.119
-561.529	-200.000	-0.017	0.081
-560.515	-72.948	-0.224	-0.084
-559.500	80.961	0.227	-0.249
-558.485	-144.558	-0.481	-0.045
-557.471	58.227	0.063	-0.063
-556.456	-151.219	0.239	-0.018
-555.442	-150.343	-0.128	0.010
-554.427	800.000	0.030	0.120
-553.412	140.161	-0.113	0.151
-552.398	-200.000	0.135	-0.610
-551.383	385.996	0.117	-0.245
-550.369	-85.319	-0.156	-0.049
-549.354	726.267	0.098	-0.266
-548.339	-79.500	-0.075	0.026
-547.325	99.507	0.037	-0.044
-546.310	35.598	-0.182	-0.163
-545.296	-139.248	0.067	-0.007
-544.281	800.000	0.016	0.064
-543.266	-10.854	0.133	0.089
-542.252	-8.123	-0.131	-0.089
-541.237	-99.435	-0.420	-0.108
-540.223	-107.661	0.175	0.039
-539.208	-200.000	0.016	0.129
-538.193	-26.252	-0.073	-0.044
-537.179	14.875	-0.216	0.172
-536.164	-62.777	0.130	-0.054
-535.150	124.156	0.130	-0.166
-534.135	127.518	-0.148	0.190
-533.121	-125.882	-0.229	0.035
-532.106	-66.854	-0.330	0.132
-531.091	38.614	0.203	0.184
-530.077	800.000	-0.027	-0.118
-529.062	-29.323	0.110	0.064
-528.048	-45.328	-0.210	0.106
-527.033	800.000	-0.063	0.191
-526.018	508.406	0.067	-0.157
-525.004	362.634	-0.236	-0.482
-523.989	67.433	-0.286	0.296
-522.975	736.056	-0.106	0.287
-521.960	649.144	0.030	0.078
-520.945	-36.034	0.119	-0.065
-519.931	800.000	0.024	0.085
-518.916	-88.522	-0.114	0.034
-517.902	635.547	-0.036	0.092
-516.887	-42.319	-0.091	0.047
-515.872	74.228	-0.087	-0.093
-514.858	399.896	0.154	0.327
-513.843	146.323	0.075	0.102
-512.829	-180.291	0.151	0.003
-511.814	201.674	-0.130	0.203
-510.799	-16.644	0.034	-0.022
-509.785	319.522	-0.060	-0.115
-508.770	136.431	-0.100	0.133
-507.756	-108.600	-0.349	-0.076
-506.741	222.974	0.103	0.169
-505.726	157.457	-0.165	0.232
-504.712	-200.000	0.012	0.198
-503.697	800.000	-0.078	0.234
-502.683	-37.060	0.106	-0.058
-501.668	48.574	0.076	-0.072
-500.653	-78.799	0.032	-0.011
-499.639	570.003	0.042	0.104
-498.624	800.000	-0.064	0.222
-497.610	45.575	0.020	0.019
-496.595	-154.095	-0.210	-0.014
-495.581	-45.052	-0.178	0.090
-494.566	-84.514	-0.115	0.037
-493.551	-200.000	-0.034	-0.331
-492.537	-200.000	0.014	0.140
-491.522	294.130	0.205	-0.379
-490.508	-22.052	0.117	0.072
-489.493	-110.811	0.196	-0.041
-488.478	80.236	0.278	0.303
-487.464	42.492	0.225	-0.207
-486.449	-200.000	-0.011	0.210
-485.435	-29.561	-0.328	0.190
-484.420	-14.770	0.216	0.141
-483.405	-109.518	0.275	0.059
-482.391	153.564	-0.068	-0.094
-481.376	-200.000	-0.047	0.289
-480.362	800.000	-0.093	-0.283
-479.347	-171.332	-0.172	0.006
-478.332	-96.816	0.200	-0.053
-477.318	480.952	-0.049	0.113
-476.303	168.380	0.104	-0.150
-475.289	-200.000	0.036	-0.334
-474.274	-103.018	0.388	-0.093
-473.259	-91.071	0.208	-0.061
-472.245	-200.000	-0.010	0.076
-471.230	152.306	-0.099	0.137
-470.216	-85.297	0.052	0.016
-469.201	182.103	-0.060	0.090
-468.186	27.958	0.049	-0.042
-467.172	-110.149	-0.165	-0.035
-466.157	16.032	-0.155	-0.124
-465.143	-200.000	-0.030	-0.150
-464.128	500.097	-0.038	0.088
-463.113	-200.000	-0.023	0.197
-462.099	15.586	0.084	0.067
-461.084	-200.000	0.015	-0.275
-460.070	-200.000	0.059	-0.303
-459.055	-137.941	-0.135	-0.015
-458.040	-92.960	0.126	0.036
-457.026	-11.286	0.085	0.057
-456.011	-18.391	0.214	-0.135
-454.997	-35.006	0.247	0.137
-453.982	-91.327	0.237	-0.069
-452.968	-137.258	-0.445	-0.051
-451.953	238.374	-0.027	0.045
-450.938	-40.334	-0.072	0.038
-449.924	-74.992	0.207	0.075
-448.909	18.973	-0.109	-0.088
-447.895	-200.000	0.002	-0.250
-446.880	-200.000	0.010	0.061
-445.865	-200.000	-0.046	-0.236
-444.851	39.379	0.277	0.251
-443.836	46.082	0.066	0.062
-442.822	-109.703	-0.035	-0.007
-441.807	-200.000	-0.022	0.139
-440.792	-165.310	-0.125	0.006
-439.778	139.817	-0.169	0.225
-438.763	-25.586	0.257	0.154
-437.749	-200.000	0.011	-0.110
-436.734	55.183	-0.138	0.135
-435.719	-200.000	-0.006	-0.126
-434.705	141.719	0.096	-0.128
-433.690	-136.835	-0.028	-0.003
-432.676	-22.838	-0.190	0.116
-431.661	268.048	-0.211	-0.373
-430.646	356.355	0.058	-0.118
-429.632	-200.000	-0.030	0.185
-428.617	91.316	-0.306	-0.347
-427.603	28.301	0.088	0.075
-426.588	-189.607	0.542	-0.006
-425.573	-94.263	-0.283	-0.078
-424.559	106.902	-0.145	0.174
-423.544	149.890	-0.155	0.213
-422.530	-65.773	-0.194	-0.078
-421.515	-200.000	0.007	0.040
-420.500	-48.197	-0.213	-0.104
-419.486	800.000	-0.068	-0.250
-418.471	-200.000	0.016	0.085
-417.457	800.000	-0.051	0.173
-416.442	113.940	-0.209	0.257
-415.428	-174.739	-0.380	-0.011
-414.413	-78.522	0.331	0.114
-413.398	-149.794	0.137	-0.011
-412.384	99.813	0.112	0.132
-411.369	-106.835	0.106	0.024
-410.355	59.585	-0.243	0.242
-409.340	-7.773	-0.340	0.232
-408.325	-200.000	0.015	0.284
-407.311	579.194	-0.033	0.082
-406.296	-16.373	-0.177	-0.114
-405.282	-59.624	0.207	-0.090
-404.267	-49.055	-0.435	-0.210
-403.252	-25.906	0.228	0.136
-402.238	800.000	-0.147	-0.413
-401.223	-34.370	-0.201	0.111
-400.209	-200.000	0.071	-0.472
-399.194	37.101	-0.257	-0.230
-398.179	-200.000	0.047	0.227
-397.165	-200.000	0.007	0.079
-396.150	-94.815	-0.302	0.083
-395.136	-87.792	0.262	-0.080
-394.121	-126.100	0.188	0.029
-393.106	44.975	0.161	0.150
-392.092	15.099	0.256	0.202
-391.077	144.507	-0.230	0.311
-390.063	-60.018	0.092	-0.040
-389.048	-115.733	0.391	-0.074
-388.033	12.396	0.164	-0.128
-387.019	-200.000	0.007	-0.207
-386.004	-141.968	-0.285	-0.029
-384.990	-200.000	-0.005	0.236
-383.975	-72.638	-0.169	0.063
-382.960	-200.000	0.012	-0.285
-381.946	306.062	0.212	-0.399
-380.931	-115.788	0.158	-0.030
-379.917	-96.336	0.148	0.039
-378.902	800.000	-0.050	-0.186
-377.888	-68.430	-0.371	-0.145
-376.873	549.334	-0.118	0.286
-375.858	-137.668	-0.150	-0.017
-374.844	172.246	-0.156	-0.226
-373.829	-25.850	-0.177	-0.105
-372.815	159.239	-0.086	-0.121
-371.800	49.011	0.247	0.234
-370.785	294.965	0.113	0.208
-369.771	409.867	0.120	-0.257
-368.756	-157.213	-0.047	-0.003
-367.742	-81.137	0.271	-0.090
-366.727	-37.299	-0.069	-0.037
-365.712	-142.190	0.281	-0.028
-364.698	-200.000	-0.003	0.067
-363.683	-42.695	-0.291	0.149
-362.669	-117.980	0.610	0.110
-361.654	174.829	0.038	-0.055
-360.639	504.477	-0.071	0.165
-359.625	-200.000	-0.005	0.261
-358.610	-50.791	-0.288	0.137
-357.596	29.610	-0.027	-0.023
-356.581	800.000	-0.029	0.101
-355.566	569.651	-0.080	-0.197
-354.552	-98.699	0.146	-0.037
-353.537	-31.334	-0.052	0.030
-352.523	-111.619	0.295	0.060
-351.508	-150.160	-0.388	0.030
-350.493	-200.000	-0.029	-0.201
-349.479	-77.142	-0.242	-0.085
-348.464	153.339	0.047	-0.065
-347.450	340.860	0.086	-0.169
-346.435	-158.059	0.226	-0.013
-345.420	8.037	0.331	-0.250
-344.406	334.881	0.055	-0.107
-343.391	-75.856	-0.329	0.118
-342.377	253.256	-0.176	-0.303
-341.362	-200.000	0.017	0.188
-340.348	63.705	-0.302	0.305
-339.333	800.000	0.021	0.088
-338.318	72.585	0.150	0.158
-337.304	-151.743	-0.275	-0.020
-336.289	-101.771	0.128	-0.031
-335.275	-34.370	0.204	0.113
-334.260	-200.000	0.005	0.052
-333.245	800.000	0.135	-0.401
-332.231	-200.000	-0.038	-0.262
-331.216	393.931	0.014	0.030
-330.202	24.478	-0.331	-0.276
-329.187	344.866	0.154	0.305
-328.172	84.737	0.100	-0.110
-327.158	396.309	-0.003	0.007
-326.143	491.630	-0.028	-0.065
-325.129	-25.180	0.343	0.205
-324.114	-26.293	-0.211	0.125
-323.099	59.755	0.062	0.062
-322.085	571.968	-0.047	0.115
-321.070	74.264	-0.343	-0.363
-320.056	-26.709	0.153	0.090
-319.041	-97.588	0.127	0.033
-318.026	141.628	-0.136	0.181
-317.012	96.598	-0.113	-0.130
-315.997	555.728	0.048	-0.116
-314.983	-174.013	0.373	0.011
-313.968	604.129	0.035	0.087
-312.953	-68.987	0.324	-0.126
-311.939	-200.000	0.241	0.001
-310.924	443.415	0.180	0.398
-309.910	-31.575	0.269	0.152
-308.895	-200.000	0.010	-0.083
-307.880	-117.593	-0.154	0.028
-306.866	-161.386	0.240	0.013
-305.851	-200.000	0.014	0.210
-304.837	-200.000	-0.011	-0.245
-303.822	49.304	-0.143	-0.135
-302.807	-17.121	0.177	-0.112
-301.793	-20.317	-0.236	-0.146
-300.778	800.000	0.139	0.413
-299.764	84.514	0.175	-0.193
-298.749	-113.915	-0.380	0.074
-297.735	-107.844	-0.340	-0.074
-296.720	283.541	-0.149	-0.270
-295.705	-200.000	0.015	0.158
-294.691	-200.000	-0.074	0.387
-293.676	213.788	-0.245	0.390
-292.662	800.000	-0.080	0.223
-291.647	-126.682	-0.212	-0.032
-290.632	-150.455	-0.268	0.021
-289.618	-200.000	0.000	0.217
-288.603	-200.000	-0.025	-0.381
-287.589	25.310	0.120	-0.100
-286.574	-97.783	0.064	-0.017
-285.559	-15.807	0.245	-0.157
-284.545	781.705	0.074	-0.203
-283.530	462.298	0.036	0.080
-282.516	-4.316	0.305	-0.213
-281.501	26.771	0.225	-0.190
-280.486	-200.000	0.006	0.139
-279.472	-123.758	0.216	-0.034
-278.457	395.938	0.030	-0.062
-277.443	419.230	0.117	0.251
-276.428	-111.063	0.306	-0.063
-275.413	-88.205	0.407	0.123
-274.399	5.121	0.131	-0.097
-273.384	-109.461	0.187	-0.040
-272.370	-200.000	0.008	0.192
-271.355	473.937	-0.028	0.063
-270.340	-131.769	-0.205	0.027
-269.326	628.461	-0.042	-0.107
-268.311	731.036	0.051	-0.137
-267.297	800.000	0.028	0.093
-266.282	58.168	0.141	0.138
-265.267	-200.000	-0.032	-0.189
-264.253	-200.000	-0.028	-0.302
-263.238	90.712	-0.142	0.160
-262.224	234.658	-0.146	0.242
-261.209	-200.000	-0.020	0.144
-260.195	-130.503	0.481	-0.065
-259.180	9.231	0.102	0.078
-258.165	-131.216	0.268	-0.036
-257.151	517.871	0.088	-0.207
-256.136	-200.000	0.035	0.381
-255.122	-149.331	-0.392	0.031
-254.107	-30.565	0.294	0.167
-253.092	304.981	-0.057	-0.106
-252.078	-18.648	-0.058	-0.036
-251.063	210.633	-0.088	-0.139
-250.049	210.025	-0.164	-0.258
-249.034	-88.822	-0.218	-0.065
-248.019	-200.000	0.004	0.024
-247.005	-27.911	0.286	0.167
-245.990	158.883	0.150	-0.209
-244.976	-200.000	0.045	0.328
-243.961	44.689	-0.034	-0.031
-242.946	-22.118	0.251	-0.153
-241.932	81.764	0.247	-0.269
-240.917	-119.709	-0.227	-0.039
-239.903	-56.610	-0.149	0.066
-238.888	-89.808	-0.242	0.071
-237.873	-200.000	-0.046	0.425
-236.859	-71.642	0.172	-0.064
-235.844	158.843	-0.058	-0.081
-234.830	-26.354	0.170	-0.100
-233.815	-89.777	0.073	0.022
-232.800	72.315	0.190	-0.199
-231.786	192.432	0.145	-0.220
-230.771	-200.000	0.042	0.192
-229.757	-82.895	0.084	-0.027
-228.742	-66.347	-0.268	0.107
-227.727	-19.195	0.418	0.260
-226.713	-71.622	-0.218	-0.082
-225.698	16.886	-0.315	-0.250
-224.684	-200.000	-0.017	-0.514
-223.669	9.692	-0.271	-0.206
-222.655	-132.616	0.059	-0.008
-221.640	-200.000	0.002	-0.032
-220.625	-200.000	0.010	-0.115
-219.611	-57.649	-0.055	0.024
-218.596	-33.192	0.324	-0.180
-217.582	168.597	0.052	0.075
-216.567	-200.000	0.012	-0.116
-215.552	-200.000	-0.002	0.013
-214.538	169.576	0.149	0.213
-213.523	169.146	0.018	-0.025
-212.509	-200.000	0.029	-0.376
-211.494	27.743	0.142	-0.120
-210.479	-91.268	-0.317	0.091
-209.465	-124.998	0.154	0.024
-208.450	-76.935	0.350	0.123
-207.436	-200.000	-0.017	-0.172
-206.421	-150.712	-0.496	-0.038
-205.406	-42.060	0.104	-0.053
-204.392	-200.000	0.010	-0.090
-203.377	-10.395	0.226	-0.150
-202.363	-191.947	-0.112	-0.001
-201.348	-95.521	-0.202	-0.054
-200.333	558.124	0.117	0.283
-199.319	131.030	-0.141	-0.181
-198.304	-169.698	-0.324	-0.012
-197.290	800.000	0.070	0.219
-196.275	-200.000	0.044	0.537
-195.260	218.666	0.201	0.322
-194.246	-90.435	-0.141	-0.041
-193.231	-69.965	-0.204	-0.078
-192.217	48.498	0.088	-0.083
-191.202	237.718	0.141	0.234
-190.187	65.146	-0.110	-0.112
-189.173	800.000	-0.017	-0.062
-188.158	3.646	0.086	0.063
-187.144	9.312	0.135	-0.103
-186.129	-127.091	0.135	-0.020
-185.114	-174.163	-0.200	0.006
-184.100	800.000	0.089	-0.247
-183.085	-136.665	-0.012	0.001
-182.071	8.160	0.145	0.109
-181.056	800.000	-0.086	0.362
-180.042	32.831	0.137	-0.118
-179.027	-82.255	-0.136	0.044
-178.012	-47.155	0.124	0.060
-176.998	-159.975	0.118	0.006
-175.983	-12.083	0.202	0.133
-174.969	32.011	0.256	-0.221
-173.954	-200.000	0.000	0.024
-172.939	-38.980	0.202	0.107
-171.925	-108.734	0.374	-0.080
-170.910	477.040	0.140	-0.316
-169.896	60.920	-0.252	-0.250
-168.881	131.447	-0.157	0.203
-167.866	-70.873	0.105	-0.039
-166.852	-167.518	0.143	-0.006
-165.837	30.608	-0.169	-0.144
-164.823	114.697	-0.192	0.235
-163.808	-67.126	-0.209	-0.083
-162.793	673.618	-0.069	0.179
-161.779	446.549	0.081	-0.178
-160.764	44.279	-0.050	0.046
-159.750	49.449	0.133	0.125
-158.735	224.024	-0.038	-0.062
-157.720	107.776	-0.092	0.109
-156.706	-182.116	-0.115	-0.002
-155.691	77.520	0.269	0.286
-154.677	-200.000	-0.018	-0.212
-153.662	800.000	0.014	0.043
-152.647	800.000	0.063	0.180
-151.633	499.685	0.078	-0.180
-150.618	-52.779	0.162	-0.075
-149.604	-22.471	0.152	-0.092
-148.589	19.891	-0.029	-0.024
-147.574	-200.000	-0.016	-0.167
-146.560	800.000	0.076	-0.234
-145.545	273.402	0.166	-0.294
-144.531	-200.000	-0.023	-0.192
-143.516	389.148	-0.091	0.188
-142.502	112.937	-0.190	-0.230
-141.487	-93.394	-0.227	-0.063
-140.472	800.000	-0.070	0.228
-139.458	386.207	0.158	-0.327
-138.443	264.715	0.090	0.157
-137.429	61.714	-0.267	0.265
-136.414	25.069	0.119	-0.099
-135.399	220.717	0.111	-0.179
-134.385	-43.300	0.433	-0.219
-133.370	-181.175	0.191	0.004
-132.356	800.000	-0.058	0.250
-131.341	-150.967	0.196	0.015
-130.326	-27.011	-0.351	-0.205
-129.312	-18.753	-0.208	0.130
-128.297	236.316	-0.105	0.173
-127.283	-200.000	-0.049	-0.217
-126.268	61.520	0.213	0.212
-125.253	-97.446	-0.282	-0.073
-124.239	138.020	-0.017	0.022
-123.224	-129.929	0.131	-0.018
-122.210	-40.660	0.195	-0.101
-121.195	-111.594	-0.169	-0.034
