DTS Sentinel unit serial number:	SN413079Multiplexer serial number:	ORYXHardware model number:	OX4-SRSoftware version number:	ORYX F/W v4.00 Oryx Data Collector v3.7.2.0data status	okinstallation	princeton_trtdifferential loss correction	single-endedforward channel	channel 4reverse channel	N/Adate	2019/09/14time	05:53:35forward acquisition time	60.00reverse acquisition time	0.00gamma	496.2192k internal	0.2321k external	0.2321temperature offset calibration	1.0138default loss term (dB/km)	0.3790temperature slope calibration	1.0000multiplexer offset coefficient	1.0000multiplexer slope coefficient	1.0000fibre end	0.00T internal ref (°C)	26.87T ext. ref 1 (°C)	3.41T ext. ref 2 (°C)	21.25length (m)	temperature (°C)	Stokes	anti-Stokes-747.200	-200.000	-0.068	-0.437
-746.185	-200.000	-0.035	0.170
-745.171	68.111	0.160	0.165
-744.156	99.003	-0.166	0.194
-743.142	-200.000	0.003	0.225
-742.127	-147.827	-0.153	0.013
-741.112	-34.058	-0.416	0.231
-740.098	-16.728	0.200	0.128
-739.083	-103.427	-0.174	0.041
-738.069	35.234	0.129	-0.114
-737.054	89.680	0.077	-0.087
-736.039	-125.131	-0.241	-0.037
-735.025	800.000	0.031	0.094
-734.010	-121.467	-0.306	0.051
-732.996	244.993	-0.103	0.175
-731.981	189.988	-0.174	0.264
-730.966	-200.000	0.009	0.232
-729.952	87.354	-0.199	0.222
-728.937	-200.000	-0.045	-0.219
-727.923	800.000	0.041	-0.147
-726.908	237.761	-0.183	-0.307
-725.894	73.341	0.291	0.307
-724.879	-26.791	0.116	0.068
-723.864	-22.688	0.332	0.203
-722.850	527.922	0.129	-0.307
-721.835	-48.418	-0.349	-0.170
-720.821	550.295	-0.127	-0.309
-719.806	26.955	-0.100	-0.085
-718.791	-66.281	0.309	-0.124
-717.777	89.477	0.213	0.240
-716.762	800.000	-0.072	0.245
-715.748	-200.000	0.031	0.137
-714.733	-28.625	-0.426	0.248
-713.718	-200.000	-0.244	-0.001
-712.704	-200.000	-0.049	-0.445
-711.689	-107.373	-0.263	0.058
-710.675	462.958	0.054	-0.122
-709.660	800.000	0.057	-0.175
-708.645	134.636	0.164	-0.214
-707.631	-0.740	-0.181	0.129
-706.616	-45.182	-0.191	-0.096
-705.602	-70.676	0.239	0.091
-704.587	800.000	-0.069	0.285
-703.572	-50.698	0.067	-0.032
-702.558	-71.279	-0.209	-0.079
-701.543	-200.000	-0.004	0.190
-700.529	-200.000	-0.009	-0.136
-699.514	-200.000	0.012	-0.083
-698.499	377.639	0.178	0.367
-697.485	158.576	-0.082	-0.115
-696.470	150.253	0.064	-0.088
-695.456	-71.345	0.129	-0.049
-694.441	33.562	0.167	0.146
-693.426	-51.559	-0.146	-0.069
-692.412	-47.527	0.144	-0.071
-691.397	51.298	0.160	0.153
-690.383	-200.000	-0.063	0.306
-689.368	800.000	0.027	-0.092
-688.354	-180.832	0.066	-0.001
-687.339	800.000	0.111	-0.491
-686.324	-24.230	-0.344	-0.207
-685.310	79.283	0.141	-0.152
-684.295	58.151	-0.102	-0.100
-683.281	-200.000	0.012	-0.075
-682.266	40.297	-0.090	-0.081
-681.251	-1.521	-0.168	0.119
-680.237	-102.784	0.248	0.060
-679.222	-93.058	-0.132	0.037
-678.208	-27.324	0.147	-0.086
-677.193	-72.261	0.140	-0.052
-676.178	-137.736	-0.185	0.021
-675.164	-33.093	0.147	0.082
-674.149	296.218	-0.102	0.188
-673.135	3.503	0.053	-0.039
-672.120	-200.000	0.004	0.092
-671.105	-19.211	-0.207	-0.129
-670.091	800.000	-0.024	-0.070
-669.076	84.509	-0.076	-0.084
-668.062	800.000	-0.168	-0.584
-667.047	-66.778	-0.117	-0.047
-666.032	52.343	-0.193	0.185
-665.018	-55.560	0.290	0.131
-664.003	-151.943	0.498	0.037
-662.989	800.000	-0.052	0.157
-661.974	-55.142	-0.131	0.059
-660.959	-28.985	-0.452	0.261
-659.945	-49.198	0.078	-0.037
-658.930	-48.733	0.215	0.104
-657.916	-1.345	-0.304	0.216
-656.901	14.843	-0.217	0.171
-655.886	60.058	0.050	-0.050
-654.872	-200.000	0.030	-0.147
-653.857	-200.000	0.016	0.090
-652.843	219.962	-0.156	0.251
-651.828	34.351	-0.228	-0.200
-650.814	180.776	0.145	-0.215
-649.799	-17.725	-0.150	-0.095
-648.784	170.836	0.227	0.327
-647.770	800.000	0.083	-0.349
-646.755	229.514	0.042	0.070
-645.741	275.783	-0.162	0.290
-644.726	73.441	0.235	0.247
-643.711	-200.000	-0.023	0.158
-642.697	195.267	-0.068	-0.104
-641.682	305.844	0.085	-0.159
-640.668	-80.244	-0.155	0.052
-639.653	-200.000	-0.032	-0.161
-638.638	16.523	-0.111	-0.088
-637.624	-109.397	0.184	0.039
-636.609	-56.435	-0.105	-0.047
-635.595	-17.271	-0.140	-0.089
-634.580	-31.220	-0.154	0.088
-633.565	-78.659	-0.208	-0.071
-632.551	257.330	0.298	0.516
-631.536	-4.140	0.077	-0.053
-630.522	299.214	-0.027	-0.051
-629.507	17.145	-0.315	0.251
-628.492	50.577	0.231	0.219
-627.478	99.664	0.064	0.075
-626.463	800.000	0.115	0.335
-625.449	800.000	-0.044	-0.160
-624.434	-45.418	0.155	0.077
-623.419	230.462	0.078	0.128
-622.405	-43.362	0.230	-0.117
-621.390	50.970	-0.351	-0.334
-620.376	8.537	0.148	0.112
-619.361	60.139	-0.193	0.192
-618.346	-99.825	-0.440	-0.111
-617.332	-200.000	0.037	0.178
-616.317	800.000	-0.060	0.209
-615.303	771.899	-0.037	-0.100
-614.288	-67.201	-0.380	-0.151
-613.273	56.814	0.127	0.124
-612.259	369.338	0.054	-0.109
-611.244	362.701	0.110	-0.222
-610.230	594.712	0.100	-0.248
-609.215	800.000	-0.110	0.324
-608.201	267.145	0.070	0.124
-607.186	557.485	0.121	-0.294
-606.171	155.334	0.102	0.141
-605.157	274.123	0.180	0.320
-604.142	-87.911	0.442	0.134
-603.128	-200.000	0.008	0.144
-602.113	-52.587	-0.107	-0.050
-601.098	55.392	0.069	0.067
-600.084	-126.325	0.224	-0.034
-599.069	-22.668	-0.197	-0.120
-598.055	-36.718	0.271	0.146
-597.040	-200.000	-0.003	-0.062
-596.025	-200.000	0.044	-0.227
-595.011	-129.517	-0.274	-0.038
-593.996	63.957	0.098	-0.099
-592.982	-200.000	-0.014	0.284
-591.967	-15.845	0.088	-0.056
-590.952	476.241	0.071	0.162
-589.938	800.000	-0.037	0.148
-588.923	209.916	0.045	0.071
-587.909	800.000	0.042	-0.131
-586.894	-200.000	0.043	0.367
-585.879	-200.000	-0.014	-0.321
-584.865	433.201	-0.008	-0.017
-583.850	449.626	-0.131	0.291
-582.836	-144.474	-0.118	-0.011
-581.821	-93.344	-0.057	0.016
-580.806	418.727	0.089	0.191
-579.792	800.000	0.023	0.100
-578.777	11.859	0.074	0.057
-577.763	-96.406	0.265	-0.070
-576.748	211.188	-0.143	0.226
-575.733	-21.949	-0.245	0.150
-574.719	262.015	-0.194	0.337
-573.704	-69.967	-0.081	0.031
-572.690	41.317	-0.113	-0.103
-571.675	-155.491	-0.179	0.012
-570.661	432.378	-0.022	-0.048
-569.646	-200.000	0.021	-0.225
-568.631	499.533	-0.171	-0.395
-567.617	-66.829	-0.233	-0.092
-566.602	-25.682	0.137	-0.081
-565.588	14.936	-0.313	-0.246
-564.573	-0.776	0.256	-0.182
-563.558	-71.882	0.269	-0.101
-562.544	-200.000	-0.026	-0.155
-561.529	121.775	0.087	0.109
-560.515	800.000	-0.123	-0.441
-559.500	20.475	-0.107	0.087
-558.485	-103.598	0.185	-0.044
-557.471	-200.000	0.051	0.296
-556.456	-80.740	0.309	-0.103
-555.442	-200.000	0.001	0.253
-554.427	-200.000	0.037	0.202
-553.412	317.294	-0.019	-0.036
-552.398	55.184	-0.070	-0.068
-551.383	198.754	0.130	-0.199
-550.369	367.908	-0.086	-0.174
-549.354	27.351	0.146	-0.123
-548.339	-70.324	-0.165	0.063
-547.325	-200.000	-0.042	0.222
-546.310	0.152	0.272	0.195
-545.296	42.991	-0.160	-0.146
-544.281	278.526	0.179	-0.319
-543.266	-1.128	-0.454	-0.322
-542.252	741.999	0.070	0.187
-541.237	-38.958	-0.068	0.036
-540.223	335.223	-0.133	0.258
-539.208	800.000	0.101	-0.361
-538.193	116.217	0.227	0.279
-537.179	800.000	-0.052	0.168
-536.164	-19.853	-0.273	-0.169
-535.150	-200.000	-0.009	0.115
-534.135	66.050	-0.092	0.094
-533.121	-91.529	-0.108	-0.031
-532.106	-200.000	0.000	0.241
-531.091	25.426	0.061	0.051
-530.077	-96.827	0.128	-0.034
-529.062	-200.000	0.041	0.271
-528.048	67.640	-0.255	-0.261
-527.033	-200.000	0.046	0.312
-526.018	557.812	-0.112	-0.271
-525.004	-121.437	0.465	0.078
-523.989	-31.460	0.309	-0.174
-522.975	147.565	0.026	0.034
-521.960	-188.745	-0.182	-0.002
-520.945	78.102	0.163	-0.174
-519.931	-61.180	-0.132	-0.056
-518.916	23.313	-0.147	0.121
-517.902	315.365	0.101	0.190
-516.887	-143.280	-0.438	0.042
-515.872	528.419	0.098	0.231
-514.858	182.673	-0.140	0.207
-513.843	-112.300	-0.007	0.001
-512.829	-17.981	-0.148	-0.093
-511.814	186.684	-0.150	0.224
-510.799	-200.000	-0.009	0.050
-509.785	167.069	-0.111	-0.158
-508.770	408.455	-0.070	0.149
-507.756	26.843	-0.211	-0.177
-506.741	-29.830	0.319	-0.182
-505.726	252.416	-0.265	0.452
-504.712	202.986	0.134	0.207
-503.697	-117.356	0.265	-0.048
-502.683	-200.000	-0.008	-0.093
-501.668	-200.000	-0.005	0.289
-500.653	57.213	-0.160	-0.157
-499.639	-73.434	0.222	-0.081
-498.624	49.337	-0.406	-0.382
-497.610	63.834	0.057	0.057
-496.595	800.000	-0.069	-0.255
-495.581	800.000	-0.129	0.489
-494.566	-22.262	-0.119	-0.072
-493.551	-64.403	0.090	-0.037
-492.537	-124.895	-0.361	0.056
-491.522	-86.584	-0.333	0.102
-490.508	-97.050	-0.190	0.050
-489.493	690.625	0.073	0.190
-488.478	189.643	-0.103	0.155
-487.464	-200.000	0.034	0.352
-486.449	179.694	0.094	0.137
-485.435	-83.887	0.187	0.060
-484.420	205.139	0.020	0.031
-483.405	-37.937	-0.122	-0.065
-482.391	-26.758	0.235	0.138
-481.376	-192.020	-0.278	-0.003
-480.362	-22.663	0.190	0.115
-479.347	98.518	0.263	0.303
-478.332	198.506	0.013	-0.020
-477.318	25.415	0.222	0.184
-476.303	-102.478	-0.403	-0.096
-475.289	-9.382	0.043	-0.029
-474.274	-95.586	0.139	-0.037
-473.259	-124.425	-0.394	0.061
-472.245	14.835	0.180	0.141
-471.230	-200.000	0.067	0.522
-470.216	94.112	-0.137	-0.155
-469.201	-200.000	-0.025	-0.169
-468.186	9.747	-0.106	-0.080
-467.172	-70.564	-0.274	-0.104
-466.157	227.991	0.143	0.232
-465.143	50.500	-0.162	0.153
-464.128	800.000	0.111	-0.452
-463.113	119.901	-0.198	-0.246
-462.099	386.885	0.176	0.363
-461.084	800.000	-0.051	-0.148
-460.070	627.912	-0.110	-0.278
-459.055	800.000	0.124	-0.520
-458.040	-200.000	-0.030	-0.232
-457.026	236.640	-0.094	-0.155
-456.011	148.823	0.290	-0.392
-454.997	800.000	-0.082	-0.243
-453.982	-200.000	-0.002	-0.312
-452.968	-95.107	-0.075	-0.020
-451.953	-9.800	-0.086	-0.057
-450.938	161.116	-0.032	0.044
-449.924	-120.665	0.150	0.025
-448.909	-200.000	-0.001	-0.080
-447.895	-45.129	0.146	-0.073
-446.880	-37.744	-0.165	-0.088
-445.865	14.863	0.101	0.079
-444.851	-55.014	-0.035	0.016
-443.836	201.558	0.271	-0.417
-442.822	633.141	-0.039	-0.099
-441.807	-41.206	0.065	0.034
-440.792	-144.173	0.265	-0.025
-439.778	-63.532	-0.201	-0.082
-438.763	-99.531	0.415	0.104
-437.749	-200.000	0.056	0.266
-436.734	-129.781	0.123	-0.017
-435.719	552.460	0.100	0.240
-434.705	250.166	-0.088	-0.150
-433.690	-14.474	-0.113	0.072
-432.676	-14.334	0.363	-0.233
-431.661	-23.364	-0.048	-0.029
-430.646	800.000	0.024	-0.079
-429.632	355.690	-0.069	-0.138
-428.617	765.043	-0.152	0.411
-427.603	-48.009	-0.113	-0.055
-426.588	-200.000	-0.018	0.254
-425.573	27.480	-0.325	-0.273
-424.559	193.498	-0.009	-0.013
-423.544	-78.101	0.089	-0.031
-422.530	800.000	0.072	-0.292
-421.515	-45.128	0.264	0.131
-420.500	-64.656	-0.196	0.079
-419.486	-96.158	0.254	-0.067
-418.471	-21.690	-0.106	-0.064
-417.457	403.190	0.082	-0.172
-416.442	-101.118	0.333	0.081
-415.428	369.092	-0.105	0.213
-414.413	22.790	-0.137	0.112
-413.398	-160.630	0.133	-0.007
-412.384	-113.498	0.451	-0.088
-411.369	800.000	-0.036	-0.140
-410.355	553.363	-0.036	0.085
-409.340	51.382	0.071	-0.067
-408.325	-94.874	0.192	-0.052
-407.311	-200.000	-0.012	-0.297
-406.296	55.600	-0.041	0.040
-405.282	-160.176	0.182	0.010
-404.267	330.366	0.165	0.316
-403.252	800.000	-0.106	-0.381
-402.238	362.556	0.213	0.426
-401.223	-200.000	0.012	0.247
-400.209	-126.007	0.355	-0.053
-399.194	-108.457	0.178	0.038
-398.179	528.613	0.058	-0.136
-397.165	336.154	0.051	-0.098
-396.150	-200.000	-0.012	0.195
-395.136	490.184	0.230	0.524
-394.121	-53.474	0.324	0.148
-393.106	-200.000	-0.105	-0.487
-392.092	800.000	-0.086	-0.256
-391.077	-6.094	0.171	-0.116
-390.063	-140.595	-0.161	-0.017
-389.048	-117.951	0.197	0.035
-388.033	-50.983	-0.152	0.071
-387.019	-67.525	-0.318	-0.124
-386.004	-72.974	0.284	0.104
-384.990	-85.375	0.092	-0.028
-383.975	37.776	0.128	0.113
-382.960	-117.834	0.292	0.052
-381.946	-120.668	-0.107	-0.018
-380.931	552.392	0.034	0.081
-379.917	-105.975	-0.210	-0.047
-378.902	-151.163	-0.149	0.011
-377.888	115.103	0.086	-0.105
-376.873	-200.000	-0.005	-0.033
-375.858	-200.000	-0.018	-0.196
-374.844	-131.508	0.320	0.042
-373.829	-96.915	-0.244	0.064
-372.815	-138.267	0.127	0.014
-371.800	-49.535	-0.231	0.109
-370.785	66.280	0.028	0.028
-369.771	-151.757	0.324	-0.024
-368.756	-200.000	-0.028	0.270
-367.742	-113.194	0.362	-0.071
-366.727	-200.000	-0.013	0.174
-365.712	289.848	0.084	-0.152
-364.698	363.438	0.016	0.032
-363.683	141.893	0.284	-0.375
-362.669	800.000	0.119	-0.336
-361.654	-35.760	0.013	0.007
-360.639	-38.949	-0.277	0.145
-359.625	65.114	0.031	0.031
-358.610	358.398	-0.101	-0.202
-357.596	-37.109	-0.151	-0.080
-356.581	-200.000	-0.020	0.260
-355.566	-65.983	0.130	0.052
-354.552	357.372	-0.238	0.473
-353.537	-38.884	-0.375	0.197
-352.523	-132.317	-0.011	-0.001
-351.508	-50.692	-0.209	0.098
-350.493	-200.000	-0.036	-0.251
-349.479	422.550	-0.068	-0.145
-348.464	-110.383	-0.057	-0.012
-347.450	-200.000	0.035	-0.263
-346.435	-15.366	-0.289	0.184
-345.420	103.270	0.090	-0.105
-344.406	154.582	0.183	0.250
-343.391	800.000	-0.029	-0.100
-342.377	284.210	0.024	0.043
-341.362	231.428	-0.223	0.364
-340.348	-138.680	-0.137	-0.015
-339.333	100.052	0.144	0.166
-338.318	53.477	-0.044	0.042
-337.304	-200.000	-0.055	0.471
-336.289	-29.757	0.171	0.097
-335.275	59.805	-0.102	0.100
-334.260	800.000	0.041	0.155
-333.245	800.000	0.020	0.083
-332.231	-200.000	0.032	-0.191
-331.216	293.830	0.219	-0.399
-330.202	22.563	-0.131	-0.106
-329.187	142.234	-0.084	0.111
-328.172	684.691	0.049	-0.128
-327.158	-200.000	-0.031	-0.301
-326.143	66.466	0.164	-0.166
-325.129	94.163	0.213	0.240
-324.114	-49.943	0.399	-0.188
-323.099	-97.050	-0.404	-0.105
-322.085	-48.562	0.012	0.006
-321.070	328.172	0.212	-0.405
-320.056	-144.146	-0.119	-0.011
-319.041	-125.778	-0.324	-0.049
-318.026	131.385	0.152	0.194
-317.012	-167.048	-0.234	0.009
-315.997	120.044	-0.227	0.280
-314.983	-200.000	-0.006	0.054
-313.968	-200.000	-0.044	-0.273
-312.953	204.237	-0.139	0.214
-311.939	-200.000	-0.003	0.178
-310.924	82.495	-0.079	-0.085
-309.910	-14.045	0.056	-0.036
-308.895	165.265	0.159	-0.223
-307.880	-200.000	0.010	-0.052
-306.866	103.428	-0.018	-0.021
-305.851	69.287	0.176	0.180
-304.837	-57.923	-0.316	-0.137
-303.822	209.698	0.060	-0.093
-302.807	-17.290	-0.249	-0.156
-301.793	-101.276	-0.504	-0.122
-300.778	-48.908	0.356	0.169
-299.764	28.679	-0.156	-0.131
-298.749	337.941	0.108	0.208
-297.735	-27.390	-0.324	0.187
-296.720	-200.000	-0.040	-0.281
-295.705	-200.000	-0.013	-0.075
-294.691	-51.959	-0.143	-0.066
-293.676	800.000	0.096	0.303
-292.662	-200.000	-0.004	0.021
-291.647	65.073	0.174	-0.174
-290.632	-17.187	0.264	-0.165
-289.618	33.409	0.204	-0.175
-288.603	-200.000	0.093	-0.449
-287.589	-137.407	-0.237	-0.027
-286.574	-200.000	0.014	0.219
-285.559	273.755	0.126	-0.222
-284.545	415.859	0.138	-0.293
-283.530	-200.000	0.027	-0.284
-282.516	220.500	-0.110	-0.175
-281.501	135.288	0.157	0.203
-280.486	-113.541	0.016	0.003
-279.472	800.000	-0.111	0.401
-278.457	25.555	0.143	-0.118
-277.443	-28.292	-0.194	-0.111
-276.428	12.811	0.138	0.106
-275.413	-200.000	-0.011	-0.193
-274.399	800.000	0.072	0.243
-273.384	54.001	-0.202	0.192
-272.370	269.347	-0.174	-0.303
-271.355	-19.425	0.420	-0.259
-270.340	9.346	-0.198	-0.149
-269.326	-200.000	-0.002	-0.165
-268.311	-124.015	0.374	0.058
-267.297	183.910	0.091	0.134
-266.282	128.148	-0.168	0.213
-265.267	69.077	0.302	-0.308
-264.253	-200.000	0.003	0.090
-263.238	-99.551	0.050	-0.012
-262.224	-200.000	0.023	-0.250
-261.209	-85.873	0.103	-0.032
-260.195	490.289	-0.033	-0.074
-259.180	-2.917	-0.256	-0.177
-258.165	-176.378	0.230	0.006
-257.151	800.000	0.110	0.442
-256.136	-16.854	0.133	-0.083
-255.122	-109.290	-0.154	0.032
-254.107	-118.895	-0.173	0.030
-253.092	4.257	0.352	-0.255
-252.078	110.812	0.215	-0.256
-251.063	12.363	0.109	-0.083
-250.049	273.083	0.103	0.181
-249.034	378.373	0.041	-0.082
-248.019	122.503	-0.041	0.051
-247.005	-200.000	-0.030	-0.154
-245.990	225.320	0.185	0.297
-244.976	161.828	-0.062	-0.086
-243.961	-6.682	-0.130	-0.088
-242.946	-119.882	-0.193	-0.033
-241.932	203.102	0.067	0.103
-240.917	126.994	-0.305	0.383
-239.903	800.000	-0.081	0.267
-238.888	-200.000	0.026	0.231
-237.873	219.270	-0.096	-0.153
-236.859	315.090	-0.089	-0.165
-235.844	338.730	0.181	0.350
-234.830	-159.306	-0.340	0.019
-233.815	800.000	0.077	0.265
-232.800	800.000	0.106	0.440
-231.786	161.533	-0.112	-0.155
-230.771	-51.536	-0.402	-0.186
-229.757	-19.808	0.077	-0.047
-228.742	-72.778	0.267	0.097
-227.727	-55.453	0.152	-0.068
-226.713	-200.000	0.000	0.126
-225.698	-200.000	0.066	0.362
-224.684	-107.222	-0.146	0.032
-223.669	-78.572	0.070	-0.024
-222.655	108.586	0.154	-0.182
-221.640	800.000	-0.063	0.182
-220.625	21.400	-0.241	-0.194
-219.611	-200.000	0.009	-0.177
-218.596	-24.415	0.189	-0.112
-217.582	42.738	0.306	0.276
-216.567	23.853	-0.285	-0.232
-215.552	-147.347	0.477	0.040
-214.538	487.811	0.141	0.318
-213.523	-200.000	0.009	-0.048
-212.509	-153.552	-0.305	-0.021
-211.494	-200.000	0.001	-0.042
-210.479	48.376	0.123	0.114
-209.465	217.306	0.113	0.178
-208.450	-73.286	-0.146	0.053
-207.436	176.389	0.134	0.193
-206.421	199.885	0.131	0.199
-205.406	267.120	-0.055	-0.096
-204.392	-89.708	-0.357	0.103
-203.377	-200.000	-0.047	0.241
-202.363	-200.000	0.000	0.036
-201.348	795.536	0.038	-0.104
-200.333	-157.748	-0.016	0.001
-199.319	-200.000	-0.190	0.001
-198.304	76.751	-0.225	0.236
-197.290	-2.050	0.187	0.130
-196.275	162.010	-0.031	-0.043
-195.260	-116.728	-0.557	0.101
-194.246	-107.946	0.107	0.023
-193.231	433.520	-0.124	-0.267
-192.217	800.000	0.060	-0.223
-191.202	125.016	0.214	-0.267
-190.187	-200.000	-0.009	0.459
-189.173	256.806	-0.267	-0.453
-188.158	54.315	-0.066	-0.062
-187.144	61.589	0.199	-0.196
-186.129	-53.309	-0.201	-0.091
-185.114	-96.282	-0.272	-0.071
-184.100	214.821	-0.173	-0.272
-183.085	-200.000	0.012	-0.062
-182.071	-65.793	0.085	-0.034
-181.056	358.250	-0.157	-0.311
-180.042	-200.000	0.063	-0.405
-179.027	429.229	-0.085	-0.181
-178.012	-192.143	0.216	-0.002
-176.998	8.300	0.215	-0.160
-175.983	800.000	-0.039	-0.167
-174.969	355.658	-0.121	0.238
-173.954	-95.622	-0.127	0.034
-172.939	800.000	0.023	0.092
-171.925	-83.121	0.092	0.029
-170.910	85.835	0.173	0.188
-169.896	800.000	0.078	0.245
-168.881	599.468	-0.151	0.370
-167.866	-114.955	0.158	0.030
-166.852	265.284	-0.088	0.151
-165.837	218.269	0.070	0.111
-164.823	-200.000	-0.026	-0.362
-163.808	-140.750	-0.326	0.033
-162.793	800.000	-0.063	0.231
-161.779	-105.190	-0.065	0.015
-160.764	800.000	0.060	-0.198
-159.750	207.824	0.114	0.176
-158.735	512.395	-0.221	-0.509
-157.720	-35.164	-0.077	-0.042
-156.706	46.058	-0.219	-0.200
-155.691	-200.000	-0.027	-0.162
-154.677	131.408	0.217	-0.275
-153.662	-26.181	0.182	0.105
-152.647	-14.528	-0.140	-0.089
-151.633	-46.408	-0.155	-0.075
-150.618	39.910	0.187	0.166
-149.604	209.233	0.207	0.321
-148.589	-200.000	0.017	-0.194
-147.574	-103.583	-0.173	-0.040
-146.560	330.981	-0.115	0.220
-145.545	22.788	0.468	0.378
-144.531	-81.678	0.254	0.082
-143.516	551.997	0.163	-0.387
-142.502	659.386	-0.169	0.429
-141.487	81.556	0.096	-0.102
-140.472	-91.180	-0.140	0.040
-139.458	-90.184	0.037	0.011
-138.443	82.567	0.114	0.122
-137.429	800.000	-0.069	0.224
-136.414	285.449	-0.235	-0.418
-135.399	-113.474	0.559	-0.108
-134.385	262.058	0.115	0.196
-133.370	-107.535	-0.115	0.025
-132.356	-91.863	0.138	-0.039
-131.341	800.000	-0.016	-0.047
-130.326	177.377	0.203	0.291
-129.312	800.000	-0.010	-0.037
-128.297	-139.730	-0.250	0.026
-127.283	-89.708	0.252	0.073
-126.268	13.535	0.143	-0.110
-125.253	-28.408	-0.265	-0.151
-124.239	-114.752	0.085	-0.016
-123.224	-65.549	0.145	0.057
-122.210	800.000	-0.063	0.270
-121.195	-1.749	0.123	-0.086
