DTS Sentinel unit serial number:	SN413079Multiplexer serial number:	ORYXHardware model number:	OX4-SRSoftware version number:	ORYX F/W v4.00 Oryx Data Collector v3.7.2.0data status	okinstallation	princeton_trtdifferential loss correction	single-endedforward channel	channel 4reverse channel	N/Adate	2019/09/15time	04:57:35forward acquisition time	60.00reverse acquisition time	0.00gamma	496.2192k internal	0.2311k external	0.2311temperature offset calibration	1.0044default loss term (dB/km)	0.3790temperature slope calibration	1.0000multiplexer offset coefficient	1.0000multiplexer slope coefficient	1.0000fibre end	0.00T internal ref (°C)	30.69T ext. ref 1 (°C)	4.84T ext. ref 2 (°C)	25.16length (m)	temperature (°C)	Stokes	anti-Stokes-747.200	116.128	-0.131	-0.163
-746.185	800.000	0.079	0.257
-745.171	-71.356	-0.299	0.114
-744.156	-19.492	-0.360	0.226
-743.142	-97.503	-0.130	-0.034
-742.127	800.000	0.038	0.115
-741.112	-32.912	0.040	-0.023
-740.098	-179.612	-0.138	-0.003
-739.083	-200.000	-0.044	-0.330
-738.069	-62.393	-0.351	-0.148
-737.054	-200.000	-0.012	-0.468
-736.039	-17.557	-0.224	0.143
-735.025	527.642	-0.141	0.338
-734.010	-75.319	-0.234	0.085
-732.996	28.971	-0.248	-0.214
-731.981	-28.046	0.277	-0.163
-730.966	47.392	-0.067	-0.063
-729.952	-200.000	0.010	0.335
-728.937	-71.198	-0.193	0.074
-727.923	157.513	-0.064	-0.090
-726.908	-200.000	-0.022	0.149
-725.894	-200.000	-0.027	-0.265
-724.879	115.192	0.053	-0.065
-723.864	-45.500	0.396	0.199
-722.850	64.425	-0.185	-0.189
-721.835	91.576	-0.159	-0.182
-720.821	188.879	-0.090	-0.137
-719.806	-39.862	0.085	-0.045
-718.791	176.369	0.169	-0.249
-717.777	-130.263	0.113	0.016
-716.762	187.613	-0.159	-0.240
-715.748	-200.000	-0.067	0.320
-714.733	236.322	-0.076	0.128
-713.718	-190.613	-0.266	0.003
-712.704	497.072	-0.098	-0.230
-711.689	511.095	-0.063	0.149
-710.675	800.000	0.038	-0.155
-709.660	-78.151	0.014	0.005
-708.645	293.509	0.074	0.138
-707.631	-89.932	0.189	-0.056
-706.616	-200.000	0.013	-0.080
-705.602	-40.828	-0.464	-0.244
-704.587	395.616	0.044	0.093
-703.572	-137.252	0.176	0.020
-702.558	-56.319	-0.316	-0.143
-701.543	-101.991	0.171	-0.042
-700.529	-58.857	-0.134	0.059
-699.514	-150.263	-0.236	0.018
-698.499	710.701	0.104	-0.279
-697.485	-200.000	0.010	0.172
-696.470	-2.567	-0.172	-0.122
-695.456	800.000	0.010	0.029
-694.441	-79.728	0.089	0.030
-693.426	2.339	-0.287	-0.211
-692.412	363.930	-0.087	-0.177
-691.397	-200.000	-0.011	0.243
-690.383	-53.990	-0.191	0.088
-689.368	-200.000	0.018	0.131
-688.354	-89.297	0.332	-0.099
-687.339	-200.000	0.007	0.295
-686.324	800.000	0.045	0.151
-685.310	-139.895	-0.185	0.020
-684.295	800.000	0.022	-0.075
-683.281	-200.000	-0.032	-0.332
-682.266	330.283	-0.116	-0.226
-681.251	194.386	0.230	0.353
-680.237	-19.663	0.259	-0.162
-679.222	-146.023	-0.296	0.026
-678.208	-32.051	0.140	0.079
-677.193	342.762	-0.071	0.140
-676.178	-45.597	-0.215	-0.108
-675.164	-156.839	-0.230	0.014
-674.149	5.609	-0.088	-0.066
-673.135	-124.420	0.384	-0.061
-672.120	291.925	-0.067	0.124
-671.105	285.454	0.100	0.182
-670.091	-11.427	-0.094	-0.063
-669.076	487.984	0.029	0.067
-668.062	-200.000	-0.076	-0.401
-667.047	-200.000	-0.002	-0.296
-666.032	-200.000	-0.010	-0.284
-665.018	68.863	0.107	-0.111
-664.003	34.621	0.280	-0.248
-662.989	-156.859	0.357	-0.022
-661.974	6.258	0.307	-0.230
-660.959	-200.000	-0.058	-0.373
-659.945	329.160	-0.123	0.238
-658.930	243.618	0.055	-0.094
-657.916	81.410	-0.077	-0.084
-656.901	437.201	-0.144	-0.317
-655.886	739.272	-0.096	0.262
-654.872	624.375	0.162	0.412
-653.857	800.000	-0.072	-0.255
-652.843	520.798	0.074	-0.176
-651.828	107.208	-0.077	0.093
-650.814	-200.000	-0.055	0.331
-649.799	-171.788	-0.286	-0.009
-648.784	-66.842	-0.345	0.138
-647.770	-5.403	0.145	0.101
-646.755	-200.000	0.005	-0.037
-645.741	74.142	-0.088	-0.093
-644.726	493.011	-0.071	0.166
-643.711	-147.740	0.026	-0.002
-642.697	-200.000	-0.014	0.097
-641.682	81.234	0.205	0.224
-640.668	-195.858	0.072	0.001
-639.653	252.210	-0.077	0.132
-638.638	-109.625	-0.237	0.050
-637.624	-200.000	0.017	0.220
-636.609	-153.410	0.305	0.021
-635.595	-200.000	-0.009	-0.142
-634.580	-107.223	0.098	0.022
-633.565	-101.497	0.205	-0.050
-632.551	-16.113	0.370	-0.238
-631.536	321.836	-0.142	-0.273
-630.522	-108.860	0.221	0.048
-629.507	1.582	0.205	0.149
-628.492	-34.627	0.203	0.112
-627.478	-82.128	-0.198	0.065
-626.463	800.000	0.036	-0.147
-625.449	106.807	-0.224	-0.269
-624.434	-93.939	-0.321	0.089
-623.419	-74.036	-0.117	0.043
-622.405	244.552	0.021	0.036
-621.390	-200.000	-0.024	0.109
-620.376	-94.787	-0.394	-0.108
-619.361	-76.203	0.156	-0.056
-618.346	-200.000	0.034	-0.273
-617.332	35.931	0.314	0.279
-616.317	800.000	-0.035	0.128
-615.303	-200.000	-0.009	-0.307
-614.288	-129.870	0.164	0.023
-613.273	72.112	-0.289	-0.304
-612.259	113.076	-0.165	-0.202
-611.244	545.264	0.063	0.152
-610.230	-39.771	-0.085	0.045
-609.215	423.475	0.111	-0.240
-608.201	-28.517	-0.302	0.176
-607.186	121.166	-0.120	0.151
-606.171	696.046	0.007	0.018
-605.157	-58.120	-0.142	0.063
-604.142	-118.239	-0.363	0.065
-603.128	14.167	-0.154	0.121
-602.113	-27.344	-0.343	-0.201
-601.098	-109.125	0.209	-0.045
-600.084	-172.119	-0.339	-0.011
-599.069	140.793	0.106	-0.142
-598.055	-200.000	0.033	-0.227
-597.040	565.284	-0.022	-0.054
-596.025	-109.532	-0.133	0.028
-595.011	-200.000	-0.007	-0.078
-593.996	-77.010	0.225	0.079
-592.982	78.268	-0.152	-0.164
-591.967	-200.000	0.028	-0.244
-590.952	-200.000	-0.020	0.110
-589.938	800.000	-0.061	-0.172
-588.923	108.783	-0.222	-0.268
-587.909	-76.267	0.121	0.043
-586.894	-6.500	0.187	-0.128
-585.879	800.000	0.042	-0.180
-584.865	-162.879	-0.124	-0.006
-583.850	-46.852	-0.156	0.077
-582.836	-48.629	0.144	-0.070
-581.821	-98.844	-0.234	-0.060
-580.806	125.079	-0.190	0.242
-579.792	-163.867	-0.096	-0.005
-578.777	111.211	0.212	-0.258
-577.763	102.448	-0.177	0.208
-576.748	-200.000	-0.007	-0.053
-575.733	-38.266	-0.194	0.104
-574.719	800.000	0.066	0.270
-573.704	-87.750	0.043	-0.013
-572.690	583.329	0.132	0.327
-571.675	-162.636	0.193	-0.010
-570.661	800.000	-0.018	0.052
-569.646	-118.847	0.289	0.051
-568.631	-200.000	0.005	-0.170
-567.617	589.787	-0.056	-0.140
-566.602	-37.539	0.129	0.069
-565.588	-69.655	0.226	0.087
-564.573	-39.364	-0.214	0.113
-563.558	-37.385	0.272	-0.147
-562.544	-156.998	-0.192	0.012
-561.529	-200.000	0.006	-0.227
-560.515	-135.655	-0.144	0.017
-559.500	-200.000	0.010	-0.254
-558.485	-33.322	0.244	0.136
-557.471	-86.286	-0.323	0.100
-556.456	163.850	0.110	-0.156
-555.442	-78.982	0.256	-0.088
-554.427	171.495	-0.172	-0.248
-553.412	-200.000	0.030	-0.207
-552.398	626.089	0.050	-0.127
-551.383	-139.715	0.060	0.006
-550.369	29.001	-0.021	0.018
-549.354	548.188	-0.144	0.346
-548.339	-200.000	0.021	0.173
-547.325	159.397	-0.103	0.145
-546.310	-67.938	-0.284	0.112
-545.296	47.051	0.195	-0.183
-544.281	-99.845	-0.252	0.063
-543.266	-48.391	-0.312	-0.151
-542.252	8.294	-0.225	-0.171
-541.237	138.771	-0.171	-0.226
-540.223	-71.436	-0.100	0.038
-539.208	149.171	0.097	0.133
-538.193	-11.165	-0.096	0.063
-537.179	-2.010	0.169	-0.119
-536.164	-200.000	-0.070	0.373
-535.150	-200.000	-0.026	-0.126
-534.135	-200.000	0.012	-0.204
-533.121	-78.012	0.103	-0.036
-532.106	212.854	-0.185	0.293
-531.091	1.357	0.154	-0.111
-530.077	-186.335	0.122	0.002
-529.062	-97.337	-0.139	0.036
-528.048	-79.926	0.198	-0.067
-527.033	59.087	0.371	0.367
-526.018	-154.640	0.272	-0.018
-525.004	800.000	0.146	-0.500
-523.989	69.962	0.083	-0.086
-522.975	-200.000	0.017	-0.150
-521.960	-27.586	-0.269	-0.157
-520.945	-1.875	-0.118	0.084
-519.931	-59.364	0.375	0.162
-518.916	151.290	0.145	0.199
-517.902	-113.843	-0.307	-0.060
-516.887	-85.073	-0.273	-0.086
-515.872	-31.924	0.409	0.230
-514.858	-106.177	-0.277	-0.063
-513.843	430.608	0.048	0.104
-512.829	-141.608	-0.374	-0.038
-511.814	-142.804	0.151	-0.015
-510.799	-139.968	-0.055	-0.006
-509.785	-105.715	0.322	0.073
-508.770	352.739	0.047	-0.094
-507.756	-13.504	0.124	0.081
-506.741	-200.000	0.016	-0.145
-505.726	-37.524	0.328	0.176
-504.712	-104.408	-0.414	0.096
-503.697	137.992	0.149	-0.196
-502.683	-34.279	-0.265	0.146
-501.668	77.819	-0.189	0.203
-500.653	-86.648	0.183	-0.056
-499.639	92.425	-0.313	-0.355
-498.624	-7.735	0.282	-0.192
-497.610	-24.582	-0.310	0.185
-496.595	213.541	-0.095	0.151
-495.581	-127.702	0.071	0.010
-494.566	800.000	-0.050	-0.185
-493.551	576.900	-0.092	0.225
-492.537	-17.905	0.098	-0.062
-491.522	137.788	-0.036	-0.048
-490.508	-78.958	0.177	0.061
-489.493	-113.396	-0.241	0.048
-488.478	625.990	0.110	-0.278
-487.464	-18.686	0.298	-0.187
-486.449	-108.588	-0.132	-0.028
-485.435	-27.707	0.121	0.070
-484.420	254.297	0.027	-0.046
-483.405	61.496	0.139	-0.139
-482.391	-45.853	0.099	0.049
-481.376	151.724	-0.198	0.271
-480.362	-80.800	-0.208	0.069
-479.347	10.273	0.158	0.121
-478.332	-50.049	0.302	0.144
-477.318	-60.193	-0.248	-0.106
-476.303	-80.617	-0.155	0.052
-475.289	-46.053	0.127	-0.063
-474.274	800.000	0.041	-0.123
-473.259	-200.000	-0.023	-0.112
-472.245	-103.321	-0.247	0.059
-471.230	-41.268	-0.243	-0.126
-470.216	-200.000	-0.017	-0.144
-469.201	310.642	0.086	0.162
-468.186	-59.637	-0.468	-0.201
-467.172	-200.000	-0.069	-0.325
-466.157	195.813	-0.230	0.352
-465.143	99.178	0.095	0.110
-464.128	-200.000	-0.028	-0.286
-463.113	-200.000	-0.026	-0.335
-462.099	71.100	-0.187	-0.194
-461.084	800.000	-0.008	0.023
-460.070	1.312	-0.162	0.117
-459.055	800.000	0.031	-0.123
-458.040	387.675	-0.038	0.079
-457.026	-110.143	0.091	0.019
-456.011	800.000	-0.125	0.383
-454.997	452.301	-0.076	0.168
-453.982	-12.350	0.106	-0.069
-452.968	-141.798	-0.290	-0.029
-451.953	-118.510	-0.269	0.048
-450.938	426.342	-0.118	-0.255
-449.924	-123.106	0.035	0.006
-448.909	-200.000	-0.008	0.052
-447.895	357.362	0.032	0.065
-446.880	-137.813	0.214	-0.024
-445.865	-41.499	-0.311	0.160
-444.851	12.789	-0.216	-0.168
-443.836	257.576	0.123	0.213
-442.822	-200.000	0.002	0.209
-441.807	-89.391	-0.155	-0.046
-440.792	113.039	0.237	0.288
-439.778	47.967	-0.150	0.141
-438.763	800.000	-0.036	0.120
-437.749	377.720	-0.113	0.231
-436.734	800.000	0.088	-0.257
-435.719	-74.146	0.047	0.017
-434.705	-169.373	0.125	0.005
-433.690	211.850	-0.084	-0.132
-432.676	-7.974	0.182	0.123
-431.661	723.768	-0.052	-0.139
-430.646	-17.749	0.114	0.071
-429.632	-51.688	0.262	0.123
-428.617	-200.000	-0.017	0.153
-427.603	-23.258	-0.165	-0.099
-426.588	491.645	0.052	-0.120
-425.573	276.323	-0.256	0.456
-424.559	-0.296	0.208	0.148
-423.544	-24.254	0.171	0.102
-422.530	-41.133	0.138	-0.071
-421.515	800.000	0.076	-0.314
-420.500	-200.000	0.024	0.211
-419.486	123.249	0.028	-0.035
-418.471	175.213	0.139	-0.201
-417.457	352.144	0.104	-0.206
-416.442	8.822	0.031	-0.024
-415.428	-148.186	-0.117	-0.010
-414.413	-28.957	-0.197	0.113
-413.398	-75.078	0.306	0.110
-412.384	12.563	0.089	0.069
-411.369	-14.922	0.043	0.027
-410.355	-200.000	0.022	-0.099
-409.340	-71.180	-0.406	0.153
-408.325	152.255	0.160	-0.218
-407.311	-51.889	0.112	-0.052
-406.296	143.789	0.052	0.069
-405.282	-200.000	0.020	0.288
-404.267	11.492	0.106	0.082
-403.252	-200.000	0.071	-0.523
-402.238	91.696	-0.148	-0.167
-401.223	-118.114	-0.404	-0.072
-400.209	-200.000	-0.009	0.182
-399.194	64.645	-0.140	0.141
-398.179	800.000	0.024	0.091
-397.165	223.088	0.149	0.240
-396.150	-200.000	-0.047	-0.255
-395.136	-19.464	-0.397	0.247
-394.121	-200.000	-0.006	0.358
-393.106	304.495	0.068	0.126
-392.092	-1.656	-0.387	-0.273
-391.077	122.092	-0.062	0.077
-390.063	38.433	0.104	0.093
-389.048	-144.113	0.157	0.015
-388.033	78.205	-0.252	-0.269
-387.019	-200.000	-0.034	0.398
-386.004	29.740	-0.150	0.128
-384.990	-7.515	-0.192	0.130
-383.975	655.392	0.103	-0.265
-382.960	73.724	-0.110	-0.116
-381.946	-36.977	-0.196	-0.105
-380.931	-200.000	0.008	-0.068
-379.917	-184.848	0.224	-0.004
-378.902	469.179	0.039	0.088
-377.888	-200.000	-0.062	0.347
-376.873	96.230	0.085	0.097
-375.858	800.000	-0.015	-0.056
-374.844	800.000	-0.050	-0.187
-373.829	-200.000	-0.002	-0.250
-372.815	800.000	-0.101	-0.301
-371.800	-81.336	0.109	0.036
-370.785	90.725	-0.124	-0.139
-369.771	-133.568	0.117	-0.015
-368.756	-115.314	0.085	-0.016
-367.742	292.922	-0.244	-0.445
-366.727	-58.401	-0.407	-0.177
-365.712	55.376	-0.141	0.137
-364.698	98.545	0.201	0.231
-363.683	41.871	-0.212	0.192
-362.669	-45.395	-0.450	-0.223
-361.654	-200.000	0.003	0.146
-360.639	800.000	0.043	-0.154
-359.625	-200.000	0.039	0.246
-358.610	-48.592	0.070	0.034
-357.596	-69.506	-0.250	-0.096
-356.581	800.000	-0.086	0.248
-355.566	139.650	0.107	-0.141
-354.552	-2.098	0.086	0.061
-353.537	144.014	-0.259	-0.345
-352.523	800.000	0.084	-0.278
-351.508	-76.185	0.152	-0.054
-350.493	726.535	0.029	0.078
-349.479	-4.898	0.192	-0.132
-348.464	-184.489	-0.260	0.004
-347.450	-200.000	0.065	0.518
-346.435	146.750	0.089	0.119
-345.420	589.082	-0.135	-0.332
-344.406	800.000	-0.023	0.075
-343.391	235.195	0.045	0.075
-342.377	20.303	-0.158	0.128
-341.362	36.517	0.158	-0.139
-340.348	-73.079	0.312	-0.115
-339.333	479.599	0.139	0.315
-338.318	-96.426	-0.215	-0.057
-337.304	-200.000	-0.021	-0.354
-336.289	43.460	0.092	-0.084
-335.275	-75.867	0.220	0.078
-334.260	-14.479	-0.213	-0.137
-333.245	-53.535	0.071	-0.033
-332.231	-200.000	-0.018	0.433
-331.216	246.970	-0.075	-0.126
-330.202	-36.665	-0.229	-0.123
-329.187	-24.307	0.412	0.245
-328.172	773.380	-0.124	0.337
-327.158	800.000	-0.158	0.486
-326.143	-200.000	-0.009	0.239
-325.129	8.983	-0.209	-0.157
-324.114	-200.000	-0.004	-0.056
-323.099	177.307	-0.081	0.117
-322.085	114.234	-0.153	-0.186
-321.070	-200.000	-0.022	-0.138
-320.056	-33.526	0.207	-0.114
-319.041	-200.000	0.003	-0.046
-318.026	1.273	0.108	0.077
-317.012	14.196	-0.197	0.154
-315.997	186.674	0.097	0.145
-314.983	-58.605	-0.355	-0.153
-313.968	452.833	-0.118	0.260
-312.953	-200.000	0.025	0.181
-311.939	48.504	0.262	0.245
-310.924	104.974	0.043	0.051
-309.910	-58.620	0.361	0.156
-308.895	800.000	-0.020	-0.062
-307.880	-0.849	0.112	-0.079
-306.866	-86.615	-0.066	0.020
-305.851	-200.000	0.034	-0.471
-304.837	257.026	0.055	-0.094
-303.822	39.923	0.242	0.217
-302.807	47.687	0.158	0.147
-301.793	-115.305	0.247	0.047
-300.778	-200.000	0.022	-0.200
-299.764	-79.267	0.106	-0.036
-298.749	-172.691	0.042	0.001
-297.735	366.901	0.048	-0.097
-296.720	-200.000	-0.054	-0.393
-295.705	-123.616	-0.256	-0.041
-294.691	736.539	-0.031	-0.083
-293.676	-200.000	0.054	-0.667
-292.662	-200.000	0.024	0.319
-291.647	32.059	-0.145	0.125
-290.632	584.850	-0.106	0.259
-289.618	-40.424	-0.200	-0.104
-288.603	-55.236	-0.181	-0.081
-287.589	-75.570	0.226	0.080
-286.574	-55.348	-0.103	0.046
-285.559	-150.985	-0.117	-0.009
-284.545	-22.256	0.373	-0.226
-283.530	-124.456	0.412	-0.064
-282.516	-36.089	0.143	-0.077
-281.501	45.764	0.132	0.122
-280.486	800.000	-0.028	-0.122
-279.472	-183.510	0.194	0.003
-278.457	800.000	-0.040	-0.120
-277.443	203.021	0.022	-0.033
-276.428	-200.000	0.031	-0.162
-275.413	-27.361	0.160	0.093
-274.399	25.216	-0.081	0.067
-273.384	-200.000	0.049	-0.266
-272.370	-154.198	-0.181	-0.012
-271.355	-80.748	-0.127	0.042
-270.340	-6.073	0.123	0.083
-269.326	-200.000	-0.015	-0.078
-268.311	-200.000	0.007	-0.284
-267.297	159.702	0.028	-0.040
-266.282	-94.923	0.324	-0.087
-265.267	18.128	0.162	-0.129
-264.253	294.117	-0.020	0.036
-263.238	-200.000	0.015	-0.092
-262.224	-44.601	-0.091	0.046
-261.209	-200.000	-0.018	0.370
-260.195	103.606	0.080	-0.094
-259.180	45.471	0.097	-0.089
-258.165	203.058	0.142	-0.218
-257.151	-39.678	0.306	0.159
-256.136	-45.856	0.085	-0.042
-255.122	91.887	0.074	-0.083
-254.107	239.206	0.178	0.294
-253.092	-200.000	0.009	0.302
-252.078	800.000	0.051	-0.161
-251.063	-74.904	0.305	0.109
-250.049	-188.104	0.396	-0.005
-249.034	800.000	0.053	0.171
-248.019	800.000	0.039	0.170
-247.005	-169.808	-0.043	0.002
-245.990	148.454	-0.029	0.039
-244.976	71.942	-0.123	0.127
-243.961	-107.547	0.090	0.020
-242.946	800.000	0.048	0.146
-241.932	-2.885	-0.290	-0.201
-240.917	-73.647	0.117	-0.042
-239.903	609.381	0.043	0.107
-238.888	92.579	0.146	-0.164
-237.873	130.449	0.185	-0.236
-236.859	-200.000	-0.048	-0.233
-235.844	800.000	0.010	-0.036
-234.830	-102.430	0.188	-0.045
-233.815	475.451	0.043	0.097
-232.800	-106.973	-0.145	-0.032
-231.786	-76.409	0.028	0.010
-230.771	43.277	-0.033	0.030
-229.757	-200.000	0.022	0.272
-228.742	-200.000	0.007	-0.037
-227.727	-200.000	0.013	-0.354
-226.713	211.803	0.095	-0.149
-225.698	-172.939	-0.135	-0.004
-224.684	800.000	-0.055	0.197
-223.669	120.530	-0.135	-0.167
-222.655	800.000	0.081	-0.254
-221.640	81.668	-0.209	-0.225
-220.625	547.611	0.157	-0.373
-219.611	-200.000	-0.013	0.085
-218.596	46.559	0.151	0.140
-217.582	-200.000	-0.013	0.217
-216.567	800.000	0.086	0.248
-215.552	-27.996	-0.112	0.065
-214.538	55.208	-0.113	0.109
-213.523	-26.530	0.282	-0.164
-212.509	-200.000	-0.003	0.131
-211.494	31.228	0.053	-0.045
-210.479	-200.000	0.047	-0.381
-209.465	-124.712	-0.187	-0.029
-208.450	0.498	0.198	0.140
-207.436	95.953	-0.102	0.116
-206.421	-139.602	0.374	0.040
-205.406	-80.469	0.095	-0.031
-204.392	54.440	0.058	-0.056
-203.377	-48.301	-0.271	0.130
-202.363	-2.864	0.107	-0.074
-201.348	800.000	0.028	0.112
-200.333	-71.101	-0.011	-0.004
-199.319	-62.206	-0.224	-0.093
-198.304	-165.353	0.277	0.012
-197.290	640.627	-0.085	0.214
-196.275	153.139	0.067	0.091
-195.260	800.000	0.038	0.151
-194.246	800.000	0.041	-0.160
-193.231	120.586	0.073	0.090
-192.217	-135.906	0.454	0.053
-191.202	587.419	0.092	0.225
-190.187	-200.000	0.048	0.317
-189.173	81.056	0.083	0.089
-188.158	-90.291	0.166	-0.048
-187.144	422.544	0.042	0.091
-186.129	-151.833	-0.188	-0.014
-185.114	88.575	-0.259	-0.286
-184.100	162.575	-0.106	0.147
-183.085	-200.000	-0.006	0.126
-182.071	-161.817	0.413	-0.021
-181.056	-200.000	-0.005	-0.102
-180.042	68.939	-0.114	0.117
-179.027	156.230	-0.059	-0.081
-178.012	-138.850	0.396	0.043
-176.998	-92.675	0.231	0.064
-175.983	800.000	0.149	-0.453
-174.969	142.054	-0.168	-0.221
-173.954	112.136	0.079	0.095
-172.939	-200.000	0.082	0.580
-171.925	-45.806	0.024	-0.012
-170.910	-55.508	-0.214	0.095
-169.896	9.807	-0.122	0.092
-168.881	-200.000	0.051	-0.260
-167.866	33.002	-0.153	-0.132
-166.852	64.197	0.063	-0.063
-165.837	-131.277	0.226	-0.030
-164.823	-147.904	0.228	0.019
-163.808	208.483	0.192	0.298
-162.793	172.423	0.168	0.240
-161.779	114.195	0.108	-0.131
-160.764	800.000	-0.040	-0.133
-159.750	-200.000	-0.045	-0.263
-158.735	-26.320	-0.106	0.062
-157.720	800.000	-0.106	0.329
-156.706	1.558	0.099	-0.071
-155.691	114.334	-0.193	0.233
-154.677	-200.000	0.033	0.213
-153.662	211.630	-0.110	0.173
-152.647	-52.810	-0.237	0.108
-151.633	7.073	0.102	-0.076
-150.618	-200.000	-0.047	0.364
-149.604	-61.650	-0.079	0.033
-148.589	42.847	0.192	-0.174
-147.574	76.016	0.206	-0.216
-146.560	75.722	0.184	-0.193
-145.545	-89.495	-0.090	0.026
-144.531	-200.000	-0.002	0.228
-143.516	199.424	-0.022	0.034
-142.502	800.000	0.061	0.179
-141.487	192.943	-0.173	-0.259
-140.472	-69.337	-0.127	0.048
-139.458	262.165	-0.151	0.259
-138.443	18.601	-0.142	0.112
-137.429	-48.482	0.413	0.197
-136.414	-135.335	0.213	-0.025
-135.399	17.616	-0.156	-0.123
-134.385	-62.483	-0.353	0.145
-133.370	-94.793	0.139	-0.037
-132.356	-11.654	-0.106	0.069
-131.341	151.075	0.017	-0.023
-130.326	800.000	-0.032	-0.104
-129.312	-123.281	-0.557	-0.088
-128.297	-53.100	-0.227	0.104
-127.283	-68.008	0.065	0.025
-126.268	-7.054	0.220	0.148
-125.253	-2.805	0.274	0.190
-124.239	-76.465	-0.159	0.055
-123.224	-77.513	0.261	0.090
-122.210	31.524	0.071	0.060
-121.195	484.188	0.123	0.276
-120.180	800.000	-0.021	0.076
