DTS Sentinel unit serial number:	SN413079Multiplexer serial number:	ORYXHardware model number:	OX4-SRSoftware version number:	ORYX F/W v4.00 Oryx Data Collector v3.7.2.0data status	okinstallation	princeton_trtdifferential loss correction	single-endedforward channel	channel 4reverse channel	N/Adate	2019/09/17time	16:01:35forward acquisition time	60.00reverse acquisition time	0.00gamma	496.2192k internal	0.2287k external	0.2287temperature offset calibration	0.9980default loss term (dB/km)	0.3790temperature slope calibration	1.0000multiplexer offset coefficient	1.0000multiplexer slope coefficient	1.0000fibre end	0.00T internal ref (°C)	39.97T ext. ref 1 (°C)	0.37T ext. ref 2 (°C)	38.55length (m)	temperature (°C)	Stokes	anti-Stokes-747.200	-106.201	0.201	0.046
-746.185	-200.000	0.073	0.525
-745.171	104.703	-0.117	-0.141
-744.156	-150.887	-0.084	0.007
-743.142	-12.100	-0.141	0.095
-742.127	800.000	-0.125	0.453
-741.112	-200.000	-0.008	0.368
-740.098	-50.146	-0.235	0.114
-739.083	595.626	-0.114	-0.291
-738.069	209.266	0.222	0.357
-737.054	-43.498	0.155	0.080
-736.039	33.379	-0.141	-0.125
-735.025	28.020	0.235	0.203
-734.010	-89.045	-0.092	-0.028
-732.996	-33.876	0.236	-0.133
-731.981	18.204	0.279	-0.229
-730.966	533.729	-0.025	-0.060
-729.952	273.556	0.082	-0.149
-728.937	-67.164	0.244	0.099
-727.923	113.905	-0.114	-0.142
-726.908	-200.000	-0.012	-0.072
-725.894	100.716	-0.063	0.075
-724.879	-122.418	-0.306	0.051
-723.864	-29.329	-0.193	-0.113
-722.850	257.788	-0.018	-0.031
-721.835	-178.906	0.337	-0.008
-720.821	-17.895	0.136	-0.088
-719.806	85.597	0.049	-0.056
-718.791	35.272	0.094	0.084
-717.777	47.568	-0.227	0.217
-716.762	270.225	-0.155	-0.280
-715.748	-8.082	0.091	-0.062
-714.733	-76.553	0.163	-0.059
-713.718	239.380	0.096	-0.163
-712.704	-17.178	-0.172	-0.111
-711.689	38.090	0.141	-0.128
-710.675	-43.327	0.005	0.002
-709.660	205.226	0.176	-0.279
-708.645	74.589	-0.125	-0.135
-707.631	-200.000	0.024	0.116
-706.616	722.246	0.080	0.219
-705.602	89.703	-0.299	0.342
-704.587	345.456	0.101	0.204
-703.572	800.000	-0.100	0.444
-702.558	75.070	-0.143	-0.154
-701.543	227.176	-0.085	0.142
-700.529	387.141	-0.071	0.150
-699.514	407.898	0.055	-0.119
-698.499	-134.429	-0.278	0.035
-697.485	74.421	0.341	-0.367
-696.470	285.324	0.078	-0.144
-695.456	-145.347	0.047	0.004
-694.441	-4.060	0.015	0.011
-693.426	800.000	0.147	-0.455
-692.412	-159.488	0.240	0.014
-691.397	29.306	-0.166	-0.144
-690.383	-109.707	-0.236	-0.051
-689.368	-35.189	0.235	0.131
-688.354	-8.955	-0.024	0.016
-687.339	66.925	0.204	0.213
-686.324	232.050	-0.086	0.144
-685.310	54.898	-0.176	-0.174
-684.295	122.929	0.125	-0.160
-683.281	-48.172	-0.229	-0.113
-682.266	87.207	0.164	-0.185
-681.251	186.147	-0.119	-0.181
-680.237	-200.000	0.008	-0.084
-679.222	166.359	-0.207	-0.300
-678.208	800.000	0.081	0.234
-677.193	-171.229	-0.237	0.008
-676.178	-62.782	0.176	-0.075
-675.164	-128.268	-0.199	-0.029
-674.149	800.000	0.025	0.079
-673.135	-77.811	-0.307	0.108
-672.120	-109.788	-0.146	0.031
-671.105	800.000	-0.135	-0.403
-670.091	355.371	-0.037	-0.076
-669.076	-133.986	0.039	0.005
-668.062	-45.596	0.223	-0.113
-667.047	-20.003	-0.046	-0.029
-666.032	93.126	-0.369	-0.426
-665.018	21.388	-0.162	0.135
-664.003	800.000	0.039	0.123
-662.989	800.000	0.047	0.169
-661.974	104.839	-0.058	-0.070
-660.959	93.439	-0.124	0.144
-659.945	800.000	-0.087	-0.325
-658.930	-37.624	0.127	0.069
-657.916	800.000	-0.034	-0.098
-656.901	-97.692	0.076	-0.020
-655.886	36.296	-0.133	-0.120
-654.872	166.598	0.170	-0.247
-653.857	-58.864	-0.318	0.141
-652.843	-177.901	-0.159	0.004
-651.828	84.904	-0.182	-0.204
-650.814	-5.839	0.223	-0.156
-649.799	26.584	0.265	-0.227
-648.784	247.174	0.237	-0.410
-647.770	14.906	-0.171	0.137
-646.755	-120.633	-0.402	0.070
-645.741	260.291	0.169	0.298
-644.726	1.638	0.097	-0.071
-643.711	-42.948	-0.127	-0.066
-642.697	-56.982	-0.199	0.090
-641.682	-130.946	-0.193	-0.026
-640.668	-36.508	0.137	0.076
-639.653	-1.770	0.235	0.169
-638.638	136.169	-0.149	-0.199
-637.624	-28.617	-0.169	-0.100
-636.609	85.883	-0.208	-0.234
-635.595	95.739	-0.123	-0.143
-634.580	-13.053	-0.094	-0.062
-633.565	-28.008	-0.385	-0.228
-632.551	155.561	-0.218	0.307
-631.536	-65.877	0.305	-0.125
-630.522	-61.501	0.387	-0.166
-629.507	-0.800	0.038	0.028
-628.492	228.471	0.032	-0.053
-627.478	-30.584	-0.108	0.062
-626.463	-200.000	-0.020	0.274
-625.449	800.000	0.107	0.388
-624.434	158.403	0.057	-0.081
-623.419	89.611	-0.141	0.160
-622.405	-200.000	-0.007	-0.041
-621.390	-171.776	-0.273	-0.009
-620.376	231.455	-0.092	0.155
-619.361	-85.334	-0.165	-0.053
-618.346	59.176	-0.208	-0.209
-617.332	-138.772	-0.169	0.019
-616.317	156.492	0.154	0.217
-615.303	394.162	0.052	-0.111
-614.288	43.781	0.096	0.090
-613.273	38.339	-0.231	-0.210
-612.259	373.279	0.071	-0.148
-611.244	800.000	0.046	-0.164
-610.230	800.000	0.064	-0.232
-609.215	-126.632	-0.333	0.050
-608.201	155.035	0.038	0.053
-607.186	186.047	0.136	-0.206
-606.171	-200.000	0.021	-0.154
-605.157	-53.019	0.009	0.004
-604.142	346.350	-0.127	-0.255
-603.128	0.226	0.157	0.114
-602.113	-45.703	-0.341	0.172
-601.098	-65.103	0.257	-0.106
-600.084	-200.000	0.040	0.285
-599.069	-23.334	0.167	0.102
-598.055	-200.000	-0.005	0.072
-597.040	508.880	-0.040	0.095
-596.025	-56.550	0.248	-0.112
-595.011	-9.807	0.036	0.025
-593.996	-28.334	-0.309	-0.182
-592.982	20.399	-0.358	0.295
-591.967	-165.058	-0.062	-0.003
-590.952	-116.703	0.169	-0.032
-589.938	-140.705	0.039	-0.004
-588.923	91.548	0.184	0.210
-587.909	-6.908	-0.078	0.054
-586.894	3.198	-0.088	0.065
-585.879	-200.000	0.007	-0.115
-584.865	231.605	0.145	0.242
-583.850	87.382	0.233	0.263
-582.836	70.734	-0.272	0.287
-581.821	-120.743	-0.175	-0.030
-580.806	-200.000	0.081	-0.363
-579.792	764.622	0.103	0.286
-578.777	-200.000	-0.004	-0.181
-577.763	-200.000	-0.003	-0.053
-576.748	-29.795	-0.080	-0.047
-575.733	-89.567	-0.209	0.063
-574.719	-176.746	-0.287	0.007
-573.704	689.441	0.057	-0.152
-572.690	-200.000	-0.021	-0.184
-571.675	1.888	-0.350	-0.257
-570.661	800.000	0.119	-0.449
-569.646	-131.117	0.298	0.040
-568.631	-34.469	0.033	0.019
-567.617	-143.350	-0.264	-0.026
-566.602	-21.479	0.256	0.159
-565.588	800.000	0.015	0.057
-564.573	288.285	-0.065	0.120
-563.558	-19.775	0.189	0.119
-562.544	60.837	-0.161	0.163
-561.529	25.644	-0.273	0.231
-560.515	-200.000	0.016	0.125
-559.500	-60.842	0.258	0.111
-558.485	-200.000	0.041	0.292
-557.471	-61.983	-0.075	-0.032
-556.456	480.797	-0.096	-0.223
-555.442	41.620	0.039	0.036
-554.427	238.512	0.150	0.253
-553.412	217.590	-0.180	0.291
-552.398	92.541	-0.239	-0.274
-551.383	-163.275	0.194	-0.009
-550.369	-51.425	-0.168	0.080
-549.354	83.593	-0.227	-0.252
-548.339	-175.004	-0.111	0.003
-547.325	7.565	0.149	0.114
-546.310	52.721	0.224	0.218
-545.296	474.576	0.134	-0.308
-544.281	-34.185	0.270	0.151
-543.266	125.074	0.103	-0.132
-542.252	-7.512	0.112	0.077
-541.237	221.156	0.066	-0.108
-540.223	-124.206	0.130	0.021
-539.208	-200.000	-0.010	0.164
-538.193	777.266	0.146	0.405
-537.179	800.000	0.015	0.046
-536.164	-140.957	-0.293	-0.031
-535.150	477.119	0.068	0.156
-534.135	-14.093	0.190	-0.125
-533.121	-80.746	-0.181	0.061
-532.106	800.000	0.053	-0.199
-531.091	-200.000	0.012	-0.292
-530.077	6.461	-0.153	-0.116
-529.062	-107.899	-0.136	-0.030
-528.048	-89.325	0.196	0.059
-527.033	-31.534	0.140	0.080
-526.018	495.584	-0.124	-0.291
-525.004	-68.359	0.208	0.082
-523.989	753.135	-0.036	0.100
-522.975	-99.002	-0.132	-0.034
-521.960	-55.843	0.266	0.121
-520.945	-84.358	-0.062	-0.020
-519.931	-96.870	-0.318	0.085
-518.916	134.023	0.235	0.310
-517.902	717.018	-0.030	0.081
-516.887	-56.504	-0.135	0.061
-515.872	-101.210	-0.073	-0.018
-514.858	-78.078	-0.164	-0.057
-513.843	114.791	0.128	-0.159
-512.829	423.722	-0.101	-0.221
-511.814	-107.042	-0.301	-0.068
-510.799	273.516	-0.102	-0.184
-509.785	-164.024	0.479	-0.023
-508.770	-64.134	-0.436	-0.181
-507.756	-129.431	0.249	0.035
-506.741	14.752	0.229	-0.182
-505.726	-61.664	-0.186	0.079
-504.712	-14.820	0.155	-0.101
-503.697	-112.672	0.126	0.026
-502.683	256.889	-0.041	-0.072
-501.668	-200.000	-0.001	-0.271
-500.653	-166.773	0.328	-0.014
-499.639	800.000	-0.073	-0.247
-498.624	800.000	-0.062	0.219
-497.610	385.554	-0.105	-0.220
-496.595	-97.949	-0.289	-0.076
-495.581	-21.613	0.179	0.111
-494.566	-80.526	0.128	-0.043
-493.551	72.204	0.207	0.219
-492.537	51.630	-0.274	-0.264
-491.522	760.555	-0.151	-0.415
-490.508	177.076	-0.102	0.150
-489.493	-200.000	0.033	0.153
-488.478	18.251	0.240	0.194
-487.464	-82.950	0.330	-0.108
-486.449	-70.226	0.101	0.039
-485.435	-200.000	-0.161	0.000
-484.420	230.879	-0.081	-0.135
-483.405	340.393	0.038	0.076
-482.391	37.204	0.335	-0.301
-481.376	111.643	-0.157	-0.192
-480.362	-15.478	0.252	0.163
-479.347	448.889	-0.065	0.146
-478.332	-124.721	0.113	0.018
-477.318	551.159	-0.064	0.157
-476.303	-64.512	-0.247	0.102
-475.289	-200.000	-0.002	0.294
-474.274	-13.703	0.132	0.086
-473.259	32.533	0.007	0.007
-472.245	-200.000	0.022	-0.129
-471.230	144.603	-0.197	0.267
-470.216	800.000	-0.111	-0.327
-469.201	-36.760	0.119	0.065
-468.186	51.443	0.106	0.102
-467.172	-71.976	-0.266	0.100
-466.157	233.847	0.175	0.293
-465.143	-158.907	-0.207	-0.012
-464.128	194.127	0.151	0.232
-463.113	56.589	-0.058	0.057
-462.099	317.011	0.222	-0.426
-461.084	-200.000	0.023	0.103
-460.070	-93.934	0.115	0.032
-459.055	-137.035	0.092	0.011
-458.040	-200.000	-0.044	0.269
-457.026	209.027	-0.112	-0.178
-456.011	458.864	-0.078	-0.176
-454.997	429.210	0.069	0.151
-453.982	2.831	0.273	-0.201
-452.968	704.252	-0.034	-0.092
-451.953	-200.000	0.039	-0.182
-450.938	-200.000	0.003	-0.071
-449.924	506.397	0.150	-0.354
-448.909	-200.000	0.005	0.159
-447.895	-53.910	-0.126	0.058
-446.880	126.305	0.173	-0.222
-445.865	-130.600	0.123	0.017
-444.851	-118.386	0.245	0.044
-443.836	-140.418	0.110	0.012
-442.822	80.352	-0.111	-0.121
-441.807	198.457	0.157	0.243
-440.792	235.088	0.110	-0.184
-439.778	-46.963	-0.343	-0.170
-438.763	800.000	0.072	-0.202
-437.749	-200.000	0.015	0.113
-436.734	287.502	0.106	0.194
-435.719	44.326	-0.211	-0.196
-434.705	-55.521	0.378	-0.172
-433.690	-77.443	-0.315	-0.111
-432.676	-200.000	0.006	0.146
-431.661	-200.000	-0.055	-0.264
-430.646	-110.533	0.068	-0.014
-429.632	-64.876	0.109	-0.045
-428.617	517.934	0.066	0.157
-427.603	255.369	0.118	-0.205
-426.588	667.036	-0.081	-0.211
-425.573	-111.064	-0.124	0.026
-424.559	164.047	-0.098	-0.140
-423.544	-150.162	-0.451	0.035
-422.530	175.777	0.088	-0.130
-421.515	220.337	0.053	0.085
-420.500	800.000	-0.034	0.135
-419.486	-75.359	0.234	-0.085
-418.471	-142.690	0.097	-0.010
-417.457	800.000	0.037	-0.120
-416.442	-34.750	0.293	-0.162
-415.428	82.303	-0.103	-0.113
-414.413	-199.111	0.126	-0.001
-413.398	-200.000	-0.024	0.284
-412.384	-91.979	-0.093	0.027
-411.369	-200.000	0.013	-0.354
-410.355	-99.693	-0.241	-0.061
-409.340	329.724	0.079	-0.154
-408.325	-83.711	-0.399	-0.129
-407.311	35.888	-0.318	-0.283
-406.296	-77.966	-0.134	-0.047
-405.282	511.568	0.124	0.292
-404.267	800.000	-0.069	0.192
-403.252	55.146	0.096	-0.094
-402.238	170.759	-0.037	0.053
-401.223	-131.972	-0.156	-0.021
-400.209	167.486	0.045	-0.064
-399.194	616.154	-0.070	0.177
-398.179	-175.127	0.366	0.010
-397.165	523.504	0.112	-0.267
-396.150	-200.000	-0.025	-0.230
-395.136	187.734	0.014	-0.021
-394.121	800.000	-0.071	-0.219
-393.106	-40.376	-0.107	-0.056
-392.092	73.049	-0.178	0.188
-391.077	-114.828	0.223	-0.043
-390.063	-63.593	-0.225	-0.093
-389.048	800.000	-0.061	0.226
-388.033	-170.626	0.369	0.013
-387.019	-40.580	-0.515	0.270
-386.004	398.189	0.121	0.257
-384.990	-200.000	-0.005	-0.218
-383.975	800.000	0.014	-0.046
-382.960	-129.565	0.173	0.024
-381.946	-52.953	0.236	-0.110
-380.931	-117.202	0.195	0.036
-379.917	-132.054	0.071	0.009
-378.902	37.714	-0.087	0.078
-377.888	-21.664	-0.041	-0.025
-376.873	39.472	0.041	-0.037
-375.858	219.584	0.090	0.145
-374.844	-119.769	-0.119	0.021
-373.829	-35.132	0.047	0.026
-372.815	50.722	0.138	-0.132
-371.800	-40.185	-0.304	0.160
-370.785	-96.249	-0.129	0.035
-369.771	297.196	-0.067	-0.124
-368.756	340.608	-0.091	-0.180
-367.742	-123.204	-0.379	0.061
-366.727	-16.016	-0.216	0.139
-365.712	-200.000	0.040	0.187
-364.698	800.000	0.112	0.324
-363.683	-200.000	0.060	-0.280
-362.669	-85.454	0.108	-0.034
-361.654	800.000	0.061	-0.190
-360.639	-27.008	0.234	-0.138
-359.625	90.025	-0.156	0.176
-358.610	-79.428	-0.420	-0.143
-357.596	113.643	0.149	0.183
-356.581	800.000	0.079	0.257
-355.566	136.420	-0.070	-0.092
-354.552	-200.000	0.063	-0.309
-353.537	-19.021	-0.239	-0.150
-352.523	459.563	-0.089	0.200
-351.508	185.936	0.131	0.197
-350.493	44.138	-0.173	0.160
-349.479	-160.025	0.106	0.006
-348.464	800.000	-0.014	-0.039
-347.450	-103.994	-0.214	-0.050
-346.435	-97.503	0.377	-0.099
-345.420	-28.145	-0.277	-0.162
-344.406	207.111	-0.127	0.200
-343.391	704.273	-0.090	-0.240
-342.377	-108.760	-0.066	-0.014
-341.362	569.278	0.043	-0.107
-340.348	120.347	-0.089	-0.112
-339.333	156.582	-0.070	-0.098
-338.318	-62.675	0.061	0.025
-337.304	-117.351	0.241	0.044
-336.289	110.026	0.115	0.139
-335.275	-200.000	-0.031	0.328
-334.260	-165.071	-0.257	-0.012
-333.245	-10.557	-0.118	-0.079
-332.231	126.694	0.128	0.163
-331.216	-200.000	-0.007	0.148
-330.202	-200.000	-0.049	0.254
-329.187	-52.614	-0.061	0.028
-328.172	117.648	0.291	-0.362
-327.158	51.366	0.181	-0.173
-326.143	-74.663	-0.107	-0.039
-325.129	538.665	-0.138	-0.332
-324.114	-66.444	0.148	0.059
-323.099	-31.943	0.194	-0.110
-322.085	800.000	-0.056	0.170
-321.070	-87.298	-0.121	-0.037
-320.056	156.111	-0.185	0.257
-319.041	-184.887	-0.228	-0.004
-318.026	274.483	0.098	0.175
-317.012	-162.520	0.313	0.016
-315.997	-132.224	0.286	0.037
-314.983	433.796	0.140	-0.308
-313.968	-200.000	0.010	-0.172
-312.953	355.593	0.113	-0.227
-311.939	-200.000	0.048	0.000
-310.924	-42.974	-0.141	0.072
-309.910	10.498	-0.182	-0.140
-308.895	-200.000	0.028	0.141
-307.880	-200.000	0.013	-0.094
-306.866	800.000	-0.113	-0.332
-305.851	-13.774	0.154	0.100
-304.837	-173.189	-0.243	-0.008
-303.822	-17.113	-0.266	-0.169
-302.807	-200.000	0.024	-0.135
-301.793	-46.206	0.294	0.146
-300.778	800.000	-0.080	0.326
-299.764	-13.647	-0.066	-0.043
-298.749	570.231	-0.110	0.269
-297.735	409.625	0.080	0.172
-296.720	-200.000	0.000	0.038
-295.705	-200.000	-0.023	-0.229
-294.691	-33.095	-0.386	-0.216
-293.676	800.000	0.077	0.233
-292.662	-200.000	-0.053	0.420
-291.647	115.723	-0.067	-0.082
-290.632	-200.000	0.028	-0.414
-289.618	-200.000	-0.041	0.200
-288.603	800.000	-0.055	-0.194
-287.589	263.743	0.088	0.154
-286.574	8.554	-0.142	0.107
-285.559	-24.451	0.139	0.084
-284.545	-200.000	-0.044	0.265
-283.530	-109.842	0.251	0.053
-282.516	800.000	0.045	-0.134
-281.501	-2.851	-0.061	-0.043
-280.486	-200.000	-0.004	-0.022
-279.472	18.447	0.130	0.105
-278.457	-200.000	-0.015	0.112
-277.443	-200.000	-0.007	-0.061
-276.428	12.025	-0.067	-0.052
-275.413	765.729	-0.032	-0.087
-274.399	800.000	0.066	-0.227
-273.384	-123.377	0.057	-0.009
-272.370	-8.060	0.220	-0.149
-271.355	618.359	0.016	0.039
-270.340	-122.431	0.426	0.070
-269.326	40.542	-0.099	-0.090
-268.311	-200.000	-0.026	0.441
-267.297	-200.000	0.014	-0.215
-266.282	134.466	0.264	0.344
-265.267	38.511	-0.183	-0.164
-264.253	60.816	-0.174	0.174
-263.238	800.000	-0.039	0.118
-262.224	415.920	0.069	0.148
-261.209	-83.138	0.251	0.081
-260.195	-200.000	0.015	-0.108
-259.180	800.000	-0.006	0.022
-258.165	38.806	0.140	-0.126
-257.151	800.000	0.095	0.323
-256.136	-50.483	-0.282	0.134
-255.122	-110.294	-0.203	0.043
-254.107	-148.833	0.406	0.033
-253.092	-167.480	-0.231	-0.009
-252.078	-170.066	-0.119	-0.004
-251.063	-179.914	0.198	-0.004
-250.049	140.710	-0.138	-0.183
-249.034	-190.257	0.417	0.005
-248.019	-200.000	-0.042	-0.248
-247.005	-32.303	0.092	-0.052
-245.990	-171.706	-0.446	-0.015
-244.976	0.442	0.195	0.140
-243.961	538.878	0.109	0.261
-242.946	-66.908	-0.164	0.065
-241.932	-119.831	0.055	0.010
-240.917	142.151	-0.178	0.237
-239.903	-195.786	0.095	-0.001
-238.888	513.633	-0.073	-0.171
-237.873	7.022	-0.108	0.081
-236.859	-106.857	0.281	-0.063
-235.844	800.000	0.051	-0.156
-234.830	-96.375	-0.306	0.082
-233.815	301.461	-0.036	0.067
-232.800	-13.571	0.367	-0.239
-231.786	49.023	0.223	-0.210
-230.771	-200.000	0.048	0.239
-229.757	-200.000	-0.018	-0.180
-228.742	-96.516	0.477	0.127
-227.727	139.730	0.147	0.194
-226.713	-21.849	-0.251	0.153
-225.698	-52.862	0.141	-0.065
-224.684	800.000	-0.105	-0.312
-223.669	51.573	-0.082	-0.079
-222.655	589.708	-0.073	-0.182
-221.640	39.523	-0.170	0.153
-220.625	526.345	-0.139	-0.330
-219.611	705.852	0.140	-0.372
-218.596	61.153	-0.023	-0.023
-217.582	-96.817	0.297	-0.078
-216.567	-56.728	0.148	0.066
-215.552	-200.000	0.013	-0.256
-214.538	24.731	0.240	0.200
-213.523	120.304	0.135	-0.168
-212.509	669.115	0.041	0.106
-211.494	53.843	-0.203	-0.196
-210.479	445.101	0.140	0.309
-209.465	58.279	0.149	0.146
-208.450	424.742	0.128	0.276
-207.436	691.627	0.020	0.053
-206.421	-139.112	0.211	-0.023
-205.406	-200.000	0.070	0.477
-204.392	-87.604	0.120	-0.036
-203.377	258.556	0.084	-0.146
-202.363	99.309	-0.160	-0.185
-201.348	297.469	0.121	0.224
-200.333	-200.000	0.022	-0.242
-199.319	354.628	0.100	0.199
-198.304	74.654	-0.215	-0.227
-197.290	168.921	-0.033	0.048
-196.275	-54.204	-0.422	0.192
-195.260	-200.000	-0.037	0.201
-194.246	-122.159	0.167	-0.028
-193.231	673.226	0.106	0.277
-192.217	31.910	-0.035	0.030
-191.202	48.938	0.200	-0.189
-190.187	39.650	-0.292	0.263
-189.173	-200.000	-0.038	-0.224
-188.158	98.600	-0.269	0.311
-187.144	-200.000	0.000	-0.078
-186.129	-90.888	-0.075	-0.022
-185.114	176.900	0.108	-0.158
-184.100	-148.894	0.296	0.024
-183.085	-115.179	0.334	0.063
-182.071	428.373	-0.042	-0.091
-181.056	77.775	-0.154	0.165
-180.042	101.551	0.154	-0.180
-179.027	354.750	-0.069	0.138
-178.012	-87.026	0.375	-0.115
-176.998	516.326	-0.048	0.113
-175.983	505.090	0.052	-0.121
-174.969	800.000	0.033	0.127
-173.954	-7.039	-0.318	0.216
-172.939	39.379	-0.151	-0.136
-171.925	-8.755	-0.286	0.192
-170.910	2.906	0.227	0.165
-169.896	-200.000	-0.004	-0.161
-168.881	84.644	-0.082	-0.090
-167.866	-92.463	0.217	0.061
-166.852	-150.294	-0.239	-0.018
-165.837	336.814	0.141	0.274
-164.823	-40.213	-0.176	0.092
-163.808	222.686	-0.073	-0.118
-162.793	142.829	0.101	-0.135
-161.779	800.000	0.081	0.350
-160.764	-142.482	0.050	0.005
-159.750	-92.804	-0.315	0.088
-158.735	-45.904	-0.010	0.005
-157.720	-145.449	-0.170	0.015
-156.706	421.676	-0.205	0.441
-155.691	800.000	-0.050	-0.185
-154.677	-9.568	0.110	0.074
-153.662	800.000	-0.072	0.232
-152.647	800.000	-0.070	-0.293
-151.633	80.396	-0.161	0.174
-150.618	207.494	-0.236	0.369
-149.604	-200.000	-0.005	0.250
-148.589	-82.685	0.302	-0.098
-147.574	-200.000	-0.015	0.168
-146.560	-200.000	-0.051	0.280
-145.545	-93.366	-0.004	-0.001
-144.531	-141.128	-0.189	0.019
-143.516	375.521	-0.055	0.112
-142.502	94.797	-0.117	-0.133
-141.487	-53.121	0.164	-0.076
-140.472	56.703	0.149	-0.145
-139.458	-124.299	0.138	0.022
-138.443	94.816	0.114	-0.130
-137.429	-200.000	-0.053	-0.249
-136.414	-165.988	-0.171	0.007
-135.399	332.830	0.091	-0.176
-134.385	-27.467	0.098	-0.057
-133.370	-62.316	-0.165	0.069
-132.356	453.974	0.029	0.065
-131.341	-200.000	0.004	0.206
-130.326	68.402	-0.168	0.173
-129.312	69.780	0.206	-0.213
-128.297	-122.127	-0.082	0.013
-127.283	-152.183	-0.070	0.005
-126.268	-103.531	0.301	0.071
-125.253	32.442	-0.383	-0.331
-124.239	729.371	0.089	-0.238
-123.224	-89.625	0.364	-0.107
-122.210	149.181	-0.061	-0.082
-121.195	631.945	0.131	0.332
-120.180	-121.820	0.444	0.073
