DTS Sentinel unit serial number:	SN413079Multiplexer serial number:	ORYXHardware model number:	OX4-SRSoftware version number:	ORYX F/W v4.00 Oryx Data Collector v3.7.2.0data status	okinstallation	princeton_trtdifferential loss correction	single-endedforward channel	channel 4reverse channel	N/Adate	2019/09/16time	19:33:34forward acquisition time	60.00reverse acquisition time	0.00gamma	496.2192k internal	0.2307k external	0.2307temperature offset calibration	0.9968default loss term (dB/km)	0.3790temperature slope calibration	1.0000multiplexer offset coefficient	1.0000multiplexer slope coefficient	1.0000fibre end	0.00T internal ref (°C)	34.36T ext. ref 1 (°C)	0.08T ext. ref 2 (°C)	27.26length (m)	temperature (°C)	Stokes	anti-Stokes-747.200	-81.284	0.129	-0.043
-746.185	13.892	-0.177	0.140
-745.171	-53.966	0.311	0.144
-744.156	265.614	-0.037	0.065
-743.142	203.257	0.137	0.215
-742.127	-12.766	-0.361	0.239
-741.112	-200.000	0.032	0.231
-740.098	422.084	-0.183	0.400
-739.083	800.000	-0.022	0.092
-738.069	-200.000	-0.038	0.306
-737.054	-52.556	-0.366	-0.172
-736.039	-200.000	0.009	-0.277
-735.025	800.000	-0.043	0.173
-734.010	-193.256	-0.295	-0.003
-732.996	-200.000	-0.007	0.082
-731.981	800.000	-0.041	0.150
-730.966	48.915	0.027	-0.026
-729.952	-144.853	-0.117	0.011
-728.937	217.371	-0.082	-0.133
-727.923	144.896	0.118	-0.160
-726.908	379.674	-0.238	-0.496
-725.894	144.225	-0.155	-0.211
-724.879	-89.048	-0.118	-0.036
-723.864	359.694	-0.076	-0.154
-722.850	800.000	-0.075	-0.237
-721.835	-129.487	0.048	0.007
-720.821	50.063	-0.260	-0.249
-719.806	676.875	0.119	-0.314
-718.791	-91.740	0.246	-0.071
-717.777	-65.529	0.195	-0.080
-716.762	-29.046	0.234	0.137
-715.748	267.607	-0.144	-0.257
-714.733	17.007	-0.308	-0.248
-713.718	-151.354	-0.171	0.013
-712.704	-18.814	-0.245	0.155
-711.689	-176.028	0.349	0.009
-710.675	194.416	-0.184	-0.284
-709.660	44.303	-0.250	-0.233
-708.645	-109.605	-0.127	0.027
-707.631	164.964	0.032	0.046
-706.616	-200.000	0.031	0.151
-705.602	-84.294	-0.242	-0.078
-704.587	-35.768	-0.221	0.121
-703.572	255.532	-0.138	-0.240
-702.558	267.775	-0.089	-0.158
-701.543	800.000	-0.048	0.195
-700.529	-29.495	0.284	-0.165
-699.514	-200.000	-0.012	0.146
-698.499	-76.841	-0.370	-0.131
-697.485	402.683	-0.109	0.234
-696.470	59.893	0.239	-0.240
-695.456	215.462	0.057	-0.091
-694.441	-14.970	-0.195	0.127
-693.426	657.399	-0.189	-0.494
-692.412	-61.692	0.088	-0.038
-691.397	-141.303	-0.276	0.028
-690.383	800.000	-0.172	-0.510
-689.368	429.371	0.037	-0.081
-688.354	-200.000	-0.035	-0.182
-687.339	-103.313	0.074	0.018
-686.324	-158.197	-0.204	-0.012
-685.310	26.229	0.202	-0.171
-684.295	-129.994	-0.352	-0.049
-683.281	135.146	-0.235	0.310
-682.266	800.000	0.054	0.234
-681.251	78.175	-0.123	0.134
-680.237	800.000	-0.138	0.464
-679.222	-54.739	-0.545	0.250
-678.208	800.000	-0.059	0.165
-677.193	695.541	0.089	0.238
-676.178	-200.000	-0.210	-0.001
-675.164	114.366	0.115	-0.142
-674.149	13.949	0.185	-0.146
-673.135	-200.000	-0.036	-0.262
-672.120	-127.560	0.112	0.017
-671.105	164.758	-0.123	0.176
-670.091	-22.203	-0.201	0.124
-669.076	-68.652	-0.118	0.046
-668.062	-87.729	-0.051	-0.015
-667.047	177.071	0.047	0.069
-666.032	-147.136	-0.127	0.011
-665.018	-1.390	0.159	0.114
-664.003	-154.058	0.178	-0.012
-662.989	800.000	-0.052	-0.222
-661.974	404.520	0.044	-0.095
-660.959	-91.807	-0.137	0.039
-659.945	209.436	0.123	0.195
-658.930	363.317	-0.076	-0.154
-657.916	-40.475	0.127	0.067
-656.901	-99.506	0.248	0.063
-655.886	-87.678	0.053	-0.016
-654.872	-200.000	0.043	0.227
-653.857	-65.769	-0.214	-0.087
-652.843	66.716	-0.130	-0.134
-651.828	150.390	0.061	0.084
-650.814	-139.474	0.094	-0.010
-649.799	-27.991	0.154	0.090
-648.784	321.052	0.184	0.354
-647.770	216.750	-0.166	0.268
-646.755	-13.300	-0.422	-0.278
-645.741	-122.966	0.241	-0.039
-644.726	238.691	-0.133	0.224
-643.711	465.952	0.070	-0.159
-642.697	800.000	0.049	-0.171
-641.682	237.095	-0.105	-0.176
-640.668	90.949	0.201	-0.228
-639.653	-5.663	-0.079	-0.055
-638.638	-71.568	-0.334	0.126
-637.624	800.000	-0.086	-0.252
-636.609	24.679	0.068	-0.057
-635.595	367.089	0.090	-0.184
-634.580	-118.835	-0.095	0.017
-633.565	-66.022	-0.224	0.091
-632.551	-19.047	0.030	0.019
-631.536	165.183	-0.132	-0.189
-630.522	132.153	0.040	-0.052
-629.507	-200.000	0.040	-0.262
-628.492	-3.345	-0.162	0.114
-627.478	-164.030	-0.204	-0.010
-626.463	-71.195	0.230	0.087
-625.449	-89.751	0.240	0.071
-624.434	-200.000	0.032	0.347
-623.419	724.351	-0.111	0.299
-622.405	-200.000	0.045	0.247
-621.390	207.758	-0.209	0.331
-620.376	77.334	0.369	-0.397
-619.361	90.150	-0.193	-0.218
-618.346	-200.000	0.040	0.527
-617.332	86.435	-0.151	0.168
-616.317	178.165	0.071	0.104
-615.303	800.000	-0.010	0.034
-614.288	-194.203	-0.355	-0.003
-613.273	36.594	0.167	0.149
-612.259	221.291	0.082	0.134
-611.244	129.525	0.382	-0.494
-610.230	-200.000	-0.068	-0.456
-609.215	680.726	-0.076	-0.201
-608.201	-132.357	-0.171	-0.022
-607.186	795.471	-0.114	0.316
-606.171	-200.000	-0.031	0.183
-605.157	-200.000	-0.007	-0.163
-604.142	334.979	0.102	-0.199
-603.128	-111.467	-0.039	-0.008
-602.113	23.808	-0.253	0.211
-601.098	228.746	0.133	0.220
-600.084	-84.391	-0.047	0.015
-599.069	-200.000	-0.051	0.279
-598.055	-129.588	-0.049	-0.007
-597.040	69.551	-0.254	0.264
-596.025	-23.615	-0.220	-0.134
-595.011	-123.361	0.066	0.011
-593.996	-200.000	0.013	-0.086
-592.982	-200.000	-0.017	0.147
-591.967	-154.087	-0.173	0.012
-590.952	-70.158	-0.085	-0.033
-589.938	3.540	0.289	-0.213
-588.923	-142.183	-0.408	-0.041
-587.909	-81.420	0.095	-0.032
-586.894	76.947	0.084	-0.091
-585.879	800.000	-0.064	0.227
-584.865	-200.000	-0.016	-0.077
-583.850	31.074	-0.083	-0.072
-582.836	-200.000	-0.007	-0.227
-581.821	178.014	-0.075	-0.110
-580.806	-71.312	-0.175	-0.066
-579.792	35.151	-0.260	0.230
-578.777	-35.707	0.167	0.091
-577.763	-147.775	0.313	-0.027
-576.748	26.884	0.121	0.103
-575.733	109.545	0.209	0.253
-574.719	164.132	-0.242	-0.344
-573.704	-141.314	0.488	0.050
-572.690	351.491	-0.139	-0.278
-571.675	-73.884	0.312	0.114
-570.661	-200.000	0.002	-0.013
-569.646	-105.983	0.318	0.072
-568.631	-165.859	0.460	-0.020
-567.617	-28.430	0.276	0.161
-566.602	-200.000	0.066	-0.505
-565.588	-12.802	0.151	-0.100
-564.573	149.867	0.151	0.207
-563.558	469.559	-0.035	0.080
-562.544	74.484	0.093	-0.099
-561.529	98.449	-0.146	0.170
-560.515	158.981	-0.177	0.249
-559.500	-126.081	0.207	0.031
-558.485	131.678	0.205	-0.266
-557.471	185.939	-0.213	-0.320
-556.456	247.960	-0.275	-0.469
-555.442	-62.997	-0.036	-0.015
-554.427	-200.000	-0.019	-0.273
-553.412	180.320	0.176	0.260
-552.398	800.000	0.151	-0.431
-551.383	-200.000	0.011	-0.253
-550.369	134.764	-0.225	0.295
-549.354	-58.602	-0.182	-0.080
-548.339	60.334	-0.051	0.051
-547.325	72.072	0.162	0.170
-546.310	-200.000	0.036	-0.402
-545.296	-20.338	0.050	0.031
-544.281	-200.000	-0.016	0.110
-543.266	800.000	0.053	-0.221
-542.252	-190.485	0.197	-0.002
-541.237	-143.387	-0.134	0.013
-540.223	132.398	0.174	0.226
-539.208	-18.530	-0.147	0.093
-538.193	324.591	-0.120	-0.232
-537.179	-200.000	0.019	-0.306
-536.164	-171.665	-0.274	0.009
-535.150	-200.000	0.002	0.098
-534.135	-25.581	-0.146	0.087
-533.121	-200.000	0.031	-0.250
-532.106	-24.893	-0.235	0.141
-531.091	-200.000	0.012	0.094
-530.077	-161.591	-0.354	0.018
-529.062	343.213	0.254	-0.501
-528.048	-76.553	-0.293	-0.104
-527.033	1.452	-0.180	0.130
-526.018	49.906	0.125	-0.119
-525.004	-58.198	0.152	-0.067
-523.989	138.760	-0.062	0.083
-522.975	-143.427	-0.198	-0.019
-521.960	-49.572	0.173	-0.083
-520.945	511.501	0.045	-0.106
-519.931	53.191	0.190	-0.183
-518.916	115.713	-0.246	0.303
-517.902	0.905	-0.175	0.126
-516.887	800.000	-0.031	-0.129
-515.872	-79.341	0.121	0.041
-514.858	-114.907	0.529	-0.102
-513.843	-67.976	-0.127	-0.050
-512.829	-154.308	0.120	-0.008
-511.814	-40.678	0.143	0.075
-510.799	-51.531	0.230	0.108
-509.785	-14.711	-0.317	-0.205
-508.770	-111.177	-0.125	-0.026
-507.756	35.493	0.286	-0.253
-506.741	91.219	0.086	0.097
-505.726	800.000	0.076	-0.212
-504.712	-147.674	-0.169	0.014
-503.697	-17.797	-0.105	0.067
-502.683	340.072	-0.200	-0.393
-501.668	800.000	-0.069	0.275
-500.653	800.000	-0.011	-0.033
-499.639	800.000	0.051	0.215
-498.624	683.694	-0.021	0.054
-497.610	232.796	0.068	0.113
-496.595	-200.000	0.209	-0.000
-495.581	728.994	-0.064	-0.171
-494.566	285.637	-0.090	0.163
-493.551	14.561	-0.228	0.179
-492.537	-125.389	-0.366	-0.056
-491.522	96.326	0.083	-0.095
-490.508	23.314	0.066	0.055
-489.493	-200.000	-0.062	0.361
-488.478	86.788	0.259	0.287
-487.464	-200.000	-0.053	0.294
-486.449	77.400	-0.113	-0.121
-485.435	513.753	0.101	-0.237
-484.420	342.758	0.162	0.319
-483.405	-95.741	-0.096	-0.026
-482.391	-2.678	0.195	0.138
-481.376	117.269	0.105	-0.130
-480.362	191.228	-0.170	0.258
-479.347	-200.000	0.019	0.239
-478.332	737.261	-0.054	0.147
-477.318	638.092	0.163	-0.416
-476.303	-126.363	-0.236	-0.035
-475.289	800.000	-0.070	0.242
-474.274	-158.087	-0.092	-0.005
-473.259	32.234	-0.258	0.224
-472.245	-35.814	-0.280	-0.152
-471.230	800.000	0.051	0.143
-470.216	482.603	-0.046	0.104
-469.201	142.616	-0.065	-0.087
-468.186	192.606	0.074	-0.112
-467.172	-194.227	-0.316	0.003
-466.157	-148.168	0.498	0.041
-465.143	153.443	-0.033	0.046
-464.128	-60.067	0.077	0.033
-463.113	112.794	-0.092	0.112
-462.099	147.600	0.192	0.260
-461.084	29.263	-0.106	-0.091
-460.070	-14.344	-0.178	0.115
-459.055	-29.040	-0.022	-0.013
-458.040	-91.372	-0.144	0.041
-457.026	74.167	-0.065	0.069
-456.011	3.394	0.242	-0.177
-454.997	147.845	0.231	-0.313
-453.982	540.671	0.146	0.350
-452.968	800.000	-0.091	0.268
-451.953	134.426	0.168	-0.219
-450.938	-200.000	-0.028	-0.413
-449.924	-96.646	-0.111	0.029
-448.909	800.000	0.133	0.389
-447.895	800.000	-0.034	-0.106
-446.880	-8.442	0.085	0.058
-445.865	-200.000	-0.065	0.372
-444.851	-200.000	0.016	0.207
-443.836	-200.000	-0.046	-0.597
-442.822	-48.395	-0.316	0.153
-441.807	-126.831	0.262	0.039
-440.792	800.000	0.063	-0.246
-439.778	31.936	-0.072	0.062
-438.763	-126.586	-0.137	-0.020
-437.749	-200.000	0.021	-0.414
-436.734	18.267	-0.295	-0.237
-435.719	-77.001	-0.031	0.011
-434.705	-138.905	0.382	-0.042
-433.690	800.000	-0.088	-0.298
-432.676	-121.968	-0.040	0.007
-431.661	-200.000	0.028	0.287
-430.646	599.316	0.062	-0.154
-429.632	-80.749	0.117	-0.039
-428.617	279.850	-0.141	-0.252
-427.603	-200.000	-0.017	-0.100
-426.588	-200.000	-0.032	-0.207
-425.573	-108.073	-0.211	-0.046
-424.559	30.517	-0.080	0.069
-423.544	306.365	-0.208	-0.389
-422.530	-200.000	-0.007	-0.107
-421.515	-186.074	-0.173	0.003
-420.500	-200.000	-0.040	0.199
-419.486	183.095	-0.192	-0.284
-418.471	-153.256	0.115	-0.008
-417.457	14.751	-0.149	0.117
-416.442	-21.930	0.240	0.147
-415.428	-200.000	0.016	-0.114
-414.413	131.701	-0.080	0.104
-413.398	12.603	0.100	-0.077
-412.384	299.185	0.176	-0.325
-411.369	798.753	-0.029	0.079
-410.355	99.991	0.323	0.376
-409.340	-200.000	0.026	-0.365
-408.325	-2.558	-0.202	-0.142
-407.311	800.000	-0.113	0.450
-406.296	-109.439	-0.077	-0.016
-405.282	615.552	0.106	-0.266
-404.267	-200.000	0.043	-0.395
-403.252	-170.743	-0.235	-0.008
-402.238	-200.000	0.018	-0.145
-401.223	-122.677	-0.083	-0.013
-400.209	700.568	0.073	0.192
-399.194	-165.346	-0.119	0.005
-398.179	-200.000	-0.064	-0.293
-397.165	247.179	0.081	0.137
-396.150	-200.000	-0.371	0.001
-395.136	184.640	0.091	0.135
-394.121	-86.669	0.221	-0.068
-393.106	-28.367	0.119	-0.069
-392.092	-150.770	0.059	-0.005
-391.077	-200.000	-0.005	0.239
-390.063	800.000	-0.064	0.274
-389.048	-110.518	0.272	0.057
-388.033	73.158	0.253	0.265
-387.019	70.875	0.137	-0.142
-386.004	-17.267	-0.061	-0.039
-384.990	117.806	-0.149	-0.184
-383.975	-157.166	0.296	0.018
-382.960	-53.299	-0.173	0.080
-381.946	-200.000	0.020	-0.112
-380.931	800.000	-0.099	-0.421
-379.917	255.980	-0.099	-0.170
-378.902	-200.000	0.015	-0.191
-377.888	-88.451	-0.207	-0.062
-376.873	19.456	-0.071	-0.057
-375.858	-123.981	0.242	-0.038
-374.844	-143.614	-0.151	0.014
-373.829	-147.832	-0.051	-0.004
-372.815	43.806	-0.149	-0.137
-371.800	-200.000	-0.004	0.242
-370.785	143.372	0.185	-0.247
-369.771	-38.923	-0.190	-0.100
-368.756	387.236	0.245	-0.508
-367.742	14.040	-0.230	0.179
-366.727	800.000	-0.053	-0.188
-365.712	800.000	-0.035	0.102
-364.698	274.265	-0.078	0.138
-363.683	395.614	0.095	-0.198
-362.669	208.471	0.242	-0.379
-361.654	233.326	0.097	0.160
-360.639	800.000	-0.145	-0.447
-359.625	73.257	-0.210	0.220
-358.610	0.289	0.119	-0.085
-357.596	59.333	0.281	0.277
-356.581	800.000	-0.012	0.042
-355.566	38.319	-0.231	-0.206
-354.552	-59.313	-0.148	0.064
-353.537	204.453	-0.169	-0.262
-352.523	-82.232	-0.057	-0.019
-351.508	155.638	-0.236	0.325
-350.493	-200.000	0.000	-0.260
-349.479	130.599	0.185	0.237
-348.464	556.262	0.054	0.130
-347.450	-59.574	0.188	0.081
-346.435	-102.334	0.437	-0.105
-345.420	-25.278	0.180	0.106
-344.406	51.338	0.214	-0.203
-343.391	-75.516	-0.081	0.029
-342.377	-200.000	-0.014	-0.078
-341.362	205.818	0.185	0.287
-340.348	163.048	-0.044	0.061
-339.333	732.802	-0.080	-0.215
-338.318	800.000	-0.101	-0.390
-337.304	-142.491	-0.109	0.011
-336.289	800.000	-0.027	0.101
-335.275	-200.000	-0.059	0.318
-334.260	122.506	0.229	0.287
-333.245	-200.000	0.057	-0.312
-332.231	24.213	-0.299	-0.247
-331.216	-126.824	0.040	-0.006
-330.202	-200.000	0.015	0.075
-329.187	494.186	0.069	0.159
-328.172	-65.604	-0.137	0.055
-327.158	128.489	0.253	-0.322
-326.143	354.431	-0.103	-0.204
-325.129	87.082	-0.250	0.276
-324.114	-200.000	0.034	0.314
-323.099	-85.156	0.417	0.130
-322.085	-19.943	-0.163	-0.101
-321.070	-43.330	-0.166	0.084
-320.056	-200.000	0.018	0.081
-319.041	-134.309	0.188	-0.023
-318.026	-200.000	-0.032	-0.238
-317.012	-200.000	-0.013	0.098
-315.997	-36.908	0.078	-0.042
-314.983	56.235	-0.208	-0.202
-313.968	135.389	0.209	0.271
-312.953	-200.000	-0.003	0.230
-311.939	-16.227	-0.249	-0.158
-310.924	121.266	0.041	-0.051
-309.910	261.659	-0.056	0.098
-308.895	-158.139	-0.323	0.019
-307.880	180.799	0.175	0.256
-306.866	209.381	0.063	-0.099
-305.851	800.000	0.014	-0.058
-304.837	-200.000	0.047	0.314
-303.822	-115.153	0.275	-0.052
-302.807	800.000	0.122	0.359
-301.793	337.167	-0.153	0.298
-300.778	480.587	-0.056	-0.127
-299.764	85.310	-0.164	-0.180
-298.749	-83.778	-0.120	0.038
-297.735	-55.241	-0.234	-0.105
-296.720	123.040	0.060	0.076
-295.705	-87.679	0.041	0.012
-294.691	-29.522	0.390	0.223
-293.676	680.377	0.056	-0.146
-292.662	-200.000	0.022	-0.284
-291.647	-121.401	0.154	0.026
-290.632	136.961	0.183	0.239
-289.618	-168.413	-0.150	-0.006
-288.603	174.767	0.056	0.081
-287.589	-111.119	0.201	0.041
-286.574	24.442	0.369	-0.305
-285.559	-5.394	-0.117	0.080
-284.545	800.000	0.043	0.187
-283.530	444.121	-0.077	-0.168
-282.516	-30.093	-0.086	0.049
-281.501	-200.000	-0.065	0.401
-280.486	361.328	-0.051	0.102
-279.472	145.490	-0.131	0.176
-278.457	-134.771	-0.116	-0.014
-277.443	170.606	0.173	-0.247
-276.428	-200.000	-0.052	0.364
-275.413	-200.000	0.023	-0.303
-274.399	-68.318	0.309	0.120
-273.384	355.879	-0.052	-0.104
-272.370	456.965	0.114	0.253
-271.355	-200.000	0.010	0.520
-270.340	-95.845	0.213	0.057
-269.326	366.015	-0.086	0.173
-268.311	-200.000	0.044	0.273
-267.297	-177.126	-0.293	0.007
-266.282	-9.329	0.221	-0.147
-265.267	-200.000	-0.032	-0.143
-264.253	-200.000	0.018	0.081
-263.238	-60.259	0.193	0.082
-262.224	-147.418	-0.355	0.030
-261.209	-52.875	0.067	-0.031
-260.195	18.274	-0.113	0.090
-259.180	6.575	-0.075	-0.055
-258.165	-200.000	0.037	-0.162
-257.151	112.010	0.205	-0.248
-256.136	-30.926	-0.154	-0.087
-255.122	-200.000	-0.005	0.023
-254.107	-200.000	0.013	-0.207
-253.092	-200.000	0.036	0.239
-252.078	20.337	-0.120	0.097
-251.063	6.874	0.061	-0.046
-250.049	800.000	-0.013	-0.051
-249.034	93.988	-0.243	0.275
-248.019	-12.512	-0.247	-0.161
-247.005	41.396	0.099	0.089
-245.990	199.141	-0.114	0.174
-244.976	-200.000	-0.016	-0.076
-243.961	88.780	0.152	-0.168
-242.946	-94.614	-0.256	-0.069
-241.932	-67.305	-0.312	-0.122
-240.917	-200.000	0.036	0.197
-239.903	-92.163	0.184	-0.052
-238.888	10.468	0.180	-0.136
-237.873	-26.740	0.235	0.137
-236.859	-41.122	0.072	0.037
-235.844	800.000	0.076	0.287
-234.830	-102.314	-0.232	0.055
-233.815	27.432	-0.055	-0.046
-232.800	-69.819	-0.393	-0.150
-231.786	-36.069	-0.164	0.088
-230.771	32.210	0.182	0.156
-229.757	-147.602	0.147	0.012
-228.742	-200.000	0.043	0.196
-227.727	435.475	-0.071	-0.155
-226.713	-92.133	-0.171	0.048
-225.698	800.000	0.118	-0.333
-224.684	-185.309	0.278	-0.004
-223.669	-200.000	-0.058	-0.271
-222.655	-200.000	0.009	-0.092
-221.640	-8.675	-0.123	-0.082
-220.625	-60.523	-0.171	0.072
-219.611	-193.799	0.131	0.001
-218.596	-200.000	0.025	0.305
-217.582	263.215	-0.041	-0.071
-216.567	-52.605	-0.115	-0.053
-215.552	-77.435	0.209	0.072
-214.538	-3.509	0.113	-0.078
-213.523	9.478	-0.206	0.156
-212.509	-68.807	-0.135	0.052
-211.494	-40.787	0.171	-0.088
-210.479	-114.063	0.451	0.087
-209.465	0.865	0.200	-0.143
-208.450	232.728	-0.206	0.337
-207.436	121.005	0.224	0.277
-206.421	95.852	-0.104	0.118
-205.406	-115.920	0.081	0.015
-204.392	-97.539	0.085	0.022
-203.377	41.548	0.182	-0.164
-202.363	68.251	0.223	-0.228
-201.348	-77.851	0.213	-0.073
-200.333	200.167	-0.167	-0.256
-199.319	29.866	-0.074	0.062
-198.304	198.430	0.198	0.302
-197.290	103.351	0.117	0.137
-196.275	-200.000	0.015	0.141
-195.260	-163.064	0.223	0.011
-194.246	551.298	0.130	0.311
-193.231	50.609	-0.151	0.142
-192.217	159.590	-0.033	0.045
-191.202	-200.000	-0.047	0.211
-190.187	-200.000	-0.061	0.341
-189.173	-200.000	-0.026	0.318
-188.158	90.475	-0.121	-0.135
-187.144	126.111	-0.134	-0.168
-186.129	-200.000	-0.017	0.082
-185.114	800.000	0.111	-0.471
-184.100	800.000	-0.011	-0.042
-183.085	125.311	-0.155	0.195
-182.071	-200.000	0.010	-0.046
-181.056	-187.540	-0.274	0.004
-180.042	370.225	-0.186	0.374
-179.027	-41.866	0.164	0.084
-178.012	-172.743	0.339	0.011
-176.998	266.140	-0.137	0.239
-175.983	-82.896	0.286	0.092
-174.969	704.101	0.041	-0.108
-173.954	-149.734	-0.418	0.033
-172.939	-200.000	0.009	0.059
-171.925	356.799	-0.133	-0.264
-170.910	-27.686	-0.073	0.042
-169.896	800.000	0.041	-0.135
-168.881	36.785	0.135	-0.118
-167.866	-47.764	-0.184	-0.089
-166.852	39.742	-0.101	-0.090
-165.837	-147.208	-0.232	-0.020
-164.823	128.251	-0.104	-0.131
-163.808	-200.000	0.019	0.260
-162.793	4.760	0.146	-0.107
-161.779	-200.000	-0.039	0.397
-160.764	-1.945	0.169	0.118
-159.750	-87.046	0.186	0.056
-158.735	716.299	0.083	-0.220
-157.720	284.254	0.129	-0.231
-156.706	-51.267	0.179	0.083
-155.691	23.888	-0.100	-0.082
-154.677	230.734	0.218	-0.355
-153.662	-200.000	-0.005	0.266
-152.647	-200.000	0.035	0.155
-151.633	-200.000	-0.025	-0.175
-150.618	-13.201	-0.167	-0.108
-149.604	109.229	-0.133	0.158
-148.589	364.605	0.079	0.159
-147.574	800.000	0.077	0.217
-146.560	276.170	0.038	0.067
-145.545	7.782	-0.222	0.165
-144.531	162.130	0.006	0.009
-143.516	93.257	-0.159	0.179
-142.502	-200.000	-0.001	0.072
-141.487	-200.000	-0.016	-0.110
-140.472	-189.798	0.124	0.001
-139.458	55.011	-0.052	0.050
-138.443	82.446	0.012	0.013
-137.429	-124.499	-0.237	0.037
-136.414	522.959	0.075	-0.175
-135.399	1.825	-0.248	0.177
-134.385	-200.000	-0.023	0.258
-133.370	162.165	-0.090	0.125
-132.356	-11.006	0.042	0.027
-131.341	20.066	0.250	0.200
-130.326	-115.786	-0.479	-0.089
-129.312	-197.149	0.425	0.003
-128.297	-2.673	0.325	0.226
-127.283	-20.910	-0.136	0.082
-126.268	155.919	0.025	0.034
-125.253	-200.000	-0.042	0.427
-124.239	487.595	-0.055	0.124
-123.224	211.249	-0.115	-0.179
-122.210	149.790	0.180	-0.242
