DTS Sentinel unit serial number:	SN413079Multiplexer serial number:	ORYXHardware model number:	OX4-SRSoftware version number:	ORYX F/W v4.00 Oryx Data Collector v3.7.2.0data status	okinstallation	princeton_trtdifferential loss correction	single-endedforward channel	channel 4reverse channel	N/Adate	2019/09/13time	09:53:35forward acquisition time	60.00reverse acquisition time	0.00gamma	496.2192k internal	0.2311k external	0.2311temperature offset calibration	1.0190default loss term (dB/km)	0.3790temperature slope calibration	1.0000multiplexer offset coefficient	1.0000multiplexer slope coefficient	1.0000fibre end	0.00T internal ref (°C)	30.02T ext. ref 1 (°C)	4.46T ext. ref 2 (°C)	27.05length (m)	temperature (°C)	Stokes	anti-Stokes-747.200	800.000	0.053	-0.172
-746.185	-96.092	-0.140	-0.038
-745.171	-139.814	0.333	-0.036
-744.156	82.063	-0.104	0.115
-743.142	-200.000	0.016	0.147
-742.127	800.000	-0.070	0.304
-741.112	110.754	-0.142	-0.173
-740.098	83.271	-0.150	-0.166
-739.083	-200.000	0.001	0.036
-738.069	80.351	-0.076	0.083
-737.054	-47.993	0.108	-0.053
-736.039	-127.220	-0.508	-0.075
-735.025	122.832	-0.212	0.269
-734.010	-39.033	0.143	0.076
-732.996	-43.855	-0.363	0.186
-731.981	800.000	0.066	-0.215
-730.966	-200.000	-0.064	0.310
-729.952	272.760	0.039	0.070
-728.937	349.799	0.161	-0.323
-727.923	-61.719	-0.325	0.138
-726.908	-200.000	-0.021	0.165
-725.894	-57.565	0.080	0.036
-724.879	-127.177	-0.181	-0.027
-723.864	800.000	-0.026	-0.089
-722.850	800.000	-0.029	-0.083
-721.835	-34.006	0.232	0.129
-720.821	-86.739	0.290	-0.090
-719.806	-85.193	0.229	-0.073
-718.791	220.670	-0.051	0.083
-717.777	0.487	-0.307	0.222
-716.762	-127.881	0.391	-0.057
-715.748	515.506	0.122	-0.288
-714.733	24.583	0.191	-0.161
-713.718	191.915	-0.151	0.231
-712.704	-94.910	-0.376	0.103
-711.689	365.470	0.107	0.219
-710.675	131.096	-0.136	0.177
-709.660	-200.000	-0.002	0.148
-708.645	800.000	0.072	-0.231
-707.631	94.551	0.091	-0.105
-706.616	26.494	-0.361	-0.306
-705.602	-200.000	0.001	0.101
-704.587	493.557	-0.042	0.097
-703.572	-20.616	-0.108	-0.067
-702.558	800.000	0.052	0.169
-701.543	-126.054	0.069	-0.010
-700.529	-11.522	0.174	-0.116
-699.514	-144.628	0.206	-0.019
-698.499	605.636	0.079	-0.198
-697.485	77.574	-0.306	0.330
-696.470	-163.848	0.210	-0.010
-695.456	91.717	-0.253	-0.288
-694.441	254.243	0.015	0.026
-693.426	-24.646	-0.189	0.114
-692.412	800.000	0.097	-0.311
-691.397	-108.269	-0.247	-0.054
-690.383	-200.000	-0.050	0.317
-689.368	91.310	0.073	0.084
-688.354	9.783	-0.286	-0.219
-687.339	387.149	0.037	-0.077
-686.324	25.320	-0.183	0.154
-685.310	800.000	0.084	0.236
-684.295	53.022	-0.349	-0.338
-683.281	-70.951	-0.142	-0.054
-682.266	-159.030	0.193	0.011
-681.251	-141.012	-0.396	0.041
-680.237	689.856	-0.105	-0.279
-679.222	-77.459	0.163	-0.057
-678.208	77.795	-0.286	0.309
-677.193	426.544	0.146	0.320
-676.178	-96.728	0.260	-0.069
-675.164	148.248	0.188	0.256
-674.149	-104.035	-0.047	0.011
-673.135	-200.000	-0.013	-0.144
-672.120	800.000	-0.092	0.348
-671.105	-13.159	-0.358	-0.235
-670.091	28.656	-0.331	-0.284
-669.076	3.318	0.197	0.145
-668.062	454.505	-0.058	-0.129
-667.047	43.469	-0.081	-0.075
-666.032	35.492	0.167	0.149
-665.018	11.546	0.318	0.247
-664.003	-200.000	-0.094	-0.453
-662.989	-84.875	0.265	0.084
-661.974	-79.948	0.028	-0.010
-660.959	790.790	-0.096	0.267
-659.945	86.401	0.148	-0.166
-658.930	96.149	-0.139	0.160
-657.916	69.351	0.120	0.124
-656.901	-22.401	0.130	0.080
-655.886	12.390	0.253	-0.198
-654.872	-73.512	-0.108	-0.040
-653.857	616.311	-0.088	-0.224
-652.843	-200.000	0.052	0.255
-651.828	-142.713	0.199	0.020
-650.814	-75.842	0.189	0.068
-649.799	188.114	0.138	-0.209
-648.784	519.057	-0.033	0.078
-647.770	-86.275	0.142	0.044
-646.755	-200.000	-0.028	-0.196
-645.741	62.858	-0.043	0.044
-644.726	-117.242	-0.071	0.013
-643.711	58.098	0.202	0.200
-642.697	-155.677	0.115	0.007
-641.682	74.926	0.150	-0.159
-640.668	172.304	-0.079	0.115
-639.653	615.551	-0.032	0.081
-638.638	439.552	-0.065	-0.143
-637.624	-166.324	0.115	-0.005
-636.609	-200.000	-0.002	0.235
-635.595	352.934	0.132	0.265
-634.580	-75.677	-0.132	-0.047
-633.565	-151.891	-0.161	-0.012
-632.551	-41.753	-0.268	0.139
-631.536	-86.708	-0.146	0.045
-630.522	-19.060	0.038	0.024
-629.507	-84.614	-0.180	0.057
-628.492	-200.000	0.014	-0.134
-627.478	63.049	-0.096	-0.097
-626.463	-72.931	-0.196	-0.073
-625.449	-49.721	-0.110	-0.053
-624.434	66.630	0.214	0.220
-623.419	-103.999	-0.295	-0.069
-622.405	-156.960	-0.090	-0.006
-621.390	-124.119	0.060	-0.010
-620.376	399.747	0.163	-0.345
-619.361	-200.000	0.001	-0.032
-618.346	-28.376	-0.269	0.157
-617.332	-15.347	0.208	0.134
-616.317	-200.000	-0.018	-0.097
-615.303	-43.657	0.184	0.094
-614.288	-53.858	0.451	-0.207
-613.273	544.287	0.042	0.100
-612.259	-115.213	0.515	-0.098
-611.244	-200.000	-0.037	-0.414
-610.230	-45.623	0.281	-0.141
-609.215	-41.011	-0.177	0.093
-608.201	-200.000	0.001	-0.137
-607.186	-63.013	0.204	-0.085
-606.171	800.000	0.160	-0.471
-605.157	4.308	0.158	0.117
-604.142	800.000	-0.043	-0.184
-603.128	375.244	0.119	0.245
-602.113	-116.799	-0.166	-0.031
-601.098	800.000	-0.071	-0.205
-600.084	-200.000	-0.064	-0.329
-599.069	-200.000	0.001	-0.219
-598.055	-70.050	-0.142	-0.054
-597.040	624.628	-0.051	0.130
-596.025	23.337	-0.225	-0.187
-595.011	170.652	0.184	-0.266
-593.996	156.721	-0.189	-0.264
-592.982	97.282	0.154	0.178
-591.967	-200.000	-0.036	0.173
-590.952	-146.483	0.155	-0.014
-589.938	35.360	-0.180	-0.159
-588.923	230.874	0.176	0.292
-587.909	-178.394	0.231	-0.005
-586.894	779.382	0.127	0.350
-585.879	82.048	0.088	-0.096
-584.865	-81.091	0.215	-0.072
-583.850	53.107	0.111	-0.107
-582.836	43.616	-0.101	0.093
-581.821	-56.209	0.193	0.087
-580.806	-114.777	0.266	0.051
-579.792	-12.051	0.103	0.068
-578.777	32.730	0.240	-0.210
-577.763	-120.632	-0.370	0.063
-576.748	339.750	-0.164	0.323
-575.733	-90.315	0.540	0.158
-574.719	53.368	-0.319	0.308
-573.704	-57.857	0.148	-0.065
-572.690	-200.000	-0.003	0.274
-571.675	43.483	-0.116	0.107
-570.661	160.592	-0.199	-0.280
-569.646	74.477	-0.090	0.096
-568.631	-124.236	-0.088	-0.014
-567.617	-147.454	0.126	-0.011
-566.602	-143.058	0.116	-0.011
-565.588	456.520	0.102	0.229
-564.573	189.814	0.113	0.170
-563.558	-200.000	-0.031	0.290
-562.544	150.854	-0.012	0.017
-561.529	-13.774	0.183	0.119
-560.515	8.409	0.289	0.219
-559.500	-86.430	-0.308	0.096
-558.485	45.292	-0.066	0.062
-557.471	55.430	-0.241	-0.235
-556.456	-89.192	0.182	-0.054
-555.442	-146.770	-0.028	0.002
-554.427	-200.000	0.020	0.311
-553.412	-106.465	-0.191	0.043
-552.398	46.133	-0.340	-0.317
-551.383	-200.000	0.075	-0.346
-550.369	-43.325	-0.332	-0.169
-549.354	-22.403	-0.228	-0.139
-548.339	42.626	0.137	-0.125
-547.325	2.375	0.089	0.065
-546.310	123.824	0.158	0.199
-545.296	9.810	0.140	0.107
-544.281	544.382	0.117	0.282
-543.266	-200.000	-0.021	0.253
-542.252	7.676	0.172	0.129
-541.237	420.729	-0.147	-0.317
-540.223	-82.570	0.278	-0.091
-539.208	-200.000	-0.008	-0.087
-538.193	40.790	-0.179	0.162
-537.179	-200.000	-0.001	-0.075
-536.164	-107.190	-0.195	0.043
-535.150	-153.788	0.033	0.002
-534.135	25.744	0.191	-0.160
-533.121	72.374	0.172	0.180
-532.106	173.255	0.144	0.209
-531.091	-55.537	0.054	-0.025
-530.077	800.000	-0.086	0.340
-529.062	-125.340	0.240	0.037
-528.048	124.420	-0.220	-0.279
-527.033	-200.000	-0.031	-0.158
-526.018	340.750	0.075	0.147
-525.004	800.000	-0.066	-0.237
-523.989	41.339	0.097	0.088
-522.975	179.886	0.281	-0.415
-521.960	43.094	0.182	-0.167
-520.945	-22.367	0.148	0.090
-519.931	-42.431	0.353	0.181
-518.916	-200.000	-0.034	-0.176
-517.902	624.971	0.037	0.093
-516.887	-50.649	-0.066	0.031
-515.872	621.201	-0.117	-0.296
-514.858	800.000	-0.108	-0.387
-513.843	506.193	0.090	-0.209
-512.829	-47.365	-0.079	0.038
-511.814	-60.896	-0.362	-0.154
-510.799	-92.535	0.192	-0.054
-509.785	-106.662	0.122	0.027
-508.770	-200.000	-0.049	0.404
-507.756	279.414	0.157	-0.281
-506.741	-102.398	-0.179	0.043
-505.726	-200.000	0.006	-0.084
-504.712	-174.356	-0.237	0.007
-503.697	800.000	0.064	0.191
-502.683	800.000	-0.088	0.274
-501.668	-113.794	0.111	-0.022
-500.653	64.253	0.065	-0.066
-499.639	159.650	-0.088	0.123
-498.624	-90.286	0.225	0.066
-497.610	-109.210	-0.282	0.060
-496.595	-140.175	-0.118	-0.012
-495.581	-200.000	0.017	-0.129
-494.566	-23.872	-0.124	0.074
-493.551	-116.550	0.408	-0.076
-492.537	26.609	-0.213	0.179
-491.522	229.007	0.078	-0.128
-490.508	760.751	-0.098	-0.267
-489.493	-200.000	0.005	0.115
-488.478	-200.000	0.014	-0.128
-487.464	-105.103	-0.137	-0.032
-486.449	122.583	-0.102	0.128
-485.435	16.889	0.132	-0.105
-484.420	-72.450	-0.180	0.067
-483.405	-57.753	0.266	0.117
-482.391	-167.336	-0.160	-0.006
-481.376	-88.915	-0.093	0.028
-480.362	-72.303	0.023	-0.008
-479.347	800.000	0.015	0.063
-478.332	-30.797	-0.262	0.149
-477.318	206.724	-0.058	0.090
-476.303	-101.805	0.226	-0.055
-475.289	-96.028	-0.181	-0.048
-474.274	-129.042	0.210	0.030
-473.259	46.711	-0.123	0.114
-472.245	-5.877	0.068	-0.046
-471.230	800.000	-0.200	-0.592
-470.216	-104.750	0.260	-0.060
-469.201	288.267	-0.042	0.077
-468.186	800.000	0.034	-0.126
-467.172	-77.674	0.284	-0.099
-466.157	-54.756	0.108	0.049
-465.143	183.526	-0.135	0.200
-464.128	304.574	-0.027	-0.050
-463.113	-200.000	0.037	-0.305
-462.099	326.390	0.018	0.034
-461.084	800.000	0.114	0.322
-460.070	0.314	0.236	-0.169
-459.055	156.927	-0.124	-0.172
-458.040	507.678	0.023	0.053
-457.026	800.000	-0.133	0.406
-456.011	800.000	-0.068	0.291
-454.997	-200.000	-0.064	-0.402
-453.982	-200.000	0.017	-0.089
-452.968	-40.301	0.114	0.060
-451.953	-67.419	0.180	-0.071
-450.938	68.887	-0.110	-0.113
-449.924	-48.025	0.434	0.210
-448.909	-62.234	0.154	-0.064
-447.895	-48.270	0.380	-0.184
-446.880	-200.000	0.028	0.271
-445.865	-20.379	-0.065	-0.040
-444.851	-190.515	0.098	-0.001
-443.836	800.000	0.101	-0.370
-442.822	-32.985	-0.006	-0.004
-441.807	-84.539	0.080	-0.025
-440.792	69.186	-0.152	0.157
-439.778	-58.296	0.197	-0.086
-438.763	61.940	-0.266	0.266
-437.749	-123.387	-0.397	-0.064
-436.734	-88.439	0.187	-0.056
-435.719	-97.073	-0.330	-0.087
-434.705	37.319	-0.115	-0.102
-433.690	-132.626	0.245	-0.032
-432.676	296.445	-0.116	-0.212
-431.661	49.059	-0.006	0.006
-430.646	-62.514	-0.161	0.067
-429.632	-37.097	-0.205	0.110
-428.617	-145.848	-0.218	0.019
-427.603	-143.944	0.097	-0.009
-426.588	504.908	-0.090	-0.209
-425.573	-138.572	-0.130	0.014
-424.559	192.062	-0.064	-0.096
-423.544	213.586	-0.085	0.135
-422.530	-200.000	0.071	-0.345
-421.515	95.166	-0.160	0.183
-420.500	132.830	-0.146	0.189
-419.486	63.556	-0.087	0.088
-418.471	-43.421	-0.148	-0.075
-417.457	249.024	0.099	-0.168
-416.442	-200.000	-0.008	0.152
-415.428	308.487	-0.236	0.441
-414.413	-79.403	-0.156	-0.053
-413.398	800.000	0.112	0.416
-412.384	-125.357	-0.143	-0.022
-411.369	43.270	-0.081	0.074
-410.355	-84.327	-0.237	0.075
-409.340	-59.887	0.077	-0.033
-408.325	-200.000	-0.015	-0.318
-407.311	-147.324	0.356	0.030
-406.296	800.000	0.055	-0.158
-405.282	-110.252	-0.350	-0.073
-404.267	431.043	-0.088	0.190
-403.252	-175.873	-0.320	-0.009
-402.238	106.727	-0.173	0.206
-401.223	-21.976	-0.169	0.103
-400.209	88.303	-0.158	0.176
-399.194	85.494	-0.124	-0.137
-398.179	30.483	0.172	-0.147
-397.165	-200.000	0.080	-0.422
-396.150	-200.000	0.017	-0.302
-395.136	-155.362	0.377	0.025
-394.121	155.783	0.118	0.163
-393.106	-63.362	0.292	-0.120
-392.092	20.674	-0.163	0.132
-391.077	98.615	-0.222	0.256
-390.063	537.789	-0.152	-0.361
-389.048	-108.314	0.178	-0.038
-388.033	71.505	0.064	0.067
-387.019	-103.895	-0.031	0.007
-386.004	356.595	-0.073	-0.146
-384.990	-200.000	-0.101	-0.498
-383.975	184.999	0.121	-0.180
-382.960	-66.591	0.129	-0.051
-381.946	-200.000	-0.114	-0.516
-380.931	-24.502	-0.084	-0.050
-379.917	-200.000	-0.007	0.495
-378.902	-200.000	-0.028	-0.309
-377.888	-16.819	0.052	-0.033
-376.873	0.680	0.075	0.053
-375.858	-7.891	0.087	-0.058
-374.844	800.000	-0.129	0.452
-373.829	329.551	-0.023	-0.044
-372.815	289.056	-0.095	0.172
-371.800	800.000	0.044	-0.129
-370.785	-89.968	0.253	-0.074
-369.771	146.640	-0.123	-0.165
-368.756	44.530	-0.125	-0.115
-367.742	125.388	0.208	-0.262
-366.727	-200.000	0.002	0.050
-365.712	-200.000	-0.000	0.372
-364.698	-108.113	-0.236	-0.051
-363.683	146.311	-0.138	-0.185
-362.669	-86.906	0.241	0.074
-361.654	-200.000	-0.010	-0.255
-360.639	800.000	-0.042	0.179
-359.625	-38.154	0.254	0.135
-358.610	207.559	0.113	0.177
-357.596	800.000	-0.121	0.419
-356.581	6.338	0.006	0.005
-355.566	800.000	-0.056	-0.189
-354.552	47.224	0.254	-0.237
-353.537	142.747	-0.208	-0.276
-352.523	800.000	0.045	0.148
-351.508	-87.541	0.254	-0.077
-350.493	487.486	-0.071	-0.161
-349.479	260.604	-0.070	0.121
-348.464	-2.475	0.090	-0.063
-347.450	-166.837	-0.202	-0.008
-346.435	334.458	0.042	0.080
-345.420	767.903	-0.113	0.307
-344.406	-104.075	0.235	0.055
-343.391	415.767	-0.137	0.292
-342.377	-200.000	0.000	0.125
-341.362	15.683	0.175	-0.138
-340.348	32.803	-0.273	-0.236
-339.333	-200.000	-0.025	-0.307
-338.318	289.486	0.063	0.115
-337.304	-174.957	0.095	0.003
-336.289	401.284	-0.104	0.219
-335.275	348.363	-0.251	-0.495
-334.260	711.675	0.061	-0.161
-333.245	-126.648	0.080	0.012
-332.231	36.002	0.358	0.315
-331.216	-56.938	-0.133	0.059
-330.202	433.479	0.039	0.084
-329.187	-67.807	-0.191	-0.075
-328.172	70.681	0.230	0.238
-327.158	131.888	-0.162	0.208
-326.143	-130.238	-0.355	-0.048
-325.129	387.220	-0.124	-0.255
-324.114	47.564	-0.372	0.347
-323.099	800.000	-0.085	-0.300
-322.085	-200.000	-0.016	-0.427
-321.070	800.000	-0.077	-0.290
-320.056	-72.258	-0.348	-0.129
-319.041	80.605	0.282	0.303
-318.026	24.676	0.199	-0.164
-317.012	62.994	0.294	0.294
-315.997	-57.468	0.120	0.052
-314.983	800.000	-0.099	0.370
-313.968	-8.620	-0.216	0.145
-312.953	800.000	0.060	-0.195
-311.939	54.174	0.122	-0.117
-310.924	-98.116	-0.169	0.043
-309.910	-38.963	0.193	0.101
-308.895	339.021	0.070	0.137
-307.880	-200.000	0.078	-0.372
-306.866	800.000	-0.067	0.277
-305.851	112.717	-0.105	0.127
-304.837	-61.596	0.093	-0.039
-303.822	-119.608	0.106	-0.018
-302.807	-121.836	0.271	0.045
-301.793	149.034	0.091	-0.123
-300.778	-78.984	-0.058	0.020
-299.764	286.578	-0.057	0.102
-298.749	178.300	-0.096	0.139
-297.735	372.968	-0.149	-0.302
-296.720	511.663	-0.098	-0.228
-295.705	16.920	0.219	-0.173
-294.691	109.733	0.213	-0.255
-293.676	-200.000	-0.046	0.317
-292.662	798.159	-0.107	0.294
-291.647	-95.481	0.417	-0.112
-290.632	-55.276	0.200	0.090
-289.618	-139.391	-0.534	-0.057
-288.603	38.040	0.211	-0.187
-287.589	-200.000	0.003	0.241
-286.574	399.084	0.019	0.040
-285.559	19.887	-0.375	-0.301
-284.545	123.709	-0.167	-0.209
-283.530	675.095	-0.065	-0.170
-282.516	-200.000	-0.035	-0.228
-281.501	222.536	-0.136	0.218
-280.486	54.063	-0.180	-0.173
-279.472	4.462	0.239	0.175
-278.457	248.108	-0.053	0.090
-277.443	800.000	-0.109	0.342
-276.428	30.945	0.281	0.240
-275.413	-200.000	0.010	0.357
-274.399	-200.000	0.036	-0.211
-273.384	-61.866	-0.272	-0.113
-272.370	159.070	-0.112	0.155
-271.355	418.846	-0.086	-0.183
-270.340	-54.123	0.149	-0.068
-269.326	-139.203	-0.156	0.017
-268.311	-47.034	-0.168	0.082
-267.297	800.000	-0.037	0.128
-266.282	-51.082	0.275	-0.129
-265.267	-13.174	-0.160	-0.103
-264.253	-126.113	-0.138	0.021
-263.238	-22.148	0.046	0.028
-262.224	-105.631	0.057	-0.013
-261.209	-200.000	-0.006	0.279
-260.195	-22.837	-0.177	0.106
-259.180	412.339	-0.049	0.105
-258.165	-39.897	-0.423	0.220
-257.151	530.706	0.203	0.478
-256.136	800.000	0.041	-0.170
-255.122	121.268	0.142	-0.176
-254.107	140.074	0.133	-0.175
-253.092	71.824	0.176	0.182
-252.078	181.037	0.245	0.359
-251.063	116.465	-0.030	0.037
-250.049	50.817	0.385	-0.363
-249.034	-200.000	-0.031	0.202
-248.019	-81.804	-0.277	-0.090
-247.005	-146.635	-0.083	0.007
-245.990	84.120	0.142	0.155
-244.976	317.854	0.106	0.200
-243.961	81.252	-0.023	0.024
-242.946	421.768	-0.054	0.116
-241.932	152.074	0.157	-0.213
-240.917	-200.000	-0.007	0.065
-239.903	703.293	-0.122	-0.321
-238.888	749.824	-0.102	-0.274
-237.873	-31.202	-0.043	0.024
-236.859	87.230	0.123	0.135
-235.844	-140.837	-0.153	-0.016
-234.830	-200.000	0.026	-0.259
-233.815	35.010	-0.176	0.153
-232.800	445.204	-0.060	0.131
-231.786	800.000	0.041	-0.150
-230.771	47.390	-0.210	0.195
-229.757	24.585	0.160	0.132
-228.742	-69.546	0.136	-0.052
-227.727	176.075	0.072	-0.103
-226.713	287.481	0.036	0.065
-225.698	11.864	0.064	-0.049
-224.684	65.129	0.123	-0.124
-223.669	61.290	0.148	-0.146
-222.655	800.000	0.049	-0.146
-221.640	761.206	-0.030	0.081
-220.625	-97.536	0.144	-0.037
-219.611	179.860	-0.167	0.244
-218.596	800.000	-0.046	-0.146
-217.582	591.128	0.063	-0.154
-216.567	332.356	0.180	0.346
-215.552	147.144	0.158	0.211
-214.538	14.227	-0.178	0.138
-213.523	-64.468	-0.058	-0.023
-212.509	565.587	0.060	-0.144
-211.494	-200.000	-0.002	0.111
-210.479	-200.000	0.016	0.438
-209.465	-200.000	-0.049	0.330
-208.450	432.674	-0.150	-0.323
-207.436	716.807	0.040	-0.106
-206.421	-200.000	-0.001	-0.189
-205.406	-116.137	0.154	0.028
-204.392	-200.000	0.011	-0.118
-203.377	12.367	0.008	0.006
-202.363	-73.093	0.188	0.069
-201.348	-40.697	0.045	0.023
-200.333	38.340	-0.181	-0.160
-199.319	-127.768	-0.177	0.025
-198.304	-81.436	0.211	0.069
-197.290	110.635	-0.128	-0.152
-196.275	-199.053	-0.101	-0.001
-195.260	-24.667	0.221	-0.131
-194.246	-20.389	0.104	-0.064
-193.231	-200.000	-0.025	0.366
-192.217	-23.696	-0.230	0.137
-191.202	-70.856	-0.247	0.093
-190.187	-200.000	0.018	-0.117
-189.173	-200.000	0.000	-0.253
-188.158	800.000	-0.024	0.099
-187.144	800.000	-0.051	0.192
-186.129	473.688	0.190	0.425
-185.114	-36.814	-0.146	0.078
-184.100	44.874	-0.078	-0.071
-183.085	-130.926	-0.160	-0.021
-182.071	-107.891	0.386	0.084
-181.056	-12.751	-0.114	0.074
-180.042	45.243	0.044	0.040
-179.027	-8.753	0.058	0.039
-178.012	-136.900	-0.440	-0.050
-176.998	-44.274	0.271	-0.135
-175.983	800.000	0.081	0.231
-174.969	-133.089	0.184	-0.023
-173.954	-200.000	-0.013	-0.420
-172.939	136.923	0.196	-0.255
-171.925	800.000	-0.086	0.240
-170.910	-200.000	-0.057	0.254
-169.896	800.000	-0.098	-0.327
-168.881	800.000	-0.102	0.355
-167.866	16.628	0.039	0.031
-166.852	800.000	0.018	-0.066
-165.837	54.166	0.101	-0.096
-164.823	26.468	-0.079	0.065
-163.808	93.912	-0.232	-0.261
-162.793	-11.965	0.191	-0.125
-161.779	267.949	0.242	-0.420
-160.764	-72.120	0.031	0.011
-159.750	-73.103	0.093	0.034
-158.735	-27.580	-0.309	0.178
-157.720	663.617	-0.216	0.553
-156.706	-200.000	-0.039	0.182
-155.691	-36.048	-0.285	0.153
-154.677	-200.000	0.039	-0.312
-153.662	241.151	0.110	0.182
-152.647	-87.802	-0.110	-0.033
-151.633	91.951	-0.190	0.212
-150.618	-200.000	-0.010	0.172
-149.604	20.990	0.160	-0.129
-148.589	4.439	0.074	0.054
-147.574	-200.000	0.009	0.141
-146.560	10.205	0.057	0.043
-145.545	-98.087	-0.168	-0.043
-144.531	800.000	0.026	0.072
-143.516	222.612	-0.125	-0.200
-142.502	-65.537	-0.175	0.070
-141.487	-152.601	-0.160	0.011
-140.472	635.804	-0.117	-0.295
-139.458	-62.020	0.290	-0.120
-138.443	20.649	0.088	-0.071
-137.429	231.921	0.060	-0.098
-136.414	800.000	-0.055	-0.162
-135.399	172.998	-0.240	0.343
-134.385	-157.602	-0.225	0.013
-133.370	-58.684	0.314	-0.135
-132.356	-200.000	-0.030	0.153
-131.341	103.688	0.261	0.303
-130.326	-95.498	0.282	-0.075
-129.312	-20.400	0.253	-0.154
-128.297	-57.423	0.184	-0.080
-127.283	800.000	-0.073	-0.229
-126.268	-200.000	-0.003	0.192
-125.253	-44.711	0.257	0.127
-124.239	-64.546	-0.128	-0.051
-123.224	-200.000	-0.075	0.424
-122.210	100.228	-0.239	-0.275
-121.195	223.581	-0.166	0.266
-120.180	-200.000	0.015	0.068
