DTS Sentinel unit serial number:	SN413079Multiplexer serial number:	ORYXHardware model number:	OX4-SRSoftware version number:	ORYX F/W v4.00 Oryx Data Collector v3.7.2.0data status	okinstallation	princeton_trtdifferential loss correction	single-endedforward channel	channel 4reverse channel	N/Adate	2019/09/13time	19:57:35forward acquisition time	60.00reverse acquisition time	0.00gamma	496.2192k internal	0.2316k external	0.2316temperature offset calibration	1.0138default loss term (dB/km)	0.3790temperature slope calibration	1.0000multiplexer offset coefficient	1.0000multiplexer slope coefficient	1.0000fibre end	0.00T internal ref (°C)	29.87T ext. ref 1 (°C)	3.30T ext. ref 2 (°C)	24.14length (m)	temperature (°C)	Stokes	anti-Stokes-747.200	800.000	0.085	0.313
-746.185	-96.608	0.116	-0.031
-745.171	61.166	0.098	-0.098
-744.156	-142.787	0.232	0.023
-743.142	-12.924	0.040	-0.026
-742.127	755.744	0.130	0.357
-741.112	-144.307	0.170	-0.016
-740.098	-132.235	-0.133	-0.017
-739.083	-114.921	0.228	-0.044
-738.069	274.730	-0.086	0.155
-737.054	68.846	0.246	-0.256
-736.039	-200.000	-0.005	0.091
-735.025	-71.809	0.324	0.122
-734.010	-125.059	-0.366	-0.057
-732.996	-128.731	-0.174	-0.025
-731.981	-200.000	-0.025	-0.199
-730.966	-39.900	0.061	0.032
-729.952	-144.646	-0.531	0.050
-728.937	326.675	-0.015	-0.030
-727.923	112.542	-0.072	-0.089
-726.908	260.607	0.093	-0.164
-725.894	-128.331	-0.063	0.009
-724.879	225.542	-0.178	-0.291
-723.864	-157.534	0.020	0.001
-722.850	-9.977	0.159	0.107
-721.835	-200.000	0.001	0.251
-720.821	-132.896	0.163	0.021
-719.806	-200.000	-0.043	0.270
-718.791	27.196	-0.078	-0.067
-717.777	-106.673	-0.146	0.033
-716.762	218.684	0.120	0.193
-715.748	-200.000	0.020	0.125
-714.733	-113.552	-0.219	-0.043
-713.718	-0.476	-0.170	-0.122
-712.704	800.000	0.035	-0.115
-711.689	-98.114	0.308	-0.080
-710.675	-120.707	-0.116	0.020
-709.660	148.694	0.153	-0.209
-708.645	135.923	-0.082	0.108
-707.631	-200.000	-0.022	0.128
-706.616	800.000	-0.077	0.292
-705.602	800.000	-0.084	0.253
-704.587	-54.179	0.177	-0.082
-703.572	-26.742	-0.182	0.107
-702.558	-200.000	0.022	-0.125
-701.543	-21.734	0.272	-0.167
-700.529	117.281	0.350	-0.434
-699.514	286.788	-0.115	-0.210
-698.499	50.957	0.094	0.090
-697.485	184.258	-0.254	-0.381
-696.470	-200.000	0.028	-0.165
-695.456	-24.789	0.114	0.068
-694.441	-22.857	0.227	-0.138
-693.426	-120.841	-0.317	0.054
-692.412	-4.552	-0.309	0.216
-691.397	75.315	-0.047	-0.050
-690.383	-200.000	0.002	0.095
-689.368	800.000	-0.060	-0.237
-688.354	180.911	0.055	-0.082
-687.339	-65.659	0.172	0.070
-686.324	239.248	-0.078	0.132
-685.310	-5.806	0.271	-0.188
-684.295	-200.000	-0.005	-0.180
-683.281	8.409	0.223	-0.169
-682.266	-100.959	-0.152	-0.038
-681.251	-160.194	0.182	0.010
-680.237	-129.858	0.345	0.048
-679.222	90.032	0.234	-0.264
-678.208	100.624	-0.073	-0.086
-677.193	12.274	-0.261	-0.203
-676.178	-200.000	-0.048	0.254
-675.164	-200.000	0.026	-0.118
-674.149	-119.766	0.351	0.061
-673.135	-131.607	-0.135	-0.018
-672.120	396.499	0.094	0.198
-671.105	-126.997	0.211	-0.031
-670.091	-200.000	-0.018	0.273
-669.076	-92.491	-0.290	-0.082
-668.062	-137.548	0.041	0.005
-667.047	-8.368	0.134	0.091
-666.032	-16.978	0.158	0.101
-665.018	223.277	-0.128	-0.208
-664.003	-126.171	-0.081	0.012
-662.989	-54.506	-0.281	0.128
-661.974	49.269	-0.233	0.221
-660.959	724.326	-0.157	-0.423
-659.945	-53.253	-0.175	0.081
-658.930	173.825	0.024	0.035
-657.916	27.177	-0.347	0.294
-656.901	418.108	-0.102	-0.219
-655.886	-105.103	0.261	0.060
-654.872	-164.100	-0.334	0.016
-653.857	-200.000	-0.000	-0.134
-652.843	-54.564	0.370	-0.169
-651.828	800.000	0.031	-0.124
-650.814	59.710	0.268	0.267
-649.799	-62.154	0.093	-0.039
-648.784	238.727	-0.086	0.143
-647.770	161.019	0.166	-0.235
-646.755	198.280	0.091	-0.140
-645.741	195.604	0.032	-0.049
-644.726	96.723	0.127	0.147
-643.711	523.555	-0.091	0.215
-642.697	-40.404	-0.309	0.162
-641.682	257.177	-0.105	-0.182
-640.668	-88.977	0.142	-0.042
-639.653	88.320	-0.277	0.310
-638.638	-200.000	-0.026	-0.144
-637.624	-126.082	0.179	-0.027
-636.609	-200.000	0.008	0.117
-635.595	81.095	0.197	-0.214
-634.580	-200.000	0.026	-0.138
-633.565	506.645	0.113	-0.265
-632.551	800.000	-0.078	-0.259
-631.536	-73.616	-0.149	-0.055
-630.522	-60.089	0.239	0.103
-629.507	212.352	-0.109	-0.174
-628.492	-66.789	-0.180	-0.072
-627.478	377.547	0.025	0.052
-626.463	711.007	0.029	-0.077
-625.449	-39.091	0.109	0.058
-624.434	121.293	-0.119	-0.149
-623.419	-163.530	-0.329	-0.016
-622.405	158.110	-0.280	-0.392
-621.390	-200.000	0.001	-0.009
-620.376	-16.855	0.022	0.014
-619.361	-41.849	0.112	0.058
-618.346	-200.000	-0.042	-0.392
-617.332	800.000	-0.097	-0.368
-616.317	-51.331	-0.416	0.196
-615.303	45.734	-0.038	-0.035
-614.288	-16.891	-0.228	-0.145
-613.273	40.321	-0.045	-0.041
-612.259	-79.884	-0.284	-0.096
-611.244	141.578	-0.275	0.367
-610.230	235.352	-0.086	0.143
-609.215	-39.132	-0.340	0.180
-608.201	-100.625	-0.301	0.075
-607.186	-200.000	0.004	-0.410
-606.171	800.000	-0.072	0.206
-605.157	-25.971	-0.149	0.088
-604.142	89.862	-0.142	0.160
-603.128	-105.274	0.073	0.017
-602.113	-174.815	-0.238	-0.007
-601.098	190.905	-0.139	0.210
-600.084	-48.194	0.106	-0.052
-599.069	25.250	0.119	0.100
-598.055	-158.026	0.049	-0.003
-597.040	-134.631	0.273	-0.034
-596.025	-25.485	0.391	0.233
-595.011	234.888	0.144	-0.239
-593.996	-96.087	-0.262	-0.070
-592.982	-55.170	-0.201	0.091
-591.967	-78.773	0.213	-0.073
-590.952	59.837	0.100	-0.100
-589.938	-137.218	0.059	-0.007
-588.923	-36.888	-0.313	-0.169
-587.909	-37.249	0.238	0.128
-586.894	-200.000	0.025	0.279
-585.879	28.215	-0.303	-0.258
-584.865	-169.513	0.362	0.013
-583.850	-1.449	-0.108	-0.077
-582.836	-141.412	0.372	0.038
-581.821	-121.484	-0.193	-0.032
-580.806	151.956	-0.063	0.086
-579.792	62.206	0.340	0.342
-578.777	-71.725	-0.229	0.086
-577.763	-200.000	0.010	-0.378
-576.748	407.681	0.169	0.360
-575.733	26.231	-0.234	-0.197
-574.719	-200.000	-0.008	0.111
-573.704	-200.000	0.029	-0.631
-572.690	748.391	-0.026	0.070
-571.675	-21.282	0.163	0.100
-570.661	311.368	-0.103	0.195
-569.646	-88.710	0.278	0.083
-568.631	-81.573	0.264	-0.087
-567.617	-133.742	-0.147	0.018
-566.602	800.000	0.140	0.431
-565.588	65.904	0.144	0.147
-564.573	-133.830	0.032	-0.004
-563.558	57.996	0.082	-0.081
-562.544	12.553	0.113	-0.088
-561.529	-114.677	0.087	0.017
-560.515	207.909	0.093	-0.146
-559.500	193.659	-0.108	-0.164
-558.485	800.000	0.076	-0.321
-557.471	703.837	-0.094	0.248
-556.456	45.097	0.079	0.074
-555.442	234.264	-0.184	0.304
-554.427	793.901	-0.088	-0.244
-553.412	581.556	-0.091	-0.223
-552.398	-164.572	-0.347	0.016
-551.383	-200.000	-0.004	0.310
-550.369	155.718	-0.287	0.398
-549.354	800.000	0.136	0.405
-548.339	-200.000	-0.006	-0.149
-547.325	-158.527	-0.226	0.013
-546.310	-200.000	-0.013	-0.115
-545.296	158.287	-0.049	-0.069
-544.281	-4.040	0.218	0.152
-543.266	18.467	0.315	0.253
-542.252	-58.760	-0.458	0.199
-541.237	367.386	0.057	0.116
-540.223	5.150	0.194	0.144
-539.208	-200.000	-0.010	0.126
-538.193	170.742	-0.084	0.120
-537.179	17.481	-0.127	0.101
-536.164	-200.000	-0.023	-0.189
-535.150	800.000	0.006	-0.019
-534.135	-123.715	0.143	0.023
-533.121	-200.000	0.035	-0.154
-532.106	-12.041	0.046	-0.030
-531.091	420.346	0.116	-0.249
-530.077	800.000	0.046	-0.159
-529.062	99.796	-0.205	0.238
-528.048	-72.044	-0.126	0.047
-527.033	47.042	-0.088	-0.083
-526.018	-161.708	-0.238	-0.012
-525.004	-117.190	0.234	-0.043
-523.989	-131.270	0.236	0.031
-522.975	183.734	-0.152	0.225
-521.960	-200.000	0.039	0.170
-520.945	76.685	0.032	0.035
-519.931	-200.000	0.078	-0.566
-518.916	-200.000	0.016	-0.119
-517.902	-200.000	-0.000	0.264
-516.887	-41.414	-0.202	0.105
-515.872	144.016	0.041	-0.054
-514.858	281.084	-0.159	0.286
-513.843	57.035	0.079	0.077
-512.829	800.000	-0.080	0.267
-511.814	373.983	0.241	0.492
-510.799	800.000	-0.057	0.170
-509.785	-44.682	-0.131	0.066
-508.770	344.718	0.042	-0.083
-507.756	-97.692	0.246	0.064
-506.741	-200.000	0.021	-0.095
-505.726	609.910	-0.047	0.117
-504.712	150.504	-0.248	-0.338
-503.697	-200.000	0.012	-0.136
-502.683	1.994	-0.203	0.147
-501.668	55.048	0.146	0.142
-500.653	34.520	0.179	-0.157
-499.639	-10.038	-0.024	0.016
-498.624	651.959	0.070	0.181
-497.610	-1.697	-0.216	-0.153
-496.595	-93.047	-0.160	0.045
-495.581	-200.000	-0.068	-0.464
-494.566	474.980	-0.066	0.150
-493.551	19.080	-0.164	-0.132
-492.537	-13.375	0.062	0.040
-491.522	-52.081	-0.190	-0.089
-490.508	2.217	-0.186	0.134
-489.493	101.225	-0.073	0.085
-488.478	-115.348	0.116	-0.022
-487.464	-111.163	0.316	-0.065
-486.449	5.387	0.119	-0.088
-485.435	-150.001	-0.205	-0.016
-484.420	-39.499	-0.212	-0.111
-483.405	117.341	-0.036	-0.044
-482.391	-58.092	0.079	-0.034
-481.376	-200.000	-0.007	-0.056
-480.362	-95.775	0.187	0.050
-479.347	115.007	-0.286	-0.350
-478.332	673.269	0.079	-0.206
-477.318	-200.000	-0.064	-0.287
-476.303	-76.574	-0.121	0.043
-475.289	-42.872	-0.079	-0.040
-474.274	-126.504	-0.169	-0.025
-473.259	800.000	-0.028	-0.109
-472.245	-72.582	-0.194	0.072
-471.230	800.000	-0.059	0.219
-470.216	800.000	-0.063	0.265
-469.201	426.215	0.061	0.131
-468.186	-114.500	-0.111	-0.021
-467.172	24.932	0.080	-0.066
-466.157	-200.000	0.018	-0.080
-465.143	11.337	0.118	-0.091
-464.128	-76.702	-0.045	-0.016
-463.113	-200.000	-0.066	-0.405
-462.099	-200.000	-0.067	-0.405
-461.084	170.647	0.273	-0.391
-460.070	359.799	-0.065	0.130
-459.055	-14.274	-0.037	0.024
-458.040	-123.117	-0.171	0.027
-457.026	-200.000	0.004	0.186
-456.011	16.074	-0.451	0.356
-454.997	-200.000	0.012	-0.119
-453.982	-90.982	0.196	-0.056
-452.968	-41.068	0.203	-0.105
-451.953	-122.853	0.144	0.023
-450.938	-200.000	-0.072	0.475
-449.924	14.092	0.154	0.120
-448.909	27.134	0.424	-0.357
-447.895	-90.526	0.370	-0.107
-446.880	237.324	0.154	-0.256
-445.865	259.053	-0.009	-0.015
-444.851	54.048	-0.172	-0.166
-443.836	-13.923	-0.432	0.280
-442.822	-47.261	-0.050	-0.024
-441.807	-125.064	0.414	0.064
-440.792	212.038	-0.116	-0.182
-439.778	-31.922	0.234	-0.131
-438.763	373.897	0.118	0.241
-437.749	138.096	0.165	0.216
-436.734	-19.869	-0.108	0.067
-435.719	44.398	0.156	-0.144
-434.705	-29.796	-0.106	0.060
-433.690	-144.592	0.264	-0.024
-432.676	-14.611	-0.073	0.047
-431.661	356.115	-0.065	0.130
-430.646	310.940	-0.009	-0.016
-429.632	799.379	0.117	0.324
-428.617	122.935	0.070	-0.087
-427.603	320.941	0.082	-0.156
-426.588	150.627	0.420	0.571
-425.573	-200.000	-0.026	0.123
-424.559	374.856	-0.034	-0.070
-423.544	-51.371	0.236	-0.111
-422.530	90.088	-0.128	-0.143
-421.515	-57.842	-0.326	0.143
-420.500	-58.626	-0.159	0.069
-419.486	-157.914	0.079	-0.005
-418.471	159.711	0.167	0.232
-417.457	800.000	-0.062	-0.227
-416.442	199.415	-0.104	0.160
-415.428	800.000	0.073	0.241
-414.413	-0.706	0.084	0.060
-413.398	-200.000	-0.026	0.116
-412.384	190.646	0.293	-0.441
-411.369	-200.000	0.035	0.529
-410.355	-14.652	-0.179	-0.115
-409.340	608.690	0.082	-0.204
-408.325	119.300	-0.173	0.214
-407.311	-200.000	0.042	-0.206
-406.296	-26.673	-0.201	-0.117
-405.282	-200.000	0.044	0.297
-404.267	12.813	-0.250	0.193
-403.252	8.082	0.178	-0.134
-402.238	323.327	-0.059	0.113
-401.223	-93.752	-0.215	0.059
-400.209	120.103	0.246	-0.305
-399.194	772.685	0.070	-0.191
-398.179	35.751	-0.270	-0.237
-397.165	102.033	-0.232	-0.271
-396.150	770.916	0.037	-0.101
-395.136	-200.000	-0.012	0.120
-394.121	800.000	0.152	0.493
-393.106	-200.000	-0.038	-0.283
-392.092	-66.618	0.078	0.031
-391.077	211.746	0.126	0.199
-390.063	-50.332	0.397	-0.187
-389.048	-62.485	0.104	-0.043
-388.033	-74.343	0.114	0.041
-387.019	-138.965	0.370	0.040
-386.004	-109.599	-0.284	0.060
-384.990	10.564	0.093	-0.071
-383.975	800.000	0.029	0.102
-382.960	-139.518	-0.280	-0.030
-381.946	-114.186	0.272	0.052
-380.931	-59.567	0.032	-0.014
-379.917	468.693	0.137	-0.307
-378.902	800.000	0.055	0.195
-377.888	334.265	0.171	0.330
-376.873	253.785	0.213	0.363
-375.858	-146.367	-0.014	-0.001
-374.844	-200.000	-0.037	-0.313
-373.829	211.160	-0.231	0.363
-372.815	213.805	0.140	-0.221
-371.800	-154.298	0.373	-0.025
-370.785	-78.285	0.418	0.143
-369.771	-75.650	-0.037	0.013
-368.756	308.909	0.066	-0.124
-367.742	800.000	0.128	0.386
-366.727	-200.000	-0.004	0.253
-365.712	-200.000	0.034	-0.216
-364.698	181.097	0.160	-0.234
-363.683	631.076	0.185	-0.468
-362.669	800.000	-0.056	-0.172
-361.654	-107.918	-0.210	0.046
-360.639	141.143	-0.118	-0.155
-359.625	220.668	0.144	-0.230
-358.610	30.435	-0.216	0.184
-357.596	368.241	-0.097	-0.195
-356.581	473.436	0.073	-0.164
-355.566	211.028	0.038	0.059
-354.552	169.248	0.090	-0.129
-353.537	60.218	-0.097	0.096
-352.523	40.964	-0.355	0.319
-351.508	-200.000	0.013	-0.098
-350.493	-200.000	-0.023	-0.171
-349.479	98.980	-0.127	0.146
-348.464	515.837	-0.052	0.121
-347.450	-181.996	0.258	0.005
-346.435	-17.750	-0.262	-0.164
-345.420	579.570	-0.028	-0.069
-344.406	183.816	-0.059	0.086
-343.391	-80.941	0.222	0.073
-342.377	486.078	-0.087	0.199
-341.362	276.412	-0.118	0.209
-340.348	-66.068	-0.153	-0.061
-339.333	-95.052	-0.182	0.049
-338.318	123.413	-0.123	-0.153
-337.304	191.239	-0.122	0.183
-336.289	800.000	0.066	-0.245
-335.275	-17.972	0.310	-0.193
-334.260	-200.000	-0.032	0.252
-333.245	-178.818	0.378	0.009
-332.231	681.921	-0.067	0.175
-331.216	-44.525	0.118	0.059
-330.202	-158.449	0.122	-0.007
-329.187	-40.005	-0.244	0.127
-328.172	117.192	0.098	-0.120
-327.158	800.000	0.063	-0.207
-326.143	87.908	0.150	-0.165
-325.129	800.000	0.066	-0.275
-324.114	800.000	0.100	0.297
-323.099	-33.448	-0.216	0.119
-322.085	-0.261	0.108	0.076
-321.070	-200.000	0.047	-0.377
-320.056	38.894	-0.080	-0.071
-319.041	-73.567	0.285	-0.103
-318.026	-53.959	0.220	0.100
-317.012	-172.375	0.347	-0.011
-315.997	12.301	-0.179	0.137
-314.983	-200.000	-0.014	-0.234
-313.968	-105.115	0.260	-0.059
-312.953	-93.555	0.124	0.034
-311.939	-104.683	0.154	0.035
-310.924	85.369	-0.275	0.301
-309.910	-125.452	-0.237	0.036
-308.895	-40.996	-0.277	-0.143
-307.880	645.050	-0.044	0.112
-306.866	-150.917	-0.217	-0.016
-305.851	-2.722	-0.137	0.096
-304.837	162.010	-0.060	0.084
-303.822	79.186	-0.266	-0.284
-302.807	799.489	-0.174	0.479
-301.793	-200.000	-0.003	0.226
-300.778	76.062	-0.046	-0.048
-299.764	-131.221	0.074	0.010
-298.749	-186.359	-0.019	0.000
-297.735	-129.852	0.427	-0.058
-296.720	113.823	-0.489	0.592
-295.705	58.776	-0.209	-0.204
-294.691	-155.857	0.201	0.013
-293.676	68.395	-0.086	0.088
-292.662	-165.153	-0.307	-0.014
-291.647	-2.012	0.198	-0.138
-290.632	-108.547	-0.182	0.039
-289.618	163.402	-0.082	0.115
-288.603	-58.002	-0.263	0.114
-287.589	800.000	0.087	-0.339
-286.574	48.573	-0.116	0.108
-285.559	79.927	-0.148	-0.158
-284.545	119.017	-0.121	0.149
-283.530	37.842	-0.105	-0.093
-282.516	64.836	0.148	-0.149
-281.501	-124.933	-0.341	0.052
-280.486	287.309	0.062	0.112
-279.472	-200.000	-0.016	0.310
-278.457	353.992	0.124	0.245
-277.443	19.847	-0.091	0.073
-276.428	254.457	-0.136	-0.231
-275.413	42.158	0.262	-0.237
-274.399	-134.811	0.341	-0.041
-273.384	-114.950	0.019	-0.004
-272.370	16.391	0.118	0.093
-271.355	103.334	-0.049	-0.057
-270.340	136.210	0.110	0.142
-269.326	-47.316	-0.185	0.090
-268.311	-200.000	-0.001	0.054
-267.297	800.000	0.036	-0.130
-266.282	4.878	0.191	-0.140
-265.267	-19.158	0.431	-0.266
-264.253	-132.363	-0.122	-0.016
-263.238	27.859	0.122	-0.102
-262.224	237.666	0.087	0.143
-261.209	-200.000	0.022	-0.138
-260.195	254.769	-0.111	-0.188
-259.180	334.367	0.136	-0.261
-258.165	-175.707	0.151	-0.004
-257.151	-92.111	0.353	-0.099
-256.136	800.000	-0.052	0.212
-255.122	17.125	0.077	-0.060
-254.107	129.504	0.078	0.099
-253.092	85.428	0.147	0.160
-252.078	83.083	0.144	0.155
-251.063	-53.140	0.165	0.075
-250.049	-117.446	0.167	0.030
-249.034	594.672	0.095	0.233
-248.019	65.708	-0.081	-0.082
-247.005	-80.235	-0.391	0.130
-245.990	-200.000	-0.041	0.369
-244.976	144.225	0.120	0.160
-243.961	-53.518	-0.147	-0.067
-242.946	-200.000	0.013	0.287
-241.932	800.000	0.036	-0.156
-240.917	97.389	-0.199	-0.227
-239.903	-86.434	-0.097	0.029
-238.888	263.262	-0.096	-0.166
-237.873	-200.000	0.014	-0.105
-236.859	-85.942	0.232	0.071
-235.844	4.041	0.141	0.102
-234.830	-43.299	-0.212	-0.106
-233.815	-200.000	0.049	-0.265
-232.800	-200.000	-0.045	0.232
-231.786	-200.000	0.059	0.491
-230.771	-88.379	0.147	-0.044
-229.757	-97.297	-0.194	-0.050
-228.742	96.621	-0.105	0.119
-227.727	800.000	0.094	0.333
-226.713	-200.000	-0.046	0.209
-225.698	-166.419	-0.147	-0.006
-224.684	-126.821	-0.219	0.032
-223.669	-86.101	0.245	0.075
-222.655	4.471	0.073	0.053
-221.640	-24.691	-0.147	-0.087
-220.625	-200.000	0.277	-0.001
-219.611	777.515	0.129	-0.349
-218.596	29.260	-0.289	0.244
-217.582	-27.139	-0.045	0.026
-216.567	180.863	0.130	-0.190
-215.552	80.787	-0.141	-0.151
-214.538	-2.590	0.234	-0.163
-213.523	-200.000	0.019	0.101
-212.509	800.000	0.096	-0.293
-211.494	324.057	-0.143	0.270
-210.479	208.412	0.036	-0.056
-209.465	-200.000	0.051	-0.354
-208.450	117.318	-0.260	0.317
-207.436	17.569	0.238	0.187
-206.421	-105.590	-0.182	-0.041
-205.406	-7.444	0.084	0.056
-204.392	800.000	0.031	-0.086
-203.377	-200.000	-0.018	-0.147
-202.363	124.476	-0.066	-0.082
-201.348	423.676	0.019	0.041
-200.333	170.775	0.061	-0.086
-199.319	116.224	0.204	-0.247
-198.304	131.319	-0.136	-0.174
-197.290	285.723	0.073	-0.130
-196.275	-14.749	-0.120	-0.076
-195.260	153.236	-0.108	0.147
-194.246	294.636	-0.084	0.152
-193.231	-28.724	-0.181	-0.103
-192.217	-30.709	0.540	0.303
-191.202	-150.212	0.252	-0.019
-190.187	27.325	0.062	0.051
-189.173	-11.146	-0.227	0.149
-188.158	-4.890	-0.259	-0.177
-187.144	32.012	0.178	0.152
-186.129	-200.000	-0.000	0.066
-185.114	93.848	0.031	-0.035
-184.100	800.000	0.064	-0.263
-183.085	-25.197	-0.469	-0.275
-182.071	-146.006	0.231	-0.020
-181.056	-200.000	0.006	-0.085
-180.042	-11.376	-0.209	0.136
-179.027	800.000	-0.042	-0.128
-178.012	56.482	-0.259	-0.250
-176.998	365.395	-0.243	0.484
-175.983	-19.415	-0.229	0.141
-174.969	-22.834	-0.351	-0.210
-173.954	83.187	0.194	0.209
-172.939	-56.432	-0.049	0.022
-171.925	-147.572	0.050	0.004
-170.910	-118.042	0.274	-0.048
-169.896	289.285	0.172	-0.310
-168.881	-200.000	0.014	0.275
-167.866	-54.361	0.261	-0.117
-166.852	-200.000	-0.057	-0.535
-165.837	3.717	0.176	0.127
-164.823	98.429	-0.037	0.042
-163.808	53.796	-0.049	-0.047
-162.793	-200.000	0.007	0.105
-161.779	344.140	0.156	-0.303
-160.764	203.902	-0.073	-0.111
-159.750	-96.629	-0.098	0.026
-158.735	-113.487	0.161	-0.031
-157.720	693.178	-0.081	-0.210
-156.706	20.425	-0.132	-0.106
-155.691	-163.862	0.287	-0.013
-154.677	-182.095	-0.126	0.002
-153.662	64.841	0.199	-0.199
-152.647	-200.000	-0.006	-0.254
-151.633	59.035	0.116	0.113
-150.618	-61.706	0.363	-0.150
-149.604	-33.578	0.249	0.136
-148.589	-124.227	0.279	-0.043
-147.574	-112.139	0.268	0.053
-146.560	800.000	0.076	-0.251
-145.545	800.000	0.083	-0.303
-144.531	-105.090	-0.284	0.064
-143.516	-200.000	0.029	-0.136
-142.502	-28.779	0.100	-0.057
-141.487	-65.952	-0.197	0.078
-140.472	-139.588	-0.207	-0.022
-139.458	-88.752	0.234	0.069
-138.443	159.649	0.183	0.252
-137.429	29.396	0.475	0.399
-136.414	340.607	-0.161	-0.310
-135.399	-131.401	0.334	-0.044
-134.385	170.643	0.227	-0.322
-133.370	-25.847	-0.220	-0.128
-132.356	-101.616	0.152	-0.036
-131.341	-78.286	0.161	0.055
-130.326	-200.000	-0.050	0.383
-129.312	-82.839	0.209	0.067
-128.297	15.508	-0.107	0.083
-127.283	184.793	0.164	0.240
-126.268	-8.823	0.153	0.102
-125.253	-63.382	-0.341	0.139
-124.239	-110.164	0.213	0.044
-123.224	-47.953	0.178	0.085
-122.210	83.369	-0.087	0.094
-121.195	619.064	0.040	0.098
