DTS Sentinel unit serial number:	SN413079Multiplexer serial number:	ORYXHardware model number:	OX4-SRSoftware version number:	ORYX F/W v4.00 Oryx Data Collector v3.7.2.0data status	okinstallation	princeton_trtdifferential loss correction	single-endedforward channel	channel 4reverse channel	N/Adate	2019/09/15time	23:01:35forward acquisition time	60.00reverse acquisition time	0.00gamma	496.2192k internal	0.2321k external	0.2321temperature offset calibration	0.9955default loss term (dB/km)	0.3790temperature slope calibration	1.0000multiplexer offset coefficient	1.0000multiplexer slope coefficient	1.0000fibre end	0.00T internal ref (°C)	28.56T ext. ref 1 (°C)	8.98T ext. ref 2 (°C)	22.20length (m)	temperature (°C)	Stokes	anti-Stokes-747.200	-200.000	0.006	0.250
-746.185	81.684	-0.159	-0.174
-745.171	-69.598	0.200	-0.077
-744.156	-200.000	0.019	0.191
-743.142	-76.945	0.372	0.131
-742.127	-200.000	0.020	0.162
-741.112	-200.000	0.001	-0.115
-740.098	137.333	-0.087	-0.115
-739.083	-200.000	-0.053	-0.402
-738.069	-106.139	0.092	-0.021
-737.054	-1.662	-0.368	-0.262
-736.039	-57.820	-0.257	0.114
-735.025	115.222	-0.285	0.351
-734.010	69.730	-0.050	0.052
-732.996	800.000	-0.089	-0.361
-731.981	15.654	0.162	-0.129
-730.966	-41.090	-0.124	-0.065
-729.952	-21.005	-0.477	-0.295
-728.937	-64.601	-0.244	0.100
-727.923	14.208	-0.075	0.059
-726.908	-200.000	0.042	-0.362
-725.894	-4.635	-0.352	0.245
-724.879	526.717	-0.134	0.319
-723.864	-132.846	-0.316	-0.041
-722.850	-20.253	0.106	0.066
-721.835	-9.093	-0.085	0.058
-720.821	-143.283	0.198	0.019
-719.806	-69.639	-0.214	-0.083
-718.791	-200.000	-0.003	0.191
-717.777	-45.617	-0.119	-0.059
-716.762	-200.000	-0.011	-0.072
-715.748	-56.818	0.194	-0.087
-714.733	718.376	0.153	-0.410
-713.718	2.697	-0.064	-0.047
-712.704	574.391	-0.026	0.065
-711.689	-200.000	0.008	0.372
-710.675	-20.256	-0.474	-0.295
-709.660	41.787	-0.037	0.034
-708.645	800.000	0.038	0.113
-707.631	0.725	-0.309	0.223
-706.616	321.588	0.085	-0.163
-705.602	-109.767	-0.241	0.051
-704.587	294.159	0.100	-0.185
-703.572	706.273	-0.128	0.341
-702.558	-112.509	0.265	-0.053
-701.543	-8.367	-0.218	0.148
-700.529	60.923	0.175	0.175
-699.514	800.000	-0.023	0.091
-698.499	49.005	-0.180	0.171
-697.485	-25.631	0.152	-0.091
-696.470	-200.000	-0.016	-0.258
-695.456	-115.474	-0.068	-0.013
-694.441	800.000	0.138	-0.384
-693.426	-200.000	-0.020	-0.299
-692.412	161.567	-0.026	-0.037
-691.397	-148.930	0.410	0.033
-690.383	22.859	0.036	0.030
-689.368	287.229	0.083	0.151
-688.354	-200.000	0.017	0.190
-687.339	-52.987	0.081	-0.038
-686.324	-200.000	0.019	-0.311
-685.310	-4.638	-0.279	0.194
-684.295	-93.958	0.239	-0.066
-683.281	174.861	0.183	-0.268
-682.266	5.451	-0.177	0.132
-681.251	381.493	0.052	-0.107
-680.237	-74.581	-0.249	-0.090
-679.222	188.439	0.188	0.283
-678.208	-70.218	0.330	-0.126
-677.193	61.348	-0.064	0.064
-676.178	-161.753	0.092	0.005
-675.164	-200.000	-0.016	-0.129
-674.149	-79.735	-0.265	0.090
-673.135	-37.680	0.271	-0.146
-672.120	681.422	0.130	0.340
-671.105	394.697	-0.145	0.304
-670.091	800.000	0.063	-0.199
-669.076	-84.966	0.270	-0.085
-668.062	253.903	0.076	-0.131
-667.047	-95.824	0.219	0.059
-666.032	-14.707	-0.069	-0.044
-665.018	-107.710	0.097	0.021
-664.003	3.397	-0.051	0.037
-662.989	67.746	-0.054	0.056
-661.974	236.034	-0.099	-0.166
-660.959	-138.821	-0.016	-0.002
-659.945	224.686	-0.169	0.276
-658.930	-200.000	0.004	0.104
-657.916	-179.516	-0.121	0.003
-656.901	92.077	-0.159	0.180
-655.886	-56.243	-0.053	-0.024
-654.872	-56.595	-0.165	-0.074
-653.857	-75.990	-0.100	0.035
-652.843	110.476	-0.176	0.213
-651.828	-149.926	-0.374	0.029
-650.814	207.710	0.173	-0.271
-649.799	-132.759	-0.195	0.025
-648.784	-110.072	-0.285	0.060
-647.770	-200.000	-0.390	-0.002
-646.755	-170.879	0.143	-0.005
-645.741	800.000	-0.052	0.153
-644.726	637.250	-0.073	-0.186
-643.711	-200.000	-0.011	-0.092
-642.697	-91.159	0.360	-0.104
-641.682	-33.474	0.223	0.124
-640.668	800.000	-0.094	0.412
-639.653	135.025	-0.182	-0.239
-638.638	-200.000	-0.033	-0.174
-637.624	-102.182	-0.504	-0.122
-636.609	71.643	-0.296	0.309
-635.595	-80.643	-0.285	0.095
-634.580	-70.954	0.236	0.089
-633.565	0.356	-0.550	0.395
-632.551	800.000	0.069	0.245
-631.536	800.000	-0.071	-0.201
-630.522	-12.215	-0.203	0.134
-629.507	70.867	-0.099	-0.103
-628.492	18.378	0.261	0.210
-627.478	15.651	-0.214	-0.169
-626.463	-200.000	-0.001	-0.106
-625.449	462.328	-0.109	-0.244
-624.434	-200.000	0.016	-0.309
-623.419	-166.223	-0.276	0.012
-622.405	180.860	-0.073	0.108
-621.390	-68.952	0.029	-0.011
-620.376	4.999	-0.050	-0.037
-619.361	-46.539	0.166	0.082
-618.346	800.000	-0.086	-0.252
-617.332	-109.073	-0.413	0.088
-616.317	140.755	0.137	-0.182
-615.303	799.677	0.004	-0.011
-614.288	280.313	-0.122	0.220
-613.273	-164.404	-0.352	0.016
-612.259	-200.000	0.051	0.263
-611.244	-53.590	-0.324	-0.149
-610.230	-33.847	0.319	0.177
-609.215	-154.917	0.327	-0.022
-608.201	-200.000	-0.071	0.338
-607.186	-73.255	0.066	0.024
-606.171	-82.112	0.196	-0.064
-605.157	4.446	0.129	-0.095
-604.142	-74.255	-0.047	-0.017
-603.128	-89.925	0.391	0.115
-602.113	-200.000	0.013	-0.374
-601.098	353.854	0.130	-0.260
-600.084	-200.000	0.012	-0.277
-599.069	-114.530	0.264	0.051
-598.055	-159.630	-0.251	-0.014
-597.040	-142.278	0.493	-0.049
-596.025	-160.547	0.205	-0.011
-595.011	-146.938	0.224	-0.019
-593.996	-30.918	-0.040	0.023
-592.982	-200.000	0.038	-0.289
-591.967	95.645	-0.167	0.192
-590.952	304.205	-0.064	0.120
-589.938	800.000	0.069	-0.250
-588.923	-200.000	0.008	0.296
-587.909	7.090	-0.180	-0.135
-586.894	800.000	0.068	0.213
-585.879	306.032	0.099	-0.185
-584.865	-18.364	0.080	0.050
-583.850	-88.197	0.538	0.162
-582.836	-90.892	-0.289	-0.083
-581.821	324.570	0.174	-0.333
-580.806	163.464	0.174	-0.245
-579.792	123.346	0.198	-0.249
-578.777	-196.603	0.177	-0.001
-577.763	-200.000	0.009	0.291
-576.748	250.150	-0.094	0.161
-575.733	101.639	0.167	-0.196
-574.719	6.808	0.040	-0.030
-573.704	-141.007	0.307	0.032
-572.690	-116.343	0.113	0.021
-571.675	457.193	0.051	-0.113
-570.661	-200.000	0.002	-0.336
-569.646	-200.000	0.022	0.180
-568.631	651.305	-0.031	-0.080
-567.617	-160.196	-0.300	0.016
-566.602	-135.954	-0.286	-0.034
-565.588	-200.000	0.022	-0.225
-564.573	297.968	0.069	-0.128
-563.558	-43.049	0.222	-0.113
-562.544	499.519	-0.067	-0.155
-561.529	-34.466	-0.154	0.085
-560.515	-143.552	0.286	-0.027
-559.500	-30.221	0.227	0.130
-558.485	184.199	-0.087	-0.129
-557.471	159.297	0.063	0.087
-556.456	235.771	-0.153	-0.254
-555.442	782.739	0.121	-0.332
-554.427	-153.508	0.297	0.021
-553.412	-200.000	0.002	-0.152
-552.398	-130.187	0.306	0.042
-551.383	800.000	-0.106	-0.297
-550.369	726.480	0.068	-0.181
-549.354	90.821	0.127	0.142
-548.339	800.000	-0.064	0.266
-547.325	800.000	-0.098	-0.306
-546.310	800.000	-0.049	-0.204
-545.296	84.264	0.287	0.315
-544.281	104.685	-0.146	-0.173
-543.266	179.865	-0.160	0.235
-542.252	800.000	-0.069	0.250
-541.237	-2.434	0.140	0.098
-540.223	-129.753	0.197	0.027
-539.208	-66.687	0.380	0.151
-538.193	-137.989	-0.353	0.039
-537.179	-96.372	-0.221	-0.059
-536.164	-108.656	-0.187	0.040
-535.150	160.959	-0.192	0.269
-534.135	14.573	-0.277	-0.217
-533.121	800.000	0.022	-0.079
-532.106	-124.517	0.128	-0.020
-531.091	-80.870	-0.035	0.012
-530.077	-57.602	-0.077	-0.034
-529.062	-200.000	-0.056	-0.250
-528.048	-200.000	0.028	0.155
-527.033	-200.000	-0.018	0.119
-526.018	83.889	-0.136	0.149
-525.004	403.031	-0.078	0.165
-523.989	-73.283	0.109	0.040
-522.975	19.214	0.102	0.082
-521.960	-200.000	-0.016	-0.234
-520.945	60.527	0.147	-0.145
-519.931	-200.000	-0.031	0.205
-518.916	18.136	-0.237	-0.189
-517.902	-60.020	0.185	0.079
-516.887	350.475	-0.032	0.064
-515.872	99.071	-0.070	-0.081
-514.858	166.420	-0.202	0.287
-513.843	383.087	-0.049	0.101
-512.829	-88.565	-0.394	-0.118
-511.814	-40.867	0.213	-0.110
-510.799	295.553	0.016	0.030
-509.785	-200.000	0.013	0.395
-508.770	800.000	-0.086	-0.265
-507.756	-40.202	0.154	-0.080
-506.741	-54.374	0.224	0.102
-505.726	-93.667	0.392	0.108
-504.712	-194.102	-0.177	0.001
-503.697	800.000	-0.067	-0.189
-502.683	-200.000	-0.015	0.126
-501.668	253.468	0.028	-0.048
-500.653	-196.724	0.197	0.001
-499.639	-151.286	-0.310	-0.023
-498.624	-129.338	0.282	0.039
-497.610	419.327	0.057	0.121
-496.595	-2.367	-0.139	-0.098
-495.581	-200.000	0.009	-0.251
-494.566	224.694	0.076	0.123
-493.551	558.165	0.039	0.095
-492.537	57.754	0.313	-0.306
-491.522	107.496	-0.218	0.260
-490.508	800.000	0.034	0.131
-489.493	85.156	0.269	0.296
-488.478	-6.629	-0.186	-0.126
-487.464	-200.000	0.216	0.000
-486.449	-132.372	0.313	-0.040
-485.435	-47.009	0.116	0.057
-484.420	55.320	-0.141	-0.137
-483.405	800.000	0.040	-0.149
-482.391	800.000	-0.038	-0.154
-481.376	377.539	-0.325	-0.664
-480.362	-129.061	0.224	0.031
-479.347	5.489	0.204	0.151
-478.332	338.235	-0.045	0.087
-477.318	155.221	-0.153	0.211
-476.303	-84.706	-0.196	-0.062
-475.289	800.000	0.086	-0.301
-474.274	546.201	0.029	0.069
-473.259	7.533	-0.278	0.208
-472.245	123.847	-0.061	-0.076
-471.230	282.776	0.067	0.120
-470.216	-130.194	0.134	0.018
-469.201	347.550	0.131	0.257
-468.186	97.598	-0.286	-0.329
-467.172	8.458	-0.385	-0.289
-466.157	-121.580	-0.004	0.001
-465.143	-173.726	0.304	-0.009
-464.128	411.149	0.072	0.153
-463.113	-23.098	-0.419	-0.252
-462.099	0.348	0.352	-0.251
-461.084	-176.311	-0.302	0.008
-460.070	-107.735	0.125	0.027
-459.055	-107.398	-0.179	-0.039
-458.040	249.306	0.032	0.054
-457.026	512.721	0.038	-0.090
-456.011	800.000	-0.211	0.623
-454.997	-200.000	-0.004	-0.299
-453.982	149.745	-0.117	-0.159
-452.968	-18.166	0.278	-0.174
-451.953	-133.748	0.059	0.007
-450.938	-46.884	0.275	0.134
-449.924	-110.125	-0.304	-0.063
-448.909	196.926	0.228	0.347
-447.895	-115.512	0.121	-0.023
-446.880	-200.000	0.058	-0.000
-445.865	30.282	-0.188	0.160
-444.851	110.387	-0.165	0.198
-443.836	-200.000	-0.059	-0.279
-442.822	186.513	-0.180	-0.268
-441.807	-102.166	-0.127	-0.030
-440.792	769.764	0.057	0.155
-439.778	-200.000	-0.007	-0.057
-438.763	213.224	-0.024	-0.038
-437.749	800.000	-0.061	-0.178
-436.734	-171.452	-0.103	-0.003
-435.719	-200.000	0.028	-0.269
-434.705	-200.000	0.028	-0.269
-433.690	-55.618	-0.194	0.087
-432.676	-113.540	-0.107	-0.021
-431.661	-180.496	0.308	0.006
-430.646	-17.302	-0.123	0.077
-429.632	-163.168	-0.229	-0.011
-428.617	78.170	-0.109	-0.116
-427.603	-49.428	0.075	0.036
-426.588	-200.000	0.019	0.149
-425.573	-152.372	-0.409	-0.029
-424.559	195.212	0.024	0.036
-423.544	-200.000	-0.073	-0.352
-422.530	-53.119	-0.347	0.159
-421.515	48.425	-0.188	-0.175
-420.500	-162.297	-0.149	0.007
-419.486	1.714	-0.332	0.239
-418.471	-200.000	-0.038	0.272
-417.457	7.426	-0.137	0.102
-416.442	376.914	-0.051	-0.104
-415.428	-133.666	0.368	0.046
-414.413	-120.046	-0.251	-0.043
-413.398	-94.598	0.428	-0.116
-412.384	800.000	-0.065	-0.188
-411.369	800.000	-0.059	0.246
-410.355	13.744	0.065	-0.051
-409.340	-59.661	0.284	-0.121
-408.325	143.717	0.113	0.151
-407.311	-200.000	-0.011	0.154
-406.296	370.451	-0.083	-0.169
-405.282	204.214	-0.022	-0.034
-404.267	-145.023	-0.095	0.009
-403.252	-28.038	0.339	-0.195
-402.238	46.376	-0.220	-0.204
-401.223	-172.979	0.254	0.008
-400.209	222.424	0.166	-0.267
-399.194	-200.000	0.013	0.258
-398.179	-27.312	0.190	-0.110
-397.165	85.310	0.086	0.095
-396.150	-200.000	0.007	-0.337
-395.136	-25.507	-0.190	0.112
-394.121	-109.878	0.104	0.022
-393.106	-73.363	0.183	-0.067
-392.092	-161.114	0.237	-0.012
-391.077	-140.603	-0.247	-0.026
-390.063	59.131	0.069	-0.068
-389.048	-86.013	0.229	-0.071
-388.033	101.438	0.103	-0.120
-387.019	800.000	-0.089	0.300
-386.004	-152.428	0.191	-0.014
-384.990	204.812	0.204	-0.315
-383.975	-200.000	0.064	-0.358
-382.960	-2.864	-0.299	-0.208
-381.946	771.631	-0.065	-0.177
-380.931	486.775	0.011	0.025
-379.917	447.634	0.129	0.282
-378.902	-200.000	-0.024	-0.232
-377.888	-174.729	0.053	0.001
-376.873	-130.956	0.067	-0.009
-375.858	-40.880	-0.058	-0.030
-374.844	800.000	-0.037	-0.158
-373.829	426.454	-0.056	-0.121
-372.815	111.542	0.193	-0.231
-371.800	-15.178	-0.244	-0.156
-370.785	99.779	0.159	0.183
-369.771	124.336	-0.117	-0.146
-368.756	178.469	-0.150	-0.219
-367.742	29.297	-0.071	-0.060
-366.727	-200.000	0.029	0.191
-365.712	-200.000	0.047	-0.281
-364.698	-45.269	0.206	-0.102
-363.683	800.000	0.043	-0.150
-362.669	280.583	-0.014	-0.025
-361.654	-200.000	0.368	0.000
-360.639	-73.188	0.188	0.069
-359.625	37.345	0.103	-0.091
-358.610	642.794	-0.089	0.225
-357.596	-112.638	0.259	0.051
-356.581	740.569	0.036	-0.097
-355.566	-200.000	-0.035	0.236
-354.552	-200.000	-0.001	0.129
-353.537	30.542	0.104	0.088
-352.523	-6.345	-0.292	0.198
-351.508	-34.490	-0.258	-0.141
-350.493	-200.000	0.010	-0.117
-349.479	230.847	-0.159	-0.259
-348.464	-200.000	-0.364	-0.001
-347.450	29.953	0.169	0.143
-346.435	-58.522	0.375	-0.162
-345.420	132.462	0.180	0.230
-344.406	-23.584	-0.219	0.131
-343.391	61.251	0.115	-0.113
-342.377	-200.000	-0.004	0.188
-341.362	-91.049	0.083	0.024
-340.348	304.119	-0.077	-0.143
-339.333	-59.781	-0.119	-0.051
-338.318	-200.000	-0.003	-0.127
-337.304	76.791	-0.262	0.277
-336.289	79.187	0.147	-0.157
-335.275	-0.402	0.221	0.156
-334.260	-119.743	-0.070	0.012
-333.245	75.296	0.264	0.277
-332.231	315.065	0.153	-0.287
-331.216	307.137	-0.093	-0.172
-330.202	-107.477	0.146	0.032
-329.187	-37.385	-0.196	0.104
-328.172	290.873	-0.092	-0.166
-327.158	-148.481	-0.157	-0.013
-326.143	73.398	0.098	0.102
-325.129	-136.979	0.066	-0.008
-324.114	-41.865	-0.089	0.045
-323.099	241.342	-0.172	0.285
-322.085	-79.871	-0.476	-0.159
-321.070	-200.000	-0.043	-0.418
-320.056	308.100	0.141	-0.261
-319.041	-166.935	0.084	-0.003
-318.026	800.000	0.032	-0.116
-317.012	-145.620	-0.132	0.012
-315.997	172.892	-0.030	-0.043
-314.983	159.918	-0.228	0.316
-313.968	800.000	-0.122	0.351
-312.953	800.000	-0.034	-0.125
-311.939	28.645	-0.233	0.196
-310.924	35.088	0.161	-0.140
-309.910	-6.370	-0.196	-0.133
-308.895	-0.189	-0.275	-0.194
-307.880	800.000	0.062	0.240
-306.866	-200.000	-0.113	-0.000
-305.851	-43.666	-0.311	-0.156
-304.837	183.496	0.178	0.261
-303.822	122.465	-0.081	-0.101
-302.807	-84.425	0.267	-0.084
-301.793	490.544	-0.027	-0.062
-300.778	-117.165	-0.214	-0.039
-299.764	185.393	-0.188	0.278
-298.749	800.000	0.053	0.184
-297.735	406.555	-0.113	0.237
-296.720	89.612	0.088	0.098
-295.705	261.055	0.043	-0.073
-294.691	550.172	0.099	0.236
-293.676	-82.497	0.123	0.040
-292.662	-46.022	0.365	0.179
-291.647	594.705	0.039	0.096
-290.632	323.129	-0.166	0.314
-289.618	800.000	-0.077	0.321
-288.603	800.000	0.121	0.356
-287.589	-200.000	-0.081	0.405
-286.574	106.684	-0.169	0.199
-285.559	-1.074	0.284	-0.199
-284.545	800.000	0.036	-0.142
-283.530	-200.000	-0.076	0.429
-282.516	-76.428	0.271	0.095
-281.501	-140.685	0.029	0.003
-280.486	800.000	0.090	0.319
-279.472	-92.620	0.308	0.086
-278.457	800.000	-0.043	0.133
-277.443	205.765	0.115	-0.178
-276.428	-148.947	-0.174	-0.014
-275.413	-200.000	-0.047	0.222
-274.399	-129.171	0.088	0.012
-273.384	-200.000	0.056	0.274
-272.370	-41.815	0.084	0.043
-271.355	293.412	-0.113	0.205
-270.340	-51.905	-0.316	0.146
-269.326	-4.400	0.200	0.137
-268.311	-113.138	-0.249	0.049
-267.297	-9.847	0.102	0.068
-266.282	-200.000	0.015	0.146
-265.267	-21.974	-0.156	0.094
-264.253	-103.935	0.228	0.053
-263.238	-200.000	0.046	-0.314
-262.224	95.040	-0.267	-0.301
-261.209	-35.605	-0.237	-0.128
-260.195	-76.784	0.190	0.066
-259.180	293.281	0.004	-0.007
-258.165	-200.000	0.017	0.365
-257.151	800.000	0.079	0.305
-256.136	393.706	-0.132	0.272
-255.122	-61.252	0.040	-0.017
-254.107	-200.000	0.044	-0.246
-253.092	169.551	0.097	-0.137
-252.078	399.362	-0.069	-0.144
-251.063	800.000	-0.069	-0.277
-250.049	800.000	0.082	0.263
-249.034	-200.000	-0.008	0.083
-248.019	-78.009	-0.054	0.018
-247.005	-167.013	0.265	-0.011
-245.990	-108.969	0.172	-0.036
-244.976	-200.000	0.042	0.213
-243.961	125.362	0.116	0.145
-242.946	78.840	-0.133	-0.141
-241.932	556.878	0.036	-0.085
-240.917	-115.306	0.455	-0.085
-239.903	20.085	0.166	0.132
-238.888	-183.981	0.195	0.003
-237.873	16.325	0.401	0.313
-236.859	-200.000	0.024	0.175
-235.844	-94.007	-0.319	-0.087
-234.830	-94.461	0.368	0.099
-233.815	-72.830	0.219	-0.080
-232.800	8.874	-0.157	-0.117
-231.786	-200.000	-0.020	-0.262
-230.771	31.297	0.374	0.318
-229.757	496.411	0.036	-0.082
-228.742	-80.686	0.334	0.110
-227.727	512.661	0.044	0.101
-226.713	235.858	0.037	-0.061
-225.698	-88.797	0.120	0.035
-224.684	-144.408	0.132	0.012
-223.669	268.828	0.080	-0.139
-222.655	-200.000	0.008	-0.383
-221.640	43.923	0.120	0.109
-220.625	-200.000	-0.061	0.000
-219.611	-200.000	-0.020	0.130
-218.596	23.315	-0.185	0.150
-217.582	247.310	0.051	-0.085
-216.567	319.589	-0.079	0.149
-215.552	486.384	0.123	0.277
-214.538	49.598	0.297	-0.277
-213.523	-43.207	0.391	-0.196
-212.509	86.112	0.132	0.144
-211.494	80.794	-0.194	0.207
-210.479	-200.000	-0.009	-0.044
-209.465	-5.622	-0.158	0.107
-208.450	-115.557	-0.262	-0.049
-207.436	-44.300	0.216	-0.107
-206.421	-60.030	-0.353	0.149
-205.406	274.306	-0.068	0.119
-204.392	126.348	-0.126	-0.158
-203.377	-200.000	-0.028	-0.134
-202.363	800.000	-0.046	0.192
-201.348	133.246	0.168	-0.215
-200.333	-76.977	-0.145	-0.050
-199.319	-133.754	0.151	-0.019
-198.304	-96.606	-0.418	0.109
-197.290	-200.000	-0.074	0.320
-196.275	-88.076	0.232	-0.069
-195.260	599.823	-0.069	-0.170
-194.246	40.657	-0.182	-0.162
-193.231	25.680	0.173	-0.143
-192.217	-98.444	0.123	0.031
-191.202	-200.000	-0.016	-0.122
-190.187	-66.284	-0.185	-0.073
-189.173	-64.268	-0.105	0.042
-188.158	374.625	-0.146	0.293
-187.144	-90.019	-0.142	0.041
-186.129	703.139	-0.102	-0.265
-185.114	-154.038	-0.322	0.022
-184.100	-27.918	-0.216	0.124
-183.085	149.494	0.283	-0.379
-182.071	-51.025	-0.283	-0.131
-181.056	368.361	-0.106	0.212
-180.042	39.558	-0.138	0.123
-179.027	-83.900	0.185	-0.058
-178.012	-200.000	-0.110	-0.509
-176.998	-57.036	-0.035	-0.015
-175.983	62.939	-0.261	-0.259
-174.969	-54.887	0.096	0.043
-173.954	59.012	-0.004	-0.004
-172.939	-15.544	-0.008	0.005
-171.925	-12.618	-0.055	0.036
-170.910	113.017	0.173	-0.208
-169.896	800.000	-0.102	0.284
-168.881	536.678	0.072	-0.169
-167.866	17.735	-0.132	-0.104
-166.852	128.993	-0.135	0.170
-165.837	800.000	-0.046	-0.138
-164.823	263.189	-0.100	-0.171
-163.808	-187.315	-0.087	0.001
-162.793	570.297	-0.084	0.202
-161.779	-99.736	-0.287	-0.071
-160.764	537.572	-0.039	0.092
-159.750	38.347	0.230	0.202
-158.735	209.736	0.148	0.229
-157.720	-200.000	0.100	0.441
-156.706	-200.000	-0.016	0.228
-155.691	-200.000	-0.013	-0.171
-154.677	-47.417	0.173	0.083
-153.662	653.674	-0.062	0.156
-152.647	-200.000	0.024	0.118
-151.633	449.099	-0.044	0.097
-150.618	40.867	-0.201	0.179
-149.604	800.000	0.099	0.286
-148.589	-200.000	-0.012	0.216
-147.574	-200.000	0.053	-0.344
-146.560	-95.672	0.147	0.039
-145.545	299.283	0.100	0.182
-144.531	-200.000	0.029	-0.166
-143.516	332.539	0.046	-0.087
-142.502	-32.622	-0.135	-0.074
-141.487	-153.017	-0.425	0.030
-140.472	14.360	-0.035	-0.027
-139.458	-63.881	-0.291	-0.118
-138.443	-200.000	0.082	0.443
-137.429	-162.243	-0.359	-0.018
-136.414	-200.000	0.020	-0.087
-135.399	241.548	0.112	0.184
-134.385	528.900	-0.081	0.189
-133.370	-200.000	-0.008	0.214
-132.356	800.000	-0.074	0.239
-131.341	200.796	0.093	0.141
-130.326	181.957	0.071	0.103
-129.312	-104.033	-0.133	-0.031
-128.297	-200.000	0.008	-0.050
-127.283	800.000	0.053	-0.217
-126.268	292.468	-0.030	0.054
-125.253	-113.350	-0.132	-0.026
-124.239	106.352	-0.147	0.171
-123.224	32.357	0.035	0.030
-122.210	297.212	-0.121	0.219
