DTS Sentinel unit serial number:	SN413079Multiplexer serial number:	ORYXHardware model number:	OX4-SRSoftware version number:	ORYX F/W v4.00 Oryx Data Collector v3.7.2.0data status	okinstallation	princeton_trtdifferential loss correction	single-endedforward channel	channel 4reverse channel	N/Adate	2019/09/17time	04:53:35forward acquisition time	60.00reverse acquisition time	0.00gamma	496.2192k internal	0.2312k external	0.2312temperature offset calibration	0.9979default loss term (dB/km)	0.3790temperature slope calibration	1.0000multiplexer offset coefficient	1.0000multiplexer slope coefficient	1.0000fibre end	0.00T internal ref (°C)	29.53T ext. ref 1 (°C)	0.13T ext. ref 2 (°C)	23.95length (m)	temperature (°C)	Stokes	anti-Stokes-747.200	-130.084	0.520	-0.072
-746.185	102.023	0.095	-0.112
-745.171	173.187	-0.056	-0.082
-744.156	76.441	-0.073	0.079
-743.142	-59.318	0.172	0.075
-742.127	28.867	-0.176	-0.152
-741.112	140.822	-0.035	0.046
-740.098	393.288	-0.148	0.314
-739.083	401.620	0.039	0.084
-738.069	-200.000	-0.092	0.487
-737.054	472.391	0.096	0.220
-736.039	-34.246	-0.169	-0.094
-735.025	7.534	-0.258	-0.195
-734.010	41.036	-0.084	-0.077
-732.996	-200.000	0.010	0.150
-731.981	169.030	-0.198	-0.286
-730.966	-60.168	-0.235	-0.101
-729.952	719.118	0.201	0.543
-728.937	-33.646	-0.208	-0.116
-727.923	52.673	0.144	0.140
-726.908	-198.276	-0.139	-0.001
-725.894	446.758	0.127	-0.284
-724.879	-200.000	0.021	0.468
-723.864	-71.268	0.160	-0.061
-722.850	-115.435	0.158	0.030
-721.835	-200.000	-0.005	-0.039
-720.821	-123.474	-0.260	-0.042
-719.806	450.543	-0.148	-0.330
-718.791	213.152	0.097	-0.155
-717.777	19.118	0.030	-0.025
-716.762	-15.424	-0.097	-0.063
-715.748	-167.166	-0.367	0.015
-714.733	-110.914	0.107	-0.022
-713.718	-18.334	0.218	-0.138
-712.704	-54.090	0.342	0.157
-711.689	-167.018	0.283	-0.012
-710.675	800.000	0.033	-0.134
-709.660	61.656	-0.210	0.212
-708.645	800.000	0.036	-0.155
-707.631	27.007	0.193	-0.164
-706.616	586.945	0.106	-0.263
-705.602	607.390	0.091	-0.231
-704.587	654.705	-0.069	-0.180
-703.572	-91.474	-0.150	0.043
-702.558	-117.699	-0.239	-0.044
-701.543	-52.628	0.173	0.081
-700.529	91.738	0.089	0.101
-699.514	123.622	0.207	-0.264
-698.499	-96.725	0.212	-0.056
-697.485	34.178	-0.244	-0.216
-696.470	-97.513	0.376	-0.099
-695.456	70.115	0.156	-0.163
-694.441	800.000	-0.008	0.032
-693.426	-200.000	0.014	0.332
-692.412	-119.389	0.091	-0.016
-691.397	-57.533	-0.255	0.113
-690.383	-200.000	-0.048	-0.319
-689.368	515.030	0.067	-0.160
-688.354	141.092	-0.073	-0.097
-687.339	37.836	-0.152	0.137
-686.324	-200.000	0.035	-0.158
-685.310	-200.000	-0.014	-0.265
-684.295	234.849	0.161	-0.268
-683.281	-115.286	-0.120	0.023
-682.266	93.614	-0.029	0.033
-681.251	-61.273	-0.236	0.101
-680.237	148.587	-0.138	0.189
-679.222	-200.000	-0.016	-0.133
-678.208	-177.151	0.320	-0.008
-677.193	-200.000	-0.041	-0.182
-676.178	-30.403	-0.272	0.156
-675.164	-200.000	-0.045	-0.208
-674.149	95.999	-0.113	0.131
-673.135	468.280	0.062	-0.141
-672.120	-40.469	-0.035	0.018
-671.105	-119.545	0.262	0.046
-670.091	-200.000	0.008	0.279
-669.076	487.924	0.076	0.176
-668.062	-73.690	-0.427	-0.157
-667.047	-76.600	-0.300	-0.106
-666.032	-200.000	-0.005	0.130
-665.018	345.015	-0.039	0.076
-664.003	-200.000	0.021	0.115
-662.989	216.145	0.073	-0.118
-661.974	-200.000	0.012	-0.158
-660.959	-200.000	0.030	0.271
-659.945	-200.000	-0.009	-0.076
-658.930	-144.852	0.157	0.015
-657.916	-131.056	-0.351	0.047
-656.901	642.348	0.080	-0.206
-655.886	-200.000	0.049	-0.269
-654.872	-23.018	-0.225	-0.137
-653.857	-147.336	-0.191	-0.016
-652.843	800.000	0.092	-0.355
-651.828	-62.340	0.167	-0.070
-650.814	-80.247	-0.226	-0.076
-649.799	259.059	-0.082	-0.144
-648.784	347.950	-0.087	-0.174
-647.770	51.474	0.080	-0.077
-646.755	-200.000	-0.027	-0.195
-645.741	-165.688	0.103	-0.005
-644.726	32.055	0.181	0.158
-643.711	-200.000	0.010	0.105
-642.697	-136.622	0.132	0.015
-641.682	-41.638	0.139	-0.072
-640.668	92.342	-0.066	0.075
-639.653	-200.000	0.040	-0.343
-638.638	-200.000	-0.032	0.237
-637.624	115.899	-0.126	0.155
-636.609	67.148	-0.090	-0.093
-635.595	-200.000	0.030	-0.331
-634.580	-198.328	0.151	0.001
-633.565	321.111	0.100	-0.191
-632.551	-96.383	-0.267	-0.071
-631.536	31.655	-0.052	0.045
-630.522	-200.000	-0.003	-0.051
-629.507	-52.937	-0.260	-0.121
-628.492	-89.186	-0.091	0.027
-627.478	413.897	-0.040	0.086
-626.463	115.537	0.069	-0.086
-625.449	-145.614	-0.157	0.014
-624.434	484.100	-0.054	0.124
-623.419	-200.000	-0.059	0.275
-622.405	-28.790	0.111	0.064
-621.390	-139.780	0.132	0.014
-620.376	74.924	0.184	0.196
-619.361	2.831	-0.174	-0.128
-618.346	-11.050	0.132	-0.088
-617.332	-179.231	0.215	-0.005
-616.317	126.627	-0.185	0.237
-615.303	-17.574	0.180	0.114
-614.288	-190.076	-0.106	-0.001
-613.273	104.456	-0.055	0.065
-612.259	-20.992	0.101	0.063
-611.244	-58.946	-0.157	0.068
-610.230	-38.093	-0.090	0.048
-609.215	83.741	0.067	-0.074
-608.201	800.000	0.133	0.441
-607.186	200.610	0.018	-0.027
-606.171	487.875	-0.143	0.330
-605.157	-27.480	-0.142	0.083
-604.142	30.248	0.121	0.104
-603.128	34.338	-0.212	0.186
-602.113	5.200	0.219	0.163
-601.098	-200.000	0.035	0.285
-600.084	199.281	0.045	0.070
-599.069	-76.174	-0.392	-0.139
-598.055	731.638	0.103	0.279
-597.040	800.000	-0.169	-0.636
-596.025	204.081	0.022	0.034
-595.011	-1.755	0.134	-0.095
-593.996	101.614	-0.145	0.171
-592.982	-15.134	-0.102	0.066
-591.967	-145.241	-0.096	-0.009
-590.952	-112.123	-0.046	0.009
-589.938	0.760	-0.389	-0.281
-588.923	-115.485	0.385	-0.073
-587.909	41.470	0.141	0.129
-586.894	-14.148	0.145	0.094
-585.879	-200.000	0.025	0.267
-584.865	-77.060	0.358	-0.126
-583.850	-91.598	0.294	-0.084
-582.836	-157.626	-0.149	-0.009
-581.821	-97.294	0.062	0.016
-580.806	-54.765	-0.143	0.065
-579.792	-52.729	0.147	0.068
-578.777	325.768	-0.150	0.289
-577.763	29.207	0.093	0.079
-576.748	-200.000	0.037	-0.197
-575.733	-200.000	-0.002	-0.143
-574.719	95.771	0.106	0.122
-573.704	-19.701	-0.075	-0.047
-572.690	800.000	0.014	-0.056
-571.675	-200.000	0.022	0.150
-570.661	589.661	-0.111	-0.277
-569.646	106.849	0.173	-0.208
-568.631	165.012	0.138	-0.196
-567.617	60.923	0.152	0.152
-566.602	-200.000	-0.033	0.208
-565.588	118.771	-0.207	-0.257
-564.573	-18.248	0.018	0.011
-563.558	800.000	0.041	-0.146
-562.544	-116.841	0.285	0.053
-561.529	258.936	-0.103	0.179
-560.515	128.720	-0.191	-0.246
-559.500	-189.967	-0.052	0.001
-558.485	-79.509	-0.039	-0.013
-557.471	-61.770	-0.077	-0.032
-556.456	3.945	0.042	-0.031
-555.442	79.126	0.054	-0.058
-554.427	-200.000	-0.011	0.202
-553.412	-53.281	0.055	0.025
-552.398	-109.513	-0.209	0.044
-551.383	332.477	-0.066	-0.128
-550.369	800.000	0.094	0.342
-549.354	-136.858	-0.103	-0.012
-548.339	100.825	-0.329	0.385
-547.325	-200.000	-0.028	0.180
-546.310	316.601	-0.122	0.232
-545.296	-200.000	0.048	-0.231
-544.281	86.784	0.165	0.183
-543.266	2.813	-0.226	-0.165
-542.252	-147.719	-0.289	-0.024
-541.237	-58.532	-0.237	0.104
-540.223	76.385	-0.251	0.267
-539.208	-200.000	0.005	0.034
-538.193	-68.090	-0.082	-0.032
-537.179	63.803	-0.173	0.175
-536.164	-200.000	-0.022	0.108
-535.150	800.000	0.080	0.338
-534.135	-71.597	0.346	-0.130
-533.121	-32.726	0.130	0.073
-532.106	228.503	0.108	-0.178
-531.091	24.612	-0.128	0.106
-530.077	-55.304	-0.346	0.156
-529.062	-10.252	0.114	0.076
-528.048	-103.064	0.108	0.026
-527.033	-133.622	0.097	-0.012
-526.018	-200.000	-0.001	0.048
-525.004	-112.603	-0.211	0.042
-523.989	-200.000	-0.006	-0.049
-522.975	267.556	-0.094	-0.166
-521.960	800.000	0.063	-0.256
-520.945	800.000	-0.021	0.076
-519.931	380.461	-0.058	-0.119
-518.916	500.369	-0.036	0.084
-517.902	145.318	-0.120	-0.161
-516.887	103.514	-0.045	-0.054
-515.872	77.776	-0.374	-0.401
-514.858	15.159	0.277	0.218
-513.843	138.911	0.030	-0.039
-512.829	-18.598	0.302	-0.190
-511.814	-74.471	0.023	-0.008
-510.799	-69.744	-0.128	-0.049
-509.785	161.989	-0.216	-0.304
-508.770	-73.979	0.397	-0.145
-507.756	-200.000	0.025	-0.188
-506.741	-200.000	0.067	-0.301
-505.726	-145.013	0.127	-0.012
-504.712	-100.808	-0.195	-0.048
-503.697	-18.898	-0.161	-0.100
-502.683	-110.633	-0.237	0.049
-501.668	-148.361	-0.423	-0.035
-500.653	-101.131	-0.033	-0.008
-499.639	340.445	-0.118	-0.231
-498.624	800.000	0.076	0.318
-497.610	421.400	-0.166	-0.357
-496.595	-200.000	-0.018	-0.225
-495.581	298.769	-0.071	0.132
-494.566	-150.787	0.202	0.015
-493.551	-131.077	-0.371	0.050
-492.537	-200.000	-0.003	0.303
-491.522	-200.000	0.011	0.057
-490.508	5.018	0.299	0.221
-489.493	367.926	-0.076	-0.155
-488.478	72.779	0.149	-0.156
-487.464	-150.298	-0.135	0.010
-486.449	-200.000	0.016	-0.195
-485.435	800.000	-0.082	0.228
-484.420	-75.870	-0.060	0.021
-483.405	-200.000	0.024	-0.269
-482.391	26.786	-0.298	-0.251
-481.376	-0.491	0.186	-0.133
-480.362	-109.905	0.110	-0.023
-479.347	-200.000	-0.026	-0.152
-478.332	-183.146	0.042	-0.001
-477.318	-157.218	-0.354	-0.022
-476.303	-84.400	0.163	0.052
-475.289	-72.323	-0.295	-0.110
-474.274	23.405	-0.102	-0.084
-473.259	-49.930	0.072	0.034
-472.245	42.574	0.066	0.060
-471.230	-69.496	0.055	0.021
-470.216	-69.075	-0.231	-0.089
-469.201	224.798	-0.086	0.140
-468.186	158.184	-0.023	-0.032
-467.172	-171.081	-0.020	-0.001
-466.157	-200.000	0.158	-0.001
-465.143	21.610	0.203	0.165
-464.128	-6.882	-0.190	0.129
-463.113	403.407	0.129	0.273
-462.099	-197.526	-0.216	-0.001
-461.084	469.468	0.106	0.239
-460.070	240.679	0.151	-0.253
-459.055	791.655	-0.069	-0.189
-458.040	396.398	-0.226	-0.474
-457.026	-21.054	0.108	0.067
-456.011	-112.419	0.178	0.036
-454.997	295.555	0.172	0.316
-453.982	-200.000	-0.047	-0.304
-452.968	800.000	-0.072	-0.298
-451.953	94.791	-0.055	-0.063
-450.938	-200.000	0.046	0.240
-449.924	-55.855	-0.177	-0.079
-448.909	255.530	0.222	0.381
-447.895	-87.119	-0.229	-0.070
-446.880	129.817	-0.155	0.199
-445.865	-90.129	0.299	-0.087
-444.851	430.933	0.187	-0.406
-443.836	30.009	0.111	-0.095
-442.822	283.097	0.162	-0.292
-441.807	-117.066	-0.156	-0.029
-440.792	199.574	0.174	0.268
-439.778	-141.298	0.238	0.024
-438.763	-104.167	0.085	-0.020
-437.749	490.489	0.089	-0.204
-436.734	-200.000	-0.000	0.150
-435.719	453.054	-0.051	0.114
-434.705	-89.657	-0.202	-0.060
-433.690	-39.828	0.224	0.118
-432.676	398.196	0.102	-0.213
-431.661	-144.603	-0.266	0.025
-430.646	800.000	0.070	0.208
-429.632	47.944	0.103	0.097
-428.617	53.009	0.186	-0.179
-427.603	-102.090	-0.125	0.030
-426.588	-68.837	0.127	-0.049
-425.573	628.210	0.063	-0.158
-424.559	99.796	0.231	0.268
-423.544	77.281	-0.127	0.135
-422.530	-149.273	-0.279	0.022
-421.515	233.009	-0.116	0.191
-420.500	-59.694	0.268	0.115
-419.486	-74.274	-0.095	0.034
-418.471	98.266	0.169	0.195
-417.457	18.912	0.209	0.168
-416.442	-77.322	0.167	0.058
-415.428	642.901	-0.079	-0.203
-414.413	-139.666	0.433	0.046
-413.398	37.729	0.105	0.093
-412.384	800.000	0.073	-0.242
-411.369	241.905	0.124	0.207
-410.355	-200.000	-0.056	-0.247
-409.340	-93.640	-0.325	0.090
-408.325	440.664	0.058	-0.128
-407.311	800.000	0.036	0.111
-406.296	-76.847	0.106	0.037
-405.282	-64.036	-0.145	-0.059
-404.267	177.784	0.139	-0.204
-403.252	-48.534	-0.245	-0.118
-402.238	-75.781	-0.429	0.152
-401.223	81.986	-0.114	-0.124
-400.209	542.210	0.038	0.090
-399.194	375.929	0.087	-0.177
-398.179	-7.024	-0.077	0.052
-397.165	-109.185	-0.061	0.013
-396.150	-200.000	0.005	-0.095
-395.136	-41.986	0.035	-0.018
-394.121	66.277	0.077	-0.078
-393.106	90.388	-0.251	-0.281
-392.092	167.719	-0.235	0.334
-391.077	78.834	-0.157	0.169
-390.063	71.776	0.109	0.113
-389.048	-200.000	-0.006	-0.071
-388.033	-134.305	-0.308	-0.038
-387.019	-200.000	-0.035	-0.187
-386.004	31.662	0.107	-0.092
-384.990	34.442	-0.154	0.135
-383.975	296.884	-0.109	0.200
-382.960	68.395	0.198	-0.203
-381.946	293.577	0.105	0.192
-380.931	-78.757	0.302	-0.103
-379.917	800.000	0.055	0.167
-378.902	-3.870	0.082	0.057
-377.888	-116.403	-0.331	0.061
-376.873	-50.407	-0.035	0.016
-375.858	800.000	-0.062	0.187
-374.844	800.000	-0.136	-0.404
-373.829	-153.851	-0.055	-0.004
-372.815	276.886	-0.142	0.253
-371.800	34.793	0.178	0.156
-370.785	-28.740	0.295	0.170
-369.771	800.000	-0.062	-0.186
-368.756	-38.469	-0.129	0.068
-367.742	-29.941	0.319	0.182
-366.727	529.625	-0.075	-0.176
-365.712	67.017	-0.346	-0.353
-364.698	-107.962	-0.205	0.044
-363.683	-200.000	-0.012	0.148
-362.669	800.000	-0.008	-0.036
-361.654	-200.000	0.002	0.106
-360.639	-152.651	-0.144	-0.010
-359.625	800.000	-0.044	0.169
-358.610	-166.209	-0.077	0.003
-357.596	259.153	0.081	0.139
-356.581	-114.308	-0.230	-0.044
-355.566	-80.143	0.184	0.062
-354.552	53.374	0.286	-0.274
-353.537	-160.319	-0.340	0.018
-352.523	-54.095	0.088	-0.040
-351.508	123.408	-0.145	0.181
-350.493	14.641	-0.168	-0.131
-349.479	-2.674	-0.109	-0.076
-348.464	-79.223	0.090	-0.030
-347.450	800.000	0.007	0.021
-346.435	-141.981	0.141	0.014
-345.420	-200.000	0.056	0.393
-344.406	-51.886	0.211	0.098
-343.391	-144.352	-0.349	0.032
-342.377	233.268	-0.151	0.249
-341.362	297.888	0.107	-0.197
-340.348	-17.296	0.019	0.012
-339.333	-64.330	0.198	0.081
-338.318	-133.701	-0.427	-0.053
-337.304	-30.105	0.114	0.065
-336.289	-200.000	0.033	-0.296
-335.275	-10.016	-0.112	-0.074
-334.260	-29.786	-0.222	0.126
-333.245	-164.896	-0.048	-0.002
-332.231	500.806	0.122	0.280
-331.216	-31.181	0.345	0.194
-330.202	59.033	-0.073	0.072
-329.187	629.264	-0.073	-0.184
-328.172	-141.192	-0.277	0.028
-327.158	-35.378	-0.160	0.087
-326.143	-119.180	0.271	0.047
-325.129	78.801	0.008	-0.008
-324.114	489.108	-0.008	0.019
-323.099	98.300	0.128	-0.147
-322.085	-200.000	0.011	-0.131
-321.070	7.510	-0.174	0.130
-320.056	409.973	-0.113	-0.239
-319.041	287.269	0.126	-0.227
-318.026	101.604	-0.158	-0.184
-317.012	-200.000	-0.000	-0.085
-315.997	-89.592	-0.178	0.052
-314.983	-24.139	0.099	0.059
-313.968	-200.000	-0.078	-0.453
-312.953	-200.000	0.005	-0.038
-311.939	-79.910	-0.282	0.094
-310.924	302.051	0.133	0.246
-309.910	207.910	0.143	0.223
-308.895	119.065	0.035	0.044
-307.880	-136.161	0.085	-0.010
-306.866	-200.000	0.004	0.123
-305.851	-2.439	-0.208	-0.145
-304.837	-87.074	0.129	-0.039
-303.822	-66.668	-0.110	0.043
-302.807	-115.508	0.196	0.037
-301.793	-109.060	-0.151	0.032
-300.778	-200.000	0.026	0.224
-299.764	-8.274	0.208	-0.139
-298.749	-93.741	0.228	-0.063
-297.735	60.765	-0.177	-0.175
-296.720	-200.000	-0.074	0.569
-295.705	11.440	0.171	-0.131
-294.691	-103.344	-0.087	0.021
-293.676	35.779	-0.066	0.058
-292.662	1.303	-0.107	0.077
-291.647	18.454	-0.186	0.149
-290.632	306.848	-0.070	-0.130
-289.618	-200.000	-0.055	-0.474
-288.603	-200.000	0.045	-0.363
-287.589	209.023	0.158	0.247
-286.574	-74.781	-0.071	0.025
-285.559	-33.880	-0.270	-0.148
-284.545	28.270	-0.157	0.132
-283.530	-59.209	0.182	-0.078
-282.516	800.000	-0.067	0.268
-281.501	-143.509	0.287	-0.027
-280.486	-121.457	0.286	-0.047
-279.472	244.785	-0.174	0.292
-278.457	-34.070	-0.101	0.055
-277.443	42.238	0.165	0.149
-276.428	114.019	0.169	0.205
-275.413	-7.283	-0.338	0.228
-274.399	-22.901	0.221	-0.133
-273.384	174.091	0.207	-0.297
-272.370	-63.128	-0.198	-0.081
-271.355	-169.390	0.170	0.006
-270.340	38.746	0.275	0.244
-269.326	-85.138	-0.129	-0.040
-268.311	296.653	-0.058	-0.106
-267.297	-91.997	-0.108	0.030
-266.282	242.265	0.211	-0.352
-265.267	152.464	0.105	-0.143
-264.253	225.067	-0.098	-0.157
-263.238	-53.310	0.594	0.271
-262.224	217.163	-0.156	-0.248
-261.209	133.719	-0.111	0.142
-260.195	-73.067	-0.279	-0.102
-259.180	-87.501	0.153	0.046
-258.165	-53.651	0.368	-0.167
-257.151	-200.000	0.016	-0.156
-256.136	640.123	0.114	-0.289
-255.122	-88.480	-0.145	0.043
-254.107	-200.000	0.034	-0.184
-253.092	800.000	-0.051	0.181
-252.078	-28.466	0.184	0.105
-251.063	-200.000	-0.027	-0.204
-250.049	-200.000	-0.048	0.264
-249.034	230.498	-0.009	-0.014
-248.019	52.377	0.260	0.247
-247.005	342.655	-0.050	0.098
-245.990	61.593	0.157	-0.155
-244.976	800.000	0.016	0.071
-243.961	72.073	-0.131	0.135
-242.946	122.713	0.134	0.167
-241.932	-200.000	0.061	0.267
-240.917	19.548	-0.067	-0.054
-239.903	382.663	-0.154	0.316
-238.888	179.048	-0.156	0.228
-237.873	-149.560	0.240	0.019
-236.859	-7.758	-0.213	-0.143
-235.844	-108.002	0.280	-0.060
-234.830	72.095	0.121	-0.125
-233.815	-25.411	0.100	0.059
-232.800	218.451	0.143	0.227
-231.786	-139.551	-0.065	-0.007
-230.771	800.000	0.026	0.086
-229.757	140.544	-0.051	0.067
-228.742	23.186	0.230	-0.188
-227.727	-200.000	0.062	-0.309
-226.713	528.630	-0.040	0.093
-225.698	-109.078	-0.182	-0.038
-224.684	-28.627	0.204	0.117
-223.669	800.000	0.018	-0.068
-222.655	43.797	-0.158	0.144
-221.640	355.383	-0.051	0.102
-220.625	-117.225	-0.047	-0.008
-219.611	470.462	-0.079	-0.177
-218.596	-200.000	0.019	0.424
-217.582	-52.646	0.238	-0.109
-216.567	800.000	-0.054	-0.230
-215.552	-26.527	0.071	0.041
-214.538	-174.605	0.136	-0.004
-213.523	-129.665	-0.310	-0.042
-212.509	30.118	0.072	0.061
-211.494	22.268	0.045	-0.037
-210.479	136.580	0.167	-0.216
-209.465	48.301	0.232	-0.215
-208.450	-200.000	-0.006	0.144
-207.436	47.921	0.205	0.191
-206.421	-0.328	0.158	0.112
-205.406	-176.924	-0.204	-0.005
-204.392	-200.000	-0.019	-0.144
-203.377	-200.000	-0.014	-0.166
-202.363	-200.000	-0.062	0.369
-201.348	-200.000	0.012	-0.234
-200.333	-112.591	0.136	0.027
-199.319	-149.845	-0.180	-0.014
-198.304	-3.635	0.199	0.137
-197.290	68.056	0.104	0.106
-196.275	800.000	-0.027	-0.113
-195.260	244.644	0.104	0.174
-194.246	295.743	-0.101	-0.184
-193.231	-77.125	-0.130	-0.045
-192.217	106.757	-0.080	0.094
-191.202	-140.406	0.429	-0.044
-190.187	626.701	-0.092	0.231
-189.173	800.000	-0.131	0.361
-188.158	-139.095	-0.275	-0.030
-187.144	800.000	-0.059	-0.250
-186.129	635.432	0.079	0.200
-185.114	-15.540	-0.208	-0.132
-184.100	311.971	0.186	-0.347
-183.085	-200.000	-0.013	0.217
-182.071	63.214	0.036	0.036
-181.056	-120.901	0.115	0.019
-180.042	-140.275	-0.221	-0.023
-179.027	-200.000	-0.069	-0.633
-178.012	675.870	0.120	-0.309
-176.998	196.563	0.020	0.030
-175.983	-143.478	-0.091	0.009
-174.969	131.980	0.181	-0.232
-173.954	-84.733	0.375	-0.117
-172.939	157.274	-0.112	0.154
-171.925	-105.654	0.551	0.124
-170.910	-57.891	-0.256	-0.111
-169.896	99.043	-0.129	-0.148
-168.881	53.731	0.073	0.070
-167.866	-200.000	0.047	0.216
-166.852	124.301	-0.111	0.139
-165.837	800.000	-0.058	-0.210
-164.823	-5.196	0.171	0.117
-163.808	-44.373	-0.156	0.077
-162.793	-200.000	-0.011	-0.087
-161.779	132.929	0.172	-0.220
-160.764	-200.000	0.026	-0.389
-159.750	704.673	0.116	-0.303
-158.735	-148.746	0.297	-0.024
-157.720	730.420	0.104	0.276
-156.706	-4.786	-0.058	0.040
-155.691	-14.907	0.107	-0.068
-154.677	573.820	-0.131	0.317
-153.662	-17.438	0.065	-0.041
-152.647	-200.000	-0.035	-0.390
-151.633	33.246	0.138	-0.119
-150.618	-110.011	0.209	0.043
-149.604	-25.275	0.177	0.104
-148.589	-135.655	-0.033	0.004
-147.574	800.000	-0.091	0.351
-146.560	-121.411	-0.240	-0.040
-145.545	-70.699	-0.322	-0.121
-144.531	152.177	-0.081	-0.110
-143.516	422.082	-0.039	0.083
-142.502	-103.649	0.376	0.087
-141.487	-74.835	0.335	0.119
-140.472	-30.571	0.070	-0.039
-139.458	-123.714	-0.185	-0.029
-138.443	112.632	0.101	0.122
-137.429	100.785	-0.120	-0.139
-136.414	-17.652	0.307	0.191
-135.399	-95.531	0.185	-0.049
-134.385	-117.976	-0.350	-0.062
-133.370	-89.626	0.100	0.029
-132.356	39.683	-0.402	0.358
-131.341	199.444	-0.213	0.324
-130.326	492.356	-0.157	-0.357
-129.312	-200.000	-0.040	0.223
-128.297	25.807	-0.274	0.226
-127.283	-200.000	-0.025	-0.203
-126.268	-200.000	0.010	-0.197
-125.253	-103.115	-0.317	0.074
-124.239	106.910	0.188	-0.220
-123.224	-200.000	-0.012	-0.102
-122.210	-45.768	0.319	-0.156
-121.195	-13.601	0.213	-0.137
