DTS Sentinel unit serial number:	SN413079Multiplexer serial number:	ORYXHardware model number:	OX4-SRSoftware version number:	ORYX F/W v4.00 Oryx Data Collector v3.7.2.0data status	okinstallation	princeton_trtdifferential loss correction	single-endedforward channel	channel 4reverse channel	N/Adate	2019/09/17time	07:53:34forward acquisition time	60.00reverse acquisition time	0.00gamma	496.2192k internal	0.2319k external	0.2319temperature offset calibration	0.9985default loss term (dB/km)	0.3790temperature slope calibration	1.0000multiplexer offset coefficient	1.0000multiplexer slope coefficient	1.0000fibre end	0.00T internal ref (°C)	27.19T ext. ref 1 (°C)	0.12T ext. ref 2 (°C)	22.22length (m)	temperature (°C)	Stokes	anti-Stokes-747.200	350.787	-0.073	-0.146
-746.185	800.000	0.067	0.291
-745.171	119.716	0.214	-0.268
-744.156	121.748	-0.106	0.134
-743.142	30.796	0.207	-0.180
-742.127	800.000	-0.112	0.427
-741.112	-200.000	-0.015	-0.161
-740.098	-123.717	0.101	-0.016
-739.083	433.635	0.108	-0.237
-738.069	-36.368	-0.330	0.180
-737.054	58.692	0.146	0.145
-736.039	-69.171	-0.394	-0.153
-735.025	117.464	0.149	0.185
-734.010	141.747	-0.119	-0.159
-732.996	268.621	0.173	-0.306
-731.981	-145.246	-0.135	-0.012
-730.966	21.227	0.086	0.070
-729.952	-61.595	0.415	-0.176
-728.937	274.585	0.141	0.253
-727.923	-35.638	-0.127	-0.070
-726.908	-200.000	0.049	-0.425
-725.894	-78.653	0.310	0.107
-724.879	133.130	-0.115	0.150
-723.864	285.705	-0.215	-0.391
-722.850	-42.233	0.199	-0.103
-721.835	-153.801	-0.298	-0.021
-720.821	-69.938	0.096	-0.037
-719.806	800.000	-0.034	0.146
-718.791	-10.555	-0.234	-0.157
-717.777	-200.000	-0.026	-0.202
-716.762	-7.643	-0.023	0.016
-715.748	-108.728	0.185	-0.040
-714.733	125.904	-0.264	-0.337
-713.718	800.000	0.030	-0.091
-712.704	-200.000	-0.084	0.383
-711.689	-103.123	-0.446	-0.107
-710.675	-4.177	-0.421	-0.294
-709.660	-156.457	0.075	0.005
-708.645	297.261	0.195	-0.362
-707.631	31.464	-0.290	-0.252
-706.616	527.164	-0.117	-0.280
-705.602	-137.437	-0.293	-0.034
-704.587	-200.000	-0.009	0.041
-703.572	79.521	0.049	-0.053
-702.558	-143.216	0.345	0.033
-701.543	-146.560	0.196	-0.017
-700.529	-200.000	-0.009	0.102
-699.514	-39.911	-0.140	0.074
-698.499	-138.992	-0.081	0.009
-697.485	405.742	-0.137	0.291
-696.470	-69.128	-0.167	0.065
-695.456	13.917	-0.098	-0.077
-694.441	800.000	0.039	-0.144
-693.426	-31.173	0.208	-0.118
-692.412	153.082	0.201	-0.277
-691.397	-179.235	0.252	-0.006
-690.383	-162.056	-0.144	-0.007
-689.368	-63.520	0.090	-0.037
-688.354	129.439	0.112	0.145
-687.339	48.761	-0.263	-0.249
-686.324	-119.958	0.034	-0.006
-685.310	-103.644	0.107	0.025
-684.295	-158.210	-0.053	-0.003
-683.281	-200.000	0.012	-0.356
-682.266	-49.468	0.226	0.108
-681.251	142.127	0.129	-0.173
-680.237	381.328	-0.087	0.181
-679.222	-200.000	-0.015	-0.081
-678.208	-8.060	0.164	0.112
-677.193	-63.920	-0.202	-0.083
-676.178	-200.000	-0.033	0.363
-675.164	-36.772	0.085	0.046
-674.149	-200.000	0.002	0.085
-673.135	800.000	-0.077	-0.276
-672.120	-18.117	0.074	-0.047
-671.105	-200.000	-0.078	-0.404
-670.091	-0.036	0.183	-0.131
-669.076	74.081	-0.077	0.082
-668.062	455.758	0.054	-0.120
-667.047	-32.788	-0.255	0.143
-666.032	-200.000	0.026	-0.224
-665.018	-142.811	-0.192	0.019
-664.003	-27.944	0.365	-0.213
-662.989	800.000	0.057	-0.200
-661.974	800.000	0.057	-0.164
-660.959	-177.506	0.428	-0.011
-659.945	-156.506	-0.378	-0.024
-658.930	-7.555	-0.086	0.059
-657.916	-200.000	-0.019	-0.321
-656.901	229.427	0.104	-0.171
-655.886	148.172	-0.008	-0.011
-654.872	13.204	0.103	0.080
-653.857	-124.017	-0.255	0.040
-652.843	46.307	-0.362	-0.338
-651.828	-4.895	0.402	-0.279
-650.814	27.976	0.094	-0.080
-649.799	143.879	0.140	0.188
-648.784	-123.038	0.129	0.021
-647.770	-200.000	-0.017	0.255
-646.755	216.995	0.106	0.170
-645.741	-200.000	-0.034	-0.361
-644.726	-22.862	0.110	-0.067
-643.711	11.356	0.140	-0.108
-642.697	41.297	-0.050	-0.046
-641.682	728.069	-0.085	-0.229
-640.668	-200.000	-0.034	-0.458
-639.653	-167.320	-0.410	-0.017
-638.638	152.638	-0.009	0.013
-637.624	-200.000	0.023	-0.143
-636.609	-89.753	-0.261	-0.077
-635.595	-128.250	-0.380	-0.055
-634.580	-72.245	0.423	0.158
-633.565	-162.387	-0.208	-0.010
-632.551	-160.680	-0.351	0.019
-631.536	-115.029	0.045	-0.009
-630.522	-65.813	0.156	0.063
-629.507	78.872	0.062	0.067
-628.492	-176.929	-0.133	0.003
-627.478	232.068	-0.185	-0.306
-626.463	-126.176	0.241	-0.036
-625.449	87.034	0.084	0.093
-624.434	-136.823	-0.184	-0.021
-623.419	-103.758	0.118	-0.028
-622.405	-125.044	-0.044	0.007
-621.390	-14.974	-0.151	-0.098
-620.376	-124.358	0.286	0.045
-619.361	-93.490	-0.231	-0.064
-618.346	-20.531	0.285	0.176
-617.332	-200.000	0.035	-0.292
-616.317	-8.643	-0.200	-0.135
-615.303	348.446	0.037	0.073
-614.288	139.718	-0.186	-0.247
-613.273	-150.639	0.037	-0.003
-612.259	-29.654	-0.228	0.131
-611.244	-200.000	0.026	-0.211
-610.230	-15.487	0.202	-0.130
-609.215	183.323	-0.033	-0.049
-608.201	120.184	0.230	0.287
-607.186	-130.195	-0.198	0.027
-606.171	-87.653	-0.182	0.055
-605.157	-200.000	-0.012	0.061
-604.142	-200.000	-0.028	-0.158
-603.128	119.747	-0.190	0.237
-602.113	-94.538	0.094	-0.026
-601.098	-39.637	0.449	0.236
-600.084	-200.000	0.057	0.257
-599.069	800.000	0.081	0.251
-598.055	-200.000	0.010	0.077
-597.040	-63.595	-0.359	-0.148
-596.025	800.000	-0.042	0.162
-595.011	281.729	0.200	0.360
-593.996	-20.853	0.118	-0.073
-592.982	-55.905	0.182	-0.082
-591.967	-50.752	0.346	0.164
-590.952	44.498	-0.162	0.149
-589.938	800.000	-0.058	-0.182
-588.923	-194.049	-0.182	-0.002
-587.909	-73.075	-0.338	0.125
-586.894	800.000	0.064	0.196
-585.879	179.251	-0.039	0.058
-584.865	-160.908	-0.450	0.024
-583.850	669.962	0.089	-0.231
-582.836	160.382	0.133	-0.187
-581.821	-103.929	0.147	-0.035
-580.806	-200.000	-0.020	-0.412
-579.792	364.199	-0.068	0.138
-578.777	-134.481	0.264	0.032
-577.763	-98.681	0.201	0.051
-576.748	13.263	-0.062	0.048
-575.733	291.677	-0.099	-0.180
-574.719	425.648	0.062	-0.134
-573.704	800.000	0.060	-0.222
-572.690	-200.000	0.013	0.113
-571.675	57.562	-0.210	0.206
-570.661	-200.000	0.007	-0.057
-569.646	-45.206	-0.102	-0.051
-568.631	-88.847	0.099	-0.030
-567.617	681.409	0.039	0.102
-566.602	-14.983	0.177	0.114
-565.588	334.804	-0.057	-0.110
-564.573	-85.055	0.362	-0.114
-563.558	-200.000	0.048	-0.314
-562.544	-39.340	0.307	0.162
-561.529	-97.087	-0.099	-0.026
-560.515	-144.216	-0.248	0.023
-559.500	263.638	-0.096	-0.167
-558.485	359.032	-0.094	-0.189
-557.471	131.034	-0.143	-0.185
-556.456	-164.026	0.063	0.003
-555.442	38.047	-0.226	0.202
-554.427	-200.000	-0.000	-0.400
-553.412	-68.516	-0.094	-0.037
-552.398	40.763	0.170	0.154
-551.383	-139.833	-0.290	-0.031
-550.369	-12.367	0.211	-0.138
-549.354	-52.047	-0.156	-0.073
-548.339	-96.927	0.382	0.100
-547.325	-47.022	0.270	0.132
-546.310	-200.000	0.043	0.232
-545.296	-133.289	0.376	-0.048
-544.281	-149.479	-0.123	0.010
-543.266	-200.000	0.031	-0.194
-542.252	303.385	0.100	0.186
-541.237	-112.341	-0.338	0.068
-540.223	-131.743	0.281	0.037
-539.208	269.230	0.046	-0.081
-538.193	-200.000	-0.039	-0.192
-537.179	-71.541	-0.176	0.066
-536.164	-200.000	-0.006	0.121
-535.150	-169.442	0.306	0.011
-534.135	-200.000	0.016	0.262
-533.121	-67.208	-0.429	0.169
-532.106	-52.571	0.227	0.105
-531.091	551.441	0.069	-0.165
-530.077	-21.993	-0.236	-0.144
-529.062	-200.000	0.039	-0.253
-528.048	-200.000	-0.298	0.000
-527.033	30.909	0.202	0.174
-526.018	288.147	-0.116	-0.211
-525.004	-60.310	0.296	0.127
-523.989	-200.000	-0.017	-0.172
-522.975	-200.000	-0.047	-0.287
-521.960	-60.693	-0.142	0.060
-520.945	491.681	-0.111	-0.255
-519.931	-200.000	0.057	0.367
-518.916	159.685	0.159	0.222
-517.902	-200.000	-0.094	-0.739
-516.887	-152.672	-0.216	-0.015
-515.872	52.043	-0.122	0.117
-514.858	20.123	0.132	-0.107
-513.843	-83.306	0.094	0.030
-512.829	-200.000	-0.002	0.045
-511.814	-106.032	0.501	0.113
-510.799	-200.000	0.009	0.214
-509.785	-35.882	-0.060	-0.033
-508.770	800.000	-0.017	-0.063
-507.756	800.000	-0.137	-0.395
-506.741	800.000	-0.100	-0.375
-505.726	-32.132	-0.247	0.138
-504.712	-140.125	-0.217	-0.023
-503.697	-1.069	0.246	-0.175
-502.683	271.981	-0.135	-0.238
-501.668	-115.667	0.225	0.042
-500.653	499.226	0.020	0.047
-499.639	273.488	0.352	-0.624
-498.624	159.863	0.068	-0.095
-497.610	-37.954	-0.116	0.062
-496.595	-200.000	-0.038	0.438
-495.581	-49.436	-0.210	0.100
-494.566	13.250	-0.192	-0.149
-493.551	-18.861	0.266	-0.166
-492.537	-56.957	0.016	-0.007
-491.522	497.866	0.067	-0.155
-490.508	-157.100	-0.128	0.008
-489.493	621.277	0.138	-0.347
-488.478	-58.057	0.264	-0.115
-487.464	800.000	-0.058	-0.219
-486.449	116.341	-0.319	-0.392
-485.435	800.000	0.077	0.314
-484.420	488.891	0.091	-0.207
-483.405	-200.000	-0.058	0.256
-482.391	800.000	0.072	0.225
-481.376	800.000	0.031	0.125
-480.362	-200.000	0.007	0.141
-479.347	330.702	-0.180	-0.347
-478.332	17.358	-0.193	-0.153
-477.318	-200.000	-0.033	0.162
-476.303	-200.000	0.021	0.265
-475.289	205.624	0.156	-0.243
-474.274	800.000	-0.079	0.271
-473.259	48.205	0.338	-0.317
-472.245	388.887	0.163	-0.338
-471.230	83.666	-0.065	0.071
-470.216	800.000	-0.092	0.278
-469.201	-200.000	-0.011	0.227
-468.186	-200.000	0.026	-0.233
-467.172	800.000	-0.045	0.158
-466.157	-129.761	0.531	-0.073
-465.143	306.755	0.072	-0.134
-464.128	-200.000	0.067	-0.482
-463.113	36.142	0.185	-0.163
-462.099	-200.000	0.010	0.241
-461.084	-63.364	-0.244	0.100
-460.070	251.110	0.020	-0.035
-459.055	236.756	0.139	-0.230
-458.040	334.855	0.116	0.225
-457.026	65.909	0.113	-0.115
-456.011	43.633	-0.109	-0.100
-454.997	33.236	-0.346	-0.300
-453.982	800.000	-0.112	0.333
-452.968	-200.000	-0.017	0.441
-451.953	-85.482	0.391	0.122
-450.938	127.246	-0.153	0.194
-449.924	-35.201	-0.069	0.037
-448.909	262.286	0.210	-0.364
-447.895	-194.546	-0.189	-0.002
-446.880	23.849	-0.150	-0.123
-445.865	-181.366	0.361	0.007
-444.851	124.567	-0.146	-0.183
-443.836	565.234	0.100	0.242
-442.822	188.180	0.169	0.253
-441.807	93.903	-0.152	0.172
-440.792	800.000	0.125	-0.512
-439.778	-200.000	0.017	-0.128
-438.763	1.579	-0.292	0.210
-437.749	12.426	0.245	0.189
-436.734	800.000	-0.083	-0.329
-435.719	68.378	0.166	0.170
-434.705	-19.608	0.098	-0.060
-433.690	17.021	0.182	0.144
-432.676	71.521	-0.266	0.276
-431.661	-59.280	-0.352	-0.151
-430.646	800.000	0.051	0.147
-429.632	106.955	0.254	-0.301
-428.617	-109.739	-0.182	-0.038
-427.603	-91.636	-0.217	0.062
-426.588	800.000	0.062	0.194
-425.573	176.467	-0.197	0.286
-424.559	-200.000	0.018	-0.340
-423.544	-200.000	0.064	-0.367
-422.530	-64.594	-0.506	0.205
-421.515	52.348	-0.279	-0.266
-420.500	-200.000	-0.010	0.067
-419.486	-10.598	-0.130	-0.086
-418.471	178.533	0.116	-0.169
-417.457	39.741	-0.092	-0.082
-416.442	-133.554	-0.225	0.028
-415.428	-86.354	0.014	-0.004
-414.413	52.915	0.227	0.217
-413.398	-200.000	-0.023	0.150
-412.384	41.959	0.096	-0.087
-411.369	181.134	0.222	-0.325
-410.355	469.174	-0.120	-0.270
-409.340	-60.563	0.231	0.098
-408.325	192.949	-0.291	0.439
-407.311	-24.450	-0.257	-0.153
-406.296	166.997	0.119	-0.168
-405.282	-93.265	-0.253	0.070
-404.267	-160.931	0.094	-0.005
-403.252	122.823	0.026	-0.033
-402.238	73.056	-0.152	-0.159
-401.223	800.000	-0.107	0.431
-400.209	155.165	0.080	0.110
-399.194	-181.537	0.197	0.004
-398.179	2.644	0.047	0.034
-397.165	36.937	-0.214	-0.189
-396.150	115.750	0.196	0.240
-395.136	-72.791	-0.068	-0.025
-394.121	366.801	-0.133	0.269
-393.106	203.530	-0.129	0.200
-392.092	-45.494	0.328	-0.162
-391.077	-61.421	0.194	0.081
-390.063	155.515	0.107	-0.147
-389.048	-200.000	0.015	-0.076
-388.033	9.705	0.061	0.046
-387.019	43.440	-0.236	0.215
-386.004	800.000	0.067	0.205
-384.990	-175.639	0.302	0.008
-383.975	19.114	0.147	0.118
-382.960	-168.056	-0.323	0.013
-381.946	800.000	-0.044	0.151
-380.931	-200.000	0.010	-0.285
-379.917	800.000	0.022	0.097
-378.902	800.000	0.025	-0.099
-377.888	-97.641	0.258	-0.067
-376.873	800.000	-0.036	-0.112
-375.858	-62.070	0.177	-0.074
-374.844	800.000	0.074	-0.304
-373.829	648.896	0.066	0.169
-372.815	-200.000	-0.035	-0.342
-371.800	702.051	-0.088	-0.230
-370.785	-75.737	0.530	-0.187
-369.771	257.207	0.221	-0.379
-368.756	234.644	-0.177	0.292
-367.742	-200.000	0.018	-0.089
-366.727	-200.000	-0.003	-0.030
-365.712	232.050	0.065	0.106
-364.698	120.710	0.046	-0.057
-363.683	-200.000	0.203	0.000
-362.669	743.056	0.042	-0.114
-361.654	-119.690	-0.174	-0.030
-360.639	121.175	-0.109	0.135
-359.625	-72.582	-0.289	-0.106
-358.610	625.392	0.105	-0.263
-357.596	-176.655	-0.516	0.013
-356.581	-83.417	-0.102	-0.033
-355.566	-90.054	0.291	-0.085
-354.552	-200.000	0.018	0.210
-353.537	800.000	0.050	0.171
-352.523	594.789	-0.101	0.248
-351.508	197.213	-0.142	0.216
-350.493	-69.515	0.252	0.096
-349.479	-61.858	0.180	-0.075
-348.464	-200.000	-0.014	0.201
-347.450	-131.658	0.224	0.029
-346.435	-35.043	-0.217	-0.118
-345.420	735.342	-0.206	0.550
-344.406	-36.809	-0.091	0.048
-343.391	-26.031	0.205	-0.120
-342.377	800.000	-0.068	-0.235
-341.362	30.178	-0.178	-0.152
-340.348	610.688	0.052	-0.129
-339.333	111.337	-0.140	-0.168
-338.318	647.214	0.071	0.180
-337.304	-114.885	-0.152	-0.029
-336.289	20.464	0.193	-0.155
-335.275	168.499	-0.110	-0.156
-334.260	-97.805	-0.050	0.013
-333.245	20.093	-0.413	0.332
-332.231	155.423	0.163	-0.223
-331.216	250.881	-0.087	-0.148
-330.202	10.804	0.067	-0.051
-329.187	120.395	-0.230	0.284
-328.172	178.663	0.110	0.161
-327.158	68.376	-0.253	0.258
-326.143	650.734	-0.096	0.244
-325.129	-8.807	-0.146	0.097
-324.114	-200.000	0.056	0.358
-323.099	113.484	-0.165	-0.199
-322.085	-96.418	-0.082	0.022
-321.070	-50.775	0.351	-0.164
-320.056	-6.083	-0.361	0.246
-319.041	78.199	0.041	-0.043
-318.026	-93.706	-0.205	0.056
-317.012	-35.106	0.048	0.026
-315.997	43.856	0.066	0.060
-314.983	-98.203	-0.127	-0.032
-313.968	800.000	0.039	0.150
-312.953	-135.761	-0.128	0.015
-311.939	31.136	-0.051	0.044
-310.924	-200.000	-0.007	-0.042
-309.910	-200.000	0.085	0.418
-308.895	180.734	0.100	-0.146
-307.880	-167.125	-0.249	0.010
-306.866	326.250	0.078	0.149
-305.851	404.872	0.128	0.267
-304.837	22.074	0.338	0.274
-303.822	-119.449	-0.323	0.056
-302.807	86.115	0.280	-0.306
-301.793	4.336	0.306	-0.223
-300.778	-99.284	-0.126	0.032
-299.764	800.000	0.040	0.142
-298.749	-200.000	-0.045	-0.209
-297.735	260.285	0.103	0.177
-296.720	800.000	0.078	-0.247
-295.705	-17.549	0.287	-0.180
-294.691	228.146	0.096	0.155
-293.676	800.000	0.011	0.039
-292.662	81.241	-0.034	0.037
-291.647	352.712	0.128	-0.252
-290.632	3.952	0.265	0.192
-289.618	80.566	0.133	-0.143
-288.603	-147.631	-0.153	-0.013
-287.589	-200.000	-0.029	0.144
-286.574	-4.292	-0.173	-0.119
-285.559	-21.528	-0.391	0.237
-284.545	-141.720	-0.433	-0.043
-283.530	-152.084	0.108	0.008
-282.516	62.342	-0.183	0.182
-281.501	-41.268	-0.467	-0.239
-280.486	-152.839	0.157	0.011
-279.472	-0.149	0.237	0.168
-278.457	-200.000	0.013	0.064
-277.443	-56.172	-0.253	0.112
-276.428	-11.029	0.253	0.166
-275.413	-44.556	0.222	-0.110
-274.399	-51.477	-0.151	0.070
-273.384	800.000	0.125	-0.474
-272.370	-9.254	0.083	-0.055
-271.355	30.133	0.077	0.066
-270.340	131.849	-0.069	-0.088
-269.326	-200.000	0.025	0.318
-268.311	456.879	-0.106	0.233
-267.297	800.000	0.048	-0.203
-266.282	52.128	0.150	0.142
-265.267	-200.000	-0.021	-0.133
-264.253	-73.995	-0.327	-0.118
-263.238	86.649	-0.253	-0.277
-262.224	206.696	-0.100	-0.155
-261.209	-171.393	-0.308	0.010
-260.195	-170.936	0.180	-0.006
-259.180	159.303	-0.175	-0.242
-258.165	202.047	-0.181	0.278
-257.151	-75.059	0.160	-0.057
-256.136	668.239	-0.177	0.455
-255.122	800.000	0.046	0.128
-254.107	-162.472	0.233	-0.011
-253.092	-140.169	0.344	0.036
-252.078	-91.719	-0.203	-0.057
-251.063	-101.095	0.392	-0.095
-250.049	-200.000	0.004	-0.147
-249.034	121.256	-0.158	0.195
-248.019	-200.000	0.004	0.303
-247.005	69.462	0.114	-0.117
-245.990	286.498	-0.134	-0.239
-244.976	786.194	0.101	0.275
-243.961	-107.372	-0.161	-0.035
-242.946	-152.015	0.371	-0.027
-241.932	-200.000	-0.016	0.114
-240.917	136.844	0.026	-0.034
-239.903	-112.602	-0.172	0.034
-238.888	800.000	0.075	0.225
-237.873	-29.315	-0.230	-0.131
-236.859	209.762	-0.080	0.124
-235.844	130.754	0.106	0.135
-234.830	-34.356	-0.157	-0.085
-233.815	-21.519	0.376	0.227
-232.800	-2.070	-0.163	0.114
-231.786	626.166	0.104	-0.261
-230.771	-45.550	-0.050	-0.025
-229.757	332.081	0.098	-0.188
-228.742	-158.025	-0.107	-0.006
-227.727	86.202	-0.150	0.164
-226.713	-13.425	0.080	0.052
-225.698	-40.025	0.128	-0.066
-224.684	58.989	-0.067	-0.065
-223.669	120.877	-0.155	0.191
-222.655	-200.000	-0.044	0.214
-221.640	542.727	-0.182	0.430
-220.625	2.908	0.204	-0.147
-219.611	116.072	-0.077	-0.094
-218.596	-103.031	-0.074	0.017
-217.582	800.000	-0.082	0.244
-216.567	-143.859	0.263	-0.025
-215.552	177.171	-0.201	-0.290
-214.538	800.000	-0.091	-0.293
-213.523	-78.587	0.269	0.091
-212.509	-65.876	0.227	0.090
-211.494	800.000	0.123	-0.342
-210.479	800.000	0.100	-0.378
-209.465	-167.803	-0.323	-0.013
-208.450	42.963	-0.157	0.142
-207.436	270.626	0.061	-0.106
-206.421	98.283	-0.161	0.184
-205.406	800.000	0.036	0.149
-204.392	-200.000	-0.007	-0.155
-203.377	-90.746	-0.006	-0.002
-202.363	-135.588	-0.311	-0.037
-201.348	800.000	0.074	0.296
-200.333	-54.550	-0.144	-0.064
-199.319	-200.000	0.017	0.148
-198.304	-96.515	0.162	0.042
-197.290	-51.011	0.178	0.083
-196.275	250.186	-0.040	-0.067
-195.260	-90.630	-0.090	0.026
-194.246	-1.926	-0.143	-0.100
-193.231	158.284	-0.025	0.034
-192.217	27.985	0.088	-0.074
-191.202	53.313	-0.168	0.159
-190.187	18.364	-0.104	-0.082
-189.173	-200.000	0.017	-0.182
-188.158	75.396	0.057	0.060
-187.144	-47.534	0.072	0.035
-186.129	-200.000	0.046	-0.516
-185.114	800.000	0.119	-0.389
-184.100	-39.640	-0.039	0.020
-183.085	188.528	0.084	-0.124
-182.071	800.000	0.063	0.197
-181.056	-120.496	0.400	-0.067
-180.042	800.000	-0.094	0.260
-179.027	59.174	0.037	0.036
-178.012	-95.056	-0.319	0.085
-176.998	-8.751	0.235	0.156
-175.983	109.499	-0.141	0.167
-174.969	157.088	0.024	-0.033
-173.954	600.404	0.064	0.156
-172.939	-81.523	0.167	0.054
-171.925	102.259	0.101	0.117
-170.910	667.450	-0.087	-0.223
-169.896	-103.792	0.260	0.060
-168.881	-84.377	-0.138	-0.043
-167.866	113.632	-0.183	0.220
-166.852	739.910	0.020	0.054
-165.837	34.660	0.204	0.177
-164.823	84.420	0.213	0.231
-163.808	497.857	-0.099	0.225
-162.793	190.443	-0.196	0.291
-161.779	37.306	0.141	0.124
-160.764	-200.000	-0.019	0.267
-159.750	-119.482	0.144	-0.025
-158.735	87.892	0.172	0.189
-157.720	-183.135	-0.044	-0.001
-156.706	-125.001	0.086	0.013
-155.691	109.173	0.103	-0.122
-154.677	-1.232	0.084	0.059
-153.662	-200.000	0.015	0.160
-152.647	800.000	-0.045	0.125
-151.633	1.129	-0.134	-0.095
-150.618	-200.000	0.016	0.077
-149.604	-152.511	0.434	-0.031
-148.589	-200.000	-0.025	-0.181
-147.574	-200.000	0.002	-0.177
-146.560	800.000	0.029	-0.105
-145.545	-200.000	-0.046	-0.209
-144.531	74.445	0.180	-0.187
-143.516	-194.905	0.061	-0.000
-142.502	-25.047	-0.173	-0.101
-141.487	-200.000	-0.007	-0.164
-140.472	25.182	0.014	0.012
-139.458	-200.000	0.271	0.001
-138.443	200.283	-0.076	-0.115
-137.429	113.026	-0.156	-0.187
-136.414	-200.000	0.015	-0.113
-135.399	-200.000	0.336	0.000
-134.385	-62.859	0.080	-0.033
-133.370	-78.312	0.077	-0.026
-132.356	778.620	-0.079	-0.214
-131.341	193.326	-0.052	0.078
-130.326	-30.195	-0.083	0.047
-129.312	-135.358	0.161	0.019
-128.297	-200.000	-0.005	0.057
-127.283	-200.000	0.004	0.216
-126.268	800.000	0.027	-0.090
-125.253	610.831	-0.086	0.213
-124.239	44.440	-0.107	0.097
-123.224	-107.727	-0.322	0.069
-122.210	181.527	-0.086	0.124
-121.195	38.269	0.237	0.208
