DTS Sentinel unit serial number:	SN413079Multiplexer serial number:	ORYXHardware model number:	OX4-SRSoftware version number:	ORYX F/W v4.00 Oryx Data Collector v3.7.2.0data status	okinstallation	princeton_trtdifferential loss correction	single-endedforward channel	channel 4reverse channel	N/Adate	2019/09/16time	00:41:35forward acquisition time	60.00reverse acquisition time	0.00gamma	496.2192k internal	0.2324k external	0.2324temperature offset calibration	0.9964default loss term (dB/km)	0.3790temperature slope calibration	1.0000multiplexer offset coefficient	1.0000multiplexer slope coefficient	1.0000fibre end	0.00T internal ref (°C)	27.50T ext. ref 1 (°C)	9.63T ext. ref 2 (°C)	21.50length (m)	temperature (°C)	Stokes	anti-Stokes-747.200	-58.445	-0.252	-0.111
-746.185	-145.925	-0.100	-0.009
-745.171	-30.450	-0.164	-0.094
-744.156	144.848	-0.227	0.306
-743.142	270.863	-0.099	0.176
-742.127	-93.865	-0.124	0.035
-741.112	13.411	0.154	0.120
-740.098	212.320	-0.217	0.345
-739.083	765.343	0.113	0.309
-738.069	800.000	-0.026	0.094
-737.054	-26.558	0.015	0.009
-736.039	800.000	0.045	-0.188
-735.025	-54.393	-0.124	0.057
-734.010	800.000	-0.096	-0.362
-732.996	-200.000	-0.065	-0.380
-731.981	-166.823	-0.159	0.007
-730.966	-200.000	-0.017	0.080
-729.952	245.436	-0.150	-0.255
-728.937	-83.263	-0.198	0.064
-727.923	35.190	-0.126	-0.111
-726.908	-82.933	-0.121	-0.039
-725.894	-69.649	0.269	-0.104
-724.879	-103.310	-0.157	0.037
-723.864	-111.136	-0.278	0.058
-722.850	-105.008	-0.225	-0.052
-721.835	-200.000	-0.015	-0.299
-720.821	-16.211	-0.272	0.174
-719.806	800.000	-0.026	0.075
-718.791	262.194	-0.133	-0.233
-717.777	-71.347	0.277	-0.105
-716.762	-200.000	-0.076	-0.398
-715.748	800.000	-0.085	0.240
-714.733	79.946	0.206	-0.223
-713.718	56.109	-0.220	0.215
-712.704	547.335	-0.103	-0.248
-711.689	-97.358	0.190	0.050
-710.675	-172.874	-0.519	0.016
-709.660	172.578	-0.027	-0.040
-708.645	-200.000	-0.037	0.180
-707.631	431.260	-0.184	0.402
-706.616	-52.253	0.350	0.163
-705.602	-200.000	-0.001	-0.115
-704.587	121.588	-0.106	0.134
-703.572	527.178	0.095	0.225
-702.558	441.946	0.134	-0.297
-701.543	-47.196	0.029	0.014
-700.529	-132.576	-0.531	0.069
-699.514	-45.113	0.101	0.051
-698.499	252.299	-0.050	0.086
-697.485	41.545	-0.241	-0.220
-696.470	-2.982	0.091	0.064
-695.456	-200.000	-0.025	-0.126
-694.441	-167.372	-0.409	-0.017
-693.426	-63.989	-0.133	-0.055
-692.412	97.556	-0.007	-0.009
-691.397	-153.224	-0.268	0.019
-690.383	93.794	0.145	-0.165
-689.368	41.898	0.108	0.099
-688.354	-19.417	-0.395	-0.246
-687.339	800.000	-0.076	-0.240
-686.324	-200.000	0.062	0.335
-685.310	-200.000	-0.018	-0.184
-684.295	156.388	0.155	0.215
-683.281	464.242	-0.071	-0.160
-682.266	800.000	0.104	-0.301
-681.251	-200.000	0.029	0.137
-680.237	-69.074	-0.180	-0.070
-679.222	800.000	-0.037	-0.160
-678.208	124.728	-0.110	0.140
-677.193	115.500	0.182	0.223
-676.178	-35.207	-0.078	-0.043
-675.164	800.000	0.049	0.170
-674.149	27.014	0.090	-0.076
-673.135	-106.681	-0.195	0.044
-672.120	682.528	0.015	-0.040
-671.105	-181.676	0.470	-0.009
-670.091	-108.615	-0.176	0.038
-669.076	-21.998	0.355	-0.217
-668.062	800.000	0.034	-0.096
-667.047	219.707	-0.212	-0.342
-666.032	-7.365	0.174	-0.119
-665.018	-136.957	-0.033	-0.004
-664.003	-28.448	-0.210	0.122
-662.989	-104.408	-0.144	0.033
-661.974	-36.698	0.041	0.022
-660.959	-200.000	-0.033	0.372
-659.945	-200.000	-0.169	-0.001
-658.930	800.000	-0.029	0.109
-657.916	553.194	-0.126	-0.304
-656.901	-8.365	0.171	0.116
-655.886	-3.939	-0.135	-0.094
-654.872	247.118	0.055	-0.094
-653.857	111.132	0.049	0.060
-652.843	-200.000	-0.072	0.369
-651.828	-200.000	0.035	-0.250
-650.814	-200.000	-0.011	0.207
-649.799	-147.149	0.395	-0.034
-648.784	137.543	0.313	0.413
-647.770	800.000	-0.018	-0.054
-646.755	139.384	-0.123	0.163
-645.741	146.085	0.026	-0.035
-644.726	-200.000	-0.023	-0.203
-643.711	-100.520	0.093	-0.023
-642.697	-5.702	-0.116	-0.080
-641.682	-200.000	-0.014	-0.252
-640.668	311.941	0.115	0.218
-639.653	-200.000	0.017	-0.110
-638.638	73.318	0.204	0.214
-637.624	-55.912	0.141	0.063
-636.609	168.532	-0.086	0.123
-635.595	-143.423	0.084	-0.008
-634.580	44.418	0.108	0.100
-633.565	506.315	0.141	0.329
-632.551	33.520	0.283	0.247
-631.536	34.149	-0.055	-0.048
-630.522	-94.555	-0.048	-0.013
-629.507	-32.021	-0.166	-0.093
-628.492	576.324	0.170	-0.417
-627.478	96.132	0.033	-0.038
-626.463	-200.000	0.006	-0.056
-625.449	-200.000	0.003	0.046
-624.434	211.237	0.170	0.269
-623.419	-200.000	-0.016	-0.161
-622.405	-200.000	-0.039	-0.208
-621.390	226.304	-0.162	0.264
-620.376	-117.241	0.159	-0.029
-619.361	11.990	-0.309	0.239
-618.346	31.457	0.056	0.049
-617.332	-96.179	-0.235	0.063
-616.317	-200.000	0.006	0.312
-615.303	-189.209	0.168	0.002
-614.288	-94.627	-0.369	0.101
-613.273	-123.469	0.147	0.024
-612.259	-200.000	-0.004	0.148
-611.244	139.351	0.062	-0.081
-610.230	-100.393	-0.408	0.102
-609.215	-51.338	-0.139	-0.065
-608.201	-27.583	0.193	0.113
-607.186	2.817	-0.066	0.048
-606.171	-200.000	0.016	0.231
-605.157	169.855	0.023	0.033
-604.142	-125.953	0.084	-0.013
-603.128	-200.000	0.030	0.233
-602.113	-200.000	0.018	0.286
-601.098	-5.573	0.113	-0.078
-600.084	630.730	-0.134	-0.339
-599.069	-61.404	0.255	-0.108
-598.055	800.000	-0.043	-0.180
-597.040	-43.166	-0.091	-0.046
-596.025	30.852	-0.188	0.161
-595.011	-43.661	-0.127	0.064
-593.996	-107.413	0.476	0.105
-592.982	-3.359	-0.174	0.121
-591.967	-112.868	-0.130	-0.026
-590.952	-200.000	0.053	-0.334
-589.938	145.470	-0.181	0.244
-588.923	-107.207	0.045	0.010
-587.909	49.586	0.153	-0.144
-586.894	-200.000	-0.009	0.114
-585.879	800.000	-0.026	0.083
-584.865	-62.647	-0.226	0.094
-583.850	-200.000	-0.004	-0.236
-582.836	273.732	-0.051	0.091
-581.821	-200.000	-0.208	-0.000
-580.806	-109.350	-0.102	0.022
-579.792	-44.419	-0.298	-0.150
-578.777	104.963	-0.183	-0.217
-577.763	-185.879	0.163	0.002
-576.748	240.067	-0.045	0.075
-575.733	-10.562	0.252	0.168
-574.719	-11.378	-0.120	-0.079
-573.704	-135.032	-0.311	-0.038
-572.690	-33.428	-0.178	-0.098
-571.675	382.445	-0.219	-0.451
-570.661	-69.283	-0.392	-0.151
-569.646	-107.694	-0.143	0.031
-568.631	-200.000	-0.077	-0.377
-567.617	-55.850	-0.370	0.166
-566.602	-200.000	0.040	0.231
-565.588	197.361	0.142	-0.217
-564.573	800.000	0.078	-0.321
-563.558	800.000	-0.078	-0.283
-562.544	-107.733	-0.158	-0.035
-561.529	-200.000	0.015	-0.140
-560.515	-143.925	0.276	-0.026
-559.500	800.000	-0.076	-0.268
-558.485	516.220	-0.140	-0.328
-557.471	165.290	-0.056	0.079
-556.456	800.000	-0.119	0.374
-555.442	-132.724	-0.104	-0.013
-554.427	-42.623	-0.156	0.079
-553.412	800.000	0.073	0.312
-552.398	46.800	0.053	-0.050
-551.383	-14.158	0.143	-0.092
-550.369	12.520	-0.062	0.048
-549.354	514.328	0.031	-0.072
-548.339	-43.793	-0.221	0.111
-547.325	-70.625	-0.386	-0.146
-546.310	203.675	0.181	-0.281
-545.296	12.694	-0.242	-0.187
-544.281	-94.139	-0.352	-0.097
-543.266	-83.049	-0.231	-0.075
-542.252	780.451	-0.044	-0.120
-541.237	-20.818	-0.420	0.258
-540.223	29.290	-0.301	-0.256
-539.208	-134.708	0.167	0.020
-538.193	108.106	0.126	-0.150
-537.179	-200.000	0.024	0.138
-536.164	67.505	-0.138	0.141
-535.150	-9.607	0.094	0.063
-534.135	247.341	0.122	0.206
-533.121	182.270	0.225	0.333
-532.106	-200.000	0.036	0.256
-531.091	-88.325	0.135	-0.040
-530.077	-191.988	-0.191	0.002
-529.062	800.000	0.033	-0.093
-528.048	224.347	-0.154	0.249
-527.033	800.000	0.055	0.194
-526.018	-167.443	-0.120	0.005
-525.004	-200.000	-0.007	0.288
-523.989	-1.139	-0.110	0.078
-522.975	-84.258	0.270	0.086
-521.960	66.979	0.017	0.017
-520.945	25.111	-0.094	-0.078
-519.931	-72.623	-0.145	0.053
-518.916	-78.750	0.237	0.081
-517.902	-45.976	0.186	-0.092
-516.887	-70.111	0.180	-0.069
-515.872	132.154	0.109	0.140
-514.858	-200.000	0.022	-0.203
-513.843	-200.000	0.031	0.229
-512.829	800.000	-0.027	-0.116
-511.814	287.578	0.064	-0.116
-510.799	520.189	0.113	-0.264
-509.785	-27.931	0.219	0.127
-508.770	800.000	-0.037	0.115
-507.756	-97.912	-0.264	-0.068
-506.741	182.548	-0.090	0.133
-505.726	-53.250	-0.205	0.094
-504.712	-79.626	-0.258	-0.087
-503.697	800.000	0.046	-0.199
-502.683	-89.835	-0.433	0.127
-501.668	-200.000	0.036	-0.199
-500.653	-51.951	0.081	-0.037
-499.639	-138.236	-0.088	-0.010
-498.624	-122.839	0.135	0.022
-497.610	800.000	-0.029	-0.123
-496.595	-48.990	-0.210	0.100
-495.581	483.123	0.037	0.085
-494.566	23.257	0.092	-0.075
-493.551	-200.000	-0.007	-0.035
-492.537	43.184	-0.026	0.024
-491.522	-67.139	0.311	-0.123
-490.508	-200.000	-0.012	0.069
-489.493	-114.646	0.463	0.089
-488.478	312.050	-0.217	-0.407
-487.464	-105.226	-0.153	-0.035
-486.449	800.000	0.021	0.077
-485.435	-176.899	0.261	0.007
-484.420	11.214	0.054	-0.041
-483.405	47.244	0.260	0.242
-482.391	317.406	-0.163	-0.307
-481.376	-23.155	0.087	0.052
-480.362	-200.000	0.024	0.211
-479.347	-200.000	-0.020	0.183
-478.332	166.025	0.197	0.279
-477.318	252.979	-0.131	-0.223
-476.303	-131.757	0.173	-0.023
-475.289	-69.035	0.168	0.065
-474.274	-180.649	0.460	0.009
-473.259	128.806	0.097	0.123
-472.245	123.818	0.084	-0.106
-471.230	-200.000	0.039	0.196
-470.216	-200.000	0.009	-0.233
-469.201	260.920	0.133	0.229
-468.186	-72.977	-0.213	-0.078
-467.172	20.743	0.052	0.042
-466.157	-123.989	-0.195	0.031
-465.143	-75.432	0.317	0.113
-464.128	-163.127	0.097	-0.005
-463.113	274.583	0.124	0.219
-462.099	-146.193	0.295	-0.026
-461.084	-200.000	0.016	0.172
-460.070	-42.603	-0.146	-0.074
-459.055	800.000	0.047	-0.179
-458.040	144.354	-0.119	0.159
-457.026	-90.840	0.157	-0.045
-456.011	34.636	0.200	0.174
-454.997	-200.000	0.029	-0.155
-453.982	-30.002	-0.310	0.176
-452.968	147.416	0.173	-0.233
-451.953	800.000	-0.042	-0.117
-450.938	-24.445	0.191	-0.114
-449.924	-200.000	0.006	0.048
-448.909	28.792	0.185	-0.156
-447.895	166.232	0.007	0.010
-446.880	-63.778	-0.229	-0.094
-445.865	800.000	0.095	-0.308
-444.851	-154.930	-0.168	-0.011
-443.836	-200.000	0.070	-0.363
-442.822	-31.856	0.146	0.082
-441.807	81.026	0.085	0.092
-440.792	-23.532	-0.230	-0.138
-439.778	-49.785	0.036	0.017
-438.763	800.000	-0.052	-0.145
-437.749	112.944	0.161	-0.194
-436.734	800.000	0.045	-0.161
-435.719	-16.599	0.426	0.269
-434.705	238.312	-0.052	-0.086
-433.690	-200.000	-0.015	-0.185
-432.676	-14.443	0.242	0.155
-431.661	-66.044	0.264	-0.105
-430.646	10.236	-0.213	-0.162
-429.632	800.000	0.064	-0.226
-428.617	31.032	0.279	-0.239
-427.603	-200.000	-0.020	-0.155
-426.588	-82.560	0.276	-0.089
-425.573	-120.503	-0.122	0.021
-424.559	800.000	-0.039	0.167
-423.544	269.103	-0.203	0.354
-422.530	129.811	0.042	0.054
-421.515	-69.669	-0.344	-0.131
-420.500	-123.903	-0.093	0.015
-419.486	-70.277	0.308	-0.116
-418.471	-200.000	-0.009	-0.273
-417.457	137.518	-0.127	-0.166
-416.442	800.000	0.058	0.247
-415.428	262.806	0.227	0.392
-414.413	-114.002	0.056	-0.011
-413.398	-200.000	-0.014	0.144
-412.384	-69.053	-0.125	-0.048
-411.369	-120.909	0.385	-0.065
-410.355	220.569	0.063	0.100
-409.340	-137.050	-0.055	-0.006
-408.325	183.914	-0.115	-0.170
-407.311	19.891	-0.149	0.120
-406.296	161.569	0.019	0.026
-405.282	-30.103	0.165	0.094
-404.267	117.634	-0.052	-0.063
-403.252	-200.000	0.060	0.289
-402.238	800.000	-0.052	-0.202
-401.223	800.000	-0.115	-0.421
-400.209	-145.777	0.178	0.016
-399.194	-200.000	-0.026	0.306
-398.179	16.206	-0.290	0.228
-397.165	80.461	-0.096	0.102
-396.150	-12.620	0.169	0.110
-395.136	800.000	0.025	0.081
-394.121	259.896	0.110	0.190
-393.106	161.463	0.076	0.105
-392.092	-104.713	-0.021	0.005
-391.077	-115.979	-0.203	0.038
-390.063	800.000	-0.038	-0.122
-389.048	-125.760	0.340	-0.051
-388.033	-72.687	-0.072	-0.026
-387.019	400.337	-0.066	0.138
-386.004	27.268	0.099	-0.082
-384.990	-49.247	-0.199	-0.094
-383.975	188.656	-0.104	-0.155
-382.960	43.368	0.116	0.106
-381.946	247.023	-0.041	-0.069
-380.931	335.541	-0.091	0.176
-379.917	-100.783	-0.035	-0.009
-378.902	225.928	0.143	-0.230
-377.888	-4.784	0.063	-0.043
-376.873	-82.763	-0.124	-0.040
-375.858	-130.959	0.136	0.018
-374.844	800.000	-0.138	-0.478
-373.829	176.800	-0.150	-0.218
-372.815	-74.190	0.151	-0.054
-371.800	-73.051	0.503	-0.184
-370.785	-104.407	-0.089	0.020
-369.771	-62.394	-0.182	-0.075
-368.756	800.000	0.007	-0.020
-367.742	-160.770	0.204	-0.011
-366.727	-77.468	-0.295	0.102
-365.712	671.326	0.116	0.298
-364.698	-200.000	-0.012	0.175
-363.683	-19.270	-0.261	-0.161
-362.669	-28.737	-0.276	0.158
-361.654	-25.903	0.105	0.061
-360.639	65.769	0.192	0.194
-359.625	54.061	0.248	0.237
-358.610	220.262	0.243	-0.387
-357.596	-200.000	0.040	0.198
-356.581	-25.603	-0.096	0.056
-355.566	42.802	-0.239	0.216
-354.552	-153.509	0.141	0.010
-353.537	-200.000	-0.061	-0.486
-352.523	-200.000	0.065	-0.307
-351.508	-200.000	-0.012	-0.095
-350.493	-85.160	0.022	0.007
-349.479	-200.000	0.021	0.131
-348.464	784.809	-0.097	0.266
-347.450	-105.363	-0.334	0.076
-346.435	-43.185	0.151	-0.076
-345.420	53.058	0.024	-0.023
-344.406	-200.000	0.042	-0.263
-343.391	-143.292	-0.133	-0.013
-342.377	27.485	0.221	-0.185
-341.362	-29.123	-0.392	0.223
-340.348	272.170	0.059	-0.103
-339.333	-200.000	0.002	0.015
-338.318	144.616	-0.038	0.051
-337.304	-200.000	-0.012	0.081
-336.289	-26.633	0.223	-0.130
-335.275	-85.222	0.132	-0.041
-334.260	229.457	0.110	0.178
-333.245	-138.084	-0.136	0.015
-332.231	-0.923	0.128	0.090
-331.216	169.486	0.265	0.375
-330.202	-63.017	-0.342	-0.141
-329.187	-98.970	0.066	0.017
-328.172	286.550	0.043	-0.077
-327.158	-45.317	-0.248	-0.122
-326.143	-76.986	-0.168	0.058
-325.129	-200.000	-0.007	0.355
-324.114	113.331	0.077	-0.093
-323.099	239.065	0.225	-0.371
-322.085	-31.577	-0.394	0.220
-321.070	-55.657	0.396	-0.176
-320.056	500.830	-0.179	-0.410
-319.041	-200.000	0.053	-0.254
-318.026	-67.390	-0.106	-0.042
-317.012	-200.000	0.017	-0.126
-315.997	276.299	0.155	0.274
-314.983	800.000	-0.124	0.499
-313.968	-85.091	-0.214	0.067
-312.953	-200.000	0.006	0.211
-311.939	343.640	-0.196	0.381
-310.924	-200.000	-0.034	0.207
-309.910	-200.000	-0.015	0.304
-308.895	72.904	-0.105	0.108
-307.880	800.000	0.119	-0.343
-306.866	164.029	-0.251	-0.351
-305.851	-125.188	0.401	0.061
-304.837	-148.233	-0.215	-0.018
-303.822	80.594	-0.075	-0.080
-302.807	-97.376	-0.268	-0.069
-301.793	716.604	-0.046	-0.121
-300.778	538.063	-0.059	-0.140
-299.764	-189.556	0.122	0.001
-298.749	373.140	0.094	0.189
-297.735	-18.378	-0.134	0.083
-296.720	24.875	-0.251	0.206
-295.705	-39.023	-0.172	0.090
-294.691	-28.392	-0.253	0.145
-293.676	236.907	-0.130	-0.214
-292.662	-158.283	0.309	0.018
-291.647	213.749	0.051	0.080
-290.632	672.398	0.124	0.320
-289.618	-38.414	-0.201	0.106
-288.603	800.000	0.056	0.207
-287.589	-110.794	0.337	0.069
-286.574	-200.000	0.046	0.283
-285.559	-200.000	-0.002	-0.121
-284.545	800.000	-0.049	-0.177
-283.530	220.685	-0.065	0.103
-282.516	-55.035	0.143	-0.064
-281.501	-78.181	-0.270	-0.092
-280.486	800.000	-0.085	0.285
-279.472	199.692	-0.142	-0.216
-278.457	85.233	-0.189	-0.206
-277.443	-52.631	-0.207	0.095
-276.428	-200.000	-0.044	-0.272
-275.413	50.666	0.167	-0.157
-274.399	754.133	-0.091	-0.245
-273.384	-19.792	0.326	-0.199
-272.370	-200.000	-0.004	0.075
-271.355	141.422	-0.042	-0.055
-270.340	187.395	-0.209	-0.309
-269.326	323.763	0.069	-0.131
-268.311	-40.412	-0.047	-0.024
-267.297	-200.000	-0.022	-0.391
-266.282	8.738	-0.212	-0.158
-265.267	-112.873	0.321	-0.063
-264.253	-109.949	-0.440	-0.091
-263.238	-38.509	-0.344	0.180
-262.224	481.472	-0.084	0.189
-261.209	-200.000	0.008	-0.190
-260.195	800.000	0.032	0.120
-259.180	183.095	-0.139	-0.204
-258.165	-151.818	-0.150	-0.011
-257.151	-200.000	0.005	-0.372
-256.136	91.847	0.113	-0.126
-255.122	-29.740	0.200	0.113
-254.107	-101.735	0.060	-0.014
-253.092	-200.000	0.057	-0.270
-252.078	800.000	-0.075	-0.319
-251.063	-132.884	-0.026	0.003
-250.049	13.693	0.147	0.113
-249.034	551.438	-0.171	0.406
-248.019	-106.043	-0.502	-0.112
-247.005	-31.514	0.273	0.152
-245.990	-19.411	-0.278	0.170
-244.976	-200.000	-0.005	-0.183
-243.961	-200.000	-0.101	-0.514
-242.946	-71.578	-0.233	0.086
-241.932	-200.000	-0.057	0.312
-240.917	-200.000	-0.004	0.382
-239.903	-175.437	0.244	0.007
-238.888	-200.000	0.016	-0.130
-237.873	473.533	0.031	0.070
-236.859	45.218	-0.139	-0.127
-235.844	-43.318	-0.177	-0.089
-234.830	27.674	0.121	0.101
-233.815	-6.321	0.161	0.109
-232.800	68.372	-0.062	-0.063
-231.786	-72.092	0.253	-0.093
-230.771	245.343	-0.094	0.157
-229.757	-200.000	0.068	0.327
-228.742	-200.000	-0.024	0.465
-227.727	800.000	0.056	0.165
-226.713	63.234	0.050	0.050
-225.698	800.000	-0.086	0.251
-224.684	-200.000	-0.017	-0.081
-223.669	608.986	-0.042	-0.105
-222.655	-130.944	0.123	0.016
-221.640	-193.479	-0.356	-0.003
-220.625	-90.513	-0.320	-0.092
-219.611	2.113	0.009	-0.007
-218.596	800.000	-0.047	0.153
-217.582	-200.000	-0.041	-0.227
-216.567	-52.720	0.316	0.144
-215.552	39.403	0.350	0.310
-214.538	-96.234	-0.307	0.081
-213.523	-122.764	0.219	-0.035
-212.509	237.427	-0.148	-0.242
-211.494	-155.567	-0.318	0.020
-210.479	185.178	0.151	-0.222
-209.465	36.881	0.188	-0.165
-208.450	800.000	0.030	-0.103
-207.436	-74.704	0.232	0.082
-206.421	33.901	-0.148	0.128
-205.406	153.441	-0.123	0.166
-204.392	646.455	0.071	-0.179
-203.377	-200.000	0.019	0.094
-202.363	99.025	0.072	-0.082
-201.348	108.053	-0.054	0.064
-200.333	800.000	-0.084	-0.313
-199.319	104.208	0.151	-0.175
-198.304	-200.000	0.000	0.139
-197.290	-200.000	0.068	-0.416
-196.275	-112.330	0.087	0.017
-195.260	-120.033	0.140	0.024
-194.246	-200.000	0.036	-0.210
-193.231	793.936	0.085	-0.231
-192.217	-200.000	0.040	-0.353
-191.202	-200.000	0.009	-0.275
-190.187	-177.145	-0.460	0.011
-189.173	-119.601	0.258	0.044
-188.158	-122.971	0.154	0.024
-187.144	-200.000	0.044	0.000
-186.129	194.675	0.139	0.208
-185.114	-137.519	0.042	0.005
-184.100	46.608	-0.263	-0.241
-183.085	-91.864	-0.334	-0.093
-182.071	40.061	0.053	0.047
-181.056	51.520	-0.080	0.075
-180.042	-124.202	-0.202	0.031
-179.027	520.341	0.083	0.193
-178.012	260.299	0.063	0.107
-176.998	36.662	0.250	0.218
-175.983	-200.000	0.009	0.159
-174.969	800.000	0.104	0.305
-173.954	239.181	0.114	0.187
-172.939	-37.516	-0.232	0.122
-171.925	-87.950	0.266	-0.079
-170.910	-200.000	0.055	0.339
-169.896	252.214	0.167	-0.280
-168.881	-56.256	0.206	0.090
-167.866	-77.973	0.182	-0.062
-166.852	108.803	0.142	-0.167
-165.837	27.866	0.317	0.263
-164.823	-74.271	0.375	-0.134
-163.808	556.586	-0.133	0.316
-162.793	-40.104	-0.404	-0.208
-161.779	104.891	-0.214	0.249
-160.764	-200.000	0.003	-0.071
-159.750	-200.000	0.064	0.340
-158.735	-78.118	0.314	0.107
-157.720	-178.794	0.136	-0.003
-156.706	44.051	0.466	-0.421
-155.691	-112.728	0.250	0.049
-154.677	131.673	0.135	0.171
-153.662	121.691	0.065	-0.080
-152.647	-200.000	0.002	0.231
-151.633	-29.289	-0.081	-0.046
-150.618	106.540	-0.129	0.151
-149.604	379.138	-0.016	-0.033
-148.589	119.697	0.076	0.093
-147.574	-180.311	-0.197	0.004
-146.560	-103.917	-0.189	0.044
-145.545	388.334	0.157	-0.319
-144.531	-83.039	-0.219	0.070
-143.516	138.935	0.075	0.098
-142.502	49.759	0.352	0.327
-141.487	-200.000	-0.073	-0.413
-140.472	-200.000	-0.010	-0.284
-139.458	-9.285	-0.202	0.133
-138.443	100.633	-0.287	0.329
-137.429	-64.213	-0.341	0.137
-136.414	120.333	0.110	-0.135
-135.399	411.262	-0.045	0.095
-134.385	-19.978	-0.285	-0.173
-133.370	40.848	0.331	0.294
-132.356	800.000	-0.077	0.245
-131.341	-66.345	0.198	0.078
-130.326	134.271	-0.077	0.099
-129.312	-111.954	-0.118	-0.024
-128.297	-176.677	-0.109	-0.003
-127.283	-14.143	-0.110	-0.070
-126.268	-96.685	-0.356	-0.092
-125.253	165.849	-0.232	0.323
-124.239	-89.057	-0.133	0.039
-123.224	-200.000	0.016	-0.393
-122.210	-200.000	-0.020	0.148
