DTS Sentinel unit serial number:	SN413079Multiplexer serial number:	ORYXHardware model number:	OX4-SRSoftware version number:	ORYX F/W v4.00 Oryx Data Collector v3.7.2.0data status	okinstallation	princeton_trtdifferential loss correction	single-endedforward channel	channel 4reverse channel	N/Adate	2019/09/18time	12:17:35forward acquisition time	60.00reverse acquisition time	0.00gamma	496.2192k internal	0.2308k external	0.2308temperature offset calibration	0.9986default loss term (dB/km)	0.3790temperature slope calibration	1.0000multiplexer offset coefficient	1.0000multiplexer slope coefficient	1.0000fibre end	0.00T internal ref (°C)	31.81T ext. ref 1 (°C)	0.50T ext. ref 2 (°C)	28.42length (m)	temperature (°C)	Stokes	anti-Stokes-747.200	-194.036	0.198	0.002
-746.185	41.456	-0.280	0.257
-745.171	800.000	-0.039	-0.133
-744.156	386.437	-0.159	-0.333
-743.142	-200.000	0.029	-0.253
-742.127	-5.519	0.158	0.110
-741.112	89.613	-0.061	-0.069
-740.098	136.956	0.074	-0.098
-739.083	309.841	-0.096	0.183
-738.069	-133.038	0.068	0.009
-737.054	-200.000	-0.010	-0.200
-736.039	-200.000	-0.014	-0.277
-735.025	327.567	-0.095	-0.185
-734.010	-54.920	-0.271	-0.124
-732.996	-200.000	0.082	-0.448
-731.981	800.000	0.054	0.227
-730.966	201.206	-0.139	-0.217
-729.952	-110.093	-0.323	-0.069
-728.937	15.892	-0.168	-0.134
-727.923	-126.671	-0.301	-0.045
-726.908	-110.912	-0.041	-0.009
-725.894	800.000	0.090	0.279
-724.879	-42.520	-0.243	0.126
-723.864	800.000	0.085	-0.299
-722.850	8.831	-0.362	-0.277
-721.835	-100.407	-0.429	0.108
-720.821	800.000	0.117	-0.328
-719.806	578.083	-0.085	-0.212
-718.791	206.626	-0.171	0.270
-717.777	-200.000	-0.022	0.424
-716.762	-200.000	-0.061	-0.343
-715.748	-200.000	-0.004	-0.248
-714.733	800.000	0.013	0.044
-713.718	-45.844	-0.287	-0.144
-712.704	-200.000	0.057	-0.514
-711.689	609.403	-0.207	-0.525
-710.675	581.481	0.054	0.135
-709.660	-159.247	-0.186	-0.011
-708.645	-32.205	-0.396	-0.225
-707.631	800.000	-0.040	-0.116
-706.616	-175.800	-0.422	0.011
-705.602	264.929	0.121	-0.214
-704.587	800.000	0.027	0.115
-703.572	109.393	0.160	0.195
-702.558	-60.526	-0.225	0.097
-701.543	-200.000	-0.003	-0.100
-700.529	164.031	-0.253	-0.362
-699.514	28.032	-0.191	-0.163
-698.499	-157.347	0.010	0.001
-697.485	120.426	-0.279	0.352
-696.470	800.000	-0.085	0.330
-695.456	800.000	0.077	-0.309
-694.441	748.421	-0.037	0.101
-693.426	-200.000	0.010	-0.346
-692.412	-120.556	-0.204	-0.035
-691.397	188.409	-0.140	0.212
-690.383	261.116	-0.168	-0.294
-689.368	-63.175	0.163	-0.068
-688.354	83.648	-0.148	-0.164
-687.339	69.149	0.061	0.064
-686.324	690.773	-0.043	-0.115
-685.310	176.884	0.146	-0.215
-684.295	-129.456	0.390	0.055
-683.281	-46.897	-0.061	-0.030
-682.266	717.216	-0.030	-0.082
-681.251	800.000	-0.058	-0.176
-680.237	106.138	0.043	-0.052
-679.222	-90.280	0.198	0.058
-678.208	49.712	-0.158	0.151
-677.193	800.000	0.091	-0.294
-676.178	583.261	-0.212	0.528
-675.164	-64.548	-0.121	-0.050
-674.149	-46.479	0.125	0.062
-673.135	-79.173	-0.092	-0.032
-672.120	-109.923	-0.118	0.025
-671.105	-200.000	-0.009	-0.209
-670.091	21.595	0.171	-0.141
-669.076	-145.262	-0.276	0.025
-668.062	132.921	-0.220	0.288
-667.047	371.796	0.036	0.074
-666.032	-200.000	0.014	0.089
-665.018	-5.095	0.147	-0.102
-664.003	486.166	0.129	0.298
-662.989	-16.658	0.037	0.024
-661.974	-200.000	-0.020	0.134
-660.959	72.604	-0.188	-0.199
-659.945	776.309	-0.055	0.153
-658.930	-200.000	-0.014	0.147
-657.916	290.727	0.131	-0.242
-656.901	285.013	0.144	-0.262
-655.886	128.118	0.128	-0.165
-654.872	-24.663	-0.311	0.187
-653.857	-200.000	0.074	-0.411
-652.843	-162.986	0.104	-0.005
-651.828	-58.878	-0.343	0.150
-650.814	768.555	-0.160	0.440
-649.799	800.000	-0.103	-0.290
-648.784	-188.330	0.155	-0.002
-647.770	-82.355	-0.226	-0.074
-646.755	-44.455	0.063	-0.032
-645.741	-45.472	-0.229	0.115
-644.726	108.569	0.073	0.088
-643.711	800.000	0.017	-0.068
-642.697	-200.000	-0.002	-0.181
-641.682	-200.000	0.008	-0.100
-640.668	77.813	0.268	-0.289
-639.653	-84.804	-0.069	0.022
-638.638	-200.000	0.018	-0.321
-637.624	38.474	0.073	-0.065
-636.609	-77.642	-0.450	0.158
-635.595	48.900	0.085	-0.081
-634.580	800.000	-0.034	0.128
-633.565	591.453	-0.111	-0.277
-632.551	-137.610	-0.175	-0.020
-631.536	-54.484	0.023	-0.011
-630.522	105.407	0.123	0.147
-629.507	318.563	-0.040	-0.077
-628.492	421.099	0.163	-0.354
-627.478	-200.000	0.063	0.333
-626.463	-72.829	-0.234	0.087
-625.449	31.334	-0.324	-0.282
-624.434	-200.000	0.000	-0.039
-623.419	-200.000	0.009	-0.066
-622.405	677.569	0.064	0.167
-621.390	-200.000	0.003	-0.067
-620.376	-39.049	-0.297	0.158
-619.361	187.135	-0.097	-0.147
-618.346	370.826	0.201	-0.413
-617.332	105.201	0.253	0.302
-616.317	89.267	-0.123	-0.139
-615.303	198.487	0.200	-0.309
-614.288	-34.054	-0.230	0.128
-613.273	-66.809	0.050	-0.020
-612.259	570.575	-0.038	0.095
-611.244	-154.316	-0.213	-0.015
-610.230	71.219	-0.128	-0.134
-609.215	595.367	-0.051	-0.127
-608.201	-127.435	-0.237	-0.035
-607.186	143.765	0.110	-0.148
-606.171	121.277	0.110	0.138
-605.157	5.087	0.230	0.171
-604.142	149.201	0.109	-0.150
-603.128	-82.893	0.290	0.095
-602.113	180.836	0.076	0.112
-601.098	-104.663	-0.221	-0.052
-600.084	-122.045	0.194	-0.032
-599.069	82.162	0.250	-0.274
-598.055	-0.184	-0.249	0.179
-597.040	-80.609	0.141	0.047
-596.025	-59.037	-0.169	0.074
-595.011	45.762	-0.187	0.174
-593.996	80.172	0.192	0.209
-592.982	-72.589	-0.058	-0.022
-591.967	242.898	-0.143	0.242
-590.952	148.200	-0.122	-0.167
-589.938	-200.000	0.044	0.203
-588.923	-200.000	0.059	-0.296
-587.909	-174.021	0.219	0.006
-586.894	-200.000	-0.002	-0.136
-585.879	-86.599	0.157	0.049
-584.865	194.447	0.136	-0.208
-583.850	240.329	0.041	-0.069
-582.836	800.000	0.031	0.112
-581.821	-200.000	-0.013	-0.404
-580.806	800.000	-0.085	-0.238
-579.792	221.799	-0.076	-0.124
-578.777	245.193	-0.197	-0.335
-577.763	45.874	0.223	-0.208
-576.748	-150.844	-0.033	0.003
-575.733	-100.084	-0.234	-0.059
-574.719	-99.055	-0.212	-0.054
-573.704	-200.000	0.007	-0.063
-572.690	-200.000	0.029	-0.136
-571.675	-55.296	-0.396	-0.180
-570.661	800.000	0.036	-0.152
-569.646	-35.745	-0.160	-0.088
-568.631	0.510	-0.269	0.194
-567.617	770.607	-0.130	-0.358
-566.602	340.586	-0.066	0.130
-565.588	-25.928	-0.306	0.182
-564.573	-145.482	0.025	0.002
-563.558	-39.247	-0.336	-0.178
-562.544	800.000	0.081	-0.292
-561.529	-200.000	-0.030	-0.131
-560.515	35.807	-0.081	0.072
-559.500	-19.915	-0.266	0.166
-558.485	-127.249	-0.124	0.018
-557.471	-68.005	-0.215	0.085
-556.456	-137.169	-0.155	-0.018
-555.442	-200.000	-0.003	0.040
-554.427	152.932	-0.402	0.555
-553.412	-76.872	-0.152	-0.054
-552.398	303.468	-0.225	-0.421
-551.383	800.000	0.034	0.134
-550.369	800.000	0.063	-0.193
-549.354	-109.033	0.196	-0.042
-548.339	-8.367	-0.163	-0.111
-547.325	-73.568	-0.304	-0.112
-546.310	115.121	0.130	-0.160
-545.296	-200.000	-0.008	0.056
-544.281	36.431	0.255	0.227
-543.266	-152.916	-0.262	0.019
-542.252	87.412	0.063	-0.071
-541.237	783.184	-0.170	0.470
-540.223	-125.770	0.117	0.018
-539.208	-44.150	-0.188	-0.095
-538.193	800.000	-0.063	-0.260
-537.179	-105.174	0.299	-0.069
-536.164	33.152	0.108	-0.095
-535.150	97.308	-0.110	0.127
-534.135	-52.256	-0.217	0.101
-533.121	248.885	-0.129	-0.219
-532.106	319.661	0.043	-0.082
-531.091	-51.607	0.161	-0.076
-530.077	800.000	-0.069	-0.207
-529.062	-93.331	-0.258	-0.072
-528.048	800.000	0.036	-0.153
-527.033	71.825	-0.190	0.199
-526.018	-86.282	-0.207	0.064
-525.004	-200.000	0.019	-0.101
-523.989	-10.780	0.193	0.129
-522.975	-162.261	-0.246	-0.012
-521.960	2.505	-0.195	-0.142
-520.945	-31.705	-0.145	-0.082
-519.931	-100.923	0.187	-0.046
-518.916	-123.827	0.065	0.010
-517.902	98.375	-0.036	0.041
-516.887	-101.964	-0.266	0.065
-515.872	256.257	-0.137	0.236
-514.858	60.314	-0.133	-0.133
-513.843	-60.169	-0.251	-0.108
-512.829	-70.949	-0.377	0.143
-511.814	-200.000	0.002	0.047
-510.799	800.000	-0.078	-0.275
-509.785	800.000	-0.043	0.121
-508.770	-175.423	-0.182	0.005
-507.756	-200.000	-0.014	0.407
-506.741	-200.000	0.081	-0.367
-505.726	-81.432	0.266	-0.088
-504.712	-69.396	0.198	0.076
-503.697	168.250	-0.048	-0.069
-502.683	-200.000	-0.005	0.243
-501.668	155.897	0.052	0.073
-500.653	-8.467	0.171	-0.116
-499.639	-46.298	-0.214	0.106
-498.624	-29.885	0.136	0.078
-497.610	800.000	-0.014	0.051
-496.595	-113.568	0.118	0.023
-495.581	107.711	0.091	0.109
-494.566	207.860	0.146	-0.229
-493.551	213.484	-0.163	0.259
-492.537	-102.482	0.205	0.049
-491.522	483.153	-0.077	-0.176
-490.508	800.000	0.016	-0.046
-489.493	194.578	0.046	-0.069
-488.478	-200.000	0.000	-0.077
-487.464	-82.021	0.174	-0.057
-486.449	-200.000	-0.056	-0.309
-485.435	-83.439	0.314	-0.101
-484.420	23.556	0.115	0.095
-483.405	-200.000	-0.002	0.140
-482.391	-55.158	0.215	-0.098
-481.376	-72.727	0.078	-0.029
-480.362	-139.173	-0.192	-0.021
-479.347	-52.093	0.113	-0.053
-478.332	317.507	0.143	-0.273
-477.318	-200.000	0.007	-0.064
-476.303	-200.000	0.070	0.336
-475.289	-74.076	-0.087	-0.032
-474.274	-125.664	0.134	-0.020
-473.259	-29.006	0.278	-0.161
-472.245	-200.000	-0.000	0.312
-471.230	119.432	-0.236	-0.294
-470.216	-86.848	-0.123	0.038
-469.201	-29.146	-0.248	-0.143
-468.186	-69.852	0.292	-0.112
-467.172	800.000	-0.048	-0.157
-466.157	90.128	0.191	-0.214
-465.143	340.807	-0.122	0.240
-464.128	-200.000	0.006	-0.097
-463.113	69.841	-0.160	0.166
-462.099	41.882	-0.114	0.104
-461.084	800.000	-0.105	-0.322
-460.070	-43.463	0.338	-0.172
-459.055	4.783	-0.200	0.148
-458.040	-148.217	-0.171	0.014
-457.026	-83.688	0.369	-0.118
-456.011	-120.023	-0.254	-0.044
-454.997	-40.724	0.375	-0.195
-453.982	-200.000	-0.012	0.093
-452.968	-148.469	-0.455	-0.037
-451.953	374.568	-0.224	-0.460
-450.938	800.000	-0.062	-0.204
-449.924	126.637	-0.022	-0.029
-448.909	525.054	0.128	-0.302
-447.895	48.730	-0.104	0.098
-446.880	-18.715	0.136	0.085
-445.865	656.785	-0.071	-0.185
-444.851	-94.480	0.194	-0.053
-443.836	-39.407	0.211	0.111
-442.822	-73.663	0.337	-0.123
-441.807	-200.000	-0.005	0.165
-440.792	551.764	-0.091	-0.219
-439.778	-85.394	0.084	-0.026
-438.763	201.468	0.058	0.090
-437.749	-129.509	-0.219	-0.031
-436.734	413.447	-0.107	-0.229
-435.719	423.437	0.008	0.018
-434.705	-200.000	-0.091	0.459
-433.690	99.898	0.246	0.286
-432.676	115.189	-0.103	-0.126
-431.661	-84.431	0.152	0.048
-430.646	-178.967	0.375	0.008
-429.632	800.000	-0.048	0.171
-428.617	-33.853	0.201	-0.111
-427.603	-24.900	0.309	0.184
-426.588	-200.000	-0.038	-0.225
-425.573	-146.349	0.028	0.002
-424.559	298.040	-0.108	-0.199
-423.544	-128.122	-0.156	-0.022
-422.530	-96.166	0.150	-0.040
-421.515	371.991	0.089	0.180
-420.500	800.000	0.059	-0.187
-419.486	-81.208	0.303	-0.100
-418.471	-129.882	-0.157	-0.022
-417.457	-142.231	0.092	0.009
-416.442	800.000	-0.057	-0.251
-415.428	35.173	-0.162	0.143
-414.413	283.207	0.161	-0.290
-413.398	-49.444	0.026	0.012
-412.384	-85.755	-0.121	0.038
-411.369	49.680	0.178	-0.169
-410.355	-200.000	-0.034	0.339
-409.340	305.545	0.025	-0.046
-408.325	-200.000	-0.013	0.229
-407.311	-178.210	0.159	-0.004
-406.296	-141.715	-0.234	-0.024
-405.282	51.769	-0.140	-0.133
-404.267	-65.483	0.140	0.056
-403.252	-200.000	-0.006	0.287
-402.238	-47.810	0.133	0.065
-401.223	69.773	-0.132	-0.136
-400.209	-200.000	0.035	0.211
-399.194	738.498	-0.031	0.084
-398.179	-94.314	-0.300	-0.082
-397.165	-74.257	0.344	-0.125
-396.150	-96.176	0.094	-0.025
-395.136	-200.000	-0.023	-0.116
-394.121	-174.236	-0.180	0.005
-393.106	800.000	0.020	0.069
-392.092	-99.434	0.198	0.050
-391.077	-90.328	-0.319	-0.093
-390.063	508.893	0.055	0.127
-389.048	-200.000	-0.027	0.311
-388.033	-200.000	0.036	0.334
-387.019	278.511	-0.037	-0.066
-386.004	655.762	-0.158	-0.406
-384.990	-175.127	0.233	0.006
-383.975	-7.669	0.267	0.181
-382.960	800.000	-0.110	-0.327
-381.946	-197.692	-0.490	0.003
-380.931	73.464	-0.065	0.068
-379.917	800.000	-0.117	0.375
-378.902	-200.000	0.004	0.075
-377.888	574.207	-0.135	-0.330
-376.873	-2.433	-0.165	-0.116
-375.858	-30.993	0.296	0.167
-374.844	-149.296	0.388	0.031
-373.829	-200.000	0.014	-0.256
-372.815	575.223	-0.164	-0.401
-371.800	-200.000	-0.023	0.119
-370.785	-74.026	-0.341	0.124
-369.771	298.139	0.131	0.241
-368.756	-200.000	0.031	0.376
-367.742	476.912	0.051	0.116
-366.727	-85.250	-0.153	-0.048
-365.712	-112.222	-0.215	0.043
-364.698	619.627	-0.039	-0.098
-363.683	-200.000	0.036	0.219
-362.669	-26.929	0.213	0.125
-361.654	-200.000	0.044	-0.394
-360.639	-151.386	0.100	-0.007
-359.625	-108.108	-0.273	-0.059
-358.610	-44.318	-0.233	-0.117
-357.596	-9.143	-0.209	-0.140
-356.581	-155.778	-0.192	0.012
-355.566	-109.250	0.460	0.098
-354.552	-129.653	-0.214	0.030
-353.537	415.035	-0.020	0.043
-352.523	800.000	-0.033	0.097
-351.508	-57.840	-0.363	-0.159
-350.493	-200.000	0.018	0.192
-349.479	-95.973	-0.205	0.055
-348.464	-72.867	0.293	0.108
-347.450	169.537	0.073	0.104
-346.435	-106.771	0.175	-0.039
-345.420	-23.613	0.143	-0.086
-344.406	577.762	-0.092	0.226
-343.391	75.439	0.072	-0.076
-342.377	437.801	-0.012	-0.027
-341.362	-200.000	0.027	0.132
-340.348	112.135	-0.109	-0.132
-339.333	-74.160	-0.254	0.092
-338.318	330.540	0.144	-0.277
-337.304	-200.000	-0.056	0.329
-336.289	559.236	-0.136	0.329
-335.275	154.538	0.222	0.304
-334.260	-118.874	-0.171	0.030
-333.245	-200.000	-0.019	0.202
-332.231	-89.165	0.319	-0.094
-331.216	-53.824	-0.325	0.148
-330.202	-171.799	0.116	0.004
-329.187	195.439	-0.070	-0.106
-328.172	-54.707	0.120	-0.054
-327.158	722.657	0.097	0.258
-326.143	-35.649	0.234	0.127
-325.129	-180.274	0.242	0.005
-324.114	-88.350	0.142	-0.043
-323.099	-193.775	0.214	0.002
-322.085	-0.307	0.110	0.078
-321.070	24.032	0.155	0.128
-320.056	-45.726	-0.180	0.089
-319.041	-200.000	-0.016	0.154
-318.026	-57.305	-0.112	0.049
-317.012	-200.000	0.010	-0.052
-315.997	162.321	0.126	-0.176
-314.983	66.897	-0.125	-0.128
-313.968	53.922	0.120	-0.115
-312.953	672.801	-0.036	0.093
-311.939	135.710	0.092	0.120
-310.924	800.000	0.018	0.072
-309.910	-87.580	-0.219	0.066
-308.895	278.646	-0.276	0.492
-307.880	-58.881	-0.124	-0.054
-306.866	-200.000	0.038	0.264
-305.851	-105.443	-0.023	0.005
-304.837	-44.479	-0.250	0.125
-303.822	800.000	-0.030	0.114
-302.807	246.490	0.163	0.275
-301.793	-58.029	0.228	0.099
-300.778	-41.253	-0.142	-0.073
-299.764	512.438	-0.086	-0.201
-298.749	233.567	-0.078	0.128
-297.735	-134.512	0.209	0.026
-296.720	-59.461	0.137	-0.059
-295.705	-12.955	-0.314	-0.204
-294.691	-38.047	0.096	-0.051
-293.676	-89.239	0.139	0.041
-292.662	-89.599	0.483	0.141
-291.647	-200.000	0.013	0.107
-290.632	-153.319	0.123	-0.009
-289.618	-200.000	-0.046	0.629
-288.603	50.753	-0.067	0.063
-287.589	-112.709	0.091	0.018
-286.574	86.769	0.082	-0.090
-285.559	-93.563	0.246	-0.068
-284.545	94.984	-0.108	-0.123
-283.530	-63.088	0.021	-0.009
-282.516	663.297	-0.019	-0.048
-281.501	800.000	0.112	0.463
-280.486	9.549	0.123	0.093
-279.472	-73.015	-0.252	-0.092
-278.457	-22.845	0.189	0.114
-277.443	-24.256	0.119	-0.071
-276.428	127.743	0.181	-0.229
-275.413	243.527	-0.125	-0.210
-274.399	-200.000	-0.042	-0.236
-273.384	-115.052	-0.217	-0.041
-272.370	-24.610	-0.164	-0.097
-271.355	-95.317	-0.267	-0.072
-270.340	324.577	0.152	-0.291
-269.326	-77.506	-0.112	-0.039
-268.311	-147.717	-0.203	0.017
-267.297	-15.413	-0.019	-0.012
-266.282	127.562	-0.187	-0.238
-265.267	36.483	0.066	0.058
-264.253	106.987	-0.106	-0.126
-263.238	-131.035	0.338	0.045
-262.224	-200.000	-0.035	0.348
-261.209	64.692	0.113	0.114
-260.195	95.643	0.253	0.288
-259.180	-121.989	-0.114	-0.019
-258.165	533.372	-0.074	-0.175
-257.151	-9.858	0.220	0.146
-256.136	-47.266	0.152	0.074
-255.122	450.584	-0.064	0.142
-254.107	-145.230	0.352	0.032
-253.092	-19.236	0.310	0.192
-252.078	-146.068	0.279	0.025
-251.063	-31.567	0.124	-0.070
-250.049	-151.040	0.143	0.011
-249.034	-200.000	0.009	0.286
-248.019	800.000	-0.103	0.320
-247.005	-200.000	-0.002	-0.082
-245.990	165.143	-0.324	0.456
-244.976	800.000	0.016	-0.054
-243.961	172.406	0.178	0.256
-242.946	32.727	-0.097	0.083
-241.932	-31.700	-0.154	0.086
-240.917	336.997	0.057	-0.111
-239.903	-200.000	-0.031	0.299
-238.888	-200.000	0.078	-0.369
-237.873	800.000	0.114	-0.343
-236.859	-109.844	0.151	-0.032
-235.844	-124.032	0.144	0.023
-234.830	87.776	-0.153	0.169
-233.815	-200.000	-0.060	-0.373
-232.800	800.000	-0.023	0.073
-231.786	542.131	-0.052	-0.124
-230.771	16.844	0.172	0.136
-229.757	-86.113	0.267	-0.082
-228.742	-200.000	-0.052	0.307
-227.727	800.000	0.067	0.236
-226.713	-160.884	-0.168	-0.009
-225.698	-100.171	-0.082	0.020
-224.684	-200.000	-0.018	0.203
-223.669	54.313	0.086	-0.082
-222.655	15.765	0.108	-0.085
-221.640	124.006	-0.191	0.239
-220.625	-200.000	0.006	-0.108
-219.611	-181.510	-0.338	0.007
-218.596	800.000	-0.028	0.105
-217.582	-24.994	0.336	-0.199
-216.567	14.635	0.114	0.089
-215.552	-200.000	-0.006	0.182
-214.538	-138.291	-0.294	0.032
-213.523	-144.400	-0.161	0.015
-212.509	-17.030	-0.281	0.177
-211.494	-82.086	0.319	0.104
-210.479	37.227	0.079	-0.069
-209.465	-107.157	-0.203	0.045
-208.450	-87.884	-0.175	-0.052
-207.436	-49.957	0.072	-0.034
-206.421	-25.236	0.180	0.106
-205.406	110.341	0.142	-0.170
-204.392	-4.824	0.180	-0.123
-203.377	351.726	0.062	-0.123
-202.363	-141.617	0.120	-0.012
-201.348	43.883	0.151	-0.137
-200.333	-73.780	0.097	-0.035
-199.319	-200.000	-0.064	0.295
-198.304	-200.000	-0.007	-0.035
-197.290	24.254	-0.140	0.115
-196.275	651.408	0.107	-0.273
-195.260	-106.070	0.313	0.070
-194.246	249.758	0.319	0.538
-193.231	70.608	-0.089	0.092
-192.217	11.634	-0.187	-0.143
-191.202	53.589	0.299	0.285
-190.187	-200.000	0.011	0.049
-189.173	508.658	0.119	-0.275
-188.158	-160.966	0.042	0.002
-187.144	296.004	-0.159	-0.289
-186.129	99.124	0.148	-0.170
-185.114	46.736	-0.208	0.192
-184.100	-86.747	0.071	0.022
-183.085	-8.483	0.251	0.168
-182.071	-200.000	0.018	-0.253
-181.056	-7.331	0.227	-0.153
-180.042	-95.794	0.192	-0.051
-179.027	-200.000	0.013	0.234
-178.012	32.720	-0.114	-0.098
-176.998	-98.367	0.181	0.046
-175.983	85.935	-0.143	-0.156
-174.969	800.000	0.086	0.338
-173.954	800.000	0.031	0.096
-172.939	-163.055	-0.389	-0.019
-171.925	330.246	-0.068	0.131
-170.910	-200.000	0.005	0.172
-169.896	284.885	0.152	0.271
-168.881	-75.097	-0.243	0.086
-167.866	53.946	0.162	-0.155
-166.852	-79.771	0.075	-0.025
-165.837	-131.838	0.247	-0.032
-164.823	-114.301	-0.220	0.042
-163.808	-7.954	-0.023	-0.016
-162.793	-113.480	-0.142	0.028
-161.779	-200.000	0.013	0.214
-160.764	-31.816	0.276	0.154
-159.750	-200.000	0.076	-0.364
-158.735	21.607	0.094	0.076
-157.720	95.778	0.075	0.085
-156.706	-120.088	0.232	0.039
-155.691	8.479	0.361	-0.270
-154.677	-36.045	-0.318	0.171
-153.662	560.567	0.108	0.258
-152.647	-200.000	0.027	-0.197
-151.633	-2.808	-0.051	-0.036
-150.618	800.000	0.049	0.163
-149.604	-143.122	0.441	0.042
-148.589	15.575	-0.156	-0.122
-147.574	-200.000	0.088	0.577
-146.560	-130.290	-0.185	-0.025
-145.545	-119.192	-0.501	-0.087
-144.531	-140.470	-0.010	0.001
-143.516	495.825	-0.089	0.202
-142.502	19.793	-0.436	0.348
-141.487	-200.000	0.019	0.391
-140.472	-46.461	0.242	0.118
-139.458	-35.450	-0.321	0.173
-138.443	156.617	0.092	0.126
-137.429	800.000	0.093	-0.276
-136.414	-30.248	-0.136	-0.077
-135.399	111.338	0.203	-0.243
-134.385	-200.000	-0.023	-0.134
-133.370	-200.000	-0.025	0.315
-132.356	483.329	-0.022	-0.049
-131.341	-36.559	-0.101	0.054
-130.326	447.997	0.155	0.338
-129.312	-92.187	0.251	0.070
-128.297	252.171	-0.159	-0.268
-127.283	295.782	0.149	0.271
-126.268	-200.000	-0.061	-0.276
-125.253	-97.636	-0.304	0.078
-124.239	100.546	0.085	0.097
-123.224	-54.207	0.240	-0.108
-122.210	515.472	-0.137	0.317
