DTS Sentinel unit serial number:	SN413079Multiplexer serial number:	ORYXHardware model number:	OX4-SRSoftware version number:	ORYX F/W v4.00 Oryx Data Collector v3.7.2.0data status	okinstallation	princeton_trtdifferential loss correction	single-endedforward channel	channel 4reverse channel	N/Adate	2019/09/19time	02:25:35forward acquisition time	60.00reverse acquisition time	0.00gamma	496.2192k internal	0.2340k external	0.2340temperature offset calibration	1.0028default loss term (dB/km)	0.3790temperature slope calibration	1.0000multiplexer offset coefficient	1.0000multiplexer slope coefficient	1.0000fibre end	0.00T internal ref (°C)	21.03T ext. ref 1 (°C)	0.68T ext. ref 2 (°C)	14.67length (m)	temperature (°C)	Stokes	anti-Stokes-747.200	-200.000	0.022	0.162
-746.185	-200.000	-0.007	0.453
-745.171	63.011	-0.186	-0.187
-744.156	-49.663	0.211	0.101
-743.142	-140.970	0.109	-0.011
-742.127	438.786	-0.213	0.465
-741.112	800.000	-0.110	0.358
-740.098	767.212	-0.149	0.407
-739.083	449.257	0.121	0.267
-738.069	24.264	-0.091	0.075
-737.054	211.628	0.071	0.112
-736.039	-24.630	0.181	0.108
-735.025	-200.000	0.051	-0.264
-734.010	290.795	0.104	-0.190
-732.996	43.748	0.072	0.066
-731.981	-58.768	-0.086	-0.037
-730.966	-23.633	-0.117	0.070
-729.952	-176.159	-0.113	0.003
-728.937	-200.000	0.021	-0.363
-727.923	68.633	-0.208	-0.214
-726.908	-200.000	-0.008	0.118
-725.894	800.000	0.068	-0.250
-724.879	104.502	-0.041	0.048
-723.864	111.730	0.134	-0.162
-722.850	-200.000	-0.013	0.158
-721.835	-200.000	0.007	-0.139
-720.821	-200.000	-0.034	-0.447
-719.806	-128.620	-0.140	0.020
-718.791	63.109	-0.057	0.057
-717.777	-157.933	0.255	-0.015
-716.762	54.833	-0.172	0.167
-715.748	-200.000	0.027	0.156
-714.733	-200.000	-0.048	-0.405
-713.718	-107.865	-0.071	-0.015
-712.704	8.800	-0.014	-0.010
-711.689	1.492	-0.410	-0.296
-710.675	348.561	-0.029	0.058
-709.660	-39.932	0.168	-0.088
-708.645	-54.764	0.326	-0.148
-707.631	800.000	0.104	0.359
-706.616	101.161	0.128	0.149
-705.602	-141.606	-0.219	-0.022
-704.587	-200.000	-0.003	0.083
-703.572	491.311	-0.022	0.050
-702.558	438.657	-0.152	-0.331
-701.543	418.516	-0.214	-0.458
-700.529	47.644	-0.241	0.226
-699.514	387.236	0.080	0.165
-698.499	-200.000	-0.034	0.213
-697.485	-158.067	-0.249	-0.015
-696.470	-143.743	-0.199	-0.019
-695.456	-200.000	-0.044	0.193
-694.441	-200.000	-0.024	-0.380
-693.426	-173.548	0.290	-0.009
-692.412	-188.658	-0.343	0.004
-691.397	800.000	0.061	-0.201
-690.383	-200.000	-0.016	0.200
-689.368	5.462	0.062	-0.045
-688.354	800.000	-0.016	0.065
-687.339	-104.050	0.260	-0.061
-686.324	7.415	-0.202	0.151
-685.310	36.195	-0.120	-0.105
-684.295	361.817	-0.071	0.143
-683.281	-50.771	0.215	0.101
-682.266	-66.897	0.117	-0.046
-681.251	147.035	0.056	-0.075
-680.237	378.755	0.041	0.084
-679.222	-36.658	0.218	0.117
-678.208	455.173	-0.062	0.138
-677.193	61.808	0.062	-0.061
-676.178	800.000	-0.041	0.115
-675.164	-11.849	0.043	-0.028
-674.149	2.134	0.146	0.106
-673.135	239.841	-0.091	0.152
-672.120	82.884	-0.423	-0.460
-671.105	-3.704	0.249	0.173
-670.091	-80.182	-0.187	0.062
-669.076	-1.138	-0.301	-0.213
-668.062	-145.311	-0.157	-0.014
-667.047	-157.176	0.071	0.004
-666.032	3.643	0.192	0.140
-665.018	-200.000	0.027	-0.358
-664.003	-60.072	0.049	-0.021
-662.989	366.714	-0.116	0.233
-661.974	-190.422	0.319	-0.003
-660.959	155.822	0.013	-0.018
-659.945	-148.104	-0.415	0.034
-658.930	179.396	0.064	0.094
-657.916	16.677	0.199	0.158
-656.901	-90.705	-0.229	-0.066
-655.886	800.000	-0.103	-0.369
-654.872	131.966	0.155	-0.199
-653.857	-200.000	0.060	-0.283
-652.843	800.000	0.012	0.049
-651.828	121.151	-0.058	0.072
-650.814	59.620	0.096	0.094
-649.799	-48.268	-0.333	-0.160
-648.784	-21.358	-0.145	0.089
-647.770	164.121	-0.178	0.250
-646.755	-52.733	0.355	0.164
-645.741	-90.137	0.304	-0.088
-644.726	-113.804	-0.053	0.010
-643.711	87.827	0.253	-0.280
-642.697	479.630	0.167	-0.378
-641.682	-74.017	0.051	-0.018
-640.668	-77.890	-0.243	0.084
-639.653	119.202	-0.181	-0.224
-638.638	-200.000	0.049	-0.380
-637.624	-121.174	-0.065	-0.011
-636.609	-200.000	0.061	-0.289
-635.595	52.364	0.123	-0.117
-634.580	-167.483	-0.497	-0.020
-633.565	126.079	0.183	-0.232
-632.551	-115.599	-0.345	-0.065
-631.536	-200.000	0.007	-0.197
-630.522	-51.726	-0.123	-0.057
-629.507	-200.000	-0.057	0.284
-628.492	-200.000	0.010	0.285
-627.478	-73.271	0.060	0.022
-626.463	-111.130	-0.302	0.062
-625.449	-107.094	-0.327	-0.072
-624.434	10.562	-0.267	-0.203
-623.419	-36.166	0.085	0.046
-622.405	10.034	-0.195	-0.148
-621.390	63.766	-0.194	0.194
-620.376	-70.761	0.300	-0.113
-619.361	-6.132	0.225	-0.153
-618.346	251.317	-0.080	-0.136
-617.332	-200.000	0.008	0.081
-616.317	87.739	0.089	-0.099
-615.303	170.001	-0.085	0.121
-614.288	-158.502	-0.154	-0.009
-613.273	-122.051	-0.362	0.059
-612.259	249.970	-0.116	0.197
-611.244	-200.000	-0.085	0.436
-610.230	317.334	0.059	-0.111
-609.215	115.809	-0.225	0.274
-608.201	344.291	0.044	0.086
-607.186	168.154	0.143	0.203
-606.171	40.612	0.092	-0.082
-605.157	-54.405	-0.246	0.111
-604.142	696.265	0.048	-0.126
-603.128	60.637	-0.272	-0.269
-602.113	730.730	0.022	0.059
-601.098	800.000	0.019	-0.070
-600.084	800.000	-0.033	0.131
-599.069	800.000	-0.074	0.271
-598.055	-57.415	0.015	-0.007
-597.040	-147.237	0.179	0.015
-596.025	-11.475	-0.362	0.237
-595.011	-132.660	-0.087	-0.011
-593.996	33.140	-0.149	0.129
-592.982	104.901	0.176	-0.207
-591.967	-200.000	0.051	0.260
-590.952	-200.000	-0.012	0.205
-589.938	67.777	-0.223	-0.227
-588.923	-45.480	0.121	-0.060
-587.909	-40.607	0.108	0.056
-586.894	263.286	0.048	-0.082
-585.879	174.901	0.087	0.125
-584.865	-29.376	0.258	0.147
-583.850	-88.408	-0.090	-0.027
-582.836	316.046	0.057	-0.108
-581.821	-70.431	-0.190	0.072
-580.806	800.000	-0.033	0.131
-579.792	-37.650	0.213	0.113
-578.777	-24.799	0.145	0.086
-577.763	-156.812	0.162	0.010
-576.748	114.857	0.329	0.399
-575.733	800.000	-0.091	-0.316
-574.719	96.342	-0.064	-0.073
-573.704	-109.077	-0.110	-0.023
-572.690	-80.990	0.291	0.096
-571.675	-96.081	0.131	0.035
-570.661	-118.990	-0.195	0.034
-569.646	-11.124	0.188	0.123
-568.631	-17.612	0.231	-0.144
-567.617	720.203	-0.078	0.207
-566.602	-173.259	-0.207	-0.006
-565.588	800.000	0.015	-0.042
-564.573	-128.359	-0.241	0.034
-563.558	800.000	-0.043	0.136
-562.544	44.456	0.096	0.088
-561.529	137.347	0.279	-0.363
-560.515	130.543	-0.156	0.200
-559.500	-24.566	-0.233	-0.138
-558.485	-55.018	0.375	-0.168
-557.471	-58.884	0.250	-0.108
-556.456	-108.391	-0.259	-0.056
-555.442	800.000	-0.059	0.173
-554.427	-0.776	-0.034	-0.024
-553.412	-11.382	0.211	-0.138
-552.398	-117.624	0.313	-0.056
-551.383	17.010	-0.220	-0.173
-550.369	494.617	0.104	-0.238
-549.354	0.478	0.042	-0.030
-548.339	145.174	0.198	0.263
-547.325	201.425	0.046	-0.071
-546.310	130.903	-0.070	-0.089
-545.296	-78.583	0.051	-0.017
-544.281	391.391	0.130	-0.268
-543.266	65.695	0.064	-0.064
-542.252	127.852	0.118	-0.149
-541.237	622.125	0.145	-0.363
-540.223	-25.801	0.087	0.051
-539.208	-88.166	0.247	-0.073
-538.193	59.634	-0.084	0.082
-537.179	-2.584	0.090	0.063
-536.164	-200.000	0.007	0.074
-535.150	-145.223	0.252	0.023
-534.135	800.000	-0.014	0.045
-533.121	-82.726	0.184	0.059
-532.106	-113.892	0.148	-0.029
-531.091	162.916	-0.208	-0.290
-530.077	-35.293	0.081	-0.044
-529.062	-63.772	-0.257	-0.105
-528.048	-58.781	-0.059	-0.025
-527.033	443.742	-0.120	-0.261
-526.018	-61.488	-0.039	-0.016
-525.004	62.872	-0.272	0.271
-523.989	-200.000	-0.027	0.374
-522.975	-200.000	0.000	-0.038
-521.960	-23.116	0.049	-0.029
-520.945	3.094	0.091	-0.065
-519.931	800.000	-0.024	0.087
-518.916	800.000	-0.020	0.083
-517.902	433.383	-0.108	0.234
-516.887	-200.000	0.038	-0.223
-515.872	59.467	-0.092	0.090
-514.858	-4.093	0.219	0.151
-513.843	800.000	-0.060	0.179
-512.829	-92.423	-0.127	-0.035
-511.814	-51.347	-0.234	0.109
-510.799	-106.839	-0.105	-0.023
-509.785	-200.000	0.055	-0.245
-508.770	-161.326	-0.369	0.019
-507.756	3.502	0.307	0.222
-506.741	800.000	0.061	0.187
-505.726	20.726	0.175	-0.141
-504.712	73.687	-0.161	0.168
-503.697	-76.444	-0.206	0.072
-502.683	-75.186	-0.172	-0.061
-501.668	800.000	-0.083	0.229
-500.653	15.389	0.053	-0.041
-499.639	163.059	0.182	0.254
-498.624	63.893	-0.123	0.122
-497.610	-69.643	-0.324	0.123
-496.595	-200.000	0.013	-0.354
-495.581	-200.000	0.032	-0.173
-494.566	575.688	-0.041	0.099
-493.551	-9.437	-0.073	0.048
-492.537	-127.277	0.118	-0.017
-491.522	48.336	-0.129	0.120
-490.508	-200.000	-0.056	-0.259
-489.493	-58.895	-0.232	-0.100
-488.478	351.104	0.113	-0.223
-487.464	-200.000	0.057	0.345
-486.449	-77.506	0.035	0.012
-485.435	-200.000	0.010	0.072
-484.420	277.484	0.411	0.726
-483.405	51.372	-0.036	-0.034
-482.391	-65.556	0.334	0.133
-481.376	-111.489	-0.281	-0.057
-480.362	-29.433	0.256	0.145
-479.347	-28.149	0.180	-0.103
-478.332	-200.000	-0.041	0.194
-477.318	-16.726	0.170	-0.107
-476.303	176.773	-0.208	0.300
-475.289	800.000	-0.041	0.160
-474.274	800.000	-0.001	0.003
-473.259	124.092	-0.173	0.216
-472.245	22.139	-0.359	-0.291
-471.230	-200.000	0.026	-0.188
-470.216	43.161	0.101	-0.092
-469.201	-180.667	0.142	-0.003
-468.186	576.025	0.047	-0.114
-467.172	-131.726	-0.149	-0.019
-466.157	-23.987	0.165	0.098
-465.143	108.592	0.120	0.143
-464.128	-200.000	0.029	-0.144
-463.113	378.106	-0.114	-0.232
-462.099	-21.732	-0.118	0.071
-461.084	80.863	0.074	-0.079
-460.070	-28.868	-0.138	-0.079
-459.055	-109.964	0.051	0.011
-458.040	-37.977	-0.031	-0.016
-457.026	96.454	0.008	-0.010
-456.011	-200.000	-0.012	0.194
-454.997	147.160	-0.202	-0.269
-453.982	-36.603	0.157	-0.084
-452.968	-73.044	-0.147	-0.054
-451.953	-200.000	-0.033	-0.178
-450.938	512.639	-0.118	0.273
-449.924	-132.544	0.051	-0.007
-448.909	-160.916	-0.107	0.006
-447.895	-200.000	-0.012	-0.224
-446.880	-40.146	-0.359	0.186
-445.865	372.200	-0.113	-0.227
-444.851	-200.000	0.029	0.161
-443.836	99.199	0.019	-0.021
-442.822	-107.993	-0.136	-0.029
-441.807	109.684	0.065	-0.077
-440.792	-78.888	-0.359	0.121
-439.778	37.535	0.089	0.078
-438.763	348.149	-0.137	-0.268
-437.749	-200.000	0.005	0.195
-436.734	227.557	0.184	-0.296
-435.719	-24.162	-0.071	0.042
-434.705	800.000	-0.071	0.243
-433.690	28.006	0.226	0.189
-432.676	61.914	-0.044	-0.044
-431.661	169.284	-0.174	-0.246
-430.646	-51.939	-0.038	-0.018
-429.632	295.035	0.160	-0.290
-428.617	234.054	0.084	-0.137
-427.603	-200.000	0.023	0.194
-426.588	-200.000	0.036	0.220
-425.573	-200.000	-0.011	0.195
-424.559	-21.014	-0.175	-0.106
-423.544	-134.516	0.217	-0.026
-422.530	-200.000	-0.049	0.242
-421.515	697.389	-0.042	-0.108
-420.500	423.179	-0.070	-0.148
-419.486	-2.046	0.261	0.182
-418.471	87.320	-0.242	-0.265
-417.457	800.000	-0.012	-0.034
-416.442	194.098	0.037	0.055
-415.428	-76.853	0.199	-0.069
-414.413	397.437	-0.081	0.168
-413.398	423.302	-0.128	-0.273
-412.384	-29.712	-0.071	-0.040
-411.369	-55.417	-0.240	0.107
-410.355	-16.431	0.225	0.141
-409.340	800.000	-0.094	-0.263
-408.325	37.725	0.321	0.282
-407.311	88.247	-0.213	0.234
-406.296	77.194	0.157	0.165
-405.282	-70.697	-0.206	0.077
-404.267	-200.000	0.079	-0.374
-403.252	164.113	-0.091	-0.127
-402.238	77.550	-0.121	0.127
-401.223	-135.136	0.440	-0.052
-400.209	334.406	-0.273	0.524
-399.194	800.000	-0.106	0.428
-398.179	67.885	0.277	0.280
-397.165	-200.000	0.022	0.112
-396.150	-53.348	-0.229	0.104
-395.136	-200.000	0.001	0.107
-394.121	-129.059	0.196	-0.027
-393.106	-200.000	-0.017	-0.217
-392.092	-35.167	-0.241	0.130
-391.077	-200.000	0.019	-0.131
-390.063	263.920	0.162	-0.279
-389.048	24.955	0.174	-0.143
-388.033	184.106	-0.116	0.169
-387.019	800.000	-0.057	-0.163
-386.004	280.281	-0.103	0.182
-384.990	-93.288	0.213	-0.059
-383.975	-96.971	-0.301	0.078
-382.960	-200.000	-0.027	0.207
-381.946	-81.062	-0.172	0.056
-380.931	-200.000	-0.030	0.144
-379.917	119.787	0.278	0.341
-378.902	-155.053	-0.320	-0.021
-377.888	-68.400	-0.116	0.045
-376.873	49.537	0.122	0.114
-375.858	-123.185	-0.236	-0.037
-374.844	-86.057	-0.192	-0.059
-373.829	-200.000	0.032	-0.254
-372.815	348.414	-0.101	0.198
-371.800	-200.000	0.026	-0.412
-370.785	109.202	0.148	-0.175
-369.771	50.426	-0.049	0.046
-368.756	800.000	-0.009	0.033
-367.742	-95.891	-0.282	0.074
-366.727	194.303	0.116	-0.174
-365.712	800.000	0.070	0.297
-364.698	258.237	-0.226	-0.384
-363.683	387.369	-0.126	-0.257
-362.669	-65.552	0.157	0.062
-361.654	90.070	0.203	0.224
-360.639	800.000	0.030	-0.090
-359.625	44.834	0.033	-0.030
-358.610	52.335	0.260	0.245
-357.596	-16.288	-0.221	-0.138
-356.581	-200.000	-0.025	-0.127
-355.566	800.000	0.031	-0.106
-354.552	423.237	-0.086	0.183
-353.537	-1.413	-0.248	0.173
-352.523	106.557	-0.121	0.142
-351.508	-123.337	-0.095	-0.015
-350.493	152.433	-0.253	0.341
-349.479	-34.431	0.252	-0.136
-348.464	-38.101	0.212	-0.111
-347.450	-49.420	0.078	0.037
-346.435	-113.381	0.209	-0.040
-345.420	-200.000	-0.008	-0.132
-344.406	-96.764	-0.093	-0.024
-343.391	-9.867	-0.199	-0.130
-342.377	95.367	-0.054	-0.060
-341.362	307.398	0.197	-0.363
-340.348	800.000	-0.102	0.284
-339.333	224.578	-0.134	0.214
-338.318	-200.000	0.015	-0.249
-337.304	-117.105	0.108	0.020
-336.289	-72.542	0.235	0.086
-335.275	800.000	0.028	-0.105
-334.260	-112.537	-0.187	0.037
-333.245	-86.112	-0.066	0.020
-332.231	33.965	-0.161	-0.138
-331.216	143.126	-0.179	0.235
-330.202	800.000	-0.083	0.237
-329.187	328.785	0.094	-0.178
-328.172	-72.888	-0.251	0.091
-327.158	426.288	0.085	-0.182
-326.143	-56.939	0.068	0.030
-325.129	-200.000	-0.230	0.001
-324.114	-96.293	-0.065	0.017
-323.099	340.088	-0.137	-0.264
-322.085	-200.000	-0.026	0.521
-321.070	12.781	0.034	0.026
-320.056	-200.000	0.035	0.204
-319.041	-69.667	-0.210	-0.079
-318.026	334.600	0.103	0.197
-317.012	-132.120	0.225	-0.029
-315.997	800.000	-0.080	-0.233
-314.983	-109.342	0.384	0.080
-313.968	-200.000	-0.005	-0.128
-312.953	-62.578	0.090	0.037
-311.939	-141.972	0.127	0.012
-310.924	800.000	0.033	0.132
-309.910	358.909	-0.094	0.185
-308.895	-162.929	-0.191	0.009
-307.880	-200.000	0.021	0.116
-306.866	-39.276	0.292	-0.151
-305.851	-105.480	-0.475	-0.106
-304.837	800.000	-0.015	0.046
-303.822	-59.830	-0.146	0.062
-302.807	-40.172	-0.229	0.117
-301.793	-63.984	0.169	0.068
-300.778	38.954	0.136	0.119
-299.764	668.352	0.049	0.126
-298.749	-34.190	0.152	0.082
-297.735	211.885	0.190	0.295
-296.720	376.167	0.054	-0.109
-295.705	73.444	-0.252	-0.260
-294.691	-200.000	0.009	-0.129
-293.676	428.557	0.111	-0.235
-292.662	-200.000	-0.006	-0.174
-291.647	800.000	0.045	-0.131
-290.632	-200.000	-0.005	-0.304
-289.618	800.000	0.025	-0.100
-288.603	209.675	-0.147	-0.227
-287.589	-200.000	-0.007	-0.360
-286.574	-0.163	0.151	0.106
-285.559	-200.000	0.000	0.004
-284.545	-113.556	0.236	0.045
-283.530	-76.986	-0.268	-0.092
-282.516	-146.983	0.274	-0.023
-281.501	86.509	0.082	0.089
-280.486	-200.000	0.053	0.490
-279.472	-112.897	0.090	-0.018
-278.457	-200.000	0.114	-0.000
-277.443	-43.591	-0.312	-0.155
-276.428	-200.000	0.017	0.197
-275.413	127.718	0.213	-0.267
-274.399	-200.000	0.002	-0.389
-273.384	-200.000	0.013	-0.188
-272.370	-5.819	0.078	-0.053
-271.355	107.409	0.136	0.159
-270.340	-200.000	0.003	0.196
-269.326	-72.621	-0.229	-0.083
-268.311	-28.969	-0.163	-0.092
-267.297	800.000	0.045	-0.176
-266.282	-200.000	0.052	-0.426
-265.267	-124.047	0.447	-0.069
-264.253	-200.000	-0.007	-0.412
-263.238	-160.874	0.385	-0.020
-262.224	754.784	-0.035	0.092
-261.209	-200.000	0.033	0.150
-260.195	-200.000	-0.036	-0.227
-259.180	-200.000	-0.057	0.333
-258.165	-36.353	0.187	0.099
-257.151	-54.520	-0.093	0.041
-256.136	-93.661	0.115	-0.031
-255.122	-59.556	-0.387	-0.163
-254.107	-109.414	0.198	0.041
-253.092	86.395	-0.124	0.135
-252.078	-7.980	-0.185	-0.123
-251.063	-84.378	-0.127	0.039
-250.049	-200.000	-0.035	-0.169
-249.034	204.879	-0.087	0.133
-248.019	-200.000	-0.015	-0.086
-247.005	-42.450	0.114	-0.057
-245.990	-16.060	0.263	0.164
-244.976	-41.589	0.132	0.067
-243.961	800.000	-0.021	-0.068
-242.946	105.503	0.152	-0.177
-241.932	-74.069	0.188	-0.067
-240.917	67.275	0.124	-0.125
-239.903	-93.739	-0.092	-0.025
-238.888	800.000	0.035	0.115
-237.873	252.074	0.133	-0.222
-236.859	800.000	-0.076	0.283
-235.844	-34.680	0.430	0.231
-234.830	-200.000	-0.019	-0.213
-233.815	-200.000	0.005	-0.277
-232.800	-20.745	-0.126	-0.076
-231.786	120.137	-0.150	-0.183
-230.771	698.443	-0.047	-0.121
-229.757	-200.000	0.027	-0.220
-228.742	-80.313	0.287	0.094
-227.727	800.000	0.053	0.187
-226.713	-86.459	-0.061	-0.018
-225.698	800.000	0.115	-0.383
-224.684	-91.020	0.731	-0.206
-223.669	526.225	-0.084	-0.194
-222.655	-94.061	0.153	0.041
-221.640	-200.000	-0.007	-0.186
-220.625	3.609	0.068	0.048
-219.611	-200.000	0.026	-0.224
-218.596	800.000	0.064	0.199
-217.582	157.548	0.128	0.174
-216.567	-200.000	-0.006	0.305
-215.552	-200.000	0.054	-0.284
-214.538	554.456	0.117	0.276
-213.523	-39.547	0.423	-0.217
-212.509	-200.000	-0.005	0.515
-211.494	330.905	-0.072	-0.136
-210.479	-53.284	-0.315	-0.142
-209.465	719.469	0.063	-0.164
-208.450	-1.385	0.144	-0.100
-207.436	173.373	-0.251	0.356
-206.421	-82.168	0.337	0.108
-205.406	-200.000	0.005	0.043
-204.392	-200.000	-0.016	0.274
-203.377	78.055	0.190	-0.199
-202.363	-119.810	0.162	0.027
-201.348	-42.745	0.089	-0.044
-200.333	105.889	-0.165	-0.192
-199.319	-163.814	-0.166	0.008
-198.304	-200.000	0.005	0.290
-197.290	-73.371	0.115	-0.041
-196.275	-41.283	-0.396	0.200
-195.260	287.780	0.063	0.111
-194.246	-59.264	-0.102	0.043
-193.231	326.806	-0.135	0.254
-192.217	228.004	-0.065	0.104
-191.202	-43.312	0.183	-0.091
-190.187	-200.000	0.045	0.374
-189.173	13.361	-0.075	0.057
-188.158	43.806	-0.145	-0.131
-187.144	56.586	0.141	0.134
-186.129	-32.920	-0.118	-0.064
-185.114	-200.000	0.051	0.328
-184.100	800.000	-0.091	-0.327
-183.085	23.201	-0.085	0.069
-182.071	-200.000	-0.010	-0.399
-181.056	294.437	-0.217	-0.389
-180.042	-44.045	-0.044	0.022
-179.027	604.799	0.066	0.161
-178.012	-59.369	-0.031	0.013
-176.998	-160.102	0.177	0.009
-175.983	-200.000	-0.082	-0.373
-174.969	669.258	-0.093	-0.236
-173.954	-200.000	-0.026	0.237
-172.939	272.665	-0.061	0.106
-171.925	39.896	0.230	0.202
-170.910	252.413	-0.064	-0.107
-169.896	-13.153	0.228	-0.145
-168.881	-137.064	0.183	0.021
-167.866	248.575	0.040	-0.067
-166.852	261.445	-0.128	0.216
-165.837	601.780	0.201	-0.491
-164.823	80.923	0.048	0.051
-163.808	231.951	-0.170	0.273
-162.793	-107.588	-0.203	-0.043
-161.779	737.450	-0.142	0.373
-160.764	-99.537	-0.142	0.035
-159.750	800.000	-0.021	0.091
-158.735	68.009	0.195	-0.195
-157.720	-39.079	0.186	0.096
-156.706	321.265	0.088	-0.164
-155.691	-134.237	-0.099	-0.012
-154.677	145.313	0.071	0.093
-153.662	-53.893	0.306	-0.137
-152.647	293.680	-0.113	0.202
-151.633	-75.058	0.182	0.064
-150.618	-37.695	0.127	0.066
-149.604	800.000	-0.034	-0.122
-148.589	32.333	0.109	0.092
-147.574	-64.948	0.127	0.050
-146.560	6.219	0.087	0.063
-145.545	-46.892	-0.143	-0.068
-144.531	68.798	-0.084	-0.084
-143.516	75.873	0.122	-0.127
-142.502	-200.000	0.038	-0.180
-141.487	-110.301	0.156	0.032
-140.472	217.088	0.066	0.103
-139.458	86.462	0.310	0.335
-138.443	-200.000	-0.020	-0.353
-137.429	-200.000	0.029	-0.263
-136.414	-88.284	0.433	0.127
-135.399	-200.000	-0.004	0.089
-134.385	677.768	-0.077	0.197
-133.370	-79.405	0.192	0.064
-132.356	234.673	0.144	-0.232
-131.341	29.639	0.176	0.147
-130.326	-108.820	-0.318	0.066
-129.312	176.568	-0.033	-0.048
-128.297	-200.000	-0.000	0.309
-127.283	-61.982	-0.191	-0.078
-126.268	-134.123	0.201	0.024
-125.253	307.959	-0.079	0.144
-124.239	800.000	0.091	0.375
-123.224	470.039	0.157	-0.346
-122.210	800.000	-0.039	0.136
-121.195	-122.926	-0.085	-0.013
