DTS Sentinel unit serial number:	SN413079Multiplexer serial number:	ORYXHardware model number:	OX4-SRSoftware version number:	ORYX F/W v4.00 Oryx Data Collector v3.7.2.0data status	okinstallation	princeton_trtdifferential loss correction	single-endedforward channel	channel 4reverse channel	N/Adate	2019/09/18time	15:09:34forward acquisition time	60.00reverse acquisition time	0.00gamma	496.2192k internal	0.2299k external	0.2299temperature offset calibration	0.9998default loss term (dB/km)	0.3790temperature slope calibration	1.0000multiplexer offset coefficient	1.0000multiplexer slope coefficient	1.0000fibre end	0.00T internal ref (°C)	35.41T ext. ref 1 (°C)	0.73T ext. ref 2 (°C)	32.67length (m)	temperature (°C)	Stokes	anti-Stokes-747.200	-130.042	0.098	-0.014
-746.185	120.658	-0.248	0.314
-745.171	33.435	-0.306	-0.271
-744.156	23.093	-0.093	-0.078
-743.142	-157.939	-0.140	-0.008
-742.127	-200.000	0.003	0.379
-741.112	158.031	0.016	0.023
-740.098	-143.325	-0.154	-0.015
-739.083	-200.000	0.038	0.286
-738.069	800.000	0.159	0.599
-737.054	405.784	-0.053	0.114
-736.039	9.931	-0.288	-0.223
-735.025	-146.329	0.097	0.009
-734.010	6.452	0.035	-0.027
-732.996	170.639	-0.251	-0.367
-731.981	2.826	0.101	0.075
-730.966	-29.643	-0.052	-0.031
-729.952	-162.724	0.136	-0.007
-728.937	-194.505	-0.215	-0.002
-727.923	800.000	0.100	-0.393
-726.908	33.919	-0.164	0.146
-725.894	800.000	0.036	0.155
-724.879	-86.083	0.365	0.115
-723.864	76.540	-0.069	-0.075
-722.850	-156.411	0.114	-0.007
-721.835	-25.236	-0.136	-0.082
-720.821	-200.000	-0.041	0.240
-719.806	178.731	-0.148	0.221
-718.791	71.987	0.300	-0.318
-717.777	-94.057	0.317	0.089
-716.762	-200.000	0.010	0.202
-715.748	-6.559	0.254	-0.176
-714.733	581.845	-0.097	0.244
-713.718	-27.953	0.239	0.141
-712.704	54.009	-0.328	0.321
-711.689	-108.375	0.143	-0.031
-710.675	115.843	0.231	-0.288
-709.660	202.759	-0.043	-0.067
-708.645	-21.293	0.192	-0.120
-707.631	800.000	0.009	0.039
-706.616	194.396	-0.168	-0.259
-705.602	-63.390	-0.224	-0.094
-704.587	82.919	0.051	0.057
-703.572	372.383	0.021	0.044
-702.558	800.000	0.024	0.074
-701.543	15.500	-0.046	-0.037
-700.529	458.313	0.049	0.111
-699.514	20.400	0.112	0.093
-698.499	144.736	-0.106	0.145
-697.485	-200.000	-0.046	0.386
-696.470	-59.601	-0.136	-0.060
-695.456	45.129	0.266	0.250
-694.441	-49.071	-0.241	0.118
-693.426	64.089	0.123	-0.126
-692.412	-200.000	0.053	-0.324
-691.397	-65.200	0.052	-0.021
-690.383	-200.000	0.012	-0.419
-689.368	-74.370	-0.170	0.062
-688.354	-103.065	0.279	-0.067
-687.339	569.900	-0.160	0.396
-686.324	-126.241	-0.133	-0.020
-685.310	-47.505	-0.147	0.073
-684.295	-38.126	-0.100	0.054
-683.281	-47.423	0.103	-0.051
-682.266	-50.158	-0.349	0.168
-681.251	-200.000	0.026	0.125
-680.237	800.000	0.055	-0.208
-679.222	-153.706	-0.281	-0.020
-678.208	-71.996	-0.354	-0.134
-677.193	-3.171	-0.375	0.266
-676.178	-43.085	0.189	-0.098
-675.164	800.000	-0.008	0.034
-674.149	28.424	0.355	-0.305
-673.135	-10.756	-0.087	0.059
-672.120	-200.000	-0.040	-0.242
-671.105	-64.138	-0.325	0.135
-670.091	396.571	-0.128	-0.272
-669.076	35.128	-0.175	-0.156
-668.062	-54.031	-0.138	0.064
-667.047	-67.465	-0.267	-0.106
-666.032	11.899	-0.092	-0.072
-665.018	-200.000	-0.030	0.214
-664.003	23.415	0.163	-0.137
-662.989	234.190	0.123	0.207
-661.974	100.308	0.190	0.225
-660.959	356.560	0.044	0.088
-659.945	-139.298	-0.313	-0.034
-658.930	-200.000	0.039	-0.179
-657.916	83.108	0.108	-0.120
-656.901	283.598	0.209	0.381
-655.886	41.164	-0.044	0.041
-654.872	-99.236	-0.557	0.143
-653.857	648.197	-0.068	-0.177
-652.843	-45.174	-0.241	-0.122
-651.828	-141.454	0.177	-0.018
-650.814	45.378	-0.135	-0.127
-649.799	-200.000	0.015	-0.109
-648.784	-200.000	0.030	0.294
-647.770	-200.000	0.013	-0.132
-646.755	340.834	0.016	-0.032
-645.741	-181.970	0.348	0.007
-644.726	29.528	0.290	-0.250
-643.711	800.000	0.034	0.122
-642.697	240.368	0.165	0.280
-641.682	94.887	0.178	0.205
-640.668	-126.465	-0.062	-0.009
-639.653	-178.914	0.160	-0.004
-638.638	550.490	-0.039	-0.096
-637.624	-53.201	-0.303	0.142
-636.609	152.311	0.111	-0.153
-635.595	518.028	0.068	-0.163
-634.580	611.686	0.042	0.108
-633.565	-54.423	-0.235	-0.108
-632.551	-200.000	-0.001	0.075
-631.536	26.791	0.233	-0.199
-630.522	664.972	-0.062	0.161
-629.507	-42.872	-0.195	-0.101
-628.492	8.332	-0.058	-0.044
-627.478	-91.796	-0.284	-0.082
-626.463	-21.440	0.106	-0.066
-625.449	-200.000	-0.012	0.242
-624.434	-200.000	0.041	0.395
-623.419	-80.968	-0.067	0.023
-622.405	-66.323	0.205	-0.083
-621.390	-200.000	-0.059	-0.275
-620.376	-77.084	-0.202	-0.072
-619.361	-200.000	0.019	-0.415
-618.346	-134.382	-0.170	-0.021
-617.332	2.924	0.293	-0.216
-616.317	116.072	0.171	-0.213
-615.303	78.934	-0.314	0.341
-614.288	196.870	0.114	-0.177
-613.273	5.855	-0.086	-0.065
-612.259	-200.000	0.171	-0.001
-611.244	-54.492	0.163	0.075
-610.230	19.411	0.026	0.021
-609.215	-200.000	0.006	-0.098
-608.201	-43.354	0.080	0.041
-607.186	64.777	0.125	0.128
-606.171	-88.209	0.171	0.052
-605.157	202.918	-0.096	-0.151
-604.142	222.640	0.050	0.081
-603.128	-64.200	-0.106	-0.044
-602.113	-200.000	0.058	0.271
-601.098	-200.000	0.017	-0.118
-600.084	-179.049	-0.245	-0.006
-599.069	-34.942	-0.107	-0.059
-598.055	800.000	-0.066	0.205
-597.040	-23.141	-0.220	0.134
-596.025	-40.372	0.120	0.063
-595.011	615.837	0.119	-0.303
-593.996	-200.000	-0.056	-0.356
-592.982	205.312	-0.188	0.297
-591.967	294.568	0.143	0.266
-590.952	-200.000	0.005	0.080
-589.938	-83.351	0.275	-0.089
-588.923	-200.000	0.005	-0.141
-587.909	-148.603	0.068	-0.006
-586.894	196.942	0.166	-0.256
-585.879	-200.000	0.010	-0.068
-584.865	-21.966	-0.254	-0.156
-583.850	-200.000	0.039	0.184
-582.836	800.000	0.046	-0.156
-581.821	41.236	-0.152	-0.139
-580.806	-200.000	0.019	0.263
-579.792	167.086	-0.192	0.277
-578.777	103.584	0.145	0.172
-577.763	-140.206	0.299	0.032
-576.748	28.736	-0.187	0.160
-575.733	-165.864	-0.137	0.006
-574.719	-23.918	-0.432	-0.262
-573.704	-26.866	-0.225	-0.133
-572.690	-14.726	-0.176	-0.114
-571.675	7.149	-0.142	-0.107
-570.661	-67.404	-0.245	-0.097
-569.646	-26.461	-0.252	0.150
-568.631	800.000	-0.030	0.134
-567.617	89.256	0.199	-0.225
-566.602	-117.812	-0.182	-0.033
-565.588	-0.079	0.091	0.065
-564.573	-63.294	-0.033	-0.014
-563.558	-200.000	-0.025	-0.122
-562.544	-87.746	0.248	-0.076
-561.529	171.310	0.135	-0.196
-560.515	-89.173	-0.293	-0.088
-559.500	52.550	-0.275	-0.266
-558.485	141.488	-0.236	-0.317
-557.471	-39.305	-0.225	0.120
-556.456	290.918	-0.042	0.077
-555.442	-78.499	-0.212	0.073
-554.427	800.000	0.070	0.249
-553.412	-9.913	-0.083	0.056
-552.398	-147.800	-0.248	-0.021
-551.383	-32.852	-0.400	0.225
-550.369	131.857	-0.258	0.336
-549.354	691.706	0.160	-0.424
-548.339	60.098	-0.194	-0.194
-547.325	-200.000	0.033	-0.614
-546.310	-0.811	-0.295	-0.212
-545.296	800.000	-0.030	0.083
-544.281	264.736	-0.070	-0.124
-543.266	113.366	0.289	-0.355
-542.252	2.813	0.113	0.083
-541.237	-39.868	0.091	0.048
-540.223	143.209	-0.223	0.300
-539.208	-73.625	-0.219	-0.081
-538.193	-125.855	-0.190	0.029
-537.179	237.391	-0.130	0.218
-536.164	-118.284	-0.062	-0.011
-535.150	-200.000	-0.053	-0.270
-534.135	-93.732	0.125	0.035
-533.121	-200.000	-0.019	-0.093
-532.106	416.276	-0.107	-0.232
-531.091	-200.000	-0.004	-0.119
-530.077	7.108	-0.076	0.057
-529.062	800.000	0.090	-0.265
-528.048	478.765	-0.088	0.201
-527.033	-177.814	0.096	-0.002
-526.018	51.756	-0.161	-0.155
-525.004	800.000	-0.108	0.373
-523.989	165.851	-0.138	-0.198
-522.975	-123.300	-0.120	0.019
-521.960	-118.559	-0.033	-0.006
-520.945	800.000	-0.096	-0.362
-519.931	-145.015	-0.279	-0.026
-518.916	-116.967	-0.112	-0.021
-517.902	-200.000	0.082	0.432
-516.887	-7.751	0.197	0.135
-515.872	140.330	0.190	0.254
-514.858	16.827	0.142	-0.114
-513.843	-60.487	-0.259	-0.112
-512.829	800.000	-0.078	0.299
-511.814	-138.517	0.130	-0.015
-510.799	-36.977	0.378	-0.205
-509.785	-28.511	-0.277	0.162
-508.770	-52.901	0.174	-0.081
-507.756	-46.642	0.251	-0.125
-506.741	320.946	-0.044	-0.084
-505.726	49.945	-0.228	0.217
-504.712	-184.579	-0.116	-0.002
-503.697	-200.000	0.012	0.165
-502.683	48.473	0.117	0.111
-501.668	645.662	-0.134	-0.347
-500.653	164.998	0.144	0.205
-499.639	-200.000	-0.015	0.132
-498.624	207.034	-0.328	0.517
-497.610	-200.000	-0.000	0.044
-496.595	-200.000	-0.022	-0.310
-495.581	466.631	-0.068	0.153
-494.566	55.706	-0.349	0.342
-493.551	554.665	0.035	0.085
-492.537	-13.617	0.099	0.065
-491.522	253.330	-0.209	0.361
-490.508	-141.024	0.189	-0.020
-489.493	-200.000	-0.010	-0.126
-488.478	-110.234	0.150	0.031
-487.464	-63.361	0.078	-0.032
-486.449	139.784	0.149	-0.198
-485.435	-68.343	0.124	0.049
-484.420	-142.639	0.194	0.019
-483.405	22.817	0.175	-0.145
-482.391	-200.000	0.004	-0.256
-481.376	-22.856	0.135	-0.082
-480.362	-200.000	-0.054	0.457
-479.347	296.912	0.062	-0.116
-478.332	195.362	0.092	-0.141
-477.318	-158.629	-0.210	0.012
-476.303	415.742	-0.103	0.222
-475.289	31.027	-0.172	-0.149
-474.274	-200.000	0.050	-0.356
-473.259	-103.366	0.173	0.041
-472.245	126.700	0.075	-0.096
-471.230	153.042	-0.054	0.075
-470.216	-24.429	0.416	-0.250
-469.201	800.000	-0.050	0.166
-468.186	-74.840	0.182	-0.066
-467.172	17.035	0.252	-0.201
-466.157	-146.707	-0.389	0.034
-465.143	120.903	-0.194	0.243
-464.128	112.058	-0.143	0.174
-463.113	-112.746	-0.155	0.031
-462.099	-200.000	-0.053	0.389
-461.084	-153.278	0.216	-0.015
-460.070	-79.717	0.191	-0.065
-459.055	148.341	0.083	-0.114
-458.040	131.391	0.114	0.148
-457.026	84.316	0.059	-0.065
-456.011	-200.000	0.070	-0.366
-454.997	800.000	0.085	0.323
-453.982	-65.175	0.074	0.030
-452.968	539.720	0.120	-0.289
-451.953	-40.777	-0.216	0.113
-450.938	393.316	0.151	-0.316
-449.924	429.018	-0.073	-0.159
-448.909	91.902	-0.110	-0.125
-447.895	-100.174	0.384	0.096
-446.880	323.573	0.073	0.141
-445.865	-40.723	-0.188	-0.098
-444.851	146.091	-0.262	0.355
-443.836	-131.196	-0.392	0.053
-442.822	-138.927	0.160	0.018
-441.807	-40.018	0.209	-0.110
-440.792	800.000	-0.067	-0.247
-439.778	89.166	-0.201	0.226
-438.763	-40.184	0.052	0.027
-437.749	-103.862	0.065	-0.015
-436.734	62.060	0.148	0.149
-435.719	-58.522	-0.161	0.070
-434.705	-200.000	0.066	-0.359
-433.690	24.260	-0.320	-0.266
-432.676	-7.637	-0.042	-0.029
-431.661	-97.554	-0.070	-0.018
-430.646	-200.000	-0.029	0.142
-429.632	-177.489	0.233	-0.006
-428.617	800.000	0.036	0.154
-427.603	-18.523	0.205	-0.129
-426.588	-125.085	-0.321	0.050
-425.573	18.124	-0.138	-0.111
-424.559	10.286	0.256	-0.197
-423.544	-200.000	-0.002	-0.208
-422.530	800.000	0.067	0.237
-421.515	-23.493	-0.197	0.119
-420.500	-154.949	-0.609	0.040
-419.486	318.879	-0.109	0.208
-418.471	-200.000	-0.033	-0.256
-417.457	-150.633	-0.217	0.017
-416.442	44.703	-0.154	0.143
-415.428	405.152	-0.201	0.428
-414.413	-200.000	0.028	0.207
-413.398	-200.000	-0.001	0.024
-412.384	-200.000	-0.024	0.195
-411.369	126.122	-0.214	-0.273
-410.355	-99.468	0.328	0.083
-409.340	-86.923	-0.150	0.046
-408.325	55.464	-0.107	0.104
-407.311	-57.734	-0.051	-0.022
-406.296	-37.686	-0.277	0.149
-405.282	153.385	0.152	-0.209
-404.267	623.134	0.131	0.331
-403.252	147.746	0.104	-0.141
-402.238	800.000	0.052	0.217
-401.223	-5.621	0.030	0.021
-400.209	800.000	0.080	0.274
-399.194	-127.461	-0.212	0.031
-398.179	-80.447	0.255	-0.086
-397.165	39.717	0.064	-0.057
-396.150	-28.946	-0.207	0.120
-395.136	8.881	-0.187	-0.142
-394.121	-200.000	-0.031	0.267
-393.106	-185.638	-0.178	0.003
-392.092	35.982	-0.245	-0.217
-391.077	31.762	-0.080	-0.069
-390.063	800.000	-0.044	0.137
-389.048	800.000	-0.005	-0.013
-388.033	-137.436	0.185	-0.021
-387.019	-135.127	0.156	0.019
-386.004	434.920	0.099	0.217
-384.990	-31.352	0.071	0.040
-383.975	800.000	0.057	-0.159
-382.960	33.866	0.081	-0.071
-381.946	124.822	-0.137	0.174
-380.931	-46.433	-0.280	-0.138
-379.917	-10.861	-0.059	-0.039
-378.902	-191.580	0.099	-0.001
-377.888	106.478	0.319	0.380
-376.873	-123.155	0.168	-0.027
-375.858	-123.761	0.429	0.068
-374.844	-200.000	-0.013	0.097
-373.829	79.087	0.039	0.042
-372.815	-12.247	0.213	0.140
-371.800	-158.359	0.044	0.003
-370.785	-57.114	0.137	0.061
-369.771	-200.000	-0.060	-0.275
-368.756	335.986	0.143	0.280
-367.742	-8.686	0.188	0.127
-366.727	-113.242	0.278	0.055
-365.712	-13.177	-0.137	0.089
-364.698	-6.964	0.255	0.174
-363.683	-151.048	0.174	-0.013
-362.669	115.406	0.195	0.239
-361.654	-200.000	0.004	-0.057
-360.639	11.174	-0.233	-0.179
-359.625	267.956	-0.142	-0.250
-358.610	-200.000	-0.030	-0.302
-357.596	-3.488	-0.089	-0.062
-356.581	656.513	0.120	-0.311
-355.566	58.906	-0.089	0.088
-354.552	-133.229	0.151	0.019
-353.537	-40.480	0.188	0.098
-352.523	-117.939	0.208	0.037
-351.508	-200.000	0.023	0.186
-350.493	-7.310	0.137	-0.094
-349.479	-139.465	-0.273	-0.029
-348.464	190.362	-0.125	0.188
-347.450	-200.000	-0.003	0.201
-346.435	10.746	-0.101	-0.077
-345.420	38.420	-0.117	-0.105
-344.406	-141.500	0.195	0.020
-343.391	800.000	0.131	-0.495
-342.377	15.407	-0.236	0.186
-341.362	-200.000	-0.028	0.191
-340.348	-37.404	0.204	-0.110
-339.333	-18.477	0.188	-0.118
-338.318	-38.544	0.222	0.118
-337.304	425.773	0.120	0.260
-336.289	131.184	-0.216	-0.278
-335.275	-200.000	-0.010	0.064
-334.260	-142.496	0.296	-0.029
-333.245	-66.437	-0.412	-0.164
-332.231	-44.138	-0.214	0.108
-331.216	800.000	-0.030	0.089
-330.202	-84.536	-0.498	-0.158
-329.187	-197.282	0.135	-0.001
-328.172	1.540	0.084	0.061
-327.158	231.053	-0.090	0.148
-326.143	-200.000	-0.009	0.336
-325.129	-90.490	0.192	-0.056
-324.114	-200.000	-0.071	0.406
-323.099	136.221	0.034	-0.044
-322.085	-10.826	0.263	-0.175
-321.070	421.458	0.066	0.141
-320.056	-30.707	-0.098	0.056
-319.041	157.210	0.095	-0.133
-318.026	78.572	-0.136	-0.146
-317.012	112.010	0.103	0.125
-315.997	2.103	0.283	0.205
-314.983	5.434	0.196	-0.145
-313.968	-18.757	-0.212	0.133
-312.953	-200.000	0.011	-0.049
-311.939	190.006	-0.156	-0.236
-310.924	-70.663	0.056	0.021
-309.910	-44.248	-0.113	0.057
-308.895	-200.000	-0.013	0.218
-307.880	800.000	-0.100	0.337
-306.866	-200.000	0.035	-0.319
-305.851	-136.957	-0.054	-0.006
-304.837	76.412	0.114	0.121
-303.822	24.797	0.029	-0.024
-302.807	-22.983	0.357	0.216
-301.793	-58.225	0.166	-0.073
-300.778	-19.045	-0.079	-0.050
-299.764	352.814	0.145	-0.289
-298.749	268.790	-0.102	0.180
-297.735	-172.341	0.367	0.012
-296.720	660.061	-0.087	0.224
-295.705	-200.000	-0.065	0.318
-294.691	-158.752	-0.193	-0.011
-293.676	-197.734	-0.396	0.002
-292.662	-153.912	0.329	-0.023
-291.647	132.419	-0.323	0.418
-290.632	12.550	0.184	-0.142
-289.618	-151.718	-0.169	0.013
-288.603	800.000	0.030	0.127
-287.589	-98.386	-0.158	-0.041
-286.574	-200.000	0.064	0.373
-285.559	800.000	-0.121	0.397
-284.545	167.202	0.076	-0.108
-283.530	-200.000	0.020	-0.160
-282.516	-200.000	0.033	-0.188
-281.501	22.820	-0.045	-0.037
-280.486	-55.763	-0.152	-0.068
-279.472	800.000	0.076	-0.260
-278.457	-200.000	0.323	0.001
-277.443	98.050	0.060	-0.069
-276.428	-200.000	-0.037	-0.192
-275.413	-88.150	-0.294	0.088
-274.399	800.000	0.023	-0.073
-273.384	-133.341	0.395	-0.050
-272.370	-0.254	-0.095	-0.067
-271.355	800.000	-0.022	-0.094
-270.340	800.000	-0.101	-0.315
-269.326	-200.000	-0.003	0.323
-268.311	101.485	-0.229	-0.268
-267.297	528.162	0.146	0.346
-266.282	800.000	-0.042	0.152
-265.267	252.209	0.229	-0.391
-264.253	-100.091	-0.163	-0.041
-263.238	-124.228	0.197	-0.031
-262.224	-200.000	0.009	0.229
-261.209	197.102	-0.121	-0.184
-260.195	73.517	0.235	-0.246
-259.180	-122.522	-0.187	-0.030
-258.165	-164.202	-0.017	0.001
-257.151	267.141	0.085	0.149
-256.136	-76.854	-0.247	0.087
-255.122	21.895	-0.131	-0.107
-254.107	-80.834	0.423	-0.141
-253.092	66.154	-0.213	0.217
-252.078	800.000	0.110	-0.319
-251.063	81.531	0.171	-0.186
-250.049	188.375	0.085	-0.126
-249.034	-100.551	-0.347	0.086
-248.019	-148.596	0.149	-0.012
-247.005	175.634	-0.123	0.178
-245.990	-164.639	-0.094	-0.004
-244.976	436.609	-0.089	0.194
-243.961	276.573	-0.147	0.262
-242.946	-102.124	-0.266	-0.064
-241.932	205.236	0.094	0.145
-240.917	302.606	-0.211	-0.392
-239.903	171.949	0.157	-0.226
-238.888	-132.218	0.207	0.027
-237.873	-200.000	0.017	-0.219
-236.859	-34.124	0.622	-0.342
-235.844	640.341	0.051	-0.129
-234.830	-143.072	-0.196	-0.019
-233.815	6.907	-0.077	-0.057
-232.800	-200.000	0.045	-0.197
-231.786	-41.707	-0.197	0.101
-230.771	140.405	0.135	-0.178
-229.757	389.155	0.120	-0.249
-228.742	492.089	0.103	0.237
-227.727	-63.553	0.093	0.038
-226.713	-3.168	0.125	-0.087
-225.698	229.408	0.063	-0.103
-224.684	-102.892	0.171	0.041
-223.669	-170.780	-0.284	-0.010
-222.655	-141.139	-0.149	-0.015
-221.640	5.921	0.069	-0.051
-220.625	-200.000	0.005	-0.165
-219.611	23.559	0.079	-0.065
-218.596	800.000	-0.067	0.198
-217.582	100.918	-0.040	0.047
-216.567	800.000	0.025	-0.087
-215.552	128.790	0.076	-0.097
-214.538	-200.000	-0.013	0.281
-213.523	189.741	-0.035	-0.052
-212.509	-114.524	-0.273	-0.052
-211.494	-70.584	-0.238	-0.090
-210.479	800.000	0.063	0.222
-209.465	462.080	0.090	-0.200
-208.450	254.050	0.203	0.347
-207.436	-60.492	-0.397	0.169
-206.421	267.331	0.050	-0.088
-205.406	402.107	0.104	-0.219
-204.392	-20.940	0.074	-0.045
-203.377	-200.000	-0.002	-0.492
-202.363	-66.335	-0.151	-0.060
-201.348	800.000	0.079	0.224
-200.333	78.569	-0.302	0.323
-199.319	-200.000	0.079	0.531
-198.304	160.871	-0.323	-0.451
-197.290	-165.485	0.123	0.005
-196.275	-20.468	-0.100	-0.062
-195.260	103.186	0.216	0.252
-194.246	-200.000	0.009	0.205
-193.231	35.699	0.250	-0.219
-192.217	-200.000	-0.046	0.273
-191.202	41.348	-0.104	0.094
-190.187	-200.000	-0.044	0.298
-189.173	216.521	0.053	0.084
-188.158	512.793	-0.017	0.040
-187.144	-86.761	-0.270	-0.083
-186.129	-12.459	-0.126	0.082
-185.114	15.583	0.138	-0.109
-184.100	45.116	0.228	0.210
-183.085	9.080	-0.166	0.126
-182.071	188.464	0.195	-0.291
-181.056	-101.960	-0.240	-0.058
-180.042	800.000	-0.102	-0.408
-179.027	-48.942	0.086	-0.041
-178.012	101.969	0.094	-0.109
-176.998	-50.318	0.148	-0.070
-175.983	-58.434	-0.280	-0.121
-174.969	-147.763	0.376	-0.031
-173.954	144.991	-0.060	-0.080
-172.939	-200.000	-0.006	-0.202
-171.925	-117.773	0.096	0.017
-170.910	204.909	0.208	-0.322
-169.896	96.140	-0.234	-0.267
-168.881	800.000	0.059	-0.247
-167.866	13.499	-0.072	-0.056
-166.852	-25.672	0.379	-0.223
-165.837	-43.825	0.470	0.236
-164.823	-134.404	0.226	0.028
-163.808	-11.025	-0.209	0.137
-162.793	-75.441	0.080	-0.028
-161.779	300.492	0.241	-0.444
-160.764	800.000	0.184	0.602
-159.750	264.766	0.128	0.223
-158.735	-99.486	0.083	0.021
-157.720	402.449	0.077	0.161
-156.706	82.888	0.182	0.197
-155.691	-114.486	-0.082	0.016
-154.677	50.010	0.205	0.193
-153.662	57.815	0.210	-0.205
-152.647	-135.795	0.236	-0.028
-151.633	200.816	0.185	0.283
-150.618	-175.521	0.360	-0.010
-149.604	203.343	-0.095	0.147
-148.589	-40.327	0.171	0.089
-147.574	-200.000	0.019	-0.117
-146.560	-42.559	0.177	-0.090
-145.545	147.028	-0.063	-0.085
-144.531	-24.121	-0.114	-0.068
-143.516	-200.000	0.020	-0.151
-142.502	-48.953	0.074	0.035
-141.487	129.765	-0.120	-0.153
-140.472	-31.308	0.265	-0.149
-139.458	94.455	-0.145	0.164
-138.443	138.630	-0.187	-0.244
-137.429	209.603	-0.048	0.074
-136.414	49.241	0.245	-0.229
-135.399	-60.442	0.123	0.052
-134.385	-86.102	0.137	0.042
-133.370	408.931	-0.054	-0.114
-132.356	-85.838	-0.163	-0.050
-131.341	116.910	-0.120	0.147
-130.326	-10.370	-0.356	-0.235
-129.312	-200.000	0.017	0.139
-128.297	390.757	-0.027	-0.056
-127.283	800.000	-0.047	0.150
-126.268	42.672	-0.228	0.207
-125.253	-184.649	-0.405	-0.006
-124.239	232.680	0.110	0.180
-123.224	-80.948	-0.295	0.097
-122.210	-40.636	0.228	0.118
-121.195	-43.038	0.295	0.149
