DTS Sentinel unit serial number:	SN413079Multiplexer serial number:	ORYXHardware model number:	OX4-SRSoftware version number:	ORYX F/W v4.00 Oryx Data Collector v3.7.2.0data status	okinstallation	princeton_trtdifferential loss correction	single-endedforward channel	channel 4reverse channel	N/Adate	2019/09/12time	08:47:11forward acquisition time	60.00reverse acquisition time	0.00gamma	496.2192k internal	0.2301k external	0.2301temperature offset calibration	1.0063default loss term (dB/km)	0.3790temperature slope calibration	1.0000multiplexer offset coefficient	1.0000multiplexer slope coefficient	1.0000fibre end	0.00T internal ref (°C)	33.94T ext. ref 1 (°C)	1.72T ext. ref 2 (°C)	30.52length (m)	temperature (°C)	Stokes	anti-Stokes-747.200	-152.542	0.502	0.037
-746.185	751.732	0.158	0.434
-745.171	646.503	-0.032	-0.084
-744.156	-200.000	-0.032	0.208
-743.142	-200.000	0.064	-0.333
-742.127	36.596	-0.294	0.265
-741.112	749.827	0.019	0.052
-740.098	800.000	-0.110	0.381
-739.083	74.595	0.147	-0.158
-738.069	-200.000	0.013	0.322
-737.054	-120.319	0.282	0.049
-736.039	-143.403	0.107	0.010
-735.025	-33.391	0.346	-0.195
-734.010	1.929	0.343	0.252
-732.996	-75.995	-0.369	-0.133
-731.981	-99.184	-0.108	0.028
-730.966	399.275	-0.074	0.157
-729.952	159.607	-0.076	-0.107
-728.937	-92.191	0.241	0.069
-727.923	-144.056	-0.259	0.025
-726.908	-43.609	0.088	-0.045
-725.894	-200.000	0.010	-0.297
-724.879	-79.872	0.253	-0.087
-723.864	-73.287	-0.430	0.160
-722.850	-57.982	0.029	-0.013
-721.835	-200.000	-0.011	-0.427
-720.821	-104.717	-0.220	-0.052
-719.806	-129.829	0.095	-0.013
-718.791	-128.357	0.179	-0.026
-717.777	-17.137	0.128	-0.082
-716.762	-91.932	-0.015	-0.004
-715.748	575.188	-0.041	0.102
-714.733	37.186	-0.130	-0.118
-713.718	-107.967	0.272	-0.060
-712.704	-34.494	-0.016	0.009
-711.689	-200.000	0.021	-0.194
-710.675	-172.895	0.182	-0.006
-709.660	-103.956	-0.213	-0.051
-708.645	217.936	0.109	0.176
-707.631	-92.139	0.272	0.078
-706.616	89.277	0.417	0.473
-705.602	-153.076	0.095	-0.007
-704.587	-10.615	0.466	0.314
-703.572	75.281	-0.098	-0.106
-702.558	-125.173	0.121	0.019
-701.543	-200.000	-0.045	-0.233
-700.529	-200.000	0.030	-0.235
-699.514	82.035	-0.262	0.289
-698.499	-48.490	-0.336	0.165
-697.485	-119.400	-0.236	0.042
-696.470	140.347	0.126	0.170
-695.456	163.457	-0.084	0.120
-694.441	35.791	0.093	-0.083
-693.426	800.000	0.094	-0.318
-692.412	-71.228	-0.246	-0.094
-691.397	468.591	-0.031	-0.070
-690.383	-94.017	0.358	0.100
-689.368	120.711	-0.114	0.145
-688.354	107.981	-0.010	-0.013
-687.339	124.818	0.203	0.261
-686.324	-200.000	-0.060	-0.332
-685.310	-132.917	-0.086	0.011
-684.295	147.314	-0.027	-0.037
-683.281	62.030	0.164	-0.166
-682.266	-57.285	-0.130	-0.058
-681.251	342.805	-0.105	-0.209
-680.237	-200.000	0.011	-0.171
-679.222	-2.250	0.122	-0.087
-678.208	-25.927	0.097	-0.058
-677.193	167.129	-0.232	-0.336
-676.178	-90.605	0.119	0.035
-675.164	-200.000	0.058	-0.302
-674.149	-111.301	-0.206	-0.043
-673.135	800.000	0.057	-0.173
-672.120	153.963	-0.190	-0.265
-671.105	82.515	0.032	-0.036
-670.091	-200.000	0.010	0.213
-669.076	280.511	0.057	-0.103
-668.062	19.104	0.190	0.155
-667.047	-78.697	0.122	0.042
-666.032	-200.000	-0.016	-0.095
-665.018	522.669	0.052	0.125
-664.003	-23.962	-0.317	-0.193
-662.989	-149.814	0.302	0.024
-661.974	211.278	-0.153	-0.245
-660.959	-194.044	-0.157	-0.001
-659.945	302.798	0.024	-0.045
-658.930	-104.109	-0.235	0.055
-657.916	164.344	0.156	-0.224
-656.901	35.547	0.143	0.128
-655.886	-54.491	0.334	0.154
-654.872	719.666	0.089	-0.239
-653.857	-39.967	0.251	0.133
-652.843	-96.678	-0.225	0.060
-651.828	-200.000	-0.119	-0.000
-650.814	-124.261	-0.209	-0.033
-649.799	-200.000	-0.007	0.097
-648.784	-117.463	-0.127	0.023
-647.770	-124.303	0.107	0.017
-646.755	-184.280	-0.229	-0.004
-645.741	431.721	-0.035	0.078
-644.726	800.000	-0.060	-0.257
-643.711	443.154	0.137	0.305
-642.697	-110.973	-0.189	0.039
-641.682	493.078	0.095	-0.221
-640.668	421.694	-0.141	0.308
-639.653	543.986	0.145	-0.351
-638.638	1.128	0.100	0.073
-637.624	44.027	-0.047	0.044
-636.609	30.295	-0.146	0.127
-635.595	-84.274	-0.170	-0.055
-634.580	-69.084	0.101	0.040
-633.565	-105.583	0.234	-0.054
-632.551	-60.755	0.256	-0.110
-631.536	49.336	0.083	-0.079
-630.522	-28.592	-0.328	0.192
-629.507	-24.993	0.074	0.045
-628.492	-125.949	0.261	0.040
-627.478	-16.187	0.087	-0.056
-626.463	43.018	0.076	-0.071
-625.449	-91.717	-0.059	-0.017
-624.434	4.789	-0.113	-0.085
-623.419	-138.638	-0.375	0.042
-622.405	-200.000	-0.013	0.205
-621.390	518.901	0.159	-0.378
-620.376	-66.868	-0.420	-0.169
-619.361	10.812	-0.216	-0.167
-618.346	-200.000	-0.039	0.280
-617.332	-145.267	0.084	-0.008
-616.317	201.011	-0.102	-0.159
-615.303	-50.435	-0.161	0.077
-614.288	-134.174	-0.026	-0.003
-613.273	-2.924	0.113	-0.080
-612.259	86.409	-0.237	-0.265
-611.244	-113.291	-0.224	0.045
-610.230	-7.722	-0.178	0.122
-609.215	-120.258	-0.097	-0.017
-608.201	-200.000	0.030	-0.207
-607.186	-5.035	0.065	-0.045
-606.171	-21.677	-0.173	-0.107
-605.157	33.642	0.350	0.308
-604.142	774.819	0.097	-0.269
-603.128	-1.104	0.202	-0.145
-602.113	-200.000	-0.003	0.374
-601.098	800.000	0.077	-0.226
-600.084	-124.569	-0.196	-0.031
-599.069	-118.289	-0.267	0.048
-598.055	139.424	-0.043	-0.057
-597.040	-30.530	0.065	0.037
-596.025	-151.181	0.141	0.011
-595.011	-200.000	0.044	0.217
-593.996	-20.528	0.251	0.157
-592.982	360.027	0.087	-0.176
-591.967	-11.243	0.058	-0.039
-590.952	800.000	-0.018	-0.054
-589.938	59.657	-0.136	-0.136
-588.923	-9.686	0.486	-0.328
-587.909	-61.974	-0.072	0.031
-586.894	62.459	-0.038	0.038
-585.879	26.156	0.228	0.193
-584.865	-200.000	-0.029	0.181
-583.850	-32.857	-0.121	0.068
-582.836	-200.000	-0.014	-0.107
-581.821	800.000	0.078	0.342
-580.806	-101.851	-0.131	0.032
-579.792	16.544	-0.178	0.143
-578.777	775.287	-0.083	0.229
-577.763	-85.873	-0.263	-0.083
-576.748	-24.171	-0.284	0.172
-575.733	800.000	0.070	0.248
-574.719	-127.359	-0.335	-0.050
-573.704	-127.519	-0.161	0.024
-572.690	69.313	0.038	-0.040
-571.675	-80.824	-0.277	0.093
-570.661	-200.000	0.006	-0.107
-569.646	484.478	0.083	-0.191
-568.631	-200.000	0.008	0.233
-567.617	800.000	0.071	0.204
-566.602	34.413	0.142	-0.126
-565.588	23.258	-0.139	-0.116
-564.573	-156.131	-0.114	0.007
-563.558	-175.800	-0.143	0.004
-562.544	-18.275	-0.116	-0.073
-561.529	-200.000	0.035	0.242
-560.515	-116.936	0.263	-0.049
-559.500	104.424	0.041	-0.049
-558.485	70.248	-0.253	-0.264
-557.471	582.850	-0.151	-0.374
-556.456	-200.000	0.026	0.132
-555.442	-53.517	-0.261	0.121
-554.427	-194.652	-0.468	0.004
-553.412	24.346	-0.146	0.122
-552.398	-200.000	0.014	0.178
-551.383	227.425	-0.191	-0.314
-550.369	-200.000	-0.070	-0.484
-549.354	-63.452	0.097	-0.040
-548.339	44.483	0.052	0.049
-547.325	68.784	0.164	0.171
-546.310	-99.546	0.481	-0.122
-545.296	-32.589	0.191	-0.108
-544.281	-81.060	0.241	0.081
-543.266	-200.000	-0.028	0.253
-542.252	-1.956	0.121	-0.086
-541.237	-200.000	0.050	-0.298
-540.223	-30.882	0.522	-0.298
-539.208	-120.349	0.143	0.025
-538.193	-200.000	-0.069	-0.325
-537.179	478.207	0.050	-0.114
-536.164	-200.000	0.013	-0.283
-535.150	800.000	-0.054	-0.184
-534.135	61.845	-0.356	0.359
-533.121	800.000	-0.048	0.182
-532.106	-200.000	0.071	0.424
-531.091	800.000	-0.073	0.248
-530.077	83.929	0.204	-0.225
-529.062	-154.659	0.179	0.012
-528.048	-51.783	-0.038	0.018
-527.033	494.883	0.080	0.185
-526.018	-49.199	0.127	0.061
-525.004	418.876	-0.079	-0.172
-523.989	743.777	-0.116	0.315
-522.975	148.017	-0.150	-0.205
-521.960	-55.656	0.141	0.064
-520.945	-34.376	0.105	-0.058
-519.931	524.546	0.177	0.421
-518.916	40.875	-0.010	0.009
-517.902	215.033	0.089	-0.143
-516.887	-97.892	0.315	0.082
-515.872	546.277	0.075	-0.182
-514.858	-82.897	0.214	0.070
-513.843	335.894	-0.033	0.065
-512.829	800.000	-0.074	0.298
-511.814	-183.385	-0.380	0.007
-510.799	-96.464	0.141	0.038
-509.785	-59.634	0.163	0.071
-508.770	77.629	-0.174	0.187
-507.756	-61.543	-0.249	-0.106
-506.741	-200.000	0.020	-0.277
-505.726	-200.000	-0.017	0.176
-504.712	25.888	0.154	0.130
-503.697	156.496	0.108	0.151
-502.683	-94.263	0.281	0.078
-501.668	31.198	0.338	0.293
-500.653	-155.004	-0.187	-0.012
-499.639	641.892	-0.111	0.285
-498.624	163.008	0.044	-0.063
-497.610	-158.488	-0.267	0.016
-496.595	-200.000	-0.062	-0.338
-495.581	-98.077	0.105	-0.027
-494.566	-94.044	0.169	0.047
-493.551	-85.871	0.042	0.013
-492.537	290.470	-0.115	-0.212
-491.522	259.337	0.047	0.081
-490.508	36.408	-0.322	-0.287
-489.493	121.629	-0.151	-0.190
-488.478	23.081	-0.053	-0.044
-487.464	684.188	-0.066	0.175
-486.449	112.879	0.134	0.164
-485.435	-132.271	-0.241	0.031
-484.420	-91.240	0.225	-0.065
-483.405	324.676	-0.172	-0.333
-482.391	-200.000	0.045	0.319
-481.376	800.000	0.097	0.339
-480.362	-200.000	0.009	0.139
-479.347	-200.000	0.007	-0.274
-478.332	-200.000	-0.019	-0.193
-477.318	-159.714	0.093	-0.005
-476.303	-61.868	0.317	-0.134
-475.289	25.108	-0.164	-0.138
-474.274	-87.001	0.176	0.054
-473.259	-41.596	-0.160	0.083
-472.245	110.989	0.198	0.241
-471.230	487.523	0.132	-0.305
-470.216	-43.941	-0.074	0.038
-469.201	-83.038	-0.158	0.051
-468.186	-145.879	0.165	-0.015
-467.172	65.887	0.122	-0.125
-466.157	-11.393	0.244	-0.162
-465.143	800.000	-0.070	0.204
-464.128	-103.998	0.209	0.049
-463.113	102.889	0.248	0.293
-462.099	-200.000	-0.026	0.282
-461.084	161.908	0.251	0.354
-460.070	196.097	-0.241	-0.369
-459.055	336.794	0.108	0.211
-458.040	63.539	0.059	-0.060
-457.026	-200.000	0.017	0.089
-456.011	-200.000	-0.026	0.210
-454.997	-155.896	0.285	0.018
-453.982	221.206	-0.223	-0.362
-452.968	-200.000	0.003	0.083
-451.953	275.349	-0.088	0.157
-450.938	150.541	-0.131	0.179
-449.924	-26.549	0.099	0.059
-448.909	1.068	-0.356	0.257
-447.895	212.477	0.126	-0.200
-446.880	-200.000	0.014	-0.315
-445.865	-59.545	-0.187	-0.081
-444.851	-200.000	0.019	0.193
-443.836	-126.456	-0.177	-0.027
-442.822	338.860	0.200	-0.394
-441.807	800.000	-0.057	-0.169
-440.792	-77.037	0.295	0.104
-439.778	183.760	0.039	0.058
-438.763	-92.354	-0.097	-0.028
-437.749	361.896	-0.127	-0.257
-436.734	-39.254	-0.264	-0.140
-435.719	289.278	-0.141	0.258
-434.705	290.749	-0.051	-0.093
-433.690	-35.376	-0.126	0.069
-432.676	763.744	-0.034	0.092
-431.661	-117.655	0.257	0.047
-430.646	-77.896	-0.151	-0.052
-429.632	276.032	0.041	-0.073
-428.617	-18.819	-0.132	-0.083
-427.603	-4.602	0.241	0.167
-426.588	-88.192	-0.171	-0.052
-425.573	-90.315	0.044	-0.013
-424.559	327.530	0.089	-0.173
-423.544	5.379	0.136	-0.101
-422.530	-27.468	-0.333	0.195
-421.515	115.076	-0.274	0.337
-420.500	470.347	0.192	0.436
-419.486	-200.000	0.001	-0.119
-418.471	-148.332	-0.107	-0.009
-417.457	-200.000	0.008	-0.136
-416.442	-33.912	0.275	-0.153
-415.428	222.288	0.199	-0.322
-414.413	-30.622	-0.223	-0.127
-413.398	800.000	0.157	-0.445
-412.384	186.770	0.045	-0.068
-411.369	-10.249	-0.143	-0.095
-410.355	-200.000	-0.058	-0.405
-409.340	-43.285	-0.272	-0.138
-408.325	-200.000	0.064	0.332
-407.311	-35.588	0.067	-0.037
-406.296	-37.184	0.087	0.047
-405.282	-32.979	0.336	0.187
-404.267	43.593	-0.344	0.317
-403.252	574.566	0.132	0.324
-402.238	-191.000	-0.270	0.003
-401.223	-136.358	-0.168	-0.020
-400.209	53.726	0.097	-0.094
-399.194	-147.357	-0.264	-0.023
-398.179	202.053	-0.088	0.137
-397.165	268.077	0.024	0.042
-396.150	-57.476	-0.329	-0.145
-395.136	164.446	-0.073	-0.104
-394.121	-200.000	0.047	-0.323
-393.106	201.986	0.095	-0.148
-392.092	-102.595	-0.040	0.010
-391.077	-106.352	0.196	-0.044
-390.063	-200.000	-0.024	0.371
-389.048	-200.000	-0.062	-0.395
-388.033	-10.808	-0.235	-0.156
-387.019	-30.535	0.185	-0.106
-386.004	-71.168	-0.195	-0.074
-384.990	-108.089	0.187	0.041
-383.975	602.040	0.113	-0.283
-382.960	-139.627	0.205	-0.022
-381.946	171.204	0.223	-0.322
-380.931	-4.582	-0.373	-0.259
-379.917	25.070	-0.163	-0.136
-378.902	245.545	0.067	0.114
-377.888	-200.000	0.024	0.344
-376.873	68.336	-0.041	0.042
-375.858	600.521	0.024	-0.061
-374.844	40.286	0.138	-0.125
-373.829	65.962	0.396	-0.404
-372.815	-74.339	-0.208	0.075
-371.800	-200.000	0.009	0.107
-370.785	-9.710	-0.084	-0.056
-369.771	-200.000	0.019	0.118
-368.756	-102.343	-0.130	-0.031
-367.742	-146.858	-0.064	0.006
-366.727	225.604	0.130	0.212
-365.712	-200.000	0.011	0.086
-364.698	45.339	0.173	-0.160
-363.683	-8.657	0.163	0.110
-362.669	800.000	-0.044	0.130
-361.654	800.000	-0.068	0.264
-360.639	-5.450	0.238	-0.164
-359.625	-58.085	0.154	-0.067
-358.610	24.438	-0.113	-0.094
-357.596	14.530	0.272	0.213
-356.581	-92.536	-0.321	0.090
-355.566	-40.740	0.092	0.048
-354.552	-88.579	0.217	0.065
-353.537	-200.000	-0.075	-0.353
-352.523	674.870	0.088	-0.230
-351.508	-12.106	0.159	-0.105
-350.493	-200.000	0.000	0.084
-349.479	127.208	0.134	0.170
-348.464	-111.037	0.173	0.036
-347.450	-200.000	-0.038	-0.314
-346.435	110.004	0.121	-0.146
-345.420	-200.000	0.006	0.066
-344.406	-28.320	-0.195	0.113
-343.391	-21.363	0.300	-0.184
-342.377	-200.000	0.020	0.093
-341.362	-87.434	0.079	0.024
-340.348	318.740	0.143	-0.271
-339.333	-139.812	0.299	-0.032
-338.318	678.549	0.069	0.179
-337.304	-199.112	-0.031	0.000
-336.289	122.446	0.200	0.251
-335.275	-200.000	-0.008	-0.108
-334.260	491.133	0.071	-0.164
-333.245	-200.000	-0.061	0.301
-332.231	112.778	0.221	0.269
-331.216	-53.325	0.183	0.084
-330.202	92.809	0.068	-0.077
-329.187	65.328	0.131	0.133
-328.172	-50.155	-0.165	0.078
-327.158	321.091	0.107	-0.205
-326.143	67.046	0.080	0.082
-325.129	-126.542	0.184	-0.027
-324.114	-200.000	0.014	0.144
-323.099	183.716	-0.266	-0.394
-322.085	654.378	0.073	0.187
-321.070	-132.772	0.234	-0.030
-320.056	-142.848	0.014	-0.001
-319.041	-200.000	0.023	-0.338
-318.026	-105.700	-0.203	0.046
-317.012	110.680	-0.190	0.229
-315.997	-58.287	-0.145	-0.063
-314.983	236.485	-0.101	0.167
-313.968	19.604	0.191	-0.154
-312.953	-47.852	-0.125	-0.061
-311.939	800.000	0.077	0.322
-310.924	332.852	-0.066	-0.128
-309.910	-200.000	0.021	0.173
-308.895	14.205	0.095	0.075
-307.880	-165.462	-0.291	0.013
-306.866	113.850	-0.151	0.184
-305.851	-200.000	0.003	0.183
-304.837	-200.000	-0.006	0.087
-303.822	155.601	0.160	-0.220
-302.807	-200.000	-0.017	-0.086
-301.793	-200.000	0.007	0.200
-300.778	233.680	-0.050	-0.083
-299.764	-159.412	-0.164	-0.009
-298.749	83.863	-0.087	0.095
-297.735	-62.299	-0.242	-0.101
-296.720	191.178	-0.090	-0.136
-295.705	-113.919	-0.129	-0.025
-294.691	86.215	-0.191	0.210
-293.676	-200.000	-0.005	0.150
-292.662	294.241	0.110	-0.201
-291.647	-39.445	-0.129	-0.068
-290.632	-200.000	0.016	0.195
-289.618	-34.824	-0.165	0.090
-288.603	-96.756	0.236	0.062
-287.589	-82.378	0.163	-0.053
-286.574	88.999	0.103	-0.115
-285.559	3.643	-0.137	-0.100
-284.545	155.580	0.298	0.411
-283.530	-144.639	0.257	0.024
-282.516	800.000	0.026	-0.091
-281.501	431.537	-0.087	0.190
-280.486	-41.922	0.260	0.134
-279.472	587.925	-0.012	0.028
-278.457	629.767	-0.051	0.129
-277.443	800.000	-0.126	0.362
-276.428	-200.000	-0.054	-0.256
-275.413	169.515	0.121	-0.173
-274.399	354.389	0.017	-0.033
-273.384	800.000	0.042	-0.156
-272.370	-200.000	-0.063	0.342
-271.355	800.000	-0.059	0.217
-270.340	-119.490	0.067	0.012
-269.326	-200.000	0.018	0.114
-268.311	-200.000	-0.015	0.154
-267.297	-200.000	0.055	-0.431
-266.282	-200.000	-0.060	-0.283
-265.267	7.365	-0.202	0.151
-264.253	-45.720	-0.138	0.068
-263.238	-103.462	-0.062	-0.015
-262.224	390.695	-0.101	-0.209
-261.209	-113.468	-0.242	0.047
-260.195	50.128	0.169	-0.160
-259.180	40.277	-0.233	-0.210
-258.165	16.651	0.118	0.094
-257.151	88.880	0.131	-0.145
-256.136	21.075	0.320	-0.260
-255.122	-200.000	-0.020	-0.277
-254.107	-200.000	-0.045	0.202
-253.092	-200.000	0.005	0.329
-252.078	34.835	-0.219	-0.191
-251.063	-25.997	0.101	-0.059
-250.049	-142.529	-0.427	-0.042
-249.034	468.788	0.198	-0.443
-248.019	-123.311	-0.308	0.049
-247.005	800.000	-0.082	0.278
-245.990	-181.077	-0.347	-0.007
-244.976	14.531	-0.112	-0.087
-243.961	126.182	0.056	-0.071
-242.946	-200.000	-0.006	-0.235
-241.932	433.114	0.084	0.182
-240.917	-138.978	0.145	0.016
-239.903	800.000	-0.105	-0.375
-238.888	349.797	0.030	0.060
-237.873	78.748	-0.082	0.087
-236.859	-200.000	-0.239	-0.001
-235.844	36.999	-0.209	0.185
-234.830	-143.395	0.218	-0.021
-233.815	-121.258	-0.096	-0.016
-232.800	172.082	0.079	0.113
-231.786	28.302	0.239	-0.202
-230.771	52.556	-0.153	-0.146
-229.757	-61.243	0.122	-0.052
-228.742	-200.000	-0.003	0.069
-227.727	105.434	-0.143	0.169
-226.713	4.212	-0.275	-0.201
-225.698	398.919	-0.116	0.242
-224.684	-79.477	-0.218	0.074
-223.669	-27.619	-0.208	-0.121
-222.655	18.191	-0.214	0.171
-221.640	-166.750	-0.062	0.003
-220.625	40.696	0.175	0.157
-219.611	-200.000	-0.004	-0.108
-218.596	65.910	0.066	-0.067
-217.582	665.932	-0.106	-0.273
-216.567	-106.554	0.154	0.034
-215.552	461.920	0.195	-0.434
-214.538	-193.220	0.288	0.003
-213.523	-131.903	-0.320	-0.042
-212.509	15.787	-0.183	0.143
-211.494	-29.729	0.203	-0.116
-210.479	444.058	0.133	-0.292
-209.465	218.575	-0.201	0.321
-208.450	-51.284	0.357	0.167
-207.436	-80.713	-0.424	-0.141
-206.421	-113.262	0.409	0.080
-205.406	127.365	0.329	0.417
-204.392	23.237	0.074	0.061
-203.377	-40.235	0.108	-0.056
-202.363	667.594	0.066	0.171
-201.348	261.981	-0.064	0.110
-200.333	155.628	-0.087	0.120
-199.319	-96.189	-0.061	-0.016
-198.304	-145.127	-0.097	0.009
-197.290	-99.800	0.133	-0.033
-196.275	-71.266	0.230	-0.086
-195.260	-59.231	0.247	0.106
-194.246	-25.884	-0.149	-0.088
-193.231	-200.000	-0.017	0.507
-192.217	-170.485	0.179	0.006
-191.202	13.402	0.309	0.239
-190.187	-200.000	0.041	0.297
-189.173	-200.000	-0.015	0.171
-188.158	-1.172	0.108	-0.076
-187.144	-200.000	-0.052	-0.239
-186.129	270.233	0.160	0.281
-185.114	676.595	0.060	-0.155
-184.100	37.720	-0.189	0.168
-183.085	-85.223	0.081	-0.025
-182.071	741.872	0.075	0.202
-181.056	-55.583	0.217	0.097
-180.042	-18.079	-0.218	-0.136
-179.027	-200.000	-0.002	-0.102
-178.012	-200.000	0.044	-0.536
-176.998	-37.026	0.008	-0.004
-175.983	-131.684	0.149	-0.020
-174.969	85.966	-0.111	0.122
-173.954	-12.896	-0.193	-0.125
-172.939	-92.249	0.273	0.077
-171.925	-200.000	-0.015	0.318
-170.910	-200.000	-0.016	-0.078
-169.896	125.521	0.066	-0.084
-168.881	31.552	-0.240	0.206
-167.866	-99.973	0.082	-0.020
-166.852	-200.000	0.031	0.258
-165.837	-200.000	-0.007	0.143
-164.823	-180.429	-0.037	0.001
-163.808	-200.000	-0.019	-0.192
-162.793	12.874	-0.354	-0.273
-161.779	-72.683	-0.174	0.064
-160.764	-46.429	0.051	-0.025
-159.750	-96.479	-0.228	-0.060
-158.735	-200.000	0.061	0.289
-157.720	800.000	-0.061	-0.247
-156.706	-43.149	0.217	0.109
-155.691	62.247	0.242	0.240
-154.677	330.966	-0.263	-0.505
-153.662	-78.199	-0.074	-0.025
-152.647	-148.091	-0.255	-0.021
-151.633	197.081	0.159	-0.242
-150.618	-150.475	0.351	-0.027
-149.604	118.059	-0.136	0.167
-148.589	800.000	-0.074	-0.257
-147.574	-38.379	-0.154	-0.081
-146.560	4.921	0.152	-0.111
-145.545	12.514	0.138	-0.106
-144.531	758.202	0.093	0.250
-143.516	-200.000	0.007	-0.153
-142.502	800.000	0.032	-0.096
-141.487	3.628	-0.269	0.196
-140.472	-168.354	-0.267	0.010
-139.458	-155.902	-0.056	-0.004
-138.443	331.432	0.095	-0.183
-137.429	-36.703	0.040	0.022
-136.414	800.000	0.112	0.386
-135.399	281.312	0.096	0.171
-134.385	81.038	-0.202	-0.217
-133.370	-149.402	-0.133	-0.011
-132.356	800.000	-0.018	-0.066
-131.341	-200.000	0.016	0.229
-130.326	263.758	0.186	0.322
-129.312	335.041	0.178	-0.344
-128.297	107.902	-0.078	-0.093
-127.283	602.656	-0.090	0.223
-126.268	-200.000	0.000	0.033
-125.253	800.000	-0.006	0.018
-124.239	121.949	0.078	0.097
-123.224	-128.924	0.118	0.016
-122.210	793.666	0.029	-0.080
-121.195	-55.054	-0.153	0.068
