DTS Sentinel unit serial number:	SN413079Multiplexer serial number:	ORYXHardware model number:	OX4-SRSoftware version number:	ORYX F/W v4.00 Oryx Data Collector v3.7.2.0data status	okinstallation	princeton_trtdifferential loss correction	single-endedforward channel	channel 4reverse channel	N/Adate	2019/09/17time	02:49:35forward acquisition time	60.00reverse acquisition time	0.00gamma	496.2192k internal	0.2311k external	0.2311temperature offset calibration	0.9976default loss term (dB/km)	0.3790temperature slope calibration	1.0000multiplexer offset coefficient	1.0000multiplexer slope coefficient	1.0000fibre end	0.00T internal ref (°C)	29.87T ext. ref 1 (°C)	0.14T ext. ref 2 (°C)	24.86length (m)	temperature (°C)	Stokes	anti-Stokes-747.200	-160.369	0.140	-0.008
-746.185	5.213	-0.205	0.153
-745.171	33.208	0.269	-0.237
-744.156	-200.000	-0.035	0.403
-743.142	39.047	0.192	-0.174
-742.127	51.282	-0.175	0.169
-741.112	-18.750	0.085	0.054
-740.098	-99.019	-0.265	0.068
-739.083	-59.640	0.347	0.151
-738.069	-200.000	-0.071	0.334
-737.054	691.907	0.040	0.107
-736.039	-200.000	-0.036	-0.223
-735.025	511.563	-0.164	-0.388
-734.010	-147.330	-0.138	0.012
-732.996	-200.000	-0.018	-0.146
-731.981	-52.974	-0.281	-0.131
-730.966	800.000	-0.009	0.033
-729.952	800.000	0.119	-0.437
-728.937	-27.393	0.261	-0.154
-727.923	44.940	-0.227	0.212
-726.908	36.393	-0.057	0.051
-725.894	-200.000	0.000	-0.096
-724.879	-140.880	0.110	0.011
-723.864	58.806	-0.096	0.096
-722.850	34.582	-0.078	0.069
-721.835	-15.866	-0.211	-0.136
-720.821	-200.000	-0.034	-0.325
-719.806	641.363	-0.081	-0.210
-718.791	-200.000	0.004	0.076
-717.777	297.224	0.093	0.173
-716.762	92.652	-0.131	-0.150
-715.748	-84.545	-0.191	0.061
-714.733	-16.907	-0.255	0.163
-713.718	436.034	0.120	-0.265
-712.704	-23.911	-0.233	-0.141
-711.689	-200.000	0.015	-0.266
-710.675	-84.472	-0.204	0.065
-709.660	-92.105	0.105	0.030
-708.645	-143.796	0.191	0.018
-707.631	755.512	0.020	-0.054
-706.616	-163.189	-0.117	0.006
-705.602	-93.455	-0.153	-0.043
-704.587	-41.529	-0.082	-0.043
-703.572	-26.119	0.141	-0.084
-702.558	634.187	0.038	0.099
-701.543	-120.831	-0.308	-0.053
-700.529	-142.469	0.217	0.022
-699.514	-200.000	0.036	-0.225
-698.499	52.671	0.041	0.040
-697.485	-200.000	0.001	0.349
-696.470	-200.000	0.090	-0.471
-695.456	-93.010	-0.087	-0.025
-694.441	207.718	-0.182	-0.288
-693.426	7.538	0.130	-0.098
-692.412	-123.089	-0.156	-0.025
-691.397	237.716	-0.197	-0.330
-690.383	-28.222	0.122	0.072
-689.368	-200.000	-0.062	-0.000
-688.354	-49.307	0.119	-0.057
-687.339	-200.000	0.008	0.457
-686.324	-60.734	0.061	-0.026
-685.310	-27.767	0.275	0.161
-684.295	121.855	-0.145	0.183
-683.281	401.220	0.100	0.212
-682.266	-200.000	0.023	0.368
-681.251	-93.922	-0.299	-0.083
-680.237	800.000	0.073	-0.212
-679.222	-51.536	0.071	-0.034
-678.208	266.302	-0.244	-0.432
-677.193	-84.194	-0.379	-0.122
-676.178	86.046	-0.174	0.193
-675.164	-31.024	0.045	-0.025
-674.149	-200.000	-0.007	-0.058
-673.135	-50.292	0.239	-0.114
-672.120	-102.840	-0.308	0.074
-671.105	-200.000	-0.014	-0.101
-670.091	800.000	0.046	-0.192
-669.076	44.323	-0.055	-0.051
-668.062	-94.993	-0.389	0.106
-667.047	-200.000	-0.018	-0.090
-666.032	224.263	-0.094	0.154
-665.018	667.171	-0.018	-0.048
-664.003	118.869	0.274	0.342
-662.989	204.007	-0.067	0.105
-661.974	-39.901	0.327	0.173
-660.959	63.674	0.176	-0.179
-659.945	-118.307	0.370	0.067
-658.930	-200.000	-0.112	-0.579
-657.916	-181.068	0.172	0.003
-656.901	-47.876	-0.164	-0.080
-655.886	-200.000	-0.048	-0.262
-654.872	-136.693	0.106	0.012
-653.857	800.000	0.022	-0.094
-652.843	202.345	-0.170	0.265
-651.828	83.049	-0.202	0.222
-650.814	95.731	-0.176	-0.203
-649.799	-94.983	0.312	0.085
-648.784	-36.475	-0.298	-0.162
-647.770	-200.000	-0.036	-0.160
-646.755	208.907	-0.057	-0.091
-645.741	29.398	0.316	0.272
-644.726	25.478	-0.218	0.183
-643.711	-70.450	-0.275	0.105
-642.697	122.801	0.123	-0.156
-641.682	33.388	-0.210	-0.184
-640.668	318.401	-0.160	0.307
-639.653	78.057	0.184	-0.198
-638.638	-181.100	-0.199	0.004
-637.624	-109.666	0.450	-0.096
-636.609	-102.891	-0.143	0.034
-635.595	-176.934	-0.399	-0.010
-634.580	-200.000	0.001	-0.038
-633.565	-50.652	0.383	0.182
-632.551	-8.372	-0.103	-0.070
-631.536	-151.156	0.097	-0.007
-630.522	306.384	-0.073	0.136
-629.507	-200.000	-0.017	-0.240
-628.492	290.747	-0.200	0.367
-627.478	-187.757	-0.107	-0.001
-626.463	0.951	-0.069	0.050
-625.449	52.688	-0.190	-0.183
-624.434	40.543	-0.182	-0.166
-623.419	54.636	-0.197	0.192
-622.405	685.153	0.102	-0.268
-621.390	-60.420	-0.143	-0.061
-620.376	-115.020	0.196	0.038
-619.361	800.000	0.063	0.189
-618.346	60.799	-0.156	-0.156
-617.332	-200.000	0.039	0.376
-616.317	-200.000	-0.034	0.162
-615.303	48.287	-0.055	0.052
-614.288	-200.000	0.002	-0.210
-613.273	800.000	-0.050	-0.207
-612.259	-160.330	0.152	-0.008
-611.244	-82.500	0.042	-0.014
-610.230	-114.146	0.194	0.038
-609.215	36.575	0.050	0.045
-608.201	128.904	-0.180	-0.232
-607.186	374.488	0.042	-0.086
-606.171	-200.000	0.017	0.251
-605.157	-20.694	-0.093	0.057
-604.142	601.020	-0.037	-0.093
-603.128	-62.895	-0.222	0.093
-602.113	-96.774	0.050	0.013
-601.098	-94.657	-0.034	0.009
-600.084	-122.741	-0.174	-0.028
-599.069	800.000	0.121	-0.346
-598.055	84.247	-0.116	-0.128
-597.040	633.350	0.046	-0.119
-596.025	164.363	-0.080	-0.114
-595.011	800.000	-0.064	0.243
-593.996	-8.773	-0.327	0.221
-592.982	-200.000	-0.014	-0.401
-591.967	506.077	-0.125	0.293
-590.952	77.987	-0.054	0.058
-589.938	-181.571	0.349	0.007
-588.923	-200.000	0.064	-0.380
-587.909	800.000	-0.071	-0.242
-586.894	76.068	0.066	-0.071
-585.879	-1.603	-0.326	0.232
-584.865	-200.000	0.003	0.164
-583.850	261.033	0.100	0.174
-582.836	-51.581	0.024	0.011
-581.821	408.382	0.141	-0.301
-580.806	107.201	-0.182	0.218
-579.792	-34.485	-0.234	-0.129
-578.777	800.000	-0.028	-0.123
-577.763	800.000	-0.189	0.543
-576.748	-52.046	-0.142	-0.067
-575.733	115.030	0.110	0.136
-574.719	-60.689	0.106	-0.045
-573.704	-78.875	-0.228	0.078
-572.690	-79.546	0.083	0.028
-571.675	800.000	-0.043	0.150
-570.661	-186.979	0.143	0.002
-569.646	-200.000	0.009	-0.113
-568.631	255.613	0.173	-0.298
-567.617	131.909	0.059	-0.076
-566.602	9.748	-0.066	0.051
-565.588	-200.000	0.037	0.226
-564.573	-126.401	-0.286	0.043
-563.558	131.526	0.067	-0.086
-562.544	-69.334	-0.141	-0.055
-561.529	-200.000	0.020	0.117
-560.515	110.530	-0.055	0.066
-559.500	-66.134	0.280	0.112
-558.485	-175.616	-0.242	-0.007
-557.471	800.000	-0.127	-0.353
-556.456	-38.040	0.156	-0.084
-555.442	-200.000	0.036	-0.177
-554.427	-200.000	-0.040	-0.226
-553.412	87.336	-0.154	-0.171
-552.398	209.799	-0.070	-0.110
-551.383	800.000	-0.027	0.089
-550.369	800.000	0.064	0.207
-549.354	-127.632	-0.397	-0.058
-548.339	-200.000	0.005	0.023
-547.325	-41.460	0.463	-0.240
-546.310	-20.802	-0.046	-0.029
-545.296	147.279	0.212	-0.288
-544.281	-178.916	0.218	0.005
-543.266	-16.336	0.350	-0.224
-542.252	185.126	-0.094	0.141
-541.237	-39.210	0.209	-0.111
-540.223	-200.000	-0.015	0.452
-539.208	800.000	-0.114	-0.323
-538.193	121.155	-0.166	0.208
-537.179	-10.989	0.148	-0.098
-536.164	-132.806	0.274	0.035
-535.150	-118.689	0.084	0.015
-534.135	-46.992	-0.265	0.130
-533.121	800.000	0.037	0.152
-532.106	-65.037	-0.069	0.028
-531.091	190.117	-0.044	0.066
-530.077	-37.246	0.248	-0.133
-529.062	153.572	-0.244	-0.336
-528.048	117.742	0.092	0.115
-527.033	141.810	-0.074	-0.099
-526.018	239.602	-0.107	-0.179
-525.004	129.678	-0.190	0.244
-523.989	-108.583	0.317	0.068
-522.975	385.491	-0.073	-0.152
-521.960	24.555	-0.258	0.215
-520.945	117.758	0.177	0.219
-519.931	-123.942	-0.337	-0.053
-518.916	472.097	-0.076	-0.173
-517.902	-68.271	-0.199	-0.078
-516.887	-74.467	0.122	0.044
-515.872	-18.951	0.233	0.146
-514.858	-76.423	-0.145	0.051
-513.843	-200.000	0.041	0.197
-512.829	202.138	-0.165	0.255
-511.814	-106.508	-0.377	-0.085
-510.799	-35.177	0.359	-0.196
-509.785	800.000	0.044	0.138
-508.770	-104.293	0.036	-0.008
-507.756	56.619	-0.293	-0.287
-506.741	77.165	-0.047	0.050
-505.726	800.000	0.126	-0.430
-504.712	800.000	0.068	-0.297
-503.697	92.045	0.261	0.296
-502.683	-118.671	0.316	-0.056
-501.668	83.260	-0.189	0.207
-500.653	-7.690	-0.223	0.152
-499.639	-10.670	0.105	-0.070
-498.624	-200.000	-0.036	0.262
-497.610	62.178	-0.092	-0.092
-496.595	-71.013	-0.133	-0.050
-495.581	122.981	-0.084	0.105
-494.566	-92.388	-0.180	0.051
-493.551	-99.685	-0.150	-0.038
-492.537	-95.273	0.100	-0.027
-491.522	-126.541	0.313	-0.047
-490.508	-200.000	0.045	0.333
-489.493	196.311	0.218	-0.334
-488.478	-101.767	-0.286	-0.070
-487.464	-39.234	0.055	0.029
-486.449	288.439	0.107	0.194
-485.435	-104.628	0.218	0.051
-484.420	-36.837	-0.303	-0.164
-483.405	172.836	-0.058	0.083
-482.391	-200.000	0.177	-0.001
-481.376	-200.000	-0.002	0.282
-480.362	800.000	-0.054	-0.196
-479.347	-76.548	-0.224	-0.079
-478.332	96.388	0.050	0.057
-477.318	41.933	-0.119	0.109
-476.303	800.000	0.092	0.300
-475.289	-82.013	0.401	0.132
-474.274	-200.000	0.015	-0.080
-473.259	58.001	0.079	-0.078
-472.245	184.988	0.111	0.165
-471.230	57.092	-0.117	0.114
-470.216	-200.000	-0.006	0.156
-469.201	-200.000	-0.041	0.291
-468.186	-63.761	-0.240	0.099
-467.172	215.377	0.055	0.087
-466.157	18.947	0.203	0.164
-465.143	115.826	0.122	0.150
-464.128	74.148	-0.117	-0.123
-463.113	-104.608	-0.167	0.039
-462.099	256.313	0.132	-0.227
-461.084	-200.000	-0.011	-0.097
-460.070	-200.000	-0.002	0.045
-459.055	-113.855	0.277	0.054
-458.040	-16.695	0.117	0.074
-457.026	-200.000	-0.015	-0.546
-456.011	315.540	0.032	-0.060
-454.997	252.895	0.143	0.245
-453.982	-23.297	-0.076	0.046
-452.968	-1.002	-0.271	0.192
-451.953	-115.462	0.155	0.029
-450.938	744.200	0.058	-0.157
-449.924	-100.284	-0.120	-0.030
-448.909	-200.000	0.033	-0.245
-447.895	2.226	0.286	0.207
-446.880	-38.683	-0.154	-0.081
-445.865	-200.000	0.011	0.174
-444.851	119.866	0.099	0.123
-443.836	-148.729	-0.051	-0.004
-442.822	11.585	0.090	-0.069
-441.807	-31.590	-0.079	-0.044
-440.792	37.250	-0.164	-0.146
-439.778	77.908	-0.192	0.206
-438.763	-97.678	0.148	0.038
-437.749	-50.536	-0.371	0.176
-436.734	-200.000	0.005	0.244
-435.719	-200.000	-0.046	0.383
-434.705	-78.755	-0.316	0.108
-433.690	240.014	0.123	0.206
-432.676	61.456	0.100	0.100
-431.661	-29.201	-0.151	-0.087
-430.646	-200.000	-0.002	0.022
-429.632	-62.182	-0.183	-0.077
-428.617	-6.468	0.082	-0.056
-427.603	-30.056	0.071	-0.041
-426.588	-75.275	-0.082	0.029
-425.573	-200.000	-0.029	0.265
-424.559	-36.134	-0.187	0.101
-423.544	-107.041	0.038	-0.008
-422.530	-200.000	-0.015	0.394
-421.515	-200.000	-0.018	-0.316
-420.500	106.877	0.184	0.219
-419.486	-200.000	-0.003	0.295
-418.471	133.324	0.238	-0.308
-417.457	-12.241	0.290	-0.190
-416.442	721.438	-0.110	-0.292
-415.428	58.138	0.139	-0.136
-414.413	-107.161	-0.312	-0.069
-413.398	-90.640	-0.278	0.080
-412.384	143.588	-0.096	0.128
-411.369	73.329	-0.134	-0.140
-410.355	48.009	-0.115	-0.107
-409.340	212.041	0.050	-0.079
-408.325	69.584	0.066	-0.068
-407.311	800.000	0.133	-0.379
-406.296	-200.000	-0.038	-0.218
-405.282	69.437	0.162	-0.167
-404.267	-200.000	0.007	0.111
-403.252	-37.459	0.250	0.134
-402.238	314.563	-0.137	-0.258
-401.223	-200.000	0.013	0.376
-400.209	-200.000	0.098	0.440
-399.194	41.571	0.185	-0.167
-398.179	-158.086	0.455	0.027
-397.165	395.719	0.034	0.071
-396.150	599.973	0.141	-0.352
-395.136	-91.707	-0.185	-0.053
-394.121	800.000	0.066	-0.238
-393.106	84.510	0.120	0.131
-392.092	106.926	-0.233	0.277
-391.077	-63.557	-0.292	0.120
-390.063	-38.316	-0.251	-0.133
-389.048	-97.072	0.412	-0.108
-388.033	-45.505	-0.286	-0.142
-387.019	-58.292	0.250	-0.109
-386.004	-200.000	-0.015	-0.220
-384.990	-200.000	0.012	0.159
-383.975	800.000	-0.120	-0.353
-382.960	-200.000	-0.003	0.062
-381.946	107.848	0.079	0.094
-380.931	-164.471	-0.357	-0.016
-379.917	-200.000	0.078	-0.376
-378.902	-52.968	0.353	-0.162
-377.888	800.000	-0.067	-0.266
-376.873	-200.000	0.036	0.309
-375.858	-67.141	-0.316	0.125
-374.844	410.385	-0.101	0.215
-373.829	-200.000	-0.024	0.245
-372.815	666.891	0.052	-0.136
-371.800	-41.479	-0.208	-0.107
-370.785	412.996	-0.018	-0.039
-369.771	97.567	-0.124	-0.142
-368.756	77.358	-0.129	-0.137
-367.742	800.000	0.084	-0.348
-366.727	108.811	0.068	-0.082
-365.712	-200.000	0.044	0.256
-364.698	93.579	-0.096	0.109
-363.683	566.387	0.105	-0.254
-362.669	596.561	0.030	-0.073
-361.654	800.000	0.054	-0.158
-360.639	-19.453	0.315	-0.195
-359.625	-78.316	0.467	0.160
-358.610	800.000	0.038	-0.130
-357.596	-55.040	-0.079	-0.035
-356.581	800.000	0.083	-0.292
-355.566	-61.331	-0.236	0.099
-354.552	-108.874	0.134	-0.029
-353.537	800.000	-0.080	0.225
-352.523	-75.786	0.093	0.033
-351.508	-127.024	-0.232	-0.034
-350.493	-167.240	-0.011	-0.000
-349.479	-136.014	-0.391	-0.046
-348.464	-17.696	0.093	-0.058
-347.450	169.409	0.081	-0.116
-346.435	-108.721	0.108	-0.023
-345.420	10.638	-0.273	0.208
-344.406	111.973	0.253	-0.305
-343.391	30.761	-0.049	0.042
-342.377	-63.876	-0.323	0.132
-341.362	800.000	0.074	-0.238
-340.348	176.232	-0.115	-0.167
-339.333	-122.155	0.087	0.014
-338.318	141.932	0.032	-0.042
-337.304	64.442	0.183	-0.184
-336.289	-200.000	-0.002	0.104
-335.275	-80.345	-0.317	-0.106
-334.260	-59.040	0.125	0.054
-333.245	9.936	-0.252	-0.191
-332.231	-200.000	0.056	-0.376
-331.216	-30.749	-0.106	-0.060
-330.202	202.794	-0.155	0.239
-329.187	34.828	-0.149	-0.130
-328.172	-200.000	-0.049	-0.321
-327.158	-54.850	0.319	0.144
-326.143	-111.406	0.233	0.047
-325.129	-14.017	-0.236	-0.152
-324.114	532.482	-0.093	-0.220
-323.099	800.000	-0.088	0.260
-322.085	-169.431	-0.340	-0.012
-321.070	-35.531	0.236	0.128
-320.056	-200.000	0.030	0.198
-319.041	-27.809	0.090	-0.052
-318.026	98.631	0.094	0.109
-317.012	169.370	0.161	0.229
-315.997	236.703	0.048	0.080
-314.983	-43.442	-0.041	-0.021
-313.968	72.075	-0.285	0.296
-312.953	-94.346	0.104	0.028
-311.939	-75.685	-0.170	-0.060
-310.924	94.100	0.219	0.248
-309.910	745.274	0.123	-0.331
-308.895	763.609	0.089	0.240
-307.880	-200.000	-0.068	0.309
-306.866	-6.808	-0.059	-0.040
-305.851	-200.000	-0.013	-0.125
-304.837	31.087	-0.217	-0.186
-303.822	-2.397	0.071	-0.050
-302.807	800.000	0.065	0.186
-301.793	-167.606	0.232	0.009
-300.778	800.000	-0.014	-0.040
-299.764	-5.400	-0.232	-0.159
-298.749	-93.829	0.466	-0.128
-297.735	110.232	-0.082	0.098
-296.720	95.921	0.226	-0.257
-295.705	-6.826	0.192	0.130
-294.691	800.000	0.027	-0.084
-293.676	120.954	0.114	0.142
-292.662	113.684	0.161	0.195
-291.647	-200.000	-0.041	0.401
-290.632	14.499	0.045	0.035
-289.618	-200.000	0.008	0.074
-288.603	800.000	0.028	0.098
-287.589	139.387	-0.164	-0.216
-286.574	-108.242	-0.370	-0.080
-285.559	-200.000	-0.047	-0.256
-284.545	306.064	-0.185	-0.342
-283.530	-200.000	0.029	0.178
-282.516	12.984	-0.238	0.184
-281.501	-33.809	0.358	0.197
-280.486	800.000	-0.041	-0.158
-279.472	-99.168	0.153	-0.039
-278.457	405.897	0.067	-0.142
-277.443	-113.972	0.189	-0.037
-276.428	-27.998	0.073	0.042
-275.413	140.457	-0.079	-0.104
-274.399	-68.791	-0.080	0.031
-273.384	-200.000	0.023	0.107
-272.370	-34.622	0.337	-0.184
-271.355	800.000	0.056	-0.167
-270.340	234.140	-0.108	-0.178
-269.326	-200.000	0.023	-0.262
-268.311	-200.000	0.023	-0.111
-267.297	-16.995	0.116	0.073
-266.282	-86.736	0.282	0.086
-265.267	800.000	0.021	-0.070
-264.253	7.776	0.176	-0.131
-263.238	31.706	0.145	-0.125
-262.224	311.922	-0.132	0.248
-261.209	-200.000	-0.223	0.001
-260.195	118.355	-0.165	0.203
-259.180	-98.511	-0.099	0.025
-258.165	269.744	-0.150	-0.263
-257.151	162.830	0.219	0.306
-256.136	-73.027	-0.159	-0.058
-255.122	200.036	0.150	0.230
-254.107	-160.028	0.299	-0.016
-253.092	137.319	-0.101	-0.132
-252.078	-27.329	-0.129	0.075
-251.063	35.262	0.257	-0.224
-250.049	-200.000	0.009	-0.123
-249.034	-200.000	-0.018	0.330
-248.019	-109.585	-0.282	0.059
-247.005	-25.659	-0.094	0.055
-245.990	207.455	-0.097	-0.151
-244.976	33.503	0.208	0.180
-243.961	800.000	0.098	0.372
-242.946	-200.000	-0.011	0.154
-241.932	-12.845	0.378	-0.245
-240.917	-76.111	0.348	0.122
-239.903	145.391	-0.083	0.110
-238.888	192.832	0.071	-0.107
-237.873	-126.405	0.340	-0.050
-236.859	-200.000	-0.011	0.084
-235.844	800.000	-0.082	0.297
-234.830	320.592	0.093	-0.176
-233.815	800.000	0.012	0.050
-232.800	730.991	0.080	0.213
-231.786	52.148	-0.064	-0.060
-230.771	85.209	-0.066	-0.072
-229.757	-36.446	0.099	-0.053
-228.742	-119.154	0.153	0.027
-227.727	-78.328	0.222	0.076
-226.713	-3.968	0.266	0.183
-225.698	83.577	0.207	0.225
-224.684	106.895	-0.074	0.088
-223.669	-20.635	-0.211	-0.129
-222.655	201.698	-0.216	-0.331
-221.640	295.716	0.151	0.274
-220.625	264.804	-0.166	0.288
-219.611	-38.864	0.085	0.045
-218.596	-126.535	-0.341	0.050
-217.582	69.795	0.301	0.309
-216.567	111.633	-0.130	-0.156
-215.552	-95.493	-0.224	-0.060
-214.538	-40.332	-0.181	-0.094
-213.523	-58.871	0.051	0.022
-212.509	562.920	-0.145	-0.349
-211.494	-58.575	0.213	0.092
-210.479	-162.362	-0.265	0.013
-209.465	-78.811	0.335	0.113
-208.450	-200.000	0.039	-0.382
-207.436	-200.000	0.044	-0.266
-206.421	800.000	0.151	0.459
-205.406	-43.428	0.189	0.095
-204.392	-200.000	-0.048	-0.306
-203.377	185.124	0.112	0.165
-202.363	-182.103	0.229	-0.004
-201.348	-99.690	0.285	-0.071
-200.333	-200.000	-0.002	0.141
-199.319	228.482	-0.078	-0.126
-198.304	-118.104	-0.155	-0.027
-197.290	773.134	-0.089	-0.241
-196.275	-200.000	-0.008	0.054
-195.260	89.355	-0.014	-0.015
-194.246	800.000	-0.093	0.402
-193.231	-12.175	-0.213	0.138
-192.217	-107.796	0.218	-0.047
-191.202	-71.519	-0.181	0.067
-190.187	116.478	-0.156	-0.190
-189.173	167.932	-0.169	-0.238
-188.158	208.404	-0.104	-0.161
-187.144	45.833	0.085	-0.078
-186.129	17.673	-0.216	-0.170
-185.114	-200.000	-0.059	0.268
-184.100	59.431	-0.042	0.041
-183.085	197.143	-0.095	-0.144
-182.071	800.000	-0.032	0.098
-181.056	371.571	-0.128	0.258
-180.042	-116.417	-0.089	0.016
-179.027	-33.141	0.182	0.100
-178.012	800.000	0.090	0.319
-176.998	446.754	-0.202	0.441
-175.983	26.615	0.150	0.124
-174.969	800.000	-0.012	0.043
-173.954	165.789	-0.209	-0.293
-172.939	-76.691	-0.101	-0.035
-171.925	-200.000	-0.038	-0.168
-170.910	-165.743	0.552	0.024
-169.896	-200.000	-0.010	0.081
-168.881	800.000	0.042	0.179
-167.866	555.066	-0.078	0.186
-166.852	-118.311	-0.168	0.030
-165.837	800.000	0.016	0.047
-164.823	-200.000	0.018	-0.124
-163.808	-100.869	0.416	-0.102
-162.793	-7.322	0.122	-0.082
-161.779	-27.169	0.135	-0.078
-160.764	18.955	-0.076	0.061
-159.750	382.047	-0.014	0.029
-158.735	800.000	0.020	-0.058
-157.720	800.000	0.093	-0.326
-156.706	-23.798	-0.136	0.081
-155.691	-200.000	-0.005	-0.175
-154.677	-97.528	0.120	-0.031
-153.662	32.061	0.102	-0.088
-152.647	800.000	0.041	0.143
-151.633	617.172	-0.045	0.113
-150.618	800.000	0.014	-0.052
-149.604	-83.966	0.236	0.074
-148.589	-200.000	-0.082	0.364
-147.574	-127.020	0.138	0.020
-146.560	-200.000	0.028	-0.301
-145.545	-141.907	-0.278	-0.028
-144.531	-192.083	-0.304	-0.003
-143.516	-200.000	-0.049	-0.431
-142.502	560.478	-0.152	-0.363
-141.487	-70.559	0.096	-0.036
-140.472	-55.733	0.308	-0.136
-139.458	-5.850	-0.115	0.078
-138.443	-200.000	-0.014	0.093
-137.429	85.957	0.183	-0.200
-136.414	-200.000	0.018	0.252
-135.399	800.000	0.104	0.309
-134.385	800.000	-0.071	0.237
-133.370	51.259	-0.043	-0.041
-132.356	-120.400	0.301	-0.051
-131.341	800.000	0.108	0.330
-130.326	-146.472	0.207	0.018
-129.312	-123.938	-0.223	0.035
-128.297	-200.000	0.023	0.387
-127.283	45.386	-0.208	0.190
-126.268	182.612	0.071	0.104
-125.253	-31.044	0.226	-0.126
-124.239	-200.000	0.015	0.133
-123.224	-40.567	-0.177	-0.091
-122.210	609.780	-0.164	-0.407
