DTS Sentinel unit serial number:	SN413079Multiplexer serial number:	ORYXHardware model number:	OX4-SRSoftware version number:	ORYX F/W v4.00 Oryx Data Collector v3.7.2.0data status	okinstallation	princeton_trtdifferential loss correction	single-endedforward channel	channel 4reverse channel	N/Adate	2019/09/16time	21:13:34forward acquisition time	60.00reverse acquisition time	0.00gamma	496.2192k internal	0.2313k external	0.2313temperature offset calibration	0.9967default loss term (dB/km)	0.3790temperature slope calibration	1.0000multiplexer offset coefficient	1.0000multiplexer slope coefficient	1.0000fibre end	0.00T internal ref (°C)	31.77T ext. ref 1 (°C)	0.06T ext. ref 2 (°C)	25.51length (m)	temperature (°C)	Stokes	anti-Stokes-747.200	60.994	-0.048	-0.048
-746.185	-77.386	0.099	0.035
-745.171	800.000	0.036	0.117
-744.156	285.886	-0.132	-0.242
-743.142	-15.349	0.193	0.125
-742.127	122.956	0.277	0.352
-741.112	-200.000	0.061	-0.391
-740.098	26.866	-0.383	0.325
-739.083	-63.136	-0.079	0.033
-738.069	166.153	-0.268	0.385
-737.054	-200.000	-0.029	0.141
-736.039	-25.745	-0.272	-0.163
-735.025	103.653	0.121	-0.144
-734.010	-134.979	0.345	0.042
-732.996	-105.609	-0.322	0.074
-731.981	404.070	-0.198	0.423
-730.966	43.705	-0.065	-0.061
-729.952	-200.000	-0.010	-0.387
-728.937	47.119	-0.080	0.076
-727.923	-200.000	0.011	-0.082
-726.908	-4.966	-0.168	-0.118
-725.894	591.108	0.142	-0.356
-724.879	94.712	-0.154	0.177
-723.864	136.338	-0.312	-0.412
-722.850	-21.161	-0.374	-0.232
-721.835	-20.089	-0.352	-0.220
-720.821	-98.455	-0.115	-0.030
-719.806	616.314	0.107	-0.273
-718.791	-19.589	0.188	-0.118
-717.777	-93.808	0.231	0.065
-716.762	207.915	-0.080	0.126
-715.748	-181.150	-0.156	0.003
-714.733	150.759	-0.157	-0.216
-713.718	37.351	-0.151	-0.135
-712.704	-200.000	0.083	0.475
-711.689	276.639	0.054	-0.098
-710.675	-133.153	-0.219	0.028
-709.660	6.163	0.145	0.109
-708.645	-91.436	-0.211	-0.061
-707.631	-86.006	-0.116	0.036
-706.616	-200.000	-0.023	0.198
-705.602	-93.580	0.062	-0.017
-704.587	-151.179	0.293	-0.022
-703.572	36.370	0.094	-0.084
-702.558	-200.000	0.025	0.127
-701.543	105.201	-0.115	0.138
-700.529	-7.052	-0.192	0.132
-699.514	37.088	0.165	0.148
-698.499	-200.000	0.030	0.242
-697.485	-200.000	-0.024	-0.135
-696.470	-105.168	0.281	0.065
-695.456	74.417	0.257	-0.274
-694.441	208.512	-0.025	-0.040
-693.426	800.000	-0.112	-0.465
-692.412	-44.308	-0.114	-0.058
-691.397	-9.651	-0.034	-0.023
-690.383	-124.522	-0.331	0.052
-689.368	62.639	0.102	-0.103
-688.354	-200.000	-0.039	0.177
-687.339	-169.307	0.186	-0.007
-686.324	344.284	-0.055	0.108
-685.310	-162.304	-0.132	-0.007
-684.295	800.000	-0.051	0.178
-683.281	235.168	-0.104	0.173
-682.266	-102.158	-0.227	-0.055
-681.251	91.445	-0.169	-0.193
-680.237	-4.153	0.412	0.289
-679.222	-110.748	0.093	0.019
-678.208	-17.502	0.005	0.003
-677.193	-153.701	-0.097	-0.007
-676.178	776.747	-0.086	-0.237
-675.164	190.004	0.051	-0.078
-674.149	-200.000	0.023	-0.117
-673.135	-200.000	-0.034	-0.154
-672.120	-200.000	-0.027	-0.231
-671.105	-58.676	0.183	0.080
-670.091	-21.074	-0.126	-0.078
-669.076	800.000	-0.053	-0.180
-668.062	800.000	0.052	-0.154
-667.047	-76.845	-0.173	0.061
-666.032	-148.940	-0.293	0.024
-665.018	-42.998	0.142	0.073
-664.003	15.526	0.095	0.076
-662.989	-108.801	0.295	0.064
-661.974	76.592	-0.200	-0.214
-660.959	362.038	-0.097	0.197
-659.945	141.055	-0.127	0.170
-658.930	105.319	-0.046	-0.055
-657.916	-178.431	-0.145	-0.003
-656.901	-200.000	0.000	0.003
-655.886	-194.451	0.404	0.003
-654.872	-106.284	-0.183	-0.041
-653.857	94.670	-0.015	-0.017
-652.843	-34.584	0.218	-0.121
-651.828	-7.803	-0.155	0.106
-650.814	112.042	0.157	0.191
-649.799	-114.465	0.076	0.015
-648.784	-200.000	-0.037	-0.320
-647.770	37.842	-0.136	-0.122
-646.755	411.561	0.025	0.053
-645.741	-30.449	-0.396	-0.227
-644.726	-126.343	-0.133	0.020
-643.711	714.140	0.161	0.430
-642.697	261.934	0.079	-0.138
-641.682	800.000	-0.049	0.179
-640.668	605.473	-0.057	0.143
-639.653	-26.578	0.233	-0.138
-638.638	800.000	-0.024	-0.096
-637.624	-78.002	-0.279	0.097
-636.609	255.182	-0.082	0.141
-635.595	-200.000	0.012	0.130
-634.580	-10.994	0.159	-0.106
-633.565	-20.043	-0.274	-0.170
-632.551	-45.900	0.148	-0.074
-631.536	-97.653	0.384	0.101
-630.522	-133.519	0.257	0.033
-629.507	-140.162	0.158	-0.017
-628.492	137.451	-0.161	-0.213
-627.478	304.648	0.064	0.120
-626.463	800.000	0.057	-0.163
-625.449	36.622	-0.188	0.168
-624.434	-49.636	-0.128	0.062
-623.419	-49.454	0.247	-0.119
-622.405	-54.315	0.080	-0.037
-621.390	-139.441	0.210	-0.023
-620.376	-200.000	-0.056	-0.415
-619.361	-200.000	-0.005	-0.113
-618.346	-161.560	-0.394	-0.020
-617.332	-102.093	-0.207	0.050
-616.317	112.324	0.139	0.169
-615.303	-200.000	-0.023	-0.223
-614.288	-32.114	-0.282	0.159
-613.273	-113.558	0.077	0.015
-612.259	-137.603	-0.227	-0.026
-611.244	-200.000	0.020	0.150
-610.230	-35.542	0.273	0.150
-609.215	142.286	-0.193	0.259
-608.201	-78.039	-0.188	-0.065
-607.186	16.254	-0.242	0.192
-606.171	379.324	-0.013	-0.028
-605.157	87.910	0.243	-0.271
-604.142	-200.000	0.017	-0.278
-603.128	177.020	-0.209	-0.307
-602.113	-199.286	-0.048	-0.000
-601.098	70.227	0.120	0.125
-600.084	218.810	0.124	0.199
-599.069	410.915	0.122	0.260
-598.055	791.249	-0.046	-0.127
-597.040	163.112	-0.162	0.229
-596.025	-200.000	0.028	-0.123
-595.011	67.106	-0.219	-0.225
-593.996	178.490	0.188	0.277
-592.982	-200.000	-0.040	-0.303
-591.967	316.401	-0.168	0.319
-590.952	-200.000	0.033	-0.172
-589.938	800.000	-0.059	0.236
-588.923	252.157	0.136	-0.234
-587.909	-144.466	0.260	-0.024
-586.894	-46.419	-0.373	-0.185
-585.879	139.164	0.271	0.359
-584.865	-200.000	0.002	-0.227
-583.850	-68.825	-0.233	0.091
-582.836	-109.389	0.212	-0.045
-581.821	-131.407	0.241	-0.032
-580.806	-74.435	-0.305	0.111
-579.792	-131.904	-0.187	-0.025
-578.777	-102.447	0.398	-0.096
-577.763	-76.794	0.142	-0.050
-576.748	297.211	0.103	-0.191
-575.733	-124.535	-0.221	-0.035
-574.719	21.482	-0.126	-0.103
-573.704	207.285	0.180	0.282
-572.690	21.798	0.205	-0.168
-571.675	-72.030	-0.130	0.049
-570.661	234.710	0.014	-0.023
-569.646	-8.299	0.356	-0.241
-568.631	-17.375	0.028	-0.018
-567.617	178.598	0.100	0.147
-566.602	-200.000	-0.028	0.191
-565.588	17.537	-0.381	0.305
-564.573	-111.030	0.164	-0.034
-563.558	687.064	-0.096	-0.252
-562.544	122.839	-0.117	-0.148
-561.529	-136.577	0.234	-0.027
-560.515	-145.248	0.167	-0.015
-559.500	-105.702	0.187	0.043
-558.485	-67.127	-0.087	0.034
-557.471	-91.251	-0.368	-0.106
-556.456	-84.480	0.303	0.096
-555.442	28.778	0.131	0.112
-554.427	-60.305	-0.364	0.156
-553.412	-200.000	0.035	-0.217
-552.398	-45.011	-0.358	0.179
-551.383	401.767	0.072	0.153
-550.369	-5.966	-0.189	0.130
-549.354	-80.362	0.027	-0.009
-548.339	-200.000	0.003	-0.182
-547.325	-200.000	0.025	-0.251
-546.310	-32.186	0.091	0.051
-545.296	-200.000	-0.081	0.435
-544.281	-1.575	-0.092	0.065
-543.266	86.195	-0.331	-0.367
-542.252	108.731	0.132	0.159
-541.237	-65.920	0.101	-0.041
-540.223	-165.542	-0.297	-0.013
-539.208	-200.000	0.034	0.195
-538.193	677.665	-0.095	-0.249
-537.179	77.505	0.157	-0.168
-536.164	800.000	-0.006	-0.017
-535.150	-200.000	-0.004	0.102
-534.135	800.000	0.023	-0.071
-533.121	-25.607	0.265	-0.157
-532.106	-103.140	0.170	0.040
-531.091	-200.000	-0.034	-0.174
-530.077	-200.000	0.031	0.272
-529.062	569.675	0.108	0.264
-528.048	246.022	0.156	0.264
-527.033	-148.940	0.170	0.014
-526.018	-118.370	-0.321	0.057
-525.004	36.860	0.065	-0.058
-523.989	-200.000	0.068	-0.363
-522.975	-82.393	0.178	-0.058
-521.960	-105.567	0.279	0.064
-520.945	127.617	-0.091	-0.116
-519.931	67.778	0.094	-0.097
-518.916	5.203	0.257	0.190
-517.902	-200.000	-0.018	0.285
-516.887	-46.888	0.314	-0.154
-515.872	82.593	-0.078	-0.085
-514.858	-200.000	-0.049	0.255
-513.843	18.833	0.104	-0.083
-512.829	-33.106	-0.264	0.147
-511.814	80.422	-0.081	-0.088
-510.799	-91.520	0.149	0.043
-509.785	83.135	-0.098	0.108
-508.770	-66.568	-0.359	-0.143
-507.756	5.825	0.155	-0.115
-506.741	800.000	0.072	0.299
-505.726	116.972	-0.112	-0.138
-504.712	-11.672	0.060	-0.039
-503.697	0.378	-0.192	0.138
-502.683	-144.091	-0.185	-0.017
-501.668	-200.000	0.026	-0.288
-500.653	-19.693	-0.031	0.019
-499.639	167.530	0.093	-0.133
-498.624	-65.992	0.062	-0.025
-497.610	26.413	0.223	-0.188
-496.595	153.008	0.027	0.037
-495.581	63.034	0.067	-0.068
-494.566	800.000	0.044	-0.132
-493.551	17.179	-0.184	0.147
-492.537	-0.974	-0.062	0.044
-491.522	-44.290	0.329	0.165
-490.508	-111.022	-0.043	0.009
-489.493	800.000	-0.086	-0.243
-488.478	306.956	-0.087	-0.163
-487.464	14.072	0.232	0.181
-486.449	195.470	-0.086	0.132
-485.435	34.047	-0.150	0.131
-484.420	-15.883	-0.051	0.032
-483.405	-33.011	-0.059	-0.033
-482.391	-95.451	0.156	0.042
-481.376	-62.832	0.169	0.070
-480.362	-200.000	-0.026	0.124
-479.347	-32.515	0.469	0.262
-478.332	-32.965	-0.222	-0.123
-477.318	-41.273	0.224	0.116
-476.303	-70.213	0.371	0.141
-475.289	146.312	-0.108	-0.146
-474.274	-6.140	-0.277	-0.190
-473.259	800.000	0.028	-0.096
-472.245	195.126	0.283	-0.431
-471.230	-41.425	-0.433	-0.224
-470.216	800.000	-0.091	0.269
-469.201	-20.686	-0.058	0.036
-468.186	55.368	-0.252	-0.245
-467.172	-124.763	0.257	-0.040
-466.157	-108.266	-0.186	-0.040
-465.143	-154.251	-0.357	0.024
-464.128	260.924	0.070	0.121
-463.113	-200.000	-0.025	0.302
-462.099	800.000	0.138	0.427
-461.084	-200.000	-0.024	0.176
-460.070	-111.316	0.226	0.046
-459.055	-200.000	0.054	0.345
-458.040	221.137	0.060	0.097
-457.026	138.496	-0.161	0.212
-456.011	-90.679	0.470	0.136
-454.997	-104.628	-0.368	-0.085
-453.982	96.104	0.151	0.173
-452.968	-14.242	0.208	0.134
-451.953	-49.113	0.157	0.075
-450.938	-90.211	-0.222	0.065
-449.924	264.314	0.111	-0.194
-448.909	336.319	-0.087	-0.170
-447.895	-200.000	0.021	0.129
-446.880	-195.585	0.325	0.002
-445.865	-14.618	-0.094	-0.061
-444.851	-60.043	-0.264	-0.113
-443.836	800.000	-0.079	-0.230
-442.822	406.635	0.089	-0.189
-441.807	-98.515	-0.152	-0.039
-440.792	-118.438	-0.152	-0.027
-439.778	-200.000	0.002	0.018
-438.763	-200.000	0.019	0.344
-437.749	-175.515	0.377	0.010
-436.734	-101.909	-0.338	0.082
-435.719	800.000	0.061	-0.204
-434.705	106.143	0.238	-0.282
-433.690	-200.000	0.014	0.379
-432.676	-200.000	-0.010	-0.091
-431.661	-200.000	-0.058	-0.366
-430.646	800.000	-0.020	0.065
-429.632	129.981	-0.089	0.114
-428.617	147.894	0.168	-0.228
-427.603	-9.130	-0.176	-0.118
-426.588	-118.201	-0.246	0.044
-425.573	66.080	0.243	-0.247
-424.559	365.591	0.141	-0.285
-423.544	126.319	-0.308	0.391
-422.530	-200.000	0.031	0.140
-421.515	222.674	0.120	0.193
-420.500	-141.231	0.228	-0.023
-419.486	16.815	-0.223	0.177
-418.471	8.218	0.033	-0.025
-417.457	800.000	0.028	-0.119
-416.442	-200.000	0.003	0.379
-415.428	-200.000	0.012	0.386
-414.413	-3.087	-0.243	-0.170
-413.398	160.882	-0.060	-0.083
-412.384	75.432	0.140	-0.148
-411.369	11.119	-0.129	-0.099
-410.355	64.780	0.213	-0.215
-409.340	-200.000	-0.048	-0.343
-408.325	1.411	0.405	0.292
-407.311	-174.284	-0.336	-0.010
-406.296	-159.543	0.144	0.008
-405.282	800.000	0.029	0.096
-404.267	198.341	0.066	0.100
-403.252	532.047	-0.130	0.308
-402.238	-77.878	-0.167	-0.058
-401.223	7.537	0.148	0.110
-400.209	92.805	0.060	0.068
-399.194	36.418	-0.104	-0.092
-398.179	147.815	-0.218	0.295
-397.165	-71.989	-0.203	-0.075
-396.150	-53.866	0.227	0.103
-395.136	172.427	-0.109	-0.156
-394.121	-64.183	-0.255	-0.104
-393.106	-18.698	0.041	0.025
-392.092	-200.000	0.013	0.075
-391.077	800.000	-0.042	-0.159
-390.063	364.568	-0.061	-0.123
-389.048	-109.233	0.293	-0.062
-388.033	451.916	-0.113	0.250
-387.019	-200.000	0.025	-0.178
-386.004	366.325	0.048	0.098
-384.990	83.544	0.142	0.155
-383.975	16.310	0.026	-0.020
-382.960	-32.451	0.290	-0.162
-381.946	-67.383	-0.270	0.106
-380.931	13.886	0.060	0.047
-379.917	426.712	0.044	-0.095
-378.902	-125.128	-0.143	-0.022
-377.888	-200.000	0.001	-0.188
-376.873	-27.309	-0.425	0.247
-375.858	-128.449	0.092	0.013
-374.844	-164.160	-0.153	-0.007
-373.829	7.412	-0.052	0.039
-372.815	-59.486	-0.126	-0.054
-371.800	263.472	0.217	-0.377
-370.785	-200.000	-0.005	-0.141
-369.771	-79.590	-0.412	0.139
-368.756	-162.619	0.123	-0.006
-367.742	24.965	0.212	-0.175
-366.727	-12.750	0.089	0.058
-365.712	-2.280	0.089	-0.063
-364.698	-200.000	-0.046	-0.369
-363.683	-200.000	0.053	-0.257
-362.669	-200.000	-0.021	0.323
-361.654	800.000	0.048	-0.149
-360.639	222.874	0.126	-0.203
-359.625	-0.044	0.097	-0.069
-358.610	-200.000	0.007	-0.166
-357.596	-84.513	0.306	-0.097
-356.581	611.081	0.108	0.269
-355.566	-41.346	0.104	-0.054
-354.552	4.004	0.340	0.248
-353.537	-200.000	-0.007	0.072
-352.523	800.000	-0.094	0.383
-351.508	-200.000	0.008	0.142
-350.493	527.317	-0.097	-0.228
-349.479	800.000	-0.054	0.201
-348.464	800.000	0.034	0.145
-347.450	800.000	0.020	-0.082
-346.435	-31.475	-0.279	0.156
-345.420	22.470	0.204	-0.167
-344.406	104.247	0.103	-0.121
-343.391	-141.547	-0.294	0.030
-342.377	436.781	-0.131	-0.286
-341.362	-47.844	-0.089	0.043
-340.348	62.236	-0.125	0.125
-339.333	469.228	0.023	0.052
-338.318	522.446	-0.105	-0.245
-337.304	133.476	0.171	-0.220
-336.289	-102.156	-0.327	0.078
-335.275	-104.131	0.076	-0.018
-334.260	332.591	0.143	-0.275
-333.245	-99.155	0.371	0.094
-332.231	525.012	-0.101	0.236
-331.216	-59.647	0.150	-0.064
-330.202	37.378	-0.179	0.158
-329.187	65.058	-0.149	0.151
-328.172	115.894	0.054	-0.066
-327.158	-93.006	-0.216	0.060
-326.143	362.748	0.083	0.166
-325.129	28.076	-0.135	-0.114
-324.114	260.982	0.067	0.116
-323.099	-149.553	0.393	-0.031
-322.085	-200.000	-0.024	-0.233
-321.070	-200.000	0.018	0.304
-320.056	-56.107	-0.233	-0.103
-319.041	91.608	0.077	-0.086
-318.026	21.287	0.241	0.195
-317.012	-161.430	0.101	0.005
-315.997	47.785	-0.154	-0.144
-314.983	-144.736	0.294	-0.027
-313.968	-187.860	-0.322	0.004
-312.953	128.600	-0.141	-0.179
-311.939	-200.000	0.034	0.303
-310.924	-200.000	-0.007	0.126
-309.910	-145.805	-0.091	0.008
-308.895	14.039	-0.185	0.143
-307.880	-100.812	0.305	0.075
-306.866	-11.203	-0.207	-0.136
-305.851	51.587	-0.022	-0.021
-304.837	-107.551	-0.050	0.011
-303.822	-22.500	0.057	0.035
-302.807	-125.402	-0.195	-0.030
-301.793	-200.000	0.004	-0.160
-300.778	-138.436	0.135	-0.015
-299.764	-200.000	-0.063	-0.294
-298.749	800.000	0.061	0.240
-297.735	-118.873	0.040	-0.007
-296.720	-73.889	-0.357	-0.129
-295.705	-85.186	0.254	-0.079
-294.691	800.000	0.056	-0.176
-293.676	58.803	-0.235	-0.230
-292.662	-85.574	-0.035	0.011
-291.647	-45.486	-0.320	0.158
-290.632	229.406	-0.007	-0.012
-289.618	-200.000	0.014	0.333
-288.603	68.713	0.104	0.106
-287.589	-123.588	0.137	0.022
-286.574	800.000	-0.062	0.174
-285.559	783.471	0.039	0.107
-284.545	-45.476	-0.266	0.131
-283.530	41.685	0.195	-0.176
-282.516	-200.000	-0.002	0.183
-281.501	66.443	-0.482	-0.488
-280.486	-200.000	-0.037	-0.383
-279.472	-32.850	-0.453	-0.251
-278.457	13.309	-0.186	-0.144
-277.443	0.583	0.277	0.197
-276.428	497.019	0.045	0.103
-275.413	-141.915	-0.253	-0.025
-274.399	187.441	0.150	-0.223
-273.384	219.245	0.116	-0.184
-272.370	-162.132	-0.086	0.004
-271.355	193.632	-0.249	0.376
-270.340	-3.514	-0.174	-0.120
-269.326	16.015	-0.452	0.354
-268.311	65.381	0.160	0.161
-267.297	-164.109	-0.244	-0.011
-266.282	-200.000	0.023	0.227
-265.267	800.000	-0.034	-0.100
-264.253	-87.296	-0.051	-0.015
-263.238	39.177	0.266	0.237
-262.224	-200.000	-0.007	-0.207
-261.209	226.989	-0.148	0.240
-260.195	-119.005	0.183	0.032
-259.180	96.841	-0.145	-0.165
-258.165	-60.953	0.103	0.043
-257.151	-200.000	-0.049	0.249
-256.136	68.885	0.174	0.178
-255.122	444.959	0.111	-0.243
-254.107	267.000	0.139	-0.241
-253.092	-121.214	0.179	-0.030
-252.078	800.000	0.051	-0.156
-251.063	693.021	0.034	-0.088
-250.049	25.023	0.095	-0.079
-249.034	-200.000	0.043	-0.192
-248.019	250.262	-0.026	-0.045
-247.005	496.146	0.092	0.210
-245.990	-32.739	-0.046	-0.025
-244.976	-129.627	-0.225	0.031
-243.961	44.802	0.221	0.202
-242.946	-31.757	0.238	-0.133
-241.932	-167.747	-0.098	0.004
-240.917	162.981	-0.120	-0.167
-239.903	-0.035	0.178	0.126
-238.888	496.450	0.105	0.241
-237.873	-151.650	-0.258	-0.019
-236.859	-136.418	-0.234	-0.027
-235.844	-39.299	-0.352	-0.183
-234.830	81.845	0.052	-0.056
-233.815	665.002	0.057	0.147
-232.800	142.808	0.119	0.157
-231.786	212.060	-0.039	-0.060
-230.771	-200.000	-0.045	0.235
-229.757	-24.852	0.128	0.075
-228.742	-65.554	-0.147	-0.059
-227.727	-200.000	0.014	0.314
-226.713	-113.577	-0.191	-0.037
-225.698	65.473	0.268	0.270
-224.684	92.958	0.059	-0.067
-223.669	-158.702	0.299	0.017
-222.655	332.347	0.129	-0.247
-221.640	-157.870	0.411	0.024
-220.625	20.055	0.043	-0.035
-219.611	-161.881	0.144	0.007
-218.596	-178.079	-0.099	-0.002
-217.582	699.068	0.042	0.111
-216.567	-144.471	0.041	-0.004
-215.552	-113.935	-0.089	0.017
-214.538	13.006	-0.300	-0.231
-213.523	363.512	-0.115	-0.229
-212.509	800.000	-0.005	0.020
-211.494	0.675	-0.263	0.187
-210.479	-61.991	0.152	-0.063
-209.465	40.045	0.280	0.250
-208.450	170.552	-0.229	0.325
-207.436	66.786	-0.246	-0.248
-206.421	-144.960	-0.251	-0.023
-205.406	151.836	0.196	0.265
-204.392	-200.000	0.012	-0.360
-203.377	235.168	0.092	0.151
-202.363	320.844	0.096	0.181
-201.348	-31.455	-0.253	0.141
-200.333	726.118	-0.055	-0.145
-199.319	-112.144	-0.230	0.046
-198.304	-72.793	0.215	0.079
-197.290	-3.169	0.143	-0.099
-196.275	-53.704	0.150	-0.068
-195.260	-200.000	0.056	0.419
-194.246	800.000	0.028	0.102
-193.231	-22.547	0.036	0.022
-192.217	-154.670	0.287	-0.019
-191.202	-14.569	-0.078	-0.050
-190.187	-71.947	0.054	-0.020
-189.173	-200.000	0.018	0.238
-188.158	371.540	0.126	0.254
-187.144	-158.022	-0.081	-0.005
-186.129	-108.023	0.414	-0.089
-185.114	-98.643	-0.218	0.055
-184.100	-103.054	0.049	-0.012
-183.085	344.750	-0.120	0.234
-182.071	-139.186	-0.223	0.024
-181.056	-149.774	-0.107	0.008
-180.042	-5.898	0.092	-0.063
-179.027	800.000	0.099	-0.375
-178.012	-139.913	0.296	-0.031
-176.998	-164.480	0.351	-0.016
-175.983	52.652	-0.246	-0.233
-174.969	-81.926	-0.278	-0.090
-173.954	73.322	0.067	-0.070
-172.939	800.000	0.034	0.136
-171.925	800.000	-0.066	0.268
-170.910	800.000	-0.048	-0.140
-169.896	436.718	0.070	-0.151
-168.881	174.632	-0.234	-0.336
-167.866	800.000	-0.050	-0.195
-166.852	-81.850	-0.126	-0.041
-165.837	761.243	0.066	-0.177
-164.823	-88.614	0.203	-0.060
-163.808	-200.000	0.015	0.345
-162.793	539.238	0.056	0.131
-161.779	-157.188	0.448	-0.027
-160.764	-200.000	-0.068	-0.354
-159.750	334.538	0.062	-0.119
-158.735	63.830	-0.222	0.221
-157.720	148.301	-0.115	0.154
-156.706	-132.250	-0.226	-0.029
-155.691	-149.052	0.446	-0.036
-154.677	-200.000	0.006	-0.345
-153.662	643.818	0.168	-0.426
-152.647	33.227	-0.253	-0.218
-151.633	-27.911	-0.010	0.006
-150.618	-35.455	0.200	-0.108
-149.604	800.000	-0.062	-0.172
-148.589	134.458	-0.107	0.137
-147.574	-200.000	-0.026	0.358
-146.560	-148.680	0.052	0.004
-145.545	-200.000	0.002	-0.110
-144.531	372.430	-0.028	-0.056
-143.516	69.601	-0.057	0.058
-142.502	-107.956	0.254	0.055
-141.487	-200.000	0.009	-0.095
-140.472	13.825	-0.062	0.048
-139.458	-161.009	0.283	0.015
-138.443	-177.490	0.177	-0.004
-137.429	800.000	0.083	-0.267
-136.414	-81.802	-0.218	-0.071
-135.399	-63.223	0.108	0.044
-134.385	212.412	0.148	-0.231
-133.370	-183.600	0.054	0.001
-132.356	-42.669	0.180	-0.091
-131.341	565.589	-0.047	-0.113
-130.326	-10.624	0.154	0.101
-129.312	-200.000	-0.292	-0.001
-128.297	346.328	0.111	0.217
-127.283	-139.149	0.115	0.012
-126.268	35.327	-0.106	0.092
-125.253	229.780	-0.075	-0.121
-124.239	2.102	-0.128	0.092
-123.224	-8.095	0.057	0.038
-122.210	-114.886	-0.123	0.023
-121.195	69.543	0.218	0.222
