DTS Sentinel unit serial number:	SN413079Multiplexer serial number:	ORYXHardware model number:	OX4-SRSoftware version number:	ORYX F/W v4.00 Oryx Data Collector v3.7.2.0data status	okinstallation	princeton_trtdifferential loss correction	single-endedforward channel	channel 4reverse channel	N/Adate	2019/09/14time	06:13:35forward acquisition time	60.00reverse acquisition time	0.00gamma	496.2192k internal	0.2321k external	0.2321temperature offset calibration	1.0137default loss term (dB/km)	0.3790temperature slope calibration	1.0000multiplexer offset coefficient	1.0000multiplexer slope coefficient	1.0000fibre end	0.00T internal ref (°C)	26.69T ext. ref 1 (°C)	3.40T ext. ref 2 (°C)	20.76length (m)	temperature (°C)	Stokes	anti-Stokes-747.200	0.475	0.240	0.173
-746.185	-200.000	-0.000	0.189
-745.171	512.452	0.045	-0.106
-744.156	-200.000	-0.033	0.323
-743.142	-200.000	0.008	0.137
-742.127	-200.000	-0.016	0.263
-741.112	197.543	-0.246	-0.379
-740.098	-23.653	0.136	0.083
-739.083	34.275	0.199	0.176
-738.069	800.000	-0.056	-0.158
-737.054	-106.428	0.127	-0.029
-736.039	646.920	-0.044	-0.115
-735.025	-73.687	0.194	0.071
-734.010	-77.327	0.197	-0.069
-732.996	137.117	-0.248	-0.328
-731.981	-75.931	-0.061	0.022
-730.966	168.225	-0.242	0.347
-729.952	-65.085	-0.194	0.079
-728.937	4.339	0.148	-0.110
-727.923	-200.000	-0.014	0.209
-726.908	357.795	0.038	-0.077
-725.894	-185.474	-0.022	0.000
-724.879	72.183	0.304	-0.319
-723.864	-162.105	-0.344	-0.017
-722.850	800.000	-0.075	-0.298
-721.835	-138.486	0.234	0.026
-720.821	-118.573	-0.167	-0.030
-719.806	589.515	0.178	-0.443
-718.791	-61.476	0.234	0.099
-717.777	-129.454	-0.201	-0.028
-716.762	158.312	0.035	-0.048
-715.748	800.000	-0.024	0.076
-714.733	-107.876	0.160	0.035
-713.718	-94.388	0.184	0.051
-712.704	98.550	-0.258	-0.300
-711.689	-200.000	0.033	0.211
-710.675	-76.022	0.561	0.200
-709.660	82.699	-0.154	-0.169
-708.645	-122.260	-0.128	0.021
-707.631	-200.000	0.072	-0.370
-706.616	-14.394	-0.305	-0.198
-705.602	251.329	-0.235	0.404
-704.587	-91.254	0.188	-0.054
-703.572	18.625	-0.201	-0.162
-702.558	-200.000	0.025	0.316
-701.543	122.639	0.091	0.115
-700.529	-2.987	-0.269	-0.190
-699.514	-34.764	-0.018	-0.010
-698.499	-81.854	-0.101	-0.033
-697.485	248.399	0.050	0.085
-696.470	91.383	0.038	0.043
-695.456	54.450	-0.039	-0.038
-694.441	-39.770	0.566	-0.299
-693.426	18.270	0.127	-0.102
-692.412	-200.000	0.025	0.262
-691.397	-200.000	0.002	-0.146
-690.383	310.483	-0.090	-0.170
-689.368	-173.724	-0.317	0.010
-688.354	-51.025	0.142	-0.067
-687.339	642.661	0.033	-0.084
-686.324	354.001	0.047	0.094
-685.310	-158.456	-0.306	-0.018
-684.295	-2.102	0.200	0.142
-683.281	-91.066	-0.171	-0.050
-682.266	-144.937	-0.127	-0.012
-681.251	25.665	0.283	-0.237
-680.237	-100.926	0.279	0.069
-679.222	-200.000	0.056	-0.271
-678.208	-78.034	0.059	-0.021
-677.193	-53.199	0.114	-0.053
-676.178	34.900	-0.134	-0.118
-675.164	172.028	0.121	0.175
-674.149	5.810	-0.197	0.147
-673.135	-200.000	-0.019	-0.152
-672.120	-200.000	-0.008	-0.198
-671.105	-25.686	-0.165	-0.098
-670.091	-108.174	-0.182	0.040
-669.076	61.415	0.117	0.117
-668.062	800.000	-0.085	-0.279
-667.047	205.483	0.069	0.108
-666.032	221.795	-0.247	-0.400
-665.018	58.594	-0.051	0.051
-664.003	-200.000	-0.039	-0.250
-662.989	213.141	-0.047	0.074
-661.974	-200.000	0.067	0.321
-660.959	-98.619	0.165	0.042
-659.945	-97.949	0.334	-0.087
-658.930	-29.684	0.090	0.052
-657.916	69.555	0.077	0.080
-656.901	-200.000	0.023	-0.104
-655.886	343.875	-0.034	-0.067
-654.872	406.220	0.075	-0.160
-653.857	-90.158	-0.177	-0.052
-652.843	-64.307	-0.191	-0.078
-651.828	-78.911	-0.180	-0.062
-650.814	800.000	0.005	-0.019
-649.799	-16.855	-0.357	-0.227
-648.784	-200.000	-0.069	-0.369
-647.770	-200.000	-0.006	-0.030
-646.755	338.934	-0.056	0.111
-645.741	800.000	-0.055	-0.164
-644.726	-19.714	-0.198	-0.124
-643.711	-80.993	-0.201	0.067
-642.697	-2.276	0.068	0.048
-641.682	-27.206	0.235	-0.138
-640.668	73.567	0.090	-0.095
-639.653	192.688	0.147	-0.224
-638.638	800.000	-0.018	-0.060
-637.624	369.498	-0.032	0.065
-636.609	59.302	0.121	-0.120
-635.595	267.753	-0.204	0.359
-634.580	-79.439	-0.362	0.123
-633.565	-126.183	0.250	0.038
-632.551	189.159	0.152	-0.229
-631.536	800.000	-0.078	-0.321
-630.522	800.000	0.079	0.263
-629.507	6.842	0.234	-0.175
-628.492	-108.433	0.260	-0.056
-627.478	-200.000	-0.015	-0.201
-626.463	800.000	-0.085	-0.349
-625.449	-200.000	0.016	-0.242
-624.434	-57.960	0.075	0.033
-623.419	-60.172	-0.097	-0.042
-622.405	-83.846	-0.230	0.074
-621.390	-200.000	0.029	0.196
-620.376	-91.176	-0.250	-0.072
-619.361	-200.000	-0.144	0.000
-618.346	-169.192	-0.106	-0.004
-617.332	800.000	-0.017	0.073
-616.317	-25.155	-0.164	0.098
-615.303	176.133	-0.179	0.261
-614.288	-200.000	-0.012	-0.159
-613.273	-82.690	0.349	0.114
-612.259	-85.614	0.322	-0.101
-611.244	-48.162	-0.118	-0.057
-610.230	-178.925	-0.100	0.002
-609.215	-200.000	-0.156	0.000
-608.201	275.621	0.122	0.218
-607.186	800.000	-0.028	-0.112
-606.171	-88.330	0.213	-0.064
-605.157	-200.000	0.011	0.243
-604.142	-5.681	0.342	0.235
-603.128	800.000	-0.059	0.171
-602.113	-117.440	0.148	-0.027
-601.098	-107.476	-0.149	0.033
-600.084	-200.000	-0.041	0.246
-599.069	-104.771	0.073	-0.017
-598.055	-200.000	-0.019	0.275
-597.040	126.980	-0.133	0.169
-596.025	-99.936	-0.104	-0.026
-595.011	-89.442	-0.053	0.016
-593.996	-104.708	-0.328	-0.076
-592.982	-200.000	-0.059	0.332
-591.967	-60.203	0.221	0.095
-590.952	-1.000	0.280	0.199
-589.938	53.225	-0.104	-0.100
-588.923	-61.191	0.113	0.048
-587.909	220.874	0.093	-0.150
-586.894	79.843	-0.504	-0.544
-585.879	-122.012	0.167	0.028
-584.865	-132.755	0.176	-0.023
-583.850	-157.379	-0.313	-0.019
-582.836	20.190	-0.198	0.161
-581.821	-90.467	-0.270	-0.079
-580.806	-200.000	0.007	-0.195
-579.792	-200.000	0.014	0.431
-578.777	56.716	0.096	0.094
-577.763	4.621	-0.091	-0.067
-576.748	-79.745	-0.265	-0.090
-575.733	-119.054	0.352	-0.062
-574.719	-20.681	-0.143	-0.088
-573.704	-32.402	0.185	0.104
-572.690	2.463	-0.159	0.115
-571.675	-29.908	0.197	-0.113
-570.661	800.000	0.049	0.161
-569.646	-66.266	-0.167	0.067
-568.631	-200.000	-0.238	0.001
-567.617	-200.000	-0.072	-0.501
-566.602	99.843	-0.063	0.074
-565.588	-200.000	0.020	-0.090
-564.573	-164.034	-0.108	0.005
-563.558	-173.623	0.159	0.005
-562.544	-63.771	-0.236	0.097
-561.529	-200.000	-0.051	0.256
-560.515	167.865	-0.147	-0.210
-559.500	339.530	0.084	-0.165
-558.485	514.546	-0.106	-0.248
-557.471	-121.507	0.208	-0.035
-556.456	63.885	-0.225	-0.227
-555.442	800.000	-0.085	0.247
-554.427	-200.000	0.010	-0.112
-553.412	-140.898	0.089	-0.009
-552.398	539.286	-0.149	-0.356
-551.383	-120.425	0.318	0.054
-550.369	500.886	0.159	0.368
-549.354	-4.157	-0.063	-0.044
-548.339	800.000	0.060	-0.169
-547.325	800.000	0.034	0.102
-546.310	-22.573	-0.285	-0.173
-545.296	-136.946	0.307	0.035
-544.281	-33.093	-0.480	0.267
-543.266	-80.711	0.175	-0.058
-542.252	-108.564	0.065	0.014
-541.237	363.393	-0.045	-0.091
-540.223	800.000	-0.019	0.078
-539.208	-16.473	-0.065	0.042
-538.193	-90.647	-0.348	0.101
-537.179	355.089	0.104	0.208
-536.164	800.000	0.074	-0.250
-535.150	213.569	-0.344	-0.545
-534.135	71.999	0.250	0.261
-533.121	-72.236	-0.213	-0.079
-532.106	-47.802	-0.183	0.089
-531.091	0.900	0.144	-0.104
-530.077	597.237	-0.026	-0.066
-529.062	-42.251	-0.053	0.027
-528.048	-60.086	-0.064	-0.027
-527.033	-53.474	0.373	0.171
-526.018	233.504	0.107	0.177
-525.004	-200.000	0.031	0.157
-523.989	191.532	-0.128	0.193
-522.975	-19.147	-0.144	0.090
-521.960	-200.000	-0.056	-0.294
-520.945	12.475	-0.159	-0.123
-519.931	5.587	0.220	-0.163
-518.916	372.742	0.053	-0.109
-517.902	-144.869	0.499	0.046
-516.887	-200.000	0.028	0.155
-515.872	-107.257	0.206	-0.045
-514.858	-47.725	-0.448	-0.217
-513.843	-78.779	-0.148	-0.050
-512.829	-200.000	0.034	-0.298
-511.814	-31.748	-0.119	-0.067
-510.799	94.804	-0.171	0.195
-509.785	-182.223	0.048	-0.001
-508.770	-31.261	0.085	-0.048
-507.756	161.672	-0.221	0.309
-506.741	-169.201	-0.333	0.012
-505.726	527.619	-0.056	0.131
-504.712	-99.489	0.194	-0.049
-503.697	-157.349	0.223	-0.013
-502.683	47.694	-0.114	0.107
-501.668	-110.155	-0.111	0.023
-500.653	44.278	-0.179	-0.165
-499.639	-126.807	0.209	-0.031
-498.624	355.468	0.114	0.227
-497.610	45.414	-0.220	-0.203
-496.595	29.681	0.186	-0.159
-495.581	-200.000	-0.035	-0.271
-494.566	-4.161	-0.185	-0.128
-493.551	-81.628	0.203	-0.067
-492.537	203.300	0.037	0.058
-491.522	-51.827	0.133	-0.062
-490.508	-20.791	-0.077	0.047
-489.493	164.267	0.164	0.231
-488.478	-69.119	-0.177	-0.068
-487.464	-108.260	-0.130	0.028
-486.449	189.852	0.076	0.114
-485.435	48.770	-0.230	0.216
-484.420	-200.000	-0.050	0.364
-483.405	158.098	-0.085	0.118
-482.391	698.125	-0.038	0.101
-481.376	800.000	-0.046	-0.180
-480.362	-56.387	0.250	0.111
-479.347	-200.000	-0.011	0.062
-478.332	-71.459	-0.351	0.131
-477.318	-84.535	0.285	-0.090
-476.303	-17.784	-0.109	-0.069
-475.289	-152.360	0.132	-0.009
-474.274	-200.000	-0.010	-0.177
-473.259	-184.272	0.116	0.002
-472.245	-166.174	0.195	-0.008
-471.230	-200.000	0.005	-0.406
-470.216	16.397	0.090	-0.071
-469.201	-94.909	0.201	0.054
-468.186	255.912	0.209	0.358
-467.172	132.877	-0.101	0.131
-466.157	-139.296	-0.198	0.021
-465.143	18.608	-0.243	0.194
-464.128	476.707	0.047	0.106
-463.113	-107.298	0.476	0.105
-462.099	-69.649	-0.177	-0.068
-461.084	251.059	0.176	-0.299
-460.070	-69.174	-0.308	0.118
-459.055	-200.000	-0.060	0.322
-458.040	114.901	0.160	0.195
-457.026	-84.827	0.249	-0.078
-456.011	800.000	-0.037	0.155
-454.997	96.202	0.088	-0.101
-453.982	310.550	-0.064	0.120
-452.968	23.318	-0.200	-0.164
-451.953	-184.783	0.155	-0.002
-450.938	-12.524	0.195	0.127
-449.924	-120.883	-0.236	0.040
-448.909	581.570	0.139	0.340
-447.895	-157.611	-0.233	-0.014
-446.880	-100.814	0.198	-0.049
-445.865	74.802	-0.116	0.122
-444.851	-12.896	-0.266	-0.173
-443.836	-200.000	-0.056	0.450
-442.822	29.721	0.036	0.031
-441.807	800.000	-0.052	-0.179
-440.792	-184.889	-0.496	0.008
-439.778	-200.000	-0.011	-0.088
-438.763	99.868	-0.210	0.243
-437.749	-200.000	-0.000	-0.033
-436.734	-126.004	0.123	-0.018
-435.719	-57.400	-0.095	0.042
-434.705	-200.000	0.020	-0.215
-433.690	166.841	0.084	-0.119
-432.676	-200.000	0.028	0.245
-431.661	388.886	-0.073	0.151
-430.646	-135.787	0.218	0.026
-429.632	41.251	-0.100	0.090
-428.617	-19.686	0.175	0.108
-427.603	-200.000	0.049	-0.230
-426.588	-200.000	-0.017	-0.175
-425.573	-200.000	0.049	-0.219
-424.559	-41.270	-0.028	0.014
-423.544	-31.012	0.159	-0.089
-422.530	433.802	0.018	0.038
-421.515	-150.984	0.178	0.013
-420.500	-98.232	0.159	-0.041
-419.486	-9.429	0.062	-0.041
-418.471	-145.411	0.069	0.006
-417.457	-74.767	-0.325	-0.117
-416.442	227.917	-0.271	-0.440
-415.428	250.854	0.112	-0.189
-414.413	-171.633	0.148	0.005
-413.398	-200.000	0.037	0.328
-412.384	-18.003	-0.092	-0.058
-411.369	21.023	0.144	-0.116
-410.355	-116.655	-0.019	0.004
-409.340	-17.449	0.409	0.256
-408.325	800.000	-0.080	0.306
-407.311	-200.000	0.053	0.448
-406.296	237.827	-0.259	-0.429
-405.282	-33.604	-0.216	-0.119
-404.267	800.000	0.102	0.285
-403.252	267.000	-0.146	0.255
-402.238	-200.000	0.005	-0.048
-401.223	-115.697	0.153	0.029
-400.209	-55.233	-0.038	0.017
-399.194	64.747	-0.014	-0.014
-398.179	315.297	0.103	0.193
-397.165	-46.927	0.024	0.012
-396.150	-32.215	-0.028	-0.016
-395.136	69.459	0.083	-0.086
-394.121	44.976	0.301	-0.276
-393.106	-84.264	-0.048	0.015
-392.092	205.836	-0.203	0.314
-391.077	74.113	-0.248	0.259
-390.063	73.651	0.139	0.145
-389.048	-57.822	0.172	-0.075
-388.033	342.152	-0.088	0.171
-387.019	-156.999	-0.230	-0.014
-386.004	-38.879	0.187	0.098
-384.990	-200.000	-0.027	0.322
-383.975	800.000	0.038	0.133
-382.960	-30.492	0.291	-0.164
-381.946	-132.120	0.197	0.025
-380.931	338.975	0.178	-0.345
-379.917	-61.830	0.313	-0.131
-378.902	-5.732	-0.249	-0.170
-377.888	750.202	0.078	0.210
-376.873	736.150	-0.071	-0.189
-375.858	183.498	0.042	-0.061
-374.844	-140.930	-0.188	-0.019
-373.829	-4.777	0.061	-0.042
-372.815	85.480	-0.113	-0.124
-371.800	140.663	-0.152	0.201
-370.785	-108.826	0.257	0.055
-369.771	-24.195	0.365	0.217
-368.756	-141.075	-0.193	-0.020
-367.742	-200.000	-0.037	-0.244
-366.727	33.196	-0.072	-0.062
-365.712	556.407	0.172	-0.414
-364.698	-42.700	0.175	-0.089
-363.683	159.635	0.237	0.328
-362.669	-200.000	0.010	0.243
-361.654	674.630	-0.119	-0.307
-360.639	-50.635	-0.279	-0.131
-359.625	96.215	-0.119	0.135
-358.610	-118.658	-0.142	-0.025
-357.596	39.545	0.281	0.251
-356.581	-66.014	-0.165	0.066
-355.566	251.641	0.175	0.296
-354.552	800.000	0.089	0.267
-353.537	-64.456	-0.064	0.026
-352.523	-15.357	-0.086	0.055
-351.508	-200.000	0.006	-0.105
-350.493	800.000	0.102	-0.296
-349.479	-13.806	0.086	0.055
-348.464	-128.359	-0.092	-0.013
-347.450	-200.000	0.006	0.140
-346.435	92.385	-0.217	-0.244
-345.420	-122.026	-0.092	0.015
-344.406	338.409	0.143	0.278
-343.391	123.610	0.065	-0.082
-342.377	-200.000	-0.013	0.126
-341.362	-200.000	0.019	-0.187
-340.348	-12.069	-0.310	-0.202
-339.333	800.000	-0.038	-0.113
-338.318	-63.039	0.159	0.065
-337.304	365.435	-0.131	-0.262
-336.289	559.926	0.053	-0.127
-335.275	-1.669	0.185	-0.130
-334.260	94.709	0.072	0.081
-333.245	-200.000	-0.010	0.137
-332.231	59.643	-0.213	-0.209
-331.216	800.000	0.019	0.063
-330.202	800.000	-0.116	0.333
-329.187	391.899	0.015	0.032
-328.172	-15.768	0.151	0.096
-327.158	65.618	0.203	0.204
-326.143	-200.000	0.091	-0.428
-325.129	-114.387	0.265	0.051
-324.114	113.543	0.113	0.137
-323.099	-98.178	-0.107	-0.027
-322.085	-33.957	0.190	-0.104
-321.070	-200.000	-0.025	-0.134
-320.056	-200.000	0.010	0.047
-319.041	487.773	0.087	0.198
-318.026	10.579	0.077	0.058
-317.012	-30.533	0.061	0.035
-315.997	800.000	0.085	-0.304
-314.983	83.776	-0.260	-0.282
-313.968	-200.000	0.009	-0.117
-312.953	34.927	0.161	-0.140
-311.939	-80.244	0.159	0.053
-310.924	-119.332	-0.143	0.025
-309.910	-161.661	-0.459	0.023
-308.895	230.601	0.108	0.176
-307.880	800.000	-0.063	0.190
-306.866	-200.000	0.043	-0.215
-305.851	493.168	-0.125	0.286
-304.837	88.471	-0.336	0.370
-303.822	-200.000	-0.021	0.240
-302.807	91.821	0.119	0.133
-301.793	-125.432	0.103	-0.016
-300.778	195.144	-0.068	0.102
-299.764	65.616	0.165	0.166
-298.749	-200.000	-0.010	0.074
-297.735	25.431	0.067	-0.055
-296.720	800.000	-0.053	-0.181
-295.705	45.291	0.103	-0.094
-294.691	-200.000	-0.038	0.215
-293.676	-150.641	-0.116	0.009
-292.662	-152.387	-0.293	-0.021
-291.647	72.101	-0.109	-0.112
-290.632	-99.284	-0.173	-0.043
-289.618	221.886	0.037	0.059
-288.603	749.573	0.076	-0.204
-287.589	-200.000	0.021	-0.231
-286.574	222.399	0.178	0.285
-285.559	-78.698	0.388	0.132
-284.545	1.622	0.107	-0.077
-283.530	19.503	-0.202	0.161
-282.516	119.389	0.155	-0.191
-281.501	-17.375	0.264	-0.165
-280.486	-117.348	0.253	-0.046
-279.472	97.978	0.150	0.171
-278.457	-200.000	-0.013	-0.153
-277.443	-200.000	0.009	-0.297
-276.428	303.667	0.123	-0.226
-275.413	9.611	-0.091	-0.068
-274.399	761.560	0.034	-0.091
-273.384	-98.066	0.168	-0.043
-272.370	-150.533	-0.148	0.011
-271.355	247.517	-0.029	-0.049
-270.340	-126.777	-0.366	0.054
-269.326	-112.943	-0.165	0.032
-268.311	-200.000	0.052	-0.344
-267.297	-94.531	0.146	0.039
-266.282	800.000	0.067	0.258
-265.267	-98.123	0.481	-0.123
-264.253	-14.063	0.177	0.114
-263.238	158.612	-0.132	0.182
-262.224	-80.502	-0.151	-0.050
-261.209	116.839	0.183	-0.223
-260.195	-69.014	0.154	0.059
-259.180	-27.591	-0.246	0.141
-258.165	-51.757	-0.074	-0.034
-257.151	-173.724	0.313	0.009
-256.136	299.683	-0.092	0.169
-255.122	-38.578	-0.278	-0.146
-254.107	-160.977	-0.285	-0.015
-253.092	-136.928	0.398	-0.045
-252.078	15.193	0.258	0.200
-251.063	-19.970	-0.241	-0.147
-250.049	186.909	0.031	-0.045
-249.034	-114.746	0.201	0.038
-248.019	800.000	-0.027	0.113
-247.005	-42.847	-0.322	-0.162
-245.990	-123.913	0.208	0.032
-244.976	488.713	0.061	-0.137
-243.961	-87.893	0.115	0.034
-242.946	36.833	0.164	-0.144
-241.932	800.000	-0.027	0.096
-240.917	115.094	-0.050	0.061
-239.903	163.232	-0.019	-0.026
-238.888	-54.843	0.045	0.020
-237.873	286.369	0.055	-0.098
-236.859	345.993	-0.093	0.181
-235.844	221.281	-0.173	0.275
-234.830	245.116	-0.058	0.096
-233.815	-38.737	0.235	-0.123
-232.800	520.461	-0.127	0.295
-231.786	-149.204	-0.307	0.024
-230.771	0.143	-0.086	-0.061
-229.757	-200.000	0.013	-0.100
-228.742	53.534	-0.124	0.118
-227.727	270.482	0.182	0.317
-226.713	-84.453	-0.270	-0.085
-225.698	-137.362	0.152	0.017
-224.684	-124.973	0.261	-0.040
-223.669	-158.623	-0.057	-0.003
-222.655	34.770	-0.107	-0.092
-221.640	-53.019	-0.163	-0.074
-220.625	-19.225	-0.166	-0.102
-219.611	309.498	-0.029	0.053
-218.596	-64.881	0.456	-0.183
-217.582	340.752	0.066	-0.128
-216.567	134.747	-0.126	-0.162
-215.552	-22.928	0.072	-0.043
-214.538	-200.000	-0.040	0.441
-213.523	800.000	0.070	-0.261
-212.509	-32.843	-0.132	-0.073
-211.494	-58.317	-0.098	-0.042
-210.479	-120.954	-0.287	-0.048
-209.465	-34.938	0.044	-0.024
-208.450	-62.202	0.317	-0.131
-207.436	-180.624	-0.307	-0.006
-206.421	-200.000	0.022	0.340
-205.406	-82.507	0.268	-0.086
-204.392	45.547	-0.123	-0.112
-203.377	-129.532	0.421	0.058
-202.363	-127.772	-0.179	0.026
-201.348	0.815	0.074	-0.053
-200.333	22.565	-0.091	-0.073
-199.319	68.534	-0.047	-0.048
-198.304	300.301	0.151	0.276
-197.290	-101.830	0.204	0.049
-196.275	-200.000	0.004	-0.150
-195.260	125.335	0.046	0.058
-194.246	442.214	-0.064	0.138
-193.231	-109.673	-0.141	0.029
-192.217	-112.107	0.284	-0.056
-191.202	-107.360	0.127	-0.028
-190.187	227.974	-0.139	-0.224
-189.173	-63.595	-0.191	0.078
-188.158	-200.000	0.013	0.196
-187.144	-200.000	0.003	0.204
-186.129	-200.000	0.002	-0.190
-185.114	124.223	-0.094	0.117
-184.100	335.337	0.138	0.264
-183.085	-75.606	-0.243	-0.086
-182.071	201.046	0.262	0.399
-181.056	-200.000	0.014	0.226
-180.042	269.990	-0.133	-0.231
-179.027	47.390	-0.164	-0.151
-178.012	38.639	0.117	-0.103
-176.998	-114.147	-0.326	-0.062
-175.983	-190.878	0.366	-0.004
-174.969	-135.535	-0.081	0.009
-173.954	-200.000	0.004	-0.124
-172.939	-200.000	0.003	-0.021
-171.925	-119.111	-0.235	-0.041
-170.910	85.348	0.200	-0.217
-169.896	-198.868	-0.309	0.002
-168.881	-200.000	0.014	-0.410
-167.866	-57.586	0.127	0.055
-166.852	349.846	0.102	-0.199
-165.837	3.629	0.364	-0.262
-164.823	-31.059	0.141	-0.079
-163.808	60.687	-0.067	-0.065
-162.793	-200.000	0.040	0.229
-161.779	-136.611	0.469	-0.054
-160.764	-200.000	0.029	-0.218
-159.750	18.017	-0.125	0.099
-158.735	-61.331	-0.142	-0.059
-157.720	294.076	0.051	-0.092
-156.706	-53.975	-0.154	0.069
-155.691	-56.526	-0.189	-0.083
-154.677	130.736	-0.145	0.183
-153.662	-68.228	-0.209	0.080
-152.647	478.655	-0.045	-0.100
-151.633	253.470	0.044	-0.075
-150.618	800.000	0.045	-0.127
-149.604	-200.000	-0.033	0.163
-148.589	-17.765	0.256	-0.159
-147.574	-132.427	-0.184	-0.023
-146.560	-9.766	0.316	0.208
-145.545	80.593	-0.085	-0.091
-144.531	-120.662	0.063	-0.011
-143.516	-200.000	0.024	0.239
-142.502	-200.000	0.025	0.130
-141.487	-98.940	-0.279	0.070
-140.472	42.791	0.152	0.137
-139.458	168.443	0.059	0.083
-138.443	-200.000	0.001	-0.110
-137.429	800.000	-0.083	-0.349
-136.414	45.184	-0.030	-0.027
-135.399	-200.000	-0.011	-0.116
-134.385	-42.375	-0.241	0.121
-133.370	-17.403	0.334	-0.207
-132.356	65.646	-0.338	0.338
-131.341	80.410	0.096	0.102
-130.326	-182.951	-0.152	-0.003
-129.312	-104.514	-0.310	0.071
-128.297	34.492	0.341	0.294
-127.283	-16.206	-0.105	0.066
-126.268	-200.000	-0.011	0.082
-125.253	61.171	0.140	-0.137
-124.239	-51.595	-0.310	-0.143
-123.224	136.458	0.120	0.154
-122.210	-123.516	-0.399	0.063
