DTS Sentinel unit serial number:	SN413079Multiplexer serial number:	ORYXHardware model number:	OX4-SRSoftware version number:	ORYX F/W v4.00 Oryx Data Collector v3.7.2.0data status	okinstallation	princeton_trtdifferential loss correction	single-endedforward channel	channel 4reverse channel	N/Adate	2019/09/14time	15:37:35forward acquisition time	60.00reverse acquisition time	0.00gamma	496.2192k internal	0.2291k external	0.2291temperature offset calibration	1.0143default loss term (dB/km)	0.3790temperature slope calibration	1.0000multiplexer offset coefficient	1.0000multiplexer slope coefficient	1.0000fibre end	0.00T internal ref (°C)	38.81T ext. ref 1 (°C)	5.14T ext. ref 2 (°C)	34.07length (m)	temperature (°C)	Stokes	anti-Stokes-747.200	-200.000	0.056	-0.378
-746.185	-200.000	0.027	0.127
-745.171	112.257	0.241	-0.298
-744.156	800.000	-0.019	0.078
-743.142	-26.517	-0.013	-0.008
-742.127	111.257	0.122	0.150
-741.112	-127.034	-0.345	-0.052
-740.098	800.000	-0.074	-0.224
-739.083	-48.145	-0.141	-0.070
-738.069	192.401	0.171	0.265
-737.054	-76.235	0.384	-0.138
-736.039	-75.450	0.242	-0.088
-735.025	-107.144	0.037	0.008
-734.010	-52.362	-0.042	0.020
-732.996	-9.943	-0.488	-0.332
-731.981	83.632	-0.105	0.117
-730.966	-94.212	0.422	-0.118
-729.952	126.775	-0.176	0.228
-728.937	-138.681	0.297	0.033
-727.923	371.648	-0.076	-0.157
-726.908	-200.000	0.040	0.258
-725.894	-200.000	-0.004	0.046
-724.879	800.000	0.017	0.056
-723.864	-200.000	-0.012	-0.123
-722.850	-200.000	0.020	0.243
-721.835	-155.211	-0.288	-0.019
-720.821	-158.204	-0.349	-0.021
-719.806	-200.000	-0.033	-0.264
-718.791	627.041	0.079	-0.204
-717.777	449.406	-0.135	0.304
-716.762	-102.508	0.229	0.056
-715.748	43.856	0.097	0.091
-714.733	36.790	-0.122	-0.111
-713.718	73.294	0.030	-0.032
-712.704	-55.528	-0.103	0.047
-711.689	69.817	0.119	0.125
-710.675	-200.000	0.078	0.416
-709.660	32.441	-0.227	-0.200
-708.645	366.833	-0.048	0.099
-707.631	-155.325	0.303	-0.020
-706.616	28.709	-0.360	-0.312
-705.602	-81.038	-0.213	-0.072
-704.587	46.321	0.100	-0.095
-703.572	800.000	0.046	-0.139
-702.558	326.035	-0.107	-0.209
-701.543	-64.425	-0.226	-0.094
-700.529	18.003	-0.372	0.303
-699.514	-200.000	-0.027	-0.162
-698.499	-40.931	-0.128	-0.068
-697.485	-200.000	0.002	0.477
-696.470	-20.263	-0.183	-0.115
-695.456	800.000	0.030	-0.105
-694.441	292.327	-0.053	-0.099
-693.426	122.982	0.121	-0.154
-692.412	-32.854	0.289	-0.164
-691.397	800.000	0.082	0.305
-690.383	-200.000	0.034	0.164
-689.368	-200.000	-0.003	0.065
-688.354	-155.903	-0.215	0.014
-687.339	180.018	0.049	-0.073
-686.324	-69.233	0.341	0.134
-685.310	297.129	-0.098	-0.184
-684.295	-47.566	-0.114	0.057
-683.281	198.374	-0.162	0.254
-682.266	35.406	-0.236	0.212
-681.251	-177.930	0.114	-0.003
-680.237	121.220	0.121	0.154
-679.222	800.000	0.122	-0.358
-678.208	197.627	-0.052	0.082
-677.193	-107.608	0.423	-0.095
-676.178	167.335	0.079	0.115
-675.164	-83.181	-0.240	0.079
-674.149	-109.976	-0.292	-0.063
-673.135	707.478	0.185	0.500
-672.120	-40.221	0.139	-0.074
-671.105	16.811	-0.165	-0.133
-670.091	-200.000	-0.027	-0.145
-669.076	800.000	0.046	-0.203
-668.062	392.478	0.133	-0.282
-667.047	679.776	-0.090	0.240
-666.032	465.824	0.131	0.300
-665.018	-123.858	0.072	-0.012
-664.003	800.000	-0.084	-0.369
-662.989	-200.000	-0.003	0.132
-661.974	400.536	0.110	0.235
-660.959	94.224	0.099	0.115
-659.945	89.480	0.111	-0.127
-658.930	498.326	0.068	0.159
-657.916	98.305	0.039	-0.046
-656.901	-200.000	0.008	0.409
-655.886	-174.620	0.257	0.007
-654.872	-56.330	-0.173	-0.078
-653.857	100.644	0.076	0.091
-652.843	70.361	0.163	0.172
-651.828	-67.042	0.122	0.049
-650.814	535.771	-0.082	-0.198
-649.799	31.588	0.121	0.107
-648.784	269.018	0.137	0.245
-647.770	188.284	-0.171	0.260
-646.755	8.397	-0.175	-0.134
-645.741	-32.274	-0.199	0.114
-644.726	11.492	-0.089	-0.069
-643.711	234.418	0.128	0.215
-642.697	-200.000	0.023	-0.154
-641.682	499.547	0.117	-0.275
-640.668	46.955	0.220	-0.209
-639.653	-200.000	-0.072	-0.334
-638.638	800.000	0.022	0.076
-637.624	97.319	-0.181	-0.212
-636.609	5.543	0.151	0.114
-635.595	-48.120	-0.253	-0.125
-634.580	40.392	-0.429	0.393
-633.565	-109.662	0.306	-0.066
-632.551	65.122	0.197	-0.203
-631.536	63.242	0.215	0.219
-630.522	-140.427	-0.080	0.008
-629.507	-45.583	-0.242	0.122
-628.492	-128.018	-0.193	-0.028
-627.478	-200.000	0.022	0.111
-626.463	-200.000	0.000	-0.005
-625.449	-200.000	-0.048	-0.220
-624.434	-97.842	-0.165	-0.044
-623.419	200.755	0.160	-0.251
-622.405	800.000	-0.046	-0.134
-621.390	-26.819	0.142	-0.085
-620.376	700.786	0.045	0.121
-619.361	-17.186	-0.276	-0.177
-618.346	-82.747	0.150	-0.049
-617.332	57.696	0.173	-0.173
-616.317	-85.688	-0.058	-0.018
-615.303	560.881	-0.099	0.245
-614.288	526.140	0.126	0.303
-613.273	-200.000	-0.019	-0.244
-612.259	146.528	-0.056	0.077
-611.244	47.676	-0.154	0.146
-610.230	-70.599	0.088	0.034
-609.215	-49.299	-0.103	0.050
-608.201	275.438	-0.038	0.069
-607.186	-54.652	-0.060	-0.028
-606.171	-173.253	-0.085	-0.003
-605.157	371.384	-0.154	0.318
-604.142	724.373	0.040	0.108
-603.128	318.339	0.022	0.042
-602.113	17.820	0.111	0.090
-601.098	-40.521	-0.203	0.107
-600.084	-87.177	-0.309	-0.096
-599.069	-200.000	-0.018	0.119
-598.055	-200.000	-0.002	0.200
-597.040	198.507	0.117	-0.182
-596.025	168.829	0.138	0.200
-595.011	-1.933	0.232	-0.166
-593.996	-34.431	0.105	-0.058
-592.982	239.728	-0.170	0.288
-591.967	-59.506	0.368	0.161
-590.952	549.076	0.071	-0.174
-589.938	120.244	0.165	-0.209
-588.923	223.386	0.036	-0.059
-587.909	73.705	-0.136	0.145
-586.894	-16.447	-0.074	-0.048
-585.879	289.745	0.129	0.237
-584.865	800.000	0.044	-0.159
-583.850	83.510	0.165	-0.183
-582.836	25.990	-0.278	-0.236
-581.821	-101.501	-0.215	-0.053
-580.806	15.807	0.465	-0.372
-579.792	-89.401	-0.395	0.118
-578.777	800.000	-0.074	0.247
-577.763	-33.921	0.250	-0.140
-576.748	-200.000	-0.021	-0.102
-575.733	78.576	0.181	0.197
-574.719	-51.101	0.376	-0.179
-573.704	-97.805	-0.185	0.049
-572.690	461.613	-0.142	0.322
-571.675	800.000	-0.072	-0.282
-570.661	28.405	0.113	0.097
-569.646	-200.000	-0.005	-0.043
-568.631	21.284	-0.105	-0.087
-567.617	-47.826	-0.166	0.082
-566.602	-66.968	0.077	-0.031
-565.588	-98.033	0.231	0.061
-564.573	15.614	0.177	-0.141
-563.558	-115.170	-0.540	-0.104
-562.544	261.862	0.092	0.162
-561.529	532.933	0.053	0.128
-560.515	299.288	-0.100	-0.187
-559.500	-166.135	0.161	-0.007
-558.485	163.801	-0.079	0.113
-557.471	50.640	-0.154	-0.148
-556.456	153.386	-0.068	-0.095
-555.442	-46.123	-0.167	-0.083
-554.427	195.296	-0.129	0.198
-553.412	-200.000	0.002	-0.218
-552.398	-100.106	0.172	-0.044
-551.383	-200.000	0.027	0.157
-550.369	-200.000	-0.030	0.171
-549.354	-28.746	-0.014	0.008
-548.339	-200.000	0.000	0.155
-547.325	800.000	-0.149	0.525
-546.310	-5.267	0.111	0.078
-545.296	674.492	-0.021	0.054
-544.281	-200.000	0.034	-0.182
-543.266	-200.000	-0.049	-0.257
-542.252	-200.000	-0.057	0.406
-541.237	81.490	0.135	0.148
-540.223	-200.000	0.003	0.111
-539.208	23.687	0.089	-0.074
-538.193	-143.220	0.174	-0.017
-537.179	-200.000	-0.061	-0.320
-536.164	290.179	-0.113	-0.208
-535.150	123.920	0.160	0.204
-534.135	103.011	-0.133	-0.159
-533.121	337.002	0.110	0.216
-532.106	757.377	-0.086	0.236
-531.091	19.184	0.210	-0.171
-530.077	192.186	-0.206	-0.315
-529.062	-60.354	-0.168	-0.072
-528.048	193.310	0.189	-0.290
-527.033	-51.443	-0.257	0.122
-526.018	800.000	-0.040	0.131
-525.004	-95.784	0.247	0.067
-523.989	-31.696	-0.186	0.106
-522.975	-92.031	-0.241	-0.069
-521.960	-8.029	0.197	0.135
-520.945	5.836	-0.077	-0.058
-519.931	-157.377	0.120	0.007
-518.916	162.359	-0.167	0.237
-517.902	302.950	-0.091	0.172
-516.887	239.457	-0.045	0.077
-515.872	736.340	-0.158	0.431
-514.858	-58.590	-0.257	0.113
-513.843	-81.323	0.222	-0.074
-512.829	-109.325	-0.103	0.022
-511.814	1.684	-0.167	-0.122
-510.799	-50.313	0.301	-0.145
-509.785	397.800	-0.084	-0.177
-508.770	-93.109	0.150	0.042
-507.756	-126.176	-0.068	-0.010
-506.741	723.098	0.044	0.118
-505.726	769.574	-0.056	0.154
-504.712	-75.341	-0.293	-0.106
-503.697	-200.000	0.019	-0.349
-502.683	-200.000	-0.010	-0.194
-501.668	106.357	-0.168	-0.202
-500.653	12.319	0.026	-0.020
-499.639	-200.000	-0.313	0.001
-498.624	214.348	-0.166	0.266
-497.610	206.047	-0.153	0.242
-496.595	-17.608	0.278	-0.177
-495.581	46.001	0.247	-0.232
-494.566	-148.459	-0.073	-0.006
-493.551	-70.623	-0.259	0.099
-492.537	215.268	0.100	0.160
-491.522	-98.743	0.130	0.034
-490.508	155.554	-0.113	-0.158
-489.493	129.615	-0.114	-0.148
-488.478	-22.798	0.103	0.063
-487.464	800.000	0.060	0.174
-486.449	-135.066	-0.184	-0.022
-485.435	-200.000	0.013	0.166
-484.420	-45.406	0.426	-0.214
-483.405	-113.243	-0.241	0.048
-482.391	63.334	-0.202	0.205
-481.376	-65.209	-0.342	0.140
-480.362	117.200	-0.323	0.403
-479.347	-23.827	-0.239	0.145
-478.332	157.734	0.021	0.030
-477.318	282.452	0.028	-0.051
-476.303	-64.042	0.063	-0.026
-475.289	-200.000	-0.008	-0.256
-474.274	-4.418	-0.289	0.202
-473.259	-47.883	-0.247	-0.121
-472.245	53.592	0.082	0.080
-471.230	69.066	-0.125	-0.130
-470.216	-38.264	0.111	0.060
-469.201	160.476	-0.124	-0.175
-468.186	-173.812	-0.359	-0.011
-467.172	-41.191	-0.105	0.055
-466.157	-80.075	-0.288	0.098
-465.143	473.048	-0.042	-0.097
-464.128	64.357	-0.196	-0.200
-463.113	-111.775	0.246	0.050
-462.099	-8.394	-0.252	-0.171
-461.084	626.170	-0.007	0.017
-460.070	800.000	-0.069	-0.202
-459.055	111.519	0.137	0.167
-458.040	-118.884	0.164	0.029
-457.026	323.712	0.044	-0.086
-456.011	429.791	0.082	0.179
-454.997	-93.814	0.324	0.090
-453.982	-153.156	0.060	-0.004
-452.968	-47.954	0.232	0.114
-451.953	-200.000	-0.068	-0.448
-450.938	-94.375	-0.368	-0.102
-449.924	30.406	-0.298	0.258
-448.909	568.140	-0.043	0.105
-447.895	-81.650	0.223	0.074
-446.880	-45.569	-0.368	-0.184
-445.865	188.823	-0.262	0.397
-444.851	145.944	0.100	-0.135
-443.836	-200.000	-0.014	-0.259
-442.822	92.698	-0.125	-0.143
-441.807	-51.715	0.206	0.097
-440.792	-43.866	0.196	-0.100
-439.778	26.593	-0.044	-0.037
-438.763	-35.449	-0.381	-0.210
-437.749	-34.213	-0.162	-0.090
-436.734	117.831	-0.009	0.012
-435.719	4.076	-0.088	0.065
-434.705	800.000	0.089	-0.260
-433.690	-200.000	-0.010	0.298
-432.676	-117.377	0.200	0.037
-431.661	7.012	-0.096	0.073
-430.646	-200.000	-0.074	0.380
-429.632	-63.339	0.162	0.068
-428.617	-132.143	0.022	-0.003
-427.603	-200.000	0.007	-0.152
-426.588	134.534	0.140	0.183
-425.573	800.000	0.029	-0.114
-424.559	316.973	-0.059	-0.112
-423.544	124.280	-0.219	0.279
-422.530	-80.198	-0.254	0.086
-421.515	-200.000	-0.005	-0.126
-420.500	-200.000	0.006	-0.135
-419.486	800.000	0.036	0.149
-418.471	-103.171	0.404	0.097
-417.457	8.589	0.148	0.113
-416.442	221.199	0.031	0.050
-415.428	75.954	-0.222	-0.238
-414.413	355.584	0.123	-0.248
-413.398	-128.075	0.177	0.026
-412.384	164.143	-0.132	0.188
-411.369	-96.171	0.445	-0.119
-410.355	179.650	0.081	-0.120
-409.340	-200.000	-0.039	-0.270
-408.325	800.000	0.045	-0.134
-407.311	800.000	0.065	-0.225
-406.296	800.000	-0.172	-0.503
-405.282	-115.722	0.109	-0.021
-404.267	-200.000	-0.062	0.322
-403.252	-63.376	0.274	0.114
-402.238	583.761	0.124	0.307
-401.223	231.760	-0.086	0.143
-400.209	716.457	-0.056	-0.151
-399.194	278.427	0.066	-0.118
-398.179	-52.857	0.092	-0.043
-397.165	402.428	0.047	0.099
-396.150	-200.000	-0.052	0.336
-395.136	88.233	-0.145	0.162
-394.121	97.794	-0.319	0.371
-393.106	-134.323	0.348	-0.043
-392.092	-200.000	0.020	0.117
-391.077	800.000	0.037	-0.156
-390.063	67.445	0.137	0.142
-389.048	-109.047	-0.242	0.052
-388.033	364.061	-0.095	0.192
-387.019	52.568	-0.338	-0.326
-386.004	-200.000	0.004	0.023
-384.990	125.781	-0.185	0.236
-383.975	-56.668	-0.515	-0.230
-382.960	53.804	0.054	-0.052
-381.946	183.585	-0.165	0.246
-380.931	-200.000	0.000	-0.126
-379.917	-200.000	-0.030	-0.264
-378.902	-170.200	-0.165	-0.006
-377.888	-162.398	-0.211	0.011
-376.873	-200.000	-0.012	-0.098
-375.858	-135.941	0.303	-0.036
-374.844	21.972	0.045	0.037
-373.829	-56.020	-0.361	0.162
-372.815	-64.147	0.185	0.076
-371.800	79.837	-0.199	-0.216
-370.785	800.000	-0.083	-0.289
-369.771	-182.678	-0.102	-0.002
-368.756	30.046	0.122	0.105
-367.742	-43.873	0.232	0.118
-366.727	-200.000	0.021	-0.392
-365.712	-1.946	0.157	0.111
-364.698	310.443	-0.092	-0.173
-363.683	541.574	0.061	0.147
-362.669	-83.321	0.157	-0.051
-361.654	-106.645	0.387	0.087
-360.639	-31.751	0.204	0.115
-359.625	800.000	-0.110	-0.323
-358.610	-150.343	0.139	-0.011
-357.596	-200.000	0.046	0.260
-356.581	800.000	0.030	0.092
-355.566	-18.086	0.238	0.151
-354.552	-200.000	0.012	-0.400
-353.537	-200.000	0.070	-0.348
-352.523	70.451	0.128	0.133
-351.508	-2.271	-0.169	0.120
-350.493	0.350	-0.228	0.164
-349.479	531.006	-0.084	0.200
-348.464	148.098	0.247	-0.336
-347.450	800.000	-0.039	0.161
-346.435	-111.399	0.069	0.014
-345.420	800.000	0.138	-0.400
-344.406	-13.098	0.170	0.112
-343.391	-200.000	0.009	0.099
-342.377	89.007	0.061	0.069
-341.362	6.662	-0.255	-0.191
-340.348	-99.555	0.479	-0.121
-339.333	372.012	-0.091	0.187
-338.318	-175.636	-0.205	-0.006
-337.304	249.312	0.078	-0.134
-336.289	800.000	0.127	-0.416
-335.275	429.293	0.070	0.153
-334.260	-150.392	-0.201	0.016
-333.245	-200.000	-0.032	0.176
-332.231	1.670	0.093	0.067
-331.216	91.237	0.148	-0.167
-330.202	-200.000	-0.052	0.301
-329.187	-200.000	-0.011	0.248
-328.172	115.403	-0.093	-0.115
-327.158	-47.172	-0.313	-0.154
-326.143	148.659	-0.133	0.182
-325.129	800.000	0.075	0.221
-324.114	16.823	0.179	-0.143
-323.099	-187.651	0.194	0.003
-322.085	719.204	0.059	-0.159
-321.070	-64.239	-0.121	-0.049
-320.056	14.756	-0.160	0.126
-319.041	-200.000	0.013	0.131
-318.026	-96.091	-0.355	-0.095
-317.012	-200.000	0.006	-0.077
-315.997	-50.300	-0.190	0.090
-314.983	-112.363	-0.097	-0.020
-313.968	106.213	0.318	0.380
-312.953	800.000	-0.044	-0.144
-311.939	-34.891	0.314	-0.172
-310.924	-100.882	0.333	-0.082
-309.910	-57.561	-0.234	0.103
-308.895	-116.889	0.124	-0.023
-307.880	-61.522	-0.297	-0.125
-306.866	800.000	-0.019	0.070
-305.851	-43.147	-0.046	-0.024
-304.837	324.933	0.148	-0.285
-303.822	-35.002	0.327	-0.180
-302.807	800.000	-0.054	0.223
-301.793	-124.422	0.105	0.017
-300.778	-19.155	-0.285	-0.178
-299.764	800.000	0.023	0.100
-298.749	-47.054	-0.247	-0.122
-297.735	38.860	-0.210	-0.189
-296.720	-200.000	-0.038	-0.376
-295.705	-200.000	0.205	0.001
-294.691	-143.410	-0.352	-0.034
-293.676	-0.684	0.054	-0.038
-292.662	-111.932	0.167	-0.034
-291.647	300.068	0.088	-0.164
-290.632	125.639	0.188	0.238
-289.618	-200.000	0.018	0.182
-288.603	800.000	-0.078	0.278
-287.589	-129.142	0.283	0.040
-286.574	-113.107	0.078	-0.016
-285.559	-115.420	0.265	-0.050
-284.545	-100.215	0.371	0.093
-283.530	623.959	-0.050	-0.127
-282.516	800.000	-0.145	-0.445
-281.501	-200.000	-0.060	-0.391
-280.486	-59.142	0.218	-0.095
-279.472	-119.834	-0.216	0.037
-278.457	800.000	0.125	-0.448
-277.443	140.723	0.025	-0.034
-276.428	202.656	-0.110	0.171
-275.413	527.181	0.091	-0.215
-274.399	-134.516	0.411	0.050
-273.384	800.000	0.017	0.064
-272.370	-200.000	0.004	-0.195
-271.355	-95.719	-0.059	0.016
-270.340	95.960	0.199	0.228
-269.326	354.648	-0.146	0.292
-268.311	800.000	-0.111	-0.323
-267.297	-48.150	0.152	-0.074
-266.282	-83.938	0.463	-0.148
-265.267	-75.478	0.240	-0.086
-264.253	-16.024	-0.103	0.066
-263.238	-200.000	-0.040	-0.317
-262.224	-43.848	0.290	-0.147
-261.209	33.820	-0.266	-0.232
-260.195	-200.000	-0.044	0.323
-259.180	8.629	-0.114	-0.086
-258.165	-1.576	0.201	0.142
-257.151	-200.000	-0.008	0.058
-256.136	-25.295	-0.158	0.094
-255.122	4.341	0.224	0.165
-254.107	54.958	0.205	0.199
-253.092	-52.285	-0.297	-0.138
-252.078	800.000	0.146	0.489
-251.063	105.637	-0.162	0.192
-250.049	800.000	-0.042	-0.124
-249.034	800.000	0.095	-0.305
-248.019	-56.586	0.151	0.067
-247.005	769.133	0.050	-0.137
-245.990	-57.240	0.134	-0.059
-244.976	131.891	-0.165	0.213
-243.961	139.866	-0.111	-0.147
-242.946	-153.798	-0.188	0.013
-241.932	209.733	-0.192	0.302
-240.917	-200.000	-0.058	0.276
-239.903	-132.494	0.265	-0.034
-238.888	800.000	-0.067	0.190
-237.873	321.054	0.083	-0.158
-236.859	59.448	-0.138	0.136
-235.844	-86.525	0.279	-0.086
-234.830	-20.142	0.365	0.226
-233.815	78.248	0.126	0.135
-232.800	-92.409	0.199	-0.056
-231.786	139.778	0.158	0.208
-230.771	-200.000	0.029	0.198
-229.757	-63.297	0.305	0.126
-228.742	-79.529	-0.200	0.068
-227.727	-200.000	0.026	-0.333
-226.713	-200.000	0.020	-0.162
-225.698	-12.840	-0.220	-0.144
-224.684	-200.000	-0.024	0.227
-223.669	-132.859	-0.086	0.011
-222.655	243.223	-0.073	-0.123
-221.640	157.358	0.147	0.203
-220.625	-200.000	0.018	0.553
-219.611	800.000	-0.054	0.197
-218.596	46.269	-0.093	0.086
-217.582	-85.874	0.214	-0.066
-216.567	80.563	0.134	-0.145
-215.552	48.548	-0.092	-0.086
-214.538	-143.973	0.171	-0.016
-213.523	19.226	-0.122	0.098
-212.509	35.589	-0.272	0.240
-211.494	12.480	0.074	-0.057
-210.479	-105.884	0.101	-0.023
-209.465	-100.481	0.275	-0.068
-208.450	497.738	0.161	-0.371
-207.436	100.980	-0.055	-0.064
-206.421	-200.000	0.063	0.303
-205.406	-110.166	0.207	-0.043
-204.392	-157.836	-0.113	0.007
-203.377	234.670	-0.135	-0.224
-202.363	-85.158	0.195	0.061
-201.348	-176.261	-0.088	-0.002
-200.333	-84.227	0.184	-0.059
-199.319	-151.448	0.098	0.007
-198.304	786.341	0.064	0.177
-197.290	113.938	-0.302	0.368
-196.275	248.572	-0.110	-0.186
-195.260	673.788	0.188	-0.490
-194.246	128.506	0.182	0.233
-193.231	166.061	-0.269	-0.382
-192.217	-157.188	0.062	0.004
-191.202	15.340	-0.201	0.158
-190.187	-114.960	0.174	0.033
-189.173	379.636	-0.024	0.049
-188.158	-35.086	0.145	-0.079
-187.144	48.609	0.120	0.113
-186.129	-96.739	0.136	0.036
-185.114	-126.590	-0.289	-0.043
-184.100	-200.000	0.022	0.246
-183.085	360.565	0.091	-0.182
-182.071	-103.109	-0.338	-0.080
-181.056	-44.165	-0.232	0.117
-180.042	116.914	-0.098	-0.120
-179.027	-200.000	-0.003	-0.028
-178.012	-200.000	0.011	-0.254
-176.998	19.482	0.250	0.201
-175.983	-178.493	0.155	0.004
-174.969	-119.041	0.170	0.030
-173.954	-160.491	0.245	-0.013
-172.939	800.000	-0.039	0.155
-171.925	-54.259	0.273	0.124
-170.910	-18.155	-0.020	-0.013
-169.896	205.641	0.065	0.102
-168.881	449.140	0.056	-0.123
-167.866	362.267	-0.080	0.161
-166.852	322.437	0.104	-0.198
-165.837	-27.518	0.182	-0.106
-164.823	-78.835	0.408	-0.139
-163.808	-200.000	0.008	-0.045
-162.793	55.054	0.303	0.292
-161.779	14.577	-0.106	-0.083
-160.764	261.894	-0.074	0.128
-159.750	90.172	-0.016	0.018
-158.735	-117.548	0.027	0.005
-157.720	36.306	-0.243	-0.215
-156.706	-36.617	-0.369	0.198
-155.691	691.815	-0.090	-0.235
-154.677	273.353	0.064	0.114
-153.662	19.459	0.033	0.026
-152.647	-37.306	-0.205	0.110
-151.633	800.000	-0.136	-0.574
-150.618	-67.737	-0.235	-0.092
-149.604	-91.777	0.143	0.041
-148.589	-200.000	-0.028	-0.306
-147.574	108.696	-0.137	0.164
-146.560	331.400	0.138	0.267
-145.545	286.282	-0.082	0.149
-144.531	-200.000	0.020	0.280
-143.516	-124.494	0.144	-0.022
-142.502	-152.267	0.241	-0.017
-141.487	-200.000	-0.016	0.181
-140.472	-64.064	-0.188	0.077
-139.458	800.000	-0.047	-0.165
-138.443	22.236	0.140	0.114
-137.429	81.608	0.319	0.345
-136.414	265.052	-0.079	-0.138
-135.399	800.000	0.049	-0.184
-134.385	-149.294	-0.146	0.012
-133.370	-64.509	0.055	-0.022
-132.356	-200.000	-0.008	0.239
-131.341	-3.880	0.116	0.081
-130.326	486.769	-0.083	0.189
-129.312	-137.568	-0.209	-0.024
-128.297	800.000	-0.052	-0.196
-127.283	501.715	-0.117	-0.271
-126.268	-200.000	0.011	-0.139
-125.253	-98.320	0.190	-0.049
-124.239	-200.000	0.017	0.180
-123.224	65.212	-0.160	0.162
-122.210	424.179	0.080	0.172
-121.195	78.361	-0.195	-0.209
-120.180	-3.390	0.223	-0.155
