DTS Sentinel unit serial number:	SN413079Multiplexer serial number:	ORYXHardware model number:	OX4-SRSoftware version number:	ORYX F/W v4.00 Oryx Data Collector v3.7.2.0data status	okinstallation	princeton_trtdifferential loss correction	single-endedforward channel	channel 4reverse channel	N/Adate	2019/09/17time	14:21:35forward acquisition time	60.00reverse acquisition time	0.00gamma	496.2192k internal	0.2296k external	0.2296temperature offset calibration	0.9988default loss term (dB/km)	0.3790temperature slope calibration	1.0000multiplexer offset coefficient	1.0000multiplexer slope coefficient	1.0000fibre end	0.00T internal ref (°C)	36.19T ext. ref 1 (°C)	0.41T ext. ref 2 (°C)	33.37length (m)	temperature (°C)	Stokes	anti-Stokes-747.200	-96.155	0.266	0.072
-746.185	432.437	-0.029	-0.065
-745.171	351.449	0.105	0.212
-744.156	-200.000	-0.039	0.328
-743.142	-95.983	0.402	-0.109
-742.127	-200.000	-0.002	-0.022
-741.112	-26.095	0.207	-0.124
-740.098	-200.000	-0.019	0.204
-739.083	496.666	-0.202	0.475
-738.069	330.029	0.219	0.431
-737.054	50.738	0.096	0.093
-736.039	-200.000	-0.021	0.234
-735.025	-189.124	0.169	-0.002
-734.010	67.750	-0.140	0.146
-732.996	790.395	0.088	-0.246
-731.981	-102.317	-0.239	0.059
-730.966	-70.864	0.113	-0.044
-729.952	-107.961	0.475	-0.105
-728.937	-60.172	-0.319	0.139
-727.923	-119.610	-0.069	-0.012
-726.908	-200.000	0.033	-0.251
-725.894	462.900	-0.170	-0.388
-724.879	299.326	-0.202	-0.380
-723.864	53.567	0.071	-0.070
-722.850	171.906	-0.236	-0.346
-721.835	-114.268	0.213	0.042
-720.821	649.748	-0.065	0.169
-719.806	-140.523	-0.320	0.034
-718.791	413.379	0.070	0.151
-717.777	-200.000	0.008	0.076
-716.762	-200.000	0.022	-0.289
-715.748	-200.000	0.004	-0.134
-714.733	-200.000	0.073	0.540
-713.718	-131.011	-0.040	-0.005
-712.704	261.733	-0.175	0.309
-711.689	-140.111	-0.114	0.012
-710.675	4.918	0.217	0.163
-709.660	5.971	0.068	-0.052
-708.645	310.024	-0.114	-0.217
-707.631	88.189	-0.096	0.109
-706.616	-74.792	-0.388	0.142
-705.602	-9.070	0.265	0.181
-704.587	-0.818	-0.299	0.216
-703.572	-1.837	0.063	0.045
-702.558	389.371	0.141	-0.298
-701.543	106.071	0.064	-0.077
-700.529	-108.035	0.253	0.056
-699.514	-61.764	-0.298	-0.128
-698.499	-115.133	0.031	-0.006
-697.485	800.000	-0.090	-0.391
-696.470	210.672	0.110	0.176
-695.456	436.818	-0.124	0.275
-694.441	2.287	-0.103	-0.076
-693.426	-120.126	-0.028	0.005
-692.412	202.092	0.023	-0.036
-691.397	715.779	-0.146	-0.394
-690.383	-12.219	-0.036	-0.024
-689.368	-138.682	-0.262	-0.029
-688.354	-87.981	0.125	0.038
-687.339	-40.307	-0.168	0.089
-686.324	70.367	-0.089	-0.094
-685.310	122.827	-0.150	-0.191
-684.295	-69.614	-0.226	0.088
-683.281	-200.000	-0.074	0.487
-682.266	-20.591	0.251	-0.157
-681.251	-160.944	0.311	0.017
-680.237	578.208	-0.090	-0.224
-679.222	-200.000	-0.010	-0.309
-678.208	150.641	-0.194	-0.268
-677.193	-200.000	-0.045	0.238
-676.178	800.000	0.039	0.169
-675.164	-200.000	0.002	-0.140
-674.149	146.214	0.093	-0.127
-673.135	76.772	-0.074	0.080
-672.120	800.000	-0.018	0.063
-671.105	-55.108	0.283	0.130
-670.091	468.156	-0.276	-0.630
-669.076	-111.168	-0.121	-0.025
-668.062	-78.143	-0.162	-0.057
-667.047	246.649	-0.065	-0.112
-666.032	-161.824	0.379	0.020
-665.018	88.874	-0.090	-0.102
-664.003	37.695	0.039	0.035
-662.989	-200.000	-0.048	-0.380
-661.974	800.000	0.137	-0.404
-660.959	-79.032	0.250	-0.087
-659.945	131.518	0.010	0.014
-658.930	800.000	0.120	0.340
-657.916	-92.666	-0.498	0.142
-656.901	-22.108	0.317	0.196
-655.886	-175.667	-0.431	-0.012
-654.872	-138.804	0.219	0.024
-653.857	124.383	-0.120	-0.154
-652.843	-200.000	-0.010	0.077
-651.828	-131.502	-0.255	0.034
-650.814	-122.263	-0.121	-0.020
-649.799	800.000	0.072	-0.297
-648.784	-200.000	-0.060	-0.289
-647.770	800.000	-0.018	0.070
-646.755	-200.000	-0.025	-0.146
-645.741	-89.926	-0.260	0.077
-644.726	-200.000	0.015	-0.121
-643.711	347.095	0.118	-0.237
-642.697	-200.000	-0.017	0.126
-641.682	19.325	-0.103	-0.084
-640.668	214.499	-0.110	0.177
-639.653	-77.698	-0.253	-0.089
-638.638	800.000	0.032	-0.134
-637.624	-32.878	-0.098	0.055
-636.609	434.957	0.080	-0.177
-635.595	45.059	-0.170	-0.160
-634.580	-200.000	0.024	-0.378
-633.565	-20.849	0.311	-0.194
-632.551	-200.000	-0.008	-0.090
-631.536	-39.673	0.056	-0.030
-630.522	-107.961	-0.180	-0.040
-629.507	-28.477	0.116	-0.068
-628.492	162.578	0.040	0.056
-627.478	800.000	-0.094	-0.310
-626.463	2.461	-0.378	-0.278
-625.449	23.754	-0.141	0.118
-624.434	-18.337	0.114	0.072
-623.419	229.724	-0.329	0.547
-622.405	-176.547	0.236	-0.006
-621.390	-151.385	-0.239	0.018
-620.376	49.252	0.075	0.072
-619.361	597.566	0.063	-0.158
-618.346	-200.000	-0.014	-0.125
-617.332	243.976	-0.193	0.330
-616.317	-200.000	-0.008	-0.115
-615.303	70.884	-0.272	-0.286
-614.288	-112.683	-0.433	0.088
-613.273	-200.000	-0.017	-0.099
-612.259	-42.472	-0.174	0.090
-611.244	-200.000	0.009	0.279
-610.230	100.381	0.038	-0.045
-609.215	-145.010	-0.117	0.011
-608.201	-200.000	-0.035	-0.245
-607.186	-6.428	-0.170	0.118
-606.171	-18.849	-0.138	0.087
-605.157	-200.000	-0.021	-0.199
-604.142	724.427	-0.082	-0.222
-603.128	-97.150	-0.287	0.076
-602.113	-80.868	-0.016	0.005
-601.098	111.770	-0.115	-0.141
-600.084	-139.690	0.110	0.012
-599.069	437.346	0.055	-0.121
-598.055	-133.730	0.308	0.039
-597.040	-200.000	-0.015	0.071
-596.025	-67.011	-0.168	-0.067
-595.011	-200.000	-0.010	-0.342
-593.996	122.787	0.099	0.126
-592.982	466.988	0.176	0.401
-591.967	4.686	-0.248	0.185
-590.952	68.331	-0.114	0.119
-589.938	-86.943	0.390	0.121
-588.923	435.381	-0.073	0.161
-587.909	-0.519	-0.399	0.288
-586.894	291.306	0.102	-0.188
-585.879	-200.000	0.013	-0.178
-584.865	-29.737	0.336	-0.194
-583.850	2.219	-0.207	0.152
-582.836	-37.987	0.047	0.025
-581.821	125.347	-0.046	0.059
-580.806	126.717	-0.216	-0.277
-579.792	22.314	0.293	0.243
-578.777	139.243	-0.065	-0.087
-577.763	-40.803	-0.072	0.038
-576.748	338.864	-0.140	0.276
-575.733	-18.027	0.312	0.198
-574.719	153.798	-0.104	0.144
-573.704	-200.000	0.044	-0.285
-572.690	528.108	-0.141	-0.337
-571.675	11.997	-0.075	0.058
-570.661	114.328	-0.094	0.116
-569.646	-22.121	0.257	0.158
-568.631	131.405	0.050	-0.066
-567.617	-71.098	-0.297	-0.113
-566.602	-80.660	0.353	0.119
-565.588	89.051	0.174	0.197
-564.573	800.000	-0.146	-0.513
-563.558	-21.937	0.389	-0.240
-562.544	-200.000	-0.002	-0.224
-561.529	184.839	-0.076	-0.115
-560.515	-165.585	-0.242	0.011
-559.500	-90.438	-0.074	-0.022
-558.485	38.750	-0.141	-0.128
-557.471	-33.899	0.459	-0.256
-556.456	210.873	0.181	0.289
-555.442	58.192	0.196	-0.195
-554.427	80.527	-0.169	0.184
-553.412	-200.000	-0.024	0.171
-552.398	-200.000	-0.007	-0.304
-551.383	207.765	0.153	-0.242
-550.369	800.000	-0.027	-0.088
-549.354	-27.392	0.115	-0.068
-548.339	-200.000	-0.008	-0.257
-547.325	-91.808	-0.179	-0.052
-546.310	409.502	-0.089	-0.191
-545.296	-138.424	0.108	0.012
-544.281	-200.000	0.012	-0.103
-543.266	-133.350	-0.147	-0.019
-542.252	-48.690	-0.205	-0.100
-541.237	1.111	-0.226	-0.164
-540.223	427.257	-0.065	-0.143
-539.208	800.000	-0.076	0.228
-538.193	-156.787	-0.242	0.015
-537.179	-151.415	0.332	-0.025
-536.164	-78.695	0.200	0.069
-535.150	-11.204	0.034	0.023
-534.135	-200.000	-0.041	-0.254
-533.121	-90.975	-0.189	-0.055
-532.106	-17.168	0.130	0.083
-531.091	685.190	0.072	-0.190
-530.077	-139.020	0.261	-0.029
-529.062	-154.310	0.199	-0.014
-528.048	83.819	-0.228	0.252
-527.033	800.000	0.097	0.303
-526.018	-161.710	-0.063	-0.003
-525.004	-118.561	-0.134	0.024
-523.989	111.690	-0.175	-0.214
-522.975	-79.686	0.253	-0.086
-521.960	57.228	0.210	0.208
-520.945	149.401	-0.082	-0.113
-519.931	290.192	0.047	-0.086
-518.916	-200.000	0.014	-0.154
-517.902	150.372	-0.203	-0.279
-516.887	-24.926	-0.236	0.142
-515.872	800.000	-0.041	0.120
-514.858	-5.436	-0.148	-0.103
-513.843	57.077	-0.090	0.089
-512.829	-38.489	-0.242	-0.130
-511.814	-15.698	-0.137	0.089
-510.799	646.033	-0.080	0.206
-509.785	-80.274	-0.201	0.068
-508.770	495.217	0.061	0.142
-507.756	688.126	0.146	-0.386
-506.741	-96.889	-0.350	-0.093
-505.726	-39.499	0.293	-0.155
-504.712	120.672	-0.108	0.136
-503.697	89.306	0.098	-0.110
-502.683	24.548	0.208	-0.174
-501.668	-78.774	-0.256	-0.088
-500.653	-59.799	0.198	0.086
-499.639	-200.000	0.001	0.283
-498.624	299.195	-0.073	-0.137
-497.610	-79.262	-0.229	-0.078
-496.595	239.413	-0.129	0.217
-495.581	-128.011	-0.329	-0.048
-494.566	-103.948	-0.146	0.034
-493.551	-97.904	-0.306	-0.080
-492.537	-31.092	0.224	-0.128
-491.522	-200.000	-0.041	-0.227
-490.508	-200.000	0.082	-0.435
-489.493	-118.219	0.223	-0.040
-488.478	-81.085	0.156	0.052
-487.464	169.037	-0.148	-0.214
-486.449	-200.000	0.007	-0.076
-485.435	-128.438	0.400	-0.058
-484.420	-200.000	-0.007	-0.147
-483.405	55.939	0.081	0.080
-482.391	-50.558	0.154	-0.074
-481.376	-137.943	-0.121	0.014
-480.362	163.699	0.067	-0.096
-479.347	-122.250	-0.270	-0.045
-478.332	508.826	-0.126	-0.297
-477.318	6.294	0.124	-0.093
-476.303	104.532	0.168	-0.200
-475.289	-3.134	0.100	-0.070
-474.274	64.939	-0.258	0.263
-473.259	-200.000	0.067	-0.320
-472.245	-99.116	0.247	0.063
-471.230	-68.336	0.204	0.080
-470.216	-34.968	0.124	0.068
-469.201	202.058	0.120	-0.187
-468.186	278.703	0.131	-0.236
-467.172	-159.488	0.095	0.005
-466.157	394.416	0.046	-0.097
-465.143	448.359	0.032	-0.072
-464.128	364.900	0.053	0.107
-463.113	-104.298	0.199	-0.047
-462.099	-200.000	0.014	-0.126
-461.084	11.082	-0.180	-0.139
-460.070	-200.000	-0.043	-0.189
-459.055	195.786	-0.104	-0.160
-458.040	412.583	-0.061	-0.131
-457.026	-113.293	-0.113	-0.022
-456.011	-86.073	-0.176	0.055
-454.997	-200.000	-0.014	0.247
-453.982	800.000	0.009	0.036
-452.968	-175.643	-0.152	-0.004
-451.953	191.747	-0.085	0.130
-450.938	-200.000	-0.042	-0.397
-449.924	-200.000	-0.008	-0.158
-448.909	545.821	-0.019	-0.045
-447.895	167.206	0.109	0.157
-446.880	-166.071	-0.158	-0.007
-445.865	40.409	0.224	0.204
-444.851	286.095	0.066	-0.120
-443.836	-75.947	0.213	-0.076
-442.822	-200.000	0.045	0.337
-441.807	-111.263	-0.158	-0.033
-440.792	142.738	0.203	-0.273
-439.778	-200.000	0.013	0.062
-438.763	800.000	0.029	-0.108
-437.749	-122.596	0.123	-0.020
-436.734	218.861	-0.069	0.112
-435.719	-83.179	-0.310	-0.101
-434.705	318.531	0.206	0.394
-433.690	800.000	-0.065	-0.187
-432.676	-20.513	0.244	0.151
-431.661	800.000	0.035	-0.121
-430.646	-120.130	0.204	0.035
-429.632	532.454	0.115	0.275
-428.617	-86.429	0.334	-0.104
-427.603	-138.096	-0.330	0.037
-426.588	-200.000	0.024	-0.223
-425.573	-58.939	-0.307	-0.134
-424.559	133.477	-0.220	0.287
-423.544	-200.000	-0.025	0.239
-422.530	-173.849	0.194	0.006
-421.515	-65.129	-0.188	-0.077
-420.500	-184.126	-0.301	0.005
-419.486	235.833	-0.038	0.063
-418.471	182.790	-0.062	-0.092
-417.457	-200.000	-0.003	0.074
-416.442	4.706	0.204	0.151
-415.428	-200.000	0.008	-0.198
-414.413	-200.000	-0.030	0.265
-413.398	124.763	-0.302	0.383
-412.384	132.028	0.132	0.171
-411.369	-42.312	-0.182	-0.094
-410.355	53.509	0.395	-0.382
-409.340	-5.660	-0.221	0.153
-408.325	-177.432	-0.167	-0.004
-407.311	-200.000	0.032	0.299
-406.296	-3.088	0.207	0.146
-405.282	-98.735	0.192	-0.049
-404.267	-200.000	-0.003	-0.180
-403.252	8.044	-0.080	0.061
-402.238	-61.271	-0.291	0.124
-401.223	287.030	0.235	0.427
-400.209	-37.531	0.149	0.080
-399.194	-54.689	0.288	-0.131
-398.179	-166.106	-0.173	-0.007
-397.165	-200.000	-0.030	0.185
-396.150	-56.496	0.133	-0.059
-395.136	-200.000	-0.003	0.125
-394.121	800.000	0.061	0.204
-393.106	-200.000	-0.002	-0.029
-392.092	172.678	-0.161	0.233
-391.077	-117.071	0.383	0.070
-390.063	-200.000	0.020	0.123
-389.048	800.000	0.046	-0.141
-388.033	-132.706	0.144	-0.019
-387.019	59.601	-0.057	0.056
-386.004	-200.000	0.029	-0.130
-384.990	232.000	0.116	0.191
-383.975	55.772	0.154	0.151
-382.960	21.047	0.293	0.240
-381.946	-40.794	0.245	0.128
-380.931	-170.458	-0.239	-0.008
-379.917	64.157	-0.067	-0.068
-378.902	-27.918	0.050	-0.029
-377.888	30.852	-0.132	0.113
-376.873	9.758	-0.144	0.110
-375.858	-83.134	0.164	-0.053
-374.844	-40.464	-0.182	0.095
-373.829	500.043	-0.082	-0.189
-372.815	-148.246	0.342	-0.028
-371.800	12.454	0.171	0.133
-370.785	800.000	0.022	0.070
-369.771	800.000	0.107	0.323
-368.756	220.455	0.089	-0.144
-367.742	-200.000	0.056	-0.267
-366.727	351.655	-0.098	0.194
-365.712	20.561	-0.141	-0.114
-364.698	647.622	-0.060	-0.154
-363.683	67.131	0.151	0.155
-362.669	475.982	0.166	-0.377
-361.654	-4.076	0.073	0.051
-360.639	-200.000	-0.019	0.182
-359.625	800.000	-0.058	0.172
-358.610	-119.773	-0.133	0.023
-357.596	800.000	0.049	-0.194
-356.581	-200.000	0.005	-0.316
-355.566	800.000	0.013	-0.050
-354.552	-136.780	0.284	0.033
-353.537	3.161	-0.051	0.037
-352.523	800.000	0.081	0.350
-351.508	309.007	0.070	0.132
-350.493	-133.747	-0.187	0.023
-349.479	-90.498	-0.128	0.037
-348.464	-6.061	0.062	-0.042
-347.450	-39.332	0.172	0.091
-346.435	-200.000	-0.021	-0.101
-345.420	-200.000	0.170	0.000
-344.406	609.133	-0.121	-0.304
-343.391	-77.590	0.108	-0.038
-342.377	-108.491	0.245	-0.053
-341.362	156.717	-0.198	-0.275
-340.348	19.004	0.054	0.043
-339.333	800.000	-0.033	0.098
-338.318	800.000	-0.068	0.260
-337.304	800.000	-0.064	0.224
-336.289	-200.000	0.059	0.288
-335.275	800.000	0.044	-0.161
-334.260	496.987	-0.162	-0.375
-333.245	-172.683	0.193	0.006
-332.231	-36.262	-0.220	0.119
-331.216	42.215	-0.394	0.360
-330.202	190.358	0.123	0.186
-329.187	-180.805	-0.340	-0.007
-328.172	21.057	0.116	-0.094
-327.158	238.683	-0.111	-0.185
-326.143	-200.000	0.128	0.000
-325.129	-130.799	0.236	0.032
-324.114	-35.863	-0.215	0.117
-323.099	-70.606	0.491	0.187
-322.085	-200.000	0.033	0.229
-321.070	11.585	-0.378	0.291
-320.056	1.530	0.106	0.076
-319.041	265.399	-0.183	-0.321
-318.026	-67.324	0.463	-0.183
-317.012	800.000	-0.081	-0.320
-315.997	-200.000	-0.062	-0.348
-314.983	-162.066	-0.167	-0.008
-313.968	427.220	0.093	-0.201
-312.953	637.902	0.221	0.565
-311.939	21.720	0.297	0.243
-310.924	-97.826	0.154	-0.040
-309.910	-82.165	-0.192	-0.063
-308.895	-200.000	0.039	-0.345
-307.880	511.680	0.087	-0.202
-306.866	282.156	-0.164	-0.296
-305.851	116.036	0.030	-0.037
-304.837	-98.639	-0.408	-0.105
-303.822	-114.591	0.258	0.050
-302.807	244.113	0.043	-0.072
-301.793	800.000	-0.039	-0.133
-300.778	800.000	0.093	-0.335
-299.764	744.268	-0.040	-0.108
-298.749	-116.802	0.089	0.016
-297.735	-29.753	-0.310	0.178
-296.720	-200.000	0.023	0.303
-295.705	800.000	0.073	0.228
-294.691	-41.472	-0.254	-0.131
-293.676	-169.143	-0.170	-0.006
-292.662	11.058	-0.157	0.120
-291.647	800.000	-0.054	-0.234
-290.632	19.808	0.224	0.181
-289.618	21.921	0.106	0.086
-288.603	108.205	0.174	0.209
-287.589	800.000	-0.020	0.087
-286.574	-52.857	0.246	-0.114
-285.559	-94.731	-0.045	-0.012
-284.545	800.000	0.039	0.130
-283.530	-14.945	0.179	-0.115
-282.516	342.215	-0.091	-0.179
-281.501	84.744	0.211	0.232
-280.486	40.810	0.273	-0.247
-279.472	169.166	-0.141	0.202
-278.457	-200.000	0.004	0.042
-277.443	414.151	-0.131	0.280
-276.428	800.000	-0.053	0.178
-275.413	388.490	0.070	0.146
-274.399	502.290	-0.041	0.095
-273.384	-160.338	-0.212	0.011
-272.370	30.267	0.095	0.082
-271.355	185.555	-0.114	0.170
-270.340	-200.000	-0.011	0.244
-269.326	9.432	-0.495	0.376
-268.311	159.791	-0.052	-0.073
-267.297	158.379	0.009	0.013
-266.282	-200.000	0.037	0.260
-265.267	-1.287	-0.234	-0.166
-264.253	466.674	0.046	0.103
-263.238	-83.033	0.248	-0.080
-262.224	-113.836	-0.259	-0.051
-261.209	342.724	0.025	-0.048
-260.195	-64.783	0.322	0.131
-259.180	800.000	0.088	0.260
-258.165	101.863	0.223	0.261
-257.151	777.461	-0.044	0.119
-256.136	-200.000	-0.032	0.181
-255.122	-35.100	0.051	0.028
-254.107	7.440	0.081	-0.061
-253.092	-200.000	0.020	0.176
-252.078	-52.351	-0.148	0.069
-251.063	-80.022	-0.498	-0.167
-250.049	-85.789	0.217	0.068
-249.034	242.967	-0.059	0.099
-248.019	-37.080	0.297	0.159
-247.005	-200.000	0.030	-0.264
-245.990	-200.000	0.069	0.317
-244.976	-200.000	-0.003	-0.287
-243.961	-200.000	0.024	0.202
-242.946	800.000	-0.081	-0.319
-241.932	800.000	0.133	0.580
-240.917	384.363	0.045	0.093
-239.903	372.130	0.091	0.186
-238.888	78.547	-0.272	0.291
-237.873	-200.000	-0.062	-0.279
-236.859	55.612	-0.154	-0.150
-235.844	-15.079	0.189	0.121
-234.830	-82.181	-0.316	-0.103
-233.815	137.486	-0.244	0.320
-232.800	800.000	0.060	-0.178
-231.786	-200.000	0.003	0.205
-230.771	413.330	-0.140	0.299
-229.757	-12.597	0.166	0.109
-228.742	-81.412	0.224	0.074
-227.727	-146.529	-0.236	-0.021
-226.713	-23.443	0.205	-0.123
-225.698	-125.398	0.247	-0.038
-224.684	-41.444	-0.360	-0.186
-223.669	288.971	-0.250	-0.454
-222.655	800.000	0.046	-0.153
-221.640	-178.073	-0.307	0.007
-220.625	111.434	0.434	0.524
-219.611	-200.000	0.019	0.105
-218.596	800.000	0.057	0.231
-217.582	-82.987	-0.130	-0.042
-216.567	-21.266	-0.062	0.038
-215.552	-200.000	0.015	0.202
-214.538	-71.784	0.261	-0.097
-213.523	130.487	0.162	-0.208
-212.509	109.946	-0.062	0.074
-211.494	800.000	0.034	-0.120
-210.479	-200.000	0.020	0.156
-209.465	5.872	0.232	-0.172
-208.450	58.600	-0.143	-0.141
-207.436	104.427	-0.112	0.132
-206.421	-47.278	-0.211	-0.103
-205.406	129.619	-0.027	-0.035
-204.392	32.393	0.044	-0.038
-203.377	50.378	0.058	0.055
-202.363	-48.834	-0.129	0.062
-201.348	-126.775	-0.073	0.011
-200.333	-23.215	-0.113	0.068
-199.319	150.981	0.017	-0.023
-198.304	-64.351	0.090	0.037
-197.290	-123.903	-0.447	0.070
-196.275	-37.329	0.377	0.201
-195.260	800.000	-0.016	0.060
-194.246	-200.000	-0.033	0.191
-193.231	-54.556	-0.165	0.075
-192.217	-137.935	0.059	0.007
-191.202	45.983	0.148	-0.137
-190.187	-3.889	0.205	0.142
-189.173	-9.922	0.046	0.030
-188.158	-18.214	-0.100	0.063
-187.144	428.897	-0.048	-0.105
-186.129	-112.432	0.142	-0.028
-185.114	-157.021	0.128	-0.008
-184.100	-200.000	0.023	-0.323
-183.085	-169.026	0.044	0.002
-182.071	-126.290	-0.054	-0.008
-181.056	-9.771	0.148	-0.098
-180.042	-36.076	-0.320	-0.173
-179.027	-109.240	0.249	0.053
-178.012	800.000	-0.029	0.121
-176.998	-14.529	0.177	-0.114
-175.983	800.000	0.016	0.047
-174.969	800.000	0.068	0.242
-173.954	-64.978	0.422	-0.170
-172.939	-71.727	-0.152	0.057
-171.925	50.261	0.133	0.126
-170.910	-51.977	-0.108	-0.050
-169.896	-200.000	0.010	0.258
-168.881	-200.000	-0.035	-0.157
-167.866	-17.617	-0.253	0.159
-166.852	-21.563	0.126	0.077
-165.837	800.000	-0.007	0.021
-164.823	-93.577	0.142	-0.039
-163.808	-6.138	0.048	-0.033
-162.793	-77.912	0.135	0.047
-161.779	538.905	-0.103	-0.244
-160.764	27.995	0.274	0.231
-159.750	-13.030	-0.093	-0.060
-158.735	-162.398	0.338	-0.017
-157.720	-200.000	0.042	-0.285
-156.706	-32.186	-0.088	-0.049
-155.691	-139.872	0.336	0.035
-154.677	508.851	0.111	0.256
-153.662	-172.209	-0.237	0.008
-152.647	0.564	-0.181	0.129
-151.633	98.678	-0.071	-0.082
-150.618	-141.864	0.283	-0.028
-149.604	37.662	0.162	0.144
-148.589	-108.389	-0.221	0.048
-147.574	442.081	0.093	0.203
-146.560	-97.736	0.409	0.106
-145.545	-200.000	0.038	0.177
-144.531	202.301	-0.054	0.083
-143.516	576.783	-0.062	0.151
-142.502	-96.765	0.227	-0.060
-141.487	-200.000	-0.000	-0.097
-140.472	-58.363	0.065	0.028
-139.458	-126.067	0.112	-0.017
-138.443	-200.000	0.036	0.284
-137.429	-63.432	0.251	0.103
-136.414	-24.792	0.309	0.183
-135.399	-145.555	0.289	0.026
-134.385	334.601	0.114	-0.220
-133.370	-172.106	0.229	-0.007
-132.356	27.307	0.207	-0.173
-131.341	96.752	0.103	-0.118
-130.326	-133.013	-0.272	0.034
-129.312	1.809	-0.074	-0.054
-128.297	709.112	0.171	0.450
-127.283	-174.199	0.060	-0.002
-126.268	-200.000	-0.034	-0.155
-125.253	1.253	-0.156	0.111
-124.239	-64.818	0.355	0.143
-123.224	12.643	0.020	0.015
-122.210	294.191	0.218	0.397
-121.195	8.750	0.264	-0.199
