DTS Sentinel unit serial number:	SN413079Multiplexer serial number:	ORYXHardware model number:	OX4-SRSoftware version number:	ORYX F/W v4.00 Oryx Data Collector v3.7.2.0data status	okinstallation	princeton_trtdifferential loss correction	single-endedforward channel	channel 4reverse channel	N/Adate	2019/09/19time	07:17:35forward acquisition time	60.00reverse acquisition time	0.00gamma	496.2192k internal	0.2339k external	0.2339temperature offset calibration	1.0027default loss term (dB/km)	0.3790temperature slope calibration	1.0000multiplexer offset coefficient	1.0000multiplexer slope coefficient	1.0000fibre end	0.00T internal ref (°C)	19.06T ext. ref 1 (°C)	0.56T ext. ref 2 (°C)	13.64length (m)	temperature (°C)	Stokes	anti-Stokes-747.200	326.452	0.099	0.190
-746.185	-100.205	-0.357	0.089
-745.171	-124.559	0.118	-0.018
-744.156	8.472	0.043	-0.033
-743.142	-147.791	-0.225	-0.019
-742.127	-200.000	0.190	0.000
-741.112	800.000	0.019	0.064
-740.098	-65.799	-0.210	-0.084
-739.083	-121.715	0.285	0.047
-738.069	47.665	-0.042	-0.039
-737.054	-56.534	-0.258	-0.115
-736.039	185.050	-0.188	-0.280
-735.025	69.074	0.066	0.068
-734.010	-109.213	-0.451	-0.096
-732.996	-78.416	-0.391	-0.134
-731.981	234.329	0.035	0.059
-730.966	-162.967	-0.307	0.015
-729.952	-116.914	-0.461	-0.085
-728.937	79.605	0.249	-0.268
-727.923	-27.009	-0.380	-0.222
-726.908	-187.967	-0.164	-0.002
-725.894	-160.906	-0.063	-0.003
-724.879	-137.819	-0.158	0.018
-723.864	-133.991	-0.159	0.020
-722.850	800.000	0.063	0.275
-721.835	-92.000	-0.279	-0.079
-720.821	-200.000	-0.012	-0.222
-719.806	343.141	-0.050	-0.099
-718.791	-101.405	-0.224	0.055
-717.777	-200.000	0.003	-0.199
-716.762	250.108	0.161	-0.274
-715.748	12.355	-0.107	-0.082
-714.733	136.012	-0.092	-0.121
-713.718	-89.306	0.156	-0.046
-712.704	800.000	0.082	-0.255
-711.689	97.227	-0.151	0.174
-710.675	-156.104	-0.254	-0.016
-709.660	235.084	-0.217	-0.359
-708.645	-200.000	0.052	0.245
-707.631	241.680	-0.017	-0.028
-706.616	-146.329	-0.130	0.011
-705.602	-115.058	-0.279	0.053
-704.587	37.821	-0.139	0.123
-703.572	357.970	-0.111	0.222
-702.558	-200.000	-0.012	-0.234
-701.543	-194.555	0.045	0.000
-700.529	30.366	0.193	0.165
-699.514	23.263	-0.125	0.102
-698.499	-200.000	0.008	-0.062
-697.485	74.529	-0.247	-0.261
-696.470	77.531	0.148	-0.157
-695.456	-200.000	0.024	0.204
-694.441	-24.321	0.156	-0.093
-693.426	-46.458	0.207	-0.102
-692.412	9.032	-0.077	-0.058
-691.397	-83.085	-0.189	0.061
-690.383	-62.038	-0.350	0.146
-689.368	19.958	0.179	0.144
-688.354	-123.177	0.171	-0.027
-687.339	-67.828	-0.195	0.076
-686.324	-140.488	-0.147	-0.015
-685.310	-87.202	-0.211	-0.064
-684.295	-83.953	0.330	0.105
-683.281	-112.589	0.107	0.021
-682.266	366.918	-0.059	-0.119
-681.251	308.983	-0.250	0.468
-680.237	453.761	-0.045	0.099
-679.222	-109.681	0.234	0.049
-678.208	21.880	0.091	-0.074
-677.193	-9.554	-0.145	-0.097
-676.178	21.927	0.127	-0.103
-675.164	800.000	-0.078	-0.339
-674.149	-200.000	-0.023	-0.236
-673.135	508.561	-0.094	-0.219
-672.120	-154.167	-0.288	-0.019
-671.105	-80.130	0.262	-0.088
-670.091	-102.564	0.119	0.029
-669.076	-146.228	-0.053	0.005
-668.062	318.659	-0.067	-0.126
-667.047	-79.070	-0.517	0.176
-666.032	-60.342	0.103	0.044
-665.018	172.093	-0.057	-0.081
-664.003	347.300	-0.088	-0.172
-662.989	-59.238	0.123	0.053
-661.974	-163.111	0.233	0.011
-660.959	-130.701	-0.121	0.016
-659.945	-83.432	0.058	0.018
-658.930	127.784	-0.147	0.187
-657.916	-116.161	-0.103	0.019
-656.901	73.587	-0.085	-0.089
-655.886	533.926	-0.076	0.181
-654.872	-200.000	0.005	-0.168
-653.857	75.509	-0.072	0.076
-652.843	-200.000	0.089	-0.692
-651.828	800.000	-0.059	-0.167
-650.814	52.878	-0.091	-0.087
-649.799	-165.691	-0.246	0.011
-648.784	-123.737	-0.035	0.006
-647.770	-200.000	-0.002	0.118
-646.755	-115.440	0.289	-0.054
-645.741	328.362	-0.106	-0.204
-644.726	800.000	-0.111	0.386
-643.711	800.000	0.040	-0.167
-642.697	800.000	-0.103	0.285
-641.682	800.000	-0.090	0.290
-640.668	337.068	0.056	0.108
-639.653	800.000	0.116	-0.441
-638.638	-139.817	0.355	0.038
-637.624	776.113	-0.070	-0.192
-636.609	119.025	-0.226	-0.279
-635.595	69.255	-0.249	0.255
-634.580	-40.951	0.202	0.104
-633.565	157.520	0.128	-0.177
-632.551	-200.000	-0.019	0.198
-631.536	800.000	-0.045	0.164
-630.522	13.917	0.160	-0.124
-629.507	-13.064	0.309	-0.200
-628.492	52.570	-0.262	-0.250
-627.478	64.139	-0.089	0.089
-626.463	-83.681	-0.102	-0.032
-625.449	-200.000	-0.041	0.286
-624.434	287.965	0.092	-0.166
-623.419	-11.422	0.243	-0.159
-622.405	100.710	0.222	0.257
-621.390	497.939	-0.063	-0.145
-620.376	126.350	-0.305	0.385
-619.361	-60.274	-0.175	-0.074
-618.346	417.066	0.063	-0.135
-617.332	-104.148	0.061	0.014
-616.317	-200.000	-0.034	0.347
-615.303	541.412	-0.132	0.314
-614.288	-48.795	0.191	0.091
-613.273	279.733	0.149	-0.265
-612.259	451.863	-0.051	0.112
-611.244	542.346	-0.048	0.115
-610.230	-145.341	-0.146	-0.013
-609.215	573.507	0.079	0.191
-608.201	-65.599	-0.367	-0.147
-607.186	91.911	-0.056	-0.063
-606.171	10.610	-0.216	-0.164
-605.157	-200.000	-0.074	-0.325
-604.142	800.000	-0.073	-0.205
-603.128	-4.918	0.182	-0.125
-602.113	709.729	0.064	0.169
-601.098	-28.853	0.198	-0.113
-600.084	-157.015	0.160	-0.010
-599.069	-69.042	-0.271	-0.104
-598.055	-43.964	-0.249	-0.125
-597.040	260.294	0.071	0.122
-596.025	130.181	0.115	0.147
-595.011	54.762	-0.274	0.264
-593.996	176.926	-0.273	0.396
-592.982	-50.999	0.136	0.064
-591.967	-117.422	-0.160	0.029
-590.952	-78.407	-0.271	0.092
-589.938	-18.478	0.168	0.105
-588.923	476.848	-0.072	-0.161
-587.909	-82.189	0.053	0.017
-586.894	-200.000	0.053	0.520
-585.879	-200.000	0.058	0.295
-584.865	5.218	0.033	0.024
-583.850	360.980	-0.138	0.276
-582.836	796.769	0.060	-0.165
-581.821	-22.155	-0.032	0.019
-580.806	-43.326	0.159	-0.080
-579.792	-15.954	-0.143	0.091
-578.777	800.000	-0.024	-0.096
-577.763	-200.000	-0.027	-0.183
-576.748	-132.107	0.137	0.018
-575.733	-200.000	-0.017	-0.219
-574.719	-200.000	0.002	-0.175
-573.704	311.069	0.130	-0.244
-572.690	72.395	-0.177	0.184
-571.675	122.081	-0.216	0.269
-570.661	800.000	0.047	-0.142
-569.646	427.345	-0.026	0.056
-568.631	-12.441	-0.258	0.168
-567.617	747.823	0.105	0.282
-566.602	611.084	-0.093	-0.231
-565.588	-64.989	0.233	0.094
-564.573	-200.000	-0.041	-0.203
-563.558	-132.649	0.329	0.042
-562.544	-16.884	-0.319	0.201
-561.529	92.149	-0.227	0.255
-560.515	-43.981	0.164	0.082
-559.500	-136.944	-0.288	-0.033
-558.485	-200.000	-0.032	-0.293
-557.471	198.945	0.378	-0.576
-556.456	-200.000	0.081	-0.366
-555.442	151.138	0.078	-0.105
-554.427	23.849	0.237	0.194
-553.412	800.000	0.080	0.341
-552.398	-103.925	-0.093	-0.022
-551.383	61.088	-0.115	-0.113
-550.369	-87.416	0.223	0.067
-549.354	315.186	0.088	0.165
-548.339	-129.137	-0.174	-0.024
-547.325	-148.705	-0.230	0.019
-546.310	37.485	0.227	-0.200
-545.296	-200.000	0.061	-0.390
-544.281	-20.382	0.250	-0.153
-543.266	-75.627	0.310	0.110
-542.252	800.000	-0.123	0.372
-541.237	87.697	-0.174	-0.192
-540.223	-122.981	0.353	-0.057
-539.208	-200.000	0.046	-0.238
-538.193	800.000	0.036	-0.134
-537.179	-168.765	-0.345	0.013
-536.164	403.875	0.092	0.192
-535.150	3.113	0.185	0.134
-534.135	-200.000	0.025	-0.220
-533.121	-132.029	0.236	-0.031
-532.106	-123.794	0.522	0.082
-531.091	-20.054	0.037	-0.023
-530.077	74.453	-0.260	0.272
-529.062	435.620	0.100	0.217
-528.048	1.724	0.140	0.101
-527.033	-200.000	-0.007	-0.249
-526.018	-200.000	-0.003	-0.075
-525.004	-115.937	-0.102	-0.019
-523.989	461.707	-0.030	-0.067
-522.975	-160.564	-0.124	0.007
-521.960	-53.030	0.175	0.080
-520.945	-33.762	0.128	-0.070
-519.931	9.666	-0.124	-0.093
-518.916	29.380	-0.141	0.119
-517.902	16.697	-0.187	-0.147
-516.887	445.378	0.074	0.162
-515.872	-44.976	0.329	-0.163
-514.858	-102.290	0.205	-0.049
-513.843	-200.000	0.027	-0.189
-512.829	800.000	0.078	-0.271
-511.814	-200.000	-0.004	-0.079
-510.799	-114.053	-0.469	-0.090
-509.785	-200.000	-0.021	0.099
-508.770	-99.735	-0.384	-0.096
-507.756	37.416	-0.021	0.019
-506.741	-168.976	0.182	-0.007
-505.726	-200.000	-0.039	-0.356
-504.712	-124.995	0.241	-0.037
-503.697	800.000	0.071	0.246
-502.683	54.723	0.067	0.065
-501.668	-86.733	0.175	-0.053
-500.653	174.133	0.070	0.101
-499.639	716.615	0.128	0.337
-498.624	-200.000	0.020	0.281
-497.610	132.127	0.237	0.304
-496.595	-200.000	-0.010	-0.078
-495.581	78.573	0.141	0.149
-494.566	-178.447	0.362	0.008
-493.551	-133.703	0.232	-0.029
-492.537	-164.991	0.243	-0.011
-491.522	-9.870	-0.134	0.088
-490.508	-63.732	0.040	0.016
-489.493	123.239	-0.155	-0.193
-488.478	-150.091	0.306	0.024
-487.464	800.000	-0.072	0.240
-486.449	-200.000	-0.010	0.378
-485.435	5.724	-0.168	0.123
-484.420	424.316	0.061	-0.131
-483.405	-200.000	-0.002	-0.203
-482.391	-8.413	-0.240	0.160
-481.376	-200.000	0.009	-0.042
-480.362	-200.000	-0.000	-0.054
-479.347	23.868	-0.172	-0.140
-478.332	-200.000	-0.039	0.317
-477.318	746.477	0.083	0.222
-476.303	-95.390	-0.303	-0.081
-475.289	-200.000	-0.029	-0.200
-474.274	800.000	-0.065	-0.215
-473.259	-25.067	0.128	0.075
-472.245	115.933	0.047	0.057
-471.230	-81.765	-0.287	-0.093
-470.216	800.000	0.036	0.103
-469.201	41.783	-0.256	-0.230
-468.186	-76.138	-0.274	0.096
-467.172	-133.837	-0.147	0.018
-466.157	-78.216	0.094	-0.032
-465.143	-200.000	-0.038	0.356
-464.128	88.289	0.057	-0.063
-463.113	277.516	-0.184	-0.325
-462.099	-200.000	0.024	0.261
-461.084	-200.000	-0.008	-0.134
-460.070	79.583	-0.269	-0.286
-459.055	-200.000	0.046	0.297
-458.040	-200.000	-0.035	0.371
-457.026	-38.318	0.100	0.053
-456.011	-97.310	-0.310	0.080
-454.997	471.606	0.032	0.071
-453.982	-200.000	-0.012	-0.187
-452.968	30.705	0.273	0.231
-451.953	-150.034	0.179	0.014
-450.938	-6.067	-0.252	-0.171
-449.924	-167.121	-0.321	0.013
-448.909	800.000	0.073	0.202
-447.895	800.000	0.033	-0.094
-446.880	-200.000	-0.004	-0.105
-445.865	51.655	-0.036	-0.034
-444.851	-200.000	-0.003	0.068
-443.836	41.946	0.319	-0.287
-442.822	-200.000	-0.012	0.278
-441.807	-90.980	-0.124	0.035
-440.792	-16.167	0.291	0.183
-439.778	276.412	-0.067	-0.117
-438.763	-17.794	-0.163	-0.102
-437.749	-165.123	0.100	-0.004
-436.734	-103.164	-0.146	-0.034
-435.719	-89.291	0.107	0.031
-434.705	128.331	-0.097	0.123
-433.690	-200.000	-0.002	-0.452
-432.676	145.720	-0.129	-0.171
-431.661	639.477	0.066	0.166
-430.646	124.922	0.208	-0.260
-429.632	166.808	-0.167	0.235
-428.617	800.000	0.023	-0.072
-427.603	320.812	0.042	-0.078
-426.588	-105.006	-0.190	0.043
-425.573	-200.000	-0.065	-0.304
-424.559	-72.313	-0.083	0.030
-423.544	-84.819	0.038	0.012
-422.530	332.049	-0.124	0.237
-421.515	48.873	0.057	0.053
-420.500	800.000	0.027	0.112
-419.486	800.000	-0.021	-0.062
-418.471	306.832	0.081	0.148
-417.457	-200.000	0.003	0.138
-416.442	-200.000	0.058	-0.453
-415.428	-200.000	-0.071	0.328
-414.413	800.000	-0.063	0.215
-413.398	-116.066	-0.157	0.029
-412.384	36.993	0.161	0.141
-411.369	-97.043	-0.047	-0.012
-410.355	636.743	0.063	-0.159
-409.340	424.841	-0.109	-0.233
-408.325	139.249	-0.085	0.110
-407.311	84.651	0.064	-0.070
-406.296	-165.862	0.177	0.008
-405.282	-109.163	-0.243	-0.051
-404.267	-37.534	0.432	0.228
-403.252	59.530	0.170	-0.166
-402.238	175.989	0.208	0.298
-401.223	-90.650	0.240	0.069
-400.209	-99.816	-0.395	-0.098
-399.194	-131.991	-0.179	-0.023
-398.179	766.395	-0.154	-0.413
-397.165	-66.256	0.232	0.091
-396.150	36.045	-0.037	0.032
-395.136	559.817	-0.146	0.349
-394.121	-200.000	-0.004	-0.074
-393.106	-92.587	0.396	0.110
-392.092	29.185	-0.029	0.024
-391.077	800.000	-0.012	0.046
-390.063	-90.263	-0.365	0.105
-389.048	398.886	0.170	0.353
-388.033	-31.427	0.357	-0.199
-387.019	60.677	-0.196	0.192
-386.004	433.678	0.202	-0.434
-384.990	584.729	-0.129	-0.314
-383.975	85.614	-0.088	-0.096
-382.960	461.348	0.063	-0.139
-381.946	3.824	-0.038	-0.027
-380.931	-200.000	0.019	-0.155
-379.917	-28.584	-0.034	-0.019
-378.902	-170.805	0.439	-0.015
-377.888	-200.000	-0.002	-0.109
-376.873	379.101	-0.116	0.236
-375.858	115.576	-0.079	0.096
-374.844	-30.846	-0.043	0.024
-373.829	-26.578	-0.133	0.077
-372.815	85.320	-0.062	0.068
-371.800	-27.497	0.334	0.192
-370.785	-88.633	-0.187	-0.055
-369.771	172.304	0.117	0.167
-368.756	-114.456	0.251	-0.048
-367.742	-200.000	0.005	-0.050
-366.727	-148.767	0.230	-0.018
-365.712	-200.000	-0.011	-0.211
-364.698	-200.000	-0.017	0.306
-363.683	93.142	0.165	0.184
-362.669	50.647	-0.158	0.148
-361.654	-156.978	0.230	0.014
-360.639	62.703	0.083	-0.082
-359.625	65.106	-0.199	0.198
-358.610	-38.284	-0.118	0.062
-357.596	290.847	0.083	0.149
-356.581	-125.339	0.306	0.046
-355.566	-162.337	-0.150	0.007
-354.552	800.000	-0.104	-0.419
-353.537	-200.000	-0.007	-0.241
-352.523	17.742	0.121	0.095
-351.508	197.228	0.074	0.111
-350.493	-200.000	-0.005	-0.110
-349.479	-4.088	-0.264	0.180
-348.464	800.000	-0.008	-0.032
-347.450	76.971	-0.258	0.270
-346.435	601.846	0.104	-0.255
-345.420	-138.265	-0.076	-0.008
-344.406	-200.000	0.039	0.183
-343.391	800.000	-0.079	-0.247
-342.377	67.275	-0.125	-0.126
-341.362	70.045	-0.045	0.046
-340.348	-200.000	-0.044	0.215
-339.333	335.946	-0.082	0.158
-338.318	-164.089	0.313	0.014
-337.304	69.668	-0.324	-0.330
-336.289	-12.144	0.211	-0.137
-335.275	72.452	-0.202	-0.208
-334.260	-160.681	0.149	-0.008
-333.245	360.238	0.089	0.175
-332.231	-90.644	0.062	-0.018
-331.216	-4.321	0.052	-0.035
-330.202	-176.454	0.282	-0.007
-329.187	103.577	0.183	0.212
-328.172	-75.609	0.320	-0.112
-327.158	54.249	-0.143	-0.136
-326.143	800.000	-0.057	-0.194
-325.129	89.941	0.102	-0.112
-324.114	-15.120	-0.136	0.086
-323.099	-200.000	-0.028	-0.234
-322.085	-99.468	0.165	0.041
-321.070	234.834	-0.004	-0.007
-320.056	515.422	-0.167	-0.384
-319.041	-200.000	0.012	0.077
-318.026	800.000	-0.040	-0.133
-317.012	-165.546	-0.212	-0.009
-315.997	-200.000	0.000	0.198
-314.983	92.213	0.114	0.127
-313.968	-200.000	0.021	-0.275
-312.953	-127.738	0.412	-0.059
-311.939	-200.000	-0.159	0.001
-310.924	26.545	0.139	0.115
-309.910	-200.000	-0.016	-0.211
-308.895	3.723	-0.145	0.104
-307.880	595.203	0.079	-0.193
-306.866	800.000	-0.065	-0.244
-305.851	372.907	-0.120	-0.241
-304.837	-2.274	-0.339	0.234
-303.822	-159.621	0.292	-0.016
-302.807	165.425	0.089	-0.124
-301.793	-71.249	0.185	-0.068
-300.778	-200.000	-0.028	0.123
-299.764	-47.655	-0.077	-0.037
-298.749	134.299	-0.083	0.106
-297.735	-200.000	-0.017	0.110
-296.720	393.452	0.102	0.210
-295.705	605.751	-0.087	0.214
-294.691	82.867	-0.026	-0.028
-293.676	400.773	0.052	-0.108
-292.662	-26.654	-0.216	0.124
-291.647	-200.000	0.014	-0.486
-290.632	-200.000	0.042	0.248
-289.618	79.152	0.086	-0.091
-288.603	-31.727	0.302	-0.167
-287.589	-166.347	-0.152	-0.006
-286.574	0.245	0.199	-0.140
-285.559	-25.052	0.090	-0.052
-284.545	494.930	0.174	-0.394
-283.530	55.686	-0.104	-0.100
-282.516	-200.000	-0.039	0.180
-281.501	-200.000	-0.038	-0.200
-280.486	-27.065	-0.227	-0.130
-279.472	-175.538	-0.158	-0.004
-278.457	47.059	-0.260	0.239
-277.443	-98.280	-0.557	-0.141
-276.428	-200.000	-0.047	0.370
-275.413	-200.000	-0.020	0.221
-274.399	-200.000	-0.044	0.198
-273.384	-21.874	-0.169	0.101
-272.370	-200.000	0.041	-0.271
-271.355	-200.000	0.020	0.342
-270.340	-159.614	0.257	0.014
-269.326	263.191	-0.159	-0.273
-268.311	-200.000	0.004	0.056
-267.297	41.395	0.141	-0.125
-266.282	-78.211	-0.281	-0.095
-265.267	-184.895	-0.177	-0.003
-264.253	15.510	-0.143	0.111
-263.238	78.867	-0.348	-0.366
-262.224	-141.574	-0.087	-0.009
-261.209	99.389	-0.166	-0.189
-260.195	115.204	-0.083	-0.099
-259.180	32.005	-0.197	0.167
-258.165	-21.875	0.312	-0.187
-257.151	728.693	0.165	-0.433
-256.136	229.882	-0.291	-0.468
-255.122	186.380	-0.191	0.280
-254.107	800.000	0.003	0.010
-253.092	-79.251	-0.265	-0.088
-252.078	800.000	0.088	0.328
-251.063	34.084	0.240	-0.205
-250.049	-141.831	0.176	0.017
-249.034	88.243	0.168	-0.184
-248.019	-172.775	0.191	0.006
-247.005	62.554	-0.235	-0.231
-245.990	-74.387	0.214	-0.076
-244.976	-137.436	-0.183	0.020
-243.961	-25.543	0.200	0.116
-242.946	288.137	-0.158	-0.282
-241.932	-200.000	-0.003	-0.027
-240.917	136.572	-0.142	0.182
-239.903	800.000	-0.047	-0.140
-238.888	800.000	0.013	-0.049
-237.873	158.147	-0.091	-0.124
-236.859	-51.350	0.157	-0.072
-235.844	800.000	-0.065	-0.179
-234.830	800.000	-0.036	-0.129
-233.815	-127.975	-0.297	0.042
-232.800	-64.486	0.092	-0.037
-231.786	-58.135	-0.021	-0.009
-230.771	-200.000	-0.016	0.339
-229.757	194.715	0.077	0.115
-228.742	19.680	0.097	0.077
-227.727	-118.915	0.403	0.069
-226.713	-97.072	0.416	0.107
-225.698	226.079	-0.130	-0.207
-224.684	-200.000	0.034	0.346
-223.669	-200.000	-0.057	-0.319
-222.655	-200.000	0.040	-0.325
-221.640	-31.866	-0.150	0.083
-220.625	107.644	-0.047	-0.055
-219.611	393.348	0.097	0.199
-218.596	-200.000	-0.055	0.292
-217.582	27.885	0.064	-0.053
-216.567	139.277	-0.156	0.202
-215.552	-33.785	0.081	-0.044
-214.538	-69.582	0.063	-0.024
-213.523	500.844	-0.045	0.102
-212.509	25.721	0.294	0.241
-211.494	73.067	-0.259	-0.266
-210.479	398.793	0.054	0.112
-209.465	-34.041	0.184	-0.099
-208.450	-200.000	-0.008	0.094
-207.436	217.293	-0.077	-0.121
-206.421	-7.134	0.117	-0.078
-205.406	32.070	-0.050	-0.042
-204.392	5.484	0.145	0.105
-203.377	149.816	0.214	0.285
-202.363	-116.926	0.264	0.047
-201.348	-65.123	-0.177	0.070
-200.333	-151.355	-0.052	-0.004
-199.319	41.641	-0.200	-0.178
-198.304	185.802	-0.112	-0.163
-197.290	32.087	0.171	-0.144
-196.275	781.686	0.067	-0.181
-195.260	-34.672	-0.301	-0.161
-194.246	-25.950	-0.442	0.255
-193.231	-200.000	0.040	-0.250
-192.217	240.933	-0.042	-0.070
-191.202	478.843	-0.090	0.199
-190.187	626.607	-0.123	0.304
-189.173	-60.561	0.176	-0.073
-188.158	-16.464	-0.248	0.154
-187.144	-97.719	0.183	-0.047
-186.129	-78.839	-0.308	-0.103
-185.114	149.306	0.104	0.138
-184.100	326.127	0.045	0.085
-183.085	-200.000	0.027	0.190
-182.071	236.386	0.088	-0.143
-181.056	-62.312	0.155	-0.063
-180.042	-74.338	0.463	-0.164
-179.027	-75.894	0.147	0.051
-178.012	96.740	-0.020	-0.023
-176.998	46.407	0.153	0.140
-175.983	-200.000	0.076	0.348
-174.969	-62.797	-0.091	-0.037
-173.954	800.000	-0.023	0.080
-172.939	86.760	-0.211	-0.228
-171.925	-200.000	-0.021	0.116
-170.910	800.000	-0.046	0.192
-169.896	-158.569	0.035	0.002
-168.881	-159.846	-0.079	0.004
-167.866	571.257	0.124	-0.296
-166.852	-172.458	0.055	0.002
-165.837	-200.000	-0.013	0.146
-164.823	504.897	-0.083	0.189
-163.808	-200.000	0.012	0.162
-162.793	563.902	0.052	0.123
-161.779	-40.526	-0.143	0.073
-160.764	-93.302	-0.209	0.057
-159.750	800.000	0.044	0.185
-158.735	-86.485	0.131	-0.039
-157.720	-51.993	0.287	-0.131
-156.706	-144.427	-0.048	-0.004
-155.691	-200.000	0.044	-0.392
-154.677	-137.241	0.156	0.017
-153.662	-200.000	-0.007	0.078
-152.647	327.577	-0.202	0.381
-151.633	12.848	-0.222	-0.168
-150.618	487.148	-0.034	-0.077
-149.604	294.158	-0.073	0.132
-148.589	-55.775	-0.133	0.058
-147.574	-123.540	-0.190	0.030
-146.560	-125.323	0.133	-0.020
-145.545	800.000	-0.062	0.192
-144.531	-200.000	-0.006	0.206
-143.516	800.000	0.015	-0.057
-142.502	233.459	0.098	-0.157
-141.487	47.570	0.046	0.042
-140.472	800.000	0.047	-0.158
-139.458	82.776	0.203	-0.216
-138.443	-64.606	0.383	-0.152
-137.429	-117.764	0.197	0.035
-136.414	81.120	0.055	0.059
-135.399	-83.973	-0.281	0.088
-134.385	19.158	-0.228	0.179
-133.370	-112.760	0.223	-0.043
-132.356	248.758	0.135	-0.224
-131.341	-200.000	0.030	0.240
-130.326	800.000	0.080	0.219
-129.312	772.514	0.032	0.084
-128.297	36.446	0.251	-0.217
-127.283	-200.000	-0.011	-0.376
-126.268	108.427	0.052	0.061
-125.253	396.475	0.083	0.169
-124.239	800.000	0.039	-0.163
-123.224	800.000	-0.100	0.360
-122.210	-200.000	-0.009	0.058
