DTS Sentinel unit serial number:	SN413079Multiplexer serial number:	ORYXHardware model number:	OX4-SRSoftware version number:	ORYX F/W v4.00 Oryx Data Collector v3.7.2.0data status	okinstallation	princeton_trtdifferential loss correction	single-endedforward channel	channel 4reverse channel	N/Adate	2019/09/14time	22:17:35forward acquisition time	60.00reverse acquisition time	0.00gamma	496.2192k internal	0.2306k external	0.2306temperature offset calibration	1.0065default loss term (dB/km)	0.3790temperature slope calibration	1.0000multiplexer offset coefficient	1.0000multiplexer slope coefficient	1.0000fibre end	0.00T internal ref (°C)	32.62T ext. ref 1 (°C)	4.70T ext. ref 2 (°C)	27.57length (m)	temperature (°C)	Stokes	anti-Stokes-747.200	-200.000	0.008	0.218
-746.185	10.154	-0.357	0.276
-745.171	800.000	0.113	-0.320
-744.156	271.038	-0.034	-0.061
-743.142	-88.207	0.110	0.033
-742.127	3.008	-0.135	0.100
-741.112	800.000	-0.055	-0.182
-740.098	113.514	-0.223	0.275
-739.083	-200.000	0.037	0.287
-738.069	-69.005	0.099	-0.039
-737.054	-129.374	-0.283	-0.040
-736.039	152.309	-0.257	-0.356
-735.025	372.061	0.066	-0.137
-734.010	-20.020	-0.228	-0.143
-732.996	-22.165	0.072	0.044
-731.981	-150.347	-0.138	-0.011
-730.966	585.974	-0.071	-0.179
-729.952	-60.223	-0.296	0.128
-728.937	-200.000	0.011	-0.242
-727.923	-200.000	-0.028	0.284
-726.908	-165.480	-0.319	0.014
-725.894	-121.612	-0.407	0.069
-724.879	800.000	0.091	0.287
-723.864	-84.901	-0.286	0.091
-722.850	-200.000	0.027	0.429
-721.835	800.000	-0.068	-0.300
-720.821	800.000	-0.023	-0.073
-719.806	59.128	0.079	-0.079
-718.791	-198.988	-0.147	-0.001
-717.777	441.806	0.213	-0.473
-716.762	84.707	-0.188	-0.209
-715.748	-200.000	-0.008	-0.076
-714.733	-69.385	-0.173	0.067
-713.718	158.455	0.023	0.033
-712.704	149.513	-0.099	-0.136
-711.689	-200.000	0.039	-0.362
-710.675	-164.266	-0.148	-0.007
-709.660	-185.572	-0.157	0.002
-708.645	-200.000	0.028	-0.258
-707.631	-9.100	0.033	0.022
-706.616	-55.576	0.124	0.056
-705.602	-158.393	-0.308	0.018
-704.587	-143.468	-0.160	-0.015
-703.572	193.058	0.113	-0.174
-702.558	-200.000	-0.003	0.028
-701.543	23.834	-0.255	0.213
-700.529	-5.602	0.080	0.056
-699.514	-5.389	-0.163	-0.114
-698.499	-39.560	-0.089	0.048
-697.485	146.289	-0.189	-0.257
-696.470	-90.513	0.306	-0.090
-695.456	-200.000	-0.013	-0.286
-694.441	24.800	-0.208	0.175
-693.426	-141.310	-0.191	-0.020
-692.412	631.172	0.149	0.383
-691.397	416.782	-0.015	0.032
-690.383	507.967	0.111	-0.262
-689.368	488.318	0.114	-0.263
-688.354	-160.203	0.142	0.008
-687.339	-124.318	-0.224	0.035
-686.324	-103.233	-0.220	-0.053
-685.310	725.289	-0.098	-0.264
-684.295	57.024	0.260	-0.257
-683.281	800.000	-0.117	0.418
-682.266	-200.000	-0.067	-0.482
-681.251	177.820	-0.219	-0.324
-680.237	-30.829	-0.140	0.080
-679.222	-90.696	-0.139	-0.041
-678.208	552.608	0.098	-0.238
-677.193	154.475	-0.136	0.190
-676.178	800.000	0.050	0.163
-675.164	12.057	-0.137	-0.107
-674.149	-146.128	0.467	-0.042
-673.135	598.220	-0.088	0.222
-672.120	-67.381	0.270	0.108
-671.105	-200.000	-0.032	-0.265
-670.091	126.729	-0.135	-0.174
-669.076	134.293	-0.310	-0.407
-668.062	800.000	0.059	0.194
-667.047	42.456	0.165	0.152
-666.032	68.059	-0.211	0.219
-665.018	-200.000	-0.006	0.043
-664.003	475.453	-0.084	-0.192
-662.989	800.000	-0.013	0.045
-661.974	800.000	-0.078	-0.229
-660.959	-153.137	-0.151	0.011
-659.945	800.000	0.056	0.189
-658.930	-57.941	0.122	-0.054
-657.916	321.155	0.094	0.181
-656.901	-200.000	0.178	0.000
-655.886	249.725	-0.108	0.186
-654.872	80.764	-0.206	-0.225
-653.857	-126.404	-0.432	0.065
-652.843	30.767	-0.127	-0.111
-651.828	-75.382	-0.109	0.040
-650.814	343.321	0.160	-0.317
-649.799	-200.000	-0.042	-0.214
-648.784	-121.338	0.117	0.020
-647.770	-180.931	0.359	-0.007
-646.755	-200.000	-0.035	0.206
-645.741	102.250	-0.083	-0.098
-644.726	16.966	-0.191	-0.154
-643.711	-200.000	0.004	0.136
-642.697	61.979	-0.260	-0.263
-641.682	-60.883	-0.204	0.088
-640.668	-200.000	-0.073	-0.623
-639.653	-200.000	0.005	-0.611
-638.638	-74.420	-0.278	0.101
-637.624	-200.000	0.015	-0.102
-636.609	46.296	0.109	-0.102
-635.595	4.200	0.052	-0.039
-634.580	-22.775	-0.088	-0.054
-633.565	800.000	-0.022	0.097
-632.551	86.170	-0.082	0.092
-631.536	-43.369	-0.162	0.083
-630.522	78.966	-0.152	-0.165
-629.507	-100.452	-0.161	-0.040
-628.492	60.319	0.239	-0.239
-627.478	273.672	-0.103	-0.185
-626.463	-200.000	-0.002	0.027
-625.449	21.414	-0.326	-0.268
-624.434	-200.000	-0.007	0.162
-623.419	99.560	0.141	-0.165
-622.405	-0.807	0.049	-0.035
-621.390	-85.521	-0.417	-0.131
-620.376	383.521	0.091	0.189
-619.361	-200.000	0.023	0.245
-618.346	-114.126	-0.238	0.047
-617.332	267.712	0.131	0.232
-616.317	800.000	0.037	-0.122
-615.303	-200.000	0.019	0.089
-614.288	527.009	0.102	0.244
-613.273	-200.000	-0.024	0.218
-612.259	-200.000	0.014	-0.101
-611.244	96.358	-0.085	0.099
-610.230	-117.191	-0.236	-0.043
-609.215	120.962	-0.043	0.055
-608.201	-72.047	0.194	-0.073
-607.186	800.000	-0.009	0.027
-606.171	115.612	0.089	0.110
-605.157	-59.802	-0.259	-0.112
-604.142	8.289	-0.246	-0.187
-603.128	58.605	-0.160	-0.158
-602.113	375.854	-0.124	-0.256
-601.098	256.870	0.085	-0.147
-600.084	-96.700	-0.166	0.044
-599.069	-45.456	0.210	-0.105
-598.055	282.639	0.098	0.177
-597.040	-9.299	-0.158	-0.107
-596.025	22.997	-0.235	0.195
-595.011	321.206	0.061	0.118
-593.996	-158.842	0.205	-0.012
-592.982	194.088	-0.085	-0.131
-591.967	-200.000	-0.032	0.157
-590.952	-108.394	0.070	0.015
-589.938	-29.535	0.137	-0.079
-588.923	800.000	-0.064	-0.195
-587.909	50.217	0.128	-0.122
-586.894	26.770	0.089	0.075
-585.879	-86.354	-0.215	0.067
-584.865	-30.912	0.272	0.155
-583.850	510.181	-0.064	-0.151
-582.836	404.144	-0.096	0.204
-581.821	-200.000	0.057	0.476
-580.806	800.000	-0.083	0.232
-579.792	-116.693	0.034	0.006
-578.777	164.730	-0.094	0.134
-577.763	63.624	0.169	0.171
-576.748	-200.000	0.035	0.177
-575.733	-200.000	-0.002	0.108
-574.719	362.975	0.141	0.286
-573.704	-200.000	-0.078	0.375
-572.690	-93.334	0.200	0.056
-571.675	-64.105	0.085	0.035
-570.661	210.519	-0.112	0.177
-569.646	-116.229	0.043	0.008
-568.631	-75.263	0.189	0.068
-567.617	-96.729	-0.272	-0.072
-566.602	800.000	-0.033	-0.110
-565.588	-59.488	0.088	0.038
-564.573	-200.000	0.028	-0.295
-563.558	256.800	-0.111	0.192
-562.544	-157.060	0.117	-0.007
-561.529	-200.000	-0.045	0.000
-560.515	65.146	-0.199	-0.203
-559.500	800.000	-0.052	0.158
-558.485	-200.000	-0.006	0.198
-557.471	-130.273	-0.202	-0.028
-556.456	-165.562	0.160	0.007
-555.442	800.000	-0.096	0.303
-554.427	513.149	0.101	0.239
-553.412	-112.585	0.265	0.053
-552.398	12.909	0.109	-0.085
-551.383	-70.227	0.202	-0.078
-550.369	-68.333	0.096	-0.038
-549.354	148.798	-0.138	0.189
-548.339	521.825	-0.021	-0.049
-547.325	-161.126	-0.126	-0.007
-546.310	-72.262	0.169	0.063
-545.296	316.908	0.059	0.113
-544.281	-116.377	-0.154	0.029
-543.266	525.620	0.078	0.186
-542.252	657.204	-0.026	0.068
-541.237	69.668	-0.056	0.058
-540.223	70.594	-0.006	-0.006
-539.208	-200.000	0.034	0.253
-538.193	-61.678	-0.167	-0.071
-537.179	-39.652	-0.104	0.055
-536.164	-72.631	0.144	-0.054
-535.150	800.000	-0.050	-0.193
-534.135	800.000	0.118	0.422
-533.121	-48.961	-0.208	-0.100
-532.106	531.483	0.094	0.225
-531.091	226.410	0.123	-0.202
-530.077	118.578	-0.069	0.086
-529.062	-43.348	-0.252	-0.128
-528.048	-200.000	-0.032	-0.286
-527.033	-80.211	-0.087	0.029
-526.018	238.821	-0.094	-0.158
-525.004	800.000	0.015	0.051
-523.989	800.000	-0.049	-0.216
-522.975	56.312	-0.207	0.203
-521.960	-106.132	0.133	-0.030
-520.945	-84.753	-0.341	-0.108
-519.931	47.717	-0.335	-0.315
-518.916	-136.308	0.630	-0.074
-517.902	800.000	-0.036	0.116
-516.887	800.000	0.048	0.193
-515.872	643.709	0.133	-0.342
-514.858	7.772	0.116	-0.087
-513.843	-105.423	0.209	0.048
-512.829	329.985	0.090	-0.175
-511.814	-81.523	-0.061	0.020
-510.799	-200.000	0.010	-0.136
-509.785	-10.108	0.189	0.126
-508.770	-200.000	-0.030	0.157
-507.756	-6.300	-0.305	0.209
-506.741	-188.269	0.043	-0.001
-505.726	148.251	0.067	-0.091
-504.712	-26.209	0.403	0.239
-503.697	122.057	0.181	-0.227
-502.683	382.226	0.055	0.113
-501.668	-103.313	-0.255	0.061
-500.653	220.433	-0.168	0.271
-499.639	-10.290	-0.141	-0.094
-498.624	-3.663	-0.129	0.090
-497.610	800.000	0.111	0.404
-496.595	249.846	0.077	0.132
-495.581	-145.564	0.083	0.007
-494.566	-42.954	0.197	0.101
-493.551	800.000	0.103	-0.336
-492.537	211.151	0.163	-0.259
-491.522	-12.842	-0.166	-0.109
-490.508	21.271	0.077	-0.063
-489.493	-75.963	-0.251	-0.089
-488.478	800.000	0.068	-0.294
-487.464	-200.000	-0.045	-0.414
-486.449	-30.948	-0.129	0.073
-485.435	428.407	-0.101	-0.219
-484.420	-30.840	0.195	0.111
-483.405	696.487	0.041	0.110
-482.391	-200.000	0.006	-0.180
-481.376	-124.773	0.120	-0.019
-480.362	38.292	0.366	-0.328
-479.347	-200.000	0.016	0.306
-478.332	-26.990	0.075	0.044
-477.318	293.501	-0.120	-0.221
-476.303	279.475	0.042	0.076
-475.289	800.000	0.070	0.217
-474.274	-188.126	0.227	-0.003
-473.259	-32.418	-0.096	-0.054
-472.245	-18.660	0.148	0.093
-471.230	-32.880	0.118	-0.066
-470.216	800.000	-0.072	-0.273
-469.201	121.886	0.038	0.048
-468.186	8.647	-0.173	-0.131
-467.172	-90.936	0.230	-0.067
-466.157	-149.637	-0.151	-0.012
-465.143	300.071	-0.053	-0.099
-464.128	-200.000	-0.018	-0.151
-463.113	-26.561	-0.232	-0.137
-462.099	137.020	0.098	0.129
-461.084	800.000	0.033	0.105
-460.070	-113.714	0.353	-0.069
-459.055	-98.894	0.346	0.088
-458.040	800.000	0.033	0.111
-457.026	82.316	-0.110	-0.120
-456.011	-82.075	0.294	0.096
-454.997	-200.000	0.016	0.266
-453.982	-44.521	-0.179	-0.090
-452.968	-200.000	-0.006	-0.273
-451.953	-26.382	-0.130	-0.077
-450.938	138.641	-0.248	-0.327
-449.924	-200.000	0.001	0.027
-448.909	-200.000	0.017	-0.166
-447.895	-117.257	0.173	-0.032
-446.880	103.298	0.172	0.203
-445.865	85.774	0.141	-0.155
-444.851	-115.789	0.019	0.004
-443.836	800.000	0.096	-0.274
-442.822	-200.000	-0.006	-0.039
-441.807	-128.802	-0.087	-0.012
-440.792	-111.820	0.038	-0.008
-439.778	74.704	-0.118	0.125
-438.763	-64.372	0.236	0.097
-437.749	72.915	0.154	0.161
-436.734	89.988	0.314	-0.352
-435.719	-200.000	-0.025	-0.153
-434.705	526.673	-0.029	0.069
-433.690	-129.714	-0.209	-0.029
-432.676	17.417	-0.152	-0.122
-431.661	-158.643	0.339	0.020
-430.646	-70.094	0.102	0.039
-429.632	800.000	-0.078	0.316
-428.617	-128.440	0.263	-0.038
-427.603	75.824	-0.104	-0.110
-426.588	800.000	-0.010	0.038
-425.573	-17.853	0.124	0.078
-424.559	79.954	0.140	-0.151
-423.544	800.000	0.036	0.138
-422.530	800.000	-0.049	0.194
-421.515	-200.000	0.012	-0.054
-420.500	-92.855	-0.076	-0.021
-419.486	-132.845	0.180	-0.023
-418.471	800.000	0.028	-0.082
-417.457	-134.155	0.115	-0.014
-416.442	175.726	-0.132	-0.193
-415.428	423.110	-0.097	0.208
-414.413	-200.000	-0.002	-0.160
-413.398	-101.952	0.131	-0.032
-412.384	114.911	-0.179	-0.220
-411.369	-22.292	0.130	-0.079
-410.355	-127.540	0.054	-0.008
-409.340	213.342	-0.187	0.296
-408.325	498.058	-0.065	0.151
-407.311	25.267	0.205	0.171
-406.296	-157.450	-0.244	0.015
-405.282	800.000	-0.101	-0.358
-404.267	108.302	-0.173	-0.207
-403.252	-22.771	-0.148	0.089
-402.238	-200.000	0.016	-0.194
-401.223	-200.000	-0.001	0.043
-400.209	-200.000	-0.079	0.476
-399.194	222.344	-0.160	-0.259
-398.179	66.579	0.312	-0.319
-397.165	-99.412	0.243	-0.061
-396.150	-138.791	0.106	-0.012
-395.136	71.473	-0.225	-0.234
-394.121	800.000	0.059	0.237
-393.106	-102.857	-0.263	0.063
-392.092	-200.000	-0.034	-0.182
-391.077	-200.000	0.026	0.248
-390.063	800.000	-0.031	-0.088
-389.048	207.106	-0.058	0.091
-388.033	-46.890	0.202	0.099
-387.019	-95.247	-0.236	-0.064
-386.004	139.119	-0.098	0.129
-384.990	-69.729	-0.183	0.070
-383.975	128.142	0.059	-0.076
-382.960	-143.225	0.230	-0.022
-381.946	626.067	0.041	-0.103
-380.931	-200.000	0.000	-0.105
-379.917	-61.193	0.305	-0.129
-378.902	234.388	-0.117	-0.193
-377.888	-164.982	0.277	0.012
-376.873	283.757	0.134	0.242
-375.858	-99.382	0.079	-0.020
-374.844	-84.487	-0.167	0.053
-373.829	-179.218	-0.302	0.007
-372.815	271.816	0.132	-0.234
-371.800	-87.294	0.159	0.048
-370.785	-172.542	0.123	0.004
-369.771	415.730	0.072	-0.155
-368.756	104.504	0.144	0.170
-367.742	800.000	-0.067	0.233
-366.727	-127.729	0.147	0.021
-365.712	109.687	-0.104	0.124
-364.698	254.870	0.176	-0.302
-363.683	-5.520	0.106	0.073
-362.669	-84.123	-0.070	0.022
-361.654	-200.000	-0.047	-0.362
-360.639	-200.000	-0.015	-0.167
-359.625	-200.000	0.004	-0.040
-358.610	-200.000	-0.034	0.315
-357.596	-25.563	0.313	0.185
-356.581	-200.000	0.052	-0.445
-355.566	-200.000	-0.005	0.222
-354.552	-62.195	-0.107	-0.045
-353.537	-200.000	0.012	0.151
-352.523	-32.047	-0.063	-0.035
-351.508	41.772	0.259	0.235
-350.493	-128.690	-0.155	0.022
-349.479	-138.530	-0.293	-0.032
-348.464	-186.220	-0.109	-0.002
-347.450	-18.914	0.254	-0.158
-346.435	800.000	-0.031	-0.130
-345.420	-130.577	-0.475	-0.064
-344.406	45.029	-0.200	-0.185
-343.391	792.751	0.018	-0.050
-342.377	429.394	0.057	0.123
-341.362	-44.733	-0.198	0.099
-340.348	548.308	0.131	-0.315
-339.333	800.000	-0.053	0.178
-338.318	-183.427	-0.185	-0.003
-337.304	-66.392	-0.130	0.052
-336.289	-63.299	0.373	0.154
-335.275	-142.838	-0.301	-0.029
-334.260	65.063	0.139	0.141
-333.245	-44.831	0.102	0.051
-332.231	-40.447	0.424	0.220
-331.216	3.929	0.046	0.033
-330.202	-27.117	-0.062	-0.036
-329.187	12.574	-0.231	0.179
-328.172	171.110	-0.124	0.178
-327.158	-200.000	0.023	-0.332
-326.143	-125.858	0.357	0.054
-325.129	612.923	-0.071	0.177
-324.114	-88.895	-0.217	0.064
-323.099	463.907	-0.109	0.244
-322.085	152.955	-0.111	-0.151
-321.070	-142.300	0.079	0.008
-320.056	-48.340	-0.220	0.106
-319.041	8.769	0.222	0.168
-318.026	-200.000	0.051	-0.393
-317.012	6.865	-0.196	-0.146
-315.997	-81.870	0.155	-0.051
-314.983	800.000	-0.054	-0.161
-313.968	800.000	-0.011	0.034
-312.953	-91.070	0.203	-0.058
-311.939	112.209	0.142	0.171
-310.924	-41.359	-0.280	-0.144
-309.910	52.193	-0.067	0.064
-308.895	125.253	-0.108	0.137
-307.880	-31.291	0.088	-0.049
-306.866	168.610	-0.057	0.082
-305.851	288.705	0.094	0.171
-304.837	-119.037	-0.330	-0.058
-303.822	-73.486	0.242	-0.088
-302.807	-22.842	0.130	-0.078
-301.793	800.000	-0.075	0.223
-300.778	800.000	0.104	0.347
-299.764	3.866	-0.123	0.090
-298.749	120.580	0.183	-0.227
-297.735	144.732	-0.107	0.143
-296.720	-39.021	-0.024	0.012
-295.705	204.087	-0.094	0.146
-294.691	99.453	0.169	0.196
-293.676	-146.895	0.295	0.025
-292.662	-83.714	0.274	0.088
-291.647	-40.837	-0.185	-0.096
-290.632	-79.267	0.233	0.079
-289.618	-141.465	0.328	-0.033
-288.603	800.000	0.116	-0.344
-287.589	-200.000	0.003	0.141
-286.574	579.931	0.031	-0.076
-285.559	-200.000	-0.042	-0.195
-284.545	-109.205	0.095	-0.020
-283.530	-15.121	0.156	-0.100
-282.516	135.511	0.239	0.311
-281.501	249.055	0.038	-0.065
-280.486	117.068	0.143	0.176
-279.472	476.024	0.062	0.139
-278.457	203.082	-0.028	-0.044
-277.443	130.513	-0.234	-0.300
-276.428	-56.239	-0.167	0.074
-275.413	192.637	-0.180	0.271
-274.399	-49.494	0.161	0.076
-273.384	-200.000	0.024	0.127
-272.370	-104.610	0.221	-0.051
-271.355	79.210	0.127	-0.136
-270.340	-38.219	0.116	-0.061
-269.326	454.039	0.027	0.061
-268.311	321.660	0.058	-0.109
-267.297	55.650	-0.027	0.027
-266.282	-71.801	0.036	0.013
-265.267	88.233	0.190	0.211
-264.253	599.860	-0.036	-0.088
-263.238	64.863	0.284	0.286
-262.224	375.097	-0.099	0.202
-261.209	800.000	0.063	0.218
-260.195	-118.991	-0.350	0.061
-259.180	-200.000	-0.030	-0.133
-258.165	-200.000	0.007	-0.193
-257.151	367.783	-0.073	-0.148
-256.136	-200.000	0.012	-0.126
-255.122	-59.035	0.135	0.058
-254.107	-200.000	-0.011	0.048
-253.092	97.525	0.224	0.256
-252.078	278.676	0.111	0.197
-251.063	-67.294	0.250	-0.098
-250.049	492.150	-0.063	0.145
-249.034	-200.000	0.100	-0.436
-248.019	-200.000	-0.015	-0.298
-247.005	800.000	-0.037	-0.156
-245.990	-200.000	-0.054	-0.254
-244.976	-38.895	-0.204	0.107
-243.961	356.391	0.138	0.274
-242.946	-12.996	-0.125	0.081
-241.932	-134.514	-0.305	-0.037
-240.917	-123.437	-0.066	0.010
-239.903	126.394	0.152	0.192
-238.888	-86.986	-0.233	0.071
-237.873	-70.313	0.147	-0.056
-236.859	-85.137	-0.245	0.076
-235.844	-38.033	0.088	0.046
-234.830	48.365	0.135	0.126
-233.815	-97.807	-0.409	0.105
-232.800	280.140	-0.032	-0.057
-231.786	-63.941	-0.249	-0.102
-230.771	156.672	0.209	-0.288
-229.757	-200.000	0.007	-0.135
-228.742	79.184	-0.160	-0.170
-227.727	52.222	0.164	-0.156
-226.713	-146.756	0.047	0.004
-225.698	5.578	-0.220	0.162
-224.684	83.702	-0.194	0.211
-223.669	800.000	0.073	0.280
-222.655	800.000	-0.078	-0.325
-221.640	0.675	-0.218	0.156
-220.625	-200.000	0.003	0.024
-219.611	-40.630	0.268	0.139
-218.596	-129.609	-0.116	0.016
-217.582	-130.260	-0.225	0.030
-216.567	125.390	0.126	0.159
-215.552	-28.189	0.381	0.219
-214.538	698.135	-0.097	0.254
-213.523	800.000	0.098	-0.338
-212.509	-46.526	-0.282	-0.138
-211.494	226.186	-0.061	-0.098
-210.479	-106.754	-0.285	-0.063
-209.465	-160.969	-0.092	-0.005
-208.450	47.137	-0.223	-0.207
-207.436	-72.601	-0.128	-0.047
-206.421	-132.651	-0.198	-0.025
-205.406	-65.142	-0.287	-0.115
-204.392	-200.000	-0.012	-0.182
-203.377	-99.150	0.469	-0.118
-202.363	-200.000	-0.011	0.184
-201.348	-94.074	0.120	-0.033
-200.333	-76.752	0.029	0.010
-199.319	261.611	0.228	0.393
-198.304	-66.075	-0.294	0.117
-197.290	116.841	-0.129	0.158
-196.275	-14.478	0.267	0.171
-195.260	-28.170	-0.081	-0.046
-194.246	-200.000	-0.027	0.235
-193.231	520.893	-0.189	0.441
-192.217	-200.000	0.028	0.216
-191.202	-95.023	-0.149	0.040
-190.187	-200.000	0.032	-0.156
-189.173	25.837	0.041	-0.034
-188.158	-194.042	0.221	0.002
-187.144	-78.280	0.137	0.047
-186.129	-153.873	0.118	0.008
-185.114	-200.000	-0.013	-0.071
-184.100	-106.482	-0.367	-0.082
-183.085	206.848	-0.157	0.244
-182.071	297.346	0.108	-0.198
-181.056	-10.087	0.186	-0.123
-180.042	456.853	0.103	0.229
-179.027	-200.000	-0.087	-0.412
-178.012	-200.000	-0.006	-0.102
-176.998	-200.000	0.008	0.274
-175.983	195.935	0.158	0.238
-174.969	92.386	-0.191	0.214
-173.954	63.519	-0.396	-0.396
-172.939	-200.000	0.003	-0.211
-171.925	-23.665	-0.135	-0.080
-170.910	-15.079	0.132	-0.084
-169.896	-27.383	0.221	-0.128
-168.881	-200.000	-0.036	0.280
-167.866	102.429	-0.137	-0.159
-166.852	-151.447	-0.222	-0.016
-165.837	182.268	-0.182	0.267
-164.823	-3.249	0.133	-0.092
-163.808	-96.407	-0.094	0.025
-162.793	-134.196	-0.389	-0.048
-161.779	178.160	0.171	-0.249
-160.764	-200.000	-0.022	0.106
-159.750	546.121	-0.134	-0.318
-158.735	90.603	-0.151	-0.169
-157.720	-149.053	-0.142	-0.011
-156.706	20.098	0.305	0.245
-155.691	-200.000	-0.102	-0.515
-154.677	800.000	-0.033	-0.123
-153.662	-200.000	-0.025	0.185
-152.647	-200.000	-0.032	0.311
-151.633	800.000	0.026	-0.108
-150.618	-184.298	-0.195	-0.003
-149.604	-19.266	0.330	0.204
-148.589	-69.450	0.133	0.051
-147.574	800.000	-0.046	-0.198
-146.560	-200.000	0.028	0.295
-145.545	-200.000	0.006	-0.069
-144.531	-125.907	0.613	-0.092
-143.516	245.568	0.156	0.261
-142.502	-200.000	0.057	0.439
-141.487	-53.668	0.299	0.136
-140.472	-113.141	0.192	-0.038
-139.458	800.000	0.093	-0.284
-138.443	9.091	0.190	-0.142
-137.429	800.000	-0.095	0.295
-136.414	-20.776	0.195	0.119
-135.399	9.072	0.105	0.079
-134.385	-128.168	0.335	0.048
-133.370	800.000	0.043	-0.121
-132.356	243.031	0.105	0.175
-131.341	-16.219	-0.158	-0.099
-130.326	590.453	0.043	0.105
-129.312	800.000	0.020	-0.058
-128.297	55.978	0.230	-0.221
-127.283	800.000	0.124	0.416
-126.268	800.000	-0.061	-0.207
-125.253	-200.000	-0.006	0.086
-124.239	-200.000	0.010	0.323
-123.224	12.870	0.162	0.124
-122.210	20.386	0.100	0.080
