DTS Sentinel unit serial number:	SN413079Multiplexer serial number:	ORYXHardware model number:	OX4-SRSoftware version number:	ORYX F/W v4.00 Oryx Data Collector v3.7.2.0data status	okinstallation	princeton_trtdifferential loss correction	single-endedforward channel	channel 4reverse channel	N/Adate	2019/09/15time	15:29:35forward acquisition time	60.00reverse acquisition time	0.00gamma	496.2192k internal	0.2284k external	0.2284temperature offset calibration	0.9957default loss term (dB/km)	0.3790temperature slope calibration	1.0000multiplexer offset coefficient	1.0000multiplexer slope coefficient	1.0000fibre end	0.00T internal ref (°C)	41.19T ext. ref 1 (°C)	5.11T ext. ref 2 (°C)	38.49length (m)	temperature (°C)	Stokes	anti-Stokes-747.200	800.000	0.087	-0.364
-746.185	104.220	-0.225	-0.272
-745.171	-88.777	-0.216	-0.066
-744.156	-200.000	-0.040	0.229
-743.142	67.818	-0.108	0.113
-742.127	443.984	-0.109	0.245
-741.112	321.611	0.145	0.283
-740.098	-107.191	0.058	0.013
-739.083	-148.263	0.366	-0.031
-738.069	-111.109	-0.104	0.022
-737.054	32.505	-0.092	-0.081
-736.039	-200.000	-0.001	-0.227
-735.025	-200.000	-0.063	0.554
-734.010	-198.268	-0.608	0.004
-732.996	-200.000	0.033	-0.250
-731.981	-200.000	-0.031	-0.175
-730.966	156.271	-0.003	0.005
-729.952	-89.680	-0.286	-0.086
-728.937	104.782	-0.102	-0.123
-727.923	-3.042	0.074	-0.053
-726.908	-200.000	-0.064	-0.429
-725.894	49.404	0.066	0.064
-724.879	311.530	-0.099	-0.190
-723.864	-180.373	-0.440	0.009
-722.850	-106.372	0.241	-0.055
-721.835	122.119	-0.180	-0.230
-720.821	-23.556	-0.186	-0.115
-719.806	-75.206	-0.248	0.091
-718.791	-200.000	-0.008	0.118
-717.777	-34.802	-0.127	0.071
-716.762	357.845	-0.127	-0.259
-715.748	-1.553	-0.162	-0.117
-714.733	97.086	0.302	-0.356
-713.718	-29.886	0.224	0.131
-712.704	-136.792	-0.357	-0.042
-711.689	800.000	-0.010	0.036
-710.675	-156.372	-0.328	-0.021
-709.660	44.353	0.271	-0.255
-708.645	800.000	-0.058	-0.195
-707.631	49.885	0.178	-0.172
-706.616	-200.000	-0.004	-0.280
-705.602	-106.019	0.178	0.041
-704.587	38.758	-0.328	-0.300
-703.572	-200.000	-0.041	0.512
-702.558	-8.974	-0.039	0.027
-701.543	-200.000	-0.033	-0.188
-700.529	-200.000	0.036	-0.255
-699.514	353.474	0.017	0.034
-698.499	187.113	-0.099	0.151
-697.485	-119.706	-0.077	-0.014
-696.470	19.615	-0.117	0.097
-695.456	800.000	-0.059	0.171
-694.441	-200.000	-0.053	-0.355
-693.426	393.474	0.103	0.220
-692.412	800.000	-0.125	0.371
-691.397	-200.000	-0.043	0.331
-690.383	800.000	-0.065	0.241
-689.368	-86.836	-0.192	-0.060
-688.354	-73.006	0.113	0.043
-687.339	336.419	-0.119	0.237
-686.324	-186.480	-0.091	0.001
-685.310	-200.000	0.035	-0.322
-684.295	-200.000	0.000	-0.180
-683.281	-27.513	-0.160	0.095
-682.266	-17.581	0.176	0.113
-681.251	-83.858	0.067	0.022
-680.237	341.356	-0.059	-0.118
-679.222	-150.720	-0.197	-0.015
-678.208	-99.644	0.400	-0.103
-677.193	53.141	0.136	0.133
-676.178	-55.789	0.059	-0.027
-675.164	-37.015	-0.171	0.094
-674.149	-200.000	-0.023	0.546
-673.135	-47.568	0.261	0.130
-672.120	87.201	-0.039	0.044
-671.105	-44.076	-0.246	-0.127
-670.091	28.636	0.177	0.153
-669.076	-103.061	-0.170	0.041
-668.062	-200.000	0.002	0.053
-667.047	298.970	-0.040	0.076
-666.032	419.141	-0.147	0.323
-665.018	3.349	0.214	-0.159
-664.003	252.382	-0.166	-0.289
-662.989	-99.404	0.093	0.024
-661.974	524.208	0.088	0.212
-660.959	265.013	-0.032	-0.056
-659.945	800.000	-0.093	-0.273
-658.930	130.672	0.030	0.040
-657.916	800.000	-0.119	-0.405
-656.901	-182.718	0.372	-0.007
-655.886	800.000	0.041	-0.136
-654.872	-31.721	-0.152	-0.087
-653.857	269.811	-0.248	-0.446
-652.843	800.000	-0.045	0.152
-651.828	118.576	0.153	-0.193
-650.814	212.306	0.125	-0.201
-649.799	800.000	0.068	-0.199
-648.784	-200.000	-0.058	-0.313
-647.770	-200.000	0.000	-0.289
-646.755	139.619	-0.203	-0.273
-645.741	211.984	0.186	-0.300
-644.726	800.000	0.020	-0.083
-643.711	-104.918	-0.369	0.087
-642.697	228.571	-0.199	-0.332
-641.682	508.380	-0.056	-0.133
-640.668	-200.000	-0.026	-0.120
-639.653	-53.133	0.119	-0.056
-638.638	-200.000	-0.061	-0.325
-637.624	-200.000	-0.059	0.376
-636.609	-200.000	0.024	0.314
-635.595	-53.329	0.471	-0.221
-634.580	-82.714	0.199	0.066
-633.565	-46.270	-0.260	-0.131
-632.551	-200.000	-0.008	0.506
-631.536	-73.346	0.159	-0.059
-630.522	352.745	0.111	0.226
-629.507	468.361	-0.074	0.171
-628.492	-9.254	0.329	0.225
-627.478	-200.000	-0.071	-0.415
-626.463	-52.158	-0.212	-0.101
-625.449	800.000	-0.057	-0.204
-624.434	-200.000	0.071	-0.393
-623.419	-155.087	0.197	-0.013
-622.405	800.000	0.037	0.144
-621.390	-200.000	-0.026	-0.145
-620.376	-80.753	0.253	0.086
-619.361	-200.000	-0.027	0.244
-618.346	461.362	-0.119	-0.271
-617.332	-40.021	-0.432	0.230
-616.317	49.275	-0.141	0.135
-615.303	-200.000	-0.013	-0.276
-614.288	800.000	0.036	-0.108
-613.273	338.677	-0.092	0.182
-612.259	-116.967	-0.260	0.049
-611.244	800.000	-0.064	-0.213
-610.230	-99.499	0.247	0.064
-609.215	-1.714	0.263	0.189
-608.201	-143.580	-0.129	0.013
-607.186	-6.731	0.162	-0.112
-606.171	-59.441	0.259	0.114
-605.157	-84.245	0.171	-0.055
-604.142	-29.306	0.068	-0.040
-603.128	-191.052	-0.307	0.003
-602.113	381.841	0.149	0.313
-601.098	20.858	0.225	-0.186
-600.084	136.188	-0.161	-0.215
-599.069	59.202	0.173	0.174
-598.055	-54.461	-0.361	-0.167
-597.040	42.206	0.323	0.300
-596.025	59.828	-0.112	-0.113
-595.011	-35.082	0.049	-0.027
-593.996	516.812	0.092	-0.220
-592.982	67.782	-0.079	0.083
-591.967	96.253	0.295	-0.345
-590.952	287.535	-0.033	0.061
-589.938	-10.029	-0.110	0.075
-588.923	-74.488	-0.136	0.050
-587.909	800.000	-0.099	0.295
-586.894	-99.596	-0.100	0.026
-585.879	37.094	-0.160	-0.144
-584.865	-56.857	-0.332	0.150
-583.850	66.990	0.074	-0.077
-582.836	-81.302	-0.271	-0.091
-581.821	-23.199	-0.175	0.107
-580.806	36.642	0.115	-0.104
-579.792	-28.992	0.231	0.135
-578.777	-200.000	0.005	0.131
-577.763	-109.407	-0.325	-0.070
-576.748	-20.767	0.057	-0.036
-575.733	-126.426	-0.288	0.044
-574.719	-48.317	-0.144	0.071
-573.704	-200.000	0.010	0.211
-572.690	-50.199	-0.353	0.170
-571.675	-86.667	-0.160	-0.050
-570.661	-98.383	0.208	-0.054
-569.646	163.791	0.052	-0.075
-568.631	0.994	-0.070	0.051
-567.617	-200.000	-0.054	-0.329
-566.602	112.674	-0.143	0.176
-565.588	17.396	-0.292	-0.237
-564.573	-200.000	-0.027	-0.274
-563.558	568.715	0.015	-0.038
-562.544	-200.000	-0.002	-0.235
-561.529	-5.583	-0.203	0.142
-560.515	-149.578	-0.418	0.034
-559.500	800.000	0.095	-0.411
-558.485	-41.929	-0.393	0.205
-557.471	-39.185	-0.129	0.069
-556.456	1.589	0.285	0.209
-555.442	-200.000	0.026	-0.389
-554.427	-119.299	-0.141	0.025
-553.412	-54.165	-0.329	-0.152
-552.398	-146.442	0.257	0.023
-551.383	-113.325	0.226	-0.045
-550.369	245.802	0.052	0.089
-549.354	-51.583	-0.043	-0.021
-548.339	-57.595	-0.101	-0.045
-547.325	-100.832	-0.504	-0.126
-546.310	154.751	-0.062	-0.086
-545.296	102.055	-0.029	0.034
-544.281	800.000	0.018	-0.059
-543.266	668.506	0.140	0.370
-542.252	476.200	-0.037	-0.086
-541.237	800.000	0.085	0.290
-540.223	57.950	0.025	-0.025
-539.208	-13.186	-0.168	-0.111
-538.193	-30.773	-0.261	0.150
-537.179	-200.000	0.081	0.449
-536.164	7.679	-0.155	-0.119
-535.150	134.343	-0.263	-0.347
-534.135	-129.253	-0.145	-0.021
-533.121	-17.270	-0.198	-0.127
-532.106	20.223	0.189	-0.156
-531.091	-53.159	-0.036	0.017
-530.077	-52.407	0.224	-0.106
-529.062	-49.036	-0.362	0.176
-528.048	114.555	-0.144	-0.178
-527.033	-116.542	0.142	0.027
-526.018	322.601	0.082	0.159
-525.004	-101.694	-0.192	0.048
-523.989	-113.306	-0.332	-0.066
-522.975	200.444	0.131	0.205
-521.960	-38.786	0.109	0.059
-520.945	103.800	-0.139	0.167
-519.931	351.655	-0.107	-0.217
-518.916	-126.384	-0.245	-0.037
-517.902	282.987	-0.057	0.104
-516.887	-40.795	0.348	-0.183
-515.872	172.686	-0.149	-0.218
-514.858	-200.000	0.007	-0.238
-513.843	70.059	0.072	0.075
-512.829	-10.379	0.215	0.145
-511.814	78.345	0.125	0.136
-510.799	-127.073	-0.334	0.050
-509.785	-32.786	-0.321	0.182
-508.770	800.000	-0.042	-0.152
-507.756	104.614	0.114	0.137
-506.741	320.574	0.027	0.052
-505.726	-200.000	0.021	0.166
-504.712	-200.000	-0.006	0.054
-503.697	-123.982	0.215	0.034
-502.683	-200.000	-0.009	-0.162
-501.668	113.728	0.131	-0.162
-500.653	-65.450	0.209	-0.085
-499.639	777.833	0.029	0.081
-498.624	-177.552	-0.074	0.002
-497.610	7.635	0.299	-0.227
-496.595	-200.000	-0.016	-0.125
-495.581	-10.507	0.131	0.088
-494.566	-176.227	0.442	0.012
-493.551	-137.498	-0.230	0.026
-492.537	-157.316	0.083	-0.005
-491.522	-200.000	-0.034	-0.237
-490.508	204.557	-0.202	-0.319
-489.493	-10.788	0.238	-0.160
-488.478	-5.818	-0.087	-0.060
-487.464	-200.000	0.044	-0.291
-486.449	800.000	-0.065	-0.280
-485.435	569.266	0.030	0.075
-484.420	800.000	0.085	-0.343
-483.405	-121.287	0.215	-0.037
-482.391	126.126	0.134	0.173
-481.376	67.648	0.190	-0.197
-480.362	-102.284	-0.218	0.053
-479.347	-123.024	0.142	0.023
-478.332	800.000	0.078	-0.254
-477.318	-76.664	-0.123	-0.044
-476.303	713.100	0.173	0.467
-475.289	280.775	0.045	0.082
-474.274	-149.447	-0.172	0.014
-473.259	-9.534	-0.078	0.053
-472.245	-120.288	0.181	0.031
-471.230	213.417	0.023	-0.037
-470.216	78.972	-0.019	0.020
-469.201	152.389	-0.151	0.210
-468.186	-103.804	0.134	-0.032
-467.172	800.000	0.045	-0.163
-466.157	-15.517	-0.225	0.146
-465.143	-46.049	-0.343	-0.172
-464.128	26.102	-0.081	-0.068
-463.113	800.000	-0.024	0.085
-462.099	800.000	0.095	0.359
-461.084	-48.959	0.176	0.085
-460.070	-46.838	-0.129	0.064
-459.055	2.936	-0.228	-0.168
-458.040	337.884	0.042	-0.083
-457.026	96.559	0.353	0.411
-456.011	-11.607	-0.130	-0.087
-454.997	-153.158	0.432	-0.031
-453.982	-91.144	-0.283	-0.082
-452.968	800.000	-0.038	-0.111
-451.953	-200.000	-0.002	0.253
-450.938	-21.939	0.098	-0.060
-449.924	-57.406	0.140	0.063
-448.909	181.924	-0.216	-0.323
-447.895	-200.000	0.000	-0.151
-446.880	800.000	0.063	-0.236
-445.865	162.055	-0.295	-0.419
-444.851	-160.946	0.119	0.006
-443.836	-200.000	0.002	-0.135
-442.822	-93.145	0.115	-0.032
-441.807	11.317	0.276	-0.214
-440.792	-133.838	0.132	-0.017
-439.778	143.158	-0.260	0.351
-438.763	800.000	0.125	0.377
-437.749	331.182	-0.076	0.148
-436.734	-56.924	-0.330	-0.148
-435.719	-106.296	0.160	-0.036
-434.705	334.164	0.037	-0.072
-433.690	324.900	0.100	-0.194
-432.676	423.555	0.022	0.048
-431.661	29.507	0.095	-0.082
-430.646	-144.564	-0.392	0.037
-429.632	576.271	-0.022	-0.055
-428.617	-200.000	0.017	-0.305
-427.603	162.384	0.171	0.244
-426.588	427.290	0.167	0.366
-425.573	89.628	0.103	0.117
-424.559	-31.306	-0.090	-0.051
-423.544	-200.000	0.017	0.165
-422.530	183.333	-0.110	0.166
-421.515	-200.000	0.023	-0.185
-420.500	-48.923	0.162	-0.079
-419.486	-115.871	0.248	-0.047
-418.471	123.837	-0.137	0.174
-417.457	35.724	-0.203	0.181
-416.442	585.949	0.176	0.439
-415.428	-178.704	0.412	0.010
-414.413	-182.781	0.388	0.007
-413.398	1.343	-0.065	0.047
-412.384	-200.000	0.002	0.157
-411.369	800.000	-0.102	-0.346
-410.355	-169.601	-0.161	-0.006
-409.340	-95.832	-0.269	0.073
-408.325	-52.538	0.098	-0.046
-407.311	-132.067	-0.236	0.031
-406.296	-62.744	0.204	0.086
-405.282	800.000	-0.044	0.169
-404.267	-39.681	-0.138	0.073
-403.252	85.001	-0.172	-0.192
-402.238	-82.265	0.153	-0.051
-401.223	-26.851	0.130	0.077
-400.209	50.481	0.151	-0.145
-399.194	120.039	0.220	-0.276
-398.179	-17.166	0.210	0.134
-397.165	-42.747	-0.246	-0.127
-396.150	218.941	-0.036	-0.058
-395.136	-131.175	0.370	-0.050
-394.121	17.109	-0.102	0.082
-393.106	-60.805	-0.148	0.063
-392.092	800.000	-0.015	0.067
-391.077	743.867	-0.126	0.342
-390.063	-36.584	-0.196	-0.107
-389.048	628.299	0.122	0.312
-388.033	603.944	0.120	0.302
-387.019	800.000	0.059	0.216
-386.004	454.606	-0.212	-0.475
-384.990	-3.296	0.056	0.039
-383.975	-17.976	-0.065	-0.041
-382.960	-200.000	0.021	-0.156
-381.946	-152.484	-0.096	-0.007
-380.931	609.653	0.013	0.034
-379.917	-200.000	0.051	-0.229
-378.902	-200.000	-0.036	0.236
-377.888	-200.000	0.032	-0.440
-376.873	800.000	0.045	0.191
-375.858	-41.163	-0.292	-0.152
-374.844	-65.544	0.298	-0.121
-373.829	-32.930	0.372	-0.209
-372.815	278.245	-0.122	-0.220
-371.800	-80.004	-0.201	0.068
-370.785	-28.990	0.226	-0.131
-369.771	-200.000	0.003	-0.016
-368.756	-200.000	-0.041	-0.181
-367.742	-143.647	-0.238	-0.023
-366.727	-133.234	-0.205	-0.026
-365.712	800.000	0.077	0.331
-364.698	-19.203	0.131	-0.083
-363.683	18.709	0.143	0.116
-362.669	383.573	0.111	-0.232
-361.654	-158.570	0.275	0.016
-360.639	354.877	0.037	0.075
-359.625	-200.000	-0.062	-0.354
-358.610	-61.658	0.117	-0.050
-357.596	-32.577	0.143	0.081
-356.581	-8.714	-0.151	-0.102
-355.566	67.100	0.198	0.204
-354.552	-63.961	-0.257	-0.106
-353.537	-72.203	-0.293	-0.110
-352.523	112.500	0.034	0.042
-351.508	64.939	0.371	-0.379
-350.493	-200.000	-0.004	-0.196
-349.479	6.157	0.123	-0.092
-348.464	-200.000	0.006	-0.110
-347.450	-56.760	-0.042	0.019
-346.435	160.378	-0.082	-0.116
-345.420	-5.828	-0.146	-0.101
-344.406	-174.092	-0.338	0.010
-343.391	-22.123	0.120	-0.074
-342.377	227.533	0.223	0.366
-341.362	-200.000	0.017	0.167
-340.348	-135.150	0.119	-0.014
-339.333	800.000	0.065	0.280
-338.318	11.580	0.110	-0.085
-337.304	748.237	-0.048	0.132
-336.289	778.455	0.047	0.129
-335.275	-200.000	-0.035	0.316
-334.260	-140.122	0.029	-0.003
-333.245	-200.000	0.053	0.360
-332.231	-200.000	0.005	0.311
-331.216	210.898	-0.132	0.210
-330.202	-200.000	0.072	-0.381
-329.187	-65.221	-0.093	0.038
-328.172	-200.000	0.014	0.246
-327.158	205.636	-0.129	-0.203
-326.143	800.000	-0.004	-0.015
-325.129	-8.504	0.333	0.226
-324.114	-200.000	-0.004	0.316
-323.099	-92.753	-0.036	-0.010
-322.085	800.000	0.032	-0.111
-321.070	425.861	-0.089	0.193
-320.056	-31.248	-0.066	-0.038
-319.041	-162.381	0.178	-0.009
-318.026	-63.194	0.130	-0.054
-317.012	800.000	-0.056	-0.237
-315.997	307.512	0.119	0.225
-314.983	-144.626	-0.304	-0.028
-313.968	63.488	0.140	0.141
-312.953	423.842	-0.163	-0.355
-311.939	179.682	0.091	0.134
-310.924	-154.030	-0.212	-0.015
-309.910	-64.563	0.415	0.170
-308.895	76.193	0.102	0.109
-307.880	16.384	0.116	-0.093
-306.866	616.050	-0.039	0.099
-305.851	-200.000	-0.002	-0.161
-304.837	-55.203	-0.201	0.091
-303.822	-200.000	0.004	0.162
-302.807	-12.737	-0.212	-0.140
-301.793	44.534	-0.049	-0.045
-300.778	-108.820	0.243	-0.053
-299.764	244.347	-0.041	-0.070
-298.749	34.772	-0.184	0.163
-297.735	-200.000	-0.036	0.210
-296.720	36.006	-0.144	0.128
-295.705	-200.000	0.015	-0.504
-294.691	30.494	0.136	-0.117
-293.676	-155.147	0.149	0.010
-292.662	-200.000	-0.058	-0.341
-291.647	800.000	-0.056	0.240
-290.632	-154.650	0.358	-0.024
-289.618	122.717	0.143	-0.180
-288.603	-149.016	0.190	0.015
-287.589	-101.360	-0.132	-0.033
-286.574	666.361	-0.107	0.278
-285.559	-91.863	-0.167	0.048
-284.545	-200.000	0.018	0.130
-283.530	-200.000	0.000	0.376
-282.516	-133.522	0.161	-0.020
-281.501	-123.782	-0.075	0.012
-280.486	-151.066	-0.367	0.028
-279.472	-26.161	0.329	-0.195
-278.457	-200.000	0.011	0.072
-277.443	-55.959	-0.134	0.060
-276.428	115.135	-0.229	-0.282
-275.413	8.104	0.114	0.086
-274.399	173.080	-0.135	-0.196
-273.384	800.000	0.090	-0.361
-272.370	800.000	-0.020	-0.083
-271.355	261.903	0.079	-0.138
-270.340	478.411	0.078	-0.177
-269.326	-40.854	-0.151	0.079
-268.311	-200.000	-0.034	-0.172
-267.297	-80.532	-0.154	-0.052
-266.282	284.219	-0.070	-0.127
-265.267	145.134	0.266	0.359
-264.253	-59.023	0.022	-0.010
-263.238	128.017	-0.214	0.274
-262.224	68.646	0.137	-0.142
-261.209	-200.000	0.034	0.229
-260.195	-1.617	0.129	0.092
-259.180	-28.175	-0.136	-0.079
-258.165	800.000	0.021	-0.072
-257.151	-200.000	-0.034	0.267
-256.136	292.491	0.052	0.095
-255.122	75.057	0.177	-0.188
-254.107	-150.129	0.099	0.008
-253.092	-56.640	-0.356	0.159
-252.078	-9.680	-0.226	0.152
-251.063	-19.719	0.240	0.149
-250.049	-200.000	-0.023	-0.181
-249.034	-169.442	0.275	0.010
-248.019	-24.746	0.340	-0.203
-247.005	752.799	-0.095	-0.259
-245.990	-200.000	-0.032	0.351
-244.976	-172.416	0.281	-0.009
-243.961	-70.303	0.280	0.107
-242.946	-104.900	-0.246	-0.057
-241.932	43.459	-0.097	0.089
-240.917	800.000	0.059	0.178
-239.903	73.607	-0.141	0.149
-238.888	-200.000	0.007	0.044
-237.873	-69.582	-0.206	0.079
-236.859	-77.006	-0.367	0.129
-235.844	-175.712	0.394	-0.011
-234.830	538.146	-0.111	0.266
-233.815	-51.769	0.049	-0.023
-232.800	165.379	0.090	-0.129
-231.786	-129.346	0.147	-0.021
-230.771	-139.207	0.319	-0.035
-229.757	-88.002	0.210	0.064
-228.742	-23.797	-0.172	0.104
-227.727	199.685	0.232	0.358
-226.713	-200.000	0.028	-0.243
-225.698	443.982	0.037	0.082
-224.684	-60.550	0.325	0.139
-223.669	-160.566	-0.442	0.024
-222.655	205.166	0.201	0.313
-221.640	233.419	0.006	0.010
-220.625	10.657	-0.129	0.099
-219.611	-131.508	-0.391	-0.052
-218.596	96.055	-0.235	0.270
-217.582	-200.000	0.061	0.390
-216.567	174.075	0.105	0.152
-215.552	-139.246	0.314	-0.034
-214.538	-7.713	-0.244	-0.166
-213.523	-200.000	0.007	-0.276
-212.509	394.201	0.175	0.367
-211.494	67.870	-0.307	-0.316
-210.479	164.154	-0.108	-0.153
-209.465	-200.000	-0.023	-0.178
-208.450	-127.645	0.250	0.036
-207.436	107.788	-0.033	-0.039
-206.421	95.102	-0.187	0.214
-205.406	-200.000	-0.017	0.089
-204.392	-76.655	0.175	0.062
-203.377	-93.723	0.137	0.038
-202.363	-110.031	-0.057	0.012
-201.348	-200.000	0.098	0.489
-200.333	-94.113	0.226	-0.062
-199.319	15.324	-0.028	0.022
-198.304	-124.864	0.221	-0.034
-197.290	-16.022	0.127	-0.081
-196.275	109.159	-0.079	0.095
-195.260	-200.000	-0.010	0.266
-194.246	-85.755	0.432	0.135
-193.231	186.356	-0.014	0.022
-192.217	-82.048	0.166	-0.054
-191.202	52.888	0.152	0.146
-190.187	26.830	0.118	-0.099
-189.173	800.000	-0.093	0.363
-188.158	-52.070	-0.409	0.191
-187.144	-68.814	-0.110	0.043
-186.129	48.362	0.126	0.119
-185.114	-9.221	-0.190	-0.128
-184.100	409.821	-0.057	-0.122
-183.085	-200.000	-0.029	-0.155
-182.071	289.308	0.045	0.082
-181.056	99.087	-0.129	0.150
-180.042	-88.597	0.289	0.087
-179.027	-107.807	-0.314	0.069
-178.012	48.215	0.213	-0.200
-176.998	-112.301	0.008	0.002
-175.983	-3.880	0.078	-0.055
-174.969	-95.319	0.420	0.113
-173.954	-200.000	-0.024	-0.230
-172.939	-200.000	-0.039	0.000
-171.925	-93.138	-0.217	-0.061
-170.910	-22.990	0.351	-0.213
-169.896	-27.342	0.192	0.112
-168.881	38.897	-0.193	-0.173
-167.866	800.000	-0.007	-0.031
-166.852	-85.321	0.307	0.096
-165.837	-200.000	-0.018	-0.099
-164.823	-42.799	0.226	-0.115
-163.808	143.270	-0.066	0.088
-162.793	-50.850	-0.331	0.156
-161.779	-91.292	-0.109	0.031
-160.764	-132.387	-0.164	0.021
-159.750	428.514	-0.116	0.251
-158.735	270.677	-0.082	-0.145
-157.720	-200.000	0.038	-0.186
-156.706	-200.000	-0.020	0.192
-155.691	-31.163	0.133	-0.075
-154.677	558.819	0.135	0.328
-153.662	-70.688	-0.145	-0.055
-152.647	47.105	-0.147	-0.138
-151.633	130.817	-0.210	-0.271
-150.618	800.000	0.072	0.240
-149.604	159.205	0.081	-0.113
-148.589	-200.000	-0.049	-0.288
-147.574	-33.955	0.271	0.150
-146.560	-200.000	0.006	-0.104
-145.545	-200.000	0.013	0.216
-144.531	-172.052	0.256	0.008
-143.516	383.121	-0.079	-0.162
-142.502	-200.000	-0.028	-0.197
-141.487	159.709	-0.080	0.112
-140.472	-13.402	-0.115	0.075
-139.458	-132.627	-0.220	-0.028
-138.443	579.011	-0.159	-0.391
-137.429	75.810	-0.254	-0.269
-136.414	-200.000	0.030	0.157
-135.399	331.002	-0.047	-0.090
-134.385	131.902	0.056	0.072
-133.370	50.214	-0.140	-0.133
-132.356	-60.268	0.181	-0.077
-131.341	-200.000	-0.001	-0.184
-130.326	-101.132	0.063	0.015
-129.312	-200.000	-0.001	-0.024
-128.297	-127.696	0.241	-0.035
-127.283	-61.364	-0.160	0.068
-126.268	41.138	0.051	0.046
-125.253	-200.000	0.000	-0.006
-124.239	-107.999	-0.043	-0.009
-123.224	-70.452	0.286	0.109
-122.210	22.587	0.099	-0.082
