DTS Sentinel unit serial number:	SN413079Multiplexer serial number:	ORYXHardware model number:	OX4-SRSoftware version number:	ORYX F/W v4.00 Oryx Data Collector v3.7.2.0data status	okinstallation	princeton_trtdifferential loss correction	single-endedforward channel	channel 4reverse channel	N/Adate	2019/09/17time	01:29:35forward acquisition time	60.00reverse acquisition time	0.00gamma	496.2192k internal	0.2312k external	0.2312temperature offset calibration	0.9977default loss term (dB/km)	0.3790temperature slope calibration	1.0000multiplexer offset coefficient	1.0000multiplexer slope coefficient	1.0000fibre end	0.00T internal ref (°C)	29.50T ext. ref 1 (°C)	0.12T ext. ref 2 (°C)	24.35length (m)	temperature (°C)	Stokes	anti-Stokes-747.200	-200.000	0.047	-0.293
-746.185	-61.772	-0.347	0.148
-745.171	-200.000	0.004	-0.263
-744.156	-96.575	-0.239	-0.064
-743.142	104.091	-0.187	-0.223
-742.127	-40.995	0.308	0.162
-741.112	-116.552	-0.243	-0.045
-740.098	296.041	0.147	0.274
-739.083	800.000	0.077	0.289
-738.069	800.000	-0.131	0.397
-737.054	533.474	-0.096	-0.230
-736.039	-125.688	-0.355	0.054
-735.025	-158.015	-0.050	-0.003
-734.010	-39.719	-0.234	0.124
-732.996	233.958	-0.085	0.142
-731.981	-16.044	-0.171	-0.110
-730.966	-59.587	-0.144	-0.063
-729.952	-43.397	-0.246	-0.126
-728.937	-135.891	0.359	0.043
-727.923	-81.552	-0.223	-0.074
-726.908	122.754	0.062	-0.078
-725.894	-78.378	-0.074	0.026
-724.879	63.472	-0.067	-0.068
-723.864	51.964	0.203	0.196
-722.850	-149.101	-0.146	-0.012
-721.835	-121.058	-0.532	0.091
-720.821	-158.412	0.233	-0.014
-719.806	-159.674	-0.178	-0.010
-718.791	-78.686	0.252	0.087
-717.777	800.000	-0.087	0.342
-716.762	137.723	-0.101	0.134
-715.748	7.350	0.112	0.085
-714.733	479.393	-0.141	-0.324
-713.718	-44.550	0.059	0.030
-712.704	-97.299	-0.233	0.061
-711.689	-92.244	-0.374	-0.107
-710.675	-130.970	0.034	0.005
-709.660	-200.000	0.007	0.112
-708.645	191.504	-0.086	-0.131
-707.631	-8.216	0.017	-0.012
-706.616	-118.786	0.067	-0.012
-705.602	800.000	-0.083	-0.249
-704.587	800.000	-0.075	0.322
-703.572	800.000	-0.061	0.266
-702.558	-149.227	-0.319	-0.026
-701.543	-200.000	0.011	0.188
-700.529	-142.230	0.350	0.035
-699.514	-54.614	-0.069	0.032
-698.499	-176.217	-0.255	0.007
-697.485	765.948	-0.083	-0.228
-696.470	-103.115	-0.333	-0.080
-695.456	6.729	0.175	-0.132
-694.441	-142.003	-0.085	0.009
-693.426	-124.874	0.246	0.038
-692.412	-30.009	-0.119	-0.069
-691.397	-63.764	0.281	-0.117
-690.383	-98.650	-0.219	-0.057
-689.368	296.925	0.090	0.167
-688.354	-45.612	-0.125	0.063
-687.339	49.701	-0.117	0.112
-686.324	-200.000	-0.063	0.292
-685.310	478.507	0.045	-0.104
-684.295	264.164	-0.132	-0.232
-683.281	800.000	-0.070	-0.290
-682.266	-39.730	0.132	-0.070
-681.251	61.659	-0.248	0.250
-680.237	-200.000	0.031	0.146
-679.222	-81.217	-0.311	0.104
-678.208	-200.000	0.015	0.224
-677.193	187.553	-0.150	0.227
-676.178	222.071	-0.112	-0.182
-675.164	-92.613	-0.104	0.030
-674.149	-32.392	-0.371	0.209
-673.135	-200.000	-0.010	-0.182
-672.120	-103.813	-0.188	0.045
-671.105	167.731	0.178	0.256
-670.091	149.340	0.152	0.209
-669.076	52.891	0.016	-0.015
-668.062	-72.852	-0.459	-0.171
-667.047	53.475	-0.158	-0.153
-666.032	130.582	-0.103	-0.133
-665.018	-111.847	0.240	0.049
-664.003	-179.589	0.045	0.001
-662.989	111.716	-0.137	0.168
-661.974	-130.610	0.049	-0.007
-660.959	800.000	-0.070	0.297
-659.945	-67.595	-0.315	-0.125
-658.930	12.276	0.150	0.117
-657.916	800.000	-0.066	-0.207
-656.901	218.623	-0.234	-0.378
-655.886	174.752	0.313	0.458
-654.872	33.722	0.167	0.147
-653.857	-26.724	0.163	0.096
-652.843	-25.982	0.252	-0.150
-651.828	354.126	-0.082	0.164
-650.814	-13.785	-0.199	0.130
-649.799	29.632	-0.159	-0.137
-648.784	-200.000	-0.033	-0.227
-647.770	243.026	0.047	0.080
-646.755	5.422	0.164	-0.122
-645.741	-107.092	0.391	0.087
-644.726	437.304	-0.074	0.163
-643.711	-69.473	0.046	0.018
-642.697	63.859	-0.155	0.158
-641.682	-134.324	0.166	-0.021
-640.668	-200.000	0.023	0.227
-639.653	-10.867	-0.099	0.066
-638.638	-200.000	-0.038	-0.306
-637.624	118.465	0.134	-0.167
-636.609	150.298	0.156	-0.214
-635.595	-200.000	0.027	-0.342
-634.580	-200.000	0.003	-0.320
-633.565	488.347	0.078	-0.180
-632.551	-40.170	0.129	0.068
-631.536	-118.824	0.145	0.026
-630.522	-200.000	0.003	-0.124
-629.507	-66.438	0.350	0.140
-628.492	-93.777	-0.190	-0.053
-627.478	-200.000	-0.054	0.437
-626.463	122.196	0.088	0.111
-625.449	800.000	-0.051	-0.161
-624.434	150.269	-0.213	0.292
-623.419	-57.986	0.078	0.034
-622.405	-85.974	0.162	0.051
-621.390	-108.242	-0.156	-0.034
-620.376	-98.035	0.192	0.050
-619.361	-18.169	-0.144	0.091
-618.346	380.927	0.062	0.128
-617.332	-55.072	-0.333	0.151
-616.317	-200.000	0.048	0.540
-615.303	-8.147	-0.103	-0.070
-614.288	738.175	-0.139	-0.375
-613.273	80.428	0.211	-0.229
-612.259	69.371	-0.196	0.204
-611.244	6.332	0.195	-0.146
-610.230	791.404	-0.078	-0.216
-609.215	-134.070	-0.075	-0.009
-608.201	-91.509	-0.250	-0.072
-607.186	252.709	-0.074	-0.127
-606.171	11.131	0.132	-0.102
-605.157	-4.920	-0.145	0.101
-604.142	194.113	0.093	-0.142
-603.128	213.762	-0.067	-0.108
-602.113	-200.000	-0.160	-0.001
-601.098	-33.904	-0.116	0.064
-600.084	-138.480	-0.239	0.026
-599.069	358.500	-0.084	0.169
-598.055	15.967	-0.159	0.126
-597.040	-42.064	0.104	0.054
-596.025	45.996	0.030	-0.028
-595.011	-200.000	-0.001	-0.052
-593.996	146.462	0.020	-0.027
-592.982	-86.873	0.281	-0.087
-591.967	800.000	0.070	-0.218
-590.952	-33.712	0.170	0.094
-589.938	-157.796	0.169	-0.010
-588.923	-130.093	0.032	0.004
-587.909	-155.276	-0.446	0.029
-586.894	-200.000	-0.013	0.058
-585.879	-36.911	-0.070	-0.038
-584.865	235.920	-0.056	-0.093
-583.850	272.982	-0.118	0.210
-582.836	800.000	0.089	0.278
-581.821	-77.197	0.157	-0.055
-580.806	153.753	0.131	-0.181
-579.792	178.083	-0.115	0.169
-578.777	134.471	-0.121	0.158
-577.763	-109.055	0.194	0.042
-576.748	-200.000	0.004	0.133
-575.733	2.124	-0.053	0.038
-574.719	-21.206	0.099	0.061
-573.704	-87.035	0.236	-0.072
-572.690	800.000	-0.024	0.101
-571.675	-200.000	0.021	-0.200
-570.661	-146.418	-0.191	0.017
-569.646	129.291	0.267	0.344
-568.631	-57.174	0.119	0.053
-567.617	-200.000	0.019	0.141
-566.602	-107.744	-0.137	0.030
-565.588	-109.068	-0.175	-0.038
-564.573	-200.000	0.003	-0.075
-563.558	32.603	-0.166	0.145
-562.544	105.333	-0.177	0.211
-561.529	-200.000	0.002	0.051
-560.515	79.748	0.067	-0.072
-559.500	-90.087	0.145	0.043
-558.485	-125.480	0.226	-0.035
-557.471	28.513	0.180	-0.153
-556.456	39.098	0.326	-0.293
-555.442	-132.646	-0.077	-0.010
-554.427	-140.503	-0.138	0.014
-553.412	-137.043	-0.185	-0.021
-552.398	-200.000	-0.005	0.093
-551.383	-110.069	0.526	-0.111
-550.369	42.327	-0.188	-0.172
-549.354	149.784	-0.176	-0.241
-548.339	-137.571	0.255	0.029
-547.325	791.541	-0.108	-0.299
-546.310	-74.542	-0.279	0.101
-545.296	408.943	-0.049	0.104
-544.281	-200.000	-0.020	0.214
-543.266	278.757	-0.067	0.120
-542.252	-40.546	-0.222	-0.116
-541.237	-137.962	-0.113	0.013
-540.223	-54.235	0.058	-0.027
-539.208	349.368	-0.093	-0.184
-538.193	112.941	-0.074	-0.090
-537.179	-98.989	-0.316	0.081
-536.164	-200.000	-0.001	0.170
-535.150	77.093	-0.071	-0.076
-534.135	-27.453	0.066	0.039
-533.121	128.336	-0.247	0.316
-532.106	53.331	-0.220	0.213
-531.091	215.937	0.136	-0.218
-530.077	294.692	-0.041	-0.076
-529.062	170.473	0.045	-0.064
-528.048	168.394	-0.241	0.345
-527.033	90.604	0.063	0.071
-526.018	123.026	0.133	-0.167
-525.004	800.000	-0.085	0.292
-523.989	-61.353	-0.272	0.115
-522.975	779.780	-0.125	-0.344
-521.960	-74.128	0.457	-0.166
-520.945	-36.622	0.110	0.059
-519.931	73.397	0.360	-0.379
-518.916	180.385	0.077	0.114
-517.902	800.000	-0.022	0.067
-516.887	495.442	-0.072	0.166
-515.872	800.000	0.031	-0.086
-514.858	105.731	-0.085	0.101
-513.843	800.000	-0.081	-0.236
-512.829	89.426	0.146	-0.164
-511.814	331.929	0.192	0.372
-510.799	-200.000	-0.017	0.175
-509.785	569.316	0.101	-0.247
-508.770	329.276	0.277	0.535
-507.756	-74.584	-0.250	-0.090
-506.741	20.370	-0.150	0.122
-505.726	-117.628	0.301	-0.055
-504.712	147.766	-0.153	-0.207
-503.697	-60.231	-0.356	0.152
-502.683	-102.150	0.021	0.005
-501.668	-89.274	-0.221	-0.066
-500.653	18.441	0.043	0.035
-499.639	800.000	0.096	0.323
-498.624	-76.883	0.168	-0.059
-497.610	53.011	-0.069	0.067
-496.595	-19.645	0.296	-0.184
-495.581	179.770	-0.226	0.333
-494.566	-200.000	0.036	0.205
-493.551	-174.071	0.139	0.004
-492.537	-200.000	-0.040	0.211
-491.522	-200.000	-0.025	0.128
-490.508	-49.417	0.060	-0.029
-489.493	736.409	-0.066	-0.178
-488.478	800.000	0.039	0.127
-487.464	127.188	-0.090	0.114
-486.449	-142.784	0.377	0.037
-485.435	217.059	0.017	0.027
-484.420	376.914	0.046	0.094
-483.405	-200.000	-0.001	0.148
-482.391	-27.719	-0.230	0.134
-481.376	305.449	-0.211	0.395
-480.362	-98.376	0.268	-0.069
-479.347	-200.000	-0.040	0.214
-478.332	-200.000	-0.019	0.114
-477.318	169.762	0.079	0.113
-476.303	-200.000	-0.003	0.379
-475.289	60.663	-0.114	0.113
-474.274	199.833	0.148	0.228
-473.259	64.326	-0.310	0.313
-472.245	-200.000	0.077	0.347
-471.230	-200.000	-0.028	0.189
-470.216	141.291	-0.112	-0.149
-469.201	367.172	-0.037	0.075
-468.186	-185.457	0.255	-0.004
-467.172	800.000	-0.079	0.225
-466.157	34.869	-0.136	-0.119
-465.143	-90.986	0.284	0.082
-464.128	71.826	0.193	-0.201
-463.113	-184.316	0.105	0.002
-462.099	165.426	-0.020	-0.028
-461.084	-8.853	-0.033	-0.022
-460.070	-200.000	0.010	0.250
-459.055	441.997	0.052	0.114
-458.040	-120.619	0.103	-0.018
-457.026	800.000	0.068	-0.189
-456.011	-200.000	-0.008	-0.266
-454.997	-27.944	-0.178	0.104
-453.982	114.287	-0.035	0.043
-452.968	-57.999	0.098	-0.043
-451.953	-36.659	0.036	-0.019
-450.938	213.603	-0.198	0.313
-449.924	-200.000	0.015	-0.548
-448.909	-130.170	-0.402	-0.055
-447.895	-200.000	0.005	0.085
-446.880	-200.000	0.019	0.356
-445.865	-72.667	0.015	-0.006
-444.851	486.750	0.109	-0.250
-443.836	103.927	-0.107	-0.127
-442.822	118.014	-0.257	-0.318
-441.807	800.000	0.111	-0.411
-440.792	-200.000	0.003	0.051
-439.778	16.968	0.100	-0.080
-438.763	144.124	-0.139	0.186
-437.749	800.000	-0.049	-0.205
-436.734	396.327	-0.131	-0.274
-435.719	186.679	-0.196	-0.293
-434.705	-60.890	0.192	-0.081
-433.690	-149.601	-0.207	-0.016
-432.676	-200.000	0.015	-0.170
-431.661	-137.842	0.343	0.038
-430.646	120.730	0.207	0.258
-429.632	-53.330	-0.345	0.159
-428.617	-200.000	0.016	0.328
-427.603	-200.000	-0.014	-0.144
-426.588	-109.129	-0.194	-0.041
-425.573	-200.000	-0.005	0.199
-424.559	75.586	-0.074	0.079
-423.544	-200.000	-0.040	0.194
-422.530	7.378	0.112	-0.084
-421.515	326.804	0.100	0.192
-420.500	572.419	0.166	0.406
-419.486	800.000	0.027	-0.105
-418.471	327.865	-0.221	-0.425
-417.457	65.126	0.150	-0.152
-416.442	63.481	-0.110	-0.111
-415.428	348.310	-0.101	-0.199
-414.413	800.000	0.073	-0.261
-413.398	70.811	-0.122	0.126
-412.384	-82.274	-0.126	0.041
-411.369	-200.000	-0.087	-0.642
-410.355	66.917	-0.303	-0.309
-409.340	26.700	-0.285	0.239
-408.325	800.000	-0.057	0.237
-407.311	319.240	-0.117	0.221
-406.296	800.000	0.080	-0.244
-405.282	198.453	-0.252	-0.386
-404.267	-51.687	0.091	-0.042
-403.252	20.404	-0.037	0.030
-402.238	-50.633	0.233	0.110
-401.223	-200.000	-0.008	0.071
-400.209	334.112	-0.085	-0.164
-399.194	1.193	-0.031	0.022
-398.179	800.000	-0.082	-0.238
-397.165	800.000	0.076	0.210
-396.150	653.821	-0.090	-0.230
-395.136	-195.422	-0.512	0.004
-394.121	800.000	0.042	-0.125
-393.106	-74.952	-0.173	0.062
-392.092	22.927	0.111	-0.091
-391.077	128.669	-0.111	0.141
-390.063	193.634	-0.111	0.168
-389.048	9.566	0.098	-0.074
-388.033	-124.734	0.216	0.033
-387.019	-25.011	0.353	0.210
-386.004	499.904	0.101	-0.233
-384.990	-63.198	0.096	-0.039
-383.975	-200.000	0.014	0.233
-382.960	800.000	0.033	0.109
-381.946	-54.779	0.310	-0.140
-380.931	-27.282	-0.430	0.251
-379.917	-200.000	0.034	-0.206
-378.902	24.796	0.206	-0.171
-377.888	-150.733	0.120	0.009
-376.873	81.245	0.110	0.119
-375.858	45.895	0.049	0.045
-374.844	423.354	0.087	0.188
-373.829	-23.660	0.138	-0.083
-372.815	32.967	-0.295	0.256
-371.800	2.063	0.171	-0.124
-370.785	74.327	0.143	0.150
-369.771	800.000	0.038	-0.156
-368.756	-89.709	0.367	0.108
-367.742	347.446	0.109	-0.215
-366.727	-200.000	0.001	0.041
-365.712	-200.000	0.052	-0.341
-364.698	-76.322	0.200	0.070
-363.683	-35.042	0.004	-0.002
-362.669	-200.000	-0.012	-0.110
-361.654	-48.104	-0.144	0.069
-360.639	191.527	0.062	0.093
-359.625	100.909	0.113	-0.132
-358.610	-200.000	-0.041	-0.597
-357.596	-41.235	-0.177	0.091
-356.581	-200.000	-0.014	0.071
-355.566	-80.897	0.222	-0.073
-354.552	13.492	0.153	-0.119
-353.537	-98.664	0.145	-0.037
-352.523	683.463	0.107	-0.279
-351.508	431.382	0.102	-0.221
-350.493	-11.191	-0.275	-0.181
-349.479	1.359	-0.022	0.016
-348.464	-65.419	-0.547	-0.220
-347.450	90.883	0.147	-0.164
-346.435	172.591	-0.110	-0.159
-345.420	90.481	0.126	0.140
-344.406	-200.000	-0.002	-0.073
-343.391	180.723	-0.203	0.298
-342.377	-53.049	-0.081	-0.037
-341.362	271.427	-0.125	0.219
-340.348	-200.000	-0.011	0.131
-339.333	258.873	-0.044	-0.076
-338.318	-96.857	0.233	-0.061
-337.304	26.471	-0.111	0.092
-336.289	-59.289	0.318	0.137
-335.275	-101.552	0.220	-0.053
-334.260	26.745	0.140	-0.117
-333.245	207.848	0.207	0.323
-332.231	158.750	0.085	-0.118
-331.216	-114.142	-0.472	-0.091
-330.202	-200.000	0.018	-0.140
-329.187	-200.000	-0.007	-0.064
-328.172	-6.258	-0.089	0.060
-327.158	97.770	-0.205	-0.236
-326.143	-200.000	0.052	0.238
-325.129	-93.631	0.215	0.059
-324.114	-200.000	-0.006	0.164
-323.099	800.000	0.113	0.335
-322.085	51.893	0.075	0.071
-321.070	-63.687	-0.127	0.052
-320.056	68.233	-0.291	-0.297
-319.041	-200.000	-0.016	-0.137
-318.026	-67.254	-0.244	0.096
-317.012	-125.107	0.272	-0.042
-315.997	-182.373	-0.302	0.006
-314.983	-148.908	-0.198	0.016
-313.968	-15.197	0.278	0.177
-312.953	800.000	-0.050	0.154
-311.939	-196.240	0.421	0.003
-310.924	57.025	0.193	0.188
-309.910	209.605	0.012	0.019
-308.895	-200.000	-0.003	-0.180
-307.880	171.938	-0.140	0.201
-306.866	-48.620	-0.390	0.187
-305.851	-200.000	0.021	-0.105
-304.837	116.278	-0.113	-0.139
-303.822	50.919	0.058	-0.055
-302.807	198.148	0.225	-0.344
-301.793	60.420	-0.204	-0.202
-300.778	-173.244	0.227	0.007
-299.764	-200.000	-0.004	0.338
-298.749	-200.000	0.020	-0.206
-297.735	-26.347	-0.233	0.136
-296.720	119.407	0.058	0.071
-295.705	-156.478	-0.185	-0.011
-294.691	-200.000	-0.035	0.264
-293.676	-200.000	0.003	-0.183
-292.662	622.056	-0.045	0.113
-291.647	156.685	0.050	0.069
-290.632	-96.729	-0.300	0.079
-289.618	-182.691	-0.093	-0.002
-288.603	50.625	-0.068	-0.065
-287.589	38.257	-0.063	-0.056
-286.574	521.660	-0.131	0.307
-285.559	7.230	0.185	0.138
-284.545	93.361	-0.245	0.277
-283.530	-60.959	0.175	-0.074
-282.516	-152.753	-0.160	0.011
-281.501	-200.000	-0.027	0.209
-280.486	-200.000	0.052	0.268
-279.472	-200.000	0.045	0.261
-278.457	-125.218	-0.116	-0.018
-277.443	-59.279	-0.221	0.095
-276.428	-74.541	-0.129	-0.046
-275.413	24.181	0.343	-0.282
-274.399	-28.845	0.104	0.060
-273.384	124.282	-0.112	-0.140
-272.370	-89.385	-0.139	-0.041
-271.355	-200.000	-0.019	0.128
-270.340	-158.213	0.114	0.007
-269.326	-200.000	-0.003	0.066
-268.311	-143.266	-0.173	0.017
-267.297	101.086	-0.211	-0.245
-266.282	96.878	0.179	-0.204
-265.267	800.000	-0.023	0.072
-264.253	285.086	0.144	-0.259
-263.238	12.283	-0.221	-0.170
-262.224	-105.768	-0.157	0.035
-261.209	121.470	0.166	0.206
-260.195	50.104	-0.171	-0.160
-259.180	800.000	-0.032	-0.092
-258.165	-200.000	-0.010	-0.043
-257.151	-64.400	0.196	-0.080
-256.136	800.000	0.040	-0.162
-255.122	-191.603	0.081	-0.001
-254.107	427.824	-0.119	-0.255
-253.092	368.570	0.066	-0.133
-252.078	139.640	0.206	-0.269
-251.063	38.162	-0.076	-0.068
-250.049	-38.971	-0.049	0.026
-249.034	-55.249	-0.201	-0.090
-248.019	102.929	0.127	-0.148
-247.005	503.297	0.172	-0.396
-245.990	-200.000	0.005	-0.051
-244.976	2.189	-0.217	-0.156
-243.961	-164.962	-0.109	0.005
-242.946	800.000	0.035	0.108
-241.932	231.815	0.015	0.024
-240.917	-63.329	0.305	0.125
-239.903	-200.000	0.037	0.195
-238.888	800.000	0.022	0.078
-237.873	-113.423	0.312	0.061
-236.859	11.392	-0.164	-0.125
-235.844	-85.324	-0.122	-0.038
-234.830	-14.272	0.316	-0.203
-233.815	7.030	0.162	-0.120
-232.800	212.349	-0.156	0.245
-231.786	-1.992	0.237	0.166
-230.771	800.000	0.014	0.046
-229.757	-92.838	-0.012	0.003
-228.742	463.355	-0.065	-0.145
-227.727	-200.000	-0.038	0.178
-226.713	-157.333	0.389	-0.023
-225.698	-119.720	0.177	-0.030
-224.684	-84.307	-0.103	-0.033
-223.669	-22.322	-0.284	0.171
-222.655	-6.924	0.101	0.068
-221.640	133.150	0.234	0.300
-220.625	47.707	0.128	-0.119
-219.611	-39.800	-0.034	0.017
-218.596	16.925	-0.157	-0.123
-217.582	53.516	-0.127	0.121
-216.567	85.405	-0.192	0.210
-215.552	47.173	0.223	0.207
-214.538	-97.438	0.363	0.094
-213.523	168.467	0.034	0.049
-212.509	313.937	-0.040	-0.074
-211.494	-200.000	-0.069	-0.463
-210.479	255.822	-0.075	0.129
-209.465	-15.296	0.317	-0.201
-208.450	9.295	-0.034	-0.025
-207.436	130.700	0.166	-0.211
-206.421	800.000	0.034	-0.142
-205.406	-200.000	0.025	-0.208
-204.392	-32.391	-0.041	0.023
-203.377	0.301	-0.259	0.183
-202.363	-200.000	-0.014	0.317
-201.348	-144.679	0.150	-0.014
-200.333	166.391	0.044	-0.062
-199.319	55.087	0.059	-0.057
-198.304	-36.975	-0.130	-0.069
-197.290	800.000	-0.096	0.407
-196.275	-200.000	0.019	-0.088
-195.260	-20.199	0.170	-0.104
-194.246	636.946	-0.027	-0.068
-193.231	800.000	-0.055	-0.156
-192.217	-200.000	0.073	0.404
-191.202	76.103	-0.107	-0.113
-190.187	-122.063	-0.328	-0.053
-189.173	-21.195	0.217	-0.132
-188.158	-200.000	-0.023	0.263
-187.144	29.974	-0.088	-0.074
-186.129	-58.602	0.070	0.030
-185.114	177.210	0.248	0.358
-184.100	-166.145	-0.325	-0.014
-183.085	54.650	-0.125	-0.120
-182.071	220.669	0.065	0.103
-181.056	-100.221	0.170	-0.042
-180.042	-200.000	0.036	-0.190
-179.027	-200.000	0.020	0.268
-178.012	308.236	0.194	0.359
-176.998	623.619	-0.125	0.312
-175.983	169.693	0.041	0.058
-174.969	443.166	-0.154	-0.334
-173.954	-11.517	0.111	0.073
-172.939	188.904	-0.193	-0.286
-171.925	-200.000	0.082	-0.472
-170.910	-136.787	0.160	0.018
-169.896	-43.833	0.202	0.101
-168.881	-4.929	-0.109	0.074
-167.866	-73.398	0.165	-0.060
-166.852	7.633	-0.087	0.065
-165.837	197.433	0.134	0.202
-164.823	-200.000	-0.028	-0.336
-163.808	800.000	-0.038	-0.142
-162.793	164.957	0.079	-0.111
-161.779	-111.628	0.460	-0.093
-160.764	119.698	-0.108	0.133
-159.750	-42.891	-0.096	-0.048
-158.735	125.923	-0.138	-0.173
-157.720	77.216	-0.042	-0.044
-156.706	143.665	0.194	-0.256
-155.691	-200.000	0.010	-0.105
-154.677	800.000	-0.071	-0.246
-153.662	-29.738	-0.068	0.038
-152.647	22.490	-0.128	0.104
-151.633	800.000	-0.069	-0.226
-150.618	297.050	0.128	-0.232
-149.604	117.337	-0.162	-0.198
-148.589	800.000	0.074	0.228
-147.574	-70.609	0.130	-0.049
-146.560	-74.560	-0.363	-0.129
-145.545	81.758	-0.143	0.154
-144.531	-101.362	0.085	-0.021
-143.516	-200.000	0.012	0.086
-142.502	-83.399	0.289	-0.092
-141.487	9.917	-0.176	0.133
-140.472	-153.854	-0.135	0.009
-139.458	-63.863	0.255	0.104
-138.443	-200.000	0.022	-0.189
-137.429	-200.000	0.046	-0.295
-136.414	-143.899	0.431	-0.040
-135.399	107.206	0.243	-0.286
-134.385	-88.250	0.124	-0.037
-133.370	-25.945	-0.348	-0.203
-132.356	62.896	-0.171	0.169
-131.341	-57.057	0.277	-0.121
-130.326	125.950	-0.154	-0.193
-129.312	-55.558	-0.140	0.062
-128.297	-112.156	0.246	0.049
-127.283	-75.598	-0.357	-0.126
-126.268	158.927	0.174	-0.240
-125.253	60.622	-0.187	-0.184
-124.239	-200.000	0.019	0.340
-123.224	-53.047	0.145	0.066
-122.210	6.323	0.198	-0.145
-121.195	-5.040	0.143	-0.098
