DTS Sentinel unit serial number:	SN413079Multiplexer serial number:	ORYXHardware model number:	OX4-SRSoftware version number:	ORYX F/W v4.00 Oryx Data Collector v3.7.2.0data status	okinstallation	princeton_trtdifferential loss correction	single-endedforward channel	channel 4reverse channel	N/Adate	2019/09/19time	08:05:35forward acquisition time	60.00reverse acquisition time	0.00gamma	496.2192k internal	0.2339k external	0.2339temperature offset calibration	1.0021default loss term (dB/km)	0.3790temperature slope calibration	1.0000multiplexer offset coefficient	1.0000multiplexer slope coefficient	1.0000fibre end	0.00T internal ref (°C)	19.95T ext. ref 1 (°C)	0.55T ext. ref 2 (°C)	15.65length (m)	temperature (°C)	Stokes	anti-Stokes-747.200	-200.000	0.148	-0.000
-746.185	-112.009	-0.152	0.031
-745.171	377.368	0.067	0.137
-744.156	-54.121	0.141	-0.064
-743.142	-200.000	0.008	0.249
-742.127	-94.125	-0.494	0.136
-741.112	151.364	-0.177	0.241
-740.098	800.000	-0.111	0.355
-739.083	-95.208	-0.145	0.039
-738.069	231.330	-0.208	0.342
-737.054	115.396	0.118	0.144
-736.039	139.379	-0.101	-0.133
-735.025	439.804	-0.118	0.258
-734.010	-149.589	-0.287	0.023
-732.996	191.731	0.167	-0.252
-731.981	-170.384	-0.298	-0.010
-730.966	229.072	0.098	-0.160
-729.952	-200.000	0.019	0.290
-728.937	114.702	-0.290	0.354
-727.923	-200.000	0.004	0.136
-726.908	-129.341	0.169	-0.024
-725.894	364.331	-0.087	-0.174
-724.879	-200.000	0.035	-0.382
-723.864	225.595	-0.135	-0.218
-722.850	544.252	-0.054	-0.130
-721.835	-148.400	0.113	-0.009
-720.821	86.692	-0.057	-0.063
-719.806	3.417	-0.130	-0.095
-718.791	154.649	-0.167	-0.230
-717.777	-200.000	-0.010	-0.264
-716.762	800.000	0.048	0.142
-715.748	203.284	0.092	-0.143
-714.733	-130.366	-0.389	0.053
-713.718	800.000	-0.104	0.317
-712.704	-200.000	-0.046	0.209
-711.689	91.226	-0.255	-0.287
-710.675	-162.698	0.085	0.004
-709.660	800.000	-0.081	0.234
-708.645	214.898	0.019	0.031
-707.631	-101.994	0.103	0.025
-706.616	-96.155	0.316	0.084
-705.602	-200.000	0.038	0.230
-704.587	30.744	0.296	-0.254
-703.572	-159.322	0.210	0.012
-702.558	256.669	-0.123	-0.211
-701.543	140.065	-0.278	-0.367
-700.529	-200.000	0.000	0.028
-699.514	-63.268	0.103	0.043
-698.499	22.780	-0.151	-0.124
-697.485	-200.000	-0.018	0.089
-696.470	131.492	0.058	0.074
-695.456	200.499	0.057	0.087
-694.441	-77.074	0.128	0.045
-693.426	-132.432	-0.163	-0.021
-692.412	-24.669	0.241	0.144
-691.397	-14.143	-0.221	-0.143
-690.383	-136.572	-0.084	-0.010
-689.368	-87.238	-0.110	-0.033
-688.354	-200.000	0.017	-0.147
-687.339	-172.916	0.461	0.014
-686.324	-200.000	0.038	0.221
-685.310	-200.000	-0.021	-0.107
-684.295	-200.000	0.094	-0.414
-683.281	800.000	-0.119	-0.450
-682.266	-4.532	0.044	-0.030
-681.251	256.969	-0.117	0.200
-680.237	158.600	0.097	0.134
-679.222	202.387	-0.129	0.200
-678.208	240.187	-0.200	-0.333
-677.193	68.155	0.197	-0.201
-676.178	62.118	-0.201	0.201
-675.164	-96.880	0.115	-0.030
-674.149	800.000	-0.055	-0.195
-673.135	-134.018	0.427	-0.053
-672.120	-200.000	-0.012	-0.164
-671.105	800.000	0.033	0.131
-670.091	-20.279	-0.128	-0.079
-669.076	184.774	-0.157	-0.232
-668.062	628.920	0.027	0.068
-667.047	64.829	-0.123	-0.124
-666.032	-60.629	-0.122	0.052
-665.018	-162.956	0.100	-0.005
-664.003	189.232	0.133	0.199
-662.989	-2.253	0.300	-0.210
-661.974	92.860	-0.287	-0.324
-660.959	-200.000	-0.052	-0.232
-659.945	800.000	-0.088	-0.251
-658.930	74.550	0.325	-0.342
-657.916	-130.926	0.129	0.017
-656.901	295.523	0.077	0.141
-655.886	108.758	-0.212	-0.253
-654.872	-154.290	-0.303	-0.020
-653.857	-200.000	0.005	0.620
-652.843	-130.341	-0.215	-0.029
-651.828	179.272	0.164	0.240
-650.814	800.000	-0.085	-0.260
-649.799	72.543	0.164	-0.171
-648.784	166.502	-0.182	-0.258
-647.770	-200.000	0.016	-0.418
-646.755	329.193	0.082	-0.158
-645.741	-56.891	-0.175	0.077
-644.726	649.274	0.100	-0.255
-643.711	800.000	0.072	0.205
-642.697	-106.874	0.017	-0.004
-641.682	159.773	-0.198	-0.275
-640.668	800.000	-0.079	0.294
-639.653	35.718	-0.298	-0.262
-638.638	36.059	-0.272	-0.239
-637.624	-200.000	0.044	-0.250
-636.609	800.000	0.063	-0.182
-635.595	340.261	-0.078	-0.152
-634.580	752.292	0.048	0.131
-633.565	-200.000	0.003	0.068
-632.551	-200.000	-0.012	0.196
-631.536	113.185	0.323	0.391
-630.522	-200.000	0.070	-0.335
-629.507	24.146	-0.133	-0.110
-628.492	-52.639	-0.184	-0.085
-627.478	117.728	-0.005	-0.007
-626.463	-200.000	0.023	0.119
-625.449	-81.675	-0.329	0.108
-624.434	74.683	-0.296	0.311
-623.419	-144.721	-0.310	-0.028
-622.405	800.000	-0.056	-0.176
-621.390	15.288	0.245	-0.192
-620.376	56.361	-0.165	-0.160
-619.361	-200.000	0.010	0.091
-618.346	-200.000	-0.011	0.145
-617.332	-145.630	-0.435	-0.039
-616.317	158.794	0.120	-0.166
-615.303	-140.993	0.151	0.015
-614.288	696.749	0.187	0.491
-613.273	56.785	-0.253	-0.246
-612.259	-15.436	-0.362	-0.231
-611.244	-48.141	-0.184	0.089
-610.230	15.416	0.028	-0.022
-609.215	-63.960	-0.282	0.115
-608.201	-173.647	0.391	-0.012
-607.186	-49.679	-0.195	0.093
-606.171	99.043	0.119	-0.137
-605.157	-158.673	0.098	-0.006
-604.142	42.666	-0.033	-0.030
-603.128	800.000	0.125	-0.473
-602.113	-200.000	0.001	-0.085
-601.098	273.821	0.139	0.244
-600.084	3.418	-0.116	0.085
-599.069	-158.130	-0.267	0.016
-598.055	800.000	0.049	-0.214
-597.040	-59.811	-0.181	-0.077
-596.025	-124.537	-0.260	0.040
-595.011	-103.707	0.077	0.018
-593.996	-200.000	-0.020	-0.163
-592.982	800.000	0.051	0.196
-591.967	-130.833	-0.432	-0.058
-590.952	-20.414	0.133	-0.082
-589.938	-200.000	-0.034	-0.199
-588.923	800.000	-0.048	0.182
-587.909	241.633	-0.085	-0.142
-586.894	529.282	-0.108	0.253
-585.879	800.000	-0.060	-0.206
-584.865	752.960	0.046	-0.124
-583.850	-13.364	0.048	0.031
-582.836	169.105	-0.091	0.130
-581.821	379.088	-0.114	0.233
-580.806	-19.639	-0.384	-0.237
-579.792	-200.000	-0.068	0.321
-578.777	-200.000	-0.011	-0.270
-577.763	513.822	0.205	-0.476
-576.748	61.219	-0.225	-0.222
-575.733	36.476	0.207	-0.182
-574.719	168.447	-0.157	0.222
-573.704	-194.762	-0.312	0.002
-572.690	-90.028	0.242	-0.070
-571.675	-159.362	-0.323	0.018
-570.661	-8.144	0.201	0.135
-569.646	-121.227	0.537	-0.089
-568.631	-14.200	0.130	0.084
-567.617	-63.596	0.068	0.028
-566.602	-163.375	-0.171	-0.008
-565.588	-200.000	0.056	0.396
-564.573	741.725	-0.035	-0.094
-563.558	101.230	-0.063	0.073
-562.544	526.862	0.039	-0.092
-561.529	-128.927	-0.205	0.029
-560.515	-145.982	-0.103	0.009
-559.500	64.987	0.076	-0.076
-558.485	-160.259	-0.381	0.020
-557.471	-194.539	0.251	0.002
-556.456	-29.782	0.150	0.085
-555.442	94.308	-0.154	0.174
-554.427	45.119	0.424	-0.389
-553.412	-140.328	0.154	-0.016
-552.398	-66.375	0.342	-0.135
-551.383	800.000	-0.090	-0.328
-550.369	93.602	0.195	-0.220
-549.354	-39.165	-0.082	0.043
-548.339	123.038	-0.068	-0.085
-547.325	800.000	0.034	0.110
-546.310	-200.000	-0.008	0.109
-545.296	-87.284	-0.365	0.110
-544.281	-129.405	0.124	0.017
-543.266	-94.647	-0.207	-0.056
-542.252	-200.000	-0.008	0.038
-541.237	-200.000	0.035	-0.301
-540.223	47.418	0.298	-0.277
-539.208	64.009	0.185	0.185
-538.193	-15.715	-0.192	-0.122
-537.179	800.000	-0.052	0.226
-536.164	45.866	0.049	0.045
-535.150	-39.788	-0.372	-0.193
-534.135	-66.368	-0.101	0.040
-533.121	800.000	0.031	0.121
-532.106	-146.781	0.224	-0.019
-531.091	-200.000	-0.018	0.172
-530.077	-200.000	-0.013	0.284
-529.062	-200.000	0.019	-0.182
-528.048	126.856	0.048	-0.061
-527.033	446.994	-0.069	-0.151
-526.018	800.000	-0.109	0.316
-525.004	191.696	0.067	0.100
-523.989	-39.927	-0.127	-0.066
-522.975	-47.415	0.169	-0.082
-521.960	166.194	-0.199	-0.281
-520.945	-58.600	0.398	-0.172
-519.931	800.000	-0.057	-0.182
-518.916	-200.000	0.024	-0.137
-517.902	-86.796	-0.163	0.049
-516.887	-43.492	-0.083	-0.041
-515.872	68.589	0.203	0.207
-514.858	284.083	0.027	0.049
-513.843	-122.218	0.250	-0.041
-512.829	-200.000	-0.003	0.086
-511.814	-125.340	0.265	0.040
-510.799	800.000	-0.019	0.073
-509.785	-139.877	-0.314	-0.033
-508.770	-200.000	0.018	0.104
-507.756	153.328	0.169	-0.229
-506.741	-70.878	-0.181	-0.068
-505.726	107.916	-0.149	0.176
-504.712	-200.000	0.002	-0.033
-503.697	-82.828	-0.129	0.041
-502.683	-17.932	-0.326	-0.203
-501.668	-200.000	0.012	-0.172
-500.653	122.342	-0.118	0.147
-499.639	551.515	0.091	-0.218
-498.624	-72.247	-0.079	-0.029
-497.610	368.303	0.100	0.200
-496.595	31.952	-0.135	0.116
-495.581	-106.258	-0.116	0.026
-494.566	-200.000	-0.029	0.208
-493.551	-200.000	0.009	-0.078
-492.537	116.445	-0.204	-0.248
-491.522	800.000	-0.134	0.384
-490.508	-66.332	-0.071	-0.028
-489.493	119.649	-0.202	-0.248
-488.478	72.833	0.137	-0.142
-487.464	114.002	-0.074	0.089
-486.449	335.782	0.144	-0.276
-485.435	247.720	-0.076	-0.128
-484.420	-200.000	0.017	-0.137
-483.405	40.276	-0.128	-0.115
-482.391	187.198	0.177	0.262
-481.376	-56.575	-0.263	0.116
-480.362	19.834	-0.165	0.132
-479.347	255.964	0.061	-0.104
-478.332	-200.000	-0.019	0.207
-477.318	1.270	-0.021	-0.015
-476.303	-47.145	0.300	0.145
-475.289	-24.410	0.218	-0.129
-474.274	-26.122	-0.286	-0.167
-473.259	163.534	0.086	-0.120
-472.245	-200.000	0.015	0.295
-471.230	-200.000	0.059	0.357
-470.216	-66.377	-0.146	0.058
-469.201	-200.000	-0.004	0.081
-468.186	-137.008	0.347	0.039
-467.172	151.715	-0.129	0.175
-466.157	-63.578	-0.123	-0.050
-465.143	161.944	0.160	0.223
-464.128	-93.255	0.104	0.029
-463.113	-115.312	0.268	0.050
-462.099	-83.996	0.101	0.032
-461.084	617.176	-0.052	-0.129
-460.070	38.885	-0.318	0.282
-459.055	-135.952	0.464	-0.054
-458.040	67.084	0.007	0.007
-457.026	742.892	-0.066	0.177
-456.011	-200.000	0.026	-0.260
-454.997	-89.034	0.376	-0.110
-453.982	505.167	0.050	0.116
-452.968	13.522	-0.157	-0.121
-451.953	800.000	0.056	0.212
-450.938	-200.000	-0.024	0.124
-449.924	-12.932	0.264	0.170
-448.909	-21.040	-0.337	0.205
-447.895	190.475	0.022	-0.033
-446.880	800.000	0.108	-0.403
-445.865	-200.000	0.049	-0.528
-444.851	-2.489	-0.027	0.019
-443.836	223.273	0.122	-0.195
-442.822	103.405	0.076	0.089
-441.807	-62.789	0.212	-0.087
-440.792	-103.664	-0.185	0.043
-439.778	-146.752	-0.072	-0.006
-438.763	-72.594	0.146	0.054
-437.749	165.942	-0.052	-0.073
-436.734	164.587	-0.137	-0.192
-435.719	-130.252	0.098	-0.013
-434.705	108.067	-0.111	-0.131
-433.690	-115.109	-0.340	0.064
-432.676	47.679	0.283	0.262
-431.661	57.267	0.233	-0.225
-430.646	38.144	-0.240	0.211
-429.632	227.309	-0.152	0.245
-428.617	-200.000	0.020	-0.253
-427.603	206.151	0.054	-0.083
-426.588	-59.777	0.304	-0.129
-425.573	51.208	0.072	-0.068
-424.559	-200.000	0.051	-0.375
-423.544	287.279	0.135	-0.242
-422.530	153.005	-0.110	0.148
-421.515	301.461	-0.076	-0.140
-420.500	-43.037	-0.267	0.134
-419.486	-200.000	-0.006	-0.116
-418.471	-17.713	-0.141	-0.088
-417.457	-166.792	0.362	-0.015
-416.442	-55.348	0.180	-0.080
-415.428	142.514	-0.034	-0.044
-414.413	53.892	0.303	-0.288
-413.398	-200.000	-0.048	-0.225
-412.384	-119.484	-0.212	0.036
-411.369	-110.208	0.061	0.013
-410.355	-91.834	-0.121	0.034
-409.340	-91.290	0.164	0.046
-408.325	167.340	-0.150	0.211
-407.311	-200.000	0.042	0.283
-406.296	0.961	-0.038	0.027
-405.282	-36.961	0.063	0.033
-404.267	-98.381	-0.170	-0.043
-403.252	253.915	-0.067	0.114
-402.238	-40.841	0.167	-0.086
-401.223	-200.000	-0.013	-0.358
-400.209	-21.716	-0.354	-0.213
-399.194	198.813	-0.081	0.123
-398.179	-25.652	-0.254	0.148
-397.165	-200.000	-0.018	-0.112
-396.150	245.413	0.130	0.217
-395.136	-98.954	-0.259	-0.065
-394.121	800.000	-0.058	0.193
-393.106	800.000	0.046	0.186
-392.092	-184.421	-0.075	0.001
-391.077	271.935	-0.081	-0.141
-390.063	-200.000	0.001	-0.084
-389.048	-62.317	0.085	-0.035
-388.033	2.981	-0.359	0.258
-387.019	-34.507	-0.353	-0.191
-386.004	199.390	-0.172	-0.261
-384.990	-200.000	0.030	0.292
-383.975	-121.046	-0.073	-0.012
-382.960	43.004	-0.069	-0.062
-381.946	-66.653	0.211	0.083
-380.931	406.794	0.098	-0.204
-379.917	667.174	-0.010	0.026
-378.902	-56.417	-0.372	0.163
-377.888	-72.924	0.212	0.077
-376.873	-78.660	0.091	-0.031
-375.858	639.174	0.015	0.038
-374.844	-109.940	-0.199	0.041
-373.829	-200.000	0.001	-0.009
-372.815	-59.092	-0.277	0.118
-371.800	15.311	0.125	0.097
-370.785	-200.000	-0.014	-0.282
-369.771	-139.754	0.068	0.007
-368.756	-82.810	-0.156	0.050
-367.742	-92.271	0.368	0.103
-366.727	-2.001	0.341	0.237
-365.712	-200.000	0.021	0.158
-364.698	-200.000	-0.041	-0.213
-363.683	800.000	0.067	-0.214
-362.669	-73.455	0.253	-0.091
-361.654	-200.000	0.009	-0.100
-360.639	16.413	-0.090	0.070
-359.625	800.000	-0.093	0.288
-358.610	-200.000	0.027	0.256
-357.596	211.290	-0.143	0.222
-356.581	54.288	0.097	-0.092
-355.566	-26.198	-0.360	-0.209
-354.552	-66.489	0.220	-0.086
-353.537	-200.000	0.000	0.118
-352.523	365.670	-0.010	-0.020
-351.508	138.075	0.152	0.197
-350.493	-24.080	-0.067	-0.039
-349.479	35.148	0.156	-0.135
-348.464	106.339	0.315	0.369
-347.450	104.594	0.134	0.156
-346.435	120.642	0.251	0.308
-345.420	-200.000	-0.006	0.105
-344.406	222.224	-0.085	0.135
-343.391	-127.743	0.426	-0.061
-342.377	247.608	0.066	-0.110
-341.362	670.718	0.059	0.150
-340.348	-8.964	-0.340	-0.225
-339.333	-74.434	-0.331	0.118
-338.318	23.708	-0.104	0.085
-337.304	787.232	0.058	0.156
-336.289	-25.750	-0.067	0.039
-335.275	536.660	0.046	0.108
-334.260	563.216	0.153	-0.365
-333.245	49.583	0.054	-0.050
-332.231	-103.096	0.139	0.033
-331.216	35.854	0.076	0.066
-330.202	-178.942	-0.284	-0.006
-329.187	-200.000	0.030	-0.166
-328.172	-19.562	0.197	0.121
-327.158	704.868	-0.120	-0.313
-326.143	158.016	0.247	-0.338
-325.129	-59.293	0.354	0.150
-324.114	279.523	-0.165	0.291
-323.099	-101.369	0.207	-0.050
-322.085	800.000	-0.070	0.206
-321.070	-30.883	-0.059	0.033
-320.056	-200.000	-0.015	-0.122
-319.041	-32.656	-0.169	-0.093
-318.026	40.567	-0.158	-0.140
-317.012	-19.511	0.164	0.100
-315.997	475.971	0.045	0.101
-314.983	-84.335	0.070	0.022
-313.968	-200.000	-0.001	0.129
-312.953	-63.072	0.329	-0.134
-311.939	227.985	-0.238	-0.382
-310.924	414.904	0.120	0.252
-309.910	262.622	0.092	0.157
-308.895	-56.183	0.098	-0.043
-307.880	335.906	-0.169	-0.323
-306.866	-160.437	-0.216	-0.011
-305.851	196.142	0.051	0.077
-304.837	-180.050	0.141	-0.003
-303.822	-166.313	0.145	-0.006
-302.807	-95.162	-0.181	-0.048
-301.793	-200.000	0.011	0.099
-300.778	58.150	-0.068	-0.065
-299.764	800.000	0.082	-0.256
-298.749	193.941	0.149	0.223
-297.735	-200.000	-0.027	-0.386
-296.720	-39.333	0.216	0.112
-295.705	-105.888	0.233	-0.052
-294.691	-48.360	0.270	-0.128
-293.676	331.325	0.052	0.099
-292.662	-200.000	0.017	-0.079
-291.647	-146.250	0.249	0.022
-290.632	238.668	-0.032	0.053
-289.618	63.752	0.192	0.190
-288.603	-23.880	0.148	0.087
-287.589	8.433	-0.167	0.124
-286.574	800.000	-0.047	-0.151
-285.559	800.000	0.036	-0.102
-284.545	87.627	0.209	0.228
-283.530	-200.000	-0.025	0.208
-282.516	-88.890	0.252	-0.074
-281.501	-62.782	0.203	0.083
-280.486	237.000	-0.175	-0.285
-279.472	-88.913	0.181	0.053
-278.457	127.563	-0.114	-0.142
-277.443	243.903	-0.079	0.130
-276.428	-153.362	0.281	-0.019
-275.413	-83.909	-0.417	-0.131
-274.399	263.230	-0.146	-0.250
-273.384	-43.706	0.251	0.125
-272.370	439.134	0.161	-0.346
-271.355	-57.097	-0.309	0.134
-270.340	-37.519	-0.162	0.085
-269.326	800.000	0.076	0.264
-268.311	-28.331	0.348	0.198
-267.297	18.485	0.010	0.008
-266.282	41.131	-0.132	-0.117
-265.267	800.000	0.032	0.116
-264.253	44.511	-0.166	0.150
-263.238	165.410	0.318	0.442
-262.224	18.121	-0.125	-0.098
-261.209	57.417	-0.079	0.076
-260.195	59.860	0.024	-0.023
-259.180	800.000	-0.064	-0.228
-258.165	800.000	0.105	-0.323
-257.151	152.899	0.082	-0.111
-256.136	17.443	-0.173	0.135
-255.122	-200.000	-0.073	0.494
-254.107	60.658	-0.038	0.037
-253.092	-200.000	-0.018	0.141
-252.078	-200.000	0.016	0.177
-251.063	-118.887	-0.239	0.041
-250.049	-68.181	0.253	0.097
-249.034	-200.000	0.031	0.141
-248.019	38.301	0.169	0.148
-247.005	22.073	0.163	0.130
-245.990	800.000	-0.042	0.150
-244.976	-122.419	-0.107	0.017
-243.961	-104.308	-0.116	-0.027
-242.946	408.791	0.199	0.413
-241.932	800.000	0.034	0.134
-240.917	405.267	0.121	0.251
-239.903	-44.992	-0.171	0.084
-238.888	-62.129	-0.339	-0.139
-237.873	-64.769	-0.026	-0.010
-236.859	-200.000	0.066	0.411
-235.844	-107.262	0.422	0.091
-234.830	800.000	-0.070	-0.218
-233.815	-4.174	-0.217	-0.148
-232.800	-180.458	0.165	-0.003
-231.786	258.198	-0.074	0.125
-230.771	-67.818	-0.289	0.111
-229.757	154.597	0.167	-0.225
-228.742	45.167	0.060	-0.055
-227.727	-15.878	0.210	-0.131
-226.713	-155.720	0.149	0.009
-225.698	-133.549	-0.428	-0.053
-224.684	395.328	-0.148	-0.303
-223.669	103.213	-0.198	-0.228
-222.655	-137.154	0.061	0.007
-221.640	-81.189	-0.135	-0.044
-220.625	29.705	0.133	0.111
-219.611	800.000	-0.040	0.163
-218.596	121.410	0.179	-0.220
-217.582	-200.000	-0.031	0.467
-216.567	-108.776	-0.221	0.046
-215.552	110.425	-0.072	0.085
-214.538	-109.421	-0.239	0.050
-213.523	62.179	0.091	0.089
-212.509	-93.396	-0.146	-0.040
-211.494	567.683	-0.061	0.145
-210.479	-21.979	0.392	-0.234
-209.465	-41.857	-0.247	0.124
-208.450	-200.000	0.032	0.271
-207.436	311.813	0.172	-0.317
-206.421	241.483	-0.147	-0.241
-205.406	-55.035	0.201	-0.089
-204.392	-200.000	0.042	0.227
-203.377	753.270	-0.106	0.282
-202.363	72.499	-0.135	-0.138
-201.348	549.360	0.069	-0.162
-200.333	-170.499	-0.032	0.001
-199.319	67.893	0.244	-0.245
-198.304	234.423	-0.134	0.217
-197.290	-93.371	-0.222	0.061
-196.275	-7.494	0.194	0.129
-195.260	14.157	0.099	0.076
-194.246	-200.000	0.027	-0.281
-193.231	-200.000	-0.017	0.370
-192.217	-75.037	0.111	0.039
-191.202	98.888	0.147	0.166
-190.187	-141.130	-0.268	0.027
-189.173	-200.000	-0.006	0.037
-188.158	-41.878	0.307	-0.155
-187.144	8.686	0.181	0.134
-186.129	800.000	0.112	0.431
-185.114	-200.000	0.001	-0.029
-184.100	-99.975	0.075	0.018
-183.085	-200.000	-0.038	-0.224
-182.071	-82.315	-0.081	0.026
-181.056	-59.494	-0.332	-0.140
-180.042	-76.699	0.101	0.035
-179.027	-132.258	0.290	-0.037
-178.012	68.240	0.115	0.116
-176.998	214.749	-0.125	0.195
-175.983	-92.244	0.064	-0.018
-174.969	-200.000	0.000	0.054
-173.954	315.255	-0.145	-0.268
-172.939	-37.626	0.259	0.135
-171.925	-200.000	-0.014	-0.196
-170.910	219.172	-0.082	0.129
-169.896	128.165	0.120	-0.149
-168.881	-200.000	0.032	0.211
-167.866	292.840	0.129	0.231
-166.852	-200.000	0.033	-0.213
-165.837	-55.396	0.485	0.213
-164.823	59.954	-0.205	-0.198
-163.808	800.000	-0.076	-0.269
-162.793	800.000	-0.080	0.251
-161.779	74.036	0.222	-0.229
-160.764	800.000	0.078	-0.267
-159.750	120.064	0.062	-0.076
-158.735	-106.612	0.271	0.059
-157.720	15.993	-0.185	0.142
-156.706	-55.953	-0.052	0.023
-155.691	-64.921	0.162	0.064
-154.677	-82.969	-0.305	-0.096
-153.662	-200.000	0.065	0.326
-152.647	219.448	0.092	0.144
-151.633	111.836	-0.108	-0.128
-150.618	-124.319	-0.147	-0.023
-149.604	557.556	0.110	0.260
-148.589	31.192	0.118	-0.099
-147.574	20.106	-0.209	0.165
-146.560	-8.882	0.074	-0.049
-145.545	-200.000	-0.028	-0.307
-144.531	-61.329	-0.200	-0.083
-143.516	165.673	-0.260	-0.360
-142.502	800.000	-0.019	-0.056
-141.487	427.967	-0.092	-0.195
-140.472	800.000	0.072	0.226
-139.458	203.445	-0.208	-0.314
-138.443	48.039	-0.332	-0.304
-137.429	-200.000	0.036	-0.228
-136.414	55.295	-0.195	-0.185
-135.399	-200.000	0.002	0.198
-134.385	130.276	0.159	0.199
-133.370	-39.591	0.221	-0.113
-132.356	-132.310	-0.301	0.038
-131.341	-94.861	0.261	0.069
-130.326	524.108	-0.097	0.223
-129.312	-95.648	0.141	-0.037
-128.297	120.888	0.140	-0.171
-127.283	11.501	0.105	-0.079
-126.268	-9.148	0.220	-0.144
-125.253	-101.421	-0.127	-0.030
-124.239	-200.000	0.018	0.204
-123.224	-162.202	-0.401	0.020
-122.210	-9.735	0.221	-0.144
-121.195	-89.600	0.242	-0.070
