DTS Sentinel unit serial number:	SN413079Multiplexer serial number:	ORYXHardware model number:	OX4-SRSoftware version number:	ORYX F/W v4.00 Oryx Data Collector v3.7.2.0data status	okinstallation	princeton_trtdifferential loss correction	single-endedforward channel	channel 4reverse channel	N/Adate	2019/09/12time	06:43:11forward acquisition time	60.00reverse acquisition time	0.00gamma	496.2192k internal	0.2307k external	0.2307temperature offset calibration	1.0063default loss term (dB/km)	0.3790temperature slope calibration	1.0000multiplexer offset coefficient	1.0000multiplexer slope coefficient	1.0000fibre end	0.00T internal ref (°C)	32.14T ext. ref 1 (°C)	1.59T ext. ref 2 (°C)	27.23length (m)	temperature (°C)	Stokes	anti-Stokes-747.200	283.589	0.202	0.368
-746.185	-38.296	-0.210	0.113
-745.171	25.117	-0.051	0.043
-744.156	55.328	0.239	0.235
-743.142	622.076	-0.088	0.225
-742.127	-120.591	-0.222	-0.038
-741.112	8.724	-0.342	-0.262
-740.098	192.290	0.247	0.378
-739.083	365.595	0.049	-0.099
-738.069	-200.000	0.002	-0.040
-737.054	-123.588	-0.439	-0.071
-736.039	485.822	-0.104	0.242
-735.025	793.313	0.111	0.310
-734.010	-20.594	-0.064	0.040
-732.996	102.632	-0.124	-0.147
-731.981	118.934	0.235	-0.295
-730.966	-200.000	0.017	-0.106
-729.952	-138.412	0.074	-0.008
-728.937	-13.125	-0.082	-0.054
-727.923	-71.836	0.195	-0.074
-726.908	-11.433	0.156	-0.104
-725.894	-124.043	0.126	-0.020
-724.879	-48.543	-0.092	0.045
-723.864	-157.173	-0.224	-0.014
-722.850	-62.996	0.191	-0.080
-721.835	84.080	0.136	0.151
-720.821	248.545	0.204	0.350
-719.806	-200.000	-0.034	0.221
-718.791	-12.664	-0.037	0.025
-717.777	531.251	-0.008	0.020
-716.762	-83.763	-0.299	0.097
-715.748	800.000	0.046	0.158
-714.733	-100.378	-0.140	0.035
-713.718	-145.701	-0.142	0.013
-712.704	639.444	-0.043	-0.111
-711.689	16.480	-0.194	0.156
-710.675	-128.322	0.261	0.038
-709.660	41.256	0.022	0.021
-708.645	-28.806	0.124	0.072
-707.631	415.183	0.144	0.312
-706.616	162.427	-0.321	-0.458
-705.602	372.778	-0.026	0.053
-704.587	-91.164	-0.139	-0.040
-703.572	130.869	-0.203	0.264
-702.558	-200.000	-0.145	0.000
-701.543	0.370	0.260	0.189
-700.529	-200.000	0.030	0.234
-699.514	-187.445	0.248	0.003
-698.499	693.077	-0.054	-0.145
-697.485	12.299	0.133	-0.104
-696.470	10.698	0.109	0.084
-695.456	-98.402	-0.296	0.077
-694.441	-8.717	-0.298	0.203
-693.426	273.895	-0.137	-0.246
-692.412	115.772	-0.149	-0.184
-691.397	-200.000	0.023	0.175
-690.383	-118.591	0.319	0.057
-689.368	200.801	-0.073	-0.114
-688.354	-200.000	-0.017	-0.196
-687.339	-56.720	-0.021	-0.009
-686.324	-160.236	0.599	-0.033
-685.310	-200.000	-0.068	-0.306
-684.295	84.959	-0.039	0.044
-683.281	-200.000	0.003	-0.050
-682.266	56.382	-0.349	-0.344
-681.251	5.708	0.193	0.145
-680.237	-200.000	0.078	0.424
-679.222	-200.000	0.055	0.300
-678.208	-115.604	0.261	0.050
-677.193	-76.134	-0.180	-0.064
-676.178	135.652	0.058	-0.077
-675.164	1.721	0.158	-0.115
-674.149	-81.423	0.361	-0.121
-673.135	-37.776	-0.153	0.082
-672.120	-32.376	0.082	-0.046
-671.105	-183.831	-0.192	-0.003
-670.091	-200.000	-0.002	0.303
-669.076	-4.455	0.027	-0.019
-668.062	3.637	0.120	-0.089
-667.047	-200.000	-0.024	-0.214
-666.032	-25.312	0.256	0.153
-665.018	-127.593	0.302	-0.044
-664.003	152.646	0.262	-0.363
-662.989	-200.000	0.037	-0.175
-661.974	-200.000	-0.060	-0.270
-660.959	660.153	0.115	-0.299
-659.945	122.855	-0.065	0.082
-658.930	-75.690	-0.263	-0.095
-657.916	800.000	-0.049	0.205
-656.901	71.378	-0.067	-0.070
-655.886	150.967	-0.175	0.241
-654.872	59.985	-0.253	0.253
-653.857	218.964	-0.106	0.172
-652.843	800.000	-0.059	-0.223
-651.828	74.733	0.036	-0.039
-650.814	78.679	0.206	-0.224
-649.799	-20.370	-0.240	-0.150
-648.784	-42.524	-0.172	-0.089
-647.770	-200.000	-0.043	-0.316
-646.755	-109.886	-0.352	0.075
-645.741	-167.001	0.393	-0.016
-644.726	-200.000	0.012	-0.176
-643.711	-200.000	0.037	-0.233
-642.697	-29.880	-0.132	0.076
-641.682	-16.119	-0.113	-0.073
-640.668	-148.880	0.257	0.021
-639.653	664.797	-0.092	-0.239
-638.638	-20.169	0.053	0.033
-637.624	138.848	-0.042	0.055
-636.609	136.710	-0.225	0.298
-635.595	800.000	-0.066	-0.231
-634.580	189.691	-0.088	-0.133
-633.565	-5.345	0.107	0.074
-632.551	421.309	-0.063	0.137
-631.536	775.871	-0.081	-0.224
-630.522	731.064	-0.083	-0.226
-629.507	192.150	0.028	-0.043
-628.492	-200.000	0.034	0.199
-627.478	21.947	-0.084	-0.069
-626.463	-200.000	-0.036	0.194
-625.449	249.792	-0.093	0.160
-624.434	-9.866	-0.467	0.314
-623.419	116.782	-0.144	-0.179
-622.405	800.000	0.077	-0.217
-621.390	800.000	0.079	-0.314
-620.376	-97.194	0.111	0.029
-619.361	-200.000	-0.032	0.160
-618.346	416.273	-0.122	0.262
-617.332	800.000	0.085	0.375
-616.317	-200.000	-0.060	0.371
-615.303	287.636	0.194	0.355
-614.288	-152.822	0.227	0.016
-613.273	-85.682	0.449	-0.141
-612.259	91.545	-0.205	-0.233
-611.244	800.000	-0.047	0.195
-610.230	-117.136	-0.167	0.031
-609.215	-106.732	0.299	0.067
-608.201	800.000	-0.030	-0.116
-607.186	-83.512	-0.188	0.061
-606.171	149.842	-0.208	-0.286
-605.157	58.124	0.114	0.113
-604.142	89.571	-0.106	0.120
-603.128	-104.522	-0.326	-0.076
-602.113	-44.981	0.199	-0.100
-601.098	-96.464	-0.159	0.043
-600.084	-200.000	0.001	0.171
-599.069	800.000	-0.087	0.257
-598.055	134.737	-0.102	0.134
-597.040	422.148	0.082	0.179
-596.025	-200.000	0.001	-0.070
-595.011	800.000	0.029	-0.119
-593.996	800.000	-0.103	0.336
-592.982	15.463	-0.142	-0.112
-591.967	541.613	0.008	-0.020
-590.952	704.918	0.058	0.155
-589.938	800.000	0.036	-0.110
-588.923	189.091	-0.156	0.236
-587.909	800.000	0.093	-0.298
-586.894	24.341	-0.062	-0.052
-585.879	-200.000	0.012	-0.057
-584.865	220.199	-0.197	-0.319
-583.850	-59.531	0.097	-0.042
-582.836	-82.632	0.491	-0.161
-581.821	-90.415	0.314	-0.092
-580.806	800.000	0.027	-0.111
-579.792	-30.273	0.224	0.129
-578.777	-97.428	-0.106	0.028
-577.763	10.649	-0.299	-0.230
-576.748	15.591	0.156	0.124
-575.733	33.345	-0.142	-0.124
-574.719	-37.922	-0.205	0.110
-573.704	78.474	0.069	-0.075
-572.690	-200.000	0.019	0.223
-571.675	800.000	-0.064	-0.179
-570.661	107.761	0.116	-0.139
-569.646	-127.115	0.176	-0.026
-568.631	-79.334	0.226	0.077
-567.617	729.063	0.098	0.265
-566.602	569.520	0.091	-0.224
-565.588	248.086	-0.034	-0.058
-564.573	260.833	-0.022	0.039
-563.558	706.818	0.072	-0.191
-562.544	-200.000	0.029	0.173
-561.529	-26.729	-0.205	-0.121
-560.515	-99.129	-0.248	0.063
-559.500	18.439	0.295	0.238
-558.485	119.001	-0.156	0.195
-557.471	10.797	0.204	0.157
-556.456	25.822	-0.136	0.114
-555.442	189.834	-0.149	-0.226
-554.427	-200.000	0.025	-0.171
-553.412	155.028	-0.205	-0.284
-552.398	-200.000	0.053	-0.249
-551.383	-56.535	0.124	-0.055
-550.369	580.860	0.095	0.234
-549.354	-200.000	0.018	0.258
-548.339	23.616	-0.164	-0.137
-547.325	800.000	-0.045	-0.171
-546.310	470.199	0.027	-0.061
-545.296	-14.192	0.138	0.090
-544.281	-13.992	0.182	0.119
-543.266	-39.555	0.134	-0.071
-542.252	-200.000	-0.044	-0.233
-541.237	-200.000	0.055	0.319
-540.223	-200.000	0.010	0.241
-539.208	-103.387	-0.153	-0.036
-538.193	-200.000	0.018	-0.233
-537.179	-74.293	-0.309	-0.113
-536.164	100.821	0.192	-0.225
-535.150	-43.706	-0.364	-0.185
-534.135	-89.297	-0.226	-0.067
-533.121	197.286	-0.141	0.217
-532.106	-150.096	0.275	0.022
-531.091	-200.000	-0.017	-0.129
-530.077	-0.140	0.137	-0.098
-529.062	-121.540	0.075	-0.013
-528.048	73.207	-0.179	0.189
-527.033	-19.390	0.347	-0.217
-526.018	-23.683	0.085	0.051
-525.004	-113.022	-0.063	-0.013
-523.989	-200.000	0.004	-0.098
-522.975	-200.000	0.035	-0.157
-521.960	115.216	-0.144	-0.178
-520.945	86.346	0.182	-0.202
-519.931	666.978	-0.144	0.375
-518.916	-91.478	-0.139	0.040
-517.902	136.865	0.179	-0.236
-516.887	-200.000	0.004	0.091
-515.872	-5.280	0.176	0.122
-514.858	48.896	0.197	-0.186
-513.843	-200.000	-0.050	0.340
-512.829	-57.731	-0.107	0.047
-511.814	-130.662	0.141	0.019
-510.799	-108.082	-0.416	0.091
-509.785	-123.226	-0.113	-0.018
-508.770	-26.275	0.132	0.078
-507.756	-200.000	0.031	0.220
-506.741	800.000	-0.021	-0.076
-505.726	23.121	-0.128	-0.105
-504.712	800.000	-0.014	-0.062
-503.697	-171.341	-0.309	0.010
-502.683	141.887	-0.153	0.204
-501.668	-19.669	-0.039	-0.024
-500.653	-171.295	0.196	0.007
-499.639	169.052	0.058	0.083
-498.624	-87.200	-0.390	-0.119
-497.610	73.908	-0.206	-0.217
-496.595	-200.000	-0.009	-0.193
-495.581	-39.377	-0.180	-0.095
-494.566	644.597	-0.087	0.223
-493.551	800.000	-0.026	0.112
-492.537	-15.798	-0.173	-0.111
-491.522	-119.183	-0.207	-0.036
-490.508	575.751	0.132	-0.324
-489.493	458.930	0.047	0.106
-488.478	-87.363	-0.176	-0.054
-487.464	-200.000	0.003	0.036
-486.449	-54.819	0.154	0.070
-485.435	374.867	0.049	-0.101
-484.420	-20.343	0.430	-0.266
-483.405	121.973	-0.099	-0.124
-482.391	-41.279	0.163	0.084
-481.376	293.373	0.050	0.092
-480.362	-115.309	0.439	-0.083
-479.347	800.000	-0.087	-0.357
-478.332	-200.000	0.110	-0.498
-477.318	-86.121	-0.088	-0.027
-476.303	800.000	-0.087	0.248
-475.289	151.771	0.021	-0.029
-474.274	-145.190	0.260	0.024
-473.259	106.890	-0.221	0.264
-472.245	740.781	-0.040	-0.108
-471.230	-147.952	0.252	-0.021
-470.216	-116.514	-0.148	0.027
-469.201	107.602	-0.314	0.377
-468.186	-3.683	0.268	0.187
-467.172	-53.790	0.163	-0.075
-466.157	-128.421	-0.213	-0.030
-465.143	186.999	-0.089	0.134
-464.128	-51.463	0.145	-0.068
-463.113	206.482	-0.191	0.298
-462.099	-200.000	0.005	0.172
-461.084	-35.695	-0.269	0.147
-460.070	-143.059	0.025	-0.002
-459.055	-188.352	0.148	-0.002
-458.040	49.818	-0.197	0.186
-457.026	-65.873	-0.241	-0.097
-456.011	325.264	0.122	0.234
-454.997	800.000	-0.072	0.260
-453.982	-3.273	0.119	-0.083
-452.968	-159.844	-0.076	0.004
-451.953	13.119	0.208	-0.162
-450.938	800.000	0.120	-0.337
-449.924	-24.640	-0.304	-0.182
-448.909	307.840	0.159	-0.298
-447.895	-24.524	0.105	-0.063
-446.880	-13.861	-0.097	-0.063
-445.865	-126.641	0.109	0.016
-444.851	-190.705	0.369	-0.004
-443.836	-119.038	-0.458	-0.081
-442.822	-36.695	-0.130	0.070
-441.807	-109.319	0.098	-0.021
-440.792	-200.000	0.001	-0.050
-439.778	541.142	-0.035	0.085
-438.763	631.164	-0.057	-0.145
-437.749	-168.895	0.115	-0.004
-436.734	128.017	-0.038	0.048
-435.719	143.680	-0.172	-0.230
-434.705	138.718	0.191	-0.252
-433.690	800.000	-0.043	0.157
-432.676	-200.000	-0.251	0.000
-431.661	800.000	-0.057	-0.232
-430.646	-147.167	-0.345	-0.030
-429.632	-135.986	-0.059	-0.007
-428.617	800.000	0.027	-0.108
-427.603	-68.845	0.231	0.090
-426.588	-200.000	-0.014	0.161
-425.573	-41.624	-0.225	0.116
-424.559	796.825	0.069	-0.191
-423.544	-57.481	-0.043	0.019
-422.530	342.701	-0.041	-0.081
-421.515	167.987	0.095	0.136
-420.500	74.134	-0.142	0.150
-419.486	-71.923	0.181	-0.068
-418.471	117.605	-0.186	0.230
-417.457	170.280	-0.032	-0.046
-416.442	27.189	-0.157	-0.132
-415.428	-162.659	-0.139	-0.007
-414.413	173.260	-0.142	0.206
-413.398	-175.818	-0.244	-0.007
-412.384	-75.649	0.349	0.124
-411.369	-200.000	-0.052	0.364
-410.355	427.394	0.031	-0.068
-409.340	-196.131	0.080	0.001
-408.325	-25.919	0.304	0.180
-407.311	-12.351	0.009	0.006
-406.296	83.329	0.080	-0.088
-405.282	30.336	-0.411	-0.353
-404.267	-4.509	0.160	-0.111
-403.252	-21.786	0.294	0.180
-402.238	-146.496	-0.226	0.020
-401.223	-173.629	0.273	-0.008
-400.209	343.940	0.118	-0.232
-399.194	-32.051	-0.215	-0.121
-398.179	35.055	-0.133	-0.117
-397.165	93.306	-0.159	0.181
-396.150	-79.389	0.143	0.049
-395.136	-200.000	-0.028	0.228
-394.121	-113.479	0.147	0.029
-393.106	-109.855	-0.292	-0.062
-392.092	107.908	-0.246	-0.294
-391.077	800.000	0.010	-0.038
-390.063	84.235	0.073	-0.080
-389.048	-73.473	-0.344	0.126
-388.033	-93.587	-0.056	-0.016
-387.019	430.157	0.077	0.168
-386.004	318.603	-0.057	0.109
-384.990	165.533	0.148	0.210
-383.975	-114.779	-0.103	0.020
-382.960	378.518	0.020	-0.041
-381.946	-119.992	-0.323	0.056
-380.931	-136.160	-0.058	0.007
-379.917	-15.706	0.108	-0.069
-378.902	251.864	0.049	-0.084
-377.888	250.170	0.106	-0.180
-376.873	68.849	0.223	-0.230
-375.858	206.864	0.040	0.063
-374.844	-7.881	0.114	-0.077
-373.829	-120.526	-0.322	-0.055
-372.815	800.000	0.086	0.262
-371.800	-0.474	-0.249	0.177
-370.785	-200.000	-0.041	-0.285
-369.771	800.000	0.049	0.148
-368.756	-200.000	0.021	0.237
-367.742	191.386	0.073	0.110
-366.727	-139.061	-0.019	0.002
-365.712	-200.000	0.215	0.001
-364.698	71.058	-0.075	-0.078
-363.683	-200.000	0.031	-0.165
-362.669	-96.822	-0.124	0.033
-361.654	-41.910	0.135	0.069
-360.639	-200.000	-0.001	-0.089
-359.625	-142.831	-0.358	0.035
-358.610	115.590	0.164	0.201
-357.596	-4.011	0.180	0.125
-356.581	-98.421	0.155	0.040
-355.566	-98.707	-0.121	-0.031
-354.552	-116.737	-0.123	0.023
-353.537	-79.543	-0.258	-0.087
-352.523	-200.000	-0.008	0.127
-351.508	-200.000	0.046	-0.434
-350.493	255.886	-0.104	0.179
-349.479	-31.520	0.232	0.130
-348.464	-40.626	-0.103	-0.053
-347.450	-65.825	0.400	0.160
-346.435	-111.795	-0.173	0.035
-345.420	39.978	-0.122	-0.110
-344.406	-16.394	-0.229	-0.146
-343.391	351.245	0.096	-0.190
-342.377	-114.930	-0.250	-0.048
-341.362	-45.311	-0.123	-0.061
-340.348	410.080	-0.115	0.244
-339.333	-200.000	-0.008	-0.132
-338.318	-91.531	0.125	0.036
-337.304	-65.310	-0.258	0.104
-336.289	212.398	0.088	0.139
-335.275	-200.000	0.030	-0.276
-334.260	164.586	0.116	-0.164
-333.245	128.261	0.246	-0.313
-332.231	-77.607	0.388	0.135
-331.216	-87.587	-0.337	0.102
-330.202	-118.844	0.338	-0.059
-329.187	639.682	0.050	0.128
-328.172	-200.000	0.031	-0.153
-327.158	572.115	-0.078	0.190
-326.143	-110.576	-0.181	-0.037
-325.129	800.000	-0.021	-0.085
-324.114	-89.655	-0.290	-0.085
-323.099	-150.579	0.328	0.025
-322.085	-93.852	0.242	0.067
-321.070	249.269	-0.069	-0.117
-320.056	-195.266	0.361	-0.003
-319.041	-141.525	-0.318	-0.032
-318.026	800.000	-0.029	0.083
-317.012	-200.000	0.007	0.129
-315.997	-200.000	0.043	0.429
-314.983	800.000	-0.058	0.187
-313.968	74.904	0.105	0.111
-312.953	103.067	-0.203	0.238
-311.939	58.029	0.187	0.183
-310.924	314.360	0.122	0.229
-309.910	-105.812	0.398	-0.090
-308.895	498.940	-0.024	0.054
-307.880	-96.560	0.270	-0.071
-306.866	-51.046	0.188	0.088
-305.851	800.000	0.026	0.090
-304.837	14.152	-0.068	-0.053
-303.822	-41.983	-0.204	0.104
-302.807	75.375	0.267	-0.282
-301.793	-200.000	0.007	-0.050
-300.778	-78.958	0.260	0.089
-299.764	43.131	0.211	0.193
-298.749	-164.738	0.019	-0.001
-297.735	-200.000	-0.006	0.233
-296.720	155.118	0.059	-0.082
-295.705	515.145	-0.084	0.195
-294.691	453.331	0.203	0.449
-293.676	800.000	-0.044	-0.179
-292.662	110.006	0.122	0.147
-291.647	311.406	0.049	-0.092
-290.632	112.207	-0.079	-0.096
-289.618	89.210	0.162	0.181
-288.603	-106.265	0.089	0.020
-287.589	-165.464	0.211	-0.009
-286.574	-0.511	-0.257	-0.182
-285.559	-34.514	-0.195	0.107
-284.545	-26.906	0.110	-0.064
-283.530	-53.322	-0.147	0.067
-282.516	258.110	-0.171	-0.294
-281.501	114.326	-0.232	0.282
-280.486	84.876	-0.031	0.034
-279.472	-200.000	0.004	0.076
-278.457	-102.984	-0.167	0.040
-277.443	-59.044	0.153	-0.066
-276.428	126.417	0.061	0.077
-275.413	326.495	-0.084	-0.160
-274.399	800.000	0.076	-0.260
-273.384	-42.860	-0.132	-0.067
-272.370	-28.664	0.137	-0.079
-271.355	-137.620	-0.434	0.049
-270.340	-45.965	-0.047	0.023
-269.326	39.554	-0.131	0.117
-268.311	-158.858	0.345	0.020
-267.297	-145.119	-0.262	-0.024
-266.282	-115.472	-0.329	0.062
-265.267	88.403	-0.199	-0.220
-264.253	-159.690	0.206	-0.011
-263.238	213.502	0.271	-0.427
-262.224	205.955	-0.128	0.199
-261.209	184.555	0.142	-0.210
-260.195	120.959	0.108	0.134
-259.180	-200.000	-0.039	0.174
-258.165	40.470	-0.152	-0.136
-257.151	-200.000	-0.004	0.177
-256.136	31.540	-0.077	-0.066
-255.122	205.313	-0.105	-0.162
-254.107	-78.801	0.090	-0.031
-253.092	-83.189	-0.122	-0.039
-252.078	-32.303	0.236	-0.131
-251.063	403.077	-0.179	-0.376
-250.049	800.000	-0.060	-0.172
-249.034	-200.000	0.032	-0.239
-248.019	-200.000	0.010	0.285
-247.005	154.124	0.215	0.294
-245.990	316.695	0.008	0.015
-244.976	-136.951	-0.354	0.040
-243.961	-132.563	0.231	0.030
-242.946	-200.000	0.007	0.214
-241.932	294.451	-0.063	0.116
-240.917	-44.064	-0.256	-0.128
-239.903	229.766	0.129	-0.209
-238.888	-200.000	-0.001	-0.078
-237.873	3.152	0.084	0.061
-236.859	-158.645	-0.171	-0.010
-235.844	-100.791	0.162	0.040
-234.830	-194.034	0.229	0.002
-233.815	129.495	0.059	0.075
-232.800	231.489	-0.064	-0.104
-231.786	12.105	0.179	0.137
-230.771	41.159	0.028	-0.025
-229.757	-106.004	-0.198	0.044
-228.742	-111.089	0.096	-0.020
-227.727	-45.795	-0.157	-0.077
-226.713	-66.983	0.078	0.031
-225.698	-80.454	0.192	-0.064
-224.684	142.677	-0.058	0.076
-223.669	-24.227	0.198	0.118
-222.655	472.573	0.027	-0.061
-221.640	-26.328	0.234	-0.137
-220.625	193.436	-0.252	-0.379
-219.611	-200.000	0.007	-0.202
-218.596	-200.000	-0.008	0.101
-217.582	102.250	-0.131	0.152
-216.567	281.999	0.151	-0.269
-215.552	-87.515	0.220	0.066
-214.538	800.000	0.103	-0.287
-213.523	-13.412	0.140	0.090
-212.509	-200.000	0.017	0.162
-211.494	-200.000	-0.031	0.159
-210.479	27.138	-0.127	0.106
-209.465	-0.167	0.171	-0.121
-208.450	24.669	0.210	-0.173
-207.436	-82.040	0.566	0.184
-206.421	156.767	0.048	0.065
-205.406	-200.000	-0.000	0.310
-204.392	-78.613	0.177	0.060
-203.377	800.000	0.041	-0.157
-202.363	-126.171	0.435	0.065
-201.348	216.244	0.104	-0.165
-200.333	-66.175	-0.335	-0.133
-199.319	41.890	0.053	-0.048
-198.304	-68.476	0.208	0.080
-197.290	3.776	-0.270	0.196
-196.275	-9.268	-0.274	0.182
-195.260	1.210	-0.267	-0.191
-194.246	-31.023	0.178	-0.100
-193.231	24.861	-0.093	0.077
-192.217	390.147	-0.108	-0.224
-191.202	-66.154	-0.044	-0.017
-190.187	16.180	0.332	-0.260
-189.173	-200.000	0.007	0.063
-188.158	376.408	-0.175	-0.356
-187.144	-31.773	0.033	-0.018
-186.129	-200.000	-0.017	0.132
-185.114	169.661	0.037	-0.052
-184.100	106.017	0.201	-0.237
-183.085	800.000	-0.060	-0.233
-182.071	153.482	0.042	0.058
-181.056	-200.000	0.017	0.231
-180.042	7.843	0.411	0.307
-179.027	-38.328	-0.117	0.062
-178.012	-66.785	0.365	0.143
-176.998	800.000	0.063	-0.246
-175.983	-150.671	0.225	-0.017
-174.969	600.570	-0.038	-0.094
-173.954	-89.358	-0.203	0.060
-172.939	-9.157	-0.313	0.208
-171.925	778.452	0.119	0.322
-170.910	115.049	0.119	-0.144
-169.896	-200.000	0.041	0.495
-168.881	312.383	-0.083	0.155
-167.866	-141.786	-0.158	-0.016
-166.852	800.000	-0.006	-0.018
-165.837	-32.391	-0.205	-0.113
-164.823	-59.359	0.211	0.090
-163.808	-60.919	-0.060	0.025
-162.793	-200.000	0.012	0.193
-161.779	-124.878	0.240	0.037
-160.764	-200.000	-0.010	-0.143
-159.750	47.843	0.237	-0.220
-158.735	-4.425	-0.176	-0.121
-157.720	-106.306	-0.074	0.016
-156.706	155.387	0.122	0.168
-155.691	-107.363	-0.082	-0.018
-154.677	-200.000	0.009	0.112
-153.662	-125.300	0.275	0.042
-152.647	88.804	0.114	0.126
-151.633	108.192	-0.099	0.118
-150.618	-53.956	-0.380	-0.172
-149.604	-200.000	0.006	-0.082
-148.589	139.436	0.084	-0.109
-147.574	56.772	-0.089	-0.086
-146.560	12.214	0.259	-0.198
-145.545	-200.000	0.201	-0.000
-144.531	800.000	-0.019	-0.055
-143.516	221.601	-0.053	-0.085
-142.502	507.986	-0.043	-0.100
-141.487	41.523	0.047	-0.042
-140.472	73.169	0.328	0.341
-139.458	453.900	0.105	0.230
-138.443	372.186	0.093	0.188
-137.429	-48.826	-0.189	-0.090
-136.414	-164.241	0.300	0.014
-135.399	-157.484	0.120	-0.007
-134.385	-65.585	-0.218	-0.087
-133.370	-183.194	-0.278	0.005
-132.356	-101.595	0.096	-0.023
-131.341	-34.100	-0.171	-0.093
-130.326	133.005	-0.185	-0.237
-129.312	-84.713	-0.131	-0.041
-128.297	-99.346	0.138	-0.034
-127.283	-70.664	0.165	0.062
-126.268	178.857	-0.097	-0.141
-125.253	573.205	0.157	0.380
-124.239	639.525	0.065	0.164
-123.224	788.204	0.078	-0.213
-122.210	-6.910	0.136	-0.092
-121.195	443.587	0.197	-0.429
