DTS Sentinel unit serial number:	SN413079Multiplexer serial number:	ORYXHardware model number:	OX4-SRSoftware version number:	ORYX F/W v4.00 Oryx Data Collector v3.7.2.0data status	okinstallation	princeton_trtdifferential loss correction	single-endedforward channel	channel 4reverse channel	N/Adate	2019/09/16time	15:05:35forward acquisition time	60.00reverse acquisition time	0.00gamma	496.2192k internal	0.2289k external	0.2289temperature offset calibration	0.9937default loss term (dB/km)	0.3790temperature slope calibration	1.0000multiplexer offset coefficient	1.0000multiplexer slope coefficient	1.0000fibre end	0.00T internal ref (°C)	41.12T ext. ref 1 (°C)	14.51T ext. ref 2 (°C)	36.40length (m)	temperature (°C)	Stokes	anti-Stokes-747.200	54.007	0.168	0.165
-746.185	800.000	-0.173	0.637
-745.171	-25.393	-0.118	0.072
-744.156	-80.049	-0.208	-0.071
-743.142	139.953	0.170	-0.230
-742.127	-200.000	0.040	0.375
-741.112	-130.533	0.075	0.010
-740.098	-120.675	-0.175	0.030
-739.083	145.408	0.068	-0.094
-738.069	25.005	-0.165	0.140
-737.054	260.460	-0.143	0.254
-736.039	-200.000	-0.032	0.191
-735.025	233.907	0.087	0.146
-734.010	-200.000	0.090	-0.655
-732.996	-72.782	-0.183	-0.069
-731.981	131.620	0.048	-0.063
-730.966	-200.000	0.037	-0.221
-729.952	104.710	0.125	0.151
-728.937	250.260	-0.185	-0.322
-727.923	-200.000	0.061	-0.382
-726.908	800.000	-0.054	0.163
-725.894	123.055	-0.118	0.152
-724.879	78.802	-0.185	-0.203
-723.864	-85.251	-0.129	-0.041
-722.850	-135.860	-0.304	-0.037
-721.835	-51.888	0.256	0.122
-720.821	-200.000	-0.009	-0.112
-719.806	47.797	-0.117	-0.112
-718.791	-200.000	0.020	0.203
-717.777	-12.595	-0.522	-0.349
-716.762	-174.631	0.077	-0.002
-715.748	281.452	-0.073	0.134
-714.733	-11.881	-0.452	-0.303
-713.718	-49.922	-0.322	0.157
-712.704	45.285	-0.192	-0.181
-711.689	-16.709	-0.160	-0.103
-710.675	-94.791	-0.145	0.040
-709.660	800.000	-0.098	0.288
-708.645	-200.000	0.014	0.111
-707.631	2.894	-0.151	0.113
-706.616	-200.000	-0.054	-0.277
-705.602	217.814	-0.212	-0.346
-704.587	800.000	-0.046	-0.154
-703.572	-56.581	-0.137	0.062
-702.558	-200.000	-0.002	-0.203
-701.543	786.034	-0.089	0.250
-700.529	800.000	-0.022	-0.087
-699.514	432.563	0.113	-0.251
-698.499	-141.567	-0.217	0.022
-697.485	54.887	-0.175	0.173
-696.470	41.258	-0.121	0.112
-695.456	164.311	-0.115	0.166
-694.441	800.000	-0.026	0.102
-693.426	-49.049	-0.115	0.056
-692.412	-200.000	-0.014	0.298
-691.397	-50.078	-0.294	-0.143
-690.383	800.000	-0.050	-0.189
-689.368	38.889	0.096	-0.088
-688.354	-65.219	0.161	-0.066
-687.339	221.401	-0.027	0.044
-686.324	-83.170	0.233	-0.077
-685.310	36.691	0.158	0.142
-684.295	-66.898	-0.210	0.085
-683.281	800.000	0.075	-0.335
-682.266	-125.721	-0.219	-0.034
-681.251	17.946	-0.197	0.161
-680.237	800.000	0.076	0.283
-679.222	-200.000	-0.008	-0.052
-678.208	-153.419	0.514	-0.036
-677.193	60.869	-0.121	0.122
-676.178	800.000	0.059	-0.170
-675.164	9.221	0.198	-0.153
-674.149	-117.599	-0.219	-0.040
-673.135	-135.821	-0.060	0.007
-672.120	313.275	-0.154	-0.297
-671.105	-9.693	0.313	-0.213
-670.091	800.000	0.079	-0.259
-669.076	800.000	-0.079	-0.223
-668.062	0.962	-0.175	-0.128
-667.047	-71.919	-0.222	0.084
-666.032	276.414	-0.064	-0.116
-665.018	-42.602	0.374	-0.195
-664.003	-47.966	-0.034	0.017
-662.989	-75.833	0.092	-0.033
-661.974	-200.000	0.003	-0.312
-660.959	178.502	-0.229	-0.342
-659.945	262.534	-0.033	0.058
-658.930	-200.000	-0.007	0.300
-657.916	800.000	0.052	0.155
-656.901	29.926	-0.362	0.315
-655.886	478.773	-0.053	-0.124
-654.872	26.833	0.179	0.153
-653.857	-33.069	-0.046	-0.026
-652.843	-96.234	0.280	-0.076
-651.828	-11.873	0.129	0.086
-650.814	-88.021	-0.236	0.072
-649.799	43.989	0.234	0.219
-648.784	67.143	-0.102	-0.106
-647.770	15.202	0.331	0.265
-646.755	30.372	0.182	-0.159
-645.741	-200.000	0.000	-0.159
-644.726	256.018	0.044	0.077
-643.711	-200.000	-0.009	-0.052
-642.697	-200.000	0.006	-0.097
-641.682	3.680	-0.310	0.231
-640.668	13.597	0.220	0.174
-639.653	121.418	-0.112	0.142
-638.638	-88.550	-0.273	-0.083
-637.624	800.000	0.059	0.227
-636.609	-50.787	0.251	0.121
-635.595	-183.468	0.192	0.003
-634.580	-200.000	-0.022	-0.316
-633.565	-19.307	-0.304	-0.193
-632.551	540.099	-0.108	-0.262
-631.536	9.038	-0.059	-0.045
-630.522	173.721	-0.155	-0.228
-629.507	775.447	0.122	-0.340
-628.492	-70.778	-0.313	0.121
-627.478	13.541	-0.186	0.147
-626.463	129.603	0.165	-0.215
-625.449	-178.485	-0.075	0.002
-624.434	-200.000	-0.009	-0.106
-623.419	800.000	-0.119	-0.370
-622.405	188.334	-0.057	0.087
-621.390	-152.720	0.123	-0.009
-620.376	800.000	0.042	0.130
-619.361	-144.737	-0.185	0.017
-618.346	800.000	0.033	-0.105
-617.332	525.958	0.047	-0.112
-616.317	37.266	0.175	-0.158
-615.303	58.102	0.188	-0.188
-614.288	-87.120	0.172	-0.053
-613.273	-167.512	-0.378	0.015
-612.259	-5.547	0.154	0.108
-611.244	98.132	-0.116	0.136
-610.230	-136.536	-0.304	-0.036
-609.215	-200.000	-0.069	-0.372
-608.201	546.883	-0.088	0.214
-607.186	-200.000	-0.021	0.390
-606.171	800.000	-0.044	0.138
-605.157	90.555	-0.059	-0.068
-604.142	89.544	0.216	0.246
-603.128	-200.000	-0.058	0.337
-602.113	-5.311	0.078	-0.054
-601.098	-140.673	0.190	-0.020
-600.084	800.000	-0.057	-0.194
-599.069	43.235	-0.086	-0.080
-598.055	-4.199	-0.271	0.191
-597.040	-29.265	-0.129	0.075
-596.025	42.904	0.298	0.277
-595.011	-200.000	0.005	0.059
-593.996	-200.000	0.029	0.325
-592.982	-74.768	0.268	-0.098
-591.967	7.980	-0.146	0.111
-590.952	84.839	0.219	0.244
-589.938	-200.000	0.038	0.339
-588.923	313.788	-0.085	-0.163
-587.909	-13.396	-0.135	-0.089
-586.894	-4.960	-0.231	-0.162
-585.879	-200.000	0.013	-0.421
-584.865	407.710	0.004	-0.009
-583.850	-39.589	0.206	-0.110
-582.836	-42.342	-0.148	-0.077
-581.821	121.597	-0.019	-0.025
-580.806	-116.172	-0.073	0.014
-579.792	-42.908	-0.242	-0.125
-578.777	-200.000	0.008	-0.198
-577.763	139.495	-0.183	-0.246
-576.748	9.117	0.506	0.389
-575.733	-200.000	-0.015	-0.087
-574.719	-62.542	-0.418	-0.177
-573.704	800.000	-0.085	0.239
-572.690	-69.559	-0.131	-0.051
-571.675	-162.092	-0.329	-0.017
-570.661	627.659	-0.098	0.252
-569.646	67.621	-0.090	0.094
-568.631	11.024	0.058	0.045
-567.617	216.992	-0.235	0.380
-566.602	-200.000	-0.005	0.257
-565.588	159.629	0.052	-0.073
-564.573	229.978	-0.079	-0.132
-563.558	800.000	0.076	0.237
-562.544	551.885	-0.051	0.125
-561.529	-153.282	-0.007	0.001
-560.515	35.533	0.313	0.280
-559.500	-98.719	-0.132	0.034
-558.485	484.626	-0.081	0.187
-557.471	30.621	0.104	0.091
-556.456	-141.338	0.099	0.010
-555.442	-200.000	0.021	-0.322
-554.427	-200.000	-0.000	-0.047
-553.412	222.778	-0.175	0.286
-552.398	-30.393	-0.123	0.071
-551.383	-41.491	0.310	0.162
-550.369	373.401	-0.211	0.437
-549.354	-110.077	0.329	-0.070
-548.339	13.138	-0.334	0.263
-547.325	-200.000	-0.011	-0.196
-546.310	140.845	-0.086	0.116
-545.296	-200.000	0.014	0.093
-544.281	256.120	0.113	0.197
-543.266	11.166	0.071	0.055
-542.252	800.000	0.013	0.046
-541.237	-80.406	0.232	-0.079
-540.223	-46.438	-0.243	0.121
-539.208	51.640	0.166	-0.160
-538.193	-27.889	0.079	0.047
-537.179	138.510	-0.213	0.284
-536.164	331.981	-0.051	0.100
-535.150	-91.403	0.283	0.082
-534.135	-200.000	0.018	-0.214
-533.121	-139.962	0.154	0.017
-532.106	-200.000	0.002	0.096
-531.091	178.852	0.138	0.205
-530.077	-139.004	0.266	0.029
-529.062	20.794	-0.309	0.254
-528.048	-181.450	0.119	0.002
-527.033	-118.088	0.275	0.050
-526.018	-200.000	0.038	-0.192
-525.004	-75.639	-0.328	0.118
-523.989	371.872	0.083	0.171
-522.975	11.776	0.307	0.240
-521.960	-11.157	0.130	-0.087
-520.945	69.293	0.072	0.075
-519.931	58.302	0.094	0.093
-518.916	91.270	-0.186	0.212
-517.902	-40.597	-0.218	0.115
-516.887	107.085	-0.163	0.197
-515.872	800.000	0.070	0.251
-514.858	-132.555	-0.345	0.045
-513.843	800.000	-0.068	-0.278
-512.829	174.182	0.027	0.040
-511.814	79.521	0.165	-0.179
-510.799	-192.863	0.524	0.005
-509.785	800.000	0.059	-0.198
-508.770	704.703	-0.160	-0.429
-507.756	-72.248	-0.338	-0.127
-506.741	13.819	-0.261	0.206
-505.726	-111.907	-0.299	0.061
-504.712	24.817	-0.185	-0.156
-503.697	-200.000	0.091	-0.464
-502.683	-93.318	-0.380	-0.107
-501.668	24.276	0.309	-0.259
-500.653	-40.539	0.159	0.084
-499.639	-143.090	0.080	0.008
-498.624	126.612	0.146	-0.187
-497.610	800.000	-0.048	-0.200
-496.595	-80.456	-0.153	0.052
-495.581	233.455	0.109	-0.181
-494.566	52.450	-0.156	-0.151
-493.551	-200.000	-0.037	-0.248
-492.537	495.727	0.154	0.358
-491.522	-200.000	-0.005	0.134
-490.508	-63.708	-0.332	-0.138
-489.493	800.000	0.117	-0.452
-488.478	-200.000	-0.017	-0.123
-487.464	-93.328	0.189	-0.053
-486.449	-93.061	0.051	-0.014
-485.435	51.371	-0.169	0.163
-484.420	-59.823	-0.261	-0.113
-483.405	-200.000	-0.064	-0.316
-482.391	-200.000	0.008	0.189
-481.376	800.000	0.081	-0.261
-480.362	-56.834	-0.175	0.078
-479.347	-200.000	0.042	-0.325
-478.332	276.183	-0.116	-0.209
-477.318	471.523	-0.126	0.287
-476.303	-60.767	0.188	-0.081
-475.289	-124.753	-0.255	-0.040
-474.274	-104.062	-0.198	0.047
-473.259	-160.393	-0.383	-0.021
-472.245	247.325	-0.102	-0.175
-471.230	-61.562	-0.322	0.137
-470.216	364.100	0.053	-0.108
-469.201	261.938	-0.114	0.200
-468.186	-102.559	0.175	0.042
-467.172	72.289	-0.167	0.177
-466.157	96.207	-0.233	-0.270
-465.143	321.723	-0.192	0.370
-464.128	-200.000	-0.011	0.444
-463.113	-64.755	-0.293	0.120
-462.099	17.558	-0.081	0.065
-461.084	-200.000	0.010	-0.179
-460.070	-76.837	0.212	0.075
-459.055	174.812	0.077	0.112
-458.040	-200.000	-0.009	-0.400
-457.026	-200.000	0.061	-0.411
-456.011	65.439	0.168	0.172
-454.997	335.046	-0.111	0.217
-453.982	-200.000	-0.016	-0.095
-452.968	154.050	0.160	0.222
-451.953	65.668	-0.141	-0.145
-450.938	800.000	-0.042	0.146
-449.924	278.766	-0.009	0.017
-448.909	376.960	-0.158	0.327
-447.895	-43.207	-0.164	-0.084
-446.880	75.214	0.173	0.185
-445.865	216.691	-0.154	-0.248
-444.851	-169.725	-0.376	0.014
-443.836	353.594	-0.122	-0.245
-442.822	190.576	0.223	0.340
-441.807	25.062	-0.125	-0.105
-440.792	-173.236	-0.211	0.007
-439.778	-60.964	-0.195	0.083
-438.763	-122.016	0.259	0.043
-437.749	-200.000	0.038	-0.199
-436.734	333.712	0.121	-0.237
-435.719	-112.404	-0.535	-0.108
-434.705	800.000	-0.010	-0.036
-433.690	-70.536	-0.199	0.076
-432.676	570.841	-0.049	-0.121
-431.661	-38.867	-0.238	0.127
-430.646	-200.000	0.022	0.110
-429.632	686.166	-0.092	0.244
-428.617	-70.773	0.111	-0.043
-427.603	-65.971	-0.141	-0.057
-426.588	-120.617	0.417	0.072
-425.573	-65.604	0.384	-0.156
-424.559	135.377	-0.108	0.143
-423.544	-23.857	0.273	-0.165
-422.530	-200.000	-0.024	-0.139
-421.515	-128.258	0.215	0.031
-420.500	-166.528	0.116	0.005
-419.486	-200.000	0.017	0.180
-418.471	-200.000	0.004	-0.140
-417.457	-175.142	-0.261	-0.007
-416.442	-47.489	0.137	-0.068
-415.428	329.264	0.143	-0.279
-414.413	-101.707	-0.305	0.075
-413.398	-125.267	0.334	0.052
-412.384	-200.000	-0.007	0.056
-411.369	-132.486	0.245	-0.032
-410.355	249.108	-0.085	-0.146
-409.340	-91.217	0.336	-0.097
-408.325	250.867	0.170	0.292
-407.311	-200.000	-0.038	0.200
-406.296	-147.343	-0.368	-0.032
-405.282	-26.840	0.152	-0.090
-404.267	21.586	0.231	-0.190
-403.252	-200.000	0.093	-0.000
-402.238	-76.433	-0.100	0.036
-401.223	-109.863	0.429	0.091
-400.209	800.000	0.052	0.149
-399.194	81.392	-0.157	0.171
-398.179	-200.000	-0.019	0.114
-397.165	-78.707	0.146	0.050
-396.150	-130.040	0.087	-0.012
-395.136	-200.000	-0.030	0.324
-394.121	285.457	0.081	0.147
-393.106	-200.000	0.020	-0.155
-392.092	579.041	-0.077	-0.190
-391.077	-42.668	0.188	0.097
-390.063	-104.348	-0.145	0.034
-389.048	199.487	-0.082	0.127
-388.033	-14.463	-0.240	-0.156
-387.019	82.629	-0.188	0.207
-386.004	38.089	-0.237	-0.213
-384.990	228.167	-0.073	-0.121
-383.975	-200.000	-0.042	-0.204
-382.960	-200.000	0.014	-0.108
-381.946	-200.000	0.000	-0.052
-380.931	137.242	0.096	-0.127
-379.917	-200.000	0.025	0.311
-378.902	93.695	-0.182	-0.208
-377.888	-200.000	-0.000	0.109
-376.873	479.162	0.133	-0.305
-375.858	508.485	-0.036	-0.083
-374.844	-161.145	0.204	0.011
-373.829	-103.245	0.221	-0.053
-372.815	-200.000	0.016	-0.216
-371.800	155.767	0.316	0.440
-370.785	-157.608	0.247	-0.015
-369.771	-155.083	0.094	-0.006
-368.756	-81.502	0.329	-0.109
-367.742	-87.411	-0.311	-0.095
-366.727	747.735	-0.021	0.057
-365.712	417.268	-0.060	0.128
-364.698	-29.201	0.190	-0.110
-363.683	110.492	-0.036	-0.044
-362.669	-9.440	0.251	-0.169
-361.654	-95.254	0.251	0.068
-360.639	-86.675	-0.034	0.010
-359.625	-41.204	-0.198	-0.103
-358.610	-157.055	-0.025	-0.002
-357.596	-200.000	0.013	-0.180
-356.581	-162.699	0.268	0.013
-355.566	30.550	-0.141	0.122
-354.552	-68.460	0.199	0.078
-353.537	99.713	-0.158	0.185
-352.523	-134.904	0.304	-0.037
-351.508	800.000	-0.092	-0.376
-350.493	567.162	-0.066	-0.162
-349.479	-124.904	0.085	-0.013
-348.464	75.534	-0.146	0.155
-347.450	-146.427	0.210	0.019
-346.435	288.495	-0.137	0.251
-345.420	-200.000	-0.065	0.293
-344.406	-72.557	-0.199	-0.074
-343.391	-29.887	-0.149	0.085
-342.377	332.153	-0.149	0.291
-341.362	-50.805	0.309	0.147
-340.348	-163.049	0.175	-0.009
-339.333	-200.000	0.063	-0.344
-338.318	-26.311	-0.159	-0.094
-337.304	800.000	0.058	0.167
-336.289	-200.000	0.015	-0.091
-335.275	-200.000	-0.085	-0.436
-334.260	2.907	0.160	-0.117
-333.245	97.725	-0.057	-0.066
-332.231	-51.453	-0.114	0.054
-331.216	217.198	0.065	0.104
-330.202	-66.153	-0.253	-0.102
-329.187	-85.743	0.172	0.054
-328.172	800.000	-0.081	-0.332
-327.158	73.658	0.104	0.110
-326.143	-64.149	0.318	0.131
-325.129	181.118	-0.036	0.053
-324.114	-130.814	-0.259	0.035
-323.099	220.918	-0.147	-0.237
-322.085	800.000	-0.025	-0.095
-321.070	-200.000	0.028	-0.271
-320.056	800.000	-0.032	-0.140
-319.041	-21.675	-0.079	0.048
-318.026	-200.000	-0.001	0.158
-317.012	-33.868	0.218	0.121
-315.997	-140.262	0.202	0.021
-314.983	-116.917	0.527	0.097
-313.968	800.000	0.114	-0.399
-312.953	-3.736	0.107	0.075
-311.939	7.960	-0.277	0.209
-310.924	-150.089	0.301	-0.024
-309.910	-200.000	0.002	0.216
-308.895	93.860	-0.139	0.159
-307.880	-86.975	-0.202	-0.062
-306.866	135.890	0.071	-0.094
-305.851	536.786	-0.125	-0.300
-304.837	-94.514	-0.346	0.095
-303.822	69.404	-0.347	0.360
-302.807	-200.000	-0.021	0.260
-301.793	-62.597	-0.151	0.063
-300.778	33.164	0.120	0.105
-299.764	107.501	0.132	0.158
-298.749	83.096	-0.293	-0.321
-297.735	-200.000	0.030	-0.190
-296.720	-45.233	0.175	0.088
-295.705	-61.640	-0.357	0.151
-294.691	80.081	0.196	0.212
-293.676	-100.335	0.387	-0.097
-292.662	320.779	-0.105	0.200
-291.647	-41.175	0.027	-0.014
-290.632	78.995	0.355	-0.382
-289.618	14.172	-0.027	0.021
-288.603	-65.534	0.235	0.095
-287.589	49.325	-0.317	0.300
-286.574	120.528	-0.086	-0.108
-285.559	-161.172	0.140	0.007
-284.545	-38.094	-0.183	-0.098
-283.530	611.351	-0.038	0.096
-282.516	418.408	0.139	0.298
-281.501	228.157	0.167	0.273
-280.486	-126.954	-0.066	0.010
-279.472	-155.901	0.203	0.013
-278.457	89.077	0.117	0.132
-277.443	-113.983	-0.463	0.090
-276.428	-52.660	-0.343	-0.159
-275.413	-12.688	0.038	-0.025
-274.399	-200.000	0.028	-0.142
-273.384	104.588	0.088	-0.104
-272.370	-114.312	0.134	0.026
-271.355	-120.157	-0.042	0.007
-270.340	-200.000	-0.024	0.124
-269.326	12.295	-0.332	0.257
-268.311	800.000	0.069	-0.224
-267.297	146.293	0.180	-0.243
-266.282	-200.000	-0.042	-0.400
-265.267	-200.000	0.008	-0.122
-264.253	131.004	-0.235	-0.303
-263.238	20.848	-0.031	0.025
-262.224	-89.999	0.143	0.042
-261.209	-10.847	0.116	-0.077
-260.195	-94.631	-0.217	-0.059
-259.180	20.266	0.077	0.062
-258.165	-39.117	-0.296	-0.156
-257.151	800.000	-0.168	-0.579
-256.136	45.255	-0.215	-0.199
-255.122	-200.000	0.007	0.426
-254.107	159.717	0.095	0.133
-253.092	-3.909	0.247	0.173
-252.078	-158.525	-0.242	0.014
-251.063	800.000	-0.077	0.303
-250.049	-49.245	0.158	-0.076
-249.034	-3.982	-0.074	-0.052
-248.019	-2.920	-0.284	0.200
-247.005	-0.928	0.141	0.101
-245.990	654.072	-0.092	-0.238
-244.976	125.011	-0.146	0.185
-243.961	800.000	0.044	-0.159
-242.946	137.439	0.074	-0.097
-241.932	64.598	0.107	0.108
-240.917	71.830	0.247	-0.258
-239.903	29.227	0.137	0.117
-238.888	-64.089	-0.407	-0.167
-237.873	155.523	0.129	0.179
-236.859	251.737	-0.108	-0.185
-235.844	-17.963	-0.182	-0.115
-234.830	-1.698	0.117	-0.083
-233.815	-3.198	0.327	0.229
-232.800	402.319	-0.058	-0.123
-231.786	208.585	0.228	-0.358
-230.771	548.363	0.067	-0.162
-229.757	-125.734	0.313	0.048
-228.742	21.991	0.129	0.105
-227.727	94.663	-0.195	-0.222
-226.713	686.204	0.069	-0.180
-225.698	-151.339	0.344	0.026
-224.684	-26.846	0.273	0.160
-223.669	-200.000	-0.021	-0.175
-222.655	-102.788	-0.154	-0.037
-221.640	-41.686	-0.148	0.076
-220.625	-55.336	-0.061	-0.027
-219.611	-160.715	0.197	0.011
-218.596	215.067	-0.263	0.418
-217.582	800.000	0.087	0.313
-216.567	-84.892	0.297	0.094
-215.552	-97.191	0.257	0.067
-214.538	-128.839	-0.122	-0.017
-213.523	38.318	-0.149	0.133
-212.509	-56.487	0.233	0.104
-211.494	48.419	0.206	0.193
-210.479	-200.000	0.088	0.737
-209.465	-176.802	-0.361	-0.009
-208.450	-149.300	0.221	-0.018
-207.436	-62.602	0.133	0.055
-206.421	800.000	0.039	0.130
-205.406	-23.115	0.260	0.157
-204.392	-200.000	0.021	-0.172
-203.377	800.000	-0.130	-0.383
-202.363	254.286	-0.145	-0.249
-201.348	-72.663	0.095	-0.035
-200.333	-71.727	0.039	-0.015
-199.319	164.041	0.083	-0.118
-198.304	67.747	0.104	-0.107
-197.290	-100.341	0.040	-0.010
-196.275	-145.164	0.116	-0.011
-195.260	-200.000	-0.017	0.238
-194.246	154.367	-0.210	0.289
-193.231	390.982	-0.023	-0.049
-192.217	662.693	-0.005	0.012
-191.202	90.554	0.296	-0.332
-190.187	566.324	-0.105	-0.255
-189.173	61.175	0.092	0.091
-188.158	463.900	0.151	-0.339
-187.144	12.986	0.282	0.219
-186.129	-111.611	0.233	0.048
-185.114	-122.343	0.170	-0.028
-184.100	-200.000	-0.025	-0.378
-183.085	113.705	-0.212	-0.259
-182.071	-43.151	0.258	0.131
-181.056	106.677	0.245	-0.292
-180.042	800.000	0.061	-0.225
-179.027	-130.055	-0.242	-0.033
-178.012	-200.000	0.012	0.152
-176.998	-200.000	-0.046	-0.236
-175.983	-200.000	-0.000	-0.073
-174.969	800.000	-0.112	0.325
-173.954	64.925	-0.175	-0.177
-172.939	-200.000	0.031	-0.141
-171.925	-200.000	0.053	0.240
-170.910	-48.764	-0.030	0.014
-169.896	-78.427	-0.240	-0.082
-168.881	800.000	-0.055	0.166
-167.866	-54.409	0.213	-0.097
-166.852	-16.433	-0.101	-0.064
-165.837	-159.964	-0.131	-0.007
-164.823	-200.000	0.098	-0.653
-163.808	-74.902	0.185	0.066
-162.793	254.605	0.168	0.288
-161.779	365.542	0.050	0.102
-160.764	-199.407	-0.309	0.002
-159.750	58.321	-0.106	0.104
-158.735	27.170	0.243	0.204
-157.720	67.521	0.228	0.233
-156.706	-200.000	0.012	-0.287
-155.691	261.339	0.089	-0.155
-154.677	278.546	0.165	0.294
-153.662	-147.483	-0.213	-0.018
-152.647	-200.000	0.011	-0.172
-151.633	-39.220	-0.175	-0.092
-150.618	-17.791	0.335	0.210
-149.604	9.079	0.315	0.238
-148.589	-192.796	0.421	0.004
-147.574	56.878	-0.089	0.086
-146.560	800.000	0.126	0.358
-145.545	-200.000	0.052	-0.269
-144.531	131.171	0.018	0.024
-143.516	-149.581	0.136	0.011
-142.502	64.923	0.340	0.344
-141.487	-89.454	-0.441	-0.130
-140.472	755.927	-0.159	-0.431
-139.458	-84.912	-0.129	-0.041
-138.443	-200.000	0.045	0.382
-137.429	537.543	0.046	0.108
-136.414	800.000	-0.093	-0.401
-135.399	-173.732	-0.301	0.009
-134.385	24.947	-0.160	-0.133
-133.370	-114.793	0.220	0.042
-132.356	-131.166	0.095	0.013
-131.341	124.415	0.213	-0.268
-130.326	800.000	0.086	-0.260
-129.312	-200.000	-0.013	-0.076
-128.297	-66.455	0.188	-0.075
-127.283	109.857	0.067	0.080
-126.268	800.000	0.022	-0.070
-125.253	-73.200	0.187	0.068
-124.239	-70.246	-0.097	-0.037
-123.224	230.774	0.214	-0.351
-122.210	-3.172	-0.123	0.086
-121.195	-14.381	0.154	0.099
