DTS Sentinel unit serial number:	SN413079Multiplexer serial number:	ORYXHardware model number:	OX4-SRSoftware version number:	ORYX F/W v4.00 Oryx Data Collector v3.7.2.0data status	okinstallation	princeton_trtdifferential loss correction	single-endedforward channel	channel 4reverse channel	N/Adate	2019/09/18time	17:37:34forward acquisition time	60.00reverse acquisition time	0.00gamma	496.2192k internal	0.2287k external	0.2287temperature offset calibration	1.0011default loss term (dB/km)	0.3790temperature slope calibration	1.0000multiplexer offset coefficient	1.0000multiplexer slope coefficient	1.0000fibre end	0.00T internal ref (°C)	40.25T ext. ref 1 (°C)	0.90T ext. ref 2 (°C)	35.33length (m)	temperature (°C)	Stokes	anti-Stokes-747.200	445.009	0.053	-0.120
-746.185	744.557	-0.051	0.142
-745.171	73.764	0.107	-0.115
-744.156	5.478	0.185	0.140
-743.142	-91.716	-0.362	-0.106
-742.127	-40.830	-0.280	0.149
-741.112	-158.147	0.210	-0.013
-740.098	-129.590	0.194	0.028
-739.083	342.118	0.095	-0.191
-738.069	-200.000	-0.031	0.249
-737.054	-108.834	-0.176	0.039
-736.039	-101.848	-0.193	-0.048
-735.025	-200.000	0.015	0.206
-734.010	800.000	-0.066	0.277
-732.996	-111.007	0.208	0.044
-731.981	-200.000	0.202	-0.000
-730.966	142.680	0.114	0.155
-729.952	-115.106	-0.561	0.109
-728.937	-104.859	-0.086	0.020
-727.923	-105.859	0.153	-0.035
-726.908	173.870	-0.037	0.055
-725.894	-147.543	-0.087	0.008
-724.879	135.244	0.170	-0.226
-723.864	-3.868	0.068	0.048
-722.850	-143.918	0.204	0.020
-721.835	10.763	-0.337	0.264
-720.821	-141.383	0.095	0.010
-719.806	311.587	-0.075	0.144
-718.791	-107.805	0.118	-0.026
-717.777	283.017	0.105	0.194
-716.762	-190.992	-0.182	-0.002
-715.748	-200.000	0.075	0.385
-714.733	65.937	0.325	-0.338
-713.718	174.526	-0.061	-0.091
-712.704	-79.530	-0.137	-0.047
-711.689	167.651	-0.038	-0.055
-710.675	95.109	0.130	-0.152
-709.660	-77.947	-0.227	0.080
-708.645	34.504	-0.296	-0.265
-707.631	-187.277	0.110	-0.002
-706.616	20.012	0.247	0.204
-705.602	10.539	-0.339	0.264
-704.587	288.035	0.119	0.220
-703.572	150.255	-0.078	0.109
-702.558	-81.714	-0.143	0.048
-701.543	-200.000	0.000	-0.163
-700.529	46.982	0.181	-0.173
-699.514	-90.776	-0.112	0.033
-698.499	288.521	0.086	0.159
-697.485	-20.810	-0.309	-0.194
-696.470	423.095	0.054	0.119
-695.456	-48.110	-0.475	0.235
-694.441	-44.076	-0.166	0.085
-693.426	-27.953	0.157	0.093
-692.412	-200.000	-0.080	-0.363
-691.397	69.241	-0.045	0.048
-690.383	-147.615	0.136	-0.012
-689.368	-6.609	-0.145	-0.101
-688.354	387.409	0.051	0.107
-687.339	-125.638	0.046	-0.007
-686.324	-72.290	0.235	-0.089
-685.310	800.000	0.053	0.176
-684.295	-153.011	-0.360	-0.026
-683.281	-51.973	-0.219	0.104
-682.266	88.555	0.208	0.236
-681.251	282.129	0.088	0.161
-680.237	32.790	0.248	-0.219
-679.222	-164.428	0.237	0.011
-678.208	123.551	0.134	-0.172
-677.193	13.519	-0.255	-0.202
-676.178	-161.534	-0.043	-0.002
-675.164	-141.008	0.298	0.031
-674.149	96.236	-0.107	-0.126
-673.135	-200.000	-0.026	0.173
-672.120	-200.000	0.016	0.317
-671.105	-66.376	0.206	-0.084
-670.091	-101.938	0.261	-0.064
-669.076	-200.000	-0.038	-0.326
-668.062	-200.000	0.001	-0.090
-667.047	200.270	0.097	0.152
-666.032	-200.000	0.033	0.152
-665.018	134.646	-0.058	-0.077
-664.003	-200.000	0.002	-0.221
-662.989	800.000	0.029	0.121
-661.974	-13.991	0.138	-0.091
-660.959	-8.324	-0.140	0.096
-659.945	-17.781	-0.219	0.140
-658.930	-200.000	0.005	-0.033
-657.916	358.973	0.058	-0.118
-656.901	17.824	-0.181	0.147
-655.886	-200.000	0.057	0.273
-654.872	-83.115	0.195	-0.064
-653.857	-200.000	0.027	0.233
-652.843	217.728	-0.104	-0.169
-651.828	-200.000	0.036	0.205
-650.814	-200.000	-0.058	-0.407
-649.799	-101.613	0.066	-0.016
-648.784	97.153	-0.249	0.292
-647.770	-105.533	-0.319	-0.074
-646.755	-200.000	-0.005	-0.255
-645.741	-14.772	-0.260	-0.170
-644.726	-200.000	-0.006	0.050
-643.711	-41.501	0.090	0.047
-642.697	-69.350	0.088	0.034
-641.682	107.977	0.171	-0.208
-640.668	-10.640	-0.259	-0.175
-639.653	343.476	0.246	0.492
-638.638	-41.020	-0.099	-0.052
-637.624	34.659	0.316	-0.282
-636.609	573.476	-0.065	-0.163
-635.595	70.739	0.165	-0.174
-634.580	-200.000	0.017	-0.178
-633.565	-19.326	0.337	0.214
-632.551	730.918	-0.033	0.090
-631.536	-29.973	0.170	0.099
-630.522	-200.000	0.007	0.077
-629.507	-200.000	0.064	-0.329
-628.492	-144.593	-0.113	0.011
-627.478	-200.000	0.012	-0.274
-626.463	14.885	-0.295	0.235
-625.449	-81.100	0.167	-0.056
-624.434	-150.010	0.138	-0.011
-623.419	-61.829	-0.089	-0.038
-622.405	-146.424	0.242	-0.022
-621.390	-200.000	0.070	0.497
-620.376	-68.847	-0.111	-0.044
-619.361	-103.182	-0.089	-0.022
-618.346	6.916	0.167	0.127
-617.332	346.796	-0.080	-0.160
-616.317	211.095	0.171	0.274
-615.303	-153.013	-0.429	0.031
-614.288	-42.739	0.251	0.130
-613.273	-121.930	-0.080	-0.013
-612.259	-109.770	0.101	0.022
-611.244	-98.858	0.126	0.033
-610.230	-200.000	-0.004	-0.165
-609.215	-97.270	0.126	0.034
-608.201	-115.517	0.154	0.030
-607.186	238.078	0.067	0.113
-606.171	-151.717	0.283	-0.021
-605.157	18.514	-0.218	0.178
-604.142	217.037	0.066	-0.107
-603.128	-157.087	-0.419	0.026
-602.113	135.450	0.221	-0.294
-601.098	-100.420	-0.185	0.047
-600.084	-162.491	0.266	0.013
-599.069	-200.000	-0.019	0.213
-598.055	223.613	0.054	-0.088
-597.040	282.443	0.147	-0.269
-596.025	367.206	0.137	0.281
-595.011	-48.978	0.171	0.084
-593.996	-200.000	-0.006	-0.298
-592.982	-17.173	-0.121	-0.078
-591.967	-5.017	-0.270	-0.189
-590.952	800.000	0.070	-0.259
-589.938	566.652	0.114	-0.283
-588.923	-82.574	0.384	0.127
-587.909	-152.766	-0.484	0.035
-586.894	-111.815	0.269	-0.055
-585.879	21.487	0.290	-0.241
-584.865	-120.832	-0.117	-0.020
-583.850	-200.000	-0.005	0.338
-582.836	266.843	0.104	-0.185
-581.821	-31.929	0.151	0.086
-580.806	800.000	0.073	0.277
-579.792	-179.561	0.422	-0.009
-578.777	-52.136	0.240	0.113
-577.763	-200.000	0.022	0.144
-576.748	66.443	-0.174	-0.180
-575.733	-87.636	0.293	0.090
-574.719	337.570	-0.068	0.134
-573.704	72.784	-0.027	-0.029
-572.690	19.592	-0.125	0.103
-571.675	-200.000	0.324	-0.001
-570.661	-200.000	-0.049	-0.367
-569.646	-55.230	0.075	-0.034
-568.631	-90.785	-0.122	-0.036
-567.617	-130.357	0.210	0.029
-566.602	264.968	0.061	-0.108
-565.588	69.851	-0.221	0.232
-564.573	-58.002	-0.126	-0.056
-563.558	107.776	0.123	0.149
-562.544	-2.285	-0.223	0.159
-561.529	68.917	-0.187	0.196
-560.515	78.097	-0.210	0.229
-559.500	197.508	0.137	-0.212
-558.485	471.237	-0.030	-0.068
-557.471	-64.759	0.059	0.024
-556.456	-147.368	0.220	0.019
-555.442	-200.000	0.041	0.311
-554.427	113.400	-0.325	-0.402
-553.412	-163.896	-0.142	0.007
-552.398	-111.485	0.144	-0.030
-551.383	94.068	0.158	0.183
-550.369	183.795	-0.118	0.178
-549.354	-132.519	0.142	-0.019
-548.339	800.000	0.058	0.232
-547.325	-200.000	0.006	-0.077
-546.310	-22.258	-0.139	-0.086
-545.296	124.413	0.144	0.184
-544.281	74.677	-0.123	-0.132
-543.266	84.500	-0.162	-0.180
-542.252	47.247	-0.175	-0.166
-541.237	-73.585	0.199	-0.074
-540.223	-200.000	0.049	-0.413
-539.208	228.925	-0.140	0.233
-538.193	107.399	-0.105	0.127
-537.179	800.000	-0.076	-0.263
-536.164	-137.867	0.384	0.044
-535.150	664.979	-0.112	-0.293
-534.135	449.373	0.210	-0.470
-533.121	276.761	-0.018	0.033
-532.106	-167.926	-0.222	0.009
-531.091	-200.000	-0.031	-0.250
-530.077	-16.795	-0.255	-0.164
-529.062	52.113	0.114	0.110
-528.048	-131.917	-0.259	-0.034
-527.033	155.786	0.141	0.197
-526.018	-200.000	0.029	-0.257
-525.004	-129.054	-0.062	-0.009
-523.989	-18.477	0.215	0.137
-522.975	-187.575	-0.300	-0.004
-521.960	-167.283	0.437	-0.018
-520.945	41.595	-0.163	-0.150
-519.931	800.000	-0.040	0.166
-518.916	800.000	0.142	0.459
-517.902	93.212	-0.108	-0.124
-516.887	-161.089	-0.249	-0.013
-515.872	-130.317	-0.156	-0.022
-514.858	-187.250	0.057	-0.001
-513.843	-57.837	-0.433	0.192
-512.829	-133.648	0.019	-0.002
-511.814	-109.974	-0.304	-0.065
-510.799	-51.289	-0.134	-0.064
-509.785	800.000	0.081	0.296
-508.770	-200.000	-0.006	-0.059
-507.756	-200.000	-0.072	0.352
-506.741	-193.909	0.424	-0.004
-505.726	663.171	0.059	-0.156
-504.712	-90.963	0.200	0.058
-503.697	-135.905	-0.034	-0.004
-502.683	-200.000	-0.025	-0.276
-501.668	-50.889	-0.335	-0.160
-500.653	-200.000	0.022	-0.277
-499.639	-71.833	0.254	0.096
-498.624	605.519	-0.140	0.353
-497.610	-200.000	-0.027	-0.231
-496.595	17.166	-0.239	0.193
-495.581	50.573	0.132	0.127
-494.566	-173.403	-0.133	0.004
-493.551	-79.230	-0.163	0.056
-492.537	-4.408	0.092	-0.065
-491.522	-200.000	0.008	0.246
-490.508	-6.357	0.164	0.113
-489.493	-84.789	-0.183	-0.058
-488.478	-124.554	-0.357	-0.056
-487.464	-126.673	0.422	0.063
-486.449	179.072	-0.212	-0.315
-485.435	-55.074	0.192	0.088
-484.420	448.054	-0.143	-0.319
-483.405	339.426	-0.109	0.216
-482.391	-200.000	-0.011	0.206
-481.376	800.000	0.018	0.080
-480.362	800.000	0.031	-0.131
-479.347	800.000	0.044	0.153
-478.332	-121.407	-0.255	-0.043
-477.318	120.137	0.127	-0.160
-476.303	449.037	0.036	0.080
-475.289	-200.000	-0.017	-0.221
-474.274	406.628	-0.140	-0.300
-473.259	726.674	0.084	0.226
-472.245	32.101	0.227	0.199
-471.230	-200.000	-0.067	0.406
-470.216	194.261	-0.066	-0.102
-469.201	20.310	-0.120	-0.098
-468.186	-118.362	-0.154	-0.028
-467.172	-76.356	-0.154	-0.055
-466.157	-200.000	-0.003	0.286
-465.143	-53.946	0.199	-0.092
-464.128	134.121	-0.072	-0.095
-463.113	-32.453	0.138	-0.078
-462.099	-48.793	-0.225	0.109
-461.084	-200.000	0.060	-0.358
-460.070	42.427	0.229	-0.211
-459.055	274.764	-0.107	0.192
-458.040	-104.899	-0.236	0.055
-457.026	800.000	0.078	-0.303
-456.011	-116.655	-0.165	-0.031
-454.997	-1.219	-0.271	-0.194
-453.982	-139.287	0.034	0.004
-452.968	69.039	0.174	-0.181
-451.953	-200.000	-0.023	-0.273
-450.938	1.217	0.194	-0.141
-449.924	-169.444	0.095	0.004
-448.909	-200.000	0.024	-0.398
-447.895	71.337	-0.164	-0.173
-446.880	35.029	-0.147	0.131
-445.865	-55.194	0.040	0.018
-444.851	-200.000	0.021	0.140
-443.836	800.000	0.071	-0.216
-442.822	119.781	-0.145	0.182
-441.807	58.311	-0.287	0.285
-440.792	-61.956	-0.029	0.012
-439.778	-90.623	-0.084	0.025
-438.763	593.404	0.140	-0.350
-437.749	46.880	-0.149	-0.140
-436.734	-129.369	0.194	-0.027
-435.719	-61.468	-0.199	0.085
-434.705	132.245	0.140	0.183
-433.690	-94.381	-0.165	-0.046
-432.676	2.043	0.110	-0.080
-431.661	275.062	0.066	-0.118
-430.646	-98.506	-0.165	-0.043
-429.632	113.732	-0.165	-0.203
-428.617	800.000	0.083	-0.243
-427.603	-124.868	0.156	-0.024
-426.588	216.459	0.060	-0.096
-425.573	-163.561	0.027	0.001
-424.559	-45.347	-0.085	-0.043
-423.544	-156.541	-0.165	-0.010
-422.530	204.270	-0.164	0.258
-421.515	-78.491	-0.049	0.017
-420.500	1.430	-0.208	-0.152
-419.486	-200.000	-0.031	-0.227
-418.471	-133.623	-0.192	0.024
-417.457	-200.000	-0.004	0.132
-416.442	-22.950	-0.226	-0.138
-415.428	317.677	0.157	-0.300
-414.413	33.642	-0.097	0.085
-413.398	-140.701	-0.083	0.009
-412.384	15.537	0.181	0.144
-411.369	692.585	0.033	0.088
-410.355	-38.200	0.189	-0.101
-409.340	89.207	-0.060	0.068
-408.325	-200.000	-0.084	0.374
-407.311	238.585	0.050	0.084
-406.296	-200.000	-0.019	0.261
-405.282	-72.658	-0.244	0.091
-404.267	-200.000	-0.022	0.104
-403.252	83.680	0.113	0.125
-402.238	26.306	0.121	0.102
-401.223	800.000	-0.128	0.393
-400.209	148.777	0.100	-0.136
-399.194	7.839	-0.361	-0.274
-398.179	-184.854	-0.324	-0.005
-397.165	10.861	0.241	0.186
-396.150	-140.685	-0.193	-0.020
-395.136	374.235	-0.155	0.319
-394.121	-200.000	0.017	-0.154
-393.106	35.638	-0.108	-0.096
-392.092	-200.000	0.025	0.223
-391.077	-63.493	0.272	0.113
-390.063	378.215	0.244	-0.505
-389.048	-110.153	0.180	0.038
-388.033	124.758	0.141	-0.179
-387.019	23.694	-0.169	-0.141
-386.004	-140.947	0.086	-0.009
-384.990	213.364	0.135	-0.216
-383.975	-60.663	-0.223	-0.096
-382.960	-82.202	-0.320	-0.105
-381.946	165.289	-0.134	-0.191
-380.931	-200.000	-0.028	0.201
-379.917	240.056	-0.132	0.223
-378.902	-200.000	-0.007	0.100
-377.888	-68.464	0.125	-0.049
-376.873	800.000	0.109	-0.316
-375.858	800.000	0.006	0.017
-374.844	-17.870	0.071	0.045
-373.829	709.804	0.188	0.501
-372.815	781.290	-0.024	0.067
-371.800	-4.427	-0.241	-0.168
-370.785	-136.215	-0.150	-0.018
-369.771	-84.099	0.190	0.061
-368.756	39.936	0.226	-0.205
-367.742	800.000	-0.029	0.083
-366.727	800.000	-0.037	-0.125
-365.712	112.183	-0.213	-0.260
-364.698	302.743	-0.120	0.224
-363.683	13.129	0.146	0.114
-362.669	-101.846	0.114	-0.028
-361.654	-27.169	-0.038	-0.023
-360.639	-45.178	-0.176	-0.088
-359.625	-137.245	-0.344	-0.040
-358.610	-38.716	0.193	0.103
-357.596	248.678	-0.190	-0.325
-356.581	-200.000	0.018	-0.098
-355.566	-113.461	-0.068	-0.013
-354.552	141.937	-0.200	-0.267
-353.537	23.446	-0.134	-0.111
-352.523	626.012	0.050	0.127
-351.508	98.510	0.093	0.108
-350.493	238.330	0.145	-0.244
-349.479	-111.590	-0.233	-0.048
-348.464	260.017	-0.160	-0.278
-347.450	208.792	0.189	0.299
-346.435	-88.603	-0.177	-0.053
-345.420	-108.751	-0.170	0.037
-344.406	-200.000	-0.058	0.269
-343.391	-178.164	0.144	-0.003
-342.377	800.000	0.061	-0.248
-341.362	-69.162	-0.113	-0.044
-340.348	-200.000	0.010	-0.106
-339.333	-200.000	-0.020	0.133
-338.318	23.824	-0.118	0.098
-337.304	-180.493	-0.340	0.007
-336.289	-92.905	-0.249	-0.070
-335.275	-148.399	0.159	-0.013
-334.260	241.403	0.209	0.352
-333.245	163.070	0.069	-0.098
-332.231	19.713	-0.115	-0.093
-331.216	147.655	0.045	0.061
-330.202	800.000	-0.068	0.280
-329.187	-111.479	0.048	-0.010
-328.172	-110.726	0.118	0.025
-327.158	-200.000	0.001	0.085
-326.143	-200.000	-0.043	0.380
-325.129	-200.000	-0.042	-0.192
-324.114	172.132	0.100	0.145
-323.099	75.945	0.083	-0.088
-322.085	-200.000	0.000	-0.086
-321.070	-61.652	-0.309	-0.131
-320.056	368.547	-0.041	-0.084
-319.041	-100.602	-0.383	-0.095
-318.026	-89.710	-0.129	0.038
-317.012	382.921	0.095	0.196
-315.997	-78.035	-0.187	-0.065
-314.983	800.000	0.028	0.088
-313.968	-45.065	0.226	-0.113
-312.953	286.822	0.215	0.391
-311.939	-69.467	-0.074	-0.029
-310.924	-54.339	-0.049	-0.022
-309.910	-5.827	0.013	0.009
-308.895	-114.399	0.080	-0.015
-307.880	-200.000	0.027	-0.122
-306.866	800.000	0.073	0.321
-305.851	-200.000	-0.002	0.064
-304.837	-104.868	0.067	-0.015
-303.822	200.732	0.130	0.202
-302.807	124.905	0.054	0.069
-301.793	4.808	0.315	-0.233
-300.778	27.930	0.282	0.240
-299.764	800.000	0.070	-0.201
-298.749	439.574	0.107	-0.236
-297.735	422.102	0.025	0.053
-296.720	800.000	-0.096	0.323
-295.705	-101.747	-0.190	0.046
-294.691	-12.762	0.114	-0.075
-293.676	59.011	0.096	0.095
-292.662	-122.231	0.094	-0.016
-291.647	-74.520	-0.416	0.151
-290.632	-21.393	0.212	-0.130
-289.618	-60.135	0.250	0.107
-288.603	-130.843	0.236	-0.032
-287.589	-81.997	-0.200	-0.066
-286.574	-108.530	-0.241	-0.052
-285.559	-23.042	0.362	0.220
-284.545	-154.270	-0.135	-0.009
-283.530	93.360	-0.128	-0.146
-282.516	227.951	-0.140	0.229
-281.501	800.000	-0.020	0.057
-280.486	-73.759	-0.156	0.057
-279.472	130.377	0.126	-0.162
-278.457	145.542	-0.198	0.267
-277.443	-132.868	-0.109	-0.014
-276.428	-56.856	0.137	0.061
-275.413	-200.000	0.025	-0.148
-274.399	10.125	0.112	-0.085
-273.384	34.695	0.050	-0.044
-272.370	-138.648	-0.331	-0.036
-271.355	-77.635	0.173	-0.060
-270.340	-175.526	-0.261	-0.007
-269.326	344.469	0.102	0.201
-268.311	275.863	0.068	0.121
-267.297	-170.543	-0.092	0.003
-266.282	-154.544	-0.342	-0.023
-265.267	-107.786	0.176	-0.039
-264.253	-85.629	0.264	0.083
-263.238	-200.000	-0.034	-0.260
-262.224	324.318	-0.128	-0.246
-261.209	67.497	0.239	0.245
-260.195	-53.148	-0.170	0.078
-259.180	-1.728	-0.182	-0.129
-258.165	-10.249	0.100	0.067
-257.151	87.135	-0.073	0.081
-256.136	800.000	0.019	-0.064
-255.122	244.791	0.059	0.099
-254.107	118.815	0.101	0.125
-253.092	19.200	0.278	-0.224
-252.078	-200.000	-0.015	-0.321
-251.063	-16.116	-0.191	-0.122
-250.049	-78.387	-0.107	-0.037
-249.034	-163.788	0.074	0.004
-248.019	-200.000	-0.005	-0.042
-247.005	243.618	-0.055	-0.093
-245.990	-200.000	-0.075	-0.387
-244.976	-4.063	0.088	0.062
-243.961	-81.371	0.167	-0.055
-242.946	511.828	0.071	-0.167
-241.932	130.835	0.365	-0.471
-240.917	-200.000	0.049	-0.263
-239.903	194.422	0.190	-0.290
-238.888	12.932	0.177	0.138
-237.873	800.000	0.082	0.288
-236.859	601.025	0.151	0.376
-235.844	29.385	0.091	0.078
-234.830	-26.040	-0.036	-0.021
-233.815	-121.641	-0.366	-0.061
-232.800	404.837	0.055	0.116
-231.786	74.142	0.041	0.043
-230.771	-200.000	-0.008	0.336
-229.757	800.000	-0.042	0.181
-228.742	137.166	-0.076	-0.100
-227.727	533.664	-0.070	-0.166
-226.713	-88.792	0.117	0.035
-225.698	-133.702	0.195	0.024
-224.684	104.444	0.368	0.436
-223.669	160.509	0.073	0.102
-222.655	-18.533	-0.245	0.154
-221.640	-200.000	0.006	-0.055
-220.625	-60.812	-0.527	-0.224
-219.611	754.371	0.153	-0.416
-218.596	800.000	-0.053	0.174
-217.582	82.277	-0.102	-0.111
-216.567	-180.567	-0.191	0.004
-215.552	566.481	0.124	0.303
-214.538	-68.030	0.101	-0.040
-213.523	800.000	0.113	0.401
-212.509	178.992	0.260	0.382
-211.494	-200.000	0.027	0.217
-210.479	800.000	-0.067	-0.267
-209.465	80.100	0.078	0.084
-208.450	800.000	-0.044	-0.124
-207.436	-200.000	0.033	-0.156
-206.421	7.645	-0.294	0.221
-205.406	109.301	0.178	-0.214
-204.392	-99.217	-0.222	-0.056
-203.377	-114.220	0.112	-0.022
-202.363	-22.501	-0.088	-0.054
-201.348	-200.000	0.012	-0.104
-200.333	-89.370	0.163	-0.048
-199.319	122.190	-0.086	-0.107
-198.304	-180.963	0.442	-0.009
-197.290	-200.000	-0.059	-0.263
-196.275	-144.197	0.094	-0.009
-195.260	174.283	-0.107	0.156
-194.246	312.768	-0.021	-0.039
-193.231	697.986	0.023	0.060
-192.217	-147.894	0.067	0.006
-191.202	549.658	-0.068	-0.164
-190.187	-25.530	0.122	-0.072
-189.173	-98.543	0.605	0.155
-188.158	634.025	-0.093	0.238
-187.144	-182.195	0.204	0.004
-186.129	493.820	0.069	0.159
-185.114	183.742	0.104	0.154
-184.100	257.524	0.034	-0.059
-183.085	-200.000	-0.012	0.437
-182.071	7.552	0.169	-0.127
-181.056	-200.000	0.019	0.373
-180.042	330.750	0.038	0.073
-179.027	-29.187	0.163	0.094
-178.012	800.000	-0.022	-0.066
-176.998	-106.466	-0.440	-0.099
-175.983	-136.220	0.043	0.005
-174.969	800.000	0.019	0.069
-173.954	635.351	0.046	-0.116
-172.939	-129.240	-0.038	-0.005
-171.925	-200.000	0.017	0.306
-170.910	-165.949	0.183	0.008
-169.896	360.106	-0.136	0.273
-168.881	-65.834	-0.224	-0.090
-167.866	-200.000	0.029	-0.233
-166.852	-61.372	0.152	0.064
-165.837	-37.377	-0.167	-0.089
-164.823	-136.625	0.116	-0.013
-163.808	133.320	0.104	-0.134
-162.793	23.602	0.075	-0.062
-161.779	14.898	0.082	-0.064
-160.764	9.233	0.231	0.175
-159.750	126.724	0.126	-0.160
-158.735	800.000	-0.110	0.364
-157.720	-200.000	-0.079	0.376
-156.706	-200.000	0.011	0.200
-155.691	13.693	0.023	-0.018
-154.677	800.000	0.070	0.195
-153.662	-150.625	-0.376	-0.029
-152.647	-33.712	0.039	-0.021
-151.633	-184.922	0.147	0.002
-150.618	62.037	-0.221	0.221
-149.604	-200.000	0.017	0.409
-148.589	-33.382	-0.243	-0.135
-147.574	800.000	0.047	-0.187
-146.560	239.554	-0.082	-0.137
-145.545	35.087	0.371	-0.325
-144.531	-181.918	-0.287	0.005
-143.516	-83.956	0.291	-0.093
-142.502	800.000	-0.030	0.083
-141.487	173.754	0.167	0.241
-140.472	-58.971	-0.121	0.052
-139.458	-113.447	0.295	-0.058
-138.443	-43.144	-0.139	-0.070
-137.429	-53.107	-0.259	0.119
-136.414	184.732	0.079	0.117
-135.399	-11.353	0.058	0.038
-134.385	800.000	-0.121	0.361
-133.370	136.600	-0.159	0.208
-132.356	135.841	0.010	0.013
-131.341	66.557	-0.177	-0.180
-130.326	764.286	-0.032	0.088
-129.312	-119.030	-0.070	0.012
-128.297	-199.873	0.144	0.001
-127.283	-37.027	-0.181	-0.097
-126.268	363.327	-0.225	-0.452
-125.253	275.942	0.098	-0.174
-124.239	-56.048	0.288	-0.128
-123.224	-200.000	0.016	0.175
-122.210	-43.077	-0.095	0.048
