DTS Sentinel unit serial number:	SN413079Multiplexer serial number:	ORYXHardware model number:	OX4-SRSoftware version number:	ORYX F/W v4.00 Oryx Data Collector v3.7.2.0data status	okinstallation	princeton_trtdifferential loss correction	single-endedforward channel	channel 4reverse channel	N/Adate	2019/09/13time	07:17:35forward acquisition time	60.00reverse acquisition time	0.00gamma	496.2192k internal	0.2323k external	0.2323temperature offset calibration	1.0197default loss term (dB/km)	0.3790temperature slope calibration	1.0000multiplexer offset coefficient	1.0000multiplexer slope coefficient	1.0000fibre end	0.00T internal ref (°C)	26.06T ext. ref 1 (°C)	4.15T ext. ref 2 (°C)	21.50length (m)	temperature (°C)	Stokes	anti-Stokes-747.200	503.483	0.073	0.171
-746.185	7.879	-0.101	-0.077
-745.171	-200.000	0.023	-0.177
-744.156	-200.000	0.034	0.195
-743.142	26.623	0.183	0.155
-742.127	287.130	0.175	-0.320
-741.112	-15.998	-0.136	-0.087
-740.098	427.423	-0.035	0.076
-739.083	256.371	0.051	-0.088
-738.069	454.573	-0.025	0.056
-737.054	171.055	-0.108	0.157
-736.039	800.000	0.091	0.262
-735.025	113.969	-0.092	0.113
-734.010	54.736	-0.186	-0.182
-732.996	-149.559	-0.234	0.019
-731.981	32.790	-0.364	0.318
-730.966	149.342	0.042	0.058
-729.952	-55.523	0.399	-0.181
-728.937	182.605	-0.193	0.288
-727.923	800.000	-0.004	-0.016
-726.908	-50.254	0.184	0.088
-725.894	800.000	-0.043	-0.131
-724.879	1.015	-0.434	0.314
-723.864	800.000	-0.044	0.137
-722.850	119.584	-0.084	0.105
-721.835	-128.511	-0.163	-0.023
-720.821	192.734	0.073	-0.111
-719.806	-105.176	-0.335	0.077
-718.791	25.333	0.013	0.011
-717.777	-200.000	0.008	0.076
-716.762	-100.997	0.028	0.007
-715.748	110.761	0.164	-0.199
-714.733	-70.607	0.120	0.046
-713.718	-200.000	-0.021	-0.175
-712.704	158.990	0.138	0.194
-711.689	-177.910	-0.241	0.006
-710.675	-23.572	0.100	0.060
-709.660	800.000	0.067	-0.286
-708.645	50.658	0.279	-0.266
-707.631	269.897	-0.032	-0.056
-706.616	-21.766	0.145	0.089
-705.602	-31.419	-0.399	-0.227
-704.587	-81.653	-0.175	0.058
-703.572	-188.076	-0.112	-0.001
-702.558	200.159	-0.189	0.293
-701.543	-69.887	-0.244	0.094
-700.529	-19.536	0.262	0.164
-699.514	-200.000	0.024	0.161
-698.499	800.000	-0.086	-0.363
-697.485	800.000	-0.037	0.150
-696.470	-193.030	0.186	-0.002
-695.456	605.973	-0.073	-0.182
-694.441	-47.629	0.104	-0.051
-693.426	-70.266	-0.417	0.160
-692.412	800.000	0.072	-0.206
-691.397	608.830	0.073	-0.185
-690.383	-30.128	-0.264	0.151
-689.368	-110.974	-0.237	0.049
-688.354	800.000	0.033	-0.145
-687.339	151.029	0.114	0.157
-686.324	-119.240	-0.063	0.011
-685.310	-200.000	0.009	-0.062
-684.295	800.000	-0.061	-0.218
-683.281	-1.759	-0.290	0.205
-682.266	595.790	0.086	0.214
-681.251	-132.381	-0.305	0.040
-680.237	37.196	0.089	0.080
-679.222	-96.095	0.115	-0.031
-678.208	-200.000	-0.011	-0.305
-677.193	-39.691	0.335	-0.176
-676.178	-80.377	-0.203	-0.068
-675.164	800.000	0.034	-0.120
-674.149	585.365	0.132	-0.326
-673.135	56.697	-0.044	-0.043
-672.120	-200.000	-0.028	-0.327
-671.105	104.035	0.169	-0.200
-670.091	800.000	0.051	0.145
-669.076	-14.827	0.173	-0.112
-668.062	-106.153	0.221	0.050
-667.047	-200.000	0.030	-0.219
-666.032	800.000	0.042	-0.149
-665.018	800.000	-0.052	0.168
-664.003	-108.316	0.301	0.065
-662.989	99.867	-0.132	0.154
-661.974	651.353	-0.075	-0.192
-660.959	-26.982	-0.136	-0.080
-659.945	-120.321	-0.552	0.095
-658.930	-105.128	-0.197	-0.045
-657.916	-200.000	0.065	-0.479
-656.901	800.000	0.108	-0.385
-655.886	795.077	0.037	-0.102
-654.872	-200.000	0.075	-0.449
-653.857	-72.983	-0.074	-0.027
-652.843	-200.000	-0.018	-0.093
-651.828	-200.000	0.015	-0.093
-650.814	800.000	-0.084	-0.334
-649.799	462.183	0.120	0.269
-648.784	452.825	0.026	-0.059
-647.770	-154.493	-0.237	0.016
-646.755	-38.589	0.203	0.108
-645.741	639.818	0.011	0.028
-644.726	-74.526	0.045	0.016
-643.711	-200.000	-0.033	0.244
-642.697	-50.473	-0.209	0.099
-641.682	454.183	0.097	0.215
-640.668	-108.892	-0.225	0.048
-639.653	-200.000	0.072	0.376
-638.638	800.000	0.092	-0.319
-637.624	69.833	0.285	0.295
-636.609	120.580	-0.086	-0.108
-635.595	403.012	0.171	-0.362
-634.580	-127.011	-0.134	-0.020
-633.565	27.721	0.224	0.189
-632.551	-94.424	-0.124	-0.034
-631.536	800.000	-0.021	-0.081
-630.522	14.654	0.125	-0.098
-629.507	-27.515	-0.137	0.080
-628.492	-200.000	0.008	0.130
-627.478	20.893	-0.101	0.083
-626.463	34.710	0.228	0.200
-625.449	-11.510	-0.197	0.130
-624.434	-171.024	-0.055	-0.002
-623.419	51.186	-0.172	0.164
-622.405	-64.796	0.193	-0.078
-621.390	346.562	0.178	-0.352
-620.376	-87.122	-0.073	0.022
-619.361	183.696	0.186	-0.276
-618.346	359.508	0.159	0.319
-617.332	-116.392	0.468	0.087
-616.317	-14.516	0.201	-0.130
-615.303	149.613	-0.127	0.173
-614.288	-125.467	-0.077	-0.012
-613.273	-145.731	0.163	-0.015
-612.259	32.416	-0.188	-0.163
-611.244	-94.755	0.261	-0.071
-610.230	194.037	0.046	-0.069
-609.215	-59.275	0.176	-0.076
-608.201	59.237	-0.101	0.100
-607.186	432.432	-0.323	-0.704
-606.171	-97.517	0.192	-0.050
-605.157	800.000	0.036	0.121
-604.142	-5.186	0.343	0.237
-603.128	249.344	-0.208	-0.354
-602.113	11.813	0.120	-0.092
-601.098	160.260	-0.326	0.456
-600.084	-65.498	0.126	-0.051
-599.069	152.370	-0.098	-0.135
-598.055	46.410	0.135	-0.126
-597.040	800.000	-0.019	-0.073
-596.025	270.844	-0.086	-0.152
-595.011	80.935	0.165	-0.179
-593.996	800.000	0.086	-0.297
-592.982	389.851	0.078	-0.163
-591.967	19.273	0.144	-0.116
-590.952	-94.428	0.069	0.019
-589.938	-200.000	-0.027	-0.162
-588.923	234.745	0.098	-0.162
-587.909	-67.248	-0.299	0.118
-586.894	-200.000	0.006	0.116
-585.879	-123.350	-0.172	0.028
-584.865	-200.000	0.046	-0.377
-583.850	800.000	0.060	0.198
-582.836	-133.239	-0.112	0.014
-581.821	-15.579	0.231	-0.148
-580.806	96.444	0.098	0.113
-579.792	143.518	-0.167	0.224
-578.777	-46.358	-0.222	0.109
-577.763	-129.183	-0.344	0.048
-576.748	82.759	0.292	0.319
-575.733	337.788	-0.037	0.071
-574.719	394.889	0.153	0.320
-573.704	800.000	0.049	0.176
-572.690	-77.175	-0.292	0.102
-571.675	317.909	0.135	0.256
-570.661	800.000	-0.122	-0.376
-569.646	800.000	0.060	-0.212
-568.631	800.000	-0.055	0.215
-567.617	-45.587	-0.215	0.107
-566.602	-147.265	0.106	0.009
-565.588	-93.853	-0.232	-0.064
-564.573	25.238	-0.404	-0.337
-563.558	-35.971	0.332	0.180
-562.544	-10.711	-0.299	-0.198
-561.529	800.000	0.036	-0.113
-560.515	104.955	0.042	0.050
-559.500	179.358	0.104	-0.152
-558.485	800.000	-0.059	-0.217
-557.471	20.877	0.167	-0.136
-556.456	-200.000	-0.003	0.185
-555.442	-75.913	-0.216	0.077
-554.427	73.002	-0.041	-0.043
-553.412	182.980	0.024	-0.036
-552.398	-20.376	0.252	-0.156
-551.383	64.889	-0.058	0.058
-550.369	-106.792	0.233	0.052
-549.354	551.138	0.030	-0.072
-548.339	-25.677	0.165	0.097
-547.325	131.392	-0.157	-0.202
-546.310	-86.708	0.159	-0.049
-545.296	800.000	0.094	-0.359
-544.281	204.394	0.264	-0.410
-543.266	458.133	-0.139	-0.310
-542.252	222.815	-0.113	-0.182
-541.237	287.532	-0.245	0.444
-540.223	-114.054	0.085	0.017
-539.208	800.000	0.076	0.331
-538.193	-200.000	-0.008	0.138
-537.179	33.919	-0.093	-0.081
-536.164	-200.000	0.001	0.122
-535.150	494.688	0.035	0.081
-534.135	217.886	-0.122	-0.195
-533.121	-73.060	-0.270	-0.099
-532.106	-121.697	-0.438	-0.073
-531.091	155.834	-0.019	-0.026
-530.077	-148.848	0.337	-0.027
-529.062	-108.901	0.132	0.028
-528.048	-182.583	-0.278	-0.005
-527.033	485.702	-0.121	0.276
-526.018	112.932	-0.088	-0.106
-525.004	800.000	-0.054	0.200
-523.989	407.906	0.051	0.108
-522.975	53.561	0.008	0.008
-521.960	-200.000	-0.039	-0.197
-520.945	-61.064	0.214	0.090
-519.931	-61.193	0.199	-0.084
-518.916	-200.000	0.021	-0.183
-517.902	-127.468	-0.176	-0.026
-516.887	48.947	0.171	-0.161
-515.872	-69.893	0.063	-0.024
-514.858	123.684	-0.224	0.281
-513.843	-24.171	-0.208	-0.124
-512.829	38.347	0.221	-0.197
-511.814	-85.451	-0.276	-0.086
-510.799	-48.584	0.173	0.083
-509.785	-77.808	-0.314	-0.108
-508.770	247.582	-0.077	0.131
-507.756	-200.000	-0.012	-0.095
-506.741	-142.335	0.243	-0.024
-505.726	86.826	0.007	0.008
-504.712	-68.076	-0.320	-0.125
-503.697	84.991	-0.074	-0.081
-502.683	-200.000	-0.056	-0.318
-501.668	-102.914	0.187	-0.045
-500.653	-61.242	-0.058	0.024
-499.639	-54.280	-0.279	0.127
-498.624	-71.654	-0.092	-0.034
-497.610	-200.000	0.004	-0.130
-496.595	-103.486	0.107	0.025
-495.581	-33.502	-0.005	-0.003
-494.566	-138.723	-0.277	-0.030
-493.551	-187.303	-0.315	0.004
-492.537	-27.680	0.213	0.124
-491.522	-45.890	-0.252	0.124
-490.508	-45.715	-0.108	0.053
-489.493	-162.471	-0.158	0.008
-488.478	-36.434	-0.227	-0.122
-487.464	800.000	0.136	-0.400
-486.449	800.000	0.040	0.157
-485.435	66.604	0.062	0.063
-484.420	19.906	-0.125	0.100
-483.405	217.840	-0.093	-0.148
-482.391	103.119	0.062	-0.072
-481.376	431.061	0.153	0.332
-480.362	186.037	-0.056	-0.083
-479.347	54.592	-0.134	-0.129
-478.332	-145.389	0.224	0.020
-477.318	346.950	-0.090	0.177
-476.303	794.834	0.116	-0.319
-475.289	301.962	-0.100	0.185
-474.274	-43.273	-0.155	0.079
-473.259	20.798	0.166	0.134
-472.245	-103.384	-0.272	0.064
-471.230	120.676	-0.161	-0.200
-470.216	-200.000	0.038	-0.481
-469.201	-165.092	0.183	0.008
-468.186	-12.492	0.396	0.259
-467.172	800.000	0.086	-0.238
-466.157	-200.000	0.037	0.411
-465.143	193.877	0.219	-0.332
-464.128	-53.151	0.494	-0.227
-463.113	127.131	0.103	0.131
-462.099	47.189	0.086	-0.080
-461.084	-125.538	-0.204	0.031
-460.070	16.758	0.310	0.245
-459.055	-143.934	0.161	-0.015
-458.040	-200.000	-0.043	-0.189
-457.026	498.488	0.018	-0.042
-456.011	-200.000	0.038	-0.208
-454.997	-7.228	-0.083	-0.056
-453.982	-22.645	0.040	-0.024
-452.968	-56.528	-0.072	-0.032
-451.953	-91.436	-0.376	-0.107
-450.938	-41.930	-0.591	0.302
-449.924	-97.174	-0.173	-0.045
-448.909	-200.000	-0.014	0.209
-447.895	-11.784	0.417	0.273
-446.880	10.814	0.031	-0.023
-445.865	-138.757	-0.260	-0.028
-444.851	-200.000	0.029	-0.216
-443.836	-40.713	-0.155	-0.080
-442.822	58.424	0.181	-0.177
-441.807	-53.848	0.114	-0.052
-440.792	745.375	0.068	0.184
-439.778	-88.908	-0.429	-0.127
-438.763	-88.355	0.209	0.062
-437.749	61.151	-0.138	0.137
-436.734	-108.233	-0.392	0.085
-435.719	-46.714	0.279	-0.136
-434.705	-200.000	0.000	0.226
-433.690	-193.939	0.246	-0.002
-432.676	-14.316	0.290	-0.187
-431.661	170.080	-0.135	0.193
-430.646	17.404	0.279	0.221
-429.632	800.000	0.032	-0.090
-428.617	53.071	0.123	-0.118
-427.603	-200.000	0.010	0.104
-426.588	160.561	0.106	-0.148
-425.573	49.869	-0.149	-0.140
-424.559	434.709	-0.172	0.372
-423.544	777.401	0.152	0.414
-422.530	181.545	-0.046	0.068
-421.515	-122.023	0.105	0.017
-420.500	-152.417	-0.110	-0.008
-419.486	800.000	0.098	-0.273
-418.471	-9.353	-0.260	-0.173
-417.457	-200.000	0.010	-0.136
-416.442	105.225	0.129	0.152
-415.428	-200.000	-0.089	0.394
-414.413	-200.000	-0.030	0.183
-413.398	-87.102	-0.178	0.054
-412.384	155.465	-0.020	-0.027
-411.369	-81.667	-0.056	0.018
-410.355	527.514	0.201	0.471
-409.340	112.731	-0.039	0.047
-408.325	230.325	-0.238	-0.388
-407.311	800.000	0.027	0.105
-406.296	-60.964	0.232	0.098
-405.282	-98.597	-0.289	-0.074
-404.267	-161.095	-0.295	0.015
-403.252	-143.406	-0.294	-0.028
-402.238	230.093	0.108	0.176
-401.223	22.549	0.156	-0.127
-400.209	-97.292	-0.390	-0.101
-399.194	228.070	-0.151	-0.245
-398.179	-144.155	0.237	0.022
-397.165	37.773	-0.334	-0.295
-396.150	303.503	0.162	-0.300
-395.136	69.967	-0.246	-0.253
-394.121	95.887	-0.086	-0.098
-393.106	-200.000	0.023	0.198
-392.092	-122.614	0.235	0.038
-391.077	-200.000	-0.021	-0.299
-390.063	-200.000	0.011	0.179
-389.048	-200.000	0.067	0.385
-388.033	-85.831	0.395	0.122
-387.019	-42.962	-0.355	0.179
-386.004	4.111	0.169	-0.123
-384.990	-200.000	0.121	0.000
-383.975	762.482	0.101	0.273
-382.960	597.280	-0.067	-0.165
-381.946	-42.445	0.333	-0.169
-380.931	-200.000	0.009	0.191
-379.917	-76.516	-0.168	0.059
-378.902	-100.885	-0.131	-0.032
-377.888	34.210	0.166	0.144
-376.873	277.074	-0.106	-0.188
-375.858	800.000	-0.027	0.080
-374.844	800.000	0.109	0.452
-373.829	25.975	-0.181	0.151
-372.815	36.656	-0.064	-0.056
-371.800	794.574	-0.064	0.175
-370.785	800.000	0.011	-0.041
-369.771	-200.000	-0.013	0.188
-368.756	236.970	0.164	0.270
-367.742	-167.968	-0.150	-0.006
-366.727	-200.000	0.007	-0.070
-365.712	54.545	0.105	0.101
-364.698	-8.091	-0.243	-0.163
-363.683	95.587	-0.052	0.059
-362.669	800.000	0.065	-0.245
-361.654	-35.916	0.089	-0.048
-360.639	431.471	-0.131	0.282
-359.625	-163.896	-0.062	-0.003
-358.610	-200.000	-0.013	0.089
-357.596	338.183	0.112	0.218
-356.581	143.073	-0.308	-0.408
-355.566	70.785	0.123	-0.126
-354.552	-200.000	0.057	-0.303
-353.537	-80.594	0.176	0.058
-352.523	-176.322	0.090	-0.002
-351.508	-200.000	-0.061	-0.273
-350.493	-200.000	0.007	-0.247
-349.479	-10.955	-0.160	-0.105
-348.464	-15.762	0.223	-0.141
-347.450	263.059	0.024	-0.041
-346.435	-200.000	0.061	0.303
-345.420	139.882	0.080	-0.104
-344.406	149.714	0.193	-0.260
-343.391	-83.818	-0.377	-0.119
-342.377	322.520	0.030	0.057
-341.362	-200.000	-0.011	0.358
-340.348	2.339	0.156	-0.112
-339.333	-6.566	-0.101	-0.068
-338.318	284.829	-0.162	-0.290
-337.304	-200.000	0.028	-0.400
-336.289	441.889	0.043	-0.094
-335.275	800.000	0.036	-0.104
-334.260	-200.000	-0.037	0.345
-333.245	-200.000	-0.174	0.000
-332.231	-200.000	0.013	-0.076
-331.216	551.613	-0.138	0.330
-330.202	202.684	0.095	0.146
-329.187	-4.777	0.118	-0.081
-328.172	102.994	0.128	0.148
-327.158	316.291	-0.146	0.273
-326.143	201.682	0.030	0.045
-325.129	-88.949	-0.212	-0.063
-324.114	-80.161	0.393	0.131
-323.099	8.748	0.147	0.110
-322.085	29.647	-0.252	-0.213
-321.070	-200.000	0.018	0.207
-320.056	128.833	0.099	-0.126
-319.041	-200.000	-0.002	0.271
-318.026	-105.194	0.143	0.032
-317.012	792.449	-0.085	0.233
-315.997	-200.000	0.036	-0.201
-314.983	-200.000	0.005	-0.202
-313.968	791.458	-0.022	-0.060
-312.953	142.839	0.151	-0.199
-311.939	-22.787	0.390	-0.234
-310.924	-35.056	0.273	-0.148
-309.910	84.424	-0.053	0.057
-308.895	-200.000	0.010	-0.103
-307.880	97.214	-0.121	0.138
-306.866	135.744	-0.306	-0.395
-305.851	-110.300	0.294	-0.061
-304.837	-100.985	-0.421	0.103
-303.822	800.000	-0.097	0.321
-302.807	112.333	0.178	-0.214
-301.793	-200.000	0.052	0.257
-300.778	59.838	0.107	-0.105
-299.764	505.097	0.034	0.078
-298.749	-42.978	0.325	0.164
-297.735	-200.000	0.041	0.458
-296.720	-88.640	-0.276	0.082
-295.705	150.296	-0.102	0.137
-294.691	-57.561	-0.254	0.110
-293.676	568.744	-0.092	0.222
-292.662	77.253	0.128	-0.135
-291.647	51.420	0.192	-0.181
-290.632	54.857	-0.084	-0.080
-289.618	16.018	-0.104	-0.081
-288.603	-114.588	-0.125	0.024
-287.589	458.892	0.130	0.287
-286.574	-74.597	-0.062	0.022
-285.559	-200.000	-0.028	0.321
-284.545	-93.307	0.152	-0.042
-283.530	451.804	-0.054	0.119
-282.516	800.000	-0.035	-0.103
-281.501	110.726	0.070	-0.084
-280.486	-53.419	-0.053	-0.024
-279.472	-115.567	0.252	-0.047
-278.457	-145.163	0.189	0.017
-277.443	-132.680	-0.403	-0.051
-276.428	-100.518	-0.167	0.041
-275.413	136.243	-0.186	-0.240
-274.399	-124.954	0.046	-0.007
-273.384	-16.395	-0.384	0.242
-272.370	-180.735	-0.259	-0.005
-271.355	-121.960	0.305	-0.050
-270.340	-200.000	-0.025	0.144
-269.326	191.879	-0.069	-0.103
-268.311	-81.549	0.291	-0.095
-267.297	-56.510	-0.260	-0.115
-266.282	-177.982	-0.155	0.004
-265.267	6.196	-0.032	0.024
-264.253	177.259	0.210	0.302
-263.238	-82.205	-0.301	-0.097
-262.224	-5.126	-0.308	0.210
-261.209	-200.000	0.003	0.208
-260.195	-56.272	0.155	-0.068
-259.180	-100.368	-0.248	0.061
-258.165	-9.444	-0.303	0.200
-257.151	-200.000	0.002	0.205
-256.136	-152.709	-0.412	0.029
-255.122	-200.000	-0.049	0.293
-254.107	-95.369	0.089	0.024
-253.092	366.338	0.141	-0.282
-252.078	-95.058	0.323	-0.087
-251.063	226.692	0.142	0.228
-250.049	27.607	-0.073	0.061
-249.034	-95.648	0.075	-0.020
-248.019	152.529	0.133	0.180
-247.005	-36.562	0.360	-0.192
-245.990	-200.000	0.015	-0.090
-244.976	127.675	0.108	-0.136
-243.961	-139.443	-0.084	-0.009
-242.946	-22.900	0.184	-0.110
-241.932	520.888	-0.079	-0.183
-240.917	37.223	0.174	0.153
-239.903	138.657	-0.068	-0.088
-238.888	-43.717	0.196	-0.098
-237.873	363.583	-0.057	0.114
-236.859	-16.986	0.183	0.114
-235.844	57.199	-0.035	-0.034
-234.830	-33.383	-0.075	0.041
-233.815	1.011	0.264	-0.187
-232.800	-13.189	-0.091	0.059
-231.786	1.872	0.185	-0.132
-230.771	429.908	0.053	0.114
-229.757	-27.636	0.185	-0.106
-228.742	-148.082	0.102	0.008
-227.727	-65.224	-0.188	0.075
-226.713	35.270	-0.235	-0.204
-225.698	800.000	0.068	0.200
-224.684	-7.487	0.219	-0.147
-223.669	-28.058	-0.192	-0.110
-222.655	-200.000	-0.059	-0.260
-221.640	-200.000	0.054	-0.334
-220.625	-60.233	-0.294	0.124
-219.611	-129.661	0.266	-0.036
-218.596	-152.966	0.408	-0.028
-217.582	-7.153	-0.304	-0.204
-216.567	-200.000	-0.049	0.234
-215.552	402.448	0.142	0.296
-214.538	147.147	0.059	0.079
-213.523	-49.967	0.313	-0.147
-212.509	-200.000	0.026	0.301
-211.494	-163.603	0.245	-0.011
-210.479	-85.366	0.167	0.051
-209.465	-74.777	0.591	0.210
-208.450	107.604	-0.223	-0.262
-207.436	-7.077	0.422	0.283
-206.421	5.607	0.115	-0.084
-205.406	294.172	-0.145	-0.261
-204.392	-200.000	-0.019	-0.219
-203.377	-38.566	-0.037	-0.019
-202.363	297.655	-0.116	0.211
-201.348	2.941	-0.281	-0.202
-200.333	800.000	0.075	-0.224
-199.319	-200.000	0.046	0.378
-198.304	447.986	-0.062	0.135
-197.290	10.419	0.171	0.129
-196.275	-100.420	0.234	-0.057
-195.260	-22.447	-0.115	0.069
-194.246	-18.139	-0.178	0.110
-193.231	-62.510	0.025	-0.010
-192.217	33.324	0.074	-0.063
-191.202	-114.400	-0.216	-0.041
-190.187	800.000	-0.036	-0.123
-189.173	311.823	0.055	-0.102
-188.158	621.412	-0.107	-0.265
-187.144	800.000	0.083	-0.284
-186.129	-67.453	-0.182	0.071
-185.114	184.954	0.105	0.154
-184.100	6.912	-0.093	0.068
-183.085	699.288	-0.050	0.129
-182.071	-94.786	0.193	0.052
-181.056	-96.590	0.064	0.017
-180.042	-200.000	0.027	0.192
-179.027	-76.881	-0.261	-0.090
-178.012	185.592	-0.162	0.238
-176.998	21.433	-0.162	0.130
-175.983	-59.515	0.246	0.104
-174.969	265.552	-0.103	-0.177
-173.954	-169.585	-0.458	-0.016
-172.939	-200.000	0.012	-0.185
-171.925	-200.000	-0.009	-0.141
-170.910	91.242	-0.086	-0.095
-169.896	800.000	-0.022	-0.082
-168.881	-124.871	0.238	-0.036
-167.866	140.777	-0.189	0.247
-166.852	19.115	0.024	0.019
-165.837	436.754	0.081	0.175
-164.823	63.974	0.029	-0.029
-163.808	-55.707	0.151	-0.067
-162.793	194.876	-0.181	-0.271
-161.779	-200.000	0.024	-0.187
-160.764	-200.000	-0.001	0.138
-159.750	-73.760	-0.053	-0.019
-158.735	-108.217	0.198	0.042
-157.720	-200.000	-0.008	0.067
-156.706	-200.000	0.011	0.688
-155.691	-55.336	0.231	-0.102
-154.677	-178.753	0.380	0.009
-153.662	-200.000	-0.017	0.219
-152.647	-188.574	-0.215	0.003
-151.633	-200.000	-0.083	-0.381
-150.618	267.082	0.074	-0.128
-149.604	29.314	0.251	-0.210
-148.589	60.686	0.083	-0.081
-147.574	-46.413	-0.130	0.063
-146.560	56.897	-0.092	-0.088
-145.545	-78.676	0.230	-0.077
-144.531	-30.085	0.149	-0.084
-143.516	-200.000	0.006	0.224
-142.502	-24.822	-0.115	-0.067
-141.487	-200.000	0.066	-0.326
-140.472	221.630	-0.231	-0.367
-139.458	29.564	-0.182	0.153
-138.443	-14.457	-0.145	-0.092
-137.429	-200.000	-0.031	0.194
-136.414	-59.149	0.269	0.114
-135.399	-93.034	-0.277	-0.076
-134.385	-83.471	0.510	-0.161
-133.370	-148.848	-0.279	-0.022
-132.356	800.000	-0.041	-0.155
-131.341	-62.029	-0.069	-0.028
-130.326	-200.000	-0.013	0.061
-129.312	216.052	0.120	0.187
-128.297	-98.620	-0.466	-0.117
-127.283	-85.817	0.356	-0.109
-126.268	74.551	0.152	-0.158
-125.253	10.551	0.113	0.085
-124.239	-107.644	-0.104	0.023
-123.224	-86.066	-0.106	0.032
-122.210	800.000	-0.044	0.119
-121.195	-115.907	-0.131	-0.024
