DTS Sentinel unit serial number:	SN413079Multiplexer serial number:	ORYXHardware model number:	OX4-SRSoftware version number:	ORYX F/W v4.00 Oryx Data Collector v3.7.2.0data status	okinstallation	princeton_trtdifferential loss correction	single-endedforward channel	channel 4reverse channel	N/Adate	2019/09/13time	11:29:35forward acquisition time	60.00reverse acquisition time	0.00gamma	496.2192k internal	0.2302k external	0.2302temperature offset calibration	1.0194default loss term (dB/km)	0.3790temperature slope calibration	1.0000multiplexer offset coefficient	1.0000multiplexer slope coefficient	1.0000fibre end	0.00T internal ref (°C)	32.69T ext. ref 1 (°C)	4.35T ext. ref 2 (°C)	30.19length (m)	temperature (°C)	Stokes	anti-Stokes-747.200	203.023	0.151	0.238
-746.185	-200.000	-0.057	0.327
-745.171	800.000	0.022	0.086
-744.156	223.964	0.199	0.328
-743.142	-200.000	-0.004	0.157
-742.127	-4.485	-0.183	0.129
-741.112	427.324	-0.082	-0.180
-740.098	268.506	-0.134	-0.240
-739.083	124.947	-0.013	-0.017
-738.069	-200.000	0.008	-0.104
-737.054	-200.000	-0.025	-0.123
-736.039	-22.127	-0.225	-0.139
-735.025	-200.000	0.009	0.125
-734.010	-27.931	-0.280	0.165
-732.996	313.277	-0.065	-0.124
-731.981	-66.401	-0.215	0.087
-730.966	-20.620	-0.028	0.017
-729.952	96.285	-0.075	-0.087
-728.937	169.753	-0.224	0.326
-727.923	-13.372	-0.367	-0.242
-726.908	-8.669	-0.242	0.166
-725.894	217.339	-0.121	-0.196
-724.879	329.251	-0.064	-0.125
-723.864	-94.114	-0.148	-0.041
-722.850	-23.535	0.143	-0.087
-721.835	-86.797	-0.230	-0.071
-720.821	351.238	-0.062	0.125
-719.806	73.592	-0.266	-0.284
-718.791	-138.326	-0.112	0.013
-717.777	99.192	0.183	-0.216
-716.762	99.156	-0.105	0.124
-715.748	446.384	0.048	0.108
-714.733	205.096	0.034	0.053
-713.718	-6.018	0.107	0.074
-712.704	150.274	-0.162	-0.223
-711.689	-16.447	-0.369	0.238
-710.675	310.237	-0.091	-0.173
-709.660	259.090	-0.145	-0.255
-708.645	-200.000	0.002	0.295
-707.631	-200.000	-0.022	-0.475
-706.616	-19.098	-0.045	0.028
-705.602	-168.888	-0.285	0.011
-704.587	109.685	-0.164	-0.201
-703.572	800.000	-0.047	0.142
-702.558	111.018	-0.229	-0.281
-701.543	48.203	-0.088	-0.084
-700.529	-47.126	-0.161	0.080
-699.514	148.507	0.182	-0.250
-698.499	-57.406	-0.102	-0.046
-697.485	564.180	0.128	0.316
-696.470	-159.530	0.132	-0.007
-695.456	-29.500	-0.168	-0.098
-694.441	-200.000	0.009	-0.426
-693.426	-107.495	-0.252	-0.056
-692.412	-138.759	-0.168	0.019
-691.397	-142.734	-0.076	0.007
-690.383	-200.000	-0.032	-0.306
-689.368	-200.000	0.010	0.051
-688.354	319.821	-0.163	-0.315
-687.339	103.161	0.102	-0.122
-686.324	-106.049	0.205	-0.047
-685.310	22.747	0.190	-0.158
-684.295	14.026	0.064	-0.051
-683.281	-31.451	0.348	-0.199
-682.266	-87.675	-0.342	-0.105
-681.251	-131.246	0.101	-0.014
-680.237	-117.641	-0.381	0.070
-679.222	-100.583	0.124	0.031
-678.208	-82.354	-0.404	0.133
-677.193	-200.000	0.005	-0.361
-676.178	-69.054	-0.161	0.063
-675.164	-79.376	0.210	0.072
-674.149	-7.169	-0.331	-0.228
-673.135	-157.326	0.359	0.022
-672.120	-124.844	-0.190	-0.030
-671.105	-200.000	-0.074	0.492
-670.091	354.296	-0.115	-0.232
-669.076	174.277	0.170	-0.249
-668.062	2.698	0.226	-0.167
-667.047	-200.000	0.006	-0.280
-666.032	202.536	-0.201	-0.316
-665.018	-77.813	0.466	0.163
-664.003	89.004	0.139	-0.157
-662.989	204.519	0.153	0.240
-661.974	758.944	-0.028	-0.077
-660.959	-71.321	0.235	-0.089
-659.945	-200.000	-0.017	0.120
-658.930	-178.408	-0.242	0.006
-657.916	-188.841	-0.171	-0.002
-656.901	-200.000	0.027	0.216
-655.886	-52.752	0.171	0.080
-654.872	-49.077	-0.111	0.054
-653.857	-36.260	-0.251	0.138
-652.843	799.144	0.045	0.127
-651.828	10.424	-0.145	0.112
-650.814	-125.337	0.200	0.031
-649.799	-92.852	0.071	0.020
-648.784	-200.000	0.006	-0.228
-647.770	200.433	0.168	-0.262
-646.755	-30.496	-0.381	0.219
-645.741	50.086	0.155	0.149
-644.726	81.423	0.180	-0.198
-643.711	-88.171	-0.094	0.029
-642.697	649.401	0.089	0.231
-641.682	-160.414	0.220	0.012
-640.668	-136.836	-0.177	0.021
-639.653	-200.000	-0.006	-0.227
-638.638	-200.000	0.026	0.152
-637.624	-46.338	-0.140	-0.070
-636.609	-100.299	-0.341	-0.086
-635.595	-56.491	-0.219	-0.099
-634.580	115.685	0.067	0.084
-633.565	115.132	0.126	-0.156
-632.551	-118.695	-0.300	0.054
-631.536	-200.000	-0.013	0.068
-630.522	-0.069	-0.193	0.139
-629.507	-110.990	0.091	-0.019
-628.492	-2.558	-0.146	0.104
-627.478	-65.160	0.064	-0.026
-626.463	-200.000	-0.012	0.075
-625.449	116.467	-0.195	0.243
-624.434	-145.858	0.409	-0.037
-623.419	800.000	0.112	-0.352
-622.405	140.532	-0.070	0.093
-621.390	-128.706	-0.198	-0.028
-620.376	589.261	0.098	-0.245
-619.361	-47.840	-0.078	-0.038
-618.346	357.726	0.084	0.169
-617.332	-200.000	-0.017	-0.102
-616.317	-200.000	-0.027	0.176
-615.303	414.769	-0.085	0.183
-614.288	232.699	-0.035	-0.059
-613.273	800.000	0.082	-0.251
-612.259	417.569	-0.037	0.080
-611.244	-71.932	0.063	-0.024
-610.230	708.184	-0.111	-0.297
-609.215	-70.843	-0.222	0.085
-608.201	80.559	-0.094	0.103
-607.186	49.195	-0.116	0.111
-606.171	-37.415	0.236	-0.128
-605.157	-200.000	-0.021	-0.124
-604.142	178.154	0.014	0.021
-603.128	-200.000	-0.038	-0.285
-602.113	-141.736	-0.294	-0.030
-601.098	-86.742	0.272	0.084
-600.084	-15.662	-0.033	-0.021
-599.069	-28.547	0.197	0.115
-598.055	-178.817	-0.261	-0.006
-597.040	99.920	0.227	-0.267
-596.025	800.000	0.073	-0.324
-595.011	-178.880	-0.082	0.002
-593.996	800.000	0.035	0.098
-592.982	248.771	-0.099	0.170
-591.967	36.843	0.240	-0.215
-590.952	162.068	0.200	-0.284
-589.938	659.846	0.075	-0.195
-588.923	800.000	-0.046	-0.175
-587.909	-80.411	0.281	-0.095
-586.894	35.402	0.162	-0.144
-585.879	524.410	0.116	-0.277
-584.865	138.752	0.206	-0.274
-583.850	800.000	0.145	-0.416
-582.836	334.633	-0.199	0.390
-581.821	-107.304	0.118	0.026
-580.806	-200.000	-0.029	0.286
-579.792	-33.214	0.074	-0.042
-578.777	233.102	-0.058	0.096
-577.763	45.587	-0.313	-0.293
-576.748	225.302	-0.143	-0.235
-575.733	57.871	-0.155	0.153
-574.719	-200.000	0.045	0.241
-573.704	-200.000	0.003	-0.214
-572.690	-57.375	-0.453	0.201
-571.675	701.751	-0.104	0.277
-570.661	4.755	0.274	-0.204
-569.646	-40.067	-0.158	0.083
-568.631	800.000	-0.142	0.407
-567.617	-148.739	0.149	-0.012
-566.602	800.000	-0.044	0.153
-565.588	48.194	0.063	-0.059
-564.573	180.859	0.059	-0.087
-563.558	-70.630	0.364	-0.139
-562.544	-128.991	-0.071	0.010
-561.529	101.871	-0.083	0.097
-560.515	140.182	-0.139	-0.186
-559.500	450.249	-0.141	0.315
-558.485	-76.263	0.092	-0.033
-557.471	-200.000	-0.195	0.001
-556.456	-200.000	-0.021	-0.189
-555.442	-200.000	-0.066	-0.297
-554.427	-200.000	-0.032	-0.199
-553.412	90.142	-0.221	-0.250
-552.398	-50.304	-0.228	0.109
-551.383	-101.853	0.174	-0.043
-550.369	521.451	0.054	-0.129
-549.354	283.370	0.046	-0.083
-548.339	-200.000	0.046	0.247
-547.325	800.000	-0.035	-0.148
-546.310	800.000	0.007	-0.024
-545.296	42.111	0.248	0.228
-544.281	40.021	0.149	0.135
-543.266	-50.158	0.499	-0.239
-542.252	-58.265	-0.417	-0.183
-541.237	120.665	0.033	-0.041
-540.223	-99.818	0.438	-0.111
-539.208	122.625	-0.056	0.071
-538.193	572.195	-0.167	-0.410
-537.179	-105.683	-0.342	-0.078
-536.164	69.543	-0.163	0.169
-535.150	-42.821	0.157	0.081
-534.135	800.000	0.043	0.123
-533.121	-165.276	0.478	-0.021
-532.106	-24.502	0.129	0.078
-531.091	86.443	0.111	-0.124
-530.077	94.209	-0.079	0.090
-529.062	-115.788	-0.261	0.049
-528.048	526.701	0.063	0.149
-527.033	156.824	-0.054	0.075
-526.018	-200.000	0.003	0.027
-525.004	-96.611	-0.243	0.065
-523.989	-116.694	-0.246	-0.046
-522.975	-200.000	-0.013	-0.466
-521.960	-3.817	-0.246	0.173
-520.945	69.878	-0.055	-0.057
-519.931	510.664	-0.155	0.364
-518.916	132.113	-0.105	0.137
-517.902	-85.811	-0.139	-0.044
-516.887	-154.174	0.162	-0.011
-515.872	168.583	0.172	0.248
-514.858	73.592	-0.198	0.210
-513.843	-200.000	0.024	-0.419
-512.829	-14.228	-0.158	0.103
-511.814	-61.347	-0.124	-0.053
-510.799	-56.901	-0.077	-0.034
-509.785	800.000	-0.041	-0.147
-508.770	-141.503	-0.300	0.031
-507.756	-47.468	-0.123	0.061
-506.741	-132.953	-0.118	-0.015
-505.726	-2.579	-0.207	-0.146
-504.712	-161.326	-0.438	-0.023
-503.697	-26.407	0.094	-0.056
-502.683	-59.319	-0.167	-0.072
-501.668	800.000	0.089	0.250
-500.653	-47.681	-0.210	-0.103
-499.639	-75.863	-0.346	0.124
-498.624	-162.308	0.509	-0.026
-497.610	172.276	0.086	0.124
-496.595	-44.965	-0.251	0.126
-495.581	-200.000	-0.021	-0.167
-494.566	-101.997	0.120	-0.029
-493.551	14.442	-0.178	-0.141
-492.537	161.277	0.230	0.324
-491.522	-200.000	-0.016	-0.180
-490.508	-200.000	-0.025	0.307
-489.493	205.139	-0.025	-0.039
-488.478	-74.617	-0.152	0.055
-487.464	-84.655	-0.144	-0.046
-486.449	-200.000	0.023	0.288
-485.435	-181.164	0.117	0.002
-484.420	-21.098	0.186	0.115
-483.405	34.895	-0.222	-0.196
-482.391	-200.000	-0.042	-0.246
-481.376	-126.860	0.226	-0.034
-480.362	122.064	-0.099	-0.125
-479.347	611.227	0.016	-0.040
-478.332	346.815	0.155	0.308
-477.318	52.990	-0.042	0.041
-476.303	-112.324	0.199	-0.040
-475.289	-15.963	-0.109	-0.070
-474.274	6.259	0.361	-0.270
-473.259	-53.970	0.062	0.028
-472.245	69.078	0.132	0.137
-471.230	-163.361	-0.226	-0.011
-470.216	-164.094	0.291	-0.014
-469.201	800.000	0.067	-0.214
-468.186	-128.782	-0.120	-0.017
-467.172	-200.000	-0.008	0.048
-466.157	-4.311	0.214	-0.149
-465.143	-132.348	-0.119	0.016
-464.128	-52.478	0.376	0.175
-463.113	-66.845	0.361	0.144
-462.099	797.691	-0.082	0.228
-461.084	22.458	0.203	0.168
-460.070	800.000	-0.124	0.363
-459.055	32.886	-0.309	0.270
-458.040	800.000	0.047	0.162
-457.026	558.572	-0.082	-0.201
-456.011	-45.482	-0.122	-0.061
-454.997	5.117	0.158	0.117
-453.982	69.379	0.074	-0.077
-452.968	38.643	-0.225	0.202
-451.953	-194.988	-0.221	-0.002
-450.938	-200.000	0.006	0.373
-449.924	-70.099	-0.111	0.043
-448.909	800.000	0.051	0.152
-447.895	-68.859	0.104	-0.041
-446.880	-145.287	-0.070	-0.006
-445.865	127.575	0.206	0.263
-444.851	-109.396	-0.203	-0.043
-443.836	-68.178	-0.130	-0.051
-442.822	-121.433	0.160	0.027
-441.807	394.575	0.038	0.080
-440.792	31.634	-0.179	-0.155
-439.778	724.356	-0.066	-0.178
-438.763	-200.000	0.063	-0.424
-437.749	568.532	0.108	-0.265
-436.734	-87.767	-0.213	0.065
-435.719	77.213	0.266	0.285
-434.705	759.147	-0.027	0.075
-433.690	265.580	-0.117	-0.205
-432.676	133.194	-0.244	0.317
-431.661	56.483	0.260	-0.254
-430.646	-127.105	0.096	-0.014
-429.632	-200.000	0.007	0.125
-428.617	-200.000	0.034	-0.223
-427.603	-200.000	-0.008	0.128
-426.588	-19.372	-0.286	0.178
-425.573	-120.323	0.015	-0.003
-424.559	-129.490	-0.106	-0.015
-423.544	800.000	-0.078	0.344
-422.530	69.273	0.159	-0.164
-421.515	-47.426	-0.246	0.120
-420.500	-115.316	0.284	0.054
-419.486	370.999	0.081	-0.166
-418.471	351.291	0.119	-0.237
-417.457	-102.862	0.342	-0.082
-416.442	-154.533	0.322	0.022
-415.428	-170.896	-0.356	0.012
-414.413	91.380	-0.073	-0.082
-413.398	-121.543	0.328	-0.055
-412.384	-197.165	0.144	-0.001
-411.369	337.104	0.084	0.164
-410.355	800.000	-0.055	0.182
-409.340	56.086	-0.414	-0.404
-408.325	41.498	0.101	0.092
-407.311	220.386	-0.055	0.089
-406.296	-141.650	-0.283	-0.029
-405.282	-125.869	0.362	0.055
-404.267	-73.552	0.302	-0.111
-403.252	-91.872	0.393	-0.112
-402.238	-23.811	-0.236	-0.142
-401.223	-49.742	0.166	-0.079
-400.209	-67.532	0.299	0.118
-399.194	-200.000	-0.003	-0.023
-398.179	-104.901	0.223	-0.051
-397.165	-170.464	-0.087	-0.003
-396.150	-44.558	0.031	-0.016
-395.136	343.900	0.096	0.188
-394.121	800.000	-0.032	0.130
-393.106	-152.036	0.285	0.021
-392.092	-78.647	0.259	-0.089
-391.077	-158.813	0.353	-0.020
-390.063	-200.000	0.019	0.180
-389.048	800.000	0.103	0.301
-388.033	-200.000	0.012	0.236
-387.019	800.000	-0.089	0.370
-386.004	58.440	0.119	-0.117
-384.990	-86.066	0.320	-0.099
-383.975	64.865	-0.252	-0.256
-382.960	-48.512	0.289	-0.140
-381.946	30.019	-0.287	0.246
-380.931	61.731	0.143	0.143
-379.917	462.245	0.106	0.238
-378.902	-200.000	-0.000	-0.019
-377.888	800.000	-0.046	0.155
-376.873	-78.112	-0.162	-0.056
-375.858	-200.000	0.015	-0.330
-374.844	-120.710	-0.355	-0.060
-373.829	254.134	0.148	0.255
-372.815	-178.568	-0.067	-0.002
-371.800	-61.258	0.053	-0.022
-370.785	118.364	-0.044	-0.055
-369.771	-200.000	0.056	0.337
-368.756	204.002	0.243	0.378
-367.742	40.424	0.238	0.215
-366.727	-36.330	-0.041	0.022
-365.712	712.102	0.094	-0.251
-364.698	-173.838	-0.142	0.004
-363.683	-200.000	0.002	0.102
-362.669	-48.509	-0.057	-0.028
-361.654	-200.000	-0.021	-0.107
-360.639	69.734	-0.172	0.178
-359.625	-200.000	0.032	-0.307
-358.610	-159.593	0.223	0.012
-357.596	-20.804	-0.076	-0.047
-356.581	20.717	-0.240	-0.195
-355.566	-200.000	0.026	0.160
-354.552	312.676	-0.016	0.031
-353.537	-99.189	0.182	-0.046
-352.523	800.000	-0.033	-0.096
-351.508	486.600	-0.080	-0.182
-350.493	-65.407	-0.392	0.158
-349.479	-200.000	0.041	-0.233
-348.464	-59.560	0.121	0.052
-347.450	-28.451	0.096	-0.056
-346.435	573.777	0.085	0.207
-345.420	-104.074	-0.482	0.113
-344.406	-174.104	0.215	-0.006
-343.391	132.150	0.261	0.337
-342.377	-59.322	-0.249	-0.108
-341.362	-47.993	-0.317	-0.154
-340.348	800.000	-0.039	0.140
-339.333	365.322	-0.161	0.325
-338.318	-200.000	-0.021	0.121
-337.304	159.650	-0.213	-0.297
-336.289	-200.000	-0.029	-0.302
-335.275	-183.969	0.187	-0.003
-334.260	23.911	0.160	0.132
-333.245	-48.209	-0.061	0.030
-332.231	-200.000	0.013	-0.214
-331.216	74.759	-0.015	-0.016
-330.202	800.000	0.016	0.067
-329.187	30.063	-0.061	-0.052
-328.172	22.694	-0.099	0.081
-327.158	-200.000	0.020	0.123
-326.143	-43.121	0.192	-0.098
-325.129	-90.036	-0.035	0.010
-324.114	-200.000	-0.007	-0.138
-323.099	-116.112	0.358	-0.067
-322.085	800.000	0.056	-0.170
-321.070	-86.467	0.258	0.080
-320.056	404.574	-0.073	-0.155
-319.041	-200.000	-0.018	-0.419
-318.026	-12.479	-0.292	-0.191
-317.012	-76.010	0.130	-0.046
-315.997	-56.839	-0.127	0.056
-314.983	-200.000	-0.017	0.322
-313.968	63.297	0.077	-0.077
-312.953	36.705	0.040	-0.036
-311.939	-179.050	0.063	0.001
-310.924	-200.000	-0.051	-0.287
-309.910	-144.618	-0.163	0.015
-308.895	800.000	-0.038	-0.152
-307.880	165.849	-0.205	-0.290
-306.866	114.741	0.214	-0.261
-305.851	-18.582	-0.364	0.228
-304.837	-59.902	0.205	-0.088
-303.822	102.241	-0.157	0.184
-302.807	149.209	0.167	0.227
-301.793	112.902	-0.020	0.025
-300.778	-200.000	0.010	0.450
-299.764	800.000	-0.053	0.223
-298.749	490.537	-0.029	-0.068
-297.735	-26.039	0.136	-0.080
-296.720	-200.000	0.038	-0.196
-295.705	-53.206	-0.109	-0.050
-294.691	800.000	0.023	-0.065
-293.676	800.000	0.029	-0.098
-292.662	-200.000	0.008	0.104
-291.647	-58.115	0.099	0.043
-290.632	137.282	0.136	0.178
-289.618	-63.994	-0.038	0.015
-288.603	442.930	0.117	-0.256
-287.589	-144.441	0.052	0.005
-286.574	800.000	0.181	-0.523
-285.559	522.983	0.065	0.152
-284.545	52.994	-0.102	0.098
-283.530	79.552	-0.239	0.257
-282.516	-80.458	-0.294	0.098
-281.501	-200.000	0.003	0.165
-280.486	-3.411	-0.059	0.041
-279.472	-109.521	-0.158	-0.033
-278.457	607.624	0.048	0.119
-277.443	-159.891	0.047	-0.003
-276.428	800.000	0.046	0.162
-275.413	-101.426	0.346	-0.084
-274.399	-28.921	-0.254	0.146
-273.384	-172.821	-0.140	-0.004
-272.370	800.000	0.069	0.208
-271.355	-12.409	0.197	0.128
-270.340	195.766	0.167	0.254
-269.326	-159.936	0.142	-0.008
-268.311	800.000	0.060	0.200
-267.297	-64.991	-0.111	0.045
-266.282	504.050	0.098	-0.228
-265.267	767.264	-0.064	-0.174
-264.253	800.000	-0.117	-0.401
-263.238	287.931	0.127	0.230
-262.224	-90.232	0.133	-0.039
-261.209	-200.000	0.013	0.169
-260.195	-200.000	-0.104	0.476
-259.180	-69.032	0.468	-0.180
-258.165	-31.143	0.137	0.077
-257.151	2.393	0.189	0.137
-256.136	-59.199	0.278	0.120
-255.122	-1.224	0.197	-0.139
-254.107	-96.634	-0.114	0.030
-253.092	-200.000	0.001	-0.164
-252.078	800.000	0.077	-0.321
-251.063	60.986	-0.047	-0.047
-250.049	72.430	-0.129	-0.134
-249.034	142.170	-0.066	-0.087
-248.019	335.018	0.115	0.223
-247.005	-71.942	0.132	-0.049
-245.990	33.205	0.092	-0.079
-244.976	52.010	0.132	0.125
-243.961	125.691	-0.183	-0.231
-242.946	-43.966	-0.213	0.107
-241.932	-91.436	-0.185	0.053
-240.917	-200.000	0.035	0.179
-239.903	-20.147	-0.210	0.129
-238.888	-143.734	-0.078	-0.007
-237.873	-158.345	0.160	0.009
-236.859	-72.691	-0.125	-0.046
-235.844	-22.662	0.098	0.059
-234.830	190.149	-0.041	0.061
-233.815	85.617	-0.123	0.135
-232.800	-200.000	0.009	-0.069
-231.786	278.902	-0.066	-0.118
-230.771	495.684	-0.107	-0.245
-229.757	-114.108	0.465	0.090
-228.742	-200.000	-0.006	-0.096
-227.727	-16.419	-0.405	0.257
-226.713	800.000	0.098	-0.406
-225.698	420.571	0.127	-0.271
-224.684	98.055	-0.204	-0.234
-223.669	-148.078	0.268	-0.022
-222.655	227.918	0.213	0.346
-221.640	800.000	-0.040	0.124
-220.625	-16.787	0.116	0.073
-219.611	800.000	-0.060	0.205
-218.596	-10.171	-0.209	-0.138
-217.582	-200.000	-0.016	-0.217
-216.567	664.249	-0.112	0.289
-215.552	-128.853	-0.140	-0.020
-214.538	795.788	0.039	0.109
-213.523	62.836	0.075	0.075
-212.509	168.707	-0.190	-0.271
-211.494	-7.102	-0.161	0.109
-210.479	99.970	0.192	-0.222
-209.465	-91.237	0.222	0.063
-208.450	-58.242	0.154	0.067
-207.436	305.498	0.128	0.237
-206.421	-25.684	-0.281	-0.165
-205.406	23.034	-0.108	0.088
-204.392	294.758	0.081	0.148
-203.377	403.176	0.019	0.041
-202.363	-200.000	0.000	-0.202
-201.348	327.767	0.096	-0.185
-200.333	-83.388	0.216	0.069
-199.319	69.569	0.201	0.206
-198.304	708.109	-0.110	-0.291
-197.290	41.556	-0.159	-0.143
-196.275	54.800	-0.197	0.189
-195.260	-90.566	0.169	-0.049
-194.246	140.619	0.173	0.228
-193.231	8.783	0.116	0.087
-192.217	-69.569	0.091	0.035
-191.202	-168.746	0.123	-0.005
-190.187	49.622	0.158	0.148
-189.173	49.903	-0.271	-0.255
-188.158	-200.000	-0.003	0.270
-187.144	800.000	-0.145	0.571
-186.129	289.300	-0.127	0.229
-185.114	800.000	0.055	0.160
-184.100	44.881	-0.084	-0.077
-183.085	61.207	-0.318	-0.315
-182.071	33.127	-0.301	0.260
-181.056	-200.000	-0.093	0.415
-180.042	-200.000	0.011	-0.245
-179.027	-200.000	-0.070	-0.392
-178.012	-63.288	0.175	-0.072
-176.998	56.169	0.214	-0.207
-175.983	664.983	-0.065	-0.166
-174.969	800.000	-0.094	-0.342
-173.954	-52.832	-0.138	-0.064
-172.939	-87.856	0.111	-0.033
-171.925	-155.119	0.195	0.013
-170.910	-52.343	-0.444	0.205
-169.896	-35.573	-0.200	0.108
-168.881	68.925	-0.148	-0.152
-167.866	322.628	0.061	0.115
-166.852	800.000	-0.048	0.169
-165.837	378.770	0.013	0.027
-164.823	-59.500	0.091	0.039
-163.808	-43.347	-0.136	0.069
-162.793	636.283	0.047	0.118
-161.779	258.398	-0.207	-0.355
-160.764	113.415	0.189	-0.229
-159.750	47.585	0.167	0.155
-158.735	458.824	0.092	-0.203
-157.720	-140.138	-0.045	-0.005
-156.706	658.379	0.116	0.296
-155.691	76.002	-0.167	-0.176
-154.677	-54.253	0.126	-0.057
-153.662	-67.777	-0.294	-0.114
-152.647	-200.000	-0.025	-0.126
-151.633	68.909	-0.140	-0.143
-150.618	800.000	0.046	0.199
-149.604	-129.266	0.354	0.049
-148.589	-200.000	0.039	0.217
-147.574	-200.000	-0.042	0.378
-146.560	199.399	-0.125	0.190
-145.545	-200.000	-0.054	-0.571
-144.531	183.923	0.120	-0.177
-143.516	92.551	-0.136	-0.152
-142.502	138.476	0.139	0.182
-141.487	-154.598	-0.236	-0.016
-140.472	-10.491	-0.363	0.240
-139.458	-104.656	0.335	-0.077
-138.443	-78.336	0.099	-0.034
-137.429	-45.189	0.316	-0.156
-136.414	-200.000	-0.039	0.183
-135.399	23.761	-0.187	0.154
-134.385	109.292	-0.220	-0.262
-133.370	87.633	0.063	0.070
-132.356	800.000	-0.008	0.033
-131.341	-48.937	0.154	0.073
-130.326	19.285	0.138	0.110
-129.312	-163.940	-0.149	-0.007
-128.297	253.498	0.142	0.241
-127.283	81.285	0.325	-0.350
-126.268	-200.000	-0.052	0.282
-125.253	54.321	-0.326	-0.312
-124.239	-39.709	0.165	-0.086
-123.224	-129.727	-0.289	0.040
-122.210	-200.000	0.025	0.119
