DTS Sentinel unit serial number:	SN413079Multiplexer serial number:	ORYXHardware model number:	OX4-SRSoftware version number:	ORYX F/W v4.00 Oryx Data Collector v3.7.2.0data status	okinstallation	princeton_trtdifferential loss correction	single-endedforward channel	channel 4reverse channel	N/Adate	2019/09/14time	03:01:35forward acquisition time	60.00reverse acquisition time	0.00gamma	496.2192k internal	0.2322k external	0.2322temperature offset calibration	1.0132default loss term (dB/km)	0.3790temperature slope calibration	1.0000multiplexer offset coefficient	1.0000multiplexer slope coefficient	1.0000fibre end	0.00T internal ref (°C)	26.56T ext. ref 1 (°C)	3.26T ext. ref 2 (°C)	21.62length (m)	temperature (°C)	Stokes	anti-Stokes-747.200	177.249	0.252	0.371
-746.185	-200.000	-0.001	0.172
-745.171	-200.000	-0.004	-0.052
-744.156	-152.148	-0.162	0.012
-743.142	-200.000	-0.066	0.393
-742.127	-105.863	-0.457	0.104
-741.112	9.012	-0.281	-0.215
-740.098	116.920	0.075	-0.092
-739.083	-200.000	-0.023	-0.380
-738.069	800.000	0.038	0.147
-737.054	136.914	-0.087	0.115
-736.039	-103.350	-0.202	-0.048
-735.025	-35.291	0.147	0.081
-734.010	800.000	-0.112	-0.475
-732.996	-74.872	-0.392	-0.142
-731.981	-104.379	-0.163	-0.038
-730.966	-76.782	-0.322	0.114
-729.952	800.000	0.011	-0.039
-728.937	-150.058	-0.258	-0.020
-727.923	-35.885	-0.231	0.126
-726.908	-11.450	0.134	0.089
-725.894	-122.430	-0.329	-0.054
-724.879	-200.000	-0.010	0.206
-723.864	-200.000	-0.021	-0.170
-722.850	-167.406	-0.307	-0.012
-721.835	-200.000	-0.012	0.144
-720.821	-122.880	-0.062	0.010
-719.806	24.118	-0.146	-0.121
-718.791	-84.154	-0.393	-0.126
-717.777	595.253	0.091	0.228
-716.762	-129.718	-0.257	-0.036
-715.748	4.099	0.281	0.208
-714.733	-140.269	0.010	0.001
-713.718	-84.349	0.310	-0.099
-712.704	-76.289	-0.315	-0.112
-711.689	160.196	-0.099	0.139
-710.675	196.302	0.058	-0.089
-709.660	-200.000	0.077	0.364
-708.645	238.984	-0.036	0.060
-707.631	69.320	0.057	-0.060
-706.616	617.783	0.010	-0.024
-705.602	-200.000	0.007	0.183
-704.587	-121.870	-0.455	0.076
-703.572	-27.752	0.172	0.101
-702.558	-11.600	0.127	-0.084
-701.543	-200.000	-0.014	0.099
-700.529	151.479	0.145	0.200
-699.514	150.965	-0.089	-0.122
-698.499	86.414	0.222	-0.246
-697.485	-0.295	-0.135	-0.097
-696.470	687.460	0.042	0.111
-695.456	-130.627	0.406	-0.055
-694.441	388.867	0.031	-0.066
-693.426	16.384	-0.260	0.207
-692.412	-200.000	-0.074	0.427
-691.397	-15.304	-0.422	-0.272
-690.383	-115.934	0.103	0.019
-689.368	800.000	0.039	0.120
-688.354	-61.313	0.350	0.149
-687.339	-150.662	0.187	0.014
-686.324	-58.578	-0.288	0.126
-685.310	-113.113	-0.042	0.008
-684.295	-120.952	0.290	0.049
-683.281	21.252	-0.187	0.153
-682.266	-43.344	0.287	0.146
-681.251	70.235	0.097	-0.101
-680.237	-18.675	-0.089	-0.056
-679.222	4.953	0.120	0.089
-678.208	526.866	0.055	-0.130
-677.193	56.602	0.025	-0.024
-676.178	30.428	-0.052	0.045
-675.164	800.000	-0.034	0.101
-674.149	-118.508	-0.192	-0.034
-673.135	-50.756	-0.163	-0.077
-672.120	568.350	0.078	0.191
-671.105	-145.366	-0.287	-0.026
-670.091	212.208	-0.210	-0.333
-669.076	-108.925	-0.209	-0.045
-668.062	800.000	-0.041	-0.134
-667.047	-194.352	-0.219	-0.002
-666.032	-5.276	0.335	0.232
-665.018	-200.000	-0.104	0.000
-664.003	-200.000	-0.047	-0.265
-662.989	-128.768	-0.130	0.018
-661.974	800.000	0.108	0.370
-660.959	-200.000	0.032	-0.274
-659.945	-86.706	-0.160	-0.049
-658.930	-27.325	-0.037	-0.022
-657.916	-150.686	-0.245	-0.019
-656.901	-138.210	-0.213	-0.024
-655.886	15.464	0.064	0.050
-654.872	-133.391	-0.286	0.036
-653.857	-200.000	0.035	0.401
-652.843	-63.837	-0.298	-0.123
-651.828	-200.000	-0.010	0.061
-650.814	36.553	0.145	-0.129
-649.799	-39.516	-0.176	-0.093
-648.784	-75.688	0.119	-0.042
-647.770	-1.186	-0.195	0.138
-646.755	16.860	0.363	-0.289
-645.741	-45.616	0.172	-0.086
-644.726	-200.000	-0.032	-0.290
-643.711	6.570	-0.148	-0.111
-642.697	1.271	0.190	0.137
-641.682	41.624	-0.269	0.245
-640.668	-152.322	-0.311	0.023
-639.653	-109.793	-0.125	0.026
-638.638	-64.094	-0.395	0.162
-637.624	157.442	0.157	0.219
-636.609	101.922	0.064	-0.075
-635.595	-149.950	0.302	-0.024
-634.580	-200.000	0.014	-0.145
-633.565	800.000	0.030	0.130
-632.551	-16.965	0.039	-0.025
-631.536	-19.039	0.172	-0.108
-630.522	239.769	-0.108	-0.180
-629.507	35.936	-0.062	0.054
-628.492	-200.000	0.036	-0.223
-627.478	-67.475	-0.294	0.116
-626.463	-93.656	-0.198	0.055
-625.449	-98.560	0.246	0.063
-624.434	-58.686	0.540	0.235
-623.419	-22.520	-0.191	-0.116
-622.405	7.605	-0.121	0.091
-621.390	212.841	0.045	-0.071
-620.376	-20.789	-0.119	0.073
-619.361	-60.119	0.028	-0.012
-618.346	19.351	0.113	-0.091
-617.332	233.624	-0.214	-0.355
-616.317	202.257	0.085	0.131
-615.303	49.856	-0.050	0.048
-614.288	-8.385	-0.098	0.066
-613.273	-93.690	-0.503	0.139
-612.259	-75.777	-0.184	-0.066
-611.244	-53.195	-0.247	-0.114
-610.230	-93.774	-0.194	0.054
-609.215	36.665	-0.252	0.223
-608.201	124.767	0.052	-0.066
-607.186	-118.410	0.213	0.038
-606.171	-93.248	0.342	-0.095
-605.157	-179.588	-0.148	-0.003
-604.142	57.079	-0.197	-0.193
-603.128	-200.000	0.043	0.226
-602.113	6.382	-0.224	0.167
-601.098	-200.000	-0.027	-0.165
-600.084	-56.877	0.362	0.161
-599.069	-200.000	-0.003	0.017
-598.055	-77.591	0.167	-0.058
-597.040	-200.000	-0.042	-0.261
-596.025	800.000	0.049	0.200
-595.011	-69.055	-0.311	-0.120
-593.996	800.000	0.076	-0.236
-592.982	70.930	-0.044	-0.045
-591.967	-119.668	0.290	-0.050
-590.952	-65.012	-0.260	-0.106
-589.938	800.000	0.122	0.355
-588.923	-200.000	-0.005	0.207
-587.909	-200.000	0.022	-0.376
-586.894	-106.654	-0.090	-0.020
-585.879	-63.788	0.401	0.165
-584.865	-33.457	0.156	-0.086
-583.850	80.096	0.122	0.132
-582.836	-27.698	-0.131	-0.076
-581.821	424.564	0.084	-0.181
-580.806	-200.000	0.036	0.373
-579.792	-48.286	-0.409	-0.198
-578.777	108.060	-0.236	-0.282
-577.763	800.000	0.026	-0.096
-576.748	-200.000	-0.034	-0.441
-575.733	46.240	-0.235	0.218
-574.719	-200.000	-0.026	-0.173
-573.704	-118.191	-0.299	-0.053
-572.690	-88.201	0.147	-0.044
-571.675	181.827	0.141	-0.208
-570.661	218.928	-0.249	0.399
-569.646	-87.113	0.126	-0.038
-568.631	18.512	-0.384	0.308
-567.617	-154.623	-0.249	-0.017
-566.602	7.492	0.178	-0.133
-565.588	-37.895	-0.216	-0.115
-564.573	-157.738	-0.039	-0.002
-563.558	60.001	0.172	0.171
-562.544	462.750	-0.091	0.204
-561.529	-18.681	-0.131	0.082
-560.515	196.956	-0.231	-0.353
-559.500	177.853	-0.074	0.108
-558.485	-130.434	0.272	-0.037
-557.471	-7.384	-0.127	-0.086
-556.456	85.715	-0.333	-0.367
-555.442	22.595	0.148	0.121
-554.427	19.109	-0.202	0.162
-553.412	250.339	0.054	-0.092
-552.398	124.922	0.115	-0.145
-551.383	-90.798	-0.260	-0.075
-550.369	-200.000	-0.004	-0.427
-549.354	308.972	-0.188	0.352
-548.339	56.759	-0.223	0.218
-547.325	-90.646	0.185	0.054
-546.310	-200.000	-0.024	0.137
-545.296	18.404	-0.071	0.057
-544.281	105.552	-0.064	0.075
-543.266	-200.000	-0.027	-0.270
-542.252	20.200	0.064	-0.052
-541.237	-200.000	-0.002	0.062
-540.223	-4.566	-0.152	-0.105
-539.208	-4.340	0.348	0.242
-538.193	-96.020	0.391	0.104
-537.179	197.651	-0.099	0.152
-536.164	288.336	-0.108	0.195
-535.150	800.000	-0.073	-0.258
-534.135	800.000	0.010	0.038
-533.121	-200.000	-0.004	0.119
-532.106	424.288	-0.124	0.266
-531.091	321.408	-0.138	-0.262
-530.077	-73.019	0.038	0.014
-529.062	800.000	0.044	-0.121
-528.048	-26.699	-0.282	0.165
-527.033	-61.333	-0.321	0.135
-526.018	-87.878	-0.472	0.142
-525.004	-153.608	0.105	0.007
-523.989	800.000	-0.087	-0.306
-522.975	623.509	-0.102	-0.256
-521.960	-12.018	0.122	-0.080
-520.945	693.003	0.139	-0.365
-519.931	-200.000	-0.002	0.286
-518.916	-124.253	0.203	0.032
-517.902	800.000	0.047	0.176
-516.887	118.063	0.146	0.180
-515.872	455.318	0.038	0.085
-514.858	-106.532	0.380	0.085
-513.843	-0.121	-0.250	0.178
-512.829	-136.777	0.376	0.043
-511.814	-120.612	-0.297	-0.050
-510.799	528.299	-0.197	-0.466
-509.785	-200.000	0.053	0.401
-508.770	-109.905	-0.440	0.092
-507.756	-111.417	0.468	-0.096
-506.741	132.533	0.063	0.081
-505.726	-12.579	-0.213	-0.139
-504.712	-155.826	0.179	0.011
-503.697	800.000	-0.078	0.280
-502.683	-39.327	-0.171	-0.090
-501.668	91.299	-0.218	-0.245
-500.653	285.424	0.097	0.175
-499.639	-146.417	0.066	-0.006
-498.624	-200.000	0.031	-0.212
-497.610	-8.979	-0.097	0.065
-496.595	800.000	0.127	0.361
-495.581	51.723	-0.085	0.081
-494.566	-153.121	0.165	0.012
-493.551	-119.479	-0.355	-0.062
-492.537	121.319	0.066	0.082
-491.522	800.000	-0.041	-0.113
-490.508	-29.443	0.211	0.120
-489.493	-200.000	0.002	0.187
-488.478	50.175	0.100	-0.094
-487.464	312.218	-0.092	-0.173
-486.449	-200.000	-0.013	0.314
-485.435	639.555	0.038	0.098
-484.420	800.000	-0.046	0.140
-483.405	-39.455	-0.277	0.145
-482.391	-100.840	0.143	-0.035
-481.376	101.645	-0.252	0.293
-480.362	800.000	-0.049	0.136
-479.347	-200.000	-0.028	0.131
-478.332	-124.423	0.094	-0.015
-477.318	-22.978	-0.196	0.118
-476.303	13.038	-0.163	0.126
-475.289	-113.340	-0.049	0.010
-474.274	-10.068	-0.176	0.117
-473.259	-144.421	-0.277	0.026
-472.245	800.000	-0.085	0.318
-471.230	-200.000	0.033	0.152
-470.216	9.812	-0.303	0.230
-469.201	-200.000	0.010	0.153
-468.186	-0.582	0.204	0.145
-467.172	335.529	0.118	-0.229
-466.157	800.000	0.113	-0.322
-465.143	-1.940	-0.181	-0.127
-464.128	130.357	-0.128	0.164
-463.113	-109.931	0.375	-0.079
-462.099	555.895	-0.069	-0.166
-461.084	93.433	0.170	-0.192
-460.070	528.043	0.136	-0.321
-459.055	60.761	0.170	0.169
-458.040	46.372	-0.044	-0.041
-457.026	259.146	0.032	0.054
-456.011	-108.932	-0.276	0.059
-454.997	800.000	0.082	0.310
-453.982	543.279	-0.041	0.098
-452.968	136.349	-0.095	-0.123
-451.953	488.398	-0.065	0.147
-450.938	-31.424	0.035	0.020
-449.924	-200.000	-0.027	0.196
-448.909	-21.007	0.208	0.127
-447.895	85.029	-0.074	0.081
-446.880	-36.407	0.491	0.264
-445.865	249.729	0.145	0.246
-444.851	-23.756	-0.135	0.081
-443.836	-189.356	-0.354	-0.004
-442.822	33.168	-0.146	-0.127
-441.807	45.029	-0.232	-0.214
-440.792	-104.989	-0.356	-0.081
-439.778	247.936	-0.061	0.103
-438.763	50.989	0.023	-0.022
-437.749	800.000	-0.050	0.159
-436.734	-20.706	0.295	0.181
-435.719	-200.000	0.002	-0.055
-434.705	379.210	-0.042	0.085
-433.690	-109.107	0.141	0.030
-432.676	-19.192	-0.039	0.024
-431.661	-200.000	0.071	-0.333
-430.646	-200.000	-0.017	-0.131
-429.632	-161.470	0.185	0.009
-428.617	18.880	0.123	0.099
-427.603	131.367	0.254	-0.325
-426.588	75.987	-0.150	0.159
-425.573	-112.072	-0.159	0.032
-424.559	23.796	0.100	-0.082
-423.544	173.607	-0.096	0.139
-422.530	-200.000	-0.000	0.180
-421.515	-143.137	-0.235	0.023
-420.500	800.000	-0.052	0.157
-419.486	358.684	-0.074	0.147
-418.471	374.281	-0.088	0.178
-417.457	0.200	0.215	-0.153
-416.442	-58.367	0.025	0.011
-415.428	-184.535	-0.312	-0.005
-414.413	110.345	0.176	-0.211
-413.398	-200.000	-0.017	-0.278
-412.384	-6.949	0.161	-0.109
-411.369	-200.000	-0.006	-0.165
-410.355	20.032	0.173	0.139
-409.340	149.979	-0.215	-0.291
-408.325	454.818	-0.051	-0.112
-407.311	800.000	0.123	-0.348
-406.296	87.069	-0.288	0.317
-405.282	800.000	0.059	-0.208
-404.267	800.000	-0.037	-0.112
-403.252	350.253	-0.099	0.194
-402.238	-165.166	0.115	0.005
-401.223	-37.346	-0.071	0.038
-400.209	-7.033	0.427	-0.289
-399.194	-70.176	-0.237	-0.090
-398.179	-21.398	0.147	-0.090
-397.165	-81.212	0.252	0.083
-396.150	795.724	0.062	0.169
-395.136	800.000	-0.048	-0.188
-394.121	-78.360	0.428	0.146
-393.106	-200.000	0.019	-0.217
-392.092	-200.000	0.008	-0.313
-391.077	335.111	-0.156	-0.302
-390.063	-119.225	-0.208	-0.036
-389.048	-85.131	-0.231	0.072
-388.033	-19.424	0.062	-0.038
-387.019	-80.188	0.136	-0.045
-386.004	-55.950	-0.133	0.059
-384.990	-82.199	0.326	-0.106
-383.975	-115.911	-0.209	0.039
-382.960	155.436	0.138	0.189
-381.946	-174.819	-0.364	-0.010
-380.931	58.901	-0.285	0.279
-379.917	276.501	0.101	-0.178
-378.902	-200.000	0.009	0.564
-377.888	800.000	0.093	0.323
-376.873	-32.940	-0.182	0.101
-375.858	-200.000	-0.042	0.238
-374.844	303.335	-0.158	0.292
-373.829	19.343	0.294	-0.235
-372.815	-41.182	-0.444	0.228
-371.800	800.000	-0.078	-0.283
-370.785	-45.904	-0.205	-0.101
-369.771	-164.191	0.145	-0.007
-368.756	-110.550	-0.186	-0.038
-367.742	-70.598	0.227	0.086
-366.727	314.899	-0.017	0.032
-365.712	-16.070	0.121	0.077
-364.698	-139.250	0.234	-0.025
-363.683	800.000	0.047	-0.178
-362.669	435.674	0.080	-0.174
-361.654	800.000	0.053	-0.163
-360.639	-108.275	-0.200	0.043
-359.625	183.060	-0.071	-0.104
-358.610	-146.380	-0.237	0.021
-357.596	89.724	0.204	-0.227
-356.581	407.837	-0.108	0.227
-355.566	-41.336	-0.361	-0.185
-354.552	800.000	0.107	-0.445
-353.537	-200.000	-0.028	-0.186
-352.523	46.670	0.063	0.058
-351.508	409.820	0.107	0.226
-350.493	-191.476	0.266	-0.003
-349.479	285.475	-0.140	-0.251
-348.464	149.211	0.218	0.293
-347.450	-37.204	-0.066	-0.035
-346.435	-200.000	-0.019	-0.100
-345.420	800.000	-0.023	0.072
-344.406	-200.000	-0.061	0.402
-343.391	684.459	0.129	-0.335
-342.377	64.250	0.086	-0.086
-341.362	-200.000	0.047	-0.407
-340.348	9.334	0.256	0.193
-339.333	54.406	-0.117	-0.112
-338.318	239.727	0.074	-0.123
-337.304	800.000	-0.095	-0.297
-336.289	756.827	-0.077	-0.206
-335.275	37.640	0.199	-0.175
-334.260	568.146	0.087	-0.210
-333.245	-76.284	-0.584	-0.205
-332.231	232.938	-0.171	-0.280
-331.216	-200.000	0.027	-0.207
-330.202	34.108	0.135	-0.117
-329.187	800.000	-0.111	-0.403
-328.172	-94.542	-0.132	0.036
-327.158	169.261	-0.281	-0.399
-326.143	32.936	-0.230	-0.198
-325.129	27.199	0.369	-0.308
-324.114	800.000	0.080	0.266
-323.099	245.629	-0.045	0.076
-322.085	266.305	-0.088	-0.153
-321.070	-57.858	-0.071	0.031
-320.056	-1.457	-0.205	-0.144
-319.041	97.792	0.122	0.139
-318.026	129.031	-0.107	-0.136
-317.012	-200.000	-0.019	0.248
-315.997	-46.050	0.317	-0.155
-314.983	-190.013	0.376	0.004
-313.968	-21.014	-0.171	-0.104
-312.953	-110.199	0.212	-0.044
-311.939	257.029	-0.051	-0.088
-310.924	-173.009	0.431	0.013
-309.910	-25.964	0.293	-0.172
-308.895	362.560	0.169	0.338
-307.880	-139.581	-0.204	0.022
-306.866	800.000	-0.025	0.082
-305.851	-132.150	0.279	-0.036
-304.837	94.414	-0.104	-0.117
-303.822	-104.763	-0.113	0.026
-302.807	-89.986	0.275	-0.080
-301.793	52.856	0.148	0.140
-300.778	120.992	0.204	0.252
-299.764	800.000	0.008	0.031
-298.749	-152.720	0.199	-0.014
-297.735	697.398	-0.051	0.132
-296.720	800.000	-0.071	0.261
-295.705	-52.558	0.146	0.067
-294.691	-67.234	0.177	0.069
-293.676	489.499	0.114	0.258
-292.662	513.207	0.187	0.433
-291.647	-200.000	0.005	0.211
-290.632	592.386	-0.047	-0.116
-289.618	98.647	0.194	0.223
-288.603	150.395	0.164	0.222
-287.589	-97.441	-0.279	-0.072
-286.574	202.993	-0.255	0.391
-285.559	-7.432	-0.148	0.100
-284.545	329.283	-0.042	-0.080
-283.530	-95.112	-0.228	0.061
-282.516	-54.047	0.256	-0.116
-281.501	-121.254	0.283	-0.047
-280.486	72.576	0.128	0.133
-279.472	279.840	-0.068	-0.121
-278.457	387.125	0.130	0.267
-277.443	-14.174	-0.249	0.159
-276.428	-15.009	0.270	0.172
-275.413	-130.675	0.098	0.013
-274.399	-179.843	-0.224	0.005
-273.384	97.490	0.098	-0.111
-272.370	-141.620	0.204	0.020
-271.355	-127.973	-0.131	0.019
-270.340	-118.463	0.114	-0.020
-269.326	-200.000	0.003	0.064
-268.311	-166.523	0.123	0.005
-267.297	-118.388	-0.144	0.025
-266.282	-94.907	-0.127	-0.034
-265.267	-132.131	-0.091	0.012
-264.253	30.015	0.252	0.213
-263.238	-200.000	0.030	0.266
-262.224	-146.636	0.140	0.012
-261.209	-119.287	-0.240	0.041
-260.195	-142.395	0.253	-0.025
-259.180	424.627	-0.071	-0.151
-258.165	179.042	0.147	-0.213
-257.151	131.617	0.153	-0.195
-256.136	-59.466	-0.059	0.025
-255.122	4.746	-0.243	0.177
-254.107	-119.153	-0.042	-0.007
-253.092	-101.778	0.090	0.022
-252.078	172.734	-0.194	-0.277
-251.063	-161.075	0.332	-0.017
-250.049	117.394	-0.117	-0.142
-249.034	99.437	-0.161	-0.184
-248.019	-1.022	0.248	0.174
-247.005	800.000	0.094	-0.295
-245.990	-47.274	0.139	0.067
-244.976	-200.000	-0.033	-0.300
-243.961	-94.814	0.229	-0.062
-242.946	-68.602	-0.142	-0.054
-241.932	800.000	-0.027	0.080
-240.917	-36.270	0.086	0.046
-239.903	-200.000	-0.022	0.097
-238.888	57.932	0.221	-0.214
-237.873	800.000	0.069	0.192
-236.859	-200.000	0.015	0.067
-235.844	111.865	0.100	0.120
-234.830	52.610	0.190	0.180
-233.815	800.000	0.075	-0.277
-232.800	-85.843	0.330	0.101
-231.786	-200.000	0.016	0.076
-230.771	-200.000	0.046	-0.260
-229.757	800.000	-0.030	-0.097
-228.742	800.000	0.080	-0.262
-227.727	-128.089	-0.497	0.071
-226.713	151.806	0.177	-0.239
-225.698	-16.093	0.408	-0.257
-224.684	-176.044	0.295	-0.008
-223.669	184.196	0.170	-0.249
-222.655	90.601	-0.131	-0.146
-221.640	351.512	0.126	0.246
-220.625	31.150	0.070	0.060
-219.611	-187.301	-0.286	-0.004
-218.596	-122.559	-0.108	-0.017
-217.582	-200.000	0.033	-0.359
-216.567	-200.000	-0.047	-0.271
-215.552	-62.131	0.112	0.046
-214.538	-101.044	-0.271	-0.066
-213.523	-134.939	0.447	-0.054
-212.509	23.686	0.134	-0.109
-211.494	800.000	0.138	-0.478
-210.479	-120.031	-0.429	-0.073
-209.465	176.103	-0.235	-0.338
-208.450	-21.469	0.094	0.057
-207.436	-105.920	0.236	-0.053
-206.421	-40.993	-0.139	-0.071
-205.406	-44.491	-0.379	-0.187
-204.392	-6.450	0.054	-0.037
-203.377	800.000	-0.067	0.251
-202.363	-28.704	0.248	0.141
-201.348	-14.444	0.023	-0.014
-200.333	-200.000	0.004	0.120
-199.319	-193.409	-0.090	0.001
-198.304	-21.804	-0.166	0.100
-197.290	-91.719	0.430	0.121
-196.275	-153.877	0.033	0.002
-195.260	800.000	0.112	0.335
-194.246	-17.847	-0.258	0.160
-193.231	-200.000	0.018	0.096
-192.217	127.060	0.173	0.217
-191.202	611.081	0.060	0.149
-190.187	-15.151	-0.142	-0.090
-189.173	800.000	-0.070	0.195
-188.158	234.321	0.188	0.306
-187.144	800.000	0.129	-0.400
-186.129	1.378	-0.114	-0.081
-185.114	238.695	-0.234	-0.384
-184.100	-27.763	0.183	-0.105
-183.085	139.420	0.126	0.164
-182.071	-109.715	-0.035	0.007
-181.056	181.756	-0.134	0.194
-180.042	-80.073	0.081	0.027
-179.027	800.000	-0.070	0.255
-178.012	-200.000	-0.064	0.405
-176.998	-200.000	0.048	-0.218
-175.983	11.713	0.203	-0.154
-174.969	718.592	0.023	0.059
-173.954	-65.701	0.248	0.098
-172.939	153.709	0.207	0.280
-171.925	-67.086	0.186	-0.073
-170.910	-157.861	-0.136	-0.008
-169.896	15.651	0.108	0.084
-168.881	800.000	-0.012	-0.051
-167.866	237.262	-0.234	0.383
-166.852	141.046	-0.150	-0.196
-165.837	800.000	-0.086	-0.309
-164.823	800.000	0.072	-0.305
-163.808	19.127	0.224	0.177
-162.793	-173.214	0.257	0.008
-161.779	-173.942	0.015	-0.000
-160.764	-83.149	-0.272	0.087
-159.750	157.620	0.119	-0.163
-158.735	-145.180	0.202	-0.018
-157.720	-200.000	0.047	0.218
-156.706	-79.306	0.237	0.079
-155.691	800.000	0.092	0.338
-154.677	800.000	-0.073	0.235
-153.662	-63.636	-0.044	-0.018
-152.647	131.753	-0.120	-0.152
-151.633	800.000	0.066	0.191
-150.618	-138.145	0.170	-0.019
-149.604	413.579	-0.138	0.289
-148.589	286.652	-0.122	-0.218
-147.574	51.140	0.103	0.096
-146.560	541.316	0.090	0.211
-145.545	-111.674	0.190	0.038
-144.531	800.000	-0.107	0.397
-143.516	243.662	0.088	0.146
-142.502	-200.000	-0.056	0.279
-141.487	71.517	0.065	0.066
-140.472	-22.110	0.092	0.055
-139.458	-38.141	-0.226	-0.118
-138.443	1.722	0.147	-0.104
-137.429	-90.244	0.501	-0.144
-136.414	224.271	-0.175	0.278
-135.399	-39.025	0.073	0.038
-134.385	800.000	-0.097	-0.328
-133.370	48.867	0.040	0.037
-132.356	28.472	-0.331	-0.276
-131.341	-39.830	0.037	-0.019
-130.326	-51.280	-0.070	-0.032
-129.312	195.300	0.076	0.113
-128.297	-200.000	-0.018	0.262
-127.283	79.286	-0.154	0.163
-126.268	-200.000	-0.020	0.209
-125.253	-173.088	0.328	-0.010
-124.239	-94.718	-0.145	-0.039
-123.224	-38.193	-0.167	0.087
-122.210	-200.000	-0.005	0.265
-121.195	-125.039	0.261	0.040
