DTS Sentinel unit serial number:	SN413079Multiplexer serial number:	ORYXHardware model number:	OX4-SRSoftware version number:	ORYX F/W v4.00 Oryx Data Collector v3.7.2.0data status	okinstallation	princeton_trtdifferential loss correction	single-endedforward channel	channel 4reverse channel	N/Adate	2019/09/17time	15:13:35forward acquisition time	60.00reverse acquisition time	0.00gamma	496.2192k internal	0.2293k external	0.2293temperature offset calibration	0.9986default loss term (dB/km)	0.3790temperature slope calibration	1.0000multiplexer offset coefficient	1.0000multiplexer slope coefficient	1.0000fibre end	0.00T internal ref (°C)	37.75T ext. ref 1 (°C)	0.38T ext. ref 2 (°C)	34.57length (m)	temperature (°C)	Stokes	anti-Stokes-747.200	20.310	0.051	0.042
-746.185	800.000	0.027	-0.113
-745.171	-200.000	-0.036	0.246
-744.156	501.474	0.011	0.027
-743.142	-68.742	0.283	0.112
-742.127	-200.000	-0.021	0.303
-741.112	-159.064	0.291	-0.017
-740.098	-200.000	-0.010	0.236
-739.083	800.000	-0.085	-0.272
-738.069	551.059	-0.059	0.145
-737.054	79.091	0.477	0.522
-736.039	-145.498	-0.468	-0.043
-735.025	289.633	-0.122	0.227
-734.010	-177.339	-0.066	-0.002
-732.996	354.650	0.017	-0.035
-731.981	-200.000	-0.003	0.120
-730.966	-161.900	0.199	-0.010
-729.952	-200.000	-0.052	-0.289
-728.937	-65.241	-0.360	-0.148
-727.923	123.678	0.172	0.221
-726.908	419.544	-0.026	0.057
-725.894	28.760	-0.200	0.173
-724.879	-10.599	-0.182	0.123
-723.864	262.879	-0.335	-0.595
-722.850	177.349	0.094	-0.140
-721.835	646.567	-0.028	-0.073
-720.821	103.629	-0.167	-0.200
-719.806	59.398	-0.120	-0.121
-718.791	-58.888	-0.241	0.106
-717.777	126.870	-0.202	-0.261
-716.762	210.532	-0.134	-0.215
-715.748	800.000	-0.054	0.153
-714.733	-125.515	0.321	0.050
-713.718	96.861	0.153	-0.179
-712.704	-91.756	0.029	0.009
-711.689	800.000	0.063	-0.194
-710.675	-200.000	0.008	0.177
-709.660	441.227	0.067	-0.149
-708.645	568.379	0.024	-0.059
-707.631	-175.332	-0.290	0.008
-706.616	-150.246	-0.138	0.011
-705.602	800.000	-0.048	0.152
-704.587	-104.220	0.119	0.028
-703.572	-25.399	-0.192	0.116
-702.558	-10.027	0.189	0.129
-701.543	362.635	0.080	0.164
-700.529	417.077	0.093	0.204
-699.514	-101.074	0.195	0.049
-698.499	2.193	-0.037	0.027
-697.485	255.314	-0.144	-0.253
-696.470	481.348	-0.189	-0.439
-695.456	-90.521	0.088	0.026
-694.441	-142.206	-0.031	-0.003
-693.426	-103.449	-0.269	0.065
-692.412	800.000	0.026	0.110
-691.397	-108.625	-0.100	0.022
-690.383	47.910	-0.215	0.206
-689.368	-169.877	0.258	0.009
-688.354	-81.850	0.024	0.008
-687.339	-108.653	0.113	-0.025
-686.324	-40.844	-0.128	-0.068
-685.310	-44.819	-0.035	0.018
-684.295	-12.947	-0.264	0.175
-683.281	-200.000	-0.008	0.252
-682.266	800.000	0.043	0.135
-681.251	-80.939	0.126	0.043
-680.237	-83.454	-0.266	-0.087
-679.222	298.796	-0.035	0.066
-678.208	-200.000	0.005	0.025
-677.193	-68.138	0.224	0.089
-676.178	627.945	-0.146	0.377
-675.164	66.706	-0.085	-0.088
-674.149	0.520	0.169	-0.123
-673.135	-200.000	-0.009	-0.333
-672.120	-56.054	0.330	-0.150
-671.105	-86.514	0.166	-0.052
-670.091	800.000	-0.055	0.242
-669.076	84.621	0.202	0.226
-668.062	497.948	0.163	0.384
-667.047	-200.000	-0.075	0.526
-666.032	-89.666	-0.130	0.039
-665.018	-200.000	0.033	-0.174
-664.003	-200.000	-0.013	0.130
-662.989	800.000	0.080	-0.242
-661.974	-32.601	-0.402	-0.228
-660.959	97.128	-0.044	-0.052
-659.945	-200.000	0.007	-0.379
-658.930	-77.911	0.320	0.113
-657.916	-200.000	0.027	0.195
-656.901	-55.244	-0.345	-0.158
-655.886	-171.796	0.282	-0.009
-654.872	-47.771	0.179	0.089
-653.857	-94.288	-0.447	0.125
-652.843	-200.000	-0.053	0.251
-651.828	-107.556	-0.295	0.066
-650.814	-104.811	0.072	0.017
-649.799	-51.231	0.158	0.075
-648.784	-200.000	0.073	0.402
-647.770	212.792	-0.045	0.072
-646.755	-200.000	-0.058	0.318
-645.741	-99.531	0.334	-0.086
-644.726	-200.000	0.011	-0.164
-643.711	-83.555	-0.266	-0.087
-642.697	-24.039	0.157	-0.096
-641.682	49.009	0.189	-0.181
-640.668	-69.880	-0.299	-0.116
-639.653	-26.307	-0.141	-0.085
-638.638	-95.339	-0.166	-0.045
-637.624	800.000	0.041	-0.129
-636.609	48.573	0.256	0.244
-635.595	2.619	-0.153	0.113
-634.580	171.681	0.122	-0.178
-633.565	-79.277	0.157	-0.054
-632.551	-11.729	-0.310	0.207
-631.536	772.239	-0.048	-0.134
-630.522	-200.000	0.023	0.145
-629.507	-4.562	-0.173	-0.122
-628.492	-90.057	0.144	-0.043
-627.478	67.292	0.080	-0.084
-626.463	-117.647	-0.105	-0.019
-625.449	-13.936	0.337	-0.222
-624.434	61.278	-0.135	-0.136
-623.419	47.335	-0.159	0.151
-622.405	-63.185	0.222	-0.093
-621.390	111.250	-0.096	0.118
-620.376	218.939	0.315	0.513
-619.361	559.921	-0.089	-0.218
-618.346	-116.913	-0.201	0.037
-617.332	-95.891	-0.079	-0.022
-616.317	-200.000	0.048	0.383
-615.303	-19.277	0.276	0.174
-614.288	-124.823	-0.098	0.015
-613.273	-158.166	0.076	0.005
-612.259	-41.696	-0.164	0.086
-611.244	-200.000	-0.043	-0.199
-610.230	-200.000	0.034	0.256
-609.215	-109.328	0.344	0.074
-608.201	-200.000	-0.012	0.233
-607.186	24.074	-0.057	0.048
-606.171	72.406	-0.190	-0.202
-605.157	-87.047	-0.435	0.135
-604.142	456.585	-0.095	-0.216
-603.128	491.148	0.190	0.442
-602.113	42.070	0.121	-0.112
-601.098	174.294	-0.219	-0.321
-600.084	35.230	-0.168	0.150
-599.069	-200.000	0.036	0.171
-598.055	22.371	-0.088	-0.073
-597.040	84.564	0.191	0.213
-596.025	-192.939	-0.149	-0.001
-595.011	-151.401	-0.324	-0.025
-593.996	-200.000	-0.009	0.188
-592.982	-135.544	-0.169	0.020
-591.967	-3.455	-0.217	0.154
-590.952	-16.870	-0.082	0.053
-589.938	611.706	0.102	-0.260
-588.923	-7.547	0.143	-0.098
-587.909	-52.118	0.165	-0.078
-586.894	144.359	-0.060	-0.081
-585.879	800.000	0.063	0.228
-584.865	-64.279	-0.163	0.067
-583.850	19.597	-0.054	0.044
-582.836	51.317	-0.078	0.075
-581.821	375.862	0.064	-0.132
-580.806	-179.295	-0.083	0.002
-579.792	64.848	0.150	-0.154
-578.777	-42.934	0.261	-0.135
-577.763	8.244	0.130	0.100
-576.748	70.041	-0.042	0.044
-575.733	354.603	-0.019	-0.038
-574.719	-142.514	-0.331	0.033
-573.704	240.634	0.119	0.202
-572.690	-31.989	0.384	0.218
-571.675	800.000	-0.052	0.185
-570.661	-26.469	0.185	-0.110
-569.646	800.000	0.057	0.183
-568.631	132.282	-0.225	0.295
-567.617	-200.000	-0.002	-0.018
-566.602	22.301	-0.047	0.039
-565.588	800.000	-0.083	-0.333
-564.573	11.236	-0.112	-0.087
-563.558	186.385	-0.114	-0.172
-562.544	-38.756	0.218	-0.117
-561.529	-200.000	-0.025	-0.201
-560.515	-184.586	-0.267	0.004
-559.500	-200.000	-0.019	-0.329
-558.485	800.000	-0.055	-0.166
-557.471	4.847	-0.102	0.076
-556.456	-200.000	-0.053	-0.267
-555.442	800.000	0.029	0.094
-554.427	800.000	0.038	-0.160
-553.412	800.000	0.080	0.337
-552.398	367.792	-0.069	0.142
-551.383	-99.557	0.300	-0.077
-550.369	153.337	-0.168	-0.234
-549.354	259.993	-0.147	-0.259
-548.339	800.000	0.082	-0.244
-547.325	247.566	-0.045	-0.076
-546.310	-74.374	-0.159	-0.058
-545.296	-157.520	-0.431	0.026
-544.281	407.114	-0.088	0.189
-543.266	66.083	-0.106	0.109
-542.252	120.658	-0.042	-0.053
-541.237	605.117	-0.106	-0.267
-540.223	-135.138	0.188	0.023
-539.208	-200.000	0.059	-0.477
-538.193	346.952	-0.058	0.116
-537.179	-33.498	0.023	-0.013
-536.164	3.664	-0.011	0.008
-535.150	-97.471	-0.331	-0.087
-534.135	-19.357	0.149	-0.094
-533.121	-200.000	0.004	-0.039
-532.106	362.852	-0.079	-0.160
-531.091	4.271	0.093	0.069
-530.077	800.000	-0.095	-0.293
-529.062	-72.249	0.201	0.076
-528.048	58.714	-0.050	0.050
-527.033	-111.370	0.062	0.013
-526.018	254.849	-0.181	0.314
-525.004	-130.386	-0.268	0.037
-523.989	-200.000	0.033	0.151
-522.975	-200.000	-0.025	-0.240
-521.960	294.573	-0.234	-0.435
-520.945	-156.055	0.173	0.011
-519.931	602.981	0.038	-0.095
-518.916	-55.205	-0.135	-0.061
-517.902	-31.071	-0.202	-0.115
-516.887	121.479	0.123	-0.155
-515.872	0.201	0.208	0.150
-514.858	30.366	-0.117	-0.101
-513.843	129.356	0.142	0.184
-512.829	-100.019	0.143	-0.036
-511.814	-83.868	-0.216	-0.070
-510.799	26.260	-0.099	-0.084
-509.785	-34.038	-0.293	0.163
-508.770	425.704	-0.069	-0.151
-507.756	-48.388	-0.242	-0.118
-506.741	-200.000	-0.003	0.031
-505.726	375.745	0.118	-0.245
-504.712	154.396	0.103	0.144
-503.697	340.957	0.161	-0.320
-502.683	-200.000	0.007	0.080
-501.668	54.151	-0.163	-0.158
-500.653	-123.129	0.159	-0.026
-499.639	39.678	-0.176	0.160
-498.624	-105.116	-0.044	-0.010
-497.610	-43.119	-0.145	0.075
-496.595	-117.187	-0.478	0.088
-495.581	56.650	0.178	0.176
-494.566	78.981	-0.220	-0.239
-493.551	664.299	0.033	-0.085
-492.537	240.126	0.085	-0.143
-491.522	667.058	-0.158	0.413
-490.508	-19.128	0.258	0.163
-489.493	749.141	0.096	0.262
-488.478	800.000	0.050	-0.182
-487.464	230.336	0.133	-0.220
-486.449	84.561	0.124	-0.137
-485.435	-56.169	0.155	0.070
-484.420	800.000	-0.053	0.208
-483.405	-14.321	0.097	0.063
-482.391	34.227	0.109	-0.096
-481.376	66.090	-0.080	0.082
-480.362	-200.000	0.028	0.657
-479.347	585.951	0.048	0.119
-478.332	-200.000	-0.016	-0.178
-477.318	-120.680	-0.258	0.044
-476.303	481.464	-0.140	-0.323
-475.289	558.414	-0.103	-0.252
-474.274	359.092	0.161	-0.327
-473.259	181.247	0.096	-0.143
-472.245	-71.367	0.244	0.093
-471.230	122.773	-0.162	0.206
-470.216	18.586	-0.223	-0.180
-469.201	100.799	0.218	0.256
-468.186	-17.377	-0.143	-0.091
-467.172	140.797	-0.113	-0.151
-466.157	-120.042	0.293	0.051
-465.143	643.691	0.077	0.198
-464.128	609.008	-0.123	0.310
-463.113	261.083	0.062	-0.109
-462.099	-140.540	0.264	-0.028
-461.084	-67.567	0.361	-0.143
-460.070	-54.725	-0.269	-0.123
-459.055	-13.314	0.039	0.025
-458.040	-12.724	0.061	-0.040
-457.026	-200.000	-0.063	0.443
-456.011	31.867	-0.184	0.160
-454.997	-33.114	0.069	-0.039
-453.982	-123.029	0.437	0.071
-452.968	-135.661	0.356	-0.043
-451.953	7.849	-0.188	-0.142
-450.938	-123.158	-0.181	-0.029
-449.924	32.113	0.028	-0.025
-448.909	800.000	0.077	-0.281
-447.895	144.633	-0.136	0.183
-446.880	749.669	0.035	-0.094
-445.865	-130.195	0.107	0.015
-444.851	213.417	-0.089	0.143
-443.836	-200.000	-0.019	-0.089
-442.822	134.522	-0.007	0.009
-441.807	28.008	-0.346	0.295
-440.792	-138.079	0.190	-0.021
-439.778	-200.000	-0.029	-0.225
-438.763	-177.794	-0.447	-0.011
-437.749	542.085	-0.071	0.171
-436.734	19.743	-0.184	-0.149
-435.719	390.981	-0.091	0.191
-434.705	-111.735	0.066	0.014
-433.690	-58.896	0.124	-0.054
-432.676	203.891	0.058	-0.091
-431.661	422.289	-0.071	0.154
-430.646	498.269	0.200	0.466
-429.632	704.225	0.115	0.307
-428.617	20.686	-0.164	-0.134
-427.603	403.388	-0.229	-0.487
-426.588	320.481	-0.039	-0.074
-425.573	111.079	-0.082	-0.100
-424.559	-119.664	-0.326	-0.057
-423.544	87.905	0.178	0.199
-422.530	149.799	0.226	0.309
-421.515	-200.000	-0.019	0.162
-420.500	-23.937	-0.060	-0.036
-419.486	-21.514	0.173	0.107
-418.471	345.128	0.064	0.127
-417.457	58.534	0.086	0.085
-416.442	83.018	0.140	0.154
-415.428	800.000	-0.079	-0.281
-414.413	-42.313	-0.052	-0.027
-413.398	-104.012	0.178	-0.042
-412.384	-200.000	-0.020	-0.157
-411.369	-200.000	-0.033	-0.336
-410.355	186.538	-0.098	-0.148
-409.340	246.961	-0.094	0.161
-408.325	477.171	-0.049	0.112
-407.311	800.000	0.066	-0.273
-406.296	34.888	0.196	0.173
-405.282	-79.534	0.159	0.054
-404.267	-17.109	-0.309	0.197
-403.252	-200.000	-0.004	-0.151
-402.238	-200.000	0.029	-0.294
-401.223	-144.727	-0.362	0.034
-400.209	704.713	-0.140	-0.372
-399.194	130.373	0.252	-0.325
-398.179	-186.889	0.376	0.005
-397.165	161.816	0.274	0.388
-396.150	21.034	0.176	0.144
-395.136	-200.000	0.001	-0.029
-394.121	-156.513	0.216	0.014
-393.106	-75.090	0.107	-0.039
-392.092	105.411	0.048	-0.057
-391.077	384.499	-0.123	-0.255
-390.063	233.208	0.191	0.317
-389.048	-200.000	-0.002	0.368
-388.033	470.234	-0.041	0.093
-387.019	119.457	-0.168	-0.210
-386.004	69.590	0.141	0.146
-384.990	-200.000	-0.035	-0.159
-383.975	-115.205	0.301	-0.057
-382.960	58.260	0.120	0.118
-381.946	417.085	0.132	-0.284
-380.931	223.337	-0.198	0.322
-379.917	-10.135	0.357	-0.239
-378.902	-200.000	0.036	0.365
-377.888	-200.000	0.037	0.308
-376.873	-83.872	0.310	-0.100
-375.858	-200.000	0.060	-0.272
-374.844	-75.213	-0.190	-0.068
-373.829	112.860	0.208	0.254
-372.815	-15.825	-0.265	0.170
-371.800	60.805	-0.181	0.181
-370.785	8.915	-0.221	-0.168
-369.771	800.000	0.065	0.202
-368.756	403.367	-0.081	-0.172
-367.742	-172.357	0.090	0.003
-366.727	-200.000	-0.068	0.368
-365.712	-48.770	-0.159	0.077
-364.698	-72.497	-0.048	0.018
-363.683	-66.934	0.564	-0.225
-362.669	195.300	-0.065	0.100
-361.654	79.572	-0.179	-0.194
-360.639	-22.793	0.240	0.146
-359.625	96.221	0.138	-0.159
-358.610	278.968	0.079	0.142
-357.596	-55.324	0.157	0.071
-356.581	-167.965	0.281	0.011
-355.566	69.010	0.076	0.079
-354.552	-63.410	-0.112	0.046
-353.537	-200.000	0.017	0.088
-352.523	-14.605	0.280	0.181
-351.508	-200.000	-0.026	0.202
-350.493	-104.804	-0.007	-0.002
-349.479	48.542	0.217	-0.205
-348.464	188.306	0.065	-0.097
-347.450	-200.000	0.044	-0.392
-346.435	800.000	0.062	0.185
-345.420	800.000	0.078	-0.291
-344.406	53.124	-0.151	-0.146
-343.391	-200.000	0.015	0.078
-342.377	-112.842	-0.150	-0.030
-341.362	-6.121	0.329	0.226
-340.348	-49.123	-0.120	0.058
-339.333	422.941	0.083	-0.180
-338.318	-42.410	-0.060	-0.031
-337.304	-200.000	0.017	0.148
-336.289	105.786	0.177	-0.211
-335.275	204.776	0.186	-0.291
-334.260	-175.159	0.281	0.008
-333.245	267.828	-0.185	-0.325
-332.231	193.401	-0.034	-0.051
-331.216	-177.943	-0.343	0.008
-330.202	-65.719	0.123	0.050
-329.187	566.814	0.059	0.145
-328.172	295.714	0.121	-0.223
-327.158	-178.391	-0.243	-0.006
-326.143	109.644	0.156	-0.188
-325.129	800.000	0.009	0.031
-324.114	89.835	-0.131	-0.148
-323.099	378.546	-0.042	-0.087
-322.085	640.349	-0.052	0.133
-321.070	9.927	0.062	0.047
-320.056	-30.893	0.106	0.060
-319.041	489.293	-0.075	-0.173
-318.026	-170.580	0.369	0.013
-317.012	723.484	0.060	-0.161
-315.997	-86.002	-0.155	0.048
-314.983	-97.820	0.104	-0.027
-313.968	-140.742	-0.169	-0.018
-312.953	-200.000	-0.030	-0.350
-311.939	472.809	0.019	-0.044
-310.924	-64.686	0.207	-0.084
-309.910	-2.879	0.043	-0.030
-308.895	323.627	-0.097	-0.186
-307.880	-155.674	0.308	-0.020
-306.866	26.065	0.050	-0.042
-305.851	73.190	0.152	0.160
-304.837	-200.000	0.026	0.176
-303.822	26.101	-0.140	0.117
-302.807	278.072	0.029	0.052
-301.793	-161.797	0.209	-0.011
-300.778	547.930	-0.087	-0.210
-299.764	203.265	0.141	-0.219
-298.749	88.876	0.042	0.047
-297.735	-200.000	0.027	0.212
-296.720	336.987	-0.054	-0.106
-295.705	23.144	0.231	0.191
-294.691	-179.024	-0.089	0.002
-293.676	-82.854	0.121	-0.039
-292.662	38.524	-0.188	-0.168
-291.647	-173.144	-0.367	-0.011
-290.632	-200.000	-0.032	0.158
-289.618	133.095	0.089	-0.116
-288.603	-82.846	-0.094	-0.030
-287.589	-119.438	-0.143	0.025
-286.574	-200.000	0.012	-0.073
-285.559	59.829	0.256	-0.254
-284.545	-200.000	0.041	-0.353
-283.530	-86.973	0.354	-0.108
-282.516	-200.000	0.024	0.190
-281.501	-110.914	-0.369	0.076
-280.486	456.951	0.101	-0.224
-279.472	1.146	0.259	-0.187
-278.457	357.946	0.055	0.110
-277.443	-200.000	0.002	0.201
-276.428	114.623	0.260	0.318
-275.413	-119.028	0.054	0.009
-274.399	800.000	-0.038	0.110
-273.384	134.817	-0.059	-0.077
-272.370	-91.960	-0.195	-0.056
-271.355	128.730	0.168	-0.215
-270.340	85.246	0.138	-0.152
-269.326	800.000	0.039	-0.159
-268.311	5.306	-0.125	0.093
-267.297	-144.321	0.406	0.038
-266.282	-152.882	0.258	0.018
-265.267	249.819	0.124	0.212
-264.253	-200.000	-0.010	-0.131
-263.238	-59.297	-0.363	-0.157
-262.224	-200.000	-0.008	0.230
-261.209	575.889	0.090	-0.221
-260.195	-200.000	0.022	0.106
-259.180	-200.000	0.003	-0.135
-258.165	-162.954	-0.370	0.018
-257.151	800.000	0.077	0.246
-256.136	-122.788	0.093	0.015
-255.122	231.434	0.112	0.185
-254.107	-92.222	0.186	-0.053
-253.092	-120.613	-0.316	0.054
-252.078	-200.000	-0.011	0.168
-251.063	-23.846	-0.168	-0.101
-250.049	-33.483	-0.131	0.073
-249.034	-58.210	0.427	-0.187
-248.019	-200.000	0.015	-0.243
-247.005	675.765	-0.102	0.265
-245.990	-144.644	-0.168	0.016
-244.976	-82.232	-0.363	-0.119
-243.961	-0.208	-0.175	-0.125
-242.946	154.629	0.270	-0.372
-241.932	-89.333	-0.206	0.061
-240.917	-200.000	0.047	0.381
-239.903	-85.185	0.069	0.022
-238.888	-147.392	-0.351	-0.030
-237.873	34.118	-0.286	-0.250
-236.859	-31.346	0.168	0.095
-235.844	-71.285	-0.199	0.075
-234.830	-200.000	-0.016	0.079
-233.815	49.016	-0.156	0.147
-232.800	327.319	-0.111	-0.213
-231.786	142.014	-0.200	0.266
-230.771	0.706	-0.216	-0.155
-229.757	30.660	-0.090	0.077
-228.742	365.989	-0.161	0.325
-227.727	2.879	0.107	0.078
-226.713	463.947	0.104	-0.233
-225.698	-67.140	-0.051	0.020
-224.684	443.490	-0.197	-0.434
-223.669	-115.548	-0.258	0.049
-222.655	-90.457	-0.151	0.044
-221.640	-112.405	0.356	0.071
-220.625	-106.401	-0.380	0.085
-219.611	-132.486	-0.202	-0.026
-218.596	167.907	0.080	-0.114
-217.582	-58.640	-0.231	-0.100
-216.567	25.910	0.179	-0.150
-215.552	86.434	-0.175	0.194
-214.538	-85.456	0.134	0.042
-213.523	208.145	-0.118	0.185
-212.509	44.321	-0.206	-0.189
-211.494	652.653	-0.060	-0.155
-210.479	24.671	0.022	-0.018
-209.465	27.154	-0.038	-0.032
-208.450	800.000	-0.155	0.562
-207.436	569.749	-0.039	0.095
-206.421	211.916	0.125	0.197
-205.406	-97.607	0.251	0.065
-204.392	-14.901	0.033	0.021
-203.377	-63.361	0.144	0.059
-202.363	23.903	0.098	0.081
-201.348	235.099	0.060	-0.099
-200.333	366.776	-0.036	0.074
-199.319	800.000	0.046	0.155
-198.304	-142.711	-0.326	0.032
-197.290	-100.293	0.135	0.034
-196.275	-144.583	-0.109	-0.010
-195.260	-38.459	0.176	-0.093
-194.246	-50.474	0.268	0.126
-193.231	800.000	0.109	0.419
-192.217	19.551	-0.127	-0.103
-191.202	-156.271	0.105	0.007
-190.187	-43.044	-0.346	-0.176
-189.173	40.729	0.114	0.103
-188.158	31.261	0.117	0.101
-187.144	30.084	-0.061	0.052
-186.129	216.847	-0.237	0.378
-185.114	-200.000	-0.003	0.277
-184.100	800.000	-0.018	0.056
-183.085	84.284	0.123	0.135
-182.071	274.443	0.082	-0.146
-181.056	191.023	-0.246	0.371
-180.042	95.189	0.250	0.285
-179.027	-128.069	-0.130	0.019
-178.012	-200.000	0.014	-0.112
-176.998	28.021	0.200	-0.169
-175.983	190.198	-0.070	-0.105
-174.969	-37.108	-0.159	0.085
-173.954	132.725	-0.083	0.107
-172.939	-76.830	0.026	-0.009
-171.925	31.812	-0.103	0.089
-170.910	-26.885	0.152	-0.089
-169.896	275.768	0.152	-0.270
-168.881	56.199	-0.143	-0.138
-167.866	52.783	0.047	0.045
-166.852	-164.518	0.298	-0.014
-165.837	-137.061	-0.186	-0.021
-164.823	-111.678	0.271	-0.055
-163.808	800.000	0.098	0.288
-162.793	-98.499	0.061	-0.015
-161.779	563.226	-0.091	0.221
-160.764	340.679	0.072	0.140
-159.750	-200.000	-0.018	-0.441
-158.735	-94.784	-0.286	-0.077
-157.720	-200.000	-0.029	-0.161
-156.706	-149.298	-0.297	0.024
-155.691	-89.216	0.278	-0.082
-154.677	-122.159	-0.165	0.027
-153.662	-36.251	0.203	-0.109
-152.647	96.346	-0.063	0.072
-151.633	50.700	0.097	0.091
-150.618	34.971	0.075	0.065
-149.604	117.970	-0.144	0.178
-148.589	-121.988	0.363	-0.060
-147.574	261.565	-0.226	-0.391
-146.560	-75.536	0.348	0.124
-145.545	-103.241	0.205	-0.048
-144.531	-80.152	0.185	0.062
-143.516	74.804	-0.067	0.070
-142.502	-31.847	0.117	-0.065
-141.487	-137.664	-0.192	0.022
-140.472	255.189	0.139	-0.238
-139.458	800.000	0.027	0.109
-138.443	200.523	0.313	0.481
-137.429	55.250	-0.129	0.125
-136.414	-122.382	0.470	0.076
-135.399	800.000	-0.060	-0.244
-134.385	-35.922	-0.305	0.165
-133.370	800.000	-0.027	0.108
-132.356	-150.811	0.343	-0.026
-131.341	468.663	-0.090	-0.203
-130.326	800.000	0.030	-0.109
-129.312	800.000	0.042	0.176
-128.297	317.784	0.086	0.163
-127.283	-65.423	0.014	0.005
-126.268	800.000	0.084	0.259
-125.253	43.936	0.062	-0.057
-124.239	400.855	0.161	0.338
-123.224	-40.362	0.170	0.088
-122.210	472.984	0.034	-0.076
-121.195	-200.000	-0.037	0.161
-120.180	-188.126	0.193	0.002
