DTS Sentinel unit serial number:	SN413079Multiplexer serial number:	ORYXHardware model number:	OX4-SRSoftware version number:	ORYX F/W v4.00 Oryx Data Collector v3.7.2.0data status	okinstallation	princeton_trtdifferential loss correction	single-endedforward channel	channel 4reverse channel	N/Adate	2019/09/15time	03:33:34forward acquisition time	60.00reverse acquisition time	0.00gamma	496.2192k internal	0.2310k external	0.2310temperature offset calibration	1.0031default loss term (dB/km)	0.3790temperature slope calibration	1.0000multiplexer offset coefficient	1.0000multiplexer slope coefficient	1.0000fibre end	0.00T internal ref (°C)	31.00T ext. ref 1 (°C)	4.61T ext. ref 2 (°C)	25.81length (m)	temperature (°C)	Stokes	anti-Stokes-747.200	-122.192	-0.352	0.058
-746.185	-200.000	0.020	-0.223
-745.171	39.942	-0.080	0.073
-744.156	-24.565	-0.123	0.074
-743.142	-28.119	0.206	-0.121
-742.127	-127.651	-0.212	-0.031
-741.112	-11.520	-0.093	-0.062
-740.098	-200.000	0.007	-0.080
-739.083	13.738	-0.182	0.144
-738.069	214.570	-0.167	0.269
-737.054	-81.272	0.136	-0.045
-736.039	108.184	-0.041	-0.050
-735.025	754.014	-0.085	0.234
-734.010	-200.000	-0.003	-0.435
-732.996	-200.000	-0.046	-0.278
-731.981	-17.320	-0.459	0.294
-730.966	800.000	-0.037	0.127
-729.952	-50.736	0.068	-0.032
-728.937	358.684	-0.014	-0.028
-727.923	363.948	-0.103	0.210
-726.908	101.244	0.093	0.110
-725.894	54.926	-0.199	0.195
-724.879	254.447	0.058	0.100
-723.864	-200.000	-0.004	-0.105
-722.850	-200.000	0.025	0.305
-721.835	-200.000	0.019	0.211
-720.821	632.848	-0.047	-0.120
-719.806	-137.000	-0.198	0.023
-718.791	-78.538	-0.134	-0.046
-717.777	8.297	-0.129	0.098
-716.762	-178.419	-0.281	-0.007
-715.748	4.321	-0.043	-0.032
-714.733	117.584	-0.117	0.146
-713.718	-66.148	0.080	-0.032
-712.704	-176.322	-0.223	-0.006
-711.689	-124.319	-0.163	-0.026
-710.675	136.740	0.053	-0.070
-709.660	-62.397	0.031	-0.013
-708.645	-200.000	-0.049	-0.329
-707.631	-110.242	-0.326	-0.069
-706.616	-200.000	0.002	-0.064
-705.602	575.513	-0.028	0.068
-704.587	-189.480	-0.323	-0.004
-703.572	186.929	-0.056	-0.085
-702.558	-81.482	-0.086	-0.029
-701.543	111.635	-0.254	0.311
-700.529	-121.002	-0.475	-0.081
-699.514	121.232	0.112	-0.141
-698.499	76.747	0.249	0.268
-697.485	-15.145	0.180	0.117
-696.470	68.077	0.223	-0.231
-695.456	-43.620	0.129	-0.066
-694.441	-94.947	0.414	0.113
-693.426	314.024	-0.136	-0.259
-692.412	-98.888	0.145	-0.037
-691.397	800.000	-0.051	-0.159
-690.383	89.137	-0.143	-0.161
-689.368	683.537	0.120	-0.317
-688.354	143.376	-0.242	0.327
-687.339	-88.645	0.218	0.066
-686.324	-133.249	0.267	0.034
-685.310	-104.619	-0.333	0.078
-684.295	-200.000	0.047	-0.301
-683.281	57.206	-0.091	-0.090
-682.266	-149.233	-0.234	-0.019
-681.251	721.253	0.117	-0.317
-680.237	24.486	0.269	0.225
-679.222	-48.737	0.214	-0.104
-678.208	332.170	-0.066	0.128
-677.193	-110.650	-0.201	-0.042
-676.178	-83.683	-0.272	0.088
-675.164	-99.347	-0.202	0.052
-674.149	-43.868	0.216	-0.110
-673.135	-200.000	-0.006	0.265
-672.120	262.301	0.177	-0.310
-671.105	-0.814	-0.193	0.139
-670.091	800.000	-0.067	-0.223
-669.076	12.743	0.163	-0.127
-668.062	800.000	-0.060	-0.235
-667.047	800.000	-0.016	-0.050
-666.032	677.869	-0.081	0.213
-665.018	-90.930	0.143	-0.042
-664.003	61.662	-0.169	0.171
-662.989	-11.999	-0.203	-0.135
-661.974	177.948	-0.105	-0.154
-660.959	1.048	-0.156	-0.113
-659.945	-58.558	-0.258	0.113
-658.930	359.163	-0.123	-0.249
-657.916	-132.383	0.143	-0.019
-656.901	-200.000	0.001	-0.155
-655.886	259.843	0.074	-0.129
-654.872	7.046	-0.091	0.069
-653.857	-40.422	-0.040	0.021
-652.843	-28.664	0.093	0.054
-651.828	28.154	0.165	0.141
-650.814	325.684	-0.219	-0.423
-649.799	-52.621	0.230	0.108
-648.784	-96.370	-0.212	-0.057
-647.770	68.758	0.178	-0.185
-646.755	-200.000	0.075	-0.392
-645.741	46.185	0.297	0.279
-644.726	-111.839	0.298	-0.061
-643.711	488.327	-0.142	-0.328
-642.697	6.611	-0.092	-0.069
-641.682	-42.841	0.225	0.116
-640.668	-30.861	-0.113	0.065
-639.653	-82.140	0.135	0.045
-638.638	800.000	0.026	-0.086
-637.624	139.778	-0.113	-0.150
-636.609	523.197	0.150	0.357
-635.595	800.000	0.080	-0.336
-634.580	-69.460	0.114	-0.044
-633.565	17.045	-0.308	-0.247
-632.551	-157.426	-0.030	-0.002
-631.536	-69.451	0.186	-0.072
-630.522	232.273	-0.066	-0.110
-629.507	-154.187	-0.053	0.004
-628.492	238.733	-0.082	0.138
-627.478	699.683	0.038	-0.101
-626.463	39.693	-0.183	-0.166
-625.449	-90.567	-0.234	0.068
-624.434	68.412	-0.185	0.192
-623.419	-155.475	-0.117	-0.008
-622.405	-78.687	0.271	0.094
-621.390	800.000	-0.085	0.319
-620.376	-200.000	-0.038	0.277
-619.361	-120.215	-0.360	-0.062
-618.346	800.000	0.104	0.429
-617.332	311.208	-0.092	-0.173
-616.317	-118.170	-0.270	-0.049
-615.303	131.223	-0.084	-0.109
-614.288	616.697	0.104	0.264
-613.273	-88.203	0.367	-0.111
-612.259	-41.379	0.108	0.056
-611.244	667.969	-0.157	-0.410
-610.230	-200.000	-0.028	0.207
-609.215	-200.000	0.007	-0.056
-608.201	141.070	0.155	-0.206
-607.186	-114.312	0.183	-0.036
-606.171	-200.000	-0.246	0.001
-605.157	10.998	-0.325	-0.251
-604.142	800.000	0.037	-0.115
-603.128	59.599	0.118	0.117
-602.113	-200.000	0.054	0.378
-601.098	605.295	0.134	0.336
-600.084	-149.496	0.208	-0.017
-599.069	-86.213	-0.184	-0.057
-598.055	19.683	0.074	0.060
-597.040	15.537	-0.227	-0.180
-596.025	-200.000	-0.003	-0.198
-595.011	-200.000	0.020	0.153
-593.996	4.008	-0.078	-0.058
-592.982	-200.000	-0.012	0.136
-591.967	-13.952	-0.301	0.196
-590.952	-200.000	0.017	-0.133
-589.938	-200.000	-0.071	-0.319
-588.923	192.043	0.091	-0.138
-587.909	-191.911	0.143	-0.001
-586.894	-200.000	0.017	-0.138
-585.879	-200.000	-0.003	0.170
-584.865	13.291	-0.278	-0.218
-583.850	-200.000	0.001	0.023
-582.836	800.000	0.110	-0.474
-581.821	-119.633	0.428	0.075
-580.806	-200.000	-0.005	-0.058
-579.792	800.000	-0.028	0.117
-578.777	-200.000	0.035	0.482
-577.763	-34.202	0.135	0.075
-576.748	255.691	0.115	0.199
-575.733	232.156	0.156	-0.258
-574.719	-121.826	-0.415	-0.069
-573.704	-109.104	-0.267	-0.057
-572.690	26.576	0.303	0.256
-571.675	20.478	0.327	0.267
-570.661	98.515	0.126	0.147
-569.646	-48.144	-0.135	0.066
-568.631	-20.510	-0.260	-0.161
-567.617	-193.744	-0.165	-0.001
-566.602	-40.881	-0.208	0.108
-565.588	75.697	0.084	0.089
-564.573	-83.576	0.261	-0.084
-563.558	800.000	-0.031	0.131
-562.544	-26.586	-0.515	-0.304
-561.529	41.595	0.068	-0.062
-560.515	703.777	0.087	0.231
-559.500	348.808	0.102	0.202
-558.485	151.961	-0.160	0.221
-557.471	-60.754	0.183	0.078
-556.456	298.946	0.044	0.081
-555.442	-94.635	-0.114	0.031
-554.427	66.147	-0.133	0.136
-553.412	-200.000	-0.067	-0.341
-552.398	800.000	0.016	0.055
-551.383	800.000	0.045	-0.197
-550.369	-171.746	-0.091	0.003
-549.354	-50.324	-0.236	0.113
-548.339	-78.183	0.145	-0.050
-547.325	-200.000	-0.023	-0.180
-546.310	31.439	-0.145	-0.125
-545.296	142.899	-0.230	-0.309
-544.281	-6.553	0.193	0.132
-543.266	-200.000	0.034	0.211
-542.252	-93.864	-0.163	0.045
-541.237	30.032	0.167	0.144
-540.223	159.130	0.107	-0.149
-539.208	-54.698	0.313	-0.142
-538.193	-104.044	-0.168	0.039
-537.179	78.591	0.112	-0.121
-536.164	800.000	-0.060	0.177
-535.150	466.467	-0.063	0.141
-534.135	330.018	-0.165	-0.320
-533.121	62.223	-0.265	-0.266
-532.106	-200.000	0.041	-0.183
-531.091	-49.735	0.061	0.029
-530.077	6.166	-0.084	0.063
-529.062	41.909	-0.262	-0.239
-528.048	-49.321	-0.120	-0.057
-527.033	315.261	0.066	0.126
-526.018	-200.000	0.001	-0.029
-525.004	318.485	0.209	-0.399
-523.989	-83.511	-0.351	0.113
-522.975	143.675	0.122	-0.163
-521.960	-57.406	0.416	-0.184
-520.945	416.203	-0.003	0.007
-519.931	-64.353	0.048	0.020
-518.916	800.000	0.116	-0.411
-517.902	-2.931	0.167	0.118
-516.887	154.719	0.190	0.263
-515.872	14.107	-0.284	0.223
-514.858	92.560	0.162	0.184
-513.843	181.732	-0.135	0.201
-512.829	243.788	0.087	-0.147
-511.814	0.175	-0.177	0.127
-510.799	198.320	-0.133	0.205
-509.785	-115.633	-0.302	0.057
-508.770	113.713	-0.049	0.059
-507.756	19.680	0.263	0.213
-506.741	-52.928	0.226	0.105
-505.726	84.603	-0.101	-0.111
-504.712	126.962	-0.168	-0.214
-503.697	-34.491	-0.123	0.068
-502.683	-43.120	0.225	-0.115
-501.668	-7.535	-0.451	-0.307
-500.653	-200.000	0.208	-0.001
-499.639	-157.296	0.211	-0.013
-498.624	-148.802	-0.050	-0.004
-497.610	73.100	0.191	-0.201
-496.595	723.079	0.084	0.224
-495.581	124.442	0.272	0.345
-494.566	-200.000	-0.030	-0.390
-493.551	11.293	0.199	0.153
-492.537	20.389	0.119	-0.097
-491.522	-200.000	-0.017	-0.314
-490.508	-103.281	-0.356	-0.084
-489.493	800.000	-0.078	0.227
-488.478	-200.000	0.051	-0.263
-487.464	68.648	-0.259	-0.268
-486.449	32.615	-0.164	-0.143
-485.435	-200.000	-0.005	-0.488
-484.420	345.176	0.134	0.265
-483.405	-32.675	-0.196	0.110
-482.391	28.838	0.147	0.125
-481.376	-148.512	0.185	-0.015
-480.362	-16.002	0.311	-0.199
-479.347	-83.362	-0.088	-0.028
-478.332	123.617	0.116	-0.146
-477.318	5.945	0.010	-0.007
-476.303	127.370	0.055	-0.070
-475.289	54.879	0.055	0.053
-474.274	800.000	0.060	0.196
-473.259	-200.000	0.050	-0.321
-472.245	653.235	-0.102	0.264
-471.230	-200.000	0.006	-0.044
-470.216	-101.811	0.105	-0.026
-469.201	-20.069	0.240	0.149
-468.186	304.849	0.096	0.180
-467.172	-45.490	0.167	-0.083
-466.157	-200.000	0.019	-0.132
-465.143	74.551	-0.173	0.183
-464.128	-192.639	0.168	0.002
-463.113	-200.000	-0.035	0.193
-462.099	-145.586	-0.322	0.029
-461.084	-35.511	0.133	0.072
-460.070	-20.450	0.225	-0.139
-459.055	-87.101	0.108	0.033
-458.040	217.314	-0.221	-0.354
-457.026	-200.000	-0.009	-0.163
-456.011	-30.358	-0.324	0.184
-454.997	-169.725	-0.214	0.008
-453.982	586.788	0.068	0.169
-452.968	-132.240	0.115	-0.015
-451.953	13.884	0.158	0.124
-450.938	4.809	-0.041	0.031
-449.924	-200.000	-0.023	0.390
-448.909	800.000	0.081	0.326
-447.895	197.218	-0.071	-0.109
-446.880	-93.372	-0.238	0.066
-445.865	34.402	0.104	-0.091
-444.851	16.974	0.221	-0.176
-443.836	-52.543	-0.349	-0.162
-442.822	-165.384	-0.423	-0.019
-441.807	-116.319	0.282	0.052
-440.792	-31.059	0.167	-0.094
-439.778	449.652	-0.082	-0.181
-438.763	-21.321	-0.108	-0.066
-437.749	-69.270	0.220	-0.085
-436.734	310.177	-0.058	0.109
-435.719	-68.250	-0.266	0.104
-434.705	60.050	0.177	0.175
-433.690	39.534	-0.185	0.167
-432.676	77.985	0.226	-0.241
-431.661	-98.819	0.069	-0.018
-430.646	36.690	0.401	0.355
-429.632	34.023	0.075	-0.066
-428.617	800.000	-0.036	0.119
-427.603	367.097	0.064	-0.130
-426.588	70.440	0.148	0.154
-425.573	-200.000	0.015	0.103
-424.559	210.798	-0.205	-0.323
-423.544	-200.000	0.066	-0.329
-422.530	800.000	0.054	0.228
-421.515	53.092	-0.093	0.089
-420.500	-200.000	0.004	0.046
-419.486	220.914	0.032	0.052
-418.471	-90.111	0.231	-0.068
-417.457	220.728	0.178	-0.286
-416.442	-53.677	-0.302	-0.138
-415.428	-187.257	-0.103	0.001
-414.413	118.829	0.096	-0.119
-413.398	-123.146	0.238	0.038
-412.384	409.390	0.037	0.078
-411.369	88.240	0.165	0.183
-410.355	10.124	-0.271	-0.207
-409.340	-96.275	-0.177	0.047
-408.325	-111.429	0.325	-0.066
-407.311	-51.102	-0.159	0.075
-406.296	-84.126	-0.293	-0.093
-405.282	-49.924	-0.250	-0.119
-404.267	159.492	0.091	-0.126
-403.252	546.150	0.103	0.246
-402.238	594.808	0.058	0.143
-401.223	-85.460	-0.184	-0.057
-400.209	25.937	0.068	-0.057
-399.194	82.052	-0.107	-0.116
-398.179	172.231	-0.220	0.317
-397.165	775.552	0.065	0.179
-396.150	-102.275	-0.308	0.074
-395.136	-200.000	0.007	0.110
-394.121	-127.842	0.084	0.012
-393.106	378.098	0.063	-0.129
-392.092	110.228	-0.103	-0.124
-391.077	49.749	-0.151	0.142
-390.063	-90.621	0.195	-0.057
-389.048	-111.210	0.328	-0.067
-388.033	480.512	-0.119	0.269
-387.019	-200.000	0.029	-0.161
-386.004	800.000	-0.097	0.324
-384.990	2.938	-0.235	-0.171
-383.975	115.308	0.069	-0.085
-382.960	72.868	0.046	0.048
-381.946	-97.803	0.170	0.044
-380.931	-200.000	-0.027	-0.171
-379.917	800.000	0.058	-0.165
-378.902	156.667	0.054	-0.074
-377.888	375.494	0.154	-0.315
-376.873	98.817	-0.020	0.023
-375.858	800.000	-0.053	-0.195
-374.844	-31.067	0.108	0.061
-373.829	36.947	-0.061	-0.054
-372.815	100.868	-0.124	-0.144
-371.800	310.425	0.062	0.116
-370.785	800.000	-0.068	0.250
-369.771	131.067	0.295	-0.379
-368.756	144.988	0.087	0.117
-367.742	-44.980	0.161	0.080
-366.727	-7.158	0.142	-0.096
-365.712	-155.187	-0.182	0.012
-364.698	142.238	-0.094	-0.124
-363.683	225.564	0.050	-0.081
-362.669	38.847	0.071	0.063
-361.654	509.786	-0.092	0.215
-360.639	-200.000	-0.027	-0.278
-359.625	438.887	-0.074	0.163
-358.610	152.834	0.055	0.075
-357.596	-122.284	-0.264	0.043
-356.581	800.000	-0.046	-0.162
-355.566	87.637	0.103	0.114
-354.552	-100.530	0.117	0.029
-353.537	-2.550	-0.091	-0.064
-352.523	792.941	0.101	-0.278
-351.508	99.831	0.078	0.091
-350.493	-122.562	0.360	-0.058
-349.479	-82.485	0.370	0.120
-348.464	-174.209	-0.339	-0.010
-347.450	463.839	0.185	0.414
-346.435	-47.850	-0.304	0.147
-345.420	-26.289	0.281	-0.165
-344.406	-126.420	-0.320	-0.048
-343.391	-95.171	-0.235	-0.063
-342.377	26.981	-0.345	-0.289
-341.362	-5.078	0.060	0.042
-340.348	-200.000	-0.000	-0.047
-339.333	-180.644	0.077	-0.002
-338.318	-71.809	0.207	0.077
-337.304	403.805	0.064	-0.134
-336.289	-113.170	-0.204	-0.040
-335.275	-32.865	0.056	-0.031
-334.260	177.461	-0.063	0.092
-333.245	-200.000	0.045	-0.359
-332.231	230.520	0.162	-0.265
-331.216	-200.000	-0.015	-0.170
-330.202	97.816	0.176	0.202
-329.187	800.000	-0.012	0.038
-328.172	-101.021	0.363	0.089
-327.158	-89.209	-0.228	-0.067
-326.143	15.926	-0.097	-0.076
-325.129	-200.000	-0.019	-0.314
-324.114	-32.144	-0.116	0.065
-323.099	-200.000	0.047	0.367
-322.085	344.169	-0.162	0.317
-321.070	-200.000	0.067	0.365
-320.056	-88.183	0.316	-0.094
-319.041	332.446	-0.067	-0.130
-318.026	-45.044	0.157	0.078
-317.012	800.000	0.044	0.132
-315.997	19.412	-0.169	-0.136
-314.983	47.812	-0.141	0.131
-313.968	-94.356	-0.092	-0.025
-312.953	-160.647	-0.126	0.007
-311.939	-200.000	0.016	-0.159
-310.924	-61.504	0.349	-0.146
-309.910	273.777	0.052	-0.092
-308.895	800.000	0.100	-0.359
-307.880	-46.064	-0.346	0.170
-306.866	216.084	-0.063	-0.100
-305.851	67.500	0.171	0.174
-304.837	-200.000	-0.004	-0.412
-303.822	46.808	-0.247	-0.230
-302.807	800.000	-0.051	0.213
-301.793	800.000	-0.104	-0.405
-300.778	115.042	-0.214	-0.261
-299.764	70.949	-0.122	0.126
-298.749	-53.308	-0.166	-0.076
-297.735	122.301	-0.067	-0.084
-296.720	-76.337	-0.119	-0.042
-295.705	-15.460	0.097	0.062
-294.691	-200.000	-0.020	0.147
-293.676	-200.000	-0.029	-0.232
-292.662	182.623	-0.082	-0.121
-291.647	193.378	-0.027	-0.040
-290.632	577.426	0.100	-0.243
-289.618	89.521	0.197	-0.220
-288.603	2.961	-0.360	-0.261
-287.589	170.198	0.134	-0.191
-286.574	-43.035	0.091	0.046
-285.559	-183.806	-0.337	-0.006
-284.545	85.893	0.164	0.180
-283.530	-108.578	-0.172	0.037
-282.516	-116.942	-0.188	0.034
-281.501	137.383	-0.188	0.246
-280.486	-0.076	-0.212	0.150
-279.472	2.814	-0.282	0.204
-278.457	80.661	-0.080	-0.085
-277.443	102.412	-0.250	-0.292
-276.428	88.149	-0.422	0.467
-275.413	-200.000	-0.039	0.216
-274.399	739.055	-0.040	0.108
-273.384	-68.537	-0.065	0.025
-272.370	199.171	-0.165	-0.252
-271.355	-166.502	0.383	-0.016
-270.340	120.708	0.001	-0.002
-269.326	-187.672	-0.118	0.002
-268.311	-78.746	-0.394	-0.134
-267.297	163.795	0.088	0.123
-266.282	-200.000	0.101	0.462
-265.267	43.154	0.202	0.183
-264.253	222.479	-0.097	0.156
-263.238	-200.000	-0.005	-0.168
-262.224	-18.276	0.108	-0.067
-261.209	10.618	0.109	-0.083
-260.195	-11.950	-0.059	-0.038
-259.180	-5.682	0.175	0.120
-258.165	-91.069	0.110	-0.032
-257.151	500.448	-0.129	0.297
-256.136	-158.678	0.335	0.019
-255.122	-121.812	0.460	-0.076
-254.107	337.022	0.061	0.118
-253.092	-24.250	-0.115	0.068
-252.078	800.000	0.100	0.300
-251.063	25.253	-0.261	0.216
-250.049	16.454	-0.082	-0.064
-249.034	-168.962	-0.105	0.004
-248.019	-93.472	0.189	-0.052
-247.005	-91.949	-0.336	0.095
-245.990	-142.962	0.294	-0.028
-244.976	261.330	-0.030	-0.053
-243.961	-39.444	0.145	0.076
-242.946	150.116	-0.227	-0.306
-241.932	-200.000	-0.007	0.172
-240.917	-200.000	-0.009	0.206
-239.903	187.005	-0.065	0.097
-238.888	54.121	-0.176	0.168
-237.873	21.207	0.255	0.206
-236.859	-44.098	0.220	-0.110
-235.844	800.000	0.098	0.273
-234.830	-36.780	0.094	0.050
-233.815	197.469	-0.101	-0.153
-232.800	800.000	0.070	0.225
-231.786	-139.075	-0.210	-0.023
-230.771	800.000	-0.077	0.219
-229.757	800.000	0.065	-0.246
-228.742	100.325	-0.248	-0.286
-227.727	-138.618	0.318	0.035
-226.713	800.000	0.014	0.039
-225.698	800.000	0.054	0.159
-224.684	76.169	-0.228	-0.240
-223.669	-104.966	-0.101	-0.023
-222.655	-114.429	0.221	0.042
-221.640	-24.515	0.110	0.065
-220.625	55.749	0.282	0.272
-219.611	84.466	-0.148	-0.161
-218.596	-100.294	0.141	0.035
-217.582	-200.000	0.007	0.167
-216.567	-96.099	0.146	0.039
-215.552	273.008	0.118	0.207
-214.538	44.915	0.007	-0.006
-213.523	-152.147	0.349	-0.025
-212.509	101.473	0.105	0.121
-211.494	591.932	0.206	0.507
-210.479	143.880	-0.118	-0.156
-209.465	-200.000	0.012	-0.093
-208.450	-65.331	-0.409	0.164
-207.436	-101.489	-0.210	0.051
-206.421	-171.819	0.257	-0.008
-205.406	28.241	-0.144	-0.121
-204.392	-41.011	-0.088	-0.045
-203.377	-200.000	0.027	-0.139
-202.363	-200.000	-0.034	-0.149
-201.348	-19.529	0.313	0.193
-200.333	-115.247	-0.184	0.035
-199.319	52.752	0.221	0.210
-198.304	-136.815	-0.111	-0.013
-197.290	-119.383	0.305	-0.053
-196.275	132.790	-0.198	0.254
-195.260	33.218	0.318	-0.274
-194.246	-22.676	0.106	0.064
-193.231	79.569	-0.318	0.339
-192.217	-9.696	0.200	0.133
-191.202	-17.444	-0.127	0.079
-190.187	89.107	0.207	0.229
-189.173	800.000	-0.041	0.164
-188.158	-75.705	0.289	-0.102
-187.144	300.919	-0.155	-0.285
-186.129	694.623	0.162	0.422
-185.114	161.241	-0.205	-0.284
-184.100	-74.365	0.261	0.094
-183.085	36.865	0.198	-0.174
-182.071	-95.345	-0.312	0.083
-181.056	-53.483	0.121	0.055
-180.042	44.781	0.188	0.171
-179.027	-200.000	0.003	-0.046
-178.012	-151.614	-0.187	0.014
-176.998	-49.379	0.498	0.236
-175.983	-32.532	-0.378	-0.209
-174.969	-153.212	0.240	0.017
-173.954	419.212	0.173	-0.367
-172.939	-89.601	-0.259	-0.075
-171.925	-200.000	-0.004	0.246
-170.910	-68.981	-0.150	-0.057
-169.896	800.000	0.024	-0.070
-168.881	59.787	-0.148	-0.145
-167.866	5.611	-0.354	-0.260
-166.852	3.756	0.202	0.146
-165.837	-101.008	0.129	-0.031
-164.823	-81.685	0.114	-0.037
-163.808	30.820	0.267	0.227
-162.793	34.814	0.204	0.177
-161.779	-113.764	-0.112	-0.022
-160.764	-200.000	0.026	-0.177
-159.750	-200.000	0.037	0.215
-158.735	692.986	0.126	0.328
-157.720	-158.805	-0.161	-0.009
-156.706	-110.886	-0.331	-0.068
-155.691	-49.802	-0.349	-0.165
-154.677	800.000	0.092	0.266
-153.662	800.000	-0.035	-0.133
-152.647	137.102	-0.274	-0.356
-151.633	-59.135	0.261	0.112
-150.618	96.368	-0.184	0.209
-149.604	120.518	-0.125	-0.154
-148.589	-200.000	-0.041	0.355
-147.574	-200.000	-0.000	-0.103
-146.560	-109.369	-0.177	0.037
-145.545	-200.000	-0.044	0.310
-144.531	59.907	0.093	-0.091
-143.516	-6.971	0.263	-0.177
-142.502	-200.000	-0.006	0.087
-141.487	92.585	-0.016	-0.018
-140.472	160.901	-0.188	0.260
-139.458	-165.057	-0.187	0.008
-138.443	-0.932	0.085	-0.060
-137.429	-200.000	-0.045	-0.226
-136.414	-95.210	0.120	0.032
-135.399	-68.718	0.125	0.048
-134.385	-83.953	0.211	-0.067
-133.370	20.250	-0.281	0.225
-132.356	123.471	0.194	0.241
-131.341	800.000	-0.047	0.146
-130.326	3.055	0.369	0.266
-129.312	-200.000	0.048	0.298
-128.297	300.146	0.164	0.300
-127.283	-59.970	0.182	0.077
-126.268	-176.171	-0.089	-0.002
-125.253	-115.834	-0.394	-0.073
-124.239	143.981	-0.219	-0.289
-123.224	-33.740	-0.322	-0.176
-122.210	-94.306	0.087	0.023
-121.195	-98.902	-0.327	-0.082
-120.180	556.491	0.074	0.176
