DTS Sentinel unit serial number:	SN413079Multiplexer serial number:	ORYXHardware model number:	OX4-SRSoftware version number:	ORYX F/W v4.00 Oryx Data Collector v3.7.2.0data status	okinstallation	princeton_trtdifferential loss correction	single-endedforward channel	channel 4reverse channel	N/Adate	2019/09/18time	19:45:35forward acquisition time	60.00reverse acquisition time	0.00gamma	496.2192k internal	0.2317k external	0.2317temperature offset calibration	1.0035default loss term (dB/km)	0.3790temperature slope calibration	1.0000multiplexer offset coefficient	1.0000multiplexer slope coefficient	1.0000fibre end	0.00T internal ref (°C)	31.53T ext. ref 1 (°C)	1.08T ext. ref 2 (°C)	22.11length (m)	temperature (°C)	Stokes	anti-Stokes-747.200	-200.000	0.008	0.141
-746.185	-200.000	-0.011	-0.228
-745.171	800.000	-0.105	-0.349
-744.156	191.811	0.148	0.225
-743.142	6.669	0.199	-0.150
-742.127	-29.216	-0.092	0.053
-741.112	-141.507	0.113	0.012
-740.098	479.270	-0.113	0.260
-739.083	-143.003	-0.114	-0.011
-738.069	800.000	0.035	-0.107
-737.054	753.808	-0.090	-0.245
-736.039	-132.272	0.193	0.025
-735.025	800.000	0.113	0.498
-734.010	-94.949	-0.412	-0.113
-732.996	199.756	-0.250	-0.389
-731.981	800.000	-0.078	-0.221
-730.966	-200.000	0.023	0.277
-729.952	-65.769	-0.390	-0.158
-728.937	800.000	-0.063	-0.191
-727.923	-63.788	-0.231	0.096
-726.908	-129.651	-0.233	0.032
-725.894	-129.759	-0.297	0.041
-724.879	270.950	0.094	-0.167
-723.864	800.000	0.025	0.111
-722.850	159.106	0.283	-0.398
-721.835	551.738	-0.095	-0.230
-720.821	-48.090	0.429	0.210
-719.806	278.350	0.073	-0.132
-718.791	282.633	-0.037	0.067
-717.777	407.791	0.209	0.446
-716.762	35.895	-0.268	0.239
-715.748	195.399	0.082	-0.127
-714.733	391.572	0.060	-0.126
-713.718	66.890	-0.149	-0.154
-712.704	-77.315	0.100	-0.035
-711.689	-200.000	0.083	-0.410
-710.675	-30.821	0.203	-0.116
-709.660	-192.481	-0.321	0.003
-708.645	800.000	-0.094	-0.335
-707.631	800.000	0.082	0.285
-706.616	117.702	-0.149	-0.186
-705.602	426.244	0.123	0.269
-704.587	-188.497	-0.139	0.002
-703.572	-51.258	0.298	-0.141
-702.558	120.022	-0.191	-0.239
-701.543	-113.196	0.199	0.040
-700.529	199.032	0.210	-0.326
-699.514	733.796	0.078	0.210
-698.499	-141.022	-0.260	-0.027
-697.485	720.144	0.026	0.071
-696.470	-141.813	-0.227	0.023
-695.456	-81.918	-0.220	0.073
-694.441	-76.128	0.276	-0.099
-693.426	-200.000	-0.019	0.103
-692.412	-200.000	0.023	-0.230
-691.397	18.688	0.265	-0.214
-690.383	-33.559	0.175	-0.098
-689.368	-48.342	0.360	-0.175
-688.354	173.219	-0.108	-0.158
-687.339	-155.667	-0.214	0.014
-686.324	-105.674	-0.188	0.043
-685.310	-2.186	0.034	-0.024
-684.295	269.270	0.151	0.267
-683.281	-200.000	0.041	0.203
-682.266	148.371	-0.056	-0.076
-681.251	800.000	-0.013	-0.041
-680.237	-200.000	-0.017	-0.121
-679.222	-55.962	-0.119	0.054
-678.208	59.976	0.119	0.119
-677.193	-55.065	0.181	-0.082
-676.178	-136.835	-0.257	-0.030
-675.164	800.000	-0.050	-0.150
-674.149	-90.952	-0.140	0.041
-673.135	800.000	0.033	-0.129
-672.120	-83.877	-0.359	0.116
-671.105	-92.954	0.270	0.076
-670.091	-200.000	0.049	-0.304
-669.076	14.845	-0.280	0.221
-668.062	-56.481	-0.216	-0.097
-667.047	21.250	-0.125	-0.103
-666.032	-151.958	0.115	-0.008
-665.018	-200.000	-0.039	-0.179
-664.003	800.000	0.118	-0.407
-662.989	149.716	-0.131	0.179
-661.974	-33.480	0.320	0.178
-660.959	-77.987	-0.089	-0.031
-659.945	-77.040	-0.179	0.063
-658.930	630.196	-0.049	0.126
-657.916	85.289	-0.070	-0.078
-656.901	55.810	-0.178	0.174
-655.886	800.000	0.084	-0.362
-654.872	574.048	-0.017	0.042
-653.857	-78.715	0.190	-0.066
-652.843	-16.727	0.245	0.157
-651.828	543.589	0.200	0.482
-650.814	-171.434	0.254	-0.009
-649.799	-133.288	0.147	-0.019
-648.784	800.000	-0.038	0.153
-647.770	-154.048	-0.117	0.008
-646.755	-200.000	0.038	-0.367
-645.741	17.873	0.184	-0.148
-644.726	-60.708	0.393	0.168
-643.711	-200.000	0.008	-0.293
-642.697	800.000	0.064	-0.204
-641.682	-162.888	0.146	-0.007
-640.668	201.732	0.065	0.102
-639.653	-200.000	0.008	-0.050
-638.638	25.109	0.182	0.152
-637.624	800.000	-0.058	-0.186
-636.609	112.127	0.193	0.235
-635.595	4.071	0.149	0.110
-634.580	461.396	-0.213	-0.480
-633.565	57.473	-0.157	-0.155
-632.551	28.699	-0.187	-0.160
-631.536	-11.560	-0.211	-0.140
-630.522	-159.338	-0.172	-0.010
-629.507	293.427	0.144	0.265
-628.492	142.244	-0.174	-0.233
-627.478	-23.366	-0.229	0.139
-626.463	-144.689	0.207	-0.019
-625.449	678.460	-0.132	-0.347
-624.434	39.545	0.158	0.143
-623.419	-49.908	-0.283	-0.135
-622.405	800.000	0.083	0.243
-621.390	204.919	0.078	-0.122
-620.376	219.832	-0.042	-0.068
-619.361	-200.000	-0.037	-0.400
-618.346	336.179	0.167	-0.327
-617.332	-92.157	-0.156	-0.044
-616.317	-64.333	-0.316	0.130
-615.303	413.411	-0.134	-0.287
-614.288	-67.084	0.421	0.167
-613.273	-71.329	0.329	0.124
-612.259	-107.595	0.199	-0.044
-611.244	-200.000	-0.017	0.205
-610.230	-200.000	0.038	-0.309
-609.215	45.031	0.057	0.053
-608.201	-29.388	-0.108	0.062
-607.186	800.000	-0.090	0.299
-606.171	-200.000	0.002	0.145
-605.157	800.000	0.069	0.266
-604.142	-11.588	0.277	-0.183
-603.128	-3.537	0.184	0.129
-602.113	-145.294	-0.210	-0.019
-601.098	299.301	0.181	-0.336
-600.084	-200.000	0.029	0.348
-599.069	575.120	-0.026	0.064
-598.055	-200.000	0.098	0.459
-597.040	-159.294	0.040	-0.002
-596.025	55.732	0.066	-0.064
-595.011	147.036	-0.243	0.328
-593.996	-103.183	-0.166	0.040
-592.982	509.135	-0.040	0.093
-591.967	800.000	0.042	0.151
-590.952	38.066	-0.219	0.196
-589.938	-94.277	-0.123	-0.034
-588.923	-54.865	0.246	-0.112
-587.909	-19.617	-0.224	0.140
-586.894	201.955	-0.048	-0.075
-585.879	-182.754	-0.282	-0.005
-584.865	38.880	-0.125	-0.112
-583.850	-16.280	0.123	0.079
-582.836	5.291	0.097	-0.072
-581.821	-121.417	0.148	-0.025
-580.806	49.579	-0.252	0.239
-579.792	-13.803	0.142	-0.092
-578.777	800.000	0.123	-0.374
-577.763	43.320	0.186	0.171
-576.748	-200.000	-0.024	0.502
-575.733	-110.987	0.035	0.007
-574.719	-34.972	-0.275	0.151
-573.704	-169.486	0.180	-0.007
-572.690	-186.676	0.302	0.004
-571.675	-91.294	0.031	-0.009
-570.661	105.102	0.080	0.095
-569.646	-84.788	0.246	0.078
-568.631	-38.445	-0.119	-0.063
-567.617	-147.974	-0.313	0.026
-566.602	-200.000	-0.002	0.181
-565.588	-46.159	-0.273	-0.135
-564.573	234.274	0.080	0.133
-563.558	21.979	0.111	0.091
-562.544	451.902	0.065	0.143
-561.529	-189.949	0.125	-0.001
-560.515	-21.504	-0.023	0.014
-559.500	91.794	-0.075	-0.085
-558.485	800.000	0.036	-0.131
-557.471	800.000	0.093	0.322
-556.456	800.000	0.199	-0.604
-555.442	-130.754	-0.148	-0.020
-554.427	-105.387	0.338	-0.077
-553.412	-200.000	0.075	0.397
-552.398	-79.291	-0.285	-0.097
-551.383	800.000	0.036	-0.129
-550.369	73.063	-0.232	0.244
-549.354	315.825	0.067	-0.128
-548.339	-200.000	0.061	-0.295
-547.325	-59.125	-0.191	0.083
-546.310	-80.503	0.054	0.018
-545.296	271.981	-0.024	0.042
-544.281	-5.502	-0.429	-0.296
-543.266	-6.784	0.040	0.028
-542.252	-68.792	-0.107	-0.042
-541.237	-72.509	-0.092	-0.034
-540.223	-51.672	-0.158	0.074
-539.208	-134.849	-0.282	-0.034
-538.193	34.938	-0.138	0.121
-537.179	-87.981	-0.392	-0.118
-536.164	-83.006	-0.158	-0.051
-535.150	-136.922	-0.146	0.017
-534.135	120.319	-0.233	-0.290
-533.121	-200.000	0.022	0.141
-532.106	42.437	-0.129	0.118
-531.091	328.998	-0.046	-0.088
-530.077	-200.000	0.016	-0.127
-529.062	45.349	-0.133	-0.123
-528.048	171.353	-0.223	-0.321
-527.033	-161.314	0.064	-0.003
-526.018	110.785	-0.077	0.093
-525.004	100.774	0.134	-0.156
-523.989	-22.742	0.202	-0.123
-522.975	-162.572	0.413	-0.020
-521.960	-25.699	-0.115	0.068
-520.945	-97.624	-0.239	0.062
-519.931	45.224	-0.218	0.201
-518.916	-2.410	-0.193	-0.136
-517.902	760.026	-0.158	0.430
-516.887	-200.000	-0.056	0.363
-515.872	61.038	0.297	0.295
-514.858	-3.571	-0.318	0.222
-513.843	-28.098	0.182	-0.105
-512.829	-75.546	0.204	-0.073
-511.814	-19.979	-0.244	0.151
-510.799	12.992	-0.217	0.169
-509.785	263.075	-0.141	0.246
-508.770	-82.170	-0.298	-0.098
-507.756	6.392	-0.236	0.176
-506.741	200.546	0.193	-0.297
-505.726	-25.288	-0.293	0.174
-504.712	800.000	0.080	-0.259
-503.697	-37.382	0.200	0.107
-502.683	-188.335	-0.112	-0.001
-501.668	-47.458	-0.209	-0.102
-500.653	-28.786	-0.298	0.172
-499.639	-58.497	-0.204	0.089
-498.624	800.000	0.030	0.125
-497.610	-200.000	0.033	0.392
-496.595	-54.327	0.213	0.097
-495.581	-129.942	0.263	0.036
-494.566	800.000	0.062	-0.172
-493.551	161.093	0.076	-0.106
-492.537	49.985	0.299	0.283
-491.522	182.407	-0.136	0.201
-490.508	-200.000	-0.011	-0.202
-489.493	-128.289	-0.248	0.035
-488.478	69.874	0.163	0.168
-487.464	77.206	0.127	0.135
-486.449	-143.201	0.187	-0.018
-485.435	-27.279	0.008	-0.004
-484.420	182.119	-0.028	0.041
-483.405	800.000	-0.077	0.241
-482.391	-188.918	0.117	-0.001
-481.376	-132.616	0.151	0.019
-480.362	122.270	-0.222	0.278
-479.347	72.915	-0.132	0.138
-478.332	477.682	0.114	0.259
-477.318	-200.000	0.036	0.238
-476.303	-200.000	0.006	0.071
-475.289	-37.301	0.144	0.077
-474.274	12.866	0.078	0.061
-473.259	-132.929	0.429	0.055
-472.245	-25.797	0.280	-0.166
-471.230	-44.023	0.379	0.191
-470.216	274.346	0.060	0.107
-469.201	-106.472	0.283	0.063
-468.186	800.000	0.056	-0.228
-467.172	49.258	0.067	-0.064
-466.157	-200.000	0.017	-0.183
-465.143	-27.804	-0.171	0.100
-464.128	-111.955	-0.434	-0.088
-463.113	409.962	-0.062	0.132
-462.099	-41.174	-0.232	0.120
-461.084	126.931	-0.198	-0.252
-460.070	-18.023	0.137	-0.086
-459.055	172.483	-0.105	-0.151
-458.040	-175.869	-0.108	0.003
-457.026	-68.483	-0.279	-0.108
-456.011	263.570	0.033	-0.058
-454.997	333.502	0.056	-0.109
-453.982	-52.087	0.175	-0.082
-452.968	-19.618	0.149	0.092
-451.953	-75.817	-0.274	0.097
-450.938	800.000	0.034	0.125
-449.924	371.470	0.080	-0.162
-448.909	-60.946	-0.528	0.224
-447.895	165.097	-0.147	0.208
-446.880	236.596	-0.245	0.406
-445.865	800.000	0.077	-0.254
-444.851	33.456	0.067	0.058
-443.836	-47.610	0.128	0.062
-442.822	514.502	-0.038	0.089
-441.807	181.981	-0.092	0.136
-440.792	-115.638	-0.276	-0.052
-439.778	160.348	-0.143	0.200
-438.763	800.000	0.138	0.382
-437.749	-200.000	-0.007	0.177
-436.734	-68.636	0.319	0.123
-435.719	235.747	0.040	0.065
-434.705	-200.000	0.047	-0.236
-433.690	-89.200	0.124	-0.037
-432.676	-81.429	0.077	0.025
-431.661	-200.000	0.031	0.284
-430.646	-86.745	0.112	-0.034
-429.632	-59.919	0.351	-0.150
-428.617	15.923	-0.139	0.109
-427.603	-188.200	-0.380	-0.005
-426.588	-29.809	0.165	-0.094
-425.573	39.536	-0.100	-0.090
-424.559	-145.426	0.432	0.039
-423.544	-200.000	0.041	0.201
-422.530	-193.489	0.220	0.002
-421.515	342.955	0.040	-0.078
-420.500	-127.560	-0.175	0.025
-419.486	-196.544	-0.186	0.001
-418.471	261.853	0.020	0.035
-417.457	-130.878	0.152	-0.020
-416.442	78.004	-0.138	0.147
-415.428	7.284	-0.051	0.038
-414.413	279.295	-0.071	-0.127
-413.398	-12.232	0.162	-0.106
-412.384	-43.698	0.233	-0.118
-411.369	-82.693	0.458	0.148
-410.355	-20.009	-0.253	-0.156
-409.340	-42.726	-0.093	0.047
-408.325	38.716	0.132	-0.118
-407.311	-114.020	-0.256	-0.050
-406.296	272.051	0.106	0.187
-405.282	-16.301	-0.376	-0.238
-404.267	342.632	0.031	-0.060
-403.252	394.143	-0.076	0.157
-402.238	187.071	-0.045	-0.067
-401.223	50.436	0.195	0.184
-400.209	-129.515	-0.317	-0.044
-399.194	-111.529	-0.486	-0.099
-398.179	-200.000	0.024	-0.111
-397.165	-60.496	-0.194	0.082
-396.150	800.000	-0.051	0.148
-395.136	0.884	-0.132	0.094
-394.121	221.107	0.131	-0.210
-393.106	-107.406	0.228	-0.050
-392.092	-88.225	-0.286	-0.086
-391.077	-200.000	0.013	0.076
-390.063	120.534	-0.197	0.244
-389.048	455.458	0.055	-0.121
-388.033	-59.287	0.113	0.049
-387.019	-200.000	0.086	0.395
-386.004	50.004	0.101	-0.095
-384.990	24.508	0.261	0.215
-383.975	-68.339	0.334	0.129
-382.960	-181.378	0.056	0.001
-381.946	-121.728	-0.222	0.037
-380.931	-200.000	0.009	0.183
-379.917	-28.130	-0.217	0.125
-378.902	-200.000	-0.009	-0.066
-377.888	30.715	0.154	-0.132
-376.873	-71.067	0.144	0.054
-375.858	420.278	0.022	-0.048
-374.844	10.484	-0.326	0.248
-373.829	-97.812	0.091	0.023
-372.815	529.648	0.086	0.203
-371.800	175.319	0.143	0.207
-370.785	-137.220	0.138	0.016
-369.771	504.555	0.131	-0.302
-368.756	-200.000	0.005	-0.117
-367.742	-63.751	-0.154	0.063
-366.727	49.573	-0.130	-0.122
-365.712	171.068	0.095	-0.135
-364.698	-200.000	-0.053	-0.408
-363.683	-69.520	0.087	0.033
-362.669	-200.000	0.010	0.138
-361.654	-89.171	0.107	-0.032
-360.639	-177.873	0.308	-0.007
-359.625	-8.021	-0.204	0.137
-358.610	-22.632	0.026	-0.016
-357.596	-67.732	-0.277	-0.108
-356.581	-110.656	-0.232	-0.048
-355.566	800.000	-0.118	-0.352
-354.552	-200.000	-0.014	-0.099
-353.537	-4.883	0.167	-0.115
-352.523	17.057	0.186	-0.147
-351.508	116.932	-0.104	-0.127
-350.493	-200.000	0.011	0.084
-349.479	-200.000	0.038	-0.338
-348.464	-54.028	0.084	-0.038
-347.450	-162.790	0.018	0.001
-346.435	-141.361	-0.354	0.036
-345.420	-200.000	-0.025	0.294
-344.406	-120.467	-0.517	0.088
-343.391	-76.168	-0.353	-0.124
-342.377	44.458	-0.164	0.150
-341.362	-23.846	-0.153	-0.092
-340.348	-200.000	-0.011	0.054
-339.333	-53.942	-0.160	-0.072
-338.318	-52.399	-0.041	-0.019
-337.304	-57.883	-0.229	0.100
-336.289	-126.327	-0.176	0.026
-335.275	-84.943	-0.358	-0.112
-334.260	375.234	-0.189	0.383
-333.245	800.000	-0.093	0.262
-332.231	332.725	-0.060	-0.116
-331.216	-35.137	0.099	0.054
-330.202	-200.000	-0.003	0.073
-329.187	-200.000	-0.017	-0.092
-328.172	696.659	0.048	0.124
-327.158	32.512	0.073	0.063
-326.143	-60.291	0.359	-0.152
-325.129	800.000	0.035	-0.098
-324.114	227.117	0.154	0.249
-323.099	800.000	-0.097	0.405
-322.085	115.064	0.206	-0.250
-321.070	800.000	0.135	-0.377
-320.056	-200.000	0.015	-0.198
-319.041	800.000	-0.040	0.138
-318.026	-51.991	0.373	-0.173
-317.012	-34.511	-0.151	0.082
-315.997	-61.913	-0.169	-0.070
-314.983	238.510	0.078	0.130
-313.968	-200.000	-0.073	-0.472
-312.953	800.000	0.072	-0.236
-311.939	-27.173	0.062	0.036
-310.924	-113.242	0.251	-0.049
-309.910	-42.968	0.241	-0.122
-308.895	-43.598	-0.244	-0.123
-307.880	-200.000	0.053	-0.355
-306.866	-5.321	-0.037	-0.025
-305.851	-183.960	0.137	0.002
-304.837	210.726	0.195	0.305
-303.822	37.400	0.083	0.073
-302.807	-31.932	-0.138	0.077
-301.793	-170.652	-0.464	-0.016
-300.778	218.616	-0.106	-0.169
-299.764	-117.966	0.231	0.041
-298.749	-48.702	0.074	0.035
-297.735	630.432	0.097	0.245
-296.720	-38.968	-0.274	-0.144
-295.705	-19.169	0.254	0.157
-294.691	310.293	0.117	0.218
-293.676	-90.811	-0.203	-0.058
-292.662	800.000	-0.027	0.101
-291.647	-6.041	-0.378	0.257
-290.632	-9.634	0.322	-0.214
-289.618	-98.975	-0.231	-0.058
-288.603	-19.351	0.088	0.054
-287.589	164.090	0.202	-0.283
-286.574	800.000	-0.059	-0.200
-285.559	-33.053	-0.021	0.011
-284.545	-200.000	0.037	-0.307
-283.530	-54.699	0.064	-0.029
-282.516	-200.000	0.075	0.335
-281.501	-59.301	0.156	-0.067
-280.486	-200.000	0.039	-0.186
-279.472	-101.916	-0.270	-0.065
-278.457	-54.113	0.064	-0.029
-277.443	-74.837	-0.209	-0.075
-276.428	-200.000	-0.006	-0.215
-275.413	93.401	0.160	-0.181
-274.399	-141.111	0.200	0.020
-273.384	-84.654	0.348	0.109
-272.370	432.219	0.149	-0.321
-271.355	54.632	-0.125	0.120
-270.340	-200.000	0.025	-0.390
-269.326	69.514	-0.418	-0.428
-268.311	-143.889	0.404	0.038
-267.297	-100.666	-0.273	-0.067
-266.282	32.774	-0.170	-0.146
-265.267	-200.000	-0.076	0.000
-264.253	-112.444	0.182	-0.036
-263.238	-200.000	0.033	-0.169
-262.224	800.000	0.051	-0.185
-261.209	101.367	0.097	0.113
-260.195	-3.066	-0.307	0.213
-259.180	-161.439	0.320	-0.016
-258.165	800.000	0.045	-0.155
-257.151	-98.020	-0.382	-0.098
-256.136	40.719	0.171	-0.153
-255.122	-25.998	-0.246	-0.144
-254.107	124.894	0.232	0.291
-253.092	-200.000	0.004	-0.077
-252.078	157.467	0.187	0.258
-251.063	196.674	0.236	0.357
-250.049	800.000	-0.044	0.183
-249.034	-28.726	-0.085	0.048
-248.019	92.438	0.112	0.125
-247.005	-200.000	-0.083	-0.453
-245.990	800.000	-0.079	0.253
-244.976	92.836	-0.177	-0.199
-243.961	584.154	0.165	-0.402
-242.946	-91.643	0.361	0.102
-241.932	-15.444	-0.172	-0.109
-240.917	-48.297	-0.099	-0.047
-239.903	-68.410	0.283	-0.109
-238.888	217.109	-0.131	-0.207
-237.873	190.363	0.056	-0.083
-236.859	-124.687	0.203	-0.031
-235.844	-50.202	-0.200	-0.094
-234.830	431.751	0.025	0.054
-233.815	109.258	0.119	0.141
-232.800	-151.448	-0.142	0.010
-231.786	58.244	0.194	-0.188
-230.771	-13.031	-0.160	0.103
-229.757	-200.000	0.026	-0.130
-228.742	800.000	-0.039	0.108
-227.727	-122.501	0.124	0.020
-226.713	87.552	0.181	-0.199
-225.698	800.000	0.035	-0.102
-224.684	340.716	-0.152	0.295
-223.669	800.000	-0.055	-0.195
-222.655	-192.599	0.266	0.002
-221.640	-200.000	-0.003	0.169
-220.625	-200.000	0.006	0.174
-219.611	-10.557	-0.111	-0.073
-218.596	-107.085	0.283	0.062
-217.582	115.399	0.195	-0.236
-216.567	-77.000	-0.022	0.008
-215.552	42.564	-0.101	-0.091
-214.538	-200.000	0.012	0.382
-213.523	416.366	0.036	0.077
-212.509	205.961	0.049	-0.075
-211.494	544.923	0.041	0.098
-210.479	-200.000	-0.040	-0.292
-209.465	52.561	0.349	0.330
-208.450	-59.186	0.283	0.121
-207.436	-52.358	-0.110	0.050
-206.421	800.000	0.047	-0.142
-205.406	-157.883	0.179	0.011
-204.392	-104.013	-0.263	-0.061
-203.377	800.000	-0.063	0.241
-202.363	358.694	-0.065	-0.129
-201.348	46.391	-0.353	0.325
-200.333	-154.604	0.190	0.013
-199.319	-200.000	0.002	-0.387
-198.304	-49.389	-0.032	0.015
-197.290	74.862	0.155	-0.162
-196.275	-200.000	-0.018	-0.134
-195.260	69.963	-0.176	0.180
-194.246	-48.119	-0.127	-0.061
-193.231	-170.649	0.125	0.004
-192.217	261.783	0.144	-0.247
-191.202	51.449	0.255	0.240
-190.187	-200.000	0.009	0.236
-189.173	-200.000	-0.001	-0.139
-188.158	160.639	-0.069	0.095
-187.144	-43.429	-0.185	0.092
-186.129	-200.000	-0.001	0.069
-185.114	-200.000	0.019	-0.203
-184.100	69.103	0.050	-0.051
-183.085	-136.617	0.313	0.036
-182.071	463.088	-0.106	-0.235
-181.056	-21.733	-0.072	0.044
-180.042	224.835	0.190	-0.305
-179.027	473.621	0.208	-0.464
-178.012	181.048	-0.177	-0.257
-176.998	-80.392	0.151	-0.050
-175.983	587.209	0.110	-0.268
-174.969	283.701	-0.066	-0.117
-173.954	-200.000	0.033	0.251
-172.939	-143.540	0.207	0.020
-171.925	-163.524	0.043	0.002
-170.910	-139.609	0.114	0.012
-169.896	-200.000	-0.044	-0.204
-168.881	-200.000	0.040	0.189
-167.866	-200.000	0.108	0.000
-166.852	-108.069	0.120	-0.026
-165.837	153.276	-0.140	-0.190
-164.823	-200.000	-0.066	0.303
-163.808	118.236	0.133	0.162
-162.793	800.000	-0.084	0.246
-161.779	-3.271	0.076	0.053
-160.764	381.692	0.223	-0.454
-159.750	602.111	0.067	0.164
-158.735	-1.833	-0.042	-0.029
-157.720	-89.570	-0.185	-0.054
-156.706	800.000	-0.065	-0.245
-155.691	-23.836	0.326	0.193
-154.677	-27.180	-0.204	0.118
-153.662	410.359	-0.057	0.119
-152.647	-15.618	0.125	-0.079
-151.633	266.556	0.149	-0.258
-150.618	-32.075	0.075	-0.041
-149.604	-200.000	-0.035	0.161
-148.589	-200.000	-0.037	-0.224
-147.574	427.172	0.126	-0.269
-146.560	9.697	-0.527	0.395
-145.545	-69.323	-0.192	0.073
-144.531	754.101	0.081	0.218
-143.516	-7.438	0.429	-0.287
-142.502	-130.533	0.043	0.006
-141.487	-93.411	0.370	0.101
-140.472	-65.405	-0.201	0.080
-139.458	-113.116	0.462	0.090
-138.443	143.141	-0.027	-0.035
-137.429	-91.098	0.337	-0.096
-136.414	-171.217	0.099	-0.003
-135.399	194.311	-0.133	-0.199
-134.385	800.000	0.041	0.171
-133.370	234.372	-0.051	0.083
-132.356	90.989	0.207	-0.229
-131.341	204.022	-0.068	-0.104
-130.326	-164.681	0.150	-0.007
-129.312	800.000	-0.055	0.163
-128.297	17.676	-0.412	-0.324
-127.283	-61.749	0.228	0.094
-126.268	-7.168	0.095	0.064
-125.253	-135.304	0.184	-0.022
-124.239	-144.332	0.148	0.014
-123.224	-59.625	0.208	-0.088
-122.210	169.741	-0.139	-0.196
-121.195	9.994	0.203	0.153
