DTS Sentinel unit serial number:	SN413079Multiplexer serial number:	ORYXHardware model number:	OX4-SRSoftware version number:	ORYX F/W v4.00 Oryx Data Collector v3.7.2.0data status	okinstallation	princeton_trtdifferential loss correction	single-endedforward channel	channel 4reverse channel	N/Adate	2019/09/13time	18:49:34forward acquisition time	60.00reverse acquisition time	0.00gamma	496.2192k internal	0.2308k external	0.2308temperature offset calibration	1.0179default loss term (dB/km)	0.3790temperature slope calibration	1.0000multiplexer offset coefficient	1.0000multiplexer slope coefficient	1.0000fibre end	0.00T internal ref (°C)	32.42T ext. ref 1 (°C)	4.07T ext. ref 2 (°C)	25.68length (m)	temperature (°C)	Stokes	anti-Stokes-747.200	-200.000	0.037	0.270
-746.185	-124.038	-0.092	-0.015
-745.171	23.516	0.179	0.150
-744.156	-200.000	0.089	0.445
-743.142	-200.000	0.024	0.373
-742.127	223.843	-0.241	0.395
-741.112	-200.000	-0.077	-0.350
-740.098	-80.424	-0.200	0.068
-739.083	31.479	-0.107	-0.094
-738.069	800.000	0.038	0.166
-737.054	117.716	-0.216	0.270
-736.039	-200.000	-0.041	0.220
-735.025	52.299	-0.166	-0.161
-734.010	-110.762	-0.183	-0.038
-732.996	800.000	-0.101	-0.285
-731.981	800.000	0.032	0.126
-730.966	-148.180	0.398	0.033
-729.952	-87.102	-0.246	0.076
-728.937	-160.101	0.210	-0.012
-727.923	-200.000	0.032	-0.333
-726.908	-177.054	-0.493	0.013
-725.894	-86.371	-0.323	0.101
-724.879	-75.762	-0.211	-0.076
-723.864	68.918	0.208	0.217
-722.850	-76.472	-0.345	-0.123
-721.835	800.000	0.120	0.494
-720.821	-83.014	0.065	0.021
-719.806	106.931	-0.194	-0.234
-718.791	249.737	0.060	-0.103
-717.777	-119.570	-0.364	0.064
-716.762	72.483	-0.087	-0.092
-715.748	411.101	0.060	0.129
-714.733	-200.000	0.031	-0.233
-713.718	-200.000	0.008	-0.063
-712.704	44.594	0.074	0.069
-711.689	108.439	-0.136	0.164
-710.675	-146.036	0.121	-0.011
-709.660	-101.946	0.126	-0.031
-708.645	-47.716	-0.146	-0.072
-707.631	240.267	0.159	-0.268
-706.616	-200.000	-0.019	-0.116
-705.602	-19.566	-0.299	0.188
-704.587	-200.000	0.019	-0.284
-703.572	-200.000	-0.018	0.088
-702.558	128.161	0.029	0.037
-701.543	751.029	0.071	0.193
-700.529	618.398	0.060	0.152
-699.514	-36.192	0.247	0.135
-698.499	-40.599	0.375	-0.197
-697.485	185.020	-0.096	-0.145
-696.470	188.479	-0.101	-0.153
-695.456	125.922	-0.160	0.205
-694.441	-138.475	-0.241	-0.027
-693.426	143.258	-0.146	-0.198
-692.412	95.018	0.044	-0.050
-691.397	-38.127	0.318	-0.171
-690.383	60.331	-0.094	-0.094
-689.368	231.621	-0.054	0.090
-688.354	-5.716	0.280	0.195
-687.339	173.666	0.038	0.055
-686.324	86.222	-0.149	0.166
-685.310	89.687	-0.256	0.290
-684.295	151.786	-0.036	-0.050
-683.281	28.492	-0.128	-0.110
-682.266	182.326	-0.161	0.241
-681.251	119.458	0.118	0.148
-680.237	800.000	-0.071	0.204
-679.222	-187.857	-0.292	0.004
-678.208	6.484	-0.200	-0.151
-677.193	-179.678	-0.162	0.004
-676.178	98.764	0.078	0.091
-675.164	800.000	-0.104	0.314
-674.149	81.458	0.052	0.057
-673.135	-200.000	0.014	-0.222
-672.120	121.190	0.367	0.463
-671.105	-200.000	-0.024	0.276
-670.091	-73.236	-0.382	-0.142
-669.076	2.809	-0.175	0.129
-668.062	-46.666	-0.383	-0.190
-667.047	-104.846	0.154	-0.036
-666.032	-141.875	-0.618	0.063
-665.018	-200.000	-0.037	0.190
-664.003	443.003	0.052	0.115
-662.989	280.719	0.193	0.349
-661.974	-117.672	-0.140	0.026
-660.959	78.951	-0.287	-0.311
-659.945	398.609	0.125	0.266
-658.930	-17.838	0.381	-0.242
-657.916	-200.000	0.045	-0.334
-656.901	-200.000	0.007	-0.067
-655.886	-200.000	0.016	0.093
-654.872	800.000	0.033	-0.093
-653.857	136.762	-0.222	-0.293
-652.843	477.271	0.132	-0.301
-651.828	428.203	-0.041	0.089
-650.814	486.482	-0.047	0.109
-649.799	130.689	-0.264	0.343
-648.784	22.508	-0.025	0.021
-647.770	-68.167	0.123	-0.048
-646.755	-101.963	-0.295	0.072
-645.741	-81.025	-0.315	-0.105
-644.726	800.000	0.091	-0.360
-643.711	-200.000	-0.036	0.462
-642.697	-21.072	0.291	0.180
-641.682	-140.898	0.118	0.012
-640.668	20.061	-0.164	-0.134
-639.653	-77.753	-0.115	0.040
-638.638	74.488	0.080	-0.085
-637.624	-200.000	0.043	-0.194
-636.609	-142.606	0.046	-0.005
-635.595	-57.236	-0.102	-0.046
-634.580	-129.270	0.415	-0.059
-633.565	72.609	0.274	0.289
-632.551	183.464	-0.091	0.137
-631.536	127.272	0.058	0.074
-630.522	-49.783	-0.245	-0.118
-629.507	-6.972	-0.120	-0.082
-628.492	-77.305	-0.255	-0.090
-627.478	-66.966	0.147	0.059
-626.463	-0.503	-0.056	-0.040
-625.449	505.955	-0.068	-0.159
-624.434	-83.586	-0.023	-0.007
-623.419	9.867	-0.105	-0.081
-622.405	48.771	-0.097	0.092
-621.390	54.835	0.053	-0.052
-620.376	800.000	-0.035	0.131
-619.361	-176.465	-0.117	0.003
-618.346	800.000	0.026	-0.092
-617.332	311.376	-0.061	-0.116
-616.317	-26.159	0.283	-0.168
-615.303	-147.909	-0.163	0.014
-614.288	-114.272	0.081	-0.016
-613.273	-25.076	0.292	0.175
-612.259	-127.064	-0.326	-0.048
-611.244	-103.143	-0.050	0.012
-610.230	695.150	-0.042	-0.111
-609.215	332.957	-0.158	0.309
-608.201	-92.951	0.255	-0.072
-607.186	92.595	0.147	0.168
-606.171	15.054	0.252	-0.200
-605.157	-200.000	0.027	0.157
-604.142	-57.114	0.130	-0.058
-603.128	337.983	0.077	-0.151
-602.113	224.885	0.097	-0.158
-601.098	107.457	0.155	-0.186
-600.084	-58.459	0.125	-0.055
-599.069	-77.442	0.116	0.041
-598.055	14.657	-0.128	0.101
-597.040	446.030	0.147	-0.327
-596.025	-118.562	-0.475	-0.085
-595.011	800.000	-0.059	-0.232
-593.996	-200.000	-0.024	-0.331
-592.982	-93.044	0.170	-0.048
-591.967	238.038	0.203	-0.341
-590.952	-200.000	-0.025	0.383
-589.938	-88.248	-0.068	0.020
-588.923	800.000	0.122	-0.360
-587.909	30.774	0.139	-0.120
-586.894	-200.000	-0.021	-0.113
-585.879	-200.000	-0.010	0.090
-584.865	-200.000	-0.034	0.198
-583.850	-200.000	0.003	0.127
-582.836	-200.000	0.004	-0.266
-581.821	-121.069	-0.433	0.073
-580.806	425.213	0.062	0.135
-579.792	480.673	0.190	-0.434
-578.777	-43.268	-0.146	-0.074
-577.763	-49.016	-0.186	-0.090
-576.748	-17.822	0.167	-0.106
-575.733	-157.614	0.167	-0.010
-574.719	173.111	0.257	-0.375
-573.704	103.929	0.268	0.318
-572.690	-200.000	0.007	-0.108
-571.675	65.544	0.172	0.175
-570.661	-85.552	-0.044	-0.014
-569.646	166.076	0.175	-0.251
-568.631	177.776	-0.266	0.392
-567.617	12.749	-0.073	-0.057
-566.602	73.239	-0.231	0.243
-565.588	-65.437	0.043	0.017
-564.573	7.861	-0.286	0.217
-563.558	-14.178	0.081	0.053
-562.544	570.549	0.034	0.083
-561.529	-77.654	0.153	0.054
-560.515	-50.742	0.123	0.058
-559.500	-6.124	0.186	-0.129
-558.485	-173.756	0.298	-0.009
-557.471	-69.103	-0.157	-0.061
-556.456	-200.000	0.013	0.249
-555.442	38.051	-0.222	0.199
-554.427	-92.452	-0.153	-0.043
-553.412	-99.393	-0.226	0.058
-552.398	-40.914	-0.198	0.103
-551.383	144.895	0.290	-0.391
-550.369	-112.557	-0.135	0.027
-549.354	-68.760	0.220	0.086
-548.339	111.309	0.067	-0.081
-547.325	-135.417	-0.411	-0.050
-546.310	-95.962	0.031	0.008
-545.296	-200.000	-0.003	-0.144
-544.281	92.680	-0.141	0.161
-543.266	57.464	-0.094	-0.093
-542.252	345.180	0.086	-0.170
-541.237	-200.000	0.016	0.126
-540.223	-112.427	-0.090	-0.018
-539.208	-108.338	-0.354	0.077
-538.193	800.000	0.089	0.309
-537.179	326.599	-0.131	0.254
-536.164	41.831	-0.201	-0.184
-535.150	363.063	0.137	-0.277
-534.135	800.000	-0.079	0.284
-533.121	-116.687	0.144	-0.027
-532.106	800.000	0.081	-0.351
-531.091	-69.161	-0.273	-0.106
-530.077	-43.936	0.091	0.046
-529.062	314.658	-0.150	-0.285
-528.048	83.064	-0.148	-0.162
-527.033	-91.786	-0.229	-0.066
-526.018	-59.884	0.120	-0.052
-525.004	800.000	0.035	-0.136
-523.989	191.068	0.123	0.186
-522.975	-195.352	0.060	0.000
-521.960	-88.458	-0.206	0.062
-520.945	196.202	0.045	0.069
-519.931	4.526	0.152	-0.112
-518.916	-200.000	0.006	0.251
-517.902	68.009	-0.213	-0.220
-516.887	54.207	0.284	-0.275
-515.872	-24.322	-0.392	-0.235
-514.858	57.190	0.346	0.340
-513.843	278.015	-0.137	0.246
-512.829	-110.728	0.230	0.048
-511.814	192.099	-0.059	0.089
-510.799	106.905	0.078	0.094
-509.785	710.038	0.037	-0.099
-508.770	-150.417	-0.167	-0.013
-507.756	-127.342	-0.175	-0.026
-506.741	-81.729	0.230	0.076
-505.726	-141.780	-0.206	-0.021
-504.712	24.739	0.095	0.079
-503.697	257.498	-0.205	-0.356
-502.683	170.160	0.111	-0.160
-501.668	-77.785	0.186	0.065
-500.653	303.290	-0.116	-0.217
-499.639	-36.586	0.300	-0.163
-498.624	-0.604	-0.216	0.155
-497.610	-200.000	-0.064	0.372
-496.595	-200.000	-0.002	-0.094
-495.581	-6.134	-0.214	-0.147
-494.566	-34.402	-0.067	0.037
-493.551	203.740	-0.091	-0.143
-492.537	4.254	-0.125	-0.092
-491.522	-200.000	-0.015	0.067
-490.508	-200.000	-0.015	-0.285
-489.493	-150.790	0.319	0.024
-488.478	-200.000	0.038	0.314
-487.464	85.353	-0.079	0.087
-486.449	-159.222	0.136	0.008
-485.435	-106.405	0.076	0.017
-484.420	-116.899	-0.174	0.032
-483.405	-200.000	0.030	0.444
-482.391	67.328	0.205	-0.211
-481.376	-120.380	-0.253	0.043
-480.362	-171.658	0.268	-0.009
-479.347	110.552	-0.112	-0.136
-478.332	-100.887	0.184	-0.046
-477.318	-38.470	0.166	0.088
-476.303	90.611	-0.222	0.250
-475.289	-87.165	0.272	-0.083
-474.274	-200.000	-0.033	-0.162
-473.259	-126.194	0.184	0.028
-472.245	-16.468	0.174	0.111
-471.230	-171.121	-0.132	-0.004
-470.216	-200.000	-0.006	0.121
-469.201	-31.724	0.189	0.107
-468.186	-85.371	-0.259	-0.081
-467.172	61.063	-0.189	0.189
-466.157	-200.000	0.031	-0.250
-465.143	147.836	0.156	0.211
-464.128	428.982	0.183	0.397
-463.113	-145.639	-0.218	-0.020
-462.099	-55.379	-0.086	-0.039
-461.084	-93.735	0.119	-0.033
-460.070	-107.890	0.183	-0.040
-459.055	-115.371	0.329	0.062
-458.040	-10.126	-0.230	0.154
-457.026	-33.282	0.114	-0.063
-456.011	-39.350	-0.134	-0.071
-454.997	-36.356	-0.159	0.086
-453.982	-54.037	-0.325	0.149
-452.968	-157.267	0.175	0.011
-451.953	-40.572	-0.304	-0.158
-450.938	-105.562	0.153	0.035
-449.924	-138.908	-0.085	-0.009
-448.909	800.000	0.051	-0.211
-447.895	-63.366	0.238	-0.099
-446.880	-68.499	-0.154	0.060
-445.865	333.848	-0.081	-0.158
-444.851	-200.000	-0.054	0.361
-443.836	172.286	-0.069	0.099
-442.822	-200.000	-0.014	-0.092
-441.807	-110.643	0.218	0.045
-440.792	-34.052	0.111	0.061
-439.778	193.574	-0.152	0.232
-438.763	-133.443	-0.255	0.032
-437.749	-200.000	0.070	-0.314
-436.734	-197.366	-0.314	-0.002
-435.719	-97.870	0.141	0.036
-434.705	-59.792	-0.291	-0.125
-433.690	-71.424	0.175	0.066
-432.676	800.000	0.107	-0.346
-431.661	11.498	0.211	0.162
-430.646	-119.394	-0.247	-0.043
-429.632	800.000	-0.071	-0.298
-428.617	11.522	0.018	-0.014
-427.603	83.862	0.243	0.266
-426.588	119.234	-0.118	-0.147
-425.573	12.085	-0.408	0.315
-424.559	-200.000	-0.064	0.379
-423.544	-200.000	0.003	0.298
-422.530	-6.948	0.219	0.149
-421.515	383.976	0.051	0.106
-420.500	800.000	-0.042	0.142
-419.486	115.819	-0.081	-0.099
-418.471	-200.000	0.031	-0.203
-417.457	50.784	0.166	-0.157
-416.442	-200.000	-0.043	0.345
-415.428	147.227	0.200	0.271
-414.413	-79.778	0.178	0.060
-413.398	-167.090	0.261	0.011
-412.384	-28.675	0.063	0.036
-411.369	-38.185	-0.178	0.095
-410.355	-200.000	-0.001	-0.055
-409.340	-13.642	-0.236	-0.153
-408.325	-200.000	0.011	-0.167
-407.311	-94.506	-0.383	0.105
-406.296	-51.674	-0.335	-0.157
-405.282	42.543	-0.109	0.100
-404.267	117.492	-0.215	0.265
-403.252	800.000	0.014	0.058
-402.238	-200.000	-0.012	0.130
-401.223	102.025	-0.144	-0.168
-400.209	800.000	0.033	0.092
-399.194	-92.725	-0.145	0.041
-398.179	85.897	0.252	-0.278
-397.165	-132.793	-0.199	0.026
-396.150	369.733	-0.118	-0.240
-395.136	236.220	-0.039	-0.064
-394.121	115.272	-0.039	-0.048
-393.106	-200.000	0.002	0.437
-392.092	-1.913	-0.107	-0.075
-391.077	-200.000	-0.007	-0.042
-390.063	-103.697	-0.124	0.029
-389.048	148.249	-0.130	0.175
-388.033	800.000	0.085	-0.244
-387.019	-72.826	0.489	-0.180
-386.004	33.396	0.157	0.136
-384.990	-122.173	0.061	0.010
-383.975	-37.512	-0.063	0.033
-382.960	36.866	0.021	0.019
-381.946	-200.000	-0.137	0.001
-380.931	-132.808	0.211	-0.027
-379.917	800.000	-0.141	-0.439
-378.902	800.000	0.055	0.194
-377.888	108.596	-0.167	0.200
-376.873	-88.732	-0.244	-0.073
-375.858	-69.196	-0.284	0.109
-374.844	18.257	0.166	-0.133
-373.829	-200.000	0.058	0.393
-372.815	-80.889	0.295	0.098
-371.800	358.795	0.089	0.178
-370.785	-177.370	0.252	-0.006
-369.771	-10.357	0.132	-0.088
-368.756	800.000	-0.113	0.427
-367.742	183.771	0.178	-0.264
-366.727	1.757	-0.226	0.163
-365.712	48.381	0.105	0.099
-364.698	-49.927	-0.120	0.057
-363.683	800.000	-0.016	0.054
-362.669	392.281	-0.109	0.228
-361.654	-140.705	-0.216	0.022
-360.639	-93.174	-0.148	0.041
-359.625	746.504	0.016	0.044
-358.610	-34.729	0.175	0.096
-357.596	359.028	-0.074	0.148
-356.581	-27.690	0.093	-0.054
-355.566	-125.773	0.386	0.058
-354.552	-100.157	-0.302	-0.075
-353.537	-36.825	0.243	-0.130
-352.523	-30.838	0.236	0.134
-351.508	-69.845	0.201	0.077
-350.493	-200.000	0.010	-0.068
-349.479	328.268	0.023	0.044
-348.464	-80.483	0.165	-0.055
-347.450	5.741	0.148	0.110
-346.435	295.465	0.072	-0.131
-345.420	-200.000	0.009	0.405
-344.406	-200.000	0.016	0.391
-343.391	317.106	0.044	0.083
-342.377	-50.329	-0.116	-0.055
-341.362	-86.682	-0.057	0.017
-340.348	-52.926	-0.395	-0.182
-339.333	483.419	-0.059	-0.134
-338.318	564.948	0.008	0.020
-337.304	-124.091	-0.141	-0.022
-336.289	-200.000	0.039	-0.173
-335.275	-72.307	-0.090	0.033
-334.260	50.150	0.135	-0.127
-333.245	30.618	0.309	-0.265
-332.231	-200.000	0.003	0.133
-331.216	-149.760	-0.135	0.011
-330.202	-46.872	-0.185	-0.090
-329.187	-145.580	-0.104	0.009
-328.172	-43.798	0.203	0.102
-327.158	-175.093	0.094	0.003
-326.143	800.000	-0.102	0.289
-325.129	79.907	0.316	-0.339
-324.114	-90.173	0.139	0.040
-323.099	-200.000	0.003	0.093
-322.085	800.000	0.110	-0.479
-321.070	-200.000	-0.027	-0.163
-320.056	279.548	-0.026	-0.047
-319.041	-43.678	0.428	0.216
-318.026	-133.841	0.180	-0.022
-317.012	-19.354	-0.373	0.231
-315.997	-111.240	0.091	-0.019
-314.983	22.630	-0.237	-0.194
-313.968	-26.768	0.139	0.081
-312.953	151.348	0.252	-0.343
-311.939	-25.342	-0.116	-0.068
-310.924	167.174	-0.072	0.102
-309.910	120.851	0.159	-0.198
-308.895	-81.901	-0.271	0.089
-307.880	-25.192	0.261	0.154
-306.866	-36.995	0.224	-0.120
-305.851	-200.000	0.025	0.391
-304.837	-150.872	-0.389	-0.029
-303.822	800.000	0.078	0.342
-302.807	6.778	0.214	0.159
-301.793	-25.690	-0.264	-0.155
-300.778	-90.885	0.154	0.044
-299.764	-101.948	-0.061	-0.015
-298.749	-85.350	-0.202	-0.063
-297.735	35.045	-0.349	0.306
-296.720	-200.000	0.043	0.249
-295.705	419.502	0.034	0.074
-294.691	-200.000	-0.017	-0.321
-293.676	-182.267	0.183	0.003
-292.662	-200.000	0.076	-0.357
-291.647	-200.000	0.004	-0.150
-290.632	-200.000	0.009	-0.140
-289.618	-200.000	0.032	0.215
-288.603	-133.818	0.453	0.056
-287.589	71.164	0.103	-0.107
-286.574	471.283	0.100	-0.224
-285.559	41.291	0.220	0.199
-284.545	-193.752	-0.428	-0.004
-283.530	-101.398	-0.257	-0.063
-282.516	-48.422	0.170	-0.082
-281.501	-200.000	0.043	-0.250
-280.486	-200.000	0.009	-0.109
-279.472	-49.351	0.157	0.075
-278.457	15.417	0.147	-0.116
-277.443	333.258	0.151	-0.291
-276.428	-200.000	0.070	-0.427
-275.413	-18.887	-0.121	-0.075
-274.399	-60.073	0.097	0.041
-273.384	-60.845	0.134	-0.057
-272.370	63.454	-0.486	-0.486
-271.355	67.100	0.171	-0.174
-270.340	-79.056	0.302	-0.102
-269.326	-200.000	0.006	0.063
-268.311	135.460	-0.077	-0.100
-267.297	-200.000	-0.093	0.425
-266.282	181.331	-0.178	-0.261
-265.267	9.788	0.019	-0.014
-264.253	-19.576	-0.083	0.051
-263.238	72.999	0.139	0.145
-262.224	-81.395	-0.302	-0.099
-261.209	-173.345	-0.343	0.010
-260.195	-200.000	0.017	-0.143
-259.180	57.953	0.053	0.052
-258.165	64.653	-0.144	0.145
-257.151	-7.561	-0.151	-0.102
-256.136	-200.000	0.027	0.159
-255.122	800.000	-0.092	-0.301
-254.107	-73.029	-0.151	-0.055
-253.092	-167.801	-0.497	-0.020
-252.078	-149.963	0.283	0.022
-251.063	345.042	-0.094	0.184
-250.049	-79.762	-0.102	0.034
-249.034	-200.000	0.001	-0.470
-248.019	16.321	-0.171	0.135
-247.005	-143.095	0.148	-0.014
-245.990	-128.434	0.225	-0.032
-244.976	21.387	0.135	-0.109
-243.961	-73.277	0.055	0.020
-242.946	-69.214	-0.080	-0.031
-241.932	800.000	0.065	-0.209
-240.917	-44.019	0.158	0.079
-239.903	800.000	0.076	0.243
-238.888	-15.908	0.063	0.040
-237.873	-200.000	0.013	0.511
-236.859	571.918	-0.112	0.271
-235.844	-22.417	0.023	0.014
-234.830	-75.433	-0.334	-0.118
-233.815	355.416	0.110	0.218
-232.800	500.980	0.075	-0.173
-231.786	-39.539	0.326	-0.170
-230.771	800.000	0.092	0.320
-229.757	-6.631	0.151	-0.103
-228.742	305.546	-0.081	-0.150
-227.727	-157.978	-0.162	-0.010
-226.713	34.362	0.075	-0.066
-225.698	73.954	-0.163	-0.171
-224.684	-108.077	0.466	0.101
-223.669	-200.000	-0.027	-0.246
-222.655	-123.616	-0.092	0.015
-221.640	113.663	-0.154	-0.186
-220.625	79.431	-0.104	-0.111
-219.611	-200.000	-0.014	-0.175
-218.596	302.910	-0.074	-0.136
-217.582	136.174	-0.091	0.119
-216.567	-200.000	-0.002	0.284
-215.552	-147.133	-0.307	-0.026
-214.538	-11.414	-0.329	0.215
-213.523	68.341	0.189	-0.193
-212.509	-139.068	0.155	-0.017
-211.494	-150.303	0.051	0.004
-210.479	800.000	0.030	0.104
-209.465	-110.505	0.137	0.028
-208.450	-200.000	-0.072	-0.392
-207.436	-146.758	0.145	-0.013
-206.421	26.897	-0.152	0.127
-205.406	80.396	0.215	0.231
-204.392	-150.741	-0.072	-0.005
-203.377	800.000	-0.031	-0.096
-202.363	334.101	0.042	-0.081
-201.348	-118.323	0.302	-0.053
-200.333	-45.507	-0.121	-0.059
-199.319	-200.000	-0.034	-0.242
-198.304	-110.860	-0.142	-0.029
-197.290	800.000	-0.077	0.335
-196.275	-94.004	-0.381	-0.104
-195.260	-200.000	0.037	-0.272
-194.246	-133.416	0.274	0.034
-193.231	-28.241	-0.240	0.138
-192.217	-83.825	0.155	0.049
-191.202	-200.000	-0.093	0.000
-190.187	800.000	0.047	0.166
-189.173	119.327	0.177	-0.218
-188.158	-135.877	-0.268	0.031
-187.144	-153.554	0.359	0.025
-186.129	18.885	0.202	0.161
-185.114	-21.103	0.112	0.068
-184.100	512.239	-0.047	0.109
-183.085	179.912	-0.114	0.166
-182.071	-200.000	0.046	0.292
-181.056	800.000	0.078	-0.294
-180.042	518.321	-0.058	0.134
-179.027	358.516	-0.068	0.135
-178.012	-5.544	0.129	-0.088
-176.998	-38.123	-0.148	-0.078
-175.983	-128.593	-0.065	-0.009
-174.969	-115.967	0.223	-0.041
-173.954	-164.600	0.352	-0.016
-172.939	63.822	-0.200	-0.200
-171.925	-200.000	0.025	-0.137
-170.910	33.533	0.074	0.064
-169.896	-165.818	-0.246	-0.011
-168.881	-200.000	-0.004	0.156
-167.866	-109.097	-0.226	-0.048
-166.852	-200.000	-0.023	0.236
-165.837	25.434	-0.051	-0.042
-164.823	800.000	0.058	0.167
-163.808	414.766	-0.011	-0.024
-162.793	-80.336	0.292	0.097
-161.779	225.924	0.065	0.104
-160.764	-200.000	0.037	0.168
-159.750	-111.283	0.164	-0.033
-158.735	652.534	0.056	0.142
-157.720	129.613	0.092	-0.116
-156.706	-85.493	-0.230	-0.071
-155.691	-103.991	-0.238	0.055
-154.677	612.884	-0.156	0.388
-153.662	800.000	0.052	-0.197
-152.647	-55.483	0.317	-0.141
-151.633	-200.000	0.126	0.000
-150.618	745.950	0.117	-0.313
-149.604	-60.901	-0.149	0.062
-148.589	-103.133	0.151	0.036
-147.574	87.900	0.058	0.064
-146.560	43.813	-0.024	0.021
-145.545	633.264	0.029	-0.073
-144.531	416.031	-0.113	0.239
-143.516	-56.738	0.185	0.081
-142.502	255.876	0.125	-0.212
-141.487	800.000	0.084	0.345
-140.472	800.000	-0.021	-0.083
-139.458	-53.195	0.402	-0.183
-138.443	-141.976	-0.237	-0.023
-137.429	-41.817	-0.199	-0.102
-136.414	800.000	0.080	-0.330
-135.399	75.614	-0.066	0.070
-134.385	-117.874	0.201	-0.036
-133.370	800.000	0.090	0.263
-132.356	764.751	-0.038	0.102
-131.341	-70.287	0.298	0.112
-130.326	-200.000	-0.022	-0.193
-129.312	-200.000	0.089	-0.419
-128.297	-200.000	-0.043	-0.350
-127.283	-103.116	0.355	0.083
-126.268	-82.868	0.167	0.054
-125.253	-101.501	-0.093	-0.022
-124.239	-91.793	-0.100	0.028
-123.224	16.751	-0.146	-0.115
-122.210	-176.378	0.376	-0.010
-121.195	-94.328	-0.063	0.017
