DTS Sentinel unit serial number:	SN413079Multiplexer serial number:	ORYXHardware model number:	OX4-SRSoftware version number:	ORYX F/W v4.00 Oryx Data Collector v3.7.2.0data status	okinstallation	princeton_trtdifferential loss correction	single-endedforward channel	channel 4reverse channel	N/Adate	2019/09/14time	01:49:35forward acquisition time	60.00reverse acquisition time	0.00gamma	496.2192k internal	0.2323k external	0.2323temperature offset calibration	1.0128default loss term (dB/km)	0.3790temperature slope calibration	1.0000multiplexer offset coefficient	1.0000multiplexer slope coefficient	1.0000fibre end	0.00T internal ref (°C)	26.44T ext. ref 1 (°C)	3.20T ext. ref 2 (°C)	21.48length (m)	temperature (°C)	Stokes	anti-Stokes-747.200	359.875	-0.055	-0.111
-746.185	-200.000	0.038	0.205
-745.171	-93.683	-0.115	0.032
-744.156	-108.985	-0.234	-0.050
-743.142	800.000	-0.060	-0.204
-742.127	-50.121	0.101	0.048
-741.112	-200.000	0.018	-0.283
-740.098	-147.993	-0.125	0.011
-739.083	-19.828	0.161	0.101
-738.069	335.311	-0.129	0.253
-737.054	419.432	0.125	-0.269
-736.039	-108.019	-0.152	0.033
-735.025	149.404	-0.103	0.141
-734.010	-98.318	-0.504	0.131
-732.996	251.437	0.146	-0.251
-731.981	-123.606	-0.093	-0.015
-730.966	-73.427	-0.317	-0.117
-729.952	7.256	-0.316	-0.238
-728.937	-58.986	-0.143	0.062
-727.923	-152.442	-0.184	-0.013
-726.908	-200.000	-0.023	-0.230
-725.894	-64.309	-0.139	-0.057
-724.879	800.000	-0.100	-0.289
-723.864	341.494	-0.194	-0.383
-722.850	-188.181	-0.251	0.003
-721.835	-200.000	-0.011	0.196
-720.821	255.981	0.031	-0.054
-719.806	253.653	-0.082	0.141
-718.791	-34.134	0.163	-0.090
-717.777	139.950	0.192	-0.255
-716.762	800.000	-0.069	0.222
-715.748	-74.402	-0.210	0.076
-714.733	-200.000	0.037	-0.194
-713.718	295.682	0.088	0.162
-712.704	-59.400	-0.184	0.080
-711.689	108.100	-0.238	-0.286
-710.675	-200.000	0.059	-0.281
-709.660	249.583	-0.079	-0.136
-708.645	-75.814	0.305	0.109
-707.631	-99.965	0.135	0.034
-706.616	800.000	-0.025	-0.090
-705.602	-53.373	0.343	0.159
-704.587	471.696	-0.051	-0.116
-703.572	205.010	0.181	0.283
-702.558	-48.330	-0.244	-0.118
-701.543	41.547	-0.042	-0.038
-700.529	643.042	-0.113	-0.290
-699.514	230.923	0.269	-0.444
-698.499	-80.175	0.204	-0.069
-697.485	-36.788	-0.333	-0.180
-696.470	210.323	-0.068	0.108
-695.456	-147.635	-0.075	-0.006
-694.441	-200.000	-0.017	0.173
-693.426	99.889	0.146	0.171
-692.412	800.000	-0.084	0.248
-691.397	298.653	0.124	-0.230
-690.383	68.036	-0.189	-0.195
-689.368	-141.705	0.177	0.018
-688.354	-48.926	-0.159	0.077
-687.339	273.073	-0.106	-0.189
-686.324	-90.176	-0.279	0.082
-685.310	-73.533	-0.051	-0.019
-684.295	-106.709	0.201	-0.045
-683.281	589.324	0.047	-0.116
-682.266	-137.463	-0.122	0.014
-681.251	-47.634	0.097	-0.048
-680.237	800.000	0.100	0.321
-679.222	800.000	0.024	-0.085
-678.208	259.445	-0.038	-0.065
-677.193	-149.751	-0.331	-0.026
-676.178	800.000	0.052	-0.224
-675.164	222.180	-0.082	-0.134
-674.149	-132.437	0.164	0.021
-673.135	789.620	-0.066	-0.184
-672.120	-89.825	-0.158	0.047
-671.105	800.000	-0.071	-0.201
-670.091	-47.638	-0.189	0.092
-669.076	-183.761	-0.320	-0.005
-668.062	-107.413	-0.220	0.049
-667.047	-200.000	-0.013	-0.083
-666.032	-155.398	0.159	0.010
-665.018	103.200	0.272	-0.321
-664.003	311.162	0.073	0.138
-662.989	-111.215	0.320	0.066
-661.974	587.462	-0.077	0.190
-660.959	-111.667	-0.420	0.086
-659.945	-158.944	-0.233	0.013
-658.930	-47.066	-0.132	-0.065
-657.916	-18.837	-0.226	-0.142
-656.901	800.000	0.055	-0.177
-655.886	-200.000	0.030	-0.288
-654.872	-122.229	-0.093	0.015
-653.857	-56.135	0.276	0.124
-652.843	-200.000	0.028	0.144
-651.828	18.479	-0.152	0.122
-650.814	800.000	0.058	-0.197
-649.799	-56.674	0.366	0.163
-648.784	-200.000	-0.019	0.269
-647.770	127.400	-0.260	-0.332
-646.755	-119.764	-0.190	-0.033
-645.741	-76.908	0.093	0.033
-644.726	-114.926	-0.128	-0.024
-643.711	-2.535	0.069	0.048
-642.697	94.779	-0.119	-0.136
-641.682	39.693	-0.052	0.047
-640.668	401.146	-0.070	-0.149
-639.653	286.100	-0.078	0.142
-638.638	29.429	0.165	-0.141
-637.624	45.510	-0.110	-0.102
-636.609	-200.000	0.015	0.320
-635.595	-200.000	0.015	-0.217
-634.580	-200.000	-0.010	0.265
-633.565	-60.005	-0.318	-0.136
-632.551	-115.685	0.084	-0.016
-631.536	265.560	-0.061	-0.107
-630.522	-84.204	-0.144	-0.046
-629.507	-9.717	0.292	0.195
-628.492	800.000	0.032	0.138
-627.478	-169.496	-0.379	0.014
-626.463	-42.807	0.118	0.060
-625.449	800.000	0.008	0.033
-624.434	-200.000	-0.007	0.048
-623.419	-200.000	0.020	0.585
-622.405	-152.336	-0.237	0.017
-621.390	-200.000	-0.015	0.183
-620.376	-200.000	-0.035	-0.247
-619.361	220.957	0.117	-0.189
-618.346	-21.677	-0.093	0.057
-617.332	168.767	-0.024	0.035
-616.317	-84.491	-0.150	0.048
-615.303	241.469	-0.164	-0.276
-614.288	-129.656	0.067	-0.009
-613.273	-200.000	-0.007	0.113
-612.259	-200.000	-0.020	0.110
-611.244	-101.474	0.103	-0.025
-610.230	-51.996	-0.292	-0.137
-609.215	-78.682	0.315	-0.108
-608.201	-26.354	-0.263	-0.155
-607.186	56.942	0.139	-0.136
-606.171	800.000	0.036	-0.143
-605.157	-36.077	0.088	-0.048
-604.142	-121.848	-0.185	-0.031
-603.128	263.096	-0.197	-0.343
-602.113	-120.641	0.167	-0.028
-601.098	-120.216	-0.382	0.065
-600.084	102.878	-0.104	-0.122
-599.069	131.226	0.104	-0.135
-598.055	-77.185	0.188	0.066
-597.040	51.048	-0.256	0.243
-596.025	-200.000	0.031	-0.167
-595.011	-78.786	-0.507	0.174
-593.996	161.903	0.073	0.103
-592.982	397.228	-0.065	0.137
-591.967	-24.557	-0.149	-0.089
-590.952	-118.879	0.193	0.034
-589.938	486.248	0.073	0.168
-588.923	41.829	-0.093	0.085
-587.909	53.220	0.075	0.072
-586.894	-86.301	0.088	0.027
-585.879	260.935	-0.019	-0.032
-584.865	-16.502	-0.347	0.221
-583.850	124.567	-0.084	0.106
-582.836	-200.000	0.012	0.377
-581.821	-67.365	-0.069	-0.027
-580.806	-15.800	-0.033	0.021
-579.792	234.082	-0.076	0.125
-578.777	218.168	0.047	-0.075
-577.763	298.240	-0.041	-0.076
-576.748	607.827	0.163	-0.408
-575.733	-200.000	0.026	0.167
-574.719	-200.000	-0.071	-0.425
-573.704	-200.000	0.057	-0.329
-572.690	-111.169	-0.142	-0.029
-571.675	698.707	0.149	-0.393
-570.661	800.000	-0.100	-0.296
-569.646	-96.989	-0.117	0.031
-568.631	61.516	-0.408	-0.407
-567.617	800.000	-0.097	-0.367
-566.602	63.689	0.149	-0.150
-565.588	106.077	-0.079	0.094
-564.573	-200.000	0.004	0.061
-563.558	-200.000	-0.017	0.167
-562.544	-67.841	-0.016	0.006
-561.529	-129.612	0.066	0.009
-560.515	500.945	0.045	-0.104
-559.500	258.619	0.086	0.148
-558.485	286.052	-0.165	-0.299
-557.471	800.000	-0.092	0.326
-556.456	-38.848	-0.222	-0.117
-555.442	167.468	0.084	0.120
-554.427	-57.609	-0.387	-0.170
-553.412	-66.100	-0.228	0.091
-552.398	7.874	-0.114	-0.086
-551.383	138.502	-0.147	-0.193
-550.369	-200.000	0.044	-0.200
-549.354	-200.000	0.054	-0.262
-548.339	84.077	-0.061	-0.067
-547.325	-200.000	-0.007	0.124
-546.310	163.261	0.124	-0.175
-545.296	-200.000	0.033	0.169
-544.281	301.327	0.207	0.383
-543.266	64.537	0.168	0.170
-542.252	146.171	-0.152	-0.205
-541.237	39.660	-0.128	-0.115
-540.223	388.181	0.083	0.173
-539.208	130.918	-0.107	0.138
-538.193	-200.000	0.041	-0.251
-537.179	7.919	-0.044	0.033
-536.164	443.400	-0.080	0.176
-535.150	-24.315	0.053	-0.032
-534.135	-10.527	-0.135	-0.090
-533.121	-200.000	-0.015	0.077
-532.106	194.789	0.263	-0.400
-531.091	-91.594	-0.053	-0.015
-530.077	800.000	0.050	0.174
-529.062	-87.765	0.230	0.070
-528.048	265.660	0.317	-0.555
-527.033	-32.050	-0.143	-0.080
-526.018	278.758	0.158	-0.282
-525.004	800.000	-0.020	0.071
-523.989	63.105	-0.029	0.029
-522.975	-79.028	0.128	0.044
-521.960	-21.285	0.166	-0.101
-520.945	-200.000	-0.056	-0.540
-519.931	125.213	0.150	0.189
-518.916	-90.884	-0.283	-0.082
-517.902	90.441	0.054	0.061
-516.887	314.193	0.167	-0.314
-515.872	-135.774	0.296	0.035
-514.858	-91.672	-0.291	0.083
-513.843	-88.341	-0.251	-0.075
-512.829	-200.000	-0.043	-0.196
-511.814	87.973	-0.128	0.142
-510.799	-142.561	0.050	-0.005
-509.785	-37.788	-0.058	0.031
-508.770	-200.000	-0.014	-0.156
-507.756	45.664	0.073	0.067
-506.741	517.662	0.224	0.524
-505.726	-91.934	-0.068	0.019
-504.712	115.142	0.083	0.101
-503.697	423.709	-0.142	-0.306
-502.683	586.914	-0.064	0.157
-501.668	616.392	-0.005	0.013
-500.653	-44.143	-0.299	-0.150
-499.639	9.463	0.260	-0.197
-498.624	-200.000	-0.023	-0.113
-497.610	176.920	0.128	0.186
-496.595	46.470	-0.367	0.341
-495.581	-63.449	0.085	0.035
-494.566	-200.000	-0.029	-0.163
-493.551	46.413	-0.363	0.337
-492.537	800.000	-0.087	0.291
-491.522	200.562	0.110	0.168
-490.508	165.356	-0.176	-0.248
-489.493	782.060	-0.160	-0.439
-488.478	31.385	0.115	0.099
-487.464	-66.388	0.304	0.121
-486.449	86.418	0.073	-0.081
-485.435	-129.115	-0.168	0.024
-484.420	-12.894	0.213	-0.139
-483.405	-79.674	0.061	0.020
-482.391	-200.000	0.058	-0.440
-481.376	-133.397	-0.313	-0.039
-480.362	-61.128	0.234	-0.099
-479.347	-57.884	-0.084	0.037
-478.332	-105.085	0.122	0.028
-477.318	195.625	0.117	-0.178
-476.303	-66.711	-0.057	-0.022
-475.289	-200.000	-0.014	0.113
-474.274	-99.105	0.166	-0.042
-473.259	-92.062	0.212	-0.060
-472.245	-64.822	-0.291	-0.118
-471.230	8.157	-0.177	0.133
-470.216	31.663	0.237	0.204
-469.201	800.000	-0.065	0.204
-468.186	-100.705	0.087	0.021
-467.172	413.798	-0.156	0.331
-466.157	-3.772	0.267	0.186
-465.143	-13.022	-0.205	0.133
-464.128	-135.924	-0.111	0.013
-463.113	-177.910	-0.420	0.010
-462.099	-179.466	-0.155	0.003
-461.084	-96.579	0.309	-0.081
-460.070	51.484	-0.103	-0.098
-459.055	-162.285	-0.624	0.031
-458.040	169.329	0.107	-0.153
-457.026	36.493	-0.068	0.060
-456.011	-200.000	-0.019	-0.319
-454.997	-104.993	0.198	-0.045
-453.982	-80.967	0.335	0.111
-452.968	-3.131	0.198	0.138
-451.953	11.646	0.151	-0.115
-450.938	-29.060	-0.334	-0.191
-449.924	-169.374	0.210	0.008
-448.909	-116.873	0.367	-0.067
-447.895	388.231	-0.148	-0.307
-446.880	-47.518	-0.078	-0.038
-445.865	-75.321	0.092	-0.033
-444.851	-74.829	-0.093	0.033
-443.836	-200.000	0.019	-0.173
-442.822	-200.000	0.036	-0.228
-441.807	-200.000	0.001	0.084
-440.792	-200.000	0.044	0.277
-439.778	71.786	0.037	0.039
-438.763	-200.000	-0.003	0.252
-437.749	-126.739	-0.083	0.012
-436.734	-51.987	0.183	0.085
-435.719	-200.000	-0.030	0.147
-434.705	207.962	0.301	-0.469
-433.690	-162.192	-0.285	-0.014
-432.676	95.432	0.069	-0.079
-431.661	-160.740	0.286	0.015
-430.646	-66.294	0.047	0.019
-429.632	106.994	0.186	0.221
-428.617	-96.468	-0.155	-0.041
-427.603	-200.000	-0.002	0.056
-426.588	152.962	0.137	0.187
-425.573	-74.529	0.238	0.086
-424.559	-97.333	-0.206	0.053
-423.544	255.987	-0.040	-0.068
-422.530	-81.093	0.225	0.074
-421.515	-111.752	0.024	-0.005
-420.500	800.000	0.018	0.072
-419.486	1.167	0.123	0.088
-418.471	-200.000	0.024	-0.216
-417.457	-200.000	0.029	-0.129
-416.442	159.097	-0.063	0.088
-415.428	31.169	0.145	0.124
-414.413	-65.611	0.294	-0.118
-413.398	339.269	-0.016	-0.030
-412.384	-134.292	-0.128	0.016
-411.369	800.000	0.037	0.160
-410.355	100.400	0.152	-0.176
-409.340	-108.544	-0.324	0.069
-408.325	179.916	0.119	-0.174
-407.311	97.079	0.136	0.155
-406.296	-24.775	0.107	0.063
-405.282	328.419	-0.043	-0.083
-404.267	226.398	0.136	-0.220
-403.252	-155.528	-0.127	0.008
-402.238	19.891	-0.090	-0.072
-401.223	220.296	0.034	0.054
-400.209	-200.000	-0.082	0.401
-399.194	101.756	0.208	-0.242
-398.179	99.056	0.116	0.133
-397.165	-53.774	-0.021	0.009
-396.150	-64.548	-0.310	-0.126
-395.136	317.690	-0.067	0.126
-394.121	134.919	0.267	0.346
-393.106	-127.785	-0.281	0.040
-392.092	-136.100	-0.158	-0.018
-391.077	-30.472	0.148	-0.084
-390.063	-145.268	0.120	0.011
-389.048	156.429	0.120	0.165
-388.033	800.000	-0.108	0.309
-387.019	-52.355	0.022	-0.010
-386.004	39.424	0.093	0.083
-384.990	78.376	0.162	-0.172
-383.975	-177.630	0.154	-0.004
-382.960	80.068	-0.143	0.153
-381.946	-59.311	-0.028	0.012
-380.931	189.856	-0.230	-0.344
-379.917	41.189	-0.113	-0.101
-378.902	122.549	0.187	0.233
-377.888	-2.851	0.056	0.039
-376.873	-200.000	-0.022	-0.339
-375.858	-106.392	-0.093	0.021
-374.844	57.703	-0.154	0.150
-373.829	99.558	-0.108	-0.125
-372.815	9.287	-0.250	-0.188
-371.800	-72.775	0.217	-0.079
-370.785	-67.176	0.146	0.057
-369.771	424.007	-0.166	0.356
-368.756	136.503	0.223	0.290
-367.742	298.044	-0.051	0.093
-366.727	-121.088	0.207	-0.035
-365.712	-106.024	0.063	0.014
-364.698	113.876	0.167	-0.202
-363.683	72.662	0.268	-0.279
-362.669	103.110	-0.158	-0.185
-361.654	-146.437	0.196	0.017
-360.639	448.950	-0.170	-0.372
-359.625	257.575	-0.113	0.193
-358.610	-59.665	-0.172	-0.073
-357.596	18.008	0.132	0.104
-356.581	561.771	0.052	-0.124
-355.566	59.798	-0.255	-0.251
-354.552	-133.476	0.329	-0.041
-353.537	-94.274	-0.108	0.029
-352.523	31.267	-0.474	-0.405
-351.508	-160.442	-0.244	0.013
-350.493	-177.943	-0.206	0.005
-349.479	-29.771	0.126	0.072
-348.464	-200.000	-0.030	0.182
-347.450	-200.000	-0.000	-0.211
-346.435	-74.090	-0.208	0.075
-345.420	800.000	-0.048	0.184
-344.406	-147.281	-0.140	-0.012
-343.391	800.000	-0.153	0.580
-342.377	800.000	-0.049	0.187
-341.362	45.989	0.033	0.031
-340.348	91.165	0.089	-0.099
-339.333	-1.422	-0.341	-0.239
-338.318	342.905	-0.131	0.254
-337.304	-75.896	0.134	0.047
-336.289	-5.797	-0.337	0.229
-335.275	-59.141	0.104	0.045
-334.260	-70.927	-0.322	-0.121
-333.245	-200.000	0.019	0.130
-332.231	-47.338	0.112	-0.054
-331.216	167.623	-0.128	0.181
-330.202	-176.769	0.240	0.006
-329.187	216.652	0.135	0.214
-328.172	115.660	0.082	-0.100
-327.158	208.690	0.100	0.156
-326.143	32.280	0.262	0.225
-325.129	-50.148	-0.197	0.093
-324.114	-200.000	-0.001	0.124
-323.099	169.493	-0.143	0.204
-322.085	153.959	0.173	0.236
-321.070	181.402	-0.250	0.365
-320.056	-108.584	0.608	0.130
-319.041	-122.825	-0.161	-0.026
-318.026	-200.000	-0.016	0.131
-317.012	12.825	0.243	-0.186
-315.997	-200.000	-0.054	-0.250
-314.983	-36.177	-0.288	-0.154
-313.968	-124.425	0.273	0.042
-312.953	284.219	0.032	-0.056
-311.939	-109.746	-0.072	-0.015
-310.924	345.527	-0.073	-0.143
-309.910	602.981	-0.080	0.196
-308.895	-163.675	-0.139	0.006
-307.880	-200.000	0.021	0.117
-306.866	800.000	-0.026	0.100
-305.851	-14.660	0.209	0.133
-304.837	-200.000	0.050	0.493
-303.822	-36.695	-0.172	-0.092
-302.807	-29.447	0.208	-0.118
-301.793	-148.737	0.105	-0.008
-300.778	-163.812	0.192	-0.009
-299.764	560.491	0.053	0.127
-298.749	800.000	-0.018	0.052
-297.735	110.730	-0.139	0.166
-296.720	564.874	-0.090	-0.216
-295.705	124.358	-0.047	-0.059
-294.691	-200.000	-0.051	0.233
-293.676	-99.926	-0.167	0.041
-292.662	-153.415	0.496	0.034
-291.647	144.909	0.052	-0.069
-290.632	137.091	-0.168	-0.217
-289.618	-108.794	-0.237	-0.050
-288.603	-27.563	0.043	-0.025
-287.589	-138.395	0.332	0.036
-286.574	4.260	-0.122	-0.089
-285.559	-148.744	0.471	-0.038
-284.545	800.000	0.036	0.099
-283.530	-84.940	-0.066	0.021
-282.516	800.000	0.040	0.125
-281.501	248.692	-0.041	-0.068
-280.486	394.038	0.159	-0.328
-279.472	-200.000	0.013	-0.411
-278.457	-200.000	0.004	0.058
-277.443	-85.819	-0.425	0.131
-276.428	359.529	0.111	-0.220
-275.413	800.000	0.046	0.175
-274.399	69.154	0.038	0.038
-273.384	424.662	0.192	-0.409
-272.370	800.000	0.082	0.291
-271.355	63.734	0.201	-0.200
-270.340	-103.732	0.314	0.073
-269.326	-22.584	0.162	-0.097
-268.311	128.976	-0.096	-0.121
-267.297	-200.000	-0.079	0.418
-266.282	155.898	-0.072	-0.098
-265.267	413.537	-0.045	-0.095
-264.253	-81.544	-0.385	0.125
-263.238	-200.000	-0.020	-0.174
-262.224	800.000	-0.073	0.241
-261.209	4.839	-0.149	0.108
-260.195	-200.000	0.020	0.132
-259.180	153.965	0.083	0.113
-258.165	-74.555	0.201	-0.072
-257.151	43.717	-0.275	0.249
-256.136	-46.208	-0.040	-0.020
-255.122	-114.500	-0.132	0.025
-254.107	21.202	0.097	-0.078
-253.092	576.887	0.071	0.173
-252.078	-110.674	0.231	0.047
-251.063	-65.738	-0.269	-0.107
-250.049	-110.524	0.068	0.014
-249.034	800.000	0.063	-0.205
-248.019	-155.102	-0.198	0.013
-247.005	800.000	0.126	0.431
-245.990	-35.104	0.061	-0.033
-244.976	64.291	-0.254	0.254
-243.961	19.624	0.127	0.101
-242.946	800.000	0.126	0.408
-241.932	413.849	-0.208	0.437
-240.917	144.870	0.254	-0.336
-239.903	-200.000	-0.017	0.173
-238.888	-200.000	0.009	0.087
-237.873	56.003	-0.310	-0.298
-236.859	-200.000	0.000	-0.076
-235.844	-130.370	-0.384	0.052
-234.830	-196.800	0.455	-0.003
-233.815	-169.415	-0.228	0.008
-232.800	27.648	-0.150	0.125
-231.786	-200.000	0.014	0.061
-230.771	44.592	-0.184	0.167
-229.757	294.331	0.038	-0.068
-228.742	306.242	-0.116	-0.214
-227.727	538.481	-0.031	-0.072
-226.713	-200.000	0.045	-0.268
-225.698	126.869	0.175	-0.220
-224.684	-10.699	-0.148	-0.097
-223.669	129.369	0.124	-0.156
-222.655	116.557	-0.194	0.235
-221.640	57.992	-0.040	0.039
-220.625	-35.558	-0.111	-0.060
-219.611	-45.882	0.201	0.098
-218.596	-30.179	0.255	-0.143
-217.582	-86.083	0.118	-0.036
-216.567	800.000	-0.043	-0.175
-215.552	-163.304	-0.117	-0.006
-214.538	57.454	0.156	-0.151
-213.523	-200.000	-0.002	-0.116
-212.509	800.000	-0.084	0.350
-211.494	800.000	0.005	0.017
-210.479	-133.059	0.244	0.031
-209.465	-45.438	0.141	-0.069
-208.450	-200.000	-0.003	0.093
-207.436	254.432	-0.218	-0.370
-206.421	-49.041	-0.205	-0.097
-205.406	302.155	0.002	0.003
-204.392	-104.335	0.063	0.015
-203.377	800.000	0.079	0.223
-202.363	46.444	-0.166	0.152
-201.348	12.514	0.367	0.280
-200.333	38.338	0.088	0.077
-199.319	-2.639	-0.237	-0.164
-198.304	-69.912	0.217	0.082
-197.290	-200.000	0.013	0.292
-196.275	119.170	0.219	-0.267
-195.260	-161.638	0.389	0.020
-194.246	-160.687	-0.217	0.011
-193.231	25.625	0.282	-0.232
-192.217	-129.653	-0.195	-0.027
-191.202	-179.153	-0.109	-0.002
-190.187	-82.641	-0.212	0.068
-189.173	-56.038	0.273	-0.120
-188.158	-59.324	0.223	0.095
-187.144	-107.777	-0.121	-0.026
-186.129	20.263	-0.210	-0.168
-185.114	-110.456	0.183	-0.038
-184.100	-169.312	0.232	-0.008
-183.085	108.128	0.095	-0.112
-182.071	-200.000	0.005	-0.118
-181.056	-200.000	-0.056	-0.257
-180.042	267.419	0.180	0.312
-179.027	146.847	0.057	0.076
-178.012	-200.000	0.046	-0.430
-176.998	-200.000	0.024	-0.236
-175.983	-8.356	-0.089	-0.059
-174.969	-10.024	0.372	-0.244
-173.954	-174.957	0.209	-0.006
-172.939	-88.919	0.300	-0.088
-171.925	12.073	0.021	-0.016
-170.910	800.000	0.160	0.536
-169.896	-135.550	0.161	-0.019
-168.881	146.080	-0.082	-0.108
-167.866	-200.000	-0.011	0.071
-166.852	91.433	-0.214	-0.238
-165.837	669.172	0.026	0.067
-164.823	101.759	0.036	0.042
-163.808	800.000	0.097	0.305
-162.793	62.578	0.063	-0.062
-161.779	216.613	0.011	0.017
-160.764	-83.809	-0.447	-0.141
-159.750	-200.000	0.032	0.186
-158.735	-200.000	-0.025	0.238
-157.720	-200.000	0.029	-0.144
-156.706	-200.000	0.048	0.331
-155.691	29.719	0.186	0.156
-154.677	-109.119	0.381	0.080
-153.662	-115.672	-0.200	-0.037
-152.647	-83.307	0.270	0.085
-151.633	172.555	0.064	-0.090
-150.618	-35.041	0.235	0.127
-149.604	32.915	0.123	-0.105
-148.589	60.725	0.034	0.033
-147.574	106.347	0.085	0.100
-146.560	93.989	0.177	0.198
-145.545	-200.000	0.020	0.088
-144.531	-101.758	0.273	-0.065
-143.516	-58.461	0.144	-0.062
-142.502	3.806	0.107	0.077
-141.487	-100.612	-0.137	0.033
-140.472	-123.272	0.058	0.009
-139.458	257.185	0.086	-0.146
-138.443	98.014	0.240	0.273
-137.429	711.325	-0.058	0.153
-136.414	-1.847	0.121	-0.084
-135.399	-200.000	0.007	0.190
-134.385	-155.294	-0.148	-0.010
-133.370	800.000	0.020	0.076
-132.356	205.340	0.056	-0.086
-131.341	-94.390	0.308	0.083
-130.326	183.033	0.084	0.122
-129.312	-151.026	0.170	-0.013
-128.297	800.000	0.061	0.229
-127.283	800.000	0.060	0.183
-126.268	-91.579	-0.070	-0.020
-125.253	-200.000	0.019	-0.417
-124.239	-170.834	-0.148	0.005
-123.224	31.653	0.280	0.238
-122.210	-89.740	0.213	-0.061
-121.195	-137.014	0.238	-0.027
