DTS Sentinel unit serial number:	SN413079Multiplexer serial number:	ORYXHardware model number:	OX4-SRSoftware version number:	ORYX F/W v4.00 Oryx Data Collector v3.7.2.0data status	okinstallation	princeton_trtdifferential loss correction	single-endedforward channel	channel 4reverse channel	N/Adate	2019/09/15time	13:45:34forward acquisition time	60.00reverse acquisition time	0.00gamma	496.2192k internal	0.2290k external	0.2290temperature offset calibration	0.9996default loss term (dB/km)	0.3790temperature slope calibration	1.0000multiplexer offset coefficient	1.0000multiplexer slope coefficient	1.0000fibre end	0.00T internal ref (°C)	38.00T ext. ref 1 (°C)	4.91T ext. ref 2 (°C)	35.21length (m)	temperature (°C)	Stokes	anti-Stokes-747.200	-155.480	-0.155	0.010
-746.185	-17.581	-0.231	-0.149
-745.171	637.005	0.153	-0.399
-744.156	8.983	0.033	0.025
-743.142	12.011	0.347	0.273
-742.127	-9.822	-0.093	-0.063
-741.112	88.279	-0.131	0.149
-740.098	-128.533	0.290	-0.042
-739.083	-67.928	-0.126	0.051
-738.069	800.000	-0.026	0.085
-737.054	113.491	-0.047	-0.059
-736.039	-54.733	-0.361	-0.167
-735.025	-128.467	0.137	0.020
-734.010	752.001	0.060	0.167
-732.996	211.190	0.077	-0.124
-731.981	-64.842	-0.185	0.077
-730.966	6.226	-0.263	-0.200
-729.952	702.218	-0.064	-0.172
-728.937	-200.000	-0.056	0.274
-727.923	-150.725	-0.179	-0.014
-726.908	597.368	0.022	-0.057
-725.894	191.510	0.064	0.099
-724.879	99.804	-0.131	0.155
-723.864	-9.778	-0.217	0.148
-722.850	144.182	-0.115	0.158
-721.835	800.000	0.047	0.199
-720.821	-200.000	0.026	-0.132
-719.806	151.089	-0.239	-0.332
-718.791	800.000	0.066	-0.232
-717.777	-200.000	0.037	-0.194
-716.762	66.581	-0.066	0.068
-715.748	800.000	0.145	-0.438
-714.733	329.923	0.138	0.273
-713.718	185.542	-0.091	-0.139
-712.704	-105.834	-0.361	-0.083
-711.689	-113.301	-0.349	0.070
-710.675	218.788	0.031	-0.051
-709.660	769.653	-0.088	-0.245
-708.645	-137.997	-0.481	-0.055
-707.631	-55.256	0.182	-0.084
-706.616	-200.000	0.009	-0.243
-705.602	-18.399	0.007	-0.004
-704.587	800.000	-0.031	-0.140
-703.572	0.138	0.215	-0.157
-702.558	-174.069	0.219	0.007
-701.543	-72.731	-0.104	-0.039
-700.529	800.000	-0.108	0.379
-699.514	36.042	0.275	-0.248
-698.499	67.340	0.233	0.243
-697.485	73.157	-0.083	-0.089
-696.470	-27.463	0.222	-0.132
-695.456	119.775	-0.164	0.208
-694.441	-34.305	0.398	-0.223
-693.426	800.000	0.049	-0.189
-692.412	-143.495	-0.203	-0.020
-691.397	454.443	0.148	0.335
-690.383	-39.919	0.132	-0.070
-689.368	-100.183	-0.148	0.038
-688.354	-130.097	-0.304	-0.042
-687.339	-5.526	-0.193	-0.135
-686.324	-148.302	0.045	-0.004
-685.310	6.548	0.249	0.189
-684.295	74.433	0.110	-0.118
-683.281	-114.336	0.057	-0.011
-682.266	-85.005	0.139	-0.045
-681.251	30.906	0.200	0.175
-680.237	-153.610	-0.157	-0.011
-679.222	27.258	0.007	-0.006
-678.208	191.173	0.052	0.080
-677.193	-13.393	-0.260	-0.173
-676.178	-85.885	0.083	-0.026
-675.164	-200.000	-0.008	0.155
-674.149	49.211	-0.147	-0.141
-673.135	-97.466	-0.521	0.138
-672.120	-136.278	0.181	-0.022
-671.105	208.541	-0.092	0.147
-670.091	-73.132	0.121	-0.045
-669.076	-33.528	-0.129	0.073
-668.062	-129.341	-0.422	0.060
-667.047	-200.000	0.008	-0.074
-666.032	-200.000	-0.009	-0.084
-665.018	7.271	0.262	-0.200
-664.003	235.934	0.211	0.356
-662.989	-100.499	-0.314	-0.079
-661.974	68.054	-0.010	0.011
-660.959	-46.104	-0.220	0.111
-659.945	745.049	0.155	-0.426
-658.930	178.671	-0.151	-0.225
-657.916	-108.949	-0.197	0.043
-656.901	-90.734	0.401	-0.118
-655.886	324.336	-0.045	-0.088
-654.872	-200.000	0.004	0.073
-653.857	280.195	-0.165	0.301
-652.843	800.000	-0.120	-0.350
-651.828	188.095	0.052	-0.080
-650.814	-6.635	0.015	0.010
-649.799	50.568	0.215	0.208
-648.784	-5.920	-0.171	0.119
-647.770	-200.000	-0.006	0.029
-646.755	249.193	0.096	0.167
-645.741	120.712	0.298	-0.378
-644.726	-79.321	-0.468	-0.162
-643.711	138.089	-0.099	0.132
-642.697	-98.645	0.572	0.149
-641.682	-75.776	-0.194	-0.070
-640.668	-116.723	0.176	-0.033
-639.653	-75.747	-0.428	0.155
-638.638	-47.005	-0.091	-0.045
-637.624	18.994	0.223	-0.182
-636.609	800.000	-0.029	0.096
-635.595	210.940	-0.110	0.176
-634.580	-200.000	0.004	0.092
-633.565	172.132	-0.102	0.150
-632.551	-57.239	0.191	0.086
-631.536	798.537	0.126	0.356
-630.522	278.527	-0.073	0.132
-629.507	-200.000	-0.006	-0.064
-628.492	-110.324	0.071	-0.015
-627.478	-112.690	0.251	0.051
-626.463	-200.000	-0.029	-0.191
-625.449	551.713	-0.054	-0.133
-624.434	-104.937	-0.283	0.066
-623.419	800.000	0.037	-0.110
-622.405	-200.000	-0.029	0.151
-621.390	-200.000	0.035	-0.161
-620.376	800.000	0.015	-0.060
-619.361	42.834	0.085	0.079
-618.346	-200.000	-0.017	-0.255
-617.332	47.031	0.154	0.146
-616.317	324.719	-0.120	-0.234
-615.303	181.091	0.120	-0.181
-614.288	-61.449	-0.386	-0.165
-613.273	-20.925	-0.223	0.140
-612.259	-56.878	0.258	-0.116
-611.244	2.987	0.263	0.195
-610.230	-32.407	-0.279	-0.159
-609.215	143.101	0.124	-0.168
-608.201	800.000	0.124	-0.443
-607.186	-85.632	-0.123	0.039
-606.171	68.750	0.239	0.250
-605.157	-85.994	-0.134	0.042
-604.142	-118.894	-0.342	0.061
-603.128	-65.640	0.123	-0.050
-602.113	166.724	-0.226	0.327
-601.098	-30.618	-0.235	0.136
-600.084	-127.152	-0.111	0.017
-599.069	-131.051	0.170	-0.023
-598.055	-125.211	0.249	-0.039
-597.040	95.136	0.066	-0.076
-596.025	-67.719	-0.224	0.089
-595.011	-73.789	0.133	-0.049
-593.996	-200.000	0.016	-0.212
-592.982	-93.296	0.167	0.047
-591.967	-71.002	-0.059	-0.023
-590.952	-200.000	-0.032	0.210
-589.938	78.522	0.249	0.271
-588.923	59.025	-0.061	-0.061
-587.909	-20.831	0.185	-0.116
-586.894	-84.178	0.049	0.016
-585.879	-67.383	0.138	0.055
-584.865	92.124	-0.075	-0.087
-583.850	-86.763	-0.150	0.047
-582.836	681.737	-0.052	-0.138
-581.821	152.021	0.099	-0.137
-580.806	-165.890	0.335	-0.015
-579.792	-133.093	-0.316	-0.041
-578.777	-128.781	-0.399	-0.057
-577.763	412.863	0.070	0.151
-576.748	-164.576	-0.277	0.013
-575.733	-131.231	0.375	0.051
-574.719	800.000	0.056	0.203
-573.704	-160.777	-0.448	-0.024
-572.690	-153.356	-0.370	-0.026
-571.675	399.538	-0.130	-0.276
-570.661	800.000	0.033	0.133
-569.646	-37.659	0.076	0.041
-568.631	245.991	0.177	0.303
-567.617	70.446	0.115	0.121
-566.602	-128.055	0.106	-0.015
-565.588	378.617	-0.173	0.361
-564.573	-200.000	-0.010	-0.255
-563.558	-153.809	0.323	0.023
-562.544	-164.575	0.518	0.024
-561.529	-13.937	-0.219	0.144
-560.515	-200.000	0.063	-0.290
-559.500	122.291	0.120	-0.153
-558.485	536.746	0.054	-0.130
-557.471	5.831	-0.188	0.141
-556.456	555.330	-0.036	0.088
-555.442	-200.000	0.014	0.083
-554.427	-200.000	0.021	-0.260
-553.412	-92.281	-0.366	0.105
-552.398	-147.128	-0.087	-0.008
-551.383	-144.080	-0.249	-0.024
-550.369	-73.904	0.391	-0.144
-549.354	-200.000	0.003	-0.105
-548.339	-200.000	-0.020	-0.093
-547.325	800.000	0.018	0.064
-546.310	30.986	0.143	-0.125
-545.296	-200.000	-0.017	-0.096
-544.281	465.589	-0.069	-0.158
-543.266	-159.405	-0.342	0.019
-542.252	800.000	0.050	0.208
-541.237	-194.758	0.224	-0.002
-540.223	-69.663	0.455	0.177
-539.208	-200.000	-0.004	-0.021
-538.193	-9.387	0.230	-0.156
-537.179	-200.000	0.010	0.121
-536.164	408.074	0.097	-0.209
-535.150	183.366	-0.215	-0.323
-534.135	-143.387	0.132	-0.013
-533.121	592.029	0.063	0.158
-532.106	27.195	0.092	0.078
-531.091	-200.000	-0.008	-0.204
-530.077	800.000	0.075	0.232
-529.062	105.831	0.060	0.072
-528.048	-133.030	-0.063	-0.008
-527.033	-200.000	-0.024	0.133
-526.018	143.285	0.085	-0.114
-525.004	289.879	0.201	-0.370
-523.989	6.213	0.084	-0.063
-522.975	-78.772	0.323	-0.112
-521.960	-94.785	0.050	-0.014
-520.945	-24.735	-0.276	0.166
-519.931	-116.744	-0.199	-0.037
-518.916	-46.953	0.211	-0.104
-517.902	-200.000	-0.014	0.134
-516.887	560.082	0.115	0.283
-515.872	70.347	-0.252	-0.264
-514.858	543.687	0.056	-0.135
-513.843	-120.459	-0.151	0.026
-512.829	49.065	0.131	-0.125
-511.814	539.355	0.095	0.229
-510.799	-1.673	0.034	-0.024
-509.785	-200.000	0.019	-0.121
-508.770	-152.141	0.268	0.020
-507.756	-9.486	0.138	0.093
-506.741	423.462	-0.168	-0.366
-505.726	-128.486	-0.286	-0.041
-504.712	8.157	0.161	0.122
-503.697	176.129	-0.141	0.208
-502.683	-3.145	-0.233	0.165
-501.668	-200.000	-0.034	0.296
-500.653	214.114	0.158	0.253
-499.639	800.000	-0.073	-0.234
-498.624	-17.072	-0.190	0.122
-497.610	-73.167	0.411	-0.153
-496.595	3.816	-0.059	0.044
-495.581	-34.745	0.213	-0.118
-494.566	555.739	-0.167	0.409
-493.551	-11.193	0.066	0.044
-492.537	800.000	-0.050	0.155
-491.522	192.702	-0.074	0.114
-490.508	-188.154	0.195	0.003
-489.493	-102.823	-0.238	-0.057
-488.478	-161.609	0.263	0.014
-487.464	156.047	-0.076	-0.106
-486.449	-116.021	-0.132	-0.025
-485.435	232.298	-0.087	0.144
-484.420	-120.446	-0.228	-0.039
-483.405	-200.000	0.013	0.238
-482.391	133.666	-0.127	-0.167
-481.376	199.696	-0.172	-0.268
-480.362	-68.697	-0.387	-0.152
-479.347	-200.000	0.047	-0.238
-478.332	422.484	-0.165	0.359
-477.318	-140.518	-0.376	0.040
-476.303	131.406	-0.209	-0.272
-475.289	-7.443	-0.018	0.013
-474.274	110.215	0.197	0.240
-473.259	800.000	-0.028	0.085
-472.245	83.662	0.252	-0.278
-471.230	-200.000	-0.019	-0.333
-470.216	-70.901	0.126	-0.048
-469.201	-118.466	-0.122	-0.022
-468.186	279.397	-0.086	0.155
-467.172	571.359	0.172	0.424
-466.157	-33.941	-0.133	0.074
-465.143	-147.714	0.285	0.024
-464.128	189.596	-0.105	-0.159
-463.113	107.600	-0.108	0.130
-462.099	157.910	-0.186	0.261
-461.084	-20.360	-0.226	0.141
-460.070	-107.688	0.188	-0.042
-459.055	-49.517	-0.170	0.082
-458.040	-80.078	0.327	0.111
-457.026	204.964	-0.178	-0.279
-456.011	-196.711	0.331	0.002
-454.997	-79.258	0.234	-0.080
-453.982	248.920	0.134	-0.231
-452.968	-130.491	-0.154	0.021
-451.953	134.385	0.141	-0.185
-450.938	-200.000	0.032	-0.197
-449.924	-67.977	0.055	-0.022
-448.909	800.000	-0.034	0.141
-447.895	-200.000	0.017	0.160
-446.880	222.561	0.091	-0.148
-445.865	-77.697	0.218	0.076
-444.851	-81.594	-0.205	-0.068
-443.836	-198.665	-0.131	0.001
-442.822	294.248	0.292	-0.540
-441.807	401.095	0.094	0.199
-440.792	-117.565	-0.227	-0.041
-439.778	379.300	0.035	0.072
-438.763	-33.455	0.114	0.064
-437.749	764.063	-0.134	-0.368
-436.734	-9.637	-0.211	0.142
-435.719	-146.832	0.297	-0.026
-434.705	96.128	0.266	0.307
-433.690	117.566	0.100	0.125
-432.676	-80.079	-0.158	-0.054
-431.661	-158.060	0.262	0.016
-430.646	97.472	-0.162	-0.189
-429.632	181.385	-0.034	-0.051
-428.617	-110.472	-0.196	0.041
-427.603	449.196	0.066	-0.146
-426.588	-18.140	-0.322	-0.204
-425.573	-200.000	-0.007	-0.249
-424.559	54.741	-0.194	-0.189
-423.544	800.000	-0.051	0.192
-422.530	-26.569	-0.196	-0.116
-421.515	-92.193	-0.085	-0.024
-420.500	-200.000	0.091	0.469
-419.486	-200.000	0.038	0.187
-418.471	-200.000	0.066	0.295
-417.457	800.000	-0.037	-0.152
-416.442	12.208	0.143	0.111
-415.428	-124.810	0.389	-0.061
-414.413	155.767	-0.260	-0.363
-413.398	432.661	-0.049	0.107
-412.384	-200.000	0.049	0.275
-411.369	-91.008	-0.235	-0.068
-410.355	-62.878	0.102	-0.043
-409.340	204.571	-0.158	0.247
-408.325	29.456	0.206	0.177
-407.311	467.452	0.035	-0.078
-406.296	800.000	0.068	-0.212
-405.282	767.691	0.241	-0.664
-404.267	44.722	-0.251	0.234
-403.252	800.000	-0.046	-0.132
-402.238	800.000	-0.082	-0.293
-401.223	170.932	-0.056	-0.081
-400.209	-67.372	-0.111	0.044
-399.194	90.269	-0.128	-0.145
-398.179	-200.000	-0.057	0.359
-397.165	-25.506	-0.343	-0.205
-396.150	444.033	0.175	-0.388
-395.136	-121.095	-0.073	0.012
-394.121	-200.000	-0.022	0.135
-393.106	-107.687	-0.426	0.094
-392.092	-90.881	0.167	0.049
-391.077	800.000	0.042	-0.144
-390.063	-200.000	0.053	-0.362
-389.048	47.193	-0.182	-0.172
-388.033	-76.884	-0.455	-0.161
-387.019	145.077	0.157	0.212
-386.004	800.000	-0.063	-0.222
-384.990	-96.432	-0.081	0.021
-383.975	85.982	0.133	-0.147
-382.960	800.000	-0.097	0.306
-381.946	-43.648	-0.224	0.114
-380.931	507.473	0.075	0.175
-379.917	800.000	0.008	0.026
-378.902	-20.091	0.176	-0.109
-377.888	126.745	-0.138	0.177
-376.873	800.000	-0.009	0.026
-375.858	-200.000	0.057	0.287
-374.844	800.000	-0.050	-0.221
-373.829	-115.809	-0.097	0.018
-372.815	-200.000	-0.004	-0.339
-371.800	41.410	-0.036	0.033
-370.785	-70.388	-0.307	-0.118
-369.771	249.209	-0.226	-0.387
-368.756	-57.427	-0.169	-0.075
-367.742	-200.000	-0.057	-0.274
-366.727	-154.611	0.361	-0.024
-365.712	21.307	-0.036	-0.030
-364.698	-143.718	0.161	-0.015
-363.683	-145.925	-0.134	-0.012
-362.669	150.693	0.317	-0.434
-361.654	800.000	0.030	-0.092
-360.639	-46.624	0.261	0.129
-359.625	-200.000	-0.010	0.122
-358.610	27.769	0.119	-0.101
-357.596	715.645	-0.103	-0.277
-356.581	800.000	-0.025	0.105
-355.566	-106.957	0.043	0.010
-354.552	-200.000	0.005	0.526
-353.537	-30.535	0.086	0.049
-352.523	-109.500	-0.236	-0.050
-351.508	21.758	0.332	0.272
-350.493	43.621	-0.060	0.055
-349.479	46.851	0.088	-0.083
-348.464	-9.213	0.166	-0.112
-347.450	8.024	-0.171	0.130
-346.435	-88.335	0.265	0.080
-345.420	7.983	-0.187	-0.142
-344.406	266.117	-0.025	0.044
-343.391	-126.550	0.147	-0.022
-342.377	-64.754	0.245	0.100
-341.362	255.987	-0.030	0.051
-340.348	-118.566	0.075	0.013
-339.333	-192.289	-0.251	0.002
-338.318	198.070	-0.103	0.159
-337.304	60.180	0.087	0.087
-336.289	800.000	0.032	0.142
-335.275	-134.117	0.347	-0.043
-334.260	49.819	-0.147	-0.140
-333.245	147.911	0.066	-0.090
-332.231	115.297	-0.152	0.187
-331.216	363.915	0.088	-0.178
-330.202	37.558	0.132	0.118
-329.187	-200.000	0.000	0.353
-328.172	27.106	-0.179	0.151
-327.158	644.860	-0.033	0.084
-326.143	-200.000	0.001	0.009
-325.129	800.000	-0.032	0.134
-324.114	47.057	0.237	-0.222
-323.099	-4.482	-0.150	0.104
-322.085	265.453	-0.037	0.065
-321.070	-43.091	0.266	-0.136
-320.056	-181.410	-0.097	-0.002
-319.041	24.600	-0.207	0.173
-318.026	180.789	-0.027	0.039
-317.012	-15.865	0.275	-0.177
-315.997	-200.000	-0.031	-0.169
-314.983	-83.125	-0.214	0.069
-313.968	-200.000	-0.008	0.104
-312.953	66.651	-0.395	0.405
-311.939	60.656	-0.172	0.172
-310.924	-200.000	0.006	0.139
-309.910	-54.470	0.431	0.197
-308.895	-200.000	0.040	0.341
-307.880	-103.878	-0.016	-0.004
-306.866	-200.000	-0.038	0.222
-305.851	-19.915	-0.171	-0.107
-304.837	131.786	-0.054	0.070
-303.822	-169.911	-0.218	-0.008
-302.807	132.862	-0.284	0.370
-301.793	-96.645	0.354	-0.094
-300.778	-200.000	-0.029	-0.275
-299.764	270.017	0.081	-0.143
-298.749	158.782	-0.056	0.079
-297.735	-67.234	0.269	0.106
-296.720	204.349	0.135	-0.210
-295.705	-134.046	-0.114	0.014
-294.691	6.020	0.078	0.058
-293.676	-200.000	0.018	-0.141
-292.662	-108.072	-0.170	0.037
-291.647	47.925	-0.075	-0.070
-290.632	-92.380	0.107	-0.030
-289.618	-200.000	0.001	0.068
-288.603	-93.787	0.143	-0.040
-287.589	-136.837	-0.163	-0.019
-286.574	-200.000	-0.029	-0.226
-285.559	-200.000	-0.062	-0.440
-284.545	-87.956	-0.363	0.110
-283.530	-88.652	-0.255	0.076
-282.516	800.000	0.041	0.127
-281.501	-112.996	0.029	-0.006
-280.486	37.418	0.290	-0.258
-279.472	-10.060	0.055	-0.037
-278.457	800.000	0.073	-0.225
-277.443	330.253	-0.158	0.305
-276.428	799.850	0.096	-0.266
-275.413	31.420	-0.162	-0.140
-274.399	-0.667	-0.117	0.083
-273.384	-200.000	0.011	-0.086
-272.370	524.435	-0.049	0.115
-271.355	-120.577	0.041	0.007
-270.340	211.428	-0.182	-0.289
-269.326	360.181	0.060	0.121
-268.311	8.765	0.331	0.251
-267.297	-72.801	0.342	-0.127
-266.282	-3.162	0.277	0.194
-265.267	196.095	0.135	-0.207
-264.253	-56.341	0.188	-0.084
-263.238	31.827	-0.243	-0.210
-262.224	-2.140	-0.080	0.056
-261.209	267.424	-0.123	0.217
-260.195	-84.313	0.321	0.102
-259.180	60.374	0.143	-0.142
-258.165	-138.710	0.341	-0.037
-257.151	283.671	-0.125	-0.226
-256.136	-200.000	0.007	-0.037
-255.122	-200.000	-0.020	0.187
-254.107	35.398	-0.162	0.143
-253.092	-82.491	-0.473	-0.154
-252.078	-200.000	-0.081	0.448
-251.063	-61.829	0.132	-0.055
-250.049	31.356	-0.261	-0.225
-249.034	-200.000	0.007	-0.212
-248.019	-11.251	0.184	0.122
-247.005	-25.166	-0.165	-0.098
-245.990	68.001	-0.164	0.169
-244.976	-200.000	-0.001	0.280
-243.961	-200.000	0.035	0.419
-242.946	-91.329	-0.235	0.068
-241.932	800.000	0.078	-0.267
-240.917	-165.364	-0.205	-0.009
-239.903	-117.281	0.074	0.014
-238.888	129.473	0.160	-0.205
-237.873	-200.000	-0.036	-0.378
-236.859	-84.693	0.245	0.078
-235.844	30.035	-0.142	0.122
-234.830	-89.628	-0.126	0.037
-233.815	-200.000	-0.007	0.201
-232.800	-105.016	0.270	0.062
-231.786	570.273	0.115	0.281
-230.771	-13.752	0.225	0.146
-229.757	371.027	-0.092	-0.187
-228.742	-200.000	0.009	-0.111
-227.727	-200.000	-0.005	-0.296
-226.713	800.000	0.085	-0.279
-225.698	36.296	0.217	0.192
-224.684	800.000	0.028	0.117
-223.669	57.303	-0.135	-0.132
-222.655	-109.418	-0.165	-0.035
-221.640	-5.078	-0.289	-0.199
-220.625	-59.852	0.156	0.067
-219.611	-40.190	-0.220	0.115
-218.596	-96.391	0.084	-0.022
-217.582	-185.821	0.345	-0.005
-216.567	-103.330	0.250	0.059
-215.552	-200.000	-0.016	0.146
-214.538	5.052	-0.131	-0.096
-213.523	-164.619	-0.206	0.009
-212.509	800.000	0.040	0.130
-211.494	214.468	-0.071	0.112
-210.479	85.821	0.290	0.320
-209.465	-43.353	0.363	-0.184
-208.450	-200.000	0.033	0.248
-207.436	99.623	-0.209	0.242
-206.421	55.036	0.148	-0.144
-205.406	-68.177	0.146	-0.057
-204.392	-200.000	0.036	0.339
-203.377	-69.655	-0.142	-0.054
-202.363	-66.151	-0.177	0.071
-201.348	697.669	0.093	-0.246
-200.333	-169.997	0.286	0.010
-199.319	443.185	-0.085	0.187
-198.304	800.000	0.070	-0.222
-197.290	800.000	-0.005	0.016
-196.275	-67.528	-0.136	-0.053
-195.260	-56.002	-0.149	-0.067
-194.246	-92.170	-0.212	-0.060
-193.231	-50.021	0.172	-0.082
-192.217	-144.658	0.016	-0.001
-191.202	85.475	-0.079	-0.087
-190.187	-200.000	0.010	-0.443
-189.173	184.476	0.202	-0.300
-188.158	800.000	-0.030	0.125
-187.144	79.875	-0.098	-0.105
-186.129	-200.000	0.058	-0.286
-185.114	-97.065	0.228	0.060
-184.100	138.731	-0.190	-0.250
-183.085	114.263	-0.333	-0.406
-182.071	41.333	-0.224	0.203
-181.056	800.000	0.116	0.510
-180.042	800.000	0.114	0.346
-179.027	330.325	-0.020	-0.038
-178.012	57.945	0.240	0.236
-176.998	-67.579	-0.204	0.080
-175.983	-52.939	-0.138	0.063
-174.969	-200.000	-0.077	-0.342
-173.954	9.261	0.378	0.286
-172.939	-60.152	-0.130	0.056
-171.925	178.087	-0.105	0.153
-170.910	41.566	0.062	0.056
-169.896	-200.000	0.016	0.192
-168.881	-100.227	-0.136	-0.034
-167.866	22.342	0.021	-0.017
-166.852	-200.000	0.011	-0.078
-165.837	148.309	-0.165	-0.222
-164.823	-106.376	0.112	-0.025
-163.808	79.633	0.097	-0.104
-162.793	223.079	0.229	0.369
-161.779	259.799	0.134	0.231
-160.764	-70.998	-0.120	0.045
-159.750	-48.082	-0.395	0.191
-158.735	-163.305	0.248	0.012
-157.720	605.708	0.061	-0.153
-156.706	-5.979	0.239	-0.164
-155.691	-200.000	0.029	0.225
-154.677	-53.644	0.218	-0.100
-153.662	-200.000	-0.030	0.150
-152.647	800.000	0.021	0.075
-151.633	26.717	-0.252	-0.212
-150.618	359.627	0.160	0.321
-149.604	110.755	0.017	-0.021
-148.589	-24.293	-0.262	0.156
-147.574	43.917	0.205	0.188
-146.560	158.719	-0.155	-0.216
-145.545	116.889	0.055	-0.068
-144.531	-134.407	0.059	0.007
-143.516	-86.419	-0.065	0.020
-142.502	93.962	0.071	0.080
-141.487	25.987	0.101	-0.084
-140.472	-95.118	0.249	0.067
-139.458	-27.957	0.300	0.174
-138.443	774.226	-0.099	0.271
-137.429	210.380	-0.044	0.068
-136.414	-200.000	0.003	0.138
-135.399	-69.186	0.318	-0.122
-134.385	-48.078	0.275	0.133
-133.370	9.388	0.194	-0.147
-132.356	252.635	-0.081	0.138
-131.341	20.258	0.229	0.185
-130.326	-148.214	0.210	-0.017
-129.312	-45.415	-0.094	-0.047
-128.297	199.643	-0.104	0.160
-127.283	-124.011	-0.060	0.009
-126.268	-200.000	-0.020	0.269
-125.253	800.000	-0.106	-0.396
-124.239	-121.922	0.196	0.032
-123.224	-151.821	-0.168	-0.012
-122.210	800.000	-0.057	-0.166
-121.195	43.671	-0.101	-0.093
