DTS Sentinel unit serial number:	SN413079Multiplexer serial number:	ORYXHardware model number:	OX4-SRSoftware version number:	ORYX F/W v4.00 Oryx Data Collector v3.7.2.0data status	okinstallation	princeton_trtdifferential loss correction	single-endedforward channel	channel 4reverse channel	N/Adate	2019/09/17time	03:09:34forward acquisition time	60.00reverse acquisition time	0.00gamma	496.2192k internal	0.2311k external	0.2311temperature offset calibration	0.9977default loss term (dB/km)	0.3790temperature slope calibration	1.0000multiplexer offset coefficient	1.0000multiplexer slope coefficient	1.0000fibre end	0.00T internal ref (°C)	29.94T ext. ref 1 (°C)	0.14T ext. ref 2 (°C)	24.88length (m)	temperature (°C)	Stokes	anti-Stokes-747.200	-200.000	0.010	-0.313
-746.185	-200.000	0.009	0.468
-745.171	800.000	0.107	0.317
-744.156	800.000	-0.051	0.178
-743.142	-200.000	-0.025	0.140
-742.127	-60.702	-0.209	-0.090
-741.112	-200.000	0.004	0.066
-740.098	-48.526	-0.226	-0.110
-739.083	-13.121	-0.346	-0.228
-738.069	-200.000	0.018	0.203
-737.054	-39.319	0.109	-0.058
-736.039	-148.640	-0.114	-0.009
-735.025	-200.000	0.057	0.396
-734.010	-47.051	-0.293	-0.145
-732.996	-200.000	-0.022	-0.269
-731.981	800.000	-0.081	-0.312
-730.966	133.902	0.030	-0.039
-729.952	313.754	-0.114	0.219
-728.937	-161.830	-0.167	0.009
-727.923	-200.000	-0.063	-0.282
-726.908	-87.600	-0.227	0.070
-725.894	-60.531	0.256	-0.110
-724.879	376.895	-0.038	0.078
-723.864	-98.273	-0.152	0.040
-722.850	-7.499	-0.088	0.060
-721.835	-200.000	-0.019	-0.188
-720.821	800.000	-0.055	-0.178
-719.806	270.991	-0.068	0.121
-718.791	-73.938	-0.399	0.147
-717.777	137.035	-0.083	0.111
-716.762	41.635	-0.226	-0.207
-715.748	376.026	0.089	-0.183
-714.733	-36.582	0.367	-0.200
-713.718	218.739	-0.253	-0.410
-712.704	718.728	0.096	-0.259
-711.689	800.000	-0.035	0.133
-710.675	124.549	0.161	-0.206
-709.660	-175.369	0.168	0.005
-708.645	115.098	0.122	0.151
-707.631	52.116	-0.153	0.148
-706.616	800.000	0.059	-0.258
-705.602	800.000	0.027	-0.085
-704.587	8.120	-0.147	-0.112
-703.572	-34.515	-0.167	-0.093
-702.558	-74.101	-0.315	-0.115
-701.543	479.271	0.163	-0.373
-700.529	-136.554	-0.168	-0.020
-699.514	242.539	0.045	0.077
-698.499	-19.381	-0.246	-0.155
-697.485	800.000	-0.114	0.406
-696.470	-87.064	-0.295	-0.091
-695.456	-43.925	0.187	0.096
-694.441	277.814	-0.106	0.192
-693.426	16.686	-0.261	-0.209
-692.412	-101.293	0.284	-0.070
-691.397	-200.000	-0.005	-0.135
-690.383	-200.000	-0.050	-0.368
-689.368	800.000	0.163	-0.569
-688.354	-83.226	-0.334	-0.109
-687.339	-200.000	0.103	0.000
-686.324	112.908	-0.237	-0.291
-685.310	-86.883	0.142	0.044
-684.295	260.917	-0.076	-0.133
-683.281	-53.368	-0.298	-0.139
-682.266	-200.000	-0.073	-0.350
-681.251	183.704	-0.174	0.261
-680.237	221.142	-0.083	0.135
-679.222	17.734	-0.207	-0.167
-678.208	191.492	-0.060	0.092
-677.193	-23.358	-0.135	0.082
-676.178	-200.000	0.059	0.265
-675.164	-111.831	-0.189	0.039
-674.149	-200.000	-0.011	0.154
-673.135	-107.257	-0.351	-0.078
-672.120	-123.434	-0.096	0.016
-671.105	-98.626	0.059	0.015
-670.091	-21.360	0.357	0.221
-669.076	-200.000	-0.037	-0.189
-668.062	-94.740	-0.364	-0.100
-667.047	16.308	-0.190	-0.152
-666.032	37.839	-0.063	0.057
-665.018	-118.038	0.193	-0.035
-664.003	392.086	0.113	0.237
-662.989	-87.991	0.179	0.054
-661.974	-102.342	0.073	0.018
-660.959	-141.461	0.235	0.024
-659.945	-4.639	0.289	-0.202
-658.930	115.487	-0.064	-0.079
-657.916	107.747	0.034	0.041
-656.901	800.000	-0.052	-0.164
-655.886	-71.034	-0.247	-0.094
-654.872	-124.311	-0.173	-0.027
-653.857	-200.000	0.006	-0.059
-652.843	87.954	0.172	-0.192
-651.828	51.063	0.055	0.053
-650.814	800.000	0.092	0.326
-649.799	-93.313	-0.238	0.067
-648.784	343.994	-0.038	0.076
-647.770	800.000	-0.020	-0.085
-646.755	-200.000	0.038	0.212
-645.741	252.028	0.199	-0.342
-644.726	-40.256	-0.275	0.145
-643.711	-124.309	-0.264	-0.042
-642.697	-176.068	0.108	0.003
-641.682	75.622	-0.203	-0.217
-640.668	-101.579	-0.262	-0.064
-639.653	207.881	-0.024	0.038
-638.638	61.146	-0.040	-0.040
-637.624	-192.017	0.106	0.001
-636.609	-148.413	-0.449	0.037
-635.595	258.836	-0.161	-0.281
-634.580	800.000	0.008	0.030
-633.565	-1.652	-0.053	0.038
-632.551	129.428	0.236	-0.305
-631.536	800.000	-0.031	0.126
-630.522	800.000	-0.050	0.216
-629.507	-163.724	-0.287	-0.014
-628.492	800.000	-0.051	0.162
-627.478	-27.957	0.274	-0.160
-626.463	100.131	0.116	-0.136
-625.449	-200.000	0.066	-0.446
-624.434	371.348	0.021	0.044
-623.419	50.517	0.141	-0.135
-622.405	-200.000	0.022	0.182
-621.390	585.893	-0.035	0.086
-620.376	87.303	0.224	0.251
-619.361	74.350	0.127	-0.135
-618.346	-3.532	0.318	-0.224
-617.332	-200.000	-0.001	-0.195
-616.317	-200.000	0.163	0.001
-615.303	237.565	0.190	0.318
-614.288	136.343	-0.081	-0.107
-613.273	-200.000	-0.016	0.285
-612.259	-200.000	0.037	0.306
-611.244	-89.339	0.302	-0.090
-610.230	-1.972	0.161	0.114
-609.215	86.510	-0.216	-0.240
-608.201	125.496	0.094	-0.120
-607.186	-82.237	0.146	-0.048
-606.171	590.629	0.143	0.355
-605.157	163.225	0.062	-0.088
-604.142	23.074	0.330	0.273
-603.128	-37.931	-0.221	-0.119
-602.113	-200.000	0.007	-0.595
-601.098	-6.139	-0.129	0.089
-600.084	197.531	0.074	0.113
-599.069	-99.997	-0.398	0.100
-598.055	273.393	0.058	0.104
-597.040	-12.234	0.160	0.106
-596.025	-200.000	-0.011	-0.072
-595.011	-15.432	-0.229	0.147
-593.996	-200.000	-0.002	-0.028
-592.982	-106.314	0.259	-0.058
-591.967	800.000	-0.016	0.046
-590.952	245.219	0.181	0.307
-589.938	29.254	0.161	0.138
-588.923	-67.324	0.264	0.105
-587.909	71.280	-0.275	0.288
-586.894	128.906	-0.060	0.077
-585.879	14.594	-0.030	-0.024
-584.865	-200.000	-0.005	-0.095
-583.850	223.731	-0.109	0.178
-582.836	-68.037	0.079	0.031
-581.821	10.495	-0.284	0.219
-580.806	-117.975	0.185	-0.033
-579.792	34.971	-0.122	-0.107
-578.777	-43.909	0.148	0.075
-577.763	138.593	-0.072	0.096
-576.748	-17.629	0.231	-0.146
-575.733	-200.000	0.014	0.131
-574.719	-140.234	-0.302	-0.032
-573.704	800.000	0.056	0.221
-572.690	-200.000	0.006	0.237
-571.675	-62.985	-0.150	-0.062
-570.661	-10.111	0.212	-0.142
-569.646	-200.000	-0.003	0.027
-568.631	-102.068	-0.248	0.060
-567.617	533.526	-0.048	-0.116
-566.602	-116.351	0.188	0.035
-565.588	-200.000	-0.036	-0.233
-564.573	12.520	-0.056	-0.043
-563.558	-43.366	0.148	0.076
-562.544	-200.000	0.006	0.203
-561.529	-114.737	-0.217	-0.042
-560.515	-47.635	0.076	-0.037
-559.500	103.905	-0.082	-0.097
-558.485	-108.569	0.009	-0.002
-557.471	-179.597	-0.078	-0.002
-556.456	101.242	-0.128	-0.150
-555.442	467.144	0.068	-0.154
-554.427	18.432	-0.111	0.089
-553.412	-26.258	-0.117	-0.069
-552.398	704.593	-0.038	0.101
-551.383	-200.000	-0.055	0.244
-550.369	800.000	-0.033	-0.131
-549.354	-107.125	-0.180	0.040
-548.339	91.781	-0.279	-0.316
-547.325	800.000	-0.010	-0.040
-546.310	-105.984	-0.211	0.048
-545.296	-113.935	0.443	0.087
-544.281	800.000	-0.061	0.185
-543.266	445.233	-0.119	-0.264
-542.252	800.000	0.035	0.137
-541.237	-200.000	0.010	0.486
-540.223	786.590	0.134	0.371
-539.208	57.832	0.144	-0.142
-538.193	-200.000	-0.028	-0.125
-537.179	-183.383	0.199	-0.003
-536.164	-200.000	-0.005	-0.223
-535.150	-11.902	0.005	-0.003
-534.135	499.906	-0.131	-0.304
-533.121	-62.844	0.080	0.033
-532.106	95.022	0.132	0.151
-531.091	211.778	-0.084	-0.133
-530.077	53.603	-0.209	-0.202
-529.062	-139.177	-0.347	0.038
-528.048	98.755	-0.067	-0.078
-527.033	-96.228	0.029	0.008
-526.018	-125.301	-0.217	0.033
-525.004	111.304	0.127	-0.154
-523.989	503.534	-0.095	0.220
-522.975	-200.000	0.024	0.287
-521.960	44.724	0.222	-0.205
-520.945	-71.660	0.108	-0.041
-519.931	-42.240	0.109	-0.056
-518.916	107.842	-0.200	-0.240
-517.902	-200.000	0.024	0.120
-516.887	42.334	-0.220	-0.202
-515.872	296.847	0.026	0.049
-514.858	35.305	-0.313	0.276
-513.843	692.151	0.151	0.399
-512.829	44.368	0.162	-0.149
-511.814	-35.567	-0.488	-0.267
-510.799	-96.064	0.321	0.086
-509.785	252.513	0.177	0.303
-508.770	308.416	-0.129	-0.242
-507.756	578.081	0.043	0.107
-506.741	25.784	0.052	-0.044
-505.726	534.780	0.061	0.146
-504.712	-112.609	0.164	-0.033
-503.697	738.012	-0.169	0.455
-502.683	-29.076	0.297	-0.171
-501.668	800.000	0.152	-0.577
-500.653	90.174	-0.154	-0.173
-499.639	800.000	0.051	0.160
-498.624	-61.091	0.057	-0.024
-497.610	170.497	-0.053	-0.077
-496.595	-136.299	0.386	-0.045
-495.581	432.452	-0.115	0.251
-494.566	234.410	-0.113	-0.187
-493.551	144.255	-0.069	-0.093
-492.537	-172.248	-0.310	0.010
-491.522	77.523	0.205	-0.219
-490.508	-2.890	-0.093	-0.065
-489.493	-186.615	-0.198	-0.003
-488.478	800.000	0.052	-0.147
-487.464	-25.682	-0.237	-0.141
-486.449	-101.591	0.334	-0.082
-485.435	125.805	0.061	-0.077
-484.420	29.781	-0.219	0.187
-483.405	-200.000	-0.016	0.213
-482.391	255.831	-0.039	0.067
-481.376	534.404	0.066	0.157
-480.362	149.891	-0.190	-0.259
-479.347	433.144	-0.169	-0.369
-478.332	598.077	0.049	0.123
-477.318	800.000	0.094	-0.275
-476.303	786.543	-0.070	-0.192
-475.289	-200.000	0.048	0.255
-474.274	-160.879	0.236	0.013
-473.259	-159.423	0.309	0.017
-472.245	55.097	0.157	-0.153
-471.230	-4.875	0.275	-0.190
-470.216	-13.088	0.191	0.124
-469.201	-26.015	0.073	-0.043
-468.186	-8.504	-0.161	-0.109
-467.172	126.182	0.133	-0.169
-466.157	121.751	0.043	0.054
-465.143	-200.000	0.030	-0.155
-464.128	54.858	0.063	-0.061
-463.113	-81.258	0.054	-0.018
-462.099	56.225	-0.300	-0.292
-461.084	-140.039	-0.419	-0.044
-460.070	800.000	0.104	0.408
-459.055	-200.000	-0.005	-0.394
-458.040	2.932	-0.055	-0.040
-457.026	-144.922	0.144	-0.013
-456.011	414.056	0.060	-0.128
-454.997	36.308	0.062	0.055
-453.982	-46.122	-0.256	0.127
-452.968	663.467	0.116	0.301
-451.953	-200.000	-0.041	-0.230
-450.938	48.895	-0.378	-0.356
-449.924	47.597	0.325	0.305
-448.909	168.169	0.093	0.133
-447.895	188.377	-0.102	0.154
-446.880	267.834	0.049	0.086
-445.865	21.724	0.052	-0.042
-444.851	311.213	0.145	0.272
-443.836	-29.676	-0.198	0.113
-442.822	80.687	-0.049	0.053
-441.807	-5.689	-0.535	-0.368
-440.792	-181.211	0.067	0.001
-439.778	-71.530	-0.365	0.137
-438.763	297.269	0.131	0.241
-437.749	749.851	0.061	0.164
-436.734	-200.000	0.061	0.283
-435.719	269.038	0.055	-0.096
-434.705	-82.466	-0.198	-0.065
-433.690	-94.703	0.167	0.046
-432.676	-200.000	0.015	0.088
-431.661	800.000	0.043	0.182
-430.646	21.068	0.081	0.066
-429.632	213.472	-0.064	-0.102
-428.617	-143.852	-0.168	-0.016
-427.603	79.692	0.096	0.104
-426.588	243.510	0.252	-0.424
-425.573	-200.000	0.006	-0.204
-424.559	98.244	0.150	0.173
-423.544	-68.966	0.046	0.018
-422.530	-37.541	-0.242	0.129
-421.515	69.568	-0.210	0.216
-420.500	11.720	-0.238	-0.184
-419.486	-69.073	0.241	-0.093
-418.471	-85.906	-0.212	0.066
-417.457	311.336	-0.027	-0.051
-416.442	-133.009	0.105	-0.013
-415.428	-111.437	-0.037	-0.007
-414.413	447.663	-0.094	0.208
-413.398	800.000	0.053	0.182
-412.384	-57.589	0.031	-0.013
-411.369	-109.571	0.379	-0.080
-410.355	16.205	0.082	0.065
-409.340	-200.000	-0.014	-0.071
-408.325	-36.181	-0.060	-0.033
-407.311	-200.000	-0.002	0.139
-406.296	-43.723	0.103	0.052
-405.282	-89.953	0.288	0.084
-404.267	-162.473	0.114	-0.006
-403.252	-55.102	-0.417	-0.188
-402.238	-51.283	-0.074	0.035
-401.223	91.710	-0.102	-0.115
-400.209	48.839	0.220	0.207
-399.194	800.000	0.070	-0.218
-398.179	90.386	0.027	0.030
-397.165	34.112	-0.307	0.268
-396.150	-200.000	0.027	-0.146
-395.136	-168.675	0.248	0.009
-394.121	268.143	-0.160	-0.281
-393.106	-73.470	0.295	-0.108
-392.092	-200.000	-0.028	-0.311
-391.077	-51.252	-0.030	0.014
-390.063	23.643	0.236	0.195
-389.048	-153.519	0.044	0.003
-388.033	254.788	-0.178	-0.305
-387.019	-92.222	0.092	0.026
-386.004	34.368	-0.070	0.061
-384.990	-150.656	-0.220	0.017
-383.975	-192.260	0.390	-0.004
-382.960	-65.956	-0.145	0.058
-381.946	58.075	0.184	-0.180
-380.931	-99.004	0.129	0.033
-379.917	97.160	0.350	0.402
-378.902	-47.233	-0.188	-0.092
-377.888	76.648	-0.049	-0.052
-376.873	-138.388	-0.155	0.017
-375.858	65.361	-0.157	0.159
-374.844	-172.662	0.097	-0.003
-373.829	-133.662	0.126	-0.016
-372.815	-104.639	-0.133	0.031
-371.800	-79.428	0.339	-0.115
-370.785	110.303	-0.094	0.113
-369.771	800.000	0.053	0.182
-368.756	-133.866	0.274	0.034
-367.742	-121.285	0.389	0.065
-366.727	-200.000	-0.002	0.061
-365.712	596.166	0.125	0.309
-364.698	-200.000	0.010	0.167
-363.683	149.116	-0.126	-0.170
-362.669	-139.631	0.259	0.028
-361.654	260.057	-0.103	0.178
-360.639	-98.216	0.082	0.021
-359.625	-70.605	-0.383	-0.145
-358.610	-38.055	0.155	-0.082
-357.596	800.000	0.156	0.505
-356.581	-200.000	0.013	0.277
-355.566	223.997	0.127	-0.205
-354.552	-200.000	0.044	-0.265
-353.537	7.913	-0.029	-0.022
-352.523	-64.249	0.328	-0.134
-351.508	83.446	0.281	-0.307
-350.493	27.306	0.115	-0.097
-349.479	94.364	-0.004	-0.004
-348.464	62.715	0.044	-0.044
-347.450	-96.733	-0.278	-0.073
-346.435	26.037	0.070	0.058
-345.420	-200.000	0.003	-0.197
-344.406	-144.444	0.150	0.014
-343.391	-47.014	0.101	0.049
-342.377	-31.830	-0.104	-0.058
-341.362	800.000	-0.040	0.148
-340.348	418.876	-0.093	0.199
-339.333	82.378	0.047	0.051
-338.318	-118.512	-0.458	-0.081
-337.304	526.983	-0.069	0.163
-336.289	383.981	-0.038	0.078
-335.275	-135.343	-0.320	-0.038
-334.260	88.106	0.048	0.053
-333.245	-177.585	0.232	-0.006
-332.231	-137.764	0.153	0.017
-331.216	-75.329	0.383	-0.136
-330.202	176.259	0.057	-0.083
-329.187	37.688	0.109	-0.097
-328.172	-200.000	-0.002	-0.212
-327.158	-89.635	-0.148	-0.043
-326.143	-200.000	-0.028	0.154
-325.129	-122.489	-0.234	0.038
-324.114	-122.521	0.373	-0.061
-323.099	-30.301	0.461	0.262
-322.085	800.000	-0.070	0.203
-321.070	-122.184	0.117	-0.019
-320.056	123.733	0.229	0.287
-319.041	286.648	-0.061	0.110
-318.026	-140.088	-0.204	0.021
-317.012	-76.313	0.169	0.059
-315.997	18.965	0.131	0.105
-314.983	-200.000	0.033	0.146
-313.968	457.615	-0.055	-0.123
-312.953	267.110	-0.202	-0.353
-311.939	-40.666	0.154	0.080
-310.924	278.202	0.054	0.097
-309.910	240.124	-0.112	0.187
-308.895	66.140	0.201	0.203
-307.880	120.375	0.188	-0.233
-306.866	-22.602	-0.347	-0.209
-305.851	-35.752	0.184	0.100
-304.837	-96.949	-0.414	0.108
-303.822	27.206	-0.249	-0.208
-302.807	65.335	-0.130	-0.131
-301.793	-84.681	-0.315	-0.099
-300.778	509.988	0.128	-0.297
-299.764	49.578	-0.110	-0.103
-298.749	275.933	0.129	0.228
-297.735	17.094	-0.354	-0.280
-296.720	-60.595	-0.197	-0.083
-295.705	-200.000	-0.038	0.000
-294.691	-117.821	-0.252	-0.045
-293.676	441.970	0.039	0.085
-292.662	5.095	0.153	0.113
-291.647	57.986	0.153	0.149
-290.632	-60.455	-0.321	-0.136
-289.618	12.436	0.098	-0.076
-288.603	61.440	-0.176	-0.174
-287.589	-200.000	0.005	-0.147
-286.574	-200.000	-0.085	-0.388
-285.559	73.783	-0.023	0.024
-284.545	-31.902	0.041	0.023
-283.530	703.780	-0.107	-0.282
-282.516	397.651	-0.079	-0.165
-281.501	12.611	0.331	-0.254
-280.486	-119.671	-0.182	-0.031
-279.472	223.505	-0.144	0.232
-278.457	-68.404	0.349	0.135
-277.443	103.704	-0.246	0.288
-276.428	-200.000	0.080	-0.367
-275.413	74.695	0.079	0.082
-274.399	170.314	0.059	-0.084
-273.384	-70.163	0.199	-0.076
-272.370	-108.533	-0.252	0.054
-271.355	-10.664	0.046	0.030
-270.340	-81.958	0.180	0.059
-269.326	-200.000	0.032	-0.285
-268.311	-26.676	-0.084	0.049
-267.297	197.779	-0.102	0.156
-266.282	-15.041	0.171	0.109
-265.267	52.771	-0.149	-0.142
-264.253	-27.182	0.217	-0.126
-263.238	150.012	-0.019	-0.026
-262.224	210.619	-0.041	0.065
-261.209	97.997	-0.206	-0.236
-260.195	800.000	0.108	0.308
-259.180	339.318	0.088	-0.171
-258.165	-158.165	-0.465	-0.027
-257.151	85.411	-0.131	-0.144
-256.136	297.763	0.160	0.293
-255.122	-162.334	-0.157	-0.008
-254.107	113.054	0.086	0.103
-253.092	-200.000	-0.024	-0.117
-252.078	800.000	-0.040	-0.142
-251.063	-69.609	0.179	0.068
-250.049	78.452	0.419	-0.446
-249.034	60.745	0.082	-0.081
-248.019	28.673	0.111	-0.094
-247.005	124.945	0.310	0.389
-245.990	-74.332	-0.495	-0.178
-244.976	-200.000	0.033	0.261
-243.961	800.000	0.018	-0.080
-242.946	-51.281	-0.472	0.220
-241.932	99.846	-0.149	0.172
-240.917	-200.000	0.035	0.304
-239.903	800.000	0.059	-0.233
-238.888	266.414	0.093	-0.162
-237.873	-75.712	0.064	-0.023
-236.859	70.160	-0.225	-0.231
-235.844	298.855	0.172	-0.315
-234.830	47.059	-0.120	0.111
-233.815	-165.120	-0.299	-0.013
-232.800	13.518	0.225	0.174
-231.786	800.000	0.074	0.283
-230.771	32.841	0.088	0.076
-229.757	-112.356	-0.095	-0.019
-228.742	800.000	-0.083	-0.264
-227.727	800.000	0.041	-0.139
-226.713	-200.000	-0.001	-0.115
-225.698	451.695	0.035	-0.077
-224.684	-159.194	0.173	-0.010
-223.669	800.000	0.019	0.070
-222.655	800.000	-0.065	0.254
-221.640	108.016	-0.111	-0.132
-220.625	501.020	0.055	0.127
-219.611	-23.742	0.184	0.109
-218.596	-124.802	-0.225	0.035
-217.582	-18.006	-0.181	0.113
-216.567	-196.056	0.159	0.001
-215.552	293.911	0.251	-0.455
-214.538	-127.467	0.177	-0.026
-213.523	152.655	-0.214	0.291
-212.509	251.614	-0.171	0.290
-211.494	191.646	-0.095	0.142
-210.479	-75.247	0.045	0.016
-209.465	679.522	0.079	0.205
-208.450	-140.860	0.185	0.019
-207.436	-200.000	-0.002	-0.260
-206.421	-157.302	0.056	-0.003
-205.406	-200.000	-0.017	0.557
-204.392	-53.811	-0.239	-0.109
-203.377	-72.157	-0.255	0.094
-202.363	429.423	-0.145	-0.311
-201.348	124.980	0.164	-0.205
-200.333	-10.131	-0.138	-0.091
-199.319	570.079	0.086	0.209
-198.304	-169.184	0.199	-0.007
-197.290	-103.613	-0.194	0.045
-196.275	-200.000	-0.003	0.064
-195.260	-200.000	-0.021	0.226
-194.246	499.697	0.063	-0.144
-193.231	-63.745	-0.279	0.114
-192.217	53.626	-0.163	-0.155
-191.202	158.821	-0.122	-0.169
-190.187	800.000	-0.074	-0.319
-189.173	-200.000	0.008	0.204
-188.158	-107.801	0.246	-0.053
-187.144	121.608	0.144	0.178
-186.129	-87.956	-0.148	-0.044
-185.114	62.077	-0.342	0.339
-184.100	127.114	0.132	-0.167
-183.085	6.953	-0.324	-0.240
-182.071	-200.000	0.046	-0.266
-181.056	-98.784	-0.148	0.037
-180.042	-71.550	0.187	0.070
-179.027	-107.526	0.375	0.082
-178.012	-120.722	-0.167	-0.028
-176.998	115.282	-0.158	0.191
-175.983	510.481	0.117	0.270
-174.969	-122.708	-0.229	0.037
-173.954	800.000	0.049	0.186
-172.939	-21.131	0.253	0.153
-171.925	-200.000	0.054	-0.239
-170.910	-200.000	-0.008	-0.173
-169.896	-124.083	-0.218	-0.034
-168.881	-63.991	0.263	-0.107
-167.866	-38.763	-0.134	0.070
-166.852	-89.452	-0.197	-0.057
-165.837	98.237	-0.025	-0.029
-164.823	-108.593	-0.174	-0.037
-163.808	636.904	0.032	0.080
-162.793	800.000	0.094	0.327
-161.779	640.341	0.114	0.289
-160.764	7.970	0.224	0.167
-159.750	-200.000	0.030	0.175
-158.735	349.849	-0.085	-0.166
-157.720	-200.000	-0.031	0.220
-156.706	-27.566	0.281	0.162
-155.691	17.480	-0.092	-0.072
-154.677	42.746	0.093	0.084
-153.662	231.285	-0.122	-0.198
-152.647	-200.000	-0.035	-0.164
-151.633	-200.000	-0.078	-0.359
-150.618	337.602	0.105	0.202
-149.604	-200.000	-0.005	0.185
-148.589	251.732	0.212	-0.358
-147.574	-200.000	-0.033	-0.182
-146.560	-55.216	-0.185	-0.082
-145.545	-129.608	-0.361	-0.049
-144.531	-75.564	0.317	-0.112
-143.516	-10.210	0.253	0.166
-142.502	-38.049	0.145	0.076
-141.487	54.185	0.133	-0.127
-140.472	-84.800	-0.226	-0.070
-139.458	-200.000	-0.005	-0.034
-138.443	54.471	-0.198	-0.189
-137.429	-12.315	-0.049	-0.032
-136.414	50.674	0.056	0.052
-135.399	-200.000	-0.072	-0.371
-134.385	45.852	0.209	-0.192
-133.370	-85.511	-0.054	-0.017
-132.356	-151.589	0.406	0.030
-131.341	-0.019	0.252	0.178
-130.326	-128.694	-0.299	0.042
-129.312	27.576	0.150	-0.125
-128.297	-7.682	0.304	0.204
-127.283	-200.000	-0.081	-0.381
-126.268	41.571	-0.140	0.126
-125.253	117.145	0.184	-0.224
-124.239	72.498	0.053	-0.055
-123.224	800.000	0.066	-0.220
-122.210	-51.347	0.077	-0.036
-121.195	154.802	-0.098	-0.133
