DTS Sentinel unit serial number:	SN413079Multiplexer serial number:	ORYXHardware model number:	OX4-SRSoftware version number:	ORYX F/W v4.00 Oryx Data Collector v3.7.2.0data status	okinstallation	princeton_trtdifferential loss correction	single-endedforward channel	channel 4reverse channel	N/Adate	2019/09/12time	15:59:10forward acquisition time	60.00reverse acquisition time	0.00gamma	496.2192k internal	0.2297k external	0.2297temperature offset calibration	1.0103default loss term (dB/km)	0.3790temperature slope calibration	1.0000multiplexer offset coefficient	1.0000multiplexer slope coefficient	1.0000fibre end	0.00T internal ref (°C)	39.08T ext. ref 1 (°C)	2.51T ext. ref 2 (°C)	32.03length (m)	temperature (°C)	Stokes	anti-Stokes-747.200	-55.345	0.301	-0.138
-746.185	-57.363	-0.237	0.106
-745.171	49.577	-0.218	0.209
-744.156	123.545	0.089	0.114
-743.142	231.975	0.097	-0.163
-742.127	-200.000	0.006	0.271
-741.112	-36.974	-0.203	-0.111
-740.098	-200.000	-0.061	0.273
-739.083	143.073	-0.049	-0.067
-738.069	-89.948	-0.148	-0.044
-737.054	118.236	0.100	0.126
-736.039	52.087	0.008	-0.008
-735.025	-200.000	0.005	-0.225
-734.010	-86.952	-0.399	0.124
-732.996	-123.656	-0.310	0.050
-731.981	-50.423	-0.208	0.100
-730.966	54.620	-0.148	-0.146
-729.952	-150.487	0.163	0.013
-728.937	31.790	0.108	-0.095
-727.923	50.346	0.160	0.154
-726.908	16.171	0.172	0.138
-725.894	-115.727	-0.169	-0.032
-724.879	-128.662	0.237	-0.034
-723.864	-100.122	0.162	-0.041
-722.850	-51.878	-0.214	0.102
-721.835	84.211	0.069	0.077
-720.821	-200.000	-0.012	-0.227
-719.806	-105.815	-0.358	-0.082
-718.791	-7.465	-0.114	0.078
-717.777	-100.619	-0.177	-0.045
-716.762	-113.873	-0.331	0.066
-715.748	-200.000	-0.021	0.339
-714.733	514.676	0.121	0.288
-713.718	-83.104	-0.101	0.033
-712.704	-48.349	-0.346	-0.170
-711.689	96.748	-0.174	-0.203
-710.675	800.000	0.068	-0.236
-709.660	800.000	-0.096	-0.307
-708.645	358.813	-0.121	-0.246
-707.631	-144.960	-0.131	0.012
-706.616	-47.635	0.134	0.066
-705.602	800.000	-0.049	-0.165
-704.587	-200.000	-0.042	0.195
-703.572	-89.559	0.154	-0.046
-702.558	-95.025	0.109	0.030
-701.543	-77.797	0.245	-0.086
-700.529	3.641	-0.273	0.203
-699.514	-49.710	0.194	-0.094
-698.499	-200.000	0.010	-0.202
-697.485	-101.895	0.280	-0.069
-696.470	800.000	0.051	-0.169
-695.456	-21.628	0.302	0.187
-694.441	-71.413	-0.200	-0.076
-693.426	-200.000	0.029	-0.197
-692.412	-100.286	0.126	0.032
-691.397	87.684	-0.087	-0.099
-690.383	601.770	-0.049	0.125
-689.368	350.203	-0.057	0.114
-688.354	15.936	0.154	-0.123
-687.339	-46.710	-0.181	-0.090
-686.324	217.892	-0.217	0.353
-685.310	-108.408	-0.246	0.054
-684.295	-200.000	0.066	-0.319
-683.281	-200.000	0.065	-0.404
-682.266	-200.000	-0.012	-0.113
-681.251	-166.116	0.140	-0.006
-680.237	750.705	0.012	0.034
-679.222	502.489	-0.107	0.253
-678.208	285.757	-0.197	-0.363
-677.193	362.428	0.029	0.060
-676.178	-145.962	0.197	-0.018
-675.164	26.943	-0.102	0.087
-674.149	-109.816	-0.107	0.023
-673.135	58.209	0.125	-0.125
-672.120	354.933	-0.094	-0.190
-671.105	-76.224	-0.027	0.010
-670.091	5.499	0.279	-0.210
-669.076	445.161	-0.006	-0.013
-668.062	-83.626	-0.209	0.068
-667.047	487.767	-0.056	0.129
-666.032	-35.568	-0.200	-0.111
-665.018	-200.000	-0.016	0.175
-664.003	-95.607	-0.123	-0.034
-662.989	246.740	-0.055	0.094
-661.974	-104.144	-0.335	-0.079
-660.959	-70.947	-0.373	-0.143
-659.945	207.401	0.158	0.251
-658.930	-200.000	-0.032	-0.277
-657.916	-200.000	0.048	0.349
-656.901	-94.940	-0.284	0.078
-655.886	-126.787	-0.224	-0.034
-654.872	400.114	0.077	0.165
-653.857	-78.350	-0.055	0.019
-652.843	-94.573	-0.110	0.030
-651.828	53.980	-0.203	-0.199
-650.814	-43.281	0.255	-0.131
-649.799	132.596	0.230	0.302
-648.784	41.597	0.184	-0.170
-647.770	-94.591	-0.121	0.034
-646.755	66.351	0.062	0.064
-645.741	145.832	-0.127	-0.173
-644.726	-51.202	0.088	-0.042
-643.711	-111.567	-0.260	-0.054
-642.697	-200.000	0.029	-0.310
-641.682	110.177	0.197	-0.241
-640.668	800.000	0.034	0.119
-639.653	-30.396	0.107	-0.062
-638.638	-200.000	-0.015	-0.160
-637.624	-200.000	0.007	-0.048
-636.609	-152.478	-0.118	0.009
-635.595	-200.000	0.001	-0.095
-634.580	-133.420	-0.123	0.016
-633.565	193.258	-0.144	-0.221
-632.551	-62.878	0.397	0.167
-631.536	726.971	-0.139	0.377
-630.522	85.064	0.133	0.148
-629.507	-143.585	-0.202	-0.020
-628.492	-200.000	-0.025	-0.263
-627.478	-36.527	0.233	0.127
-626.463	-186.935	-0.065	0.001
-625.449	-114.630	-0.211	0.041
-624.434	-122.992	-0.143	-0.023
-623.419	75.628	-0.096	0.104
-622.405	187.214	0.196	-0.297
-621.390	-136.316	0.404	0.048
-620.376	-200.000	-0.039	0.271
-619.361	394.293	0.042	-0.089
-618.346	-89.244	0.317	0.095
-617.332	800.000	0.097	-0.314
-616.317	359.669	-0.073	-0.148
-615.303	563.408	0.068	-0.167
-614.288	-65.457	-0.172	-0.070
-613.273	-200.000	-0.007	0.167
-612.259	162.032	-0.037	-0.052
-611.244	800.000	-0.081	-0.262
-610.230	-156.165	-0.288	0.018
-609.215	-3.902	-0.167	0.118
-608.201	400.148	-0.112	-0.238
-607.186	455.791	0.023	0.051
-606.171	-200.000	0.007	-0.202
-605.157	123.548	-0.171	0.218
-604.142	472.977	0.061	-0.140
-603.128	-65.523	-0.124	-0.051
-602.113	-28.283	-0.313	-0.184
-601.098	790.028	0.092	-0.258
-600.084	-109.128	0.100	0.022
-599.069	189.441	-0.253	-0.386
-598.055	73.331	0.087	-0.092
-597.040	55.303	0.212	0.208
-596.025	-2.752	-0.038	-0.027
-595.011	9.879	-0.190	0.146
-593.996	439.037	0.035	0.079
-592.982	-56.483	0.199	-0.090
-591.967	68.852	0.059	0.062
-590.952	-95.884	0.260	0.070
-589.938	-200.000	0.008	-0.051
-588.923	76.004	-0.045	-0.048
-587.909	-200.000	-0.003	0.236
-586.894	-200.000	-0.000	0.213
-585.879	138.538	0.139	0.185
-584.865	39.825	0.193	-0.176
-583.850	23.452	0.120	-0.100
-582.836	-89.372	-0.144	-0.043
-581.821	800.000	0.084	-0.268
-580.806	18.652	-0.404	-0.328
-579.792	-51.613	-0.185	-0.088
-578.777	402.734	-0.105	-0.224
-577.763	800.000	-0.099	0.335
-576.748	6.566	-0.075	-0.057
-575.733	-200.000	0.037	0.173
-574.719	405.296	-0.082	0.176
-573.704	-89.313	0.191	-0.057
-572.690	-0.430	-0.214	0.155
-571.675	28.122	0.158	0.135
-570.661	-55.853	-0.036	-0.016
-569.646	-200.000	-0.013	0.193
-568.631	176.351	-0.152	-0.223
-567.617	-48.634	0.033	-0.016
-566.602	-200.000	0.032	0.226
-565.588	-200.000	0.019	0.097
-564.573	253.987	0.087	0.152
-563.558	11.569	-0.148	0.116
-562.544	-33.528	0.171	-0.096
-561.529	-52.031	0.264	0.124
-560.515	-125.644	-0.510	-0.078
-559.500	800.000	-0.034	0.101
-558.485	-200.000	-0.129	-0.000
-557.471	69.657	0.238	0.249
-556.456	-94.949	0.154	-0.042
-555.442	114.206	-0.228	-0.281
-554.427	-200.000	-0.047	0.244
-553.412	-49.090	0.291	0.141
-552.398	191.596	-0.088	-0.135
-551.383	-155.328	-0.282	0.019
-550.369	477.770	0.061	0.140
-549.354	-167.885	0.490	-0.020
-548.339	-187.047	0.305	-0.004
-547.325	-142.342	-0.255	-0.025
-546.310	800.000	-0.024	-0.067
-545.296	-10.940	-0.244	-0.163
-544.281	-72.126	-0.270	0.102
-543.266	-40.503	-0.288	0.152
-542.252	-200.000	0.081	-0.419
-541.237	-166.871	-0.346	0.014
-540.223	-57.087	0.188	0.084
-539.208	800.000	-0.074	0.239
-538.193	-111.892	-0.027	-0.005
-537.179	-129.065	-0.205	-0.029
-536.164	32.700	-0.281	-0.247
-535.150	85.849	-0.026	-0.029
-534.135	-164.178	-0.142	-0.007
-533.121	190.198	0.119	0.181
-532.106	617.704	-0.053	0.136
-531.091	41.590	-0.278	-0.255
-530.077	571.152	-0.139	0.343
-529.062	-83.891	0.066	0.021
-528.048	800.000	0.032	0.125
-527.033	-123.908	-0.194	-0.031
-526.018	5.765	-0.327	0.245
-525.004	-139.951	0.215	0.023
-523.989	-75.782	-0.166	0.060
-522.975	218.148	0.049	0.079
-521.960	-200.000	-0.006	-0.057
-520.945	800.000	0.063	-0.256
-519.931	-93.271	0.235	-0.066
-518.916	-85.898	0.304	0.095
-517.902	-10.268	-0.312	0.210
-516.887	115.682	0.230	0.285
-515.872	11.480	0.147	-0.114
-514.858	42.810	-0.287	0.265
-513.843	122.719	-0.207	-0.262
-512.829	34.446	-0.293	-0.259
-511.814	84.692	-0.281	0.311
-510.799	-52.463	-0.096	-0.045
-509.785	-69.978	-0.037	0.014
-508.770	610.957	0.026	0.066
-507.756	-75.402	0.298	-0.107
-506.741	80.901	0.284	0.310
-505.726	327.187	-0.178	-0.345
-504.712	27.475	-0.042	0.036
-503.697	-70.547	-0.236	-0.090
-502.683	-11.004	0.054	0.036
-501.668	159.692	-0.078	0.110
-500.653	-102.936	0.396	0.095
-499.639	-37.834	-0.214	0.115
-498.624	-70.267	0.323	0.124
-497.610	57.952	0.236	0.234
-496.595	-200.000	0.026	0.316
-495.581	-200.000	-0.016	-0.158
-494.566	291.604	-0.303	-0.557
-493.551	190.366	-0.098	0.149
-492.537	648.002	0.096	-0.249
-491.522	800.000	-0.108	-0.391
-490.508	26.733	-0.248	-0.210
-489.493	-200.000	0.089	0.409
-488.478	-57.371	0.257	-0.114
-487.464	736.998	0.012	-0.032
-486.449	24.990	-0.174	0.146
-485.435	800.000	-0.121	-0.337
-484.420	-122.498	-0.496	-0.081
-483.405	177.141	0.109	-0.160
-482.391	-102.611	0.121	-0.029
-481.376	-200.000	0.081	-0.457
-480.362	-200.000	-0.028	-0.532
-479.347	-159.627	-0.023	-0.001
-478.332	107.965	0.183	0.221
-477.318	-171.042	-0.249	-0.009
-476.303	147.007	0.060	-0.081
-475.289	49.318	-0.194	-0.184
-474.274	-130.220	-0.089	-0.012
-473.259	9.029	0.269	0.205
-472.245	800.000	-0.038	0.143
-471.230	101.509	0.181	0.213
-470.216	19.989	0.230	0.187
-469.201	-66.699	-0.100	-0.040
-468.186	800.000	-0.046	-0.201
-467.172	-200.000	-0.014	-0.207
-466.157	-85.469	-0.189	-0.060
-465.143	800.000	-0.115	0.332
-464.128	-83.671	0.231	-0.074
-463.113	800.000	-0.085	0.299
-462.099	223.600	-0.080	0.131
-461.084	211.156	-0.069	0.110
-460.070	-89.161	-0.263	0.078
-459.055	77.798	-0.198	0.213
-458.040	-200.000	-0.000	-0.019
-457.026	395.233	0.077	0.161
-456.011	246.267	0.193	0.329
-454.997	800.000	-0.005	-0.018
-453.982	800.000	-0.012	-0.045
-452.968	800.000	0.044	0.145
-451.953	-200.000	-0.039	-0.313
-450.938	-200.000	0.019	-0.155
-449.924	484.564	-0.101	-0.232
-448.909	-35.813	0.047	-0.026
-447.895	-163.307	0.056	0.003
-446.880	560.419	-0.198	-0.483
-445.865	195.992	0.121	0.186
-444.851	15.165	0.274	-0.217
-443.836	643.776	0.046	-0.119
-442.822	-25.342	-0.202	0.121
-441.807	-34.130	-0.302	-0.167
-440.792	-135.637	-0.339	0.041
-439.778	148.835	0.022	0.030
-438.763	124.759	-0.164	-0.209
-437.749	373.680	0.129	-0.265
-436.734	66.807	-0.252	-0.258
-435.719	-200.000	0.036	-0.176
-434.705	12.749	-0.245	0.191
-433.690	65.369	-0.273	0.279
-432.676	-54.802	0.262	-0.120
-431.661	-100.845	0.193	0.048
-430.646	-55.086	0.199	0.090
-429.632	-5.060	-0.296	-0.206
-428.617	-116.387	0.300	0.056
-427.603	78.720	-0.128	-0.138
-426.588	-62.067	0.092	-0.039
-425.573	81.913	-0.038	-0.042
-424.559	31.472	0.302	0.262
-423.544	-38.752	-0.191	-0.102
-422.530	681.215	0.080	-0.211
-421.515	581.887	-0.057	-0.142
-420.500	-200.000	-0.060	0.274
-419.486	-67.162	0.180	0.071
-418.471	72.498	-0.119	-0.125
-417.457	-73.404	-0.076	0.028
-416.442	263.811	-0.132	0.231
-415.428	93.204	0.141	-0.161
-414.413	-122.681	-0.144	0.023
-413.398	116.362	-0.259	0.320
-412.384	-200.000	0.020	0.133
-411.369	-189.477	0.300	-0.004
-410.355	163.120	0.097	0.137
-409.340	672.051	-0.026	-0.068
-408.325	-14.765	0.217	-0.141
-407.311	-169.729	-0.151	0.006
-406.296	112.517	0.184	-0.225
-405.282	422.942	0.097	-0.211
-404.267	-200.000	0.049	-0.333
-403.252	-116.987	-0.242	-0.045
-402.238	-200.000	-0.007	0.342
-401.223	800.000	-0.048	-0.164
-400.209	-200.000	-0.094	-0.455
-399.194	-3.433	0.141	-0.099
-398.179	119.348	0.200	-0.249
-397.165	288.859	-0.106	0.193
-396.150	723.096	-0.070	0.189
-395.136	-10.693	-0.310	0.206
-394.121	-90.886	0.129	-0.037
-393.106	-85.076	0.210	-0.066
-392.092	-72.319	0.265	0.099
-391.077	-35.751	0.119	-0.065
-390.063	-31.374	0.114	0.065
-389.048	29.908	-0.174	-0.149
-388.033	-83.712	0.103	0.033
-387.019	800.000	0.077	0.265
-386.004	-58.938	0.261	0.114
-384.990	-200.000	0.021	-0.117
-383.975	-23.720	0.310	-0.187
-382.960	24.230	-0.201	-0.167
-381.946	239.096	-0.134	0.224
-380.931	29.359	-0.088	0.075
-379.917	14.075	0.194	0.152
-378.902	245.129	0.054	0.092
-377.888	98.554	0.046	-0.053
-376.873	-139.447	0.147	0.016
-375.858	-200.000	0.002	-0.128
-374.844	-200.000	0.037	0.225
-373.829	446.632	0.073	-0.162
-372.815	629.810	-0.105	0.268
-371.800	-116.823	0.056	0.010
-370.785	-69.511	-0.169	0.065
-369.771	-128.696	0.278	-0.040
-368.756	-131.142	0.339	0.045
-367.742	124.366	-0.245	0.310
-366.727	48.741	0.223	-0.211
-365.712	777.736	-0.052	-0.142
-364.698	786.799	0.103	-0.286
-363.683	-200.000	-0.064	-0.325
-362.669	800.000	0.064	-0.263
-361.654	308.207	0.121	0.228
-360.639	800.000	0.032	0.124
-359.625	-69.072	0.092	-0.036
-358.610	69.703	0.155	-0.161
-357.596	133.502	0.107	-0.139
-356.581	-68.641	-0.089	-0.035
-355.566	-5.554	-0.205	-0.142
-354.552	451.289	-0.242	-0.539
-353.537	-200.000	-0.032	0.143
-352.523	-171.841	-0.114	0.004
-351.508	30.535	0.131	0.112
-350.493	800.000	-0.032	0.089
-349.479	-200.000	0.019	-0.129
-348.464	-117.709	0.202	0.036
-347.450	-162.968	-0.118	-0.006
-346.435	-113.803	-0.367	-0.072
-345.420	-148.679	0.216	0.018
-344.406	800.000	0.088	0.256
-343.391	33.069	0.065	0.057
-342.377	436.847	0.182	0.399
-341.362	595.659	-0.080	-0.199
-340.348	198.748	-0.148	-0.227
-339.333	-40.967	-0.136	0.071
-338.318	18.003	0.074	-0.059
-337.304	-69.731	0.262	0.101
-336.289	-154.679	0.106	-0.007
-335.275	-72.760	0.110	-0.041
-334.260	564.042	-0.166	0.403
-333.245	261.101	-0.217	0.378
-332.231	-125.778	-0.107	-0.016
-331.216	-36.834	0.403	0.217
-330.202	18.618	-0.303	-0.244
-329.187	-133.990	0.194	0.024
-328.172	-51.727	0.272	-0.128
-327.158	-39.554	0.130	0.068
-326.143	210.984	-0.168	-0.266
-325.129	-125.617	-0.148	0.023
-324.114	194.109	0.142	0.217
-323.099	800.000	0.049	-0.170
-322.085	-200.000	0.014	0.072
-321.070	-128.253	-0.035	0.005
-320.056	-200.000	0.005	-0.270
-319.041	290.302	-0.066	-0.120
-318.026	112.642	0.098	-0.120
-317.012	800.000	-0.098	0.287
-315.997	-118.895	0.236	0.042
-314.983	-115.570	-0.311	-0.059
-313.968	-106.611	0.173	-0.039
-312.953	800.000	-0.089	0.377
-311.939	-79.617	0.164	-0.055
-310.924	-75.346	0.222	0.079
-309.910	-70.096	-0.309	-0.118
-308.895	10.174	-0.062	-0.048
-307.880	-143.081	-0.180	-0.017
-306.866	-7.106	0.218	-0.148
-305.851	-200.000	-0.021	-0.179
-304.837	499.830	0.032	0.074
-303.822	65.953	0.062	-0.063
-302.807	-83.218	0.197	-0.063
-301.793	-53.991	-0.177	0.081
-300.778	-200.000	-0.017	0.213
-299.764	800.000	0.071	-0.203
-298.749	-200.000	-0.037	0.193
-297.735	-50.850	-0.298	-0.141
-296.720	-138.467	0.196	0.022
-295.705	6.024	0.158	0.118
-294.691	-200.000	0.033	0.264
-293.676	120.384	-0.156	0.195
-292.662	65.413	-0.157	-0.160
-291.647	-200.000	0.006	0.048
-290.632	55.420	-0.024	-0.023
-289.618	632.894	-0.029	0.073
-288.603	109.931	-0.137	0.165
-287.589	-25.265	-0.113	0.067
-286.574	602.042	0.069	-0.172
-285.559	-108.282	0.349	-0.076
-284.545	505.361	0.034	-0.080
-283.530	387.919	-0.087	-0.181
-282.516	-200.000	-0.071	-0.400
-281.501	113.179	0.121	-0.147
-280.486	-23.925	0.276	-0.166
-279.472	800.000	-0.059	0.165
-278.457	-78.216	-0.104	-0.036
-277.443	51.561	0.051	0.048
-276.428	215.836	-0.179	0.286
-275.413	-6.689	0.090	-0.062
-274.399	73.154	-0.059	-0.062
-273.384	-90.992	0.168	-0.048
-272.370	770.687	0.059	-0.160
-271.355	800.000	-0.008	0.035
-270.340	730.306	-0.037	-0.098
-269.326	122.851	0.177	0.222
-268.311	-184.213	0.087	-0.001
-267.297	-14.388	0.299	-0.193
-266.282	112.378	-0.039	-0.047
-265.267	-98.578	0.049	-0.013
-264.253	-144.555	-0.178	0.016
-263.238	153.568	-0.156	-0.214
-262.224	137.950	-0.233	0.306
-261.209	-58.809	0.115	0.050
-260.195	-87.908	0.100	-0.030
-259.180	20.277	-0.012	-0.009
-258.165	16.693	0.290	0.230
-257.151	609.335	0.104	0.260
-256.136	421.738	-0.120	0.259
-255.122	498.725	0.112	-0.258
-254.107	82.473	0.151	0.165
-253.092	404.901	0.047	0.100
-252.078	-200.000	-0.004	0.146
-251.063	42.171	0.276	-0.251
-250.049	-73.399	-0.151	-0.055
-249.034	-102.809	-0.179	0.043
-248.019	346.247	-0.185	0.365
-247.005	-200.000	0.053	0.300
-245.990	800.000	0.132	0.395
-244.976	-93.839	-0.098	0.027
-243.961	-200.000	0.033	-0.318
-242.946	-39.407	0.324	0.170
-241.932	-1.072	-0.056	-0.040
-240.917	800.000	-0.040	-0.118
-239.903	34.855	0.059	0.052
-238.888	-9.669	-0.129	-0.086
-237.873	24.742	-0.204	0.169
-236.859	298.101	-0.077	-0.142
-235.844	474.196	0.172	0.390
-234.830	-67.043	-0.223	-0.088
-233.815	-109.844	-0.044	-0.009
-232.800	-130.118	-0.136	-0.019
-231.786	18.442	0.146	0.117
-230.771	-183.019	0.115	-0.002
-229.757	-200.000	0.048	0.392
-228.742	-37.139	0.229	-0.123
-227.727	64.238	0.116	-0.117
-226.713	800.000	0.082	0.248
-225.698	785.469	0.082	0.224
-224.684	-35.629	0.135	0.073
-223.669	-189.276	0.109	-0.001
-222.655	272.693	-0.058	0.103
-221.640	50.880	0.157	-0.149
-220.625	-200.000	0.033	0.301
-219.611	55.497	0.204	-0.197
-218.596	86.212	0.414	0.456
-217.582	-56.811	0.081	-0.036
-216.567	263.111	-0.127	0.221
-215.552	-3.094	-0.352	0.246
-214.538	-122.245	0.168	0.027
-213.523	800.000	-0.043	0.135
-212.509	-108.189	0.176	-0.038
-211.494	147.688	0.260	-0.350
-210.479	-53.049	0.034	-0.016
-209.465	-200.000	0.027	0.232
-208.450	128.726	0.258	0.329
-207.436	-200.000	0.010	-0.158
-206.421	-146.617	0.062	0.005
-205.406	432.910	-0.079	-0.172
-204.392	601.805	0.067	-0.167
-203.377	235.796	-0.105	-0.174
-202.363	150.789	0.168	0.228
-201.348	366.515	0.087	0.175
-200.333	-49.970	0.031	-0.014
-199.319	-24.972	-0.029	-0.017
-198.304	-11.581	-0.345	-0.226
-197.290	436.878	-0.108	-0.234
-196.275	338.131	0.031	-0.061
-195.260	800.000	-0.058	0.188
-194.246	-56.550	0.035	-0.015
-193.231	614.704	0.115	0.287
-192.217	-52.064	-0.218	0.101
-191.202	-42.670	-0.028	0.014
-190.187	-66.868	0.082	-0.032
-189.173	-200.000	0.041	-0.416
-188.158	-200.000	-0.033	0.233
-187.144	-23.958	0.332	-0.199
-186.129	-146.113	-0.098	0.009
-185.114	-109.948	0.148	-0.031
-184.100	-57.385	-0.212	-0.093
-183.085	800.000	-0.059	-0.168
-182.071	319.659	-0.161	0.305
-181.056	-173.054	-0.100	-0.003
-180.042	785.528	-0.194	0.531
-179.027	-30.656	0.127	-0.072
-178.012	800.000	-0.088	0.354
-176.998	-39.138	-0.203	-0.107
-175.983	187.776	-0.132	0.196
-174.969	-87.043	0.210	-0.064
-173.954	-200.000	0.018	-0.123
-172.939	456.335	-0.182	-0.403
-171.925	678.670	-0.082	0.212
-170.910	210.790	0.087	-0.136
-169.896	-65.256	-0.097	-0.039
-168.881	-45.433	-0.056	0.028
-167.866	-109.262	-0.315	-0.067
-166.852	-200.000	-0.015	-0.165
-165.837	-100.628	0.132	0.032
-164.823	-200.000	-0.006	-0.095
-163.808	-200.000	0.060	-0.269
-162.793	222.539	0.108	0.174
-161.779	5.060	-0.342	0.251
-160.764	-75.854	-0.174	0.061
-159.750	89.255	0.104	-0.115
-158.735	-70.979	-0.060	-0.023
-157.720	-64.136	-0.133	-0.054
-156.706	169.700	0.190	-0.271
-155.691	-135.278	0.139	0.017
-154.677	42.881	0.166	-0.151
-153.662	-200.000	-0.014	0.291
-152.647	-200.000	-0.024	0.258
-151.633	-200.000	0.006	-0.386
-150.618	-200.000	0.016	-0.225
-149.604	-200.000	0.061	0.386
-148.589	-200.000	0.002	0.043
-147.574	32.254	0.177	0.153
-146.560	-200.000	-0.016	0.234
-145.545	658.788	0.091	0.234
-144.531	-150.038	0.192	-0.015
-143.516	-200.000	0.029	-0.191
-142.502	115.406	0.038	0.047
-141.487	64.678	0.300	-0.302
-140.472	-200.000	0.007	0.290
-139.458	-200.000	-0.025	-0.157
-138.443	181.781	0.079	-0.116
-137.429	-119.578	0.177	0.031
-136.414	-0.641	0.082	-0.058
-135.399	790.691	-0.121	0.331
-134.385	213.058	-0.113	0.179
-133.370	-138.004	-0.169	-0.019
-132.356	-77.383	-0.281	0.097
-131.341	800.000	0.114	-0.470
-130.326	-200.000	0.033	-0.362
-129.312	201.930	0.226	-0.348
-128.297	142.841	-0.083	0.110
-127.283	-18.280	0.286	-0.178
-126.268	-151.508	-0.164	-0.012
-125.253	46.867	-0.052	0.048
-124.239	-58.317	0.158	0.068
-123.224	800.000	-0.133	-0.386
-122.210	203.865	0.100	-0.154
