DTS Sentinel unit serial number:	SN413079Multiplexer serial number:	ORYXHardware model number:	OX4-SRSoftware version number:	ORYX F/W v4.00 Oryx Data Collector v3.7.2.0data status	okinstallation	princeton_trtdifferential loss correction	single-endedforward channel	channel 4reverse channel	N/Adate	2019/09/16time	19:21:35forward acquisition time	60.00reverse acquisition time	0.00gamma	496.2192k internal	0.2306k external	0.2306temperature offset calibration	0.9970default loss term (dB/km)	0.3790temperature slope calibration	1.0000multiplexer offset coefficient	1.0000multiplexer slope coefficient	1.0000fibre end	0.00T internal ref (°C)	34.80T ext. ref 1 (°C)	0.06T ext. ref 2 (°C)	27.94length (m)	temperature (°C)	Stokes	anti-Stokes-747.200	92.141	-0.259	-0.297
-746.185	-200.000	-0.001	0.304
-745.171	317.708	-0.024	0.046
-744.156	-100.824	0.288	0.072
-743.142	68.038	0.090	-0.093
-742.127	-46.820	-0.254	0.126
-741.112	-200.000	0.070	-0.416
-740.098	600.242	0.095	0.239
-739.083	179.957	0.116	0.173
-738.069	800.000	0.071	0.244
-737.054	-69.429	0.095	0.037
-736.039	518.212	0.036	0.086
-735.025	319.816	0.080	0.154
-734.010	-26.930	-0.285	-0.169
-732.996	-200.000	-0.006	0.089
-731.981	14.431	-0.034	-0.027
-730.966	-200.000	0.007	-0.115
-729.952	-122.318	-0.129	-0.021
-728.937	56.957	-0.072	-0.071
-727.923	80.399	0.118	-0.129
-726.908	-115.937	-0.275	-0.052
-725.894	46.676	-0.084	0.079
-724.879	800.000	-0.086	-0.343
-723.864	9.582	-0.100	-0.077
-722.850	-25.879	-0.138	-0.082
-721.835	-139.402	-0.497	0.054
-720.821	0.084	-0.146	-0.106
-719.806	-200.000	0.037	0.309
-718.791	-200.000	-0.010	-0.105
-717.777	-200.000	-0.012	0.509
-716.762	105.592	0.325	0.390
-715.748	59.405	-0.042	0.042
-714.733	-39.743	0.212	-0.113
-713.718	800.000	-0.045	-0.137
-712.704	-200.000	-0.057	-0.274
-711.689	-200.000	-0.012	0.157
-710.675	10.963	-0.043	0.033
-709.660	169.428	0.077	0.112
-708.645	69.289	0.040	0.042
-707.631	43.931	0.117	-0.109
-706.616	-128.683	0.062	0.009
-705.602	39.310	-0.094	0.086
-704.587	-143.037	-0.363	-0.036
-703.572	-13.443	-0.121	0.079
-702.558	192.101	0.088	0.134
-701.543	278.966	0.127	0.230
-700.529	11.962	0.203	0.159
-699.514	-108.286	-0.171	0.038
-698.499	-200.000	0.001	-0.080
-697.485	129.430	-0.183	-0.237
-696.470	214.448	-0.142	0.229
-695.456	-112.619	0.233	0.047
-694.441	-144.271	-0.054	-0.005
-693.426	-200.000	-0.032	-0.189
-692.412	180.376	-0.050	0.074
-691.397	-82.319	-0.269	0.089
-690.383	-200.000	0.011	-0.118
-689.368	309.494	-0.043	0.083
-688.354	82.155	-0.121	0.133
-687.339	704.655	-0.035	0.094
-686.324	-200.000	-0.014	-0.109
-685.310	-131.376	-0.170	0.023
-684.295	85.362	0.094	-0.105
-683.281	-138.676	0.310	-0.034
-682.266	-1.778	0.303	-0.217
-681.251	-90.563	0.173	-0.051
-680.237	800.000	0.104	-0.427
-679.222	-9.372	-0.056	0.038
-678.208	800.000	0.064	-0.219
-677.193	800.000	0.050	0.203
-676.178	-67.911	-0.247	0.098
-675.164	290.445	0.016	-0.030
-674.149	-200.000	-0.042	0.253
-673.135	-39.471	-0.066	-0.035
-672.120	76.991	0.055	-0.059
-671.105	54.444	-0.118	-0.115
-670.091	-123.223	-0.366	0.059
-669.076	-60.174	0.131	0.057
-668.062	-181.422	0.293	0.006
-667.047	313.955	-0.088	0.167
-666.032	212.933	0.058	-0.092
-665.018	-133.545	-0.346	0.044
-664.003	-105.613	0.075	-0.017
-662.989	-21.402	0.261	-0.162
-661.974	123.325	-0.198	0.252
-660.959	73.373	-0.066	0.070
-659.945	-108.844	0.257	-0.056
-658.930	273.127	-0.125	-0.224
-657.916	201.768	0.042	0.066
-656.901	800.000	-0.113	-0.347
-655.886	-1.653	0.463	0.331
-654.872	-34.858	-0.242	0.134
-653.857	-50.975	-0.129	-0.061
-652.843	613.582	0.024	0.062
-651.828	-98.929	-0.209	0.054
-650.814	-89.365	0.166	0.049
-649.799	-76.965	-0.355	-0.126
-648.784	29.869	-0.232	-0.200
-647.770	45.909	-0.110	-0.104
-646.755	-30.296	0.373	0.215
-645.741	515.850	-0.108	-0.255
-644.726	800.000	0.011	0.048
-643.711	800.000	0.094	0.266
-642.697	329.321	0.164	0.320
-641.682	800.000	0.109	-0.402
-640.668	-122.183	0.196	-0.033
-639.653	82.236	0.123	0.136
-638.638	385.888	0.073	-0.152
-637.624	-161.346	-0.084	-0.004
-636.609	-22.946	-0.026	0.016
-635.595	-200.000	0.016	0.115
-634.580	324.618	-0.228	-0.441
-633.565	237.303	-0.099	0.166
-632.551	-200.000	-0.017	-0.129
-631.536	24.738	0.304	-0.255
-630.522	6.902	0.064	-0.049
-629.507	481.007	-0.144	0.331
-628.492	-170.441	-0.261	-0.009
-627.478	349.438	-0.022	0.043
-626.463	-200.000	-0.034	0.159
-625.449	-200.000	-0.042	-0.201
-624.434	-47.038	0.370	-0.183
-623.419	53.651	0.086	-0.083
-622.405	-136.703	-0.024	-0.003
-621.390	-103.836	-0.257	0.061
-620.376	-19.434	0.149	-0.093
-619.361	147.574	0.231	-0.315
-618.346	62.352	0.158	-0.159
-617.332	-16.470	0.289	0.185
-616.317	327.022	0.087	0.168
-615.303	-200.000	0.012	-0.294
-614.288	-65.075	-0.027	0.011
-613.273	-33.329	-0.197	0.111
-612.259	-89.622	0.220	-0.065
-611.244	-27.786	-0.137	0.080
-610.230	-107.625	-0.234	0.052
-609.215	-99.020	0.169	0.043
-608.201	-77.597	-0.262	0.092
-607.186	-185.512	-0.248	-0.004
-606.171	-171.560	-0.125	-0.004
-605.157	676.611	-0.061	-0.161
-604.142	-200.000	-0.048	0.611
-603.128	423.253	-0.171	0.372
-602.113	800.000	-0.034	0.150
-601.098	435.300	-0.043	0.094
-600.084	-122.249	-0.261	0.043
-599.069	-200.000	0.006	-0.237
-598.055	-200.000	0.006	0.315
-597.040	-84.484	0.366	-0.117
-596.025	-79.293	0.164	0.056
-595.011	-200.000	-0.011	0.050
-593.996	252.864	-0.174	0.301
-592.982	-38.139	-0.333	-0.179
-591.967	166.466	0.012	-0.017
-590.952	-35.590	0.109	-0.060
-589.938	304.646	0.189	0.354
-588.923	-166.848	-0.378	0.016
-587.909	154.480	0.163	0.226
-586.894	258.898	0.164	0.286
-585.879	-148.909	-0.219	0.018
-584.865	-15.584	0.119	-0.077
-583.850	-140.411	-0.275	0.029
-582.836	182.875	-0.230	0.343
-581.821	800.000	-0.019	0.060
-580.806	800.000	-0.069	-0.197
-579.792	481.028	0.108	-0.247
-578.777	150.187	0.115	-0.158
-577.763	-37.533	0.179	0.097
-576.748	-77.858	-0.117	-0.041
-575.733	-135.422	-0.346	-0.042
-574.719	800.000	0.074	0.292
-573.704	-200.000	-0.011	0.064
-572.690	-200.000	0.052	-0.503
-571.675	-65.544	-0.135	0.055
-570.661	-200.000	0.012	0.180
-569.646	-60.105	0.143	0.061
-568.631	800.000	0.018	0.055
-567.617	6.993	0.087	0.066
-566.602	-98.308	-0.258	0.067
-565.588	-99.012	0.170	-0.044
-564.573	209.042	-0.119	-0.188
-563.558	11.581	0.173	-0.134
-562.544	204.146	-0.072	-0.112
-561.529	5.734	-0.161	0.121
-560.515	175.208	0.210	0.307
-559.500	-0.752	0.169	-0.121
-558.485	-48.214	0.073	-0.036
-557.471	-200.000	-0.041	-0.377
-556.456	-100.949	-0.285	-0.071
-555.442	-4.357	0.012	-0.008
-554.427	54.966	0.094	0.092
-553.412	800.000	-0.031	0.125
-552.398	123.993	-0.143	-0.182
-551.383	4.943	-0.116	0.086
-550.369	247.141	0.155	-0.265
-549.354	572.172	-0.037	0.091
-548.339	296.276	-0.232	-0.430
-547.325	-27.058	0.350	-0.206
-546.310	-6.726	-0.124	-0.085
-545.296	-10.770	-0.086	-0.057
-544.281	324.717	-0.092	0.177
-543.266	-131.504	-0.253	-0.034
-542.252	91.001	-0.148	0.168
-541.237	-148.413	0.175	0.014
-540.223	-139.774	-0.229	-0.025
-539.208	-200.000	0.012	0.210
-538.193	-200.000	0.013	-0.432
-537.179	401.784	-0.094	0.199
-536.164	-62.853	0.244	0.102
-535.150	113.750	-0.145	0.178
-534.135	-61.594	-0.058	0.024
-533.121	800.000	-0.057	-0.204
-532.106	201.219	0.061	0.095
-531.091	-25.101	0.226	-0.135
-530.077	-80.968	0.142	0.047
-529.062	226.368	-0.067	0.110
-528.048	-100.195	0.254	0.064
-527.033	-93.980	0.362	0.100
-526.018	-88.138	0.320	0.097
-525.004	-33.122	-0.247	-0.138
-523.989	-150.018	0.217	0.017
-522.975	-200.000	0.017	-0.311
-521.960	-118.526	0.041	0.007
-520.945	394.659	0.135	0.284
-519.931	74.630	0.285	0.303
-518.916	-128.455	0.206	-0.030
-517.902	-100.942	-0.162	0.040
-516.887	-129.998	-0.301	-0.042
-515.872	88.881	0.190	-0.214
-514.858	-84.718	0.095	0.030
-513.843	-172.121	0.209	-0.007
-512.829	-67.402	0.129	-0.051
-511.814	-80.723	0.315	0.106
-510.799	552.465	-0.073	0.177
-509.785	-166.150	-0.285	0.012
-508.770	-25.708	0.153	-0.091
-507.756	-103.972	0.017	0.004
-506.741	-200.000	0.006	-0.144
-505.726	171.163	-0.135	0.195
-504.712	220.105	-0.050	-0.081
-503.697	321.076	-0.175	0.335
-502.683	-143.691	-0.260	0.025
-501.668	-20.357	-0.224	0.139
-500.653	-200.000	-0.019	0.171
-499.639	33.726	0.156	-0.137
-498.624	-102.225	0.240	-0.058
-497.610	-23.182	-0.199	0.121
-496.595	149.233	-0.204	-0.278
-495.581	283.744	-0.105	-0.190
-494.566	546.083	-0.095	0.228
-493.551	-200.000	-0.060	0.303
-492.537	282.337	-0.202	0.365
-491.522	800.000	0.022	0.062
-490.508	-21.674	-0.278	-0.171
-489.493	-110.470	0.212	0.044
-488.478	-44.251	0.302	0.153
-487.464	-21.464	0.379	-0.233
-486.449	391.395	0.037	-0.077
-485.435	562.506	0.044	0.106
-484.420	-44.545	0.282	0.142
-483.405	-200.000	-0.001	-0.044
-482.391	-130.782	-0.285	-0.039
-481.376	-89.101	0.033	0.010
-480.362	203.652	0.132	0.206
-479.347	-11.907	-0.229	0.152
-478.332	-46.105	-0.294	0.146
-477.318	467.211	0.016	0.036
-476.303	369.723	-0.081	0.164
-475.289	77.819	0.058	0.062
-474.274	182.457	-0.164	0.244
-473.259	83.618	0.048	-0.053
-472.245	-142.972	-0.074	0.007
-471.230	117.266	0.129	0.159
-470.216	-180.967	0.232	0.005
-469.201	180.821	-0.161	-0.238
-468.186	-26.500	0.166	0.098
-467.172	-104.702	-0.249	-0.058
-466.157	356.104	0.233	-0.466
-465.143	-200.000	0.018	0.106
-464.128	800.000	-0.094	-0.352
-463.113	716.101	0.058	-0.155
-462.099	800.000	-0.066	-0.242
-461.084	123.624	-0.171	0.215
-460.070	141.669	0.008	-0.010
-459.055	93.051	0.219	0.249
-458.040	-47.789	0.223	0.109
-457.026	154.913	-0.269	0.373
-456.011	-200.000	0.012	0.054
-454.997	82.722	-0.204	0.223
-453.982	74.821	0.137	-0.145
-452.968	-200.000	-0.047	0.270
-451.953	382.421	-0.098	-0.203
-450.938	-91.693	0.129	-0.037
-449.924	142.520	0.186	0.249
-448.909	237.288	0.039	0.064
-447.895	287.545	-0.098	0.178
-446.880	172.594	-0.085	-0.123
-445.865	-10.732	-0.299	-0.199
-444.851	137.693	-0.082	-0.108
-443.836	-200.000	0.004	0.085
-442.822	203.346	0.139	0.217
-441.807	633.298	0.007	0.018
-440.792	800.000	0.062	0.187
-439.778	-200.000	0.033	-0.469
-438.763	147.128	-0.175	-0.237
-437.749	-34.543	0.104	0.057
-436.734	-0.288	0.061	0.043
-435.719	-200.000	-0.002	0.244
-434.705	-70.653	0.130	-0.049
-433.690	91.692	0.058	0.065
-432.676	-200.000	-0.027	-0.215
-431.661	284.292	-0.108	-0.196
-430.646	-200.000	0.012	0.140
-429.632	235.793	-0.100	-0.167
-428.617	-200.000	-0.033	0.155
-427.603	136.068	0.197	-0.257
-426.588	-200.000	-0.201	-0.001
-425.573	-55.635	0.083	-0.037
-424.559	412.692	0.054	0.116
-423.544	-101.233	0.230	-0.057
-422.530	-36.258	0.259	0.140
-421.515	-200.000	-0.005	-0.189
-420.500	191.291	0.095	-0.143
-419.486	-200.000	-0.013	0.198
-418.471	-84.163	-0.181	-0.058
-417.457	-200.000	-0.021	0.169
-416.442	-200.000	0.008	0.176
-415.428	441.305	-0.104	0.228
-414.413	-30.468	-0.352	0.200
-413.398	-123.344	0.089	-0.014
-412.384	10.472	-0.134	0.103
-411.369	-118.156	0.119	-0.021
-410.355	800.000	0.037	-0.126
-409.340	332.340	0.082	0.159
-408.325	718.693	0.044	-0.117
-407.311	-44.960	-0.113	0.056
-406.296	396.251	-0.076	-0.159
-405.282	-100.278	0.226	0.056
-404.267	-3.994	0.127	0.089
-403.252	591.884	-0.149	-0.370
-402.238	55.998	-0.168	-0.164
-401.223	-104.955	-0.303	-0.070
-400.209	800.000	0.060	-0.227
-399.194	195.398	0.159	-0.243
-398.179	-200.000	0.024	-0.189
-397.165	-62.171	0.180	0.075
-396.150	-200.000	0.007	0.196
-395.136	365.038	-0.058	0.117
-394.121	-39.871	-0.275	-0.144
-393.106	-90.544	0.219	-0.063
-392.092	800.000	-0.015	-0.062
-391.077	-127.181	-0.085	-0.012
-390.063	28.110	0.375	-0.317
-389.048	-84.429	0.103	-0.033
-388.033	-170.590	0.291	0.010
-387.019	-200.000	0.024	-0.435
-386.004	-128.580	-0.256	-0.036
-384.990	-65.155	0.111	0.045
-383.975	146.784	-0.072	0.098
-382.960	-146.679	-0.090	0.008
-381.946	800.000	0.111	-0.354
-380.931	-200.000	-0.038	-0.243
-379.917	-78.575	0.232	0.080
-378.902	-58.432	0.424	-0.185
-377.888	-133.954	-0.151	-0.019
-376.873	346.898	0.110	-0.217
-375.858	-125.194	-0.135	0.021
-374.844	-0.785	0.297	0.211
-373.829	-54.779	-0.273	-0.124
-372.815	-102.142	-0.174	0.042
-371.800	-56.858	-0.148	0.066
-370.785	-50.456	-0.212	-0.101
-369.771	800.000	-0.065	0.245
-368.756	-200.000	0.003	-0.295
-367.742	0.838	0.187	0.134
-366.727	-117.877	0.378	0.068
-365.712	-200.000	-0.017	-0.216
-364.698	800.000	-0.075	-0.322
-363.683	-50.941	-0.281	0.132
-362.669	67.105	-0.228	0.233
-361.654	-52.239	0.062	0.029
-360.639	-200.000	0.028	0.128
-359.625	202.438	0.129	-0.199
-358.610	55.339	-0.232	0.225
-357.596	-80.138	-0.395	0.133
-356.581	-130.383	-0.089	0.012
-355.566	-200.000	-0.008	0.400
-354.552	-160.636	0.305	0.016
-353.537	-133.284	0.280	-0.035
-352.523	-41.073	-0.411	0.213
-351.508	-100.036	-0.228	-0.057
-350.493	467.475	0.148	0.333
-349.479	-41.953	-0.097	0.050
-348.464	-167.939	-0.214	0.008
-347.450	-82.560	0.576	-0.187
-346.435	-61.261	-0.310	-0.131
-345.420	-165.247	-0.251	-0.011
-344.406	-126.287	-0.282	-0.042
-343.391	147.483	-0.024	-0.033
-342.377	107.615	0.123	0.146
-341.362	-200.000	-0.034	0.167
-340.348	-200.000	-0.013	0.099
-339.333	300.484	0.020	-0.038
-338.318	-34.354	-0.112	-0.061
-337.304	119.604	0.183	0.227
-336.289	-174.191	0.232	0.007
-335.275	-82.206	0.138	-0.045
-334.260	494.453	0.107	0.246
-333.245	-48.976	0.110	-0.053
-332.231	-94.419	0.165	0.045
-331.216	192.873	0.276	-0.417
-330.202	443.568	0.101	-0.222
-329.187	67.012	-0.216	0.221
-328.172	312.613	0.155	-0.291
-327.158	-154.482	-0.035	-0.002
-326.143	44.918	0.091	0.084
-325.129	300.811	0.035	0.064
-324.114	6.971	0.078	0.058
-323.099	272.588	0.161	-0.284
-322.085	-32.019	0.038	0.021
-321.070	-200.000	0.020	-0.256
-320.056	-185.492	-0.298	0.005
-319.041	800.000	-0.130	-0.382
-318.026	711.608	0.031	0.081
-317.012	36.151	0.153	0.135
-315.997	-109.807	0.127	0.027
-314.983	-106.022	0.122	0.027
-313.968	451.470	-0.022	0.049
-312.953	-165.197	0.165	0.007
-311.939	800.000	-0.052	-0.172
-310.924	-41.187	0.210	-0.108
-309.910	83.669	0.073	0.080
-308.895	56.592	0.037	0.036
-307.880	237.202	-0.012	0.020
-306.866	759.880	0.234	-0.635
-305.851	87.506	0.188	-0.208
-304.837	-108.550	-0.402	-0.087
-303.822	-38.782	0.177	0.093
-302.807	134.722	0.164	0.213
-301.793	22.090	-0.259	0.211
-300.778	21.357	-0.337	-0.273
-299.764	-200.000	-0.373	-0.000
-298.749	-62.760	0.214	-0.089
-297.735	72.241	-0.318	-0.332
-296.720	109.157	-0.070	0.083
-295.705	-19.535	-0.327	-0.203
-294.691	32.123	0.111	0.096
-293.676	-44.358	0.065	0.032
-292.662	211.922	-0.084	0.133
-291.647	23.375	-0.192	-0.158
-290.632	318.424	-0.081	-0.154
-289.618	377.453	0.046	0.093
-288.603	800.000	-0.041	-0.156
-287.589	-200.000	0.002	-0.038
-286.574	103.168	0.063	0.074
-285.559	-200.000	0.010	0.177
-284.545	-165.661	-0.264	0.011
-283.530	-200.000	0.007	-0.148
-282.516	32.286	0.300	-0.259
-281.501	-200.000	0.038	-0.226
-280.486	262.790	0.144	0.250
-279.472	-38.144	-0.186	-0.099
-278.457	-56.374	0.331	0.147
-277.443	-200.000	0.035	0.227
-276.428	206.135	-0.136	-0.212
-275.413	40.444	0.192	-0.173
-274.399	-116.869	0.253	-0.046
-273.384	565.575	0.054	0.130
-272.370	161.342	0.037	0.052
-271.355	-140.121	-0.385	0.040
-270.340	800.000	-0.021	0.079
-269.326	258.330	-0.069	0.118
-268.311	-34.677	0.201	-0.110
-267.297	-80.178	0.054	-0.018
-266.282	-200.000	-0.003	0.015
-265.267	-49.999	0.215	-0.102
-264.253	68.666	-0.112	-0.115
-263.238	-28.965	0.181	0.104
-262.224	62.154	0.079	-0.079
-261.209	-31.208	-0.111	0.063
-260.195	64.827	0.181	0.183
-259.180	-149.728	0.176	-0.014
-258.165	3.636	-0.173	-0.126
-257.151	-97.155	-0.329	0.086
-256.136	-70.930	0.192	0.072
-255.122	515.713	-0.025	-0.059
-254.107	44.337	-0.205	0.188
-253.092	-133.479	-0.217	-0.027
-252.078	20.531	0.064	0.052
-251.063	-80.200	0.202	-0.067
-250.049	99.827	0.132	-0.152
-249.034	621.781	0.069	-0.175
-248.019	44.890	-0.030	-0.027
-247.005	130.556	-0.055	-0.070
-245.990	-200.000	0.001	-0.356
-244.976	-19.115	0.038	-0.023
-243.961	174.074	-0.090	0.129
-242.946	800.000	-0.018	0.061
-241.932	681.597	-0.070	-0.182
-240.917	49.779	0.226	0.213
-239.903	-74.495	-0.113	-0.041
-238.888	157.496	0.017	-0.023
-237.873	-200.000	-0.032	-0.232
-236.859	77.741	-0.047	-0.050
-235.844	-131.752	0.310	0.041
-234.830	-100.654	-0.206	0.051
-233.815	800.000	-0.014	0.048
-232.800	-105.469	0.108	0.024
-231.786	46.434	0.195	0.180
-230.771	56.479	-0.083	-0.081
-229.757	-9.627	-0.280	-0.186
-228.742	-93.944	-0.149	0.041
-227.727	-149.396	0.139	0.011
-226.713	28.807	0.101	-0.085
-225.698	-61.052	-0.047	0.020
-224.684	55.533	-0.212	0.205
-223.669	21.091	0.118	0.096
-222.655	-5.000	0.131	0.090
-221.640	141.602	-0.081	-0.107
-220.625	233.870	-0.095	-0.156
-219.611	800.000	0.041	0.154
-218.596	-79.425	-0.139	-0.047
-217.582	-163.479	-0.159	-0.008
-216.567	-9.993	0.130	-0.086
-215.552	-200.000	0.012	-0.203
-214.538	-133.493	0.300	0.037
-213.523	-102.945	0.213	0.050
-212.509	596.194	-0.143	0.353
-211.494	159.354	0.200	-0.277
-210.479	-45.104	0.023	0.011
-209.465	264.966	-0.204	0.354
-208.450	-71.084	-0.424	-0.159
-207.436	-54.229	0.243	-0.110
-206.421	-6.790	0.183	-0.124
-205.406	353.919	-0.066	-0.130
-204.392	-200.000	0.037	-0.245
-203.377	594.444	-0.074	-0.182
-202.363	153.253	0.210	0.286
-201.348	316.751	0.079	0.148
-200.333	-177.335	0.517	0.013
-199.319	286.087	-0.158	0.285
-198.304	-164.774	-0.193	-0.009
-197.290	80.823	0.091	0.097
-196.275	-82.476	0.225	0.073
-195.260	54.104	0.060	-0.058
-194.246	-80.684	-0.265	-0.088
-193.231	-200.000	0.004	-0.128
-192.217	546.718	-0.108	0.257
-191.202	654.229	-0.077	0.196
-190.187	84.605	-0.294	-0.320
-189.173	-22.795	-0.268	0.161
-188.158	-142.927	0.059	-0.006
-187.144	9.289	-0.258	0.194
-186.129	13.658	-0.176	-0.136
-185.114	385.374	-0.057	-0.118
-184.100	-200.000	-0.023	0.138
-183.085	-84.731	0.057	0.018
-182.071	-200.000	-0.039	-0.231
-181.056	-111.777	-0.187	0.038
-180.042	96.761	-0.063	-0.072
-179.027	-142.921	0.148	0.014
-178.012	100.800	0.053	-0.062
-176.998	62.377	-0.290	-0.288
-175.983	-105.232	0.117	-0.027
-174.969	800.000	0.061	0.210
-173.954	152.524	0.054	0.073
-172.939	-161.355	0.204	-0.010
-171.925	-200.000	-0.000	-0.009
-170.910	263.386	0.095	-0.165
-169.896	-35.524	-0.104	-0.056
-168.881	277.022	-0.105	0.185
-167.866	528.725	0.037	-0.087
-166.852	60.498	0.195	0.192
-165.837	138.992	-0.170	0.223
-164.823	-64.359	0.169	-0.068
-163.808	749.676	0.094	0.253
-162.793	-200.000	0.056	0.425
-161.779	800.000	-0.043	-0.126
-160.764	-79.555	-0.283	-0.095
-159.750	-92.537	0.134	0.037
-158.735	213.398	0.084	0.132
-157.720	800.000	-0.062	0.172
-156.706	141.241	0.040	-0.052
-155.691	-200.000	-0.030	-0.309
-154.677	800.000	-0.128	0.411
-153.662	5.321	0.103	0.075
-152.647	123.443	-0.094	0.117
-151.633	-65.182	0.083	-0.033
-150.618	-54.639	-0.060	0.027
-149.604	541.502	0.242	0.573
-148.589	240.277	-0.167	0.277
-147.574	184.989	-0.184	0.272
-146.560	96.244	0.089	0.102
-145.545	-190.390	0.319	-0.003
-144.531	197.220	-0.109	-0.165
-143.516	-59.702	-0.287	0.122
-142.502	-21.770	0.205	0.124
-141.487	800.000	-0.067	0.202
-140.472	55.188	-0.188	0.180
-139.458	-51.049	0.367	-0.171
-138.443	-73.059	-0.181	0.066
-137.429	167.374	-0.220	0.310
-136.414	-89.752	0.557	0.162
-135.399	-200.000	-0.024	0.232
-134.385	-60.205	-0.402	0.170
-133.370	800.000	-0.054	0.212
-132.356	-200.000	-0.001	0.080
-131.341	69.822	0.207	0.212
-130.326	800.000	0.014	0.052
-129.312	80.676	-0.157	-0.169
-128.297	14.834	0.320	-0.248
-127.283	187.744	0.115	-0.171
-126.268	800.000	-0.162	0.511
-125.253	-33.776	0.413	0.226
-124.239	84.340	-0.125	-0.136
-123.224	179.802	0.163	0.237
-122.210	-38.337	0.125	0.066
-121.195	-200.000	0.010	0.103
-120.180	12.340	-0.075	-0.058
