DTS Sentinel unit serial number:	SN413079Multiplexer serial number:	ORYXHardware model number:	OX4-SRSoftware version number:	ORYX F/W v4.00 Oryx Data Collector v3.7.2.0data status	okinstallation	princeton_trtdifferential loss correction	single-endedforward channel	channel 4reverse channel	N/Adate	2019/09/12time	14:59:11forward acquisition time	60.00reverse acquisition time	0.00gamma	496.2192k internal	0.2289k external	0.2289temperature offset calibration	1.0092default loss term (dB/km)	0.3790temperature slope calibration	1.0000multiplexer offset coefficient	1.0000multiplexer slope coefficient	1.0000fibre end	0.00T internal ref (°C)	40.41T ext. ref 1 (°C)	2.37T ext. ref 2 (°C)	37.35length (m)	temperature (°C)	Stokes	anti-Stokes-747.200	55.150	-0.097	0.096
-746.185	17.668	0.180	-0.147
-745.171	-58.439	0.238	-0.106
-744.156	81.730	-0.165	0.183
-743.142	-131.633	-0.115	-0.015
-742.127	-7.830	0.086	0.060
-741.112	192.938	0.153	0.237
-740.098	89.848	0.173	0.198
-739.083	-135.340	0.253	0.031
-738.069	-200.000	0.054	0.388
-737.054	-155.939	-0.271	0.018
-736.039	168.796	-0.103	-0.151
-735.025	-26.270	0.501	0.301
-734.010	-121.375	-0.357	-0.061
-732.996	103.560	-0.047	-0.057
-731.981	-62.855	-0.428	0.182
-730.966	-62.922	0.259	-0.110
-729.952	-200.000	-0.027	-0.126
-728.937	-70.612	0.166	0.064
-727.923	-144.797	0.151	0.014
-726.908	442.928	-0.097	0.217
-725.894	299.318	-0.076	0.143
-724.879	-114.946	-0.460	0.090
-723.864	114.477	0.148	-0.185
-722.850	35.344	0.090	-0.081
-721.835	-59.404	-0.213	0.094
-720.821	175.723	0.153	-0.227
-719.806	-79.995	-0.172	0.059
-718.791	-29.499	-0.104	0.061
-717.777	-126.897	0.218	-0.033
-716.762	-200.000	-0.014	-0.447
-715.748	800.000	-0.102	-0.301
-714.733	-34.913	0.279	-0.156
-713.718	-200.000	0.012	-0.074
-712.704	123.391	0.251	-0.323
-711.689	75.501	-0.044	0.047
-710.675	-200.000	-0.036	-0.289
-709.660	-200.000	0.010	-0.143
-708.645	221.027	0.145	0.239
-707.631	-123.925	0.096	-0.015
-706.616	150.093	0.048	-0.067
-705.602	-200.000	-0.013	0.081
-704.587	-42.502	-0.061	0.032
-703.572	36.902	-0.133	0.120
-702.558	21.226	-0.157	-0.130
-701.543	43.863	0.133	0.124
-700.529	26.567	0.150	0.129
-699.514	800.000	0.007	-0.029
-698.499	-124.489	-0.223	0.036
-697.485	-14.200	-0.228	-0.150
-696.470	-80.729	0.566	-0.192
-695.456	-86.829	0.154	0.048
-694.441	10.552	-0.065	0.050
-693.426	159.139	-0.152	0.217
-692.412	-200.000	0.003	-0.292
-691.397	519.864	0.027	-0.065
-690.383	-60.420	-0.227	-0.099
-689.368	-61.112	0.293	0.126
-688.354	800.000	-0.031	-0.105
-687.339	-200.000	-0.014	-0.338
-686.324	-167.565	-0.410	0.017
-685.310	-51.575	-0.232	0.111
-684.295	63.950	-0.238	0.245
-683.281	-165.628	-0.032	0.001
-682.266	-123.530	0.226	-0.037
-681.251	-200.000	-0.044	0.479
-680.237	-200.000	-0.004	-0.159
-679.222	800.000	-0.079	0.270
-678.208	-128.255	0.122	0.018
-677.193	-149.077	-0.205	0.017
-676.178	-63.754	0.153	0.064
-675.164	800.000	0.044	-0.185
-674.149	-7.889	0.083	-0.057
-673.135	128.564	0.089	-0.115
-672.120	-99.655	0.212	0.054
-671.105	58.806	0.080	-0.081
-670.091	146.861	0.133	0.182
-669.076	151.744	-0.146	-0.203
-668.062	-60.165	-0.134	-0.059
-667.047	27.941	-0.184	0.159
-666.032	5.870	-0.192	-0.145
-665.018	-129.837	0.107	-0.015
-664.003	-200.000	-0.030	-0.345
-662.989	-75.247	-0.652	0.238
-661.974	-200.000	-0.020	-0.227
-660.959	-51.727	-0.359	-0.171
-659.945	-200.000	0.015	0.103
-658.930	-200.000	-0.019	0.154
-657.916	80.845	0.296	-0.327
-656.901	148.090	-0.161	-0.222
-655.886	79.940	0.345	0.378
-654.872	-125.543	-0.362	-0.056
-653.857	24.633	0.064	0.054
-652.843	-108.512	0.226	-0.050
-651.828	422.812	-0.062	-0.135
-650.814	-200.000	-0.024	-0.164
-649.799	110.589	-0.087	0.107
-648.784	622.912	-0.064	-0.166
-647.770	-107.211	0.120	-0.027
-646.755	188.181	-0.123	0.187
-645.741	-104.975	-0.156	-0.036
-644.726	56.651	0.174	-0.173
-643.711	-115.907	-0.169	0.032
-642.697	-135.120	-0.158	0.019
-641.682	-32.695	0.330	0.188
-640.668	371.716	-0.188	0.389
-639.653	-200.000	-0.002	-0.016
-638.638	507.209	-0.048	-0.114
-637.624	-200.000	0.049	0.309
-636.609	-63.663	-0.129	-0.054
-635.595	-149.021	-0.331	-0.027
-634.580	-63.405	-0.103	0.043
-633.565	-120.050	0.291	-0.051
-632.551	-10.106	-0.152	-0.103
-631.536	-200.000	-0.028	0.244
-630.522	11.674	-0.104	-0.082
-629.507	12.721	0.157	-0.124
-628.492	-200.000	-0.031	0.286
-627.478	-0.616	-0.375	-0.271
-626.463	-113.239	-0.221	0.044
-625.449	-62.802	-0.182	-0.077
-624.434	5.753	-0.068	0.051
-623.419	-177.424	-0.094	0.002
-622.405	800.000	0.070	0.264
-621.390	70.428	-0.205	0.216
-620.376	-200.000	0.030	0.183
-619.361	-200.000	-0.027	-0.231
-618.346	87.183	-0.184	-0.208
-617.332	253.334	0.096	0.166
-616.317	111.648	0.136	-0.167
-615.303	54.392	-0.354	-0.347
-614.288	800.000	-0.093	0.311
-613.273	-126.854	0.193	-0.029
-612.259	-200.000	-0.003	-0.045
-611.244	110.681	0.088	0.108
-610.230	-63.122	-0.228	-0.096
-609.215	-148.513	-0.231	0.019
-608.201	-82.977	-0.137	-0.045
-607.186	797.477	-0.082	-0.230
-606.171	-91.393	0.204	-0.059
-605.157	178.953	-0.111	-0.165
-604.142	800.000	-0.023	-0.084
-603.128	-80.715	0.275	0.093
-602.113	800.000	-0.023	-0.087
-601.098	-61.415	0.292	-0.125
-600.084	-200.000	0.052	-0.318
-599.069	-178.092	0.282	0.007
-598.055	536.768	-0.017	0.041
-597.040	-200.000	-0.009	0.469
-596.025	-135.380	0.170	0.021
-595.011	800.000	-0.169	-0.516
-593.996	306.321	0.059	0.112
-592.982	-160.538	0.405	0.022
-591.967	74.721	-0.110	-0.118
-590.952	-19.504	0.337	-0.213
-589.938	-200.000	0.023	-0.236
-588.923	-200.000	-0.008	-0.187
-587.909	-200.000	0.004	-0.188
-586.894	470.640	0.069	-0.158
-585.879	378.108	0.012	0.024
-584.865	800.000	-0.047	-0.203
-583.850	800.000	-0.156	-0.471
-582.836	-200.000	0.003	0.025
-581.821	-61.692	-0.183	0.078
-580.806	-200.000	-0.019	-0.098
-579.792	-46.039	-0.310	-0.156
-578.777	-200.000	0.027	-0.223
-577.763	-200.000	-0.040	-0.215
-576.748	-31.988	-0.308	-0.175
-575.733	-48.004	-0.092	0.045
-574.719	300.627	0.138	-0.258
-573.704	-39.463	0.120	0.064
-572.690	94.681	0.177	0.205
-571.675	-136.194	0.310	-0.037
-570.661	-20.651	0.234	0.146
-569.646	800.000	0.066	0.191
-568.631	-152.019	0.240	-0.018
-567.617	-54.153	-0.140	0.065
-566.602	800.000	0.068	-0.204
-565.588	-74.706	-0.266	-0.097
-564.573	-118.763	0.213	0.038
-563.558	394.047	0.056	-0.119
-562.544	-112.165	-0.078	-0.016
-561.529	-8.942	-0.240	-0.163
-560.515	89.484	-0.305	-0.346
-559.500	-77.446	-0.090	-0.032
-558.485	-200.000	-0.008	-0.245
-557.471	-21.662	-0.153	-0.095
-556.456	35.399	0.090	0.080
-555.442	-54.660	0.199	0.092
-554.427	-19.435	-0.099	-0.062
-553.412	95.892	0.153	-0.178
-552.398	-86.294	-0.135	0.042
-551.383	10.429	0.119	0.092
-550.369	-200.000	-0.040	-0.239
-549.354	-39.190	-0.178	-0.095
-548.339	-42.733	0.176	0.091
-547.325	263.394	-0.034	-0.060
-546.310	-107.459	-0.148	0.033
-545.296	54.107	-0.042	0.041
-544.281	-158.761	-0.204	-0.012
-543.266	-102.216	0.177	-0.043
-542.252	110.212	-0.244	0.298
-541.237	800.000	0.042	-0.130
-540.223	265.135	-0.079	-0.139
-539.208	14.057	-0.181	-0.143
-538.193	-200.000	-0.007	0.069
-537.179	55.169	-0.172	0.169
-536.164	-200.000	-0.027	-0.223
-535.150	-19.180	-0.337	0.213
-534.135	-193.669	-0.259	-0.002
-533.121	66.262	0.127	0.131
-532.106	-161.112	0.207	-0.011
-531.091	321.894	-0.102	0.197
-530.077	82.530	0.038	-0.041
-529.062	-99.480	0.399	-0.102
-528.048	800.000	0.069	0.263
-527.033	98.316	0.016	0.019
-526.018	-30.118	-0.118	-0.068
-525.004	-98.709	-0.178	0.046
-523.989	800.000	-0.084	-0.365
-522.975	-34.867	0.128	0.071
-521.960	-49.347	-0.075	0.036
-520.945	30.588	0.144	-0.125
-519.931	32.311	-0.186	-0.164
-518.916	19.264	-0.168	-0.137
-517.902	-200.000	0.007	0.224
-516.887	-0.440	0.153	0.111
-515.872	-76.844	0.080	-0.028
-514.858	-145.002	0.089	0.008
-513.843	-200.000	-0.016	-0.271
-512.829	-108.863	0.319	-0.069
-511.814	90.823	-0.064	0.073
-510.799	111.178	0.175	-0.215
-509.785	113.436	-0.112	0.138
-508.770	800.000	-0.050	0.143
-507.756	800.000	-0.102	0.397
-506.741	16.144	-0.230	-0.184
-505.726	68.818	-0.070	-0.073
-504.712	-73.162	-0.110	0.041
-503.697	31.600	0.324	-0.283
-502.683	-172.562	0.119	0.004
-501.668	600.733	0.073	-0.183
-500.653	43.915	-0.104	0.097
-499.639	-120.576	0.208	0.036
-498.624	76.940	0.192	0.207
-497.610	404.374	0.016	0.034
-496.595	800.000	-0.050	-0.169
-495.581	-200.000	0.000	-0.239
-494.566	-200.000	0.009	0.307
-493.551	300.171	-0.113	0.211
-492.537	-200.000	0.010	0.336
-491.522	8.435	0.153	-0.117
-490.508	-97.568	-0.131	-0.035
-489.493	-200.000	0.216	-0.001
-488.478	-122.435	-0.067	-0.011
-487.464	-67.685	0.199	0.079
-486.449	-0.698	0.178	-0.128
-485.435	236.774	0.086	0.144
-484.420	-127.731	-0.178	0.026
-483.405	-171.310	-0.232	-0.008
-482.391	239.647	0.145	0.245
-481.376	-147.057	0.167	0.015
-480.362	320.302	0.180	-0.346
-479.347	-20.860	0.323	0.201
-478.332	-200.000	-0.012	0.296
-477.318	792.734	-0.047	-0.132
-476.303	-200.000	-0.019	-0.195
-475.289	43.656	-0.435	-0.404
-474.274	33.976	0.154	0.136
-473.259	260.700	-0.140	0.246
-472.245	18.704	-0.101	-0.082
-471.230	800.000	-0.056	0.171
-470.216	37.106	-0.007	-0.006
-469.201	-200.000	0.184	0.001
-468.186	2.426	0.148	-0.109
-467.172	38.329	0.208	0.188
-466.157	452.343	0.093	0.207
-465.143	3.848	-0.333	-0.247
-464.128	-51.193	-0.290	-0.138
-463.113	-62.230	-0.510	0.215
-462.099	18.704	0.154	-0.125
-461.084	204.202	-0.003	0.004
-460.070	-200.000	-0.006	0.109
-459.055	-181.083	0.169	-0.003
-458.040	59.217	0.154	0.154
-457.026	-38.551	0.095	0.051
-456.011	355.255	-0.023	-0.047
-454.997	-101.528	-0.305	0.075
-453.982	800.000	-0.127	-0.376
-452.968	152.767	0.078	-0.107
-451.953	126.022	0.212	-0.271
-450.938	-56.826	-0.115	-0.051
-449.924	298.246	-0.190	0.354
-448.909	-52.549	0.332	-0.155
-447.895	-200.000	0.016	0.097
-446.880	253.172	-0.243	0.420
-445.865	-181.689	0.217	0.004
-444.851	16.007	0.231	-0.184
-443.836	67.354	0.277	-0.286
-442.822	-42.318	0.271	-0.140
-441.807	450.707	-0.044	-0.099
-440.792	-89.701	0.219	0.065
-439.778	74.744	-0.062	-0.066
-438.763	421.063	-0.169	0.367
-437.749	-7.262	-0.081	-0.055
-436.734	34.329	0.080	-0.071
-435.719	35.537	0.122	-0.109
-434.705	-112.510	-0.169	-0.034
-433.690	500.972	0.083	-0.194
-432.676	-112.754	0.237	-0.048
-431.661	59.917	0.306	0.306
-430.646	0.625	0.282	0.204
-429.632	-200.000	-0.007	-0.163
-428.617	-9.699	-0.138	0.093
-427.603	-46.757	-0.280	-0.139
-426.588	-147.553	0.054	-0.005
-425.573	-63.753	-0.108	0.045
-424.559	171.333	0.218	0.317
-423.544	-102.153	-0.122	0.030
-422.530	-165.477	-0.011	-0.000
-421.515	663.981	0.090	0.235
-420.500	295.282	0.163	0.303
-419.486	40.294	0.202	0.184
-418.471	5.442	-0.041	0.031
-417.457	456.845	-0.102	0.229
-416.442	-100.403	0.082	-0.020
-415.428	-77.252	-0.135	-0.047
-414.413	305.006	0.049	-0.092
-413.398	-200.000	-0.300	0.001
-412.384	101.806	0.296	0.349
-411.369	614.677	0.093	0.235
-410.355	-42.247	-0.156	-0.081
-409.340	444.813	-0.041	-0.092
-408.325	-175.625	-0.113	0.003
-407.311	100.454	-0.094	0.111
-406.296	321.075	0.032	-0.062
-405.282	-84.619	0.200	0.064
-404.267	-23.090	-0.270	-0.164
-403.252	-118.920	-0.256	-0.045
-402.238	-200.000	0.039	0.263
-401.223	190.737	0.034	0.051
-400.209	154.738	-0.107	0.148
-399.194	-200.000	-0.004	0.055
-398.179	116.480	0.144	0.179
-397.165	-155.632	-0.460	-0.030
-396.150	22.511	0.288	-0.239
-395.136	380.498	0.194	0.401
-394.121	337.420	0.047	0.092
-393.106	-121.275	-0.199	0.034
-392.092	-145.766	-0.056	0.005
-391.077	800.000	0.049	-0.195
-390.063	145.085	-0.136	-0.184
-389.048	-96.281	0.042	-0.011
-388.033	132.856	0.163	-0.213
-387.019	303.164	0.036	-0.067
-386.004	-200.000	-0.009	-0.100
-384.990	-57.923	-0.196	0.086
-383.975	59.050	0.221	-0.220
-382.960	-1.699	-0.204	0.145
-381.946	206.140	0.107	0.168
-380.931	-200.000	-0.003	0.270
-379.917	428.842	0.092	-0.200
-378.902	27.624	-0.075	-0.064
-377.888	257.263	-0.262	-0.455
-376.873	-200.000	0.023	-0.243
-375.858	-12.664	-0.114	0.075
-374.844	197.941	0.140	0.216
-373.829	235.787	0.276	-0.460
-372.815	-41.138	-0.159	-0.083
-371.800	-44.121	0.061	0.031
-370.785	-200.000	0.002	-0.071
-369.771	125.702	0.091	-0.116
-368.756	-127.856	-0.119	-0.017
-367.742	-200.000	0.032	-0.208
-366.727	-31.491	0.122	-0.069
-365.712	800.000	0.109	0.436
-364.698	309.923	0.038	0.072
-363.683	-200.000	0.065	-0.300
-362.669	-99.436	0.427	0.109
-361.654	449.659	0.075	0.166
-360.639	-141.268	0.140	0.014
-359.625	62.132	-0.256	0.258
-358.610	-200.000	-0.008	0.287
-357.596	129.694	-0.179	-0.231
-356.581	-79.755	-0.166	0.056
-355.566	800.000	0.094	0.277
-354.552	237.914	-0.202	0.339
-353.537	-200.000	0.009	0.324
-352.523	151.653	-0.052	0.072
-351.508	221.374	0.075	0.122
-350.493	-94.717	0.414	0.114
-349.479	800.000	0.090	0.344
-348.464	625.673	0.025	-0.064
-347.450	308.088	0.091	0.171
-346.435	800.000	0.097	-0.283
-345.420	-28.734	0.087	-0.050
-344.406	-129.437	0.090	0.013
-343.391	297.045	-0.115	0.213
-342.377	297.844	-0.241	0.447
-341.362	-200.000	0.026	0.295
-340.348	63.426	0.104	-0.105
-339.333	800.000	0.111	-0.327
-338.318	-134.533	0.205	0.025
-337.304	245.203	0.126	-0.214
-336.289	-16.594	0.328	-0.209
-335.275	-15.639	-0.088	0.056
-334.260	-137.842	0.084	0.009
-333.245	-200.000	-0.022	-0.197
-332.231	-110.177	0.024	0.005
-331.216	800.000	-0.032	-0.105
-330.202	800.000	-0.074	0.233
-329.187	-158.495	0.405	-0.024
-328.172	185.939	0.258	0.386
-327.158	-34.913	0.294	0.162
-326.143	5.416	-0.074	0.055
-325.129	452.127	-0.053	-0.117
-324.114	57.005	-0.250	0.245
-323.099	-84.087	-0.367	0.117
-322.085	-118.792	0.212	-0.038
-321.070	223.102	0.090	0.146
-320.056	-186.911	0.480	-0.007
-319.041	-200.000	0.067	0.419
-318.026	-14.574	-0.193	-0.125
-317.012	-110.397	-0.395	-0.083
-315.997	105.816	0.352	-0.420
-314.983	74.733	-0.086	-0.091
-313.968	72.969	0.044	0.046
-312.953	800.000	0.095	-0.332
-311.939	70.894	0.208	-0.218
-310.924	729.551	0.063	0.171
-309.910	800.000	0.082	0.297
-308.895	-87.570	0.162	-0.049
-307.880	143.014	0.045	0.060
-306.866	-88.892	-0.360	0.108
-305.851	242.463	0.117	-0.197
-304.837	800.000	-0.059	-0.220
-303.822	-158.162	-0.104	-0.006
-302.807	80.077	-0.271	0.294
-301.793	117.771	0.269	0.334
-300.778	29.347	-0.245	-0.210
-299.764	-51.903	-0.435	-0.204
-298.749	249.218	0.105	-0.178
-297.735	264.712	0.088	0.155
-296.720	-109.401	-0.126	-0.027
-295.705	-200.000	0.030	-0.157
-294.691	174.369	0.163	-0.238
-293.676	-35.410	-0.239	0.131
-292.662	484.409	-0.205	-0.470
-291.647	373.460	-0.184	-0.378
-290.632	27.201	0.081	0.068
-289.618	119.625	0.057	0.071
-288.603	49.937	-0.114	-0.108
-287.589	-200.000	-0.005	0.138
-286.574	-1.820	-0.259	0.184
-285.559	43.332	-0.207	-0.191
-284.545	-200.000	-0.015	-0.291
-283.530	-79.845	-0.096	0.032
-282.516	247.250	-0.118	0.201
-281.501	-48.955	0.310	0.149
-280.486	335.088	0.229	0.447
-279.472	-115.307	-0.097	-0.018
-278.457	-200.000	-0.027	0.254
-277.443	-200.000	0.018	-0.088
-276.428	-147.521	0.234	-0.020
-275.413	-79.630	0.147	0.050
-274.399	197.557	-0.103	-0.158
-273.384	800.000	0.126	0.409
-272.370	-200.000	-0.006	-0.052
-271.355	-114.830	0.180	-0.035
-270.340	-110.801	-0.123	-0.026
-269.326	396.133	-0.153	0.320
-268.311	720.409	-0.083	0.222
-267.297	158.910	0.240	-0.335
-266.282	-20.696	0.067	0.042
-265.267	81.204	-0.131	-0.143
-264.253	-85.902	-0.174	0.054
-263.238	-153.791	0.229	-0.016
-262.224	-82.210	0.162	-0.053
-261.209	-128.614	0.152	0.022
-260.195	-130.280	-0.161	-0.022
-259.180	-23.220	0.157	-0.095
-258.165	-111.525	0.131	-0.027
-257.151	604.359	0.039	-0.098
-256.136	265.479	-0.248	0.434
-255.122	-74.820	-0.190	-0.069
-254.107	647.841	-0.111	-0.286
-253.092	-99.850	0.297	-0.075
-252.078	294.571	-0.160	0.294
-251.063	-41.584	-0.203	-0.105
-250.049	-19.765	0.358	0.223
-249.034	147.226	0.170	0.231
-248.019	-53.049	-0.338	-0.156
-247.005	519.009	0.142	-0.334
-245.990	215.803	-0.119	0.189
-244.976	37.020	0.095	-0.084
-243.961	-166.272	0.115	0.005
-242.946	-101.522	0.241	0.059
-241.932	-162.793	-0.208	0.010
-240.917	800.000	0.058	-0.168
-239.903	-2.614	0.153	-0.108
-238.888	-100.035	0.119	0.030
-237.873	-73.471	0.093	0.034
-236.859	73.979	-0.183	0.193
-235.844	-72.404	0.224	-0.083
-234.830	-85.207	-0.110	0.034
-233.815	243.158	0.138	0.232
-232.800	-9.593	-0.261	-0.175
-231.786	800.000	-0.040	-0.122
-230.771	-113.866	-0.116	0.023
-229.757	800.000	0.050	-0.187
-228.742	-112.184	0.099	-0.020
-227.727	259.990	0.094	-0.163
-226.713	63.966	-0.280	-0.283
-225.698	-200.000	-0.046	-0.245
-224.684	557.016	-0.074	0.178
-223.669	-129.839	-0.194	-0.027
-222.655	-85.504	-0.102	-0.032
-221.640	-200.000	-0.001	-0.258
-220.625	113.195	-0.241	-0.293
-219.611	-54.153	0.200	-0.091
-218.596	-74.397	-0.183	0.066
-217.582	-200.000	-0.012	-0.056
-216.567	-21.781	0.328	-0.200
-215.552	70.401	0.150	0.155
-214.538	59.879	0.141	0.140
-213.523	174.168	0.168	0.243
-212.509	58.476	-0.160	0.157
-211.494	122.321	-0.069	0.087
-210.479	-85.434	-0.240	-0.075
-209.465	53.662	0.231	0.222
-208.450	222.118	0.158	-0.256
-207.436	28.305	-0.189	0.160
-206.421	-125.242	-0.377	-0.058
-205.406	375.092	-0.095	0.195
-204.392	-200.000	-0.005	-0.365
-203.377	27.288	0.278	0.234
-202.363	128.098	0.196	0.250
-201.348	366.408	-0.050	0.100
-200.333	800.000	-0.056	0.241
-199.319	-113.796	-0.130	0.025
-198.304	93.472	0.117	0.132
-197.290	12.177	-0.346	0.267
-196.275	-33.635	0.095	-0.053
-195.260	-52.711	0.177	0.082
-194.246	233.793	-0.037	0.062
-193.231	800.000	-0.084	0.290
-192.217	-120.069	0.014	-0.002
-191.202	-64.394	-0.118	0.048
-190.187	-34.989	0.029	-0.016
-189.173	-63.250	0.283	-0.117
-188.158	322.725	0.087	0.166
-187.144	3.246	-0.083	-0.060
-186.129	690.033	-0.079	0.207
-185.114	262.162	-0.157	0.273
-184.100	-104.958	-0.175	0.040
-183.085	-200.000	-0.009	-0.051
-182.071	111.283	-0.127	-0.153
-181.056	-171.991	-0.370	-0.012
-180.042	-101.997	0.235	-0.057
-179.027	229.806	-0.303	-0.495
-178.012	-35.692	-0.141	-0.077
-176.998	-52.603	0.285	-0.132
-175.983	-200.000	-0.007	-0.226
-174.969	177.623	-0.079	0.116
-173.954	-109.354	0.146	0.031
-172.939	-174.219	0.055	0.002
-171.925	277.010	0.107	0.190
-170.910	-177.360	0.205	-0.005
-169.896	-87.331	-0.116	-0.035
-168.881	-7.744	-0.026	-0.018
-167.866	-162.450	-0.144	-0.007
-166.852	46.078	-0.189	0.175
-165.837	-163.556	0.333	0.016
-164.823	-180.092	-0.125	0.003
-163.808	600.847	-0.015	0.036
-162.793	80.654	-0.062	-0.067
-161.779	-29.666	0.109	-0.062
-160.764	-11.950	-0.242	0.159
-159.750	-169.487	-0.099	-0.004
-158.735	-134.977	-0.238	-0.029
-157.720	103.343	-0.188	-0.221
-156.706	4.989	-0.059	0.043
-155.691	83.568	0.106	0.116
-154.677	-142.949	0.421	0.041
-153.662	-200.000	0.017	-0.145
-152.647	-200.000	-0.066	-0.291
-151.633	2.420	-0.142	0.103
-150.618	139.412	0.103	-0.135
-149.604	-146.830	-0.087	0.008
-148.589	5.315	0.116	0.085
-147.574	-145.344	-0.280	0.025
-146.560	73.944	-0.142	-0.150
-145.545	800.000	-0.051	0.217
-144.531	-175.325	0.296	0.008
-143.516	-43.103	-0.282	-0.143
-142.502	-19.567	0.119	0.074
-141.487	38.490	0.173	-0.154
-140.472	-134.229	-0.452	0.056
-139.458	678.484	-0.171	0.446
-138.443	-92.684	-0.260	-0.073
-137.429	-37.633	-0.150	0.080
-136.414	-24.978	0.238	0.141
-135.399	195.995	-0.232	0.354
-134.385	-51.383	0.352	-0.165
-133.370	-200.000	-0.028	-0.262
-132.356	800.000	-0.053	-0.179
-131.341	-51.586	0.131	-0.061
-130.326	186.843	-0.143	0.213
-129.312	-69.685	0.221	-0.085
-128.297	-123.736	0.421	0.067
-127.283	-12.301	-0.219	-0.143
-126.268	-200.000	-0.000	0.241
-125.253	402.075	0.078	-0.163
-124.239	-68.826	0.230	0.089
-123.224	80.526	0.235	0.253
-122.210	-97.178	0.058	-0.015
