DTS Sentinel unit serial number:	SN413079Multiplexer serial number:	ORYXHardware model number:	OX4-SRSoftware version number:	ORYX F/W v4.00 Oryx Data Collector v3.7.2.0data status	okinstallation	princeton_trtdifferential loss correction	single-endedforward channel	channel 4reverse channel	N/Adate	2019/09/16time	22:05:35forward acquisition time	60.00reverse acquisition time	0.00gamma	496.2192k internal	0.2312k external	0.2312temperature offset calibration	0.9971default loss term (dB/km)	0.3790temperature slope calibration	1.0000multiplexer offset coefficient	1.0000multiplexer slope coefficient	1.0000fibre end	0.00T internal ref (°C)	31.12T ext. ref 1 (°C)	0.08T ext. ref 2 (°C)	25.02length (m)	temperature (°C)	Stokes	anti-Stokes-747.200	-26.721	0.296	-0.176
-746.185	525.103	-0.170	0.405
-745.171	800.000	-0.114	0.323
-744.156	-200.000	-0.070	0.403
-743.142	-7.314	0.193	-0.133
-742.127	-12.176	-0.039	0.026
-741.112	-87.336	-0.194	-0.060
-740.098	14.711	0.225	0.178
-739.083	-31.272	-0.140	0.080
-738.069	800.000	0.114	0.352
-737.054	19.604	-0.172	0.140
-736.039	63.569	-0.082	-0.084
-735.025	164.414	0.231	-0.330
-734.010	430.749	-0.065	0.144
-732.996	-200.000	-0.040	-0.401
-731.981	-114.880	0.383	0.074
-730.966	493.400	0.166	0.385
-729.952	-43.666	-0.131	-0.067
-728.937	-51.785	-0.263	-0.124
-727.923	165.108	0.034	0.049
-726.908	-58.354	0.153	-0.067
-725.894	447.685	-0.174	0.389
-724.879	-173.302	0.270	-0.008
-723.864	800.000	-0.072	-0.211
-722.850	-92.310	0.101	-0.029
-721.835	800.000	0.095	0.298
-720.821	333.975	0.099	-0.195
-719.806	50.510	0.068	0.065
-718.791	14.883	0.130	0.103
-717.777	570.282	0.025	0.062
-716.762	-80.632	0.268	0.090
-715.748	-129.028	0.282	0.040
-714.733	-200.000	-0.052	-0.419
-713.718	90.445	0.085	-0.096
-712.704	107.081	-0.072	-0.087
-711.689	-48.857	0.434	-0.211
-710.675	127.431	0.097	0.125
-709.660	29.150	0.014	-0.012
-708.645	-126.004	0.123	0.019
-707.631	214.754	0.110	0.177
-706.616	156.036	0.271	-0.378
-705.602	53.374	-0.168	0.163
-704.587	12.703	0.154	-0.121
-703.572	16.135	-0.188	0.150
-702.558	130.333	-0.099	-0.128
-701.543	-52.351	0.191	0.090
-700.529	-145.239	0.294	-0.027
-699.514	-189.361	0.339	0.004
-698.499	-200.000	-0.037	0.257
-697.485	13.297	0.107	0.084
-696.470	74.964	-0.075	0.080
-695.456	384.094	0.073	0.151
-694.441	-58.349	0.133	-0.058
-693.426	327.365	-0.137	-0.266
-692.412	-59.177	-0.133	0.058
-691.397	-200.000	-0.063	-0.326
-690.383	84.341	-0.143	-0.158
-689.368	0.299	0.192	0.139
-688.354	-200.000	0.000	-0.391
-687.339	-87.544	0.292	0.089
-686.324	-152.339	0.232	-0.017
-685.310	-27.488	0.126	-0.074
-684.295	721.563	-0.039	0.104
-683.281	41.038	-0.304	-0.277
-682.266	-59.741	0.073	0.032
-681.251	-63.017	0.404	0.169
-680.237	25.382	-0.069	0.058
-679.222	103.046	-0.077	0.091
-678.208	-43.222	-0.495	-0.254
-677.193	-110.312	0.109	0.023
-676.178	-109.864	0.334	-0.071
-675.164	800.000	0.097	-0.313
-674.149	-108.007	-0.135	-0.030
-673.135	-109.404	0.075	0.016
-672.120	30.992	0.233	0.202
-671.105	800.000	-0.047	-0.159
-670.091	89.393	-0.139	0.157
-669.076	-121.460	0.217	-0.036
-668.062	-116.885	-0.197	0.036
-667.047	800.000	0.082	0.361
-666.032	-79.440	0.344	0.118
-665.018	-101.767	-0.105	0.026
-664.003	-200.000	-0.016	-0.235
-662.989	-200.000	-0.064	0.605
-661.974	70.038	-0.101	0.106
-660.959	33.005	0.101	-0.088
-659.945	52.159	0.053	-0.051
-658.930	140.080	-0.159	-0.212
-657.916	-200.000	0.039	0.206
-656.901	-178.114	0.253	-0.006
-655.886	-5.282	0.073	0.051
-654.872	-195.656	-0.407	0.003
-653.857	114.204	0.163	0.201
-652.843	537.046	-0.041	-0.100
-651.828	-114.964	0.337	-0.065
-650.814	-22.874	0.213	0.130
-649.799	255.047	-0.189	-0.327
-648.784	679.399	0.173	0.454
-647.770	204.515	-0.084	0.131
-646.755	40.138	0.088	0.080
-645.741	-146.659	-0.470	0.041
-644.726	-105.008	0.133	0.031
-643.711	130.554	-0.119	0.154
-642.697	87.239	-0.134	-0.150
-641.682	264.922	0.137	-0.242
-640.668	-132.483	-0.139	-0.018
-639.653	527.762	-0.188	-0.447
-638.638	-47.386	-0.493	-0.242
-637.624	800.000	-0.044	0.147
-636.609	-200.000	0.034	-0.382
-635.595	-200.000	0.011	0.109
-634.580	138.827	-0.039	-0.052
-633.565	-18.289	-0.506	-0.319
-632.551	-57.406	0.336	0.149
-631.536	-200.000	-0.019	0.106
-630.522	7.239	-0.249	0.188
-629.507	-113.691	-0.044	-0.009
-628.492	122.313	-0.216	-0.273
-627.478	-152.916	0.137	0.010
-626.463	133.245	0.083	0.108
-625.449	-132.124	-0.382	-0.050
-624.434	52.910	0.057	0.055
-623.419	221.839	0.100	-0.162
-622.405	-100.504	-0.470	-0.118
-621.390	-53.750	0.270	0.124
-620.376	-78.529	-0.173	0.060
-619.361	385.210	-0.072	0.150
-618.346	-200.000	-0.039	-0.304
-617.332	-200.000	-0.001	-0.211
-616.317	-22.972	0.319	-0.194
-615.303	356.690	-0.087	0.175
-614.288	-9.090	-0.331	0.224
-613.273	223.551	0.025	0.041
-612.259	356.324	-0.035	0.071
-611.244	-127.312	-0.326	0.048
-610.230	83.358	-0.236	0.260
-609.215	-104.335	0.310	0.072
-608.201	-200.000	-0.025	-0.119
-607.186	800.000	0.031	-0.134
-606.171	-124.841	-0.167	-0.026
-605.157	-130.641	-0.322	-0.044
-604.142	800.000	-0.017	0.053
-603.128	-172.519	-0.343	0.011
-602.113	-7.693	0.297	-0.202
-601.098	-48.916	0.062	-0.030
-600.084	-5.616	0.156	-0.108
-599.069	317.813	-0.093	0.177
-598.055	503.802	-0.071	0.165
-597.040	-5.347	0.377	-0.261
-596.025	-177.054	-0.060	0.002
-595.011	-21.262	-0.171	0.106
-593.996	-200.000	0.057	-0.277
-592.982	-200.000	0.001	0.060
-591.967	233.051	-0.084	0.140
-590.952	-147.102	0.024	0.002
-589.938	17.321	-0.268	-0.214
-588.923	-200.000	0.005	0.096
-587.909	17.131	-0.364	-0.291
-586.894	112.682	0.105	-0.129
-585.879	-94.851	0.096	-0.026
-584.865	3.957	0.036	-0.027
-583.850	-200.000	-0.087	0.394
-582.836	27.778	0.181	-0.154
-581.821	418.585	0.085	-0.183
-580.806	76.706	-0.164	0.175
-579.792	47.624	0.196	0.185
-578.777	85.501	0.136	-0.150
-577.763	-76.062	-0.025	-0.009
-576.748	-200.000	-0.035	-0.264
-575.733	-80.064	0.288	-0.097
-574.719	-170.328	-0.344	-0.012
-573.704	-90.457	-0.162	-0.047
-572.690	-161.213	-0.382	-0.020
-571.675	404.237	-0.121	-0.257
-570.661	-200.000	-0.038	-0.331
-569.646	-29.141	-0.088	-0.051
-568.631	64.776	-0.114	0.116
-567.617	632.652	0.150	0.382
-566.602	700.817	0.133	0.353
-565.588	-49.316	0.062	0.030
-564.573	522.617	0.068	-0.161
-563.558	212.802	-0.122	-0.194
-562.544	-58.552	0.252	-0.110
-561.529	-200.000	0.017	0.202
-560.515	-200.000	0.053	-0.253
-559.500	703.262	0.089	-0.236
-558.485	62.952	0.195	0.197
-557.471	74.602	-0.146	0.154
-556.456	-119.812	0.326	0.057
-555.442	-200.000	-0.017	-0.110
-554.427	-88.986	0.098	-0.029
-553.412	342.574	-0.132	-0.260
-552.398	27.435	0.166	-0.141
-551.383	47.680	0.329	0.309
-550.369	111.478	-0.219	-0.266
-549.354	366.103	0.166	-0.336
-548.339	67.216	-0.051	-0.052
-547.325	-200.000	-0.030	-0.185
-546.310	-97.615	-0.068	-0.018
-545.296	-98.468	-0.096	-0.025
-544.281	-99.772	0.258	0.065
-543.266	-140.577	0.071	0.007
-542.252	-12.746	0.057	0.038
-541.237	800.000	0.058	0.245
-540.223	-176.131	0.292	-0.008
-539.208	800.000	0.040	0.177
-538.193	-106.305	0.379	0.085
-537.179	447.435	-0.033	0.074
-536.164	-5.156	0.082	0.057
-535.150	-135.540	-0.283	-0.034
-534.135	-200.000	-0.046	-0.391
-533.121	-37.286	-0.217	-0.117
-532.106	182.076	0.174	-0.258
-531.091	-3.819	-0.217	-0.152
-530.077	-200.000	0.043	-0.271
-529.062	-88.688	0.168	0.050
-528.048	-57.686	-0.279	-0.123
-527.033	-30.004	-0.098	0.056
-526.018	800.000	0.021	-0.080
-525.004	41.217	-0.045	0.041
-523.989	-200.000	-0.030	0.275
-522.975	800.000	0.082	0.297
-521.960	146.104	-0.036	0.049
-520.945	166.979	-0.239	-0.341
-519.931	64.050	-0.078	-0.079
-518.916	800.000	0.110	-0.352
-517.902	-17.652	0.095	-0.060
-516.887	110.816	-0.112	0.135
-515.872	-121.573	0.103	-0.017
-514.858	194.869	-0.080	-0.123
-513.843	28.262	-0.043	-0.037
-512.829	-146.572	0.319	0.028
-511.814	-200.000	0.023	0.135
-510.799	-68.662	-0.076	0.030
-509.785	195.701	0.217	0.332
-508.770	150.501	-0.115	0.156
-507.756	77.648	0.272	-0.291
-506.741	-112.503	0.188	-0.038
-505.726	-200.000	0.019	0.310
-504.712	-155.783	0.023	0.002
-503.697	67.744	-0.217	0.223
-502.683	-103.503	0.221	0.052
-501.668	9.216	0.183	0.139
-500.653	242.092	-0.103	-0.172
-499.639	269.990	-0.089	0.158
-498.624	1.168	-0.141	0.102
-497.610	56.848	0.132	-0.129
-496.595	-32.441	0.228	-0.128
-495.581	142.376	0.078	0.104
-494.566	-200.000	0.065	-0.351
-493.551	-50.782	-0.273	-0.129
-492.537	-200.000	-0.064	-0.330
-491.522	31.054	-0.178	-0.154
-490.508	-200.000	-0.021	0.190
-489.493	-105.754	0.169	0.038
-488.478	257.766	-0.090	0.155
-487.464	-86.933	-0.144	-0.044
-486.449	-43.838	-0.172	-0.087
-485.435	800.000	-0.068	0.259
-484.420	-108.471	0.263	0.057
-483.405	107.201	0.139	-0.165
-482.391	387.016	-0.113	-0.234
-481.376	223.873	-0.099	0.161
-480.362	800.000	0.040	-0.160
-479.347	-200.000	0.029	0.319
-478.332	205.846	0.054	0.085
-477.318	-31.082	-0.152	-0.086
-476.303	-39.070	0.062	-0.033
-475.289	-73.730	-0.228	0.083
-474.274	-200.000	0.010	0.299
-473.259	-57.292	-0.327	0.145
-472.245	119.211	-0.160	0.199
-471.230	800.000	0.036	0.147
-470.216	-113.040	0.352	0.070
-469.201	-54.962	-0.411	-0.186
-468.186	-118.789	0.180	-0.032
-467.172	-200.000	-0.009	-0.131
-466.157	194.791	0.113	0.172
-465.143	168.612	-0.128	-0.183
-464.128	-10.044	0.218	-0.145
-463.113	519.510	-0.046	-0.107
-462.099	44.603	0.099	0.092
-461.084	-20.079	-0.125	0.078
-460.070	-140.924	-0.208	-0.021
-459.055	-8.124	-0.129	-0.087
-458.040	-158.311	-0.338	0.020
-457.026	-83.719	-0.167	0.053
-456.011	144.437	0.054	-0.073
-454.997	99.645	0.136	0.158
-453.982	-106.161	-0.157	0.035
-452.968	210.223	-0.016	0.025
-451.953	472.417	-0.174	-0.392
-450.938	-65.738	0.425	-0.171
-449.924	-127.741	0.322	0.047
-448.909	63.989	-0.172	0.173
-447.895	-43.925	0.138	0.070
-446.880	-16.694	0.253	-0.160
-445.865	20.658	-0.336	-0.273
-444.851	800.000	0.019	-0.072
-443.836	59.283	0.028	-0.027
-442.822	48.333	0.149	-0.140
-441.807	-166.255	-0.252	-0.011
-440.792	-178.160	0.118	0.003
-439.778	-20.450	0.078	0.048
-438.763	-140.005	-0.355	0.037
-437.749	-47.184	-0.367	-0.179
-436.734	-19.413	0.190	0.118
-435.719	-2.606	0.074	-0.052
-434.705	-99.724	-0.448	0.112
-433.690	800.000	0.088	-0.291
-432.676	-36.922	0.178	-0.096
-431.661	-200.000	-0.018	0.193
-430.646	-163.156	-0.259	-0.012
-429.632	800.000	-0.038	0.129
-428.617	18.597	-0.110	0.088
-427.603	30.943	-0.158	-0.136
-426.588	-200.000	0.021	-0.103
-425.573	363.394	-0.049	0.100
-424.559	-35.641	-0.077	-0.042
-423.544	-76.410	-0.198	0.070
-422.530	90.990	-0.055	-0.062
-421.515	52.173	0.265	-0.253
-420.500	800.000	0.065	-0.252
-419.486	47.497	0.443	-0.413
-418.471	116.207	0.087	-0.107
-417.457	-200.000	0.050	0.241
-416.442	800.000	0.067	-0.212
-415.428	-67.759	0.555	-0.218
-414.413	-200.000	-0.037	-0.282
-413.398	-200.000	0.018	-0.413
-412.384	-106.160	-0.477	0.107
-411.369	-200.000	-0.084	-0.465
-410.355	-16.711	0.102	0.065
-409.340	800.000	0.052	0.149
-408.325	-35.492	-0.070	-0.038
-407.311	-70.974	-0.146	-0.055
-406.296	-115.394	0.480	-0.091
-405.282	-60.372	-0.164	0.070
-404.267	-94.014	0.373	-0.103
-403.252	-77.033	0.097	-0.034
-402.238	-143.826	0.224	0.021
-401.223	-105.198	0.467	0.107
-400.209	313.783	-0.052	-0.098
-399.194	448.672	-0.134	0.295
-398.179	-119.036	0.065	-0.011
-397.165	-10.473	0.082	0.055
-396.150	107.779	0.310	0.369
-395.136	-200.000	-0.042	0.293
-394.121	744.486	0.171	-0.460
-393.106	316.606	0.086	-0.162
-392.092	-200.000	-0.017	-0.274
-391.077	-49.100	-0.108	-0.052
-390.063	331.055	-0.139	0.268
-389.048	-155.836	0.335	0.021
-388.033	-32.401	-0.412	0.230
-387.019	-55.134	0.253	0.114
-386.004	-23.603	-0.097	0.058
-384.990	-200.000	-0.021	-0.107
-383.975	-63.785	0.399	-0.163
-382.960	386.137	0.166	0.343
-381.946	45.069	0.151	-0.139
-380.931	-200.000	0.027	-0.249
-379.917	-68.110	0.170	-0.066
-378.902	5.899	-0.119	-0.088
-377.888	117.466	-0.203	0.250
-376.873	178.911	0.127	0.186
-375.858	126.467	0.162	-0.205
-374.844	23.555	-0.062	0.051
-373.829	74.285	-0.103	-0.109
-372.815	118.981	-0.270	0.333
-371.800	-49.359	0.049	0.024
-370.785	-200.000	-0.017	0.198
-369.771	-24.293	0.112	-0.067
-368.756	-200.000	0.018	0.187
-367.742	33.144	0.157	-0.136
-366.727	-88.663	0.070	-0.021
-365.712	-200.000	0.006	0.071
-364.698	-9.466	0.130	0.087
-363.683	-100.069	-0.426	-0.106
-362.669	-15.312	-0.239	0.153
-361.654	-119.633	-0.163	-0.028
-360.639	-16.834	0.322	0.204
-359.625	-200.000	-0.023	-0.195
-358.610	-200.000	0.020	0.212
-357.596	-36.462	-0.312	-0.168
-356.581	36.705	-0.121	0.107
-355.566	23.135	-0.134	0.110
-354.552	-13.672	0.119	-0.077
-353.537	-75.249	0.092	0.033
-352.523	127.787	-0.129	-0.164
-351.508	-101.212	-0.313	0.076
-350.493	-200.000	-0.021	0.337
-349.479	244.580	0.130	0.218
-348.464	-200.000	0.019	-0.258
-347.450	82.861	-0.131	0.142
-346.435	-142.701	-0.530	-0.052
-345.420	-72.566	0.182	-0.067
-344.406	-200.000	0.009	0.177
-343.391	-132.312	-0.234	-0.030
-342.377	51.916	0.095	-0.090
-341.362	299.786	0.080	0.147
-340.348	-98.683	0.327	0.083
-339.333	-25.571	0.222	0.131
-338.318	214.102	-0.059	-0.094
-337.304	-200.000	-0.055	-0.307
-336.289	-200.000	-0.008	-0.163
-335.275	-45.758	0.241	0.119
-334.260	-157.033	-0.321	-0.020
-333.245	-82.381	0.176	0.057
-332.231	-31.240	-0.123	0.069
-331.216	411.255	0.091	0.193
-330.202	173.953	-0.166	0.239
-329.187	4.839	0.261	0.192
-328.172	-92.367	0.297	-0.084
-327.158	-45.462	-0.199	0.098
-326.143	-102.647	-0.255	-0.061
-325.129	47.476	0.132	-0.123
-324.114	-53.709	0.370	0.169
-323.099	180.254	-0.175	-0.256
-322.085	-103.781	0.163	0.038
-321.070	-132.030	0.283	-0.037
-320.056	183.938	0.154	-0.228
-319.041	-102.913	0.253	-0.060
-318.026	228.928	-0.107	-0.175
-317.012	-128.076	0.188	-0.027
-315.997	-120.526	0.158	0.027
-314.983	-71.860	0.075	-0.028
-313.968	-200.000	-0.353	0.000
-312.953	-200.000	-0.005	0.328
-311.939	-54.349	0.051	-0.023
-310.924	-200.000	-0.042	0.231
-309.910	456.692	0.053	0.118
-308.895	380.021	0.090	-0.185
-307.880	-84.656	-0.324	-0.102
-306.866	218.472	-0.209	0.333
-305.851	380.813	-0.072	0.148
-304.837	-124.299	0.266	0.041
-303.822	-56.412	-0.246	0.109
-302.807	242.498	-0.088	-0.147
-301.793	167.148	-0.154	-0.219
-300.778	-200.000	-0.025	-0.163
-299.764	-200.000	0.038	0.341
-298.749	800.000	-0.093	-0.269
-297.735	639.433	0.065	-0.165
-296.720	800.000	-0.026	0.114
-295.705	187.108	0.103	0.153
-294.691	-148.229	0.018	-0.001
-293.676	210.509	-0.135	0.212
-292.662	800.000	-0.050	-0.175
-291.647	22.579	0.186	0.152
-290.632	-200.000	-0.023	0.179
-289.618	-29.709	0.253	0.144
-288.603	305.410	0.168	0.311
-287.589	-200.000	0.014	0.187
-286.574	-66.676	0.193	0.076
-285.559	800.000	0.060	-0.242
-284.545	180.669	-0.155	0.226
-283.530	56.450	0.281	0.272
-282.516	281.106	-0.169	0.302
-281.501	-75.028	-0.255	-0.091
-280.486	-91.307	-0.122	0.035
-279.472	-80.697	0.089	-0.030
-278.457	800.000	-0.075	0.311
-277.443	-119.685	-0.453	-0.078
-276.428	244.014	0.169	0.282
-275.413	297.523	-0.128	0.235
-274.399	-129.843	-0.304	0.042
-273.384	525.877	-0.069	-0.161
-272.370	-93.502	0.302	0.083
-271.355	59.924	0.291	0.287
-270.340	-148.196	0.191	-0.016
-269.326	-200.000	0.029	0.177
-268.311	-86.685	-0.086	-0.026
-267.297	-17.869	-0.329	-0.206
-266.282	-60.944	-0.114	0.048
-265.267	-100.382	0.033	-0.008
-264.253	-70.303	0.275	-0.104
-263.238	-200.000	-0.050	0.512
-262.224	-113.136	0.430	0.084
-261.209	268.962	-0.177	-0.309
-260.195	159.715	-0.102	0.142
-259.180	800.000	-0.088	-0.295
-258.165	-200.000	0.049	-0.268
-257.151	-2.175	-0.066	-0.046
-256.136	97.024	0.163	0.186
-255.122	135.731	0.241	-0.313
-254.107	-67.197	-0.182	-0.071
-253.092	-200.000	0.008	0.242
-252.078	-50.581	-0.354	0.166
-251.063	27.874	0.379	-0.318
-250.049	800.000	0.143	0.477
-249.034	23.944	-0.169	0.139
-248.019	18.717	-0.095	0.075
-247.005	-29.812	0.071	0.040
-245.990	-88.797	-0.422	-0.125
-244.976	522.626	-0.025	-0.058
-243.961	468.736	0.125	0.279
-242.946	76.381	-0.115	-0.122
-241.932	-200.000	0.012	0.116
-240.917	186.974	0.158	0.234
-239.903	401.438	0.119	-0.248
-238.888	-67.556	-0.222	-0.087
-237.873	-155.149	-0.472	0.031
-236.859	-56.017	-0.549	0.244
-235.844	-200.000	0.011	0.320
-234.830	122.676	0.022	-0.027
-233.815	-200.000	-0.093	-0.437
-232.800	800.000	-0.065	0.203
-231.786	1.038	-0.239	0.171
-230.771	-85.746	0.373	-0.115
-229.757	-45.850	-0.059	0.029
-228.742	800.000	0.065	-0.197
-227.727	-15.729	0.222	-0.141
-226.713	-200.000	-0.042	0.216
-225.698	-45.886	-0.146	0.072
-224.684	558.081	0.103	0.248
-223.669	281.779	-0.091	-0.162
-222.655	-200.000	0.042	0.259
-221.640	-200.000	0.021	-0.151
-220.625	683.188	-0.102	-0.264
-219.611	-21.421	-0.208	0.126
-218.596	-117.855	0.344	0.061
-217.582	-200.000	-0.016	-0.145
-216.567	102.412	-0.151	-0.176
-215.552	-66.939	-0.216	-0.085
-214.538	32.857	0.047	0.040
-213.523	800.000	0.107	0.314
-212.509	-86.534	0.131	-0.040
-211.494	60.294	-0.200	-0.196
-210.479	134.232	-0.116	-0.149
-209.465	-21.221	0.189	-0.115
-208.450	111.148	0.200	0.240
-207.436	-200.000	0.027	0.224
-206.421	-30.362	-0.187	0.106
-205.406	-154.647	-0.101	0.007
-204.392	-142.057	-0.216	0.021
-203.377	-0.560	-0.091	-0.064
-202.363	-71.639	0.153	-0.057
-201.348	800.000	-0.077	0.219
-200.333	-90.411	0.322	-0.093
-199.319	-101.738	0.070	-0.017
-198.304	123.670	0.139	-0.173
-197.290	-80.561	-0.352	-0.116
-196.275	12.085	0.130	-0.099
-195.260	65.121	0.217	-0.218
-194.246	277.006	0.185	-0.326
-193.231	-157.482	0.207	-0.012
-192.217	800.000	0.093	0.266
-191.202	56.104	0.328	0.316
-190.187	-117.518	0.159	0.028
-189.173	570.307	0.074	0.178
-188.158	-84.346	0.220	-0.069
-187.144	-200.000	0.076	0.538
-186.129	800.000	0.031	0.122
-185.114	67.329	-0.186	0.188
-184.100	241.885	0.044	0.073
-183.085	-99.074	0.381	0.096
-182.071	-88.205	-0.087	-0.026
-181.056	6.861	-0.213	-0.157
-180.042	-200.000	0.041	0.230
-179.027	225.179	0.030	-0.048
-178.012	800.000	-0.067	0.244
-176.998	62.288	0.126	0.125
-175.983	-200.000	-0.020	0.113
-174.969	-29.423	0.209	0.119
-173.954	-200.000	-0.042	-0.201
-172.939	52.247	0.060	-0.057
-171.925	-3.644	0.138	0.095
-170.910	-112.635	0.136	-0.027
-169.896	338.227	0.107	0.207
-168.881	-140.270	0.127	0.013
-167.866	-58.999	-0.447	-0.192
-166.852	-189.241	0.241	-0.003
-165.837	28.162	-0.181	-0.152
-164.823	304.185	0.107	-0.197
-163.808	405.165	0.127	0.265
-162.793	-47.749	-0.153	-0.074
-161.779	541.838	0.116	-0.274
-160.764	-150.902	0.427	-0.032
-159.750	-200.000	-0.032	0.202
-158.735	-135.001	0.094	-0.011
-157.720	-71.774	0.183	-0.068
-156.706	800.000	-0.101	-0.321
-155.691	47.050	0.125	-0.115
-154.677	73.766	0.084	-0.087
-153.662	-55.571	0.165	-0.073
-152.647	-140.267	-0.177	-0.018
-151.633	-2.202	-0.166	0.116
-150.618	-18.145	0.296	-0.184
-149.604	70.834	0.269	0.276
-148.589	126.598	0.133	0.167
-147.574	-153.370	-0.301	-0.021
-146.560	-114.738	-0.289	-0.055
-145.545	-200.000	-0.055	-0.534
-144.531	713.159	-0.121	-0.318
-143.516	15.195	-0.180	0.140
-142.502	800.000	-0.043	-0.148
-141.487	-64.040	0.349	-0.141
-140.472	-100.792	0.120	0.029
-139.458	-27.650	-0.138	-0.079
-138.443	800.000	0.131	0.451
-137.429	-122.046	0.375	-0.061
-136.414	249.746	0.154	-0.259
-135.399	82.871	-0.031	0.034
-134.385	-50.170	0.114	-0.053
-133.370	-39.049	-0.063	-0.033
-132.356	800.000	-0.033	-0.110
-131.341	-55.062	0.135	-0.060
-130.326	-34.089	0.093	0.051
-129.312	-188.085	-0.255	-0.003
-128.297	95.973	-0.101	0.115
-127.283	10.977	0.132	0.100
-126.268	102.415	0.195	0.226
-125.253	10.635	-0.212	0.160
-124.239	-200.000	-0.059	0.319
-123.224	137.811	0.198	0.257
-122.210	96.706	-0.099	0.113
-121.195	96.989	0.174	0.198
-120.180	-200.000	0.053	0.332
