DTS Sentinel unit serial number:	SN413079Multiplexer serial number:	ORYXHardware model number:	OX4-SRSoftware version number:	ORYX F/W v4.00 Oryx Data Collector v3.7.2.0data status	okinstallation	princeton_trtdifferential loss correction	single-endedforward channel	channel 4reverse channel	N/Adate	2019/09/12time	20:11:18forward acquisition time	15.00reverse acquisition time	0.00gamma	496.2192k internal	0.2310k external	0.2310temperature offset calibration	1.0158default loss term (dB/km)	0.3790temperature slope calibration	1.0000multiplexer offset coefficient	1.0000multiplexer slope coefficient	1.0000fibre end	0.00T internal ref (°C)	31.56T ext. ref 1 (°C)	3.38T ext. ref 2 (°C)	26.19length (m)	temperature (°C)	Stokes	anti-Stokes-747.200	-65.378	0.781	-0.319
-746.185	-118.683	-0.265	0.048
-745.171	179.011	0.167	-0.248
-744.156	66.113	0.238	0.245
-743.142	412.281	-0.240	0.518
-742.127	3.897	-0.101	0.075
-741.112	-113.496	-0.412	-0.082
-740.098	-200.000	0.030	-0.449
-739.083	-48.501	-0.596	-0.291
-738.069	26.868	-0.746	-0.635
-737.054	23.395	0.334	-0.279
-736.039	-83.017	-0.249	0.082
-735.025	-6.599	-0.075	-0.052
-734.010	39.375	0.480	-0.436
-732.996	-49.280	0.703	-0.341
-731.981	-5.314	0.223	-0.156
-730.966	303.247	-0.271	0.510
-729.952	-55.747	-0.068	0.031
-728.937	55.235	-0.732	0.719
-727.923	-157.585	0.738	-0.045
-726.908	-73.230	0.409	0.152
-725.894	167.036	0.168	-0.241
-724.879	424.440	-0.309	-0.675
-723.864	44.343	-0.124	0.116
-722.850	-200.000	0.148	-0.810
-721.835	-8.593	0.730	-0.497
-720.821	148.756	-0.238	-0.327
-719.806	-123.436	0.426	-0.069
-718.791	800.000	-0.217	-0.647
-717.777	-53.985	-0.685	-0.316
-716.762	-2.327	0.425	-0.302
-715.748	-85.015	-0.372	0.118
-714.733	22.643	0.437	-0.363
-713.718	-200.000	0.009	-0.220
-712.704	53.393	-0.301	-0.292
-711.689	800.000	-0.170	-0.755
-710.675	-118.518	0.529	0.095
-709.660	302.444	0.289	-0.542
-708.645	33.343	0.781	-0.687
-707.631	800.000	0.057	0.162
-706.616	-200.000	0.088	-0.600
-705.602	800.000	0.232	0.997
-704.587	-85.358	0.732	-0.231
-703.572	-134.573	-0.469	-0.058
-702.558	-94.517	0.222	0.061
-701.543	-200.000	-0.016	0.257
-700.529	800.000	-0.137	-0.501
-699.514	110.612	-0.302	0.368
-698.499	-137.170	0.166	0.019
-697.485	-200.000	-0.041	-0.301
-696.470	0.357	-0.802	-0.580
-695.456	11.943	0.592	-0.462
-694.441	313.004	0.124	-0.236
-693.426	-100.331	0.216	-0.054
-692.412	-110.574	0.093	0.020
-691.397	12.056	-0.362	0.283
-690.383	-200.000	0.021	-0.671
-689.368	6.341	0.270	0.203
-688.354	315.272	0.457	-0.873
-687.339	220.051	0.199	0.323
-686.324	-164.987	0.585	-0.026
-685.310	-58.730	0.804	0.353
-684.295	800.000	-0.147	-0.494
-683.281	-200.000	-0.018	-0.247
-682.266	-200.000	0.050	0.785
-681.251	-107.617	0.710	0.157
-680.237	83.062	-0.072	0.080
-679.222	-7.458	-0.471	-0.323
-678.208	-83.218	-1.047	0.341
-677.193	76.781	-0.212	0.228
-676.178	311.387	0.439	0.834
-675.164	297.484	-0.106	-0.198
-674.149	800.000	0.161	0.468
-673.135	800.000	-0.151	0.429
-672.120	-200.000	0.026	0.603
-671.105	-76.477	-0.486	-0.173
-670.091	-88.083	0.307	0.093
-669.076	-48.914	0.093	-0.045
-668.062	225.229	-0.356	-0.583
-667.047	800.000	0.248	0.725
-666.032	528.141	-0.189	0.452
-665.018	-116.107	0.361	0.068
-664.003	40.664	-0.572	0.522
-662.989	4.894	-0.378	-0.281
-661.974	800.000	0.195	-0.778
-660.959	15.546	-0.542	-0.431
-659.945	-60.950	0.511	0.219
-658.930	66.236	0.478	0.491
-657.916	-42.817	-0.833	0.428
-656.901	88.857	-0.280	-0.315
-655.886	800.000	-0.040	0.139
-654.872	800.000	0.088	-0.375
-653.857	216.139	-0.164	0.264
-652.843	-91.953	-0.273	0.078
-651.828	-53.236	0.590	0.274
-650.814	-112.247	-0.438	-0.089
-649.799	60.749	0.775	-0.777
-648.784	-200.000	-0.026	-0.502
-647.770	3.066	0.164	-0.121
-646.755	79.421	-0.259	0.281
-645.741	22.499	0.285	-0.236
-644.726	-91.082	-0.519	-0.151
-643.711	800.000	-0.138	-0.471
-642.697	-200.000	-0.579	-0.000
-641.682	85.060	-0.247	0.274
-640.668	40.132	0.291	-0.264
-639.653	367.240	-0.334	-0.683
-638.638	-116.123	-0.365	0.069
-637.624	24.826	-0.072	0.060
-636.609	-56.701	-0.981	-0.439
-635.595	139.498	-0.369	-0.491
-634.580	110.526	0.239	-0.291
-633.565	-161.279	0.620	0.033
-632.551	577.548	0.113	0.279
-631.536	-141.786	0.399	-0.040
-630.522	180.085	-0.328	-0.486
-629.507	94.163	-0.237	-0.272
-628.492	-193.677	-0.461	-0.004
-627.478	200.426	-0.310	-0.482
-626.463	-4.925	-0.349	-0.243
-625.449	469.916	-0.210	0.477
-624.434	576.374	-0.044	-0.108
-623.419	143.382	0.637	-0.857
-622.405	-200.000	-0.050	-0.917
-621.390	600.004	-0.196	0.491
-620.376	0.669	0.285	-0.206
-619.361	63.743	0.174	-0.177
-618.346	800.000	-0.124	0.442
-617.332	-200.000	-0.061	-0.284
-616.317	-171.869	0.669	-0.022
-615.303	387.123	0.098	-0.205
-614.288	251.361	-0.485	-0.834
-613.273	-190.641	0.278	-0.003
-612.259	-147.285	-0.192	0.016
-611.244	651.506	-0.128	0.330
-610.230	-81.024	-0.346	-0.116
-609.215	-54.176	-0.330	0.152
-608.201	-103.271	-0.560	0.134
-607.186	95.634	0.602	-0.693
-606.171	48.690	0.512	-0.485
-605.157	-74.152	-0.460	0.168
-604.142	-19.501	0.483	-0.302
-603.128	-172.476	0.347	-0.011
-602.113	-200.000	-0.278	-1.233
-601.098	23.005	-0.399	-0.331
-600.084	-90.476	-0.715	0.209
-599.069	90.133	-0.156	0.176
-598.055	-200.000	-0.042	0.242
-597.040	-200.000	0.033	-0.277
-596.025	800.000	-0.082	-0.299
-595.011	66.438	-0.275	0.282
-593.996	2.502	0.056	-0.041
-592.982	800.000	0.292	-1.021
-591.967	-19.939	0.376	0.234
-590.952	223.070	0.282	-0.458
-589.938	-124.196	0.297	-0.047
-588.923	45.091	-0.418	0.389
-587.909	-85.486	0.396	0.125
-586.894	29.185	-0.381	0.326
-585.879	154.150	0.514	0.712
-584.865	117.984	0.447	-0.555
-583.850	78.722	-0.464	-0.501
-582.836	371.156	0.211	-0.433
-581.821	800.000	-0.051	-0.216
-580.806	-91.879	-0.588	-0.168
-579.792	215.395	0.397	0.635
-578.777	-121.253	-0.225	0.038
-577.763	800.000	0.031	0.116
-576.748	-152.068	0.137	-0.010
-575.733	-10.135	0.542	-0.363
-574.719	-69.212	0.239	-0.093
-573.704	-200.000	0.001	0.449
-572.690	-93.223	0.156	-0.044
-571.675	-117.560	-0.571	-0.104
-570.661	-138.282	-0.164	0.018
-569.646	80.820	0.358	-0.389
-568.631	-69.891	0.251	0.096
-567.617	-200.000	-0.028	-0.530
-566.602	-199.439	0.329	-0.002
-565.588	-66.709	-0.173	-0.069
-564.573	-200.000	-0.113	-0.567
-563.558	-156.147	0.263	-0.017
-562.544	-200.000	-0.073	-0.333
-561.529	-90.751	-1.047	0.305
-560.515	-32.751	-0.349	0.196
-559.500	-64.855	0.466	0.190
-558.485	-65.758	-0.581	-0.235
-557.471	31.952	0.204	-0.177
-556.456	-57.856	0.695	-0.306
-555.442	-66.316	-0.346	-0.139
-554.427	-126.687	0.458	-0.068
-553.412	477.271	0.316	-0.720
-552.398	-200.000	-0.079	-0.762
-551.383	181.837	-0.137	-0.204
-550.369	-72.340	-0.173	0.064
-549.354	-6.994	-0.774	0.529
-548.339	44.631	-0.563	0.521
-547.325	-26.664	0.229	-0.135
-546.310	413.510	-0.342	0.733
-545.296	-77.681	-0.319	-0.111
-544.281	404.772	-0.168	0.357
-543.266	-27.445	0.711	-0.416
-542.252	-3.129	-0.221	0.155
-541.237	-64.015	-0.127	-0.052
-540.223	-200.000	-0.108	0.744
-539.208	-200.000	-0.027	-0.138
-538.193	671.611	-0.196	-0.511
-537.179	-200.000	0.059	-0.679
-536.164	6.627	0.654	-0.490
-535.150	800.000	-0.290	0.885
-534.135	800.000	0.195	-0.725
-533.121	215.367	0.199	0.318
-532.106	-200.000	0.071	0.393
-531.091	375.088	-0.093	-0.191
-530.077	205.482	0.260	-0.407
-529.062	-200.000	0.197	-0.903
-528.048	457.392	-0.048	-0.108
-527.033	-127.651	0.618	0.090
-526.018	-100.139	0.233	0.059
-525.004	800.000	0.199	-0.781
-523.989	71.941	0.406	-0.425
-522.975	244.856	-0.476	0.805
-521.960	-200.000	0.064	0.757
-520.945	-190.145	-0.540	0.006
-519.931	110.251	0.104	-0.126
-518.916	-44.497	-0.516	-0.260
-517.902	-11.931	-0.764	-0.504
-516.887	764.466	-0.139	-0.381
-515.872	83.845	-0.345	-0.379
-514.858	167.247	0.604	0.863
-513.843	198.581	0.102	0.157
-512.829	-76.299	-0.088	0.031
-511.814	-73.649	-0.633	0.232
-510.799	73.847	-0.657	0.693
-509.785	713.097	0.213	0.567
-508.770	-49.771	0.121	0.058
-507.756	459.041	-0.221	0.494
-506.741	-119.403	-0.356	0.062
-505.726	24.276	0.417	0.346
-504.712	-89.621	0.895	0.264
-503.697	-99.705	0.504	-0.127
-502.683	403.879	-0.041	0.086
-501.668	800.000	-0.267	0.817
-500.653	-5.855	0.191	0.131
-499.639	31.913	-0.402	0.348
-498.624	-111.290	0.531	-0.109
-497.610	314.242	0.291	0.551
-496.595	-118.375	-0.352	0.063
-495.581	47.683	0.325	-0.305
-494.566	800.000	0.039	0.168
-493.551	-200.000	-0.044	0.454
-492.537	239.423	-0.645	1.079
-491.522	337.935	0.511	0.999
-490.508	-141.570	-0.368	0.037
-489.493	-7.919	-0.388	-0.263
-488.478	110.586	0.156	-0.188
-487.464	52.502	0.561	0.538
-486.449	-138.875	0.314	0.034
-485.435	-130.507	0.328	-0.045
-484.420	800.000	-0.172	-0.522
-483.405	-200.000	0.029	-0.365
-482.391	157.066	0.359	-0.499
-481.376	43.474	0.081	0.074
-480.362	-200.000	-0.305	0.001
-479.347	167.633	-0.484	0.691
-478.332	-200.000	0.081	0.453
-477.318	-90.870	0.432	-0.125
-476.303	194.714	-0.429	-0.655
-475.289	235.806	0.404	0.671
-474.274	-120.191	0.303	-0.052
-473.259	800.000	0.071	0.203
-472.245	-200.000	-0.070	0.331
-471.230	591.484	-0.060	-0.148
-470.216	341.623	-0.362	0.710
-469.201	-162.795	0.498	0.024
-468.186	-76.644	0.746	-0.263
-467.172	89.920	-0.198	-0.222
-466.157	-158.178	-0.530	0.031
-465.143	-105.154	0.856	0.196
-464.128	-200.000	0.027	-0.174
-463.113	-86.463	0.744	0.230
-462.099	-104.115	-0.291	-0.068
-461.084	800.000	-0.065	-0.241
-460.070	-30.951	-0.997	-0.565
-459.055	-81.525	-0.660	0.218
-458.040	-200.000	0.075	-0.474
-457.026	-151.477	-0.408	0.030
-456.011	205.103	0.040	0.062
-454.997	-155.165	-0.327	0.021
-453.982	596.578	0.074	0.185
-452.968	359.673	-0.070	-0.140
-451.953	165.732	0.243	-0.345
-450.938	-129.546	-0.922	0.128
-449.924	24.720	-0.663	-0.551
-448.909	-8.951	-0.438	0.294
-447.895	742.233	0.170	-0.458
-446.880	71.924	-0.423	0.442
-445.865	-53.152	0.500	-0.230
-444.851	259.848	-0.254	0.439
-443.836	-200.000	0.081	-0.423
-442.822	453.398	0.243	0.539
-441.807	-73.786	1.111	0.406
-440.792	-52.071	-0.227	-0.106
-439.778	19.005	-0.226	-0.182
-438.763	189.298	0.253	-0.381
-437.749	-61.308	-0.210	0.089
-436.734	43.782	-0.413	0.379
-435.719	-200.000	0.105	0.469
-434.705	10.383	0.193	-0.148
-433.690	123.256	0.204	-0.256
-432.676	800.000	-0.061	0.208
-431.661	-100.777	0.137	-0.034
-430.646	-200.000	-0.111	-0.621
-429.632	-200.000	-0.097	0.502
-428.617	239.305	-0.287	-0.480
-427.603	702.842	0.351	-0.927
-426.588	391.689	0.292	-0.609
-425.573	-97.481	-0.615	-0.160
-424.559	283.231	-0.233	-0.419
-423.544	-80.816	-0.848	-0.282
-422.530	233.736	-0.083	0.136
-421.515	107.504	-0.325	0.387
-420.500	800.000	-0.192	0.672
-419.486	141.780	-0.786	-1.044
-418.471	-200.000	0.018	0.417
-417.457	-119.383	0.227	-0.040
-416.442	-119.319	-0.686	-0.120
-415.428	19.619	-0.294	0.237
-414.413	4.389	-0.360	0.265
-413.398	42.040	-0.084	-0.077
-412.384	-161.234	-0.458	-0.024
-411.369	146.496	0.178	-0.240
-410.355	-102.014	-0.544	0.132
-409.340	-41.088	0.540	0.279
-408.325	-41.963	0.679	0.349
-407.311	7.845	0.216	-0.162
-406.296	20.005	0.499	-0.403
-405.282	18.494	0.810	-0.648
-404.267	-153.077	-0.474	0.033
-403.252	-42.915	0.348	0.177
-402.238	-47.624	-0.498	0.242
-401.223	-183.373	0.556	-0.010
-400.209	218.577	-0.080	0.127
-399.194	185.473	-0.191	-0.284
-398.179	623.808	-0.144	-0.364
-397.165	800.000	-0.050	-0.148
-396.150	-112.095	0.741	-0.149
-395.136	400.644	0.271	0.569
-394.121	-23.074	0.663	0.400
-393.106	278.774	0.209	-0.372
-392.092	-128.844	0.340	0.048
-391.077	-200.000	-0.070	-0.386
-390.063	711.099	-0.106	0.282
-389.048	-115.730	0.526	0.099
-388.033	800.000	-0.120	-0.500
-387.019	304.093	0.198	-0.368
-386.004	-146.761	0.583	-0.050
-384.990	218.212	-0.322	-0.514
-383.975	13.539	0.226	-0.176
-382.960	124.365	0.396	-0.499
-381.946	-28.119	-0.940	0.544
-380.931	196.482	0.338	0.516
-379.917	239.471	-0.397	-0.662
-378.902	268.986	0.327	-0.575
-377.888	34.035	-0.558	-0.487
-376.873	-7.929	0.431	-0.291
-375.858	-25.962	-0.249	-0.147
-374.844	-68.297	-0.797	-0.310
-373.829	-200.000	0.032	-0.330
-372.815	2.560	0.165	0.120
-371.800	-200.000	0.062	0.763
-370.785	147.839	0.289	0.390
-369.771	66.201	0.214	0.217
-368.756	-26.082	0.276	0.162
-367.742	-200.000	0.181	0.826
-366.727	-200.000	-0.063	-0.382
-365.712	684.837	0.020	0.053
-364.698	205.469	-0.268	-0.416
-363.683	-58.313	0.581	-0.253
-362.669	480.585	0.372	0.845
-361.654	-39.627	-0.528	0.277
-360.639	765.489	-0.163	0.444
-359.625	67.819	-0.081	0.083
-358.610	-200.000	0.061	0.814
-357.596	-14.293	0.384	-0.248
-356.581	-200.000	-0.193	0.998
-355.566	-32.978	-0.637	-0.354
-354.552	-69.581	0.309	0.118
-353.537	-37.289	-0.968	-0.517
-352.523	52.688	-0.265	-0.253
-351.508	109.668	0.128	-0.154
-350.493	-153.511	0.551	0.038
-349.479	111.953	0.364	-0.440
-348.464	474.881	0.241	0.545
-347.450	-200.000	-0.031	-1.002
-346.435	13.319	0.595	-0.461
-345.420	572.679	-0.056	0.136
-344.406	43.836	-0.778	0.713
-343.391	435.999	-0.449	-0.977
-342.377	-200.000	-0.043	0.254
-341.362	800.000	0.194	0.709
-340.348	-53.308	0.268	-0.123
-339.333	-200.000	-0.506	-0.001
-338.318	-130.351	-0.781	0.106
-337.304	-75.391	-0.424	0.151
-336.289	82.235	0.112	-0.121
-335.275	54.380	-0.395	-0.380
-334.260	-14.633	0.472	-0.303
-333.245	-66.795	0.448	-0.177
-332.231	31.989	-0.362	0.312
-331.216	-1.735	-0.208	0.146
-330.202	-200.000	0.092	0.575
-329.187	348.664	0.123	0.242
-328.172	53.261	0.385	0.368
-327.158	-35.002	0.621	0.338
-326.143	11.089	-0.586	-0.448
-325.129	-200.000	0.034	-0.219
-324.114	-200.000	-0.035	-0.294
-323.099	-200.000	0.035	-0.288
-322.085	-96.793	0.256	0.067
-321.070	302.421	-0.324	-0.599
-320.056	325.307	0.193	-0.368
-319.041	588.929	0.230	0.565
-318.026	-200.000	-0.018	0.149
-317.012	85.555	0.592	0.649
-315.997	-3.028	-0.878	0.612
-314.983	-136.311	0.438	0.051
-313.968	-47.537	0.291	-0.141
-312.953	-113.391	-0.316	0.062
-311.939	-200.000	-0.055	0.562
-310.924	-128.337	0.319	0.045
-309.910	-113.899	0.644	-0.125
-308.895	-181.257	-0.160	0.003
-307.880	73.833	0.385	-0.403
-306.866	94.123	-0.167	-0.189
-305.851	800.000	-0.059	0.166
-304.837	-120.489	-0.630	0.107
-303.822	-90.663	0.141	-0.041
-302.807	-89.659	0.634	-0.185
-301.793	-71.742	0.468	-0.174
-300.778	65.898	-0.693	-0.701
-299.764	-200.000	0.082	-0.577
-298.749	-200.000	-0.131	0.911
-297.735	-81.366	0.447	0.147
-296.720	46.027	-0.373	0.345
-295.705	-24.698	0.422	0.250
-294.691	-65.261	0.329	-0.132
-293.676	-84.582	-0.157	-0.050
-292.662	296.689	0.395	0.723
-291.647	74.168	-0.259	-0.271
-290.632	437.280	-0.205	0.445
-289.618	-157.872	-0.542	0.032
-288.603	376.609	0.184	-0.374
-287.589	26.341	-0.150	0.125
-286.574	38.373	0.267	-0.237
-285.559	-49.542	0.132	0.063
-284.545	-200.000	0.003	-0.902
-283.530	-95.590	0.737	0.197
-282.516	-146.472	-0.282	-0.025
-281.501	-130.376	0.235	0.032
-280.486	-131.584	-0.263	-0.035
-279.472	-48.666	0.788	0.378
-278.457	27.940	0.451	-0.379
-277.443	800.000	-0.168	0.470
-276.428	-65.727	-0.614	-0.245
-275.413	-9.845	-0.794	0.527
-274.399	41.732	0.237	0.214
-273.384	170.475	0.469	-0.669
-272.370	81.216	0.044	-0.047
-271.355	492.152	-0.146	-0.334
-270.340	800.000	0.228	0.966
-269.326	-52.145	-1.018	-0.471
-268.311	25.763	0.329	-0.273
-267.297	-102.884	0.149	0.035
-266.282	-200.000	0.049	-0.589
-265.267	-89.471	-0.448	-0.131
-264.253	35.374	0.852	-0.745
-263.238	341.256	0.107	-0.209
-262.224	800.000	0.234	0.805
-261.209	44.690	-0.386	0.353
-260.195	-132.576	-0.326	0.042
-259.180	800.000	0.059	0.241
-258.165	-200.000	-0.049	-0.468
-257.151	-95.312	0.296	-0.079
-256.136	48.353	-0.285	-0.265
-255.122	-200.000	0.088	0.613
-254.107	-26.604	-0.159	-0.093
-253.092	-62.209	0.019	-0.008
-252.078	673.393	-0.159	-0.410
-251.063	-99.122	0.224	-0.057
-250.049	-200.000	-0.018	0.131
-249.034	-200.000	0.007	-0.297
-248.019	122.495	0.187	-0.233
-247.005	126.681	-0.079	0.100
-245.990	-26.423	-0.330	0.193
-244.976	-96.960	-0.823	-0.215
-243.961	-93.016	-0.501	-0.139
-242.946	587.891	0.104	-0.254
-241.932	300.632	0.442	0.812
-240.917	-14.606	0.726	0.465
-239.903	-200.000	-0.016	0.608
-238.888	226.545	0.090	0.145
-237.873	-200.000	0.015	-0.417
-236.859	178.170	-0.065	-0.094
-235.844	6.229	-1.119	0.827
-234.830	-200.000	-0.114	0.546
-233.815	-117.647	-0.460	0.083
-232.800	92.334	0.076	0.086
-231.786	155.817	0.266	-0.364
-230.771	-103.074	0.565	-0.133
-229.757	-200.000	0.029	-0.766
-228.742	737.046	-0.140	0.374
-227.727	800.000	0.061	-0.189
-226.713	-119.725	1.349	-0.232
-225.698	-160.476	0.136	-0.007
-224.684	800.000	-0.347	0.999
-223.669	-117.690	-0.523	0.094
-222.655	-60.577	0.612	-0.258
-221.640	-125.152	0.597	-0.091
-220.625	-71.867	-0.403	-0.149
-219.611	-9.381	0.604	0.401
-218.596	-161.274	-0.966	0.050
-217.582	247.243	-0.423	0.711
-216.567	85.251	-0.251	0.274
-215.552	800.000	-0.028	-0.095
-214.538	-200.000	-0.058	-0.536
-213.523	236.470	0.474	0.780
-212.509	95.821	-0.522	0.593
-211.494	-57.113	0.440	0.193
-210.479	-200.000	-0.039	0.381
-209.465	553.287	-0.253	0.604
-208.450	653.980	-0.153	-0.391
-207.436	-14.628	-0.459	-0.293
-206.421	451.183	-0.320	0.702
-205.406	-200.000	0.013	0.770
-204.392	83.852	0.230	-0.250
-203.377	90.870	-0.137	-0.153
-202.363	-200.000	0.117	0.552
-201.348	-200.000	0.071	-0.512
-200.333	394.952	-0.161	-0.334
-199.319	-11.599	0.504	0.329
-198.304	800.000	-0.143	0.410
-197.290	800.000	0.098	-0.355
-196.275	-200.000	0.005	0.298
-195.260	-200.000	0.179	0.900
-194.246	-200.000	-0.056	-0.426
-193.231	59.873	0.216	0.212
-192.217	-200.000	-0.001	0.608
-191.202	-172.304	0.321	0.010
-190.187	3.441	-0.476	-0.345
-189.173	-80.988	-0.404	-0.133
-188.158	-13.125	0.540	0.349
-187.144	127.535	-0.371	-0.468
-186.129	131.259	0.521	0.665
-185.114	800.000	0.056	-0.183
-184.100	-200.000	-0.021	0.187
-183.085	800.000	0.038	-0.153
-182.071	-200.000	0.050	0.383
-181.056	300.813	0.131	0.241
-180.042	-200.000	0.048	0.830
-179.027	-140.961	0.357	0.036
-178.012	41.859	0.589	-0.531
-176.998	-126.240	1.004	0.149
-175.983	-200.000	-0.080	0.848
-174.969	800.000	-0.101	-0.338
-173.954	-25.469	0.317	0.186
-172.939	-51.835	0.558	0.258
-171.925	-110.520	0.609	-0.125
-170.910	372.990	0.278	0.562
-169.896	-111.870	-0.269	-0.054
-168.881	344.937	-0.489	0.953
-167.866	192.154	0.263	0.394
-166.852	1.333	0.201	-0.144
-165.837	-48.822	0.391	0.186
-164.823	-112.861	0.173	-0.034
-163.808	-2.479	-0.159	0.110
-162.793	3.683	0.273	-0.198
-161.779	-65.762	0.351	-0.140
-160.764	-56.930	0.594	-0.260
-159.750	-169.213	-0.645	0.024
-158.735	-200.000	-0.011	0.577
-157.720	-135.663	-0.527	0.062
-156.706	-80.458	0.574	0.190
-155.691	-71.743	-0.631	0.233
-154.677	43.725	-0.355	-0.322
-153.662	-200.000	0.124	0.794
-152.647	255.262	-0.399	-0.678
-151.633	19.530	-0.345	-0.275
-150.618	-96.334	-0.102	-0.027
-149.604	442.648	0.264	-0.575
-148.589	-200.000	-0.093	0.408
-147.574	-65.970	0.530	0.210
-146.560	-51.424	-0.334	-0.155
-145.545	-200.000	-0.071	-0.536
-144.531	-200.000	0.051	-0.533
-143.516	-93.934	1.103	-0.301
-142.502	374.206	0.114	0.230
-141.487	-123.515	-0.527	-0.083
-140.472	173.808	0.095	0.136
-139.458	-200.000	0.067	0.495
-138.443	-200.000	-0.017	0.187
-137.429	145.244	0.074	0.098
-136.414	390.877	0.177	0.365
-135.399	343.017	0.029	0.056
-134.385	261.030	-0.237	-0.407
-133.370	-118.000	0.621	-0.110
-132.356	162.262	-0.185	0.258
-131.341	45.918	0.806	0.739
-130.326	-121.778	-0.504	-0.083
-129.312	-95.528	-0.935	0.249
-128.297	263.545	-0.150	-0.259
-127.283	223.580	0.404	-0.646
-126.268	-33.821	0.202	-0.110
-125.253	310.207	0.161	-0.299
-124.239	-42.011	-0.606	-0.307
-123.224	85.802	0.259	0.282
-122.210	133.477	-0.245	0.313
-121.195	111.490	-0.627	0.750
-120.180	302.305	-0.308	-0.564
