DTS Sentinel unit serial number:	SN413079Multiplexer serial number:	ORYXHardware model number:	OX4-SRSoftware version number:	ORYX F/W v4.00 Oryx Data Collector v3.7.2.0data status	okinstallation	princeton_trtdifferential loss correction	single-endedforward channel	channel 4reverse channel	N/Adate	2019/09/14time	16:29:35forward acquisition time	60.00reverse acquisition time	0.00gamma	496.2192k internal	0.2293k external	0.2293temperature offset calibration	1.0126default loss term (dB/km)	0.3790temperature slope calibration	1.0000multiplexer offset coefficient	1.0000multiplexer slope coefficient	1.0000fibre end	0.00T internal ref (°C)	38.00T ext. ref 1 (°C)	5.07T ext. ref 2 (°C)	33.71length (m)	temperature (°C)	Stokes	anti-Stokes-747.200	-136.720	0.094	-0.011
-746.185	-135.300	0.167	0.020
-745.171	256.954	-0.244	0.429
-744.156	29.168	-0.240	0.208
-743.142	681.393	-0.160	0.426
-742.127	255.098	-0.010	0.018
-741.112	91.087	-0.071	-0.081
-740.098	800.000	0.148	0.586
-739.083	-7.241	0.022	0.015
-738.069	800.000	0.061	0.208
-737.054	-25.629	0.189	0.114
-736.039	67.925	-0.193	0.202
-735.025	-58.432	0.389	-0.173
-734.010	543.534	0.105	-0.257
-732.996	-200.000	0.054	0.297
-731.981	-200.000	-0.070	0.363
-730.966	172.956	0.107	0.157
-729.952	-63.277	-0.064	0.027
-728.937	16.706	-0.118	-0.096
-727.923	52.274	-0.149	0.145
-726.908	10.343	-0.095	-0.074
-725.894	-135.777	0.255	0.031
-724.879	-144.571	-0.248	-0.023
-723.864	-142.336	-0.265	0.027
-722.850	80.884	-0.114	-0.126
-721.835	-200.000	-0.103	-0.545
-720.821	323.856	0.072	-0.141
-719.806	56.428	0.068	-0.067
-718.791	-105.587	-0.531	0.123
-717.777	61.314	-0.237	-0.241
-716.762	-114.007	-0.256	0.051
-715.748	-37.763	0.156	-0.085
-714.733	118.855	-0.166	-0.209
-713.718	277.876	0.138	-0.251
-712.704	-200.000	0.015	-0.104
-711.689	800.000	0.112	-0.361
-710.675	-200.000	0.074	0.423
-709.660	-109.539	-0.097	-0.021
-708.645	482.103	-0.133	-0.308
-707.631	594.988	-0.070	-0.178
-706.616	-49.184	0.151	-0.074
-705.602	-93.709	0.108	0.031
-704.587	-200.000	-0.063	0.523
-703.572	-95.724	0.119	0.032
-702.558	105.184	0.091	-0.110
-701.543	82.171	0.206	0.228
-700.529	4.783	-0.288	-0.216
-699.514	-42.204	0.376	-0.196
-698.499	203.493	-0.096	-0.152
-697.485	6.877	0.070	0.053
-696.470	-200.000	-0.061	-0.282
-695.456	-5.902	-0.230	-0.161
-694.441	-148.130	0.270	-0.023
-693.426	276.036	0.145	-0.263
-692.412	-105.620	-0.142	-0.033
-691.397	-176.036	-0.094	-0.003
-690.383	-34.829	0.263	0.146
-689.368	32.069	0.163	-0.144
-688.354	-200.000	-0.000	-0.132
-687.339	408.391	-0.159	-0.343
-686.324	-112.411	-0.394	-0.080
-685.310	-121.818	0.150	0.025
-684.295	-41.780	-0.172	-0.090
-683.281	356.229	0.100	0.203
-682.266	-66.002	0.356	-0.145
-681.251	-37.325	-0.200	-0.109
-680.237	590.567	0.135	-0.339
-679.222	416.895	-0.028	0.061
-678.208	-200.000	-0.017	-0.159
-677.193	513.977	0.154	-0.366
-676.178	69.534	-0.305	-0.320
-675.164	-200.000	-0.039	0.193
-674.149	406.783	-0.137	0.296
-673.135	-35.197	-0.409	0.227
-672.120	42.164	-0.159	-0.147
-671.105	-124.766	-0.013	-0.002
-670.091	64.989	-0.102	0.105
-669.076	-160.515	0.206	0.011
-668.062	69.967	0.205	-0.216
-667.047	-200.000	-0.003	-0.131
-666.032	-200.000	-0.043	0.309
-665.018	-200.000	-0.023	-0.301
-664.003	-200.000	-0.008	0.082
-662.989	264.221	0.031	-0.055
-661.974	-8.818	-0.304	0.208
-660.959	-48.255	0.136	-0.067
-659.945	-151.127	-0.357	0.027
-658.930	800.000	-0.048	-0.171
-657.916	81.405	-0.157	-0.173
-656.901	-200.000	0.003	-0.086
-655.886	93.365	0.242	0.279
-654.872	-200.000	-0.042	-0.201
-653.857	-29.029	0.114	-0.067
-652.843	68.239	0.219	-0.229
-651.828	-170.995	-0.570	0.020
-650.814	-137.960	0.363	-0.041
-649.799	420.238	0.125	-0.272
-648.784	-106.918	0.151	0.034
-647.770	212.159	0.149	0.240
-646.755	-200.000	0.006	0.264
-645.741	67.612	-0.080	-0.084
-644.726	-200.000	-0.004	-0.350
-643.711	-98.979	-0.054	-0.014
-642.697	800.000	0.121	-0.474
-641.682	103.593	-0.162	-0.194
-640.668	55.026	0.056	0.055
-639.653	-89.002	0.268	-0.081
-638.638	258.252	-0.152	-0.266
-637.624	24.295	-0.028	0.024
-636.609	9.343	0.177	-0.136
-635.595	763.149	-0.086	0.236
-634.580	206.169	-0.070	-0.111
-633.565	800.000	0.034	0.096
-632.551	-129.690	-0.081	0.011
-631.536	94.496	-0.129	-0.150
-630.522	-108.308	0.152	0.033
-629.507	35.163	-0.147	0.131
-628.492	221.007	0.031	0.050
-627.478	-200.000	-0.010	-0.076
-626.463	-200.000	0.013	0.118
-625.449	126.260	-0.186	0.240
-624.434	56.188	0.040	0.039
-623.419	-200.000	0.048	0.372
-622.405	-200.000	-0.040	0.238
-621.390	-200.000	0.020	0.129
-620.376	-155.562	0.240	0.016
-619.361	71.700	-0.285	-0.301
-618.346	-59.635	-0.276	-0.120
-617.332	-153.583	-0.084	-0.006
-616.317	-156.320	-0.239	0.015
-615.303	416.888	-0.127	-0.275
-614.288	800.000	0.070	-0.202
-613.273	-46.375	0.118	0.059
-612.259	396.109	0.112	0.238
-611.244	-200.000	0.011	-0.279
-610.230	358.029	0.024	-0.049
-609.215	-39.555	0.340	-0.181
-608.201	-200.000	-0.032	0.286
-607.186	-84.678	-0.327	-0.105
-606.171	481.985	-0.175	-0.403
-605.157	-170.182	0.005	0.000
-604.142	-146.957	0.017	-0.001
-603.128	-133.109	-0.244	0.031
-602.113	-42.203	-0.081	0.042
-601.098	101.145	0.177	-0.209
-600.084	-58.326	-0.401	-0.177
-599.069	172.888	-0.126	-0.185
-598.055	-200.000	-0.003	-0.123
-597.040	-49.014	-0.183	-0.089
-596.025	-89.603	0.196	0.058
-595.011	-200.000	0.012	-0.122
-593.996	199.713	0.132	0.205
-592.982	-117.314	0.047	-0.009
-591.967	-82.792	0.159	-0.052
-590.952	-200.000	-0.017	0.077
-589.938	-162.729	0.113	-0.006
-588.923	-28.404	-0.159	-0.093
-587.909	-119.871	-0.093	-0.016
-586.894	-147.494	-0.345	-0.030
-585.879	-139.135	-0.239	0.026
-584.865	-200.000	0.005	-0.132
-583.850	-200.000	0.028	-0.181
-582.836	-104.964	-0.218	-0.051
-581.821	-106.970	0.084	-0.019
-580.806	-61.014	0.206	-0.088
-579.792	-60.978	0.147	0.063
-578.777	-44.962	0.194	-0.098
-577.763	-130.228	-0.194	-0.027
-576.748	273.135	0.045	0.080
-575.733	-162.298	-0.252	0.013
-574.719	-71.602	0.210	-0.080
-573.704	-200.000	-0.024	0.557
-572.690	-112.204	0.125	0.025
-571.675	97.396	0.101	-0.118
-570.661	800.000	0.016	-0.052
-569.646	-85.823	0.262	-0.082
-568.631	734.558	0.147	0.399
-567.617	13.150	-0.147	-0.115
-566.602	673.021	-0.054	-0.143
-565.588	543.257	0.080	0.193
-564.573	-129.264	-0.096	-0.014
-563.558	53.032	-0.203	0.198
-562.544	-15.727	0.183	-0.118
-561.529	-109.131	0.283	0.061
-560.515	588.465	0.124	0.310
-559.500	414.505	-0.017	0.037
-558.485	-127.443	-0.197	-0.029
-557.471	346.194	0.094	-0.187
-556.456	800.000	-0.058	0.238
-555.442	-121.029	-0.346	-0.059
-554.427	467.155	0.222	-0.505
-553.412	-97.842	0.114	-0.030
-552.398	-80.198	0.232	-0.079
-551.383	800.000	0.055	0.194
-550.369	260.763	-0.031	-0.054
-549.354	190.950	0.236	0.360
-548.339	-64.978	0.339	0.139
-547.325	-200.000	0.031	0.213
-546.310	-200.000	0.008	-0.194
-545.296	-103.115	-0.019	-0.004
-544.281	-200.000	-0.015	-0.181
-543.266	27.831	-0.140	0.120
-542.252	-200.000	0.017	0.370
-541.237	-94.670	-0.216	-0.059
-540.223	-111.553	0.129	-0.027
-539.208	7.364	-0.171	0.129
-538.193	185.307	-0.229	-0.345
-537.179	-93.881	0.297	-0.083
-536.164	291.265	0.121	-0.224
-535.150	64.212	0.160	-0.164
-534.135	64.198	0.152	0.155
-533.121	800.000	-0.082	-0.290
-532.106	-25.014	-0.240	-0.144
-531.091	800.000	-0.084	-0.278
-530.077	-55.380	0.167	-0.076
-529.062	89.192	0.157	0.178
-528.048	-113.739	-0.234	0.046
-527.033	-69.954	-0.308	0.119
-526.018	-200.000	0.061	-0.273
-525.004	72.783	0.081	0.085
-523.989	82.970	0.036	-0.040
-522.975	-34.165	-0.225	0.126
-521.960	-200.000	-0.022	0.140
-520.945	33.230	0.158	0.139
-519.931	2.050	0.227	-0.167
-518.916	18.773	-0.271	-0.220
-517.902	9.447	0.162	-0.125
-516.887	-200.000	0.006	0.136
-515.872	-98.722	-0.158	0.041
-514.858	20.629	0.331	-0.272
-513.843	343.812	0.144	-0.286
-512.829	-52.197	0.119	-0.056
-511.814	-62.400	0.181	0.076
-510.799	-58.417	-0.066	-0.029
-509.785	-103.122	0.123	0.030
-508.770	-200.000	0.046	-0.316
-507.756	46.487	0.073	0.068
-506.741	74.061	0.040	0.042
-505.726	110.341	-0.208	-0.253
-504.712	-131.711	-0.347	-0.046
-503.697	205.125	-0.238	-0.375
-502.683	-108.536	-0.162	0.035
-501.668	-115.606	-0.284	-0.054
-500.653	291.181	-0.166	0.306
-499.639	-200.000	0.049	-0.284
-498.624	130.469	-0.140	-0.182
-497.610	-43.048	-0.188	-0.097
-496.595	13.021	-0.160	-0.125
-495.581	-121.020	-0.143	0.024
-494.566	-130.504	-0.117	-0.016
-493.551	131.365	-0.153	-0.199
-492.537	-62.610	-0.097	0.041
-491.522	25.656	0.161	0.136
-490.508	274.416	-0.215	-0.386
-489.493	53.037	0.195	0.189
-488.478	-59.213	0.149	0.065
-487.464	39.231	-0.209	-0.189
-486.449	800.000	0.013	0.041
-485.435	412.267	-0.160	-0.345
-484.420	800.000	0.051	0.162
-483.405	96.316	-0.124	0.144
-482.391	377.758	0.148	-0.307
-481.376	108.518	0.153	-0.185
-480.362	368.187	-0.067	-0.137
-479.347	-134.114	0.367	-0.046
-478.332	-20.848	0.334	-0.207
-477.318	228.545	-0.149	0.247
-476.303	96.828	-0.066	0.076
-475.289	68.396	-0.127	-0.132
-474.274	75.099	0.053	0.057
-473.259	-200.000	-0.002	0.202
-472.245	-130.371	-0.196	-0.027
-471.230	-200.000	-0.019	0.094
-470.216	-76.924	-0.094	0.033
-469.201	-138.507	0.335	0.037
-468.186	800.000	-0.020	0.080
-467.172	-3.842	-0.212	0.149
-466.157	-145.564	-0.322	-0.029
-465.143	800.000	-0.093	0.301
-464.128	800.000	0.053	0.234
-463.113	-94.791	-0.154	-0.042
-462.099	-200.000	-0.010	0.091
-461.084	4.008	-0.335	-0.248
-460.070	-14.158	-0.361	0.235
-459.055	-200.000	0.025	0.182
-458.040	-200.000	0.045	0.371
-457.026	-96.037	-0.203	0.055
-456.011	60.840	0.093	0.094
-454.997	-200.000	-0.076	-0.418
-453.982	-200.000	0.075	0.396
-452.968	-68.898	-0.265	0.103
-451.953	-106.685	-0.096	0.022
-450.938	-33.706	-0.246	-0.137
-449.924	54.857	-0.130	-0.127
-448.909	85.479	-0.051	0.056
-447.895	-121.923	0.351	0.058
-446.880	-124.574	-0.074	-0.012
-445.865	82.660	0.188	0.207
-444.851	-200.000	0.027	0.220
-443.836	-167.427	0.077	-0.003
-442.822	-200.000	0.064	-0.436
-441.807	-8.314	0.208	0.141
-440.792	-98.776	0.149	0.038
-439.778	15.233	0.044	0.035
-438.763	145.283	0.128	0.173
-437.749	-118.309	0.427	0.077
-436.734	-200.000	-0.010	-0.148
-435.719	261.486	0.069	0.121
-434.705	61.452	0.038	-0.039
-433.690	28.112	-0.167	0.143
-432.676	93.254	0.012	0.014
-431.661	800.000	-0.069	0.227
-430.646	122.040	-0.130	0.164
-429.632	126.971	0.047	-0.060
-428.617	-37.160	-0.204	-0.110
-427.603	16.340	-0.121	0.096
-426.588	704.649	-0.055	0.147
-425.573	-2.283	-0.172	-0.122
-424.559	493.777	0.072	0.166
-423.544	20.366	-0.042	-0.034
-422.530	-98.422	0.136	-0.035
-421.515	229.709	0.092	0.151
-420.500	-111.494	-0.100	0.021
-419.486	-73.870	0.290	0.106
-418.471	187.777	-0.154	-0.233
-417.457	203.658	0.096	0.151
-416.442	-200.000	-0.041	-0.207
-415.428	105.080	0.237	-0.282
-414.413	67.850	-0.083	-0.086
-413.398	225.755	0.140	0.228
-412.384	-200.000	-0.038	0.215
-411.369	-200.000	-0.022	-0.220
-410.355	707.094	-0.096	0.256
-409.340	-90.261	-0.204	-0.060
-408.325	-200.000	-0.014	-0.262
-407.311	-54.865	0.240	0.109
-406.296	-121.574	-0.179	-0.030
-405.282	800.000	-0.099	-0.277
-404.267	-79.998	0.214	-0.072
-403.252	-55.139	0.082	-0.037
-402.238	104.615	-0.241	0.286
-401.223	-200.000	-0.004	-0.200
-400.209	67.730	0.131	0.135
-399.194	-200.000	0.062	0.327
-398.179	-87.013	-0.069	0.021
-397.165	-123.098	-0.072	-0.012
-396.150	-113.174	-0.324	-0.064
-395.136	-39.105	-0.252	-0.134
-394.121	-86.999	0.111	0.034
-393.106	263.203	-0.063	-0.111
-392.092	-168.052	0.225	-0.009
-391.077	605.202	-0.137	0.344
-390.063	-178.798	0.014	0.000
-389.048	290.950	0.020	-0.038
-388.033	-200.000	-0.028	-0.248
-387.019	22.812	0.110	0.091
-386.004	27.002	-0.154	-0.130
-384.990	-15.009	0.101	0.065
-383.975	-89.202	-0.107	0.032
-382.960	800.000	0.054	0.159
-381.946	241.087	-0.055	0.092
-380.931	-53.182	0.263	-0.122
-379.917	-31.685	0.237	-0.134
-378.902	-128.539	-0.110	-0.016
-377.888	800.000	-0.068	-0.270
-376.873	-200.000	0.021	-0.311
-375.858	800.000	0.058	0.183
-374.844	800.000	-0.042	0.177
-373.829	138.993	-0.043	-0.057
-372.815	-46.429	0.194	-0.096
-371.800	309.558	-0.072	0.136
-370.785	465.668	0.075	-0.168
-369.771	-200.000	-0.001	0.142
-368.756	52.595	-0.136	-0.131
-367.742	800.000	0.051	-0.164
-366.727	756.106	0.076	0.208
-365.712	-83.868	0.228	0.073
-364.698	41.858	0.074	0.068
-363.683	450.762	-0.075	0.166
-362.669	-55.671	-0.323	-0.146
-361.654	182.789	0.057	0.085
-360.639	-99.739	0.072	0.018
-359.625	138.829	-0.108	0.143
-358.610	585.920	0.175	0.434
-357.596	0.264	0.243	0.175
-356.581	-139.650	-0.159	-0.017
-355.566	191.134	0.093	-0.140
-354.552	230.896	0.148	-0.245
-353.537	-196.466	0.147	-0.001
-352.523	-126.107	0.143	0.022
-351.508	-5.983	-0.092	0.064
-350.493	61.061	-0.043	-0.043
-349.479	-200.000	0.009	0.143
-348.464	-103.031	-0.133	0.032
-347.450	545.164	0.066	0.158
-346.435	181.722	0.131	0.194
-345.420	800.000	0.037	0.146
-344.406	-115.265	0.201	-0.038
-343.391	-140.931	-0.089	0.009
-342.377	262.986	0.045	-0.079
-341.362	77.155	0.215	0.230
-340.348	-112.903	0.413	-0.082
-339.333	-29.201	-0.036	0.021
-338.318	-66.343	-0.110	0.044
-337.304	38.779	0.115	-0.104
-336.289	-200.000	-0.006	-0.169
-335.275	-132.134	-0.384	0.050
-334.260	165.174	-0.100	-0.142
-333.245	800.000	0.053	0.213
-332.231	212.476	-0.132	-0.210
-331.216	-149.432	-0.071	0.006
-330.202	-200.000	0.002	0.109
-329.187	-133.990	-0.099	0.012
-328.172	108.093	-0.035	-0.042
-327.158	-57.153	-0.088	0.039
-326.143	-133.878	-0.161	-0.020
-325.129	-161.301	-0.305	0.016
-324.114	-63.876	0.181	-0.074
-323.099	800.000	0.069	0.224
-322.085	-102.649	0.022	-0.005
-321.070	800.000	0.049	0.150
-320.056	-130.652	-0.293	-0.040
-319.041	132.426	0.135	0.175
-318.026	118.063	0.095	-0.117
-317.012	232.858	-0.102	-0.169
-315.997	-146.310	0.261	-0.023
-314.983	395.591	0.097	0.203
-313.968	800.000	-0.125	-0.349
-312.953	-200.000	-0.014	-0.182
-311.939	522.650	-0.122	-0.288
-310.924	33.699	-0.149	-0.130
-309.910	-0.640	-0.175	0.125
-308.895	800.000	0.053	-0.216
-307.880	27.469	-0.076	-0.064
-306.866	156.052	0.227	0.315
-305.851	71.337	-0.051	0.053
-304.837	-80.872	0.145	-0.048
-303.822	180.119	-0.035	-0.051
-302.807	405.764	-0.061	0.130
-301.793	-98.621	-0.179	0.046
-300.778	-39.070	-0.203	-0.107
-299.764	14.487	-0.208	-0.163
-298.749	800.000	0.032	0.120
-297.735	-25.875	0.283	0.167
-296.720	800.000	-0.128	-0.377
-295.705	114.865	-0.122	-0.150
-294.691	-164.250	0.094	0.004
-293.676	-140.953	0.044	0.005
-292.662	-62.551	-0.019	0.008
-291.647	391.580	-0.037	-0.078
-290.632	-17.570	-0.115	-0.072
-289.618	-91.721	-0.192	-0.055
-288.603	-35.988	0.058	0.032
-287.589	387.184	-0.069	0.144
-286.574	-69.139	-0.295	0.114
-285.559	23.225	-0.082	-0.068
-284.545	-47.862	0.121	0.059
-283.530	-71.728	0.181	0.068
-282.516	32.349	0.182	-0.158
-281.501	187.305	0.036	-0.054
-280.486	69.473	-0.133	0.137
-279.472	138.817	-0.062	-0.082
-278.457	256.996	0.063	0.108
-277.443	-200.000	-0.027	-0.174
-276.428	93.878	0.253	0.288
-275.413	-200.000	0.020	0.243
-274.399	160.629	0.048	0.067
-273.384	-111.048	0.240	-0.049
-272.370	-200.000	0.010	0.101
-271.355	9.081	0.187	-0.142
-270.340	36.492	-0.239	-0.212
-269.326	-32.446	-0.121	-0.068
-268.311	-10.061	-0.219	0.146
-267.297	-34.147	0.255	0.141
-266.282	-64.229	0.217	-0.089
-265.267	800.000	0.075	0.293
-264.253	-200.000	-0.003	-0.034
-263.238	-87.529	0.097	0.029
-262.224	-200.000	-0.013	-0.118
-261.209	-69.554	-0.215	-0.083
-260.195	-97.478	0.341	-0.089
-259.180	-128.867	0.201	0.028
-258.165	800.000	0.113	-0.382
-257.151	-85.192	0.109	0.034
-256.136	-131.449	0.372	-0.049
-255.122	29.550	0.264	0.226
-254.107	86.945	-0.095	0.106
-253.092	-200.000	0.016	0.082
-252.078	175.589	0.124	0.180
-251.063	-200.000	0.010	0.362
-250.049	-159.503	-0.266	0.015
-249.034	-200.000	0.026	0.130
-248.019	-200.000	0.154	0.000
-247.005	-141.221	-0.209	-0.021
-245.990	-89.096	0.108	-0.032
-244.976	88.688	-0.172	0.192
-243.961	671.895	-0.019	0.050
-242.946	-62.936	-0.050	-0.021
-241.932	52.221	-0.095	-0.090
-240.917	352.800	-0.097	-0.192
-239.903	800.000	-0.186	0.565
-238.888	217.081	-0.117	0.188
-237.873	-62.491	0.099	-0.041
-236.859	-169.120	0.139	0.005
-235.844	-58.493	-0.088	-0.039
-234.830	-41.259	0.297	-0.153
-233.815	800.000	0.098	-0.290
-232.800	-29.787	-0.349	-0.200
-231.786	-155.764	-0.124	-0.008
-230.771	36.587	0.261	0.231
-229.757	348.049	0.123	0.243
-228.742	241.715	-0.103	0.172
-227.727	117.743	0.100	0.123
-226.713	800.000	-0.067	-0.197
-225.698	800.000	0.087	-0.253
-224.684	-146.001	-0.063	0.006
-223.669	-200.000	0.046	-0.362
-222.655	101.773	-0.162	-0.190
-221.640	358.705	-0.128	0.257
-220.625	-200.000	0.002	-0.151
-219.611	-28.382	0.054	-0.031
-218.596	-200.000	0.014	0.196
-217.582	-200.000	-0.025	-0.128
-216.567	212.719	-0.162	0.257
-215.552	-76.451	0.243	0.086
-214.538	-94.661	-0.166	-0.045
-213.523	65.158	0.179	-0.181
-212.509	-20.541	-0.312	-0.192
-211.494	-52.452	-0.099	-0.046
-210.479	-87.598	0.387	-0.117
-209.465	-117.467	0.342	-0.062
-208.450	-59.955	0.104	0.045
-207.436	512.806	0.108	0.252
-206.421	120.034	0.117	0.146
-205.406	-97.614	0.093	0.024
-204.392	-91.112	-0.321	0.092
-203.377	514.042	0.183	0.428
-202.363	-200.000	0.002	0.195
-201.348	-52.948	-0.209	-0.096
-200.333	100.731	0.188	0.219
-199.319	504.742	-0.074	0.172
-198.304	-54.745	-0.123	0.056
-197.290	305.443	-0.039	-0.072
-196.275	206.082	-0.196	-0.306
-195.260	-32.629	0.359	0.200
-194.246	585.989	-0.067	0.166
-193.231	127.493	-0.127	-0.162
-192.217	17.981	0.144	-0.115
-191.202	-129.037	-0.248	-0.035
-190.187	-66.555	-0.103	-0.041
-189.173	-200.000	-0.058	0.293
-188.158	800.000	0.048	-0.171
-187.144	-109.529	0.086	0.018
-186.129	369.651	0.090	-0.182
-185.114	298.237	0.144	0.264
-184.100	-51.842	-0.089	-0.041
-183.085	-200.000	-0.055	-0.255
-182.071	63.279	-0.139	-0.139
-181.056	193.538	-0.052	-0.078
-180.042	-147.131	-0.239	0.020
-179.027	800.000	0.034	0.135
-178.012	151.797	0.151	-0.206
-176.998	37.307	-0.030	0.027
-175.983	-88.836	-0.147	0.044
-174.969	-88.282	0.383	0.115
-173.954	-137.485	-0.106	0.012
-172.939	-200.000	0.004	0.145
-171.925	-92.184	-0.145	0.041
-170.910	-200.000	0.042	0.369
-169.896	-89.668	-0.184	-0.054
-168.881	-200.000	0.028	0.227
-167.866	418.888	0.131	0.280
-166.852	-200.000	0.048	0.353
-165.837	148.121	0.069	-0.093
-164.823	-92.516	-0.126	0.035
-163.808	-60.680	0.237	0.101
-162.793	-11.306	0.270	0.178
-161.779	320.606	-0.201	-0.382
-160.764	212.489	-0.123	0.194
-159.750	159.035	0.011	0.016
-158.735	-120.343	-0.224	-0.038
-157.720	-176.392	0.189	-0.005
-156.706	-141.881	0.310	-0.031
-155.691	-75.936	0.328	0.116
-154.677	800.000	-0.066	-0.273
-153.662	13.209	0.196	-0.152
-152.647	-133.006	0.166	-0.021
-151.633	142.563	0.202	-0.268
-150.618	-123.331	-0.489	0.078
-149.604	151.337	-0.137	0.187
-148.589	-154.609	0.269	-0.018
-147.574	-200.000	0.019	-0.195
-146.560	-27.178	-0.182	-0.106
-145.545	-59.390	0.101	-0.043
-144.531	164.746	-0.187	0.264
-143.516	47.161	-0.329	0.306
-142.502	-64.483	-0.196	-0.080
-141.487	800.000	0.076	-0.244
-140.472	20.924	0.085	0.069
-139.458	800.000	-0.115	-0.329
-138.443	-200.000	-0.012	-0.280
-137.429	-21.547	-0.159	0.097
-136.414	800.000	0.138	0.437
-135.399	188.890	0.143	0.214
-134.385	-82.438	-0.071	0.023
-133.370	-96.707	0.236	0.062
-132.356	234.757	-0.053	-0.087
-131.341	-73.725	-0.052	0.019
-130.326	255.085	-0.138	0.236
-129.312	19.329	-0.127	-0.102
-128.297	248.232	-0.047	-0.079
-127.283	591.671	0.070	-0.171
-126.268	148.546	-0.158	0.213
-125.253	110.523	-0.046	0.055
-124.239	-145.155	0.101	-0.009
-123.224	-84.707	-0.237	0.074
-122.210	800.000	0.069	0.251
