DTS Sentinel unit serial number:	SN413079Multiplexer serial number:	ORYXHardware model number:	OX4-SRSoftware version number:	ORYX F/W v4.00 Oryx Data Collector v3.7.2.0data status	okinstallation	princeton_trtdifferential loss correction	single-endedforward channel	channel 4reverse channel	N/Adate	2019/09/17time	12:53:35forward acquisition time	60.00reverse acquisition time	0.00gamma	496.2192k internal	0.2301k external	0.2301temperature offset calibration	0.9986default loss term (dB/km)	0.3790temperature slope calibration	1.0000multiplexer offset coefficient	1.0000multiplexer slope coefficient	1.0000fibre end	0.00T internal ref (°C)	32.98T ext. ref 1 (°C)	0.41T ext. ref 2 (°C)	31.27length (m)	temperature (°C)	Stokes	anti-Stokes-747.200	303.704	-0.233	0.440
-746.185	22.907	-0.135	0.112
-745.171	122.524	-0.152	-0.194
-744.156	800.000	0.096	0.404
-743.142	-161.677	0.214	-0.011
-742.127	800.000	-0.060	0.191
-741.112	27.211	0.209	0.179
-740.098	-38.981	-0.209	-0.112
-739.083	-200.000	0.023	0.130
-738.069	361.154	0.126	0.258
-737.054	-57.445	-0.396	-0.177
-736.039	800.000	0.088	0.289
-735.025	-200.000	-0.062	0.312
-734.010	-200.000	0.003	-0.204
-732.996	800.000	-0.111	0.352
-731.981	286.102	-0.065	0.119
-730.966	-200.000	-0.043	-0.372
-729.952	-122.257	-0.103	-0.017
-728.937	737.041	-0.074	-0.201
-727.923	109.230	0.127	0.154
-726.908	-5.457	-0.305	-0.213
-725.894	25.715	-0.286	0.243
-724.879	201.407	-0.044	0.069
-723.864	-200.000	0.022	0.097
-722.850	-200.000	0.020	-0.103
-721.835	-91.638	-0.291	-0.084
-720.821	20.867	-0.126	-0.104
-719.806	44.941	-0.253	-0.237
-718.791	-200.000	0.059	-0.445
-717.777	104.963	0.138	-0.166
-716.762	-60.593	0.163	-0.070
-715.748	-89.276	-0.602	-0.181
-714.733	-77.097	0.205	-0.073
-713.718	50.371	-0.206	-0.198
-712.704	-200.000	0.001	-0.037
-711.689	-200.000	-0.232	0.001
-710.675	104.960	0.076	-0.092
-709.660	-200.000	-0.011	0.139
-708.645	-36.795	0.201	-0.110
-707.631	5.799	0.342	-0.258
-706.616	-51.262	-0.233	-0.111
-705.602	235.982	0.047	0.079
-704.587	-59.034	0.065	0.029
-703.572	34.061	-0.160	0.142
-702.558	66.252	-0.088	-0.091
-701.543	-3.065	-0.238	-0.169
-700.529	800.000	0.073	-0.309
-699.514	-188.118	0.474	0.006
-698.499	-200.000	-0.006	-0.232
-697.485	-130.234	-0.269	-0.037
-696.470	-200.000	-0.009	-0.284
-695.456	107.917	-0.245	-0.297
-694.441	-66.842	-0.080	0.032
-693.426	-131.012	0.195	0.026
-692.412	480.766	0.049	-0.114
-691.397	16.709	0.263	0.212
-690.383	-200.000	-0.053	-0.320
-689.368	-18.493	-0.199	-0.126
-688.354	587.138	0.042	-0.105
-687.339	-59.613	-0.130	0.057
-686.324	48.605	-0.111	-0.106
-685.310	800.000	0.040	-0.165
-684.295	-200.000	0.009	-0.069
-683.281	60.470	-0.144	-0.145
-682.266	59.538	0.085	-0.086
-681.251	-42.847	-0.145	0.075
-680.237	176.952	-0.257	-0.380
-679.222	-152.882	0.238	0.017
-678.208	391.670	-0.166	-0.351
-677.193	-35.822	-0.124	0.068
-676.178	658.480	-0.101	-0.264
-675.164	275.117	0.039	0.070
-674.149	800.000	-0.080	0.328
-673.135	107.994	-0.186	-0.225
-672.120	-71.783	-0.105	0.040
-671.105	477.478	-0.080	0.185
-670.091	-44.646	-0.166	0.084
-669.076	-59.389	0.081	0.036
-668.062	-11.741	-0.148	0.099
-667.047	-57.332	-0.217	0.097
-666.032	-46.835	-0.322	0.160
-665.018	800.000	-0.055	-0.228
-664.003	-151.474	0.310	0.023
-662.989	-200.000	-0.007	-0.136
-661.974	800.000	-0.047	-0.145
-660.959	-26.018	-0.092	0.055
-659.945	336.185	0.106	-0.209
-658.930	-200.000	-0.015	0.195
-657.916	-137.663	-0.083	-0.010
-656.901	264.242	-0.255	0.451
-655.886	-200.000	0.004	-0.263
-654.872	64.666	0.135	0.138
-653.857	-28.699	-0.208	0.122
-652.843	267.219	-0.127	0.226
-651.828	-3.947	0.074	0.052
-650.814	-12.804	0.193	0.128
-649.799	79.768	-0.182	0.199
-648.784	-11.794	0.127	-0.085
-647.770	-200.000	0.006	-0.103
-646.755	-200.000	-0.016	0.215
-645.741	129.572	-0.104	0.135
-644.726	319.284	0.036	-0.070
-643.711	-63.990	0.357	0.148
-642.697	-200.000	-0.002	0.012
-641.682	215.296	0.294	-0.474
-640.668	-200.000	-0.004	-0.050
-639.653	-118.522	-0.156	-0.028
-638.638	-200.000	-0.066	0.484
-637.624	-200.000	-0.026	-0.122
-636.609	800.000	-0.044	0.170
-635.595	-166.923	0.289	-0.012
-634.580	36.420	0.070	0.063
-633.565	708.834	-0.146	-0.392
-632.551	-200.000	0.002	-0.249
-631.536	-200.000	-0.001	0.032
-630.522	-200.000	0.029	-0.176
-629.507	800.000	0.032	-0.100
-628.492	-70.611	0.090	0.034
-627.478	482.892	0.041	-0.095
-626.463	-200.000	-0.035	-0.317
-625.449	-104.172	-0.244	-0.058
-624.434	123.780	0.184	0.235
-623.419	-24.322	0.058	-0.035
-622.405	-126.898	0.330	0.049
-621.390	-15.036	-0.038	-0.025
-620.376	800.000	-0.138	-0.480
-619.361	-58.619	0.271	-0.119
-618.346	417.592	-0.106	-0.229
-617.332	-45.324	0.083	0.042
-616.317	-200.000	-0.014	0.102
-615.303	82.610	0.229	0.252
-614.288	-50.376	0.099	0.048
-613.273	-0.287	0.179	-0.129
-612.259	330.462	-0.119	0.233
-611.244	-53.763	0.120	0.056
-610.230	800.000	0.106	-0.346
-609.215	-128.229	0.123	-0.018
-608.201	-12.193	-0.241	0.160
-607.186	318.778	0.047	-0.091
-606.171	-127.118	-0.166	0.025
-605.157	-39.996	0.025	0.013
-604.142	800.000	0.143	-0.437
-603.128	-98.938	0.349	-0.090
-602.113	-200.000	-0.019	0.100
-601.098	157.379	-0.203	0.285
-600.084	-48.452	0.189	-0.092
-599.069	-90.903	-0.215	-0.063
-598.055	-165.163	0.127	-0.006
-597.040	234.281	-0.075	-0.125
-596.025	117.038	-0.154	-0.191
-595.011	-200.000	-0.023	0.148
-593.996	67.948	0.345	0.358
-592.982	-44.305	-0.078	0.040
-591.967	-72.647	-0.410	0.153
-590.952	-6.092	-0.154	0.107
-589.938	-62.705	-0.278	0.117
-588.923	-121.507	0.262	-0.044
-587.909	-109.022	0.210	-0.045
-586.894	-200.000	-0.009	-0.048
-585.879	181.108	0.091	0.136
-584.865	800.000	0.078	-0.291
-583.850	-114.315	-0.123	-0.024
-582.836	666.284	0.078	0.205
-581.821	446.678	-0.110	0.246
-580.806	665.591	0.139	-0.364
-579.792	800.000	-0.033	-0.141
-578.777	453.320	-0.054	0.120
-577.763	612.393	0.135	0.343
-576.748	-32.226	-0.323	-0.182
-575.733	290.971	0.141	0.259
-574.719	-161.460	0.309	0.016
-573.704	-9.247	-0.223	-0.151
-572.690	-35.358	0.224	-0.123
-571.675	242.811	-0.067	-0.114
-570.661	519.413	0.048	0.113
-569.646	505.497	0.049	-0.114
-568.631	-200.000	0.001	-0.213
-567.617	800.000	-0.051	0.188
-566.602	-200.000	-0.013	0.119
-565.588	419.947	0.124	-0.270
-564.573	-76.691	-0.125	-0.045
-563.558	-128.816	0.395	-0.056
-562.544	5.499	-0.148	0.111
-561.529	-132.993	0.619	-0.080
-560.515	198.618	-0.164	-0.255
-559.500	177.730	-0.121	-0.178
-558.485	36.366	-0.121	0.108
-557.471	421.755	-0.056	-0.122
-556.456	143.039	0.164	0.221
-555.442	126.924	0.076	-0.098
-554.427	13.274	0.150	-0.118
-553.412	-169.607	-0.293	0.011
-552.398	-119.918	0.136	-0.024
-551.383	-200.000	0.027	-0.335
-550.369	15.230	0.142	-0.113
-549.354	-200.000	-0.009	0.100
-548.339	800.000	0.114	-0.325
-547.325	-28.712	0.066	-0.039
-546.310	51.616	-0.093	-0.089
-545.296	-200.000	-0.021	0.315
-544.281	-200.000	-0.047	0.221
-543.266	-110.350	0.426	0.090
-542.252	-181.967	-0.241	-0.005
-541.237	-89.325	0.297	0.088
-540.223	-7.713	-0.042	-0.029
-539.208	242.229	0.109	0.185
-538.193	-59.747	-0.343	-0.149
-537.179	-63.072	0.138	-0.058
-536.164	253.998	0.137	0.236
-535.150	-95.493	-0.486	0.132
-534.135	34.761	0.159	0.140
-533.121	800.000	-0.094	0.414
-532.106	-200.000	0.034	-0.392
-531.091	800.000	0.071	-0.265
-530.077	-200.000	0.010	-0.214
-529.062	-143.103	0.377	-0.037
-528.048	-65.515	0.080	-0.032
-527.033	22.485	0.112	-0.093
-526.018	616.117	-0.079	0.201
-525.004	-101.443	-0.423	0.104
-523.989	-31.237	-0.168	-0.096
-522.975	330.971	-0.047	0.092
-521.960	-200.000	0.005	0.051
-520.945	-17.152	-0.329	-0.209
-519.931	-36.713	-0.147	0.080
-518.916	800.000	0.014	-0.048
-517.902	-4.194	0.136	0.095
-516.887	-59.734	0.067	0.029
-515.872	352.206	0.094	0.187
-514.858	-118.669	0.381	0.068
-513.843	237.459	-0.104	-0.174
-512.829	800.000	-0.108	-0.366
-511.814	52.345	-0.145	0.140
-510.799	-200.000	-0.022	-0.247
-509.785	-182.038	-0.161	0.003
-508.770	46.660	0.071	-0.067
-507.756	-200.000	-0.014	-0.262
-506.741	-200.000	-0.034	0.220
-505.726	41.109	-0.186	-0.170
-504.712	6.990	-0.183	-0.138
-503.697	-69.155	-0.237	-0.092
-502.683	135.903	0.088	-0.116
-501.668	256.038	-0.050	-0.087
-500.653	1.284	-0.189	0.137
-499.639	412.221	0.194	0.416
-498.624	198.726	0.083	0.129
-497.610	186.471	0.088	-0.132
-496.595	-31.032	0.234	-0.133
-495.581	-136.958	0.111	0.013
-494.566	-197.757	0.468	-0.003
-493.551	198.266	0.085	0.132
-492.537	151.386	-0.067	0.091
-491.522	-200.000	0.000	-0.117
-490.508	800.000	-0.042	-0.147
-489.493	355.543	-0.082	-0.166
-488.478	24.991	-0.047	0.040
-487.464	34.873	-0.067	-0.059
-486.449	28.288	0.299	0.255
-485.435	604.825	0.047	-0.117
-484.420	-142.189	-0.260	-0.026
-483.405	-200.000	0.010	-0.118
-482.391	43.525	-0.159	0.147
-481.376	-55.782	0.162	-0.073
-480.362	41.661	0.196	-0.179
-479.347	-200.000	-0.001	-0.140
-478.332	-15.646	-0.259	-0.167
-477.318	800.000	0.061	-0.239
-476.303	-100.567	-0.114	0.028
-475.289	23.346	0.132	-0.110
-474.274	-116.131	-0.219	0.041
-473.259	410.463	-0.128	0.273
-472.245	-42.373	-0.238	-0.122
-471.230	-200.000	0.067	0.315
-470.216	-119.527	-0.175	-0.031
-469.201	290.153	-0.085	0.156
-468.186	462.064	0.067	-0.152
-467.172	351.946	0.289	0.578
-466.157	-124.142	0.073	-0.011
-465.143	124.803	0.161	-0.204
-464.128	-23.484	0.126	-0.076
-463.113	200.885	0.022	0.035
-462.099	-144.533	0.102	-0.010
-461.084	-200.000	-0.033	-0.299
-460.070	-200.000	-0.004	0.034
-459.055	117.136	-0.246	0.305
-458.040	301.777	0.054	0.101
-457.026	800.000	0.027	0.111
-456.011	-32.005	0.360	-0.203
-454.997	232.193	-0.164	0.271
-453.982	-70.890	-0.154	0.059
-452.968	-124.821	0.256	0.040
-451.953	800.000	0.095	-0.266
-450.938	73.099	-0.147	-0.155
-449.924	-11.238	0.068	0.045
-448.909	-200.000	-0.017	0.171
-447.895	-84.389	-0.210	-0.067
-446.880	8.232	0.074	0.056
-445.865	-134.661	0.146	0.018
-444.851	86.197	-0.082	-0.091
-443.836	-180.912	-0.223	0.005
-442.822	-4.463	-0.133	0.093
-441.807	-68.023	-0.196	0.077
-440.792	-144.487	0.235	0.022
-439.778	-119.078	-0.083	0.015
-438.763	385.345	-0.035	0.072
-437.749	-92.026	-0.129	0.037
-436.734	72.059	-0.089	-0.093
-435.719	800.000	0.033	-0.129
-434.705	463.770	-0.041	-0.093
-433.690	-18.339	0.445	-0.280
-432.676	98.148	-0.322	-0.373
-431.661	571.153	-0.103	0.251
-430.646	-111.053	-0.051	0.011
-429.632	-138.835	-0.317	-0.035
-428.617	-116.962	0.125	-0.023
-427.603	800.000	0.042	-0.142
-426.588	-100.371	-0.126	-0.031
-425.573	85.401	0.124	0.137
-424.559	31.672	0.232	0.201
-423.544	106.167	-0.085	0.101
-422.530	22.195	0.186	0.153
-421.515	113.526	0.343	0.419
-420.500	-200.000	0.074	-0.337
-419.486	800.000	-0.041	0.150
-418.471	299.081	-0.089	0.166
-417.457	82.025	-0.060	0.066
-416.442	-71.186	0.179	0.068
-415.428	110.056	0.228	0.276
-414.413	-200.000	0.011	0.309
-413.398	335.900	-0.129	0.253
-412.384	54.207	0.255	-0.247
-411.369	-70.992	-0.034	-0.013
-410.355	-147.287	0.019	0.002
-409.340	-136.990	-0.128	0.015
-408.325	-93.175	-0.033	0.009
-407.311	-200.000	-0.057	0.589
-406.296	-200.000	0.003	-0.259
-405.282	190.416	0.111	-0.168
-404.267	-86.725	0.163	0.050
-403.252	-121.212	0.187	0.031
-402.238	40.748	0.110	0.100
-401.223	-21.325	0.058	-0.036
-400.209	-33.931	-0.141	-0.078
-399.194	-119.282	0.158	0.028
-398.179	99.053	0.067	-0.078
-397.165	-78.635	0.208	0.072
-396.150	800.000	-0.031	-0.098
-395.136	231.115	0.256	-0.422
-394.121	-155.920	-0.089	-0.006
-393.106	-200.000	-0.014	-0.493
-392.092	-200.000	-0.002	0.069
-391.077	-188.648	0.211	0.003
-390.063	-200.000	-0.034	-0.171
-389.048	-101.999	-0.090	0.022
-388.033	21.685	0.340	-0.278
-387.019	-200.000	-0.010	-0.472
-386.004	75.238	-0.240	-0.254
-384.990	-130.226	0.226	0.031
-383.975	-47.759	-0.201	0.098
-382.960	-50.799	0.054	0.026
-381.946	800.000	0.065	0.258
-380.931	-200.000	0.018	0.358
-379.917	144.727	-0.052	0.070
-378.902	217.492	0.133	0.213
-377.888	-200.000	-0.054	0.246
-376.873	-99.657	-0.261	-0.066
-375.858	-71.960	-0.158	0.059
-374.844	800.000	-0.123	0.421
-373.829	317.255	-0.141	-0.267
-372.815	58.410	-0.055	-0.054
-371.800	224.539	-0.102	-0.165
-370.785	800.000	-0.058	-0.172
-369.771	800.000	-0.025	-0.085
-368.756	110.710	0.279	-0.337
-367.742	-24.659	-0.335	-0.200
-366.727	-123.273	-0.073	0.012
-365.712	24.441	0.055	-0.045
-364.698	-200.000	0.012	-0.083
-363.683	324.165	-0.078	-0.149
-362.669	-137.434	-0.147	-0.017
-361.654	800.000	-0.067	0.249
-360.639	800.000	0.078	0.242
-359.625	-74.390	-0.308	-0.112
-358.610	60.439	-0.132	-0.132
-357.596	506.631	0.135	0.314
-356.581	-168.549	-0.346	-0.013
-355.566	-33.509	-0.003	-0.002
-354.552	45.949	0.085	0.079
-353.537	171.677	-0.091	-0.131
-352.523	4.424	0.278	0.204
-351.508	22.603	0.296	0.243
-350.493	135.007	0.029	-0.038
-349.479	110.561	0.091	-0.110
-348.464	489.986	-0.073	0.167
-347.450	-200.000	-0.008	0.117
-346.435	-119.698	-0.443	0.077
-345.420	-97.106	-0.330	0.087
-344.406	800.000	0.142	0.422
-343.391	800.000	-0.038	0.163
-342.377	192.509	-0.106	0.161
-341.362	168.414	-0.244	0.349
-340.348	800.000	0.025	0.084
-339.333	-151.370	0.137	-0.010
-338.318	557.452	0.060	-0.145
-337.304	-33.391	0.021	0.012
-336.289	-100.959	-0.183	0.045
-335.275	-56.759	-0.283	0.126
-334.260	-108.181	-0.533	0.116
-333.245	-157.272	0.107	0.006
-332.231	-116.660	0.321	-0.059
-331.216	48.700	0.117	0.110
-330.202	800.000	0.040	-0.134
-329.187	12.041	-0.215	-0.166
-328.172	209.820	0.078	-0.123
-327.158	800.000	0.080	0.241
-326.143	86.877	-0.338	0.375
-325.129	-200.000	-0.068	0.616
-324.114	-28.409	0.070	0.040
-323.099	-86.231	-0.152	0.047
-322.085	413.888	0.094	-0.201
-321.070	-4.215	-0.107	0.075
-320.056	2.859	-0.041	-0.030
-319.041	-151.578	-0.612	-0.045
-318.026	-61.254	0.176	0.074
-317.012	181.942	0.111	0.164
-315.997	460.688	-0.136	0.304
-314.983	-62.461	-0.271	-0.113
-313.968	151.530	-0.071	0.097
-312.953	41.309	0.218	-0.197
-311.939	193.866	0.241	0.366
-310.924	450.939	0.066	0.145
-309.910	102.370	-0.263	-0.308
-308.895	-81.663	0.271	-0.089
-307.880	-169.089	0.320	0.012
-306.866	172.932	-0.144	0.207
-305.851	-200.000	0.040	0.356
-304.837	93.469	-0.209	-0.237
-303.822	-47.730	-0.055	0.026
-302.807	33.493	-0.134	0.117
-301.793	330.822	0.130	0.250
-300.778	-58.097	-0.240	-0.105
-299.764	79.417	-0.254	-0.273
-298.749	103.116	0.174	-0.205
-297.735	145.233	0.074	-0.100
-296.720	800.000	0.095	0.315
-295.705	-183.202	0.215	0.004
-294.691	-139.851	-0.203	-0.022
-293.676	-200.000	0.027	-0.317
-292.662	196.487	-0.086	0.131
-291.647	-77.320	0.148	0.052
-290.632	370.937	0.064	0.130
-289.618	-200.000	-0.023	-0.215
-288.603	80.792	-0.196	0.211
-287.589	-200.000	-0.017	-0.120
-286.574	-153.292	-0.073	-0.005
-285.559	-37.090	-0.378	-0.203
-284.545	-200.000	-0.039	0.310
-283.530	86.247	0.084	0.093
-282.516	-60.986	0.451	0.191
-281.501	-35.542	-0.403	-0.219
-280.486	229.251	0.023	0.037
-279.472	73.138	0.052	0.054
-278.457	-120.795	-0.160	0.027
-277.443	-200.000	-0.019	0.158
-276.428	-79.541	0.254	-0.086
-275.413	252.247	-0.147	-0.251
-274.399	-149.822	0.098	0.008
-273.384	-60.160	-0.088	0.038
-272.370	-161.763	0.103	-0.005
-271.355	-7.272	0.207	-0.140
-270.340	800.000	-0.043	-0.169
-269.326	114.980	0.150	0.183
-268.311	-50.171	-0.218	-0.103
-267.297	-200.000	0.000	0.294
-266.282	800.000	0.057	-0.191
-265.267	38.940	0.264	-0.236
-264.253	57.076	-0.058	0.056
-263.238	-95.123	-0.349	-0.094
-262.224	41.164	0.056	-0.051
-261.209	-200.000	0.013	0.058
-260.195	-157.485	0.389	0.023
-259.180	-80.386	-0.177	-0.059
-258.165	71.349	-0.127	0.132
-257.151	-200.000	0.045	-0.264
-256.136	-21.980	0.236	-0.143
-255.122	504.344	0.093	0.215
-254.107	1.189	0.295	-0.212
-253.092	165.999	-0.223	0.316
-252.078	-154.541	0.215	0.014
-251.063	-102.546	-0.375	-0.090
-250.049	799.147	-0.083	-0.229
-249.034	151.448	0.225	-0.306
-248.019	800.000	0.023	0.072
-247.005	-122.211	0.044	0.007
-245.990	-25.991	-0.135	-0.080
-244.976	-163.699	0.037	0.002
-243.961	7.028	-0.170	-0.127
-242.946	220.912	-0.192	-0.308
-241.932	80.194	0.119	-0.128
-240.917	-98.302	0.100	-0.026
-239.903	-29.270	-0.341	-0.195
-238.888	203.944	0.231	-0.358
-237.873	260.325	-0.130	-0.224
-236.859	106.336	-0.250	-0.296
-235.844	399.841	0.154	0.322
-234.830	-144.467	0.268	0.025
-233.815	800.000	-0.042	-0.172
-232.800	800.000	0.024	0.078
-231.786	-170.329	0.128	-0.004
-230.771	124.453	-0.387	-0.486
-229.757	-200.000	0.022	0.142
-228.742	-72.103	0.009	-0.003
-227.727	-200.000	-0.023	-0.231
-226.713	-130.506	0.099	-0.013
-225.698	800.000	0.038	0.150
-224.684	-163.219	-0.171	-0.008
-223.669	132.425	-0.083	-0.107
-222.655	-34.194	-0.283	0.155
-221.640	25.118	-0.091	-0.075
-220.625	-200.000	0.024	-0.290
-219.611	800.000	0.144	0.474
-218.596	-136.926	0.031	0.004
-217.582	-200.000	0.013	-0.163
-216.567	540.875	-0.128	-0.304
-215.552	-200.000	0.067	0.425
-214.538	579.689	0.097	0.238
-213.523	-73.304	0.149	-0.054
-212.509	14.155	-0.126	0.098
-211.494	-106.450	0.269	0.060
-210.479	800.000	0.072	-0.250
-209.465	800.000	-0.044	0.160
-208.450	800.000	-0.090	0.380
-207.436	31.571	0.120	-0.103
-206.421	800.000	0.110	0.325
-205.406	89.301	-0.162	0.180
-204.392	800.000	0.065	0.195
-203.377	307.800	-0.026	-0.048
-202.363	32.389	0.089	-0.077
-201.348	-26.397	-0.195	-0.114
-200.333	-43.299	-0.208	0.105
-199.319	90.492	0.060	0.067
-198.304	-200.000	-0.016	0.150
-197.290	12.235	0.222	-0.171
-196.275	287.003	-0.172	0.310
-195.260	-108.719	0.170	0.036
-194.246	-200.000	0.018	-0.123
-193.231	-200.000	-0.042	0.236
-192.217	-60.911	0.071	-0.030
-191.202	800.000	0.088	0.267
-190.187	800.000	-0.099	-0.288
-189.173	114.491	0.222	-0.270
-188.158	-138.388	0.147	-0.016
-187.144	-77.354	0.075	-0.026
-186.129	118.986	-0.309	0.381
-185.114	657.293	-0.122	-0.314
-184.100	587.224	0.104	-0.255
-183.085	800.000	0.062	-0.201
-182.071	-94.420	-0.062	-0.017
-181.056	800.000	0.011	0.036
-180.042	423.304	0.098	0.209
-179.027	-8.973	-0.172	0.115
-178.012	800.000	0.081	0.258
-176.998	-200.000	-0.024	0.270
-175.983	-200.000	0.002	0.131
-174.969	98.320	0.070	-0.081
-173.954	720.105	-0.124	0.328
-172.939	301.407	-0.041	-0.075
-171.925	56.774	0.145	0.140
-170.910	800.000	-0.128	0.387
-169.896	-33.112	-0.107	-0.059
-168.881	19.524	0.174	-0.140
-167.866	4.067	-0.047	-0.034
-166.852	-25.658	0.215	-0.127
-165.837	-29.886	-0.156	-0.089
-164.823	112.863	-0.012	0.015
-163.808	451.343	0.144	-0.318
-162.793	-72.781	0.202	-0.074
-161.779	-68.387	0.056	-0.022
-160.764	110.877	-0.140	0.167
-159.750	-172.656	0.300	-0.009
-158.735	0.955	-0.320	-0.229
-157.720	800.000	0.053	-0.208
-156.706	168.512	-0.075	-0.106
-155.691	-15.656	-0.286	-0.182
-154.677	163.998	-0.162	0.227
-153.662	-200.000	-0.009	0.097
-152.647	743.812	-0.079	0.212
-151.633	-37.181	-0.194	-0.103
-150.618	-122.318	-0.168	0.027
-149.604	363.142	0.172	-0.344
-148.589	-126.230	0.092	0.014
-147.574	11.508	-0.131	0.100
-146.560	-141.517	-0.297	0.030
-145.545	228.734	-0.155	0.251
-144.531	-27.410	0.125	-0.073
-143.516	800.000	0.053	0.178
-142.502	-59.700	0.039	-0.016
-141.487	-4.577	0.114	0.079
-140.472	147.500	0.120	0.161
-139.458	72.328	0.183	-0.190
-138.443	800.000	0.078	-0.325
-137.429	800.000	0.147	-0.529
-136.414	-200.000	-0.023	-0.329
-135.399	-193.278	0.401	0.004
-134.385	-200.000	0.017	-0.123
-133.370	-30.661	-0.168	-0.095
-132.356	-192.523	0.268	0.002
-131.341	87.894	0.062	-0.068
-130.326	-36.988	-0.103	0.055
-129.312	-68.111	-0.369	-0.143
-128.297	-200.000	-0.029	0.262
-127.283	-107.523	0.657	0.143
-126.268	-123.618	-0.569	0.090
-125.253	81.653	0.228	-0.246
-124.239	-123.115	-0.227	-0.036
-123.224	-30.195	0.290	0.164
-122.210	86.666	-0.181	-0.198
-121.195	-200.000	-0.086	-0.399
