DTS Sentinel unit serial number:	SN413079Multiplexer serial number:	ORYXHardware model number:	OX4-SRSoftware version number:	ORYX F/W v4.00 Oryx Data Collector v3.7.2.0data status	okinstallation	princeton_trtdifferential loss correction	single-endedforward channel	channel 4reverse channel	N/Adate	2019/09/16time	18:45:34forward acquisition time	60.00reverse acquisition time	0.00gamma	496.2192k internal	0.2303k external	0.2303temperature offset calibration	0.9964default loss term (dB/km)	0.3790temperature slope calibration	1.0000multiplexer offset coefficient	1.0000multiplexer slope coefficient	1.0000fibre end	0.00T internal ref (°C)	36.11T ext. ref 1 (°C)	0.08T ext. ref 2 (°C)	29.44length (m)	temperature (°C)	Stokes	anti-Stokes-747.200	194.153	-0.110	-0.170
-746.185	800.000	-0.116	0.374
-745.171	-5.441	0.191	0.134
-744.156	800.000	0.053	0.207
-743.142	35.595	-0.102	-0.091
-742.127	-64.078	0.378	0.157
-741.112	82.952	-0.114	0.126
-740.098	21.788	-0.187	0.155
-739.083	115.146	0.095	-0.118
-738.069	-20.689	-0.213	0.133
-737.054	-58.435	-0.153	-0.068
-736.039	-83.547	-0.444	0.145
-735.025	-158.547	0.427	0.025
-734.010	800.000	-0.035	-0.144
-732.996	66.147	-0.217	0.224
-731.981	-17.926	-0.415	0.265
-730.966	800.000	-0.023	-0.089
-729.952	222.552	0.018	0.030
-728.937	263.457	-0.111	-0.196
-727.923	33.345	0.224	-0.198
-726.908	-125.979	-0.063	-0.010
-725.894	-58.262	0.293	-0.130
-724.879	103.516	-0.223	0.266
-723.864	151.497	0.103	-0.142
-722.850	540.287	-0.071	-0.172
-721.835	416.186	-0.063	-0.136
-720.821	800.000	0.071	0.218
-719.806	-151.564	0.487	-0.037
-718.791	-143.983	0.286	-0.027
-717.777	141.617	0.077	0.104
-716.762	-200.000	0.052	0.261
-715.748	-20.565	0.140	0.087
-714.733	800.000	-0.043	-0.174
-713.718	-200.000	-0.013	0.435
-712.704	-65.032	-0.111	0.046
-711.689	-13.943	0.139	0.091
-710.675	370.344	0.105	-0.216
-709.660	239.363	-0.089	0.150
-708.645	-81.206	-0.154	-0.052
-707.631	-99.365	0.297	-0.076
-706.616	-93.497	0.218	-0.061
-705.602	83.694	-0.095	0.106
-704.587	-105.537	-0.267	0.062
-703.572	178.666	0.199	-0.295
-702.558	-97.418	0.135	0.036
-701.543	-124.558	-0.171	-0.027
-700.529	60.668	0.299	0.301
-699.514	550.146	0.065	0.158
-698.499	-0.813	0.105	-0.076
-697.485	-200.000	0.036	0.267
-696.470	197.728	-0.190	0.295
-695.456	8.505	-0.233	-0.178
-694.441	-95.577	0.205	-0.056
-693.426	-94.565	0.071	-0.020
-692.412	-200.000	-0.061	-0.441
-691.397	-200.000	0.011	-0.159
-690.383	800.000	-0.021	0.085
-689.368	47.252	-0.211	-0.200
-688.354	123.790	0.128	0.164
-687.339	-130.732	-0.367	0.050
-686.324	-200.000	0.009	-0.145
-685.310	134.814	-0.268	-0.354
-684.295	-100.747	0.048	-0.012
-683.281	-108.883	-0.364	0.079
-682.266	164.482	-0.062	-0.089
-681.251	3.243	-0.103	0.076
-680.237	122.415	0.075	0.095
-679.222	-200.000	-0.059	0.321
-678.208	-200.000	0.021	0.320
-677.193	-141.570	-0.154	-0.016
-676.178	800.000	0.068	0.202
-675.164	-200.000	-0.014	0.253
-674.149	-200.000	-0.075	0.341
-673.135	121.629	0.179	0.226
-672.120	377.494	-0.122	0.254
-671.105	-97.663	0.287	-0.075
-670.091	-200.000	0.061	-0.372
-669.076	439.480	0.064	0.142
-668.062	800.000	-0.144	0.488
-667.047	-142.581	-0.143	0.014
-666.032	707.660	-0.056	-0.150
-665.018	267.368	-0.310	-0.550
-664.003	-135.059	0.304	0.037
-662.989	499.544	0.036	-0.084
-661.974	26.918	-0.136	-0.116
-660.959	12.339	0.270	-0.212
-659.945	-151.507	-0.294	0.022
-658.930	34.667	0.321	-0.285
-657.916	-8.042	-0.114	-0.078
-656.901	-136.942	0.070	-0.008
-655.886	323.967	0.087	-0.168
-654.872	-63.706	0.223	-0.093
-653.857	-200.000	-0.037	0.283
-652.843	144.646	0.017	-0.023
-651.828	558.225	0.116	0.285
-650.814	800.000	-0.031	0.101
-649.799	636.740	0.119	-0.306
-648.784	800.000	-0.061	0.191
-647.770	-200.000	0.057	-0.402
-646.755	-83.264	0.107	0.035
-645.741	-200.000	0.006	0.080
-644.726	220.144	0.194	-0.316
-643.711	299.045	0.016	-0.031
-642.697	800.000	-0.052	0.166
-641.682	123.199	-0.296	0.377
-640.668	7.108	0.131	0.099
-639.653	-127.879	0.454	0.066
-638.638	7.651	0.308	0.234
-637.624	-41.369	-0.156	0.081
-636.609	-159.436	0.188	0.011
-635.595	-59.685	0.138	0.060
-634.580	-31.810	0.350	0.199
-633.565	-26.388	-0.074	-0.044
-632.551	-56.134	-0.104	0.047
-631.536	11.171	-0.206	-0.160
-630.522	800.000	0.042	0.142
-629.507	585.841	0.037	0.093
-628.492	-111.708	0.223	0.046
-627.478	-17.628	-0.236	0.150
-626.463	800.000	-0.027	0.084
-625.449	297.665	0.029	-0.053
-624.434	800.000	0.058	-0.208
-623.419	73.561	0.137	-0.146
-622.405	18.026	0.077	0.062
-621.390	32.959	-0.070	-0.061
-620.376	-104.313	0.093	0.022
-619.361	-100.499	-0.213	0.053
-618.346	800.000	-0.125	0.491
-617.332	800.000	0.012	0.036
-616.317	-83.464	0.101	-0.033
-615.303	56.693	0.050	0.049
-614.288	-30.025	-0.092	0.053
-613.273	242.687	0.072	0.122
-612.259	-200.000	-0.013	-0.128
-611.244	-159.308	0.237	-0.013
-610.230	5.917	0.176	-0.132
-609.215	800.000	-0.137	0.546
-608.201	800.000	0.093	0.353
-607.186	-51.336	-0.173	0.082
-606.171	270.164	0.139	0.247
-605.157	89.311	-0.331	0.373
-604.142	-104.105	0.204	0.048
-603.128	-166.332	-0.098	0.004
-602.113	-107.206	-0.273	-0.061
-601.098	-200.000	-0.013	-0.149
-600.084	-9.761	-0.193	-0.130
-599.069	-200.000	0.018	0.247
-598.055	53.458	-0.189	0.184
-597.040	-72.783	0.156	-0.058
-596.025	800.000	0.166	-0.477
-595.011	-41.112	0.285	0.149
-593.996	-122.444	-0.357	-0.059
-592.982	-155.239	0.041	0.003
-591.967	91.909	-0.092	-0.105
-590.952	67.749	0.287	0.297
-589.938	-200.000	0.032	0.301
-588.923	262.919	0.114	-0.200
-587.909	-1.348	-0.280	-0.200
-586.894	-200.000	0.004	-0.403
-585.879	-28.781	0.328	-0.191
-584.865	34.728	-0.108	0.096
-583.850	-95.375	-0.184	-0.050
-582.836	800.000	-0.073	0.267
-581.821	-5.376	-0.198	0.138
-580.806	479.439	0.087	-0.198
-579.792	-39.083	0.172	-0.092
-578.777	258.451	-0.070	0.121
-577.763	-78.187	-0.119	-0.042
-576.748	-104.298	-0.249	-0.059
-575.733	-66.465	0.125	0.050
-574.719	-116.144	0.108	0.020
-573.704	116.565	0.231	-0.287
-572.690	-115.580	-0.202	-0.038
-571.675	800.000	-0.078	-0.219
-570.661	-135.921	-0.223	0.027
-569.646	-184.677	-0.299	0.005
-568.631	-33.496	-0.274	0.153
-567.617	98.258	-0.184	0.215
-566.602	41.618	-0.064	0.058
-565.588	-26.275	-0.132	-0.078
-564.573	110.550	-0.143	0.174
-563.558	361.282	-0.042	0.085
-562.544	366.572	-0.016	-0.032
-561.529	-123.553	0.174	-0.028
-560.515	-200.000	0.008	0.151
-559.500	-200.000	-0.007	-0.127
-558.485	-65.365	0.406	0.165
-557.471	800.000	-0.015	-0.045
-556.456	770.479	-0.065	0.178
-555.442	166.366	-0.034	-0.049
-554.427	405.860	-0.093	-0.198
-553.412	-99.055	0.316	0.081
-552.398	800.000	0.089	0.290
-551.383	-152.188	0.259	0.019
-550.369	88.730	-0.151	-0.170
-549.354	-200.000	-0.020	-0.457
-548.339	-138.177	0.197	0.022
-547.325	118.782	0.148	-0.184
-546.310	138.835	-0.124	0.164
-545.296	-78.782	-0.234	-0.081
-544.281	4.435	0.143	0.106
-543.266	208.031	0.117	-0.185
-542.252	800.000	-0.044	-0.189
-541.237	-16.851	-0.279	-0.178
-540.223	-92.707	0.324	-0.092
-539.208	-25.604	0.139	0.083
-538.193	31.613	0.221	-0.192
-537.179	-200.000	0.003	-0.099
-536.164	-129.045	-0.085	-0.012
-535.150	54.235	-0.243	-0.236
-534.135	-52.732	0.214	0.100
-533.121	101.961	0.052	-0.061
-532.106	-31.541	-0.423	0.240
-531.091	-138.243	-0.104	-0.012
-530.077	-79.934	0.211	-0.072
-529.062	-26.898	-0.259	-0.153
-528.048	-98.355	-0.259	-0.067
-527.033	481.978	0.097	-0.223
-526.018	-200.000	-0.071	-0.525
-525.004	800.000	-0.063	0.270
-523.989	752.611	-0.026	-0.071
-522.975	6.781	0.212	-0.159
-521.960	800.000	-0.002	-0.009
-520.945	272.672	0.175	0.311
-519.931	-139.043	0.141	0.015
-518.916	102.641	0.129	-0.152
-517.902	-72.916	0.137	0.051
-516.887	220.146	0.044	-0.071
-515.872	590.875	-0.062	-0.154
-514.858	-17.443	-0.236	0.150
-513.843	-126.454	-0.344	0.052
-512.829	-13.434	0.058	-0.038
-511.814	-147.617	0.258	-0.022
-510.799	-97.714	-0.154	-0.040
-509.785	-200.000	0.016	-0.139
-508.770	800.000	0.151	0.512
-507.756	233.299	-0.145	0.241
-506.741	621.096	0.016	0.040
-505.726	9.411	0.147	-0.112
-504.712	-1.474	0.264	-0.188
-503.697	-72.663	0.118	0.044
-502.683	-120.339	0.222	-0.038
-501.668	367.797	0.111	0.226
-500.653	397.413	0.128	-0.270
-499.639	-85.882	0.305	-0.095
-498.624	-195.873	0.160	0.001
-497.610	12.028	-0.102	0.079
-496.595	158.774	-0.108	0.151
-495.581	-111.598	-0.120	0.025
-494.566	-6.210	-0.218	-0.150
-493.551	800.000	0.027	-0.105
-492.537	147.138	-0.028	0.037
-491.522	800.000	-0.149	0.476
-490.508	800.000	-0.062	0.231
-489.493	134.858	-0.099	-0.130
-488.478	-105.691	-0.151	-0.034
-487.464	-200.000	-0.013	0.134
-486.449	418.605	-0.065	0.140
-485.435	103.915	0.062	-0.073
-484.420	-200.000	0.005	-0.202
-483.405	-159.003	0.435	-0.025
-482.391	140.597	-0.021	0.028
-481.376	184.218	-0.175	-0.262
-480.362	394.540	-0.030	0.064
-479.347	171.562	0.084	0.122
-478.332	-142.406	-0.085	-0.008
-477.318	750.215	0.094	-0.255
-476.303	-28.528	-0.079	0.046
-475.289	-70.711	-0.439	0.167
-474.274	424.272	0.166	0.359
-473.259	53.902	0.153	0.148
-472.245	-157.912	-0.207	-0.012
-471.230	-64.480	-0.354	0.145
-470.216	-61.756	-0.136	-0.058
-469.201	317.205	0.079	-0.151
-468.186	3.985	0.186	0.137
-467.172	800.000	-0.092	0.363
-466.157	657.053	-0.025	-0.064
-465.143	83.021	-0.086	-0.094
-464.128	-200.000	0.010	-0.192
-463.113	-136.970	-0.124	0.014
-462.099	-200.000	0.010	-0.122
-461.084	800.000	0.016	-0.056
-460.070	800.000	-0.031	-0.105
-459.055	-91.635	-0.358	0.103
-458.040	62.358	-0.190	0.191
-457.026	-51.661	-0.073	0.034
-456.011	-60.349	-0.269	-0.115
-454.997	-200.000	-0.025	-0.402
-453.982	800.000	-0.023	0.088
-452.968	-200.000	-0.019	-0.116
-451.953	-28.616	0.193	0.112
-450.938	-38.467	-0.144	0.077
-449.924	-122.183	-0.260	0.043
-448.909	306.913	0.163	0.306
-447.895	261.561	-0.142	-0.248
-446.880	-158.129	-0.022	-0.001
-445.865	-200.000	-0.001	-0.020
-444.851	236.697	-0.098	-0.163
-443.836	-25.908	-0.130	0.077
-442.822	281.636	0.094	0.169
-441.807	-86.424	-0.177	0.055
-440.792	-122.642	0.195	0.032
-439.778	59.305	0.142	-0.140
-438.763	-143.293	-0.192	0.019
-437.749	41.818	-0.073	-0.067
-436.734	-200.000	-0.020	0.285
-435.719	-200.000	-0.021	0.109
-434.705	-200.000	-0.018	0.277
-433.690	-23.178	0.305	0.185
-432.676	68.652	0.094	0.097
-431.661	588.187	-0.010	0.026
-430.646	64.372	0.082	0.083
-429.632	-129.110	0.229	-0.032
-428.617	-28.763	-0.142	-0.082
-427.603	-50.789	-0.094	-0.045
-426.588	-40.690	-0.111	0.058
-425.573	-200.000	-0.040	0.264
-424.559	-1.859	-0.102	0.073
-423.544	78.323	-0.113	-0.122
-422.530	63.055	-0.152	-0.154
-421.515	358.014	-0.137	-0.276
-420.500	261.556	0.047	-0.082
-419.486	78.046	-0.098	0.106
-418.471	16.777	0.147	0.117
-417.457	-15.375	-0.189	-0.121
-416.442	-40.481	0.249	0.130
-415.428	-120.257	0.395	-0.068
-414.413	90.688	-0.064	-0.072
-413.398	-83.932	-0.359	0.115
-412.384	-181.433	-0.084	0.002
-411.369	-200.000	0.064	-0.483
-410.355	548.701	-0.080	-0.193
-409.340	-84.296	-0.142	0.045
-408.325	800.000	-0.046	0.194
-407.311	21.719	-0.094	0.077
-406.296	40.973	0.203	0.184
-405.282	262.354	0.244	-0.426
-404.267	40.810	0.041	-0.037
-403.252	265.713	-0.172	0.302
-402.238	4.219	0.202	0.149
-401.223	-200.000	-0.040	0.000
-400.209	-16.448	-0.166	0.106
-399.194	457.092	-0.119	0.266
-398.179	2.843	0.125	-0.091
-397.165	-154.390	-0.283	0.019
-396.150	113.567	-0.214	-0.262
-395.136	451.291	0.078	0.172
-394.121	10.452	-0.086	-0.066
-393.106	-46.683	0.244	0.120
-392.092	781.431	-0.031	0.086
-391.077	800.000	0.080	-0.241
-390.063	187.562	0.140	-0.210
-389.048	786.828	-0.191	-0.526
-388.033	-92.765	-0.257	-0.072
-387.019	54.783	0.119	0.115
-386.004	800.000	-0.072	-0.214
-384.990	42.488	0.270	-0.247
-383.975	-121.350	-0.125	0.021
-382.960	77.715	0.160	0.171
-381.946	-146.809	0.306	-0.027
-380.931	-200.000	-0.051	-0.353
-379.917	-92.435	0.344	0.097
-378.902	-200.000	0.006	-0.055
-377.888	-22.190	-0.059	0.036
-376.873	-200.000	-0.016	-0.080
-375.858	-91.976	-0.234	-0.067
-374.844	800.000	-0.043	0.126
-373.829	48.669	-0.197	0.185
-372.815	-115.932	0.242	-0.045
-371.800	-98.306	-0.191	0.049
-370.785	-200.000	-0.008	-0.145
-369.771	-41.189	0.128	-0.066
-368.756	-200.000	-0.031	-0.242
-367.742	-163.404	0.190	0.009
-366.727	-175.523	0.354	-0.010
-365.712	800.000	-0.082	-0.339
-364.698	-43.451	0.181	-0.092
-363.683	-186.725	-0.170	0.002
-362.669	21.381	-0.130	-0.106
-361.654	362.688	-0.118	0.237
-360.639	-42.431	0.132	-0.068
-359.625	-43.518	0.305	-0.154
-358.610	-164.053	-0.173	-0.008
-357.596	-101.585	0.320	0.078
-356.581	-88.695	-0.092	-0.027
-355.566	25.045	0.310	-0.258
-354.552	-171.789	-0.319	0.010
-353.537	-96.542	0.035	0.009
-352.523	-177.536	-0.277	0.007
-351.508	-200.000	-0.005	0.186
-350.493	6.046	-0.159	0.118
-349.479	431.466	0.087	0.189
-348.464	800.000	-0.069	-0.237
-347.450	137.336	0.314	-0.412
-346.435	132.383	-0.128	0.166
-345.420	-22.684	0.183	0.111
-344.406	225.471	0.137	0.223
-343.391	-89.578	-0.034	0.010
-342.377	-70.138	-0.219	-0.083
-341.362	79.972	0.120	-0.130
-340.348	-200.000	-0.034	-0.288
-339.333	-200.000	0.035	-0.201
-338.318	-107.253	-0.167	-0.037
-337.304	800.000	0.084	0.313
-336.289	715.423	0.035	0.093
-335.275	-23.936	-0.286	-0.172
-334.260	-51.758	0.193	0.090
-333.245	16.423	-0.198	0.157
-332.231	-14.194	0.161	-0.104
-331.216	-62.422	-0.161	0.067
-330.202	-60.372	0.161	-0.069
-329.187	-138.292	0.217	0.024
-328.172	444.297	0.100	-0.220
-327.158	-200.000	-0.087	-0.455
-326.143	408.771	0.088	0.187
-325.129	122.375	0.088	0.111
-324.114	432.574	0.105	-0.227
-323.099	-35.389	-0.393	-0.214
-322.085	-200.000	0.011	0.067
-321.070	424.760	-0.136	0.292
-320.056	125.317	-0.201	-0.254
-319.041	-200.000	0.001	-0.094
-318.026	-58.533	-0.181	0.079
-317.012	144.029	-0.197	0.263
-315.997	-91.823	0.333	-0.095
-314.983	530.150	0.107	-0.253
-313.968	-67.224	0.139	-0.055
-312.953	-99.961	0.069	0.017
-311.939	-200.000	0.008	-0.274
-310.924	-58.597	-0.176	-0.076
-309.910	-70.894	-0.081	-0.031
-308.895	74.497	0.156	0.164
-307.880	-200.000	-0.032	0.221
-306.866	800.000	-0.049	-0.159
-305.851	-55.690	0.172	0.077
-304.837	76.444	0.221	-0.235
-303.822	596.904	-0.056	-0.140
-302.807	10.466	0.150	-0.115
-301.793	-73.349	-0.076	-0.028
-300.778	-200.000	-0.009	-0.349
-299.764	696.078	-0.092	0.242
-298.749	289.713	0.070	-0.127
-297.735	-200.000	-0.009	-0.191
-296.720	-67.304	-0.329	-0.129
-295.705	-117.716	-0.399	0.072
-294.691	447.595	0.092	0.202
-293.676	-200.000	0.023	-0.320
-292.662	-124.339	0.215	-0.034
-291.647	800.000	-0.058	0.226
-290.632	-200.000	0.045	0.406
-289.618	112.995	0.088	-0.107
-288.603	423.863	-0.041	0.088
-287.589	-200.000	-0.041	-0.251
-286.574	2.149	-0.104	0.075
-285.559	244.435	-0.036	-0.060
-284.545	-200.000	0.012	-0.336
-283.530	12.564	0.210	0.162
-282.516	-84.692	0.324	-0.102
-281.501	800.000	0.070	-0.270
-280.486	421.162	-0.096	0.206
-279.472	123.744	0.061	0.076
-278.457	231.118	0.073	-0.120
-277.443	-141.768	0.422	0.042
-276.428	-125.900	-0.222	-0.033
-275.413	-63.120	-0.081	0.034
-274.399	255.117	-0.120	-0.206
-273.384	13.593	-0.206	-0.160
-272.370	800.000	-0.026	0.105
-271.355	52.099	-0.332	0.317
-270.340	234.331	-0.191	0.315
-269.326	-7.234	0.145	-0.098
-268.311	-50.147	0.221	0.104
-267.297	433.415	-0.229	0.496
-266.282	36.075	-0.254	-0.224
-265.267	-70.203	-0.193	0.073
-264.253	-29.518	0.106	-0.060
-263.238	-151.489	0.060	0.004
-262.224	168.155	0.085	-0.121
-261.209	794.208	0.085	-0.233
-260.195	614.040	-0.116	0.290
-259.180	25.255	0.253	0.210
-258.165	800.000	-0.004	0.011
-257.151	-19.317	-0.247	0.153
-256.136	-63.682	-0.029	0.012
-255.122	424.598	0.074	-0.160
-254.107	598.497	0.097	-0.240
-253.092	-88.718	-0.249	0.074
-252.078	-200.000	0.009	-0.148
-251.063	293.439	0.100	-0.182
-250.049	477.437	0.264	-0.597
-249.034	442.269	0.030	0.065
-248.019	-200.000	0.088	-0.389
-247.005	-80.275	0.081	-0.027
-245.990	63.240	0.179	0.179
-244.976	-200.000	0.033	-0.294
-243.961	-125.461	0.069	-0.010
-242.946	45.876	0.107	0.098
-241.932	154.907	-0.058	-0.079
-240.917	82.379	0.123	0.133
-239.903	-200.000	-0.003	0.095
-238.888	74.446	0.008	-0.009
-237.873	-4.935	0.211	-0.145
-236.859	365.563	0.128	-0.258
-235.844	800.000	-0.056	-0.215
-234.830	800.000	-0.055	0.207
-233.815	222.415	0.147	-0.237
-232.800	-200.000	-0.079	-0.436
-231.786	-84.097	0.360	-0.114
-230.771	-4.195	0.133	0.092
-229.757	-200.000	0.042	0.205
-228.742	189.943	-0.075	0.113
-227.727	-200.000	-0.020	-0.288
-226.713	-154.896	0.368	-0.024
-225.698	-101.605	-0.379	0.092
-224.684	70.620	-0.206	0.213
-223.669	-103.467	0.142	0.033
-222.655	-136.107	-0.468	-0.055
-221.640	586.647	-0.104	0.256
-220.625	-110.302	-0.234	-0.049
-219.611	-200.000	-0.018	0.165
-218.596	-77.287	0.291	0.101
-217.582	-188.977	-0.269	-0.003
-216.567	-200.000	-0.049	0.219
-215.552	-147.421	-0.259	-0.022
-214.538	-9.811	-0.271	0.180
-213.523	211.544	0.130	0.204
-212.509	-81.638	0.113	0.037
-211.494	800.000	-0.036	-0.133
-210.479	567.331	-0.077	-0.187
-209.465	14.000	-0.189	-0.147
-208.450	295.097	0.074	-0.136
-207.436	128.428	-0.273	0.346
-206.421	-42.772	-0.210	0.107
-205.406	144.397	0.151	-0.201
-204.392	70.982	0.126	0.130
-203.377	495.064	0.052	0.120
-202.363	-58.010	0.156	0.068
-201.348	800.000	-0.032	-0.110
-200.333	-194.503	0.079	-0.001
-199.319	274.080	-0.063	-0.112
-198.304	228.562	-0.087	0.141
-197.290	133.260	-0.164	-0.211
-196.275	-200.000	0.009	0.614
-195.260	-148.978	0.333	0.027
-194.246	800.000	0.060	0.202
-193.231	-200.000	-0.030	0.358
-192.217	12.583	0.208	0.160
-191.202	800.000	-0.084	-0.271
-190.187	-138.005	0.150	-0.017
-189.173	-127.188	0.194	-0.028
-188.158	-200.000	0.041	-0.345
-187.144	-200.000	-0.088	0.442
-186.129	-200.000	0.046	0.418
-185.114	-80.990	0.341	-0.112
-184.100	-35.766	0.259	0.140
-183.085	-200.000	-0.009	-0.117
-182.071	61.448	-0.126	0.124
-181.056	28.781	0.192	0.162
-180.042	-200.000	0.024	0.344
-179.027	74.891	-0.084	0.088
-178.012	-111.817	0.148	0.030
-176.998	-53.810	-0.180	-0.082
-175.983	-14.157	0.222	-0.142
-174.969	-120.861	0.237	-0.040
-173.954	-147.259	0.042	0.004
-172.939	92.649	-0.117	-0.131
-171.925	800.000	-0.042	-0.173
-170.910	-200.000	0.071	0.358
-169.896	27.667	-0.415	-0.348
-168.881	-28.829	-0.300	-0.172
-167.866	-142.180	-0.321	0.032
-166.852	110.806	0.176	0.211
-165.837	137.045	0.066	0.086
-164.823	800.000	0.023	-0.084
-163.808	-200.000	-0.056	0.275
-162.793	-200.000	0.018	-0.213
-161.779	-200.000	0.023	0.231
-160.764	-200.000	-0.037	0.192
-159.750	800.000	0.110	0.404
-158.735	-84.286	-0.431	-0.136
-157.720	204.643	0.258	0.399
-156.706	60.106	0.125	0.123
-155.691	174.880	-0.054	-0.078
-154.677	-129.260	0.383	-0.053
-153.662	-92.919	0.248	0.069
-152.647	800.000	0.080	-0.242
-151.633	-99.858	-0.309	0.077
-150.618	20.605	-0.215	0.173
-149.604	35.718	0.065	-0.057
-148.589	-200.000	0.017	-0.080
-147.574	-39.358	0.222	-0.116
-146.560	85.989	0.113	0.124
-145.545	-200.000	0.075	-0.413
-144.531	402.588	-0.074	0.154
-143.516	488.226	-0.099	-0.224
-142.502	-112.373	-0.262	-0.052
-141.487	-157.606	-0.332	-0.020
-140.472	-103.997	0.230	0.053
-139.458	-41.625	0.346	0.177
-138.443	61.463	-0.056	0.055
-137.429	204.396	-0.170	-0.262
-136.414	-47.633	0.558	-0.269
-135.399	21.740	-0.106	0.086
-134.385	182.932	-0.166	0.244
-133.370	-123.141	-0.144	-0.023
-132.356	-200.000	-0.029	-0.174
-131.341	-200.000	0.019	0.204
-130.326	-90.668	-0.220	0.063
-129.312	-8.368	-0.053	0.035
-128.297	7.583	-0.170	0.127
-127.283	800.000	-0.052	0.154
-126.268	-200.000	-0.040	0.197
-125.253	-137.102	0.133	0.015
-124.239	463.020	-0.090	-0.201
-123.224	-112.116	0.097	-0.019
-122.210	64.324	0.196	0.197
-121.195	-48.447	0.176	0.084
