DTS Sentinel unit serial number:	SN413079Multiplexer serial number:	ORYXHardware model number:	OX4-SRSoftware version number:	ORYX F/W v4.00 Oryx Data Collector v3.7.2.0data status	okinstallation	princeton_trtdifferential loss correction	single-endedforward channel	channel 4reverse channel	N/Adate	2019/09/17time	00:09:35forward acquisition time	60.00reverse acquisition time	0.00gamma	496.2192k internal	0.2314k external	0.2314temperature offset calibration	0.9977default loss term (dB/km)	0.3790temperature slope calibration	1.0000multiplexer offset coefficient	1.0000multiplexer slope coefficient	1.0000fibre end	0.00T internal ref (°C)	29.56T ext. ref 1 (°C)	0.11T ext. ref 2 (°C)	23.84length (m)	temperature (°C)	Stokes	anti-Stokes-747.200	800.000	-0.039	-0.130
-746.185	268.692	-0.113	0.201
-745.171	294.721	0.222	0.412
-744.156	85.817	-0.245	-0.273
-743.142	-12.279	0.121	-0.080
-742.127	215.189	0.094	0.151
-741.112	69.017	-0.064	-0.066
-740.098	394.579	0.088	0.186
-739.083	-8.482	-0.183	0.125
-738.069	-72.942	-0.125	-0.047
-737.054	-46.087	0.208	-0.104
-736.039	787.107	-0.053	-0.147
-735.025	800.000	0.086	0.336
-734.010	-200.000	-0.014	-0.209
-732.996	22.269	0.106	-0.088
-731.981	-158.013	-0.398	-0.024
-730.966	-119.373	-0.085	-0.015
-729.952	-80.825	0.071	-0.024
-728.937	800.000	-0.037	-0.141
-727.923	-100.140	-0.161	-0.041
-726.908	800.000	-0.076	0.293
-725.894	48.269	0.242	-0.230
-724.879	-95.910	-0.265	-0.072
-723.864	800.000	-0.037	0.145
-722.850	-121.353	-0.327	0.055
-721.835	-116.586	-0.435	-0.081
-720.821	353.381	-0.025	0.051
-719.806	185.012	-0.064	-0.096
-718.791	800.000	0.059	0.227
-717.777	-65.040	-0.208	-0.085
-716.762	43.240	-0.108	0.100
-715.748	-123.304	-0.199	-0.032
-714.733	-200.000	-0.003	0.036
-713.718	800.000	0.098	-0.311
-712.704	-112.142	-0.122	-0.025
-711.689	-18.725	0.289	-0.182
-710.675	-54.274	-0.231	-0.106
-709.660	191.673	0.108	-0.165
-708.645	-119.431	-0.025	0.004
-707.631	-176.892	0.277	0.007
-706.616	-98.516	0.147	0.038
-705.602	25.023	-0.044	-0.037
-704.587	-54.094	-0.027	0.012
-703.572	-42.149	-0.207	-0.107
-702.558	403.474	0.147	-0.313
-701.543	800.000	-0.041	0.128
-700.529	-41.365	-0.180	0.094
-699.514	10.333	-0.192	0.148
-698.499	-19.752	0.206	-0.129
-697.485	-48.285	-0.364	-0.178
-696.470	-27.975	-0.198	0.116
-695.456	-181.733	-0.189	0.004
-694.441	27.188	0.074	0.063
-693.426	25.681	0.045	-0.038
-692.412	-55.153	0.200	-0.091
-691.397	250.587	-0.050	-0.085
-690.383	286.740	0.127	-0.232
-689.368	139.528	0.234	-0.312
-688.354	-157.910	0.297	0.018
-687.339	39.500	0.060	-0.054
-686.324	618.163	-0.080	0.202
-685.310	4.159	0.332	-0.246
-684.295	86.078	0.121	-0.135
-683.281	-59.314	-0.123	0.053
-682.266	-200.000	-0.009	0.134
-681.251	-200.000	0.032	-0.253
-680.237	-143.649	0.166	0.016
-679.222	179.926	-0.179	0.266
-678.208	-27.683	-0.084	0.049
-677.193	-200.000	0.012	-0.195
-676.178	-100.624	0.233	0.058
-675.164	-113.455	-0.101	-0.020
-674.149	176.652	-0.160	-0.235
-673.135	-107.722	-0.208	-0.046
-672.120	34.773	0.081	0.071
-671.105	-200.000	-0.067	0.352
-670.091	800.000	0.075	-0.270
-669.076	37.212	-0.123	-0.110
-668.062	800.000	-0.035	-0.111
-667.047	603.860	0.060	-0.150
-666.032	-61.360	0.214	0.091
-665.018	411.653	0.045	0.096
-664.003	-31.903	-0.284	-0.161
-662.989	-36.942	0.385	0.209
-661.974	800.000	0.074	-0.215
-660.959	54.370	-0.082	-0.080
-659.945	-59.436	-0.244	-0.106
-658.930	-60.819	-0.274	-0.117
-657.916	-126.218	-0.148	-0.022
-656.901	47.038	0.032	-0.030
-655.886	-57.162	-0.318	-0.141
-654.872	-102.206	0.212	0.051
-653.857	-83.377	0.118	-0.038
-652.843	-98.409	-0.134	0.035
-651.828	-158.954	0.319	0.018
-650.814	-106.214	-0.223	-0.051
-649.799	259.740	-0.049	0.085
-648.784	-200.000	-0.050	0.273
-647.770	-176.747	0.297	0.008
-646.755	-90.741	0.134	0.039
-645.741	800.000	0.029	0.106
-644.726	265.147	-0.091	-0.161
-643.711	-11.824	-0.069	-0.046
-642.697	-71.196	0.153	-0.058
-641.682	-82.050	-0.270	0.089
-640.668	-28.255	0.132	0.077
-639.653	194.123	-0.066	-0.101
-638.638	800.000	-0.003	0.010
-637.624	-153.643	0.214	-0.015
-636.609	-24.489	0.211	-0.127
-635.595	85.213	-0.062	-0.069
-634.580	-200.000	0.013	-0.358
-633.565	-76.268	-0.136	-0.048
-632.551	800.000	0.055	-0.224
-631.536	-200.000	0.583	0.001
-630.522	-76.325	-0.006	0.002
-629.507	105.864	0.275	-0.328
-628.492	800.000	0.082	-0.286
-627.478	800.000	-0.074	-0.208
-626.463	-119.895	0.197	-0.034
-625.449	-35.262	-0.110	0.060
-624.434	-103.926	-0.268	-0.063
-623.419	-200.000	0.022	-0.132
-622.405	-34.368	0.159	-0.088
-621.390	585.611	0.147	-0.365
-620.376	-200.000	-0.008	0.192
-619.361	45.006	-0.310	0.288
-618.346	185.995	0.170	-0.254
-617.332	-159.388	-0.135	-0.008
-616.317	-160.690	-0.398	0.021
-615.303	-200.000	0.060	-0.442
-614.288	90.482	-0.312	0.352
-613.273	-200.000	-0.011	0.367
-612.259	-200.000	-0.036	0.223
-611.244	120.947	-0.042	0.053
-610.230	800.000	-0.105	0.320
-609.215	63.313	-0.148	0.150
-608.201	36.462	-0.193	-0.172
-607.186	197.838	0.307	-0.473
-606.171	686.184	0.063	0.166
-605.157	29.876	0.085	-0.073
-604.142	-68.901	-0.336	0.131
-603.128	800.000	-0.022	0.090
-602.113	-26.558	-0.084	0.050
-601.098	-45.110	-0.180	-0.090
-600.084	-25.381	-0.201	0.120
-599.069	-1.968	-0.112	-0.079
-598.055	137.242	-0.255	0.336
-597.040	-200.000	-0.010	0.169
-596.025	-52.425	-0.149	-0.070
-595.011	540.716	0.129	0.310
-593.996	129.062	0.055	-0.071
-592.982	-41.524	0.107	0.056
-591.967	-42.167	0.152	-0.078
-590.952	67.986	0.304	-0.314
-589.938	-200.000	-0.063	0.398
-588.923	800.000	-0.032	0.136
-587.909	651.601	-0.089	-0.230
-586.894	-200.000	0.033	-0.253
-585.879	271.248	0.129	-0.230
-584.865	-63.177	0.313	0.130
-583.850	305.355	-0.188	-0.352
-582.836	-21.942	-0.179	0.110
-581.821	68.111	-0.312	0.322
-580.806	-156.486	-0.287	-0.018
-579.792	432.203	-0.150	-0.327
-578.777	-136.127	-0.406	0.048
-577.763	-162.264	-0.445	0.022
-576.748	37.502	0.108	0.097
-575.733	-200.000	-0.043	-0.302
-574.719	-102.761	-0.311	0.075
-573.704	-200.000	-0.079	-0.372
-572.690	-144.151	0.166	-0.016
-571.675	21.030	0.095	-0.077
-570.661	510.221	0.102	0.239
-569.646	236.471	-0.096	0.159
-568.631	6.057	0.164	0.122
-567.617	-28.499	-0.195	0.113
-566.602	101.695	0.192	0.226
-565.588	-200.000	-0.045	0.399
-564.573	-200.000	0.018	0.251
-563.558	158.439	-0.100	0.139
-562.544	44.650	-0.275	0.254
-561.529	180.160	-0.200	0.295
-560.515	653.802	-0.046	-0.120
-559.500	-73.323	0.103	0.038
-558.485	800.000	0.032	0.121
-557.471	73.197	-0.127	0.133
-556.456	-73.858	-0.120	0.044
-555.442	-62.926	-0.174	0.073
-554.427	138.169	0.225	-0.297
-553.412	424.528	0.035	-0.076
-552.398	800.000	0.122	0.356
-551.383	512.576	-0.125	0.292
-550.369	-41.001	0.234	-0.122
-549.354	-9.730	-0.284	-0.190
-548.339	77.685	0.163	-0.175
-547.325	800.000	-0.103	-0.350
-546.310	-200.000	-0.006	0.235
-545.296	179.803	-0.150	-0.221
-544.281	39.205	0.374	-0.337
-543.266	191.159	-0.127	0.193
-542.252	-81.360	-0.090	-0.030
-541.237	152.576	-0.092	0.126
-540.223	287.149	0.055	0.100
-539.208	-27.410	0.244	-0.143
-538.193	-200.000	0.125	0.583
-537.179	-59.130	-0.083	0.036
-536.164	-200.000	0.007	-0.093
-535.150	800.000	-0.035	-0.129
-534.135	377.792	0.131	-0.269
-533.121	-101.641	0.422	0.103
-532.106	-42.589	0.108	0.056
-531.091	-200.000	-0.018	-0.428
-530.077	-200.000	0.009	-0.041
-529.062	-149.323	-0.276	-0.022
-528.048	-200.000	-0.021	0.411
-527.033	800.000	0.043	0.135
-526.018	-101.415	-0.145	-0.036
-525.004	-70.083	-0.508	-0.194
-523.989	149.973	-0.086	0.117
-522.975	100.502	0.047	-0.055
-521.960	800.000	-0.097	0.299
-520.945	15.137	0.324	0.255
-519.931	-71.035	0.195	0.074
-518.916	1.361	-0.084	-0.060
-517.902	-200.000	-0.025	0.137
-516.887	-200.000	-0.027	-0.345
-515.872	-111.457	-0.337	-0.069
-514.858	522.341	-0.038	-0.091
-513.843	-5.817	-0.198	-0.136
-512.829	800.000	0.054	-0.181
-511.814	-200.000	0.027	-0.391
-510.799	193.361	-0.244	-0.370
-509.785	-58.420	-0.232	-0.101
-508.770	-104.292	-0.169	0.039
-507.756	-200.000	0.063	0.303
-506.741	16.167	0.191	0.151
-505.726	129.249	0.121	0.155
-504.712	-122.780	0.340	0.055
-503.697	436.610	-0.184	-0.403
-502.683	78.383	-0.216	0.232
-501.668	98.477	0.048	0.056
-500.653	249.569	-0.201	0.342
-499.639	218.480	-0.069	0.111
-498.624	-200.000	-0.047	-0.300
-497.610	-200.000	-0.012	-0.305
-496.595	-45.866	-0.117	-0.058
-495.581	153.393	0.053	-0.072
-494.566	-200.000	-0.036	0.298
-493.551	64.151	-0.290	0.293
-492.537	71.646	-0.127	0.132
-491.522	-32.187	0.279	0.156
-490.508	-49.961	0.195	-0.093
-489.493	-110.877	0.296	0.061
-488.478	68.470	-0.220	-0.226
-487.464	-200.000	-0.049	0.227
-486.449	-3.794	0.293	0.205
-485.435	416.019	-0.084	0.180
-484.420	800.000	-0.053	-0.215
-483.405	-107.842	0.464	-0.101
-482.391	-108.186	0.201	-0.044
-481.376	-59.329	-0.249	0.108
-480.362	21.847	0.224	-0.183
-479.347	800.000	-0.066	-0.220
-478.332	10.699	-0.319	-0.244
-477.318	32.689	0.047	0.041
-476.303	217.016	0.164	-0.262
-475.289	531.007	0.090	-0.214
-474.274	435.482	0.018	0.039
-473.259	-87.965	0.395	-0.119
-472.245	228.176	-0.225	-0.367
-471.230	-138.706	-0.306	-0.034
-470.216	-30.789	-0.249	-0.141
-469.201	-200.000	-0.011	-0.103
-468.186	21.904	0.103	0.084
-467.172	800.000	-0.140	-0.418
-466.157	23.687	0.258	-0.213
-465.143	-78.947	0.119	0.041
-464.128	17.970	-0.112	-0.090
-463.113	276.277	0.176	0.314
-462.099	-156.395	-0.227	-0.014
-461.084	-8.612	-0.108	-0.072
-460.070	-48.559	-0.185	0.089
-459.055	800.000	0.048	0.135
-458.040	-200.000	-0.000	-0.006
-457.026	-149.185	0.040	-0.003
-456.011	-55.944	-0.332	0.149
-454.997	-68.122	0.359	-0.140
-453.982	70.630	-0.244	-0.253
-452.968	221.268	0.121	0.195
-451.953	-101.856	0.217	-0.053
-450.938	40.781	-0.281	-0.254
-449.924	-75.597	-0.284	0.101
-448.909	312.783	-0.144	-0.270
-447.895	-200.000	0.006	0.098
-446.880	-54.021	0.183	0.084
-445.865	-26.318	-0.148	-0.087
-444.851	106.985	0.059	-0.070
-443.836	52.616	0.011	0.010
-442.822	-56.242	0.156	0.069
-441.807	774.982	0.094	0.258
-440.792	53.993	0.275	-0.265
-439.778	302.033	-0.257	-0.477
-438.763	108.196	-0.131	-0.156
-437.749	337.028	-0.105	-0.204
-436.734	147.778	0.174	0.234
-435.719	-200.000	0.038	0.201
-434.705	-101.299	-0.060	-0.015
-433.690	-12.991	0.114	-0.074
-432.676	-200.000	0.052	0.232
-431.661	45.782	-0.034	-0.031
-430.646	57.457	-0.266	-0.260
-429.632	-200.000	0.009	0.103
-428.617	-85.954	-0.161	0.050
-427.603	-200.000	-0.014	0.090
-426.588	-200.000	0.014	0.177
-425.573	269.578	-0.011	0.019
-424.559	-122.958	0.087	-0.014
-423.544	104.844	0.083	0.098
-422.530	-200.000	-0.036	0.167
-421.515	188.510	-0.066	0.098
-420.500	-80.567	-0.213	-0.071
-419.486	800.000	0.122	-0.341
-418.471	69.669	-0.203	0.210
-417.457	93.690	0.375	0.425
-416.442	-200.000	0.019	0.093
-415.428	-18.423	-0.283	-0.177
-414.413	743.058	0.099	0.266
-413.398	800.000	0.026	-0.095
-412.384	-78.688	0.182	0.062
-411.369	38.514	0.033	0.030
-410.355	-5.316	0.182	-0.125
-409.340	800.000	-0.061	0.187
-408.325	194.021	-0.108	0.164
-407.311	-133.486	-0.095	0.012
-406.296	10.507	0.077	0.059
-405.282	99.133	-0.120	-0.138
-404.267	-49.018	0.342	-0.164
-403.252	-32.234	0.275	-0.154
-402.238	143.622	0.036	0.048
-401.223	320.403	-0.090	-0.171
-400.209	21.140	0.129	0.105
-399.194	-200.000	-0.007	0.045
-398.179	36.387	-0.151	0.133
-397.165	215.663	0.165	0.262
-396.150	-120.289	-0.261	0.045
-395.136	93.698	-0.106	0.120
-394.121	-113.068	0.205	-0.041
-393.106	-200.000	0.000	0.391
-392.092	-2.470	-0.309	-0.216
-391.077	29.696	0.260	-0.221
-390.063	136.010	0.173	0.225
-389.048	120.204	0.079	-0.098
-388.033	140.648	0.033	0.043
-387.019	325.857	0.053	0.102
-386.004	56.484	-0.090	0.087
-384.990	-200.000	-0.053	-0.301
-383.975	67.705	-0.137	-0.140
-382.960	-200.000	-0.006	0.082
-381.946	-200.000	0.253	0.000
-380.931	-179.305	0.148	-0.003
-379.917	-200.000	-0.015	-0.225
-378.902	-109.724	-0.218	0.046
-377.888	-136.295	0.255	-0.030
-376.873	-82.911	-0.387	-0.125
-375.858	-200.000	0.013	-0.133
-374.844	22.504	0.078	-0.064
-373.829	320.608	-0.119	0.225
-372.815	123.017	0.194	0.243
-371.800	279.557	0.110	-0.196
-370.785	73.329	-0.042	0.044
-369.771	19.768	0.188	0.151
-368.756	511.497	0.202	0.471
-367.742	-200.000	-0.049	0.244
-366.727	138.264	0.029	-0.038
-365.712	-152.982	-0.365	-0.026
-364.698	27.977	0.096	0.081
-363.683	610.162	-0.135	0.338
-362.669	353.515	0.121	0.240
-361.654	679.560	-0.063	-0.164
-360.639	-200.000	-0.009	0.068
-359.625	104.711	-0.054	-0.063
-358.610	156.161	0.031	-0.042
-357.596	-176.608	-0.205	-0.005
-356.581	-56.652	-0.200	0.089
-355.566	-200.000	-0.016	0.244
-354.552	-39.290	0.237	-0.124
-353.537	25.832	-0.153	0.128
-352.523	-155.156	0.195	0.013
-351.508	-26.289	-0.069	0.040
-350.493	-105.607	-0.276	-0.062
-349.479	19.845	-0.163	0.131
-348.464	104.329	-0.157	0.184
-347.450	-200.000	-0.008	-0.205
-346.435	190.565	-0.130	-0.195
-345.420	-19.167	0.051	0.032
-344.406	130.213	0.172	-0.220
-343.391	409.437	-0.227	0.481
-342.377	800.000	-0.086	-0.297
-341.362	-163.372	-0.338	0.016
-340.348	-72.962	0.521	-0.191
-339.333	-200.000	0.039	-0.240
-338.318	-118.685	-0.064	0.011
-337.304	-98.328	-0.215	0.055
-336.289	-200.000	0.009	0.356
-335.275	-200.000	0.056	0.254
-334.260	200.263	0.027	0.041
-333.245	303.236	-0.192	-0.355
-332.231	-200.000	-0.024	0.209
-331.216	6.634	0.257	-0.191
-330.202	205.624	0.052	0.081
-329.187	-187.777	0.200	0.003
-328.172	259.230	0.090	0.155
-327.158	-167.034	0.234	-0.010
-326.143	-0.687	0.171	0.121
-325.129	-33.877	-0.195	0.107
-324.114	-123.089	-0.211	-0.034
-323.099	-118.913	-0.249	-0.044
-322.085	299.278	-0.088	0.162
-321.070	800.000	0.087	-0.291
-320.056	-200.000	0.003	0.123
-319.041	204.383	0.166	-0.256
-318.026	61.199	-0.111	0.110
-317.012	380.917	-0.112	-0.228
-315.997	-156.572	0.343	-0.021
-314.983	-200.000	-0.001	-0.042
-313.968	-200.000	0.079	0.363
-312.953	-200.000	-0.033	-0.230
-311.939	192.543	0.199	-0.300
-310.924	-42.408	-0.299	-0.152
-309.910	-112.997	0.331	0.065
-308.895	29.999	0.314	0.267
-307.880	210.748	0.102	0.159
-306.866	-69.859	0.039	0.015
-305.851	-11.783	0.124	-0.081
-304.837	-55.797	0.137	-0.061
-303.822	31.739	0.213	0.182
-302.807	123.189	-0.115	0.144
-301.793	-39.698	-0.220	0.114
-300.778	32.432	-0.131	-0.113
-299.764	332.580	0.030	0.057
-298.749	381.197	0.099	-0.203
-297.735	-169.434	0.369	0.013
-296.720	-122.139	0.080	0.013
-295.705	-45.277	0.211	0.104
-294.691	59.987	-0.151	-0.148
-293.676	-72.608	-0.145	-0.053
-292.662	-200.000	0.003	-0.034
-291.647	-12.780	-0.177	0.115
-290.632	-98.925	-0.154	-0.039
-289.618	202.232	0.069	-0.107
-288.603	-200.000	0.054	0.286
-287.589	132.072	0.182	0.233
-286.574	159.794	0.169	-0.235
-285.559	-109.493	-0.204	0.043
-284.545	-100.647	-0.350	0.086
-283.530	-7.951	0.457	0.307
-282.516	261.062	-0.042	0.073
-281.501	-200.000	-0.064	0.337
-280.486	-31.940	-0.262	0.146
-279.472	-73.180	0.076	-0.028
-278.457	-34.822	0.349	0.190
-277.443	-46.028	-0.130	0.064
-276.428	408.625	-0.152	-0.321
-275.413	-200.000	0.034	-0.457
-274.399	-200.000	-0.009	-0.313
-273.384	-200.000	-0.006	0.128
-272.370	546.375	0.169	0.402
-271.355	-200.000	-0.011	0.428
-270.340	-200.000	0.012	-0.290
-269.326	295.590	0.133	-0.243
-268.311	-200.000	-0.019	0.376
-267.297	60.468	0.072	0.071
-266.282	800.000	0.056	-0.242
-265.267	101.968	0.245	-0.285
-264.253	-46.794	0.132	0.064
-263.238	-200.000	-0.029	0.215
-262.224	-200.000	-0.010	0.063
-261.209	86.770	0.117	-0.128
-260.195	-49.605	0.029	0.014
-259.180	-200.000	-0.087	-0.432
-258.165	89.249	-0.152	-0.168
-257.151	220.955	0.136	0.218
-256.136	273.379	-0.086	-0.151
-255.122	-194.462	-0.072	0.001
-254.107	530.078	-0.067	-0.158
-253.092	800.000	-0.099	0.351
-252.078	-200.000	0.072	0.317
-251.063	114.150	-0.190	-0.230
-250.049	-126.033	0.175	-0.026
-249.034	-79.017	0.281	-0.095
-248.019	-82.399	-0.235	-0.076
-247.005	154.452	-0.212	-0.289
-245.990	-20.520	0.321	-0.196
-244.976	1.657	0.169	-0.121
-243.961	-88.115	0.241	-0.072
-242.946	21.921	0.103	0.083
-241.932	-17.551	-0.137	0.085
-240.917	484.504	-0.112	-0.253
-239.903	800.000	-0.051	-0.169
-238.888	-97.853	0.214	-0.055
-237.873	5.535	-0.288	-0.211
-236.859	-35.362	0.108	0.058
-235.844	273.384	0.098	0.172
-234.830	-191.121	-0.088	-0.001
-233.815	-200.000	-0.011	-0.058
-232.800	524.067	0.096	0.224
-231.786	-144.081	-0.125	-0.012
-230.771	-176.946	0.462	-0.012
-229.757	151.504	-0.129	0.174
-228.742	-61.855	0.203	-0.085
-227.727	800.000	0.022	0.091
-226.713	569.218	0.045	0.108
-225.698	-69.445	0.131	0.050
-224.684	800.000	-0.056	0.195
-223.669	90.479	-0.073	-0.081
-222.655	-127.286	0.089	-0.013
-221.640	105.040	0.087	0.102
-220.625	-93.473	0.312	-0.086
-219.611	266.954	0.115	0.200
-218.596	-3.553	0.142	-0.098
-217.582	148.755	0.081	-0.109
-216.567	358.033	0.137	0.272
-215.552	-34.012	0.103	-0.056
-214.538	-70.685	0.240	-0.090
-213.523	33.783	-0.141	-0.121
-212.509	-32.638	-0.162	0.090
-211.494	108.648	-0.147	-0.174
-210.479	-13.938	-0.022	0.014
-209.465	101.148	-0.078	0.091
-208.450	-72.023	0.247	0.091
-207.436	-27.639	0.181	-0.104
-206.421	-171.448	-0.344	0.011
-205.406	19.680	-0.220	0.175
-204.392	-10.447	-0.194	-0.127
-203.377	800.000	0.040	0.157
-202.363	-140.012	0.237	-0.025
-201.348	119.255	-0.220	0.271
-200.333	-41.997	-0.114	0.058
-199.319	377.620	-0.127	-0.257
-198.304	306.500	-0.185	-0.343
-197.290	-28.840	-0.275	0.157
-196.275	-200.000	-0.047	-0.278
-195.260	-136.477	-0.109	-0.013
-194.246	-36.138	0.234	-0.126
-193.231	-200.000	-0.072	-0.375
-192.217	47.868	0.099	0.092
-191.202	800.000	-0.039	0.161
-190.187	-132.073	0.240	-0.031
-189.173	-90.137	-0.331	-0.096
-188.158	-200.000	0.002	0.330
-187.144	800.000	0.064	0.194
-186.129	403.049	0.108	0.225
-185.114	-122.930	-0.331	-0.053
-184.100	-181.584	-0.114	0.002
-183.085	275.479	0.157	-0.277
-182.071	-13.204	0.294	-0.189
-181.056	2.247	-0.172	0.123
-180.042	186.332	0.085	-0.125
-179.027	-44.865	-0.035	-0.017
-178.012	706.905	-0.145	-0.381
-176.998	-164.714	0.372	-0.017
-175.983	-51.250	-0.208	0.097
-174.969	43.604	0.176	-0.159
-173.954	-200.000	0.012	-0.127
-172.939	11.746	0.135	-0.103
-171.925	133.008	-0.133	0.170
-170.910	-37.883	0.148	-0.078
-169.896	29.082	-0.212	0.178
-168.881	-200.000	-0.017	0.219
-167.866	-92.240	0.038	0.011
-166.852	37.048	-0.223	-0.196
-165.837	-136.511	0.020	0.002
-164.823	591.884	-0.087	-0.214
-163.808	310.977	-0.013	0.023
-162.793	-200.000	-0.065	0.371
-161.779	180.946	0.206	-0.301
-160.764	-14.603	0.100	-0.064
-159.750	-42.457	0.144	-0.073
-158.735	-200.000	0.001	-0.062
-157.720	380.282	-0.121	0.246
-156.706	232.494	0.215	-0.350
-155.691	-36.600	0.336	0.179
-154.677	-106.709	0.234	-0.051
-153.662	154.997	0.032	0.043
-152.647	-200.000	0.050	0.289
-151.633	37.925	-0.119	-0.105
-150.618	332.204	-0.029	0.056
-149.604	106.470	-0.188	0.220
-148.589	36.369	0.229	-0.200
-147.574	20.170	-0.225	-0.180
-146.560	800.000	0.112	0.324
-145.545	28.869	0.043	0.036
-144.531	8.811	-0.098	0.073
-143.516	68.678	0.194	-0.197
-142.502	-46.570	0.197	0.096
-141.487	-180.702	-0.082	-0.002
-140.472	-96.719	0.189	0.049
-139.458	112.804	-0.339	-0.407
-138.443	-96.343	0.444	-0.116
-137.429	-200.000	0.010	-0.118
-136.414	72.598	0.112	-0.116
-135.399	-35.015	0.253	-0.137
-134.385	-63.551	0.254	-0.103
-133.370	800.000	-0.097	0.265
-132.356	-84.958	0.257	-0.080
-131.341	8.007	-0.365	0.271
-130.326	56.933	-0.096	-0.093
-129.312	-43.397	0.081	-0.041
-128.297	-19.397	0.158	0.097
-127.283	-200.000	-0.000	-0.003
-126.268	-200.000	0.021	-0.340
-125.253	273.921	-0.089	0.156
-124.239	-64.249	-0.096	0.039
-123.224	53.418	-0.029	0.028
-122.210	364.759	0.081	0.161
-121.195	-174.882	-0.250	0.007
