DTS Sentinel unit serial number:	SN413079Multiplexer serial number:	ORYXHardware model number:	OX4-SRSoftware version number:	ORYX F/W v4.00 Oryx Data Collector v3.7.2.0data status	okinstallation	princeton_trtdifferential loss correction	single-endedforward channel	channel 4reverse channel	N/Adate	2019/09/16time	15:01:35forward acquisition time	60.00reverse acquisition time	0.00gamma	496.2192k internal	0.2289k external	0.2289temperature offset calibration	0.9938default loss term (dB/km)	0.3790temperature slope calibration	1.0000multiplexer offset coefficient	1.0000multiplexer slope coefficient	1.0000fibre end	0.00T internal ref (°C)	41.19T ext. ref 1 (°C)	14.46T ext. ref 2 (°C)	36.32length (m)	temperature (°C)	Stokes	anti-Stokes-747.200	-183.806	0.307	0.005
-746.185	186.239	-0.096	0.146
-745.171	800.000	0.035	-0.130
-744.156	65.119	0.318	0.329
-743.142	-32.682	0.215	0.123
-742.127	218.758	0.165	0.271
-741.112	-200.000	0.010	0.049
-740.098	164.807	0.286	0.413
-739.083	-112.369	-0.114	0.023
-738.069	-200.000	0.108	0.735
-737.054	800.000	0.074	0.258
-736.039	-23.939	-0.272	0.167
-735.025	357.797	0.090	0.185
-734.010	27.959	-0.064	0.056
-732.996	-200.000	0.002	0.221
-731.981	-80.682	0.076	-0.026
-730.966	254.999	0.118	-0.207
-729.952	-200.000	-0.056	0.330
-728.937	296.747	0.051	0.096
-727.923	-200.000	-0.004	0.038
-726.908	-200.000	-0.013	0.272
-725.894	-2.275	0.093	-0.067
-724.879	-200.000	0.028	0.178
-723.864	513.189	-0.093	-0.222
-722.850	29.511	-0.218	0.189
-721.835	360.329	-0.064	-0.132
-720.821	548.654	-0.017	-0.042
-719.806	-116.459	-0.119	0.022
-718.791	-137.363	-0.400	0.046
-717.777	800.000	-0.048	-0.142
-716.762	-148.357	0.277	-0.023
-715.748	-43.640	-0.174	0.090
-714.733	-106.391	-0.253	0.058
-713.718	800.000	0.055	-0.200
-712.704	33.994	0.091	-0.081
-711.689	221.056	-0.045	-0.074
-710.675	800.000	-0.071	0.295
-709.660	-200.000	-0.032	0.230
-708.645	670.492	0.044	-0.118
-707.631	-144.222	-0.227	0.022
-706.616	1.377	0.133	-0.098
-705.602	-112.142	-0.197	-0.041
-704.587	-175.610	-0.118	-0.003
-703.572	-71.838	0.089	0.034
-702.558	-200.000	-0.036	0.192
-701.543	-122.846	-0.088	0.015
-700.529	42.325	0.309	-0.288
-699.514	108.294	-0.077	-0.094
-698.499	48.282	-0.144	0.138
-697.485	-83.843	-0.447	0.146
-696.470	-134.185	-0.136	0.017
-695.456	-200.000	0.005	0.059
-694.441	-44.407	0.350	-0.179
-693.426	350.928	-0.098	-0.199
-692.412	-111.062	-0.049	0.010
-691.397	-200.000	0.025	-0.197
-690.383	384.855	-0.075	0.157
-689.368	178.258	0.147	0.219
-688.354	-127.336	-0.117	-0.017
-687.339	-19.855	-0.275	-0.174
-686.324	172.374	0.019	-0.027
-685.310	-200.000	0.056	0.288
-684.295	325.729	0.108	0.212
-683.281	98.480	-0.104	-0.123
-682.266	800.000	0.075	-0.263
-681.251	-33.402	-0.118	-0.067
-680.237	-200.000	-0.033	-0.565
-679.222	-163.191	0.319	-0.016
-678.208	240.892	-0.119	-0.204
-677.193	347.768	-0.121	-0.244
-676.178	71.836	-0.117	0.124
-675.164	27.049	0.212	-0.181
-674.149	355.070	0.087	0.177
-673.135	800.000	-0.039	-0.117
-672.120	-96.507	0.222	0.060
-671.105	254.895	0.094	-0.165
-670.091	-82.416	-0.214	0.071
-669.076	73.727	0.267	0.286
-668.062	103.061	0.257	-0.308
-667.047	311.578	0.191	-0.366
-666.032	-70.640	0.342	-0.132
-665.018	84.033	-0.026	-0.029
-664.003	97.757	0.060	0.071
-662.989	-86.398	-0.201	0.063
-661.974	-10.979	0.232	-0.156
-660.959	115.130	0.094	-0.118
-659.945	98.743	-0.142	0.168
-658.930	-128.562	-0.426	0.062
-657.916	198.878	-0.238	-0.372
-656.901	-200.000	-0.002	-0.153
-655.886	251.681	0.129	0.224
-654.872	-83.676	-0.218	0.071
-653.857	-200.000	0.029	-0.187
-652.843	-189.345	-0.165	0.002
-651.828	562.829	0.053	0.131
-650.814	20.608	0.042	0.035
-649.799	114.383	0.094	0.117
-648.784	-200.000	-0.040	0.243
-647.770	-124.650	-0.070	-0.011
-646.755	-160.031	-0.122	-0.007
-645.741	-200.000	-0.008	0.361
-644.726	314.808	0.077	-0.148
-643.711	762.105	0.069	-0.192
-642.697	-200.000	-0.016	0.416
-641.682	189.635	-0.123	0.188
-640.668	-42.816	0.208	-0.108
-639.653	-144.001	0.164	-0.016
-638.638	-163.256	0.207	0.010
-637.624	-66.715	0.272	-0.110
-636.609	-122.571	0.041	0.007
-635.595	800.000	-0.057	0.203
-634.580	800.000	-0.020	-0.074
-633.565	-200.000	0.000	-0.276
-632.551	-200.000	0.001	-0.117
-631.536	119.498	0.174	0.220
-630.522	-131.818	0.085	0.011
-629.507	-119.570	-0.006	0.001
-628.492	22.955	0.246	-0.206
-627.478	-70.632	0.576	-0.222
-626.463	-138.678	-0.083	-0.009
-625.449	800.000	0.026	-0.090
-624.434	180.982	0.026	-0.039
-623.419	-134.214	-0.202	0.025
-622.405	214.327	0.166	-0.268
-621.390	-200.000	-0.002	-0.147
-620.376	-15.681	-0.147	0.095
-619.361	758.836	0.059	0.162
-618.346	-85.098	0.327	-0.104
-617.332	-174.238	0.125	0.004
-616.317	-23.231	-0.172	-0.106
-615.303	-66.953	-0.194	-0.078
-614.288	-200.000	-0.041	0.334
-613.273	-200.000	0.012	0.090
-612.259	-59.119	-0.314	0.138
-611.244	-200.000	-0.035	0.343
-610.230	-200.000	0.014	0.142
-609.215	481.593	0.115	0.266
-608.201	-26.947	0.127	0.076
-607.186	-76.501	0.118	-0.042
-606.171	-112.773	-0.267	-0.054
-605.157	521.667	0.068	0.162
-604.142	-200.000	-0.010	0.058
-603.128	99.528	0.196	0.231
-602.113	209.827	0.202	-0.323
-601.098	-104.406	-0.509	-0.120
-600.084	433.805	-0.194	-0.430
-599.069	493.795	-0.047	-0.110
-598.055	-200.000	0.022	-0.222
-597.040	253.810	0.138	0.241
-596.025	187.578	-0.121	-0.184
-595.011	48.137	-0.272	-0.259
-593.996	-138.864	-0.291	0.032
-592.982	-45.677	0.243	0.123
-591.967	-139.063	0.275	-0.030
-590.952	800.000	-0.041	-0.156
-589.938	-49.100	-0.063	0.031
-588.923	744.187	0.059	-0.162
-587.909	29.390	0.220	-0.190
-586.894	145.653	-0.225	0.307
-585.879	102.929	0.080	0.095
-584.865	-106.334	-0.211	0.048
-583.850	177.314	-0.243	0.361
-582.836	88.579	0.211	0.239
-581.821	-103.252	-0.058	-0.014
-580.806	800.000	-0.060	-0.226
-579.792	37.135	-0.275	0.248
-578.777	-94.443	-0.314	0.087
-577.763	52.731	0.112	0.109
-576.748	10.296	0.045	-0.035
-575.733	122.577	0.083	-0.105
-574.719	800.000	-0.071	-0.241
-573.704	-121.559	0.090	-0.015
-572.690	65.818	-0.222	-0.229
-571.675	61.239	-0.154	0.155
-570.661	800.000	0.109	0.319
-569.646	800.000	-0.085	0.248
-568.631	-50.964	-0.071	-0.034
-567.617	74.676	0.128	-0.137
-566.602	-200.000	0.218	-0.001
-565.588	377.247	0.064	-0.134
-564.573	-5.615	0.218	-0.152
-563.558	13.300	-0.160	-0.126
-562.544	61.427	-0.221	-0.224
-561.529	-200.000	0.055	0.375
-560.515	110.514	-0.140	-0.171
-559.500	16.186	0.237	0.191
-558.485	-58.349	-0.147	-0.065
-557.471	800.000	-0.008	0.026
-556.456	-66.816	-0.144	-0.058
-555.442	-200.000	0.004	-0.045
-554.427	-5.918	0.088	-0.061
-553.412	800.000	0.040	-0.161
-552.398	-200.000	0.001	0.317
-551.383	-74.387	-0.260	0.095
-550.369	-93.944	-0.162	0.045
-549.354	25.215	0.095	0.080
-548.339	-118.762	0.190	-0.034
-547.325	-4.886	0.160	0.112
-546.310	-103.688	-0.104	0.025
-545.296	794.021	-0.112	-0.314
-544.281	183.102	-0.021	-0.032
-543.266	335.175	-0.013	0.026
-542.252	-68.093	-0.048	-0.019
-541.237	111.026	-0.203	-0.249
-540.223	-157.034	0.124	-0.008
-539.208	-109.747	-0.306	0.065
-538.193	-149.027	0.355	0.029
-537.179	64.835	0.293	0.301
-536.164	71.021	-0.085	0.090
-535.150	-200.000	-0.047	0.281
-534.135	109.220	-0.180	0.219
-533.121	-97.111	-0.312	-0.083
-532.106	-200.000	-0.026	0.263
-531.091	-86.382	-0.224	-0.070
-530.077	-19.687	0.314	-0.197
-529.062	-122.934	0.281	-0.046
-528.048	800.000	-0.076	-0.311
-527.033	-144.093	-0.286	-0.027
-526.018	-71.945	0.128	-0.048
-525.004	800.000	-0.038	-0.109
-523.989	129.439	0.065	0.085
-522.975	50.295	-0.279	0.268
-521.960	-200.000	0.039	-0.374
-520.945	18.127	-0.022	-0.018
-519.931	-200.000	-0.014	0.257
-518.916	-128.642	-0.255	-0.037
-517.902	15.260	-0.248	-0.198
-516.887	-200.000	-0.036	0.299
-515.872	391.882	0.157	-0.332
-514.858	-200.000	-0.032	-0.480
-513.843	19.815	0.051	0.042
-512.829	311.788	0.191	-0.363
-511.814	66.935	-0.111	0.114
-510.799	-200.000	-0.015	0.338
-509.785	-200.000	-0.044	0.256
-508.770	-200.000	0.043	-0.368
-507.756	-105.061	0.171	0.040
-506.741	21.391	-0.272	0.225
-505.726	19.370	-0.052	-0.042
-504.712	-189.121	0.167	-0.002
-503.697	-117.333	0.032	0.006
-502.683	58.712	-0.064	0.063
-501.668	-200.000	-0.009	-0.113
-500.653	-72.978	0.305	0.114
-499.639	635.249	0.103	-0.266
-498.624	-149.546	-0.099	-0.008
-497.610	-61.390	0.280	0.119
-496.595	-2.711	-0.132	-0.094
-495.581	359.048	0.166	0.337
-494.566	229.824	0.111	-0.185
-493.551	-60.141	0.162	-0.070
-492.537	-133.239	-0.216	-0.028
-491.522	-33.079	0.103	-0.058
-490.508	-94.264	-0.082	0.023
-489.493	-200.000	-0.025	-0.320
-488.478	-74.844	-0.075	0.027
-487.464	105.577	-0.099	-0.119
-486.449	-151.059	0.593	0.045
-485.435	-12.738	-0.200	0.132
-484.420	-159.958	-0.341	0.019
-483.405	-48.219	-0.117	0.057
-482.391	-40.847	0.054	0.028
-481.376	-36.979	0.275	0.149
-480.362	800.000	0.026	-0.097
-479.347	800.000	0.071	0.297
-478.332	-142.727	-0.053	-0.005
-477.318	-200.000	-0.029	0.217
-476.303	-11.126	-0.315	-0.211
-475.289	-189.797	0.063	0.001
-474.274	47.925	0.200	-0.190
-473.259	351.912	-0.208	-0.417
-472.245	-94.049	0.184	-0.051
-471.230	-158.976	0.335	0.019
-470.216	-49.931	-0.040	-0.019
-469.201	-200.000	-0.008	0.040
-468.186	-200.000	0.035	-0.216
-467.172	688.032	0.037	0.099
-466.157	-44.921	-0.042	-0.021
-465.143	38.301	0.075	0.068
-464.128	-1.024	-0.282	-0.202
-463.113	-200.000	-0.032	-0.269
-462.099	-200.000	0.047	-0.215
-461.084	-143.185	0.126	0.012
-460.070	-70.450	-0.134	0.052
-459.055	142.581	-0.107	0.143
-458.040	176.488	-0.066	-0.097
-457.026	-88.456	0.199	0.060
-456.011	-0.650	0.251	-0.181
-454.997	41.586	0.124	-0.114
-453.982	-8.251	-0.071	0.048
-452.968	-144.776	-0.054	-0.005
-451.953	754.496	0.095	-0.261
-450.938	-105.367	-0.255	-0.059
-449.924	36.837	-0.052	-0.047
-448.909	608.990	0.046	-0.115
-447.895	21.828	0.315	-0.260
-446.880	277.428	0.165	0.298
-445.865	86.787	-0.196	-0.219
-444.851	124.072	-0.110	0.140
-443.836	117.051	-0.072	0.090
-442.822	800.000	-0.059	0.235
-441.807	800.000	0.106	0.322
-440.792	-99.450	-0.157	-0.040
-439.778	-200.000	-0.009	0.109
-438.763	-162.290	0.176	0.009
-437.749	-31.552	0.131	-0.074
-436.734	800.000	-0.020	0.085
-435.719	-141.442	0.176	-0.018
-434.705	-200.000	0.005	-0.109
-433.690	-182.152	0.245	0.005
-432.676	-95.177	0.114	-0.031
-431.661	-170.114	-0.067	0.002
-430.646	142.848	0.166	-0.224
-429.632	-83.342	-0.212	0.069
-428.617	-177.513	-0.197	0.005
-427.603	-167.254	-0.416	-0.017
-426.588	-127.179	0.031	0.005
-425.573	78.680	0.199	0.216
-424.559	180.588	0.112	-0.166
-423.544	714.166	0.079	0.213
-422.530	-200.000	-0.063	-0.302
-421.515	202.989	-0.215	-0.337
-420.500	274.914	-0.183	0.328
-419.486	484.476	-0.153	-0.352
-418.471	103.973	-0.105	-0.125
-417.457	800.000	-0.115	-0.411
-416.442	-200.000	-0.060	0.308
-415.428	22.427	0.086	-0.071
-414.413	3.644	-0.360	-0.266
-413.398	800.000	0.117	-0.415
-412.384	-77.836	-0.154	-0.054
-411.369	-94.058	-0.512	0.142
-410.355	-70.253	-0.464	-0.178
-409.340	-38.061	-0.026	-0.014
-408.325	40.593	-0.172	0.156
-407.311	800.000	0.087	0.251
-406.296	-156.697	-0.359	-0.022
-405.282	4.122	0.103	-0.076
-404.267	-200.000	0.037	-0.201
-403.252	22.092	0.102	-0.084
-402.238	489.995	-0.006	0.015
-401.223	-200.000	-0.074	0.412
-400.209	800.000	-0.050	-0.190
-399.194	-34.510	-0.092	-0.051
-398.179	-91.619	-0.350	-0.101
-397.165	150.890	0.183	0.252
-396.150	-200.000	-0.022	0.151
-395.136	115.137	-0.190	-0.235
-394.121	397.411	-0.114	-0.242
-393.106	-19.163	0.119	0.075
-392.092	109.231	-0.096	0.116
-391.077	662.717	0.084	-0.218
-390.063	-161.613	-0.172	0.009
-389.048	48.061	-0.169	-0.160
-388.033	-183.304	-0.143	-0.003
-387.019	-43.086	0.227	-0.116
-386.004	-196.012	-0.189	-0.001
-384.990	-68.308	-0.324	0.127
-383.975	201.991	-0.221	0.345
-382.960	46.226	0.133	-0.124
-381.946	-82.854	0.068	-0.022
-380.931	-200.000	-0.009	-0.357
-379.917	-93.756	0.210	-0.058
-378.902	632.607	-0.041	0.106
-377.888	-110.851	-0.326	-0.068
-376.873	-46.349	0.069	-0.034
-375.858	-61.492	-0.444	0.188
-374.844	800.000	0.049	0.169
-373.829	-200.000	0.050	-0.444
-372.815	-97.010	-0.099	0.026
-371.800	624.561	-0.142	-0.361
-370.785	800.000	0.098	-0.345
-369.771	-114.277	-0.101	-0.020
-368.756	-0.116	0.011	0.008
-367.742	-95.759	0.190	-0.051
-366.727	-200.000	-0.017	0.323
-365.712	-200.000	-0.029	0.132
-364.698	346.295	0.123	-0.244
-363.683	-127.302	-0.120	0.018
-362.669	240.862	-0.182	0.307
-361.654	-200.000	0.019	0.139
-360.639	26.496	-0.202	0.170
-359.625	-200.000	0.013	0.095
-358.610	227.093	0.022	-0.037
-357.596	-104.475	-0.190	-0.044
-356.581	295.958	0.128	-0.236
-355.566	94.116	-0.072	-0.083
-354.552	56.137	0.126	-0.124
-353.537	1.756	0.358	0.261
-352.523	9.491	0.035	0.027
-351.508	637.706	-0.137	-0.351
-350.493	-95.049	0.108	-0.029
-349.479	-4.959	0.256	-0.178
-348.464	242.380	-0.120	0.202
-347.450	9.141	-0.251	0.191
-346.435	-127.928	-0.312	0.045
-345.420	-89.061	0.237	0.071
-344.406	-200.000	-0.011	0.200
-343.391	-200.000	-0.006	-0.198
-342.377	793.656	0.081	0.224
-341.362	-21.932	-0.263	-0.161
-340.348	83.461	0.246	-0.271
-339.333	-85.945	0.237	-0.074
-338.318	55.356	-0.192	0.188
-337.304	-200.000	0.007	0.255
-336.289	-85.572	0.562	0.176
-335.275	66.628	0.047	-0.048
-334.260	-99.765	0.067	0.017
-333.245	-200.000	0.033	-0.393
-332.231	800.000	-0.060	-0.252
-331.216	-6.617	0.222	0.153
-330.202	-146.253	0.289	-0.026
-329.187	301.578	0.129	0.241
-328.172	-108.970	0.291	0.063
-327.158	80.409	0.059	0.064
-326.143	800.000	-0.078	0.233
-325.129	-200.000	-0.011	0.253
-324.114	127.252	-0.189	-0.241
-323.099	46.881	-0.083	-0.078
-322.085	-110.951	0.028	-0.006
-321.070	-200.000	0.039	0.267
-320.056	13.852	0.158	0.124
-319.041	-200.000	0.041	0.252
-318.026	-35.860	0.121	-0.066
-317.012	-200.000	-0.007	-0.132
-315.997	60.865	-0.062	0.062
-314.983	184.662	0.102	-0.152
-313.968	62.643	0.041	-0.041
-312.953	113.444	-0.094	0.115
-311.939	386.412	0.072	0.149
-310.924	-144.641	0.212	0.020
-309.910	-139.081	0.346	0.038
-308.895	745.328	0.141	0.381
-307.880	59.188	-0.372	0.369
-306.866	-43.327	0.464	0.236
-305.851	223.983	-0.018	0.029
-304.837	694.581	0.109	0.288
-303.822	-161.773	-0.302	0.015
-302.807	-200.000	0.011	-0.117
-301.793	-38.483	-0.171	0.091
-300.778	317.104	0.103	-0.196
-299.764	-151.332	-0.080	-0.006
-298.749	-47.750	-0.064	-0.031
-297.735	19.268	-0.102	0.082
-296.720	69.503	0.108	0.112
-295.705	-43.568	0.181	0.092
-294.691	36.739	0.035	0.031
-293.676	-132.838	0.132	-0.017
-292.662	599.584	0.082	0.205
-291.647	305.151	-0.058	-0.108
-290.632	800.000	0.017	-0.065
-289.618	202.169	-0.102	-0.158
-288.603	-58.742	0.236	0.103
-287.589	-200.000	-0.003	-0.267
-286.574	-200.000	0.065	-0.313
-285.559	66.896	-0.205	0.210
-284.545	-6.212	-0.154	-0.106
-283.530	37.639	0.079	-0.071
-282.516	-200.000	-0.052	-0.292
-281.501	-1.010	-0.281	-0.200
-280.486	226.443	0.240	-0.392
-279.472	-19.962	-0.324	0.201
-278.457	-200.000	0.002	-0.444
-277.443	9.203	-0.276	-0.210
-276.428	674.435	-0.083	0.218
-275.413	-130.273	-0.343	0.047
-274.399	-41.773	-0.145	-0.075
-273.384	21.679	0.209	0.171
-272.370	-200.000	-0.037	0.190
-271.355	5.343	0.206	0.153
-270.340	-106.414	-0.114	0.026
-269.326	50.065	0.098	0.093
-268.311	-127.027	-0.075	0.011
-267.297	-179.603	0.205	0.005
-266.282	654.367	0.087	-0.226
-265.267	181.417	-0.116	-0.172
-264.253	-77.372	0.193	0.067
-263.238	56.771	0.158	-0.155
-262.224	127.263	0.081	-0.103
-261.209	-133.382	-0.226	-0.029
-260.195	-68.770	-0.364	0.142
-259.180	759.844	-0.079	0.215
-258.165	-20.227	0.215	0.133
-257.151	-9.236	-0.134	0.090
-256.136	-99.555	-0.170	0.043
-255.122	-200.000	-0.096	0.594
-254.107	-200.000	0.005	-0.062
-253.092	-169.749	0.129	-0.005
-252.078	63.570	0.082	0.083
-251.063	38.058	0.170	0.152
-250.049	1.275	-0.183	0.132
-249.034	-200.000	-0.006	-0.025
-248.019	38.157	0.170	0.152
-247.005	777.652	0.112	-0.308
-245.990	104.688	0.085	0.100
-244.976	87.410	-0.115	0.128
-243.961	-11.814	0.169	-0.111
-242.946	720.022	0.112	-0.300
-241.932	-16.220	0.198	-0.126
-240.917	-29.100	0.153	-0.088
-239.903	443.245	-0.149	-0.328
-238.888	-89.683	0.337	-0.099
-237.873	-64.648	0.129	-0.053
-236.859	291.087	0.128	-0.233
-235.844	-156.238	-0.164	0.010
-234.830	-68.937	-0.150	-0.058
-233.815	-138.298	-0.362	0.040
-232.800	99.821	0.248	0.289
-231.786	42.047	-0.216	-0.197
-230.771	15.948	-0.081	-0.064
-229.757	800.000	0.110	-0.387
-228.742	182.529	-0.026	0.039
-227.727	-200.000	0.047	0.274
-226.713	-61.198	0.108	-0.046
-225.698	695.906	-0.099	0.262
-224.684	140.057	-0.092	0.122
-223.669	800.000	0.035	-0.104
-222.655	606.236	0.039	-0.096
-221.640	151.015	0.119	-0.162
-220.625	360.375	0.036	-0.072
-219.611	52.259	-0.060	-0.057
-218.596	292.011	-0.161	0.294
-217.582	35.427	-0.030	0.027
-216.567	-83.556	0.149	-0.048
-215.552	-46.535	0.128	0.063
-214.538	469.966	-0.136	0.306
-213.523	-200.000	0.019	0.311
-212.509	-200.000	-0.007	0.113
-211.494	-22.376	-0.485	-0.295
-210.479	358.026	0.123	0.247
-209.465	-200.000	0.008	0.240
-208.450	-24.479	0.289	-0.173
-207.436	-200.000	-0.031	-0.203
-206.421	402.921	-0.093	0.196
-205.406	-165.432	0.246	0.011
-204.392	95.884	0.123	0.141
-203.377	400.383	0.043	-0.091
-202.363	223.536	-0.188	0.305
-201.348	-200.000	0.004	-0.052
-200.333	-151.320	-0.233	0.017
-199.319	-82.844	-0.295	-0.096
-198.304	49.704	0.040	-0.038
-197.290	-111.035	0.154	0.032
-196.275	-78.678	0.134	0.046
-195.260	401.651	-0.128	0.270
-194.246	-40.461	0.105	-0.055
-193.231	43.095	-0.270	-0.247
-192.217	115.003	0.240	-0.294
-191.202	-101.493	0.103	-0.025
-190.187	132.202	0.196	0.253
-189.173	-155.672	0.148	-0.010
-188.158	-36.360	0.297	0.160
-187.144	800.000	-0.057	0.196
-186.129	159.614	-0.154	0.215
-185.114	-200.000	-0.005	0.362
-184.100	105.221	-0.202	0.239
-183.085	-200.000	0.017	0.398
-182.071	-109.014	-0.106	0.023
-181.056	-200.000	0.043	0.322
-180.042	104.886	0.219	0.259
-179.027	-200.000	-0.004	-0.116
-178.012	-114.046	-0.275	0.053
-176.998	-59.591	0.082	-0.035
-175.983	-61.962	-0.196	0.082
-174.969	-68.929	0.299	-0.115
-173.954	800.000	-0.068	0.219
-172.939	-144.087	-0.164	0.015
-171.925	-200.000	0.055	-0.463
-170.910	-125.320	0.095	-0.015
-169.896	49.828	0.087	0.082
-168.881	26.466	0.126	0.106
-167.866	108.535	0.086	0.103
-166.852	89.977	-0.060	0.068
-165.837	800.000	0.083	-0.238
-164.823	707.989	0.038	0.101
-163.808	108.275	0.212	-0.253
-162.793	-1.409	0.197	-0.139
-161.779	-109.254	0.242	-0.051
-160.764	104.336	-0.012	0.014
-159.750	-32.442	0.113	0.063
-158.735	800.000	0.085	-0.241
-157.720	-200.000	0.020	0.211
-156.706	800.000	-0.009	0.029
-155.691	-155.386	0.213	0.014
-154.677	800.000	-0.042	-0.167
-153.662	624.260	-0.148	-0.375
-152.647	-134.590	0.192	-0.023
-151.633	75.849	0.100	0.106
-150.618	-58.975	-0.200	-0.087
-149.604	-63.387	0.217	0.089
-148.589	-200.000	-0.052	0.305
-147.574	577.770	-0.128	0.314
-146.560	-72.516	0.105	0.039
-145.545	-200.000	0.051	-0.363
-144.531	-200.000	0.072	0.351
-143.516	-200.000	0.013	0.070
-142.502	-79.689	-0.109	-0.037
-141.487	-160.004	-0.352	-0.019
-140.472	50.746	0.107	-0.102
-139.458	66.401	0.239	0.243
-138.443	-12.280	-0.042	-0.027
-137.429	-86.857	0.022	0.007
-136.414	235.703	-0.155	-0.256
-135.399	351.256	0.069	0.136
-134.385	-32.040	-0.127	0.071
-133.370	800.000	-0.160	-0.464
-132.356	93.207	0.051	-0.058
-131.341	-84.054	-0.114	0.036
-130.326	33.043	-0.119	0.103
-129.312	800.000	0.087	0.261
-128.297	4.220	0.193	0.141
-127.283	-38.304	0.136	0.072
-126.268	-125.642	-0.107	0.016
-125.253	-79.580	0.198	-0.067
-124.239	8.823	-0.135	-0.102
-123.224	-38.077	-0.089	0.047
-122.210	-11.418	-0.137	-0.090
-121.195	-89.808	0.288	0.084
