DTS Sentinel unit serial number:	SN413079Multiplexer serial number:	ORYXHardware model number:	OX4-SRSoftware version number:	ORYX F/W v4.00 Oryx Data Collector v3.7.2.0data status	okinstallation	princeton_trtdifferential loss correction	single-endedforward channel	channel 4reverse channel	N/Adate	2019/09/16time	13:57:35forward acquisition time	60.00reverse acquisition time	0.00gamma	496.2192k internal	0.2285k external	0.2285temperature offset calibration	0.9938default loss term (dB/km)	0.3790temperature slope calibration	1.0000multiplexer offset coefficient	1.0000multiplexer slope coefficient	1.0000fibre end	0.00T internal ref (°C)	42.39T ext. ref 1 (°C)	14.01T ext. ref 2 (°C)	38.03length (m)	temperature (°C)	Stokes	anti-Stokes-747.200	800.000	0.058	0.249
-746.185	116.391	0.047	-0.059
-745.171	-43.870	-0.346	-0.179
-744.156	18.324	-0.043	0.035
-743.142	-200.000	-0.058	-0.356
-742.127	-116.855	-0.256	0.048
-741.112	283.687	0.128	0.237
-740.098	-10.793	-0.141	0.096
-739.083	-120.771	0.128	-0.022
-738.069	-21.737	0.071	0.044
-737.054	6.254	-0.243	-0.185
-736.039	-86.629	-0.222	0.070
-735.025	-134.673	0.072	-0.009
-734.010	116.890	0.076	-0.096
-732.996	24.378	-0.193	-0.164
-731.981	43.842	0.086	-0.081
-730.966	-148.207	-0.179	0.015
-729.952	346.194	-0.075	-0.151
-728.937	-124.904	0.313	0.050
-727.923	310.508	-0.104	-0.199
-726.908	-79.393	-0.105	-0.036
-725.894	-120.632	-0.338	-0.059
-724.879	-189.885	-0.272	0.003
-723.864	-120.715	0.121	-0.021
-722.850	214.629	0.102	0.165
-721.835	362.448	0.107	-0.220
-720.821	-200.000	0.008	-0.257
-719.806	439.507	-0.073	-0.163
-718.791	-28.504	-0.108	-0.064
-717.777	2.196	-0.324	0.240
-716.762	-106.495	0.237	0.054
-715.748	-94.564	-0.170	-0.047
-714.733	107.581	-0.199	0.243
-713.718	-87.493	-0.319	0.099
-712.704	-200.000	0.011	-0.237
-711.689	-188.388	0.147	-0.002
-710.675	800.000	0.097	-0.336
-709.660	275.119	0.041	-0.075
-708.645	100.164	0.146	-0.173
-707.631	165.439	-0.210	-0.304
-706.616	131.735	0.109	0.144
-705.602	107.388	-0.087	-0.106
-704.587	-107.702	0.197	0.044
-703.572	609.105	-0.025	0.063
-702.558	-159.497	-0.159	0.009
-701.543	255.673	0.245	-0.430
-700.529	-200.000	0.038	-0.190
-699.514	17.744	0.141	-0.115
-698.499	-103.405	0.273	-0.066
-697.485	89.907	0.127	0.145
-696.470	103.516	-0.071	0.085
-695.456	626.712	0.109	0.283
-694.441	181.842	-0.102	-0.154
-693.426	800.000	0.082	0.308
-692.412	21.667	-0.136	0.113
-691.397	-30.185	0.270	-0.157
-690.383	-200.000	0.030	0.179
-689.368	47.459	0.103	0.099
-688.354	-53.826	0.113	-0.053
-687.339	110.364	0.184	-0.227
-686.324	92.019	0.195	-0.225
-685.310	-89.504	-0.189	0.057
-684.295	800.000	0.087	0.291
-683.281	-81.099	-0.184	0.062
-682.266	800.000	-0.063	0.273
-681.251	-200.000	0.021	0.167
-680.237	46.496	0.021	0.020
-679.222	521.212	-0.031	0.074
-678.208	4.458	-0.121	-0.091
-677.193	-200.000	0.042	-0.481
-676.178	115.268	0.190	0.238
-675.164	29.166	-0.200	-0.174
-674.149	178.201	-0.156	-0.234
-673.135	800.000	-0.105	-0.305
-672.120	-84.350	-0.061	-0.020
-671.105	-118.381	-0.202	-0.037
-670.091	-23.872	0.230	-0.141
-669.076	-200.000	0.035	-0.220
-668.062	-64.662	0.213	-0.088
-667.047	339.929	-0.150	0.299
-666.032	71.816	-0.124	-0.132
-665.018	791.412	-0.127	0.359
-664.003	156.729	0.230	0.325
-662.989	-200.000	-0.001	-0.123
-661.974	590.228	0.020	-0.051
-660.959	-100.526	0.089	-0.023
-659.945	-77.997	0.151	-0.053
-658.930	-98.101	-0.107	-0.028
-657.916	-74.812	0.091	0.033
-656.901	14.613	-0.361	0.288
-655.886	86.288	-0.045	-0.051
-654.872	-144.385	0.391	0.037
-653.857	-101.111	-0.143	-0.036
-652.843	800.000	-0.053	-0.166
-651.828	-200.000	0.004	-0.402
-650.814	-82.213	-0.139	-0.046
-649.799	10.227	0.143	-0.112
-648.784	-126.977	0.316	0.048
-647.770	-53.112	0.310	0.146
-646.755	800.000	-0.085	-0.268
-645.741	173.634	-0.266	-0.392
-644.726	-72.292	0.207	-0.078
-643.711	800.000	-0.029	0.116
-642.697	233.169	-0.087	-0.147
-641.682	-44.736	0.174	0.089
-640.668	-41.485	-0.091	-0.048
-639.653	219.813	0.056	0.092
-638.638	59.585	-0.078	-0.078
-637.624	-20.335	0.146	0.092
-636.609	73.692	-0.130	-0.139
-635.595	-200.000	-0.000	0.001
-634.580	800.000	-0.062	0.221
-633.565	-115.825	0.302	0.058
-632.551	-72.881	-0.055	0.021
-631.536	-4.112	-0.160	-0.113
-630.522	-92.074	-0.031	0.009
-629.507	-200.000	0.002	0.208
-628.492	-11.614	0.133	0.090
-627.478	-19.490	0.149	-0.095
-626.463	-114.247	-0.129	0.025
-625.449	275.125	0.101	-0.183
-624.434	-78.498	-0.304	-0.106
-623.419	8.242	-0.221	-0.170
-622.405	579.861	0.010	-0.024
-621.390	721.474	0.047	-0.129
-620.376	92.460	0.158	-0.182
-619.361	-137.752	0.206	0.024
-618.346	800.000	0.050	0.187
-617.332	-36.078	-0.234	0.129
-616.317	29.745	-0.049	0.043
-615.303	-87.176	-0.080	0.025
-614.288	-89.133	0.309	0.093
-613.273	283.902	-0.179	-0.328
-612.259	-76.296	-0.235	-0.085
-611.244	-112.571	0.226	-0.046
-610.230	12.157	0.223	0.175
-609.215	-118.900	-0.456	-0.082
-608.201	-164.630	-0.047	-0.002
-607.186	229.377	0.129	0.215
-606.171	-127.449	-0.382	0.057
-605.157	76.749	0.310	-0.336
-604.142	-155.139	-0.209	0.014
-603.128	-151.307	0.205	0.016
-602.113	629.404	-0.110	-0.285
-601.098	26.976	-0.077	0.066
-600.084	648.211	-0.103	-0.269
-599.069	800.000	0.087	-0.271
-598.055	800.000	0.103	0.368
-597.040	-26.769	-0.059	0.035
-596.025	-200.000	-0.007	0.288
-595.011	-23.458	0.130	-0.080
-593.996	-74.572	0.231	-0.085
-592.982	340.993	-0.089	-0.178
-591.967	47.455	-0.144	0.137
-590.952	135.741	-0.320	0.425
-589.938	-55.418	0.301	0.138
-588.923	-49.197	-0.262	0.128
-587.909	146.759	0.027	-0.037
-586.894	42.997	-0.176	0.164
-585.879	800.000	-0.108	-0.316
-584.865	-128.576	-0.242	-0.035
-583.850	-111.124	-0.205	0.043
-582.836	-131.327	-0.327	0.044
-581.821	-37.570	-0.390	0.212
-580.806	-200.000	0.060	0.414
-579.792	192.657	-0.078	0.120
-578.777	8.683	0.248	-0.190
-577.763	49.971	-0.121	-0.116
-576.748	-138.201	0.128	0.014
-575.733	260.570	-0.141	-0.248
-574.719	-52.981	0.105	0.049
-573.704	-71.575	-0.144	0.055
-572.690	-90.783	-0.404	-0.119
-571.675	-144.358	-0.349	0.033
-570.661	-98.284	-0.341	-0.089
-569.646	213.549	0.243	-0.392
-568.631	-159.474	0.127	-0.007
-567.617	-46.675	0.473	0.236
-566.602	196.075	0.172	0.267
-565.588	-13.312	0.301	-0.199
-564.573	132.821	-0.055	0.073
-563.558	67.910	-0.043	-0.045
-562.544	75.224	0.061	0.066
-561.529	81.526	0.296	0.326
-560.515	-200.000	-0.044	0.348
-559.500	-200.000	0.016	0.189
-558.485	10.639	-0.199	0.155
-557.471	-69.425	0.142	-0.056
-556.456	-116.115	0.286	-0.054
-555.442	800.000	-0.039	0.167
-554.427	3.985	0.219	0.164
-553.412	16.429	0.204	0.164
-552.398	-34.579	0.105	-0.059
-551.383	800.000	-0.112	-0.392
-550.369	-200.000	-0.020	0.242
-549.354	487.399	0.052	0.122
-548.339	114.280	0.049	0.061
-547.325	800.000	-0.076	0.317
-546.310	-96.503	-0.307	0.083
-545.296	800.000	0.032	-0.133
-544.281	534.520	0.063	-0.152
-543.266	-114.237	-0.109	-0.021
-542.252	80.233	-0.228	0.250
-541.237	-75.176	0.069	-0.025
-540.223	95.619	-0.169	-0.197
-539.208	-83.489	-0.322	-0.105
-538.193	160.538	0.215	-0.306
-537.179	54.300	-0.142	-0.139
-536.164	17.331	0.209	-0.169
-535.150	185.264	0.074	0.112
-534.135	27.043	0.132	0.113
-533.121	-200.000	0.008	0.467
-532.106	800.000	-0.063	0.213
-531.091	193.701	0.084	0.129
-530.077	42.305	-0.165	-0.153
-529.062	223.867	-0.161	-0.265
-528.048	-3.013	-0.131	0.093
-527.033	800.000	-0.080	-0.264
-526.018	-148.067	0.246	0.021
-525.004	247.651	-0.072	-0.123
-523.989	800.000	-0.022	-0.070
-522.975	68.586	-0.210	-0.219
-521.960	1.445	0.143	0.105
-520.945	352.241	-0.026	-0.053
-519.931	528.494	0.117	-0.281
-518.916	166.120	-0.246	-0.355
-517.902	210.849	0.183	-0.293
-516.887	800.000	-0.116	0.438
-515.872	-125.548	0.204	-0.032
-514.858	-34.783	0.156	-0.087
-513.843	-200.000	-0.001	0.098
-512.829	-163.345	-0.121	-0.006
-511.814	5.916	-0.122	0.092
-510.799	20.020	-0.275	-0.225
-509.785	170.815	-0.132	-0.192
-508.770	240.912	-0.110	-0.187
-507.756	44.818	-0.094	0.088
-506.741	-83.809	-0.091	0.029
-505.726	800.000	0.039	0.130
-504.712	120.657	0.151	0.191
-503.697	73.719	0.159	-0.169
-502.683	444.631	-0.061	-0.137
-501.668	169.146	-0.122	-0.176
-500.653	800.000	-0.049	0.216
-499.639	-200.000	0.004	-0.410
-498.624	-200.000	-0.015	0.128
-497.610	488.703	0.093	0.216
-496.595	239.265	0.019	0.032
-495.581	354.638	-0.032	0.066
-494.566	89.514	-0.184	-0.209
-493.551	800.000	0.099	-0.336
-492.537	694.545	0.112	-0.298
-491.522	400.368	-0.164	-0.349
-490.508	-90.838	0.044	-0.013
-489.493	-20.220	0.137	0.085
-488.478	800.000	-0.125	-0.448
-487.464	-61.136	0.191	0.082
-486.449	-26.209	-0.235	-0.141
-485.435	134.599	-0.235	-0.310
-484.420	-48.355	-0.101	0.049
-483.405	-172.097	0.110	0.004
-482.391	-95.358	0.655	-0.179
-481.376	-177.124	0.045	-0.001
-480.362	351.055	0.068	0.137
-479.347	163.112	-0.044	-0.063
-478.332	800.000	-0.042	0.160
-477.318	800.000	0.034	-0.105
-476.303	284.547	0.213	-0.390
-475.289	-200.000	0.012	0.180
-474.274	-47.693	0.269	0.133
-473.259	519.730	0.018	-0.042
-472.245	91.133	-0.083	0.094
-471.230	120.160	-0.024	-0.031
-470.216	29.853	0.146	0.126
-469.201	112.560	-0.157	-0.193
-468.186	-43.250	0.126	0.065
-467.172	-70.224	0.153	0.059
-466.157	-117.469	0.103	0.019
-465.143	-114.895	-0.166	0.032
-464.128	-54.607	-0.252	0.116
-463.113	-48.625	-0.625	0.305
-462.099	-200.000	0.027	-0.470
-461.084	-200.000	-0.072	0.329
-460.070	800.000	0.090	0.344
-459.055	152.801	-0.029	-0.040
-458.040	171.777	-0.258	0.376
-457.026	217.521	-0.166	0.269
-456.011	-58.667	0.061	0.027
-454.997	-200.000	0.032	0.284
-453.982	55.567	-0.185	0.182
-452.968	194.464	-0.299	0.460
-451.953	-200.000	-0.040	0.375
-450.938	15.706	-0.257	-0.205
-449.924	222.278	-0.178	-0.291
-448.909	-100.993	-0.109	0.027
-447.895	-200.000	0.011	-0.171
-446.880	-39.515	0.354	-0.188
-445.865	-60.657	-0.217	0.093
-444.851	56.799	0.113	0.111
-443.836	58.095	0.321	-0.319
-442.822	-132.917	0.415	-0.054
-441.807	47.370	-0.258	0.244
-440.792	27.871	-0.222	0.190
-439.778	-94.978	0.391	0.107
-438.763	-200.000	0.052	-0.296
-437.749	-74.705	-0.281	-0.102
-436.734	-200.000	0.036	-0.312
-435.719	-90.512	-0.288	-0.085
-434.705	-44.443	-0.181	0.092
-433.690	34.931	0.228	0.202
-432.676	-200.000	-0.015	0.208
-431.661	117.434	-0.146	0.182
-430.646	-135.322	-0.179	0.022
-429.632	-200.000	-0.089	0.439
-428.617	-200.000	-0.001	0.165
-427.603	-65.774	0.107	-0.043
-426.588	-85.016	-0.187	-0.059
-425.573	-40.688	-0.032	-0.017
-424.559	299.034	0.098	0.183
-423.544	66.906	0.076	0.078
-422.530	-200.000	0.031	-0.209
-421.515	-200.000	-0.029	0.139
-420.500	465.955	0.047	-0.106
-419.486	31.541	0.061	-0.053
-418.471	800.000	0.079	-0.314
-417.457	800.000	0.056	-0.197
-416.442	-97.841	-0.047	0.012
-415.428	-139.652	0.082	-0.009
-414.413	203.113	0.072	-0.113
-413.398	40.763	-0.076	0.070
-412.384	158.954	-0.055	0.077
-411.369	-143.555	-0.119	0.011
-410.355	60.738	-0.047	0.047
-409.340	-200.000	-0.014	-0.072
-408.325	-200.000	-0.010	0.081
-407.311	493.291	-0.147	-0.341
-406.296	168.374	-0.090	-0.129
-405.282	800.000	0.034	-0.147
-404.267	-98.752	0.310	-0.080
-403.252	800.000	-0.016	0.055
-402.238	-200.000	-0.020	-0.097
-401.223	-63.493	0.390	0.162
-400.209	145.058	0.221	0.300
-399.194	64.006	0.128	-0.130
-398.179	-14.568	0.052	-0.034
-397.165	777.999	-0.125	-0.346
-396.150	-52.003	-0.165	-0.078
-395.136	-56.269	0.333	0.150
-394.121	391.199	-0.103	-0.216
-393.106	111.164	0.200	-0.244
-392.092	800.000	-0.008	-0.030
-391.077	-200.000	-0.051	0.295
-390.063	-200.000	-0.057	0.285
-389.048	447.236	-0.048	-0.106
-388.033	-21.351	0.047	0.029
-387.019	-137.306	-0.271	-0.031
-386.004	-68.903	0.148	0.058
-384.990	-32.715	-0.198	0.112
-383.975	-200.000	0.008	-0.209
-382.960	-200.000	-0.014	-0.152
-381.946	-128.715	-0.164	0.023
-380.931	377.993	0.035	-0.072
-379.917	531.905	0.111	-0.267
-378.902	558.053	0.031	0.076
-377.888	41.159	-0.096	-0.087
-376.873	-145.520	-0.235	-0.021
-375.858	800.000	0.125	0.370
-374.844	-200.000	-0.041	0.406
-373.829	114.335	-0.023	-0.028
-372.815	-66.815	-0.163	0.065
-371.800	-149.768	-0.210	0.017
-370.785	-118.464	-0.216	-0.039
-369.771	2.038	0.315	0.230
-368.756	-134.192	0.168	0.021
-367.742	-40.908	0.065	-0.034
-366.727	-111.429	0.195	-0.040
-365.712	-161.253	-0.217	-0.011
-364.698	-200.000	-0.022	-0.442
-363.683	285.308	-0.116	-0.212
-362.669	800.000	0.067	-0.253
-361.654	-125.829	-0.234	-0.036
-360.639	125.823	0.118	-0.150
-359.625	-78.258	0.148	-0.051
-358.610	22.638	0.321	0.266
-357.596	-157.196	-0.163	0.010
-356.581	-146.358	-0.448	0.040
-355.566	232.899	-0.105	-0.174
-354.552	-200.000	0.043	-0.302
-353.537	38.382	0.120	-0.109
-352.523	800.000	-0.057	0.221
-351.508	-108.510	-0.112	-0.024
-350.493	238.293	0.034	0.057
-349.479	447.945	-0.213	-0.473
-348.464	-200.000	0.018	-0.138
-347.450	-98.369	-0.214	0.056
-346.435	-23.277	0.163	-0.099
-345.420	-200.000	0.005	-0.183
-344.406	221.511	0.123	-0.200
-343.391	-160.830	0.210	-0.011
-342.377	800.000	0.026	0.081
-341.362	-10.487	0.092	0.062
-340.348	33.943	0.135	0.119
-339.333	-161.611	0.067	0.003
-338.318	-200.000	0.015	0.235
-337.304	83.918	-0.124	0.137
-336.289	-200.000	-0.003	0.070
-335.275	-167.991	0.617	0.024
-334.260	-50.586	0.335	0.160
-333.245	175.745	0.180	-0.263
-332.231	-38.268	-0.391	0.209
-331.216	-36.124	0.336	0.183
-330.202	698.767	0.027	0.071
-329.187	-99.160	-0.182	-0.047
-328.172	376.145	0.079	-0.162
-327.158	110.565	0.197	0.239
-326.143	-200.000	0.022	-0.114
-325.129	59.113	-0.186	0.185
-324.114	-45.743	-0.086	0.043
-323.099	-200.000	0.036	0.166
-322.085	64.640	-0.224	0.228
-321.070	-195.922	-0.305	-0.002
-320.056	-200.000	-0.045	-0.286
-319.041	-200.000	-0.057	-0.264
-318.026	-71.352	0.319	-0.121
-317.012	-111.096	-0.450	0.093
-315.997	800.000	0.029	-0.117
-314.983	-200.000	0.031	0.137
-313.968	552.277	0.066	0.160
-312.953	65.291	-0.261	-0.267
-311.939	-27.740	-0.302	-0.177
-310.924	425.359	0.063	-0.136
-309.910	-53.147	0.237	0.110
-308.895	55.513	-0.180	0.176
-307.880	-58.700	0.250	0.109
-306.866	-168.719	-0.271	-0.010
-305.851	-101.901	-0.258	0.063
-304.837	108.818	-0.111	0.134
-303.822	110.252	-0.071	0.086
-302.807	15.700	-0.396	-0.315
-301.793	-53.211	-0.195	0.090
-300.778	-68.202	-0.004	-0.001
-299.764	-55.047	-0.044	-0.020
-298.749	574.442	-0.126	0.310
-297.735	-25.669	-0.266	-0.158
-296.720	-26.686	0.238	0.140
-295.705	800.000	0.040	0.159
-294.691	-89.192	0.213	-0.063
-293.676	52.636	0.325	0.313
-292.662	-5.169	0.194	0.134
-291.647	-53.225	-0.188	-0.087
-290.632	22.370	0.220	0.182
-289.618	189.005	0.055	-0.083
-288.603	-22.092	0.093	0.057
-287.589	-81.050	-0.404	-0.135
-286.574	254.925	-0.135	-0.233
-285.559	44.527	0.188	-0.174
-284.545	156.755	0.083	0.115
-283.530	659.668	-0.072	0.186
-282.516	-98.787	-0.191	0.049
-281.501	-2.771	0.056	0.039
-280.486	524.475	0.041	0.096
-279.472	149.524	0.094	0.128
-278.457	-30.326	0.222	0.127
-277.443	-200.000	-0.018	-0.126
-276.428	-67.855	-0.041	0.016
-275.413	-200.000	0.006	0.079
-274.399	151.156	-0.210	0.288
-273.384	-1.002	0.098	-0.070
-272.370	800.000	-0.036	0.116
-271.355	800.000	-0.035	-0.148
-270.340	8.282	-0.144	0.109
-269.326	22.139	0.219	0.181
-268.311	-180.293	-0.135	0.003
-267.297	196.760	-0.232	-0.356
-266.282	575.344	-0.117	-0.288
-265.267	-200.000	-0.005	0.174
-264.253	-200.000	-0.041	0.212
-263.238	-123.337	0.065	0.010
-262.224	-151.239	0.248	0.019
-261.209	-200.000	0.022	-0.227
-260.195	800.000	0.076	0.323
-259.180	33.726	0.226	-0.198
-258.165	-13.704	0.052	0.034
-257.151	800.000	-0.049	0.199
-256.136	11.553	-0.118	0.091
-255.122	128.014	-0.187	0.240
-254.107	321.524	-0.145	0.278
-253.092	-27.736	-0.238	0.139
-252.078	164.343	0.176	0.250
-251.063	-165.544	-0.141	-0.006
-250.049	-78.479	-0.036	-0.012
-249.034	210.578	-0.018	0.028
-248.019	144.867	-0.067	0.090
-247.005	26.228	0.200	0.168
-245.990	-200.000	0.012	0.182
-244.976	-55.743	-0.256	0.115
-243.961	-9.930	-0.133	0.089
-242.946	-91.214	0.187	-0.054
-241.932	800.000	-0.028	0.121
-240.917	34.756	-0.109	0.096
-239.903	-61.061	0.062	-0.026
-238.888	54.136	0.070	-0.068
-237.873	1.623	0.270	-0.195
-236.859	103.491	0.094	0.111
-235.844	800.000	-0.078	-0.304
-234.830	49.096	-0.034	-0.032
-233.815	-16.742	0.108	-0.068
-232.800	-200.000	-0.010	0.114
-231.786	-190.204	-0.163	0.002
-230.771	-99.670	0.221	-0.056
-229.757	-132.018	0.230	0.030
-228.742	-122.321	-0.102	0.017
-227.727	-61.369	-0.031	0.013
-226.713	318.350	0.118	-0.225
-225.698	-57.957	0.339	-0.149
-224.684	-69.826	0.080	0.031
-223.669	-110.718	0.154	0.032
-222.655	-100.111	-0.196	-0.049
-221.640	-11.732	-0.166	0.110
-220.625	-24.723	-0.240	0.143
-219.611	-30.929	-0.267	-0.152
-218.596	68.418	0.135	-0.139
-217.582	-200.000	-0.021	-0.118
-216.567	-200.000	0.024	-0.305
-215.552	-200.000	-0.020	0.417
-214.538	-200.000	0.002	0.082
-213.523	60.624	0.304	-0.303
-212.509	-176.927	-0.376	0.010
-211.494	-50.663	0.179	-0.085
-210.479	231.924	0.201	-0.332
-209.465	-200.000	0.018	-0.233
-208.450	-158.742	0.485	0.028
-207.436	-77.474	0.467	0.163
-206.421	-200.000	-0.037	0.168
-205.406	561.462	0.085	0.207
-204.392	135.317	0.213	0.279
-203.377	153.121	0.349	-0.480
-202.363	-28.706	0.090	-0.052
-201.348	-200.000	-0.007	-0.264
-200.333	800.000	-0.049	0.182
-199.319	239.202	0.111	0.185
-198.304	134.860	0.048	-0.062
-197.290	-149.894	-0.051	0.004
-196.275	800.000	0.064	0.219
-195.260	281.431	0.110	0.197
-194.246	800.000	0.029	0.092
-193.231	74.477	0.084	0.089
-192.217	800.000	0.045	0.172
-191.202	71.932	-0.220	-0.230
-190.187	800.000	0.094	-0.274
-189.173	-25.748	0.250	0.148
-188.158	-2.538	0.192	0.135
-187.144	71.258	-0.151	-0.158
-186.129	-200.000	-0.009	-0.148
-185.114	-38.308	-0.201	-0.107
-184.100	800.000	-0.068	-0.251
-183.085	183.125	-0.138	-0.205
-182.071	-131.101	0.178	0.024
-181.056	89.926	-0.056	0.063
-180.042	-128.036	0.182	0.026
-179.027	36.680	-0.099	0.088
-178.012	-200.000	0.033	0.218
-176.998	-117.400	0.160	-0.029
-175.983	33.739	0.214	-0.187
-174.969	-135.267	0.180	0.022
-173.954	-75.580	0.273	-0.098
-172.939	-39.316	0.064	-0.034
-171.925	800.000	-0.123	0.392
-170.910	-132.912	-0.361	0.046
-169.896	-200.000	-0.005	0.117
-168.881	-140.325	0.073	-0.008
-167.866	540.884	0.120	0.286
-166.852	16.780	0.221	0.176
-165.837	-11.664	-0.260	-0.171
-164.823	-200.000	0.062	-0.460
-163.808	800.000	-0.066	-0.226
-162.793	-122.712	0.390	0.063
-161.779	-75.496	0.031	0.011
-160.764	-200.000	-0.010	0.184
-159.750	-123.401	0.171	0.027
-158.735	-134.440	-0.191	0.023
-157.720	-64.741	0.362	-0.147
-156.706	-54.431	-0.448	-0.204
-155.691	800.000	-0.046	0.162
-154.677	-200.000	-0.011	-0.168
-153.662	-35.676	-0.262	-0.142
-152.647	-147.933	0.487	0.041
-151.633	-151.607	0.231	0.017
-150.618	-200.000	-0.010	-0.049
-149.604	-71.827	-0.308	0.115
-148.589	75.608	0.015	0.016
-147.574	-12.771	-0.202	-0.132
-146.560	-7.742	-0.139	-0.094
-145.545	-60.905	0.306	0.130
-144.531	-24.579	0.231	-0.138
-143.516	317.845	-0.102	-0.193
-142.502	438.346	-0.172	-0.375
-141.487	-156.320	0.450	-0.028
-140.472	800.000	0.065	0.194
-139.458	800.000	-0.080	-0.295
-138.443	353.003	-0.120	-0.238
-137.429	800.000	-0.044	-0.187
-136.414	-200.000	0.001	0.057
-135.399	-200.000	-0.163	-0.000
-134.385	25.556	-0.154	0.129
-133.370	-200.000	0.017	0.251
-132.356	-9.912	-0.037	0.025
-131.341	193.190	0.046	0.069
-130.326	800.000	0.009	0.028
-129.312	-169.770	-0.405	-0.015
-128.297	186.672	-0.151	0.225
-127.283	274.881	0.090	0.160
-126.268	50.884	-0.146	0.138
-125.253	-27.133	-0.129	-0.075
-124.239	-200.000	0.038	0.233
-123.224	-129.968	0.245	0.034
-122.210	-53.242	0.128	0.059
-121.195	800.000	-0.042	0.168
-120.180	-107.458	0.050	-0.011
