DTS Sentinel unit serial number:	SN413079Multiplexer serial number:	ORYXHardware model number:	OX4-SRSoftware version number:	ORYX F/W v4.00 Oryx Data Collector v3.7.2.0data status	okinstallation	princeton_trtdifferential loss correction	single-endedforward channel	channel 4reverse channel	N/Adate	2019/09/14time	15:17:35forward acquisition time	60.00reverse acquisition time	0.00gamma	496.2192k internal	0.2290k external	0.2290temperature offset calibration	1.0143default loss term (dB/km)	0.3790temperature slope calibration	1.0000multiplexer offset coefficient	1.0000multiplexer slope coefficient	1.0000fibre end	0.00T internal ref (°C)	39.08T ext. ref 1 (°C)	5.14T ext. ref 2 (°C)	34.31length (m)	temperature (°C)	Stokes	anti-Stokes-747.200	399.423	0.141	-0.302
-746.185	-57.784	0.216	-0.097
-745.171	27.421	0.114	-0.098
-744.156	-47.437	0.122	0.061
-743.142	211.044	0.088	-0.142
-742.127	-46.474	-0.205	0.103
-741.112	143.108	-0.177	-0.241
-740.098	38.951	0.158	0.144
-739.083	107.153	0.230	0.280
-738.069	-175.938	0.152	0.004
-737.054	157.888	-0.147	0.208
-736.039	-51.955	-0.316	-0.151
-735.025	-1.483	0.134	0.097
-734.010	-26.263	-0.143	0.086
-732.996	689.334	0.159	-0.425
-731.981	-200.000	0.007	-0.053
-730.966	341.126	-0.160	-0.319
-729.952	-67.357	-0.334	-0.135
-728.937	-12.541	-0.205	0.137
-727.923	-116.719	0.474	0.089
-726.908	-16.971	0.222	0.144
-725.894	-200.000	0.042	0.608
-724.879	22.024	-0.332	-0.277
-723.864	-200.000	-0.050	-0.579
-722.850	209.712	0.060	-0.096
-721.835	-31.147	-0.226	-0.131
-720.821	71.268	-0.295	-0.313
-719.806	98.184	-0.173	0.204
-718.791	131.635	-0.242	-0.319
-717.777	29.338	-0.212	-0.185
-716.762	-200.000	0.019	0.140
-715.748	428.587	0.075	0.165
-714.733	66.771	0.116	0.121
-713.718	-182.180	-0.471	0.009
-712.704	-34.775	-0.419	-0.234
-711.689	-60.104	-0.347	-0.151
-710.675	-200.000	-0.006	-0.070
-709.660	119.984	-0.059	-0.075
-708.645	360.683	0.082	0.167
-707.631	-116.633	-0.130	0.024
-706.616	800.000	-0.057	-0.206
-705.602	-183.738	0.118	0.002
-704.587	-177.308	0.216	0.005
-703.572	-200.000	0.039	-0.222
-702.558	-70.890	0.120	0.046
-701.543	0.441	0.102	-0.074
-700.529	-145.996	0.207	-0.019
-699.514	80.585	-0.236	-0.260
-698.499	-44.191	0.230	0.118
-697.485	-102.605	-0.309	0.075
-696.470	62.520	0.094	-0.096
-695.456	287.611	0.082	0.152
-694.441	-175.206	-0.269	-0.008
-693.426	-63.443	-0.208	-0.087
-692.412	-163.558	-0.263	0.013
-691.397	-46.257	-0.213	-0.107
-690.383	-88.942	0.055	0.017
-689.368	-176.237	-0.110	0.003
-688.354	-47.463	0.196	-0.097
-687.339	-64.269	-0.147	0.061
-686.324	-65.026	-0.202	-0.084
-685.310	297.754	-0.095	0.179
-684.295	503.007	-0.035	0.083
-683.281	-200.000	-0.001	-0.211
-682.266	140.204	0.079	0.106
-681.251	-200.000	-0.000	0.254
-680.237	-107.727	-0.356	0.079
-679.222	97.156	-0.235	-0.275
-678.208	-73.874	0.192	0.071
-677.193	-109.047	0.078	0.017
-676.178	-200.000	-0.036	-0.167
-675.164	-89.909	-0.041	-0.012
-674.149	151.559	-0.140	-0.194
-673.135	-113.232	-0.435	-0.088
-672.120	800.000	0.100	-0.354
-671.105	152.999	0.054	0.075
-670.091	-12.926	-0.282	0.187
-669.076	-106.919	-0.237	0.054
-668.062	-24.522	-0.182	-0.111
-667.047	-48.662	-0.191	-0.094
-666.032	-107.229	0.431	0.097
-665.018	110.571	-0.077	-0.095
-664.003	19.154	0.153	0.126
-662.989	333.394	0.108	-0.213
-661.974	-200.000	-0.033	-0.221
-660.959	-50.111	-0.230	-0.111
-659.945	173.511	0.104	0.153
-658.930	57.575	-0.138	-0.137
-657.916	-200.000	-0.012	0.095
-656.901	87.071	0.242	0.273
-655.886	241.115	0.168	-0.286
-654.872	-147.646	0.225	0.019
-653.857	-114.667	0.220	-0.043
-652.843	-4.701	0.127	-0.089
-651.828	-102.992	-0.310	-0.075
-650.814	800.000	-0.112	0.333
-649.799	800.000	-0.160	-0.452
-648.784	-200.000	0.017	-0.267
-647.770	800.000	0.092	-0.286
-646.755	-96.955	-0.229	0.061
-645.741	-200.000	0.097	-0.451
-644.726	34.312	-0.304	-0.271
-643.711	777.667	-0.046	-0.128
-642.697	-97.288	0.228	0.061
-641.682	776.553	-0.082	-0.229
-640.668	-134.380	-0.238	-0.030
-639.653	-33.624	-0.039	0.022
-638.638	-17.970	0.091	0.058
-637.624	-96.833	-0.328	0.088
-636.609	-25.927	0.092	0.055
-635.595	197.482	0.188	0.293
-634.580	-65.829	-0.308	0.126
-633.565	12.401	0.219	0.172
-632.551	90.489	0.061	-0.070
-631.536	15.328	0.203	-0.162
-630.522	-25.077	0.283	0.171
-629.507	2.056	0.127	-0.094
-628.492	15.730	0.152	0.122
-627.478	800.000	0.116	0.359
-626.463	215.117	0.113	0.183
-625.449	-200.000	0.030	-0.188
-624.434	33.953	-0.162	0.144
-623.419	800.000	-0.093	0.339
-622.405	800.000	0.055	-0.179
-621.390	59.718	0.279	0.281
-620.376	800.000	-0.115	0.366
-619.361	-200.000	0.037	0.229
-618.346	15.902	0.159	-0.128
-617.332	333.375	-0.082	0.162
-616.317	-42.367	-0.181	-0.094
-615.303	-122.847	-0.051	0.008
-614.288	-200.000	0.006	0.041
-613.273	-69.182	0.269	-0.105
-612.259	-88.615	0.366	0.111
-611.244	-15.658	-0.135	0.088
-610.230	334.291	-0.095	0.186
-609.215	-27.444	-0.090	-0.054
-608.201	239.178	-0.074	-0.126
-607.186	800.000	-0.036	0.157
-606.171	-39.502	0.219	0.117
-605.157	800.000	0.047	0.172
-604.142	106.480	-0.148	-0.178
-603.128	-147.980	0.075	0.006
-602.113	95.870	0.251	0.292
-601.098	-200.000	0.013	-0.076
-600.084	-91.449	0.220	-0.064
-599.069	-119.030	0.204	0.036
-598.055	-61.727	0.232	0.099
-597.040	-65.871	0.061	0.025
-596.025	-115.434	0.178	0.034
-595.011	-93.995	0.208	0.058
-593.996	65.743	0.075	-0.078
-592.982	-5.472	-0.183	-0.128
-591.967	292.549	0.044	-0.081
-590.952	-29.527	0.347	-0.202
-589.938	800.000	-0.037	-0.139
-588.923	158.912	0.188	0.266
-587.909	-47.138	0.078	-0.039
-586.894	64.378	0.205	0.210
-585.879	99.831	-0.227	0.268
-584.865	800.000	-0.021	0.059
-583.850	20.356	0.269	-0.221
-582.836	-27.953	-0.084	-0.049
-581.821	60.866	0.158	-0.159
-580.806	-90.358	-0.046	0.013
-579.792	68.724	-0.166	-0.174
-578.777	5.188	-0.260	0.195
-577.763	-200.000	-0.024	-0.209
-576.748	100.774	-0.085	0.100
-575.733	-168.389	-0.133	-0.005
-574.719	-200.000	-0.034	0.274
-573.704	105.700	-0.230	0.276
-572.690	-28.431	-0.291	0.171
-571.675	-48.938	0.260	-0.127
-570.661	150.464	0.071	-0.098
-569.646	-116.559	0.108	0.020
-568.631	-21.174	0.140	0.087
-567.617	-105.175	-0.094	-0.022
-566.602	-194.088	0.180	-0.002
-565.588	-143.193	-0.170	-0.017
-564.573	-200.000	-0.014	0.429
-563.558	81.827	0.120	0.132
-562.544	404.526	0.056	0.120
-561.529	-200.000	0.024	-0.186
-560.515	27.654	0.113	0.097
-559.500	800.000	0.071	0.296
-558.485	-89.166	0.051	-0.015
-557.471	580.047	-0.142	-0.354
-556.456	79.862	-0.357	-0.390
-555.442	-45.197	0.132	-0.067
-554.427	442.826	0.092	-0.205
-553.412	800.000	0.051	0.181
-552.398	435.191	-0.020	0.045
-551.383	18.659	0.466	0.379
-550.369	-22.757	-0.156	0.096
-549.354	61.321	0.032	-0.033
-548.339	4.642	-0.166	-0.124
-547.325	-153.539	-0.074	0.005
-546.310	-200.000	-0.015	0.137
-545.296	-104.979	0.381	0.089
-544.281	66.368	-0.076	-0.078
-543.266	-200.000	0.055	0.274
-542.252	92.265	-0.204	0.234
-541.237	800.000	-0.016	0.046
-540.223	-119.454	-0.199	-0.035
-539.208	-137.678	-0.314	0.036
-538.193	251.820	-0.075	0.131
-537.179	800.000	0.012	-0.041
-536.164	-34.182	0.234	0.130
-535.150	-157.343	0.171	0.011
-534.135	-60.739	-0.157	0.067
-533.121	113.356	-0.172	0.213
-532.106	-54.117	-0.242	-0.112
-531.091	135.455	-0.168	-0.223
-530.077	555.337	0.127	-0.310
-529.062	-124.058	-0.020	0.003
-528.048	-200.000	-0.007	0.086
-527.033	101.296	0.044	-0.052
-526.018	-33.783	-0.065	0.036
-525.004	310.901	-0.060	-0.114
-523.989	-200.000	-0.003	0.067
-522.975	800.000	0.030	-0.086
-521.960	-200.000	0.037	0.267
-520.945	287.978	0.039	0.072
-519.931	800.000	-0.065	0.275
-518.916	-200.000	-0.000	-0.213
-517.902	-142.121	0.239	-0.024
-516.887	43.197	-0.165	0.153
-515.872	109.204	-0.106	0.129
-514.858	-12.553	0.065	-0.043
-513.843	-200.000	-0.010	0.217
-512.829	231.793	-0.113	0.189
-511.814	-118.976	-0.038	0.007
-510.799	-200.000	-0.012	0.063
-509.785	-126.878	0.170	-0.025
-508.770	-127.543	-0.071	-0.010
-507.756	-200.000	0.029	-0.172
-506.741	15.303	-0.176	0.140
-505.726	3.369	0.137	0.101
-504.712	-1.241	0.044	-0.031
-503.697	-134.211	-0.225	0.028
-502.683	-4.898	-0.178	-0.124
-501.668	-119.931	0.239	-0.042
-500.653	-125.080	0.151	0.024
-499.639	-16.967	-0.273	-0.175
-498.624	-153.226	-0.122	-0.009
-497.610	-147.102	-0.296	0.026
-496.595	83.802	-0.209	0.231
-495.581	-178.818	0.226	-0.005
-494.566	113.712	0.061	-0.076
-493.551	-181.751	-0.326	0.006
-492.537	-41.023	-0.023	0.012
-491.522	-200.000	0.001	-0.096
-490.508	-119.777	-0.230	0.040
-489.493	77.296	-0.198	-0.213
-488.478	30.925	-0.180	0.157
-487.464	445.971	0.096	0.215
-486.449	-10.098	0.130	-0.088
-485.435	124.600	0.166	0.211
-484.420	-5.073	0.071	-0.049
-483.405	126.225	-0.092	0.118
-482.391	-40.629	0.056	-0.029
-481.376	-141.295	-0.269	-0.028
-480.362	633.867	0.033	0.085
-479.347	33.751	-0.145	-0.128
-478.332	9.194	-0.294	0.225
-477.318	-200.000	0.031	0.248
-476.303	270.055	-0.155	-0.276
-475.289	-83.352	-0.176	0.057
-474.274	421.474	-0.085	0.185
-473.259	0.557	-0.262	-0.190
-472.245	-69.639	-0.232	-0.090
-471.230	-93.428	0.237	0.067
-470.216	408.221	-0.238	0.510
-469.201	79.033	0.269	0.291
-468.186	243.345	0.161	-0.273
-467.172	-126.722	-0.346	0.052
-466.157	160.243	-0.012	0.018
-465.143	-83.078	0.287	-0.093
-464.128	-200.000	0.016	0.081
-463.113	-200.000	-0.036	0.226
-462.099	183.180	-0.118	0.176
-461.084	-77.565	0.311	-0.109
-460.070	-200.000	-0.024	0.110
-459.055	552.489	0.065	0.157
-458.040	-31.829	-0.144	0.082
-457.026	-47.501	0.116	-0.057
-456.011	17.837	-0.146	-0.117
-454.997	200.418	-0.102	-0.159
-453.982	800.000	0.103	-0.310
-452.968	167.854	0.222	-0.320
-451.953	-30.801	0.023	-0.013
-450.938	26.147	-0.193	0.163
-449.924	-200.000	0.018	0.084
-448.909	-200.000	-0.005	-0.093
-447.895	150.070	-0.033	0.046
-446.880	139.833	-0.080	0.107
-445.865	-155.515	0.129	0.008
-444.851	-200.000	-0.032	0.257
-443.836	800.000	0.075	-0.220
-442.822	-130.277	-0.187	-0.026
-441.807	800.000	-0.072	-0.221
-440.792	-29.410	0.084	0.049
-439.778	297.942	-0.150	0.279
-438.763	151.334	0.233	0.321
-437.749	-143.582	-0.101	0.010
-436.734	-126.207	-0.259	0.039
-435.719	-200.000	0.453	0.002
-434.705	80.509	0.033	0.036
-433.690	-109.783	0.189	-0.040
-432.676	-200.000	-0.000	-0.104
-431.661	58.068	0.202	0.200
-430.646	14.079	-0.109	-0.086
-429.632	501.249	0.206	-0.482
-428.617	219.120	0.219	-0.355
-427.603	-10.226	-0.445	-0.299
-426.588	-74.965	0.049	-0.018
-425.573	-200.000	0.066	-0.323
-424.559	0.567	-0.207	-0.150
-423.544	91.807	-0.150	0.171
-422.530	-38.623	0.251	-0.134
-421.515	20.517	0.401	-0.328
-420.500	21.054	0.038	0.031
-419.486	-46.751	0.329	-0.163
-418.471	-98.731	-0.300	0.077
-417.457	-200.000	-0.073	-0.000
-416.442	800.000	-0.037	-0.120
-415.428	292.246	-0.113	-0.208
-414.413	-63.292	-0.100	-0.042
-413.398	-59.237	0.216	-0.094
-412.384	-200.000	-0.032	-0.209
-411.369	-132.696	-0.136	-0.018
-410.355	42.865	-0.165	-0.152
-409.340	-200.000	-0.062	0.468
-408.325	800.000	-0.030	-0.132
-407.311	-93.076	0.185	-0.052
-406.296	-134.618	0.390	-0.048
-405.282	-20.614	-0.226	0.140
-404.267	402.151	-0.050	0.106
-403.252	-7.373	0.118	0.081
-402.238	-200.000	-0.021	0.377
-401.223	-49.343	-0.206	-0.099
-400.209	558.673	0.043	-0.104
-399.194	-200.000	0.019	0.126
-398.179	-200.000	0.023	0.153
-397.165	-200.000	0.040	-0.263
-396.150	-200.000	0.000	-0.001
-395.136	-200.000	0.047	-0.210
-394.121	-43.690	-0.078	-0.040
-393.106	-100.883	-0.085	-0.021
-392.092	-106.710	0.250	-0.056
-391.077	-121.611	0.204	-0.034
-390.063	-80.945	0.258	0.086
-389.048	-57.342	0.116	-0.052
-388.033	-29.664	0.027	0.016
-387.019	197.278	0.122	0.188
-386.004	-200.000	-0.089	0.457
-384.990	64.725	-0.224	0.228
-383.975	-144.307	-0.413	-0.039
-382.960	-60.733	0.197	0.084
-381.946	197.577	-0.232	-0.357
-380.931	218.831	0.063	-0.101
-379.917	800.000	-0.034	-0.096
-378.902	-87.432	-0.478	-0.146
-377.888	-10.129	0.043	0.029
-376.873	-200.000	-0.017	0.270
-375.858	-200.000	0.007	-0.096
-374.844	-80.089	0.227	0.077
-373.829	-200.000	0.051	-0.352
-372.815	-137.245	0.226	0.026
-371.800	-200.000	-0.029	0.151
-370.785	-200.000	-0.008	-0.112
-369.771	-200.000	0.048	-0.404
-368.756	-35.251	0.185	0.101
-367.742	199.698	-0.178	-0.276
-366.727	-116.064	0.043	0.008
-365.712	46.210	-0.145	-0.135
-364.698	507.225	-0.110	-0.258
-363.683	109.288	0.127	0.153
-362.669	97.765	-0.098	0.113
-361.654	800.000	-0.081	0.292
-360.639	800.000	-0.024	-0.088
-359.625	-18.649	0.014	0.009
-358.610	-94.956	-0.184	-0.050
-357.596	421.376	-0.125	0.270
-356.581	-200.000	-0.031	-0.241
-355.566	9.302	0.023	-0.018
-354.552	-7.385	0.241	0.164
-353.537	-200.000	-0.040	0.234
-352.523	-146.003	0.291	0.026
-351.508	169.863	0.076	-0.109
-350.493	13.710	-0.294	-0.230
-349.479	-200.000	-0.031	-0.277
-348.464	-9.261	-0.162	0.109
-347.450	459.157	-0.038	-0.086
-346.435	-200.000	0.016	-0.142
-345.420	156.978	-0.129	0.180
-344.406	101.032	0.082	-0.096
-343.391	800.000	-0.073	-0.319
-342.377	-113.553	-0.222	0.044
-341.362	55.399	0.084	0.082
-340.348	-200.000	-0.013	-0.119
-339.333	-200.000	0.018	-0.118
-338.318	278.618	-0.066	0.119
-337.304	800.000	0.040	0.141
-336.289	-87.839	0.218	0.066
-335.275	-164.882	0.240	-0.011
-334.260	39.995	0.360	-0.326
-333.245	-200.000	-0.215	0.000
-332.231	-200.000	-0.038	0.201
-331.216	-200.000	0.006	-0.096
-330.202	-59.933	0.076	-0.033
-329.187	-200.000	0.199	0.000
-328.172	85.951	0.105	0.116
-327.158	183.904	-0.085	-0.127
-326.143	-68.745	-0.241	0.094
-325.129	-72.059	0.004	-0.001
-324.114	800.000	-0.061	-0.228
-323.099	97.545	-0.126	-0.146
-322.085	231.393	-0.103	0.170
-321.070	-186.510	0.446	-0.006
-320.056	673.276	-0.024	-0.062
-319.041	-191.600	-0.293	0.003
-318.026	-104.838	-0.265	0.061
-317.012	102.011	-0.099	0.116
-315.997	-200.000	-0.013	-0.208
-314.983	800.000	0.035	0.150
-313.968	467.597	-0.039	0.089
-312.953	-43.172	0.291	-0.148
-311.939	-40.479	0.157	0.082
-310.924	219.966	0.062	-0.100
-309.910	509.743	-0.107	-0.251
-308.895	225.084	-0.040	-0.066
-307.880	526.683	0.070	0.165
-306.866	-53.808	-0.250	0.115
-305.851	-200.000	-0.043	-0.216
-304.837	-3.214	0.114	0.080
-303.822	-55.892	-0.235	-0.105
-302.807	82.059	0.040	-0.044
-301.793	-182.537	-0.049	-0.001
-300.778	17.912	-0.072	-0.058
-299.764	-35.400	-0.082	-0.045
-298.749	-11.428	0.122	-0.081
-297.735	-111.458	-0.091	0.019
-296.720	426.699	-0.122	0.266
-295.705	-200.000	-0.012	0.098
-294.691	91.432	0.315	-0.356
-293.676	232.164	0.163	0.269
-292.662	-200.000	-0.010	-0.289
-291.647	42.740	0.122	-0.112
-290.632	-200.000	-0.003	0.335
-289.618	77.304	-0.038	-0.041
-288.603	-48.601	0.266	-0.129
-287.589	101.852	0.125	0.147
-286.574	800.000	-0.104	-0.299
-285.559	59.243	0.112	0.111
-284.545	147.768	0.326	-0.442
-283.530	-200.000	-0.042	-0.198
-282.516	-59.490	-0.020	0.008
-281.501	73.640	0.033	0.035
-280.486	92.944	-0.174	0.198
-279.472	-24.752	-0.156	0.093
-278.457	22.027	-0.179	0.147
-277.443	-105.161	0.314	0.072
-276.428	-64.310	0.013	0.005
-275.413	122.785	-0.278	-0.350
-274.399	-37.111	0.357	-0.192
-273.384	-56.985	0.209	0.093
-272.370	-101.558	-0.248	0.061
-271.355	110.095	0.155	0.187
-270.340	52.388	0.137	-0.131
-269.326	800.000	0.062	-0.249
-268.311	55.053	0.272	-0.264
-267.297	106.467	-0.125	-0.149
-266.282	61.928	0.179	0.179
-265.267	-200.000	-0.021	-0.348
-264.253	-117.909	-0.059	-0.011
-263.238	-60.155	-0.225	-0.096
-262.224	30.445	0.124	0.106
-261.209	282.977	0.018	-0.032
-260.195	-59.609	-0.222	-0.096
-259.180	309.077	0.153	-0.287
-258.165	225.955	0.033	0.054
-257.151	54.607	0.152	-0.147
-256.136	348.710	0.084	-0.167
-255.122	-109.023	0.186	-0.040
-254.107	-37.842	0.142	-0.076
-253.092	-58.246	0.238	-0.104
-252.078	-63.949	-0.184	-0.076
-251.063	39.512	0.034	0.031
-250.049	-133.985	-0.336	-0.042
-249.034	-84.097	-0.346	0.110
-248.019	-63.481	0.080	-0.033
-247.005	46.855	0.192	-0.179
-245.990	-28.763	0.067	-0.038
-244.976	-108.111	-0.168	-0.037
-243.961	-174.236	-0.345	0.010
-242.946	-200.000	-0.043	-0.338
-241.932	31.285	-0.195	-0.169
-240.917	800.000	-0.156	0.441
-239.903	628.248	-0.062	-0.158
-238.888	472.737	-0.063	-0.142
-237.873	340.578	-0.155	0.303
-236.859	-170.144	-0.338	-0.012
-235.844	-121.787	-0.316	-0.052
-234.830	162.030	0.214	0.301
-233.815	66.940	-0.350	-0.358
-232.800	1.535	-0.057	-0.041
-231.786	-106.473	0.197	-0.044
-230.771	800.000	0.083	0.348
-229.757	216.792	-0.091	0.146
-228.742	-8.188	-0.212	0.143
-227.727	18.566	0.378	0.303
-226.713	800.000	-0.043	-0.119
-225.698	243.262	-0.192	-0.323
-224.684	269.758	-0.071	0.125
-223.669	800.000	0.059	-0.216
-222.655	-13.846	-0.099	0.064
-221.640	-11.332	-0.209	0.138
-220.625	102.961	-0.100	-0.117
-219.611	-132.309	-0.144	-0.019
-218.596	-69.417	0.144	-0.055
-217.582	-200.000	0.049	-0.538
-216.567	307.299	0.129	0.241
-215.552	38.456	0.202	0.180
-214.538	-78.046	-0.248	0.086
-213.523	569.446	0.081	0.197
-212.509	-200.000	-0.089	0.465
-211.494	-3.281	-0.221	0.154
-210.479	-200.000	0.012	0.221
-209.465	55.691	0.256	-0.249
-208.450	649.711	0.043	0.112
-207.436	641.386	0.160	0.409
-206.421	778.820	-0.116	-0.318
-205.406	-137.051	-0.253	0.029
-204.392	119.462	-0.037	0.046
-203.377	271.784	-0.083	0.146
-202.363	142.086	0.091	0.121
-201.348	7.031	-0.238	-0.178
-200.333	-117.685	-0.120	-0.022
-199.319	120.892	-0.131	-0.164
-198.304	-32.460	0.134	0.075
-197.290	-33.218	0.127	0.071
-196.275	-59.097	0.140	-0.061
-195.260	561.754	0.073	-0.177
-194.246	88.370	-0.133	-0.148
-193.231	338.174	-0.024	-0.046
-192.217	267.012	-0.057	-0.099
-191.202	800.000	0.071	0.208
-190.187	-200.000	-0.018	-0.116
-189.173	184.853	0.398	0.592
-188.158	800.000	-0.036	-0.134
-187.144	-68.635	-0.115	-0.045
-186.129	80.629	0.026	-0.028
-185.114	-91.561	0.270	-0.077
-184.100	92.901	-0.120	-0.136
-183.085	-61.664	0.134	-0.056
-182.071	129.997	0.167	0.214
-181.056	14.199	-0.069	0.054
-180.042	-111.308	0.241	0.049
-179.027	-200.000	0.055	0.310
-178.012	-200.000	-0.003	-0.081
-176.998	128.844	0.249	0.318
-175.983	168.130	0.222	-0.316
-174.969	186.861	-0.093	-0.138
-173.954	-37.938	0.128	0.068
-172.939	-51.572	-0.035	-0.016
-171.925	-61.973	0.098	-0.041
-170.910	72.369	0.188	-0.196
-169.896	-178.945	0.243	-0.006
-168.881	-112.649	0.122	-0.024
-167.866	-85.605	-0.134	-0.042
-166.852	266.211	-0.058	-0.101
-165.837	800.000	0.052	-0.201
-164.823	390.196	0.093	-0.193
-163.808	163.926	-0.127	0.179
-162.793	214.662	-0.013	0.021
-161.779	538.626	-0.067	-0.159
-160.764	-168.795	0.107	-0.004
-159.750	10.591	-0.070	0.054
-158.735	74.058	0.157	-0.165
-157.720	312.149	-0.127	0.238
-156.706	-200.000	-0.032	-0.246
-155.691	86.568	-0.307	0.339
-154.677	-200.000	0.009	0.192
-153.662	456.758	0.143	0.317
-152.647	216.943	-0.108	0.172
-151.633	88.643	-0.119	0.133
-150.618	-63.898	-0.274	-0.112
-149.604	800.000	-0.079	0.238
-148.589	-52.773	0.215	0.099
-147.574	-61.580	0.227	0.095
-146.560	-200.000	0.048	-0.362
-145.545	72.525	-0.037	-0.039
-144.531	-104.415	0.278	0.064
-143.516	381.844	0.033	-0.068
-142.502	-63.737	-0.166	0.068
-141.487	-119.573	-0.123	-0.021
-140.472	800.000	0.039	-0.129
-139.458	-129.002	0.282	-0.039
-138.443	-72.263	0.057	-0.021
-137.429	-26.874	-0.160	-0.093
-136.414	-107.644	-0.318	-0.069
-135.399	167.353	0.083	0.118
-134.385	-176.983	0.142	-0.004
-133.370	800.000	0.047	0.144
-132.356	800.000	-0.087	-0.327
-131.341	-200.000	0.038	-0.343
-130.326	-94.438	-0.114	-0.031
-129.312	-44.310	0.128	0.064
-128.297	-200.000	-0.002	0.077
-127.283	-200.000	-0.000	0.135
-126.268	-169.071	0.327	-0.012
-125.253	-200.000	-0.005	-0.157
-124.239	-200.000	0.023	-0.276
-123.224	-56.064	-0.433	-0.193
-122.210	28.748	0.053	0.045
-121.195	800.000	-0.036	-0.109
