DTS Sentinel unit serial number:	SN413079Multiplexer serial number:	ORYXHardware model number:	OX4-SRSoftware version number:	ORYX F/W v4.00 Oryx Data Collector v3.7.2.0data status	okinstallation	princeton_trtdifferential loss correction	single-endedforward channel	channel 4reverse channel	N/Adate	2019/09/14time	07:33:34forward acquisition time	60.00reverse acquisition time	0.00gamma	496.2192k internal	0.2323k external	0.2323temperature offset calibration	1.0136default loss term (dB/km)	0.3790temperature slope calibration	1.0000multiplexer offset coefficient	1.0000multiplexer slope coefficient	1.0000fibre end	0.00T internal ref (°C)	26.23T ext. ref 1 (°C)	3.47T ext. ref 2 (°C)	21.29length (m)	temperature (°C)	Stokes	anti-Stokes-747.200	19.929	-0.034	0.028
-746.185	-140.926	-0.309	0.032
-745.171	-118.860	-0.049	0.009
-744.156	-200.000	-0.026	0.193
-743.142	-200.000	0.058	0.261
-742.127	46.308	-0.238	0.223
-741.112	-91.578	0.322	0.093
-740.098	6.381	0.040	-0.030
-739.083	-61.733	-0.031	0.013
-738.069	189.122	-0.143	0.217
-737.054	-27.552	0.146	-0.086
-736.039	17.549	-0.267	-0.214
-735.025	62.595	0.116	-0.117
-734.010	57.842	-0.325	-0.320
-732.996	116.116	-0.282	-0.349
-731.981	131.066	0.082	-0.106
-730.966	479.509	0.067	-0.154
-729.952	437.258	-0.021	0.046
-728.937	-200.000	0.033	-0.279
-727.923	147.755	-0.038	0.051
-726.908	-90.237	0.171	-0.050
-725.894	679.312	0.015	0.039
-724.879	467.616	-0.084	-0.189
-723.864	763.390	-0.174	0.476
-722.850	150.598	0.055	-0.075
-721.835	-200.000	-0.035	0.340
-720.821	788.115	0.087	-0.242
-719.806	800.000	-0.133	0.371
-718.791	452.657	0.057	-0.128
-717.777	-200.000	-0.051	-0.235
-716.762	96.008	-0.220	-0.253
-715.748	15.792	0.088	-0.070
-714.733	114.094	0.046	-0.057
-713.718	-150.611	-0.295	0.023
-712.704	-55.626	-0.268	-0.121
-711.689	100.942	0.203	0.238
-710.675	122.323	-0.055	0.070
-709.660	1.681	-0.287	0.208
-708.645	520.691	-0.047	0.112
-707.631	92.718	0.102	-0.116
-706.616	800.000	0.039	0.159
-705.602	-200.000	0.009	0.216
-704.587	-71.736	-0.219	-0.082
-703.572	800.000	0.056	0.233
-702.558	163.757	-0.045	0.064
-701.543	59.822	-0.189	-0.188
-700.529	176.451	-0.024	0.035
-699.514	-29.825	0.295	0.170
-698.499	23.805	-0.016	-0.013
-697.485	390.785	0.049	0.102
-696.470	239.954	-0.126	0.211
-695.456	-89.978	0.260	0.077
-694.441	-68.395	-0.104	-0.041
-693.426	-53.199	0.130	0.060
-692.412	800.000	-0.081	0.234
-691.397	-100.109	-0.101	0.025
-690.383	-200.000	0.008	-0.099
-689.368	-136.835	-0.239	0.028
-688.354	-62.049	0.078	-0.033
-687.339	-72.841	0.150	-0.056
-686.324	43.284	0.060	-0.055
-685.310	369.350	-0.061	0.125
-684.295	311.389	-0.163	-0.309
-683.281	-200.000	-0.003	0.262
-682.266	-49.875	-0.180	-0.086
-681.251	61.699	0.212	-0.213
-680.237	-121.966	0.289	-0.048
-679.222	70.474	0.183	-0.190
-678.208	-59.838	-0.221	0.095
-677.193	-69.074	0.271	-0.105
-676.178	800.000	-0.085	-0.286
-675.164	800.000	-0.082	-0.345
-674.149	-129.368	0.056	0.008
-673.135	1.563	-0.150	-0.109
-672.120	-67.729	0.067	0.026
-671.105	-99.507	-0.453	0.115
-670.091	-21.510	-0.309	-0.190
-669.076	482.931	-0.068	-0.155
-668.062	50.648	-0.246	-0.234
-667.047	-63.199	-0.149	-0.062
-666.032	-173.238	-0.248	-0.008
-665.018	103.925	0.151	-0.178
-664.003	247.185	-0.306	-0.520
-662.989	490.391	0.042	-0.097
-661.974	-95.516	0.137	-0.037
-660.959	-111.456	0.182	-0.037
-659.945	-0.457	-0.196	0.140
-658.930	-76.280	0.115	-0.041
-657.916	-87.888	-0.100	-0.030
-656.901	-66.010	0.046	0.018
-655.886	-84.574	-0.181	0.057
-654.872	367.361	-0.079	-0.160
-653.857	60.762	0.104	0.104
-652.843	136.630	-0.068	-0.089
-651.828	-200.000	-0.021	-0.369
-650.814	41.672	0.212	0.193
-649.799	201.444	0.093	0.144
-648.784	606.367	-0.119	-0.299
-647.770	-131.648	-0.114	-0.015
-646.755	-63.126	-0.163	0.068
-645.741	-63.002	0.348	-0.144
-644.726	138.738	-0.236	-0.312
-643.711	-200.000	-0.009	-0.077
-642.697	-200.000	0.009	0.110
-641.682	-71.685	-0.230	-0.086
-640.668	-34.936	-0.393	-0.216
-639.653	447.558	0.127	-0.281
-638.638	55.864	0.160	0.156
-637.624	114.931	0.098	-0.120
-636.609	426.695	0.072	0.157
-635.595	-68.937	-0.211	-0.082
-634.580	800.000	-0.074	0.289
-633.565	-41.037	-0.130	-0.068
-632.551	-17.348	0.266	-0.168
-631.536	-7.975	0.232	-0.157
-630.522	-108.075	0.156	-0.034
-629.507	-186.657	-0.278	0.004
-628.492	-68.209	0.215	0.084
-627.478	-105.620	-0.145	-0.033
-626.463	-55.682	0.125	0.056
-625.449	164.606	0.040	-0.057
-624.434	-122.566	0.339	-0.055
-623.419	800.000	-0.048	0.171
-622.405	-115.538	0.206	0.039
-621.390	34.538	0.429	-0.377
-620.376	-66.364	-0.286	0.114
-619.361	-200.000	0.016	-0.159
-618.346	-136.340	-0.304	0.036
-617.332	100.225	0.144	-0.168
-616.317	800.000	0.051	-0.169
-615.303	-200.000	0.035	0.348
-614.288	199.275	0.131	0.202
-613.273	125.862	-0.163	-0.207
-612.259	-118.480	-0.384	-0.068
-611.244	-200.000	0.006	0.037
-610.230	800.000	-0.038	0.163
-609.215	-200.000	-0.053	-0.238
-608.201	136.336	0.142	-0.186
-607.186	50.576	0.146	-0.139
-606.171	800.000	-0.067	0.212
-605.157	159.087	-0.154	0.215
-604.142	-200.000	0.108	-0.493
-603.128	-168.635	-0.215	-0.008
-602.113	-188.942	-0.230	-0.003
-601.098	696.223	-0.159	-0.418
-600.084	64.598	-0.085	0.086
-599.069	405.896	-0.021	0.044
-598.055	45.902	-0.044	-0.041
-597.040	-146.041	-0.160	0.014
-596.025	169.791	0.035	0.050
-595.011	-53.459	-0.134	-0.061
-593.996	-65.567	0.133	0.054
-592.982	18.636	0.150	-0.120
-591.967	-173.045	-0.350	0.011
-590.952	-200.000	0.020	0.103
-589.938	62.159	-0.266	0.266
-588.923	600.362	-0.081	-0.203
-587.909	-70.840	-0.097	-0.037
-586.894	437.617	-0.079	0.172
-585.879	765.188	0.060	-0.164
-584.865	-132.863	0.204	-0.026
-583.850	-110.650	-0.355	-0.074
-582.836	-149.109	0.349	0.028
-581.821	-200.000	0.028	-0.127
-580.806	-74.728	0.201	-0.072
-579.792	-200.000	0.001	0.067
-578.777	-110.324	0.086	-0.018
-577.763	-60.935	0.468	0.198
-576.748	-89.498	-0.143	0.042
-575.733	46.201	0.224	0.208
-574.719	-88.421	-0.177	-0.053
-573.704	-19.223	-0.136	-0.085
-572.690	355.431	-0.231	-0.460
-571.675	-80.344	0.152	0.051
-570.661	115.163	-0.136	0.167
-569.646	350.189	-0.083	0.164
-568.631	-102.185	0.156	-0.038
-567.617	800.000	-0.048	0.181
-566.602	200.298	0.098	-0.151
-565.588	742.960	-0.044	-0.120
-564.573	123.785	-0.159	-0.200
-563.558	-130.768	-0.158	0.021
-562.544	-191.378	0.418	0.004
-561.529	-142.012	-0.282	0.028
-560.515	384.557	-0.026	0.054
-559.500	-39.969	-0.366	-0.192
-558.485	395.703	0.123	0.257
-557.471	-71.334	0.111	0.042
-556.456	-119.208	-0.167	0.029
-555.442	-117.648	0.185	-0.033
-554.427	326.141	0.084	0.162
-553.412	800.000	0.078	0.314
-552.398	25.053	0.282	-0.234
-551.383	111.417	-0.145	0.175
-550.369	-200.000	-0.011	0.067
-549.354	-24.383	0.171	0.102
-548.339	-49.645	0.034	-0.016
-547.325	231.687	0.184	-0.302
-546.310	-200.000	-0.014	0.127
-545.296	470.675	0.049	0.111
-544.281	800.000	-0.086	0.334
-543.266	282.859	-0.074	0.133
-542.252	-1.331	0.089	0.063
-541.237	-82.884	0.137	0.044
-540.223	-200.000	0.062	0.454
-539.208	-179.917	-0.359	-0.008
-538.193	-62.602	-0.089	0.037
-537.179	-63.787	-0.171	0.070
-536.164	141.563	0.055	0.072
-535.150	800.000	0.099	-0.332
-534.135	800.000	-0.024	-0.093
-533.121	800.000	0.012	0.051
-532.106	51.090	0.036	-0.034
-531.091	800.000	-0.076	-0.238
-530.077	-79.598	-0.428	0.144
-529.062	-176.216	0.157	-0.004
-528.048	800.000	0.069	0.203
-527.033	49.435	0.084	0.079
-526.018	740.896	-0.091	-0.245
-525.004	-167.831	0.091	0.004
-523.989	201.848	0.081	0.125
-522.975	-47.795	-0.180	-0.087
-521.960	-162.907	0.193	-0.009
-520.945	741.291	-0.056	-0.150
-519.931	-157.209	0.295	0.018
-518.916	-7.091	0.202	0.137
-517.902	-200.000	-0.031	-0.203
-516.887	-46.728	-0.139	0.068
-515.872	-75.322	0.047	0.017
-514.858	102.983	-0.207	-0.242
-513.843	48.265	0.072	-0.068
-512.829	800.000	-0.030	-0.103
-511.814	-200.000	-0.053	0.000
-510.799	800.000	0.105	-0.319
-509.785	-200.000	0.008	0.268
-508.770	185.210	0.118	-0.175
-507.756	109.147	-0.251	0.301
-506.741	-200.000	0.004	0.345
-505.726	-142.130	0.129	-0.013
-504.712	775.955	0.050	-0.136
-503.697	-45.602	0.122	0.060
-502.683	76.286	0.073	0.077
-501.668	433.468	-0.113	-0.246
-500.653	382.065	-0.132	-0.271
-499.639	-7.161	0.106	0.072
-498.624	-40.389	0.145	-0.076
-497.610	-40.428	-0.091	-0.047
-496.595	88.966	0.194	0.216
-495.581	800.000	0.063	-0.190
-494.566	-9.580	-0.229	0.153
-493.551	-200.000	0.033	-0.196
-492.537	-154.755	0.125	-0.008
-491.522	-200.000	-0.015	0.073
-490.508	193.703	0.133	-0.201
-489.493	29.270	-0.298	0.253
-488.478	-200.000	0.054	0.000
-487.464	437.162	0.089	-0.195
-486.449	84.500	-0.155	0.170
-485.435	-142.822	-0.059	0.006
-484.420	800.000	-0.105	-0.388
-483.405	184.187	0.150	0.222
-482.391	-8.288	-0.231	-0.155
-481.376	369.676	-0.020	-0.041
-480.362	-128.436	0.119	0.017
-479.347	800.000	0.154	0.425
-478.332	-63.321	-0.107	-0.044
-477.318	-35.220	-0.282	-0.153
-476.303	-200.000	-0.010	-0.080
-475.289	-200.000	0.009	0.052
-474.274	-9.099	0.093	0.062
-473.259	-200.000	-0.047	0.243
-472.245	-121.513	0.134	-0.022
-471.230	-183.016	-0.028	-0.000
-470.216	-6.182	0.128	0.087
-469.201	-6.307	-0.231	-0.157
-468.186	16.206	-0.258	-0.203
-467.172	102.102	0.163	-0.190
-466.157	800.000	-0.099	0.428
-465.143	48.935	0.136	-0.127
-464.128	-49.776	0.094	-0.045
-463.113	800.000	-0.031	0.088
-462.099	-10.002	0.081	0.054
-461.084	475.436	-0.086	0.193
-460.070	103.907	-0.079	0.092
-459.055	-148.528	-0.197	0.016
-458.040	-60.147	-0.271	0.115
-457.026	-147.200	0.200	0.017
-456.011	-0.355	0.172	-0.122
-454.997	800.000	0.031	-0.134
-453.982	-200.000	-0.032	-0.147
-452.968	406.329	0.035	-0.074
-451.953	-100.657	0.358	0.088
-450.938	632.457	-0.031	-0.077
-449.924	-128.724	0.260	-0.037
-448.909	24.457	-0.210	0.173
-447.895	43.243	0.162	0.148
-446.880	31.625	0.081	-0.069
-445.865	-135.838	0.235	0.028
-444.851	467.422	0.036	0.081
-443.836	-68.405	0.303	-0.117
-442.822	-23.788	0.077	0.046
-441.807	31.015	0.221	0.189
-440.792	468.444	-0.128	0.287
-439.778	-200.000	-0.071	0.382
-438.763	-130.508	-0.267	0.036
-437.749	-200.000	0.032	-0.257
-436.734	-28.743	-0.256	0.147
-435.719	-127.435	0.293	0.043
-434.705	342.063	-0.265	0.518
-433.690	4.987	0.110	0.081
-432.676	659.890	0.048	0.124
-431.661	-200.000	0.022	0.266
-430.646	-104.336	0.499	0.115
-429.632	-112.092	-0.106	-0.021
-428.617	-51.602	-0.087	-0.041
-427.603	115.235	0.011	-0.013
-426.588	-200.000	0.034	-0.385
-425.573	-18.344	0.167	0.104
-424.559	800.000	-0.080	0.228
-423.544	-200.000	-0.007	0.196
-422.530	181.135	-0.183	-0.268
-421.515	44.185	-0.035	0.032
-420.500	-121.865	0.490	0.081
-419.486	-147.471	-0.129	0.011
-418.471	-200.000	-0.002	-0.194
-417.457	-53.020	0.288	0.132
-416.442	-73.585	-0.058	0.021
-415.428	-118.894	0.282	0.049
-414.413	-0.326	-0.052	0.037
-413.398	-49.747	-0.118	0.056
-412.384	377.800	-0.076	-0.154
-411.369	75.809	-0.266	-0.280
-410.355	-13.018	0.174	-0.113
-409.340	-200.000	-0.011	-0.163
-408.325	119.867	0.091	-0.112
-407.311	358.368	0.146	0.291
-406.296	165.194	0.064	0.090
-405.282	392.274	-0.029	-0.060
-404.267	12.419	0.158	-0.121
-403.252	800.000	0.039	-0.157
-402.238	-200.000	-0.014	-0.262
-401.223	584.975	0.078	-0.190
-400.209	51.750	-0.048	0.045
-399.194	157.954	-0.130	-0.180
-398.179	36.079	-0.145	0.127
-397.165	-2.865	0.065	0.045
-396.150	-164.582	-0.196	0.009
-395.136	93.338	-0.145	-0.163
-394.121	800.000	0.068	-0.190
-393.106	-43.151	-0.233	0.118
-392.092	-97.281	-0.073	0.019
-391.077	800.000	0.063	-0.234
-390.063	-171.366	-0.315	0.010
-389.048	109.664	-0.119	-0.142
-388.033	198.839	-0.143	0.218
-387.019	-136.438	0.382	-0.044
-386.004	61.156	0.068	-0.067
-384.990	-12.788	-0.344	-0.223
-383.975	-124.821	-0.095	-0.015
-382.960	-85.057	0.169	0.053
-381.946	208.286	-0.141	-0.220
-380.931	800.000	-0.082	0.251
-379.917	800.000	-0.080	-0.303
-378.902	800.000	0.143	0.480
-377.888	517.825	-0.045	0.104
-376.873	21.368	-0.141	-0.114
-375.858	-7.452	0.246	-0.166
-374.844	-4.131	0.249	0.171
-373.829	301.851	-0.119	0.219
-372.815	708.577	0.068	0.180
-371.800	-200.000	0.023	-0.234
-370.785	-142.922	-0.219	-0.021
-369.771	360.711	-0.073	0.145
-368.756	55.802	-0.164	-0.158
-367.742	33.384	0.163	0.141
-366.727	-25.529	0.328	-0.193
-365.712	-73.465	-0.151	-0.055
-364.698	800.000	-0.056	0.167
-363.683	-200.000	-0.019	0.380
-362.669	800.000	-0.076	-0.216
-361.654	-104.308	0.190	-0.044
-360.639	-200.000	0.012	0.229
-359.625	29.515	0.113	-0.095
-358.610	-99.769	-0.219	0.055
-357.596	-200.000	-0.034	-0.225
-356.581	280.586	-0.102	0.181
-355.566	116.457	0.121	0.148
-354.552	55.405	-0.170	-0.163
-353.537	581.212	-0.056	0.138
-352.523	-171.201	-0.421	0.014
-351.508	-64.428	0.249	-0.101
-350.493	-86.689	0.247	0.075
-349.479	567.116	-0.085	-0.205
-348.464	82.262	0.154	0.166
-347.450	93.156	-0.243	0.273
-346.435	154.484	0.158	0.216
-345.420	-115.850	0.054	-0.010
-344.406	213.077	-0.053	-0.083
-343.391	-100.661	-0.250	0.061
-342.377	-87.544	0.334	0.100
-341.362	479.547	0.126	0.284
-340.348	-39.826	-0.113	0.059
-339.333	-130.530	0.121	-0.016
-338.318	24.104	-0.138	-0.113
-337.304	800.000	-0.056	-0.232
-336.289	254.841	0.169	-0.287
-335.275	800.000	-0.094	-0.302
-334.260	-200.000	-0.028	-0.268
-333.245	-97.599	0.190	-0.049
-332.231	-126.836	-0.231	-0.034
-331.216	49.474	-0.126	-0.118
-330.202	-13.035	0.131	0.085
-329.187	-2.753	-0.236	-0.164
-328.172	-200.000	-0.018	0.094
-327.158	-200.000	0.042	0.273
-326.143	800.000	-0.116	-0.361
-325.129	721.625	0.142	0.376
-324.114	2.691	-0.255	-0.184
-323.099	-9.419	0.175	0.116
-322.085	800.000	-0.032	-0.117
-321.070	174.926	0.127	0.183
-320.056	800.000	-0.015	0.045
-319.041	-179.190	-0.433	0.010
-318.026	132.812	0.193	0.248
-317.012	800.000	-0.040	-0.143
-315.997	44.778	0.142	-0.130
-314.983	-200.000	0.007	-0.070
-313.968	-104.320	-0.362	-0.083
-312.953	-98.897	0.188	0.047
-311.939	-200.000	-0.084	0.521
-310.924	-76.356	-0.105	0.037
-309.910	-39.712	0.204	-0.106
-308.895	-200.000	-0.037	0.264
-307.880	427.737	-0.045	0.096
-306.866	-108.456	-0.377	0.081
-305.851	-97.914	-0.260	0.067
-304.837	3.378	0.112	-0.081
-303.822	-129.956	-0.212	0.029
-302.807	-200.000	0.013	-0.303
-301.793	17.004	0.133	-0.105
-300.778	251.034	-0.096	0.163
-299.764	-2.127	0.155	-0.108
-298.749	70.169	-0.073	0.075
-297.735	-119.931	-0.295	0.050
-296.720	62.775	0.309	0.307
-295.705	1.245	0.196	-0.139
-294.691	221.498	-0.009	-0.015
-293.676	800.000	-0.063	0.176
-292.662	231.759	0.037	0.061
-291.647	-83.861	-0.232	0.073
-290.632	-200.000	0.024	0.222
-289.618	-96.365	-0.180	-0.047
-288.603	-70.220	0.096	-0.036
-287.589	102.376	-0.082	0.095
-286.574	-71.001	0.185	-0.069
-285.559	-200.000	-0.049	-0.334
-284.545	194.475	0.027	-0.041
-283.530	800.000	0.046	0.129
-282.516	4.292	-0.154	-0.112
-281.501	800.000	0.043	-0.150
-280.486	-150.132	0.138	0.011
-279.472	96.728	0.146	0.166
-278.457	104.636	-0.087	-0.102
-277.443	291.424	0.059	-0.106
-276.428	120.865	0.125	0.154
-275.413	800.000	-0.090	-0.287
-274.399	-200.000	0.068	0.299
-273.384	-200.000	-0.299	0.001
-272.370	-97.877	0.276	-0.071
-271.355	800.000	0.042	0.136
-270.340	-116.692	0.018	0.003
-269.326	-58.233	-0.156	-0.067
-268.311	-93.412	-0.139	0.038
-267.297	21.112	-0.128	-0.103
-266.282	-93.125	0.476	-0.131
-265.267	129.420	0.170	-0.215
-264.253	-200.000	-0.013	-0.069
-263.238	-200.000	0.047	-0.380
-262.224	800.000	-0.049	-0.142
-261.209	-46.016	0.056	0.027
-260.195	800.000	-0.048	-0.157
-259.180	-47.880	0.107	-0.051
-258.165	-200.000	-0.006	-0.103
-257.151	461.473	0.081	-0.178
-256.136	16.057	-0.072	-0.057
-255.122	170.001	-0.157	0.222
-254.107	-200.000	0.011	-0.188
-253.092	324.100	0.094	-0.177
-252.078	1.224	0.347	0.247
-251.063	-185.820	-0.139	-0.002
-250.049	-17.388	-0.291	0.181
-249.034	-169.846	0.279	-0.010
-248.019	150.005	0.097	-0.131
-247.005	25.355	-0.224	-0.184
-245.990	-12.255	0.072	-0.047
-244.976	340.402	-0.156	-0.302
-243.961	-167.847	0.196	0.008
-242.946	-42.495	-0.020	0.010
-241.932	318.555	-0.104	-0.196
-240.917	240.751	-0.084	-0.139
-239.903	215.461	-0.130	-0.205
-238.888	-18.777	-0.072	-0.044
-237.873	-200.000	-0.051	0.259
-236.859	-76.115	-0.292	-0.102
-235.844	-135.825	0.271	0.032
-234.830	800.000	-0.056	0.201
-233.815	46.683	0.067	0.062
-232.800	-64.917	-0.054	-0.022
-231.786	10.271	-0.135	-0.101
-230.771	-27.895	0.123	0.070
-229.757	17.282	0.251	-0.198
-228.742	449.228	0.223	-0.486
-227.727	151.536	0.111	0.149
-226.713	12.648	0.093	0.071
-225.698	-1.570	-0.037	0.026
-224.684	-66.176	-0.167	0.066
-223.669	-200.000	-0.054	-0.289
-222.655	800.000	0.044	0.188
-221.640	88.520	-0.194	-0.213
-220.625	-200.000	0.007	0.090
-219.611	262.625	-0.157	0.270
-218.596	130.083	0.276	-0.349
-217.582	-200.000	-0.022	-0.249
-216.567	800.000	-0.028	0.079
-215.552	186.188	-0.158	0.233
-214.538	71.800	0.179	0.184
-213.523	44.339	-0.356	0.323
-212.509	125.592	0.234	-0.292
-211.494	-22.906	-0.093	-0.055
-210.479	-200.000	-0.014	0.250
-209.465	800.000	-0.070	0.264
-208.450	800.000	0.038	0.140
-207.436	119.877	0.223	-0.273
-206.421	84.532	0.237	-0.256
-205.406	-40.346	0.042	0.021
-204.392	72.841	-0.188	-0.194
-203.377	-73.081	-0.164	0.060
-202.363	-106.522	0.201	0.044
-201.348	-200.000	-0.031	-0.236
-200.333	800.000	0.075	-0.311
-199.319	103.010	0.093	-0.108
-198.304	-11.684	-0.230	0.149
-197.290	-50.998	0.062	0.029
-196.275	-22.877	0.219	-0.131
-195.260	-200.000	0.003	0.098
-194.246	16.071	0.205	0.160
-193.231	3.682	0.116	0.084
-192.217	-40.809	0.011	-0.006
-191.202	800.000	-0.050	-0.193
-190.187	-50.662	-0.423	0.197
-189.173	-200.000	-0.004	-0.054
-188.158	-95.129	0.213	-0.057
-187.144	-80.576	-0.192	-0.063
-186.129	104.416	-0.144	0.167
-185.114	800.000	-0.024	-0.080
-184.100	100.791	-0.146	0.168
-183.085	-9.862	0.142	0.093
-182.071	-73.815	0.304	0.109
-181.056	-126.074	0.074	-0.011
-180.042	121.427	-0.113	0.139
-179.027	-131.886	0.190	-0.025
-178.012	-200.000	0.061	0.474
-176.998	141.690	0.076	-0.100
-175.983	-177.379	0.127	-0.003
-174.969	360.736	0.035	0.069
-173.954	800.000	0.078	-0.235
-172.939	343.903	-0.029	0.056
-171.925	134.774	0.025	-0.032
-170.910	-113.490	-0.246	0.048
-169.896	56.726	-0.343	0.330
-168.881	-191.614	-0.281	0.003
-167.866	-67.776	-0.085	-0.033
-166.852	-38.646	0.123	-0.064
-165.837	-148.470	0.154	0.012
-164.823	679.701	0.065	-0.166
-163.808	-33.335	0.122	0.067
-162.793	-200.000	0.050	0.245
-161.779	-200.000	-0.022	0.157
-160.764	100.057	0.069	0.079
-159.750	-200.000	-0.041	0.302
-158.735	800.000	-0.053	0.167
-157.720	-126.599	0.274	0.040
-156.706	-2.323	-0.140	0.097
-155.691	138.626	0.231	0.300
-154.677	800.000	0.056	0.205
-153.662	-200.000	0.011	0.150
-152.647	90.850	0.074	0.082
-151.633	10.271	-0.218	-0.164
-150.618	84.385	-0.172	-0.186
-149.604	4.258	-0.097	0.070
-148.589	-200.000	-0.016	-0.262
-147.574	220.123	-0.027	-0.043
-146.560	-131.122	-0.364	-0.048
-145.545	-60.537	0.235	-0.098
-144.531	79.301	0.052	-0.054
-143.516	-42.861	-0.279	-0.140
-142.502	-51.921	0.258	-0.118
-141.487	16.876	-0.276	-0.216
-140.472	800.000	-0.104	-0.324
-139.458	-200.000	0.004	0.323
-138.443	195.340	0.077	0.115
-137.429	-2.026	-0.293	-0.203
-136.414	280.306	-0.035	0.061
-135.399	132.017	-0.089	-0.112
-134.385	30.765	0.361	0.305
-133.370	238.481	0.207	-0.339
-132.356	150.398	0.183	-0.246
-131.341	800.000	-0.074	0.241
-130.326	-95.169	-0.085	0.022
-129.312	66.079	-0.064	0.065
-128.297	103.348	0.093	-0.108
-127.283	-89.664	-0.026	-0.008
-126.268	-172.266	-0.330	-0.010
-125.253	800.000	0.047	-0.128
-124.239	86.435	0.338	-0.367
-123.224	-50.764	-0.120	0.056
-122.210	-124.403	-0.079	0.012
-121.195	60.594	-0.124	0.121
-120.180	53.782	-0.152	0.144
