DTS Sentinel unit serial number:	SN413079Multiplexer serial number:	ORYXHardware model number:	OX4-SRSoftware version number:	ORYX F/W v4.00 Oryx Data Collector v3.7.2.0data status	okinstallation	princeton_trtdifferential loss correction	single-endedforward channel	channel 4reverse channel	N/Adate	2019/09/15time	15:13:35forward acquisition time	60.00reverse acquisition time	0.00gamma	496.2192k internal	0.2287k external	0.2287temperature offset calibration	0.9964default loss term (dB/km)	0.3790temperature slope calibration	1.0000multiplexer offset coefficient	1.0000multiplexer slope coefficient	1.0000fibre end	0.00T internal ref (°C)	40.59T ext. ref 1 (°C)	4.99T ext. ref 2 (°C)	37.92length (m)	temperature (°C)	Stokes	anti-Stokes-747.200	-200.000	0.009	0.064
-746.185	-136.439	0.366	-0.044
-745.171	280.908	0.061	0.112
-744.156	32.674	-0.112	-0.099
-743.142	-46.698	0.582	-0.293
-742.127	267.936	0.076	0.136
-741.112	-52.641	0.237	0.112
-740.098	-200.000	-0.051	0.398
-739.083	-169.077	-0.249	-0.009
-738.069	-28.407	-0.259	0.153
-737.054	50.181	-0.206	0.199
-736.039	-21.512	-0.317	0.198
-735.025	-76.903	-0.106	0.038
-734.010	296.009	-0.094	-0.176
-732.996	-200.000	0.074	0.372
-731.981	116.128	0.178	0.224
-730.966	-54.805	-0.162	0.075
-729.952	-200.000	-0.022	0.123
-728.937	-35.366	-0.113	-0.063
-727.923	38.009	0.159	0.145
-726.908	-200.000	-0.023	0.174
-725.894	480.167	0.120	0.279
-724.879	141.110	-0.131	-0.178
-723.864	-55.026	0.119	-0.055
-722.850	262.309	0.125	-0.222
-721.835	402.145	-0.092	0.197
-720.821	-124.783	-0.163	0.026
-719.806	-64.727	-0.264	0.110
-718.791	6.701	0.254	0.194
-717.777	-76.825	0.209	0.075
-716.762	-200.000	-0.068	-0.314
-715.748	201.995	0.122	0.193
-714.733	800.000	-0.108	0.328
-713.718	800.000	0.190	0.537
-712.704	-200.000	-0.088	0.407
-711.689	378.243	0.054	0.113
-710.675	133.046	0.136	-0.180
-709.660	163.979	-0.231	0.333
-708.645	-200.000	0.010	0.061
-707.631	784.048	-0.092	-0.257
-706.616	-200.000	-0.015	-0.342
-705.602	-200.000	-0.012	-0.319
-704.587	-87.096	0.502	0.156
-703.572	-200.000	-0.194	-0.001
-702.558	611.221	0.116	-0.296
-701.543	27.184	-0.210	0.180
-700.529	105.874	0.125	0.151
-699.514	267.595	-0.155	-0.278
-698.499	182.807	0.254	-0.384
-697.485	35.571	0.213	0.192
-696.470	-74.444	0.069	-0.025
-695.456	800.000	-0.124	-0.509
-694.441	-81.344	-0.165	0.056
-693.426	-200.000	0.013	-0.336
-692.412	44.859	0.070	0.066
-691.397	182.370	-0.285	-0.430
-690.383	-67.465	0.157	0.063
-689.368	491.267	-0.074	-0.173
-688.354	-62.317	0.199	-0.085
-687.339	-150.398	0.166	0.013
-686.324	211.339	-0.143	0.230
-685.310	-200.000	0.033	-0.295
-684.295	-114.403	0.226	0.044
-683.281	-88.749	-0.212	0.064
-682.266	12.931	0.215	-0.170
-681.251	363.656	-0.183	-0.376
-680.237	53.626	-0.038	-0.037
-679.222	-148.391	-0.535	0.045
-678.208	-13.710	-0.175	-0.116
-677.193	49.287	0.269	-0.259
-676.178	-43.855	-0.132	-0.068
-675.164	-157.288	0.377	0.023
-674.149	62.215	-0.144	0.147
-673.135	83.156	0.043	-0.048
-672.120	-128.084	0.100	-0.015
-671.105	0.642	-0.123	-0.090
-670.091	800.000	-0.030	-0.115
-669.076	234.511	0.057	-0.097
-668.062	209.251	0.053	0.085
-667.047	800.000	-0.100	-0.405
-666.032	-56.067	-0.266	0.121
-665.018	-89.538	-0.098	0.029
-664.003	19.646	-0.151	0.124
-662.989	33.096	0.222	-0.196
-661.974	-173.800	-0.078	0.002
-660.959	-200.000	-0.024	0.224
-659.945	-102.326	-0.199	0.049
-658.930	-105.439	-0.033	0.008
-657.916	118.274	-0.116	0.146
-656.901	-167.807	0.237	0.010
-655.886	-45.919	0.140	0.071
-654.872	-110.171	-0.142	0.030
-653.857	-200.000	-0.017	0.235
-652.843	178.928	0.269	0.402
-651.828	-31.827	0.244	0.140
-650.814	-28.656	-0.298	-0.175
-649.799	362.070	-0.225	0.461
-648.784	800.000	0.065	-0.213
-647.770	-65.311	-0.092	0.038
-646.755	800.000	-0.078	0.309
-645.741	84.069	0.149	-0.166
-644.726	-73.571	0.213	-0.079
-643.711	-95.683	0.273	-0.075
-642.697	-200.000	0.010	0.054
-641.682	-0.984	-0.221	-0.160
-640.668	-157.948	0.137	-0.008
-639.653	-82.000	0.194	-0.065
-638.638	800.000	-0.122	-0.362
-637.624	-200.000	0.026	-0.175
-636.609	4.296	0.150	0.112
-635.595	-176.674	-0.243	0.006
-634.580	197.202	0.108	-0.168
-633.565	-88.248	0.132	0.040
-632.551	557.515	-0.024	-0.059
-631.536	-111.398	-0.335	0.070
-630.522	-200.000	-0.340	0.001
-629.507	-200.000	0.000	0.124
-628.492	59.823	0.164	0.165
-627.478	12.293	0.234	-0.184
-626.463	403.151	0.041	-0.088
-625.449	-126.916	-0.449	-0.067
-624.434	220.445	-0.066	-0.108
-623.419	48.333	0.175	-0.167
-622.405	144.350	0.170	0.232
-621.390	222.046	-0.052	0.085
-620.376	-63.522	0.274	-0.115
-619.361	-200.000	0.050	-0.291
-618.346	-16.943	-0.056	0.036
-617.332	-87.071	-0.193	0.060
-616.317	250.640	0.155	0.269
-615.303	-107.570	-0.168	0.038
-614.288	-12.751	-0.324	0.216
-613.273	-92.519	0.194	-0.056
-612.259	355.591	0.042	-0.085
-611.244	390.590	-0.176	0.373
-610.230	-55.796	0.289	0.132
-609.215	-29.406	-0.188	-0.110
-608.201	-200.000	0.011	-0.105
-607.186	-200.000	0.006	0.208
-606.171	-176.195	-0.268	0.007
-605.157	-40.789	0.130	-0.069
-604.142	-102.678	0.258	0.063
-603.128	-131.180	0.197	0.027
-602.113	-50.918	-0.199	0.095
-601.098	119.897	-0.089	0.112
-600.084	-200.000	0.045	0.212
-599.069	800.000	-0.047	0.143
-598.055	-140.121	-0.197	-0.021
-597.040	97.346	-0.097	-0.113
-596.025	-59.945	-0.339	-0.148
-595.011	19.279	0.221	-0.181
-593.996	800.000	0.078	-0.265
-592.982	800.000	0.040	-0.149
-591.967	-200.000	0.024	-0.167
-590.952	-136.519	0.220	0.026
-589.938	-56.551	0.318	-0.144
-588.923	-28.932	-0.322	0.188
-587.909	-131.496	0.090	-0.012
-586.894	-200.000	-0.017	0.157
-585.879	-200.000	-0.010	0.163
-584.865	-11.684	0.119	0.080
-583.850	-29.782	0.200	-0.116
-582.836	-63.433	-0.385	-0.162
-581.821	-200.000	-0.370	0.001
-580.806	800.000	0.069	-0.305
-579.792	-166.650	0.174	-0.007
-578.777	-200.000	0.076	0.444
-577.763	153.785	-0.226	-0.316
-576.748	-140.467	0.211	0.022
-575.733	110.475	-0.184	-0.226
-574.719	-24.236	-0.164	-0.100
-573.704	-200.000	0.038	-0.254
-572.690	-117.630	0.269	-0.049
-571.675	-200.000	0.009	-0.130
-570.661	-200.000	0.005	0.192
-569.646	800.000	0.051	-0.158
-568.631	-112.450	-0.149	-0.030
-567.617	-200.000	-0.011	-0.117
-566.602	-45.777	-0.143	-0.072
-565.588	-36.947	0.266	-0.145
-564.573	-117.432	-0.365	0.067
-563.558	800.000	-0.105	-0.450
-562.544	29.805	0.068	0.059
-561.529	800.000	-0.072	0.212
-560.515	800.000	-0.035	0.120
-559.500	78.074	-0.098	-0.106
-558.485	-12.712	0.195	0.130
-557.471	-80.971	-0.129	0.044
-556.456	-40.910	-0.374	0.197
-555.442	800.000	-0.072	0.247
-554.427	601.644	0.089	0.224
-553.412	800.000	-0.093	-0.300
-552.398	-11.218	-0.240	-0.161
-551.383	-58.467	-0.275	0.122
-550.369	-152.825	-0.238	0.017
-549.354	130.768	0.285	-0.372
-548.339	5.198	-0.083	-0.063
-547.325	-96.560	0.306	0.082
-546.310	800.000	-0.020	-0.077
-545.296	800.000	-0.045	-0.136
-544.281	15.582	0.089	-0.071
-543.266	57.244	0.236	-0.235
-542.252	-200.000	-0.029	-0.162
-541.237	80.438	0.171	0.188
-540.223	-90.585	0.130	-0.038
-539.208	86.285	-0.243	0.273
-538.193	-92.589	0.125	-0.036
-537.179	615.135	0.043	-0.110
-536.164	-56.180	0.125	0.057
-535.150	-151.086	0.071	0.005
-534.135	-48.607	0.185	-0.090
-533.121	-188.926	-0.222	0.003
-532.106	-73.059	-0.120	0.045
-531.091	84.986	0.161	-0.180
-530.077	-94.871	-0.163	0.045
-529.062	368.571	0.072	0.148
-528.048	-25.152	0.117	0.070
-527.033	55.983	0.101	0.100
-526.018	-86.978	0.222	0.069
-525.004	-77.833	-0.131	0.046
-523.989	-200.000	-0.002	0.215
-522.975	34.416	0.158	-0.140
-521.960	-115.748	-0.246	-0.047
-520.945	90.981	0.116	0.132
-519.931	164.611	-0.188	0.270
-518.916	122.716	0.205	-0.261
-517.902	-121.238	-0.545	-0.093
-516.887	-109.654	-0.062	0.013
-515.872	-40.661	-0.319	-0.168
-514.858	141.521	-0.091	0.123
-513.843	-200.000	-0.015	-0.106
-512.829	-200.000	0.074	-0.771
-511.814	-67.963	0.282	-0.112
-510.799	68.027	0.111	0.115
-509.785	297.797	0.073	0.135
-508.770	-50.807	-0.066	-0.031
-507.756	-56.348	0.236	0.107
-506.741	-82.101	-0.322	-0.107
-505.726	-200.000	-0.007	-0.058
-504.712	-165.957	0.209	0.009
-503.697	-59.487	-0.297	-0.130
-502.683	-67.243	-0.297	-0.119
-501.668	177.011	0.140	0.207
-500.653	-200.000	0.018	0.234
-499.639	-200.000	-0.045	0.264
-498.624	-131.308	0.171	0.023
-497.610	-174.862	-0.218	-0.006
-496.595	96.071	-0.161	0.187
-495.581	-200.000	0.012	0.348
-494.566	-200.000	0.041	-0.198
-493.551	800.000	0.036	-0.119
-492.537	-200.000	-0.066	-0.377
-491.522	53.563	0.090	0.088
-490.508	117.198	0.135	0.169
-489.493	-186.050	-0.110	-0.002
-488.478	-30.128	-0.360	0.208
-487.464	77.516	0.096	0.104
-486.449	-129.527	-0.290	0.041
-485.435	101.220	0.220	-0.260
-484.420	379.938	0.034	-0.071
-483.405	145.331	0.088	0.120
-482.391	800.000	-0.032	-0.089
-481.376	634.445	0.015	-0.039
-480.362	-200.000	0.052	0.442
-479.347	-68.991	0.440	-0.172
-478.332	-200.000	0.010	-0.124
-477.318	-161.157	0.112	0.006
-476.303	-128.716	-0.174	-0.025
-475.289	-24.993	0.129	-0.078
-474.274	-128.128	0.164	-0.024
-473.259	122.177	0.054	-0.069
-472.245	241.307	-0.287	-0.487
-471.230	-108.321	0.309	0.068
-470.216	-200.000	0.013	0.367
-469.201	336.466	0.164	0.323
-468.186	-14.061	0.200	-0.131
-467.172	800.000	0.064	0.224
-466.157	-43.307	-0.186	-0.096
-465.143	213.257	-0.111	0.177
-464.128	313.340	0.079	0.151
-463.113	18.956	0.383	0.311
-462.099	59.724	-0.237	-0.237
-461.084	-23.758	0.244	-0.148
-460.070	-26.178	0.151	0.090
-459.055	53.445	-0.070	0.068
-458.040	353.108	-0.156	0.313
-457.026	-147.027	0.281	-0.024
-456.011	-9.098	0.336	-0.228
-454.997	-15.615	-0.296	-0.192
-453.982	-143.758	0.144	0.014
-452.968	725.083	0.032	-0.086
-451.953	-114.548	0.122	-0.024
-450.938	101.889	0.117	0.138
-449.924	555.580	0.084	0.205
-448.909	-157.996	-0.429	-0.026
-447.895	-29.937	0.180	-0.104
-446.880	-57.346	-0.289	-0.129
-445.865	32.095	0.285	-0.249
-444.851	-40.410	-0.149	0.079
-443.836	-76.252	-0.556	0.199
-442.822	-200.000	0.035	0.321
-441.807	2.558	0.096	0.070
-440.792	-130.916	0.135	0.018
-439.778	285.365	-0.077	0.140
-438.763	222.877	0.115	-0.187
-437.749	536.769	-0.067	-0.161
-436.734	800.000	0.033	0.100
-435.719	179.844	0.159	-0.236
-434.705	-200.000	-0.047	0.401
-433.690	393.678	-0.083	-0.174
-432.676	-126.494	-0.524	-0.079
-431.661	-50.437	-0.098	-0.047
-430.646	-185.576	-0.066	0.001
-429.632	477.146	0.039	0.090
-428.617	-42.593	-0.160	-0.083
-427.603	-59.550	0.143	0.062
-426.588	-85.342	0.353	-0.112
-425.573	-72.849	-0.117	0.044
-424.559	-200.000	-0.025	-0.409
-423.544	12.108	-0.161	-0.126
-422.530	122.529	0.051	-0.065
-421.515	-80.701	0.145	-0.049
-420.500	-14.682	-0.190	-0.124
-419.486	180.961	0.044	-0.065
-418.471	-145.383	0.086	0.008
-417.457	21.522	0.126	-0.104
-416.442	77.201	-0.227	-0.245
-415.428	-190.738	-0.310	-0.003
-414.413	-150.385	0.046	-0.004
-413.398	-132.469	0.121	0.016
-412.384	226.005	-0.031	0.051
-411.369	312.613	0.070	-0.133
-410.355	-200.000	0.027	-0.166
-409.340	188.310	-0.126	-0.191
-408.325	-200.000	0.027	-0.213
-407.311	-17.798	-0.147	0.093
-406.296	800.000	-0.052	-0.204
-405.282	-78.883	-0.142	-0.049
-404.267	-132.405	-0.032	0.004
-403.252	-50.763	-0.095	-0.045
-402.238	91.714	-0.241	-0.275
-401.223	83.067	-0.308	0.340
-400.209	-13.623	-0.123	-0.080
-399.194	-200.000	0.041	-0.362
-398.179	261.505	0.114	-0.199
-397.165	-160.216	0.299	-0.016
-396.150	-73.296	0.437	-0.162
-395.136	-11.622	0.059	-0.039
-394.121	545.870	-0.066	-0.160
-393.106	-200.000	0.041	0.320
-392.092	376.553	-0.065	-0.134
-391.077	-200.000	-0.314	0.002
-390.063	116.702	0.118	-0.146
-389.048	800.000	0.082	0.296
-388.033	3.352	-0.062	0.046
-387.019	8.769	-0.238	-0.182
-386.004	261.720	0.083	0.146
-384.990	29.614	0.258	0.222
-383.975	-96.985	-0.211	-0.056
-382.960	271.196	0.134	0.238
-381.946	112.290	0.123	0.150
-380.931	161.418	0.108	-0.152
-379.917	-186.040	0.061	-0.001
-378.902	-2.617	-0.301	0.213
-377.888	-125.493	-0.281	0.043
-376.873	-26.847	-0.229	-0.135
-375.858	-37.756	-0.108	-0.058
-374.844	-55.037	-0.229	0.104
-373.829	430.557	0.058	0.128
-372.815	-54.121	0.148	0.068
-371.800	-100.101	0.084	-0.021
-370.785	-168.595	-0.299	-0.011
-369.771	-144.473	0.253	-0.024
-368.756	-200.000	-0.001	-0.017
-367.742	-98.204	0.176	-0.046
-366.727	-79.353	-0.256	-0.088
-365.712	-130.222	-0.150	0.021
-364.698	43.716	0.239	0.221
-363.683	231.207	0.073	-0.122
-362.669	-186.122	0.175	0.003
-361.654	218.337	-0.095	0.154
-360.639	-174.286	0.311	0.009
-359.625	800.000	-0.010	-0.030
-358.610	-65.603	0.086	0.035
-357.596	101.619	-0.241	-0.284
-356.581	-65.892	0.310	0.125
-355.566	110.318	0.204	-0.247
-354.552	326.620	0.187	0.361
-353.537	-200.000	0.053	-0.371
-352.523	-143.198	-0.330	-0.032
-351.508	55.553	0.214	0.209
-350.493	-123.375	-0.192	0.031
-349.479	-110.731	0.369	0.077
-348.464	305.584	-0.220	0.414
-347.450	-175.328	-0.412	-0.011
-346.435	-112.392	0.167	-0.034
-345.420	442.172	-0.042	-0.093
-344.406	-136.682	0.103	0.012
-343.391	-200.000	-0.015	0.264
-342.377	24.433	0.136	-0.114
-341.362	-49.185	0.095	-0.046
-340.348	317.274	0.089	0.169
-339.333	28.197	-0.072	0.061
-338.318	-200.000	0.011	0.105
-337.304	186.773	-0.153	-0.230
-336.289	-45.779	0.227	0.113
-335.275	-108.838	0.209	0.045
-334.260	505.619	-0.052	0.121
-333.245	-200.000	-0.006	0.451
-332.231	-200.000	0.031	-0.175
-331.216	-200.000	0.005	-0.041
-330.202	-50.265	0.402	-0.192
-329.187	187.776	0.124	0.187
-328.172	111.738	0.229	0.279
-327.158	-200.000	0.018	-0.261
-326.143	-31.141	-0.039	0.022
-325.129	-121.900	0.417	0.069
-324.114	-82.980	-0.386	0.126
-323.099	-86.621	-0.013	-0.004
-322.085	-200.000	0.037	0.251
-321.070	-35.383	-0.290	-0.159
-320.056	201.115	0.109	-0.170
-319.041	325.245	0.029	0.056
-318.026	-200.000	0.061	0.317
-317.012	371.018	0.052	0.107
-315.997	15.004	-0.095	0.075
-314.983	-86.199	0.479	-0.149
-313.968	-148.686	0.425	0.035
-312.953	-123.716	-0.266	0.043
-311.939	98.046	0.057	-0.066
-310.924	-200.000	0.059	-0.360
-309.910	-63.763	-0.174	-0.072
-308.895	-7.758	-0.191	0.130
-307.880	483.979	-0.085	0.195
-306.866	800.000	0.034	-0.097
-305.851	-129.198	0.199	-0.028
-304.837	640.497	-0.096	-0.247
-303.822	635.649	-0.218	-0.557
-302.807	335.593	0.018	-0.036
-301.793	-51.411	-0.054	0.025
-300.778	-75.877	-0.149	-0.053
-299.764	64.946	0.066	0.067
-298.749	288.002	-0.104	-0.190
-297.735	282.690	-0.236	-0.426
-296.720	-18.087	0.296	-0.187
-295.705	12.855	-0.143	-0.111
-294.691	-130.662	-0.129	0.017
-293.676	-53.475	-0.270	0.125
-292.662	-9.369	-0.203	0.137
-291.647	67.721	0.154	0.158
-290.632	-95.419	0.231	-0.063
-289.618	-93.415	0.231	0.065
-288.603	-200.000	0.036	0.184
-287.589	-200.000	0.009	0.247
-286.574	68.541	-0.175	-0.181
-285.559	91.396	0.123	-0.139
-284.545	-93.699	0.139	-0.039
-283.530	-200.000	-0.064	0.313
-282.516	-14.564	0.143	-0.092
-281.501	-8.170	0.075	-0.051
-280.486	28.521	0.116	0.099
-279.472	2.901	0.130	0.095
-278.457	485.004	-0.054	0.123
-277.443	-200.000	0.036	-0.223
-276.428	800.000	0.101	-0.340
-275.413	-106.362	-0.216	-0.049
-274.399	-99.408	-0.107	-0.027
-273.384	-4.587	-0.160	-0.111
-272.370	119.926	-0.195	-0.244
-271.355	366.403	0.123	-0.250
-270.340	-63.362	-0.262	-0.108
-269.326	-200.000	-0.000	0.064
-268.311	-84.231	-0.258	-0.082
-267.297	-70.282	0.029	0.011
-266.282	231.836	0.074	0.123
-265.267	800.000	0.025	-0.103
-264.253	-45.051	0.036	0.018
-263.238	-183.642	-0.340	-0.006
-262.224	-54.374	0.225	-0.103
-261.209	800.000	0.136	-0.468
-260.195	-123.501	0.274	-0.044
-259.180	44.994	0.195	-0.180
-258.165	-200.000	-0.010	-0.122
-257.151	-161.892	0.109	0.006
-256.136	50.939	0.357	-0.341
-255.122	206.419	0.066	-0.104
-254.107	-200.000	-0.041	0.185
-253.092	220.576	-0.011	0.018
-252.078	498.592	0.096	0.222
-251.063	800.000	-0.041	0.136
-250.049	-16.072	-0.240	0.154
-249.034	-200.000	0.005	0.311
-248.019	404.157	0.056	0.119
-247.005	-33.400	-0.074	-0.041
-245.990	530.925	-0.143	0.341
-244.976	-43.068	-0.068	0.035
-243.961	131.259	0.046	0.060
-242.946	800.000	-0.079	0.248
-241.932	301.193	0.136	-0.252
-240.917	31.245	-0.151	0.130
-239.903	-27.811	0.210	0.122
-238.888	-200.000	-0.034	0.219
-237.873	240.760	-0.070	-0.118
-236.859	271.300	-0.106	-0.188
-235.844	800.000	-0.095	-0.281
-234.830	-200.000	-0.056	0.250
-233.815	-37.330	-0.336	0.181
-232.800	800.000	0.046	0.131
-231.786	-38.663	-0.011	-0.006
-230.771	800.000	-0.081	0.327
-229.757	230.044	-0.134	0.221
-228.742	-99.470	-0.223	0.056
-227.727	800.000	-0.088	-0.303
-226.713	444.287	-0.051	-0.113
-225.698	261.763	-0.134	-0.234
-224.684	-26.167	0.160	-0.094
-223.669	-200.000	-0.047	-0.215
-222.655	29.092	-0.115	0.098
-221.640	-200.000	0.011	-0.143
-220.625	-136.380	0.257	-0.030
-219.611	292.015	0.254	0.464
-218.596	17.648	-0.157	-0.126
-217.582	800.000	0.008	0.022
-216.567	-174.348	0.069	0.002
-215.552	22.772	-0.087	-0.071
-214.538	-200.000	-0.084	0.388
-213.523	800.000	-0.079	0.292
-212.509	256.854	0.108	-0.186
-211.494	800.000	-0.104	0.293
-210.479	-41.108	-0.270	0.140
-209.465	800.000	0.059	-0.171
-208.450	-50.728	-0.102	-0.048
-207.436	-86.714	0.213	0.065
-206.421	490.112	-0.114	0.262
-205.406	-40.702	0.186	0.097
-204.392	-20.846	-0.245	0.151
-203.377	-111.543	0.341	0.070
-202.363	50.360	-0.026	-0.025
-201.348	-98.437	0.374	-0.096
-200.333	-200.000	0.003	0.075
-199.319	164.156	-0.038	-0.054
-198.304	-36.917	0.305	0.164
-197.290	800.000	0.031	0.127
-196.275	144.263	0.234	0.313
-195.260	-115.126	-0.318	0.061
-194.246	167.055	0.154	-0.220
-193.231	-169.387	-0.350	-0.013
-192.217	17.631	0.106	-0.084
-191.202	-200.000	0.013	-0.307
-190.187	174.309	-0.039	0.057
-189.173	-104.929	0.296	0.068
-188.158	518.771	-0.078	0.183
-187.144	-200.000	-0.016	0.149
-186.129	800.000	0.039	0.122
-185.114	195.721	0.127	0.194
-184.100	532.621	0.129	0.305
-183.085	298.325	0.094	0.173
-182.071	165.593	-0.127	-0.180
-181.056	236.697	0.143	-0.238
-180.042	-118.647	0.358	-0.063
-179.027	-200.000	0.030	-0.250
-178.012	-50.621	0.458	-0.217
-176.998	-200.000	-0.030	0.192
-175.983	-200.000	0.019	-0.244
-174.969	800.000	0.066	-0.234
-173.954	-106.521	-0.348	0.078
-172.939	-29.676	-0.305	0.175
-171.925	610.260	-0.046	-0.115
-170.910	800.000	-0.071	0.210
-169.896	-142.706	-0.214	-0.021
-168.881	142.225	0.251	0.334
-167.866	-21.679	0.352	0.215
-166.852	-200.000	-0.006	0.169
-165.837	800.000	0.036	0.131
-164.823	-132.746	-0.294	-0.038
-163.808	-68.945	0.058	-0.023
-162.793	35.040	-0.073	0.064
-161.779	-104.777	-0.127	-0.029
-160.764	-200.000	0.021	0.105
-159.750	-84.434	-0.326	-0.103
-158.735	384.627	0.220	0.455
-157.720	97.309	-0.087	0.100
-156.706	-200.000	-0.011	0.186
-155.691	-60.354	0.265	0.113
-154.677	800.000	0.028	-0.110
-153.662	-127.437	0.199	-0.029
-152.647	159.236	-0.065	0.091
-151.633	-57.289	-0.489	-0.216
-150.618	-62.731	-0.283	-0.118
-149.604	-200.000	0.023	-0.610
-148.589	326.681	-0.073	0.140
-147.574	72.210	0.112	0.117
-146.560	298.884	0.083	0.152
-145.545	-129.122	-0.216	-0.030
-144.531	-90.125	0.262	-0.076
-143.516	800.000	-0.120	-0.342
-142.502	-19.693	0.134	-0.083
-141.487	134.309	0.157	0.204
-140.472	-200.000	0.030	0.140
-139.458	141.548	0.111	-0.147
-138.443	-33.220	0.198	0.110
-137.429	351.654	-0.017	0.033
-136.414	-78.412	-0.236	0.081
-135.399	-18.312	-0.174	0.109
-134.385	-140.753	0.262	-0.027
-133.370	-60.993	-0.387	-0.164
-132.356	75.409	-0.191	-0.202
-131.341	-61.967	-0.345	0.144
-130.326	43.612	-0.196	0.179
-129.312	-200.000	-0.003	0.069
-128.297	724.646	0.131	0.350
-127.283	800.000	0.035	0.136
-126.268	110.288	-0.111	0.134
-125.253	-135.600	-0.394	-0.047
-124.239	-148.994	-0.234	-0.019
-123.224	800.000	0.146	-0.551
-122.210	370.256	-0.044	0.090
-121.195	-1.624	0.019	0.013
