DTS Sentinel unit serial number:	SN413079Multiplexer serial number:	ORYXHardware model number:	OX4-SRSoftware version number:	ORYX F/W v4.00 Oryx Data Collector v3.7.2.0data status	okinstallation	princeton_trtdifferential loss correction	single-endedforward channel	channel 4reverse channel	N/Adate	2019/09/12time	01:39:10forward acquisition time	60.00reverse acquisition time	0.00gamma	496.2192k internal	0.2309k external	0.2309temperature offset calibration	1.0091default loss term (dB/km)	0.3790temperature slope calibration	1.0000multiplexer offset coefficient	1.0000multiplexer slope coefficient	1.0000fibre end	0.00T internal ref (°C)	32.87T ext. ref 1 (°C)	2.07T ext. ref 2 (°C)	27.61length (m)	temperature (°C)	Stokes	anti-Stokes-747.200	-139.447	-0.250	0.027
-746.185	-56.157	-0.085	0.039
-745.171	166.660	-0.130	0.187
-744.156	800.000	0.062	0.265
-743.142	-113.877	0.154	0.031
-742.127	244.193	-0.262	0.446
-741.112	131.974	-0.122	0.159
-740.098	144.640	0.117	0.159
-739.083	189.970	-0.278	0.423
-738.069	-160.561	-0.211	0.011
-737.054	187.119	-0.084	0.127
-736.039	-200.000	0.027	0.187
-735.025	-200.000	-0.003	0.368
-734.010	740.846	0.070	0.191
-732.996	-180.164	-0.174	-0.004
-731.981	800.000	-0.081	-0.247
-730.966	197.588	-0.108	-0.168
-729.952	364.434	0.173	-0.354
-728.937	-141.074	0.196	-0.020
-727.923	-121.727	-0.187	0.031
-726.908	36.673	0.058	-0.052
-725.894	129.651	-0.017	0.022
-724.879	-200.000	0.019	0.217
-723.864	-200.000	-0.008	-0.095
-722.850	38.521	-0.231	-0.209
-721.835	56.786	0.245	-0.243
-720.821	-7.512	-0.236	0.162
-719.806	61.955	-0.237	0.240
-718.791	800.000	-0.052	-0.188
-717.777	691.996	-0.022	0.059
-716.762	-148.274	0.439	0.037
-715.748	41.290	-0.214	-0.197
-714.733	-51.004	-0.102	-0.048
-713.718	-200.000	0.022	-0.252
-712.704	-200.000	0.042	-0.375
-711.689	25.420	-0.121	-0.102
-710.675	-47.334	0.231	-0.114
-709.660	-108.333	-0.266	-0.058
-708.645	127.493	-0.075	0.096
-707.631	281.893	0.210	0.381
-706.616	-200.000	0.021	-0.316
-705.602	22.869	0.064	0.053
-704.587	194.889	0.084	0.129
-703.572	-71.292	-0.208	0.079
-702.558	164.423	-0.041	0.059
-701.543	-61.344	0.068	0.029
-700.529	-16.458	-0.216	0.139
-699.514	38.848	-0.199	0.180
-698.499	-122.183	0.181	0.030
-697.485	-100.150	-0.110	-0.028
-696.470	567.216	-0.028	-0.070
-695.456	455.131	-0.063	-0.142
-694.441	-200.000	0.054	-0.252
-693.426	800.000	-0.058	-0.238
-692.412	110.809	0.206	0.252
-691.397	125.730	-0.161	-0.206
-690.383	76.572	-0.109	-0.118
-689.368	-200.000	0.035	-0.278
-688.354	81.942	-0.194	-0.213
-687.339	-200.000	0.003	0.100
-686.324	-200.000	-0.036	0.388
-685.310	89.915	-0.162	0.184
-684.295	-71.629	-0.177	0.067
-683.281	-76.469	-0.184	-0.065
-682.266	71.925	-0.244	-0.257
-681.251	-5.474	-0.070	0.049
-680.237	-200.000	0.006	0.145
-679.222	15.881	-0.203	0.162
-678.208	313.088	-0.200	-0.381
-677.193	52.289	-0.235	-0.227
-676.178	-60.333	0.023	0.010
-675.164	-141.221	-0.192	-0.020
-674.149	105.048	-0.177	0.212
-673.135	-119.446	0.028	0.005
-672.120	-164.430	-0.246	0.011
-671.105	-27.292	0.323	0.191
-670.091	800.000	0.117	0.431
-669.076	532.080	0.086	-0.206
-668.062	44.365	-0.180	0.168
-667.047	-83.541	-0.035	0.011
-666.032	-65.475	0.573	-0.233
-665.018	29.665	0.118	-0.102
-664.003	800.000	-0.052	-0.228
-662.989	353.407	-0.062	0.125
-661.974	-26.846	-0.355	0.210
-660.959	617.647	-0.129	-0.328
-659.945	-56.471	0.042	0.019
-658.930	79.726	0.162	0.177
-657.916	-89.702	-0.287	0.085
-656.901	33.788	-0.002	-0.002
-655.886	-200.000	-0.023	0.105
-654.872	44.029	-0.182	0.169
-653.857	-200.000	-0.009	0.041
-652.843	-145.192	-0.314	-0.029
-651.828	-4.190	0.114	-0.080
-650.814	-110.930	0.080	0.017
-649.799	6.320	0.188	-0.142
-648.784	-56.169	-0.113	-0.051
-647.770	-200.000	0.002	-0.571
-646.755	800.000	-0.015	0.063
-645.741	-140.963	0.125	0.013
-644.726	-160.151	0.292	0.016
-643.711	375.371	0.121	-0.250
-642.697	-39.834	-0.119	0.063
-641.682	-128.882	0.053	0.008
-640.668	2.752	0.076	-0.056
-639.653	-200.000	0.024	0.120
-638.638	161.258	0.082	0.117
-637.624	130.120	0.034	0.045
-636.609	800.000	-0.038	0.150
-635.595	-52.287	0.337	-0.158
-634.580	-79.941	0.162	0.055
-633.565	209.517	0.128	0.203
-632.551	-113.071	-0.426	0.085
-631.536	-22.459	-0.147	-0.090
-630.522	-200.000	0.009	-0.152
-629.507	-44.781	-0.238	0.120
-628.492	2.662	-0.317	-0.232
-627.478	-66.877	-0.244	-0.098
-626.463	-135.698	-0.057	0.007
-625.449	548.347	0.053	-0.129
-624.434	140.689	-0.166	-0.222
-623.419	-43.414	0.316	-0.161
-622.405	-78.236	-0.222	0.077
-621.390	532.513	-0.086	0.205
-620.376	191.365	-0.164	-0.250
-619.361	29.852	-0.128	0.111
-618.346	65.956	0.152	-0.156
-617.332	-78.276	-0.124	0.043
-616.317	147.759	-0.096	-0.130
-615.303	-112.328	-0.289	-0.059
-614.288	800.000	0.088	-0.257
-613.273	-72.380	0.348	-0.130
-612.259	-59.826	0.038	-0.016
-611.244	25.757	0.274	0.230
-610.230	142.112	-0.306	0.410
-609.215	-200.000	-0.059	-0.279
-608.201	-43.677	-0.147	-0.075
-607.186	582.076	0.178	0.441
-606.171	-25.264	-0.098	0.059
-605.157	800.000	0.046	0.159
-604.142	-108.163	0.297	-0.065
-603.128	-88.218	-0.091	0.027
-602.113	232.548	0.130	-0.216
-601.098	-129.418	-0.421	-0.059
-600.084	6.419	-0.075	0.056
-599.069	363.050	0.067	0.136
-598.055	-9.488	0.132	0.089
-597.040	-34.716	-0.152	-0.084
-596.025	-30.610	-0.130	-0.075
-595.011	800.000	0.049	0.174
-593.996	353.685	0.063	0.126
-592.982	-129.058	-0.159	0.023
-591.967	-183.141	0.138	-0.002
-590.952	-23.331	-0.179	-0.109
-589.938	44.678	-0.377	0.350
-588.923	354.023	0.107	0.215
-587.909	-110.323	-0.223	-0.047
-586.894	14.234	-0.069	0.054
-585.879	57.673	-0.198	-0.195
-584.865	118.546	0.094	0.117
-583.850	-58.984	0.334	-0.146
-582.836	-53.158	0.265	0.123
-581.821	101.839	-0.053	-0.063
-580.806	-109.513	0.250	-0.053
-579.792	106.867	0.117	0.140
-578.777	-93.217	0.398	-0.112
-577.763	-200.000	-0.028	-0.161
-576.748	-200.000	-0.001	0.172
-575.733	-200.000	-0.019	0.266
-574.719	800.000	-0.038	-0.166
-573.704	-9.105	0.302	-0.204
-572.690	-152.130	-0.079	0.006
-571.675	259.646	0.025	0.044
-570.661	69.756	-0.081	0.084
-569.646	-102.827	-0.130	-0.031
-568.631	141.748	0.174	0.233
-567.617	-114.169	0.327	-0.064
-566.602	269.055	0.053	-0.093
-565.588	-61.625	0.093	-0.039
-564.573	800.000	0.061	0.198
-563.558	-130.659	-0.160	-0.022
-562.544	716.312	0.082	0.219
-561.529	201.153	-0.181	0.281
-560.515	269.953	-0.095	-0.168
-559.500	709.914	0.096	0.255
-558.485	-32.314	0.044	0.025
-557.471	-113.546	-0.341	0.067
-556.456	-200.000	-0.034	-0.272
-555.442	23.850	-0.093	-0.077
-554.427	41.076	-0.128	-0.116
-553.412	172.467	0.233	-0.338
-552.398	800.000	-0.075	0.308
-551.383	-112.493	0.175	-0.035
-550.369	-200.000	0.004	0.180
-549.354	3.357	-0.133	0.098
-548.339	5.386	-0.451	-0.336
-547.325	-200.000	0.003	0.058
-546.310	-200.000	0.019	-0.115
-545.296	800.000	-0.045	0.135
-544.281	-12.936	-0.235	0.154
-543.266	578.592	0.078	0.192
-542.252	-123.434	0.184	0.030
-541.237	-42.026	0.042	0.022
-540.223	-87.669	0.134	0.041
-539.208	-161.136	-0.215	0.011
-538.193	-47.135	-0.168	0.083
-537.179	108.147	-0.112	-0.134
-536.164	800.000	-0.009	0.026
-535.150	53.672	0.227	-0.220
-534.135	-43.409	0.131	0.067
-533.121	-141.758	-0.316	0.032
-532.106	-200.000	-0.058	0.324
-531.091	165.180	-0.097	0.137
-530.077	763.261	-0.107	0.292
-529.062	596.469	0.028	0.069
-528.048	119.048	-0.149	-0.186
-527.033	384.467	0.201	-0.417
-526.018	46.040	-0.014	-0.014
-525.004	41.671	0.141	0.129
-523.989	24.535	0.137	-0.114
-522.975	144.852	0.089	-0.120
-521.960	-76.017	-0.454	0.162
-520.945	-47.660	-0.196	0.096
-519.931	5.377	-0.102	0.076
-518.916	-30.830	-0.046	-0.026
-517.902	-141.836	0.260	-0.026
-516.887	800.000	-0.044	0.177
-515.872	-12.159	0.131	-0.086
-514.858	629.542	0.169	-0.429
-513.843	-200.000	-0.009	-0.401
-512.829	-38.281	-0.231	0.123
-511.814	-137.865	0.578	-0.065
-510.799	40.252	0.080	0.073
-509.785	-89.172	-0.212	0.063
-508.770	190.703	-0.141	-0.214
-507.756	-117.026	-0.171	0.031
-506.741	-41.541	0.126	0.065
-505.726	-22.846	0.238	0.145
-504.712	-150.671	0.312	0.024
-503.697	-37.460	0.300	0.161
-502.683	230.945	-0.108	0.177
-501.668	370.476	-0.125	-0.254
-500.653	-95.961	-0.337	-0.090
-499.639	55.606	-0.245	-0.238
-498.624	297.036	0.037	0.069
-497.610	-200.000	0.008	0.203
-496.595	449.900	0.124	0.276
-495.581	800.000	-0.053	-0.225
-494.566	-46.161	-0.147	-0.073
-493.551	491.642	0.116	0.268
-492.537	-200.000	-0.034	-0.184
-491.522	-65.763	-0.025	-0.010
-490.508	108.269	-0.033	-0.040
-489.493	-71.268	-0.180	-0.068
-488.478	-50.947	0.076	-0.036
-487.464	-114.313	-0.109	0.021
-486.449	-79.447	0.243	-0.083
-485.435	199.031	0.092	0.142
-484.420	67.035	0.108	-0.111
-483.405	20.002	-0.099	-0.081
-482.391	235.915	-0.105	0.175
-481.376	163.857	-0.208	-0.295
-480.362	-177.624	-0.059	-0.001
-479.347	-200.000	0.037	-0.198
-478.332	-15.545	-0.188	-0.121
-477.318	-65.237	-0.335	-0.136
-476.303	113.328	-0.221	0.270
-475.289	-23.183	-0.159	0.096
-474.274	-200.000	-0.005	0.237
-473.259	-94.795	-0.163	-0.044
-472.245	-200.000	0.000	0.197
-471.230	761.617	0.043	-0.118
-470.216	-200.000	-0.014	-0.072
-469.201	-18.888	-0.215	0.134
-468.186	800.000	0.114	0.370
-467.172	-200.000	0.048	-0.268
-466.157	344.885	-0.124	-0.244
-465.143	800.000	-0.034	-0.102
-464.128	800.000	0.035	0.151
-463.113	-191.859	0.193	0.002
-462.099	113.765	-0.182	-0.222
-461.084	-58.539	-0.270	0.118
-460.070	3.663	-0.141	-0.103
-459.055	800.000	-0.100	0.318
-458.040	-183.813	-0.302	-0.005
-457.026	-191.172	0.155	0.002
-456.011	-200.000	0.022	0.201
-454.997	-200.000	-0.054	-0.246
-453.982	-47.314	-0.074	0.036
-452.968	94.855	0.174	0.199
-451.953	105.987	-0.145	0.172
-450.938	85.577	-0.238	-0.263
-449.924	336.845	-0.087	0.170
-448.909	-143.456	0.045	-0.004
-447.895	800.000	-0.054	0.191
-446.880	192.888	-0.176	0.266
-445.865	-133.465	0.592	0.075
-444.851	-49.588	-0.302	0.144
-443.836	-10.012	0.110	0.074
-442.822	-14.502	0.204	0.132
-441.807	-91.261	0.159	0.046
-440.792	-82.406	0.048	0.016
-439.778	800.000	0.040	0.154
-438.763	37.418	-0.090	0.080
-437.749	104.942	-0.074	-0.088
-436.734	249.810	0.146	-0.249
-435.719	-72.584	0.321	0.119
-434.705	-56.434	-0.273	-0.122
-433.690	-46.979	0.338	-0.166
-432.676	-200.000	0.030	-0.308
-431.661	-146.669	0.198	0.017
-430.646	-200.000	-0.033	-0.174
-429.632	-140.086	0.130	-0.014
-428.617	70.957	-0.244	-0.253
-427.603	-113.372	-0.061	-0.012
-426.588	447.182	-0.101	-0.223
-425.573	618.525	0.036	-0.090
-424.559	206.093	0.021	-0.033
-423.544	800.000	0.121	0.452
-422.530	-93.759	-0.045	-0.012
-421.515	79.072	-0.112	-0.120
-420.500	42.711	0.224	0.205
-419.486	-56.617	-0.217	0.097
-418.471	20.028	0.089	0.072
-417.457	-89.583	0.364	-0.107
-416.442	-73.141	-0.387	0.142
-415.428	-42.988	-0.131	-0.067
-414.413	414.736	-0.062	0.133
-413.398	-125.559	-0.210	0.032
-412.384	7.785	-0.081	0.061
-411.369	-47.754	-0.146	-0.071
-410.355	117.597	0.168	-0.207
-409.340	-120.384	-0.421	0.072
-408.325	85.533	0.209	0.231
-407.311	293.263	-0.141	-0.259
-406.296	0.530	0.444	-0.319
-405.282	211.994	0.058	0.091
-404.267	-200.000	-0.039	-0.192
-403.252	-50.471	0.179	0.085
-402.238	14.208	0.382	0.298
-401.223	-56.991	-0.270	0.119
-400.209	92.076	-0.241	0.273
-399.194	-48.656	0.072	0.035
-398.179	-200.000	-0.339	0.001
-397.165	184.068	-0.083	-0.123
-396.150	-117.807	0.118	0.021
-395.136	73.582	-0.136	0.143
-394.121	17.177	-0.118	0.094
-393.106	132.621	-0.210	0.271
-392.092	-89.064	0.089	0.027
-391.077	155.459	-0.173	-0.238
-390.063	222.481	0.102	0.164
-389.048	-120.056	0.275	-0.047
-388.033	59.963	0.133	-0.131
-387.019	121.305	-0.121	-0.152
-386.004	-115.939	-0.154	-0.029
-384.990	76.801	0.023	0.025
-383.975	47.681	-0.083	-0.078
-382.960	-37.197	-0.433	0.232
-381.946	-200.000	0.019	0.111
-380.931	-200.000	-0.010	0.361
-379.917	-200.000	0.042	0.221
-378.902	-69.835	-0.420	-0.161
-377.888	114.170	-0.033	-0.041
-376.873	-83.356	-0.350	0.113
-375.858	-59.613	0.189	-0.081
-374.844	-34.395	0.361	0.198
-373.829	481.751	-0.142	0.323
-372.815	-55.647	-0.057	0.026
-371.800	257.064	0.040	0.069
-370.785	-200.000	-0.029	-0.135
-369.771	318.615	0.140	0.266
-368.756	49.973	-0.058	-0.055
-367.742	-95.973	-0.267	0.071
-366.727	161.092	-0.126	-0.176
-365.712	-180.865	-0.152	0.003
-364.698	-200.000	0.005	-0.080
-363.683	-200.000	0.030	-0.137
-362.669	-73.322	0.088	-0.032
-361.654	-200.000	0.011	0.178
-360.639	-65.146	0.217	0.088
-359.625	-38.119	0.156	-0.083
-358.610	-118.709	-0.143	-0.025
-357.596	-200.000	0.033	-0.150
-356.581	-1.071	-0.168	0.119
-355.566	800.000	-0.114	-0.319
-354.552	-200.000	0.014	-0.092
-353.537	42.825	0.274	-0.250
-352.523	149.408	-0.123	-0.167
-351.508	800.000	0.073	-0.240
-350.493	-53.843	0.422	0.192
-349.479	27.667	0.140	0.118
-348.464	23.518	-0.286	-0.235
-347.450	-30.497	-0.361	0.205
-346.435	-200.000	0.003	0.152
-345.420	-67.955	0.280	0.110
-344.406	-200.000	0.035	-0.210
-343.391	30.703	-0.048	-0.041
-342.377	584.816	-0.102	0.251
-341.362	41.962	-0.190	-0.172
-340.348	113.477	0.096	-0.117
-339.333	-95.767	0.329	-0.088
-338.318	-30.851	0.094	-0.053
-337.304	-200.000	-0.011	-0.100
-336.289	-200.000	0.013	-0.296
-335.275	-155.700	-0.199	-0.013
-334.260	-200.000	-0.003	0.316
-333.245	-200.000	-0.013	-0.111
-332.231	83.014	0.044	-0.048
-331.216	-200.000	-0.041	-0.336
-330.202	-200.000	0.032	0.203
-329.187	-200.000	0.067	-0.420
-328.172	-17.652	-0.254	-0.159
-327.158	800.000	0.040	0.136
-326.143	111.890	0.117	-0.141
-325.129	-188.832	-0.193	0.002
-324.114	38.103	0.114	0.101
-323.099	115.668	-0.056	-0.069
-322.085	-115.886	0.165	-0.031
-321.070	-145.675	-0.123	-0.011
-320.056	210.424	0.144	0.227
-319.041	-200.000	-0.004	0.099
-318.026	60.977	0.180	0.179
-317.012	87.779	0.113	-0.125
-315.997	-9.888	0.295	-0.196
-314.983	170.015	-0.165	-0.235
-313.968	15.064	-0.223	-0.174
-312.953	316.227	0.092	0.174
-311.939	-108.037	0.297	0.064
-310.924	800.000	0.045	-0.195
-309.910	-105.874	-0.257	-0.058
-308.895	-200.000	-0.017	0.200
-307.880	-118.357	-0.176	-0.031
-306.866	-59.218	-0.060	-0.026
-305.851	122.631	0.096	0.120
-304.837	800.000	-0.082	0.283
-303.822	-200.000	-0.058	0.310
-302.807	-200.000	0.003	0.391
-301.793	-10.284	0.012	-0.008
-300.778	168.707	0.068	0.096
-299.764	402.269	-0.017	0.036
-298.749	214.556	-0.037	0.059
-297.735	800.000	0.097	-0.312
-296.720	800.000	0.079	0.223
-295.705	152.890	0.262	0.358
-294.691	189.858	-0.034	-0.051
-293.676	-105.193	-0.512	-0.117
-292.662	-200.000	-0.022	0.150
-291.647	-106.578	-0.283	-0.063
-290.632	39.681	-0.121	-0.109
-289.618	84.323	0.088	-0.096
-288.603	-200.000	0.014	0.133
-287.589	256.517	0.105	0.181
-286.574	-71.846	0.212	0.079
-285.559	-5.201	-0.146	-0.100
-284.545	-9.503	0.181	0.121
-283.530	575.354	0.093	0.227
-282.516	9.121	-0.159	-0.120
-281.501	-109.314	0.242	-0.051
-280.486	171.107	0.121	0.174
-279.472	-123.172	-0.173	0.028
-278.457	23.568	-0.282	0.231
-277.443	108.499	-0.090	-0.107
-276.428	-64.440	-0.236	-0.096
-275.413	-200.000	-0.002	0.050
-274.399	-23.646	-0.240	-0.144
-273.384	305.520	0.132	0.244
-272.370	548.486	-0.151	-0.361
-271.355	-108.856	0.092	-0.020
-270.340	-75.608	-0.336	-0.119
-269.326	3.663	-0.006	-0.005
-268.311	-200.000	0.008	0.048
-267.297	-94.145	0.199	-0.054
-266.282	-176.051	0.299	-0.008
-265.267	-68.842	-0.233	-0.090
-264.253	0.809	0.404	0.288
-263.238	-200.000	0.007	0.164
-262.224	42.181	0.076	0.069
-261.209	-119.235	-0.242	-0.042
-260.195	-174.228	-0.257	-0.007
-259.180	800.000	0.051	0.140
-258.165	202.836	0.173	0.267
-257.151	-30.931	-0.178	0.100
-256.136	-46.402	0.049	-0.024
-255.122	-200.000	-0.021	0.141
-254.107	70.420	-0.202	-0.208
-253.092	-192.237	0.401	-0.004
-252.078	305.919	0.100	-0.185
-251.063	140.818	-0.207	-0.273
-250.049	-200.000	-0.000	-0.209
-249.034	-25.129	0.132	-0.078
-248.019	-45.321	-0.183	-0.091
-247.005	131.366	0.123	0.157
-245.990	203.283	0.095	-0.147
-244.976	162.399	0.170	-0.237
-243.961	-109.106	0.337	-0.071
-242.946	-200.000	-0.006	-0.192
-241.932	800.000	0.117	-0.344
-240.917	800.000	0.018	-0.067
-239.903	-73.580	-0.130	-0.047
-238.888	616.755	0.012	-0.031
-237.873	-183.849	0.429	0.007
-236.859	-24.498	0.009	-0.006
-235.844	-200.000	0.000	-0.144
-234.830	800.000	0.068	-0.219
-233.815	176.383	-0.039	0.056
-232.800	800.000	-0.026	0.073
-231.786	800.000	-0.085	0.236
-230.771	-108.560	0.081	0.017
-229.757	800.000	-0.036	-0.115
-228.742	-44.969	0.105	0.052
-227.727	-126.166	0.143	0.021
-226.713	-141.309	-0.145	0.015
-225.698	136.805	-0.106	0.138
-224.684	-113.580	0.143	0.028
-223.669	386.041	0.149	0.307
-222.655	-87.460	-0.114	0.034
-221.640	44.055	-0.103	-0.094
-220.625	-200.000	0.095	-0.487
-219.611	-78.980	0.132	-0.045
-218.596	15.817	0.093	-0.073
-217.582	-17.248	0.050	-0.031
-216.567	-141.045	0.478	-0.049
-215.552	396.321	-0.042	0.088
-214.538	-76.332	0.178	-0.062
-213.523	-200.000	-0.019	-0.082
-212.509	-200.000	-0.054	-0.501
-211.494	122.255	-0.003	0.004
-210.479	-60.945	-0.103	0.043
-209.465	30.502	-0.075	0.064
-208.450	166.296	0.364	0.514
-207.436	-200.000	0.043	0.240
-206.421	800.000	0.106	0.424
-205.406	-179.346	-0.089	-0.002
-204.392	-58.095	0.157	0.068
-203.377	140.134	0.180	-0.236
-202.363	-161.757	-0.434	0.022
-201.348	3.928	-0.288	0.209
-200.333	313.016	0.164	-0.306
-199.319	144.753	0.056	0.074
-198.304	566.185	-0.156	-0.376
-197.290	-135.402	0.193	0.023
-196.275	37.741	-0.193	0.171
-195.260	210.366	0.161	-0.251
-194.246	145.884	0.089	-0.119
-193.231	-143.517	0.138	-0.013
-192.217	61.448	0.184	-0.182
-191.202	-200.000	-0.003	0.054
-190.187	-170.962	0.152	-0.005
-189.173	221.162	-0.122	-0.195
-188.158	-200.000	0.021	-0.274
-187.144	210.398	-0.117	0.182
-186.129	-200.000	-0.139	0.615
-185.114	385.861	0.195	-0.400
-184.100	-200.000	-0.058	-0.294
-183.085	-200.000	-0.000	-0.493
-182.071	84.997	0.118	-0.128
-181.056	-144.436	-0.285	-0.026
-180.042	-200.000	0.009	0.203
-179.027	-200.000	0.064	0.385
-178.012	-67.129	0.179	0.070
-176.998	800.000	0.051	-0.184
-175.983	-200.000	-0.020	0.199
-174.969	672.014	-0.061	-0.158
-173.954	-134.981	0.207	0.025
-172.939	-108.417	-0.309	-0.066
-171.925	800.000	-0.069	-0.265
-170.910	432.782	-0.205	0.442
-169.896	-200.000	0.005	0.239
-168.881	210.270	0.098	0.153
-167.866	-200.000	-0.009	0.201
-166.852	-12.031	0.477	0.310
-165.837	-72.763	0.191	-0.070
-164.823	800.000	0.096	0.329
-163.808	-125.851	0.109	-0.016
-162.793	176.479	0.057	-0.082
-161.779	-200.000	-0.018	0.094
-160.764	164.267	0.171	0.240
-159.750	-38.866	0.117	-0.061
-158.735	-88.896	0.349	0.103
-157.720	103.386	0.116	-0.135
-156.706	-37.353	0.324	-0.172
-155.691	295.808	0.271	-0.493
-154.677	-184.633	-0.289	-0.005
-153.662	-53.677	0.313	-0.142
-152.647	800.000	0.058	-0.170
-151.633	186.025	-0.163	-0.241
-150.618	-63.709	-0.041	0.017
-149.604	800.000	0.042	-0.151
-148.589	235.325	-0.091	0.149
-147.574	-200.000	0.045	0.203
-146.560	22.969	-0.331	0.269
-145.545	-200.000	0.005	0.188
-144.531	191.442	-0.068	-0.102
-143.516	272.801	-0.153	-0.269
-142.502	186.321	-0.015	0.022
-141.487	-110.177	-0.195	0.040
-140.472	172.305	-0.194	0.276
-139.458	-16.841	-0.220	-0.138
-138.443	-200.000	0.021	-0.228
-137.429	-138.098	-0.313	-0.034
-136.414	392.501	0.023	-0.047
-135.399	35.287	-0.253	0.220
-134.385	687.962	0.126	0.328
-133.370	-25.575	0.326	-0.191
-132.356	-184.340	-0.202	-0.003
-131.341	800.000	0.042	0.132
-130.326	411.639	-0.179	0.378
-129.312	-39.050	-0.104	-0.054
-128.297	571.403	0.114	0.275
-127.283	-200.000	-0.012	0.096
-126.268	-54.410	0.036	0.016
-125.253	148.713	-0.189	0.254
-124.239	-96.589	0.319	0.083
-123.224	6.631	-0.041	-0.030
-122.210	-26.178	-0.216	0.126
-121.195	-111.781	0.252	-0.051
