DTS Sentinel unit serial number:	SN413079Multiplexer serial number:	ORYXHardware model number:	OX4-SRSoftware version number:	ORYX F/W v4.00 Oryx Data Collector v3.7.2.0data status	okinstallation	princeton_trtdifferential loss correction	single-endedforward channel	channel 4reverse channel	N/Adate	2019/09/15time	13:09:35forward acquisition time	60.00reverse acquisition time	0.00gamma	496.2192k internal	0.2293k external	0.2293temperature offset calibration	1.0000default loss term (dB/km)	0.3790temperature slope calibration	1.0000multiplexer offset coefficient	1.0000multiplexer slope coefficient	1.0000fibre end	0.00T internal ref (°C)	36.87T ext. ref 1 (°C)	4.95T ext. ref 2 (°C)	34.94length (m)	temperature (°C)	Stokes	anti-Stokes-747.200	368.877	-0.076	0.157
-746.185	-200.000	-0.071	0.383
-745.171	-149.452	-0.263	-0.021
-744.156	-102.426	-0.250	-0.061
-743.142	-130.854	0.153	-0.021
-742.127	-166.080	0.179	-0.008
-741.112	-200.000	-0.001	-0.076
-740.098	622.016	-0.135	0.347
-739.083	-62.229	0.166	0.071
-738.069	274.516	-0.116	0.211
-737.054	800.000	-0.098	-0.429
-736.039	748.404	0.033	0.091
-735.025	-200.000	-0.027	0.129
-734.010	456.055	0.124	-0.281
-732.996	25.398	-0.418	-0.356
-731.981	275.904	-0.101	0.184
-730.966	0.426	-0.154	-0.113
-729.952	186.318	-0.122	0.186
-728.937	228.264	-0.103	-0.171
-727.923	-111.664	0.285	-0.059
-726.908	527.131	-0.273	0.658
-725.894	226.656	0.160	0.265
-724.879	-52.680	0.219	0.104
-723.864	390.373	-0.145	-0.308
-722.850	800.000	-0.084	0.277
-721.835	800.000	-0.115	0.395
-720.821	45.644	-0.180	-0.170
-719.806	-200.000	0.001	0.214
-718.791	-200.000	-0.013	0.204
-717.777	800.000	0.038	0.126
-716.762	-200.000	-0.068	0.393
-715.748	-200.000	-0.053	-0.252
-714.733	82.123	0.206	-0.228
-713.718	107.026	-0.259	-0.315
-712.704	24.158	-0.259	-0.218
-711.689	614.769	-0.008	-0.022
-710.675	800.000	-0.034	-0.114
-709.660	-43.290	0.198	-0.102
-708.645	-116.203	-0.177	-0.034
-707.631	51.385	0.062	-0.061
-706.616	-36.857	-0.149	-0.082
-705.602	800.000	-0.065	0.240
-704.587	-10.744	0.062	0.042
-703.572	-200.000	-0.011	-0.396
-702.558	-200.000	-0.002	0.075
-701.543	-7.411	0.121	0.084
-700.529	-200.000	0.024	0.113
-699.514	297.199	0.123	-0.230
-698.499	-98.199	-0.179	0.047
-697.485	-200.000	0.011	0.329
-696.470	-90.247	-0.135	0.040
-695.456	-200.000	0.020	-0.249
-694.441	-66.590	0.161	0.065
-693.426	608.485	-0.026	-0.066
-692.412	135.876	0.055	-0.073
-691.397	-15.591	-0.269	0.175
-690.383	-130.112	-0.184	-0.026
-689.368	-43.495	-0.078	-0.040
-688.354	-101.009	0.367	-0.092
-687.339	303.452	0.201	-0.379
-686.324	-200.000	-0.008	-0.150
-685.310	-108.349	0.367	0.081
-684.295	800.000	0.043	0.155
-683.281	66.259	0.047	-0.048
-682.266	470.003	0.023	-0.054
-681.251	194.297	-0.059	0.091
-680.237	185.972	0.190	-0.289
-679.222	114.686	-0.060	-0.075
-678.208	800.000	0.166	-0.496
-677.193	-142.563	-0.165	0.017
-676.178	-200.000	-0.010	-0.260
-675.164	-124.069	-0.140	0.022
-674.149	-200.000	-0.007	0.093
-673.135	-27.897	-0.310	0.183
-672.120	191.409	-0.142	-0.219
-671.105	172.897	-0.086	-0.126
-670.091	553.945	0.011	0.027
-669.076	-200.000	0.016	-0.362
-668.062	104.297	-0.175	-0.210
-667.047	122.582	0.074	0.095
-666.032	-130.808	0.134	0.018
-665.018	130.860	0.063	-0.083
-664.003	-149.686	0.312	0.025
-662.989	800.000	-0.107	-0.336
-661.974	308.908	0.014	0.026
-660.959	25.494	0.161	0.137
-659.945	-200.000	0.011	-0.111
-658.930	-6.364	0.234	-0.163
-657.916	12.701	-0.061	-0.048
-656.901	-65.053	-0.049	-0.020
-655.886	82.400	-0.303	0.335
-654.872	-117.581	-0.212	0.039
-653.857	-32.416	-0.088	-0.050
-652.843	-200.000	0.035	0.325
-651.828	-200.000	-0.055	-0.275
-650.814	15.653	0.209	-0.167
-649.799	-33.605	-0.177	-0.100
-648.784	22.141	0.235	-0.196
-647.770	343.675	0.048	0.096
-646.755	256.325	0.080	-0.139
-645.741	180.105	0.212	-0.317
-644.726	-174.149	0.068	-0.002
-643.711	800.000	0.126	0.356
-642.697	-39.952	-0.260	0.138
-641.682	-200.000	0.006	0.054
-640.668	197.576	0.234	-0.364
-639.653	197.474	-0.216	-0.336
-638.638	-68.942	-0.131	-0.051
-637.624	-200.000	-0.017	0.266
-636.609	-133.742	-0.373	0.047
-635.595	29.901	0.293	0.254
-634.580	88.468	0.210	-0.238
-633.565	49.309	-0.123	0.117
-632.551	100.041	-0.164	-0.194
-631.536	800.000	-0.069	0.243
-630.522	624.839	0.078	-0.200
-629.507	604.696	0.094	0.238
-628.492	1.402	-0.015	-0.011
-627.478	-200.000	0.021	0.338
-626.463	-39.330	-0.074	-0.040
-625.449	-93.943	0.198	0.055
-624.434	702.310	-0.095	-0.256
-623.419	25.498	-0.169	-0.143
-622.405	40.058	0.198	-0.181
-621.390	4.534	0.018	0.014
-620.376	-200.000	-0.073	-0.329
-619.361	194.440	-0.135	-0.208
-618.346	-63.807	-0.214	-0.089
-617.332	-200.000	-0.011	-0.094
-616.317	-200.000	0.048	-0.245
-615.303	193.787	0.192	-0.296
-614.288	-168.386	-0.096	0.004
-613.273	63.511	0.151	-0.155
-612.259	-33.493	-0.168	-0.094
-611.244	720.435	-0.026	-0.071
-610.230	132.527	0.217	0.284
-609.215	107.607	0.159	0.193
-608.201	-200.000	-0.008	0.114
-607.186	34.696	0.242	0.216
-606.171	321.039	-0.145	0.280
-605.157	77.670	-0.075	-0.082
-604.142	-200.000	0.013	0.286
-603.128	635.071	-0.096	-0.247
-602.113	-96.057	-0.184	0.050
-601.098	-80.692	-0.198	0.067
-600.084	4.588	0.023	-0.017
-599.069	-200.000	-0.063	0.477
-598.055	389.952	-0.042	0.088
-597.040	800.000	0.036	-0.140
-596.025	-18.723	0.152	0.096
-595.011	-76.283	-0.148	0.053
-593.996	800.000	-0.121	0.398
-592.982	64.411	-0.086	0.088
-591.967	800.000	-0.063	-0.262
-590.952	372.896	-0.081	-0.168
-589.938	-163.577	0.150	-0.007
-588.923	68.786	0.181	0.189
-587.909	-135.058	-0.115	-0.014
-586.894	67.715	-0.081	0.084
-585.879	800.000	0.095	-0.278
-584.865	419.396	-0.198	-0.431
-583.850	-131.797	-0.395	-0.053
-582.836	68.447	-0.364	0.379
-581.821	62.784	0.064	0.065
-580.806	115.508	0.167	-0.207
-579.792	545.028	0.046	-0.112
-578.777	-200.000	0.001	0.059
-577.763	89.114	0.210	0.237
-576.748	503.043	0.093	-0.219
-575.733	-200.000	0.015	-0.191
-574.719	-200.000	0.043	-0.278
-573.704	-135.079	0.075	-0.009
-572.690	-69.795	0.357	0.139
-571.675	-88.891	0.288	-0.087
-570.661	113.239	-0.102	0.126
-569.646	508.543	-0.070	0.164
-568.631	-200.000	-0.030	-0.337
-567.617	-110.980	-0.184	0.038
-566.602	-29.954	-0.287	-0.166
-565.588	-133.541	-0.132	0.017
-564.573	-54.432	-0.088	0.040
-563.558	279.710	0.010	0.019
-562.544	153.486	0.235	-0.327
-561.529	-70.901	0.157	-0.060
-560.515	188.809	0.100	-0.152
-559.500	-200.000	-0.054	-0.251
-558.485	510.435	0.087	-0.205
-557.471	17.825	-0.265	-0.214
-556.456	-10.496	-0.179	-0.121
-555.442	-200.000	0.070	-0.448
-554.427	-200.000	-0.037	-0.482
-553.412	89.798	0.012	-0.013
-552.398	-200.000	0.023	0.146
-551.383	800.000	0.058	0.218
-550.369	-78.210	-0.231	-0.080
-549.354	126.990	-0.117	0.151
-548.339	-158.045	0.197	-0.012
-547.325	326.305	0.065	-0.127
-546.310	471.650	-0.031	0.070
-545.296	67.137	-0.182	-0.189
-544.281	-2.735	0.196	-0.139
-543.266	258.976	-0.174	0.305
-542.252	-200.000	0.000	0.033
-541.237	-142.143	-0.396	-0.040
-540.223	112.589	0.085	0.104
-539.208	-109.966	-0.228	0.048
-538.193	172.340	0.069	0.100
-537.179	284.848	0.166	-0.304
-536.164	800.000	0.023	0.074
-535.150	-187.190	0.047	0.001
-534.135	-200.000	0.014	0.290
-533.121	-54.893	-0.209	0.095
-532.106	62.213	0.202	-0.205
-531.091	800.000	-0.026	-0.085
-530.077	800.000	-0.036	0.145
-529.062	287.853	-0.120	0.221
-528.048	-40.621	-0.087	-0.046
-527.033	-44.023	-0.176	0.090
-526.018	184.371	-0.191	-0.287
-525.004	0.087	0.188	-0.136
-523.989	-117.739	-0.271	0.049
-522.975	795.046	-0.037	0.102
-521.960	-157.973	-0.407	-0.024
-520.945	0.717	0.221	-0.160
-519.931	111.793	0.221	-0.270
-518.916	800.000	0.115	-0.394
-517.902	14.802	0.156	-0.123
-516.887	-28.358	-0.292	0.171
-515.872	-200.000	-0.042	0.224
-514.858	-200.000	-0.014	0.101
-513.843	-71.408	-0.211	0.080
-512.829	-200.000	-0.010	0.270
-511.814	800.000	-0.127	-0.384
-510.799	-200.000	-0.005	0.023
-509.785	-27.791	0.275	-0.162
-508.770	231.899	-0.165	0.274
-507.756	28.350	0.072	-0.061
-506.741	101.001	0.196	-0.231
-505.726	98.189	0.175	-0.204
-504.712	-200.000	0.012	-0.173
-503.697	800.000	-0.044	-0.134
-502.683	234.196	-0.031	0.051
-501.668	800.000	0.029	0.111
-500.653	800.000	-0.056	-0.211
-499.639	230.116	-0.168	-0.278
-498.624	39.977	-0.212	-0.193
-497.610	-103.686	-0.045	0.011
-496.595	-141.941	-0.171	-0.017
-495.581	-165.285	-0.193	0.009
-494.566	518.995	-0.037	-0.089
-493.551	325.515	-0.187	0.362
-492.537	474.717	-0.075	-0.171
-491.522	16.197	0.047	0.037
-490.508	506.625	0.035	-0.081
-489.493	59.573	0.027	-0.027
-488.478	-200.000	0.006	-0.116
-487.464	800.000	-0.082	-0.250
-486.449	61.460	0.089	0.089
-485.435	116.326	0.096	0.120
-484.420	-65.775	0.162	-0.066
-483.405	16.977	-0.092	-0.074
-482.391	-200.000	-0.008	0.130
-481.376	-200.000	-0.017	0.222
-480.362	-81.854	-0.206	0.068
-479.347	-113.628	-0.043	0.008
-478.332	-66.415	0.239	0.096
-477.318	14.854	0.114	0.091
-476.303	-29.161	0.084	0.049
-475.289	27.077	-0.179	0.152
-474.274	-200.000	0.014	0.153
-473.259	-61.555	0.119	0.051
-472.245	-57.554	-0.220	0.098
-471.230	-146.766	-0.297	-0.026
-470.216	9.859	-0.255	0.196
-469.201	-200.000	0.056	-0.381
-468.186	788.536	-0.018	0.051
-467.172	-62.782	0.403	0.169
-466.157	-200.000	-0.174	-0.000
-465.143	7.836	0.186	-0.141
-464.128	-83.819	0.191	0.062
-463.113	278.970	0.177	-0.320
-462.099	-92.854	0.117	-0.033
-461.084	-200.000	0.005	0.225
-460.070	243.799	0.087	-0.147
-459.055	340.608	-0.090	-0.178
-458.040	-3.856	0.128	0.090
-457.026	-200.000	-0.034	0.165
-456.011	23.085	0.202	0.168
-454.997	-131.292	0.187	0.025
-453.982	-200.000	-0.018	-0.228
-452.968	-73.008	-0.066	0.025
-451.953	65.142	-0.064	0.065
-450.938	73.424	0.143	0.152
-449.924	-14.140	0.116	-0.076
-448.909	207.978	-0.035	0.055
-447.895	-111.341	0.181	0.037
-446.880	-200.000	0.053	-0.296
-445.865	350.631	-0.083	-0.167
-444.851	-47.401	-0.276	-0.136
-443.836	50.589	0.091	0.087
-442.822	217.500	-0.069	-0.111
-441.807	-200.000	0.025	0.186
-440.792	-95.180	0.102	0.028
-439.778	-153.269	0.154	0.011
-438.763	-197.134	-0.158	0.001
-437.749	219.691	-0.069	0.111
-436.734	-142.646	0.195	-0.019
-435.719	-152.946	0.203	0.014
-434.705	-200.000	0.046	-0.243
-433.690	-116.594	0.453	-0.084
-432.676	-37.596	0.059	-0.032
-431.661	164.513	0.203	-0.289
-430.646	-200.000	0.048	-0.291
-429.632	286.879	-0.078	0.143
-428.617	-200.000	0.009	0.383
-427.603	-71.614	0.053	0.020
-426.588	136.933	-0.206	0.272
-425.573	-200.000	-0.034	0.157
-424.559	-197.319	0.160	0.001
-423.544	448.710	0.097	-0.217
-422.530	-86.116	-0.260	-0.081
-421.515	21.399	0.122	0.100
-420.500	-200.000	-0.056	-0.255
-419.486	-80.963	0.326	0.109
-418.471	16.198	-0.173	0.138
-417.457	11.955	-0.270	0.209
-416.442	-200.000	-0.018	0.091
-415.428	-38.690	-0.139	0.074
-414.413	-200.000	-0.029	0.398
-413.398	37.401	0.095	0.085
-412.384	115.370	0.232	-0.287
-411.369	78.194	0.085	-0.091
-410.355	-134.189	-0.157	0.020
-409.340	-23.955	0.049	-0.029
-408.325	800.000	-0.079	0.231
-407.311	77.905	0.250	-0.269
-406.296	292.822	-0.087	-0.160
-405.282	-45.785	-0.312	0.156
-404.267	112.702	0.177	-0.216
-403.252	18.900	0.249	0.201
-402.238	-200.000	0.029	0.245
-401.223	-117.000	-0.214	-0.039
-400.209	-52.896	0.337	-0.157
-399.194	118.563	0.055	0.069
-398.179	387.865	0.060	-0.126
-397.165	224.702	-0.115	-0.188
-396.150	-200.000	-0.023	-0.150
-395.136	47.674	0.220	-0.207
-394.121	-36.916	0.183	0.099
-393.106	-3.600	0.114	-0.080
-392.092	800.000	0.150	0.463
-391.077	88.638	0.169	-0.189
-390.063	268.240	0.009	-0.015
-389.048	-165.183	0.178	-0.008
-388.033	58.028	0.225	-0.222
-387.019	-200.000	-0.074	0.399
-386.004	-3.510	0.279	0.196
-384.990	-109.727	-0.105	0.022
-383.975	83.493	0.019	0.021
-382.960	-41.849	0.240	0.124
-381.946	-38.090	-0.203	-0.109
-380.931	326.389	-0.142	0.273
-379.917	-62.445	0.158	0.066
-378.902	-20.447	-0.156	-0.097
-377.888	800.000	0.042	0.136
-376.873	-111.066	0.315	-0.065
-375.858	-200.000	0.067	0.359
-374.844	-34.816	0.199	0.110
-373.829	-200.000	-0.001	0.254
-372.815	171.578	0.111	0.161
-371.800	5.700	-0.339	-0.253
-370.785	-195.301	-0.264	0.002
-369.771	-57.204	0.246	0.109
-368.756	-84.606	-0.229	-0.073
-367.742	132.349	0.256	-0.333
-366.727	-200.000	-0.059	0.261
-365.712	198.245	0.084	0.129
-364.698	-200.000	0.021	0.158
-363.683	259.442	-0.174	-0.302
-362.669	-200.000	0.055	-0.274
-361.654	101.800	0.272	-0.320
-360.639	-122.363	-0.154	-0.025
-359.625	-76.396	0.243	0.086
-358.610	-163.085	-0.148	-0.007
-357.596	-63.922	-0.160	0.066
-356.581	8.938	-0.111	-0.084
-355.566	65.042	-0.193	0.196
-354.552	125.439	-0.198	0.251
-353.537	603.150	0.033	-0.082
-352.523	-200.000	-0.028	0.302
-351.508	-190.440	-0.364	0.004
-350.493	-200.000	-0.016	0.255
-349.479	-41.973	-0.200	0.103
-348.464	249.140	0.115	0.197
-347.450	-200.000	0.063	0.316
-346.435	-200.000	0.049	-0.506
-345.420	800.000	0.049	-0.146
-344.406	-144.946	-0.119	-0.011
-343.391	515.877	-0.052	-0.123
-342.377	148.320	0.073	0.099
-341.362	525.190	-0.142	0.336
-340.348	414.429	-0.090	-0.194
-339.333	201.044	-0.101	-0.156
-338.318	208.609	-0.002	0.003
-337.304	160.159	0.091	-0.128
-336.289	-200.000	-0.028	-0.268
-335.275	-75.987	-0.189	0.067
-334.260	-91.106	-0.114	0.033
-333.245	121.860	0.111	-0.140
-332.231	-120.360	0.142	-0.024
-331.216	-29.003	-0.176	0.102
-330.202	-200.000	-0.056	0.422
-329.187	-111.500	0.341	0.070
-328.172	-200.000	-0.002	-0.104
-327.158	82.106	-0.119	0.130
-326.143	-135.943	0.240	0.028
-325.129	-3.819	0.179	0.125
-324.114	-29.816	-0.069	-0.039
-323.099	-200.000	0.019	0.261
-322.085	-145.916	-0.287	-0.026
-321.070	800.000	0.088	-0.245
-320.056	800.000	-0.016	0.055
-319.041	-34.153	0.325	0.180
-318.026	138.574	0.158	-0.209
-317.012	-31.720	0.136	-0.077
-315.997	110.779	0.265	-0.321
-314.983	55.803	0.170	0.166
-313.968	800.000	-0.096	-0.287
-312.953	-200.000	-0.036	-0.287
-311.939	695.311	-0.080	0.211
-310.924	-126.026	-0.278	0.042
-309.910	-15.374	-0.229	-0.147
-308.895	-2.950	-0.123	-0.087
-307.880	72.965	0.159	0.167
-306.866	521.458	-0.061	-0.144
-305.851	-200.000	-0.013	-0.331
-304.837	-200.000	0.039	-0.218
-303.822	257.145	0.081	0.141
-302.807	57.291	0.145	-0.143
-301.793	25.423	-0.359	0.300
-300.778	-200.000	0.027	0.205
-299.764	800.000	-0.032	0.137
-298.749	-200.000	0.028	0.212
-297.735	611.365	-0.041	0.103
-296.720	-200.000	-0.012	0.236
-295.705	131.695	0.037	0.048
-294.691	8.702	-0.104	-0.079
-293.676	-45.926	0.164	-0.082
-292.662	-29.113	-0.209	0.120
-291.647	-200.000	0.035	-0.272
-290.632	-83.835	-0.291	0.093
-289.618	-34.500	0.249	0.137
-288.603	-164.232	-0.182	0.008
-287.589	610.199	-0.010	0.026
-286.574	-6.924	-0.212	-0.145
-285.559	-84.906	-0.184	0.058
-284.545	-200.000	0.012	-0.303
-283.530	-5.221	-0.154	-0.106
-282.516	-155.824	-0.227	-0.015
-281.501	-200.000	0.003	-0.026
-280.486	781.752	-0.025	-0.068
-279.472	-34.680	0.300	0.165
-278.457	70.981	-0.147	-0.153
-277.443	-81.757	-0.377	0.124
-276.428	-168.726	-0.234	0.009
-275.413	144.939	-0.161	0.216
-274.399	-111.849	-0.245	0.050
-273.384	-200.000	0.030	-0.187
-272.370	800.000	-0.073	-0.215
-271.355	-200.000	-0.086	-0.389
-270.340	-148.982	0.384	-0.031
-269.326	24.125	0.265	0.220
-268.311	-200.000	-0.058	0.297
-267.297	115.754	-0.074	0.091
-266.282	82.759	0.087	0.095
-265.267	-200.000	-0.027	-0.198
-264.253	-200.000	0.222	-0.000
-263.238	-126.225	-0.119	0.018
-262.224	800.000	-0.113	-0.318
-261.209	73.025	0.243	-0.255
-260.195	-45.032	-0.073	-0.037
-259.180	-200.000	0.014	0.090
-258.165	-120.155	0.213	0.036
-257.151	-200.000	0.006	-0.130
-256.136	118.826	-0.279	0.346
-255.122	-82.551	0.415	0.135
-254.107	-155.501	-0.055	0.004
-253.092	800.000	0.013	-0.039
-252.078	-114.040	-0.246	0.048
-251.063	25.579	0.096	-0.080
-250.049	5.176	0.154	0.114
-249.034	-20.314	-0.162	0.100
-248.019	-153.866	0.177	0.012
-247.005	-200.000	0.006	-0.349
-245.990	800.000	0.057	-0.219
-244.976	-200.000	-0.019	-0.129
-243.961	662.098	0.056	-0.144
-242.946	-187.713	0.106	0.001
-241.932	-140.466	-0.182	0.019
-240.917	-49.536	0.177	-0.085
-239.903	-76.470	-0.233	-0.082
-238.888	-54.636	0.208	0.095
-237.873	401.426	0.145	-0.305
-236.859	-77.226	0.239	0.083
-235.844	-52.221	-0.167	0.078
-234.830	-28.019	0.219	-0.127
-233.815	146.545	0.217	-0.292
-232.800	-13.563	-0.074	0.048
-231.786	-116.525	-0.163	-0.030
-230.771	-144.610	-0.139	-0.013
-229.757	-200.000	-0.001	0.186
-228.742	-76.615	-0.053	-0.019
-227.727	-200.000	0.004	-0.062
-226.713	2.380	-0.076	-0.055
-225.698	111.420	-0.128	-0.154
-224.684	-55.792	-0.216	-0.097
-223.669	-200.000	0.057	0.444
-222.655	-12.992	-0.164	0.107
-221.640	38.106	0.386	0.344
-220.625	350.127	-0.088	0.174
-219.611	-35.910	-0.227	0.123
-218.596	800.000	0.050	0.157
-217.582	81.062	0.273	0.295
-216.567	800.000	-0.157	0.492
-215.552	19.986	-0.145	0.117
-214.538	-9.868	-0.205	0.136
-213.523	9.799	-0.347	-0.264
-212.509	151.062	0.182	0.248
-211.494	15.016	0.194	0.152
-210.479	150.706	0.179	0.243
-209.465	125.854	-0.040	-0.051
-208.450	-7.396	-0.109	-0.074
-207.436	-184.125	0.090	-0.002
-206.421	800.000	-0.058	0.168
-205.406	-9.363	-0.216	-0.144
-204.392	-65.234	-0.434	0.175
-203.377	78.130	-0.111	0.118
-202.363	79.254	-0.098	0.105
-201.348	-39.533	-0.377	0.198
-200.333	-117.257	0.022	-0.004
-199.319	-77.642	0.422	0.146
-198.304	-200.000	-0.235	-0.001
-197.290	54.845	0.029	0.028
-196.275	-31.354	-0.147	0.083
-195.260	-8.099	0.029	-0.019
-194.246	343.829	-0.033	0.065
-193.231	-75.231	-0.305	0.109
-192.217	117.083	-0.119	-0.146
-191.202	21.153	0.295	0.240
-190.187	30.541	0.132	0.113
-189.173	-200.000	-0.075	0.350
-188.158	-59.933	0.261	-0.112
-187.144	53.936	-0.195	0.187
-186.129	367.666	0.191	0.387
-185.114	-96.904	0.210	-0.055
-184.100	49.233	0.205	-0.193
-183.085	67.559	-0.075	0.077
-182.071	539.053	-0.097	0.231
-181.056	-71.985	-0.057	0.021
-180.042	800.000	0.072	0.279
-179.027	-200.000	0.051	0.328
-178.012	171.849	0.131	0.189
-176.998	-59.506	0.116	0.050
-175.983	-103.917	-0.069	-0.016
-174.969	-61.229	0.236	-0.099
-173.954	8.840	0.227	-0.171
-172.939	-105.908	-0.152	0.034
-171.925	156.957	-0.172	-0.238
-170.910	-20.058	0.287	-0.177
-169.896	-59.480	-0.214	-0.092
-168.881	252.540	0.097	-0.165
-167.866	-200.000	-0.013	0.264
-166.852	-200.000	-0.024	0.130
-165.837	-101.766	-0.106	0.026
-164.823	-140.373	-0.482	0.050
-163.808	800.000	-0.056	-0.168
-162.793	129.914	-0.133	-0.170
-161.779	-169.353	0.426	-0.016
-160.764	-95.401	0.231	-0.062
-159.750	11.804	0.567	-0.436
-158.735	-79.436	0.158	0.053
-157.720	-112.470	-0.361	0.072
-156.706	-115.604	0.228	-0.043
-155.691	-161.951	0.163	-0.008
-154.677	-46.270	0.311	-0.153
-153.662	73.149	-0.084	0.088
-152.647	-200.000	0.015	0.138
-151.633	-127.010	0.203	-0.030
-150.618	275.674	-0.068	0.121
-149.604	104.024	-0.312	0.366
-148.589	-80.133	0.074	0.025
-147.574	-175.370	-0.215	-0.006
-146.560	800.000	0.065	-0.280
-145.545	-0.696	-0.038	-0.027
-144.531	-87.702	0.143	-0.043
-143.516	285.472	-0.167	-0.301
-142.502	-138.980	-0.022	-0.002
-141.487	404.632	-0.111	0.233
-140.472	606.092	-0.008	-0.020
-139.458	234.240	0.079	0.130
-138.443	163.730	0.081	0.114
-137.429	-122.843	0.390	0.063
-136.414	24.852	-0.179	-0.148
-135.399	257.973	0.077	0.133
-134.385	184.317	0.199	0.294
-133.370	82.129	-0.080	-0.087
-132.356	-79.523	0.451	-0.152
-131.341	5.172	-0.114	-0.084
-130.326	63.082	0.237	0.237
-129.312	386.651	0.074	0.152
-128.297	115.826	0.125	0.153
-127.283	194.547	0.147	-0.223
-126.268	-9.800	0.054	0.036
-125.253	178.842	0.125	-0.183
-124.239	110.553	0.163	0.195
-123.224	-65.623	0.389	-0.156
-122.210	140.763	-0.150	0.198
-121.195	-150.249	0.430	0.033
