DTS Sentinel unit serial number:	SN413079Multiplexer serial number:	ORYXHardware model number:	OX4-SRSoftware version number:	ORYX F/W v4.00 Oryx Data Collector v3.7.2.0data status	okinstallation	princeton_trtdifferential loss correction	single-endedforward channel	channel 4reverse channel	N/Adate	2019/09/16time	05:37:34forward acquisition time	60.00reverse acquisition time	0.00gamma	496.2192k internal	0.2320k external	0.2320temperature offset calibration	0.9982default loss term (dB/km)	0.3790temperature slope calibration	1.0000multiplexer offset coefficient	1.0000multiplexer slope coefficient	1.0000fibre end	0.00T internal ref (°C)	27.31T ext. ref 1 (°C)	11.15T ext. ref 2 (°C)	22.07length (m)	temperature (°C)	Stokes	anti-Stokes-747.200	-92.648	-0.213	0.060
-746.185	-84.496	-0.260	0.083
-745.171	-200.000	0.011	-0.365
-744.156	-99.862	-0.307	-0.078
-743.142	-200.000	-0.028	0.355
-742.127	-45.509	0.193	0.097
-741.112	43.335	-0.130	-0.120
-740.098	81.432	0.145	0.159
-739.083	800.000	0.001	0.003
-738.069	-76.597	0.106	-0.038
-737.054	-83.463	-0.179	0.058
-736.039	73.145	-0.179	0.189
-735.025	-32.863	-0.326	0.183
-734.010	-96.414	-0.194	0.052
-732.996	-30.472	-0.171	0.098
-731.981	719.045	-0.046	0.123
-730.966	101.823	0.075	0.088
-729.952	-124.017	-0.323	0.051
-728.937	103.308	0.072	-0.085
-727.923	-86.540	0.207	-0.064
-726.908	-90.269	0.181	-0.053
-725.894	224.380	-0.120	0.197
-724.879	94.630	0.075	0.086
-723.864	-45.771	0.173	0.086
-722.850	-1.002	-0.258	0.184
-721.835	-75.244	0.430	-0.155
-720.821	-130.123	-0.138	-0.019
-719.806	800.000	-0.068	-0.281
-718.791	800.000	0.075	0.314
-717.777	154.007	0.194	0.268
-716.762	-114.395	0.071	0.014
-715.748	-5.379	0.445	-0.309
-714.733	-158.905	-0.119	0.007
-713.718	-19.161	0.179	0.112
-712.704	800.000	0.074	-0.227
-711.689	800.000	-0.077	-0.264
-710.675	-73.142	0.086	-0.032
-709.660	288.068	0.100	-0.183
-708.645	19.550	0.127	-0.103
-707.631	-200.000	0.013	-0.198
-706.616	-200.000	0.012	-0.194
-705.602	-84.749	-0.184	-0.058
-704.587	99.670	0.214	0.251
-703.572	-181.754	0.154	0.003
-702.558	-200.000	-0.018	-0.124
-701.543	195.993	0.163	-0.250
-700.529	-91.032	-0.146	-0.042
-699.514	-95.295	-0.048	0.013
-698.499	113.155	-0.272	0.333
-697.485	800.000	0.094	0.380
-696.470	-36.177	-0.294	-0.160
-695.456	652.676	-0.042	-0.109
-694.441	76.682	0.114	0.122
-693.426	-200.000	-0.028	0.206
-692.412	-118.995	0.136	-0.024
-691.397	-66.801	-0.131	-0.052
-690.383	-10.241	0.158	0.106
-689.368	-200.000	-0.026	-0.243
-688.354	-70.379	-0.443	0.169
-687.339	377.975	0.042	0.086
-686.324	96.971	0.142	-0.165
-685.310	147.786	0.079	-0.108
-684.295	21.565	0.247	-0.203
-683.281	251.105	0.083	-0.142
-682.266	-27.169	0.260	-0.153
-681.251	-200.000	-0.067	-0.307
-680.237	440.128	-0.034	0.075
-679.222	15.901	-0.050	-0.039
-678.208	-2.295	0.180	-0.127
-677.193	800.000	0.072	0.233
-676.178	81.760	0.256	0.279
-675.164	800.000	-0.032	0.093
-674.149	-136.984	0.077	0.009
-673.135	-30.741	-0.100	-0.057
-672.120	-200.000	0.034	-0.204
-671.105	800.000	-0.091	0.348
-670.091	-14.602	0.169	-0.110
-669.076	-99.026	0.084	0.022
-668.062	-103.751	-0.186	-0.044
-667.047	-137.707	0.161	-0.018
-666.032	-46.529	-0.476	-0.235
-665.018	86.871	-0.159	-0.177
-664.003	-51.318	0.130	-0.061
-662.989	-85.603	-0.121	0.038
-661.974	197.671	-0.061	-0.093
-660.959	451.317	-0.141	-0.314
-659.945	31.537	0.143	-0.124
-658.930	800.000	0.070	-0.226
-657.916	-23.125	-0.049	-0.030
-656.901	127.942	-0.185	0.237
-655.886	348.790	-0.101	0.201
-654.872	275.295	0.146	-0.261
-653.857	68.472	0.182	-0.188
-652.843	-70.563	0.119	-0.045
-651.828	-200.000	0.039	0.258
-650.814	763.441	0.053	-0.144
-649.799	354.579	0.051	0.102
-648.784	68.743	-0.142	0.147
-647.770	-200.000	0.021	-0.166
-646.755	800.000	-0.067	0.195
-645.741	34.045	-0.265	-0.233
-644.726	-5.346	0.235	-0.163
-643.711	-200.000	0.006	0.230
-642.697	-92.427	-0.149	0.042
-641.682	276.830	0.071	-0.127
-640.668	-136.344	0.158	0.019
-639.653	-19.100	-0.046	-0.029
-638.638	8.538	-0.037	-0.028
-637.624	276.659	-0.074	0.132
-636.609	-35.718	-0.324	-0.177
-635.595	-200.000	-0.017	0.111
-634.580	-90.605	-0.138	0.040
-633.565	-105.749	-0.069	0.016
-632.551	-91.069	-0.292	0.085
-631.536	34.464	0.088	-0.077
-630.522	-200.000	0.005	0.165
-629.507	71.535	-0.103	0.108
-628.492	-69.614	-0.311	-0.120
-627.478	-200.000	0.035	0.273
-626.463	-28.210	0.056	0.032
-625.449	-13.376	-0.088	0.057
-624.434	-11.223	-0.083	0.055
-623.419	-18.548	0.094	-0.059
-622.405	163.560	-0.145	0.206
-621.390	-200.000	0.011	-0.118
-620.376	98.746	0.203	0.236
-619.361	318.963	0.105	-0.200
-618.346	-138.147	-0.292	0.033
-617.332	-122.596	0.104	0.017
-616.317	-200.000	-0.004	-0.033
-615.303	-200.000	0.025	0.111
-614.288	281.260	-0.122	0.219
-613.273	-123.149	-0.373	-0.060
-612.259	600.360	0.103	0.257
-611.244	-200.000	0.011	0.108
-610.230	66.169	-0.137	0.140
-609.215	12.948	0.068	-0.053
-608.201	-200.000	-0.043	-0.214
-607.186	51.146	0.092	-0.088
-606.171	-200.000	0.020	0.115
-605.157	-161.373	-0.246	0.013
-604.142	57.914	0.057	0.056
-603.128	86.197	-0.185	-0.205
-602.113	184.980	-0.121	0.180
-601.098	-13.397	-0.145	0.094
-600.084	-103.075	0.173	0.041
-599.069	717.943	0.026	0.069
-598.055	-106.242	-0.226	-0.051
-597.040	-126.691	0.217	-0.032
-596.025	-200.000	-0.062	-0.348
-595.011	-200.000	0.051	-0.410
-593.996	-43.913	-0.090	-0.046
-592.982	-65.816	0.414	-0.166
-591.967	800.000	-0.037	0.122
-590.952	-138.641	0.433	0.048
-589.938	-101.856	-0.089	-0.022
-588.923	-200.000	0.030	-0.181
-587.909	31.513	-0.117	0.101
-586.894	-39.672	-0.132	-0.069
-585.879	-104.214	-0.173	-0.040
-584.865	-200.000	0.000	-0.203
-583.850	55.156	0.190	0.185
-582.836	44.601	-0.025	-0.023
-581.821	-129.827	-0.107	-0.015
-580.806	-53.884	-0.198	-0.091
-579.792	-200.000	-0.055	-0.262
-578.777	-88.956	0.065	0.019
-577.763	531.686	0.114	-0.272
-576.748	-200.000	0.040	-0.414
-575.733	53.915	0.141	0.136
-574.719	-107.392	0.238	0.052
-573.704	-104.277	0.114	-0.027
-572.690	80.494	-0.129	-0.139
-571.675	19.410	-0.126	-0.102
-570.661	-129.842	-0.187	0.026
-569.646	-95.560	-0.161	0.043
-568.631	-33.708	0.192	0.106
-567.617	41.991	-0.155	-0.141
-566.602	-114.102	0.384	-0.075
-565.588	-83.598	-0.190	-0.061
-564.573	-98.995	0.152	0.039
-563.558	149.171	-0.085	0.116
-562.544	-141.974	0.261	0.026
-561.529	-11.399	0.263	0.174
-560.515	-200.000	0.020	-0.128
-559.500	5.867	-0.199	-0.148
-558.485	-0.576	-0.352	0.250
-557.471	800.000	-0.065	0.261
-556.456	27.276	0.241	-0.203
-555.442	800.000	-0.024	-0.073
-554.427	-66.759	0.195	-0.077
-553.412	-200.000	-0.028	0.540
-552.398	7.956	0.253	0.191
-551.383	-200.000	0.008	-0.247
-550.369	-44.042	0.260	0.131
-549.354	-200.000	0.004	0.185
-548.339	-87.788	0.168	0.051
-547.325	-39.401	-0.092	0.049
-546.310	-166.048	-0.249	-0.011
-545.296	237.603	0.225	-0.374
-544.281	7.734	-0.103	-0.077
-543.266	-130.135	0.125	-0.017
-542.252	-128.376	0.353	-0.050
-541.237	800.000	-0.096	0.376
-540.223	-86.523	-0.131	-0.040
-539.208	-58.490	-0.220	0.096
-538.193	455.934	0.066	0.146
-537.179	153.106	0.065	0.089
-536.164	26.067	0.032	0.027
-535.150	363.263	-0.062	-0.125
-534.135	607.198	0.101	-0.253
-533.121	238.204	0.071	0.119
-532.106	556.105	0.100	0.242
-531.091	-72.690	-0.217	-0.080
-530.077	75.679	0.053	0.056
-529.062	2.662	0.249	0.181
-528.048	441.681	-0.096	-0.210
-527.033	-200.000	-0.006	0.067
-526.018	34.531	0.082	0.072
-525.004	-29.864	-0.160	-0.091
-523.989	-9.974	0.228	0.152
-522.975	-11.154	-0.113	-0.075
-521.960	17.698	-0.120	0.095
-520.945	707.825	0.035	0.093
-519.931	-96.037	0.130	-0.035
-518.916	-200.000	-0.012	-0.122
-517.902	-98.426	0.019	-0.005
-516.887	-19.502	-0.188	-0.116
-515.872	192.899	0.050	-0.076
-514.858	-12.179	-0.099	0.065
-513.843	148.129	-0.236	0.319
-512.829	-39.860	-0.320	0.168
-511.814	-29.726	0.126	-0.072
-510.799	-200.000	-0.011	0.156
-509.785	-200.000	0.023	-0.175
-508.770	800.000	0.084	-0.258
-507.756	-4.127	0.261	-0.181
-506.741	24.975	-0.085	0.071
-505.726	63.780	0.117	0.118
-504.712	181.720	0.136	0.201
-503.697	103.243	0.322	0.378
-502.683	225.168	0.068	-0.111
-501.668	47.940	-0.123	0.115
-500.653	-167.792	0.121	0.005
-499.639	-200.000	0.072	-0.335
-498.624	800.000	0.138	-0.409
-497.610	287.169	-0.145	-0.262
-496.595	-81.609	-0.316	0.104
-495.581	53.546	0.126	-0.122
-494.566	-200.000	-0.004	-0.179
-493.551	121.358	0.065	0.082
-492.537	51.993	0.136	-0.129
-491.522	644.952	0.160	0.410
-490.508	-90.703	0.282	-0.081
-489.493	92.381	-0.134	0.152
-488.478	50.240	-0.087	-0.082
-487.464	134.370	0.031	0.040
-486.449	505.005	-0.174	-0.403
-485.435	-47.072	-0.252	-0.123
-484.420	-14.623	0.157	-0.101
-483.405	75.264	-0.012	0.013
-482.391	-74.392	0.118	0.043
-481.376	470.492	0.084	0.189
-480.362	800.000	0.013	-0.047
-479.347	800.000	0.082	-0.306
-478.332	-25.921	0.180	-0.106
-477.318	-47.653	-0.166	-0.080
-476.303	11.944	-0.266	-0.204
-475.289	304.066	0.093	0.172
-474.274	-56.772	-0.209	0.093
-473.259	119.833	0.053	0.065
-472.245	112.714	0.100	0.121
-471.230	800.000	0.035	-0.104
-470.216	-200.000	0.011	-0.356
-469.201	-200.000	0.016	-0.115
-468.186	-200.000	-0.022	0.253
-467.172	-139.937	-0.159	-0.017
-466.157	800.000	0.028	0.092
-465.143	800.000	0.205	0.574
-464.128	131.157	0.151	0.194
-463.113	80.611	-0.155	-0.167
-462.099	-122.726	0.137	0.022
-461.084	89.870	-0.086	0.096
-460.070	-200.000	0.012	0.094
-459.055	-200.000	0.014	-0.343
-458.040	800.000	0.119	0.448
-457.026	3.611	0.097	0.071
-456.011	-101.995	-0.228	0.055
-454.997	56.386	0.061	-0.059
-453.982	12.235	-0.108	0.083
-452.968	-200.000	-0.025	0.272
-451.953	800.000	0.076	-0.257
-450.938	70.503	0.102	0.105
-449.924	-200.000	-0.014	0.146
-448.909	800.000	0.012	0.037
-447.895	-16.681	0.242	-0.153
-446.880	-20.526	0.212	0.130
-445.865	101.107	-0.184	0.214
-444.851	51.314	0.135	-0.128
-443.836	-200.000	0.055	0.255
-442.822	-23.415	-0.212	-0.127
-441.807	24.031	0.247	-0.203
-440.792	65.162	0.036	-0.036
-439.778	-70.223	0.293	0.111
-438.763	-200.000	0.025	-0.293
-437.749	-200.000	0.010	0.167
-436.734	-44.452	-0.073	0.036
-435.719	380.015	-0.022	-0.046
-434.705	-161.133	-0.096	-0.005
-433.690	800.000	-0.040	0.145
-432.676	-104.116	-0.274	0.064
-431.661	47.283	0.039	-0.036
-430.646	50.259	-0.134	-0.126
-429.632	341.148	-0.093	-0.182
-428.617	271.375	-0.090	0.158
-427.603	-78.408	-0.186	0.064
-426.588	374.563	0.114	-0.233
-425.573	164.871	-0.261	-0.368
-424.559	0.943	0.115	0.082
-423.544	-60.977	0.353	0.149
-422.530	-200.000	-0.012	0.177
-421.515	-200.000	0.045	-0.493
-420.500	313.806	0.174	-0.327
-419.486	-200.000	0.010	-0.158
-418.471	-141.791	0.193	0.019
-417.457	-58.824	-0.243	-0.105
-416.442	-17.795	0.226	0.141
-415.428	23.788	0.011	0.009
-414.413	800.000	0.066	-0.255
-413.398	75.412	-0.186	-0.196
-412.384	5.363	-0.160	-0.118
-411.369	-200.000	0.004	0.041
-410.355	143.213	0.156	0.207
-409.340	30.797	0.344	0.294
-408.325	-127.048	-0.262	0.038
-407.311	800.000	-0.083	0.262
-406.296	-200.000	-0.020	-0.309
-405.282	-75.641	-0.252	-0.089
-404.267	-94.858	-0.123	0.033
-403.252	-117.434	0.184	-0.033
-402.238	188.228	-0.189	0.282
-401.223	-106.410	0.133	-0.030
-400.209	-40.200	-0.256	0.133
-399.194	800.000	-0.054	-0.174
-398.179	-183.615	-0.046	0.001
-397.165	-200.000	-0.001	-0.076
-396.150	421.959	0.041	0.088
-395.136	20.316	0.209	-0.169
-394.121	-106.725	-0.228	0.050
-393.106	20.533	-0.135	0.109
-392.092	-128.556	0.160	0.023
-391.077	12.048	-0.156	-0.120
-390.063	-112.680	0.287	-0.057
-389.048	-96.875	0.268	-0.070
-388.033	193.323	0.036	0.054
-387.019	-109.358	-0.195	0.041
-386.004	-79.216	0.510	0.172
-384.990	187.566	0.020	0.029
-383.975	214.110	-0.068	0.108
-382.960	499.355	-0.035	-0.080
-381.946	-79.497	0.306	-0.103
-380.931	-31.788	-0.146	-0.081
-379.917	-64.883	-0.095	0.038
-378.902	196.565	-0.101	-0.153
-377.888	160.007	0.063	-0.088
-376.873	419.780	0.164	0.349
-375.858	-97.777	0.085	0.022
-374.844	-200.000	-0.001	0.128
-373.829	5.480	-0.176	0.129
-372.815	459.456	-0.115	0.254
-371.800	800.000	-0.091	-0.326
-370.785	-94.717	-0.137	-0.037
-369.771	-102.676	0.232	-0.055
-368.756	800.000	-0.068	-0.202
-367.742	-172.473	-0.105	0.003
-366.727	167.715	0.261	0.370
-365.712	-63.108	-0.133	-0.055
-364.698	-33.309	-0.075	0.041
-363.683	315.292	0.096	0.181
-362.669	42.167	0.131	0.118
-361.654	347.984	-0.072	-0.141
-360.639	107.281	0.110	-0.130
-359.625	484.332	0.175	0.397
-358.610	-25.260	0.133	-0.078
-357.596	-59.672	-0.200	-0.085
-356.581	25.591	-0.177	-0.146
-355.566	134.024	0.090	0.116
-354.552	-14.402	0.133	0.085
-353.537	-35.014	-0.366	-0.199
-352.523	-41.502	-0.083	0.042
-351.508	13.714	-0.076	0.058
-350.493	-73.516	0.280	0.102
-349.479	44.483	0.072	-0.066
-348.464	90.190	0.068	0.076
-347.450	-91.318	0.130	-0.037
-346.435	-200.000	0.026	-0.230
-345.420	-74.908	0.379	-0.135
-344.406	800.000	0.033	0.094
-343.391	236.240	0.091	0.151
-342.377	175.745	-0.087	0.126
-341.362	-175.608	-0.433	-0.012
-340.348	-200.000	-0.037	0.367
-339.333	176.304	-0.167	0.242
-338.318	87.611	0.058	0.064
-337.304	432.417	-0.033	-0.071
-336.289	800.000	-0.067	0.249
-335.275	800.000	0.114	0.361
-334.260	-23.339	0.246	0.147
-333.245	-200.000	-0.002	0.256
-332.231	67.174	-0.093	-0.094
-331.216	254.668	0.148	-0.252
-330.202	101.776	-0.078	-0.090
-329.187	-50.551	-0.343	0.161
-328.172	800.000	-0.020	0.072
-327.158	-15.106	-0.026	-0.016
-326.143	597.743	0.048	-0.119
-325.129	-42.876	-0.156	0.079
-324.114	800.000	-0.041	-0.170
-323.099	152.074	-0.117	0.158
-322.085	-186.528	0.176	-0.002
-321.070	194.023	0.067	0.101
-320.056	481.398	-0.034	0.078
-319.041	-59.858	-0.236	0.100
-318.026	337.766	0.075	-0.146
-317.012	-151.395	0.216	-0.016
-315.997	-102.969	0.470	-0.111
-314.983	177.222	0.050	0.072
-313.968	-138.316	-0.128	0.014
-312.953	239.912	-0.017	-0.028
-311.939	182.269	0.213	0.312
-310.924	27.727	-0.331	0.277
-309.910	-145.834	0.052	0.005
-308.895	136.421	0.269	-0.349
-307.880	-12.548	0.177	-0.115
-306.866	64.250	-0.222	-0.222
-305.851	-64.864	-0.133	-0.053
-304.837	800.000	-0.106	0.317
-303.822	-56.581	-0.115	0.051
-302.807	-84.146	0.384	0.121
-301.793	800.000	0.077	-0.308
-300.778	-175.332	-0.199	-0.005
-299.764	-200.000	0.031	-0.389
-298.749	-37.108	0.152	0.081
-297.735	-68.853	-0.099	0.038
-296.720	-200.000	-0.044	0.320
-295.705	299.386	-0.181	-0.331
-294.691	176.386	-0.136	-0.196
-293.676	264.288	0.255	0.441
-292.662	-200.000	0.019	0.104
-291.647	-85.498	0.256	0.079
-290.632	222.965	0.201	0.321
-289.618	-200.000	0.013	-0.199
-288.603	-200.000	0.011	0.081
-287.589	205.717	0.249	0.385
-286.574	45.491	0.194	0.178
-285.559	81.731	-0.101	-0.108
-284.545	-106.547	-0.201	0.045
-283.530	-200.000	-0.034	0.239
-282.516	70.763	0.223	0.230
-281.501	-10.175	0.220	0.145
-280.486	800.000	-0.104	-0.441
-279.472	75.722	-0.251	-0.263
-278.457	-150.240	-0.136	-0.010
-277.443	262.504	-0.118	-0.203
-276.428	-51.590	-0.063	-0.029
-275.413	-97.517	0.328	-0.085
-274.399	-107.312	-0.156	0.034
-273.384	-200.000	0.053	-0.256
-272.370	94.244	-0.282	-0.317
-271.355	800.000	-0.056	0.195
-270.340	-65.760	-0.182	0.072
-269.326	-200.000	0.031	-0.451
-268.311	-200.000	0.015	-0.182
-267.297	20.348	-0.215	0.172
-266.282	26.726	0.094	0.078
-265.267	-200.000	-0.018	0.123
-264.253	-86.645	-0.431	-0.131
-263.238	228.434	0.097	-0.156
-262.224	-158.956	-0.122	0.007
-261.209	-81.983	0.123	0.040
-260.195	-110.639	-0.348	-0.071
-259.180	-22.309	0.266	-0.160
-258.165	176.312	-0.240	0.346
-257.151	702.137	0.013	-0.035
-256.136	367.825	0.077	-0.154
-255.122	236.718	-0.299	-0.491
-254.107	-104.993	0.276	-0.063
-253.092	326.648	0.054	-0.103
-252.078	111.914	0.042	0.050
-251.063	132.443	-0.140	0.179
-250.049	-49.701	-0.227	0.107
-249.034	-106.794	-0.341	-0.075
-248.019	-127.972	-0.169	0.024
-247.005	800.000	-0.017	-0.063
-245.990	1.673	-0.166	-0.119
-244.976	-127.450	0.183	-0.026
-243.961	30.749	0.134	-0.114
-242.946	-70.796	-0.175	-0.066
-241.932	-200.000	0.036	0.185
-240.917	-78.591	0.126	0.043
-239.903	29.373	-0.217	-0.183
-238.888	-200.000	-0.015	-0.290
-237.873	1.327	0.255	-0.182
-236.859	115.272	-0.071	0.086
-235.844	-57.367	0.311	-0.135
-234.830	-200.000	0.035	0.185
-233.815	-191.377	-0.093	0.001
-232.800	291.799	-0.065	0.117
-231.786	-154.536	-0.266	-0.018
-230.771	-112.866	0.185	-0.036
-229.757	-132.989	0.182	-0.023
-228.742	-46.777	0.234	-0.114
-227.727	-80.442	0.169	-0.056
-226.713	-136.070	0.276	-0.032
-225.698	-88.062	-0.263	0.078
-224.684	198.976	-0.085	0.129
-223.669	-200.000	-0.041	-0.300
-222.655	398.703	0.027	-0.055
-221.640	457.331	-0.247	0.543
-220.625	134.875	0.047	-0.060
-219.611	800.000	0.089	-0.343
-218.596	-129.160	-0.280	0.039
-217.582	-82.803	-0.156	-0.050
-216.567	800.000	-0.112	-0.482
-215.552	800.000	0.031	-0.116
-214.538	-102.069	0.284	-0.068
-213.523	-194.986	-0.260	0.002
-212.509	253.852	-0.057	0.097
-211.494	166.420	0.044	0.061
-210.479	108.793	-0.082	-0.097
-209.465	-59.254	0.147	-0.063
-208.450	-103.833	0.145	0.034
-207.436	-114.226	0.119	0.023
-206.421	-156.419	-0.262	0.016
-205.406	5.634	-0.184	-0.135
-204.392	-82.468	0.182	-0.059
-203.377	75.498	-0.272	0.284
-202.363	-200.000	0.064	0.313
-201.348	56.378	-0.162	0.156
-200.333	-13.871	0.222	-0.142
-199.319	-21.335	-0.455	0.275
-198.304	-127.345	0.248	0.036
-197.290	145.304	-0.097	0.129
-196.275	2.291	-0.193	0.138
-195.260	78.146	-0.166	0.175
-194.246	-28.081	0.141	0.081
-193.231	12.267	0.262	0.199
-192.217	-90.311	0.432	0.124
-191.202	-200.000	0.041	-0.302
-190.187	-27.843	-0.223	-0.128
-189.173	-76.474	-0.406	-0.141
-188.158	-19.000	0.067	0.041
-187.144	21.113	0.162	-0.130
-186.129	-101.047	-0.112	-0.027
-185.114	800.000	-0.032	0.119
-184.100	-200.000	0.003	0.373
-183.085	-70.647	0.294	-0.110
-182.071	186.967	-0.122	0.180
-181.056	29.311	0.136	0.114
-180.042	-50.206	-0.361	-0.169
-179.027	1.447	0.116	-0.082
-178.012	61.554	0.298	-0.293
-176.998	-58.259	0.033	-0.014
-175.983	-161.346	0.046	-0.002
-174.969	800.000	0.034	-0.108
-173.954	133.905	0.104	0.133
-172.939	276.865	0.149	0.262
-171.925	776.327	-0.089	-0.241
-170.910	-138.125	0.205	-0.022
-169.896	-112.318	0.092	0.018
-168.881	168.273	0.061	-0.086
-167.866	-200.000	0.001	0.320
-166.852	0.603	-0.185	-0.131
-165.837	800.000	0.140	-0.481
-164.823	218.579	-0.094	-0.149
-163.808	76.770	0.170	0.178
-162.793	-93.923	0.165	0.045
-161.779	25.247	-0.201	0.165
-160.764	800.000	0.038	-0.119
-159.750	7.154	-0.051	0.038
-158.735	-200.000	0.024	-0.456
-157.720	-200.000	0.001	0.012
-156.706	800.000	0.038	0.111
-155.691	200.684	0.030	0.046
-154.677	560.155	-0.128	-0.305
-153.662	293.400	0.105	-0.190
-152.647	-50.587	-0.324	0.151
-151.633	87.436	-0.158	0.173
-150.618	-200.000	-0.054	0.306
-149.604	-107.459	0.075	0.016
-148.589	9.377	0.302	0.226
-147.574	-32.657	-0.142	0.078
-146.560	-70.152	-0.179	-0.067
-145.545	11.779	0.115	0.087
-144.531	66.366	0.060	-0.061
-143.516	-68.689	0.372	0.142
-142.502	42.341	0.120	-0.107
-141.487	163.843	0.150	0.209
-140.472	-200.000	-0.010	-0.196
-139.458	800.000	-0.072	-0.272
-138.443	47.597	-0.231	0.213
-137.429	227.993	-0.203	0.327
-136.414	800.000	0.083	0.281
-135.399	-146.461	0.185	0.016
-134.385	-200.000	-0.010	-0.150
-133.370	457.496	-0.127	-0.278
-132.356	-200.000	-0.034	0.148
-131.341	595.182	0.016	0.040
-130.326	-24.590	0.377	-0.222
-129.312	-57.799	0.084	-0.036
-128.297	-167.397	-0.145	-0.006
-127.283	-91.756	0.198	-0.056
-126.268	520.638	0.078	0.181
-125.253	800.000	0.025	0.071
-124.239	800.000	-0.034	-0.132
-123.224	-200.000	0.017	-0.236
-122.210	183.962	0.203	0.297
-121.195	268.126	0.153	-0.265
-120.180	49.492	0.068	-0.063
-119.166	-119.422	0.239	-0.041
