DTS Sentinel unit serial number:	SN413079Multiplexer serial number:	ORYXHardware model number:	OX4-SRSoftware version number:	ORYX F/W v4.00 Oryx Data Collector v3.7.2.0data status	okinstallation	princeton_trtdifferential loss correction	single-endedforward channel	channel 4reverse channel	N/Adate	2019/09/19time	06:53:35forward acquisition time	60.00reverse acquisition time	0.00gamma	496.2192k internal	0.2340k external	0.2340temperature offset calibration	1.0026default loss term (dB/km)	0.3790temperature slope calibration	1.0000multiplexer offset coefficient	1.0000multiplexer slope coefficient	1.0000fibre end	0.00T internal ref (°C)	19.00T ext. ref 1 (°C)	0.56T ext. ref 2 (°C)	12.70length (m)	temperature (°C)	Stokes	anti-Stokes-747.200	-200.000	0.013	-0.160
-746.185	58.856	-0.201	0.199
-745.171	27.110	-0.143	-0.120
-744.156	800.000	0.119	0.332
-743.142	13.522	0.138	-0.107
-742.127	167.379	0.021	0.030
-741.112	37.588	0.082	0.073
-740.098	800.000	-0.038	0.166
-739.083	800.000	0.099	0.276
-738.069	213.333	0.098	0.155
-737.054	-146.933	0.268	0.023
-736.039	-82.093	-0.330	-0.108
-735.025	-200.000	0.040	0.195
-734.010	-200.000	-0.037	-0.369
-732.996	800.000	-0.050	-0.191
-731.981	-200.000	0.055	0.278
-730.966	-92.130	0.282	0.080
-729.952	1.412	-0.296	0.213
-728.937	94.282	0.174	-0.198
-727.923	-200.000	0.050	-0.223
-726.908	-84.442	-0.363	-0.115
-725.894	-14.445	0.193	0.124
-724.879	215.287	0.132	-0.210
-723.864	-35.000	-0.268	0.147
-722.850	419.858	0.102	0.218
-721.835	63.927	0.175	-0.176
-720.821	196.143	0.167	0.254
-719.806	-111.005	0.178	-0.037
-718.791	-200.000	-0.060	0.283
-717.777	-50.295	0.229	0.109
-716.762	-67.896	-0.056	0.022
-715.748	0.849	-0.291	-0.209
-714.733	100.100	-0.110	-0.128
-713.718	-200.000	0.020	-0.257
-712.704	-41.332	0.258	-0.133
-711.689	800.000	0.113	0.402
-710.675	196.745	-0.185	-0.283
-709.660	-51.789	0.063	0.030
-708.645	-82.958	-0.427	0.138
-707.631	-200.000	0.040	0.289
-706.616	-140.415	-0.088	0.009
-705.602	-69.236	-0.099	-0.038
-704.587	0.897	-0.275	0.197
-703.572	-85.054	-0.219	-0.069
-702.558	-47.825	0.434	0.210
-701.543	-165.005	-0.272	-0.012
-700.529	625.091	0.022	0.055
-699.514	-39.864	-0.453	-0.237
-698.499	-108.228	0.259	0.056
-697.485	283.407	0.084	0.151
-696.470	54.510	0.127	-0.123
-695.456	-200.000	-0.021	-0.175
-694.441	-63.703	-0.184	0.076
-693.426	300.281	0.079	0.146
-692.412	-51.668	-0.084	0.039
-691.397	-200.000	0.002	0.127
-690.383	-170.494	-0.327	0.011
-689.368	-104.626	0.339	-0.078
-688.354	-132.522	-0.210	0.027
-687.339	233.518	-0.210	0.346
-686.324	117.283	-0.067	0.082
-685.310	77.840	0.170	0.182
-684.295	298.335	0.126	0.232
-683.281	-65.583	-0.064	0.026
-682.266	-92.427	-0.126	0.036
-681.251	171.304	0.227	-0.325
-680.237	-200.000	-0.039	-0.190
-679.222	262.286	-0.164	-0.285
-678.208	11.930	-0.300	-0.230
-677.193	-82.488	0.120	-0.039
-676.178	-200.000	-0.008	-0.099
-675.164	-88.062	0.330	0.099
-674.149	-77.961	-0.208	0.072
-673.135	-97.431	0.266	-0.069
-672.120	25.533	-0.094	-0.078
-671.105	205.841	-0.025	0.039
-670.091	800.000	0.092	-0.328
-669.076	-200.000	0.047	0.353
-668.062	333.126	-0.056	-0.108
-667.047	-28.273	0.061	-0.035
-666.032	300.028	0.167	0.307
-665.018	-200.000	0.026	-0.344
-664.003	82.690	0.088	0.096
-662.989	-76.806	-0.306	0.107
-661.974	-200.000	0.006	0.408
-660.959	-117.156	-0.186	0.034
-659.945	55.300	-0.121	-0.117
-658.930	-119.694	0.376	-0.065
-657.916	377.204	-0.193	0.395
-656.901	490.779	-0.137	0.313
-655.886	166.104	-0.140	0.199
-654.872	-30.081	-0.082	-0.047
-653.857	-61.513	-0.247	-0.104
-652.843	-102.041	0.221	-0.053
-651.828	-116.448	-0.229	-0.042
-650.814	-83.095	-0.130	0.042
-649.799	243.892	-0.197	-0.329
-648.784	71.869	-0.098	0.101
-647.770	-159.705	-0.252	0.014
-646.755	-63.065	-0.194	-0.080
-645.741	-200.000	0.025	-0.430
-644.726	234.215	-0.097	-0.160
-643.711	-200.000	0.007	0.175
-642.697	584.760	0.016	0.040
-641.682	-17.656	-0.091	0.057
-640.668	204.087	-0.181	0.280
-639.653	191.730	-0.121	0.182
-638.638	19.334	-0.153	0.122
-637.624	44.990	-0.208	0.191
-636.609	251.686	0.122	0.207
-635.595	-9.767	-0.113	-0.075
-634.580	800.000	0.046	-0.173
-633.565	716.262	-0.110	-0.292
-632.551	2.056	-0.345	-0.249
-631.536	-116.949	-0.292	0.053
-630.522	-169.647	-0.282	-0.010
-629.507	-32.499	0.082	0.045
-628.492	-107.884	-0.213	0.046
-627.478	-200.000	0.008	-0.225
-626.463	28.444	0.236	0.199
-625.449	-77.818	-0.235	0.081
-624.434	-51.740	0.277	-0.129
-623.419	-50.992	-0.343	0.161
-622.405	-200.000	-0.018	-0.138
-621.390	20.713	0.121	0.098
-620.376	280.533	0.230	-0.410
-619.361	-13.181	-0.140	0.091
-618.346	598.147	0.073	0.181
-617.332	-73.038	0.122	-0.045
-616.317	-19.345	0.199	-0.123
-615.303	627.438	-0.052	-0.132
-614.288	-200.000	-0.020	-0.185
-613.273	-124.368	-0.234	-0.036
-612.259	-12.486	-0.267	0.174
-611.244	-200.000	0.004	-0.076
-610.230	275.209	-0.115	0.203
-609.215	-200.000	-0.017	-0.294
-608.201	-43.778	-0.319	0.160
-607.186	-59.706	-0.271	0.116
-606.171	-126.228	-0.132	0.020
-605.157	800.000	-0.084	0.238
-604.142	-200.000	0.026	0.123
-603.128	72.837	-0.258	0.268
-602.113	-200.000	-0.014	-0.220
-601.098	16.066	-0.454	-0.357
-600.084	-200.000	-0.014	0.110
-599.069	83.238	0.189	0.205
-598.055	800.000	-0.023	-0.094
-597.040	-57.482	-0.108	0.047
-596.025	-200.000	0.033	-0.186
-595.011	120.161	0.247	0.306
-593.996	-63.242	-0.271	-0.111
-592.982	117.768	0.042	-0.052
-591.967	-200.000	0.006	0.187
-590.952	-200.000	0.024	0.363
-589.938	-47.232	-0.207	-0.101
-588.923	-38.817	0.084	-0.044
-587.909	455.316	0.182	0.401
-586.894	-113.586	0.180	0.035
-585.879	502.295	0.038	0.087
-584.865	-191.260	-0.172	0.002
-583.850	-123.672	-0.195	-0.031
-582.836	1.729	0.101	0.073
-581.821	-131.509	0.034	0.004
-580.806	-105.327	0.290	0.066
-579.792	-200.000	0.030	-0.226
-578.777	-11.739	-0.102	-0.067
-577.763	-95.298	-0.253	0.068
-576.748	58.084	0.134	0.131
-575.733	-61.463	-0.028	0.012
-574.719	-200.000	0.027	0.200
-573.704	-90.046	-0.180	0.052
-572.690	-39.254	-0.158	-0.083
-571.675	-200.000	0.039	-0.266
-570.661	662.548	-0.138	-0.354
-569.646	-120.365	-0.238	0.040
-568.631	9.594	-0.103	0.078
-567.617	-47.374	0.214	0.104
-566.602	-57.438	0.120	-0.052
-565.588	94.466	0.114	-0.128
-564.573	-37.472	0.385	-0.205
-563.558	-200.000	-0.002	0.033
-562.544	-162.594	-0.349	-0.017
-561.529	800.000	-0.037	0.113
-560.515	25.827	0.263	0.218
-559.500	73.621	-0.130	0.136
-558.485	-46.406	0.323	-0.158
-557.471	339.600	0.116	0.225
-556.456	-136.305	0.204	0.024
-555.442	-95.577	-0.308	-0.082
-554.427	11.676	-0.308	0.235
-553.412	-56.582	0.109	-0.048
-552.398	-17.010	-0.445	0.280
-551.383	141.473	-0.168	-0.221
-550.369	-90.058	0.244	-0.071
-549.354	188.714	-0.206	-0.307
-548.339	-200.000	-0.007	-0.244
-547.325	505.238	0.103	-0.238
-546.310	48.854	-0.064	0.059
-545.296	252.035	-0.137	0.232
-544.281	-31.658	0.320	0.178
-543.266	-77.595	-0.068	-0.023
-542.252	-140.119	-0.282	0.030
-541.237	-200.000	0.023	-0.297
-540.223	90.647	0.180	-0.201
-539.208	-200.000	0.004	-0.048
-538.193	-106.606	-0.132	-0.029
-537.179	-17.703	0.148	-0.092
-536.164	197.079	0.046	0.070
-535.150	1.200	-0.222	-0.159
-534.135	170.891	0.199	-0.284
-533.121	54.690	0.020	-0.019
-532.106	141.776	-0.043	-0.057
-531.091	170.574	-0.163	0.232
-530.077	-72.356	0.151	0.055
-529.062	-174.721	0.065	0.002
-528.048	147.404	-0.267	0.357
-527.033	-200.000	0.009	0.331
-526.018	-200.000	0.032	0.149
-525.004	-121.931	0.527	-0.086
-523.989	207.355	-0.079	-0.123
-522.975	477.645	0.036	-0.081
-521.960	323.480	0.153	0.291
-520.945	115.210	-0.191	0.232
-519.931	-49.180	-0.152	-0.072
-518.916	-66.402	-0.352	0.139
-517.902	326.184	0.150	0.286
-516.887	-166.684	0.395	-0.016
-515.872	75.952	0.080	-0.084
-514.858	-127.728	0.089	-0.013
-513.843	343.465	0.071	-0.138
-512.829	-79.514	-0.296	0.099
-511.814	163.761	0.052	-0.073
-510.799	-157.796	0.196	-0.012
-509.785	138.152	-0.152	0.198
-508.770	-13.501	0.069	0.045
-507.756	19.021	0.286	0.228
-506.741	125.225	-0.279	-0.350
-505.726	-165.366	0.132	0.006
-504.712	-6.224	0.180	0.122
-503.697	138.827	-0.094	-0.122
-502.683	-35.811	0.032	-0.017
-501.668	800.000	-0.065	0.268
-500.653	33.124	-0.220	0.190
-499.639	-137.876	0.410	0.046
-498.624	99.281	-0.075	-0.086
-497.610	623.416	0.079	-0.199
-496.595	-133.633	-0.188	0.023
-495.581	462.258	-0.054	0.119
-494.566	-58.650	0.130	-0.056
-493.551	-16.194	-0.058	0.037
-492.537	-159.034	0.385	-0.022
-491.522	261.457	-0.045	0.077
-490.508	17.241	0.137	-0.108
-489.493	-21.859	0.265	-0.160
-488.478	-33.726	0.007	0.004
-487.464	259.536	0.054	-0.092
-486.449	-200.000	-0.056	-0.480
-485.435	230.176	-0.061	0.099
-484.420	560.583	-0.134	-0.322
-483.405	98.395	-0.232	0.265
-482.391	-158.050	0.273	0.016
-481.376	133.035	-0.097	-0.125
-480.362	38.533	0.050	0.045
-479.347	-200.000	0.002	0.144
-478.332	37.523	-0.251	0.221
-477.318	-200.000	-0.012	0.135
-476.303	-200.000	-0.044	-0.219
-475.289	3.753	0.259	0.188
-474.274	-131.829	0.266	0.034
-473.259	-96.385	0.163	0.043
-472.245	100.085	-0.044	0.051
-471.230	176.872	-0.041	-0.059
-470.216	-200.000	-0.052	-0.236
-469.201	-118.678	-0.207	0.036
-468.186	800.000	0.110	-0.331
-467.172	494.218	-0.066	-0.150
-466.157	-179.492	0.152	0.003
-465.143	98.148	-0.303	0.346
-464.128	-22.310	0.106	-0.064
-463.113	19.900	0.211	-0.169
-462.099	224.004	-0.101	-0.162
-461.084	159.161	-0.055	0.075
-460.070	-97.985	-0.081	0.021
-459.055	48.214	-0.292	0.271
-458.040	-200.000	-0.008	0.198
-457.026	58.165	-0.147	-0.143
-456.011	123.616	0.243	0.302
-454.997	-200.000	-0.068	-0.447
-453.982	134.475	-0.158	-0.203
-452.968	-20.522	-0.157	-0.096
-451.953	-19.614	-0.038	0.023
-450.938	324.823	0.052	-0.099
-449.924	181.204	0.011	-0.016
-448.909	306.917	0.109	0.200
-447.895	-116.990	0.081	0.015
-446.880	-123.582	-0.195	0.031
-445.865	-50.869	0.132	0.061
-444.851	265.761	0.071	-0.123
-443.836	-72.161	0.109	0.040
-442.822	800.000	0.015	-0.050
-441.807	800.000	0.112	0.464
-440.792	279.755	0.187	-0.331
-439.778	232.600	-0.089	-0.144
-438.763	-200.000	0.039	-0.297
-437.749	114.769	0.226	-0.274
-436.734	800.000	-0.056	-0.166
-435.719	208.155	-0.136	0.211
-434.705	-101.567	0.224	-0.054
-433.690	800.000	0.083	0.344
-432.676	-37.370	0.526	0.278
-431.661	-8.161	-0.140	0.093
-430.646	256.255	0.139	0.236
-429.632	362.255	-0.108	0.214
-428.617	-185.794	0.182	-0.003
-427.603	-200.000	0.017	0.208
-426.588	-200.000	-0.034	0.212
-425.573	-34.237	0.325	0.176
-424.559	-200.000	-0.008	0.045
-423.544	-160.615	0.330	0.017
-422.530	-200.000	-0.019	0.218
-421.515	168.113	0.157	0.221
-420.500	-84.610	0.399	-0.124
-419.486	57.685	-0.090	0.087
-418.471	135.640	0.189	-0.244
-417.457	-200.000	0.014	0.208
-416.442	-59.468	-0.079	0.034
-415.428	212.659	-0.243	0.380
-414.413	261.454	-0.034	0.059
-413.398	800.000	-0.100	0.290
-412.384	-140.898	0.488	0.050
-411.369	113.709	0.081	-0.097
-410.355	156.251	-0.202	0.276
-409.340	800.000	-0.024	-0.101
-408.325	-200.000	-0.029	0.221
-407.311	328.823	-0.119	0.226
-406.296	800.000	0.072	0.202
-405.282	800.000	-0.019	-0.058
-404.267	-50.502	-0.315	-0.147
-403.252	7.672	-0.139	0.103
-402.238	29.311	0.233	-0.196
-401.223	21.773	0.250	-0.202
-400.209	15.366	-0.041	0.032
-399.194	169.785	0.055	-0.077
-398.179	705.298	0.102	-0.265
-397.165	-200.000	0.026	-0.275
-396.150	-9.306	0.169	-0.111
-395.136	313.280	-0.264	0.491
-394.121	-14.230	0.168	-0.107
-393.106	9.129	-0.104	-0.078
-392.092	241.586	-0.025	-0.041
-391.077	-73.900	0.102	-0.036
-390.063	-110.521	-0.183	-0.038
-389.048	208.473	-0.021	-0.033
-388.033	-200.000	0.010	0.243
-387.019	-178.682	-0.188	-0.004
-386.004	89.401	0.132	0.146
-384.990	360.400	-0.077	-0.152
-383.975	-1.058	0.220	0.154
-382.960	-91.576	-0.271	-0.076
-381.946	-146.775	-0.174	-0.015
-380.931	-27.322	0.109	0.063
-379.917	-46.990	-0.129	-0.062
-378.902	-145.352	-0.216	-0.019
-377.888	-200.000	-0.002	-0.179
-376.873	-97.919	0.129	0.033
-375.858	-10.376	0.078	0.051
-374.844	-200.000	0.002	-0.299
-373.829	-139.141	-0.189	0.020
-372.815	-108.171	-0.105	-0.022
-371.800	-200.000	0.097	0.700
-370.785	54.104	0.095	-0.090
-369.771	-81.329	0.113	0.037
-368.756	-173.022	0.417	-0.013
-367.742	-200.000	0.004	0.025
-366.727	108.026	0.185	-0.218
-365.712	98.663	0.117	0.133
-364.698	-134.672	0.334	-0.040
-363.683	-59.045	0.289	-0.123
-362.669	800.000	0.159	0.450
-361.654	-127.826	-0.277	0.039
-360.639	108.129	0.199	0.234
-359.625	247.137	0.183	-0.305
-358.610	800.000	-0.063	-0.173
-357.596	-46.981	0.118	0.057
-356.581	183.859	0.123	-0.179
-355.566	-83.488	0.084	-0.027
-354.552	288.198	0.108	-0.193
-353.537	-7.641	0.336	-0.224
-352.523	-22.588	-0.127	-0.076
-351.508	-39.700	0.243	-0.125
-350.493	645.716	0.067	0.168
-349.479	514.638	-0.076	0.176
-348.464	64.680	-0.227	0.226
-347.450	800.000	-0.091	-0.349
-346.435	-200.000	0.004	-0.179
-345.420	98.655	-0.024	0.027
-344.406	-161.968	0.434	-0.022
-343.391	-120.191	-0.228	0.038
-342.377	3.973	0.054	-0.039
-341.362	-83.534	0.102	-0.032
-340.348	-63.364	-0.233	-0.095
-339.333	800.000	-0.050	0.165
-338.318	-96.059	0.038	0.010
-337.304	286.082	0.088	0.157
-336.289	-56.731	0.349	-0.152
-335.275	-101.230	-0.135	0.032
-334.260	-200.000	-0.010	-0.053
-333.245	148.231	0.155	-0.206
-332.231	326.432	-0.242	-0.456
-331.216	800.000	-0.143	-0.450
-330.202	-36.838	-0.068	0.036
-329.187	-84.055	-0.451	-0.141
-328.172	60.016	0.253	0.247
-327.158	-152.093	0.071	-0.005
-326.143	187.672	0.166	-0.244
-325.129	361.790	0.079	0.156
-324.114	-69.315	-0.161	0.061
-323.099	800.000	0.065	-0.184
-322.085	-84.474	0.259	0.081
-321.070	-200.000	-0.002	-0.064
-320.056	-79.634	-0.559	0.186
-319.041	-10.971	-0.269	0.175
-318.026	270.582	-0.186	-0.323
-317.012	800.000	0.068	-0.220
-315.997	-75.327	-0.363	-0.128
-314.983	-200.000	0.007	0.200
-313.968	42.222	0.128	0.115
-312.953	-133.672	-0.298	-0.037
-311.939	-132.082	0.308	-0.039
-310.924	800.000	-0.061	0.258
-309.910	227.662	0.047	0.075
-308.895	800.000	0.116	0.451
-307.880	-130.338	0.257	-0.034
-306.866	117.017	0.024	-0.029
-305.851	-169.614	0.059	0.002
-304.837	9.444	0.258	0.193
-303.822	705.595	-0.133	0.346
-302.807	800.000	-0.046	-0.129
-301.793	34.530	0.055	-0.047
-300.778	-200.000	-0.029	0.156
-299.764	800.000	-0.041	-0.141
-298.749	104.832	0.227	-0.264
-297.735	119.020	0.182	0.222
-296.720	169.233	0.149	0.210
-295.705	402.387	0.010	0.020
-294.691	-65.519	-0.328	-0.130
-293.676	-64.103	0.288	0.116
-292.662	296.516	0.192	0.347
-291.647	87.930	-0.094	0.103
-290.632	-17.691	-0.266	-0.165
-289.618	42.299	-0.166	-0.148
-288.603	-25.005	-0.175	-0.102
-287.589	466.259	0.082	-0.180
-286.574	-85.666	-0.183	-0.056
-285.559	383.080	0.035	-0.071
-284.545	163.216	0.074	-0.102
-283.530	-200.000	-0.019	0.385
-282.516	-87.921	-0.024	-0.007
-281.501	-200.000	0.011	0.268
-280.486	175.909	-0.063	-0.090
-279.472	-25.520	-0.063	0.036
-278.457	-200.000	-0.043	0.198
-277.443	-58.823	-0.083	0.036
-276.428	-31.671	0.117	-0.064
-275.413	65.301	0.138	0.137
-274.399	131.031	-0.340	-0.429
-273.384	-200.000	-0.027	-0.130
-272.370	-59.389	0.228	-0.096
-271.355	-10.698	0.478	-0.311
-270.340	-140.677	0.164	0.017
-269.326	51.778	-0.136	0.128
-268.311	126.079	-0.138	0.171
-267.297	-86.191	-0.216	0.066
-266.282	-200.000	-0.006	0.284
-265.267	-64.880	0.217	0.086
-264.253	-27.294	-0.149	0.085
-263.238	111.101	-0.149	-0.177
-262.224	800.000	-0.115	0.345
-261.209	-31.632	0.038	0.021
-260.195	800.000	0.076	-0.242
-259.180	272.688	-0.089	-0.155
-258.165	800.000	0.081	0.236
-257.151	255.691	-0.167	0.281
-256.136	141.632	-0.088	-0.114
-255.122	-46.224	-0.214	-0.104
-254.107	-87.211	-0.340	-0.102
-253.092	-200.000	0.007	0.190
-252.078	689.964	-0.093	0.239
-251.063	-74.929	-0.035	-0.012
-250.049	-23.135	0.125	0.074
-249.034	-88.755	-0.290	-0.085
-248.019	30.223	-0.240	-0.201
-247.005	-71.710	0.388	0.142
-245.990	-200.000	-0.051	0.233
-244.976	-85.236	-0.087	0.027
-243.961	-6.579	-0.063	0.042
-242.946	375.662	0.048	0.096
-241.932	124.487	-0.239	-0.295
-240.917	-106.563	0.488	-0.107
-239.903	-10.295	-0.141	0.092
-238.888	10.872	-0.104	-0.078
-237.873	468.985	0.048	0.107
-236.859	-25.869	-0.197	-0.114
-235.844	-200.000	-0.009	-0.384
-234.830	189.078	-0.190	-0.280
-233.815	-86.100	0.101	0.031
-232.800	-200.000	-0.074	0.419
-231.786	-200.000	-0.047	-0.212
-230.771	277.307	0.183	0.320
-229.757	-200.000	0.021	-0.133
-228.742	53.327	-0.006	0.006
-227.727	-200.000	-0.050	-0.363
-226.713	-200.000	0.015	-0.080
-225.698	120.771	-0.145	-0.177
-224.684	800.000	0.076	-0.219
-223.669	800.000	0.097	-0.303
-222.655	800.000	-0.088	-0.306
-221.640	-15.180	-0.256	0.161
-220.625	-200.000	0.008	-0.064
-219.611	-200.000	-0.017	0.280
-218.596	-53.012	0.203	0.092
-217.582	8.174	0.154	-0.113
-216.567	-116.962	-0.154	0.028
-215.552	-139.612	0.114	-0.012
-214.538	57.832	0.323	0.310
-213.523	449.005	0.162	-0.351
-212.509	97.171	0.098	0.111
-211.494	-128.020	0.096	0.013
-210.479	-161.206	-0.205	-0.010
-209.465	213.364	-0.306	-0.475
-208.450	-200.000	-0.057	-0.247
-207.436	-12.725	0.172	0.110
-206.421	800.000	-0.062	0.185
-205.406	58.556	0.317	-0.306
-204.392	-23.206	0.349	0.206
-203.377	-200.000	-0.019	0.233
-202.363	-62.879	0.321	0.130
-201.348	186.952	0.067	0.098
-200.333	800.000	0.067	0.197
-199.319	366.808	0.173	0.342
-198.304	-130.656	-0.371	0.049
-197.290	-63.390	0.296	-0.120
-196.275	-11.934	-0.234	-0.151
-195.260	800.000	-0.045	-0.171
-194.246	-173.441	-0.181	0.005
-193.231	-32.654	-0.146	-0.080
-192.217	-200.000	-0.077	-0.515
-191.202	107.219	0.162	0.188
-190.187	114.216	-0.192	0.229
-189.173	-7.658	0.185	0.123
-188.158	-200.000	-0.210	-0.000
-187.144	65.241	-0.076	-0.075
-186.129	-200.000	0.051	0.381
-185.114	-142.580	-0.346	-0.033
-184.100	733.268	0.159	-0.417
-183.085	800.000	0.037	-0.147
-182.071	-85.612	0.084	-0.025
-181.056	69.144	0.079	-0.080
-180.042	800.000	-0.069	-0.281
-179.027	800.000	0.072	0.275
-178.012	69.540	0.237	0.239
-176.998	115.466	-0.148	0.178
-175.983	754.091	0.100	-0.265
-174.969	-200.000	0.015	-0.222
-173.954	-200.000	-0.007	-0.057
-172.939	208.241	0.069	-0.106
-171.925	800.000	-0.096	-0.410
-170.910	-83.581	0.105	-0.033
-169.896	-46.794	-0.224	0.107
-168.881	-155.085	0.131	0.008
-167.866	-5.313	0.168	-0.113
-166.852	-130.384	-0.365	0.048
-165.837	-171.595	0.328	-0.011
-164.823	45.514	0.177	-0.161
-163.808	-15.666	-0.066	-0.041
-162.793	-200.000	0.047	-0.421
-161.779	-1.300	-0.254	-0.176
-160.764	-75.506	0.192	-0.067
-159.750	-132.178	-0.056	0.007
-158.735	-122.739	0.069	0.011
-157.720	-188.360	0.472	0.006
-156.706	-200.000	-0.034	0.187
-155.691	35.646	-0.113	0.098
-154.677	-200.000	0.082	-0.357
-153.662	800.000	-0.034	0.118
-152.647	-200.000	-0.040	0.184
-151.633	115.754	-0.100	-0.120
-150.618	430.146	0.122	0.258
-149.604	-136.618	-0.165	-0.019
-148.589	-15.494	-0.224	-0.140
-147.574	-81.499	0.221	0.071
-146.560	761.268	0.068	-0.181
-145.545	-200.000	0.055	0.276
-144.531	593.646	0.020	0.047
-143.516	677.736	-0.161	0.410
-142.502	1.907	0.133	-0.094
-141.487	800.000	0.048	0.150
-140.472	28.078	-0.107	0.089
-139.458	86.714	-0.142	-0.153
-138.443	106.320	-0.055	-0.064
-137.429	-83.851	-0.492	0.153
-136.414	-44.174	0.162	0.079
-135.399	-200.000	-0.094	0.574
-134.385	315.905	0.175	0.323
-133.370	119.516	-0.091	-0.110
-132.356	251.760	0.083	0.138
-131.341	507.265	-0.063	0.143
-130.326	252.947	0.145	-0.243
-129.312	-155.687	-0.290	-0.018
-128.297	-200.000	-0.049	-0.360
-127.283	800.000	-0.057	0.235
-126.268	-69.642	0.206	0.077
-125.253	82.813	-0.157	0.167
-124.239	150.589	-0.086	-0.115
-123.224	800.000	0.098	-0.356
-122.210	-164.594	0.302	-0.013
-121.195	-137.114	-0.224	-0.025
