DTS Sentinel unit serial number:	SN413079Multiplexer serial number:	ORYXHardware model number:	OX4-SRSoftware version number:	ORYX F/W v4.00 Oryx Data Collector v3.7.2.0data status	okinstallation	princeton_trtdifferential loss correction	single-endedforward channel	channel 4reverse channel	N/Adate	2019/09/15time	21:33:35forward acquisition time	60.00reverse acquisition time	0.00gamma	496.2192k internal	0.2319k external	0.2319temperature offset calibration	0.9942default loss term (dB/km)	0.3790temperature slope calibration	1.0000multiplexer offset coefficient	1.0000multiplexer slope coefficient	1.0000fibre end	0.00T internal ref (°C)	30.64T ext. ref 1 (°C)	8.32T ext. ref 2 (°C)	23.58length (m)	temperature (°C)	Stokes	anti-Stokes-747.200	-78.978	-0.256	0.088
-746.185	222.104	-0.279	0.454
-745.171	-105.438	0.307	-0.071
-744.156	616.759	-0.102	0.258
-743.142	-9.590	0.134	0.090
-742.127	309.739	-0.151	0.286
-741.112	-101.652	-0.212	-0.052
-740.098	-126.784	0.218	0.033
-739.083	81.979	-0.081	0.088
-738.069	-200.000	0.045	0.617
-737.054	12.204	0.222	0.173
-736.039	46.468	0.071	-0.067
-735.025	56.927	0.233	0.230
-734.010	-200.000	-0.042	-0.189
-732.996	-22.230	-0.255	-0.156
-731.981	800.000	-0.067	0.210
-730.966	-93.593	-0.439	-0.123
-729.952	-200.000	0.013	-0.296
-728.937	-68.725	0.063	0.025
-727.923	273.001	0.269	0.480
-726.908	-190.065	0.194	0.002
-725.894	-200.000	-0.000	0.018
-724.879	-102.894	-0.428	-0.103
-723.864	47.842	0.230	-0.217
-722.850	-200.000	-0.008	-0.313
-721.835	-106.085	0.290	-0.066
-720.821	-93.167	-0.248	0.070
-719.806	-141.411	-0.390	-0.040
-718.791	-109.106	-0.087	0.019
-717.777	73.700	-0.205	-0.218
-716.762	-62.792	0.243	-0.102
-715.748	-200.000	-0.022	-0.345
-714.733	-200.000	-0.014	-0.133
-713.718	-186.944	0.232	0.003
-712.704	-128.769	0.303	0.043
-711.689	-77.736	-0.412	-0.144
-710.675	237.431	0.031	0.052
-709.660	-151.099	0.123	0.009
-708.645	110.584	-0.184	-0.224
-707.631	162.147	0.205	-0.290
-706.616	470.176	0.163	0.371
-705.602	-200.000	0.005	0.117
-704.587	525.347	-0.064	0.153
-703.572	800.000	-0.034	-0.102
-702.558	-188.822	-0.075	-0.001
-701.543	-200.000	0.002	0.125
-700.529	-36.166	-0.234	0.128
-699.514	-28.309	-0.062	-0.036
-698.499	108.532	0.092	0.111
-697.485	455.551	0.072	-0.160
-696.470	57.704	-0.118	0.117
-695.456	-200.000	0.052	0.410
-694.441	-88.723	-0.128	-0.038
-693.426	800.000	0.017	0.068
-692.412	85.845	-0.188	0.209
-691.397	71.717	-0.138	-0.145
-690.383	11.114	0.094	0.072
-689.368	55.892	-0.109	0.107
-688.354	63.685	-0.124	-0.126
-687.339	37.712	-0.231	0.207
-686.324	-97.175	-0.320	-0.084
-685.310	-103.562	-0.161	0.038
-684.295	-15.648	0.518	0.334
-683.281	-103.102	-0.093	-0.022
-682.266	-200.000	0.014	-0.222
-681.251	-3.598	0.281	0.197
-680.237	91.716	-0.218	-0.248
-679.222	-155.458	0.264	0.017
-678.208	54.296	-0.114	0.111
-677.193	-17.403	0.186	0.118
-676.178	-200.000	0.012	-0.063
-675.164	52.813	0.088	0.085
-674.149	448.932	-0.071	0.157
-673.135	51.550	0.145	0.139
-672.120	320.964	-0.143	0.275
-671.105	-126.436	0.258	-0.039
-670.091	384.746	-0.153	-0.319
-669.076	328.008	-0.118	0.228
-668.062	110.080	-0.193	0.234
-667.047	-84.634	0.283	-0.090
-666.032	-118.537	-0.238	0.043
-665.018	-200.000	-0.011	-0.319
-664.003	800.000	-0.053	-0.173
-662.989	129.777	-0.199	0.257
-661.974	9.099	-0.193	-0.147
-660.959	-68.191	0.294	-0.115
-659.945	299.033	-0.133	-0.248
-658.930	-50.095	0.213	0.102
-657.916	241.730	0.188	0.317
-656.901	800.000	0.042	-0.150
-655.886	49.184	-0.235	0.223
-654.872	-19.891	-0.222	0.138
-653.857	800.000	-0.161	0.500
-652.843	143.222	0.050	0.068
-651.828	110.023	-0.049	-0.060
-650.814	-27.836	-0.271	-0.158
-649.799	390.991	-0.141	-0.296
-648.784	800.000	0.055	-0.184
-647.770	-200.000	0.011	0.145
-646.755	60.042	0.139	-0.138
-645.741	529.245	-0.056	0.134
-644.726	-80.380	0.284	0.096
-643.711	-67.896	0.123	-0.049
-642.697	-62.942	0.292	-0.122
-641.682	-200.000	-0.066	0.386
-640.668	800.000	0.075	0.297
-639.653	779.555	0.127	0.351
-638.638	120.435	0.064	0.080
-637.624	128.558	0.116	0.149
-636.609	62.294	-0.102	-0.103
-635.595	-54.890	-0.093	-0.042
-634.580	-48.925	0.212	0.102
-633.565	731.527	-0.088	0.237
-632.551	-200.000	-0.005	-0.111
-631.536	-103.587	-0.128	0.030
-630.522	-200.000	-0.053	0.285
-629.507	-200.000	0.009	0.300
-628.492	10.220	0.187	0.143
-627.478	800.000	-0.034	0.107
-626.463	36.532	-0.175	0.156
-625.449	314.902	-0.086	-0.163
-624.434	-4.557	0.243	0.169
-623.419	-200.000	-0.082	-0.429
-622.405	78.254	-0.231	-0.249
-621.390	-15.634	-0.072	-0.046
-620.376	-32.965	-0.211	0.118
-619.361	-73.194	-0.006	-0.002
-618.346	-200.000	-0.040	-0.234
-617.332	127.028	0.193	-0.246
-616.317	201.869	0.074	-0.115
-615.303	66.430	-0.110	0.112
-614.288	233.450	0.097	0.161
-613.273	169.632	-0.100	-0.144
-612.259	-44.108	-0.049	0.025
-611.244	-200.000	0.002	-0.070
-610.230	569.130	0.111	0.271
-609.215	401.770	0.133	0.280
-608.201	-155.223	0.206	0.013
-607.186	-104.300	-0.153	-0.036
-606.171	-56.976	-0.127	-0.057
-605.157	-55.149	0.237	-0.107
-604.142	-187.090	-0.428	0.006
-603.128	-147.051	0.086	0.007
-602.113	446.342	-0.109	-0.241
-601.098	-127.874	0.304	-0.044
-600.084	800.000	0.044	-0.150
-599.069	-45.649	-0.202	-0.101
-598.055	-85.048	0.173	-0.054
-597.040	291.252	0.053	0.097
-596.025	98.519	0.128	0.149
-595.011	-200.000	0.068	-0.338
-593.996	178.169	0.166	0.243
-592.982	-81.065	-0.192	-0.064
-591.967	-75.922	-0.325	-0.116
-590.952	-200.000	0.059	0.334
-589.938	142.340	0.044	0.059
-588.923	-200.000	0.028	-0.230
-587.909	-200.000	0.005	-0.056
-586.894	-103.709	-0.100	-0.023
-585.879	294.649	-0.100	-0.183
-584.865	-200.000	0.009	-0.251
-583.850	797.724	-0.094	0.259
-582.836	329.823	0.078	-0.151
-581.821	15.299	-0.086	-0.068
-580.806	-16.558	-0.373	0.237
-579.792	-18.281	-0.239	0.150
-578.777	127.044	0.041	0.052
-577.763	800.000	-0.043	-0.123
-576.748	11.586	0.102	-0.079
-575.733	-108.444	0.247	0.054
-574.719	-87.218	-0.489	0.149
-573.704	584.123	-0.097	-0.238
-572.690	-200.000	-0.003	-0.125
-571.675	-139.659	0.213	0.023
-570.661	114.942	-0.233	0.285
-569.646	800.000	-0.054	-0.190
-568.631	-200.000	-0.049	0.228
-567.617	735.616	0.097	0.262
-566.602	-65.464	0.236	-0.095
-565.588	-200.000	0.048	-0.374
-564.573	-96.498	-0.071	-0.019
-563.558	-200.000	0.034	-0.208
-562.544	800.000	0.052	-0.221
-561.529	-126.589	0.283	-0.042
-560.515	-135.943	-0.040	-0.005
-559.500	-64.624	-0.298	-0.121
-558.485	168.937	0.131	0.187
-557.471	-128.720	-0.042	-0.006
-556.456	-159.232	0.173	0.010
-555.442	-200.000	-0.407	-0.001
-554.427	-47.461	0.245	-0.120
-553.412	59.101	0.012	0.012
-552.398	272.128	0.169	-0.299
-551.383	-162.356	-0.366	-0.018
-550.369	-32.155	0.184	-0.103
-549.354	-131.658	-0.286	0.038
-548.339	-128.587	-0.055	-0.008
-547.325	281.826	0.057	-0.102
-546.310	-5.782	0.144	-0.099
-545.296	-121.894	0.012	0.002
-544.281	800.000	-0.029	-0.123
-543.266	-144.965	-0.188	0.017
-542.252	265.299	-0.116	0.203
-541.237	-80.947	-0.140	-0.047
-540.223	-17.659	-0.141	-0.089
-539.208	194.377	0.192	-0.292
-538.193	272.299	-0.128	-0.227
-537.179	-15.092	-0.091	-0.059
-536.164	-157.866	0.347	0.021
-535.150	800.000	0.059	-0.240
-534.135	447.957	0.127	-0.281
-533.121	-200.000	-0.049	0.361
-532.106	-60.837	0.283	-0.120
-531.091	-73.431	-0.290	0.106
-530.077	800.000	-0.069	0.244
-529.062	-92.275	0.170	0.048
-528.048	-140.786	-0.076	0.008
-527.033	-34.437	-0.271	0.149
-526.018	-29.877	0.205	0.117
-525.004	-199.565	0.090	-0.000
-523.989	86.893	0.041	-0.046
-522.975	-28.002	0.032	-0.018
-521.960	-70.171	0.436	0.166
-520.945	-200.000	0.004	0.127
-519.931	-51.806	-0.205	0.096
-518.916	18.096	-0.071	0.057
-517.902	-147.090	-0.205	-0.018
-516.887	-72.339	-0.082	-0.031
-515.872	114.156	-0.094	0.114
-514.858	-36.562	-0.130	-0.070
-513.843	791.854	-0.025	-0.070
-512.829	29.384	0.145	0.124
-511.814	35.955	-0.147	-0.129
-510.799	67.205	0.115	-0.118
-509.785	-148.559	-0.198	-0.016
-508.770	130.106	0.108	-0.138
-507.756	800.000	0.102	-0.298
-506.741	-90.466	-0.151	-0.044
-505.726	-145.054	-0.043	-0.004
-504.712	-26.480	-0.081	-0.047
-503.697	-50.646	-0.187	-0.088
-502.683	-200.000	-0.044	0.195
-501.668	-15.647	-0.241	0.154
-500.653	-200.000	-0.023	-0.123
-499.639	-181.411	0.093	-0.002
-498.624	-35.177	0.225	-0.123
-497.610	-74.461	-0.193	-0.070
-496.595	-40.277	0.054	-0.028
-495.581	24.353	0.194	-0.161
-494.566	-200.000	0.364	-0.002
-493.551	-97.664	-0.369	-0.096
-492.537	-56.197	-0.218	0.097
-491.522	62.222	0.052	-0.052
-490.508	514.852	-0.087	0.202
-489.493	79.061	-0.197	-0.211
-488.478	479.481	-0.158	-0.358
-487.464	800.000	0.049	-0.176
-486.449	-8.400	0.135	-0.091
-485.435	-103.397	-0.334	0.079
-484.420	39.634	0.290	0.260
-483.405	221.148	-0.126	0.203
-482.391	120.775	-0.356	-0.443
-481.376	-54.935	0.124	0.056
-480.362	-117.476	-0.187	0.034
-479.347	800.000	0.024	-0.081
-478.332	-99.894	0.248	0.062
-477.318	101.557	-0.071	0.083
-476.303	800.000	-0.021	0.064
-475.289	-117.935	0.275	-0.049
-474.274	322.621	0.150	-0.286
-473.259	-5.325	-0.269	0.185
-472.245	-200.000	0.075	0.357
-471.230	-20.573	-0.193	0.119
-470.216	-120.022	-0.141	-0.024
-469.201	596.049	0.083	-0.205
-468.186	220.715	-0.087	-0.140
-467.172	97.099	-0.249	-0.286
-466.157	-76.444	-0.477	0.168
-465.143	-139.595	0.288	-0.031
-464.128	57.361	0.253	0.247
-463.113	718.831	-0.112	-0.298
-462.099	-191.197	-0.348	-0.004
-461.084	204.406	0.067	-0.104
-460.070	123.489	0.134	0.168
-459.055	-26.784	0.085	-0.050
-458.040	800.000	-0.160	-0.452
-457.026	-108.856	-0.113	-0.024
-456.011	-199.854	0.093	-0.000
-454.997	545.334	-0.067	0.160
-453.982	-171.917	0.072	0.002
-452.968	-61.825	-0.149	0.062
-451.953	-200.000	0.007	-0.220
-450.938	-46.108	-0.184	-0.091
-449.924	-200.000	0.085	0.463
-448.909	52.015	-0.201	0.191
-447.895	-10.402	-0.213	0.141
-446.880	47.693	-0.115	0.108
-445.865	-200.000	-0.010	-0.235
-444.851	133.751	-0.166	-0.215
-443.836	-200.000	-0.004	0.105
-442.822	-200.000	0.045	-0.209
-441.807	98.463	-0.194	0.224
-440.792	-13.778	0.135	0.087
-439.778	120.809	-0.069	0.085
-438.763	-200.000	0.015	0.127
-437.749	32.309	0.167	-0.144
-436.734	800.000	-0.067	0.194
-435.719	-200.000	-0.019	-0.118
-434.705	40.936	-0.160	-0.144
-433.690	-200.000	-0.001	0.144
-432.676	52.536	-0.068	0.065
-431.661	74.738	0.089	0.093
-430.646	-156.053	0.195	-0.012
-429.632	-11.763	0.313	-0.205
-428.617	-200.000	0.095	-0.652
-427.603	-200.000	0.014	-0.225
-426.588	-32.934	0.404	0.224
-425.573	627.167	0.028	0.070
-424.559	115.501	0.101	-0.123
-423.544	-89.685	0.162	0.047
-422.530	345.862	0.099	0.194
-421.515	-53.894	0.399	0.182
-420.500	-134.572	0.257	0.031
-419.486	800.000	0.046	-0.153
-418.471	-39.079	-0.283	-0.148
-417.457	-6.778	0.085	0.058
-416.442	-200.000	-0.050	-0.296
-415.428	-13.219	0.045	-0.029
-414.413	800.000	0.029	0.109
-413.398	-21.602	-0.236	-0.143
-412.384	125.601	-0.106	-0.133
-411.369	-61.845	-0.269	-0.112
-410.355	137.998	0.020	-0.026
-409.340	-93.612	-0.106	0.029
-408.325	800.000	0.077	-0.331
-407.311	-97.099	0.089	0.023
-406.296	-6.901	-0.083	0.056
-405.282	317.105	-0.043	0.081
-404.267	-200.000	-0.037	0.263
-403.252	36.820	0.254	0.224
-402.238	-161.712	0.107	0.005
-401.223	58.218	-0.042	-0.041
-400.209	-200.000	0.013	0.164
-399.194	-1.820	0.179	-0.126
-398.179	800.000	-0.044	-0.121
-397.165	-109.351	0.328	0.069
-396.150	240.452	0.117	0.194
-395.136	144.706	0.149	-0.198
-394.121	66.124	0.119	0.120
-393.106	140.918	-0.163	-0.215
-392.092	-100.338	0.358	0.089
-391.077	-200.000	-0.022	0.211
-390.063	209.244	0.031	-0.049
-389.048	800.000	0.036	-0.139
-388.033	-200.000	-0.121	-0.561
-387.019	-40.061	0.234	-0.122
-386.004	191.544	-0.069	0.103
-384.990	-34.945	0.186	-0.101
-383.975	169.906	0.088	0.126
-382.960	47.567	-0.190	-0.177
-381.946	342.753	0.096	-0.188
-380.931	-108.188	0.320	-0.069
-379.917	-200.000	-0.008	0.132
-378.902	274.731	-0.075	-0.133
-377.888	-141.112	0.238	-0.024
-376.873	-200.000	-0.022	0.108
-375.858	-99.727	0.207	-0.052
-374.844	102.794	0.117	0.137
-373.829	-15.478	0.148	-0.094
-372.815	-191.927	-0.216	-0.002
-371.800	-43.488	-0.060	-0.030
-370.785	-200.000	-0.007	-0.253
-369.771	-188.552	0.135	-0.002
-368.756	17.101	-0.207	0.164
-367.742	-139.428	0.091	0.010
-366.727	-200.000	-0.012	0.242
-365.712	-19.542	0.462	0.285
-364.698	-127.086	-0.056	-0.008
-363.683	-7.207	0.141	0.095
-362.669	-4.648	-0.153	0.105
-361.654	-200.000	-0.028	0.228
-360.639	-200.000	0.012	-0.078
-359.625	-9.534	-0.271	0.180
-358.610	-200.000	-0.060	0.294
-357.596	68.166	-0.113	-0.116
-356.581	-200.000	0.044	0.238
-355.566	39.291	-0.113	0.100
-354.552	7.825	0.266	-0.198
-353.537	-200.000	-0.038	0.217
-352.523	0.552	-0.123	-0.088
-351.508	-200.000	-0.046	0.206
-350.493	-200.000	0.012	-0.141
-349.479	-46.174	-0.024	-0.012
-348.464	470.288	-0.107	0.239
-347.450	-103.578	0.239	0.056
-346.435	-118.893	-0.250	-0.044
-345.420	123.275	0.156	0.194
-344.406	67.480	-0.085	0.086
-343.391	-200.000	0.024	-0.197
-342.377	-200.000	0.004	-0.067
-341.362	187.399	0.118	-0.176
-340.348	800.000	0.036	0.126
-339.333	-200.000	-0.059	0.290
-338.318	-41.135	0.290	0.149
-337.304	-86.620	0.137	0.042
-336.289	-53.633	0.063	0.029
-335.275	1.591	0.113	0.081
-334.260	-24.042	0.217	0.129
-333.245	-57.936	-0.329	0.143
-332.231	-200.000	0.083	-0.516
-331.216	800.000	0.038	0.111
-330.202	137.334	0.125	0.163
-329.187	5.991	0.147	0.108
-328.172	734.867	-0.020	-0.053
-327.158	-200.000	-0.019	0.162
-326.143	-10.889	-0.275	0.181
-325.129	81.155	0.192	-0.206
-324.114	-200.000	0.016	-0.197
-323.099	-52.114	-0.119	-0.055
-322.085	187.751	0.233	-0.346
-321.070	-134.451	-0.309	0.038
-320.056	-57.000	0.284	-0.125
-319.041	-200.000	0.014	-0.091
-318.026	57.209	0.046	0.044
-317.012	-115.634	0.117	-0.022
-315.997	-10.353	0.209	0.138
-314.983	10.676	0.251	0.190
-313.968	-137.114	0.144	-0.016
-312.953	-200.000	0.026	-0.383
-311.939	-106.913	-0.036	-0.008
-310.924	-65.516	-0.193	0.077
-309.910	303.502	0.008	0.015
-308.895	-21.098	0.262	-0.160
-307.880	33.207	-0.097	-0.084
-306.866	-141.850	-0.164	-0.016
-305.851	-200.000	-0.027	-0.157
-304.837	-128.578	0.275	-0.039
-303.822	64.107	-0.160	0.160
-302.807	800.000	-0.095	-0.358
-301.793	1.555	0.150	-0.107
-300.778	800.000	-0.064	0.252
-299.764	-200.000	0.019	-0.164
-298.749	215.691	-0.117	-0.185
-297.735	777.272	-0.091	0.248
-296.720	170.445	-0.107	0.152
-295.705	-63.001	0.354	0.145
-294.691	800.000	0.090	-0.300
-293.676	-200.000	-0.003	0.168
-292.662	43.624	-0.102	-0.093
-291.647	-81.383	0.420	0.138
-290.632	-31.825	0.094	-0.052
-289.618	-151.844	-0.095	0.007
-288.603	-174.266	0.153	0.004
-287.589	316.022	-0.064	-0.120
-286.574	44.140	0.271	0.247
-285.559	-30.281	0.170	0.096
-284.545	-200.000	0.004	0.236
-283.530	105.746	-0.168	-0.197
-282.516	800.000	0.031	0.094
-281.501	-8.665	0.165	-0.110
-280.486	23.789	0.139	0.114
-279.472	-200.000	0.025	-0.137
-278.457	209.325	-0.039	-0.060
-277.443	72.066	-0.199	0.206
-276.428	-200.000	-0.082	0.400
-275.413	-200.000	-0.023	0.152
-274.399	800.000	0.145	-0.469
-273.384	53.211	-0.156	-0.149
-272.370	-125.448	0.287	-0.043
-271.355	-108.111	-0.061	0.013
-270.340	98.989	0.130	-0.149
-269.326	-4.934	0.231	-0.158
-268.311	-200.000	-0.032	-0.238
-267.297	-98.059	-0.234	0.060
-266.282	613.639	-0.076	0.188
-265.267	-200.000	-0.172	0.000
-264.253	-57.065	0.142	-0.062
-263.238	478.237	-0.106	-0.239
-262.224	-126.700	0.117	-0.017
-261.209	-129.723	-0.255	-0.035
-260.195	-151.563	0.261	-0.019
-259.180	548.735	-0.065	0.154
-258.165	150.539	-0.040	-0.054
-257.151	-200.000	0.139	0.000
-256.136	800.000	-0.041	-0.131
-255.122	-103.853	0.106	-0.025
-254.107	-29.068	-0.223	0.127
-253.092	134.849	0.142	0.183
-252.078	355.571	0.081	-0.159
-251.063	800.000	0.064	0.194
-250.049	-138.410	-0.256	0.028
-249.034	-200.000	-0.052	-0.401
-248.019	800.000	-0.170	0.536
-247.005	-55.104	-0.101	-0.045
-245.990	264.025	-0.132	-0.227
-244.976	530.892	0.061	0.143
-243.961	317.416	0.020	0.038
-242.946	-141.056	0.225	0.023
-241.932	-105.592	0.462	0.104
-240.917	-200.000	-0.023	0.141
-239.903	800.000	0.058	-0.161
-238.888	-76.237	0.135	-0.047
-237.873	-1.583	0.089	0.062
-236.859	-33.172	0.236	0.130
-235.844	58.409	-0.176	0.171
-234.830	64.597	0.219	0.219
-233.815	-45.231	0.251	0.124
-232.800	-97.645	-0.179	-0.046
-231.786	-23.000	0.377	0.225
-230.771	-15.960	-0.130	0.082
-229.757	10.562	-0.154	-0.116
-228.742	49.858	0.023	0.021
-227.727	191.643	0.055	0.083
-226.713	-28.447	-0.427	-0.244
-225.698	-145.658	-0.118	-0.010
-224.684	-200.000	-0.003	0.398
-223.669	-77.228	-0.234	0.081
-222.655	-79.642	0.176	-0.059
-221.640	-77.782	0.053	0.018
-220.625	19.569	-0.365	-0.291
-219.611	62.114	0.250	-0.247
-218.596	-113.617	-0.068	-0.013
-217.582	53.533	0.286	0.272
-216.567	220.315	0.119	0.189
-215.552	61.347	-0.298	0.294
-214.538	42.037	-0.164	-0.148
-213.523	-43.119	-0.334	-0.168
-212.509	445.445	-0.118	-0.257
-211.494	509.561	-0.084	-0.193
-210.479	800.000	0.022	-0.060
-209.465	-200.000	0.003	0.144
-208.450	-117.236	0.494	0.089
-207.436	-6.072	-0.171	-0.116
-206.421	800.000	-0.056	-0.180
-205.406	232.806	-0.066	0.108
-204.392	800.000	0.034	0.134
-203.377	231.107	0.049	-0.080
-202.363	285.028	0.106	-0.190
-201.348	-0.603	-0.070	0.049
-200.333	-156.871	-0.278	-0.017
-199.319	-200.000	0.051	-0.255
-198.304	699.522	-0.037	-0.098
-197.290	3.964	-0.234	0.170
-196.275	86.425	-0.278	0.303
-195.260	-200.000	-0.016	0.165
-194.246	-30.944	0.114	0.064
-193.231	-97.544	0.133	0.034
-192.217	158.739	-0.127	0.175
-191.202	-143.334	-0.312	-0.030
-190.187	492.989	0.063	0.144
-189.173	-200.000	-0.062	-0.375
-188.158	-12.419	0.124	0.080
-187.144	-200.000	-0.023	0.291
-186.129	800.000	0.024	-0.088
-185.114	-200.000	-0.017	0.115
-184.100	800.000	0.028	-0.112
-183.085	10.063	-0.336	0.253
-182.071	36.064	-0.228	0.199
-181.056	49.525	-0.117	0.109
-180.042	-71.895	0.207	-0.076
-179.027	-30.725	0.241	0.135
-178.012	100.983	0.071	-0.082
-176.998	636.719	-0.152	0.382
-175.983	154.913	0.153	0.208
-174.969	-50.320	-0.161	-0.075
-173.954	-200.000	0.053	0.340
-172.939	11.819	0.104	-0.079
-171.925	422.611	-0.165	0.350
-170.910	-91.261	0.069	-0.019
-169.896	-95.320	-0.074	0.020
-168.881	-52.425	-0.134	-0.061
-167.866	25.811	-0.267	-0.220
-166.852	-46.614	-0.113	0.055
-165.837	-24.056	-0.048	0.029
-164.823	-192.636	0.419	0.004
-163.808	-75.300	-0.282	0.099
-162.793	-141.248	-0.166	0.017
-161.779	-182.992	-0.184	0.003
-160.764	-111.656	-0.316	-0.063
-159.750	-20.622	-0.130	-0.079
-158.735	-131.069	-0.251	0.033
-157.720	800.000	-0.074	-0.233
-156.706	383.704	-0.033	-0.068
-155.691	99.432	0.063	0.072
-154.677	-4.563	0.119	-0.081
-153.662	-48.811	0.099	0.047
-152.647	-188.031	-0.213	-0.003
-151.633	-139.126	0.073	0.008
-150.618	-65.372	0.075	0.030
-149.604	329.519	0.082	-0.156
-148.589	-71.155	-0.356	0.132
-147.574	505.801	0.014	-0.032
-146.560	-200.000	-0.041	0.176
-145.545	-70.520	0.075	0.028
-144.531	-156.607	-0.166	0.010
-143.516	-200.000	-0.039	-0.263
-142.502	87.615	-0.043	-0.048
-141.487	-82.536	0.117	0.038
-140.472	570.713	0.042	-0.100
-139.458	800.000	-0.061	0.237
-138.443	-24.817	0.059	-0.035
-137.429	-124.239	-0.207	0.032
-136.414	800.000	-0.047	0.198
-135.399	766.136	-0.070	-0.188
-134.385	-200.000	-0.027	-0.234
-133.370	-136.261	-0.225	-0.026
-132.356	651.682	-0.117	-0.297
-131.341	800.000	0.027	-0.097
-130.326	-146.234	0.273	0.024
-129.312	-200.000	0.019	0.249
-128.297	-74.644	0.443	0.157
-127.283	208.519	0.036	-0.056
-126.268	-137.698	-0.354	0.039
-125.253	-36.297	0.043	0.023
-124.239	-121.921	0.232	0.038
-123.224	-76.204	-0.265	-0.092
-122.210	-59.592	0.282	0.119
