DTS Sentinel unit serial number:	SN413079Multiplexer serial number:	ORYXHardware model number:	OX4-SRSoftware version number:	ORYX F/W v4.00 Oryx Data Collector v3.7.2.0data status	okinstallation	princeton_trtdifferential loss correction	single-endedforward channel	channel 4reverse channel	N/Adate	2019/09/16time	11:05:35forward acquisition time	60.00reverse acquisition time	0.00gamma	496.2192k internal	0.2298k external	0.2298temperature offset calibration	0.9956default loss term (dB/km)	0.3790temperature slope calibration	1.0000multiplexer offset coefficient	1.0000multiplexer slope coefficient	1.0000fibre end	0.00T internal ref (°C)	36.97T ext. ref 1 (°C)	12.78T ext. ref 2 (°C)	33.71length (m)	temperature (°C)	Stokes	anti-Stokes-747.200	-51.586	0.352	-0.168
-746.185	-200.000	0.047	0.254
-745.171	-200.000	0.010	0.625
-744.156	-200.000	0.076	0.453
-743.142	-171.443	0.334	-0.011
-742.127	-200.000	0.033	0.163
-741.112	170.581	0.153	0.223
-740.098	-34.063	0.545	0.306
-739.083	-144.376	0.272	-0.026
-738.069	800.000	-0.111	0.347
-737.054	-200.000	0.052	-0.314
-736.039	-200.000	0.015	-0.134
-735.025	218.390	0.224	0.365
-734.010	108.627	-0.145	-0.177
-732.996	-98.029	-0.101	-0.027
-731.981	34.882	-0.215	-0.192
-730.966	-139.649	0.222	-0.024
-729.952	177.862	-0.138	-0.205
-728.937	143.463	0.090	0.122
-727.923	79.389	-0.222	-0.243
-726.908	-110.703	0.134	-0.028
-725.894	199.215	-0.021	0.033
-724.879	-25.051	-0.138	0.084
-723.864	-200.000	0.010	-0.407
-722.850	800.000	-0.024	-0.072
-721.835	211.157	0.023	0.037
-720.821	692.399	-0.055	-0.148
-719.806	800.000	-0.019	-0.057
-718.791	-44.461	-0.337	0.172
-717.777	326.199	0.128	-0.249
-716.762	466.212	-0.043	-0.098
-715.748	13.275	-0.201	0.159
-714.733	-39.614	-0.183	0.098
-713.718	-50.759	-0.182	-0.087
-712.704	153.986	-0.211	-0.295
-711.689	-43.752	-0.104	0.054
-710.675	-86.006	0.248	0.078
-709.660	51.582	0.132	0.128
-708.645	210.845	0.129	-0.207
-707.631	589.684	0.258	-0.649
-706.616	-65.453	-0.080	-0.033
-705.602	-145.785	-0.247	-0.022
-704.587	-200.000	0.014	-0.109
-703.572	179.822	0.027	-0.040
-702.558	800.000	0.041	-0.140
-701.543	63.456	-0.084	0.086
-700.529	96.371	0.134	-0.157
-699.514	-32.679	0.205	-0.116
-698.499	196.840	0.029	-0.046
-697.485	800.000	-0.065	-0.215
-696.470	-200.000	0.324	0.000
-695.456	40.577	0.111	-0.102
-694.441	227.201	0.181	-0.300
-693.426	-59.095	-0.147	-0.064
-692.412	285.845	0.039	-0.072
-691.397	-104.126	0.166	-0.039
-690.383	-200.000	-0.008	-0.313
-689.368	-200.000	0.023	0.133
-688.354	566.959	-0.081	-0.201
-687.339	-131.000	0.150	0.020
-686.324	561.605	0.023	-0.057
-685.310	-108.043	0.072	-0.016
-684.295	-200.000	0.048	-0.236
-683.281	-8.284	-0.187	0.128
-682.266	-154.624	0.227	-0.015
-681.251	-0.097	-0.201	-0.146
-680.237	-200.000	-0.002	0.188
-679.222	222.411	0.020	-0.032
-678.208	-34.193	-0.156	-0.087
-677.193	-200.000	0.011	-0.234
-676.178	-100.700	0.261	-0.065
-675.164	-47.935	-0.053	-0.026
-674.149	383.825	0.157	-0.329
-673.135	-158.585	0.252	-0.015
-672.120	42.394	-0.309	-0.286
-671.105	232.773	0.183	0.306
-670.091	-200.000	0.022	-0.430
-669.076	513.186	-0.109	-0.258
-668.062	-27.583	-0.064	0.038
-667.047	-60.588	-0.208	-0.090
-666.032	121.277	-0.176	-0.223
-665.018	53.430	0.179	-0.175
-664.003	-87.937	0.354	0.108
-662.989	-143.297	0.101	-0.010
-661.974	800.000	0.077	-0.222
-660.959	-33.047	-0.196	-0.111
-659.945	175.293	0.155	-0.229
-658.930	31.674	-0.123	0.108
-657.916	55.680	0.199	0.196
-656.901	20.546	-0.092	0.076
-655.886	800.000	0.022	-0.073
-654.872	-200.000	-0.012	-0.228
-653.857	-142.369	0.387	-0.039
-652.843	-129.083	-0.155	-0.022
-651.828	34.223	0.226	-0.201
-650.814	-200.000	0.026	0.126
-649.799	-64.302	0.261	0.108
-648.784	-33.402	-0.315	-0.177
-647.770	-108.965	-0.134	0.029
-646.755	-200.000	0.006	-0.086
-645.741	461.720	-0.057	-0.129
-644.726	211.986	-0.179	0.287
-643.711	-200.000	0.017	-0.090
-642.697	800.000	-0.114	0.335
-641.682	800.000	0.094	0.326
-640.668	-68.104	0.116	-0.046
-639.653	-6.853	-0.060	0.042
-638.638	-200.000	0.008	-0.074
-637.624	800.000	0.044	-0.137
-636.609	42.821	0.101	0.094
-635.595	156.575	0.117	-0.165
-634.580	41.930	0.216	0.200
-633.565	33.140	-0.162	0.143
-632.551	30.901	0.386	0.336
-631.536	-200.000	0.012	-0.106
-630.522	-200.000	0.029	-0.200
-629.507	73.840	-0.284	0.303
-628.492	800.000	0.064	0.187
-627.478	-200.000	0.045	-0.414
-626.463	-88.698	-0.074	-0.022
-625.449	98.913	0.124	0.145
-624.434	150.256	-0.092	0.126
-623.419	800.000	-0.032	-0.116
-622.405	-60.153	0.243	-0.105
-621.390	30.049	-0.171	-0.148
-620.376	800.000	-0.026	-0.095
-619.361	36.339	-0.210	-0.188
-618.346	-33.628	-0.065	0.036
-617.332	210.527	-0.072	-0.115
-616.317	116.530	0.101	-0.126
-615.303	-120.781	0.117	0.020
-614.288	-132.777	-0.297	-0.039
-613.273	644.800	-0.034	-0.088
-612.259	324.639	-0.058	-0.113
-611.244	161.174	0.118	-0.167
-610.230	594.696	0.051	-0.129
-609.215	360.558	-0.018	0.036
-608.201	-200.000	0.006	0.105
-607.186	107.193	0.070	-0.085
-606.171	543.435	-0.073	0.178
-605.157	800.000	-0.010	0.037
-604.142	-17.499	0.187	-0.119
-603.128	-87.811	-0.194	0.059
-602.113	-73.817	0.157	0.058
-601.098	-200.000	0.054	-0.269
-600.084	11.026	-0.137	0.106
-599.069	358.285	0.211	-0.428
-598.055	-106.300	-0.293	0.067
-597.040	-133.083	-0.228	-0.029
-596.025	-200.000	0.034	-0.270
-595.011	510.515	-0.112	0.264
-593.996	157.296	-0.050	0.071
-592.982	-45.233	0.103	-0.052
-591.967	289.191	-0.060	-0.110
-590.952	37.604	-0.143	0.128
-589.938	-32.009	-0.248	0.141
-588.923	-101.879	0.065	-0.016
-587.909	19.527	0.083	0.067
-586.894	-60.307	-0.264	0.114
-585.879	-107.616	-0.199	-0.044
-584.865	-62.741	0.187	-0.079
-583.850	-200.000	0.024	0.121
-582.836	760.560	0.121	-0.332
-581.821	-15.547	0.355	-0.230
-580.806	-37.637	0.203	-0.110
-579.792	60.247	0.303	-0.304
-578.777	-158.139	-0.341	0.020
-577.763	78.226	-0.101	-0.109
-576.748	-200.000	0.006	-0.063
-575.733	-102.978	-0.223	-0.054
-574.719	10.879	0.269	0.208
-573.704	-149.285	-0.149	0.012
-572.690	-163.090	0.493	0.024
-571.675	45.410	-0.316	0.296
-570.661	-25.466	-0.201	-0.120
-569.646	-85.326	0.172	0.054
-568.631	-86.219	0.197	0.062
-567.617	-46.907	0.072	-0.036
-566.602	242.485	-0.005	-0.008
-565.588	-200.000	-0.010	0.160
-564.573	98.976	-0.100	-0.117
-563.558	-31.000	-0.245	-0.140
-562.544	-200.000	0.022	-0.352
-561.529	-121.224	-0.517	0.088
-560.515	-135.451	-0.116	-0.014
-559.500	-200.000	0.020	-0.097
-558.485	211.389	0.090	0.143
-557.471	37.389	0.150	0.135
-556.456	355.973	0.114	-0.230
-555.442	389.130	-0.104	-0.219
-554.427	364.821	-0.071	-0.144
-553.412	269.383	0.027	-0.047
-552.398	124.934	-0.099	0.127
-551.383	7.193	-0.389	-0.295
-550.369	-200.000	0.002	0.061
-549.354	-31.598	-0.225	-0.128
-548.339	-7.542	0.323	0.221
-547.325	800.000	0.018	0.062
-546.310	-15.899	0.239	0.154
-545.296	-122.735	-0.283	-0.046
-544.281	224.674	-0.087	-0.143
-543.266	143.395	0.119	0.160
-542.252	-200.000	-0.016	-0.206
-541.237	-18.374	-0.323	-0.205
-540.223	176.008	-0.189	0.278
-539.208	-52.981	-0.311	-0.145
-538.193	2.176	0.184	-0.135
-537.179	-82.627	0.110	-0.036
-536.164	-200.000	-0.033	-0.193
-535.150	86.922	0.182	-0.203
-534.135	800.000	-0.070	-0.212
-533.121	800.000	-0.043	0.146
-532.106	-135.893	-0.147	-0.018
-531.091	-200.000	-0.046	0.278
-530.077	38.895	-0.066	0.059
-529.062	13.925	0.234	-0.184
-528.048	21.422	0.231	0.190
-527.033	-200.000	0.086	0.411
-526.018	170.900	-0.170	0.247
-525.004	-200.000	0.008	-0.052
-523.989	-69.857	-0.260	0.100
-522.975	-200.000	0.052	0.316
-521.960	-89.966	0.056	0.017
-520.945	-82.645	0.321	0.105
-519.931	191.945	0.158	-0.242
-518.916	-200.000	-0.050	-0.229
-517.902	-200.000	-0.038	0.175
-516.887	382.995	-0.120	-0.249
-515.872	-6.721	0.210	-0.145
-514.858	-200.000	0.013	-0.128
-513.843	-5.139	0.070	0.049
-512.829	-84.420	-0.170	-0.054
-511.814	-193.183	0.208	-0.002
-510.799	-57.775	0.192	0.085
-509.785	-142.954	-0.087	-0.009
-508.770	129.024	0.054	-0.069
-507.756	-200.000	0.006	-0.049
-506.741	-96.435	-0.154	0.041
-505.726	-61.606	-0.397	-0.169
-504.712	-200.000	-0.044	0.257
-503.697	94.128	0.032	-0.037
-502.683	395.482	-0.046	-0.096
-501.668	-98.121	0.235	0.061
-500.653	202.403	-0.032	-0.049
-499.639	-200.000	0.025	0.142
-498.624	800.000	-0.070	0.282
-497.610	109.795	0.175	0.212
-496.595	64.164	0.310	0.315
-495.581	-17.945	-0.272	-0.172
-494.566	74.343	0.133	0.141
-493.551	800.000	-0.107	-0.368
-492.537	-38.932	0.119	0.063
-491.522	245.824	0.188	0.320
-490.508	-106.408	-0.317	-0.072
-489.493	183.667	-0.308	-0.461
-488.478	208.992	-0.071	-0.112
-487.464	-119.928	-0.286	-0.050
-486.449	-112.900	-0.108	-0.022
-485.435	25.974	0.238	0.201
-484.420	17.870	0.265	-0.213
-483.405	800.000	0.034	0.098
-482.391	800.000	-0.078	-0.258
-481.376	-200.000	0.037	-0.207
-480.362	-151.080	-0.098	0.007
-479.347	-118.545	-0.330	-0.059
-478.332	-200.000	-0.023	-0.217
-477.318	-88.716	0.093	-0.028
-476.303	-147.422	0.217	-0.019
-475.289	800.000	0.060	-0.176
-474.274	43.583	-0.270	0.250
-473.259	-80.563	0.215	0.072
-472.245	194.949	0.270	-0.413
-471.230	-124.891	-0.122	-0.019
-470.216	337.293	-0.031	0.061
-469.201	-124.518	0.523	0.082
-468.186	-200.000	-0.012	-0.114
-467.172	-200.000	-0.027	0.172
-466.157	-187.282	0.268	-0.004
-465.143	175.277	0.111	-0.163
-464.128	-200.000	0.049	-0.276
-463.113	412.327	-0.028	0.059
-462.099	-115.127	-0.100	0.019
-461.084	800.000	0.125	-0.395
-460.070	-200.000	0.001	-0.168
-459.055	58.779	-0.138	0.137
-458.040	119.393	0.051	0.064
-457.026	-115.181	0.448	0.086
-456.011	800.000	0.083	0.334
-454.997	-53.103	-0.240	-0.111
-453.982	9.792	-0.226	-0.173
-452.968	33.812	-0.075	0.066
-451.953	-56.334	-0.276	-0.124
-450.938	282.606	-0.217	-0.393
-449.924	-173.216	-0.074	0.002
-448.909	-106.780	0.159	0.036
-447.895	-50.497	0.034	0.016
-446.880	-200.000	0.047	-0.237
-445.865	250.031	0.102	0.175
-444.851	-94.054	-0.216	-0.060
-443.836	-30.616	0.096	-0.055
-442.822	-140.046	0.187	-0.020
-441.807	-200.000	-0.017	-0.310
-440.792	-89.700	-0.098	0.029
-439.778	56.821	0.248	-0.244
-438.763	-200.000	0.008	0.142
-437.749	277.238	0.175	-0.314
-436.734	-140.158	-0.124	-0.013
-435.719	229.979	0.244	-0.402
-434.705	126.419	0.264	-0.337
-433.690	-144.933	0.226	0.021
-432.676	81.420	-0.106	0.116
-431.661	175.022	-0.066	-0.097
-430.646	-70.586	0.144	-0.055
-429.632	-92.944	-0.319	-0.090
-428.617	-100.014	0.404	-0.102
-427.603	-71.704	0.239	-0.090
-426.588	-6.366	-0.283	-0.195
-425.573	-200.000	0.005	-0.052
-424.559	800.000	-0.038	0.108
-423.544	177.692	0.023	-0.034
-422.530	-104.021	0.308	0.072
-421.515	-61.155	0.110	0.047
-420.500	115.872	-0.155	0.191
-419.486	-107.906	-0.265	-0.058
-418.471	137.143	0.109	0.144
-417.457	236.557	0.036	0.060
-416.442	-200.000	-0.016	0.364
-415.428	-43.812	0.147	-0.074
-414.413	-81.571	-0.148	-0.049
-413.398	263.845	-0.205	0.360
-412.384	610.178	0.112	0.283
-411.369	135.720	0.063	-0.083
-410.355	7.334	0.106	0.080
-409.340	25.522	0.119	0.100
-408.325	-200.000	0.039	-0.245
-407.311	-200.000	0.046	-0.335
-406.296	382.664	-0.130	0.270
-405.282	30.818	0.163	0.140
-404.267	800.000	-0.060	-0.176
-403.252	322.186	-0.122	-0.235
-402.238	267.745	0.180	-0.317
-401.223	170.396	0.242	-0.348
-400.209	-200.000	0.032	-0.262
-399.194	80.941	-0.400	-0.435
-398.179	20.075	-0.121	0.099
-397.165	12.678	0.272	0.211
-396.150	11.211	0.402	0.310
-395.136	800.000	-0.100	0.378
-394.121	-200.000	-0.010	0.291
-393.106	-69.516	0.154	0.059
-392.092	-22.002	0.300	0.184
-391.077	110.218	0.100	0.121
-390.063	-200.000	0.004	-0.197
-389.048	-200.000	-0.064	-0.430
-388.033	59.858	-0.162	0.161
-387.019	213.085	-0.087	0.138
-386.004	-107.770	-0.075	0.017
-384.990	-200.000	-0.058	-0.379
-383.975	68.953	0.313	-0.324
-382.960	-87.650	-0.136	0.041
-381.946	800.000	0.045	0.188
-380.931	-133.751	-0.107	-0.013
-379.917	800.000	0.076	0.234
-378.902	251.014	0.088	0.150
-377.888	543.158	0.040	0.097
-376.873	284.359	0.246	-0.445
-375.858	-120.913	-0.059	-0.010
-374.844	800.000	0.129	0.392
-373.829	-162.987	0.312	-0.015
-372.815	-119.053	0.176	-0.031
-371.800	-200.000	0.008	-0.076
-370.785	-116.360	0.028	-0.005
-369.771	-200.000	0.001	0.111
-368.756	91.982	-0.123	-0.140
-367.742	-115.982	-0.235	0.044
-366.727	125.391	0.333	0.423
-365.712	800.000	-0.006	-0.018
-364.698	-145.293	-0.167	0.015
-363.683	90.609	-0.098	-0.111
-362.669	-159.309	0.360	-0.020
-361.654	96.275	-0.135	-0.155
-360.639	-169.134	-0.431	0.016
-359.625	38.964	0.103	0.092
-358.610	-90.881	-0.396	0.115
-357.596	-19.606	0.121	-0.075
-356.581	5.662	0.151	0.112
-355.566	713.779	0.022	-0.060
-354.552	-200.000	-0.003	0.037
-353.537	-67.428	0.077	0.031
-352.523	41.322	-0.095	0.087
-351.508	800.000	-0.075	0.304
-350.493	-85.902	-0.124	-0.039
-349.479	-142.980	0.384	-0.037
-348.464	-64.105	-0.266	0.109
-347.450	12.974	0.125	-0.098
-346.435	-152.661	-0.030	-0.002
-345.420	-200.000	-0.011	0.186
-344.406	-160.538	-0.236	0.013
-343.391	574.636	0.029	0.072
-342.377	800.000	0.059	0.178
-341.362	256.340	-0.129	0.223
-340.348	800.000	0.044	-0.177
-339.333	0.371	-0.183	-0.131
-338.318	-153.665	0.495	-0.034
-337.304	-156.828	-0.330	0.020
-336.289	-19.521	0.319	-0.199
-335.275	37.092	-0.346	0.307
-334.260	-3.988	0.097	-0.068
-333.245	20.601	0.149	0.121
-332.231	-85.569	0.123	-0.038
-331.216	-18.435	0.333	-0.209
-330.202	310.482	-0.034	-0.064
-329.187	800.000	-0.068	-0.262
-328.172	-200.000	0.007	0.126
-327.158	9.888	-0.265	0.202
-326.143	47.498	-0.362	-0.339
-325.129	-200.000	-0.027	0.273
-324.114	135.639	-0.257	0.336
-323.099	326.753	0.016	-0.030
-322.085	800.000	-0.099	0.277
-321.070	227.912	-0.085	-0.139
-320.056	87.458	-0.123	-0.137
-319.041	-118.238	0.340	0.061
-318.026	-200.000	0.043	0.193
-317.012	-200.000	0.013	0.120
-315.997	-34.800	0.175	-0.096
-314.983	199.609	-0.161	-0.248
-313.968	-148.994	0.257	-0.021
-312.953	339.588	-0.153	-0.299
-311.939	158.707	0.077	0.108
-310.924	-200.000	-0.024	0.261
-309.910	-52.663	-0.218	0.101
-308.895	-200.000	-0.058	0.267
-307.880	204.600	-0.093	-0.145
-306.866	2.172	-0.193	-0.140
-305.851	336.349	0.154	-0.299
-304.837	221.400	0.175	0.283
-303.822	95.498	0.067	-0.077
-302.807	800.000	0.087	-0.308
-301.793	800.000	-0.091	-0.261
-300.778	-200.000	0.074	0.338
-299.764	-122.124	-0.409	-0.067
-298.749	-165.582	-0.363	0.016
-297.735	-68.265	-0.111	-0.043
-296.720	-200.000	-0.004	0.178
-295.705	-26.712	0.145	0.085
-294.691	32.664	-0.132	-0.114
-293.676	-200.000	-0.036	-0.246
-292.662	512.650	0.088	-0.206
-291.647	2.528	-0.251	0.182
-290.632	-98.092	0.084	0.022
-289.618	800.000	0.048	0.184
-288.603	304.171	0.190	0.353
-287.589	-93.803	0.489	0.135
-286.574	23.365	-0.246	0.202
-285.559	-132.124	0.093	0.012
-284.545	800.000	0.065	0.264
-283.530	-97.358	-0.142	0.037
-282.516	673.313	-0.089	-0.232
-281.501	4.387	-0.206	-0.152
-280.486	-142.406	-0.190	0.019
-279.472	-78.976	-0.213	0.073
-278.457	172.594	-0.210	-0.304
-277.443	400.225	0.044	-0.093
-276.428	-113.917	-0.152	-0.029
-275.413	-140.617	-0.083	0.009
-274.399	-22.927	-0.107	-0.065
-273.384	363.362	0.079	-0.159
-272.370	-200.000	-0.060	0.292
-271.355	800.000	-0.057	0.208
-270.340	429.117	0.130	-0.282
-269.326	-62.023	0.254	0.106
-268.311	-123.842	-0.261	0.041
-267.297	800.000	0.088	-0.245
-266.282	152.357	-0.104	-0.142
-265.267	-27.982	0.275	0.160
-264.253	313.460	0.159	0.300
-263.238	-200.000	-0.015	0.070
-262.224	-71.747	-0.257	0.096
-261.209	64.263	-0.167	0.169
-260.195	-50.313	-0.148	-0.070
-259.180	800.000	0.121	0.447
-258.165	800.000	0.047	0.188
-257.151	-36.131	0.180	0.097
-256.136	-46.544	0.053	-0.026
-255.122	0.415	-0.122	0.087
-254.107	-73.878	-0.086	0.031
-253.092	166.284	-0.203	-0.288
-252.078	-61.007	0.006	0.003
-251.063	696.295	0.191	0.504
-250.049	-200.000	0.001	-0.054
-249.034	-83.525	-0.098	0.031
-248.019	-56.088	-0.342	0.152
-247.005	-119.255	0.203	0.035
-245.990	800.000	0.016	0.057
-244.976	12.972	0.220	0.170
-243.961	72.339	0.097	0.101
-242.946	800.000	0.121	0.360
-241.932	227.370	-0.172	-0.280
-240.917	-200.000	0.005	-0.245
-239.903	-200.000	0.055	0.339
-238.888	-49.204	-0.120	0.057
-237.873	-14.463	-0.198	0.128
-236.859	-100.819	-0.153	0.038
-235.844	181.803	0.053	-0.078
-234.830	-41.022	-0.109	0.056
-233.815	747.779	0.114	-0.306
-232.800	54.831	0.180	0.173
-231.786	-200.000	0.004	0.179
-230.771	611.086	-0.179	0.448
-229.757	-109.700	-0.094	0.020
-228.742	402.340	0.055	-0.117
-227.727	-118.982	0.345	-0.061
-226.713	-200.000	0.034	0.369
-225.698	628.674	0.061	-0.154
-224.684	-200.000	-0.025	-0.227
-223.669	-108.375	0.234	-0.051
-222.655	-35.427	-0.118	0.064
-221.640	346.243	-0.031	-0.062
-220.625	-62.891	-0.192	-0.079
-219.611	774.854	0.094	-0.257
-218.596	5.669	0.367	0.271
-217.582	54.776	0.348	-0.336
-216.567	-200.000	-0.075	-0.477
-215.552	72.196	-0.296	0.308
-214.538	5.423	0.103	0.076
-213.523	-112.507	-0.178	0.035
-212.509	-180.157	0.200	0.004
-211.494	800.000	-0.053	-0.164
-210.479	9.044	0.052	-0.039
-209.465	-200.000	0.103	0.553
-208.450	405.190	0.101	-0.213
-207.436	-200.000	0.014	0.083
-206.421	800.000	-0.069	0.215
-205.406	-76.191	-0.176	-0.062
-204.392	-87.671	-0.154	-0.047
-203.377	55.882	-0.220	-0.213
-202.363	-157.729	-0.209	-0.012
-201.348	-42.327	0.343	0.175
-200.333	800.000	-0.074	0.216
-199.319	3.657	0.093	0.068
-198.304	-200.000	-0.015	0.256
-197.290	248.620	0.036	-0.060
-196.275	-200.000	0.001	-0.031
-195.260	30.811	0.335	-0.286
-194.246	90.533	0.105	-0.118
-193.231	475.180	-0.057	0.130
-192.217	-200.000	0.068	-0.358
-191.202	-200.000	0.021	-0.119
-190.187	-200.000	0.018	0.449
-189.173	-26.470	-0.258	-0.151
-188.158	-76.368	0.372	0.131
-187.144	800.000	0.091	0.278
-186.129	-107.439	0.097	-0.021
-185.114	-200.000	-0.005	-0.026
-184.100	-200.000	0.004	0.114
-183.085	-185.744	-0.292	0.004
-182.071	-159.235	0.129	-0.007
-181.056	-84.747	0.197	0.062
-180.042	775.840	-0.082	0.223
-179.027	87.804	-0.356	0.394
-178.012	-200.000	0.034	-0.157
-176.998	49.575	0.261	0.246
-175.983	800.000	0.088	-0.290
-174.969	-19.765	-0.083	-0.051
-173.954	505.911	-0.070	0.162
-172.939	17.550	-0.246	-0.196
-171.925	33.158	-0.174	-0.150
-170.910	-77.811	-0.457	-0.158
-169.896	83.329	0.091	0.099
-168.881	-93.021	0.220	-0.061
-167.866	30.101	0.126	0.108
-166.852	-10.071	0.017	0.011
-165.837	738.422	0.042	-0.112
-164.823	160.622	-0.065	0.090
-163.808	-200.000	0.005	0.095
-162.793	-46.305	0.258	0.127
-161.779	22.609	-0.133	-0.109
-160.764	-130.495	0.307	-0.041
-159.750	-9.758	0.268	-0.178
-158.735	-60.868	-0.337	-0.142
-157.720	-111.474	0.239	0.048
-156.706	302.440	0.095	0.175
-155.691	313.330	-0.210	0.395
-154.677	-41.537	-0.307	0.157
-153.662	-166.126	-0.416	-0.018
-152.647	-10.340	0.180	0.119
-151.633	800.000	0.050	-0.185
-150.618	800.000	-0.135	-0.516
-149.604	-152.778	0.210	0.015
-148.589	84.506	-0.230	-0.251
-147.574	59.157	0.097	-0.095
-146.560	-0.164	-0.179	0.127
-145.545	-2.362	0.050	0.035
-144.531	3.231	0.151	-0.110
-143.516	-200.000	-0.020	-0.131
-142.502	-68.724	0.160	-0.062
-141.487	-58.801	0.261	-0.113
-140.472	-78.705	0.285	-0.097
-139.458	-122.133	-0.165	0.027
-138.443	83.287	-0.072	-0.079
-137.429	102.671	0.134	-0.156
-136.414	-200.000	-0.005	0.110
-135.399	280.941	-0.025	0.045
-134.385	78.663	0.201	0.214
-133.370	295.916	0.043	-0.079
-132.356	-167.277	-0.297	-0.012
-131.341	-61.650	0.200	-0.084
-130.326	-137.939	0.050	-0.006
-129.312	354.697	-0.059	-0.116
-128.297	29.792	0.320	0.272
-127.283	800.000	-0.060	-0.224
-126.268	135.095	0.154	-0.199
-125.253	-200.000	0.046	-0.288
-124.239	-38.962	0.251	0.132
-123.224	3.963	-0.106	0.077
-122.210	90.575	-0.064	-0.071
-121.195	39.996	0.146	0.131
