DTS Sentinel unit serial number:	SN413079Multiplexer serial number:	ORYXHardware model number:	OX4-SRSoftware version number:	ORYX F/W v4.00 Oryx Data Collector v3.7.2.0data status	okinstallation	princeton_trtdifferential loss correction	single-endedforward channel	channel 4reverse channel	N/Adate	2019/09/16time	10:05:35forward acquisition time	60.00reverse acquisition time	0.00gamma	496.2192k internal	0.2303k external	0.2303temperature offset calibration	0.9957default loss term (dB/km)	0.3790temperature slope calibration	1.0000multiplexer offset coefficient	1.0000multiplexer slope coefficient	1.0000fibre end	0.00T internal ref (°C)	33.75T ext. ref 1 (°C)	12.42T ext. ref 2 (°C)	32.39length (m)	temperature (°C)	Stokes	anti-Stokes-747.200	-53.148	0.181	0.085
-746.185	25.958	-0.054	0.046
-745.171	-107.252	0.291	-0.065
-744.156	-19.838	0.217	-0.136
-743.142	173.208	0.177	0.259
-742.127	101.584	0.023	0.027
-741.112	-200.000	-0.006	-0.090
-740.098	-62.690	-0.279	0.118
-739.083	-56.973	0.392	-0.176
-738.069	-200.000	0.074	0.441
-737.054	10.248	-0.211	0.164
-736.039	334.080	0.080	0.157
-735.025	-76.486	-0.051	0.018
-734.010	-99.249	-0.104	0.027
-732.996	-18.797	-0.185	-0.118
-731.981	-200.000	0.035	0.236
-730.966	174.472	-0.182	0.268
-729.952	40.098	-0.158	-0.145
-728.937	-126.842	-0.231	0.035
-727.923	-70.564	-0.148	-0.057
-726.908	31.756	-0.207	0.181
-725.894	88.726	-0.214	-0.242
-724.879	-94.248	-0.078	0.022
-723.864	1.490	-0.165	0.121
-722.850	800.000	-0.050	0.173
-721.835	-200.000	-0.016	0.162
-720.821	-47.873	-0.192	0.094
-719.806	-61.682	0.314	0.134
-718.791	69.357	-0.157	0.165
-717.777	67.177	-0.167	-0.173
-716.762	72.686	-0.129	-0.137
-715.748	-77.229	0.389	0.138
-714.733	535.288	0.101	-0.243
-713.718	90.711	-0.230	-0.262
-712.704	-163.152	-0.252	0.012
-711.689	-150.520	0.059	-0.005
-710.675	503.731	0.138	-0.324
-709.660	-45.548	0.181	-0.091
-708.645	130.916	-0.097	0.126
-707.631	800.000	0.019	-0.071
-706.616	-122.456	-0.208	-0.035
-705.602	152.215	-0.073	-0.102
-704.587	-97.308	-0.074	-0.020
-703.572	-77.927	0.390	-0.137
-702.558	364.237	0.240	-0.490
-701.543	-16.904	0.060	0.039
-700.529	573.335	-0.039	-0.097
-699.514	4.758	-0.080	0.060
-698.499	189.058	0.081	-0.123
-697.485	-55.682	-0.246	-0.112
-696.470	298.118	0.163	-0.305
-695.456	-200.000	0.046	0.231
-694.441	800.000	-0.137	-0.543
-693.426	115.168	-0.091	-0.112
-692.412	7.143	0.027	0.020
-691.397	-138.223	0.131	-0.015
-690.383	-77.408	-0.332	-0.117
-689.368	800.000	-0.031	0.123
-688.354	-36.752	-0.065	-0.036
-687.339	729.966	-0.120	0.326
-686.324	-127.596	-0.372	0.055
-685.310	-87.330	-0.089	-0.027
-684.295	-105.626	-0.081	0.019
-683.281	-87.703	0.351	-0.108
-682.266	66.994	-0.184	-0.190
-681.251	-90.336	-0.115	0.034
-680.237	-129.734	0.090	-0.013
-679.222	275.076	0.182	-0.327
-678.208	6.967	-0.401	-0.303
-677.193	-200.000	0.011	-0.218
-676.178	77.623	-0.174	0.188
-675.164	-51.060	-0.213	0.101
-674.149	262.861	-0.179	0.315
-673.135	-200.000	-0.006	0.168
-672.120	800.000	0.076	-0.258
-671.105	66.898	-0.080	0.083
-670.091	188.561	-0.036	-0.054
-669.076	245.561	0.066	0.112
-668.062	355.519	0.098	-0.199
-667.047	-102.582	-0.137	-0.033
-666.032	800.000	-0.010	0.039
-665.018	-21.637	-0.075	0.046
-664.003	211.266	-0.020	0.032
-662.989	73.806	0.175	-0.187
-661.974	-200.000	0.020	-0.135
-660.959	300.686	0.103	-0.194
-659.945	-180.058	0.157	-0.003
-658.930	800.000	0.105	0.431
-657.916	-82.505	0.198	-0.065
-656.901	-200.000	-0.016	-0.313
-655.886	-85.731	-0.114	0.036
-654.872	154.038	0.178	0.248
-653.857	159.081	0.141	0.199
-652.843	-1.381	0.096	-0.069
-651.828	254.947	0.133	0.232
-650.814	21.788	0.095	0.079
-649.799	132.882	0.216	-0.282
-648.784	617.324	0.063	0.161
-647.770	-23.830	-0.227	0.138
-646.755	63.568	0.229	0.233
-645.741	259.549	-0.259	-0.453
-644.726	179.862	0.191	0.285
-643.711	-200.000	0.032	0.216
-642.697	370.387	-0.092	0.190
-641.682	-51.935	0.329	-0.155
-640.668	800.000	0.025	0.089
-639.653	-200.000	0.020	0.130
-638.638	-200.000	-0.031	-0.413
-637.624	-76.407	0.172	0.061
-636.609	-42.252	-0.341	0.177
-635.595	-151.742	0.077	-0.006
-634.580	57.833	-0.145	0.144
-633.565	72.585	0.110	-0.116
-632.551	-140.273	0.339	-0.036
-631.536	184.493	0.248	-0.373
-630.522	-36.191	-0.089	-0.049
-629.507	-16.578	0.153	-0.099
-628.492	-186.304	-0.073	0.001
-627.478	-16.999	-0.238	-0.152
-626.463	-139.782	-0.179	-0.019
-625.449	-91.082	-0.258	-0.075
-624.434	-200.000	-0.051	-0.259
-623.419	-101.993	-0.096	-0.024
-622.405	-19.141	0.195	0.123
-621.390	20.762	-0.069	0.056
-620.376	-33.531	-0.220	-0.123
-619.361	-9.096	0.185	-0.126
-618.346	147.028	-0.263	-0.358
-617.332	125.464	0.088	-0.112
-616.317	-102.906	-0.024	0.006
-615.303	-42.706	-0.197	-0.102
-614.288	27.424	-0.160	0.136
-613.273	-200.000	0.039	0.225
-612.259	800.000	0.055	-0.162
-611.244	296.450	-0.139	-0.259
-610.230	-120.655	-0.085	0.015
-609.215	271.539	0.084	-0.149
-608.201	-54.396	0.201	0.092
-607.186	-65.826	-0.147	-0.060
-606.171	60.334	-0.190	-0.191
-605.157	800.000	-0.067	0.215
-604.142	-55.284	0.088	0.040
-603.128	-43.353	-0.300	-0.154
-602.113	-144.600	0.320	-0.030
-601.098	-200.000	0.087	0.427
-600.084	2.571	0.175	-0.128
-599.069	106.828	0.080	-0.096
-598.055	-200.000	0.004	0.070
-597.040	800.000	-0.067	0.192
-596.025	-90.817	-0.066	0.019
-595.011	43.389	-0.097	0.090
-593.996	599.217	-0.057	0.144
-592.982	-30.575	0.249	-0.143
-591.967	-57.583	-0.131	0.058
-590.952	800.000	-0.043	0.125
-589.938	6.577	0.203	-0.153
-588.923	-131.688	-0.204	-0.027
-587.909	800.000	-0.016	0.051
-586.894	-76.461	-0.132	-0.047
-585.879	18.962	0.232	-0.189
-584.865	68.901	0.067	-0.069
-583.850	800.000	-0.065	-0.185
-582.836	-200.000	-0.021	-0.231
-581.821	47.242	0.131	-0.123
-580.806	-10.827	0.304	0.203
-579.792	5.349	-0.075	0.056
-578.777	800.000	0.024	-0.104
-577.763	-31.664	-0.226	-0.129
-576.748	401.057	-0.050	-0.106
-575.733	-200.000	-0.007	0.234
-574.719	-39.560	0.058	0.031
-573.704	178.210	0.249	0.368
-572.690	-89.495	-0.213	-0.063
-571.675	435.686	-0.096	0.211
-570.661	-146.471	-0.204	0.018
-569.646	-200.000	-0.056	-0.342
-568.631	-100.142	0.308	0.078
-567.617	-200.000	0.001	-0.304
-566.602	-24.168	0.204	-0.123
-565.588	-87.417	0.059	0.018
-564.573	-12.387	0.192	0.127
-563.558	262.408	-0.195	0.341
-562.544	-56.014	-0.088	-0.040
-561.529	-122.227	0.395	-0.065
-560.515	800.000	-0.149	-0.435
-559.500	-92.806	-0.259	0.073
-558.485	69.293	-0.182	-0.190
-557.471	-200.000	-0.002	-0.035
-556.456	-24.369	-0.263	-0.159
-555.442	5.282	-0.310	-0.231
-554.427	42.253	0.058	0.053
-553.412	-200.000	-0.007	0.059
-552.398	-104.014	0.271	0.064
-551.383	-200.000	-0.017	-0.154
-550.369	-100.834	0.257	-0.064
-549.354	-200.000	-0.012	0.064
-548.339	-200.000	0.026	0.146
-547.325	-52.785	0.227	0.106
-546.310	62.643	0.083	-0.084
-545.296	-33.495	-0.267	-0.149
-544.281	101.585	-0.269	0.317
-543.266	-200.000	-0.004	0.173
-542.252	800.000	0.042	-0.176
-541.237	800.000	0.129	0.447
-540.223	-200.000	-0.040	0.190
-539.208	-200.000	0.003	-0.234
-538.193	-200.000	-0.002	-0.169
-537.179	-169.390	-0.187	-0.007
-536.164	-151.303	-0.116	0.009
-535.150	-61.009	-0.225	0.096
-534.135	-35.688	-0.190	-0.104
-533.121	-200.000	-0.025	0.238
-532.106	-173.364	0.067	-0.002
-531.091	63.892	0.301	-0.306
-530.077	-200.000	-0.020	-0.285
-529.062	-158.453	0.274	0.016
-528.048	-200.000	0.058	-0.289
-527.033	-94.508	0.124	0.034
-526.018	168.344	0.080	0.114
-525.004	-49.422	-0.121	-0.058
-523.989	-11.471	-0.313	-0.208
-522.975	-200.000	0.001	-0.219
-521.960	-200.000	-0.049	-0.322
-520.945	-110.673	-0.241	-0.050
-519.931	-60.908	-0.263	0.112
-518.916	63.616	0.015	-0.015
-517.902	-117.280	-0.388	-0.071
-516.887	-52.355	-0.215	0.100
-515.872	-138.734	-0.259	-0.029
-514.858	-200.000	0.016	0.157
-513.843	485.310	0.046	0.106
-512.829	641.934	0.044	-0.113
-511.814	36.047	0.175	0.156
-510.799	-178.129	-0.061	-0.001
-509.785	800.000	-0.074	-0.280
-508.770	469.016	-0.056	-0.126
-507.756	-200.000	-0.018	0.140
-506.741	582.849	0.094	-0.233
-505.726	399.351	0.097	0.204
-504.712	63.245	-0.132	-0.134
-503.697	800.000	-0.091	-0.259
-502.683	-200.000	0.034	0.250
-501.668	37.410	-0.252	0.225
-500.653	-200.000	-0.005	0.343
-499.639	172.281	-0.182	0.264
-498.624	59.181	-0.008	0.008
-497.610	72.787	0.196	0.206
-496.595	251.593	0.127	-0.218
-495.581	313.166	-0.113	-0.215
-494.566	192.958	0.284	-0.433
-493.551	-200.000	-0.045	-0.244
-492.537	800.000	0.022	-0.094
-491.522	-200.000	-0.035	0.165
-490.508	-24.066	-0.161	0.097
-489.493	-6.200	-0.168	-0.116
-488.478	-165.520	-0.232	-0.010
-487.464	-71.333	0.334	0.126
-486.449	-200.000	-0.008	-0.298
-485.435	324.322	-0.108	0.207
-484.420	-43.192	0.146	0.074
-483.405	-200.000	-0.004	0.197
-482.391	772.150	0.067	0.185
-481.376	-200.000	-0.030	-0.241
-480.362	2.450	0.013	-0.009
-479.347	26.471	0.188	0.158
-478.332	-185.957	-0.098	-0.001
-477.318	-134.751	0.479	-0.059
-476.303	-200.000	-0.016	-0.119
-475.289	-200.000	0.040	-0.196
-474.274	-34.285	0.062	-0.034
-473.259	-5.463	-0.354	-0.245
-472.245	-131.444	-0.228	-0.030
-471.230	-10.610	-0.251	-0.168
-470.216	60.155	0.218	0.218
-469.201	-20.986	0.052	-0.032
-468.186	79.055	-0.313	-0.338
-467.172	-200.000	-0.012	-0.406
-466.157	800.000	0.054	0.232
-465.143	6.150	-0.105	0.079
-464.128	-200.000	-0.042	-0.239
-463.113	-27.252	0.089	-0.052
-462.099	800.000	-0.049	-0.147
-461.084	180.075	0.078	-0.115
-460.070	273.982	-0.117	-0.208
-459.055	138.226	0.074	-0.098
-458.040	-200.000	0.086	-0.441
-457.026	-200.000	0.004	-0.095
-456.011	-140.720	0.277	-0.029
-454.997	538.964	-0.080	-0.192
-453.982	-200.000	-0.018	0.110
-452.968	50.569	-0.127	-0.121
-451.953	-107.226	-0.197	0.044
-450.938	504.784	0.169	0.394
-449.924	24.593	0.194	0.162
-448.909	-135.984	-0.386	0.046
-447.895	-34.428	-0.078	0.043
-446.880	-90.244	-0.345	0.101
-445.865	800.000	0.070	-0.232
-444.851	698.452	-0.016	-0.043
-443.836	588.416	0.066	0.163
-442.822	45.130	-0.210	-0.195
-441.807	95.997	0.025	0.029
-440.792	-177.455	-0.055	0.001
-439.778	153.143	-0.100	0.137
-438.763	-117.988	0.169	-0.030
-437.749	-127.922	-0.132	0.019
-436.734	150.753	0.057	-0.078
-435.719	93.802	0.050	0.057
-434.705	-4.391	-0.279	-0.194
-433.690	107.156	0.086	-0.103
-432.676	-56.327	0.496	-0.222
-431.661	349.714	0.057	0.114
-430.646	-200.000	-0.002	0.217
-429.632	793.832	-0.074	-0.204
-428.617	-128.550	0.231	-0.033
-427.603	-31.678	-0.167	0.094
-426.588	159.548	0.246	-0.345
-425.573	20.219	0.020	-0.016
-424.559	293.480	0.151	0.277
-423.544	800.000	0.124	0.465
-422.530	134.899	-0.155	0.203
-421.515	8.698	0.071	-0.054
-420.500	-200.000	0.028	-0.195
-419.486	23.636	-0.137	0.114
-418.471	-43.484	0.389	0.197
-417.457	800.000	0.061	0.173
-416.442	-116.835	0.115	-0.021
-415.428	-158.025	-0.255	-0.015
-414.413	-127.193	0.113	0.017
-413.398	306.825	-0.128	-0.241
-412.384	-14.658	-0.090	0.058
-411.369	-59.295	-0.320	-0.138
-410.355	36.413	-0.109	-0.097
-409.340	-153.365	-0.174	0.012
-408.325	-200.000	-0.009	-0.157
-407.311	22.698	-0.244	0.200
-406.296	9.719	0.137	0.104
-405.282	-6.826	-0.148	0.101
-404.267	-89.391	-0.261	0.077
-403.252	-30.227	-0.072	0.041
-402.238	-87.975	0.228	0.069
-401.223	688.039	-0.029	-0.077
-400.209	-200.000	0.028	0.270
-399.194	688.579	-0.086	0.225
-398.179	391.552	0.075	-0.156
-397.165	-147.973	0.163	-0.014
-396.150	-114.243	-0.147	-0.028
-395.136	83.521	-0.066	-0.072
-394.121	-70.494	-0.061	-0.023
-393.106	-151.689	0.366	-0.027
-392.092	210.187	-0.124	0.196
-391.077	3.007	0.168	0.122
-390.063	125.881	-0.158	-0.201
-389.048	720.591	-0.061	0.162
-388.033	137.245	-0.186	0.244
-387.019	4.640	0.170	-0.126
-386.004	25.738	0.149	-0.125
-384.990	315.441	-0.146	0.276
-383.975	-79.019	0.305	0.104
-382.960	138.371	-0.111	-0.146
-381.946	-200.000	0.001	-0.065
-380.931	362.216	-0.065	-0.132
-379.917	39.086	-0.199	0.179
-378.902	800.000	-0.034	0.122
-377.888	-87.390	-0.091	-0.028
-376.873	800.000	0.086	-0.290
-375.858	60.170	-0.110	-0.109
-374.844	-137.063	0.194	-0.022
-373.829	-107.764	0.164	-0.036
-372.815	-23.480	0.071	-0.043
-371.800	315.419	-0.147	0.278
-370.785	58.630	0.138	0.136
-369.771	800.000	0.079	-0.305
-368.756	242.749	0.132	-0.222
-367.742	-200.000	0.026	0.125
-366.727	-123.436	0.224	-0.036
-365.712	144.499	-0.132	-0.177
-364.698	396.428	0.067	0.140
-363.683	107.729	-0.166	-0.199
-362.669	37.271	-0.391	0.348
-361.654	-112.064	-0.118	0.024
-360.639	-134.351	0.141	-0.017
-359.625	-73.647	0.377	-0.138
-358.610	800.000	0.050	0.220
-357.596	-71.848	0.232	0.087
-356.581	-118.619	-0.085	-0.015
-355.566	-64.958	0.294	-0.119
-354.552	-200.000	0.074	-0.332
-353.537	-97.419	-0.207	0.054
-352.523	800.000	0.055	-0.167
-351.508	-76.111	-0.223	-0.079
-350.493	800.000	0.035	0.110
-349.479	800.000	-0.043	-0.125
-348.464	553.359	0.026	0.062
-347.450	281.629	0.010	0.018
-346.435	30.837	0.088	0.075
-345.420	278.935	-0.044	-0.080
-344.406	800.000	0.052	0.160
-343.391	-44.913	0.065	-0.033
-342.377	-123.200	0.184	0.030
-341.362	54.474	0.255	-0.246
-340.348	-22.044	0.373	0.227
-339.333	-200.000	0.090	-0.482
-338.318	193.799	0.010	-0.015
-337.304	-0.140	0.134	-0.095
-336.289	800.000	0.096	-0.353
-335.275	-200.000	0.013	-0.299
-334.260	5.253	-0.267	-0.197
-333.245	74.123	-0.124	-0.130
-332.231	81.699	-0.033	0.035
-331.216	8.867	0.088	0.066
-330.202	305.586	-0.061	-0.114
-329.187	-82.116	0.082	-0.027
-328.172	800.000	-0.063	0.179
-327.158	-110.663	0.129	-0.027
-326.143	-123.476	0.108	0.017
-325.129	-126.411	0.346	-0.052
-324.114	-200.000	-0.006	-0.072
-323.099	-200.000	0.021	-0.275
-322.085	-83.862	-0.153	0.049
-321.070	-79.232	-0.202	-0.069
-320.056	25.699	0.362	0.302
-319.041	20.877	0.238	0.193
-318.026	185.718	0.143	0.213
-317.012	-200.000	0.018	0.145
-315.997	-200.000	-0.030	-0.320
-314.983	-3.206	-0.242	-0.169
-313.968	199.058	-0.242	0.371
-312.953	-67.498	-0.175	0.069
-311.939	-4.271	0.104	-0.072
-310.924	-135.256	0.185	0.022
-309.910	-76.473	-0.190	0.067
-308.895	-110.826	-0.228	0.047
-307.880	357.285	0.037	0.075
-306.866	-200.000	0.040	0.206
-305.851	135.366	-0.295	0.384
-304.837	-124.843	0.119	-0.018
-303.822	-122.380	-0.134	-0.022
-302.807	800.000	-0.020	0.086
-301.793	-157.720	-0.381	0.023
-300.778	-200.000	0.019	0.095
-299.764	-61.989	-0.497	-0.208
-298.749	-121.584	0.087	-0.014
-297.735	-79.874	-0.213	-0.072
-296.720	520.399	-0.127	0.299
-295.705	-168.138	-0.134	0.005
-294.691	800.000	0.111	0.417
-293.676	7.689	0.191	0.143
-292.662	-36.942	-0.167	-0.090
-291.647	-200.000	-0.012	-0.071
-290.632	-104.809	-0.280	-0.064
-289.618	76.026	0.292	0.310
-288.603	800.000	0.062	0.222
-287.589	-61.950	-0.319	-0.133
-286.574	166.149	-0.122	0.173
-285.559	-200.000	-0.016	-0.110
-284.545	160.307	0.257	0.358
-283.530	-200.000	0.042	-0.355
-282.516	-113.323	-0.164	-0.032
-281.501	-200.000	0.015	0.395
-280.486	697.426	-0.021	-0.056
-279.472	91.818	-0.077	-0.087
-278.457	65.985	-0.245	0.248
-277.443	-36.097	0.206	0.111
-276.428	-200.000	-0.002	-0.011
-275.413	173.347	0.124	-0.179
-274.399	383.771	0.107	0.220
-273.384	-200.000	0.015	-0.250
-272.370	768.436	-0.098	0.266
-271.355	-81.326	-0.235	0.077
-270.340	-54.245	0.246	0.112
-269.326	-184.721	-0.242	0.004
-268.311	-9.137	0.293	0.196
-267.297	-200.000	0.005	-0.147
-266.282	800.000	0.098	0.290
-265.267	47.463	-0.179	0.167
-264.253	121.578	-0.044	0.055
-263.238	46.967	-0.117	-0.109
-262.224	140.920	0.058	0.076
-261.209	-13.455	0.243	0.157
-260.195	406.023	0.104	0.219
-259.180	-99.094	0.477	-0.121
-258.165	-104.291	-0.113	0.026
-257.151	800.000	-0.061	0.220
-256.136	40.742	-0.165	0.149
-255.122	-200.000	-0.078	0.390
-254.107	-109.791	-0.101	0.021
-253.092	-200.000	0.032	-0.163
-252.078	-106.343	0.215	-0.048
-251.063	-200.000	-0.002	-0.261
-250.049	308.988	0.097	-0.181
-249.034	-102.027	-0.414	-0.100
-248.019	17.849	0.205	-0.163
-247.005	7.662	0.254	-0.190
-245.990	46.732	-0.115	0.107
-244.976	640.296	0.057	-0.144
-243.961	46.933	0.209	0.195
-242.946	-45.398	0.221	-0.109
-241.932	800.000	-0.065	0.251
-240.917	151.610	-0.116	-0.158
-239.903	-200.000	-0.038	0.225
-238.888	-200.000	0.011	-0.165
-237.873	-111.018	0.312	0.064
-236.859	115.833	0.166	-0.203
-235.844	800.000	0.009	-0.026
-234.830	13.528	-0.212	0.165
-233.815	556.328	0.105	0.253
-232.800	44.684	0.193	-0.177
-231.786	436.566	-0.099	-0.216
-230.771	800.000	0.062	0.180
-229.757	800.000	0.083	0.270
-228.742	145.219	-0.080	0.107
-227.727	136.041	0.207	-0.270
-226.713	800.000	-0.132	0.373
-225.698	164.312	0.029	-0.040
-224.684	-68.669	0.095	0.037
-223.669	-106.038	0.332	0.074
-222.655	-200.000	0.005	-0.082
-221.640	63.633	-0.265	-0.266
-220.625	-20.458	0.106	-0.065
-219.611	14.763	0.130	-0.102
-218.596	-51.723	0.166	0.077
-217.582	-200.000	0.021	-0.126
-216.567	64.017	0.224	-0.225
-215.552	-74.437	-0.155	0.056
-214.538	566.358	0.072	0.174
-213.523	104.200	0.130	0.153
-212.509	-132.718	0.259	-0.033
-211.494	82.067	-0.153	0.166
-210.479	730.606	0.122	0.325
-209.465	114.171	0.176	-0.214
-208.450	-200.000	0.002	0.055
-207.436	120.587	-0.289	0.359
-206.421	344.487	-0.135	0.263
-205.406	-16.351	0.103	-0.065
-204.392	-31.603	0.051	-0.028
-203.377	-200.000	-0.062	0.418
-202.363	255.003	-0.152	-0.260
-201.348	800.000	-0.088	0.288
-200.333	-200.000	-0.025	0.000
-199.319	-200.000	-0.073	0.413
-198.304	-38.115	0.118	-0.062
-197.290	32.161	-0.423	0.363
-196.275	-200.000	-0.029	0.465
-195.260	-41.070	-0.056	0.029
-194.246	-200.000	-0.055	0.259
-193.231	-138.918	0.124	-0.013
-192.217	-13.715	0.211	0.136
-191.202	-158.380	0.198	0.011
-190.187	7.327	0.191	-0.142
-189.173	514.543	0.047	0.108
-188.158	506.162	0.010	-0.023
-187.144	800.000	-0.054	-0.155
-186.129	127.890	0.027	0.034
-185.114	-114.394	-0.280	0.054
-184.100	199.892	0.156	-0.239
-183.085	140.946	-0.155	-0.204
-182.071	-200.000	0.026	-0.116
-181.056	-100.093	0.270	0.067
-180.042	-200.000	-0.030	-0.186
-179.027	-200.000	-0.054	0.320
-178.012	231.487	0.227	-0.372
-176.998	537.640	0.114	-0.270
-175.983	41.246	-0.210	-0.189
-174.969	79.173	-0.211	0.226
-173.954	52.838	-0.265	-0.252
-172.939	800.000	0.018	0.078
-171.925	-49.625	0.243	0.115
-170.910	33.825	0.319	-0.277
-169.896	-200.000	0.006	0.110
-168.881	2.887	-0.145	-0.105
-167.866	130.413	0.141	-0.180
-166.852	-73.681	0.219	0.079
-165.837	-200.000	-0.025	-0.208
-164.823	107.380	-0.233	-0.276
-163.808	800.000	-0.102	0.438
-162.793	-200.000	-0.011	0.251
-161.779	-200.000	0.001	0.013
-160.764	-129.850	-0.061	0.008
-159.750	800.000	0.067	0.245
-158.735	-21.019	-0.239	0.146
-157.720	160.285	-0.211	0.293
-156.706	414.341	0.029	0.062
-155.691	-141.865	0.254	-0.025
-154.677	-130.822	0.284	-0.038
-153.662	-65.177	0.124	-0.050
-152.647	-84.902	0.079	0.025
-151.633	419.388	0.075	-0.160
-150.618	-19.632	0.138	0.085
-149.604	91.606	-0.142	0.159
-148.589	-68.268	-0.206	-0.080
-147.574	388.618	-0.123	-0.253
-146.560	-115.992	-0.045	0.008
-145.545	664.943	-0.051	0.131
-144.531	575.331	-0.024	0.059
-143.516	694.968	-0.041	0.107
-142.502	800.000	0.116	0.334
-141.487	-90.237	-0.094	-0.027
-140.472	-62.354	-0.057	0.023
-139.458	-168.595	0.469	-0.018
-138.443	-104.426	-0.122	-0.028
-137.429	-152.558	0.161	0.011
-136.414	-147.689	0.278	-0.023
-135.399	-47.977	-0.115	0.055
-134.385	-98.001	0.054	-0.014
-133.370	-200.000	0.001	0.013
-132.356	-130.323	0.123	-0.017
-131.341	-87.776	0.269	-0.081
-130.326	-160.905	0.195	-0.010
-129.312	-59.580	-0.016	0.007
-128.297	169.183	0.155	0.220
-127.283	140.410	0.128	0.169
-126.268	-10.958	-0.129	0.085
-125.253	187.375	0.097	0.144
-124.239	-200.000	-0.012	0.160
-123.224	11.033	0.220	-0.167
-122.210	-92.282	0.071	-0.020
-121.195	-50.940	-0.252	0.117
