DTS Sentinel unit serial number:	SN413079Multiplexer serial number:	ORYXHardware model number:	OX4-SRSoftware version number:	ORYX F/W v4.00 Oryx Data Collector v3.7.2.0data status	okinstallation	princeton_trtdifferential loss correction	single-endedforward channel	channel 4reverse channel	N/Adate	2019/09/15time	09:25:34forward acquisition time	60.00reverse acquisition time	0.00gamma	496.2192k internal	0.2300k external	0.2300temperature offset calibration	1.0014default loss term (dB/km)	0.3790temperature slope calibration	1.0000multiplexer offset coefficient	1.0000multiplexer slope coefficient	1.0000fibre end	0.00T internal ref (°C)	33.62T ext. ref 1 (°C)	4.96T ext. ref 2 (°C)	30.21length (m)	temperature (°C)	Stokes	anti-Stokes-747.200	-104.930	0.089	-0.021
-746.185	28.444	0.162	0.140
-745.171	800.000	0.080	0.271
-744.156	184.098	-0.138	0.209
-743.142	37.042	-0.119	-0.108
-742.127	-200.000	0.027	0.237
-741.112	-200.000	0.014	-0.158
-740.098	-200.000	0.025	0.217
-739.083	21.421	-0.124	0.102
-738.069	-200.000	-0.041	0.288
-737.054	85.713	-0.070	0.079
-736.039	73.448	-0.067	-0.072
-735.025	92.998	0.217	0.249
-734.010	-178.199	0.194	-0.005
-732.996	800.000	0.099	-0.301
-731.981	-200.000	0.041	-0.349
-730.966	221.370	-0.033	-0.054
-729.952	11.431	-0.244	-0.190
-728.937	-26.290	-0.101	-0.060
-727.923	-113.897	-0.088	-0.017
-726.908	39.470	0.237	0.217
-725.894	800.000	0.017	-0.055
-724.879	0.333	-0.110	0.080
-723.864	800.000	-0.114	0.352
-722.850	116.954	-0.088	-0.110
-721.835	-39.884	0.148	0.079
-720.821	-19.219	0.204	0.129
-719.806	-27.116	-0.239	0.142
-718.791	-200.000	-0.032	-0.265
-717.777	731.386	0.103	0.280
-716.762	-124.833	-0.187	0.029
-715.748	-89.154	-0.289	0.087
-714.733	-200.000	0.003	-0.275
-713.718	800.000	-0.072	-0.306
-712.704	593.051	-0.106	-0.267
-711.689	-200.000	0.035	-0.261
-710.675	-98.654	0.164	-0.043
-709.660	800.000	-0.005	-0.017
-708.645	158.579	0.179	-0.254
-707.631	61.104	-0.215	-0.218
-706.616	-29.651	-0.092	0.054
-705.602	47.823	0.005	0.005
-704.587	800.000	-0.137	-0.394
-703.572	84.762	-0.164	0.183
-702.558	-86.285	0.284	-0.089
-701.543	-33.636	0.018	-0.010
-700.529	-32.253	-0.206	0.117
-699.514	-123.215	0.349	-0.057
-698.499	-200.000	-0.012	-0.097
-697.485	48.307	0.289	0.275
-696.470	-83.316	0.079	-0.026
-695.456	-58.126	0.278	0.124
-694.441	-163.926	-0.031	0.001
-693.426	-154.440	-0.103	-0.007
-692.412	-200.000	-0.024	-0.350
-691.397	207.084	0.079	-0.126
-690.383	132.508	-0.002	0.002
-689.368	-158.391	-0.445	-0.026
-688.354	-70.108	0.188	0.073
-687.339	-119.780	-0.255	-0.045
-686.324	402.950	-0.051	-0.109
-685.310	-200.000	0.016	-0.433
-684.295	-200.000	0.001	0.170
-683.281	78.934	-0.134	-0.146
-682.266	80.023	-0.266	0.291
-681.251	62.542	-0.394	0.401
-680.237	-200.000	-0.053	-0.300
-679.222	44.099	-0.109	-0.102
-678.208	17.462	0.332	-0.269
-677.193	-158.597	-0.265	0.016
-676.178	-200.000	-0.045	0.236
-675.164	-200.000	0.019	0.214
-674.149	-200.000	-0.006	-0.323
-673.135	-24.844	-0.215	0.130
-672.120	-75.024	0.441	0.161
-671.105	3.366	0.192	-0.142
-670.091	800.000	0.038	-0.166
-669.076	-43.310	-0.194	-0.100
-668.062	-38.274	-0.354	0.191
-667.047	18.907	0.280	-0.228
-666.032	243.615	0.184	-0.315
-665.018	609.735	-0.033	-0.083
-664.003	-137.851	-0.095	0.011
-662.989	-36.356	-0.170	-0.093
-661.974	800.000	-0.077	-0.256
-660.959	-80.023	0.136	0.046
-659.945	-54.079	-0.147	-0.068
-658.930	-98.137	-0.189	0.049
-657.916	338.854	-0.222	0.440
-656.901	-1.872	0.279	0.199
-655.886	-23.905	-0.085	-0.051
-654.872	-200.000	0.020	0.110
-653.857	-200.000	-0.000	0.143
-652.843	12.687	-0.050	0.039
-651.828	-19.231	0.284	-0.179
-650.814	800.000	0.012	-0.034
-649.799	-67.533	-0.171	-0.068
-648.784	175.291	0.085	0.125
-647.770	146.279	0.065	0.089
-646.755	92.865	0.168	-0.193
-645.741	-193.587	0.170	-0.001
-644.726	21.670	-0.185	-0.153
-643.711	-200.000	-0.066	-0.530
-642.697	641.428	0.131	-0.339
-641.682	800.000	0.073	-0.284
-640.668	-15.473	-0.093	-0.060
-639.653	12.462	0.238	0.186
-638.638	258.858	0.137	-0.239
-637.624	88.766	-0.277	-0.313
-636.609	-45.274	-0.136	-0.068
-635.595	97.028	-0.053	-0.061
-634.580	-200.000	0.006	-0.068
-633.565	18.467	0.204	-0.166
-632.551	-129.033	0.320	-0.046
-631.536	195.649	-0.188	-0.290
-630.522	229.781	-0.064	-0.107
-629.507	123.684	0.092	0.117
-628.492	15.300	0.441	-0.351
-627.478	622.981	-0.156	-0.399
-626.463	141.121	-0.053	0.071
-625.449	148.239	-0.260	-0.357
-624.434	-133.883	-0.449	-0.057
-623.419	108.859	-0.207	0.251
-622.405	168.656	0.123	0.178
-621.390	73.718	-0.018	0.019
-620.376	182.353	-0.175	0.262
-619.361	57.537	0.157	-0.156
-618.346	194.914	-0.008	-0.012
-617.332	-40.800	-0.437	-0.229
-616.317	499.859	0.202	0.473
-615.303	-120.274	-0.185	0.032
-614.288	417.983	0.036	-0.078
-613.273	-118.329	0.247	-0.044
-612.259	800.000	-0.078	0.282
-611.244	100.200	0.152	-0.179
-610.230	402.541	-0.066	-0.142
-609.215	144.250	-0.084	0.113
-608.201	800.000	0.032	-0.099
-607.186	-50.129	0.306	0.147
-606.171	-61.920	-0.158	-0.067
-605.157	43.768	-0.178	-0.165
-604.142	150.741	0.221	-0.305
-603.128	-63.392	0.220	0.092
-602.113	800.000	0.047	0.172
-601.098	-96.995	0.641	0.170
-600.084	5.273	-0.227	0.170
-599.069	-108.312	-0.234	-0.051
-598.055	128.652	0.110	0.142
-597.040	-64.444	-0.268	-0.111
-596.025	-78.468	-0.278	0.096
-595.011	764.804	-0.033	-0.090
-593.996	-69.038	0.380	0.148
-592.982	73.834	-0.212	-0.226
-591.967	-50.824	0.320	0.153
-590.952	-94.370	0.132	-0.036
-589.938	41.826	-0.017	-0.016
-588.923	199.868	-0.063	-0.098
-587.909	125.087	-0.252	0.322
-586.894	123.781	0.110	0.140
-585.879	13.627	-0.133	-0.105
-584.865	235.207	0.086	0.144
-583.850	74.738	-0.212	0.227
-582.836	-22.649	0.363	-0.222
-581.821	800.000	-0.130	-0.441
-580.806	-75.118	0.418	-0.151
-579.792	-148.806	-0.319	0.026
-578.777	800.000	0.069	0.218
-577.763	-96.612	-0.082	-0.022
-576.748	187.098	0.070	0.106
-575.733	20.243	0.189	-0.155
-574.719	41.177	-0.448	0.410
-573.704	800.000	-0.049	0.206
-572.690	-200.000	-0.008	-0.072
-571.675	-40.350	0.172	0.090
-570.661	276.466	-0.131	-0.236
-569.646	237.781	0.054	-0.090
-568.631	-47.775	0.244	0.120
-567.617	-77.959	-0.242	-0.085
-566.602	-16.753	-0.229	-0.147
-565.588	159.400	-0.070	-0.099
-564.573	-200.000	0.032	-0.322
-563.558	186.321	0.096	-0.144
-562.544	800.000	0.059	0.169
-561.529	-42.183	0.225	0.117
-560.515	37.426	0.089	-0.080
-559.500	-200.000	0.021	-0.294
-558.485	64.749	-0.140	-0.143
-557.471	-200.000	0.005	-0.357
-556.456	-134.926	0.253	0.031
-555.442	800.000	0.046	-0.153
-554.427	-48.542	-0.048	-0.023
-553.412	138.867	0.177	-0.235
-552.398	-125.315	-0.381	0.059
-551.383	-128.231	0.200	-0.029
-550.369	-200.000	0.028	0.335
-549.354	166.421	0.044	-0.063
-548.339	-85.620	-0.038	0.012
-547.325	-200.000	-0.072	0.351
-546.310	352.093	0.049	-0.098
-545.296	-200.000	-0.077	-0.356
-544.281	-54.547	0.384	-0.176
-543.266	-200.000	0.032	-0.152
-542.252	-32.329	-0.077	0.044
-541.237	-168.699	0.180	0.007
-540.223	89.189	-0.145	-0.164
-539.208	-200.000	-0.017	0.264
-538.193	-4.599	0.072	0.050
-537.179	-200.000	0.076	0.436
-536.164	-124.123	-0.381	-0.060
-535.150	26.353	0.026	0.022
-534.135	-200.000	0.062	-0.323
-533.121	-135.060	0.234	-0.029
-532.106	800.000	-0.076	0.294
-531.091	11.504	-0.215	0.167
-530.077	-61.993	-0.189	0.080
-529.062	800.000	0.063	-0.214
-528.048	-14.218	0.113	0.074
-527.033	-109.979	-0.199	0.042
-526.018	31.419	0.196	-0.171
-525.004	445.465	0.121	-0.269
-523.989	-154.078	-0.216	0.015
-522.975	-200.000	-0.023	0.265
-521.960	-127.170	-0.048	-0.007
-520.945	566.654	-0.080	-0.195
-519.931	-200.000	0.018	-0.507
-518.916	-22.765	-0.191	0.117
-517.902	-95.634	0.392	0.106
-516.887	-5.003	0.173	0.120
-515.872	-171.378	-0.088	0.003
-514.858	-65.507	0.300	0.122
-513.843	800.000	0.026	0.072
-512.829	-114.634	0.235	-0.046
-511.814	327.098	0.193	-0.375
-510.799	63.534	-0.038	0.039
-509.785	-90.435	0.250	-0.073
-508.770	800.000	0.110	0.316
-507.756	-69.130	0.135	-0.053
-506.741	51.880	-0.162	-0.156
-505.726	332.896	-0.097	0.189
-504.712	-34.697	-0.218	-0.121
-503.697	83.700	0.122	-0.135
-502.683	-200.000	-0.012	0.147
-501.668	-98.685	-0.110	-0.028
-500.653	-63.303	0.250	0.104
-499.639	-52.285	-0.092	0.043
-498.624	71.198	0.255	-0.267
-497.610	-118.495	-0.556	0.099
-496.595	-118.605	0.149	-0.027
-495.581	800.000	0.095	0.266
-494.566	-200.000	0.032	-0.186
-493.551	-115.783	-0.274	-0.052
-492.537	-103.204	0.345	0.082
-491.522	-71.519	-0.169	-0.064
-490.508	55.023	-0.258	-0.252
-489.493	279.888	0.055	0.099
-488.478	-200.000	-0.044	0.199
-487.464	-142.523	-0.055	-0.005
-486.449	80.868	-0.074	0.081
-485.435	-200.000	0.025	0.283
-484.420	-50.675	0.158	0.075
-483.405	-122.419	-0.479	-0.079
-482.391	800.000	-0.007	-0.029
-481.376	177.535	-0.073	0.107
-480.362	40.671	-0.123	-0.112
-479.347	-45.215	-0.074	0.037
-478.332	-68.468	-0.286	-0.112
-477.318	-200.000	-0.059	0.275
-476.303	60.795	-0.092	-0.092
-475.289	380.418	-0.068	-0.141
-474.274	800.000	0.067	-0.258
-473.259	408.373	-0.102	-0.218
-472.245	14.823	-0.077	0.061
-471.230	10.549	0.163	0.125
-470.216	-200.000	0.070	0.741
-469.201	-114.747	-0.323	-0.062
-468.186	212.535	-0.215	0.343
-467.172	506.593	-0.038	-0.090
-466.157	-29.459	-0.153	0.088
-465.143	-200.000	-0.014	0.072
-464.128	800.000	-0.122	-0.366
-463.113	-200.000	-0.002	0.025
-462.099	-97.612	0.229	0.060
-461.084	-106.804	0.365	-0.082
-460.070	-3.948	-0.197	-0.138
-459.055	-95.079	0.078	0.021
-458.040	370.404	0.157	-0.322
-457.026	-200.000	0.012	0.118
-456.011	-49.496	0.273	-0.131
-454.997	-48.762	0.400	0.193
-453.982	236.472	-0.052	0.087
-452.968	-200.000	-0.035	0.243
-451.953	56.500	-0.187	0.184
-450.938	413.922	0.061	0.130
-449.924	500.107	-0.133	0.310
-448.909	91.116	0.242	0.273
-447.895	167.848	-0.076	0.109
-446.880	800.000	0.064	0.269
-445.865	-200.000	-0.046	0.502
-444.851	6.161	0.206	-0.154
-443.836	800.000	-0.045	-0.192
-442.822	-33.407	-0.025	-0.014
-441.807	-27.497	0.347	0.204
-440.792	-200.000	0.009	-0.043
-439.778	-200.000	0.011	-0.170
-438.763	-162.615	0.326	0.016
-437.749	-24.545	-0.131	0.078
-436.734	19.322	0.046	0.037
-435.719	-200.000	-0.002	0.311
-434.705	800.000	-0.077	0.258
-433.690	-118.054	-0.112	0.020
-432.676	-27.879	-0.275	0.161
-431.661	-102.770	0.068	-0.016
-430.646	586.128	0.129	-0.321
-429.632	-114.653	-0.133	0.026
-428.617	192.170	0.053	-0.081
-427.603	97.322	-0.090	0.104
-426.588	800.000	-0.097	0.301
-425.573	376.887	0.130	0.267
-424.559	-9.400	-0.251	-0.169
-423.544	-71.339	-0.262	0.099
-422.530	208.212	0.032	0.051
-421.515	-95.335	0.328	0.089
-420.500	-119.301	-0.117	0.021
-419.486	-102.375	0.327	-0.079
-418.471	-200.000	-0.026	0.170
-417.457	51.208	-0.142	-0.136
-416.442	-174.278	0.229	-0.007
-415.428	-13.480	-0.155	-0.101
-414.413	65.841	-0.146	0.149
-413.398	47.740	-0.112	0.105
-412.384	-132.860	-0.201	-0.026
-411.369	-147.108	-0.096	0.008
-410.355	12.150	-0.166	0.129
-409.340	15.773	-0.171	-0.135
-408.325	-98.936	-0.309	-0.079
-407.311	-85.848	-0.172	-0.054
-406.296	800.000	-0.127	-0.419
-405.282	727.243	0.088	0.237
-404.267	65.928	0.138	0.141
-403.252	156.791	0.109	-0.152
-402.238	-200.000	0.029	-0.236
-401.223	0.930	0.055	0.039
-400.209	105.155	-0.053	-0.062
-399.194	800.000	0.055	-0.231
-398.179	-69.980	0.238	-0.091
-397.165	800.000	0.010	-0.037
-396.150	77.698	-0.286	-0.307
-395.136	613.007	0.002	0.004
-394.121	-102.665	-0.039	0.009
-393.106	620.999	-0.122	0.308
-392.092	97.052	-0.108	0.125
-391.077	-24.417	0.108	-0.065
-390.063	-44.461	-0.166	-0.083
-389.048	-144.628	0.111	-0.010
-388.033	-200.000	-0.021	-0.195
-387.019	-152.225	-0.290	0.021
-386.004	3.047	-0.188	0.138
-384.990	-116.396	-0.019	0.003
-383.975	183.017	-0.051	0.076
-382.960	-32.168	0.225	0.127
-381.946	-200.000	0.025	-0.124
-380.931	221.999	0.134	0.217
-379.917	54.582	0.129	0.125
-378.902	800.000	0.126	-0.373
-377.888	800.000	0.082	-0.254
-376.873	-69.278	0.096	-0.037
-375.858	-53.910	0.225	0.103
-374.844	-107.918	-0.304	-0.066
-373.829	-20.808	0.298	-0.184
-372.815	-134.360	-0.223	-0.027
-371.800	-200.000	0.034	-0.181
-370.785	40.273	-0.069	0.062
-369.771	165.924	-0.094	0.134
-368.756	800.000	-0.034	-0.101
-367.742	-23.919	0.190	-0.114
-366.727	-103.907	-0.183	0.043
-365.712	162.823	-0.108	-0.152
-364.698	29.219	0.143	0.122
-363.683	-200.000	0.036	0.218
-362.669	571.087	0.056	0.137
-361.654	-154.846	-0.156	-0.010
-360.639	-48.955	0.169	-0.081
-359.625	-200.000	-0.019	0.145
-358.610	-110.468	-0.179	-0.037
-357.596	548.404	-0.045	-0.109
-356.581	27.229	0.216	0.182
-355.566	142.426	-0.129	-0.172
-354.552	-44.607	0.259	0.130
-353.537	292.859	0.059	0.109
-352.523	-115.759	-0.094	-0.018
-351.508	800.000	0.045	-0.170
-350.493	60.807	0.178	-0.178
-349.479	-49.020	-0.634	0.305
-348.464	800.000	-0.075	0.259
-347.450	190.236	-0.159	0.240
-346.435	-117.380	-0.303	0.055
-345.420	17.301	0.430	0.343
-344.406	-160.658	0.049	0.003
-343.391	103.128	-0.037	-0.043
-342.377	735.722	-0.019	0.050
-341.362	346.675	-0.091	0.180
-340.348	800.000	0.027	-0.090
-339.333	-121.825	-0.235	-0.039
-338.318	-200.000	-0.017	-0.097
-337.304	-200.000	0.009	-0.111
-336.289	122.468	-0.124	-0.155
-335.275	553.754	-0.058	-0.139
-334.260	132.963	0.240	-0.311
-333.245	-77.333	0.156	0.055
-332.231	299.656	-0.116	-0.215
-331.216	86.788	0.079	0.087
-330.202	-137.597	0.071	-0.008
-329.187	-200.000	0.016	-0.138
-328.172	378.631	0.094	0.194
-327.158	800.000	0.119	-0.477
-326.143	-85.375	-0.279	0.087
-325.129	140.226	0.080	0.106
-324.114	67.948	-0.245	0.251
-323.099	106.551	-0.189	0.225
-322.085	-119.965	-0.099	0.017
-321.070	-17.396	-0.248	0.157
-320.056	-200.000	-0.029	-0.149
-319.041	127.381	-0.156	-0.198
-318.026	-200.000	-0.059	0.291
-317.012	570.174	0.096	0.234
-315.997	231.657	-0.047	-0.078
-314.983	239.330	0.083	0.139
-313.968	-56.857	0.286	0.127
-312.953	-169.449	0.258	-0.009
-311.939	-160.724	-0.319	-0.017
-310.924	-35.512	0.204	-0.111
-309.910	-35.755	-0.180	0.098
-308.895	-76.737	0.238	0.083
-307.880	28.633	0.017	0.015
-306.866	549.537	-0.171	0.411
-305.851	-200.000	-0.006	-0.096
-304.837	69.590	0.399	-0.412
-303.822	99.297	-0.088	-0.102
-302.807	13.820	0.431	-0.336
-301.793	148.825	-0.142	0.193
-300.778	-55.467	-0.365	-0.164
-299.764	-149.432	0.195	0.016
-298.749	86.359	-0.338	-0.373
-297.735	520.217	0.036	-0.085
-296.720	-101.304	0.591	0.145
-295.705	172.703	-0.153	-0.221
-294.691	6.817	0.086	-0.064
-293.676	797.971	-0.035	-0.095
-292.662	579.893	0.057	0.140
-291.647	140.887	-0.111	0.147
-290.632	800.000	0.061	0.265
-289.618	140.255	-0.152	0.201
-288.603	-81.268	0.179	-0.059
-287.589	-200.000	-0.002	-0.113
-286.574	800.000	0.054	0.195
-285.559	-48.042	-0.273	0.132
-284.545	-200.000	-0.012	0.271
-283.530	362.912	0.212	0.427
-282.516	554.401	-0.136	-0.328
-281.501	36.564	0.262	0.232
-280.486	-105.426	0.248	0.056
-279.472	26.406	0.243	0.204
-278.457	355.567	0.048	-0.097
-277.443	26.967	0.166	-0.139
-276.428	109.281	0.283	0.339
-275.413	141.560	-0.171	-0.227
-274.399	356.737	0.156	0.311
-273.384	33.404	0.171	0.149
-272.370	244.464	0.101	0.170
-271.355	-119.233	-0.527	-0.092
-270.340	-1.214	0.112	-0.079
-269.326	-200.000	0.008	0.194
-268.311	-15.941	-0.237	-0.151
-267.297	36.904	0.077	-0.068
-266.282	-70.450	0.049	-0.019
-265.267	-49.714	-0.124	-0.059
-264.253	800.000	0.072	0.200
-263.238	24.314	-0.153	-0.127
-262.224	163.853	-0.069	-0.097
-261.209	14.904	-0.150	0.117
-260.195	-114.311	-0.247	-0.048
-259.180	742.435	0.112	-0.300
-258.165	-36.723	0.262	0.141
-257.151	52.345	0.242	-0.231
-256.136	-93.695	0.152	-0.042
-255.122	800.000	0.036	0.140
-254.107	54.409	-0.183	0.176
-253.092	-200.000	0.019	0.127
-252.078	-200.000	-0.060	0.369
-251.063	-116.741	-0.316	0.058
-250.049	27.452	-0.148	-0.125
-249.034	-162.952	0.167	0.008
-248.019	201.341	-0.074	0.115
-247.005	224.506	-0.271	-0.439
-245.990	-51.994	-0.178	-0.083
-244.976	175.496	-0.155	-0.224
-243.961	-121.657	0.288	0.048
-242.946	-200.000	0.035	-0.205
-241.932	-33.368	-0.372	-0.206
-240.917	-53.739	0.163	-0.074
-239.903	-150.284	0.177	-0.014
-238.888	-116.785	0.185	0.034
-237.873	-62.361	-0.238	-0.099
-236.859	43.863	-0.205	0.188
-235.844	94.134	-0.079	-0.089
-234.830	34.444	-0.227	-0.198
-233.815	66.005	-0.120	-0.121
-232.800	251.131	-0.103	0.176
-231.786	129.468	0.052	0.066
-230.771	-89.620	0.183	0.054
-229.757	-19.896	-0.258	0.159
-228.742	84.888	0.157	-0.172
-227.727	120.836	-0.103	-0.128
-226.713	-40.090	0.389	0.203
-225.698	137.835	0.100	0.131
-224.684	-88.301	-0.209	0.062
-223.669	-200.000	-0.003	0.229
-222.655	-185.906	0.096	0.001
-221.640	800.000	-0.062	0.262
-220.625	387.360	-0.110	0.227
-219.611	-21.301	-0.367	0.224
-218.596	-169.887	0.349	-0.013
-217.582	-200.000	0.017	0.311
-216.567	800.000	-0.097	0.316
-215.552	23.043	0.082	-0.067
-214.538	-21.723	0.105	-0.064
-213.523	800.000	0.056	0.240
-212.509	-200.000	0.018	-0.098
-211.494	-75.863	0.133	-0.047
-210.479	-119.241	-0.196	-0.034
-209.465	800.000	0.045	-0.139
-208.450	-127.266	-0.249	0.036
-207.436	92.721	0.077	0.087
-206.421	658.933	0.104	-0.267
-205.406	-200.000	0.020	-0.163
-204.392	506.925	0.160	0.371
-203.377	6.194	-0.196	0.145
-202.363	-114.473	-0.054	-0.010
-201.348	-27.238	-0.265	-0.154
-200.333	-75.050	0.193	-0.069
-199.319	99.271	0.250	-0.289
-198.304	-200.000	-0.001	0.143
-197.290	-7.223	-0.249	-0.169
-196.275	-154.995	0.331	-0.022
-195.260	56.936	-0.046	-0.045
-194.246	-200.000	-0.027	-0.313
-193.231	26.286	0.325	0.271
-192.217	271.605	-0.157	-0.276
-191.202	180.569	0.191	-0.280
-190.187	800.000	-0.043	-0.166
-189.173	-30.891	0.209	-0.118
-188.158	-112.213	0.167	-0.033
-187.144	-135.661	0.046	-0.005
-186.129	428.338	0.080	-0.173
-185.114	254.081	-0.071	0.121
-184.100	15.545	-0.176	-0.138
-183.085	-58.477	0.195	-0.085
-182.071	-118.532	0.200	0.035
-181.056	-44.762	-0.294	0.146
-180.042	-55.438	0.160	-0.072
-179.027	-109.612	0.185	0.039
-178.012	800.000	-0.113	0.316
-176.998	-135.688	0.098	-0.012
-175.983	-161.754	0.092	-0.005
-174.969	100.958	0.077	-0.090
-173.954	800.000	-0.111	-0.334
-172.939	80.346	-0.365	0.391
-171.925	-167.005	0.282	-0.011
-170.910	85.947	0.121	-0.133
-169.896	140.951	0.073	0.097
-168.881	90.212	-0.142	0.158
-167.866	-84.836	0.421	-0.132
-166.852	-25.182	0.159	-0.094
-165.837	58.534	-0.284	-0.278
-164.823	-26.641	0.311	0.182
-163.808	-70.219	-0.025	0.009
-162.793	-36.331	0.133	-0.072
-161.779	-200.000	0.061	-0.303
-160.764	-77.965	0.078	0.027
-159.750	-200.000	0.032	0.245
-158.735	67.544	-0.144	0.147
-157.720	-55.769	-0.134	-0.060
-156.706	-2.816	0.224	0.156
-155.691	-117.114	-0.350	0.064
-154.677	-98.897	-0.281	0.071
-153.662	7.528	-0.163	-0.122
-152.647	16.826	-0.096	0.076
-151.633	23.851	0.199	0.163
-150.618	-71.642	-0.192	0.071
-149.604	-200.000	0.051	0.308
-148.589	271.770	-0.085	-0.149
-147.574	-179.512	0.215	0.005
-146.560	-200.000	0.003	-0.069
-145.545	-109.410	0.202	-0.043
-144.531	-125.312	-0.431	-0.066
-143.516	-118.898	0.108	0.019
-142.502	44.666	0.137	0.126
-141.487	47.438	-0.250	0.232
-140.472	11.264	-0.399	0.304
-139.458	800.000	-0.095	0.267
-138.443	-166.447	-0.401	0.017
-137.429	-95.802	0.054	0.014
-136.414	-139.421	0.119	-0.013
-135.399	-200.000	0.092	0.448
-134.385	7.188	-0.040	-0.030
-133.370	296.286	0.066	0.121
-132.356	159.963	0.063	0.088
-131.341	-200.000	0.027	-0.138
-130.326	68.867	0.081	-0.083
-129.312	-200.000	-0.004	-0.039
-128.297	9.517	-0.062	-0.047
-127.283	-7.926	0.292	0.196
-126.268	-200.000	-0.059	0.404
-125.253	-59.672	-0.079	0.034
-124.239	-200.000	0.001	-0.221
-123.224	-121.143	0.147	-0.025
-122.210	-104.901	0.139	0.032
-121.195	275.933	-0.230	-0.406
