DTS Sentinel unit serial number:	SN413079Multiplexer serial number:	ORYXHardware model number:	OX4-SRSoftware version number:	ORYX F/W v4.00 Oryx Data Collector v3.7.2.0data status	okinstallation	princeton_trtdifferential loss correction	single-endedforward channel	channel 4reverse channel	N/Adate	2019/09/15time	00:49:35forward acquisition time	60.00reverse acquisition time	0.00gamma	496.2192k internal	0.2307k external	0.2307temperature offset calibration	1.0042default loss term (dB/km)	0.3790temperature slope calibration	1.0000multiplexer offset coefficient	1.0000multiplexer slope coefficient	1.0000fibre end	0.00T internal ref (°C)	32.06T ext. ref 1 (°C)	4.57T ext. ref 2 (°C)	27.00length (m)	temperature (°C)	Stokes	anti-Stokes-747.200	102.340	-0.094	-0.112
-746.185	-107.571	-0.498	-0.111
-745.171	-200.000	-0.002	0.249
-744.156	-30.702	-0.055	0.032
-743.142	-200.000	-0.002	0.434
-742.127	-53.120	-0.256	0.120
-741.112	-132.647	-0.078	0.010
-740.098	298.943	-0.216	0.405
-739.083	270.456	0.103	-0.184
-738.069	584.806	-0.047	0.118
-737.054	-200.000	-0.079	-0.444
-736.039	-200.000	-0.003	-0.323
-735.025	-2.862	0.253	0.180
-734.010	29.703	-0.117	-0.101
-732.996	64.633	-0.258	0.265
-731.981	-156.656	-0.262	-0.017
-730.966	270.361	0.038	0.068
-729.952	-143.185	0.333	0.033
-728.937	-200.000	0.307	0.001
-727.923	-59.575	-0.555	-0.242
-726.908	-152.733	-0.377	0.027
-725.894	150.919	0.083	-0.115
-724.879	268.292	0.087	-0.156
-723.864	-200.000	0.012	0.214
-722.850	-80.293	-0.173	-0.059
-721.835	322.781	-0.115	-0.224
-720.821	166.960	-0.055	0.079
-719.806	-200.000	-0.035	0.210
-718.791	-200.000	-0.001	-0.194
-717.777	-200.000	-0.007	-0.144
-716.762	271.773	-0.072	-0.129
-715.748	-200.000	-0.006	0.089
-714.733	-6.295	0.177	0.122
-713.718	-2.897	0.053	-0.037
-712.704	-84.153	-0.265	-0.085
-711.689	136.084	-0.270	-0.358
-710.675	-22.060	-0.408	0.252
-709.660	529.309	-0.153	0.366
-708.645	11.866	0.100	0.078
-707.631	210.602	0.138	-0.220
-706.616	246.503	-0.070	-0.120
-705.602	-130.473	-0.529	-0.073
-704.587	-200.000	-0.033	0.158
-703.572	-116.269	-0.106	0.020
-702.558	-154.685	0.178	-0.012
-701.543	-134.599	0.252	-0.031
-700.529	-131.868	0.167	-0.022
-699.514	-143.860	-0.155	-0.015
-698.499	640.022	0.024	0.062
-697.485	28.168	-0.008	-0.007
-696.470	800.000	-0.084	-0.296
-695.456	-0.571	-0.158	-0.114
-694.441	-107.430	0.140	0.031
-693.426	-116.704	-0.252	-0.047
-692.412	41.747	-0.026	0.024
-691.397	277.601	-0.067	0.121
-690.383	-77.657	-0.161	0.056
-689.368	114.603	0.068	0.084
-688.354	-188.575	0.257	0.003
-687.339	534.822	-0.103	0.247
-686.324	-93.943	-0.201	-0.056
-685.310	-46.005	-0.065	-0.033
-684.295	-146.559	0.091	-0.008
-683.281	18.959	0.126	-0.103
-682.266	198.159	-0.091	0.141
-681.251	-200.000	-0.015	-0.275
-680.237	86.677	-0.183	-0.205
-679.222	-200.000	-0.009	-0.341
-678.208	112.343	0.177	-0.217
-677.193	-145.063	-0.193	-0.018
-676.178	34.891	0.057	-0.050
-675.164	-68.393	-0.102	-0.040
-674.149	602.576	-0.024	0.061
-673.135	-200.000	0.034	0.228
-672.120	342.923	-0.032	0.063
-671.105	182.345	-0.201	-0.301
-670.091	31.122	-0.314	0.273
-669.076	-5.190	0.152	0.106
-668.062	800.000	0.092	0.258
-667.047	190.205	0.196	-0.299
-666.032	-51.329	0.135	-0.064
-665.018	146.596	0.169	-0.230
-664.003	-1.620	-0.345	-0.247
-662.989	38.979	0.167	0.152
-661.974	-200.000	-0.018	0.162
-660.959	-200.000	-0.021	0.230
-659.945	-166.168	0.258	0.011
-658.930	-85.624	-0.050	-0.016
-657.916	468.946	0.123	-0.280
-656.901	72.966	0.086	0.091
-655.886	538.904	-0.193	-0.466
-654.872	11.178	-0.273	-0.212
-653.857	108.520	0.159	0.193
-652.843	-62.969	-0.114	0.048
-651.828	-200.000	-0.064	-0.463
-650.814	-89.423	-0.232	-0.069
-649.799	-200.000	-0.012	0.065
-648.784	480.530	0.190	-0.438
-647.770	-200.000	-0.027	0.167
-646.755	-200.000	-0.021	0.120
-645.741	58.806	-0.337	-0.335
-644.726	-200.000	-0.007	0.124
-643.711	-21.699	0.028	0.017
-642.697	-174.186	-0.144	0.004
-641.682	-33.116	-0.163	-0.092
-640.668	-26.599	0.128	0.076
-639.653	97.871	0.212	0.247
-638.638	785.999	-0.092	-0.256
-637.624	45.115	-0.405	-0.378
-636.609	-80.515	-0.304	0.103
-635.595	800.000	-0.047	-0.159
-634.580	800.000	-0.112	0.348
-633.565	-73.143	-0.276	0.102
-632.551	-27.471	-0.048	0.028
-631.536	407.242	-0.100	0.214
-630.522	-80.216	0.314	-0.107
-629.507	-37.347	-0.236	-0.128
-628.492	53.847	0.392	0.381
-627.478	-9.762	0.445	0.300
-626.463	-184.029	0.111	0.002
-625.449	-199.389	0.190	0.001
-624.434	-44.885	-0.629	-0.317
-623.419	-101.742	0.326	-0.080
-622.405	800.000	0.099	-0.333
-621.390	84.466	0.428	-0.474
-620.376	-152.449	-0.080	-0.006
-619.361	-52.775	-0.212	-0.099
-618.346	-177.431	-0.187	-0.005
-617.332	230.371	0.043	-0.071
-616.317	584.401	-0.072	-0.179
-615.303	-86.115	-0.081	-0.025
-614.288	-92.552	-0.312	-0.089
-613.273	-61.200	-0.079	-0.034
-612.259	83.575	-0.098	-0.108
-611.244	-200.000	0.053	0.276
-610.230	302.632	-0.040	0.075
-609.215	365.511	0.220	-0.449
-608.201	800.000	-0.102	0.285
-607.186	182.372	-0.166	-0.248
-606.171	8.420	0.125	-0.095
-605.157	2.409	0.259	0.190
-604.142	800.000	-0.075	-0.212
-603.128	800.000	-0.041	-0.135
-602.113	-36.375	-0.110	0.060
-601.098	800.000	-0.098	-0.316
-600.084	-200.000	0.014	0.385
-599.069	-84.609	0.230	0.073
-598.055	236.155	0.059	0.098
-597.040	-158.278	-0.297	-0.018
-596.025	-85.762	0.198	0.062
-595.011	141.412	0.180	0.241
-593.996	-123.352	0.195	0.031
-592.982	-200.000	-0.038	-0.222
-591.967	-37.513	-0.071	0.039
-590.952	-11.838	-0.106	-0.070
-589.938	130.500	0.158	-0.205
-588.923	-107.495	-0.219	-0.049
-587.909	-141.700	0.119	0.012
-586.894	-200.000	0.001	0.211
-585.879	223.960	-0.072	-0.118
-584.865	571.687	-0.128	-0.314
-583.850	-3.639	-0.120	0.084
-582.836	-113.272	-0.235	0.047
-581.821	236.236	0.184	0.307
-580.806	-71.369	-0.535	0.203
-579.792	30.773	-0.126	-0.109
-578.777	33.351	-0.283	-0.249
-577.763	-69.219	0.291	-0.113
-576.748	-44.152	-0.384	0.195
-575.733	19.672	-0.040	0.032
-574.719	562.952	-0.042	-0.104
-573.704	-200.000	0.008	0.205
-572.690	201.700	-0.047	0.073
-571.675	175.169	-0.110	0.160
-570.661	-200.000	0.081	0.496
-569.646	238.122	-0.205	0.344
-568.631	-146.547	0.390	-0.034
-567.617	139.167	0.105	0.139
-566.602	-10.007	0.178	0.119
-565.588	42.293	0.170	-0.156
-564.573	-4.254	-0.080	0.056
-563.558	-131.087	0.121	-0.016
-562.544	66.617	-0.414	0.426
-561.529	31.045	-0.073	0.063
-560.515	-80.726	-0.221	0.074
-559.500	-158.917	-0.251	-0.014
-558.485	5.767	0.169	-0.126
-557.471	-98.720	-0.143	-0.037
-556.456	288.401	-0.113	0.207
-555.442	-7.744	-0.200	0.136
-554.427	-200.000	0.014	0.209
-553.412	203.936	0.097	0.151
-552.398	-138.633	0.232	-0.026
-551.383	370.737	0.032	-0.066
-550.369	-4.678	-0.170	-0.118
-549.354	54.260	-0.209	-0.203
-548.339	14.539	0.196	0.154
-547.325	129.545	0.044	0.056
-546.310	-200.000	0.020	-0.217
-545.296	745.258	-0.033	0.090
-544.281	-21.179	-0.301	0.186
-543.266	-131.161	0.268	-0.036
-542.252	201.906	-0.098	-0.153
-541.237	-92.892	0.316	-0.089
-540.223	-200.000	0.010	-0.284
-539.208	800.000	0.021	-0.068
-538.193	17.481	-0.324	-0.259
-537.179	159.095	0.083	0.117
-536.164	800.000	-0.072	-0.293
-535.150	460.525	0.028	-0.064
-534.135	409.012	-0.056	-0.120
-533.121	-43.163	0.363	0.186
-532.106	235.122	0.090	0.149
-531.091	-64.528	0.381	-0.156
-530.077	-87.981	0.365	-0.111
-529.062	343.936	-0.214	-0.424
-528.048	0.388	0.192	0.138
-527.033	1.134	-0.099	-0.072
-526.018	-56.754	-0.141	-0.063
-525.004	-169.181	-0.134	0.005
-523.989	-11.787	0.140	0.092
-522.975	-113.690	-0.208	0.041
-521.960	4.053	-0.213	0.157
-520.945	46.333	-0.238	0.222
-519.931	87.745	0.203	-0.227
-518.916	-150.078	0.103	-0.008
-517.902	-8.234	0.215	-0.146
-516.887	204.827	-0.024	-0.037
-515.872	-156.211	0.099	-0.006
-514.858	-21.797	-0.171	0.105
-513.843	-200.000	-0.044	-0.211
-512.829	-200.000	0.031	0.188
-511.814	-46.916	-0.373	0.184
-510.799	-121.043	-0.065	0.011
-509.785	391.611	0.065	0.135
-508.770	-15.921	-0.094	-0.060
-507.756	800.000	-0.081	0.301
-506.741	-200.000	0.091	0.000
-505.726	-8.213	0.348	0.236
-504.712	19.700	-0.075	-0.061
-503.697	20.906	-0.001	0.001
-502.683	24.539	-0.228	0.190
-501.668	758.710	-0.091	-0.249
-500.653	0.566	-0.110	-0.079
-499.639	-119.205	0.257	0.045
-498.624	-100.180	0.196	0.049
-497.610	109.420	-0.077	0.093
-496.595	-200.000	0.000	0.081
-495.581	-200.000	-0.087	-0.476
-494.566	362.061	-0.104	-0.210
-493.551	-126.843	-0.361	-0.054
-492.537	-200.000	-0.005	0.059
-491.522	38.363	0.130	-0.116
-490.508	-200.000	-0.005	0.126
-489.493	274.502	0.130	0.231
-488.478	379.504	-0.051	-0.105
-487.464	-157.161	0.270	-0.016
-486.449	-155.530	-0.248	0.016
-485.435	-48.731	0.056	0.027
-484.420	110.415	0.209	0.253
-483.405	-79.076	-0.223	0.076
-482.391	-86.059	-0.076	0.024
-481.376	-141.568	-0.353	0.036
-480.362	-77.848	0.043	-0.015
-479.347	-125.910	-0.168	0.025
-478.332	65.122	-0.235	0.239
-477.318	783.622	0.068	0.188
-476.303	4.157	-0.098	-0.072
-475.289	355.862	0.080	-0.160
-474.274	26.995	-0.354	0.299
-473.259	178.488	0.058	0.085
-472.245	539.144	-0.011	-0.026
-471.230	230.509	0.092	-0.151
-470.216	12.639	0.165	0.128
-469.201	23.249	0.107	-0.088
-468.186	320.792	0.004	0.008
-467.172	-200.000	0.043	0.368
-466.157	-137.903	0.146	-0.016
-465.143	215.749	-0.140	-0.223
-464.128	215.173	0.081	-0.129
-463.113	-52.962	-0.243	0.112
-462.099	118.431	-0.210	0.261
-461.084	622.689	0.092	-0.233
-460.070	171.558	0.180	-0.260
-459.055	-13.068	-0.297	-0.194
-458.040	-200.000	0.046	-0.250
-457.026	67.518	-0.066	0.067
-456.011	-200.000	0.042	-0.302
-454.997	-200.000	-0.031	-0.181
-453.982	44.939	-0.375	-0.347
-452.968	130.347	-0.106	-0.137
-451.953	800.000	-0.121	-0.381
-450.938	223.297	-0.114	-0.185
-449.924	-200.000	-0.001	0.154
-448.909	-33.418	0.326	-0.181
-447.895	-200.000	0.068	0.417
-446.880	52.200	0.143	-0.137
-445.865	77.451	0.164	0.175
-444.851	-57.389	-0.119	-0.053
-443.836	-16.831	-0.062	0.039
-442.822	-133.450	0.095	0.012
-441.807	47.926	0.122	-0.115
-440.792	-200.000	-0.024	-0.142
-439.778	-89.918	-0.269	0.079
-438.763	348.771	0.272	0.540
-437.749	20.121	0.028	-0.023
-436.734	149.093	0.042	0.056
-435.719	231.984	-0.212	-0.349
-434.705	-153.365	-0.285	-0.020
-433.690	-78.997	0.207	0.071
-432.676	-200.000	-0.004	0.104
-431.661	6.372	-0.071	0.053
-430.646	-200.000	-0.038	0.486
-429.632	129.933	0.390	-0.501
-428.617	599.499	-0.074	-0.183
-427.603	-121.030	0.132	-0.022
-426.588	-200.000	0.015	0.220
-425.573	28.415	-0.061	0.052
-424.559	-200.000	0.004	-0.174
-423.544	-71.146	-0.119	0.045
-422.530	800.000	-0.036	0.145
-421.515	-200.000	0.047	-0.401
-420.500	800.000	0.085	0.271
-419.486	-55.938	-0.030	-0.013
-418.471	6.119	-0.211	-0.157
-417.457	-36.168	0.070	0.038
-416.442	-200.000	-0.019	0.084
-415.428	-52.749	0.420	0.195
-414.413	-200.000	0.066	0.289
-413.398	24.157	0.241	-0.200
-412.384	-44.013	0.190	0.096
-411.369	800.000	-0.075	-0.278
-410.355	-156.729	0.163	-0.010
-409.340	81.186	-0.018	0.020
-408.325	800.000	-0.086	-0.357
-407.311	-200.000	-0.031	0.392
-406.296	-78.048	-0.239	-0.082
-405.282	-65.417	-0.114	0.046
-404.267	33.958	0.152	-0.133
-403.252	-200.000	0.042	-0.365
-402.238	-90.767	0.337	0.097
-401.223	241.550	-0.098	-0.164
-400.209	-84.838	-0.284	0.090
-399.194	423.770	0.073	-0.157
-398.179	-118.364	0.156	0.028
-397.165	277.918	0.117	-0.208
-396.150	69.465	-0.130	0.134
-395.136	12.123	-0.216	0.167
-394.121	27.013	-0.179	-0.150
-393.106	-8.916	0.360	0.242
-392.092	100.071	0.224	-0.260
-391.077	800.000	-0.005	0.014
-390.063	-63.358	-0.320	0.132
-389.048	-200.000	-0.005	0.249
-388.033	604.946	0.091	0.227
-387.019	-200.000	0.025	0.243
-386.004	-6.955	0.406	0.277
-384.990	-200.000	0.035	0.261
-383.975	-98.351	-0.465	0.120
-382.960	-200.000	-0.061	0.320
-381.946	-199.425	0.147	-0.001
-380.931	257.061	-0.104	0.179
-379.917	-49.159	0.255	-0.122
-378.902	51.657	-0.245	0.233
-377.888	800.000	0.057	-0.203
-376.873	119.460	0.070	-0.087
-375.858	578.450	0.057	-0.140
-374.844	0.255	0.114	-0.081
-373.829	-128.397	0.455	-0.065
-372.815	-96.838	-0.254	-0.067
-371.800	-138.981	0.159	0.017
-370.785	295.956	-0.129	-0.237
-369.771	-150.597	0.222	0.017
-368.756	-200.000	-0.027	0.202
-367.742	-52.626	-0.196	0.091
-366.727	-71.942	-0.280	-0.104
-365.712	28.801	-0.164	0.139
-364.698	-200.000	0.013	0.202
-363.683	14.354	-0.136	-0.107
-362.669	-116.192	0.280	0.052
-361.654	612.532	-0.092	-0.230
-360.639	244.388	0.067	0.112
-359.625	-10.764	0.114	0.075
-358.610	95.323	0.185	0.211
-357.596	800.000	-0.065	-0.277
-356.581	-200.000	0.035	0.178
-355.566	-14.134	0.287	0.186
-354.552	297.860	-0.035	0.064
-353.537	269.792	0.088	-0.154
-352.523	800.000	-0.044	-0.129
-351.508	-200.000	0.014	-0.172
-350.493	308.089	0.102	0.191
-349.479	800.000	-0.035	0.134
-348.464	-200.000	-0.012	-0.239
-347.450	209.756	-0.082	0.129
-346.435	-95.644	0.432	0.116
-345.420	122.409	-0.006	-0.008
-344.406	15.162	-0.086	-0.067
-343.391	144.201	0.075	-0.100
-342.377	-53.556	-0.246	-0.113
-341.362	-147.408	0.453	-0.038
-340.348	-200.000	0.005	0.168
-339.333	93.104	-0.132	0.149
-338.318	477.887	0.061	0.137
-337.304	360.534	-0.034	0.067
-336.289	104.546	0.135	-0.159
-335.275	-49.978	0.415	0.197
-334.260	-148.528	0.213	-0.017
-333.245	-93.245	0.169	-0.047
-332.231	-200.000	-0.032	-0.142
-331.216	-200.000	0.017	0.080
-330.202	453.001	0.105	0.232
-329.187	-92.914	0.190	0.053
-328.172	-132.692	0.128	0.016
-327.158	182.724	0.215	0.318
-326.143	-48.104	0.227	-0.110
-325.129	-86.198	-0.217	0.067
-324.114	-185.895	-0.093	-0.001
-323.099	-45.700	0.264	-0.130
-322.085	163.580	0.029	0.041
-321.070	-106.506	0.237	-0.053
-320.056	37.574	0.131	0.116
-319.041	193.544	-0.151	-0.228
-318.026	139.202	0.045	-0.060
-317.012	800.000	0.049	0.161
-315.997	614.637	0.108	-0.271
-314.983	666.218	-0.024	-0.061
-313.968	281.357	0.055	0.098
-312.953	-200.000	0.038	-0.538
-311.939	-200.000	0.014	0.068
-310.924	-200.000	0.022	-0.184
-309.910	51.815	-0.101	-0.096
-308.895	36.766	-0.189	0.167
-307.880	8.523	-0.433	-0.326
-306.866	800.000	0.094	-0.296
-305.851	-36.264	-0.173	0.094
-304.837	19.574	-0.075	0.060
-303.822	-200.000	0.000	0.065
-302.807	-88.144	-0.086	-0.026
-301.793	800.000	-0.069	0.198
-300.778	265.140	-0.137	-0.239
-299.764	57.797	0.209	-0.205
-298.749	-42.863	-0.187	-0.095
-297.735	138.910	-0.146	0.192
-296.720	170.598	-0.036	0.051
-295.705	-65.600	0.163	0.066
-294.691	-186.502	-0.164	0.002
-293.676	800.000	-0.053	-0.219
-292.662	800.000	-0.086	-0.305
-291.647	-60.871	-0.347	0.147
-290.632	-121.598	-0.178	0.029
-289.618	800.000	0.098	-0.427
-288.603	83.207	0.086	0.093
-287.589	576.544	0.026	0.064
-286.574	-119.043	0.209	0.037
-285.559	14.839	0.041	-0.032
-284.545	-54.791	0.295	0.133
-283.530	407.330	-0.093	-0.196
-282.516	-128.230	0.305	-0.043
-281.501	800.000	-0.055	-0.173
-280.486	142.411	-0.196	0.260
-279.472	41.346	0.150	0.136
-278.457	-147.434	-0.158	0.013
-277.443	508.851	0.026	-0.060
-276.428	334.468	0.022	-0.043
-275.413	-69.493	-0.182	-0.070
-274.399	800.000	-0.087	0.316
-273.384	800.000	0.032	0.117
-272.370	86.526	-0.072	0.079
-271.355	18.789	-0.154	-0.123
-270.340	96.701	-0.031	-0.036
-269.326	-135.336	0.212	0.025
-268.311	-162.202	-0.080	0.004
-267.297	-142.491	0.400	-0.039
-266.282	30.695	-0.076	-0.065
-265.267	800.000	-0.086	-0.358
-264.253	-200.000	0.006	0.162
-263.238	-68.457	0.058	0.022
-262.224	-131.925	0.240	-0.031
-261.209	61.888	-0.074	0.073
-260.195	167.346	-0.249	0.353
-259.180	-108.554	0.242	0.052
-258.165	-32.583	-0.317	0.176
-257.151	10.611	0.050	-0.038
-256.136	-200.000	0.009	-0.291
-255.122	-200.000	0.044	-0.272
-254.107	-13.913	0.117	0.075
-253.092	-44.422	0.166	0.083
-252.078	-30.683	-0.166	-0.093
-251.063	295.972	0.154	0.281
-250.049	108.952	-0.065	-0.077
-249.034	98.601	0.113	-0.130
-248.019	-10.624	-0.087	0.057
-247.005	-54.195	-0.051	0.023
-245.990	341.166	-0.026	0.051
-244.976	142.378	-0.162	-0.215
-243.961	-121.611	-0.109	-0.018
-242.946	-0.336	0.247	0.175
-241.932	-139.714	-0.088	-0.009
-240.917	1.303	-0.042	0.030
-239.903	253.450	-0.166	0.283
-238.888	557.881	0.062	0.149
-237.873	-108.787	0.183	0.039
-236.859	-51.772	-0.182	0.084
-235.844	800.000	-0.033	0.137
-234.830	-3.561	-0.232	0.161
-233.815	260.283	0.139	0.240
-232.800	15.325	-0.108	-0.084
-231.786	231.539	-0.135	-0.221
-230.771	-135.346	-0.105	-0.013
-229.757	800.000	0.090	0.334
-228.742	-85.517	0.175	0.054
-227.727	-91.261	0.217	0.062
-226.713	-200.000	-0.009	0.423
-225.698	606.592	-0.053	-0.132
-224.684	-107.610	-0.187	-0.041
-223.669	-136.026	0.116	0.014
-222.655	-200.000	-0.015	0.161
-221.640	375.984	0.070	0.143
-220.625	497.885	0.145	-0.332
-219.611	324.692	0.140	-0.267
-218.596	-62.569	0.013	0.005
-217.582	-200.000	-0.015	0.279
-216.567	-200.000	0.017	0.306
-215.552	-112.592	-0.200	-0.040
-214.538	-141.280	0.443	-0.045
-213.523	-39.056	-0.131	-0.069
-212.509	13.066	-0.068	0.052
-211.494	140.048	-0.154	-0.202
-210.479	152.571	-0.142	0.193
-209.465	146.777	-0.089	0.119
-208.450	146.904	0.123	-0.165
-207.436	-15.967	-0.336	0.213
-206.421	632.549	-0.044	-0.111
-205.406	66.284	-0.185	-0.187
-204.392	-13.753	0.152	-0.098
-203.377	-18.245	-0.103	0.064
-202.363	528.957	-0.102	0.240
-201.348	-200.000	-0.014	-0.241
-200.333	-21.743	0.319	-0.194
-199.319	219.243	-0.087	0.139
-198.304	212.456	-0.102	0.159
-197.290	25.100	0.080	0.066
-196.275	-139.716	-0.280	0.030
-195.260	27.677	0.178	0.149
-194.246	191.511	-0.151	-0.226
-193.231	-200.000	-0.011	0.090
-192.217	-200.000	-0.000	-0.344
-191.202	-154.412	0.316	-0.021
-190.187	800.000	-0.017	0.054
-189.173	-103.303	0.369	0.087
-188.158	-3.863	-0.122	0.084
-187.144	-139.750	-0.157	0.017
-186.129	61.964	0.017	0.017
-185.114	-143.586	0.165	-0.016
-184.100	278.570	-0.089	0.157
-183.085	-200.000	0.108	-0.472
-182.071	-151.821	-0.133	-0.010
-181.056	-136.494	-0.255	0.029
-180.042	12.530	0.280	-0.215
-179.027	-109.523	0.336	0.071
-178.012	800.000	-0.100	0.299
-176.998	-91.969	0.418	0.118
-175.983	800.000	0.090	-0.284
-174.969	-200.000	0.045	-0.370
-173.954	-200.000	-0.017	0.241
-172.939	169.461	-0.205	0.291
-171.925	360.417	0.065	-0.129
-170.910	-79.627	0.146	0.049
-169.896	800.000	0.049	-0.216
-168.881	522.449	-0.103	-0.240
-167.866	76.102	-0.048	-0.050
-166.852	316.772	0.121	-0.228
-165.837	-200.000	-0.039	-0.214
-164.823	-37.010	0.205	0.109
-163.808	-107.808	0.163	-0.035
-162.793	800.000	0.207	0.595
-161.779	5.241	-0.250	0.183
-160.764	-165.204	-0.202	0.009
-159.750	-200.000	0.005	-0.082
-158.735	-200.000	-0.002	-0.240
-157.720	-200.000	0.012	-0.146
-156.706	-200.000	0.005	0.276
-155.691	-102.832	-0.049	0.012
-154.677	-200.000	0.021	-0.386
-153.662	116.627	-0.346	-0.422
-152.647	-89.062	0.256	0.075
-151.633	7.610	0.216	0.161
-150.618	21.930	0.127	-0.103
-149.604	97.832	-0.259	0.296
-148.589	298.845	0.074	-0.135
-147.574	-106.981	-0.067	0.015
-146.560	-1.595	-0.232	0.163
-145.545	329.019	-0.052	-0.099
-144.531	800.000	-0.012	0.039
-143.516	272.686	0.072	-0.126
-142.502	800.000	0.067	-0.237
-141.487	-200.000	-0.021	-0.423
-140.472	-41.297	-0.108	-0.055
-139.458	47.322	0.335	0.310
-138.443	-200.000	0.019	-0.110
-137.429	42.449	0.157	-0.142
-136.414	150.996	0.091	0.123
-135.399	356.113	0.024	0.047
-134.385	194.894	0.031	-0.047
-133.370	34.357	-0.139	-0.120
-132.356	367.138	-0.109	-0.218
-131.341	-176.215	-0.146	0.004
-130.326	163.049	0.108	-0.150
-129.312	-200.000	-0.006	0.029
-128.297	94.472	-0.264	-0.298
-127.283	-200.000	-0.036	0.326
-126.268	266.219	0.174	-0.302
-125.253	79.070	0.180	-0.191
-124.239	-78.484	0.414	-0.141
-123.224	75.851	-0.294	-0.308
-122.210	-58.886	0.325	0.140
-121.195	-200.000	-0.027	0.172
