DTS Sentinel unit serial number:	SN413079Multiplexer serial number:	ORYXHardware model number:	OX4-SRSoftware version number:	ORYX F/W v4.00 Oryx Data Collector v3.7.2.0data status	okinstallation	princeton_trtdifferential loss correction	single-endedforward channel	channel 4reverse channel	N/Adate	2019/09/12time	06:19:11forward acquisition time	60.00reverse acquisition time	0.00gamma	496.2192k internal	0.2307k external	0.2307temperature offset calibration	1.0059default loss term (dB/km)	0.3790temperature slope calibration	1.0000multiplexer offset coefficient	1.0000multiplexer slope coefficient	1.0000fibre end	0.00T internal ref (°C)	32.12T ext. ref 1 (°C)	1.56T ext. ref 2 (°C)	27.40length (m)	temperature (°C)	Stokes	anti-Stokes-747.200	-200.000	-0.056	-0.289
-746.185	370.086	-0.131	0.269
-745.171	-170.778	0.286	0.010
-744.156	-200.000	-0.026	0.204
-743.142	664.887	-0.067	0.176
-742.127	-200.000	-0.026	-0.218
-741.112	-119.253	-0.256	0.045
-740.098	666.287	-0.056	-0.147
-739.083	-200.000	-0.030	-0.364
-738.069	113.528	-0.202	0.249
-737.054	-71.235	0.155	0.059
-736.039	-146.267	-0.161	0.014
-735.025	156.231	0.262	0.368
-734.010	-78.589	-0.206	-0.072
-732.996	502.357	-0.013	0.030
-731.981	-91.128	0.154	-0.045
-730.966	-200.000	-0.003	0.316
-729.952	-146.249	0.271	0.024
-728.937	67.654	-0.099	0.103
-727.923	-36.858	-0.129	0.070
-726.908	-2.643	0.126	0.090
-725.894	49.676	-0.611	-0.585
-724.879	126.631	-0.022	-0.028
-723.864	-107.365	-0.171	0.038
-722.850	800.000	0.084	-0.339
-721.835	356.196	-0.083	-0.168
-720.821	102.274	0.105	0.125
-719.806	-1.873	-0.105	0.075
-718.791	800.000	-0.070	-0.204
-717.777	375.656	-0.224	-0.463
-716.762	-59.132	-0.064	-0.028
-715.748	103.826	0.181	-0.216
-714.733	800.000	0.052	-0.232
-713.718	-85.452	-0.212	0.067
-712.704	-72.397	-0.056	-0.021
-711.689	89.223	0.023	-0.026
-710.675	136.444	0.155	0.205
-709.660	-153.016	-0.384	-0.027
-708.645	-129.292	0.201	-0.028
-707.631	212.065	0.077	0.123
-706.616	572.997	-0.065	-0.161
-705.602	-181.513	0.277	0.005
-704.587	-200.000	-0.033	-0.217
-703.572	129.645	-0.076	0.099
-702.558	-200.000	0.036	-0.171
-701.543	-111.924	0.684	0.140
-700.529	-120.657	0.189	0.033
-699.514	-0.176	-0.280	-0.202
-698.499	-46.897	0.166	0.082
-697.485	-200.000	-0.043	-0.270
-696.470	64.606	0.046	-0.047
-695.456	304.258	-0.146	-0.274
-694.441	94.511	0.196	-0.226
-693.426	260.080	-0.117	-0.205
-692.412	93.504	-0.079	-0.091
-691.397	-44.150	-0.204	-0.104
-690.383	607.693	0.112	-0.285
-689.368	-66.046	-0.233	-0.094
-688.354	-16.423	-0.217	0.139
-687.339	-61.131	-0.138	-0.059
-686.324	-200.000	-0.406	0.002
-685.310	-88.852	-0.296	0.089
-684.295	-31.464	-0.141	0.080
-683.281	575.749	-0.093	-0.229
-682.266	-200.000	-0.016	-0.123
-681.251	94.448	0.252	-0.291
-680.237	-78.705	-0.246	-0.085
-679.222	702.985	-0.117	-0.312
-678.208	-200.000	0.188	0.001
-677.193	-174.858	-0.114	-0.003
-676.178	-133.998	0.180	0.023
-675.164	-90.630	-0.212	0.062
-674.149	-42.982	0.375	-0.193
-673.135	364.826	0.038	-0.078
-672.120	800.000	-0.071	-0.263
-671.105	800.000	-0.043	0.171
-670.091	-200.000	-0.052	0.267
-669.076	-30.923	0.239	-0.137
-668.062	338.474	-0.056	-0.111
-667.047	-52.330	-0.437	0.205
-666.032	-94.225	0.201	-0.056
-665.018	-22.555	0.206	0.126
-664.003	-118.433	0.217	-0.039
-662.989	25.532	-0.169	0.143
-661.974	151.566	0.043	0.059
-660.959	800.000	0.040	-0.138
-659.945	-77.274	-0.412	-0.145
-658.930	59.107	0.215	-0.214
-657.916	-200.000	0.072	-0.351
-656.901	-13.235	0.421	0.277
-655.886	104.945	-0.047	0.056
-654.872	800.000	-0.031	0.136
-653.857	173.004	0.102	-0.148
-652.843	406.758	-0.105	0.225
-651.828	-125.630	-0.118	-0.018
-650.814	-170.903	0.141	-0.005
-649.799	209.367	0.048	0.075
-648.784	702.862	0.053	0.142
-647.770	-100.185	-0.272	-0.068
-646.755	-75.792	-0.022	-0.008
-645.741	56.763	0.084	-0.083
-644.726	-200.000	-0.035	0.201
-643.711	-36.642	-0.355	-0.193
-642.697	-84.851	-0.158	0.050
-641.682	151.382	0.225	0.310
-640.668	29.373	0.144	-0.124
-639.653	32.471	-0.258	0.226
-638.638	-16.348	-0.111	-0.071
-637.624	131.644	-0.066	-0.086
-636.609	-200.000	0.010	0.097
-635.595	-97.618	-0.105	0.028
-634.580	18.100	-0.379	0.306
-633.565	364.358	0.043	0.089
-632.551	286.508	0.062	0.114
-631.536	312.435	0.078	0.149
-630.522	202.290	0.169	-0.264
-629.507	-200.000	0.002	-0.325
-628.492	-151.017	0.299	-0.023
-627.478	-37.157	0.273	-0.148
-626.463	-200.000	-0.027	0.164
-625.449	-89.453	0.123	-0.037
-624.434	275.298	-0.085	0.153
-623.419	54.426	0.064	0.063
-622.405	57.532	0.103	-0.102
-621.390	61.451	0.053	-0.053
-620.376	-200.000	-0.049	-0.236
-619.361	-52.633	0.145	-0.068
-618.346	-143.555	0.072	0.007
-617.332	-104.122	0.083	0.019
-616.317	-141.866	-0.130	-0.013
-615.303	-93.747	-0.237	0.066
-614.288	127.948	0.046	0.059
-613.273	-11.011	-0.143	-0.096
-612.259	-140.034	0.200	0.021
-611.244	-28.173	0.060	-0.035
-610.230	311.074	0.120	-0.228
-609.215	45.681	0.150	-0.140
-608.201	277.283	-0.108	-0.195
-607.186	800.000	-0.037	-0.145
-606.171	-200.000	-0.036	0.167
-605.157	221.451	-0.138	-0.224
-604.142	-194.079	-0.142	-0.001
-603.128	59.585	0.155	-0.155
-602.113	102.410	-0.096	0.113
-601.098	-200.000	0.045	-0.345
-600.084	-35.430	-0.250	0.137
-599.069	-109.564	-0.507	-0.108
-598.055	-200.000	-0.061	0.391
-597.040	-33.204	0.168	-0.094
-596.025	440.224	-0.070	-0.155
-595.011	800.000	0.105	-0.304
-593.996	32.645	-0.121	-0.106
-592.982	404.067	-0.124	0.264
-591.967	-2.510	0.142	0.100
-590.952	-200.000	-0.010	-0.078
-589.938	-200.000	0.004	-0.070
-588.923	-4.377	-0.118	-0.082
-587.909	277.458	0.078	0.139
-586.894	-121.082	0.142	-0.024
-585.879	-200.000	-0.004	-0.026
-584.865	133.127	0.125	-0.164
-583.850	729.053	-0.023	0.063
-582.836	800.000	0.060	0.239
-581.821	-200.000	0.006	-0.205
-580.806	-123.936	-0.047	0.007
-579.792	-20.475	0.269	0.167
-578.777	139.653	-0.168	0.223
-577.763	-119.713	-0.531	0.093
-576.748	41.711	-0.134	-0.122
-575.733	-9.274	0.173	-0.117
-574.719	-51.385	-0.126	0.060
-573.704	800.000	-0.013	-0.047
-572.690	43.164	0.235	-0.217
-571.675	9.835	0.171	0.131
-570.661	-135.090	-0.085	0.010
-569.646	-200.000	-0.061	-0.334
-568.631	214.372	-0.048	-0.078
-567.617	800.000	0.087	-0.376
-566.602	555.710	-0.123	0.299
-565.588	-22.079	0.167	0.102
-564.573	-200.000	0.039	0.191
-563.558	408.522	0.065	-0.138
-562.544	412.224	0.145	0.311
-561.529	145.540	-0.146	-0.197
-560.515	75.811	-0.108	-0.115
-559.500	-200.000	-0.040	0.256
-558.485	-45.839	-0.189	-0.094
-557.471	-139.319	0.163	-0.018
-556.456	4.894	-0.245	0.182
-555.442	-200.000	-0.055	-0.272
-554.427	120.662	0.076	0.095
-553.412	-52.184	-0.339	-0.159
-552.398	-200.000	0.042	-0.188
-551.383	-200.000	-0.058	-0.291
-550.369	138.609	0.185	-0.245
-549.354	217.578	-0.163	-0.262
-548.339	454.550	-0.096	0.215
-547.325	-117.645	-0.315	-0.057
-546.310	-171.742	0.096	0.003
-545.296	16.592	0.158	0.126
-544.281	10.404	0.230	0.177
-543.266	-73.100	-0.200	0.074
-542.252	173.634	-0.127	-0.185
-541.237	51.767	0.195	-0.187
-540.223	-134.467	0.359	-0.044
-539.208	-92.970	-0.218	-0.061
-538.193	-150.883	0.219	-0.017
-537.179	-37.847	0.403	0.216
-536.164	-200.000	-0.031	0.136
-535.150	-75.225	0.034	-0.012
-534.135	21.803	-0.056	0.046
-533.121	-193.790	0.314	0.003
-532.106	-98.768	-0.213	0.055
-531.091	-105.549	0.430	0.098
-530.077	154.598	-0.020	0.028
-529.062	800.000	0.095	-0.347
-528.048	-67.452	-0.141	0.056
-527.033	3.808	-0.236	0.174
-526.018	-200.000	-0.001	0.143
-525.004	-96.720	-0.018	0.005
-523.989	147.249	-0.176	0.238
-522.975	-135.547	0.028	0.003
-521.960	-53.363	0.162	-0.075
-520.945	20.561	-0.097	-0.079
-519.931	-200.000	-0.006	0.157
-518.916	-200.000	-0.051	-0.229
-517.902	-59.406	-0.144	-0.063
-516.887	-10.868	0.228	-0.152
-515.872	483.785	-0.110	0.252
-514.858	-200.000	0.013	-0.068
-513.843	356.570	0.213	0.429
-512.829	-200.000	-0.000	-0.056
-511.814	800.000	0.089	0.354
-510.799	-134.736	0.188	-0.023
-509.785	36.590	0.126	0.112
-508.770	-200.000	0.002	-0.241
-507.756	-35.874	-0.205	-0.112
-506.741	177.157	0.076	0.111
-505.726	50.821	0.057	-0.055
-504.712	-200.000	-0.017	-0.106
-503.697	-200.000	-0.048	0.274
-502.683	-28.394	0.141	0.082
-501.668	-172.448	0.276	-0.009
-500.653	-86.527	0.268	-0.083
-499.639	-77.091	-0.208	0.073
-498.624	-110.247	0.179	0.038
-497.610	13.128	-0.159	0.124
-496.595	-189.063	-0.270	0.003
-495.581	27.244	-0.280	0.237
-494.566	256.573	0.143	0.248
-493.551	30.723	-0.111	0.096
-492.537	-167.648	-0.249	-0.010
-491.522	753.480	-0.070	0.191
-490.508	256.391	0.079	0.136
-489.493	-48.107	-0.256	0.125
-488.478	170.137	0.094	0.136
-487.464	164.127	0.050	-0.072
-486.449	117.261	-0.242	0.299
-485.435	-37.081	0.243	-0.131
-484.420	-91.669	-0.346	0.099
-483.405	-92.903	0.114	0.032
-482.391	-128.261	-0.334	0.048
-481.376	-200.000	0.017	0.136
-480.362	21.978	0.292	0.240
-479.347	-110.796	0.196	-0.041
-478.332	-33.313	-0.123	0.069
-477.318	3.894	-0.215	0.158
-476.303	325.671	-0.127	0.244
-475.289	5.387	0.175	-0.130
-474.274	369.520	0.059	-0.119
-473.259	436.892	0.156	-0.342
-472.245	7.589	-0.168	0.127
-471.230	-200.000	-0.052	0.261
-470.216	-44.781	0.129	0.065
-469.201	103.072	-0.237	-0.279
-468.186	362.128	-0.138	-0.279
-467.172	800.000	-0.029	0.114
-466.157	270.644	-0.070	0.124
-465.143	-11.191	-0.236	0.157
-464.128	-113.309	0.251	0.050
-463.113	-116.506	0.113	0.021
-462.099	-200.000	0.013	-0.068
-461.084	-122.946	-0.101	-0.016
-460.070	108.263	0.158	0.189
-459.055	-154.350	-0.161	0.011
-458.040	-200.000	-0.005	-0.080
-457.026	800.000	-0.044	0.134
-456.011	-65.538	-0.251	0.101
-454.997	-13.175	0.378	0.247
-453.982	143.258	-0.203	-0.271
-452.968	-81.540	-0.145	-0.048
-451.953	115.724	0.096	0.118
-450.938	-200.000	-0.044	-0.225
-449.924	-113.868	0.335	-0.065
-448.909	800.000	-0.104	-0.323
-447.895	162.336	0.157	0.222
-446.880	-61.247	-0.141	0.060
-445.865	-102.045	-0.379	0.092
-444.851	800.000	-0.022	-0.087
-443.836	-166.549	-0.350	0.015
-442.822	343.356	0.130	0.257
-441.807	-72.761	0.203	0.075
-440.792	-120.426	0.352	-0.060
-439.778	-64.613	-0.312	-0.127
-438.763	800.000	-0.039	0.137
-437.749	149.751	0.127	-0.173
-436.734	-68.281	-0.097	-0.038
-435.719	-52.062	0.119	-0.056
-434.705	61.224	0.216	-0.215
-433.690	214.665	0.209	0.333
-432.676	5.160	0.296	-0.219
-431.661	64.321	-0.198	-0.200
-430.646	-113.379	0.033	0.006
-429.632	264.391	-0.125	0.218
-428.617	-200.000	-0.017	0.340
-427.603	-75.305	0.145	0.052
-426.588	132.577	-0.165	-0.213
-425.573	-200.000	-0.049	-0.287
-424.559	57.513	0.085	-0.083
-423.544	-146.987	-0.243	-0.021
-422.530	-122.155	0.078	0.013
-421.515	-72.465	0.024	-0.009
-420.500	-200.000	0.048	-0.334
-419.486	268.849	0.142	0.251
-418.471	42.518	0.082	0.075
-417.457	-0.398	0.029	0.021
-416.442	-200.000	-0.026	-0.179
-415.428	-169.891	0.029	-0.001
-414.413	-200.000	0.015	0.122
-413.398	-200.000	0.022	-0.238
-412.384	57.139	0.305	0.298
-411.369	-198.373	0.231	-0.001
-410.355	-136.209	0.279	-0.033
-409.340	-51.497	-0.227	0.106
-408.325	-37.187	-0.197	-0.106
-407.311	800.000	0.089	0.317
-406.296	-200.000	-0.007	0.059
-405.282	-200.000	0.002	-0.302
-404.267	800.000	0.030	0.117
-403.252	106.055	0.067	0.080
-402.238	-200.000	0.010	-0.086
-401.223	-16.474	-0.181	-0.115
-400.209	-200.000	0.033	-0.207
-399.194	8.492	0.052	0.040
-398.179	0.237	0.038	-0.028
-397.165	120.177	-0.153	-0.190
-396.150	-200.000	-0.064	-0.326
-395.136	-177.784	0.147	0.004
-394.121	-156.024	0.204	-0.013
-393.106	-200.000	-0.010	-0.167
-392.092	486.124	-0.257	-0.589
-391.077	132.209	0.243	-0.314
-390.063	-16.769	-0.082	-0.052
-389.048	50.643	-0.130	0.123
-388.033	295.187	-0.161	0.296
-387.019	-25.477	0.213	-0.126
-386.004	-200.000	0.054	0.389
-384.990	800.000	0.066	-0.270
-383.975	0.415	0.264	0.189
-382.960	800.000	0.104	-0.330
-381.946	-88.914	0.270	0.080
-380.931	426.908	-0.127	0.275
-379.917	205.048	-0.190	0.296
-378.902	-72.483	-0.120	0.045
-377.888	-40.989	-0.320	-0.166
-376.873	-200.000	0.019	-0.195
-375.858	-200.000	0.025	-0.259
-374.844	-101.364	0.171	-0.042
-373.829	800.000	0.015	-0.063
-372.815	-83.891	-0.294	0.094
-371.800	108.362	0.071	0.085
-370.785	370.307	-0.107	0.217
-369.771	3.069	-0.050	-0.036
-368.756	-169.755	-0.357	0.013
-367.742	564.483	0.019	0.046
-366.727	331.373	-0.056	0.109
-365.712	770.886	0.112	0.305
-364.698	800.000	-0.036	-0.154
-363.683	-129.406	-0.313	0.044
-362.669	13.048	-0.211	-0.163
-361.654	-7.498	-0.078	0.053
-360.639	-175.676	0.330	-0.009
-359.625	151.194	-0.233	-0.317
-358.610	331.651	-0.063	0.122
-357.596	-81.906	0.159	0.052
-356.581	-132.052	-0.134	0.018
-355.566	35.531	0.087	-0.076
-354.552	-34.117	-0.389	0.214
-353.537	379.686	0.157	-0.321
-352.523	800.000	0.083	0.237
-351.508	800.000	-0.051	-0.154
-350.493	-200.000	0.022	0.147
-349.479	-112.495	0.464	-0.093
-348.464	-84.809	-0.038	-0.012
-347.450	-43.968	0.123	0.062
-346.435	-200.000	-0.062	-0.294
-345.420	-58.164	0.111	-0.048
-344.406	-55.927	-0.246	0.110
-343.391	217.740	0.199	-0.317
-342.377	478.913	0.137	-0.310
-341.362	-200.000	-0.009	0.159
-340.348	-45.422	0.316	-0.157
-339.333	-105.540	0.175	0.040
-338.318	120.498	-0.044	0.054
-337.304	800.000	-0.059	0.174
-336.289	102.122	-0.164	-0.192
-335.275	86.880	0.138	0.153
-334.260	94.819	-0.086	-0.098
-333.245	-6.339	0.277	-0.189
-332.231	-200.000	0.016	0.074
-331.216	800.000	-0.051	0.179
-330.202	346.886	-0.072	0.141
-329.187	-92.421	-0.179	0.050
-328.172	-37.074	0.090	0.048
-327.158	101.509	0.110	-0.129
-326.143	800.000	0.017	-0.051
-325.129	-200.000	-0.027	-0.202
-324.114	-75.581	0.160	0.057
-323.099	-21.736	0.211	-0.128
-322.085	-2.972	0.278	0.194
-321.070	-107.998	0.236	0.051
-320.056	-63.311	0.397	0.163
-319.041	-152.248	-0.395	0.029
-318.026	800.000	-0.089	-0.251
-317.012	-68.924	-0.291	0.112
-315.997	-37.353	-0.199	-0.106
-314.983	105.111	0.073	-0.086
-313.968	800.000	-0.031	0.116
-312.953	107.572	0.067	0.080
-311.939	47.722	-0.205	0.191
-310.924	97.190	-0.085	0.098
-309.910	37.409	-0.140	-0.124
-308.895	27.918	0.091	0.077
-307.880	187.039	0.151	0.226
-306.866	800.000	-0.027	-0.089
-305.851	-151.327	-0.374	0.028
-304.837	402.279	0.042	0.089
-303.822	-41.787	0.042	0.022
-302.807	8.524	-0.311	-0.234
-301.793	-200.000	-0.018	-0.242
-300.778	337.519	-0.154	0.300
-299.764	-100.854	0.103	-0.025
-298.749	57.011	-0.122	-0.119
-297.735	122.557	0.020	-0.025
-296.720	-90.571	0.204	0.059
-295.705	-200.000	0.019	0.382
-294.691	52.809	-0.144	-0.137
-293.676	-107.366	0.386	-0.085
-292.662	-79.064	0.099	-0.034
-291.647	79.023	-0.195	-0.208
-290.632	-123.074	0.479	-0.077
-289.618	-109.393	0.063	-0.013
-288.603	-77.556	-0.252	-0.087
-287.589	-0.731	0.194	-0.137
-286.574	490.746	0.162	-0.370
-285.559	616.400	0.037	-0.092
-284.545	576.916	-0.138	0.336
-283.530	-102.761	0.207	0.049
-282.516	-39.854	-0.114	-0.060
-281.501	18.627	-0.122	0.097
-280.486	105.957	-0.237	-0.280
-279.472	57.189	0.344	0.335
-278.457	-149.885	-0.160	0.013
-277.443	-53.107	0.100	-0.046
-276.428	800.000	-0.084	-0.342
-275.413	313.773	-0.119	0.224
-274.399	-190.597	-0.437	-0.005
-273.384	-128.027	0.137	0.020
-272.370	-36.499	-0.019	-0.010
-271.355	201.410	-0.176	0.271
-270.340	395.027	0.126	-0.262
-269.326	-200.000	-0.029	0.151
-268.311	-68.043	0.224	-0.087
-267.297	-150.992	0.165	0.012
-266.282	-38.990	-0.214	-0.113
-265.267	320.181	-0.017	-0.031
-264.253	434.063	0.039	0.084
-263.238	-85.291	-0.049	-0.015
-262.224	544.852	0.069	0.164
-261.209	107.257	0.192	-0.228
-260.195	-27.935	0.156	-0.090
-259.180	-200.000	-0.002	0.032
-258.165	-88.712	-0.100	-0.030
-257.151	-0.018	0.124	-0.088
-256.136	11.300	0.049	-0.038
-255.122	-40.978	-0.074	0.038
-254.107	667.962	-0.035	0.091
-253.092	28.737	0.129	0.109
-252.078	-200.000	-0.031	-0.222
-251.063	800.000	0.087	-0.350
-250.049	-200.000	0.303	-0.001
-249.034	-200.000	0.030	0.200
-248.019	-90.400	-0.212	-0.061
-247.005	47.743	0.167	-0.155
-245.990	1.380	-0.184	0.132
-244.976	-92.381	-0.203	-0.057
-243.961	84.493	-0.196	0.214
-242.946	313.145	0.061	0.114
-241.932	-88.041	0.261	-0.078
-240.917	-114.191	0.075	-0.014
-239.903	48.051	0.039	-0.036
-238.888	376.497	0.112	-0.228
-237.873	102.862	0.256	-0.299
-236.859	422.043	-0.142	0.303
-235.844	223.106	0.120	0.194
-234.830	-46.376	-0.271	-0.133
-233.815	-54.326	0.332	0.150
-232.800	-18.877	-0.282	-0.175
-231.786	-123.811	-0.151	-0.024
-230.771	-10.826	-0.148	0.097
-229.757	252.950	-0.147	0.249
-228.742	122.969	-0.219	-0.273
-227.727	800.000	-0.055	-0.174
-226.713	494.859	-0.025	0.057
-225.698	-200.000	0.021	0.328
-224.684	792.766	-0.114	-0.313
-223.669	-200.000	0.027	0.127
-222.655	800.000	0.049	-0.138
-221.640	-200.000	0.020	-0.258
-220.625	-200.000	0.091	-0.425
-219.611	-166.744	-0.174	0.007
-218.596	800.000	0.069	-0.294
-217.582	-153.153	0.215	0.015
-216.567	633.417	-0.036	-0.092
-215.552	13.146	-0.087	-0.067
-214.538	-102.201	-0.100	0.024
-213.523	-43.646	0.117	0.059
-212.509	-200.000	-0.009	0.053
-211.494	-200.000	-0.024	0.160
-210.479	-113.457	0.225	0.044
-209.465	800.000	0.077	0.223
-208.450	-37.436	-0.062	0.033
-207.436	-22.866	-0.195	0.117
-206.421	800.000	-0.048	0.205
-205.406	120.319	-0.187	-0.231
-204.392	247.197	-0.221	-0.372
-203.377	27.073	-0.054	0.045
-202.363	-49.712	0.217	0.103
-201.348	-14.379	0.184	0.118
-200.333	128.364	0.183	0.231
-199.319	-200.000	0.038	0.221
-198.304	472.002	0.050	-0.111
-197.290	-136.978	0.161	0.018
-196.275	-200.000	0.043	-0.458
-195.260	255.095	-0.134	-0.228
-194.246	251.694	0.182	-0.308
-193.231	-115.132	-0.283	-0.053
-192.217	-43.915	0.297	0.148
-191.202	22.964	-0.310	0.253
-190.187	77.941	0.088	-0.094
-189.173	-131.386	0.135	0.018
-188.158	800.000	0.071	0.264
-187.144	84.123	-0.165	-0.179
-186.129	-71.840	0.281	0.104
-185.114	665.822	0.041	0.105
-184.100	800.000	0.091	0.349
-183.085	48.068	-0.092	0.086
-182.071	45.454	0.206	-0.190
-181.056	-200.000	0.018	0.231
-180.042	-171.391	-0.326	0.011
-179.027	328.000	0.100	0.191
-178.012	-200.000	-0.076	0.355
-176.998	386.720	0.141	0.290
-175.983	73.446	-0.269	0.280
-174.969	-200.000	-0.004	0.046
-173.954	-200.000	0.021	0.337
-172.939	-34.906	-0.171	0.093
-171.925	-16.356	0.061	-0.039
-170.910	-192.632	0.284	-0.003
-169.896	-200.000	0.012	0.105
-168.881	-78.719	-0.141	0.048
-167.866	-33.520	-0.259	0.143
-166.852	295.332	-0.147	-0.268
-165.837	-94.275	-0.249	-0.068
-164.823	-79.142	0.383	-0.129
-163.808	122.950	-0.170	0.212
-162.793	-166.773	-0.164	0.007
-161.779	40.936	0.153	0.137
-160.764	-200.000	0.056	-0.345
-159.750	-73.828	0.330	0.119
-158.735	627.209	-0.108	-0.271
-157.720	-200.000	0.041	0.254
-156.706	-29.300	0.184	-0.105
-155.691	129.351	-0.120	0.152
-154.677	4.042	0.052	0.037
-153.662	800.000	0.087	-0.301
-152.647	-106.685	-0.139	0.031
-151.633	92.557	-0.112	0.126
-150.618	-200.000	0.008	-0.236
-149.604	415.209	-0.012	-0.025
-148.589	213.669	-0.098	0.154
-147.574	-132.483	0.151	-0.019
-146.560	-166.461	-0.270	-0.011
-145.545	-200.000	0.019	0.285
-144.531	-155.241	-0.038	0.002
-143.516	-22.427	-0.119	0.071
-142.502	37.976	0.164	0.145
-141.487	196.705	-0.129	-0.196
-140.472	-32.727	-0.151	0.084
-139.458	-14.665	0.134	0.086
-138.443	-20.889	-0.191	-0.116
-137.429	-200.000	0.026	0.234
-136.414	-0.690	0.176	0.124
-135.399	-200.000	-0.036	-0.208
-134.385	-156.879	0.191	0.012
-133.370	-200.000	0.002	-0.079
-132.356	163.810	0.084	-0.117
-131.341	601.504	-0.035	0.087
-130.326	-154.085	-0.091	0.006
-129.312	-118.531	-0.279	0.049
-128.297	-60.322	0.300	0.127
-127.283	-136.426	0.048	-0.005
-126.268	800.000	0.051	-0.164
-125.253	-152.444	-0.100	-0.007
-124.239	624.446	-0.112	-0.279
-123.224	-186.890	-0.269	-0.004
-122.210	12.842	0.360	0.276
