DTS Sentinel unit serial number:	SN413079Multiplexer serial number:	ORYXHardware model number:	OX4-SRSoftware version number:	ORYX F/W v4.00 Oryx Data Collector v3.7.2.0data status	okinstallation	princeton_trtdifferential loss correction	single-endedforward channel	channel 4reverse channel	N/Adate	2019/09/14time	23:29:34forward acquisition time	60.00reverse acquisition time	0.00gamma	496.2192k internal	0.2306k external	0.2306temperature offset calibration	1.0056default loss term (dB/km)	0.3790temperature slope calibration	1.0000multiplexer offset coefficient	1.0000multiplexer slope coefficient	1.0000fibre end	0.00T internal ref (°C)	32.31T ext. ref 1 (°C)	4.64T ext. ref 2 (°C)	27.42length (m)	temperature (°C)	Stokes	anti-Stokes-747.200	-87.910	-0.360	-0.110
-746.185	-7.298	-0.477	0.329
-745.171	197.783	0.128	-0.199
-744.156	-81.947	0.146	-0.049
-743.142	800.000	-0.120	0.357
-742.127	574.783	0.142	0.352
-741.112	800.000	-0.056	-0.171
-740.098	-122.630	-0.062	0.010
-739.083	180.088	-0.167	-0.249
-738.069	-131.461	0.332	0.045
-737.054	222.222	0.192	-0.315
-736.039	-178.961	-0.145	-0.003
-735.025	-183.147	0.132	-0.002
-734.010	255.315	-0.282	-0.490
-732.996	-2.201	-0.150	-0.107
-731.981	277.548	0.095	0.172
-730.966	77.831	-0.362	-0.392
-729.952	277.659	-0.198	-0.358
-728.937	800.000	-0.033	0.113
-727.923	-40.496	-0.130	-0.069
-726.908	20.523	-0.142	-0.117
-725.894	800.000	0.125	-0.374
-724.879	-200.000	0.034	-0.585
-723.864	-137.835	0.122	0.014
-722.850	-200.000	0.049	-0.237
-721.835	477.325	0.024	-0.055
-720.821	-71.539	0.099	0.038
-719.806	-51.739	-0.251	0.119
-718.791	155.381	-0.037	-0.052
-717.777	-133.472	-0.062	-0.008
-716.762	-15.663	0.073	0.047
-715.748	-200.000	-0.016	0.152
-714.733	-200.000	0.005	0.203
-713.718	62.912	-0.110	-0.112
-712.704	558.288	-0.119	-0.293
-711.689	30.743	0.203	0.177
-710.675	-70.236	-0.211	-0.081
-709.660	77.092	-0.035	-0.038
-708.645	158.186	-0.282	0.397
-707.631	46.567	0.064	-0.061
-706.616	241.902	-0.094	0.160
-705.602	-15.046	-0.088	-0.058
-704.587	140.419	-0.181	-0.243
-703.572	85.667	0.170	0.190
-702.558	-2.382	0.239	0.170
-701.543	-200.000	-0.001	-0.166
-700.529	-60.890	0.249	-0.107
-699.514	-200.000	0.014	0.116
-698.499	161.482	0.096	-0.136
-697.485	-43.082	0.279	-0.144
-696.470	-13.395	-0.110	-0.073
-695.456	-200.000	0.010	-0.182
-694.441	800.000	-0.038	0.131
-693.426	-159.896	-0.086	-0.005
-692.412	41.442	-0.228	-0.209
-691.397	-66.118	0.198	0.080
-690.383	557.060	0.064	0.156
-689.368	4.609	-0.161	-0.120
-688.354	-59.716	-0.275	-0.119
-687.339	-200.000	0.019	-0.122
-686.324	671.423	0.085	0.224
-685.310	286.099	-0.147	-0.269
-684.295	800.000	-0.053	0.194
-683.281	137.807	0.047	-0.063
-682.266	58.838	0.251	-0.250
-681.251	514.590	0.097	0.230
-680.237	-163.397	0.077	-0.004
-679.222	-145.128	-0.249	0.023
-678.208	267.947	0.067	0.120
-677.193	-106.508	0.438	-0.099
-676.178	369.400	0.060	-0.123
-675.164	-136.954	0.224	-0.026
-674.149	-200.000	0.086	-0.584
-673.135	-37.725	-0.243	0.131
-672.120	-56.677	0.134	-0.060
-671.105	261.926	0.113	0.198
-670.091	-104.787	-0.341	-0.080
-669.076	-97.354	-0.119	0.031
-668.062	-200.000	0.016	-0.145
-667.047	800.000	-0.088	-0.258
-666.032	-200.000	0.032	-0.148
-665.018	-113.656	-0.228	-0.045
-664.003	145.925	-0.155	-0.211
-662.989	-69.283	-0.393	-0.153
-661.974	257.721	-0.068	-0.118
-660.959	278.091	-0.040	-0.072
-659.945	-200.000	0.013	-0.105
-658.930	31.141	-0.277	-0.241
-657.916	-103.021	-0.026	0.006
-656.901	-106.447	-0.180	0.041
-655.886	49.060	0.265	-0.252
-654.872	-100.158	0.106	-0.027
-653.857	-200.000	-0.038	-0.358
-652.843	-200.000	-0.024	-0.143
-651.828	413.187	0.128	-0.277
-650.814	13.383	-0.140	0.110
-649.799	-175.877	0.093	-0.003
-648.784	-140.951	0.448	-0.047
-647.770	-200.000	-0.034	-0.199
-646.755	-123.537	0.238	0.038
-645.741	-183.595	0.093	-0.002
-644.726	318.950	0.127	-0.244
-643.711	-200.000	0.011	-0.332
-642.697	4.238	-0.088	-0.065
-641.682	11.436	-0.072	0.056
-640.668	-200.000	0.015	-0.100
-639.653	-200.000	0.008	-0.298
-638.638	-200.000	0.007	-0.084
-637.624	-86.557	-0.227	0.070
-636.609	-55.123	0.222	0.101
-635.595	340.595	0.140	0.278
-634.580	-108.021	-0.145	-0.032
-633.565	-93.798	0.079	0.022
-632.551	-79.384	0.120	-0.041
-631.536	120.273	0.089	0.112
-630.522	-200.000	-0.018	-0.193
-629.507	-101.797	0.554	0.136
-628.492	-44.401	-0.130	0.066
-627.478	36.392	0.214	0.191
-626.463	203.700	0.146	0.228
-625.449	81.417	0.163	0.178
-624.434	84.812	0.257	0.285
-623.419	-133.748	-0.295	0.037
-622.405	484.007	-0.109	0.252
-621.390	-200.000	-0.050	0.283
-620.376	-77.782	-0.422	-0.148
-619.361	349.275	-0.086	0.172
-618.346	-200.000	0.060	-0.000
-617.332	-1.245	0.328	-0.235
-616.317	-200.000	-0.034	0.158
-615.303	-71.640	-0.131	-0.049
-614.288	-183.629	-0.415	0.007
-613.273	53.536	0.098	0.095
-612.259	142.788	0.182	-0.245
-611.244	-70.635	-0.240	-0.092
-610.230	-63.088	0.213	-0.089
-609.215	-88.084	-0.236	0.072
-608.201	-89.405	-0.286	-0.085
-607.186	-177.517	0.347	-0.009
-606.171	800.000	0.015	0.044
-605.157	67.575	-0.081	0.083
-604.142	-81.349	-0.359	-0.120
-603.128	292.562	-0.096	0.177
-602.113	18.616	0.180	-0.146
-601.098	-89.291	0.183	-0.055
-600.084	-69.981	-0.079	0.030
-599.069	-59.726	-0.215	-0.093
-598.055	56.276	0.204	0.200
-597.040	800.000	0.105	-0.352
-596.025	-41.297	-0.348	-0.181
-595.011	133.858	-0.113	0.148
-593.996	-147.000	-0.143	-0.012
-592.982	65.711	-0.277	-0.284
-591.967	-200.000	-0.002	-0.019
-590.952	118.699	-0.184	0.230
-589.938	-5.333	-0.162	0.113
-588.923	-150.123	0.404	0.032
-587.909	-8.134	-0.223	-0.152
-586.894	74.570	0.374	0.398
-585.879	-200.000	-0.001	0.156
-584.865	-27.117	0.249	0.147
-583.850	800.000	-0.006	0.028
-582.836	-200.000	-0.038	0.221
-581.821	-200.000	-0.022	-0.143
-580.806	-5.997	-0.197	0.136
-579.792	69.507	-0.202	-0.210
-578.777	-200.000	0.049	-0.253
-577.763	106.931	-0.126	0.152
-576.748	-200.000	-0.037	-0.365
-575.733	800.000	-0.082	-0.343
-574.719	55.662	0.100	0.098
-573.704	800.000	-0.067	-0.260
-572.690	278.450	-0.116	-0.209
-571.675	800.000	0.140	-0.412
-570.661	800.000	-0.055	0.181
-569.646	-115.206	0.198	-0.038
-568.631	198.894	-0.185	0.287
-567.617	-69.569	-0.105	0.041
-566.602	800.000	0.027	0.092
-565.588	-148.911	-0.513	-0.042
-564.573	-200.000	-0.014	0.475
-563.558	324.956	-0.174	-0.335
-562.544	295.959	0.126	-0.234
-561.529	-5.894	-0.114	-0.079
-560.515	-88.862	-0.167	-0.050
-559.500	69.266	0.210	-0.218
-558.485	-99.215	-0.197	-0.050
-557.471	497.805	-0.053	-0.124
-556.456	22.409	0.144	-0.119
-555.442	96.147	-0.187	0.216
-554.427	-200.000	-0.000	-0.194
-553.412	-200.000	-0.003	-0.207
-552.398	40.785	0.223	0.203
-551.383	89.507	0.166	0.187
-550.369	639.623	0.020	-0.051
-549.354	-5.516	0.161	-0.111
-548.339	126.649	0.190	-0.243
-547.325	800.000	-0.067	-0.222
-546.310	97.639	0.185	-0.215
-545.296	345.908	0.113	0.224
-544.281	-150.229	-0.332	-0.026
-543.266	800.000	0.067	0.266
-542.252	-200.000	0.020	0.233
-541.237	410.128	0.063	0.135
-540.223	707.748	0.042	-0.111
-539.208	137.838	-0.096	-0.127
-538.193	-117.868	-0.230	-0.042
-537.179	142.612	-0.267	0.358
-536.164	-50.692	0.165	-0.078
-535.150	-126.388	-0.243	0.037
-534.135	209.374	0.089	0.140
-533.121	216.773	0.089	0.142
-532.106	-9.157	-0.160	0.108
-531.091	28.987	0.279	-0.239
-530.077	60.136	-0.110	-0.109
-529.062	31.617	-0.305	-0.265
-528.048	-200.000	-0.013	-0.152
-527.033	800.000	0.094	-0.386
-526.018	-20.653	-0.253	-0.157
-525.004	393.876	0.160	0.335
-523.989	-200.000	0.022	0.192
-522.975	-26.969	-0.266	0.156
-521.960	-91.249	-0.240	-0.069
-520.945	543.103	-0.126	0.303
-519.931	158.100	-0.124	-0.174
-518.916	-99.774	0.316	-0.080
-517.902	0.244	-0.065	0.047
-516.887	697.286	0.064	0.171
-515.872	49.990	0.137	0.131
-514.858	-106.874	0.335	0.075
-513.843	-85.998	0.157	0.049
-512.829	289.597	-0.069	0.127
-511.814	-200.000	-0.016	-0.385
-510.799	1.487	-0.126	-0.092
-509.785	150.241	-0.090	0.124
-508.770	800.000	0.029	-0.116
-507.756	-85.736	-0.189	0.059
-506.741	-145.220	0.069	0.006
-505.726	95.161	-0.293	0.336
-504.712	36.584	0.080	0.071
-503.697	173.499	-0.097	0.142
-502.683	-78.975	0.228	-0.078
-501.668	-54.970	-0.432	-0.196
-500.653	-111.309	0.250	0.051
-499.639	81.248	-0.094	-0.102
-498.624	608.415	-0.032	0.080
-497.610	70.204	0.149	-0.155
-496.595	-200.000	-0.012	0.118
-495.581	-100.695	-0.210	0.052
-494.566	-28.532	-0.147	0.086
-493.551	-110.032	-0.152	-0.032
-492.537	-54.336	0.358	-0.164
-491.522	-120.206	-0.361	0.062
-490.508	123.873	0.021	-0.027
-489.493	18.333	-0.168	0.135
-488.478	-200.000	0.037	0.287
-487.464	295.707	-0.020	-0.037
-486.449	646.351	-0.025	0.064
-485.435	800.000	0.042	-0.127
-484.420	121.225	0.125	0.157
-483.405	167.152	0.144	-0.206
-482.391	273.020	-0.093	0.166
-481.376	41.125	-0.075	-0.069
-480.362	86.087	0.115	0.128
-479.347	20.626	0.130	0.106
-478.332	-76.817	0.267	0.094
-477.318	366.647	0.042	0.085
-476.303	-200.000	-0.002	-0.345
-475.289	665.803	0.053	0.137
-474.274	314.671	0.104	0.198
-473.259	-200.000	0.034	0.201
-472.245	-61.695	0.232	0.098
-471.230	-200.000	0.038	0.168
-470.216	292.216	0.129	-0.237
-469.201	6.690	-0.263	-0.197
-468.186	-200.000	-0.028	0.143
-467.172	129.857	0.132	-0.169
-466.157	22.972	0.240	-0.198
-465.143	252.668	0.063	-0.109
-464.128	-194.830	-0.217	-0.002
-463.113	-200.000	0.031	0.275
-462.099	-79.587	0.174	-0.059
-461.084	19.339	-0.146	-0.118
-460.070	161.310	-0.088	0.124
-459.055	335.035	0.057	-0.110
-458.040	333.446	0.168	-0.327
-457.026	-105.946	0.146	-0.033
-456.011	-42.792	0.143	0.073
-454.997	-200.000	-0.007	-0.213
-453.982	-200.000	-0.017	0.078
-452.968	-200.000	0.003	-0.033
-451.953	504.181	0.081	-0.190
-450.938	-100.682	0.270	0.067
-449.924	800.000	-0.115	0.429
-448.909	-200.000	0.039	-0.314
-447.895	-68.291	0.112	-0.044
-446.880	-122.456	0.082	0.013
-445.865	-35.621	-0.165	-0.090
-444.851	-72.169	-0.199	-0.074
-443.836	157.023	0.157	-0.218
-442.822	-160.238	0.229	-0.012
-441.807	-200.000	0.012	0.300
-440.792	-167.461	0.154	-0.006
-439.778	47.242	0.018	-0.017
-438.763	-168.250	0.141	0.005
-437.749	-200.000	-0.007	-0.111
-436.734	108.875	0.109	-0.131
-435.719	-121.677	-0.294	-0.049
-434.705	-41.407	0.312	-0.162
-433.690	155.180	0.283	0.392
-432.676	505.678	-0.067	-0.157
-431.661	-97.985	-0.032	-0.008
-430.646	153.711	-0.234	-0.322
-429.632	-91.735	-0.215	0.061
-428.617	112.751	-0.159	-0.194
-427.603	-98.359	0.111	-0.029
-426.588	-200.000	-0.046	-0.348
-425.573	-159.517	0.028	0.002
-424.559	800.000	-0.036	0.102
-423.544	800.000	-0.145	-0.473
-422.530	268.424	0.025	0.044
-421.515	-138.448	0.132	0.015
-420.500	30.059	-0.057	0.049
-419.486	800.000	0.086	0.332
-418.471	-161.323	0.134	-0.007
-417.457	800.000	0.085	0.283
-416.442	-84.457	0.052	0.017
-415.428	800.000	-0.104	-0.429
-414.413	800.000	0.100	-0.352
-413.398	-83.451	-0.232	-0.074
-412.384	29.770	-0.188	-0.161
-411.369	-103.122	-0.184	-0.044
-410.355	-10.048	0.264	-0.176
-409.340	800.000	0.097	0.306
-408.325	800.000	-0.121	-0.379
-407.311	769.213	-0.159	-0.434
-406.296	173.470	-0.147	-0.213
-405.282	432.152	-0.068	-0.148
-404.267	-200.000	0.018	-0.086
-403.252	52.060	0.118	-0.113
-402.238	-72.731	-0.210	0.078
-401.223	248.130	-0.192	0.326
-400.209	800.000	0.051	0.208
-399.194	-37.783	-0.157	0.084
-398.179	18.356	-0.043	-0.034
-397.165	243.694	-0.064	0.107
-396.150	28.882	0.144	-0.122
-395.136	-61.721	0.127	-0.054
-394.121	653.632	-0.089	0.228
-393.106	-200.000	0.026	0.206
-392.092	-108.760	-0.121	-0.026
-391.077	391.742	0.067	-0.139
-390.063	-53.826	-0.110	-0.050
-389.048	-200.000	-0.000	0.082
-388.033	800.000	-0.062	-0.232
-387.019	-41.526	-0.200	-0.103
-386.004	-112.486	0.164	-0.033
-384.990	-139.066	-0.358	-0.039
-383.975	133.635	0.109	-0.142
-382.960	-200.000	-0.005	-0.086
-381.946	-90.644	0.218	-0.063
-380.931	-26.222	0.212	0.125
-379.917	180.174	-0.075	-0.111
-378.902	68.463	-0.182	-0.188
-377.888	33.281	0.087	0.076
-376.873	-70.187	0.314	0.120
-375.858	93.866	0.147	-0.167
-374.844	-115.150	-0.050	0.010
-373.829	-103.271	0.184	0.044
-372.815	-200.000	-0.064	0.414
-371.800	-122.248	0.293	-0.048
-370.785	89.821	-0.106	0.119
-369.771	321.058	0.115	0.220
-368.756	-94.946	0.395	0.107
-367.742	184.919	-0.127	0.188
-366.727	-200.000	0.004	-0.119
-365.712	464.338	-0.150	0.335
-364.698	-3.484	0.069	0.048
-363.683	-4.478	-0.079	0.054
-362.669	800.000	-0.018	0.076
-361.654	-76.430	0.175	-0.062
-360.639	-126.667	-0.215	0.032
-359.625	-65.388	0.138	0.055
-358.610	-200.000	-0.041	0.320
-357.596	-11.118	0.275	-0.182
-356.581	-99.478	0.104	0.026
-355.566	-200.000	0.020	0.106
-354.552	-200.000	0.008	-0.038
-353.537	800.000	-0.075	-0.309
-352.523	-200.000	0.020	-0.157
-351.508	-9.620	-0.057	0.038
-350.493	-153.574	-0.309	-0.021
-349.479	-200.000	-0.103	0.490
-348.464	-106.934	0.080	0.018
-347.450	-22.049	0.080	-0.049
-346.435	29.815	0.200	0.170
-345.420	48.362	-0.216	-0.203
-344.406	-175.316	-0.127	0.003
-343.391	-8.145	-0.138	0.093
-342.377	-119.070	0.269	0.047
-341.362	800.000	-0.093	-0.372
-340.348	85.912	0.070	0.078
-339.333	-200.000	0.061	0.337
-338.318	-75.660	0.176	0.063
-337.304	-200.000	-0.019	-0.235
-336.289	-188.658	0.151	0.002
-335.275	-200.000	-0.058	-0.338
-334.260	83.729	-0.102	-0.112
-333.245	-200.000	-0.009	0.104
-332.231	-146.223	-0.212	0.019
-331.216	110.457	0.204	0.245
-330.202	-92.925	-0.408	0.114
-329.187	296.477	-0.060	-0.110
-328.172	-200.000	0.004	0.060
-327.158	-121.334	0.061	-0.010
-326.143	800.000	-0.013	-0.055
-325.129	40.771	-0.150	0.136
-324.114	-140.492	-0.110	-0.011
-323.099	-200.000	0.024	-0.119
-322.085	501.942	-0.141	-0.325
-321.070	100.233	0.196	0.228
-320.056	-200.000	0.005	-0.101
-319.041	205.452	-0.112	-0.174
-318.026	800.000	-0.111	0.343
-317.012	16.370	0.154	0.122
-315.997	-82.390	-0.173	-0.056
-314.983	-200.000	0.023	-0.138
-313.968	-33.308	0.234	-0.130
-312.953	-100.746	-0.232	-0.057
-311.939	-39.707	-0.149	0.078
-310.924	135.397	0.013	0.017
-309.910	-164.081	-0.213	-0.010
-308.895	193.610	-0.176	-0.266
-307.880	-32.402	0.230	-0.128
-306.866	273.827	-0.082	-0.145
-305.851	-129.836	0.303	0.042
-304.837	800.000	-0.069	-0.214
-303.822	800.000	-0.022	0.091
-302.807	-163.959	-0.197	-0.009
-301.793	-161.895	-0.353	-0.018
-300.778	-127.819	-0.316	-0.046
-299.764	37.709	0.309	0.274
-298.749	65.153	-0.158	0.160
-297.735	-13.186	0.144	-0.094
-296.720	-200.000	0.059	0.276
-295.705	149.677	-0.178	0.241
-294.691	209.147	0.166	-0.260
-293.676	14.347	-0.080	0.063
-292.662	-200.000	-0.003	0.319
-291.647	37.416	-0.219	-0.194
-290.632	539.857	0.062	-0.148
-289.618	-200.000	0.011	0.054
-288.603	517.013	-0.066	-0.153
-287.589	-200.000	-0.005	0.104
-286.574	800.000	-0.074	-0.235
-285.559	18.523	0.149	-0.119
-284.545	-176.534	0.149	-0.004
-283.530	-20.542	0.151	-0.093
-282.516	-151.309	0.346	0.026
-281.501	337.458	-0.098	0.189
-280.486	-200.000	-0.037	0.373
-279.472	247.479	-0.092	0.155
-278.457	-200.000	0.034	0.203
-277.443	25.285	-0.172	0.143
-276.428	-10.321	0.230	0.152
-275.413	-185.980	-0.467	-0.007
-274.399	-11.053	-0.154	-0.102
-273.384	296.071	-0.055	-0.101
-272.370	24.989	0.644	0.533
-271.355	-105.057	-0.087	0.020
-270.340	92.668	-0.158	-0.178
-269.326	-101.619	-0.153	-0.037
-268.311	-172.197	-0.282	-0.009
-267.297	8.931	0.246	0.185
-266.282	34.099	0.250	0.218
-265.267	-154.286	-0.138	-0.009
-264.253	426.501	-0.110	0.237
-263.238	-200.000	-0.044	-0.463
-262.224	342.666	-0.035	-0.068
-261.209	-86.324	-0.284	0.087
-260.195	103.325	-0.052	-0.061
-259.180	-200.000	0.011	-0.063
-258.165	-14.420	-0.124	0.080
-257.151	-200.000	-0.016	-0.108
-256.136	433.617	-0.059	-0.127
-255.122	91.368	0.114	-0.128
-254.107	800.000	0.095	0.290
-253.092	-41.280	-0.387	0.199
-252.078	-135.826	0.040	-0.005
-251.063	-141.738	0.240	-0.024
-250.049	106.086	0.055	-0.064
-249.034	800.000	-0.063	-0.218
-248.019	267.152	0.043	0.075
-247.005	-151.399	0.237	-0.018
-245.990	-200.000	-0.054	0.401
-244.976	168.474	-0.085	0.120
-243.961	326.830	-0.067	-0.128
-242.946	800.000	-0.081	0.341
-241.932	-200.000	0.011	-0.146
-240.917	-200.000	0.011	-0.267
-239.903	-200.000	-0.016	0.454
-238.888	-200.000	0.062	-0.523
-237.873	59.878	-0.018	0.018
-236.859	97.893	0.252	0.289
-235.844	435.945	-0.153	0.333
-234.830	-93.423	0.078	0.021
-233.815	247.341	-0.058	-0.097
-232.800	86.826	0.202	-0.222
-231.786	355.787	-0.146	-0.290
-230.771	-81.158	-0.280	-0.092
-229.757	-96.893	0.340	-0.089
-228.742	47.728	0.085	0.079
-227.727	-168.199	-0.368	-0.014
-226.713	-55.059	-0.432	-0.194
-225.698	-144.826	-0.297	-0.027
-224.684	97.836	0.133	0.152
-223.669	37.643	0.079	-0.070
-222.655	67.197	-0.115	-0.116
-221.640	155.514	0.109	0.150
-220.625	-91.748	0.222	-0.063
-219.611	-200.000	-0.062	-0.381
-218.596	-5.180	-0.127	0.087
-217.582	-117.251	-0.360	-0.065
-216.567	659.335	-0.132	-0.338
-215.552	-74.906	0.166	-0.059
-214.538	207.394	0.229	-0.356
-213.523	44.012	0.180	0.164
-212.509	109.236	0.142	-0.169
-211.494	-200.000	0.064	-0.465
-210.479	171.214	0.061	-0.086
-209.465	262.131	-0.195	0.336
-208.450	800.000	-0.072	0.268
-207.436	486.056	-0.035	0.079
-206.421	-68.185	0.420	-0.163
-205.406	-65.515	0.368	0.147
-204.392	-89.206	0.446	0.131
-203.377	-200.000	-0.010	0.274
-202.363	227.203	-0.157	0.254
-201.348	560.772	-0.084	0.202
-200.333	130.493	-0.074	-0.095
-199.319	800.000	-0.034	0.100
-198.304	762.248	-0.072	0.195
-197.290	368.699	0.082	-0.164
-196.275	197.695	0.221	0.336
-195.260	-69.063	0.295	-0.113
-194.246	68.706	-0.079	-0.081
-193.231	-200.000	-0.047	-0.235
-192.217	302.992	-0.036	0.066
-191.202	800.000	-0.116	0.395
-190.187	106.448	0.259	0.306
-189.173	59.676	0.143	-0.140
-188.158	-200.000	0.033	-0.205
-187.144	220.582	0.142	0.227
-186.129	800.000	0.015	0.047
-185.114	-66.701	0.203	-0.080
-184.100	371.041	0.017	0.034
-183.085	617.134	-0.014	-0.036
-182.071	61.131	0.086	-0.085
-181.056	219.606	-0.117	0.186
-180.042	800.000	0.062	-0.260
-179.027	351.487	0.160	-0.316
-178.012	757.103	0.077	0.207
-176.998	800.000	-0.166	0.545
-175.983	110.220	0.019	-0.023
-174.969	53.112	-0.112	-0.107
-173.954	142.167	-0.157	-0.207
-172.939	-51.734	0.265	0.123
-171.925	-14.542	0.154	0.099
-170.910	717.975	-0.117	-0.308
-169.896	-57.347	0.298	-0.130
-168.881	230.127	-0.075	-0.122
-167.866	-66.332	-0.155	0.061
-166.852	118.366	-0.186	0.228
-165.837	-32.489	-0.254	-0.141
-164.823	-200.000	-0.005	0.268
-163.808	800.000	0.114	0.369
-162.793	21.212	0.193	0.156
-161.779	-24.249	0.220	-0.131
-160.764	-133.347	-0.117	0.015
-159.750	163.287	0.074	0.103
-158.735	-89.583	-0.186	-0.054
-157.720	-149.594	-0.177	0.014
-156.706	262.755	-0.049	0.085
-155.691	-200.000	0.024	0.115
-154.677	510.549	0.064	0.148
-153.662	-25.434	0.105	-0.061
-152.647	-21.883	0.349	0.211
-151.633	-101.944	-0.095	0.023
-150.618	74.471	-0.027	-0.028
-149.604	-200.000	-0.002	-0.077
-148.589	-200.000	0.002	-0.115
-147.574	-82.898	0.290	0.093
-146.560	-120.418	-0.328	0.055
-145.545	-176.030	0.290	-0.008
-144.531	82.469	0.030	0.032
-143.516	-168.800	-0.200	-0.007
-142.502	-157.759	0.417	-0.025
-141.487	-200.000	-0.080	0.359
-140.472	-34.428	0.103	-0.056
-139.458	-12.774	-0.257	-0.166
-138.443	-117.061	-0.158	-0.029
-137.429	-200.000	0.002	-0.117
-136.414	-138.374	0.266	-0.029
-135.399	800.000	-0.038	0.130
-134.385	199.829	0.160	0.243
-133.370	1.370	-0.145	-0.103
-132.356	800.000	0.053	0.155
-131.341	-97.108	0.287	-0.075
-130.326	-112.809	-0.413	0.081
-129.312	-112.663	-0.311	0.061
-128.297	57.916	0.117	0.114
-127.283	441.631	0.050	-0.108
-126.268	711.756	0.059	-0.156
-125.253	-113.146	0.310	0.061
-124.239	-10.783	0.330	-0.217
-123.224	334.921	0.074	-0.142
