DTS Sentinel unit serial number:	SN413079Multiplexer serial number:	ORYXHardware model number:	OX4-SRSoftware version number:	ORYX F/W v4.00 Oryx Data Collector v3.7.2.0data status	okinstallation	princeton_trtdifferential loss correction	single-endedforward channel	channel 4reverse channel	N/Adate	2019/09/18time	04:41:35forward acquisition time	60.00reverse acquisition time	0.00gamma	496.2192k internal	0.2332k external	0.2332temperature offset calibration	0.9993default loss term (dB/km)	0.3790temperature slope calibration	1.0000multiplexer offset coefficient	1.0000multiplexer slope coefficient	1.0000fibre end	0.00T internal ref (°C)	23.44T ext. ref 1 (°C)	0.19T ext. ref 2 (°C)	17.74length (m)	temperature (°C)	Stokes	anti-Stokes-747.200	-128.074	0.227	0.033
-746.185	400.549	0.046	0.096
-745.171	800.000	-0.052	0.208
-744.156	-72.243	-0.258	0.096
-743.142	-147.642	0.187	0.016
-742.127	800.000	0.027	-0.108
-741.112	231.380	0.088	0.145
-740.098	50.402	0.137	0.130
-739.083	-116.919	0.045	0.008
-738.069	-65.348	-0.489	0.198
-737.054	218.139	0.245	-0.393
-736.039	171.598	-0.100	0.145
-735.025	800.000	-0.107	0.315
-734.010	-14.662	0.128	0.083
-732.996	-154.036	-0.541	0.037
-731.981	-15.925	0.256	0.164
-730.966	31.675	-0.144	-0.124
-729.952	-20.617	-0.220	0.136
-728.937	-200.000	0.000	-0.019
-727.923	58.586	-0.074	-0.073
-726.908	30.225	-0.098	0.084
-725.894	800.000	-0.156	-0.439
-724.879	-65.174	0.113	0.046
-723.864	-38.792	-0.459	0.243
-722.850	800.000	0.106	0.300
-721.835	-141.596	-0.195	-0.020
-720.821	-200.000	-0.069	-0.332
-719.806	-27.074	-0.181	-0.106
-718.791	522.774	-0.088	0.207
-717.777	106.958	0.055	-0.066
-716.762	-25.363	0.132	-0.078
-715.748	632.077	-0.163	0.415
-714.733	11.704	0.130	-0.100
-713.718	45.623	-0.256	0.237
-712.704	230.823	-0.122	-0.201
-711.689	12.619	0.069	0.054
-710.675	428.963	-0.084	-0.183
-709.660	-143.956	-0.091	0.009
-708.645	559.820	-0.051	0.123
-707.631	85.423	-0.274	-0.302
-706.616	-200.000	0.020	-0.205
-705.602	-5.805	0.140	0.096
-704.587	22.104	0.138	-0.113
-703.572	101.759	0.159	-0.186
-702.558	-60.667	-0.088	-0.038
-701.543	-200.000	-0.008	0.111
-700.529	-59.277	0.127	-0.055
-699.514	85.314	-0.123	-0.135
-698.499	-79.404	-0.349	-0.119
-697.485	471.165	0.095	0.215
-696.470	800.000	-0.059	-0.168
-695.456	476.933	0.076	-0.172
-694.441	282.180	0.302	-0.544
-693.426	-149.152	0.206	0.017
-692.412	689.785	0.085	0.223
-691.397	94.090	0.222	0.253
-690.383	-200.000	0.018	-0.207
-689.368	250.729	-0.057	0.096
-688.354	130.248	0.147	0.189
-687.339	-181.231	-0.194	-0.004
-686.324	232.557	0.062	0.102
-685.310	-101.058	-0.309	-0.076
-684.295	-200.000	0.002	0.010
-683.281	-200.000	-0.036	0.193
-682.266	26.175	0.154	-0.129
-681.251	-65.119	0.338	-0.137
-680.237	-158.719	-0.189	0.011
-679.222	65.556	-0.163	-0.166
-678.208	435.581	0.137	-0.299
-677.193	17.645	0.121	-0.097
-676.178	-45.627	-0.235	-0.117
-675.164	-41.421	0.357	0.184
-674.149	337.968	0.099	-0.193
-673.135	-94.501	0.189	0.052
-672.120	-200.000	-0.050	-0.231
-671.105	-83.990	-0.168	0.054
-670.091	245.662	-0.127	0.214
-669.076	-138.506	0.069	-0.008
-668.062	409.233	-0.007	0.016
-667.047	-1.848	0.190	-0.134
-666.032	-200.000	0.007	0.035
-665.018	800.000	0.062	0.174
-664.003	-197.661	-0.230	0.001
-662.989	-155.819	-0.155	0.010
-661.974	-90.161	0.016	-0.005
-660.959	385.713	-0.103	0.213
-659.945	-122.293	0.143	0.023
-658.930	100.900	-0.049	0.057
-657.916	-101.772	-0.393	-0.096
-656.901	184.937	-0.108	0.160
-655.886	-200.000	-0.004	-0.048
-654.872	-138.777	0.053	-0.006
-653.857	-48.671	-0.037	-0.018
-652.843	526.454	0.188	-0.443
-651.828	800.000	0.030	0.093
-650.814	-62.181	0.122	0.051
-649.799	107.010	0.123	0.147
-648.784	-60.524	-0.265	0.113
-647.770	-200.000	0.051	0.231
-646.755	42.568	-0.262	0.239
-645.741	143.868	0.154	-0.206
-644.726	800.000	-0.002	-0.010
-643.711	-91.297	0.347	-0.100
-642.697	140.707	0.232	-0.307
-641.682	-20.435	-0.527	-0.325
-640.668	87.533	-0.222	-0.246
-639.653	116.241	-0.143	-0.175
-638.638	-123.357	-0.244	0.039
-637.624	127.508	-0.126	0.160
-636.609	-200.000	-0.006	-0.123
-635.595	94.537	-0.056	-0.064
-634.580	800.000	0.103	0.321
-633.565	-82.911	-0.150	0.048
-632.551	-200.000	-0.044	-0.000
-631.536	-140.156	-0.202	-0.021
-630.522	800.000	0.093	-0.349
-629.507	-200.000	0.038	0.338
-628.492	-200.000	-0.033	0.262
-627.478	-145.331	-0.298	-0.027
-626.463	-94.648	-0.341	-0.093
-625.449	24.205	-0.235	-0.195
-624.434	124.778	0.239	-0.302
-623.419	15.110	-0.262	-0.205
-622.405	17.872	0.304	-0.242
-621.390	370.773	0.158	-0.320
-620.376	-41.437	-0.112	0.058
-619.361	-127.258	-0.365	0.053
-618.346	-200.000	-0.025	-0.155
-617.332	-200.000	-0.016	-0.173
-616.317	-76.318	-0.308	-0.109
-615.303	-200.000	-0.036	0.169
-614.288	-11.531	-0.285	0.187
-613.273	-200.000	-0.009	0.117
-612.259	446.263	-0.083	-0.183
-611.244	732.509	-0.067	-0.178
-610.230	160.186	-0.170	-0.237
-609.215	88.317	0.052	-0.057
-608.201	-200.000	0.022	-0.136
-607.186	-50.657	-0.094	-0.044
-606.171	327.626	-0.074	0.142
-605.157	451.182	0.132	0.292
-604.142	-200.000	-0.010	-0.279
-603.128	-38.819	-0.240	-0.127
-602.113	-200.000	-0.006	0.027
-601.098	70.298	-0.130	0.134
-600.084	213.204	0.012	0.018
-599.069	-112.607	0.338	-0.067
-598.055	52.945	0.111	-0.106
-597.040	-200.000	-0.022	0.331
-596.025	115.601	0.044	0.054
-595.011	-16.523	0.139	-0.088
-593.996	126.053	0.076	-0.096
-592.982	114.244	-0.156	-0.190
-591.967	800.000	-0.066	0.239
-590.952	637.126	-0.114	-0.291
-589.938	260.368	-0.065	-0.112
-588.923	-200.000	0.004	-0.261
-587.909	-200.000	0.028	0.301
-586.894	-200.000	-0.007	0.277
-585.879	-69.940	0.134	0.051
-584.865	800.000	-0.038	0.167
-583.850	-200.000	0.010	0.170
-582.836	-0.220	0.292	-0.207
-581.821	-200.000	0.057	-0.293
-580.806	98.884	0.135	0.156
-579.792	-200.000	-0.006	-0.104
-578.777	-200.000	0.037	-0.172
-577.763	-98.677	0.394	0.100
-576.748	176.863	-0.047	0.069
-575.733	-200.000	0.014	0.073
-574.719	213.046	-0.094	0.148
-573.704	24.493	-0.266	0.220
-572.690	76.807	-0.204	0.217
-571.675	-157.227	-0.255	-0.015
-570.661	-39.273	-0.030	0.016
-569.646	-28.452	0.138	-0.079
-568.631	173.988	0.178	0.256
-567.617	-25.953	0.300	-0.177
-566.602	93.200	-0.216	0.245
-565.588	800.000	-0.028	0.107
-564.573	800.000	0.054	-0.167
-563.558	-21.921	-0.163	-0.099
-562.544	306.819	0.137	0.255
-561.529	384.456	-0.113	-0.232
-560.515	252.113	0.034	-0.058
-559.500	-200.000	-0.003	-0.104
-558.485	-108.465	0.275	-0.059
-557.471	-135.387	0.352	-0.042
-556.456	724.002	0.110	-0.291
-555.442	-200.000	-0.019	-0.136
-554.427	-84.912	-0.245	0.077
-553.412	43.463	-0.132	-0.120
-552.398	-200.000	0.043	-0.190
-551.383	406.347	0.018	0.038
-550.369	-86.678	0.192	-0.059
-549.354	-200.000	-0.047	-0.313
-548.339	-200.000	-0.027	-0.317
-547.325	-179.706	0.239	0.005
-546.310	-39.711	-0.252	-0.131
-545.296	13.698	-0.163	0.126
-544.281	-175.886	0.092	-0.002
-543.266	800.000	0.033	-0.129
-542.252	-200.000	0.016	-0.090
-541.237	260.811	-0.188	-0.324
-540.223	-101.887	0.177	-0.043
-539.208	-133.564	0.193	0.024
-538.193	800.000	0.033	-0.100
-537.179	-130.087	0.199	0.027
-536.164	48.441	0.037	-0.035
-535.150	-17.453	0.222	0.139
-534.135	-176.898	0.103	-0.003
-533.121	9.794	0.055	-0.042
-532.106	307.411	-0.114	-0.212
-531.091	-200.000	-0.037	-0.196
-530.077	-134.989	-0.158	0.019
-529.062	-156.600	-0.448	0.028
-528.048	-13.491	-0.267	0.173
-527.033	119.843	0.151	0.187
-526.018	160.965	0.264	0.368
-525.004	24.174	-0.243	0.200
-523.989	-90.075	0.198	0.058
-522.975	800.000	0.041	-0.115
-521.960	161.134	0.176	-0.246
-520.945	-8.297	0.163	-0.109
-519.931	-66.442	0.131	0.052
-518.916	-70.914	0.071	-0.027
-517.902	-53.241	-0.238	-0.109
-516.887	-200.000	-0.034	0.182
-515.872	-200.000	0.002	-0.126
-514.858	268.065	-0.087	0.151
-513.843	127.722	-0.054	0.068
-512.829	-1.162	-0.352	0.248
-511.814	-200.000	0.006	0.138
-510.799	110.780	0.136	0.164
-509.785	-7.190	0.163	0.111
-508.770	97.961	0.159	-0.183
-507.756	-79.172	-0.425	-0.144
-506.741	62.310	-0.072	-0.072
-505.726	456.801	-0.073	-0.162
-504.712	107.150	-0.188	-0.222
-503.697	-140.602	-0.273	-0.028
-502.683	90.785	0.197	0.220
-501.668	-129.010	0.181	-0.025
-500.653	-14.056	0.291	-0.187
-499.639	66.399	0.067	-0.068
-498.624	-72.033	0.352	0.130
-497.610	132.638	-0.028	0.036
-496.595	422.869	0.014	0.030
-495.581	-180.774	-0.120	-0.002
-494.566	134.603	0.061	-0.079
-493.551	66.127	0.169	-0.171
-492.537	14.620	0.382	-0.297
-491.522	81.592	-0.090	-0.097
-490.508	126.122	0.325	0.409
-489.493	-124.977	0.217	0.033
-488.478	77.909	0.244	0.259
-487.464	-200.000	-0.004	-0.135
-486.449	-148.765	0.220	0.018
-485.435	98.472	0.166	0.191
-484.420	800.000	-0.060	0.188
-483.405	-37.126	-0.040	0.021
-482.391	8.370	-0.112	0.084
-481.376	431.306	-0.046	-0.100
-480.362	800.000	-0.095	-0.370
-479.347	-58.214	-0.079	-0.034
-478.332	-39.073	0.073	0.038
-477.318	-200.000	-0.032	0.148
-476.303	94.172	0.150	0.170
-475.289	-9.530	-0.144	0.095
-474.274	89.533	-0.204	-0.226
-473.259	-200.000	-0.043	0.256
-472.245	487.472	-0.052	-0.119
-471.230	325.440	0.057	-0.109
-470.216	-61.526	0.016	0.007
-469.201	-200.000	-0.021	0.184
-468.186	-200.000	-0.068	0.428
-467.172	800.000	0.111	-0.317
-466.157	57.571	-0.164	-0.160
-465.143	-1.173	-0.296	0.208
-464.128	-66.101	0.154	-0.061
-463.113	-75.021	-0.111	0.040
-462.099	95.148	-0.077	0.087
-461.084	-32.980	-0.370	0.205
-460.070	38.256	-0.199	-0.177
-459.055	62.138	0.256	0.254
-458.040	-145.687	-0.344	0.031
-457.026	52.577	0.209	0.198
-456.011	19.760	0.092	0.074
-454.997	800.000	0.086	-0.272
-453.982	-200.000	-0.029	-0.290
-452.968	538.506	0.053	0.126
-451.953	-200.000	-0.012	0.442
-450.938	800.000	0.058	0.184
-449.924	-62.500	0.051	0.021
-448.909	95.277	0.284	-0.321
-447.895	-38.717	-0.214	0.112
-446.880	-145.609	0.097	-0.009
-445.865	42.635	-0.282	0.256
-444.851	800.000	0.075	-0.285
-443.836	28.728	-0.161	0.135
-442.822	-29.213	0.095	0.054
-441.807	-200.000	-0.002	-0.089
-440.792	-200.000	-0.007	-0.072
-439.778	-35.325	0.175	-0.094
-438.763	109.158	0.074	0.088
-437.749	800.000	-0.059	0.173
-436.734	218.745	-0.119	0.189
-435.719	-200.000	0.078	0.502
-434.705	-34.566	-0.569	0.310
-433.690	90.627	0.080	-0.089
-432.676	121.454	-0.041	-0.050
-431.661	-200.000	0.005	0.250
-430.646	-79.151	-0.189	-0.064
-429.632	531.299	0.187	-0.439
-428.617	12.046	-0.220	0.168
-427.603	-200.000	0.017	0.326
-426.588	8.072	0.079	0.059
-425.573	-171.337	-0.326	-0.011
-424.559	145.892	-0.084	-0.112
-423.544	-163.463	0.232	0.011
-422.530	-200.000	-0.022	0.252
-421.515	-200.000	-0.014	-0.311
-420.500	365.273	-0.036	-0.073
-419.486	-200.000	0.010	0.099
-418.471	-110.469	0.311	-0.064
-417.457	-200.000	-0.026	-0.420
-416.442	297.172	-0.134	-0.244
-415.428	-127.406	-0.173	0.025
-414.413	66.463	0.105	-0.106
-413.398	-12.199	-0.206	0.134
-412.384	289.059	-0.124	-0.223
-411.369	-111.026	-0.068	-0.014
-410.355	-117.773	-0.377	0.067
-409.340	-200.000	0.021	0.098
-408.325	-110.898	-0.326	0.067
-407.311	90.481	-0.158	0.175
-406.296	-138.257	0.127	-0.014
-405.282	-200.000	-0.039	-0.268
-404.267	-30.962	0.392	-0.220
-403.252	-17.846	-0.067	-0.042
-402.238	-200.000	-0.035	-0.313
-401.223	-81.760	0.365	0.119
-400.209	-44.385	-0.497	-0.247
-399.194	605.207	0.093	0.229
-398.179	162.056	0.132	0.183
-397.165	-200.000	0.014	0.082
-396.150	-12.983	0.165	-0.107
-395.136	-65.788	0.217	-0.086
-394.121	-200.000	0.004	-0.103
-393.106	58.564	0.072	0.070
-392.092	-22.263	0.208	-0.125
-391.077	-200.000	-0.015	-0.117
-390.063	81.554	-0.153	-0.164
-389.048	252.405	-0.189	0.319
-388.033	800.000	-0.036	0.122
-387.019	-19.696	0.112	0.069
-386.004	-138.568	0.355	-0.039
-384.990	125.105	-0.068	-0.086
-383.975	299.998	-0.061	-0.112
-382.960	589.862	0.145	-0.356
-381.946	691.350	-0.093	0.242
-380.931	-200.000	-0.033	-0.156
-379.917	61.154	-0.174	-0.171
-378.902	1.652	0.075	-0.054
-377.888	-200.000	0.036	0.198
-376.873	4.538	-0.274	-0.199
-375.858	-90.877	0.268	-0.077
-374.844	-97.551	0.180	0.046
-373.829	-157.901	0.161	-0.009
-372.815	-153.742	-0.185	-0.013
-371.800	1.962	0.208	-0.148
-370.785	6.545	-0.116	0.085
-369.771	-200.000	0.010	0.231
-368.756	6.457	-0.107	-0.079
-367.742	-200.000	0.055	-0.304
-366.727	-200.000	-0.012	0.229
-365.712	-49.706	-0.233	0.110
-364.698	130.902	0.257	-0.327
-363.683	28.606	0.235	-0.197
-362.669	-89.529	0.143	0.041
-361.654	120.364	-0.102	-0.126
-360.639	-114.323	-0.249	-0.047
-359.625	-29.940	0.347	0.196
-358.610	149.368	-0.110	0.147
-357.596	-183.875	0.155	-0.003
-356.581	-200.000	0.011	-0.266
-355.566	-200.000	-0.001	-0.334
-354.552	-200.000	0.017	-0.519
-353.537	-165.221	-0.422	0.018
-352.523	-31.086	-0.035	-0.019
-351.508	27.128	0.059	-0.049
-350.493	155.606	-0.110	-0.150
-349.479	413.401	0.052	-0.111
-348.464	204.843	0.216	0.332
-347.450	800.000	-0.085	0.278
-346.435	-43.294	-0.180	-0.090
-345.420	634.657	-0.050	0.126
-344.406	-91.036	0.212	-0.060
-343.391	-54.992	0.310	-0.138
-342.377	6.883	0.340	0.251
-341.362	618.274	0.018	-0.045
-340.348	-109.854	-0.186	0.039
-339.333	-54.016	0.093	0.042
-338.318	-39.907	0.157	-0.081
-337.304	-41.725	0.387	0.197
-336.289	327.761	-0.078	-0.149
-335.275	478.426	0.042	-0.095
-334.260	270.235	0.134	-0.233
-333.245	-176.254	0.255	0.007
-332.231	-1.886	0.151	-0.105
-331.216	-27.523	0.225	0.129
-330.202	64.210	-0.100	-0.099
-329.187	-129.700	-0.240	-0.033
-328.172	140.168	0.163	0.213
-327.158	366.035	-0.087	-0.175
-326.143	305.282	-0.050	-0.091
-325.129	-21.002	0.121	0.073
-324.114	0.584	-0.336	0.238
-323.099	39.859	-0.030	-0.027
-322.085	-108.901	-0.109	-0.023
-321.070	198.474	-0.062	0.094
-320.056	10.611	-0.342	0.258
-319.041	-8.335	-0.034	0.022
-318.026	126.068	-0.137	0.172
-317.012	234.103	-0.038	-0.062
-315.997	800.000	0.027	-0.094
-314.983	145.667	0.112	0.148
-313.968	-194.758	0.305	0.002
-312.953	-200.000	0.088	-0.453
-311.939	800.000	-0.026	-0.111
-310.924	151.283	0.327	0.440
-309.910	101.874	-0.245	0.283
-308.895	95.806	0.082	-0.093
-307.880	176.253	0.252	0.362
-306.866	95.755	0.106	0.119
-305.851	325.286	-0.091	-0.172
-304.837	12.730	0.096	-0.073
-303.822	-200.000	0.012	-0.218
-302.807	800.000	0.118	-0.356
-301.793	-129.189	-0.200	0.028
-300.778	-127.103	0.133	0.019
-299.764	23.575	0.139	-0.113
-298.749	-75.492	-0.425	0.150
-297.735	-112.922	0.111	-0.022
-296.720	-74.327	0.360	-0.128
-295.705	-67.859	0.315	0.122
-294.691	52.675	-0.207	0.196
-293.676	30.010	0.161	0.135
-292.662	-120.224	0.283	0.048
-291.647	-176.207	0.115	-0.003
-290.632	-124.152	0.067	-0.010
-289.618	28.550	0.107	-0.089
-288.603	800.000	-0.046	0.129
-287.589	-158.653	0.295	-0.017
-286.574	-70.165	-0.138	0.052
-285.559	-157.209	0.166	-0.010
-284.545	-21.930	0.342	-0.205
-283.530	-77.204	-0.063	-0.022
-282.516	226.123	-0.014	-0.023
-281.501	-200.000	-0.033	0.342
-280.486	16.611	0.086	-0.067
-279.472	800.000	-0.068	-0.195
-278.457	66.263	0.310	-0.311
-277.443	-155.659	-0.103	0.007
-276.428	474.117	0.146	0.326
-275.413	-150.262	-0.156	-0.012
-274.399	379.164	-0.047	-0.096
-273.384	-60.972	0.184	0.077
-272.370	-200.000	-0.001	-0.140
-271.355	244.533	-0.154	0.255
-270.340	-200.000	-0.050	0.225
-269.326	133.215	-0.079	-0.101
-268.311	744.452	-0.105	-0.278
-267.297	-200.000	0.021	0.224
-266.282	800.000	-0.041	0.168
-265.267	-22.342	0.308	0.184
-264.253	-120.154	0.275	0.046
-263.238	-131.806	-0.325	-0.042
-262.224	-200.000	0.002	-0.204
-261.209	437.150	-0.102	0.219
-260.195	22.852	-0.142	0.115
-259.180	-115.533	0.074	0.014
-258.165	800.000	0.040	-0.124
-257.151	9.732	-0.072	0.054
-256.136	-200.000	0.029	0.168
-255.122	49.817	-0.284	-0.264
-254.107	-88.332	-0.243	-0.072
-253.092	48.043	0.211	0.195
-252.078	-94.919	0.033	0.009
-251.063	-44.529	-0.178	0.088
-250.049	-110.102	-0.473	0.097
-249.034	-200.000	0.051	0.427
-248.019	-200.000	0.021	0.174
-247.005	109.023	0.107	-0.126
-245.990	-181.172	0.223	0.004
-244.976	106.907	-0.284	-0.333
-243.961	309.596	0.063	0.116
-242.946	79.573	-0.117	0.124
-241.932	23.134	-0.205	0.166
-240.917	-145.369	0.533	0.047
-239.903	-95.938	0.084	-0.022
-238.888	-158.167	-0.105	0.006
-237.873	693.931	0.046	0.119
-236.859	800.000	0.043	-0.120
-235.844	-200.000	0.017	0.132
-234.830	57.572	0.092	0.089
-233.815	-200.000	-0.011	0.077
-232.800	23.906	-0.163	-0.132
-231.786	-92.138	-0.251	0.070
-230.771	-117.485	-0.240	0.043
-229.757	311.499	-0.103	-0.190
-228.742	-200.000	0.442	-0.001
-227.727	59.635	-0.171	-0.166
-226.713	94.869	0.146	0.163
-225.698	-1.438	0.125	-0.087
-224.684	34.160	-0.071	-0.061
-223.669	564.548	-0.066	-0.157
-222.655	51.307	-0.218	-0.204
-221.640	36.251	0.220	-0.191
-220.625	-137.898	0.129	-0.014
-219.611	203.169	0.061	0.093
-218.596	-47.197	-0.284	-0.136
-217.582	79.777	0.212	0.225
-216.567	-200.000	-0.001	-0.042
-215.552	-200.000	0.021	-0.382
-214.538	591.652	-0.042	0.102
-213.523	-200.000	-0.066	-0.405
-212.509	-14.563	0.081	-0.052
-211.494	233.084	0.185	0.300
-210.479	-80.760	-0.090	0.029
-209.465	-200.000	0.014	0.242
-208.450	-106.812	0.312	0.068
-207.436	-200.000	-0.012	0.170
-206.421	-31.996	0.072	-0.040
-205.406	800.000	0.057	0.164
-204.392	-200.000	-0.008	0.132
-203.377	12.341	-0.190	0.144
-202.363	800.000	-0.103	-0.326
-201.348	-4.340	-0.310	0.211
-200.333	41.465	-0.294	-0.262
-199.319	357.971	0.113	0.222
-198.304	-200.000	0.034	-0.272
-197.290	800.000	0.041	-0.168
-196.275	-200.000	-0.026	-0.178
-195.260	8.620	-0.236	-0.175
-194.246	66.792	0.103	0.103
-193.231	-200.000	-0.029	-0.179
-192.217	-121.408	0.189	0.031
-191.202	40.757	-0.148	-0.131
-190.187	236.722	0.162	-0.264
-189.173	-200.000	-0.010	0.085
-188.158	0.959	-0.182	-0.128
-187.144	-200.000	-0.030	0.301
-186.129	-33.505	0.088	-0.048
-185.114	216.331	-0.027	-0.042
-184.100	-200.000	-0.004	0.228
-183.085	60.560	0.108	0.105
-182.071	-16.033	0.075	-0.047
-181.056	-200.000	-0.002	0.162
-180.042	144.292	-0.175	0.229
-179.027	-137.571	0.255	-0.028
-178.012	-55.057	0.292	0.130
-176.998	647.177	-0.043	0.107
-175.983	101.681	-0.020	-0.023
-174.969	-143.364	0.026	-0.002
-173.954	154.161	-0.177	0.239
-172.939	-40.737	-0.445	0.227
-171.925	123.436	-0.168	0.207
-170.910	-115.421	-0.371	0.069
-169.896	319.593	-0.051	-0.095
-168.881	65.816	0.161	0.161
-167.866	252.274	0.019	0.032
-166.852	-200.000	0.028	0.229
-165.837	-80.809	-0.338	-0.110
-164.823	-159.875	-0.263	0.014
-163.808	27.962	0.291	0.241
-162.793	-27.123	0.234	-0.134
-161.779	83.081	0.228	0.244
-160.764	-40.657	0.084	-0.043
-159.750	78.664	-0.206	0.217
-158.735	-200.000	0.017	0.383
-157.720	-200.000	0.063	-0.286
-156.706	-133.191	-0.486	-0.060
-155.691	-142.507	0.275	0.027
-154.677	-108.417	0.368	0.078
-153.662	-107.497	-0.133	0.029
-152.647	189.168	0.114	0.168
-151.633	800.000	-0.097	0.265
-150.618	-104.626	-0.145	-0.033
-149.604	242.363	-0.113	0.185
-148.589	800.000	0.047	-0.145
-147.574	23.903	0.249	0.202
-146.560	800.000	0.077	0.243
-145.545	169.326	-0.036	-0.050
-144.531	-73.078	-0.034	0.012
-143.516	-60.606	0.045	-0.019
-142.502	-200.000	0.058	0.401
-141.487	251.494	0.194	0.324
-140.472	13.432	-0.282	0.215
-139.458	-200.000	0.040	0.414
-138.443	137.775	0.098	-0.125
-137.429	529.544	0.055	0.128
-136.414	-38.066	-0.232	0.121
-135.399	354.254	0.165	-0.321
-134.385	-35.008	-0.153	0.082
-133.370	-52.961	0.121	0.055
-132.356	-177.008	-0.279	-0.007
-131.341	-67.596	0.093	0.036
-130.326	-21.190	0.140	0.084
-129.312	-137.750	0.297	-0.033
-128.297	-8.111	-0.453	0.300
-127.283	-169.934	-0.261	0.009
-126.268	-200.000	0.069	0.297
-125.253	23.340	0.025	0.020
-124.239	741.314	0.078	-0.205
-123.224	-34.537	0.203	0.109
-122.210	-75.172	0.092	-0.032
-121.195	15.856	-0.160	-0.124
