DTS Sentinel unit serial number:	SN413079Multiplexer serial number:	ORYXHardware model number:	OX4-SRSoftware version number:	ORYX F/W v4.00 Oryx Data Collector v3.7.2.0data status	okinstallation	princeton_trtdifferential loss correction	single-endedforward channel	channel 4reverse channel	N/Adate	2019/09/14time	00:25:34forward acquisition time	60.00reverse acquisition time	0.00gamma	496.2192k internal	0.2324k external	0.2324temperature offset calibration	1.0129default loss term (dB/km)	0.3790temperature slope calibration	1.0000multiplexer offset coefficient	1.0000multiplexer slope coefficient	1.0000fibre end	0.00T internal ref (°C)	26.48T ext. ref 1 (°C)	3.18T ext. ref 2 (°C)	21.28length (m)	temperature (°C)	Stokes	anti-Stokes-747.200	-57.072	-0.300	0.133
-746.185	-200.000	-0.012	0.241
-745.171	-88.509	-0.096	0.029
-744.156	-112.792	-0.232	0.047
-743.142	-20.045	-0.243	0.151
-742.127	800.000	0.053	0.179
-741.112	-200.000	0.038	0.168
-740.098	49.417	-0.051	0.049
-739.083	44.513	-0.087	0.081
-738.069	-135.069	-0.082	-0.010
-737.054	-86.904	0.084	0.026
-736.039	-63.894	-0.356	0.147
-735.025	73.228	0.131	0.138
-734.010	-154.592	-0.169	0.011
-732.996	-200.000	0.002	-0.272
-731.981	14.667	-0.124	-0.098
-730.966	644.559	-0.151	0.389
-729.952	17.388	-0.065	-0.052
-728.937	24.033	-0.253	-0.210
-727.923	-32.649	-0.318	-0.178
-726.908	243.973	-0.162	0.275
-725.894	224.726	-0.028	-0.046
-724.879	-200.000	-0.041	-0.333
-723.864	778.741	0.042	-0.115
-722.850	19.268	-0.206	0.167
-721.835	536.600	-0.159	0.380
-720.821	-83.400	-0.289	0.093
-719.806	204.018	-0.131	0.205
-718.791	-8.727	-0.265	0.179
-717.777	-44.494	-0.157	0.079
-716.762	-200.000	-0.002	-0.159
-715.748	-200.000	0.025	-0.337
-714.733	408.790	-0.147	0.314
-713.718	158.997	0.024	0.033
-712.704	38.966	0.083	0.074
-711.689	-200.000	0.044	-0.205
-710.675	-68.323	0.147	0.058
-709.660	800.000	0.039	0.128
-708.645	-75.277	0.621	-0.224
-707.631	179.741	0.116	0.171
-706.616	-80.833	-0.313	-0.105
-705.602	-122.415	-0.193	0.032
-704.587	-76.795	-0.092	0.033
-703.572	-200.000	0.017	-0.315
-702.558	162.829	0.014	-0.020
-701.543	800.000	0.049	-0.175
-700.529	145.850	-0.090	-0.122
-699.514	197.962	0.113	-0.174
-698.499	221.832	0.015	-0.025
-697.485	-78.044	-0.257	0.089
-696.470	744.417	0.021	0.057
-695.456	-99.596	0.178	0.045
-694.441	22.256	-0.109	-0.089
-693.426	312.518	0.116	-0.219
-692.412	-200.000	0.028	-0.134
-691.397	-85.638	-0.075	-0.023
-690.383	-200.000	0.003	0.088
-689.368	800.000	-0.046	-0.157
-688.354	360.982	-0.154	-0.311
-687.339	15.851	-0.066	-0.052
-686.324	449.361	0.093	-0.207
-685.310	82.128	-0.121	-0.132
-684.295	800.000	-0.025	-0.084
-683.281	-5.665	-0.127	-0.088
-682.266	-87.649	0.188	-0.057
-681.251	-200.000	0.057	0.406
-680.237	-89.789	-0.138	0.041
-679.222	-13.536	0.153	-0.100
-678.208	-200.000	-0.010	-0.110
-677.193	-50.791	0.091	-0.043
-676.178	-98.239	-0.207	-0.053
-675.164	532.703	0.100	0.237
-674.149	-99.818	-0.483	0.122
-673.135	-113.485	-0.130	-0.026
-672.120	-200.000	0.043	-0.210
-671.105	95.331	-0.289	-0.331
-670.091	-128.330	-0.254	-0.036
-669.076	-200.000	-0.001	-0.078
-668.062	92.654	0.126	-0.143
-667.047	91.878	-0.090	-0.102
-666.032	119.275	-0.145	-0.180
-665.018	-116.947	-0.082	-0.015
-664.003	-145.229	-0.100	0.009
-662.989	-74.510	0.057	-0.021
-661.974	466.135	0.146	0.330
-660.959	-97.534	0.084	0.022
-659.945	-200.000	0.004	-0.309
-658.930	-91.017	-0.109	-0.032
-657.916	327.984	0.172	-0.332
-656.901	-72.888	0.228	-0.084
-655.886	366.269	-0.175	-0.356
-654.872	-102.217	-0.162	0.039
-653.857	81.767	-0.230	0.251
-652.843	53.672	-0.291	0.281
-651.828	-156.915	-0.186	0.011
-650.814	16.209	-0.146	-0.115
-649.799	-200.000	0.001	0.110
-648.784	37.604	0.223	0.199
-647.770	-57.759	-0.169	0.074
-646.755	128.169	0.251	-0.321
-645.741	-102.680	-0.135	0.032
-644.726	-200.000	0.010	-0.507
-643.711	-88.475	-0.238	-0.072
-642.697	-110.002	0.396	0.083
-641.682	54.961	-0.101	-0.098
-640.668	357.722	-0.109	-0.219
-639.653	75.269	-0.042	0.045
-638.638	462.308	-0.046	0.103
-637.624	-200.000	-0.037	-0.226
-636.609	-150.810	0.031	0.002
-635.595	67.669	0.114	0.117
-634.580	-46.233	0.343	-0.170
-633.565	800.000	0.063	-0.190
-632.551	-8.266	-0.321	-0.217
-631.536	-104.397	0.205	-0.048
-630.522	-124.326	-0.196	0.031
-629.507	22.386	-0.354	-0.290
-628.492	-200.000	-0.043	0.209
-627.478	-200.000	-0.018	-0.090
-626.463	800.000	-0.069	0.293
-625.449	800.000	-0.040	0.161
-624.434	79.654	-0.022	0.024
-623.419	-200.000	-0.053	-0.330
-622.405	45.299	0.173	-0.160
-621.390	-130.278	0.327	-0.045
-620.376	-27.406	0.165	0.096
-619.361	-42.198	0.249	-0.128
-618.346	-200.000	0.004	-0.049
-617.332	-67.541	0.217	-0.086
-616.317	-0.276	0.171	0.122
-615.303	-107.740	0.163	0.036
-614.288	-139.566	-0.257	0.028
-613.273	-90.624	-0.248	-0.072
-612.259	-91.027	0.243	0.070
-611.244	12.657	-0.138	-0.107
-610.230	-115.200	-0.388	0.074
-609.215	-102.067	0.322	0.078
-608.201	-200.000	0.012	-0.207
-607.186	199.221	0.150	-0.231
-606.171	4.671	-0.492	0.363
-605.157	331.216	-0.138	-0.267
-604.142	545.845	0.091	0.217
-603.128	-200.000	0.180	-0.001
-602.113	-83.250	-0.177	-0.057
-601.098	17.513	-0.145	-0.116
-600.084	-92.076	0.132	-0.038
-599.069	-136.751	-0.147	-0.017
-598.055	-48.992	0.086	-0.041
-597.040	39.915	0.111	0.100
-596.025	-33.254	0.127	-0.071
-595.011	-200.000	0.006	-0.183
-593.996	-34.368	0.167	-0.092
-592.982	-138.032	0.160	0.018
-591.967	-137.159	-0.192	0.022
-590.952	133.058	-0.168	-0.218
-589.938	350.897	0.143	-0.284
-588.923	800.000	-0.061	0.168
-587.909	-67.884	0.174	0.068
-586.894	-200.000	-0.017	0.154
-585.879	-139.447	0.069	-0.007
-584.865	-128.884	-0.417	0.059
-583.850	-102.829	0.294	-0.070
-582.836	314.962	0.057	0.107
-581.821	-140.160	-0.201	0.021
-580.806	-125.162	-0.240	-0.037
-579.792	36.695	0.116	-0.103
-578.777	235.571	-0.092	-0.152
-577.763	-89.746	0.349	-0.103
-576.748	240.195	-0.106	0.177
-575.733	106.344	0.040	-0.048
-574.719	321.954	-0.057	0.108
-573.704	800.000	-0.104	0.299
-572.690	-200.000	-0.001	0.267
-571.675	-200.000	-0.025	-0.115
-570.661	166.902	0.092	-0.131
-569.646	-0.284	-0.255	-0.181
-568.631	800.000	-0.063	0.266
-567.617	210.149	0.213	-0.335
-566.602	-200.000	-0.048	-0.618
-565.588	282.062	0.089	-0.161
-564.573	-200.000	-0.031	0.241
-563.558	-200.000	-0.007	-0.104
-562.544	-118.277	0.197	-0.035
-561.529	-49.824	-0.104	0.049
-560.515	-14.357	0.088	0.057
-559.500	-25.500	-0.051	0.030
-558.485	-63.718	0.291	-0.120
-557.471	387.697	0.098	-0.202
-556.456	129.229	0.140	-0.180
-555.442	506.470	-0.096	-0.223
-554.427	311.440	-0.188	-0.354
-553.412	88.104	0.129	-0.144
-552.398	-138.563	-0.106	0.012
-551.383	17.720	0.246	-0.196
-550.369	800.000	0.140	0.497
-549.354	-133.294	0.062	-0.008
-548.339	403.314	-0.098	0.206
-547.325	251.392	0.085	0.145
-546.310	800.000	0.092	0.282
-545.296	800.000	-0.010	-0.032
-544.281	589.027	-0.038	0.094
-543.266	68.466	-0.121	-0.124
-542.252	120.587	0.220	-0.274
-541.237	109.807	-0.119	-0.142
-540.223	-200.000	0.028	-0.146
-539.208	-139.209	-0.246	-0.027
-538.193	298.041	-0.081	-0.149
-537.179	800.000	0.111	-0.395
-536.164	63.441	-0.039	-0.039
-535.150	92.696	-0.075	-0.085
-534.135	16.763	-0.288	-0.228
-533.121	638.587	0.057	0.145
-532.106	554.200	0.090	-0.217
-531.091	-200.000	0.039	0.238
-530.077	360.323	-0.070	-0.140
-529.062	-56.238	0.353	0.157
-528.048	800.000	0.023	-0.091
-527.033	22.871	-0.258	-0.211
-526.018	104.220	0.158	-0.187
-525.004	-34.300	-0.310	-0.170
-523.989	-103.952	-0.283	0.066
-522.975	126.843	-0.173	-0.219
-521.960	-65.336	-0.086	-0.034
-520.945	-62.232	-0.211	0.088
-519.931	800.000	-0.097	0.301
-518.916	-76.582	0.182	-0.064
-517.902	321.980	-0.096	-0.184
-516.887	-200.000	0.055	0.261
-515.872	800.000	0.029	-0.090
-514.858	0.471	-0.227	0.163
-513.843	269.544	0.185	0.324
-512.829	-200.000	-0.003	-0.046
-511.814	-117.054	-0.296	-0.054
-510.799	515.105	-0.083	0.193
-509.785	781.099	0.045	-0.123
-508.770	-200.000	-0.039	0.209
-507.756	22.117	0.120	-0.098
-506.741	26.512	0.210	0.176
-505.726	-0.471	0.199	-0.141
-504.712	-0.786	-0.118	-0.083
-503.697	261.745	-0.235	0.408
-502.683	-0.184	0.223	0.159
-501.668	-60.612	0.244	0.104
-500.653	170.589	0.175	0.251
-499.639	-200.000	-0.033	0.256
-498.624	-92.141	0.245	-0.069
-497.610	-200.000	-0.028	-0.223
-496.595	-178.709	-0.394	0.009
-495.581	-200.000	-0.024	0.170
-494.566	-200.000	-0.036	0.215
-493.551	-119.820	-0.289	-0.050
-492.537	-158.067	-0.270	0.016
-491.522	297.701	0.090	-0.165
-490.508	800.000	0.069	0.211
-489.493	-200.000	-0.019	0.259
-488.478	-200.000	-0.008	0.053
-487.464	-45.479	0.325	-0.161
-486.449	-87.331	0.244	-0.074
-485.435	382.262	-0.116	-0.238
-484.420	14.030	0.225	0.175
-483.405	40.337	-0.113	-0.102
-482.391	264.265	-0.045	-0.077
-481.376	141.214	0.152	0.201
-480.362	-25.421	-0.334	-0.197
-479.347	260.202	0.294	0.508
-478.332	-148.597	0.026	-0.002
-477.318	62.101	-0.069	0.069
-476.303	-153.302	-0.145	-0.010
-475.289	20.449	-0.132	0.107
-474.274	-106.597	-0.355	0.079
-473.259	-107.094	0.173	-0.038
-472.245	-157.432	-0.249	0.015
-471.230	-8.277	-0.010	0.007
-470.216	-191.810	-0.123	-0.001
-469.201	-72.703	-0.145	-0.053
-468.186	800.000	-0.059	-0.206
-467.172	30.803	-0.292	0.250
-466.157	-44.680	0.023	-0.011
-465.143	26.395	-0.248	-0.207
-464.128	-103.178	-0.176	0.041
-463.113	68.945	-0.174	-0.179
-462.099	-97.726	-0.249	0.064
-461.084	-25.322	-0.265	0.156
-460.070	-169.516	0.167	-0.006
-459.055	-150.706	-0.229	-0.017
-458.040	-159.829	0.413	0.023
-457.026	800.000	-0.038	0.136
-456.011	-200.000	0.019	-0.320
-454.997	-86.149	0.055	-0.017
-453.982	-200.000	0.023	0.111
-452.968	-157.911	-0.298	-0.018
-451.953	16.463	0.180	-0.142
-450.938	10.187	-0.414	-0.314
-449.924	93.994	-0.027	-0.030
-448.909	-155.482	-0.130	0.008
-447.895	409.045	0.176	0.371
-446.880	-200.000	0.022	-0.182
-445.865	-147.351	0.133	-0.011
-444.851	-200.000	0.017	-0.085
-443.836	-17.947	0.104	-0.065
-442.822	800.000	-0.046	0.134
-441.807	290.673	0.146	0.264
-440.792	-101.142	0.318	-0.078
-439.778	-200.000	0.050	-0.296
-438.763	-137.839	-0.205	-0.023
-437.749	377.698	0.109	-0.222
-436.734	300.064	-0.059	0.108
-435.719	368.876	-0.087	0.175
-434.705	-200.000	-0.009	0.215
-433.690	-55.352	-0.279	-0.125
-432.676	-38.828	0.153	-0.081
-431.661	-16.573	0.268	0.170
-430.646	52.255	-0.205	0.195
-429.632	21.124	0.335	0.271
-428.617	-200.000	0.005	0.064
-427.603	182.729	-0.098	0.144
-426.588	800.000	0.047	-0.168
-425.573	97.843	0.112	-0.128
-424.559	168.131	-0.116	0.164
-423.544	-99.458	0.144	0.036
-422.530	-117.052	-0.216	-0.039
-421.515	37.243	-0.125	0.110
-420.500	31.852	-0.261	0.224
-419.486	35.394	-0.217	-0.190
-418.471	800.000	-0.093	-0.383
-417.457	188.315	-0.204	-0.304
-416.442	-13.141	0.270	0.175
-415.428	146.479	-0.227	0.304
-414.413	-80.283	-0.370	0.123
-413.398	-129.403	-0.324	-0.045
-412.384	-27.603	0.247	0.143
-411.369	-40.692	-0.194	-0.100
-410.355	-200.000	-0.053	-0.270
-409.340	6.494	-0.212	0.157
-408.325	-145.331	0.194	-0.017
-407.311	115.583	0.225	-0.274
-406.296	-66.259	-0.217	0.086
-405.282	-200.000	-0.004	-0.136
-404.267	42.781	0.154	-0.140
-403.252	-111.357	-0.395	0.080
-402.238	213.437	0.134	-0.210
-401.223	-20.332	-0.315	-0.193
-400.209	760.769	0.111	-0.301
-399.194	-200.000	-0.056	-0.504
-398.179	478.743	0.055	-0.124
-397.165	-200.000	0.061	-0.268
-396.150	-131.772	0.051	-0.007
-395.136	61.914	0.075	0.074
-394.121	541.984	0.073	-0.172
-393.106	115.880	-0.117	-0.143
-392.092	195.287	-0.030	-0.046
-391.077	-34.876	-0.095	-0.052
-390.063	226.327	0.161	-0.260
-389.048	-18.609	-0.253	-0.157
-388.033	-200.000	0.039	0.199
-387.019	800.000	0.056	0.232
-386.004	-31.870	0.148	0.082
-384.990	471.777	0.055	-0.122
-383.975	559.442	-0.097	0.234
-382.960	-125.147	0.177	0.027
-381.946	43.927	-0.142	0.130
-380.931	-112.340	0.162	-0.032
-379.917	-132.845	-0.087	0.011
-378.902	46.768	-0.134	-0.124
-377.888	86.518	-0.259	-0.284
-376.873	-35.973	-0.228	-0.122
-375.858	234.736	0.036	-0.058
-374.844	-80.666	-0.211	-0.070
-373.829	800.000	-0.090	0.300
-372.815	2.174	0.247	-0.177
-371.800	352.492	0.069	0.136
-370.785	-87.088	0.282	0.085
-369.771	205.459	0.178	0.276
-368.756	234.005	0.106	-0.173
-367.742	-84.193	-0.338	0.107
-366.727	-200.000	0.000	0.096
-365.712	126.044	-0.203	-0.256
-364.698	800.000	-0.041	0.149
-363.683	-101.475	-0.295	0.072
-362.669	-200.000	-0.040	0.277
-361.654	-57.798	-0.093	-0.040
-360.639	-200.000	-0.010	0.108
-359.625	284.341	-0.218	0.390
-358.610	-200.000	0.054	0.267
-357.596	800.000	0.058	0.249
-356.581	-157.349	0.160	0.010
-355.566	457.682	0.056	0.124
-354.552	444.287	0.106	-0.231
-353.537	126.460	0.174	0.219
-352.523	-200.000	0.028	0.332
-351.508	800.000	-0.032	0.088
-350.493	58.016	-0.170	0.165
-349.479	-200.000	0.029	0.186
-348.464	800.000	-0.065	-0.280
-347.450	-145.679	0.049	0.004
-346.435	43.475	-0.255	-0.231
-345.420	-35.169	-0.037	0.020
-344.406	359.816	-0.097	0.194
-343.391	-200.000	-0.054	0.307
-342.377	51.655	-0.147	0.139
-341.362	-200.000	0.200	-0.000
-340.348	439.383	-0.151	0.328
-339.333	79.280	-0.144	0.153
-338.318	157.442	-0.128	-0.176
-337.304	394.210	0.098	-0.202
-336.289	-180.439	-0.174	-0.004
-335.275	45.406	0.104	-0.095
-334.260	-200.000	-0.039	0.186
-333.245	-49.249	-0.175	0.083
-332.231	-15.376	-0.095	-0.060
-331.216	127.959	-0.129	0.163
-330.202	112.766	0.159	-0.191
-329.187	-200.000	0.001	0.147
-328.172	-200.000	-0.011	-0.156
-327.158	-109.601	0.279	-0.058
-326.143	5.703	-0.153	-0.112
-325.129	-200.000	-0.026	0.196
-324.114	800.000	-0.046	-0.137
-323.099	100.011	-0.108	0.125
-322.085	-5.303	-0.139	-0.095
-321.070	464.835	0.009	0.021
-320.056	-59.330	-0.153	-0.065
-319.041	119.615	0.209	-0.257
-318.026	800.000	-0.123	0.348
-317.012	718.494	0.080	0.210
-315.997	466.390	-0.073	0.163
-314.983	-12.367	0.257	-0.167
-313.968	174.518	-0.067	0.096
-312.953	241.829	0.090	-0.149
-311.939	31.787	0.128	-0.109
-310.924	274.333	0.121	-0.213
-309.910	-27.362	0.216	-0.125
-308.895	211.055	0.108	0.168
-307.880	765.518	0.044	0.118
-306.866	679.943	0.077	0.198
-305.851	-18.200	-0.201	0.125
-304.837	-150.809	0.076	-0.006
-303.822	-8.014	0.355	0.238
-302.807	-200.000	0.078	0.349
-301.793	-200.000	0.025	0.578
-300.778	-33.552	0.206	0.113
-299.764	-73.359	-0.268	0.097
-298.749	800.000	0.068	0.224
-297.735	-165.372	-0.236	-0.010
-296.720	-200.000	0.038	0.256
-295.705	-77.606	0.533	-0.183
-294.691	-70.289	0.198	0.074
-293.676	-143.797	0.165	-0.015
-292.662	-100.624	-0.170	-0.042
-291.647	-187.274	-0.112	-0.002
-290.632	234.132	0.119	-0.195
-289.618	800.000	-0.105	-0.362
-288.603	472.981	-0.068	-0.152
-287.589	-200.000	-0.039	-0.237
-286.574	-200.000	0.040	-0.200
-285.559	79.919	0.173	-0.184
-284.545	170.082	0.101	0.143
-283.530	-113.070	0.125	-0.024
-282.516	415.409	-0.132	-0.279
-281.501	42.341	0.163	0.147
-280.486	-107.743	-0.320	0.069
-279.472	800.000	-0.016	0.064
-278.457	642.506	0.089	0.224
-277.443	800.000	-0.056	0.244
-276.428	-192.936	0.540	0.005
-275.413	-200.000	0.054	-0.253
-274.399	286.965	0.131	-0.235
-273.384	28.092	0.195	0.163
-272.370	-103.159	0.115	0.027
-271.355	-152.432	-0.052	-0.004
-270.340	-200.000	0.006	-0.107
-269.326	17.406	0.165	-0.130
-268.311	80.502	0.240	0.256
-267.297	-102.870	0.201	0.047
-266.282	156.716	0.078	0.107
-265.267	-145.402	0.134	0.012
-264.253	800.000	0.048	0.133
-263.238	40.531	-0.171	-0.153
-262.224	252.958	0.216	-0.365
-261.209	423.043	-0.133	0.284
-260.195	-143.277	0.101	0.010
-259.180	-152.085	-0.101	0.007
-258.165	-126.119	0.176	0.026
-257.151	125.067	0.237	0.295
-256.136	-128.803	0.366	-0.051
-255.122	-118.337	-0.159	0.028
-254.107	24.017	-0.084	-0.069
-253.092	692.281	0.092	-0.240
-252.078	-200.000	-0.008	-0.068
-251.063	800.000	0.084	0.356
-250.049	27.939	0.217	-0.181
-249.034	-62.188	0.202	0.084
-248.019	412.717	0.056	0.117
-247.005	800.000	-0.074	-0.256
-245.990	22.844	0.159	0.129
-244.976	575.719	0.075	0.181
-243.961	20.790	0.352	0.283
-242.946	-89.341	0.081	0.024
-241.932	211.018	-0.236	-0.367
-240.917	-142.165	-0.288	0.028
-239.903	18.988	-0.217	0.172
-238.888	-200.000	-0.026	0.181
-237.873	285.246	0.089	-0.159
-236.859	361.406	-0.126	0.249
-235.844	339.652	0.139	-0.268
-234.830	-200.000	-0.070	-0.391
-233.815	-39.773	0.290	-0.150
-232.800	-200.000	-0.032	0.276
-231.786	12.126	-0.151	0.115
-230.771	-116.761	-0.423	0.077
-229.757	-200.000	0.248	-0.000
-228.742	331.270	-0.204	-0.389
-227.727	-200.000	-0.029	0.314
-226.713	135.582	0.158	0.204
-225.698	7.240	0.040	-0.029
-224.684	187.925	0.233	-0.345
-223.669	60.342	0.344	0.337
-222.655	800.000	-0.037	-0.159
-221.640	166.867	0.025	0.034
-220.625	314.012	-0.134	0.250
-219.611	-200.000	-0.029	-0.134
-218.596	-95.786	0.317	0.084
-217.582	800.000	0.044	0.159
-216.567	-158.929	0.187	0.011
-215.552	-200.000	0.005	-0.348
-214.538	-200.000	0.022	-0.215
-213.523	25.009	0.101	0.083
-212.509	-200.000	-0.006	0.335
-211.494	-84.540	0.075	-0.023
-210.479	600.680	0.069	0.170
-209.465	105.658	0.234	-0.274
-208.450	257.589	0.051	0.086
-207.436	-200.000	-0.003	0.176
-206.421	-131.678	-0.229	0.030
-205.406	-200.000	-0.009	-0.082
-204.392	230.125	-0.082	-0.133
-203.377	-55.467	0.113	-0.050
-202.363	68.978	-0.057	-0.058
-201.348	455.094	0.022	-0.048
-200.333	286.797	0.077	-0.137
-199.319	232.623	0.099	0.161
-198.304	28.478	0.103	0.086
-197.290	119.881	0.118	0.144
-196.275	800.000	-0.080	-0.221
-195.260	-108.030	-0.141	0.030
-194.246	123.041	0.120	0.149
-193.231	538.426	-0.047	0.111
-192.217	-77.336	0.215	-0.074
-191.202	216.547	0.055	0.086
-190.187	158.982	-0.097	0.133
-189.173	800.000	-0.083	-0.296
-188.158	-132.261	-0.404	-0.052
-187.144	-14.996	-0.174	-0.110
-186.129	253.634	0.074	-0.125
-185.114	4.344	-0.192	0.139
-184.100	-76.856	-0.168	-0.058
-183.085	-34.105	-0.148	0.081
-182.071	-200.000	0.016	-0.333
-181.056	181.894	-0.204	0.297
-180.042	-200.000	0.029	0.466
-179.027	-74.713	0.110	0.039
-178.012	-187.210	0.175	0.002
-176.998	-200.000	-0.014	0.063
-175.983	-26.293	-0.206	-0.119
-174.969	-26.159	-0.247	0.143
-173.954	-182.861	0.152	-0.003
-172.939	-200.000	-0.024	-0.285
-171.925	-26.888	0.296	0.171
-170.910	800.000	0.073	0.229
-169.896	677.024	0.156	0.400
-168.881	-200.000	-0.022	-0.169
-167.866	-0.282	0.037	0.026
-166.852	37.351	-0.157	-0.137
-165.837	-87.992	0.117	-0.035
-164.823	-200.000	-0.021	-0.255
-163.808	138.739	-0.078	0.101
-162.793	-53.542	-0.394	-0.178
-161.779	-84.493	-0.047	0.015
-160.764	267.533	0.059	0.102
-159.750	280.659	0.076	0.134
-158.735	4.600	0.188	-0.136
-157.720	-116.712	0.318	0.058
-156.706	93.099	-0.119	-0.132
-155.691	11.022	0.324	0.244
-154.677	340.804	-0.087	-0.167
-153.662	-160.238	-0.259	-0.014
-152.647	-102.811	-0.246	-0.058
-151.633	-86.984	0.274	0.082
-150.618	800.000	-0.082	-0.287
-149.604	-50.467	-0.278	0.129
-148.589	-84.290	-0.109	0.034
-147.574	-113.939	0.201	-0.038
-146.560	-76.503	-0.481	-0.167
-145.545	114.358	-0.192	0.230
-144.531	-200.000	-0.046	-0.214
-143.516	327.294	-0.073	0.138
-142.502	-32.094	-0.126	0.070
-141.487	-200.000	0.039	0.168
-140.472	-200.000	-0.029	0.125
-139.458	-77.421	0.152	-0.052
-138.443	-79.358	0.077	-0.026
-137.429	-58.501	-0.064	-0.027
-136.414	800.000	0.029	0.120
-135.399	168.991	-0.113	-0.159
-134.385	-78.537	0.496	0.167
-133.370	17.769	0.182	-0.143
-132.356	-55.360	-0.303	0.134
-131.341	183.696	-0.180	-0.263
-130.326	-21.621	0.142	0.085
-129.312	-200.000	0.024	-0.394
-128.297	-101.187	-0.207	0.050
-127.283	-106.735	0.109	0.024
-126.268	-136.813	-0.236	0.027
-125.253	629.821	-0.053	0.132
-124.239	-48.462	0.303	-0.144
-123.224	137.085	-0.056	-0.072
-122.210	4.768	0.049	-0.035
