DTS Sentinel unit serial number:	SN413079Multiplexer serial number:	ORYXHardware model number:	OX4-SRSoftware version number:	ORYX F/W v4.00 Oryx Data Collector v3.7.2.0data status	okinstallation	princeton_trtdifferential loss correction	single-endedforward channel	channel 4reverse channel	N/Adate	2019/09/16time	17:21:35forward acquisition time	60.00reverse acquisition time	0.00gamma	496.2192k internal	0.2296k external	0.2296temperature offset calibration	0.9942default loss term (dB/km)	0.3790temperature slope calibration	1.0000multiplexer offset coefficient	1.0000multiplexer slope coefficient	1.0000fibre end	0.00T internal ref (°C)	38.75T ext. ref 1 (°C)	15.42T ext. ref 2 (°C)	32.74length (m)	temperature (°C)	Stokes	anti-Stokes-747.200	-200.000	-0.020	-0.148
-746.185	-162.796	0.084	-0.004
-745.171	224.564	-0.224	0.370
-744.156	-200.000	-0.076	0.384
-743.142	-200.000	-0.021	-0.186
-742.127	319.688	-0.057	-0.110
-741.112	-95.167	0.149	-0.041
-740.098	-200.000	-0.022	0.447
-739.083	-192.707	-0.138	0.001
-738.069	800.000	-0.049	0.205
-737.054	446.920	-0.137	-0.308
-736.039	-107.170	-0.211	-0.047
-735.025	-60.073	0.120	0.052
-734.010	-72.811	0.106	-0.040
-732.996	-200.000	0.024	-0.306
-731.981	-50.395	-0.180	-0.087
-730.966	-200.000	0.025	-0.118
-729.952	800.000	-0.049	0.193
-728.937	-200.000	0.061	-0.389
-727.923	669.580	-0.065	0.171
-726.908	23.017	-0.177	-0.148
-725.894	-125.288	-0.058	-0.009
-724.879	3.638	0.259	0.193
-723.864	104.819	-0.245	-0.295
-722.850	-78.951	-0.064	-0.022
-721.835	454.628	-0.117	0.265
-720.821	-15.087	-0.305	-0.199
-719.806	20.800	0.236	-0.195
-718.791	26.245	-0.169	0.144
-717.777	-119.315	-0.400	0.071
-716.762	-181.312	0.392	-0.008
-715.748	106.919	-0.058	0.071
-714.733	-58.896	0.168	0.074
-713.718	800.000	0.089	0.326
-712.704	-72.565	-0.093	-0.035
-711.689	442.729	-0.063	0.141
-710.675	279.174	-0.042	0.077
-709.660	-37.070	0.246	0.134
-708.645	184.768	0.106	-0.161
-707.631	119.836	0.298	-0.377
-706.616	-109.899	0.143	0.031
-705.602	205.011	-0.294	-0.465
-704.587	296.476	0.084	0.157
-703.572	-70.545	-0.287	-0.111
-702.558	-22.523	0.180	-0.111
-701.543	-44.614	0.177	0.090
-700.529	267.693	-0.136	0.242
-699.514	-111.588	0.221	0.046
-698.499	30.121	-0.201	-0.175
-697.485	10.568	0.096	0.074
-696.470	731.150	0.016	-0.045
-695.456	-46.978	0.267	0.133
-694.441	54.746	-0.252	0.248
-693.426	-200.000	-0.035	-0.304
-692.412	800.000	-0.014	0.060
-691.397	234.661	0.103	0.172
-690.383	226.970	-0.072	0.119
-689.368	-47.881	-0.206	0.102
-688.354	-200.000	0.008	-0.319
-687.339	-88.365	-0.080	-0.025
-686.324	395.538	-0.151	-0.322
-685.310	-171.878	0.088	0.003
-684.295	-200.000	-0.040	-0.184
-683.281	-160.125	-0.147	0.008
-682.266	0.430	-0.175	0.127
-681.251	-33.076	0.159	-0.090
-680.237	-9.981	-0.268	0.182
-679.222	-99.722	0.388	0.099
-678.208	-200.000	0.022	-0.182
-677.193	-49.626	-0.206	0.100
-676.178	-114.752	-0.343	0.067
-675.164	-21.003	-0.137	-0.085
-674.149	-108.112	0.438	0.097
-673.135	-16.049	0.071	0.046
-672.120	105.934	-0.240	0.289
-671.105	53.140	0.192	0.188
-670.091	397.571	0.042	0.089
-669.076	19.071	0.224	-0.183
-668.062	-165.651	-0.283	-0.012
-667.047	242.448	0.185	0.315
-666.032	-65.445	0.021	0.009
-665.018	13.277	-0.203	-0.160
-664.003	-0.384	-0.192	-0.139
-662.989	-15.307	0.118	0.077
-661.974	-138.889	-0.234	0.026
-660.959	-123.406	0.229	-0.037
-659.945	15.259	-0.295	-0.235
-658.930	-86.049	0.248	0.078
-657.916	90.594	0.043	-0.049
-656.901	53.702	-0.503	-0.491
-655.886	800.000	0.015	0.062
-654.872	225.266	0.120	0.198
-653.857	104.948	-0.185	-0.222
-652.843	3.651	0.120	0.089
-651.828	2.241	-0.235	-0.173
-650.814	-26.884	-0.307	0.183
-649.799	376.460	0.149	-0.310
-648.784	345.898	-0.069	-0.138
-647.770	-80.801	0.050	0.017
-646.755	-200.000	-0.010	-0.055
-645.741	-1.347	-0.409	-0.294
-644.726	5.556	0.252	-0.189
-643.711	-134.500	-0.305	-0.038
-642.697	-115.790	0.377	0.072
-641.682	-10.818	0.441	0.297
-640.668	800.000	-0.091	-0.382
-639.653	800.000	-0.086	-0.249
-638.638	-89.218	-0.202	0.061
-637.624	109.759	-0.153	0.187
-636.609	-173.891	-0.033	0.001
-635.595	-101.626	0.277	-0.068
-634.580	15.053	0.029	-0.023
-633.565	-143.913	0.571	0.055
-632.551	-147.142	0.333	0.029
-631.536	23.021	0.133	0.111
-630.522	-119.628	-0.176	-0.031
-629.507	-84.169	0.045	-0.014
-628.492	800.000	0.055	0.227
-627.478	100.761	0.024	-0.029
-626.463	-200.000	-0.017	-0.089
-625.449	69.258	0.273	-0.286
-624.434	800.000	0.079	0.287
-623.419	800.000	-0.041	0.132
-622.405	137.452	-0.054	-0.072
-621.390	-200.000	-0.009	0.070
-620.376	-60.428	0.165	-0.072
-619.361	-71.542	-0.560	-0.213
-618.346	-61.922	0.243	-0.103
-617.332	105.405	-0.092	0.111
-616.317	554.911	0.154	0.376
-615.303	114.543	-0.185	-0.229
-614.288	-63.844	0.156	-0.065
-613.273	35.980	-0.076	0.068
-612.259	-59.026	0.294	-0.129
-611.244	-200.000	-0.029	0.138
-610.230	800.000	0.062	-0.213
-609.215	-36.426	-0.091	-0.050
-608.201	-200.000	-0.006	-0.223
-607.186	-151.048	0.245	-0.019
-606.171	-10.329	-0.023	0.016
-605.157	42.571	0.101	-0.093
-604.142	116.007	0.211	0.263
-603.128	-200.000	-0.080	-0.433
-602.113	107.708	-0.205	0.248
-601.098	126.365	-0.169	0.218
-600.084	454.944	-0.044	-0.099
-599.069	-200.000	0.038	-0.243
-598.055	557.211	-0.065	-0.158
-597.040	50.329	-0.082	-0.079
-596.025	725.391	-0.115	0.313
-595.011	45.967	0.164	-0.154
-593.996	-200.000	-0.055	-0.493
-592.982	-129.503	-0.195	0.027
-591.967	-200.000	-0.017	-0.089
-590.952	123.349	0.043	-0.054
-589.938	10.290	-0.204	-0.157
-588.923	-200.000	0.011	-0.093
-587.909	-73.190	0.213	0.079
-586.894	130.450	0.240	0.313
-585.879	-88.406	-0.050	-0.015
-584.865	-95.975	-0.098	0.026
-583.850	-67.605	-0.081	-0.032
-582.836	121.617	-0.103	0.131
-581.821	-68.627	-0.210	0.083
-580.806	771.410	-0.103	-0.286
-579.792	-200.000	0.048	-0.222
-578.777	471.530	-0.029	-0.066
-577.763	162.912	0.110	-0.157
-576.748	84.661	0.210	0.233
-575.733	-156.814	0.037	0.002
-574.719	-94.858	0.004	0.001
-573.704	-108.193	-0.012	-0.003
-572.690	67.178	0.035	0.036
-571.675	800.000	-0.065	-0.231
-570.661	164.261	-0.131	0.188
-569.646	-123.871	-0.202	0.032
-568.631	-200.000	-0.022	0.099
-567.617	-69.083	-0.089	-0.035
-566.602	98.097	0.149	0.175
-565.588	674.728	-0.025	-0.066
-564.573	96.060	-0.040	0.047
-563.558	800.000	0.115	0.396
-562.544	-82.098	0.113	0.037
-561.529	-200.000	0.012	-0.164
-560.515	800.000	-0.158	0.450
-559.500	-200.000	-0.016	0.133
-558.485	800.000	-0.044	-0.195
-557.471	-72.643	-0.091	-0.034
-556.456	667.374	0.058	0.153
-555.442	-43.428	-0.335	-0.171
-554.427	-62.785	0.138	-0.058
-553.412	1.637	0.254	-0.186
-552.398	170.574	-0.127	0.184
-551.383	-45.953	0.413	0.207
-550.369	40.200	-0.111	0.101
-549.354	-112.169	-0.224	-0.046
-548.339	-200.000	-0.016	0.146
-547.325	105.619	-0.323	-0.387
-546.310	752.011	0.106	-0.290
-545.296	-30.031	0.063	-0.036
-544.281	38.801	-0.307	-0.278
-543.266	-101.662	0.096	0.024
-542.252	-107.984	-0.186	0.041
-541.237	475.253	-0.035	0.080
-540.223	57.296	0.086	-0.085
-539.208	67.722	0.152	-0.158
-538.193	757.998	0.076	-0.209
-537.179	-74.278	-0.132	-0.049
-536.164	122.006	0.156	-0.197
-535.150	513.551	0.061	0.144
-534.135	422.587	0.135	-0.294
-533.121	39.082	0.111	-0.101
-532.106	184.169	-0.121	-0.181
-531.091	-9.411	0.272	-0.184
-530.077	800.000	0.085	-0.293
-529.062	192.992	0.115	0.175
-528.048	-149.541	0.152	-0.012
-527.033	-52.708	-0.181	0.085
-526.018	124.466	-0.055	-0.069
-525.004	-160.064	-0.130	-0.007
-523.989	-44.687	-0.143	-0.072
-522.975	166.566	0.103	-0.148
-521.960	69.470	0.131	-0.137
-520.945	84.982	0.317	0.351
-519.931	-44.803	0.262	0.132
-518.916	150.131	-0.010	0.014
-517.902	172.704	0.064	0.093
-516.887	-70.516	-0.220	0.085
-515.872	-200.000	0.015	0.069
-514.858	-89.864	0.199	0.059
-513.843	-200.000	-0.001	0.250
-512.829	-200.000	-0.001	0.049
-511.814	-200.000	-0.012	0.080
-510.799	-48.342	0.203	-0.099
-509.785	-149.147	0.174	-0.014
-508.770	-128.320	0.188	0.027
-507.756	-98.245	-0.290	0.075
-506.741	-200.000	0.029	-0.368
-505.726	-84.138	-0.198	-0.064
-504.712	152.154	-0.039	0.054
-503.697	-115.225	0.297	0.057
-502.683	-39.575	0.216	0.114
-501.668	-140.542	0.330	0.035
-500.653	-33.879	-0.035	0.020
-499.639	11.739	0.121	0.094
-498.624	39.831	0.214	-0.194
-497.610	-99.412	0.345	0.088
-496.595	-200.000	-0.034	-0.243
-495.581	461.648	0.089	-0.200
-494.566	195.099	0.223	0.342
-493.551	111.395	0.297	0.362
-492.537	-200.000	-0.063	0.291
-491.522	-130.546	-0.300	-0.041
-490.508	-200.000	-0.005	0.242
-489.493	-44.657	0.042	0.021
-488.478	261.027	0.146	-0.256
-487.464	800.000	-0.019	-0.078
-486.449	-200.000	0.027	0.128
-485.435	-113.793	-0.141	0.028
-484.420	343.832	-0.099	-0.197
-483.405	800.000	-0.117	0.332
-482.391	18.679	0.174	0.141
-481.376	-80.791	-0.073	0.025
-480.362	-200.000	-0.029	-0.141
-479.347	-175.272	0.124	-0.003
-478.332	800.000	-0.072	-0.288
-477.318	88.676	-0.068	-0.076
-476.303	-3.745	0.191	-0.134
-475.289	-200.000	-0.003	-0.161
-474.274	-128.037	0.340	0.049
-473.259	-93.766	0.038	0.011
-472.245	-16.773	0.287	-0.183
-471.230	800.000	-0.039	0.137
-470.216	70.134	-0.045	0.047
-469.201	-44.968	0.382	0.192
-468.186	-66.894	0.148	-0.059
-467.172	-200.000	-0.369	-0.001
-466.157	41.348	0.083	-0.076
-465.143	-183.342	-0.507	-0.009
-464.128	-66.157	0.086	-0.034
-463.113	-200.000	-0.001	-0.394
-462.099	800.000	0.056	0.232
-461.084	34.206	0.224	0.197
-460.070	-158.219	0.141	-0.008
-459.055	-24.699	-0.284	0.171
-458.040	389.722	-0.016	0.033
-457.026	-26.125	-0.063	-0.038
-456.011	737.671	0.139	0.377
-454.997	547.532	0.084	0.203
-453.982	353.109	-0.050	-0.101
-452.968	-77.119	-0.126	0.044
-451.953	-200.000	-0.011	0.243
-450.938	-200.000	-0.004	-0.063
-449.924	71.252	0.209	0.219
-448.909	573.805	-0.104	0.257
-447.895	-4.498	-0.231	0.161
-446.880	712.392	0.197	-0.528
-445.865	-200.000	-0.022	0.324
-444.851	-144.611	-0.354	-0.033
-443.836	-170.634	-0.243	-0.008
-442.822	122.548	0.279	0.353
-441.807	-11.498	-0.170	-0.113
-440.792	99.784	-0.115	-0.134
-439.778	160.206	0.113	0.159
-438.763	-184.095	0.095	0.002
-437.749	-200.000	-0.069	0.354
-436.734	153.889	0.172	-0.238
-435.719	-200.000	0.028	0.134
-434.705	315.537	0.127	0.241
-433.690	113.911	-0.122	0.149
-432.676	-163.593	0.326	0.016
-431.661	298.578	-0.039	0.073
-430.646	315.812	-0.143	0.272
-429.632	-120.565	-0.111	-0.019
-428.617	41.239	0.218	-0.199
-427.603	-147.536	-0.232	-0.020
-426.588	-144.973	-0.129	-0.012
-425.573	-18.835	0.125	-0.079
-424.559	-110.049	0.462	-0.097
-423.544	-12.086	-0.104	0.069
-422.530	-200.000	0.008	0.407
-421.515	-51.034	-0.123	-0.058
-420.500	391.800	-0.024	-0.050
-419.486	-99.818	0.251	-0.063
-418.471	-200.000	-0.000	0.054
-417.457	83.389	0.092	-0.102
-416.442	800.000	-0.056	0.189
-415.428	-200.000	-0.017	0.354
-414.413	-115.267	-0.443	0.084
-413.398	416.970	-0.219	0.471
-412.384	217.275	0.029	-0.046
-411.369	-146.482	-0.478	-0.042
-410.355	-16.120	0.216	-0.138
-409.340	-36.619	0.209	0.113
-408.325	800.000	-0.113	0.429
-407.311	-55.580	-0.156	-0.070
-406.296	-33.855	-0.236	-0.131
-405.282	-179.002	-0.221	0.005
-404.267	31.905	0.089	0.077
-403.252	-200.000	-0.022	0.169
-402.238	-34.082	-0.126	-0.070
-401.223	-82.233	0.042	0.014
-400.209	-134.786	0.233	-0.029
-399.194	663.527	-0.040	0.103
-398.179	113.766	-0.077	0.095
-397.165	70.506	0.062	-0.065
-396.150	-105.930	0.273	-0.062
-395.136	-78.959	-0.258	-0.088
-394.121	-108.651	-0.108	0.023
-393.106	35.005	-0.134	0.119
-392.092	25.371	-0.161	0.135
-391.077	104.167	-0.164	0.194
-390.063	-132.796	0.068	0.009
-389.048	-170.871	0.227	0.008
-388.033	-81.046	-0.241	0.080
-387.019	-15.076	-0.286	-0.185
-386.004	177.262	0.137	-0.200
-384.990	743.922	0.068	0.185
-383.975	-79.775	-0.122	-0.041
-382.960	219.736	0.173	-0.280
-381.946	65.468	-0.162	0.165
-380.931	-200.000	-0.019	0.113
-379.917	-73.496	0.144	0.053
-378.902	561.813	0.056	0.136
-377.888	366.535	0.182	0.370
-376.873	136.301	-0.119	-0.156
-375.858	-66.217	0.341	0.137
-374.844	-42.518	0.248	0.127
-373.829	800.000	-0.055	0.168
-372.815	593.129	-0.122	-0.304
-371.800	772.815	-0.088	-0.242
-370.785	362.266	-0.039	-0.079
-369.771	-48.598	-0.209	0.101
-368.756	-114.261	0.131	0.025
-367.742	-66.676	-0.136	0.054
-366.727	127.421	-0.190	-0.243
-365.712	-11.601	0.291	-0.193
-364.698	-200.000	0.040	-0.297
-363.683	458.480	0.056	-0.124
-362.669	-46.104	0.037	-0.018
-361.654	-200.000	0.042	0.292
-360.639	-200.000	-0.059	-0.287
-359.625	123.446	-0.242	0.305
-358.610	245.468	-0.050	-0.085
-357.596	-30.709	-0.304	-0.173
-356.581	480.285	-0.084	0.191
-355.566	328.387	0.056	-0.109
-354.552	-200.000	-0.009	-0.086
-353.537	-200.000	0.026	-0.215
-352.523	199.187	-0.236	-0.364
-351.508	101.517	-0.078	0.091
-350.493	800.000	0.041	0.116
-349.479	72.288	-0.257	0.269
-348.464	-200.000	-0.007	0.132
-347.450	-131.287	0.417	-0.056
-346.435	-200.000	0.021	-0.159
-345.420	-141.787	0.408	-0.041
-344.406	133.396	-0.026	-0.033
-343.391	17.868	0.195	-0.156
-342.377	-78.523	-0.099	0.034
-341.362	96.858	0.044	0.051
-340.348	-111.123	-0.237	0.049
-339.333	-59.102	0.222	-0.096
-338.318	800.000	-0.041	0.125
-337.304	-18.527	0.177	0.111
-336.289	-200.000	0.001	-0.081
-335.275	-85.107	-0.259	0.081
-334.260	-200.000	0.022	-0.305
-333.245	-130.357	0.403	0.055
-332.231	423.114	-0.070	-0.151
-331.216	194.536	0.094	0.143
-330.202	-26.557	-0.281	-0.166
-329.187	-155.110	0.232	0.015
-328.172	-133.264	0.167	0.021
-327.158	-99.267	0.141	0.036
-326.143	-148.053	0.228	-0.019
-325.129	-200.000	0.005	0.162
-324.114	-55.590	0.085	-0.038
-323.099	26.289	-0.204	0.171
-322.085	459.198	-0.192	0.430
-321.070	-135.560	-0.100	-0.012
-320.056	-95.982	0.176	-0.047
-319.041	126.439	-0.119	0.151
-318.026	-168.482	-0.304	0.012
-317.012	800.000	-0.124	-0.404
-315.997	-200.000	-0.030	-0.371
-314.983	-170.092	0.169	0.006
-313.968	-81.932	-0.105	0.034
-312.953	266.207	0.040	0.070
-311.939	-129.419	-0.263	0.037
-310.924	634.633	-0.102	0.261
-309.910	-20.432	0.355	-0.219
-308.895	99.207	-0.132	0.153
-307.880	58.663	-0.181	0.179
-306.866	7.510	-0.129	-0.097
-305.851	-110.106	-0.214	0.045
-304.837	-45.426	-0.174	-0.087
-303.822	160.347	-0.192	-0.270
-302.807	167.674	-0.137	-0.196
-301.793	417.029	0.117	0.251
-300.778	-167.799	-0.289	-0.011
-299.764	4.705	-0.171	-0.126
-298.749	-98.461	0.229	0.059
-297.735	91.330	0.277	0.313
-296.720	40.337	-0.104	0.094
-295.705	158.170	0.109	0.152
-294.691	92.977	-0.142	-0.161
-293.676	604.668	-0.050	0.126
-292.662	-129.979	0.104	-0.014
-291.647	97.376	-0.212	-0.244
-290.632	800.000	-0.074	0.286
-289.618	800.000	-0.090	0.292
-288.603	322.704	0.168	-0.322
-287.589	717.319	0.135	0.360
-286.574	53.425	-0.368	0.354
-285.559	305.202	0.074	-0.138
-284.545	-83.574	0.130	-0.042
-283.530	-52.787	-0.162	-0.075
-282.516	-34.615	-0.134	0.074
-281.501	-200.000	-0.011	0.158
-280.486	-200.000	0.010	-0.063
-279.472	800.000	0.079	-0.275
-278.457	87.745	0.169	-0.187
-277.443	-75.730	-0.108	-0.038
-276.428	-73.792	-0.120	-0.044
-275.413	295.133	-0.075	-0.138
-274.399	154.904	-0.081	-0.112
-273.384	800.000	0.108	0.337
-272.370	800.000	0.080	0.266
-271.355	31.392	0.165	0.142
-270.340	800.000	-0.222	-0.650
-269.326	-108.251	0.109	-0.024
-268.311	800.000	-0.102	-0.313
-267.297	-34.199	-0.176	0.097
-266.282	800.000	-0.045	-0.161
-265.267	22.541	-0.136	-0.112
-264.253	-169.257	-0.215	0.008
-263.238	108.154	-0.133	0.159
-262.224	-109.244	0.232	-0.049
-261.209	-45.964	0.040	0.020
-260.195	800.000	0.052	0.144
-259.180	-200.000	0.000	-0.153
-258.165	692.421	-0.134	-0.352
-257.151	773.169	0.079	-0.215
-256.136	800.000	-0.089	0.254
-255.122	150.277	-0.097	-0.131
-254.107	58.746	0.211	0.207
-253.092	133.117	-0.180	-0.233
-252.078	800.000	-0.097	0.337
-251.063	-200.000	-0.020	0.441
-250.049	-153.724	-0.078	-0.005
-249.034	83.408	-0.086	0.094
-248.019	587.468	0.104	0.258
-247.005	-29.579	-0.231	-0.132
-245.990	-27.621	-0.399	-0.232
-244.976	-200.000	-0.096	-0.519
-243.961	27.517	0.076	0.064
-242.946	284.149	-0.079	0.142
-241.932	230.788	-0.069	-0.113
-240.917	-19.174	-0.111	-0.069
-239.903	800.000	-0.047	-0.188
-238.888	236.759	-0.045	-0.075
-237.873	-29.215	-0.295	0.169
-236.859	16.492	-0.161	0.127
-235.844	-115.708	0.099	0.018
-234.830	-108.658	0.059	0.013
-233.815	-200.000	0.002	-0.059
-232.800	-132.078	-0.124	0.016
-231.786	-121.295	0.362	0.060
-230.771	42.723	-0.329	-0.300
-229.757	170.307	-0.088	0.127
-228.742	-28.503	0.089	0.052
-227.727	-11.546	0.063	0.042
-226.713	800.000	0.052	0.169
-225.698	-154.354	-0.257	0.017
-224.684	-25.833	0.160	0.094
-223.669	-141.462	-0.264	-0.027
-222.655	-55.701	0.064	-0.029
-221.640	-85.322	0.382	-0.119
-220.625	32.871	-0.054	-0.046
-219.611	800.000	0.066	0.258
-218.596	202.152	-0.090	0.139
-217.582	-200.000	0.018	0.242
-216.567	23.677	0.303	0.250
-215.552	-9.461	0.156	-0.104
-214.538	-80.695	-0.100	0.033
-213.523	-70.661	-0.169	0.064
-212.509	-11.434	0.118	0.078
-211.494	-77.551	0.188	-0.065
-210.479	-117.638	-0.331	0.060
-209.465	80.719	-0.204	0.220
-208.450	-48.176	-0.034	0.017
-207.436	657.824	0.060	-0.155
-206.421	800.000	0.052	0.163
-205.406	-133.791	-0.102	-0.013
-204.392	-200.000	-0.042	-0.274
-203.377	-200.000	0.035	0.216
-202.363	42.739	-0.072	-0.066
-201.348	65.731	-0.186	-0.188
-200.333	41.232	-0.217	0.197
-199.319	-105.964	0.178	0.040
-198.304	410.702	0.079	0.168
-197.290	-88.859	-0.240	-0.071
-196.275	110.788	0.110	-0.132
-195.260	24.563	0.096	-0.080
-194.246	800.000	0.066	-0.195
-193.231	-24.051	0.254	-0.152
-192.217	800.000	0.069	0.273
-191.202	-193.367	-0.268	0.002
-190.187	-53.429	0.023	-0.011
-189.173	55.137	-0.242	-0.234
-188.158	319.025	0.040	0.076
-187.144	210.301	-0.146	-0.228
-186.129	800.000	-0.011	0.040
-185.114	263.679	-0.022	-0.039
-184.100	-102.170	0.286	-0.069
-183.085	-25.144	0.068	0.040
-182.071	-107.052	-0.202	0.045
-181.056	185.420	0.046	-0.069
-180.042	126.440	-0.090	0.114
-179.027	677.290	-0.079	-0.205
-178.012	-114.801	-0.122	-0.023
-176.998	272.917	-0.017	0.029
-175.983	206.028	0.254	-0.394
-174.969	-42.522	0.406	-0.207
-173.954	112.014	-0.099	-0.119
-172.939	800.000	0.035	0.099
-171.925	-200.000	0.032	0.170
-170.910	-200.000	0.047	-0.205
-169.896	-108.268	-0.046	-0.010
-168.881	-200.000	-0.049	0.371
-167.866	-74.750	0.372	-0.134
-166.852	-12.288	-0.267	-0.175
-165.837	800.000	-0.027	-0.078
-164.823	577.674	-0.019	-0.047
-163.808	-142.212	0.214	0.021
-162.793	-200.000	-0.006	-0.294
-161.779	322.751	0.037	0.071
-160.764	188.163	-0.106	0.159
-159.750	-200.000	-0.019	0.141
-158.735	281.005	-0.075	-0.134
-157.720	106.915	0.245	0.290
-156.706	-50.511	0.301	-0.142
-155.691	-72.304	0.336	0.124
-154.677	-87.000	0.161	-0.049
-153.662	70.389	0.062	0.064
-152.647	283.127	-0.088	-0.159
-151.633	220.429	-0.225	-0.360
-150.618	-111.970	-0.259	0.052
-149.604	800.000	0.069	0.224
-148.589	-85.970	0.180	-0.056
-147.574	23.416	-0.126	-0.103
-146.560	-132.711	-0.256	-0.033
-145.545	-113.860	0.118	0.023
-144.531	-200.000	0.044	0.495
-143.516	800.000	-0.029	0.091
-142.502	635.190	-0.218	-0.552
-141.487	-200.000	0.037	0.286
-140.472	800.000	0.036	-0.127
-139.458	-107.274	0.074	-0.016
-138.443	70.194	0.199	-0.205
-137.429	68.087	0.177	0.181
-136.414	-200.000	0.000	0.226
-135.399	800.000	-0.017	0.054
-134.385	86.772	0.179	-0.197
-133.370	800.000	-0.046	0.152
-132.356	130.988	0.030	-0.038
-131.341	410.865	0.154	-0.326
-130.326	205.090	0.162	0.251
-129.312	-29.570	-0.176	0.101
-128.297	-151.776	0.116	-0.008
-127.283	-77.603	-0.327	-0.113
-126.268	-104.877	-0.334	-0.076
-125.253	94.396	0.211	-0.239
-124.239	-63.295	0.314	0.129
-123.224	-101.304	0.194	0.047
-122.210	-200.000	0.042	-0.308
