DTS Sentinel unit serial number:	SN413079Multiplexer serial number:	ORYXHardware model number:	OX4-SRSoftware version number:	ORYX F/W v4.00 Oryx Data Collector v3.7.2.0data status	okinstallation	princeton_trtdifferential loss correction	single-endedforward channel	channel 4reverse channel	N/Adate	2019/09/12time	17:35:10forward acquisition time	60.00reverse acquisition time	0.00gamma	496.2192k internal	0.2308k external	0.2308temperature offset calibration	1.0130default loss term (dB/km)	0.3790temperature slope calibration	1.0000multiplexer offset coefficient	1.0000multiplexer slope coefficient	1.0000fibre end	0.00T internal ref (°C)	34.44T ext. ref 1 (°C)	2.85T ext. ref 2 (°C)	28.57length (m)	temperature (°C)	Stokes	anti-Stokes-747.200	-18.593	-0.293	0.186
-746.185	-200.000	-0.019	0.125
-745.171	-78.015	0.249	-0.087
-744.156	353.608	-0.156	0.315
-743.142	-1.570	0.239	0.171
-742.127	251.016	0.181	0.314
-741.112	103.908	-0.177	0.211
-740.098	137.192	0.050	0.067
-739.083	261.050	-0.039	-0.069
-738.069	310.374	0.213	0.405
-737.054	-200.000	-0.008	-0.095
-736.039	-200.000	-0.004	-0.084
-735.025	55.823	-0.281	0.277
-734.010	193.403	0.255	-0.392
-732.996	-200.000	-0.034	-0.344
-731.981	-200.000	0.008	-0.068
-730.966	-190.352	0.322	-0.004
-729.952	-175.658	-0.178	-0.005
-728.937	-2.577	-0.115	0.082
-727.923	264.277	-0.163	-0.288
-726.908	-115.328	0.176	-0.034
-725.894	-125.301	-0.097	-0.015
-724.879	-200.000	0.006	0.413
-723.864	179.465	0.069	0.102
-722.850	193.058	0.107	-0.165
-721.835	-103.021	-0.214	0.052
-720.821	-43.150	0.123	-0.063
-719.806	-200.000	-0.028	-0.345
-718.791	451.625	0.149	-0.335
-717.777	290.072	0.080	0.148
-716.762	0.579	-0.124	0.090
-715.748	-78.790	0.225	-0.078
-714.733	224.242	-0.155	0.254
-713.718	-28.312	-0.102	-0.060
-712.704	40.587	-0.127	-0.116
-711.689	15.933	0.196	0.157
-710.675	-0.647	0.184	0.133
-709.660	-14.123	-0.172	0.113
-708.645	-11.448	-0.238	0.159
-707.631	4.591	0.167	0.124
-706.616	-64.768	0.032	0.013
-705.602	140.524	0.112	0.150
-704.587	-45.091	-0.366	0.185
-703.572	-200.000	-0.025	-0.137
-702.558	800.000	-0.080	0.285
-701.543	447.953	0.152	-0.340
-700.529	195.825	-0.257	-0.396
-699.514	-200.000	-0.042	-0.332
-698.499	800.000	0.092	-0.277
-697.485	-89.811	0.274	0.081
-696.470	-133.031	0.151	-0.019
-695.456	-200.000	0.008	-0.252
-694.441	-200.000	-0.054	-0.369
-693.426	-137.198	-0.184	0.021
-692.412	-200.000	0.004	-0.116
-691.397	-52.425	-0.154	-0.072
-690.383	-46.869	0.016	-0.008
-689.368	-75.221	0.293	0.106
-688.354	-200.000	-0.014	0.140
-687.339	317.876	-0.223	0.428
-686.324	800.000	0.108	0.356
-685.310	-39.373	-0.250	-0.133
-684.295	27.017	0.115	0.098
-683.281	-86.793	0.349	-0.108
-682.266	800.000	0.030	0.127
-681.251	800.000	-0.048	0.181
-680.237	640.788	0.164	0.422
-679.222	340.651	-0.118	-0.233
-678.208	34.053	0.268	-0.237
-677.193	212.868	-0.231	0.370
-676.178	108.609	0.287	0.347
-675.164	114.962	-0.049	0.061
-674.149	-192.498	0.253	-0.002
-673.135	-125.718	-0.304	0.047
-672.120	458.111	-0.084	-0.189
-671.105	28.169	-0.231	0.197
-670.091	-46.996	0.249	-0.123
-669.076	-72.051	0.150	-0.056
-668.062	106.305	-0.383	0.460
-667.047	-5.147	-0.284	0.198
-666.032	-32.239	-0.297	0.168
-665.018	800.000	-0.087	0.283
-664.003	-200.000	-0.025	-0.145
-662.989	119.183	-0.158	0.198
-661.974	800.000	-0.066	-0.259
-660.959	-132.081	-0.356	0.047
-659.945	67.987	-0.158	0.164
-658.930	190.589	0.176	0.268
-657.916	-200.000	0.004	0.307
-656.901	-101.704	0.050	-0.012
-655.886	-200.000	0.017	-0.206
-654.872	-200.000	0.014	0.128
-653.857	800.000	-0.086	-0.260
-652.843	-153.614	0.178	-0.012
-651.828	-200.000	-0.074	-0.363
-650.814	-80.476	0.014	-0.005
-649.799	660.633	-0.035	0.092
-648.784	-13.668	0.153	-0.100
-647.770	-108.382	-0.092	-0.020
-646.755	-80.141	0.223	0.076
-645.741	-200.000	0.018	-0.257
-644.726	-16.932	0.129	0.083
-643.711	-73.700	0.279	-0.103
-642.697	-35.045	-0.195	-0.108
-641.682	-200.000	0.002	-0.267
-640.668	-64.067	-0.294	0.122
-639.653	70.290	-0.143	-0.149
-638.638	-200.000	0.043	-0.273
-637.624	800.000	-0.122	0.433
-636.609	91.805	0.143	-0.162
-635.595	-84.444	-0.188	0.060
-634.580	236.148	-0.039	-0.066
-633.565	-8.614	0.249	-0.169
-632.551	87.789	0.303	-0.340
-631.536	-151.576	-0.297	0.022
-630.522	800.000	0.035	-0.124
-629.507	-42.762	-0.234	0.120
-628.492	194.411	0.169	0.259
-627.478	-169.660	0.186	-0.007
-626.463	165.877	-0.306	-0.438
-625.449	-200.000	0.056	-0.257
-624.434	-132.866	0.328	0.042
-623.419	-74.636	-0.180	-0.065
-622.405	0.799	0.160	-0.116
-621.390	5.065	0.317	-0.236
-620.376	-70.452	-0.221	0.085
-619.361	-76.765	-0.547	-0.194
-618.346	-22.816	-0.200	-0.122
-617.332	33.321	-0.091	-0.080
-616.317	-200.000	-0.029	-0.173
-615.303	-20.134	0.167	-0.104
-614.288	-200.000	0.039	0.200
-613.273	432.232	0.047	0.104
-612.259	-173.832	-0.134	0.004
-611.244	31.048	-0.087	-0.075
-610.230	143.937	-0.194	0.262
-609.215	-147.248	-0.253	-0.022
-608.201	-107.189	-0.417	0.093
-607.186	-146.226	0.359	-0.032
-606.171	-60.007	0.141	-0.061
-605.157	800.000	0.036	-0.127
-604.142	109.901	-0.158	0.191
-603.128	800.000	-0.068	-0.197
-602.113	-200.000	0.012	-0.144
-601.098	4.064	-0.100	0.074
-600.084	-183.873	0.138	-0.002
-599.069	-128.244	0.074	0.011
-598.055	800.000	0.089	0.267
-597.040	-52.267	-0.169	0.079
-596.025	-200.000	0.011	0.131
-595.011	443.887	0.136	-0.302
-593.996	800.000	0.090	-0.258
-592.982	73.170	0.096	0.102
-591.967	-106.919	0.271	-0.061
-590.952	-116.454	-0.274	-0.051
-589.938	-47.949	-0.425	-0.208
-588.923	-160.503	0.176	-0.010
-587.909	-200.000	-0.054	0.413
-586.894	-105.632	-0.224	-0.051
-585.879	-49.018	-0.104	-0.050
-584.865	19.765	-0.307	-0.249
-583.850	-115.806	-0.242	-0.046
-582.836	-143.581	-0.203	0.020
-581.821	4.598	0.218	0.161
-580.806	504.066	-0.080	0.188
-579.792	800.000	-0.136	0.416
-578.777	-28.951	-0.323	0.187
-577.763	14.084	0.082	-0.064
-576.748	47.551	-0.155	0.146
-575.733	-200.000	0.009	-0.234
-574.719	-200.000	0.033	0.184
-573.704	-74.688	0.072	-0.026
-572.690	-200.000	-0.001	0.103
-571.675	23.388	0.270	-0.224
-570.661	-200.000	-0.045	-0.374
-569.646	-200.000	0.041	0.231
-568.631	18.407	0.096	-0.077
-567.617	-118.864	0.165	-0.029
-566.602	-62.258	0.323	-0.136
-565.588	800.000	0.049	0.177
-564.573	28.258	0.355	0.303
-563.558	126.084	-0.321	-0.410
-562.544	800.000	-0.150	-0.452
-561.529	135.362	-0.230	-0.302
-560.515	-200.000	-0.024	-0.148
-559.500	359.581	0.096	-0.194
-558.485	647.399	-0.044	-0.113
-557.471	334.066	0.069	-0.135
-556.456	-200.000	-0.004	0.144
-555.442	-63.063	-0.132	-0.055
-554.427	-127.058	-0.086	-0.013
-553.412	-107.615	-0.177	-0.039
-552.398	40.023	-0.210	-0.191
-551.383	-200.000	0.022	-0.230
-550.369	-69.780	-0.275	0.106
-549.354	215.142	-0.151	-0.242
-548.339	-146.621	-0.149	-0.013
-547.325	431.430	0.171	0.374
-546.310	-73.373	-0.388	0.143
-545.296	-54.318	-0.149	-0.068
-544.281	-200.000	0.056	-0.469
-543.266	127.177	0.149	-0.190
-542.252	-72.609	0.008	-0.003
-541.237	-54.044	0.198	-0.091
-540.223	118.624	0.263	0.328
-539.208	-35.650	0.090	0.049
-538.193	203.940	0.091	-0.143
-537.179	356.580	-0.076	-0.153
-536.164	47.705	-0.238	-0.224
-535.150	483.217	0.027	0.063
-534.135	-65.828	0.288	0.116
-533.121	18.991	0.112	0.090
-532.106	336.372	-0.079	0.155
-531.091	44.571	0.195	-0.181
-530.077	800.000	-0.044	-0.133
-529.062	413.173	0.178	0.381
-528.048	-21.894	0.019	-0.012
-527.033	-137.538	-0.177	0.020
-526.018	-9.744	0.471	-0.316
-525.004	-7.771	-0.174	-0.118
-523.989	108.683	-0.048	-0.058
-522.975	-200.000	0.018	-0.097
-521.960	-26.911	0.377	0.222
-520.945	36.220	-0.096	0.085
-519.931	115.409	-0.031	0.039
-518.916	-48.822	-0.093	-0.045
-517.902	57.005	-0.131	-0.128
-516.887	800.000	0.034	0.123
-515.872	-200.000	0.004	0.079
-514.858	529.544	-0.016	-0.038
-513.843	-200.000	0.033	-0.207
-512.829	-27.303	0.307	0.180
-511.814	-52.135	-0.124	-0.058
-510.799	83.738	0.026	-0.029
-509.785	143.351	0.059	-0.079
-508.770	147.400	0.209	-0.284
-507.756	-200.000	0.027	-0.133
-506.741	-200.000	0.009	-0.089
-505.726	-37.059	-0.289	-0.156
-504.712	-200.000	0.037	-0.491
-503.697	-200.000	0.069	-0.312
-502.683	472.255	0.060	-0.137
-501.668	18.171	0.357	-0.286
-500.653	24.409	-0.185	0.154
-499.639	301.954	-0.140	0.261
-498.624	-61.228	0.028	0.012
-497.610	-200.000	0.040	0.214
-496.595	637.477	0.065	0.167
-495.581	-200.000	0.019	0.119
-494.566	-157.317	0.246	0.015
-493.551	-4.486	-0.141	-0.098
-492.537	96.053	-0.469	-0.539
-491.522	-130.430	-0.190	0.026
-490.508	230.134	-0.112	-0.184
-489.493	-75.620	-0.294	-0.105
-488.478	-77.438	0.200	0.070
-487.464	-129.616	0.406	0.056
-486.449	800.000	0.046	0.146
-485.435	-183.627	-0.316	0.005
-484.420	-152.491	-0.072	0.005
-483.405	-200.000	-0.018	-0.241
-482.391	-200.000	0.021	0.233
-481.376	-200.000	-0.039	-0.217
-480.362	-65.698	0.072	0.029
-479.347	144.278	-0.095	0.127
-478.332	-200.000	0.025	0.334
-477.318	-139.464	-0.117	0.013
-476.303	66.771	-0.120	-0.123
-475.289	-26.485	0.113	-0.066
-474.274	-200.000	0.013	0.097
-473.259	-45.486	-0.285	0.142
-472.245	800.000	0.042	-0.156
-471.230	-200.000	0.005	0.223
-470.216	387.688	-0.167	0.348
-469.201	800.000	-0.029	-0.125
-468.186	163.701	-0.044	-0.063
-467.172	-121.718	0.288	0.048
-466.157	746.448	0.054	0.148
-465.143	51.160	-0.187	0.178
-464.128	-200.000	0.006	-0.175
-463.113	-77.362	-0.165	0.058
-462.099	39.527	0.128	0.115
-461.084	213.156	0.122	0.193
-460.070	138.693	0.316	0.418
-459.055	-53.373	-0.179	0.083
-458.040	-121.463	0.427	-0.071
-457.026	800.000	-0.095	0.364
-456.011	49.435	0.050	0.047
-454.997	-130.533	-0.173	-0.023
-453.982	-31.144	0.156	0.089
-452.968	208.290	0.209	-0.329
-451.953	-200.000	0.032	-0.160
-450.938	-200.000	-0.008	0.107
-449.924	-200.000	0.021	0.149
-448.909	-19.117	0.126	-0.079
-447.895	167.419	-0.078	0.112
-446.880	800.000	0.114	-0.327
-445.865	96.267	-0.192	0.221
-444.851	-200.000	0.009	-0.083
-443.836	-23.697	0.068	-0.041
-442.822	800.000	-0.031	-0.131
-441.807	-47.961	0.215	-0.105
-440.792	-200.000	-0.014	0.171
-439.778	800.000	-0.092	0.309
-438.763	38.638	-0.117	0.105
-437.749	-94.405	0.166	0.046
-436.734	18.916	-0.024	0.019
-435.719	-186.706	-0.167	-0.002
-434.705	142.861	0.236	0.315
-433.690	-28.145	0.168	0.098
-432.676	800.000	-0.049	-0.174
-431.661	68.222	0.018	-0.019
-430.646	48.309	0.166	0.156
-429.632	183.593	-0.060	0.089
-428.617	193.196	-0.007	-0.011
-427.603	800.000	0.086	-0.356
-426.588	182.030	-0.054	-0.079
-425.573	-200.000	0.032	-0.167
-424.559	573.461	-0.075	0.183
-423.544	-4.789	0.230	0.160
-422.530	800.000	0.050	0.205
-421.515	28.653	-0.195	-0.166
-420.500	3.214	0.043	-0.031
-419.486	39.806	-0.212	-0.191
-418.471	800.000	0.029	-0.101
-417.457	-129.953	0.306	0.042
-416.442	77.706	0.105	0.112
-415.428	9.040	-0.057	0.043
-414.413	-149.650	0.156	-0.012
-413.398	-92.879	-0.167	0.047
-412.384	-190.055	0.210	0.002
-411.369	-196.402	0.193	-0.001
-410.355	-101.891	0.053	0.013
-409.340	-182.509	0.419	0.008
-408.325	-200.000	0.053	-0.255
-407.311	140.733	-0.074	0.099
-406.296	-64.401	0.207	0.085
-405.282	-200.000	-0.073	0.338
-404.267	-44.994	-0.142	0.071
-403.252	36.095	0.281	0.248
-402.238	-150.192	-0.246	0.019
-401.223	-18.158	-0.270	-0.169
-400.209	224.513	-0.064	0.104
-399.194	94.073	0.183	0.208
-398.179	23.165	-0.304	0.250
-397.165	26.348	-0.162	-0.136
-396.150	-33.705	0.218	0.121
-395.136	-33.194	-0.206	0.115
-394.121	-93.030	0.413	-0.115
-393.106	-91.948	0.227	0.064
-392.092	66.038	0.195	0.198
-391.077	-200.000	-0.035	0.385
-390.063	101.812	-0.129	0.151
-389.048	743.538	0.032	-0.086
-388.033	-200.000	-0.002	-0.115
-387.019	-31.660	-0.262	0.147
-386.004	-80.367	0.146	0.049
-384.990	-200.000	-0.023	0.185
-383.975	-9.685	0.177	0.118
-382.960	149.536	0.108	-0.146
-381.946	-63.661	-0.154	0.063
-380.931	-200.000	0.010	-0.076
-379.917	-7.453	0.110	-0.075
-378.902	112.127	-0.281	-0.340
-377.888	-31.929	0.278	0.156
-376.873	164.737	-0.076	-0.108
-375.858	800.000	-0.101	0.297
-374.844	-160.065	-0.136	-0.007
-373.829	5.239	-0.152	-0.112
-372.815	62.185	-0.222	-0.222
-371.800	-117.672	0.167	0.030
-370.785	-200.000	-0.078	0.460
-369.771	-77.132	-0.146	0.051
-368.756	-90.129	0.143	-0.042
-367.742	-184.845	-0.430	-0.007
-366.727	-200.000	-0.091	-0.545
-365.712	-200.000	0.010	-0.049
-364.698	-13.390	0.278	0.180
-363.683	-121.502	-0.101	-0.017
-362.669	236.286	0.234	0.388
-361.654	-95.199	0.283	0.076
-360.639	-200.000	-0.014	-0.404
-359.625	563.499	0.061	-0.149
-358.610	43.522	0.248	-0.228
-357.596	800.000	-0.154	0.465
-356.581	-99.285	-0.283	-0.072
-355.566	50.921	-0.077	-0.073
-354.552	49.577	0.190	0.179
-353.537	800.000	-0.105	0.343
-352.523	53.856	-0.141	0.136
-351.508	-136.379	0.201	-0.023
-350.493	-88.054	0.051	-0.015
-349.479	800.000	0.107	-0.305
-348.464	-82.277	0.172	0.056
-347.450	109.135	0.038	-0.045
-346.435	-142.268	0.235	-0.023
-345.420	262.233	-0.100	-0.173
-344.406	-200.000	-0.002	-0.304
-343.391	248.704	-0.163	0.276
-342.377	-77.643	0.336	-0.116
-341.362	800.000	0.111	0.431
-340.348	-131.604	0.177	0.023
-339.333	118.163	-0.090	0.111
-338.318	-0.480	0.044	-0.031
-337.304	-200.000	0.021	0.196
-336.289	-85.058	-0.092	0.029
-335.275	-120.119	-0.276	-0.047
-334.260	134.308	-0.188	-0.244
-333.245	-200.000	0.092	0.000
-332.231	713.089	-0.095	-0.251
-331.216	-88.890	0.318	0.094
-330.202	108.170	-0.198	0.236
-329.187	-101.189	0.279	-0.068
-328.172	42.391	0.146	0.133
-327.158	38.913	0.118	-0.106
-326.143	16.743	0.075	-0.059
-325.129	338.677	0.071	-0.137
-324.114	450.764	-0.098	0.216
-323.099	-200.000	-0.020	0.107
-322.085	-64.356	-0.226	-0.092
-321.070	-200.000	-0.027	-0.355
-320.056	282.302	0.036	0.064
-319.041	-84.313	0.295	0.093
-318.026	-39.627	0.258	0.135
-317.012	-120.696	0.409	0.069
-315.997	-120.796	-0.225	0.038
-314.983	175.972	-0.209	-0.303
-313.968	661.599	-0.068	-0.176
-312.953	-93.589	-0.131	-0.036
-311.939	-18.212	-0.134	-0.084
-310.924	-200.000	-0.010	0.151
-309.910	-110.727	-0.472	-0.097
-308.895	194.946	0.158	0.240
-307.880	350.063	-0.090	-0.178
-306.866	-17.767	-0.116	0.073
-305.851	-134.341	-0.260	-0.032
-304.837	-200.000	-0.029	-0.414
-303.822	-71.261	0.253	-0.095
-302.807	-109.364	0.170	-0.036
-301.793	161.813	0.126	0.177
-300.778	105.202	0.045	-0.053
-299.764	-184.875	-0.214	-0.003
-298.749	-159.358	0.177	0.010
-297.735	-130.804	-0.105	0.014
-296.720	-200.000	0.028	0.140
-295.705	-8.944	0.214	0.143
-294.691	-200.000	-0.021	-0.299
-293.676	-200.000	0.045	0.222
-292.662	800.000	-0.119	0.361
-291.647	-86.355	0.095	0.029
-290.632	55.685	0.174	-0.168
-289.618	-169.663	-0.205	0.007
-288.603	-21.080	0.021	0.013
-287.589	352.625	0.057	0.113
-286.574	82.184	-0.284	-0.307
-285.559	-60.156	-0.265	0.113
-284.545	-139.668	-0.134	0.014
-283.530	800.000	0.044	0.154
-282.516	36.646	-0.238	-0.209
-281.501	110.005	0.167	-0.200
-280.486	800.000	0.055	0.213
-279.472	-200.000	-0.262	-0.000
-278.457	-70.238	0.272	-0.103
-277.443	443.584	0.183	0.399
-276.428	800.000	0.043	0.157
-275.413	-103.963	0.151	-0.035
-274.399	0.218	-0.112	-0.080
-273.384	-100.893	0.188	-0.046
-272.370	118.084	0.142	0.174
-271.355	-200.000	0.025	0.120
-270.340	-54.076	-0.130	-0.059
-269.326	169.563	-0.091	0.129
-268.311	-50.677	0.159	0.075
-267.297	163.753	0.247	0.346
-266.282	54.922	-0.182	0.175
-265.267	363.879	-0.044	-0.087
-264.253	-26.349	0.081	0.048
-263.238	-63.062	0.213	0.088
-262.224	-140.422	-0.118	0.012
-261.209	7.939	0.107	0.080
-260.195	335.312	-0.151	-0.292
-259.180	-200.000	-0.058	0.291
-258.165	88.434	-0.191	0.212
-257.151	447.098	-0.070	0.154
-256.136	800.000	0.066	0.190
-255.122	68.156	0.237	0.242
-254.107	-97.134	-0.148	0.039
-253.092	-163.221	0.207	-0.010
-252.078	100.028	-0.321	0.371
-251.063	54.912	-0.053	0.051
-250.049	150.378	-0.070	-0.095
-249.034	-200.000	0.000	-0.210
-248.019	454.914	0.059	-0.129
-247.005	-106.310	0.262	0.059
-245.990	46.318	-0.084	0.078
-244.976	223.849	-0.075	-0.121
-243.961	243.488	0.208	0.347
-242.946	-99.592	-0.298	0.075
-241.932	-141.181	0.418	0.043
-240.917	-13.683	0.235	0.152
-239.903	-39.402	-0.142	-0.074
-238.888	-200.000	-0.036	-0.178
-237.873	800.000	0.079	0.244
-236.859	800.000	-0.112	0.384
-235.844	-83.169	-0.251	-0.081
-234.830	-102.752	-0.176	0.042
-233.815	-23.195	-0.269	-0.162
-232.800	-80.287	-0.402	0.134
-231.786	36.614	-0.242	-0.213
-230.771	-94.257	-0.280	0.076
-229.757	260.392	0.199	-0.342
-228.742	-122.812	0.176	-0.028
-227.727	800.000	0.092	0.368
-226.713	81.129	0.219	0.235
-225.698	800.000	-0.129	0.385
-224.684	-109.550	-0.313	-0.066
-223.669	-135.592	0.158	0.019
-222.655	-84.111	0.262	0.083
-221.640	800.000	0.090	0.287
-220.625	-3.923	0.199	0.137
-219.611	300.081	-0.058	0.106
-218.596	113.176	-0.243	0.293
-217.582	143.370	-0.122	0.161
-216.567	-200.000	-0.016	-0.318
-215.552	122.048	0.340	-0.423
-214.538	800.000	0.112	0.348
-213.523	523.362	0.095	0.223
-212.509	-131.427	-0.136	0.018
-211.494	-85.935	0.142	-0.044
-210.479	800.000	-0.006	0.022
-209.465	-121.117	0.186	0.031
-208.450	-66.929	-0.209	-0.082
-207.436	350.084	0.079	0.155
-206.421	-200.000	-0.001	0.116
-205.406	-62.799	0.130	-0.054
-204.392	-200.000	0.023	-0.233
-203.377	65.720	0.242	0.244
-202.363	114.762	-0.283	-0.343
-201.348	323.777	-0.160	0.303
-200.333	-200.000	-0.060	-0.319
-199.319	-67.790	0.378	-0.147
-198.304	587.289	0.104	0.254
-197.290	800.000	-0.154	-0.449
-196.275	36.688	0.119	0.105
-195.260	-200.000	0.034	0.218
-194.246	-58.111	-0.210	-0.091
-193.231	-175.103	0.081	-0.002
-192.217	-200.000	-0.035	-0.283
-191.202	-41.046	-0.231	-0.119
-190.187	-50.119	0.273	-0.129
-189.173	90.650	-0.094	-0.105
-188.158	-100.166	-0.046	0.011
-187.144	-55.938	-0.151	-0.067
-186.129	671.986	-0.020	-0.051
-185.114	-200.000	-0.031	0.324
-184.100	-200.000	0.026	0.253
-183.085	-77.594	0.359	-0.124
-182.071	48.447	0.148	-0.138
-181.056	-124.021	0.204	0.032
-180.042	482.325	-0.088	0.198
-179.027	-89.389	-0.146	-0.043
-178.012	-81.111	0.173	-0.057
-176.998	-200.000	-0.054	0.255
-175.983	-150.655	-0.209	0.016
-174.969	168.868	-0.175	-0.248
-173.954	-200.000	0.047	-0.212
-172.939	-192.536	-0.323	-0.003
-171.925	69.356	-0.151	-0.154
-170.910	-200.000	-0.020	-0.254
-169.896	800.000	0.083	0.256
-168.881	375.285	0.125	-0.252
-167.866	-98.758	-0.230	-0.058
-166.852	-107.364	0.389	0.085
-165.837	489.324	0.044	-0.100
-164.823	11.031	-0.212	0.161
-163.808	-35.899	-0.521	-0.280
-162.793	800.000	-0.093	-0.290
-161.779	175.631	0.273	-0.394
-160.764	-161.861	0.239	-0.012
-159.750	-79.427	-0.379	0.127
-158.735	800.000	-0.061	0.238
-157.720	-114.442	-0.266	0.051
-156.706	9.899	0.174	-0.131
-155.691	800.000	-0.080	-0.262
-154.677	-0.129	0.077	-0.055
-153.662	-200.000	-0.017	-0.126
-152.647	-10.763	0.094	-0.062
-151.633	79.583	0.136	-0.145
-150.618	-105.814	-0.357	0.080
-149.604	29.594	-0.195	0.165
-148.589	-200.000	-0.009	0.149
-147.574	99.619	-0.107	-0.123
-146.560	97.680	0.125	-0.142
-145.545	800.000	-0.107	0.375
-144.531	295.444	0.105	0.190
-143.516	-71.405	-0.091	-0.034
-142.502	-84.386	0.270	-0.085
-141.487	-73.558	0.190	-0.069
-140.472	356.441	0.151	0.298
-139.458	800.000	-0.123	0.362
-138.443	-74.370	0.328	0.118
-137.429	-116.662	-0.287	0.052
-136.414	-91.029	0.414	-0.118
-135.399	230.834	-0.066	0.107
-134.385	673.218	0.177	0.456
-133.370	246.567	-0.222	0.371
-132.356	641.762	-0.052	-0.132
-131.341	41.533	0.148	0.133
-130.326	354.813	0.091	0.179
-129.312	-53.048	0.158	0.072
-128.297	137.354	-0.143	-0.186
-127.283	-200.000	0.032	-0.184
-126.268	-200.000	0.047	0.211
-125.253	204.216	0.073	0.112
-124.239	312.774	0.038	-0.071
-123.224	800.000	0.010	0.036
-122.210	11.988	0.156	0.119
-121.195	-14.195	-0.149	-0.095
