DTS Sentinel unit serial number:	SN413079Multiplexer serial number:	ORYXHardware model number:	OX4-SRSoftware version number:	ORYX F/W v4.00 Oryx Data Collector v3.7.2.0data status	okinstallation	princeton_trtdifferential loss correction	single-endedforward channel	channel 4reverse channel	N/Adate	2019/09/14time	13:33:34forward acquisition time	60.00reverse acquisition time	0.00gamma	496.2192k internal	0.2292k external	0.2292temperature offset calibration	1.0156default loss term (dB/km)	0.3790temperature slope calibration	1.0000multiplexer offset coefficient	1.0000multiplexer slope coefficient	1.0000fibre end	0.00T internal ref (°C)	37.94T ext. ref 1 (°C)	4.92T ext. ref 2 (°C)	33.09length (m)	temperature (°C)	Stokes	anti-Stokes-747.200	37.023	-0.037	-0.034
-746.185	800.000	-0.109	0.319
-745.171	-42.675	0.298	0.155
-744.156	-200.000	-0.008	0.229
-743.142	-32.761	0.158	-0.090
-742.127	-98.036	-0.397	0.105
-741.112	-171.328	-0.054	0.002
-740.098	92.674	-0.287	0.331
-739.083	153.064	0.275	0.385
-738.069	-75.351	-0.211	0.077
-737.054	-200.000	-0.021	0.147
-736.039	-117.198	-0.137	0.026
-735.025	-200.000	0.021	-0.138
-734.010	-27.290	-0.115	0.068
-732.996	-200.000	0.001	-0.145
-731.981	-200.000	0.007	0.051
-730.966	-109.832	0.219	0.047
-729.952	800.000	0.067	-0.210
-728.937	262.159	-0.123	0.219
-727.923	352.030	-0.015	-0.029
-726.908	-166.693	0.086	-0.004
-725.894	-200.000	-0.021	-0.209
-724.879	46.833	-0.110	0.105
-723.864	-200.000	0.029	0.225
-722.850	-6.117	-0.252	-0.176
-721.835	-200.000	-0.029	-0.341
-720.821	69.435	0.002	0.002
-719.806	-156.388	-0.089	0.006
-718.791	18.851	0.153	0.125
-717.777	-200.000	-0.015	0.126
-716.762	23.938	-0.080	0.068
-715.748	-200.000	-0.005	-0.368
-714.733	283.663	-0.131	0.240
-713.718	-109.441	0.263	0.057
-712.704	800.000	0.033	0.096
-711.689	-174.707	0.199	-0.006
-710.675	76.043	-0.239	-0.258
-709.660	-200.000	0.016	-0.164
-708.645	-96.156	0.325	-0.088
-707.631	-125.763	0.254	-0.039
-706.616	201.035	-0.220	0.346
-705.602	-193.186	-0.265	0.002
-704.587	-84.097	-0.220	-0.071
-703.572	573.218	0.085	-0.213
-702.558	-200.000	0.104	-0.514
-701.543	24.165	0.222	-0.187
-700.529	-200.000	-0.015	-0.366
-699.514	751.277	0.078	-0.215
-698.499	-50.698	-0.322	-0.155
-697.485	-52.256	0.237	0.112
-696.470	376.641	-0.048	-0.101
-695.456	70.490	0.061	0.065
-694.441	73.774	0.196	0.210
-693.426	366.222	0.060	0.124
-692.412	1.208	0.111	0.082
-691.397	-200.000	0.012	0.058
-690.383	-54.176	0.141	0.065
-689.368	-200.000	0.098	-0.444
-688.354	26.659	-0.134	0.114
-687.339	-135.642	0.325	-0.039
-686.324	-200.000	-0.002	0.198
-685.310	-200.000	-0.052	0.237
-684.295	50.262	0.186	0.180
-683.281	-200.000	-0.015	-0.335
-682.266	-82.940	0.334	0.110
-681.251	-200.000	0.044	-0.240
-680.237	-92.596	0.172	0.049
-679.222	82.193	-0.126	0.140
-678.208	78.466	-0.092	-0.100
-677.193	284.210	0.033	0.061
-676.178	21.180	-0.540	0.448
-675.164	202.302	-0.079	0.124
-674.149	106.432	-0.042	0.050
-673.135	-22.124	0.187	0.116
-672.120	545.493	0.101	-0.246
-671.105	800.000	0.129	-0.372
-670.091	86.567	-0.118	-0.133
-669.076	119.571	0.235	-0.297
-668.062	800.000	0.037	0.163
-667.047	800.000	0.072	0.247
-666.032	-101.790	-0.262	0.065
-665.018	-94.254	0.212	-0.059
-664.003	-200.000	-0.016	-0.318
-662.989	-105.422	-0.158	-0.037
-661.974	-177.930	-0.259	-0.006
-660.959	-9.523	-0.409	0.278
-659.945	-34.806	-0.046	0.026
-658.930	224.123	0.172	0.283
-657.916	85.169	-0.074	0.082
-656.901	294.983	-0.194	-0.363
-655.886	195.478	-0.126	-0.195
-654.872	9.936	-0.257	0.199
-653.857	-192.110	0.142	0.001
-652.843	1.642	-0.134	-0.098
-651.828	-87.329	-0.151	0.047
-650.814	362.647	0.073	0.149
-649.799	87.116	0.115	-0.130
-648.784	141.018	0.206	0.278
-647.770	800.000	0.051	0.172
-646.755	80.714	0.073	-0.080
-645.741	-200.000	-0.008	-0.301
-644.726	-200.000	0.063	0.390
-643.711	-86.392	-0.248	0.078
-642.697	418.714	0.118	-0.258
-641.682	-200.000	0.015	-0.336
-640.668	-73.128	-0.251	-0.094
-639.653	384.208	-0.040	-0.084
-638.638	-33.030	-0.357	-0.202
-637.624	515.738	-0.147	-0.349
-636.609	-75.650	0.211	0.076
-635.595	-37.735	-0.219	-0.119
-634.580	210.051	-0.117	0.186
-633.565	140.689	-0.050	0.067
-632.551	51.757	-0.221	-0.214
-631.536	-66.444	0.217	0.088
-630.522	-200.000	-0.020	0.194
-629.507	-126.016	-0.292	-0.045
-628.492	55.832	0.210	-0.207
-627.478	-200.000	0.039	-0.235
-626.463	-106.816	-0.101	0.023
-625.449	694.763	-0.089	-0.238
-624.434	-200.000	0.017	-0.172
-623.419	213.337	0.142	-0.229
-622.405	-200.000	-0.005	0.047
-621.390	14.741	-0.239	0.190
-620.376	115.757	-0.186	0.232
-619.361	259.428	0.240	-0.422
-618.346	335.570	0.036	-0.070
-617.332	-10.940	-0.315	0.212
-616.317	800.000	-0.054	-0.228
-615.303	550.961	0.156	-0.382
-614.288	197.886	0.056	0.088
-613.273	-172.802	-0.352	0.011
-612.259	43.607	-0.112	0.105
-611.244	378.220	-0.035	0.074
-610.230	425.137	0.106	0.232
-609.215	800.000	0.033	0.147
-608.201	150.807	0.139	-0.193
-607.186	-131.045	-0.162	-0.022
-606.171	131.800	-0.122	-0.160
-605.157	52.076	-0.132	-0.128
-604.142	-200.000	0.035	-0.359
-603.128	-44.935	-0.204	0.104
-602.113	-200.000	0.033	0.184
-601.098	-45.289	-0.125	-0.063
-600.084	102.935	-0.155	-0.185
-599.069	800.000	0.053	-0.190
-598.055	47.767	0.249	0.236
-597.040	141.407	0.132	-0.178
-596.025	93.926	0.320	-0.369
-595.011	-29.620	0.180	0.105
-593.996	-200.000	0.004	0.092
-592.982	800.000	0.051	-0.161
-591.967	335.219	-0.093	-0.183
-590.952	-38.581	0.154	0.083
-589.938	198.373	0.103	0.161
-588.923	-161.776	-0.127	0.007
-587.909	265.524	0.077	0.136
-586.894	36.061	0.104	-0.093
-585.879	67.581	0.198	-0.205
-584.865	35.169	-0.124	0.111
-583.850	458.041	-0.143	0.323
-582.836	-200.000	-0.024	-0.116
-581.821	253.165	-0.114	0.198
-580.806	800.000	0.030	0.109
-579.792	-104.216	-0.386	-0.091
-578.777	52.654	0.142	-0.138
-577.763	-27.916	0.189	-0.111
-576.748	-43.748	-0.235	-0.120
-575.733	76.568	-0.132	-0.143
-574.719	-103.467	0.397	0.095
-573.704	-35.724	0.348	-0.192
-572.690	-200.000	-0.024	0.462
-571.675	47.800	0.221	0.210
-570.661	-95.813	0.105	-0.029
-569.646	62.973	-0.151	0.153
-568.631	-200.000	-0.026	-0.181
-567.617	197.465	0.257	-0.399
-566.602	145.963	-0.168	-0.229
-565.588	119.308	0.217	-0.273
-564.573	-36.375	-0.203	-0.111
-563.558	418.766	-0.094	-0.205
-562.544	-7.270	-0.232	-0.160
-561.529	70.395	-0.124	0.130
-560.515	36.366	-0.059	-0.053
-559.500	-119.508	-0.163	-0.029
-558.485	104.078	0.240	0.287
-557.471	-200.000	-0.028	-0.128
-556.456	30.238	0.118	0.102
-555.442	-130.121	0.166	-0.023
-554.427	291.536	-0.080	-0.149
-553.412	-98.797	0.199	0.051
-552.398	-183.066	-0.186	-0.003
-551.383	-80.298	0.216	-0.073
-550.369	55.250	0.179	0.176
-549.354	-153.366	-0.296	0.021
-548.339	-200.000	-0.039	0.324
-547.325	-71.832	-0.034	-0.013
-546.310	-200.000	0.010	0.164
-545.296	-107.416	-0.031	-0.007
-544.281	262.856	-0.041	0.072
-543.266	252.099	-0.182	0.315
-542.252	185.640	0.277	0.417
-541.237	36.569	0.209	0.187
-540.223	-43.826	-0.232	-0.119
-539.208	-64.296	-0.191	-0.079
-538.193	-60.323	-0.119	-0.052
-537.179	-41.234	-0.355	0.186
-536.164	-44.667	0.264	0.134
-535.150	-159.517	0.184	0.010
-534.135	46.280	0.229	-0.215
-533.121	-126.964	-0.122	0.018
-532.106	0.376	-0.154	0.112
-531.091	43.467	-0.075	-0.069
-530.077	202.275	-0.086	0.135
-529.062	22.125	-0.145	-0.120
-528.048	-117.854	-0.304	-0.055
-527.033	175.855	0.147	-0.216
-526.018	185.983	-0.077	-0.117
-525.004	-166.624	-0.183	0.008
-523.989	295.366	-0.089	0.165
-522.975	-137.285	-0.410	0.047
-521.960	-63.672	0.451	0.188
-520.945	785.464	-0.138	-0.384
-519.931	-106.310	-0.184	-0.042
-518.916	-200.000	0.049	-0.281
-517.902	-23.123	-0.293	-0.179
-516.887	-124.755	-0.355	-0.056
-515.872	800.000	0.039	0.114
-514.858	-28.794	0.263	-0.153
-513.843	-24.328	0.213	-0.129
-512.829	-87.424	-0.200	-0.061
-511.814	201.764	-0.192	-0.301
-510.799	-125.736	-0.162	0.025
-509.785	-12.571	0.027	-0.018
-508.770	267.417	0.051	-0.091
-507.756	516.987	0.024	0.056
-506.741	-200.000	0.024	0.147
-505.726	387.342	-0.168	-0.352
-504.712	-200.000	-0.060	0.284
-503.697	-35.073	-0.126	-0.070
-502.683	787.013	-0.044	-0.122
-501.668	-162.863	-0.211	0.010
-500.653	99.539	-0.151	-0.177
-499.639	-200.000	0.015	-0.066
-498.624	314.003	0.019	-0.037
-497.610	-7.850	0.122	0.084
-496.595	-18.563	-0.212	-0.134
-495.581	-200.000	-0.023	0.121
-494.566	-131.711	-0.200	0.027
-493.551	-2.201	0.226	-0.160
-492.537	45.780	-0.142	-0.133
-491.522	-32.064	-0.356	0.202
-490.508	269.855	-0.221	0.394
-489.493	43.179	0.111	0.103
-488.478	41.663	-0.034	0.031
-487.464	265.906	-0.097	-0.171
-486.449	38.469	-0.151	-0.136
-485.435	37.375	0.184	-0.165
-484.420	-15.122	-0.274	0.178
-483.405	-87.762	0.225	-0.069
-482.391	-138.420	-0.264	-0.029
-481.376	78.875	-0.210	0.227
-480.362	800.000	-0.063	0.189
-479.347	100.771	-0.176	0.207
-478.332	800.000	0.045	-0.140
-477.318	715.037	0.086	-0.230
-476.303	88.662	-0.125	-0.141
-475.289	20.562	-0.055	0.045
-474.274	290.355	0.086	-0.158
-473.259	435.977	-0.076	-0.168
-472.245	-54.917	-0.077	0.035
-471.230	-51.931	0.091	-0.043
-470.216	-161.805	0.184	-0.009
-469.201	-152.871	0.204	-0.015
-468.186	25.284	-0.138	-0.116
-467.172	89.293	0.079	0.089
-466.157	609.802	0.105	-0.265
-465.143	800.000	-0.043	-0.156
-464.128	-34.354	0.142	-0.079
-463.113	800.000	0.013	-0.044
-462.099	106.881	0.086	-0.103
-461.084	-3.514	0.175	-0.124
-460.070	-200.000	-0.001	0.238
-459.055	-200.000	0.047	-0.208
-458.040	-200.000	-0.060	-0.410
-457.026	-104.020	0.160	0.038
-456.011	62.699	0.135	-0.136
-454.997	90.148	0.055	-0.062
-453.982	-68.344	-0.123	0.048
-452.968	-94.034	-0.142	-0.039
-451.953	96.959	0.199	0.231
-450.938	-200.000	-0.046	0.214
-449.924	52.383	-0.100	-0.097
-448.909	-146.128	0.119	0.011
-447.895	-200.000	0.013	-0.123
-446.880	20.924	0.102	0.083
-445.865	114.004	0.192	-0.236
-444.851	-148.205	0.338	-0.028
-443.836	-0.210	0.043	0.031
-442.822	-200.000	-0.062	0.373
-441.807	-200.000	-0.011	0.104
-440.792	-44.320	0.055	0.028
-439.778	-100.435	-0.086	-0.022
-438.763	169.023	0.058	-0.084
-437.749	65.840	0.383	0.393
-436.734	-200.000	-0.092	0.408
-435.719	800.000	0.092	-0.353
-434.705	-90.972	0.089	0.026
-433.690	95.538	0.153	0.176
-432.676	-37.876	0.140	0.075
-431.661	-138.628	-0.179	-0.020
-430.646	-200.000	0.007	0.562
-429.632	-200.000	0.004	0.525
-428.617	446.895	-0.019	-0.041
-427.603	-5.209	-0.169	0.117
-426.588	236.171	0.143	0.239
-425.573	-66.003	-0.162	-0.065
-424.559	258.672	0.113	-0.197
-423.544	-112.115	-0.254	-0.052
-422.530	-42.924	-0.076	0.039
-421.515	-31.668	0.085	0.048
-420.500	-69.266	0.182	-0.071
-419.486	-123.454	0.301	-0.048
-418.471	21.334	0.168	-0.138
-417.457	-74.334	0.243	0.089
-416.442	16.873	-0.308	-0.247
-415.428	8.686	-0.166	0.126
-414.413	-113.007	-0.151	0.030
-413.398	13.323	0.171	0.134
-412.384	434.271	0.082	0.180
-411.369	43.267	-0.436	-0.402
-410.355	-15.671	-0.050	0.032
-409.340	-45.013	0.063	0.032
-408.325	30.944	0.244	-0.211
-407.311	201.977	0.023	-0.036
-406.296	510.760	-0.214	0.502
-405.282	-105.045	-0.136	-0.031
-404.267	-97.014	0.193	-0.051
-403.252	251.610	-0.022	0.037
-402.238	-200.000	0.011	0.074
-401.223	185.754	-0.180	0.270
-400.209	69.284	-0.282	0.293
-399.194	259.938	0.132	-0.231
-398.179	800.000	0.062	-0.181
-397.165	272.546	0.101	-0.181
-396.150	-126.344	-0.427	0.064
-395.136	181.074	0.231	0.343
-394.121	-200.000	-0.056	-0.246
-393.106	-200.000	-0.028	-0.253
-392.092	-48.829	-0.321	-0.155
-391.077	-117.564	0.360	-0.066
-390.063	-74.420	0.395	0.144
-389.048	-25.894	-0.265	-0.157
-388.033	57.428	-0.112	-0.110
-387.019	-129.869	-0.315	0.044
-386.004	-113.935	-0.170	-0.033
-384.990	800.000	0.095	0.267
-383.975	216.087	0.033	0.052
-382.960	-200.000	0.022	0.133
-381.946	98.729	0.019	0.022
-380.931	80.344	0.251	-0.272
-379.917	167.444	0.187	-0.267
-378.902	467.201	0.064	0.145
-377.888	-10.567	0.223	-0.149
-376.873	29.358	-0.076	0.065
-375.858	-85.729	0.207	-0.065
-374.844	-43.144	-0.217	-0.111
-373.829	-69.082	-0.162	0.063
-372.815	-146.175	-0.045	0.004
-371.800	-154.143	-0.398	-0.027
-370.785	-83.173	-0.114	-0.037
-369.771	44.182	0.221	-0.204
-368.756	800.000	-0.027	-0.087
-367.742	216.384	0.034	-0.054
-366.727	800.000	-0.071	0.257
-365.712	293.295	-0.100	0.185
-364.698	-200.000	0.061	0.315
-363.683	-31.038	-0.095	0.054
-362.669	478.251	0.135	0.308
-361.654	578.627	-0.101	-0.249
-360.639	800.000	0.017	-0.050
-359.625	-200.000	0.004	0.110
-358.610	218.166	0.074	0.119
-357.596	403.413	0.029	-0.062
-356.581	41.922	-0.065	-0.059
-355.566	-17.211	-0.291	0.185
-354.552	-200.000	0.039	0.288
-353.537	-35.072	-0.138	-0.076
-352.523	-200.000	0.007	-0.295
-351.508	111.190	-0.169	0.205
-350.493	-200.000	0.008	-0.167
-349.479	800.000	-0.057	-0.175
-348.464	-200.000	0.038	-0.328
-347.450	152.923	0.114	0.158
-346.435	-46.637	0.232	-0.115
-345.420	222.857	-0.127	-0.207
-344.406	526.240	0.057	0.135
-343.391	-140.571	0.414	0.043
-342.377	30.074	0.172	0.148
-341.362	108.348	0.085	-0.102
-340.348	149.926	0.339	-0.463
-339.333	121.391	0.130	-0.163
-338.318	800.000	0.078	-0.219
-337.304	-108.417	0.141	-0.031
-336.289	585.010	0.036	-0.090
-335.275	-94.182	0.335	-0.092
-334.260	-93.288	0.220	-0.062
-333.245	-200.000	-0.023	0.307
-332.231	-64.071	-0.249	-0.102
-331.216	48.582	0.019	-0.018
-330.202	-35.069	-0.048	-0.026
-329.187	24.975	-0.287	0.240
-328.172	-123.469	0.093	0.015
-327.158	-56.563	-0.107	0.048
-326.143	-200.000	-0.017	-0.335
-325.129	101.352	0.206	-0.241
-324.114	419.741	0.133	-0.287
-323.099	800.000	-0.036	0.111
-322.085	-56.158	0.233	-0.105
-321.070	800.000	0.170	0.515
-320.056	623.260	-0.083	-0.209
-319.041	-149.950	-0.156	-0.012
-318.026	364.211	-0.232	0.469
-317.012	-200.000	0.002	-0.111
-315.997	13.807	0.133	-0.104
-314.983	327.868	-0.074	0.143
-313.968	-200.000	0.020	-0.197
-312.953	-60.766	0.112	-0.048
-311.939	38.027	0.181	-0.162
-310.924	-120.192	-0.321	0.055
-309.910	-140.827	0.070	-0.007
-308.895	-72.346	0.250	-0.093
-307.880	56.343	-0.141	0.137
-306.866	-200.000	0.000	0.150
-305.851	-169.956	0.203	0.007
-304.837	-200.000	0.005	0.074
-303.822	800.000	0.091	0.259
-302.807	-133.754	-0.229	0.029
-301.793	94.176	0.187	0.214
-300.778	800.000	-0.060	0.201
-299.764	-128.445	-0.158	0.023
-298.749	574.156	0.015	-0.037
-297.735	800.000	-0.077	0.216
-296.720	-34.868	0.055	-0.030
-295.705	-200.000	0.024	0.142
-294.691	800.000	-0.019	0.074
-293.676	-200.000	-0.052	0.314
-292.662	-130.203	-0.479	-0.066
-291.647	196.899	-0.076	0.116
-290.632	562.463	-0.068	-0.165
-289.618	-200.000	0.009	-0.169
-288.603	7.335	0.250	0.188
-287.589	634.253	0.055	0.140
-286.574	69.849	0.132	-0.137
-285.559	-38.974	-0.224	-0.119
-284.545	27.545	-0.291	0.246
-283.530	131.255	-0.023	0.030
-282.516	-43.650	0.146	-0.074
-281.501	57.880	0.092	-0.090
-280.486	-200.000	-0.037	0.324
-279.472	-68.916	-0.248	0.096
-278.457	-200.000	0.001	0.246
-277.443	-200.000	-0.017	-0.472
-276.428	-200.000	0.024	-0.332
-275.413	41.810	-0.047	-0.043
-274.399	-114.303	0.158	-0.031
-273.384	-200.000	-0.010	0.196
-272.370	-156.653	-0.049	-0.003
-271.355	-200.000	0.001	0.097
-270.340	-200.000	-0.030	-0.242
-269.326	-200.000	-0.038	-0.202
-268.311	-17.664	0.067	0.042
-267.297	-200.000	-0.001	-0.099
-266.282	36.559	-0.225	-0.199
-265.267	-200.000	0.015	0.356
-264.253	800.000	-0.020	-0.083
-263.238	353.850	-0.058	0.115
-262.224	160.400	0.194	-0.272
-261.209	-24.557	-0.093	0.056
-260.195	3.621	-0.150	0.110
-259.180	-200.000	-0.068	0.313
-258.165	-80.755	0.140	-0.047
-257.151	800.000	-0.018	0.070
-256.136	-132.576	0.423	0.055
-255.122	-175.916	0.311	0.008
-254.107	-89.929	0.380	0.112
-253.092	-146.328	-0.217	-0.019
-252.078	68.371	0.101	0.104
-251.063	-115.762	0.173	0.032
-250.049	-200.000	-0.015	0.097
-249.034	-200.000	-0.008	0.172
-248.019	310.836	0.102	-0.191
-247.005	-134.774	0.478	0.058
-245.990	-148.791	0.019	0.002
-244.976	-104.656	0.595	0.138
-243.961	-200.000	-0.017	0.298
-242.946	-65.334	-0.336	-0.136
-241.932	-45.623	0.333	0.165
-240.917	-200.000	-0.000	0.008
-239.903	-47.714	-0.050	-0.025
-238.888	146.873	0.090	0.121
-237.873	-200.000	0.050	-0.378
-236.859	-150.489	0.337	-0.026
-235.844	-25.356	-0.178	0.106
-234.830	-107.243	-0.132	-0.029
-233.815	-199.255	0.261	0.001
-232.800	-51.022	-0.513	0.242
-231.786	52.208	0.144	0.138
-230.771	15.969	-0.303	0.239
-229.757	-200.000	-0.013	0.269
-228.742	375.435	0.070	0.143
-227.727	-200.000	-0.002	0.050
-226.713	-200.000	-0.043	-0.202
-225.698	-64.005	-0.244	-0.100
-224.684	64.153	0.078	-0.079
-223.669	610.984	0.096	0.240
-222.655	-25.614	0.275	-0.163
-221.640	341.843	0.166	-0.326
-220.625	53.211	0.072	-0.069
-219.611	800.000	-0.036	-0.103
-218.596	-47.426	0.229	-0.112
-217.582	-200.000	0.032	-0.239
-216.567	-103.701	-0.300	-0.071
-215.552	-94.838	-0.339	-0.092
-214.538	41.029	0.197	0.178
-213.523	-24.968	0.024	0.014
-212.509	-66.303	0.126	-0.050
-211.494	-103.245	0.233	-0.055
-210.479	537.765	-0.123	0.292
-209.465	-73.580	-0.209	0.076
-208.450	-8.442	-0.230	-0.155
-207.436	800.000	-0.030	0.099
-206.421	187.793	-0.058	-0.086
-205.406	-35.806	0.134	-0.073
-204.392	-1.894	0.182	-0.128
-203.377	-98.460	-0.047	-0.012
-202.363	-134.282	0.266	0.033
-201.348	-156.229	0.248	0.016
-200.333	-81.311	-0.306	0.101
-199.319	800.000	0.128	0.398
-198.304	-200.000	-0.013	-0.093
-197.290	75.200	-0.124	0.131
-196.275	277.508	-0.180	-0.322
-195.260	-76.394	0.057	-0.020
-194.246	-200.000	-0.049	0.398
-193.231	-82.463	0.402	0.131
-192.217	320.581	0.070	0.133
-191.202	800.000	-0.073	-0.254
-190.187	-200.000	-0.003	-0.148
-189.173	91.596	-0.213	-0.240
-188.158	680.226	-0.025	0.064
-187.144	132.998	0.138	0.178
-186.129	-164.955	0.334	-0.015
-185.114	541.058	-0.066	0.159
-184.100	504.010	0.118	-0.274
-183.085	61.855	-0.163	-0.163
-182.071	-64.614	-0.235	0.096
-181.056	800.000	0.033	0.132
-180.042	271.943	-0.094	0.166
-179.027	8.456	0.016	0.012
-178.012	-200.000	-0.005	0.206
-176.998	55.358	0.368	-0.356
-175.983	2.636	0.194	0.141
-174.969	-114.128	0.253	-0.049
-173.954	8.995	0.445	-0.336
-172.939	-200.000	0.012	0.083
-171.925	-200.000	-0.023	0.166
-170.910	73.097	0.185	0.193
-169.896	109.650	-0.209	0.250
-168.881	800.000	0.036	-0.103
-167.866	800.000	-0.077	-0.322
-166.852	-172.965	-0.356	0.011
-165.837	-15.804	-0.225	0.144
-164.823	-6.718	-0.255	-0.174
-163.808	-165.316	0.202	-0.009
-162.793	453.270	-0.025	-0.055
-161.779	-104.012	0.127	-0.030
-160.764	57.609	0.108	-0.106
-159.750	-39.491	-0.172	0.090
-158.735	400.635	0.229	0.482
-157.720	146.480	-0.020	-0.027
-156.706	-114.686	-0.306	-0.058
-155.691	-200.000	-0.009	0.059
-154.677	39.804	-0.204	0.183
-153.662	-200.000	0.048	0.423
-152.647	112.695	-0.262	0.317
-151.633	409.599	0.273	0.578
-150.618	208.712	-0.169	0.265
-149.604	86.845	-0.207	-0.229
-148.589	-53.956	0.231	-0.105
-147.574	-85.194	-0.109	-0.034
-146.560	-67.872	0.262	0.102
-145.545	104.861	0.255	-0.301
-144.531	109.231	-0.178	0.213
-143.516	-200.000	-0.005	-0.111
-142.502	-81.744	-0.243	0.080
-141.487	-52.908	0.212	0.098
-140.472	-200.000	-0.013	0.523
-139.458	5.511	0.150	0.111
-138.443	-200.000	-0.034	-0.198
-137.429	800.000	-0.038	0.112
-136.414	509.455	0.111	0.257
-135.399	453.611	-0.103	0.228
-134.385	-62.237	-0.221	0.092
-133.370	84.026	0.205	0.223
-132.356	728.911	0.057	0.153
-131.341	277.251	0.107	0.190
-130.326	-67.893	-0.140	0.054
-129.312	285.551	0.181	-0.325
-128.297	-200.000	-0.001	0.120
-127.283	155.012	0.144	0.197
-126.268	-86.538	-0.156	-0.048
-125.253	-111.432	-0.199	0.040
-124.239	-17.866	0.214	0.134
-123.224	238.505	0.169	0.281
-122.210	5.912	-0.171	-0.127
-121.195	474.961	-0.105	0.237
