DTS Sentinel unit serial number:	SN413079Multiplexer serial number:	ORYXHardware model number:	OX4-SRSoftware version number:	ORYX F/W v4.00 Oryx Data Collector v3.7.2.0data status	okinstallation	princeton_trtdifferential loss correction	single-endedforward channel	channel 4reverse channel	N/Adate	2019/09/10time	16:59:10forward acquisition time	60.00reverse acquisition time	0.00gamma	496.2192k internal	0.2295k external	0.2295temperature offset calibration	0.9940default loss term (dB/km)	0.3790temperature slope calibration	1.0000multiplexer offset coefficient	1.0000multiplexer slope coefficient	1.0000fibre end	0.00T internal ref (°C)	37.62T ext. ref 1 (°C)	-0.31T ext. ref 2 (°C)	32.17length (m)	temperature (°C)	Stokes	anti-Stokes-747.200	-96.025	0.176	-0.048
-746.185	-79.483	0.319	0.110
-745.171	-155.598	0.190	0.012
-744.156	-132.112	-0.170	0.023
-743.142	124.738	-0.075	-0.096
-742.127	-54.846	0.377	-0.174
-741.112	-200.000	0.048	-0.308
-740.098	-5.731	0.290	0.203
-739.083	800.000	-0.067	0.253
-738.069	-200.000	0.011	0.616
-737.054	-200.000	0.034	0.283
-736.039	800.000	0.093	-0.326
-735.025	-132.688	0.444	-0.058
-734.010	-114.509	0.087	-0.017
-732.996	710.385	-0.103	-0.277
-731.981	800.000	0.043	0.151
-730.966	139.256	-0.095	0.128
-729.952	153.760	0.059	0.083
-728.937	-85.567	0.062	0.020
-727.923	-200.000	0.071	0.448
-726.908	19.100	-0.162	-0.132
-725.894	-7.865	0.103	0.071
-724.879	32.683	0.148	-0.131
-723.864	254.312	-0.176	-0.308
-722.850	332.196	0.049	-0.096
-721.835	-123.275	0.120	-0.020
-720.821	-127.438	0.278	0.041
-719.806	153.493	-0.076	-0.106
-718.791	-200.000	-0.002	-0.188
-717.777	-46.135	-0.255	0.128
-716.762	-200.000	-0.009	-0.234
-715.748	-121.546	-0.270	0.046
-714.733	54.047	0.197	-0.193
-713.718	-19.939	-0.286	-0.181
-712.704	551.421	0.121	-0.296
-711.689	610.959	0.130	0.332
-710.675	-200.000	0.073	-0.352
-709.660	800.000	0.010	0.038
-708.645	-200.000	-0.011	-0.139
-707.631	-167.869	-0.180	-0.007
-706.616	463.896	0.067	-0.154
-705.602	322.333	0.123	-0.239
-704.587	7.919	0.147	-0.113
-703.572	-93.213	-0.194	0.055
-702.558	219.713	0.165	-0.269
-701.543	800.000	-0.080	-0.290
-700.529	800.000	-0.020	-0.063
-699.514	-102.081	-0.507	-0.125
-698.499	-66.601	0.208	-0.084
-697.485	-150.447	-0.192	0.015
-696.470	26.805	-0.134	-0.114
-695.456	800.000	-0.076	-0.245
-694.441	174.048	-0.271	-0.399
-693.426	-200.000	0.035	-0.281
-692.412	-200.000	-0.074	-0.341
-691.397	-200.000	0.002	0.235
-690.383	-200.000	-0.024	0.142
-689.368	-4.061	-0.155	0.109
-688.354	170.525	-0.106	-0.155
-687.339	-4.199	-0.299	-0.211
-686.324	-200.000	0.066	-0.321
-685.310	-72.712	-0.286	0.108
-684.295	64.562	-0.097	0.100
-683.281	-91.992	-0.133	0.038
-682.266	179.172	-0.028	0.041
-681.251	-200.000	-0.021	0.313
-680.237	-143.733	0.171	0.016
-679.222	203.477	-0.106	-0.167
-678.208	800.000	0.067	0.265
-677.193	-136.587	0.208	0.025
-676.178	103.715	-0.223	0.267
-675.164	-88.740	-0.523	0.159
-674.149	-103.132	0.222	-0.054
-673.135	181.494	-0.112	-0.168
-672.120	-200.000	0.007	0.032
-671.105	800.000	0.127	-0.406
-670.091	272.780	-0.135	-0.243
-669.076	-31.307	-0.096	0.055
-668.062	168.532	-0.229	0.333
-667.047	-83.713	-0.360	-0.117
-666.032	-200.000	0.040	-0.258
-665.018	-50.200	-0.119	-0.057
-664.003	5.084	-0.135	-0.101
-662.989	74.712	0.096	0.102
-661.974	709.289	-0.071	-0.191
-660.959	17.312	-0.127	-0.102
-659.945	-87.983	-0.242	0.074
-658.930	-200.000	-0.013	0.286
-657.916	106.903	0.065	0.079
-656.901	-100.957	-0.463	0.116
-655.886	214.912	0.063	-0.102
-654.872	245.954	0.069	-0.119
-653.857	248.316	-0.197	-0.340
-652.843	-200.000	-0.001	-0.055
-651.828	-142.453	0.542	0.054
-650.814	154.556	-0.165	0.231
-649.799	63.585	-0.221	-0.226
-648.784	800.000	0.046	-0.201
-647.770	301.877	0.254	-0.478
-646.755	482.663	0.040	-0.093
-645.741	-98.996	-0.160	-0.041
-644.726	-29.958	0.220	0.128
-643.711	-88.641	0.234	-0.071
-642.697	-75.368	-0.219	0.079
-641.682	-152.570	-0.177	-0.013
-640.668	21.229	0.103	-0.085
-639.653	-200.000	-0.012	0.172
-638.638	-7.168	0.240	0.166
-637.624	-39.383	0.198	-0.106
-636.609	-200.000	-0.039	-0.234
-635.595	117.177	-0.191	0.239
-634.580	-26.257	-0.107	0.064
-633.565	561.952	-0.089	-0.219
-632.551	-96.863	0.041	-0.011
-631.536	-25.116	-0.124	-0.075
-630.522	52.091	-0.153	-0.148
-629.507	110.233	0.123	-0.151
-628.492	-200.000	-0.004	-0.103
-627.478	133.915	-0.105	0.138
-626.463	-200.000	-0.008	-0.218
-625.449	235.000	0.101	-0.169
-624.434	-200.000	0.002	0.335
-623.419	38.499	-0.058	0.053
-622.405	316.141	-0.096	-0.184
-621.390	800.000	0.063	-0.258
-620.376	-200.000	0.016	-0.134
-619.361	800.000	0.073	0.216
-618.346	-62.076	-0.284	0.120
-617.332	800.000	-0.039	0.146
-616.317	-0.531	-0.155	-0.112
-615.303	-190.252	-0.210	-0.002
-614.288	97.236	-0.153	0.178
-613.273	0.845	0.060	-0.044
-612.259	630.065	0.019	-0.048
-611.244	409.543	0.107	-0.230
-610.230	-200.000	-0.012	0.333
-609.215	-20.483	-0.233	0.145
-608.201	-48.780	0.093	0.045
-607.186	-131.737	0.275	0.037
-606.171	-200.000	0.000	0.062
-605.157	78.780	-0.158	0.172
-604.142	-110.911	0.268	-0.056
-603.128	-152.268	-0.176	0.013
-602.113	58.730	-0.180	0.180
-601.098	-71.508	-0.374	-0.142
-600.084	-200.000	0.055	-0.323
-599.069	-92.370	0.094	0.027
-598.055	235.733	-0.130	-0.219
-597.040	800.000	-0.052	-0.169
-596.025	91.807	0.189	0.216
-595.011	-92.624	0.186	-0.053
-593.996	168.215	0.078	-0.112
-592.982	-15.204	0.099	0.064
-591.967	56.470	-0.157	0.156
-590.952	-25.513	0.065	0.039
-589.938	-200.000	-0.035	0.203
-588.923	-52.702	-0.427	0.200
-587.909	-200.000	0.000	-0.050
-586.894	207.476	-0.130	-0.206
-585.879	105.702	0.063	-0.076
-584.865	-200.000	0.033	0.318
-583.850	-200.000	-0.024	0.218
-582.836	607.278	0.015	0.037
-581.821	-200.000	0.015	-0.101
-580.806	126.339	-0.097	-0.124
-579.792	-117.853	0.194	-0.035
-578.777	-200.000	-0.017	-0.143
-577.763	429.066	-0.074	-0.163
-576.748	513.458	0.106	0.251
-575.733	294.821	0.138	0.257
-574.719	140.242	-0.091	-0.122
-573.704	676.496	0.089	-0.235
-572.690	67.867	-0.165	0.171
-571.675	-33.632	0.159	-0.089
-570.661	800.000	0.043	-0.167
-569.646	-124.677	-0.272	0.043
-568.631	-69.225	-0.238	-0.093
-567.617	83.181	0.178	-0.197
-566.602	-73.114	0.091	-0.034
-565.588	75.707	-0.109	0.117
-564.573	-200.000	-0.017	0.082
-563.558	55.574	0.039	0.038
-562.544	800.000	0.082	-0.321
-561.529	284.050	-0.034	-0.061
-560.515	-59.000	0.371	-0.163
-559.500	-67.759	-0.231	-0.092
-558.485	-185.767	-0.174	-0.003
-557.471	-120.399	0.068	-0.012
-556.456	76.133	-0.050	-0.054
-555.442	-93.025	0.069	0.020
-554.427	703.524	0.052	0.139
-553.412	-200.000	0.012	0.086
-552.398	-200.000	0.011	-0.145
-551.383	-200.000	-0.031	0.145
-550.369	-200.000	0.026	-0.297
-549.354	64.129	0.042	-0.043
-548.339	69.969	-0.080	-0.084
-547.325	-200.000	-0.029	-0.360
-546.310	-200.000	-0.002	-0.112
-545.296	800.000	-0.020	0.070
-544.281	368.847	0.108	-0.222
-543.266	800.000	0.115	0.439
-542.252	-200.000	-0.008	0.167
-541.237	196.775	0.075	-0.115
-540.223	7.543	0.098	0.074
-539.208	-59.768	-0.165	0.072
-538.193	-183.309	0.177	0.003
-537.179	-200.000	-0.021	-0.374
-536.164	74.817	-0.174	-0.186
-535.150	-200.000	0.086	0.000
-534.135	800.000	-0.090	0.297
-533.121	28.665	0.274	0.235
-532.106	238.317	-0.087	0.147
-531.091	198.211	-0.210	-0.325
-530.077	-70.522	-0.105	0.040
-529.062	-79.262	0.248	-0.085
-528.048	136.885	0.142	-0.188
-527.033	473.940	-0.130	0.297
-526.018	359.017	0.044	-0.089
-525.004	143.249	-0.223	0.301
-523.989	407.478	-0.039	0.084
-522.975	-104.910	-0.289	-0.067
-521.960	-200.000	-0.043	0.293
-520.945	-34.945	0.189	-0.104
-519.931	-53.235	-0.173	-0.081
-518.916	-53.331	-0.291	0.135
-517.902	-200.000	-0.023	-0.183
-516.887	-116.940	-0.168	0.031
-515.872	263.289	-0.118	-0.207
-514.858	33.606	0.149	0.132
-513.843	-200.000	0.068	0.332
-512.829	-68.315	-0.152	0.060
-511.814	68.078	0.258	-0.268
-510.799	283.218	0.211	0.383
-509.785	348.886	0.194	0.388
-508.770	55.112	-0.075	0.073
-507.756	-104.995	-0.419	-0.097
-506.741	-131.924	-0.084	-0.011
-505.726	168.306	0.034	-0.049
-504.712	-177.219	-0.281	-0.007
-503.697	-200.000	-0.061	0.271
-502.683	1.765	0.301	0.219
-501.668	489.412	0.120	-0.277
-500.653	142.302	-0.158	-0.212
-499.639	-97.364	-0.048	0.013
-498.624	-200.000	-0.007	-0.231
-497.610	800.000	0.078	-0.281
-496.595	-200.000	0.038	0.230
-495.581	-114.641	-0.400	0.078
-494.566	681.250	0.034	-0.090
-493.551	567.999	0.182	0.448
-492.537	-108.555	-0.335	0.073
-491.522	97.888	0.127	0.148
-490.508	800.000	-0.030	-0.120
-489.493	272.099	-0.107	0.191
-488.478	-69.482	-0.260	-0.101
-487.464	-167.704	-0.214	-0.009
-486.449	301.078	0.086	-0.160
-485.435	33.979	0.135	-0.119
-484.420	-200.000	0.074	0.378
-483.405	-200.000	-0.016	0.106
-482.391	-182.479	0.213	-0.004
-481.376	-164.234	-0.541	-0.025
-480.362	193.197	0.136	0.209
-479.347	147.548	0.228	0.311
-478.332	-110.759	-0.151	-0.032
-477.318	-76.925	-0.137	0.048
-476.303	-178.477	-0.261	0.006
-475.289	-150.904	0.243	0.019
-474.274	128.978	0.064	-0.083
-473.259	92.607	-0.102	-0.116
-472.245	6.897	0.218	-0.164
-471.230	-44.927	-0.090	0.045
-470.216	-33.605	0.192	-0.107
-469.201	-200.000	0.011	0.207
-468.186	427.455	0.060	0.131
-467.172	175.992	0.105	-0.153
-466.157	-200.000	-0.056	-0.319
-465.143	-200.000	-0.009	-0.223
-464.128	-93.366	0.088	0.025
-463.113	-75.902	0.290	-0.104
-462.099	271.458	0.211	0.376
-461.084	-133.202	-0.201	-0.026
-460.070	-30.075	-0.236	-0.136
-459.055	-49.297	-0.202	0.097
-458.040	173.780	-0.289	-0.422
-457.026	-200.000	0.077	-0.430
-456.011	480.550	0.098	0.224
-454.997	26.874	0.197	-0.167
-453.982	800.000	-0.010	-0.034
-452.968	377.288	-0.054	0.111
-451.953	-27.391	-0.170	0.100
-450.938	-39.313	-0.082	0.043
-449.924	239.181	0.038	0.063
-448.909	-200.000	0.022	0.220
-447.895	-93.411	-0.257	0.072
-446.880	-159.781	-0.176	0.010
-445.865	228.241	-0.135	0.223
-444.851	490.703	-0.111	-0.258
-443.836	474.606	-0.140	-0.319
-442.822	120.602	-0.089	-0.112
-441.807	-63.518	-0.227	-0.094
-440.792	35.965	0.224	0.199
-439.778	-81.803	-0.186	0.062
-438.763	270.826	-0.088	0.157
-437.749	-200.000	-0.043	0.255
-436.734	-200.000	-0.035	0.246
-435.719	-200.000	-0.016	0.301
-434.705	52.593	-0.165	0.159
-433.690	333.361	-0.152	0.296
-432.676	390.371	0.082	0.171
-431.661	364.742	0.086	0.174
-430.646	46.910	0.082	0.077
-429.632	-102.546	-0.140	0.034
-428.617	-25.635	-0.186	0.111
-427.603	-42.388	-0.052	0.027
-426.588	6.975	0.272	-0.205
-425.573	677.840	-0.036	0.093
-424.559	17.682	0.153	0.123
-423.544	-108.629	-0.371	0.080
-422.530	-42.184	-0.209	-0.108
-421.515	-200.000	-0.029	-0.302
-420.500	432.896	-0.117	-0.257
-419.486	800.000	-0.118	0.351
-418.471	-200.000	0.034	0.366
-417.457	23.379	0.092	0.076
-416.442	101.746	-0.174	0.205
-415.428	17.548	-0.162	0.130
-414.413	-58.376	0.133	-0.059
-413.398	-86.143	-0.188	-0.059
-412.384	36.585	-0.046	0.041
-411.369	-79.411	0.474	0.162
-410.355	-121.450	0.383	0.064
-409.340	486.689	0.105	0.241
-408.325	-55.373	0.189	-0.086
-407.311	-42.160	0.414	0.213
-406.296	-178.455	-0.151	-0.004
-405.282	-121.260	-0.370	-0.062
-404.267	270.458	-0.073	0.130
-403.252	100.447	0.134	-0.156
-402.238	-108.607	0.113	-0.024
-401.223	39.066	0.329	-0.296
-400.209	800.000	-0.036	-0.128
-399.194	154.684	0.011	-0.015
-398.179	208.181	0.185	-0.292
-397.165	800.000	-0.048	0.156
-396.150	-84.649	0.575	0.183
-395.136	-200.000	0.024	-0.272
-394.121	70.010	-0.110	-0.115
-393.106	60.405	0.173	0.173
-392.092	-26.990	0.100	-0.059
-391.077	-200.000	0.011	0.207
-390.063	800.000	-0.037	-0.109
-389.048	37.661	0.248	-0.222
-388.033	-18.101	0.160	0.101
-387.019	49.931	0.166	-0.157
-386.004	14.348	0.249	-0.196
-384.990	-4.238	0.055	0.038
-383.975	-133.680	0.291	0.037
-382.960	-78.663	-0.379	0.130
-381.946	-2.554	0.198	0.140
-380.931	-200.000	-0.013	-0.124
-379.917	800.000	0.015	0.062
-378.902	-92.659	-0.188	0.053
-377.888	-68.083	0.211	0.083
-376.873	-200.000	-0.002	0.075
-375.858	-76.368	0.310	0.110
-374.844	315.476	-0.055	0.104
-373.829	178.467	0.031	0.046
-372.815	-67.242	-0.290	-0.115
-371.800	345.446	0.008	0.016
-370.785	649.286	-0.039	0.101
-369.771	-200.000	-0.088	0.395
-368.756	-48.369	0.268	0.130
-367.742	356.710	0.228	0.457
-366.727	159.085	-0.190	0.266
-365.712	-57.297	-0.282	-0.125
-364.698	-200.000	-0.016	0.195
-363.683	160.359	-0.383	0.538
-362.669	-108.458	-0.096	0.021
-361.654	79.009	-0.303	0.326
-360.639	253.840	0.037	0.064
-359.625	-153.218	0.093	0.007
-358.610	-200.000	0.038	-0.223
-357.596	800.000	-0.047	-0.161
-356.581	684.028	0.059	-0.154
-355.566	43.330	0.201	0.185
-354.552	-133.034	-0.102	0.013
-353.537	-200.000	0.049	-0.222
-352.523	-145.741	-0.156	-0.014
-351.508	-38.992	0.429	-0.228
-350.493	350.396	-0.110	-0.219
-349.479	86.966	-0.288	-0.320
-348.464	692.192	-0.057	-0.151
-347.450	-109.965	-0.319	-0.067
-346.435	-24.562	0.208	0.125
-345.420	800.000	-0.063	-0.245
-344.406	-124.539	0.136	-0.021
-343.391	-200.000	0.001	-0.490
-342.377	-160.364	0.317	-0.017
-341.362	9.847	0.023	0.017
-340.348	211.281	0.096	0.152
-339.333	280.609	0.043	-0.078
-338.318	-14.140	0.166	0.108
-337.304	-113.608	0.259	0.051
-336.289	-104.265	-0.352	-0.082
-335.275	-66.702	0.148	-0.059
-334.260	-200.000	0.026	-0.189
-333.245	296.415	0.110	-0.202
-332.231	441.381	-0.142	-0.313
-331.216	10.866	0.153	-0.117
-330.202	773.296	0.108	0.295
-329.187	800.000	0.053	-0.216
-328.172	185.055	-0.037	-0.055
-327.158	-200.000	-0.018	-0.110
-326.143	-24.647	-0.188	-0.113
-325.129	273.067	0.168	0.298
-324.114	-79.364	-0.325	-0.111
-323.099	237.328	0.063	-0.105
-322.085	-200.000	0.047	-0.549
-321.070	-3.018	-0.350	-0.245
-320.056	-200.000	-0.017	0.139
-319.041	130.628	-0.031	-0.040
-318.026	22.472	0.183	-0.151
-317.012	-22.782	-0.144	0.087
-315.997	-40.049	0.048	-0.025
-314.983	657.852	-0.058	-0.149
-313.968	-200.000	-0.027	-0.213
-312.953	421.159	-0.117	0.253
-311.939	-50.940	-0.240	-0.113
-310.924	800.000	-0.087	0.317
-309.910	-130.524	-0.128	0.017
-308.895	-97.307	0.405	-0.106
-307.880	-103.697	-0.271	-0.064
-306.866	104.225	-0.209	-0.246
-305.851	71.092	0.274	0.285
-304.837	800.000	-0.043	0.172
-303.822	-200.000	-0.011	0.128
-302.807	319.778	0.095	-0.182
-301.793	170.198	0.194	-0.278
-300.778	-77.067	0.094	-0.033
-299.764	-200.000	-0.024	0.167
-298.749	-140.705	0.156	0.016
-297.735	-7.072	0.281	-0.191
-296.720	589.272	0.016	0.041
-295.705	56.668	0.119	-0.116
-294.691	-121.750	0.220	-0.036
-293.676	6.073	-0.256	-0.191
-292.662	-200.000	0.007	0.071
-291.647	-161.638	-0.177	0.009
-290.632	-102.514	-0.380	0.091
-289.618	14.510	0.260	-0.204
-288.603	103.245	0.189	0.223
-287.589	55.307	0.113	-0.110
-286.574	75.759	-0.239	0.254
-285.559	-14.820	0.344	0.222
-284.545	37.689	0.015	0.013
-283.530	351.117	0.135	0.268
-282.516	90.872	0.140	0.157
-281.501	285.583	0.056	-0.101
-280.486	-42.260	-0.038	0.019
-279.472	-70.669	-0.242	0.092
-278.457	29.136	0.213	-0.182
-277.443	146.398	0.111	-0.149
-276.428	800.000	0.097	-0.389
-275.413	43.311	0.300	-0.275
-274.399	800.000	0.031	-0.087
-273.384	153.981	0.048	-0.067
-272.370	21.425	0.084	0.068
-271.355	-149.737	-0.229	-0.018
-270.340	-200.000	-0.006	-0.089
-269.326	800.000	0.061	-0.268
-268.311	760.961	0.165	0.449
-267.297	-68.759	-0.187	0.072
-266.282	447.346	-0.168	0.370
-265.267	-26.226	0.362	0.213
-264.253	-118.430	-0.309	0.055
-263.238	-200.000	0.035	0.199
-262.224	-30.428	0.091	-0.052
-261.209	-200.000	0.317	-0.001
-260.195	49.471	-0.082	-0.077
-259.180	200.781	0.067	0.103
-258.165	-200.000	0.023	0.105
-257.151	7.087	-0.159	0.119
-256.136	30.022	-0.287	0.245
-255.122	-85.223	0.245	0.077
-254.107	9.784	-0.353	-0.268
-253.092	-200.000	0.058	-0.337
-252.078	-29.584	0.216	-0.123
-251.063	800.000	0.050	-0.177
-250.049	-1.690	0.205	0.145
-249.034	101.739	-0.177	-0.207
-248.019	-19.544	-0.150	-0.093
-247.005	-13.041	0.092	-0.060
-245.990	70.274	0.258	-0.267
-244.976	-200.000	-0.013	0.163
-243.961	182.857	-0.124	-0.183
-242.946	-71.401	0.171	0.064
-241.932	-200.000	0.010	0.159
-240.917	-15.233	-0.030	-0.019
-239.903	800.000	0.014	-0.046
-238.888	800.000	0.113	0.403
-237.873	-14.909	-0.319	-0.205
-236.859	-111.763	-0.203	0.041
-235.844	294.084	-0.085	0.156
-234.830	-200.000	-0.008	0.294
-233.815	-200.000	-0.025	-0.147
-232.800	46.621	0.132	-0.122
-231.786	-84.559	0.498	0.157
-230.771	748.114	0.073	-0.197
-229.757	506.485	-0.187	-0.435
-228.742	-200.000	-0.033	0.225
-227.727	-85.498	-0.226	-0.070
-226.713	573.433	-0.136	-0.332
-225.698	-71.796	-0.354	0.132
-224.684	-200.000	-0.025	0.201
-223.669	328.387	-0.052	-0.099
-222.655	800.000	0.065	-0.180
-221.640	62.652	-0.141	-0.141
-220.625	-112.717	0.351	-0.070
-219.611	-113.062	-0.047	-0.009
-218.596	16.122	-0.083	-0.065
-217.582	70.211	0.134	-0.138
-216.567	-200.000	-0.034	0.189
-215.552	-94.635	-0.008	-0.002
-214.538	-105.552	0.220	-0.050
-213.523	-200.000	0.050	0.267
-212.509	800.000	-0.111	-0.344
-211.494	-200.000	-0.032	0.210
-210.479	1.942	0.104	-0.075
-209.465	-103.618	-0.107	-0.025
-208.450	-50.304	-0.288	-0.136
-207.436	630.275	0.059	0.150
-206.421	800.000	-0.037	0.118
-205.406	-120.871	0.194	0.033
-204.392	-129.268	0.271	0.038
-203.377	-200.000	-0.024	0.362
-202.363	-61.450	0.135	0.057
-201.348	-155.607	-0.337	0.022
-200.333	-14.284	0.090	0.058
-199.319	-67.847	0.102	-0.040
-198.304	800.000	-0.085	0.259
-197.290	145.853	-0.108	0.145
-196.275	-200.000	-0.020	0.200
-195.260	-200.000	0.006	-0.285
-194.246	291.773	0.132	0.240
-193.231	-89.805	0.195	0.057
-192.217	-6.005	-0.234	-0.160
-191.202	-200.000	-0.003	-0.098
-190.187	-11.693	0.240	0.157
-189.173	376.669	0.162	0.331
-188.158	-27.118	-0.182	-0.106
-187.144	84.542	0.080	-0.087
-186.129	-127.801	-0.423	-0.061
-185.114	60.881	0.200	0.198
-184.100	-75.167	0.077	-0.027
-183.085	-200.000	-0.012	-0.437
-182.071	154.827	0.076	-0.104
-181.056	8.614	0.094	0.071
-180.042	-143.545	-0.304	0.029
-179.027	-200.000	0.055	-0.443
-178.012	-200.000	0.001	-0.164
-176.998	-82.578	-0.183	0.059
-175.983	-5.677	0.315	0.216
-174.969	363.709	0.072	-0.145
-173.954	-200.000	0.035	-0.186
-172.939	107.047	0.136	0.162
-171.925	800.000	0.071	-0.201
-170.910	85.717	0.165	-0.181
-169.896	-200.000	0.022	-0.164
-168.881	-41.971	-0.166	0.085
-167.866	610.850	0.020	0.050
-166.852	-151.621	-0.316	0.023
-165.837	344.273	0.064	0.126
-164.823	800.000	0.101	0.309
-163.808	68.341	-0.126	0.129
-162.793	-200.000	0.014	-0.148
-161.779	-76.382	-0.178	0.063
-160.764	-19.347	-0.187	0.116
-159.750	-57.441	0.356	-0.156
-158.735	8.358	0.265	-0.199
-157.720	-200.000	-0.002	-0.040
-156.706	800.000	-0.137	0.470
-155.691	-127.282	0.282	-0.041
-154.677	654.986	0.095	0.243
-153.662	564.473	-0.055	-0.133
-152.647	-94.569	0.094	-0.025
-151.633	117.346	0.101	-0.124
-150.618	10.221	0.079	0.060
-149.604	800.000	-0.061	-0.184
-148.589	22.637	0.233	0.190
-147.574	-95.149	-0.193	-0.052
-146.560	-52.062	0.232	0.108
-145.545	800.000	0.048	0.163
-144.531	435.251	0.059	-0.129
-143.516	-99.513	0.119	0.030
-142.502	129.468	-0.272	0.346
-141.487	-65.227	0.175	-0.071
-140.472	520.613	0.016	0.036
-139.458	-162.386	0.155	-0.008
-138.443	-1.240	-0.362	-0.256
-137.429	312.325	0.150	0.280
-136.414	358.426	0.179	0.356
-135.399	-131.985	0.233	-0.030
-134.385	-200.000	0.038	0.000
-133.370	20.138	-0.423	0.341
-132.356	800.000	0.032	-0.104
-131.341	-11.188	0.379	0.249
-130.326	-200.000	0.010	0.073
-129.312	-82.776	-0.153	0.049
-128.297	663.293	-0.042	-0.108
-127.283	-195.161	0.340	0.003
-126.268	91.487	-0.352	-0.394
-125.253	-200.000	-0.001	0.132
-124.239	-200.000	0.039	0.224
-123.224	-107.677	0.079	0.017
-122.210	-125.032	0.222	-0.034
-121.195	38.299	0.193	-0.171
