DTS Sentinel unit serial number:	SN413079Multiplexer serial number:	ORYXHardware model number:	OX4-SRSoftware version number:	ORYX F/W v4.00 Oryx Data Collector v3.7.2.0data status	okinstallation	princeton_trtdifferential loss correction	single-endedforward channel	channel 4reverse channel	N/Adate	2019/09/19time	11:05:34forward acquisition time	60.00reverse acquisition time	0.00gamma	496.2192k internal	0.2327k external	0.2327temperature offset calibration	1.0017default loss term (dB/km)	0.3790temperature slope calibration	1.0000multiplexer offset coefficient	1.0000multiplexer slope coefficient	1.0000fibre end	0.00T internal ref (°C)	24.95T ext. ref 1 (°C)	0.76T ext. ref 2 (°C)	20.52length (m)	temperature (°C)	Stokes	anti-Stokes-747.200	-131.678	-0.243	0.032
-746.185	-200.000	-0.016	0.083
-745.171	55.651	0.172	0.168
-744.156	-81.194	-0.155	0.051
-743.142	800.000	0.054	-0.166
-742.127	800.000	-0.042	0.160
-741.112	800.000	-0.091	0.260
-740.098	-114.986	-0.214	0.041
-739.083	800.000	-0.021	0.086
-738.069	621.825	-0.145	0.367
-737.054	-19.710	-0.190	0.119
-736.039	138.183	0.165	-0.218
-735.025	-57.154	0.073	0.032
-734.010	-200.000	0.001	-0.023
-732.996	71.555	-0.209	-0.219
-731.981	800.000	0.019	-0.081
-730.966	-8.236	-0.170	0.115
-729.952	-200.000	0.078	0.428
-728.937	-118.601	-0.192	-0.034
-727.923	800.000	0.061	-0.213
-726.908	300.358	0.016	-0.031
-725.894	-61.945	0.078	0.033
-724.879	78.507	-0.236	-0.254
-723.864	-200.000	0.034	-0.260
-722.850	-200.000	0.008	-0.034
-721.835	-12.234	-0.206	-0.136
-720.821	-200.000	0.048	0.330
-719.806	-81.472	-0.217	-0.072
-718.791	221.184	0.180	-0.291
-717.777	619.625	0.064	0.162
-716.762	784.265	0.090	0.249
-715.748	-20.527	-0.137	-0.085
-714.733	-183.456	0.118	0.002
-713.718	-200.000	0.055	0.377
-712.704	119.044	-0.116	-0.145
-711.689	752.800	-0.019	0.052
-710.675	-36.701	0.167	-0.090
-709.660	800.000	-0.081	-0.255
-708.645	448.521	-0.229	-0.509
-707.631	800.000	-0.036	0.143
-706.616	368.574	0.043	-0.087
-705.602	160.736	-0.114	-0.161
-704.587	3.338	-0.420	0.308
-703.572	189.945	0.100	0.151
-702.558	108.527	0.066	0.079
-701.543	800.000	0.059	0.214
-700.529	50.154	-0.233	-0.222
-699.514	714.784	-0.065	0.172
-698.499	199.319	-0.098	0.151
-697.485	-36.705	0.028	-0.015
-696.470	262.739	0.154	-0.270
-695.456	-21.015	0.143	-0.088
-694.441	545.573	0.125	0.300
-693.426	-82.744	0.045	-0.015
-692.412	-50.474	-0.239	0.114
-691.397	-200.000	0.001	0.051
-690.383	-200.000	-0.071	-0.330
-689.368	377.693	0.032	-0.067
-688.354	-85.038	0.197	0.062
-687.339	-105.696	-0.160	-0.036
-686.324	527.781	-0.138	0.327
-685.310	20.348	-0.159	-0.129
-684.295	-4.468	-0.097	-0.067
-683.281	-12.109	-0.214	-0.141
-682.266	77.111	0.078	0.083
-681.251	730.777	-0.043	0.116
-680.237	292.373	0.239	0.438
-679.222	270.827	-0.099	0.175
-678.208	-91.789	-0.249	0.071
-677.193	207.693	-0.216	0.339
-676.178	18.957	-0.298	-0.240
-675.164	414.149	-0.053	-0.113
-674.149	-34.632	-0.114	-0.063
-673.135	419.199	-0.119	-0.256
-672.120	-6.170	-0.156	0.107
-671.105	-79.251	-0.079	-0.027
-670.091	-113.885	-0.178	-0.035
-669.076	652.973	0.105	-0.269
-668.062	800.000	-0.020	0.081
-667.047	-142.709	-0.405	0.040
-666.032	311.111	-0.204	-0.385
-665.018	219.698	-0.199	-0.321
-664.003	-199.574	-0.084	0.000
-662.989	-72.956	0.111	-0.041
-661.974	-158.110	0.327	0.019
-660.959	-25.891	0.143	-0.085
-659.945	-113.389	-0.282	-0.056
-658.930	35.685	-0.228	0.201
-657.916	-140.856	0.162	-0.017
-656.901	156.678	0.122	-0.169
-655.886	476.007	0.219	-0.497
-654.872	-14.964	0.126	-0.081
-653.857	-73.713	-0.093	-0.034
-652.843	255.954	-0.144	0.249
-651.828	151.828	0.203	0.277
-650.814	201.231	0.041	-0.064
-649.799	46.834	0.125	0.116
-648.784	-200.000	-0.022	-0.109
-647.770	484.373	0.022	-0.050
-646.755	-69.134	-0.125	-0.048
-645.741	-36.457	0.267	-0.145
-644.726	-200.000	-0.098	0.492
-643.711	54.942	-0.192	0.186
-642.697	25.678	0.175	0.147
-641.682	-45.150	0.164	-0.082
-640.668	800.000	-0.060	0.233
-639.653	800.000	0.002	-0.009
-638.638	-82.097	-0.306	-0.100
-637.624	-139.911	0.241	0.026
-636.609	655.486	-0.059	-0.153
-635.595	800.000	0.096	-0.295
-634.580	-200.000	0.038	-0.364
-633.565	-48.346	0.280	0.135
-632.551	-34.978	0.292	0.160
-631.536	-139.164	0.110	-0.012
-630.522	-200.000	0.011	-0.297
-629.507	-200.000	-0.005	-0.179
-628.492	-72.608	0.057	-0.021
-627.478	-15.837	0.135	-0.086
-626.463	-68.519	-0.288	-0.112
-625.449	-200.000	0.013	-0.281
-624.434	-68.835	-0.354	-0.137
-623.419	-34.102	0.404	-0.223
-622.405	-200.000	-0.000	-0.121
-621.390	-64.590	-0.317	0.129
-620.376	70.377	-0.027	-0.028
-619.361	105.143	-0.111	0.131
-618.346	-200.000	0.021	0.157
-617.332	-60.760	0.078	0.033
-616.317	-3.425	0.207	0.145
-615.303	-200.000	-0.071	-0.344
-614.288	393.589	-0.035	0.072
-613.273	-28.705	-0.177	0.102
-612.259	187.533	0.133	0.199
-611.244	-107.131	0.177	0.039
-610.230	273.095	-0.133	-0.235
-609.215	216.695	0.138	0.220
-608.201	-164.472	-0.164	-0.008
-607.186	16.617	-0.108	-0.086
-606.171	65.048	-0.028	0.028
-605.157	316.412	0.089	0.169
-604.142	118.712	0.158	0.196
-603.128	-94.144	0.385	0.106
-602.113	-110.766	-0.246	0.051
-601.098	192.216	0.056	-0.085
-600.084	-86.247	-0.327	0.101
-599.069	-200.000	0.031	-0.269
-598.055	-200.000	0.005	0.169
-597.040	515.247	0.070	0.163
-596.025	78.753	-0.079	-0.085
-595.011	76.361	0.249	0.264
-593.996	-200.000	0.024	0.187
-592.982	-200.000	0.005	-0.195
-591.967	496.512	-0.077	0.177
-590.952	-79.418	-0.096	-0.033
-589.938	-84.855	-0.144	0.045
-588.923	45.985	-0.143	-0.133
-587.909	-39.378	-0.049	0.026
-586.894	-52.946	0.353	-0.163
-585.879	-200.000	-0.008	0.056
-584.865	-178.765	0.239	0.005
-583.850	-144.686	0.322	0.030
-582.836	-200.000	-0.005	-0.197
-581.821	-104.317	-0.196	0.045
-580.806	-200.000	0.006	0.210
-579.792	-8.697	0.478	0.321
-578.777	-124.190	-0.321	-0.050
-577.763	12.943	0.224	-0.174
-576.748	4.919	0.173	-0.127
-575.733	800.000	0.047	0.156
-574.719	-200.000	0.026	0.489
-573.704	171.460	0.091	0.131
-572.690	-91.645	-0.265	-0.076
-571.675	-83.918	0.133	-0.042
-570.661	65.578	-0.168	-0.171
-569.646	-85.347	0.187	-0.058
-568.631	95.480	0.145	0.166
-567.617	-5.009	0.251	0.173
-566.602	-200.000	0.017	-0.080
-565.588	-85.196	0.209	0.066
-564.573	-92.997	0.033	-0.009
-563.558	-66.895	-0.075	0.030
-562.544	-68.480	-0.192	0.075
-561.529	-69.107	-0.207	-0.080
-560.515	54.118	-0.053	0.051
-559.500	-33.387	-0.016	-0.009
-558.485	7.639	0.060	-0.045
-557.471	203.385	-0.108	0.167
-556.456	-200.000	0.030	-0.377
-555.442	-63.856	0.098	0.040
-554.427	3.058	-0.189	-0.137
-553.412	-84.825	0.158	-0.050
-552.398	-176.236	-0.294	0.008
-551.383	-200.000	0.006	-0.301
-550.369	181.422	-0.195	-0.287
-549.354	-20.269	0.218	-0.134
-548.339	52.634	-0.051	-0.048
-547.325	-28.315	-0.261	0.151
-546.310	59.697	-0.257	0.254
-545.296	-31.996	-0.154	0.086
-544.281	161.583	-0.103	0.145
-543.266	381.218	-0.158	-0.324
-542.252	-38.654	-0.268	-0.142
-541.237	105.835	0.132	0.156
-540.223	-21.519	-0.078	0.048
-539.208	608.228	-0.095	-0.238
-538.193	-89.524	-0.121	0.035
-537.179	-200.000	0.078	-0.356
-536.164	-49.354	-0.379	0.181
-535.150	101.628	0.216	-0.252
-534.135	-121.774	-0.029	-0.005
-533.121	-200.000	0.005	-0.171
-532.106	-36.818	0.067	-0.036
-531.091	-13.646	-0.164	-0.106
-530.077	-200.000	-0.024	0.291
-529.062	207.829	-0.182	0.285
-528.048	7.285	-0.029	0.021
-527.033	412.134	0.048	0.102
-526.018	221.956	-0.255	0.410
-525.004	-62.991	0.215	-0.089
-523.989	-200.000	-0.004	-0.141
-522.975	16.663	0.206	0.163
-521.960	133.531	-0.073	0.094
-520.945	-100.304	-0.320	0.080
-519.931	-61.884	0.187	0.078
-518.916	78.346	0.199	0.212
-517.902	-100.189	-0.316	0.079
-516.887	800.000	0.151	-0.550
-515.872	760.228	0.032	0.088
-514.858	-200.000	-0.016	0.344
-513.843	-104.124	-0.134	0.031
-512.829	714.037	-0.092	0.245
-511.814	-118.362	-0.132	0.023
-510.799	-200.000	0.011	-0.070
-509.785	122.318	-0.263	-0.328
-508.770	800.000	-0.027	0.115
-507.756	-182.692	-0.073	0.001
-506.741	-52.117	-0.262	-0.122
-505.726	-61.910	-0.088	-0.037
-504.712	-99.096	-0.160	-0.040
-503.697	20.810	-0.314	-0.254
-502.683	-21.405	0.082	0.050
-501.668	57.272	-0.300	0.293
-500.653	-54.732	0.105	-0.047
-499.639	-200.000	0.029	-0.152
-498.624	60.380	0.057	-0.056
-497.610	-183.366	0.093	0.002
-496.595	-200.000	-0.001	-0.036
-495.581	-115.177	-0.458	-0.087
-494.566	-92.856	-0.214	0.060
-493.551	184.438	-0.098	0.145
-492.537	-73.401	-0.085	0.031
-491.522	-142.408	-0.148	0.015
-490.508	-108.120	-0.426	-0.092
-489.493	800.000	0.059	-0.174
-488.478	56.497	0.060	0.058
-487.464	-200.000	0.000	0.043
-486.449	58.014	-0.102	0.100
-485.435	13.078	-0.321	0.248
-484.420	-200.000	0.008	0.133
-483.405	272.415	0.069	0.121
-482.391	28.532	-0.202	0.171
-481.376	245.356	0.240	0.403
-480.362	-117.485	-0.252	0.045
-479.347	-166.420	-0.128	-0.005
-478.332	-164.539	0.305	0.014
-477.318	-62.324	0.145	-0.060
-476.303	-27.949	0.220	0.127
-475.289	37.851	0.188	-0.167
-474.274	-200.000	0.016	0.081
-473.259	-62.907	-0.291	0.120
-472.245	-200.000	0.037	-0.368
-471.230	800.000	0.065	0.260
-470.216	-76.419	0.205	-0.072
-469.201	-146.532	0.050	-0.004
-468.186	-68.597	-0.390	-0.151
-467.172	54.839	0.122	-0.118
-466.157	271.778	-0.116	-0.205
-465.143	-200.000	0.007	0.063
-464.128	329.097	0.068	0.130
-463.113	-200.000	0.034	0.348
-462.099	-116.010	0.152	-0.028
-461.084	-200.000	0.005	0.233
-460.070	-200.000	0.017	-0.190
-459.055	-106.672	0.326	-0.072
-458.040	305.603	0.176	-0.326
-457.026	-43.842	0.339	-0.170
-456.011	-130.176	0.131	0.018
-454.997	-65.789	0.202	-0.080
-453.982	-200.000	-0.002	-0.225
-452.968	-26.204	0.066	0.039
-451.953	-131.972	0.090	-0.012
-450.938	312.187	0.072	-0.135
-449.924	193.655	-0.040	-0.060
-448.909	1.489	0.110	0.079
-447.895	269.632	0.060	0.106
-446.880	-121.834	0.270	-0.044
-445.865	462.891	-0.087	-0.195
-444.851	-1.154	0.058	0.041
-443.836	17.841	-0.052	-0.041
-442.822	-76.279	-0.156	-0.055
-441.807	-73.057	-0.184	0.067
-440.792	256.808	-0.130	-0.223
-439.778	-27.906	-0.132	0.076
-438.763	77.592	-0.117	0.124
-437.749	36.354	0.168	-0.147
-436.734	-68.248	-0.538	-0.208
-435.719	-46.187	-0.158	-0.077
-434.705	-200.000	-0.042	-0.197
-433.690	-20.067	-0.174	0.107
-432.676	-132.074	0.207	0.027
-431.661	-200.000	-0.020	-0.175
-430.646	-200.000	-0.004	0.033
-429.632	-200.000	-0.025	-0.128
-428.617	-152.982	-0.133	0.009
-427.603	161.484	-0.172	0.240
-426.588	-62.037	0.128	-0.053
-425.573	172.276	-0.032	-0.046
-424.559	243.972	-0.124	-0.207
-423.544	-154.104	-0.144	-0.010
-422.530	23.854	0.269	0.220
-421.515	-200.000	0.063	0.281
-420.500	430.782	-0.072	-0.156
-419.486	64.238	-0.165	0.165
-418.471	-200.000	-0.054	-0.284
-417.457	363.735	0.019	0.039
-416.442	-117.021	-0.166	-0.030
-415.428	-110.065	-0.180	0.037
-414.413	79.386	-0.138	-0.148
-413.398	486.331	0.139	-0.316
-412.384	367.360	0.173	-0.348
-411.369	207.667	0.130	-0.202
-410.355	35.296	-0.189	-0.165
-409.340	113.628	0.210	0.253
-408.325	-120.101	-0.282	0.048
-407.311	800.000	-0.042	-0.135
-406.296	-200.000	-0.034	-0.235
-405.282	-200.000	0.070	0.430
-404.267	-68.737	0.379	0.146
-403.252	800.000	0.082	-0.304
-402.238	-47.500	-0.024	0.011
-401.223	-5.123	0.202	-0.138
-400.209	-62.090	0.057	-0.024
-399.194	-200.000	-0.027	0.204
-398.179	-126.131	-0.367	-0.055
-397.165	-110.178	-0.150	0.031
-396.150	-200.000	0.009	0.317
-395.136	634.006	-0.045	0.113
-394.121	-200.000	-0.029	0.262
-393.106	241.568	-0.216	0.359
-392.092	-145.399	-0.195	0.017
-391.077	518.404	-0.075	0.174
-390.063	83.279	0.183	-0.198
-389.048	-72.681	-0.257	-0.094
-388.033	-50.230	-0.385	-0.181
-387.019	-91.793	-0.168	0.047
-386.004	-123.195	0.075	-0.012
-384.990	80.151	-0.098	-0.104
-383.975	-141.171	-0.330	0.033
-382.960	-200.000	0.020	0.224
-381.946	238.768	-0.132	-0.219
-380.931	51.888	0.161	-0.153
-379.917	6.175	-0.287	-0.212
-378.902	-58.314	0.315	-0.136
-377.888	169.086	0.154	0.218
-376.873	-78.898	-0.183	0.062
-375.858	-15.974	-0.423	-0.267
-374.844	12.343	0.193	-0.148
-373.829	-4.707	0.143	0.098
-372.815	593.967	-0.033	-0.081
-371.800	-127.742	0.221	-0.032
-370.785	-200.000	0.010	-0.145
-369.771	24.639	-0.143	-0.118
-368.756	674.316	0.128	0.331
-367.742	800.000	-0.052	0.200
-366.727	87.211	0.046	-0.050
-365.712	-46.915	0.174	0.085
-364.698	800.000	-0.017	0.069
-363.683	415.183	-0.164	-0.346
-362.669	208.621	-0.188	-0.292
-361.654	251.747	0.139	0.234
-360.639	-110.687	0.226	0.046
-359.625	-200.000	0.004	0.075
-358.610	276.779	-0.110	0.194
-357.596	-200.000	0.016	-0.220
-356.581	-84.322	-0.049	-0.016
-355.566	-50.224	-0.174	-0.082
-354.552	-200.000	-0.107	0.496
-353.537	-120.928	0.302	0.050
-352.523	75.330	0.154	0.161
-351.508	-200.000	0.011	0.130
-350.493	-144.481	0.240	-0.022
-349.479	-149.691	0.158	-0.012
-348.464	191.350	-0.131	-0.196
-347.450	-200.000	-0.053	0.249
-346.435	-165.655	-0.553	-0.024
-345.420	-34.748	-0.168	0.091
-344.406	-120.351	0.121	-0.020
-343.391	398.731	-0.133	-0.275
-342.377	800.000	0.122	0.414
-341.362	396.046	-0.134	-0.277
-340.348	-188.056	0.202	0.003
-339.333	-104.622	0.346	0.079
-338.318	-200.000	-0.006	0.181
-337.304	-2.027	0.226	-0.158
-336.289	-89.557	-0.379	-0.111
-335.275	-72.672	0.355	0.130
-334.260	-200.000	0.033	0.159
-333.245	109.843	-0.193	0.230
-332.231	-200.000	0.003	-0.131
-331.216	183.493	0.068	0.100
-330.202	-151.089	-0.098	0.007
-329.187	268.477	-0.082	-0.143
-328.172	-101.089	0.253	-0.061
-327.158	-131.894	-0.164	0.021
-326.143	-144.693	-0.277	-0.025
-325.129	335.659	0.223	0.429
-324.114	521.970	-0.082	0.190
-323.099	800.000	-0.029	-0.096
-322.085	-66.514	0.187	-0.074
-321.070	415.797	0.122	-0.258
-320.056	800.000	-0.080	-0.310
-319.041	-7.082	0.419	0.282
-318.026	-200.000	-0.013	0.069
-317.012	800.000	0.156	-0.548
-315.997	-71.442	0.084	0.031
-314.983	-16.275	0.029	0.018
-313.968	-200.000	-0.018	0.189
-312.953	800.000	0.103	0.377
-311.939	-200.000	-0.048	-0.271
-310.924	118.109	0.136	-0.167
-309.910	-148.258	0.271	-0.022
-308.895	68.221	-0.097	-0.099
-307.880	74.712	0.015	0.015
-306.866	88.087	-0.055	-0.060
-305.851	130.462	-0.218	-0.277
-304.837	30.773	0.044	-0.037
-303.822	-39.187	0.117	0.061
-302.807	800.000	-0.066	0.241
-301.793	-41.061	0.191	0.098
-300.778	-1.920	-0.196	0.136
-299.764	190.087	-0.127	-0.189
-298.749	-28.193	0.312	-0.179
-297.735	-104.490	0.236	-0.054
-296.720	237.145	-0.132	-0.216
-295.705	660.469	-0.106	-0.272
-294.691	-101.610	-0.025	0.006
-293.676	-20.702	-0.160	0.097
-292.662	-91.331	0.153	-0.043
-291.647	-200.000	-0.013	0.141
-290.632	-57.455	0.187	0.081
-289.618	326.633	-0.087	0.166
-288.603	-145.398	-0.311	-0.028
-287.589	-73.256	0.154	0.056
-286.574	431.610	0.105	0.225
-285.559	-93.530	0.343	-0.094
-284.545	800.000	-0.054	0.201
-283.530	-36.202	0.114	-0.061
-282.516	54.543	0.198	0.189
-281.501	53.881	-0.139	0.132
-280.486	800.000	0.170	0.576
-279.472	-200.000	0.051	0.439
-278.457	81.403	-0.080	-0.086
-277.443	81.856	0.085	0.091
-276.428	79.207	0.273	-0.290
-275.413	-6.403	0.251	-0.169
-274.399	-200.000	-0.036	0.217
-273.384	177.371	0.046	-0.066
-272.370	-49.347	0.322	0.152
-271.355	-51.626	-0.310	0.143
-270.340	-7.518	-0.221	0.148
-269.326	408.214	0.019	0.040
-268.311	49.430	0.168	-0.156
-267.297	79.476	0.289	0.307
-266.282	5.525	0.188	-0.137
-265.267	-116.404	0.172	-0.031
-264.253	50.384	-0.149	-0.139
-263.238	210.520	0.055	-0.085
-262.224	-119.413	0.131	0.023
-261.209	-150.652	-0.150	0.011
-260.195	-200.000	0.024	-0.248
-259.180	-200.000	0.033	-0.148
-258.165	-55.362	0.223	0.099
-257.151	-89.814	0.226	-0.065
-256.136	-123.437	0.080	-0.013
-255.122	-170.994	-0.402	0.014
-254.107	-39.973	0.103	-0.053
-253.092	109.336	-0.041	0.048
-252.078	680.790	0.100	0.257
-251.063	2.088	0.183	-0.131
-250.049	224.036	0.232	0.370
-249.034	-126.522	0.211	-0.031
-248.019	-61.058	-0.215	-0.090
-247.005	800.000	0.063	-0.249
-245.990	-49.582	-0.188	-0.088
-244.976	51.615	0.167	-0.157
-243.961	-198.036	-0.099	0.001
-242.946	10.045	0.104	-0.078
-241.932	-200.000	0.036	-0.190
-240.917	-12.803	-0.061	-0.039
-239.903	-167.632	-0.351	0.014
-238.888	-88.428	0.390	0.115
-237.873	122.703	-0.191	-0.236
-236.859	-200.000	-0.011	-0.232
-235.844	-200.000	0.064	-0.287
-234.830	-171.843	0.053	-0.002
-233.815	-36.107	0.195	-0.104
-232.800	-200.000	0.043	-0.400
-231.786	25.409	-0.068	-0.056
-230.771	449.066	0.190	0.413
-229.757	145.899	-0.138	-0.182
-228.742	-8.659	0.105	-0.070
-227.727	-128.598	-0.249	-0.035
-226.713	-78.356	0.254	-0.086
-225.698	-40.795	0.153	0.078
-224.684	-26.109	0.173	-0.101
-223.669	-101.030	0.284	0.069
-222.655	-129.117	-0.201	0.028
-221.640	-73.970	0.105	-0.038
-220.625	-98.988	-0.105	-0.026
-219.611	800.000	-0.008	0.027
-218.596	446.615	-0.152	0.330
-217.582	-168.410	0.352	-0.013
-216.567	81.648	0.111	-0.119
-215.552	-165.408	-0.137	0.006
-214.538	-200.000	-0.080	-0.443
-213.523	-15.877	0.380	-0.239
-212.509	170.012	0.164	-0.231
-211.494	405.608	-0.116	0.241
-210.479	179.909	0.163	0.236
-209.465	76.346	-0.048	-0.050
-208.450	-200.000	0.032	0.443
-207.436	-200.000	0.003	-0.095
-206.421	-45.469	-0.402	0.197
-205.406	-156.184	-0.284	-0.018
-204.392	-94.530	-0.044	0.012
-203.377	219.550	-0.172	-0.272
-202.363	21.604	0.231	-0.186
-201.348	2.880	0.111	-0.080
-200.333	-200.000	-0.016	0.080
-199.319	-51.667	-0.136	-0.063
-198.304	-200.000	-0.044	-0.522
-197.290	424.016	-0.137	0.290
-196.275	2.451	-0.146	0.104
-195.260	-82.555	0.205	0.066
-194.246	195.009	-0.097	-0.145
-193.231	-200.000	0.185	0.000
-192.217	182.284	0.150	0.218
-191.202	-68.448	-0.259	-0.099
-190.187	-134.145	0.189	0.023
-189.173	-200.000	-0.034	0.192
-188.158	-156.427	-0.203	0.013
-187.144	-18.640	0.304	-0.187
-186.129	-200.000	0.015	0.261
-185.114	-200.000	0.074	-0.324
-184.100	-200.000	-0.000	0.057
-183.085	-32.563	0.292	0.161
-182.071	-175.199	0.247	0.007
-181.056	-200.000	0.001	0.102
-180.042	-103.021	-0.329	-0.077
-179.027	-56.574	0.318	0.139
-178.012	800.000	-0.010	-0.044
-176.998	800.000	-0.078	0.298
-175.983	587.431	0.154	0.374
-174.969	-128.581	-0.127	0.018
-173.954	43.721	-0.116	-0.105
-172.939	-83.393	-0.150	0.047
-171.925	-200.000	-0.026	-0.191
-170.910	27.542	0.063	-0.052
-169.896	-7.396	0.035	-0.024
-168.881	137.105	-0.017	-0.022
-167.866	56.850	-0.221	-0.212
-166.852	-200.000	-0.077	0.407
-165.837	-30.841	0.122	-0.068
-164.823	148.486	-0.183	0.244
-163.808	-60.881	-0.163	-0.068
-162.793	800.000	-0.078	0.280
-161.779	215.881	-0.126	-0.198
-160.764	74.450	0.264	0.274
-159.750	-10.152	-0.088	0.057
-158.735	151.622	0.068	-0.091
-157.720	668.419	-0.134	-0.342
-156.706	-200.000	0.010	-0.050
-155.691	-163.711	0.052	0.002
-154.677	-78.246	-0.155	-0.052
-153.662	800.000	-0.041	0.163
-152.647	800.000	0.077	0.219
-151.633	-9.179	0.057	0.038
-150.618	-87.728	0.199	-0.059
-149.604	18.883	0.092	0.073
-148.589	-200.000	0.000	0.098
-147.574	-117.698	-0.260	0.046
-146.560	581.536	-0.056	0.134
-145.545	-49.272	-0.248	0.117
-144.531	-1.174	0.407	-0.283
-143.516	-200.000	-0.006	0.076
-142.502	-200.000	0.010	0.222
-141.487	-107.160	-0.181	-0.039
-140.472	-111.774	-0.381	-0.076
-139.458	-80.310	-0.175	0.058
-138.443	91.738	0.137	0.151
-137.429	-99.617	-0.178	0.044
-136.414	-94.682	0.409	-0.109
-135.399	211.218	0.094	0.145
-134.385	-35.739	0.303	0.162
-133.370	-17.501	-0.124	-0.077
-132.356	6.271	0.256	-0.187
-131.341	-123.577	0.056	-0.009
-130.326	-49.018	0.098	0.046
-129.312	-129.821	0.119	0.016
-128.297	800.000	-0.043	0.151
-127.283	800.000	0.143	0.411
-126.268	-200.000	-0.005	-0.064
-125.253	-99.102	0.480	0.120
-124.239	21.067	0.256	0.204
-123.224	-26.516	0.368	-0.212
-122.210	-117.339	-0.170	-0.030
-121.195	145.976	-0.247	0.326
