DTS Sentinel unit serial number:	SN413079Multiplexer serial number:	ORYXHardware model number:	OX4-SRSoftware version number:	ORYX F/W v4.00 Oryx Data Collector v3.7.2.0data status	okinstallation	princeton_trtdifferential loss correction	single-endedforward channel	channel 4reverse channel	N/Adate	2019/09/17time	02:45:34forward acquisition time	60.00reverse acquisition time	0.00gamma	496.2192k internal	0.2311k external	0.2311temperature offset calibration	0.9973default loss term (dB/km)	0.3790temperature slope calibration	1.0000multiplexer offset coefficient	1.0000multiplexer slope coefficient	1.0000fibre end	0.00T internal ref (°C)	29.87T ext. ref 1 (°C)	0.13T ext. ref 2 (°C)	24.88length (m)	temperature (°C)	Stokes	anti-Stokes-747.200	194.677	0.070	-0.108
-746.185	-158.942	-0.270	-0.016
-745.171	-117.672	0.240	-0.044
-744.156	335.369	-0.239	0.470
-743.142	-100.788	-0.115	0.029
-742.127	-95.644	-0.259	0.070
-741.112	435.585	-0.127	0.281
-740.098	324.858	0.102	0.197
-739.083	-200.000	0.015	0.128
-738.069	75.330	0.244	0.262
-737.054	760.248	0.046	0.127
-736.039	237.666	-0.140	-0.236
-735.025	-141.696	0.192	-0.020
-734.010	-200.000	0.031	-0.200
-732.996	325.167	0.077	-0.149
-731.981	28.932	-0.142	-0.122
-730.966	348.982	-0.166	0.333
-729.952	334.299	-0.177	-0.347
-728.937	-113.624	-0.310	0.061
-727.923	800.000	0.091	0.395
-726.908	235.427	-0.063	-0.106
-725.894	673.752	-0.053	0.140
-724.879	632.974	0.073	-0.188
-723.864	355.624	-0.022	0.045
-722.850	44.883	0.236	-0.220
-721.835	-102.440	0.159	0.039
-720.821	-169.991	-0.252	0.009
-719.806	-200.000	-0.041	0.195
-718.791	800.000	-0.132	0.393
-717.777	344.061	-0.092	0.182
-716.762	312.831	-0.100	-0.190
-715.748	-70.920	0.231	-0.088
-714.733	-43.546	0.164	0.084
-713.718	163.515	0.198	0.283
-712.704	70.702	-0.223	0.234
-711.689	-144.342	0.123	-0.012
-710.675	-33.365	0.056	0.031
-709.660	174.575	-0.044	0.065
-708.645	-128.458	-0.327	-0.047
-707.631	-17.650	-0.206	-0.131
-706.616	184.659	-0.062	-0.093
-705.602	-101.060	-0.185	0.046
-704.587	-2.164	-0.152	0.108
-703.572	64.751	0.292	0.299
-702.558	116.534	0.092	0.115
-701.543	206.327	-0.175	-0.276
-700.529	-34.724	-0.069	-0.038
-699.514	800.000	0.038	0.125
-698.499	800.000	-0.133	0.382
-697.485	-200.000	-0.031	-0.244
-696.470	-114.495	-0.269	0.052
-695.456	-200.000	0.057	0.287
-694.441	150.286	-0.123	-0.169
-693.426	-7.976	0.390	-0.266
-692.412	-19.746	0.204	0.128
-691.397	-63.541	-0.179	-0.075
-690.383	296.892	0.105	0.195
-689.368	-25.734	-0.155	-0.093
-688.354	-73.967	-0.275	0.101
-687.339	222.777	-0.112	-0.183
-686.324	-69.203	-0.349	0.136
-685.310	302.999	-0.023	0.043
-684.295	-200.000	0.233	-0.001
-683.281	220.031	0.177	-0.287
-682.266	-200.000	-0.003	0.106
-681.251	800.000	-0.036	-0.106
-680.237	-61.539	-0.094	0.040
-679.222	-200.000	-0.054	-0.382
-678.208	741.072	0.133	-0.363
-677.193	-4.060	0.183	-0.128
-676.178	-128.398	-0.143	-0.021
-675.164	-173.416	0.102	0.003
-674.149	-152.168	-0.258	0.019
-673.135	-137.872	-0.186	-0.021
-672.120	-144.956	0.251	-0.023
-671.105	224.272	-0.155	0.254
-670.091	144.728	-0.075	0.102
-669.076	-123.013	0.198	0.032
-668.062	-200.000	-0.004	0.240
-667.047	-200.000	-0.033	0.381
-666.032	-130.900	0.324	-0.044
-665.018	-18.560	0.098	-0.062
-664.003	-162.273	0.225	0.011
-662.989	-200.000	-0.020	0.520
-661.974	-169.085	-0.226	-0.009
-660.959	-200.000	0.001	-0.048
-659.945	-19.585	0.245	-0.153
-658.930	-200.000	0.036	-0.165
-657.916	150.673	0.033	0.045
-656.901	75.144	-0.161	-0.171
-655.886	-112.208	-0.169	0.034
-654.872	377.444	-0.081	-0.168
-653.857	-33.159	-0.239	0.134
-652.843	220.467	-0.052	0.085
-651.828	-75.827	-0.096	-0.034
-650.814	609.509	-0.155	-0.391
-649.799	14.105	-0.348	-0.274
-648.784	792.405	0.168	-0.468
-647.770	128.165	0.207	-0.267
-646.755	-68.362	0.191	-0.075
-645.741	19.319	-0.122	0.099
-644.726	8.746	-0.195	0.149
-643.711	29.262	0.165	-0.142
-642.697	264.301	0.159	-0.281
-641.682	-144.098	-0.091	-0.009
-640.668	224.402	-0.079	0.129
-639.653	291.184	0.210	0.386
-638.638	472.945	-0.026	0.058
-637.624	-44.532	0.025	0.013
-636.609	-90.152	-0.117	0.035
-635.595	169.475	0.155	-0.223
-634.580	219.737	-0.092	0.149
-633.565	-200.000	-0.015	-0.110
-632.551	-200.000	-0.015	0.120
-631.536	-14.739	0.177	-0.115
-630.522	-46.029	-0.433	-0.216
-629.507	126.912	-0.051	0.065
-628.492	78.395	0.118	-0.127
-627.478	-200.000	0.015	0.522
-626.463	-200.000	0.059	0.301
-625.449	-82.563	-0.391	-0.128
-624.434	-188.909	-0.339	0.004
-623.419	-200.000	0.048	0.256
-622.405	-55.374	0.249	0.113
-621.390	-5.957	-0.368	-0.254
-620.376	331.119	0.139	0.270
-619.361	-145.808	-0.497	0.045
-618.346	793.715	0.042	-0.117
-617.332	46.483	-0.122	0.115
-616.317	7.016	-0.019	-0.014
-615.303	-200.000	-0.005	-0.166
-614.288	72.219	-0.071	-0.075
-613.273	-51.407	0.389	-0.183
-612.259	160.518	-0.145	-0.204
-611.244	-200.000	0.000	-0.153
-610.230	47.896	-0.125	0.118
-609.215	-200.000	0.007	-0.133
-608.201	477.482	0.018	0.041
-607.186	-200.000	0.036	-0.176
-606.171	-200.000	-0.009	-0.092
-605.157	132.873	-0.247	-0.322
-604.142	1.074	-0.245	-0.177
-603.128	-47.677	0.405	-0.198
-602.113	-154.612	0.115	0.008
-601.098	-10.228	-0.321	-0.215
-600.084	100.759	-0.145	-0.170
-599.069	-107.682	0.226	-0.050
-598.055	419.751	0.014	-0.030
-597.040	95.352	0.099	-0.114
-596.025	-113.284	-0.258	0.051
-595.011	23.131	0.094	-0.078
-593.996	110.716	-0.232	0.281
-592.982	219.571	-0.039	-0.063
-591.967	245.012	0.067	-0.113
-590.952	2.783	0.126	0.093
-589.938	-200.000	0.001	0.152
-588.923	-200.000	0.055	0.511
-587.909	82.988	0.066	0.072
-586.894	-84.030	0.136	-0.043
-585.879	684.803	0.111	0.292
-584.865	800.000	-0.041	0.151
-583.850	-44.833	-0.254	0.128
-582.836	23.296	-0.127	-0.105
-581.821	-34.028	-0.304	-0.169
-580.806	-138.695	-0.166	0.018
-579.792	150.944	-0.115	-0.158
-578.777	-30.373	0.213	-0.122
-577.763	620.016	0.118	0.299
-576.748	-174.138	-0.144	0.004
-575.733	390.989	0.096	-0.201
-574.719	-82.793	0.287	-0.093
-573.704	484.105	-0.123	-0.283
-572.690	32.771	0.090	0.079
-571.675	237.413	0.176	-0.294
-570.661	-130.554	0.351	0.048
-569.646	-120.458	0.400	-0.068
-568.631	-15.741	0.007	-0.005
-567.617	24.077	0.166	0.138
-566.602	62.245	0.104	-0.104
-565.588	-165.626	-0.254	-0.011
-564.573	98.134	-0.205	0.238
-563.558	131.148	-0.119	-0.154
-562.544	-91.075	-0.155	-0.045
-561.529	-104.410	-0.124	0.029
-560.515	800.000	0.072	0.293
-559.500	180.654	0.182	-0.269
-558.485	95.485	-0.077	-0.089
-557.471	-26.376	0.174	0.103
-556.456	800.000	-0.022	0.079
-555.442	-200.000	-0.004	-0.061
-554.427	235.361	-0.167	-0.277
-553.412	-142.327	0.399	-0.040
-552.398	-200.000	0.017	-0.240
-551.383	243.258	-0.141	0.239
-550.369	-43.440	0.165	0.084
-549.354	-7.225	-0.343	0.234
-548.339	-200.000	0.075	0.000
-547.325	-49.704	-0.127	0.061
-546.310	-200.000	-0.031	-0.159
-545.296	-153.117	0.390	-0.028
-544.281	-131.475	0.160	0.021
-543.266	-169.965	-0.173	0.006
-542.252	800.000	-0.065	-0.243
-541.237	-200.000	0.028	0.144
-540.223	7.918	-0.096	-0.072
-539.208	-59.902	-0.127	0.055
-538.193	-78.375	-0.063	0.022
-537.179	-91.291	-0.323	-0.093
-536.164	280.649	-0.098	0.176
-535.150	-4.369	-0.327	-0.228
-534.135	800.000	-0.088	-0.333
-533.121	-200.000	0.013	-0.197
-532.106	-137.694	-0.145	0.016
-531.091	800.000	-0.050	-0.154
-530.077	-200.000	0.027	0.133
-529.062	-110.468	0.234	0.049
-528.048	22.614	-0.272	-0.224
-527.033	-127.475	0.122	0.018
-526.018	-39.865	-0.025	0.013
-525.004	-200.000	0.002	-0.166
-523.989	-200.000	-0.004	-0.057
-522.975	-53.637	-0.214	0.098
-521.960	66.125	-0.174	0.178
-520.945	-127.761	-0.301	-0.044
-519.931	800.000	0.073	0.319
-518.916	-200.000	-0.035	0.319
-517.902	-32.366	-0.203	-0.114
-516.887	-11.507	0.279	-0.184
-515.872	-20.951	0.044	0.027
-514.858	2.583	0.109	0.080
-513.843	257.992	-0.053	0.092
-512.829	-115.231	-0.037	0.007
-511.814	-58.979	-0.268	0.117
-510.799	-87.785	-0.145	0.044
-509.785	191.524	-0.049	-0.075
-508.770	-101.278	0.250	0.061
-507.756	111.232	0.217	-0.263
-506.741	208.800	-0.070	-0.110
-505.726	-130.781	-0.237	-0.032
-504.712	-109.877	0.387	0.082
-503.697	-200.000	0.001	0.192
-502.683	-200.000	-0.014	0.168
-501.668	121.088	-0.093	0.116
-500.653	-87.912	-0.176	-0.053
-499.639	756.049	0.053	0.144
-498.624	349.715	0.049	-0.098
-497.610	-47.459	0.237	0.116
-496.595	-57.400	-0.276	-0.122
-495.581	-116.166	0.072	-0.013
-494.566	-109.716	0.165	-0.035
-493.551	800.000	-0.042	-0.146
-492.537	45.410	-0.121	-0.112
-491.522	-144.250	-0.352	-0.033
-490.508	149.462	-0.097	-0.132
-489.493	117.900	-0.113	0.140
-488.478	-4.028	0.114	-0.080
-487.464	20.720	0.028	0.022
-486.449	12.050	0.260	-0.201
-485.435	17.604	-0.318	0.254
-484.420	6.200	-0.191	0.143
-483.405	569.194	-0.052	0.126
-482.391	-57.007	0.273	-0.121
-481.376	800.000	0.045	-0.183
-480.362	-124.553	0.224	-0.035
-479.347	316.131	-0.104	0.197
-478.332	44.248	-0.176	0.162
-477.318	198.632	0.197	0.303
-476.303	-151.676	-0.346	0.026
-475.289	-40.104	-0.091	0.047
-474.274	-200.000	-0.016	0.212
-473.259	563.493	0.078	-0.189
-472.245	-41.336	0.068	-0.035
-471.230	-200.000	0.038	0.661
-470.216	510.003	0.062	-0.144
-469.201	-96.625	-0.046	-0.012
-468.186	-82.082	0.235	0.077
-467.172	-125.739	-0.419	-0.064
-466.157	800.000	-0.106	0.297
-465.143	105.203	0.108	0.127
-464.128	-138.778	0.110	0.012
-463.113	111.458	0.056	-0.068
-462.099	35.409	-0.052	0.046
-461.084	-41.546	0.155	0.080
-460.070	132.174	0.090	0.116
-459.055	-14.354	0.160	-0.103
-458.040	-62.632	0.194	0.081
-457.026	-41.715	0.109	-0.056
-456.011	164.894	-0.059	-0.084
-454.997	-82.331	0.212	0.069
-453.982	-158.359	-0.305	-0.018
-452.968	14.673	0.070	0.055
-451.953	-75.240	-0.326	-0.117
-450.938	-16.525	0.070	0.045
-449.924	155.209	0.120	0.166
-448.909	-97.732	-0.152	-0.039
-447.895	46.812	-0.040	-0.037
-446.880	-200.000	0.022	-0.333
-445.865	23.920	0.088	0.073
-444.851	-126.087	0.300	-0.045
-443.836	-200.000	0.032	0.265
-442.822	-43.572	-0.280	-0.142
-441.807	49.728	-0.122	0.115
-440.792	-200.000	0.018	0.117
-439.778	-200.000	-0.041	0.242
-438.763	800.000	-0.062	-0.247
-437.749	63.542	0.301	0.303
-436.734	800.000	0.062	-0.194
-435.719	610.709	0.033	0.082
-434.705	-98.593	-0.333	-0.085
-433.690	325.026	0.094	-0.180
-432.676	-72.756	0.043	0.016
-431.661	128.823	0.053	0.068
-430.646	173.205	0.101	0.146
-429.632	622.464	0.051	-0.129
-428.617	-105.980	0.155	-0.035
-427.603	-40.933	0.206	-0.107
-426.588	178.739	0.105	0.154
-425.573	-200.000	0.009	-0.096
-424.559	-200.000	-0.028	0.160
-423.544	-17.957	0.203	0.127
-422.530	210.371	-0.044	0.070
-421.515	-42.873	-0.097	-0.049
-420.500	-65.144	0.303	-0.123
-419.486	792.724	0.020	0.056
-418.471	142.799	0.181	0.241
-417.457	-162.036	-0.135	0.007
-416.442	-200.000	0.268	0.001
-415.428	-149.978	-0.106	0.008
-414.413	64.844	0.174	0.176
-413.398	175.547	0.169	-0.245
-412.384	315.018	0.172	0.326
-411.369	-127.469	0.042	0.006
-410.355	800.000	0.066	0.247
-409.340	-66.788	0.105	-0.042
-408.325	-163.292	-0.565	0.027
-407.311	58.075	0.149	-0.146
-406.296	-200.000	-0.040	0.251
-405.282	128.788	0.259	0.330
-404.267	514.935	-0.131	-0.307
-403.252	19.155	0.044	-0.036
-402.238	-66.592	-0.067	0.026
-401.223	-144.506	-0.358	-0.033
-400.209	227.199	-0.117	0.190
-399.194	192.301	-0.099	-0.150
-398.179	-200.000	0.056	0.245
-397.165	-11.727	-0.312	-0.205
-396.150	800.000	-0.053	0.176
-395.136	-94.120	0.070	0.019
-394.121	114.254	-0.037	0.045
-393.106	31.398	-0.122	0.105
-392.092	-90.508	-0.189	0.055
-391.077	-200.000	-0.048	0.329
-390.063	291.837	-0.036	-0.065
-389.048	800.000	-0.038	0.109
-388.033	322.892	0.090	-0.172
-387.019	-124.420	0.219	0.034
-386.004	-200.000	-0.021	-0.280
-384.990	-56.399	0.206	0.092
-383.975	-32.010	0.036	-0.020
-382.960	-200.000	0.103	0.550
-381.946	-60.696	-0.096	0.041
-380.931	404.239	-0.096	-0.202
-379.917	-83.901	-0.235	-0.075
-378.902	800.000	0.071	-0.292
-377.888	-52.519	-0.250	0.116
-376.873	-54.913	-0.214	0.097
-375.858	800.000	-0.011	0.036
-374.844	-109.940	-0.221	-0.046
-373.829	-200.000	0.072	-0.466
-372.815	-105.430	-0.184	-0.042
-371.800	800.000	-0.029	-0.099
-370.785	-72.280	-0.227	0.084
-369.771	308.185	-0.028	-0.052
-368.756	-177.065	-0.237	0.006
-367.742	401.892	-0.066	0.139
-366.727	82.029	-0.150	-0.163
-365.712	-200.000	0.024	-0.212
-364.698	88.121	0.080	-0.089
-363.683	-10.197	-0.202	0.134
-362.669	-112.361	0.224	-0.045
-361.654	-121.076	-0.483	-0.081
-360.639	-55.407	-0.202	0.091
-359.625	112.660	-0.242	0.293
-358.610	70.789	-0.224	0.232
-357.596	-28.887	0.314	0.181
-356.581	-95.154	0.200	-0.054
-355.566	-200.000	0.000	0.001
-354.552	-62.953	0.444	0.184
-353.537	60.402	0.222	-0.219
-352.523	-200.000	0.032	0.161
-351.508	497.744	-0.099	-0.228
-350.493	308.919	-0.044	0.082
-349.479	-12.471	0.160	-0.104
-348.464	-83.895	-0.095	0.030
-347.450	800.000	-0.050	-0.200
-346.435	238.592	-0.061	-0.102
-345.420	-57.897	-0.023	-0.010
-344.406	-200.000	-0.040	-0.299
-343.391	211.042	0.143	0.225
-342.377	800.000	-0.054	0.199
-341.362	-200.000	0.014	-0.146
-340.348	-147.513	0.283	0.024
-339.333	-107.468	-0.312	-0.068
-338.318	-122.069	-0.192	0.031
-337.304	-200.000	-0.002	-0.266
-336.289	-32.889	-0.153	0.085
-335.275	-8.075	-0.098	-0.066
-334.260	800.000	-0.024	0.104
-333.245	127.359	0.046	-0.058
-332.231	339.166	-0.124	0.241
-331.216	-115.972	-0.074	-0.014
-330.202	800.000	0.110	0.417
-329.187	-103.275	0.392	0.092
-328.172	-93.193	0.096	0.027
-327.158	129.584	-0.100	-0.127
-326.143	-10.037	0.257	-0.170
-325.129	-131.205	0.129	0.017
-324.114	-78.201	0.352	-0.121
-323.099	-36.289	0.136	-0.073
-322.085	186.887	-0.098	-0.146
-321.070	-170.682	-0.101	-0.003
-320.056	143.486	0.127	0.169
-319.041	298.031	-0.238	-0.437
-318.026	-73.968	0.091	0.033
-317.012	-200.000	0.009	0.111
-315.997	-144.510	-0.260	0.024
-314.983	25.284	-0.131	0.109
-313.968	-200.000	0.008	0.289
-312.953	61.107	0.145	-0.144
-311.939	120.906	0.064	0.079
-310.924	800.000	0.116	0.370
-309.910	800.000	-0.105	-0.402
-308.895	-41.103	0.087	0.045
-307.880	-32.460	-0.155	-0.086
-306.866	40.106	0.246	-0.220
-305.851	-200.000	-0.004	-0.035
-304.837	-200.000	0.001	-0.051
-303.822	-98.109	0.116	-0.030
-302.807	392.849	-0.105	0.219
-301.793	-135.625	0.248	0.029
-300.778	80.683	-0.104	0.112
-299.764	-82.256	-0.151	0.049
-298.749	-117.275	0.484	-0.088
-297.735	-42.741	-0.215	0.109
-296.720	-120.067	-0.233	-0.040
-295.705	-200.000	-0.027	0.192
-294.691	-36.590	0.162	-0.087
-293.676	485.298	-0.148	-0.337
-292.662	209.110	0.072	-0.113
-291.647	202.198	0.041	-0.064
-290.632	39.229	0.140	0.125
-289.618	-157.797	0.336	-0.020
-288.603	264.297	0.043	0.074
-287.589	-169.449	-0.162	-0.006
-286.574	159.800	-0.159	-0.221
-285.559	-27.783	0.138	-0.080
-284.545	304.186	0.094	0.175
-283.530	381.733	0.051	0.105
-282.516	-42.794	0.195	-0.099
-281.501	-119.922	0.090	-0.015
-280.486	-110.160	0.322	-0.067
-279.472	72.492	-0.355	-0.369
-278.457	-29.185	0.289	-0.165
-277.443	-90.436	0.165	0.048
-276.428	-153.558	0.177	-0.012
-275.413	319.758	-0.114	-0.216
-274.399	143.934	-0.268	-0.356
-273.384	-200.000	0.202	0.001
-272.370	-121.497	0.247	0.041
-271.355	97.308	0.082	0.093
-270.340	197.833	-0.043	-0.065
-269.326	-67.955	-0.253	-0.099
-268.311	-102.998	-0.204	0.048
-267.297	-159.254	0.098	0.005
-266.282	-200.000	0.019	0.137
-265.267	-200.000	0.004	0.146
-264.253	-200.000	0.009	0.369
-263.238	800.000	0.030	-0.098
-262.224	-117.765	0.537	0.096
-261.209	95.482	0.128	-0.145
-260.195	800.000	0.101	-0.377
-259.180	-62.549	0.123	0.051
-258.165	-200.000	-0.005	-0.200
-257.151	-200.000	0.022	0.485
-256.136	800.000	0.037	0.126
-255.122	-200.000	0.047	-0.226
-254.107	1.020	0.224	0.160
-253.092	-90.722	0.155	-0.044
-252.078	25.261	-0.102	-0.085
-251.063	11.182	-0.278	-0.211
-250.049	-9.900	-0.278	0.184
-249.034	-27.774	0.374	0.216
-248.019	-186.332	-0.223	0.003
-247.005	-31.490	0.217	0.121
-245.990	-117.232	-0.411	0.074
-244.976	407.489	-0.058	0.123
-243.961	515.184	-0.144	-0.334
-242.946	-200.000	-0.024	-0.107
-241.932	31.788	0.187	0.160
-240.917	263.849	-0.217	-0.376
-239.903	56.461	-0.101	0.098
-238.888	800.000	0.069	0.190
-237.873	-140.361	0.292	0.030
-236.859	-45.131	0.041	-0.020
-235.844	537.817	-0.118	0.279
-234.830	-123.781	-0.097	0.015
-233.815	66.744	0.289	0.292
-232.800	-200.000	0.033	-0.530
-231.786	-200.000	-0.009	0.134
-230.771	43.105	-0.217	-0.197
-229.757	800.000	-0.044	0.144
-228.742	-62.698	0.309	-0.127
-227.727	-102.275	0.269	0.064
-226.713	800.000	0.073	0.200
-225.698	-165.475	-0.326	-0.014
-224.684	556.960	-0.036	-0.087
-223.669	-33.174	0.176	-0.097
-222.655	64.549	-0.175	0.176
-221.640	304.133	-0.075	0.139
-220.625	800.000	-0.036	0.153
-219.611	3.253	0.129	0.093
-218.596	-200.000	0.062	-0.290
-217.582	276.695	0.148	0.261
-216.567	-21.906	-0.249	-0.150
-215.552	125.056	0.154	-0.193
-214.538	-114.476	0.540	0.103
-213.523	344.738	-0.024	0.046
-212.509	-109.833	0.254	0.053
-211.494	-9.458	-0.092	-0.061
-210.479	208.298	-0.172	-0.267
-209.465	61.784	0.057	-0.057
-208.450	-200.000	-0.034	0.354
-207.436	56.042	0.124	0.120
-206.421	15.253	0.294	0.229
-205.406	69.736	-0.236	-0.242
-204.392	-144.210	0.497	-0.046
-203.377	703.316	-0.085	-0.222
-202.363	-57.694	0.243	0.106
-201.348	18.050	-0.267	0.211
-200.333	-200.000	0.000	-0.124
-199.319	-41.129	-0.043	0.022
-198.304	-200.000	0.025	-0.276
-197.290	106.100	-0.152	-0.179
-196.275	207.183	-0.087	-0.134
-195.260	-71.178	0.177	-0.066
-194.246	253.009	-0.097	0.164
-193.231	549.980	0.196	-0.466
-192.217	-200.000	-0.016	-0.135
-191.202	-200.000	0.022	-0.215
-190.187	-97.867	0.143	0.037
-189.173	175.767	0.133	-0.191
-188.158	45.844	-0.069	-0.064
-187.144	-92.010	0.253	-0.071
-186.129	642.858	0.111	-0.280
-185.114	141.564	0.031	0.041
-184.100	23.234	-0.126	-0.103
-183.085	60.097	0.198	0.194
-182.071	-90.678	0.041	-0.012
-181.056	-35.552	0.241	-0.130
-180.042	800.000	-0.027	-0.110
-179.027	-53.481	-0.262	0.119
-178.012	71.398	0.142	0.147
-176.998	-147.059	-0.339	-0.029
-175.983	800.000	0.054	-0.186
-174.969	319.825	0.140	0.264
-173.954	-200.000	-0.046	0.308
-172.939	32.120	-0.208	-0.178
-171.925	60.790	-0.057	-0.056
-170.910	-200.000	0.001	0.198
-169.896	-193.814	-0.478	-0.004
-168.881	0.140	0.153	-0.108
-167.866	408.402	0.066	0.139
-166.852	800.000	0.031	0.117
-165.837	269.751	-0.169	0.295
-164.823	-2.827	0.191	-0.132
-163.808	136.319	-0.189	-0.245
-162.793	254.902	0.050	0.084
-161.779	5.600	0.078	-0.057
-160.764	323.791	-0.099	0.188
-159.750	-200.000	-0.007	0.143
-158.735	37.227	-0.157	-0.138
-157.720	34.486	0.112	-0.097
-156.706	361.919	-0.084	-0.168
-155.691	126.833	-0.148	0.186
-154.677	800.000	0.142	0.552
-153.662	-200.000	0.044	-0.238
-152.647	226.064	-0.269	0.433
-151.633	84.376	-0.058	0.063
-150.618	-200.000	0.036	0.289
-149.604	-195.211	0.120	0.001
-148.589	-200.000	-0.005	0.115
-147.574	-105.162	-0.069	0.016
-146.560	86.059	-0.204	-0.223
-145.545	-82.941	-0.279	-0.089
-144.531	299.713	0.039	-0.071
-143.516	265.243	0.141	0.244
-142.502	175.138	-0.076	0.109
-141.487	-39.625	0.056	0.029
-140.472	16.927	0.239	-0.187
-139.458	-4.015	-0.122	-0.084
-138.443	800.000	0.054	-0.212
-137.429	-89.909	-0.075	-0.022
-136.414	-116.251	-0.162	-0.030
-135.399	-200.000	-0.002	0.137
-134.385	800.000	-0.078	0.276
-133.370	-200.000	-0.001	0.190
-132.356	110.791	0.247	0.294
-131.341	-101.653	-0.128	0.031
-130.326	-200.000	-0.038	0.198
-129.312	142.296	-0.101	-0.133
-128.297	-76.055	-0.201	0.070
-127.283	1.360	0.622	0.443
-126.268	-127.120	-0.131	-0.019
-125.253	-184.914	0.085	-0.001
-124.239	-200.000	-0.034	-0.210
-123.224	-58.490	0.214	0.092
-122.210	-147.424	0.215	0.018
