DTS Sentinel unit serial number:	SN413079Multiplexer serial number:	ORYXHardware model number:	OX4-SRSoftware version number:	ORYX F/W v4.00 Oryx Data Collector v3.7.2.0data status	okinstallation	princeton_trtdifferential loss correction	single-endedforward channel	channel 4reverse channel	N/Adate	2019/09/12time	18:01:19forward acquisition time	15.00reverse acquisition time	0.00gamma	496.2192k internal	0.2309k external	0.2309temperature offset calibration	1.0131default loss term (dB/km)	0.3790temperature slope calibration	1.0000multiplexer offset coefficient	1.0000multiplexer slope coefficient	1.0000fibre end	0.00T internal ref (°C)	33.81T ext. ref 1 (°C)	2.91T ext. ref 2 (°C)	28.28length (m)	temperature (°C)	Stokes	anti-Stokes-747.200	248.091	-0.318	-0.547
-746.185	-155.176	-0.590	0.039
-745.171	-21.476	-0.524	-0.325
-744.156	-19.645	1.080	-0.679
-743.142	295.156	0.370	-0.687
-742.127	107.493	-0.271	0.328
-741.112	511.757	0.164	0.388
-740.098	-200.000	-0.047	0.399
-739.083	0.059	0.295	0.214
-738.069	800.000	0.217	0.824
-737.054	-75.680	0.757	0.273
-736.039	403.037	-0.484	-1.034
-735.025	307.358	0.474	0.897
-734.010	227.408	-0.215	-0.355
-732.996	800.000	-0.094	-0.297
-731.981	477.081	-0.289	-0.663
-730.966	800.000	0.360	-1.048
-729.952	800.000	-0.043	0.152
-728.937	-148.047	0.596	0.050
-727.923	800.000	-0.198	-0.594
-726.908	-75.161	0.660	0.240
-725.894	209.551	-0.253	0.402
-724.879	800.000	-0.091	0.384
-723.864	298.406	-0.330	0.615
-722.850	76.474	0.461	-0.496
-721.835	99.276	-0.328	-0.384
-720.821	800.000	0.149	0.506
-719.806	175.821	-0.682	1.004
-718.791	-153.175	-0.221	-0.016
-717.777	-144.726	0.254	-0.024
-716.762	-65.586	0.530	-0.216
-715.748	-37.388	-0.469	0.254
-714.733	295.694	-0.601	-1.118
-713.718	-41.716	0.275	0.143
-712.704	-200.000	0.042	-0.433
-711.689	800.000	-0.329	-0.935
-710.675	-30.670	-0.167	-0.096
-709.660	-200.000	0.065	-0.311
-708.645	-81.307	0.361	0.121
-707.631	800.000	-0.153	-0.636
-706.616	-191.753	1.128	-0.011
-705.602	11.992	0.508	0.396
-704.587	-56.621	0.047	-0.021
-703.572	-97.625	0.435	0.114
-702.558	404.153	0.128	-0.274
-701.543	-115.319	0.478	-0.092
-700.529	-200.000	0.032	0.439
-699.514	-114.972	-0.546	-0.105
-698.499	-68.115	-0.172	-0.068
-697.485	289.838	-0.207	0.381
-696.470	51.457	-0.296	-0.285
-695.456	667.498	-0.269	-0.707
-694.441	111.247	0.137	0.167
-693.426	91.365	-0.201	0.229
-692.412	-3.548	-0.513	0.362
-691.397	-200.000	0.017	0.177
-690.383	521.263	-0.292	0.694
-689.368	-62.878	0.880	-0.369
-688.354	26.970	-0.682	-0.580
-687.339	-200.000	0.064	-0.751
-686.324	545.614	0.204	-0.495
-685.310	-91.380	0.874	-0.253
-684.295	222.523	0.261	-0.427
-683.281	-200.000	-0.021	0.233
-682.266	-42.574	-0.600	-0.310
-681.251	-200.000	-0.095	-0.771
-680.237	52.188	-0.460	0.445
-679.222	66.955	0.040	0.041
-678.208	108.593	-0.394	0.477
-677.193	-159.012	-0.540	0.031
-676.178	411.292	0.295	-0.635
-675.164	-43.723	-0.315	-0.161
-674.149	395.448	-0.448	0.947
-673.135	219.940	0.082	0.133
-672.120	-7.625	-0.613	-0.420
-671.105	-69.175	-0.746	-0.291
-670.091	52.483	0.199	-0.193
-669.076	-200.000	-0.206	-0.933
-668.062	255.477	0.282	0.490
-667.047	74.226	0.425	-0.452
-666.032	-108.755	-0.708	-0.154
-665.018	-200.000	-0.038	-0.477
-664.003	-194.446	0.765	0.006
-662.989	-58.039	-0.888	0.393
-661.974	-200.000	0.048	0.238
-660.959	-25.636	-0.510	-0.305
-659.945	489.415	0.111	0.256
-658.930	55.776	0.088	0.087
-657.916	-200.000	-0.098	0.794
-656.901	-200.000	-0.036	0.226
-655.886	-63.198	-0.448	-0.187
-654.872	-116.915	-0.299	-0.055
-653.857	300.921	-0.246	0.461
-652.843	664.004	0.110	0.287
-651.828	131.460	0.185	-0.240
-650.814	-119.101	-1.057	0.187
-649.799	800.000	-0.254	0.945
-648.784	-56.132	0.098	-0.044
-647.770	-200.000	0.019	0.235
-646.755	255.025	-0.127	0.219
-645.741	389.982	-0.045	0.094
-644.726	-143.818	-0.885	-0.085
-643.711	46.230	-0.262	0.246
-642.697	68.775	0.837	0.870
-641.682	-75.818	-0.424	-0.152
-640.668	120.119	-0.254	-0.319
-639.653	32.968	-0.676	-0.593
-638.638	793.006	0.137	0.381
-637.624	-4.977	-0.112	0.078
-636.609	32.800	-0.209	-0.183
-635.595	-41.955	-0.199	0.103
-634.580	12.355	0.688	0.536
-633.565	-28.928	-0.306	-0.178
-632.551	-66.670	-0.623	0.250
-631.536	-200.000	-0.079	-0.418
-630.522	-38.223	0.555	-0.297
-629.507	-69.322	0.343	-0.133
-628.492	-200.000	0.084	0.765
-627.478	-200.000	0.030	-0.505
-626.463	800.000	0.200	-0.831
-625.449	-107.841	1.273	0.280
-624.434	297.395	0.286	0.532
-623.419	-132.433	0.299	-0.039
-622.405	-5.068	0.071	-0.049
-621.390	74.943	0.186	0.198
-620.376	-42.468	0.488	-0.252
-619.361	-136.015	-0.394	0.047
-618.346	181.870	0.387	0.576
-617.332	-31.728	-0.489	0.277
-616.317	-15.500	-0.362	0.234
-615.303	-200.000	0.108	-0.566
-614.288	172.566	-0.267	-0.388
-613.273	-200.000	-0.106	0.524
-612.259	278.950	-0.175	0.316
-611.244	-99.647	-0.153	-0.039
-610.230	541.771	-0.231	-0.557
-609.215	251.382	-0.046	0.080
-608.201	-17.735	0.401	0.254
-607.186	72.790	0.160	-0.169
-606.171	780.277	-0.337	-0.932
-605.157	418.977	0.266	-0.576
-604.142	-5.982	-0.179	0.124
-603.128	-177.480	-0.904	0.022
-602.113	178.013	-0.148	-0.218
-601.098	21.108	0.173	0.142
-600.084	84.003	-0.485	-0.536
-599.069	226.354	-0.208	0.342
-598.055	152.327	-0.139	0.191
-597.040	-68.978	-0.055	-0.021
-596.025	-136.076	0.757	0.090
-595.011	800.000	0.127	-0.443
-593.996	355.136	-0.053	-0.107
-592.982	800.000	0.224	0.645
-591.967	-151.803	-0.814	0.060
-590.952	-200.000	-0.004	-0.220
-589.938	37.950	-0.179	0.161
-588.923	100.001	-0.281	0.329
-587.909	-182.750	-0.185	0.003
-586.894	8.485	0.368	0.280
-585.879	-75.049	0.322	-0.117
-584.865	-81.915	0.582	0.192
-583.850	-66.987	-0.645	0.257
-582.836	43.493	-0.124	-0.115
-581.821	425.994	-0.230	0.500
-580.806	6.276	0.449	-0.336
-579.792	800.000	-0.122	0.413
-578.777	10.276	-0.774	0.594
-577.763	758.191	-0.102	0.279
-576.748	-200.000	-0.052	0.491
-575.733	109.662	-0.332	0.402
-574.719	659.163	0.179	-0.466
-573.704	-200.000	0.030	0.341
-572.690	-77.160	0.373	-0.131
-571.675	800.000	0.224	-0.971
-570.661	800.000	-0.173	-0.483
-569.646	410.158	-0.212	0.454
-568.631	-71.910	-0.336	-0.126
-567.617	800.000	0.050	-0.176
-566.602	-128.311	-0.139	-0.020
-565.588	742.987	0.140	0.380
-564.573	226.847	-0.439	-0.719
-563.558	-200.000	0.004	-0.638
-562.544	800.000	-0.038	-0.114
-561.529	-200.000	-0.042	-0.560
-560.515	-189.054	0.251	-0.003
-559.500	-200.000	-0.020	0.877
-558.485	-130.139	0.695	-0.096
-557.471	-134.613	-0.609	-0.075
-556.456	-200.000	-0.037	0.704
-555.442	45.425	0.681	-0.634
-554.427	-73.558	1.294	0.476
-553.412	251.120	-0.207	0.355
-552.398	524.932	-0.069	0.164
-551.383	-83.634	0.628	0.203
-550.369	-117.693	0.540	-0.098
-549.354	423.583	-0.433	-0.938
-548.339	394.200	-0.190	-0.399
-547.325	385.787	0.225	-0.468
-546.310	-64.642	1.347	0.551
-545.296	-28.695	-0.484	-0.281
-544.281	-169.261	-0.382	0.014
-543.266	-147.189	0.324	-0.028
-542.252	26.206	0.280	-0.235
-541.237	640.531	-0.270	-0.694
-540.223	54.733	0.338	-0.329
-539.208	-200.000	-0.040	0.448
-538.193	-1.885	-0.806	-0.572
-537.179	4.863	0.671	-0.498
-536.164	-120.921	1.252	-0.212
-535.150	-200.000	0.054	-0.266
-534.135	-7.635	0.769	-0.524
-533.121	278.038	0.343	-0.615
-532.106	-200.000	0.004	-0.041
-531.091	421.383	0.297	-0.642
-530.077	-200.000	-0.018	0.229
-529.062	800.000	0.066	0.238
-528.048	800.000	-0.099	0.414
-527.033	-105.669	0.392	0.090
-526.018	-15.934	0.229	0.147
-525.004	46.033	-0.345	-0.321
-523.989	-148.104	0.434	0.036
-522.975	-200.000	0.035	0.223
-521.960	786.822	-0.139	0.384
-520.945	-80.369	0.290	0.097
-519.931	-200.000	-0.027	-0.591
-518.916	800.000	-0.320	-1.346
-517.902	800.000	0.158	0.691
-516.887	169.534	-0.356	0.512
-515.872	-52.153	-0.607	-0.283
-514.858	-200.000	0.004	0.415
-513.843	-200.000	-0.057	0.344
-512.829	-200.000	0.089	0.519
-511.814	-52.543	-0.710	0.330
-510.799	800.000	0.100	0.289
-509.785	-138.993	-0.452	0.049
-508.770	-200.000	-0.035	0.245
-507.756	800.000	-0.093	0.391
-506.741	-104.009	0.611	-0.143
-505.726	321.121	0.329	-0.630
-504.712	-30.841	-0.034	-0.019
-503.697	-66.364	0.485	-0.194
-502.683	-200.000	0.067	0.528
-501.668	-156.721	0.601	-0.037
-500.653	-90.344	0.675	0.197
-499.639	488.781	0.519	1.192
-498.624	800.000	0.154	0.486
-497.610	-200.000	-0.119	0.767
-496.595	148.195	-0.428	-0.581
-495.581	-200.000	0.128	0.909
-494.566	-121.781	-0.191	0.032
-493.551	-114.239	0.813	-0.158
-492.537	22.242	0.350	0.288
-491.522	30.034	-0.630	0.540
-490.508	-51.148	-0.813	-0.383
-489.493	-12.023	-0.198	-0.131
-488.478	-145.841	-0.714	-0.064
-487.464	-61.673	0.149	-0.063
-486.449	-200.000	-0.062	-0.580
-485.435	800.000	-0.009	-0.035
-484.420	800.000	-0.088	0.301
-483.405	-155.497	0.305	0.020
-482.391	-200.000	-0.030	0.353
-481.376	123.126	0.528	-0.665
-480.362	-200.000	0.002	-0.019
-479.347	81.510	-0.181	-0.197
-478.332	14.577	-0.083	-0.065
-477.318	183.071	0.508	-0.755
-476.303	-59.616	-0.332	0.143
-475.289	-200.000	-0.083	0.451
-474.274	79.949	0.316	-0.342
-473.259	98.366	0.274	-0.318
-472.245	441.952	0.498	-1.096
-471.230	-123.143	0.224	-0.036
-470.216	-199.104	-0.177	-0.001
-469.201	-200.000	-0.006	-0.195
-468.186	-177.706	-0.466	-0.011
-467.172	223.981	-0.442	-0.717
-466.157	-1.481	-0.620	0.439
-465.143	140.665	-0.384	-0.510
-464.128	-142.309	0.463	0.046
-463.113	-127.361	-0.741	-0.108
-462.099	500.616	0.365	0.847
-461.084	-94.386	-0.535	0.147
-460.070	185.451	0.243	0.363
-459.055	-26.162	0.491	-0.290
-458.040	139.687	0.119	-0.158
-457.026	-96.352	-0.513	-0.136
-456.011	800.000	0.104	-0.414
-454.997	-35.618	-0.501	-0.273
-453.982	-4.984	0.317	0.220
-452.968	258.217	0.114	-0.198
-451.953	46.830	0.383	-0.357
-450.938	-59.155	0.313	0.135
-449.924	515.192	-0.194	-0.455
-448.909	-119.729	-0.591	0.102
-447.895	143.279	0.740	0.989
-446.880	-174.856	0.991	-0.028
-445.865	-136.311	0.553	-0.065
-444.851	199.696	0.513	0.791
-443.836	81.794	-0.235	0.256
-442.822	-200.000	0.021	0.206
-441.807	-102.203	-0.181	0.044
-440.792	-30.913	-0.964	0.547
-439.778	-138.914	0.518	-0.057
-438.763	338.380	-0.120	0.235
-437.749	122.311	0.229	-0.287
-436.734	-200.000	-0.063	-0.927
-435.719	-200.000	0.003	-0.553
-434.705	-68.908	0.118	0.046
-433.690	-56.258	0.628	0.280
-432.676	-65.782	0.419	-0.168
-431.661	-106.945	-0.301	-0.067
-430.646	358.563	-0.094	-0.189
-429.632	-90.626	-0.096	0.028
-428.617	60.512	0.926	-0.921
-427.603	-85.699	-0.584	-0.182
-426.588	225.973	-0.461	0.750
-425.573	-200.000	0.091	0.566
-424.559	-41.534	0.300	0.155
-423.544	119.390	0.374	0.465
-422.530	-44.728	-0.386	-0.193
-421.515	-16.710	-0.823	-0.523
-420.500	336.812	0.187	-0.364
-419.486	-60.156	-0.152	-0.065
-418.471	-69.827	-0.610	0.233
-417.457	-200.000	-0.065	-0.590
-416.442	800.000	0.105	-0.328
-415.428	800.000	0.056	-0.170
-414.413	-200.000	-0.076	-0.640
-413.398	-16.966	-1.252	-0.793
-412.384	-200.000	0.082	-0.652
-411.369	402.370	-0.412	0.869
-410.355	-200.000	-0.073	0.322
-409.340	-200.000	-0.013	-0.246
-408.325	-200.000	-0.011	0.057
-407.311	77.098	0.200	0.213
-406.296	-118.057	0.181	-0.032
-405.282	57.102	-0.143	-0.140
-404.267	143.282	0.439	0.585
-403.252	55.462	-0.417	-0.405
-402.238	800.000	0.191	0.643
-401.223	177.571	0.081	0.118
-400.209	-200.000	-0.089	-0.741
-399.194	-128.017	-0.809	-0.116
-398.179	800.000	0.031	-0.136
-397.165	63.232	-0.529	0.532
-396.150	800.000	0.233	-0.876
-395.136	-49.221	0.109	0.052
-394.121	-200.000	-0.052	-0.331
-393.106	-60.699	0.467	0.199
-392.092	-1.939	0.162	0.114
-391.077	0.611	-0.692	0.496
-390.063	800.000	0.130	0.461
-389.048	0.448	0.785	-0.562
-388.033	-200.000	-0.032	-0.215
-387.019	-10.708	-0.537	-0.356
-386.004	-71.551	0.352	0.132
-384.990	57.338	0.257	0.252
-383.975	-200.000	0.273	1.514
-382.960	33.675	-0.303	0.264
-381.946	-131.741	-0.793	0.104
-380.931	-35.037	0.429	0.234
-379.917	-37.558	-0.520	0.278
-378.902	224.272	-0.346	-0.560
-377.888	60.386	-0.307	-0.304
-376.873	-119.644	0.404	0.070
-375.858	-200.000	-0.142	-0.868
-374.844	-64.038	0.421	-0.172
-373.829	44.749	0.552	0.509
-372.815	239.349	0.875	-1.458
-371.800	-200.000	-0.289	-1.410
-370.785	-200.000	0.013	0.158
-369.771	-182.510	0.434	0.008
-368.756	495.358	0.095	-0.218
-367.742	52.425	0.713	0.681
-366.727	-12.363	-0.690	0.452
-365.712	-109.023	0.531	-0.113
-364.698	340.111	0.067	-0.131
-363.683	-200.000	0.016	-0.196
-362.669	33.458	-0.254	0.221
-361.654	-18.083	-0.156	-0.098
-360.639	-91.709	-0.210	-0.060
-359.625	-60.958	0.502	0.213
-358.610	111.107	-0.393	0.473
-357.596	-71.537	0.285	0.106
-356.581	-200.000	-0.104	-0.633
-355.566	574.884	0.074	0.181
-354.552	56.772	0.530	0.517
-353.537	242.110	-0.181	-0.303
-352.523	32.047	0.424	0.366
-351.508	-103.445	-0.462	0.109
-350.493	-200.000	-0.069	0.361
-349.479	-147.046	-0.502	-0.043
-348.464	-41.657	0.235	0.121
-347.450	677.392	-0.148	-0.385
-346.435	-200.000	-0.099	-0.649
-345.420	-34.386	0.480	0.263
-344.406	530.993	-0.095	-0.223
-343.391	800.000	0.032	-0.117
-342.377	-69.313	0.329	0.126
-341.362	130.896	0.388	-0.498
-340.348	-83.466	-0.417	0.134
-339.333	-60.155	0.876	0.374
-338.318	-88.960	0.506	0.150
-337.304	591.847	-0.284	-0.701
-336.289	31.087	0.474	-0.406
-335.275	-170.374	-0.443	-0.016
-334.260	-200.000	-0.054	0.889
-333.245	800.000	0.215	0.883
-332.231	56.956	-0.621	-0.605
-331.216	-172.558	0.949	0.030
-330.202	-200.000	-0.004	0.371
-329.187	614.635	-0.279	-0.698
-328.172	800.000	-0.248	-0.690
-327.158	176.223	0.283	0.411
-326.143	262.054	0.273	-0.473
-325.129	-84.924	-0.420	0.132
-324.114	-46.531	0.542	0.266
-323.099	217.973	-0.202	0.322
-322.085	144.158	0.568	0.757
-321.070	-108.597	0.341	-0.073
-320.056	-200.000	0.122	0.693
-319.041	-72.878	-0.521	0.192
-318.026	-86.571	-0.399	0.122
-317.012	608.472	0.086	0.215
-315.997	160.229	0.548	-0.764
-314.983	624.825	0.229	-0.576
-313.968	562.342	-0.088	-0.214
-312.953	45.976	0.387	-0.358
-311.939	-58.329	0.464	-0.202
-310.924	800.000	-0.034	-0.119
-309.910	-24.959	-0.758	-0.449
-308.895	800.000	0.030	0.100
-307.880	345.172	0.103	0.202
-306.866	-200.000	-0.100	0.541
-305.851	-89.956	-0.530	-0.154
-304.837	-72.983	-1.058	-0.388
-303.822	-200.000	0.161	-1.279
-302.807	-94.098	0.185	-0.051
-301.793	-41.550	0.887	-0.456
-300.778	159.469	-0.950	-1.320
-299.764	-147.805	-0.133	0.011
-298.749	-131.542	-0.800	0.105
-297.735	-200.000	0.082	0.834
-296.720	162.649	0.475	0.665
-295.705	-200.000	-0.046	0.491
-294.691	800.000	-0.173	-0.571
-293.676	221.260	-0.263	-0.422
-292.662	-4.103	-0.438	0.303
-291.647	173.208	0.243	-0.349
-290.632	-132.284	0.272	0.035
-289.618	-149.698	0.645	0.051
-288.603	-52.555	0.126	0.058
-287.589	-169.244	-0.596	0.022
-286.574	800.000	-0.068	0.205
-285.559	215.325	-0.106	0.169
-284.545	800.000	0.193	-0.651
-283.530	8.125	0.311	-0.233
-282.516	-58.615	-0.455	-0.197
-281.501	-112.785	-0.552	-0.109
-280.486	-114.672	-0.601	-0.115
-279.472	223.641	-0.251	-0.404
-278.457	-200.000	-0.011	-0.401
-277.443	-200.000	-0.067	-0.440
-276.428	383.501	0.555	-1.140
-275.413	-200.000	-0.023	-0.155
-274.399	-200.000	0.082	0.694
-273.384	203.621	-0.425	-0.657
-272.370	260.406	-0.414	-0.714
-271.355	19.969	-0.449	0.361
-270.340	-154.987	0.703	0.046
-269.326	-147.867	-0.406	-0.034
-268.311	-200.000	0.032	-0.203
-267.297	-25.163	0.323	0.191
-266.282	-89.968	1.285	-0.374
-265.267	181.151	0.353	-0.517
-264.253	230.829	-0.421	0.688
-263.238	-165.099	-0.163	-0.007
-262.224	128.951	-0.091	0.116
-261.209	240.193	-0.240	-0.399
-260.195	16.623	-0.350	-0.276
-259.180	-157.158	-0.851	-0.052
-258.165	-27.322	0.106	0.061
-257.151	281.053	-0.431	0.769
-256.136	-66.177	0.709	0.282
-255.122	-74.996	-0.589	0.210
-254.107	-200.000	-0.045	0.287
-253.092	-57.116	-0.360	-0.158
-252.078	70.584	0.605	-0.623
-251.063	-49.198	0.420	0.200
-250.049	-88.095	-0.776	-0.232
-249.034	69.886	0.526	0.540
-248.019	158.725	-0.296	0.409
-247.005	397.847	0.435	-0.906
-245.990	205.535	0.329	0.510
-244.976	-200.000	-0.251	1.229
-243.961	42.163	0.166	0.150
-242.946	47.692	-0.244	0.227
-241.932	-70.494	-1.222	0.461
-240.917	-200.000	-0.026	0.301
-239.903	666.776	0.012	-0.032
-238.888	-134.091	-0.939	-0.116
-237.873	97.936	0.045	0.051
-236.859	97.499	-0.398	0.455
-235.844	589.481	0.190	-0.467
-234.830	-78.655	-0.430	0.146
-233.815	-140.115	-0.645	-0.068
-232.800	143.513	-0.275	0.365
-231.786	-200.000	-0.025	0.713
-230.771	34.176	0.317	-0.276
-229.757	-165.920	0.594	-0.025
-228.742	800.000	-0.209	0.878
-227.727	-200.000	-0.077	0.890
-226.713	-72.780	0.317	-0.116
-225.698	-44.194	-0.497	0.248
-224.684	-133.305	0.506	-0.063
-223.669	20.049	-0.217	0.175
-222.655	27.295	-0.142	0.119
-221.640	-70.951	-0.218	-0.082
-220.625	-200.000	-0.126	0.624
-219.611	-29.712	-0.191	0.109
-218.596	-200.000	0.087	0.440
-217.582	-70.832	-0.482	0.181
-216.567	140.818	0.457	0.601
-215.552	-93.645	-0.168	0.046
-214.538	-24.324	-0.624	-0.371
-213.523	-62.864	0.153	-0.063
-212.509	684.063	0.202	-0.525
-211.494	-85.063	0.232	-0.072
-210.479	-200.000	0.030	-0.444
-209.465	-165.109	-0.653	0.029
-208.450	61.006	0.550	0.543
-207.436	32.252	-0.619	-0.532
-206.421	-95.756	0.318	0.085
-205.406	-200.000	0.051	-0.309
-204.392	800.000	-0.123	-0.442
-203.377	800.000	-0.107	-0.388
-202.363	105.750	0.284	-0.335
-201.348	-76.141	-0.509	-0.179
-200.333	-200.000	-0.191	1.013
-199.319	165.498	0.228	0.320
-198.304	-96.139	0.529	0.140
-197.290	414.664	-0.263	0.556
-196.275	63.229	-0.610	-0.608
-195.260	-200.000	0.007	-0.712
-194.246	95.775	-0.170	0.193
-193.231	115.470	0.399	0.485
-192.217	96.328	-0.083	0.094
-191.202	-71.743	-1.091	-0.405
-190.187	-200.000	0.042	-0.243
-189.173	557.974	-0.375	0.900
-188.158	62.304	0.314	-0.312
-187.144	2.578	-0.426	-0.307
-186.129	-200.000	0.024	0.354
-185.114	-155.268	0.535	0.035
-184.100	-90.267	0.754	0.218
-183.085	414.500	-0.088	0.187
-182.071	-134.078	0.908	-0.112
-181.056	229.873	0.170	0.277
-180.042	324.946	0.139	0.265
-179.027	144.454	-0.271	0.360
-178.012	-73.995	-0.424	-0.153
-176.998	-180.708	0.501	-0.010
-175.983	-200.000	0.022	-0.194
-174.969	-77.682	0.236	-0.081
-173.954	112.726	0.450	0.541
-172.939	-117.070	0.567	0.103
-171.925	252.655	0.229	0.388
-170.910	56.070	0.292	0.281
-169.896	-111.736	0.360	0.072
-168.881	800.000	0.184	0.518
-167.866	175.712	-0.072	0.104
-166.852	-200.000	-0.075	-0.551
-165.837	-18.133	-0.429	-0.267
-164.823	-169.635	-0.083	0.003
-163.808	-200.000	0.042	0.199
-162.793	53.958	0.211	-0.201
-161.779	223.332	0.360	-0.577
-160.764	186.699	-0.401	0.593
-159.750	17.208	0.385	0.303
-158.735	-82.260	-0.183	-0.059
-157.720	800.000	-0.156	0.467
-156.706	-200.000	0.014	0.501
-155.691	-136.688	-0.205	-0.023
-154.677	-33.944	-1.015	0.555
-153.662	-199.214	0.771	-0.004
-152.647	-160.543	-0.680	0.036
-151.633	-52.545	-0.231	-0.106
-150.618	128.696	-0.131	-0.165
-149.604	210.419	-0.353	0.551
-148.589	90.708	0.339	-0.377
-147.574	-96.447	-0.315	0.083
-146.560	-95.023	0.285	0.076
-145.545	-1.830	0.074	0.052
-144.531	-200.000	0.082	-0.451
-143.516	-112.339	0.175	0.035
-142.502	-117.070	-0.352	0.064
-141.487	450.822	-0.121	0.266
-140.472	-22.994	-0.167	0.100
-139.458	-16.579	-0.301	0.189
-138.443	99.883	-0.291	0.334
-137.429	-32.183	0.847	-0.470
-136.414	-200.000	-0.050	0.455
-135.399	314.895	0.207	-0.387
-134.385	8.016	-0.442	0.329
-133.370	800.000	-0.339	-0.973
-132.356	95.155	-0.643	0.726
-131.341	76.209	-0.327	-0.343
-130.326	-102.615	-1.069	0.253
-129.312	-9.717	-0.452	-0.299
-128.297	800.000	-0.183	-0.545
-127.283	-126.023	-0.602	-0.090
-126.268	-200.000	-0.064	0.281
-125.253	129.758	0.170	-0.215
-124.239	-27.519	-0.396	0.229
-123.224	-200.000	0.115	-0.605
-122.210	7.253	-0.262	0.194
