DTS Sentinel unit serial number:	SN413079Multiplexer serial number:	ORYXHardware model number:	OX4-SRSoftware version number:	ORYX F/W v4.00 Oryx Data Collector v3.7.2.0data status	okinstallation	princeton_trtdifferential loss correction	single-endedforward channel	channel 4reverse channel	N/Adate	2019/09/17time	04:09:35forward acquisition time	60.00reverse acquisition time	0.00gamma	496.2192k internal	0.2311k external	0.2311temperature offset calibration	0.9975default loss term (dB/km)	0.3790temperature slope calibration	1.0000multiplexer offset coefficient	1.0000multiplexer slope coefficient	1.0000fibre end	0.00T internal ref (°C)	29.84T ext. ref 1 (°C)	0.12T ext. ref 2 (°C)	24.32length (m)	temperature (°C)	Stokes	anti-Stokes-747.200	47.591	-0.199	-0.189
-746.185	97.925	-0.207	0.242
-745.171	-128.944	0.303	-0.043
-744.156	36.766	-0.156	0.140
-743.142	800.000	0.059	-0.191
-742.127	800.000	-0.061	-0.191
-741.112	-148.364	-0.304	-0.025
-740.098	-128.139	-0.055	-0.008
-739.083	-200.000	-0.076	0.415
-738.069	-44.072	0.115	0.059
-737.054	-200.000	0.022	0.324
-736.039	692.459	0.107	-0.286
-735.025	-120.542	0.332	-0.057
-734.010	-171.063	-0.240	0.008
-732.996	-58.187	-0.289	0.128
-731.981	214.904	-0.191	-0.306
-730.966	720.056	0.054	-0.146
-729.952	12.522	-0.196	0.153
-728.937	-70.376	0.106	0.041
-727.923	-92.270	0.012	-0.003
-726.908	76.169	-0.126	-0.135
-725.894	-200.000	-0.090	-0.495
-724.879	421.782	0.083	-0.181
-723.864	-200.000	0.015	0.104
-722.850	-21.572	0.116	-0.072
-721.835	800.000	-0.045	0.131
-720.821	-67.123	0.169	0.068
-719.806	402.319	-0.213	-0.453
-718.791	214.140	-0.069	-0.112
-717.777	16.038	0.169	-0.135
-716.762	-60.147	0.214	-0.092
-715.748	-37.278	-0.198	-0.107
-714.733	224.996	0.127	0.209
-713.718	800.000	0.006	0.018
-712.704	-124.928	-0.140	-0.022
-711.689	506.542	0.074	0.174
-710.675	-66.894	-0.461	0.185
-709.660	9.280	0.198	-0.152
-708.645	-46.092	-0.367	-0.183
-707.631	-110.673	0.226	0.047
-706.616	-200.000	0.027	-0.174
-705.602	800.000	-0.077	-0.246
-704.587	-108.262	0.179	0.039
-703.572	641.445	-0.037	0.096
-702.558	315.693	-0.073	-0.139
-701.543	22.376	0.332	-0.275
-700.529	207.845	0.242	-0.383
-699.514	48.738	-0.169	0.160
-698.499	-200.000	-0.069	0.364
-697.485	800.000	-0.025	-0.093
-696.470	-4.580	0.200	0.140
-695.456	-109.035	-0.147	-0.032
-694.441	103.849	-0.138	-0.164
-693.426	-111.175	-0.227	0.047
-692.412	-135.430	-0.189	0.023
-691.397	21.282	0.136	-0.112
-690.383	-200.000	-0.024	0.142
-689.368	63.236	-0.028	-0.028
-688.354	-80.759	0.108	0.036
-687.339	-65.550	0.140	0.057
-686.324	-200.000	0.000	0.121
-685.310	199.787	-0.118	-0.184
-684.295	800.000	-0.096	0.304
-683.281	4.068	-0.110	-0.081
-682.266	140.620	-0.079	0.105
-681.251	-18.310	0.226	-0.143
-680.237	-98.856	0.119	0.031
-679.222	-85.449	0.124	-0.039
-678.208	-86.201	-0.401	0.125
-677.193	65.887	-0.098	0.100
-676.178	-78.214	0.124	-0.043
-675.164	788.067	-0.044	0.122
-674.149	74.770	-0.103	-0.110
-673.135	-169.222	-0.223	-0.008
-672.120	-167.827	-0.280	-0.011
-671.105	-63.255	-0.201	-0.084
-670.091	22.444	-0.211	-0.175
-669.076	-36.662	0.141	-0.077
-668.062	-200.000	-0.008	-0.243
-667.047	-53.055	-0.168	-0.078
-666.032	-12.072	-0.167	0.110
-665.018	73.074	0.096	0.101
-664.003	430.953	0.120	0.262
-662.989	-44.569	0.372	0.188
-661.974	-200.000	0.003	-0.182
-660.959	-78.195	-0.346	0.120
-659.945	348.444	0.041	-0.081
-658.930	44.276	0.129	-0.120
-657.916	-200.000	-0.028	-0.195
-656.901	-168.998	0.293	0.011
-655.886	2.885	-0.190	-0.140
-654.872	116.494	-0.293	0.363
-653.857	-94.837	-0.183	-0.050
-652.843	-160.503	-0.346	-0.019
-651.828	-31.301	-0.192	0.109
-650.814	774.546	-0.127	-0.350
-649.799	-65.315	-0.147	-0.060
-648.784	339.592	-0.098	0.194
-647.770	87.280	0.124	-0.139
-646.755	709.033	0.159	-0.425
-645.741	800.000	0.039	-0.152
-644.726	-200.000	-0.003	0.237
-643.711	-129.977	0.196	0.027
-642.697	-200.000	-0.006	-0.085
-641.682	-200.000	-0.033	0.375
-640.668	-200.000	-0.004	-0.080
-639.653	89.078	0.073	0.082
-638.638	776.075	0.059	0.162
-637.624	-67.147	0.109	-0.043
-636.609	-174.065	-0.106	-0.003
-635.595	241.163	-0.043	-0.072
-634.580	195.128	-0.037	0.057
-633.565	-149.294	-0.075	0.006
-632.551	311.224	-0.125	0.236
-631.536	23.138	-0.244	0.203
-630.522	-200.000	0.021	-0.166
-629.507	224.462	-0.107	-0.175
-628.492	-178.480	0.204	-0.005
-627.478	-200.000	0.005	-0.154
-626.463	43.328	0.174	-0.161
-625.449	-200.000	0.090	-0.413
-624.434	-200.000	-0.018	-0.118
-623.419	-169.310	-0.336	-0.012
-622.405	-80.100	-0.291	-0.099
-621.390	40.081	0.158	-0.143
-620.376	-200.000	0.020	0.312
-619.361	-81.122	-0.149	-0.050
-618.346	-177.595	0.200	-0.005
-617.332	-65.010	0.059	-0.024
-616.317	-200.000	-0.051	0.281
-615.303	-164.390	-0.322	-0.015
-614.288	11.461	-0.175	0.135
-613.273	-200.000	-0.039	-0.229
-612.259	-111.153	0.111	-0.023
-611.244	385.024	-0.097	-0.203
-610.230	-200.000	0.019	-0.320
-609.215	-9.142	-0.124	0.084
-608.201	-200.000	-0.007	-0.071
-607.186	58.115	0.225	0.222
-606.171	56.087	-0.241	0.236
-605.157	-200.000	0.066	-0.399
-604.142	-15.294	0.199	0.129
-603.128	-36.991	-0.014	-0.008
-602.113	486.975	-0.106	-0.243
-601.098	-127.649	0.198	0.029
-600.084	-109.516	0.147	0.031
-599.069	-140.497	-0.244	0.026
-598.055	87.734	-0.012	-0.014
-597.040	-11.838	0.225	-0.149
-596.025	-17.599	0.219	-0.139
-595.011	396.743	0.133	0.281
-593.996	126.555	-0.170	-0.217
-592.982	103.444	0.203	-0.240
-591.967	106.260	0.044	-0.053
-590.952	800.000	0.136	-0.426
-589.938	2.960	-0.216	0.158
-588.923	800.000	-0.083	0.309
-587.909	350.739	0.101	-0.201
-586.894	-200.000	-0.125	-0.559
-585.879	800.000	0.025	-0.080
-584.865	-52.003	-0.318	-0.149
-583.850	-58.575	0.088	-0.039
-582.836	571.883	-0.038	-0.093
-581.821	-56.098	-0.190	-0.085
-580.806	179.905	0.149	-0.221
-579.792	-200.000	-0.021	-0.148
-578.777	-95.209	-0.309	0.084
-577.763	13.982	0.116	-0.091
-576.748	-56.162	-0.022	0.010
-575.733	170.900	-0.110	0.159
-574.719	173.482	-0.066	-0.097
-573.704	357.672	-0.038	0.077
-572.690	11.744	0.105	-0.081
-571.675	52.684	-0.187	-0.180
-570.661	-76.866	0.449	0.158
-569.646	-200.000	0.010	0.377
-568.631	35.677	-0.074	0.065
-567.617	799.973	0.089	-0.247
-566.602	279.458	0.063	-0.113
-565.588	13.437	-0.128	0.100
-564.573	-200.000	0.020	0.168
-563.558	45.882	0.027	-0.025
-562.544	101.832	-0.158	-0.186
-561.529	-7.106	0.348	-0.238
-560.515	-106.202	-0.340	0.077
-559.500	117.843	0.273	-0.338
-558.485	-15.050	-0.117	-0.075
-557.471	13.300	-0.117	0.092
-556.456	-57.413	0.249	-0.110
-555.442	60.267	-0.187	-0.186
-554.427	-86.515	0.414	-0.128
-553.412	547.233	0.041	0.100
-552.398	470.282	-0.067	0.153
-551.383	130.334	0.160	-0.207
-550.369	-200.000	0.020	-0.252
-549.354	-200.000	-0.002	0.040
-548.339	542.368	-0.057	-0.138
-547.325	-97.725	-0.386	-0.101
-546.310	34.209	0.097	-0.086
-545.296	42.872	-0.219	-0.201
-544.281	800.000	-0.085	-0.240
-543.266	679.138	0.170	0.447
-542.252	-133.269	0.292	0.037
-541.237	52.601	-0.259	0.249
-540.223	-77.723	-0.331	-0.115
-539.208	-200.000	-0.000	-0.155
-538.193	-66.555	-0.496	0.198
-537.179	90.938	-0.051	0.058
-536.164	383.505	-0.074	-0.153
-535.150	106.314	-0.184	0.219
-534.135	385.932	-0.085	-0.178
-533.121	20.142	-0.255	-0.207
-532.106	95.111	0.133	0.153
-531.091	-79.758	0.156	0.053
-530.077	150.396	0.185	0.253
-529.062	-43.006	0.110	-0.056
-528.048	-27.114	0.063	0.037
-527.033	85.378	0.146	-0.162
-526.018	-144.347	-0.123	0.012
-525.004	800.000	-0.051	-0.166
-523.989	-17.945	-0.089	-0.056
-522.975	-11.918	-0.065	-0.043
-521.960	211.811	0.057	-0.090
-520.945	800.000	-0.059	-0.180
-519.931	229.734	0.208	-0.343
-518.916	-200.000	-0.010	-0.183
-517.902	44.738	-0.087	0.081
-516.887	-200.000	-0.036	-0.234
-515.872	-200.000	0.003	-0.092
-514.858	-33.433	0.249	-0.138
-513.843	-53.004	0.401	-0.185
-512.829	800.000	-0.018	0.057
-511.814	110.593	-0.276	-0.333
-510.799	-20.089	-0.271	0.168
-509.785	353.787	-0.035	0.070
-508.770	68.216	0.060	0.062
-507.756	-200.000	-0.017	-0.097
-506.741	118.253	0.156	-0.194
-505.726	-107.215	-0.072	-0.016
-504.712	448.174	-0.025	-0.054
-503.697	82.894	-0.099	-0.109
-502.683	391.843	-0.087	-0.183
-501.668	-93.402	-0.187	0.052
-500.653	-23.578	0.111	-0.067
-499.639	-105.508	0.398	0.091
-498.624	14.037	-0.141	-0.110
-497.610	800.000	-0.107	-0.311
-496.595	-150.426	-0.172	0.013
-495.581	-200.000	0.017	0.245
-494.566	19.542	-0.279	-0.226
-493.551	-200.000	0.012	-0.106
-492.537	-58.250	-0.298	-0.130
-491.522	800.000	0.055	0.181
-490.508	-83.844	-0.331	0.106
-489.493	800.000	-0.070	0.218
-488.478	-180.633	0.113	0.002
-487.464	-200.000	0.010	-0.179
-486.449	-105.857	0.086	-0.019
-485.435	256.118	-0.077	0.133
-484.420	501.957	-0.093	0.215
-483.405	88.301	0.114	-0.127
-482.391	800.000	-0.115	0.497
-481.376	558.659	-0.062	-0.150
-480.362	-50.888	-0.170	-0.080
-479.347	20.257	0.219	0.177
-478.332	-200.000	-0.019	0.165
-477.318	-68.539	0.437	0.170
-476.303	-88.003	-0.164	-0.049
-475.289	-96.402	-0.110	0.029
-474.274	-26.346	-0.264	-0.156
-473.259	-200.000	-0.023	-0.199
-472.245	-189.200	-0.109	0.001
-471.230	-53.203	-0.105	-0.048
-470.216	176.369	-0.133	0.194
-469.201	-200.000	-0.060	-0.334
-468.186	-200.000	0.011	0.331
-467.172	-163.727	0.205	-0.010
-466.157	800.000	0.048	0.210
-465.143	-70.850	0.054	0.020
-464.128	-12.318	0.330	0.217
-463.113	19.128	-0.035	-0.028
-462.099	122.816	-0.144	0.181
-461.084	-77.977	-0.103	0.036
-460.070	-139.407	-0.126	-0.014
-459.055	69.859	-0.211	0.218
-458.040	-200.000	-0.005	0.084
-457.026	-200.000	0.082	0.363
-456.011	407.036	0.041	0.088
-454.997	593.963	-0.143	-0.355
-453.982	-113.659	-0.219	0.043
-452.968	-162.199	0.168	0.008
-451.953	32.510	-0.104	-0.090
-450.938	-200.000	-0.009	0.171
-449.924	444.794	0.076	0.168
-448.909	-82.961	0.117	0.038
-447.895	86.176	-0.189	-0.209
-446.880	-143.984	0.067	0.006
-445.865	462.891	0.097	-0.217
-444.851	800.000	-0.024	0.066
-443.836	-185.184	0.325	-0.005
-442.822	-20.709	-0.049	0.030
-441.807	-72.490	-0.139	-0.052
-440.792	800.000	0.076	0.272
-439.778	-15.462	0.306	0.196
-438.763	414.893	-0.135	-0.289
-437.749	-95.003	-0.195	-0.053
-436.734	800.000	-0.027	-0.118
-435.719	-27.251	-0.080	0.047
-434.705	127.039	-0.175	-0.223
-433.690	-87.080	0.370	0.113
-432.676	-40.097	-0.229	0.120
-431.661	-200.000	0.070	0.368
-430.646	-40.961	0.178	0.092
-429.632	307.610	0.069	-0.130
-428.617	43.687	-0.188	-0.172
-427.603	-200.000	0.014	0.150
-426.588	-120.257	0.186	0.032
-425.573	245.957	-0.138	-0.234
-424.559	-84.936	-0.263	-0.083
-423.544	-78.028	-0.121	-0.042
-422.530	-65.282	-0.318	0.128
-421.515	-109.086	-0.275	-0.059
-420.500	249.343	0.083	0.140
-419.486	-130.750	0.155	-0.021
-418.471	-112.768	-0.179	0.036
-417.457	95.126	-0.182	-0.208
-416.442	-8.770	0.107	0.072
-415.428	-122.530	0.035	-0.006
-414.413	-1.736	0.125	-0.088
-413.398	174.487	0.063	-0.092
-412.384	-51.265	0.146	0.068
-411.369	800.000	-0.130	0.416
-410.355	433.023	0.130	0.282
-409.340	-200.000	0.023	-0.188
-408.325	16.258	-0.106	-0.083
-407.311	327.675	0.052	0.100
-406.296	-1.419	-0.049	0.035
-405.282	-200.000	0.358	0.001
-404.267	-103.211	-0.155	-0.037
-403.252	188.904	-0.214	-0.321
-402.238	168.412	0.115	0.164
-401.223	-67.576	-0.160	0.063
-400.209	-125.687	0.400	0.061
-399.194	784.688	-0.075	-0.206
-398.179	-78.326	0.161	-0.055
-397.165	125.900	-0.090	-0.114
-396.150	-38.036	0.127	0.068
-395.136	40.787	-0.272	-0.246
-394.121	116.687	0.150	-0.185
-393.106	41.598	-0.143	-0.130
-392.092	-96.191	-0.337	0.089
-391.077	12.511	-0.154	0.119
-390.063	-69.883	0.295	0.113
-389.048	-152.277	-0.166	0.012
-388.033	-152.309	-0.315	-0.023
-387.019	-200.000	0.010	0.304
-386.004	7.386	-0.268	0.201
-384.990	39.941	-0.082	-0.074
-383.975	-71.052	0.200	0.075
-382.960	-200.000	0.029	0.414
-381.946	-81.771	-0.330	0.108
-380.931	-61.704	0.183	0.077
-379.917	800.000	0.161	-0.449
-378.902	-154.156	-0.191	-0.013
-377.888	800.000	0.071	0.231
-376.873	-126.469	0.131	-0.019
-375.858	-84.667	0.107	-0.034
-374.844	-72.152	0.136	0.051
-373.829	-102.960	0.299	0.071
-372.815	800.000	0.032	-0.095
-371.800	-200.000	-0.066	0.298
-370.785	800.000	0.022	0.094
-369.771	64.180	0.088	-0.088
-368.756	-182.003	-0.182	-0.003
-367.742	-98.287	0.272	0.070
-366.727	12.972	0.175	0.135
-365.712	-200.000	0.018	-0.107
-364.698	-200.000	-0.013	0.151
-363.683	800.000	-0.033	0.102
-362.669	-63.455	0.141	0.058
-361.654	800.000	-0.112	-0.315
-360.639	-62.152	0.234	-0.097
-359.625	-108.366	-0.064	0.014
-358.610	118.339	0.072	-0.089
-357.596	-21.240	-0.157	0.096
-356.581	-200.000	-0.091	-0.455
-355.566	-52.628	-0.269	0.124
-354.552	462.597	0.066	-0.147
-353.537	-30.988	-0.136	-0.077
-352.523	282.215	0.050	0.089
-351.508	475.558	-0.092	0.208
-350.493	78.939	0.117	0.125
-349.479	42.722	-0.121	-0.110
-348.464	247.156	0.039	0.065
-347.450	800.000	-0.071	0.266
-346.435	-200.000	-0.065	-0.351
-345.420	794.725	0.056	0.154
-344.406	-76.786	-0.240	0.084
-343.391	-34.553	0.088	-0.048
-342.377	107.051	-0.241	0.286
-341.362	800.000	0.069	0.294
-340.348	343.315	0.092	0.180
-339.333	-200.000	0.019	0.272
-338.318	177.673	0.191	0.279
-337.304	-68.723	-0.324	0.125
-336.289	-43.706	-0.325	-0.164
-335.275	-177.468	-0.401	-0.010
-334.260	23.979	0.087	0.072
-333.245	179.688	0.107	0.156
-332.231	166.448	-0.147	0.208
-331.216	-96.610	0.293	0.077
-330.202	263.371	0.057	0.099
-329.187	191.338	-0.197	0.296
-328.172	-95.309	-0.226	0.061
-327.158	-200.000	0.028	-0.164
-326.143	-58.016	0.294	0.128
-325.129	-38.859	-0.398	0.209
-324.114	-16.009	-0.274	0.174
-323.099	-200.000	0.055	-0.606
-322.085	800.000	0.112	-0.321
-321.070	-200.000	-0.015	-0.072
-320.056	800.000	-0.129	0.398
-319.041	800.000	0.049	-0.194
-318.026	800.000	-0.097	0.364
-317.012	-37.548	-0.227	0.121
-315.997	-49.092	0.229	-0.109
-314.983	-6.479	-0.032	0.022
-313.968	-90.369	0.455	0.132
-312.953	-68.259	0.193	-0.075
-311.939	-73.762	0.028	-0.010
-310.924	-200.000	0.021	0.181
-309.910	63.155	-0.169	-0.169
-308.895	124.112	-0.186	0.234
-307.880	-96.170	0.086	0.023
-306.866	296.740	-0.088	-0.160
-305.851	195.645	0.238	-0.361
-304.837	67.008	0.036	-0.036
-303.822	722.332	-0.041	-0.110
-302.807	800.000	-0.064	-0.262
-301.793	-105.357	-0.232	-0.053
-300.778	9.565	0.428	0.323
-299.764	-200.000	0.142	0.000
-298.749	78.840	0.235	-0.251
-297.735	-55.771	0.136	-0.061
-296.720	24.050	0.282	0.232
-295.705	-200.000	0.004	-0.046
-294.691	52.951	0.096	0.091
-293.676	800.000	0.101	-0.285
-292.662	145.624	-0.131	0.176
-291.647	-200.000	0.046	0.332
-290.632	-200.000	-0.041	0.213
-289.618	-145.099	-0.310	0.028
-288.603	114.654	-0.215	-0.262
-287.589	-51.396	-0.127	-0.059
-286.574	109.694	0.067	0.080
-285.559	-111.241	-0.314	-0.064
-284.545	800.000	-0.066	0.224
-283.530	319.985	0.107	0.202
-282.516	-77.991	0.318	0.109
-281.501	-134.119	-0.174	0.021
-280.486	-112.366	-0.340	0.068
-279.472	-142.529	0.235	0.023
-278.457	294.887	0.033	-0.060
-277.443	339.833	0.113	-0.220
-276.428	-57.401	0.260	0.114
-275.413	800.000	0.040	-0.150
-274.399	43.360	-0.044	-0.040
-273.384	169.918	-0.243	-0.346
-272.370	-34.980	0.101	-0.055
-271.355	-200.000	-0.009	-0.197
-270.340	-200.000	0.032	-0.477
-269.326	-146.819	-0.195	-0.017
-268.311	44.233	0.129	0.118
-267.297	311.330	-0.096	-0.179
-266.282	42.127	-0.392	-0.355
-265.267	160.535	0.095	-0.132
-264.253	-47.089	-0.219	-0.106
-263.238	-141.096	-0.116	0.012
-262.224	800.000	0.030	0.084
-261.209	-37.136	0.139	0.074
-260.195	-6.573	0.338	-0.229
-259.180	-51.260	0.088	-0.041
-258.165	-112.725	-0.143	0.028
-257.151	-123.729	0.352	0.055
-256.136	-37.734	0.229	-0.121
-255.122	-89.105	-0.100	-0.029
-254.107	9.594	0.296	-0.223
-253.092	32.517	0.207	-0.178
-252.078	-35.905	-0.156	-0.084
-251.063	268.770	-0.223	0.389
-250.049	122.932	-0.067	-0.084
-249.034	-26.337	-0.143	-0.083
-248.019	-200.000	-0.005	0.059
-247.005	800.000	-0.071	-0.237
-245.990	26.220	0.149	0.124
-244.976	107.917	-0.111	0.132
-243.961	-79.252	0.247	-0.083
-242.946	800.000	0.029	0.101
-241.932	800.000	0.120	0.355
-240.917	-56.168	0.198	-0.088
-239.903	271.228	0.158	-0.278
-238.888	293.291	0.165	-0.300
-237.873	-99.634	0.203	-0.051
-236.859	144.142	-0.128	-0.169
-235.844	800.000	-0.060	0.187
-234.830	-94.125	-0.254	0.069
-233.815	25.428	-0.247	0.205
-232.800	-109.646	-0.079	0.017
-231.786	-93.193	0.142	-0.039
-230.771	-200.000	0.028	-0.215
-229.757	75.649	-0.177	-0.185
-228.742	-71.980	0.509	0.188
-227.727	-200.000	0.019	0.220
-226.713	-200.000	0.011	-0.177
-225.698	352.656	0.092	-0.182
-224.684	333.062	0.100	0.192
-223.669	-154.032	-0.048	0.003
-222.655	-200.000	0.003	0.270
-221.640	-200.000	-0.000	0.200
-220.625	-9.114	0.097	-0.065
-219.611	-200.000	0.037	0.351
-218.596	-10.565	0.141	-0.093
-217.582	-200.000	-0.009	0.156
-216.567	146.589	0.179	0.240
-215.552	-200.000	0.031	-0.261
-214.538	-200.000	-0.016	0.184
-213.523	-116.393	-0.486	-0.089
-212.509	-89.967	-0.113	-0.033
-211.494	-30.531	-0.249	-0.140
-210.479	-45.966	0.216	-0.106
-209.465	765.829	0.048	0.130
-208.450	-196.865	0.096	-0.001
-207.436	-5.496	-0.272	0.185
-206.421	58.188	-0.186	0.181
-205.406	8.131	0.190	-0.142
-204.392	-12.057	0.317	-0.206
-203.377	77.670	0.056	-0.059
-202.363	-200.000	0.190	0.001
-201.348	-102.837	0.147	0.035
-200.333	-33.524	0.123	0.067
-199.319	-63.103	0.224	0.092
-198.304	-8.157	0.382	0.256
-197.290	-52.039	-0.205	0.094
-196.275	171.644	0.031	0.044
-195.260	-25.324	0.303	0.178
-194.246	-200.000	-0.032	0.283
-193.231	11.441	-0.112	0.085
-192.217	65.526	0.242	0.244
-191.202	800.000	-0.019	-0.068
-190.187	-140.474	-0.144	-0.015
-189.173	-200.000	0.021	-0.162
-188.158	88.379	-0.030	-0.033
-187.144	-164.477	-0.142	-0.006
-186.129	-130.247	0.180	-0.024
-185.114	-200.000	-0.030	0.180
-184.100	-97.582	-0.138	0.036
-183.085	191.339	-0.068	0.102
-182.071	38.430	0.359	0.318
-181.056	-178.426	-0.236	0.005
-180.042	-109.935	0.090	0.019
-179.027	-44.027	0.302	0.150
-178.012	121.891	0.270	0.334
-176.998	-200.000	0.022	0.246
-175.983	11.802	-0.227	0.173
-174.969	-68.838	-0.178	0.068
-173.954	-57.847	-0.111	0.048
-172.939	98.681	0.167	-0.191
-171.925	-200.000	-0.011	-0.405
-170.910	-40.360	0.089	-0.046
-169.896	176.388	-0.121	-0.174
-168.881	53.540	0.136	-0.130
-167.866	-13.999	0.298	-0.191
-166.852	15.943	-0.264	0.207
-165.837	14.865	0.233	0.181
-164.823	432.941	0.119	-0.256
-163.808	99.285	0.194	-0.223
-162.793	112.390	0.369	0.443
-161.779	-102.897	0.038	-0.009
-160.764	-125.971	0.129	0.019
-159.750	-200.000	0.001	-0.134
-158.735	-200.000	0.010	0.267
-157.720	302.915	0.027	0.049
-156.706	-200.000	0.000	0.037
-155.691	292.234	0.052	0.094
-154.677	89.890	0.127	0.141
-153.662	626.648	0.168	0.420
-152.647	667.237	-0.199	0.511
-151.633	800.000	0.065	-0.206
-150.618	107.275	-0.174	0.205
-149.604	558.123	-0.016	-0.038
-148.589	-198.589	0.497	0.003
-147.574	5.623	0.317	-0.233
-146.560	717.324	0.073	-0.193
-145.545	77.034	-0.333	-0.351
-144.531	117.475	-0.166	-0.202
-143.516	251.133	0.126	-0.213
-142.502	-200.000	0.059	0.282
-141.487	-199.613	0.151	-0.001
-140.472	67.242	-0.216	0.218
-139.458	800.000	0.048	-0.198
-138.443	581.140	0.116	0.282
-137.429	72.597	0.151	-0.156
-136.414	332.860	-0.105	-0.201
-135.399	509.929	-0.141	0.324
-134.385	-32.170	0.063	-0.035
-133.370	579.938	-0.129	-0.313
-132.356	-143.624	-0.077	0.007
-131.341	-60.896	0.283	-0.118
-130.326	174.439	-0.059	0.085
-129.312	25.885	0.137	0.113
-128.297	13.179	-0.070	0.054
-127.283	-85.482	0.132	0.041
-126.268	-50.418	-0.279	0.131
-125.253	424.404	0.092	-0.197
-124.239	178.720	-0.196	0.284
-123.224	-167.683	0.261	-0.010
-122.210	-61.135	-0.193	0.080
-121.195	-57.952	-0.332	0.144
