DTS Sentinel unit serial number:	SN413079Multiplexer serial number:	ORYXHardware model number:	OX4-SRSoftware version number:	ORYX F/W v4.00 Oryx Data Collector v3.7.2.0data status	okinstallation	princeton_trtdifferential loss correction	single-endedforward channel	channel 4reverse channel	N/Adate	2019/09/16time	09:37:34forward acquisition time	60.00reverse acquisition time	0.00gamma	496.2192k internal	0.2305k external	0.2305temperature offset calibration	0.9968default loss term (dB/km)	0.3790temperature slope calibration	1.0000multiplexer offset coefficient	1.0000multiplexer slope coefficient	1.0000fibre end	0.00T internal ref (°C)	32.19T ext. ref 1 (°C)	12.25T ext. ref 2 (°C)	30.08length (m)	temperature (°C)	Stokes	anti-Stokes-747.200	-51.692	0.305	0.145
-746.185	417.405	-0.114	0.248
-745.171	-71.560	-0.100	0.038
-744.156	434.015	0.158	-0.349
-743.142	800.000	0.063	-0.261
-742.127	-200.000	-0.020	0.233
-741.112	15.078	0.259	0.207
-740.098	17.895	0.245	0.198
-739.083	102.248	0.284	0.338
-738.069	349.518	-0.154	0.309
-737.054	-200.000	-0.006	0.037
-736.039	-69.211	-0.144	0.056
-735.025	-70.842	-0.086	0.033
-734.010	800.000	-0.050	-0.192
-732.996	-200.000	-0.029	-0.326
-731.981	-200.000	0.047	-0.220
-730.966	-0.655	-0.257	-0.185
-729.952	364.199	-0.074	-0.151
-728.937	216.200	0.109	-0.177
-727.923	-200.000	-0.000	-0.057
-726.908	2.371	-0.160	-0.118
-725.894	-200.000	0.035	-0.326
-724.879	128.973	-0.037	0.048
-723.864	-12.447	0.146	-0.097
-722.850	-56.758	0.582	0.262
-721.835	677.755	0.098	-0.260
-720.821	0.000	-0.251	-0.182
-719.806	209.062	-0.080	-0.127
-718.791	-200.000	0.045	-0.220
-717.777	-166.370	-0.340	0.015
-716.762	-102.560	-0.376	0.091
-715.748	-72.466	0.348	-0.131
-714.733	-101.155	0.274	0.068
-713.718	-28.373	-0.187	0.110
-712.704	-200.000	-0.023	-0.503
-711.689	800.000	-0.047	0.158
-710.675	-200.000	-0.031	0.143
-709.660	-71.150	0.036	-0.014
-708.645	-200.000	-0.095	-0.425
-707.631	-9.334	-0.244	-0.166
-706.616	0.316	-0.092	0.067
-705.602	239.619	-0.070	-0.119
-704.587	-139.931	0.132	-0.014
-703.572	38.894	-0.175	-0.159
-702.558	-121.605	-0.528	-0.089
-701.543	-200.000	-0.017	-0.252
-700.529	-80.895	0.086	0.029
-699.514	100.767	-0.059	-0.070
-698.499	-139.361	0.418	-0.046
-697.485	-77.603	0.134	-0.047
-696.470	233.958	0.136	0.228
-695.456	-41.727	0.084	-0.044
-694.441	-17.163	0.289	-0.185
-693.426	236.539	0.252	-0.424
-692.412	800.000	0.042	0.158
-691.397	-200.000	-0.020	-0.194
-690.383	39.121	0.408	-0.371
-689.368	69.299	-0.209	-0.218
-688.354	-107.722	0.059	-0.013
-687.339	-67.338	0.300	-0.120
-686.324	-200.000	-0.009	0.104
-685.310	-125.452	-0.335	0.052
-684.295	11.528	0.061	-0.048
-683.281	-172.320	0.202	-0.007
-682.266	-155.391	0.175	0.011
-681.251	-85.277	-0.059	0.019
-680.237	-46.303	0.104	-0.052
-679.222	339.120	0.078	0.155
-678.208	-200.000	-0.037	-0.358
-677.193	551.392	0.158	-0.386
-676.178	11.228	-0.058	-0.045
-675.164	-105.651	-0.417	-0.096
-674.149	800.000	0.029	0.110
-673.135	216.333	0.111	-0.180
-672.120	-17.685	-0.297	0.190
-671.105	-200.000	-0.009	-0.079
-670.091	250.023	0.089	-0.153
-669.076	-95.191	0.195	0.053
-668.062	-83.168	0.237	-0.077
-667.047	-161.997	0.090	0.005
-666.032	371.647	0.082	-0.170
-665.018	212.621	-0.186	-0.298
-664.003	-70.536	0.179	0.069
-662.989	800.000	0.126	0.381
-661.974	107.612	-0.173	0.209
-660.959	-91.347	0.091	0.027
-659.945	56.834	0.305	-0.301
-658.930	-200.000	0.053	-0.376
-657.916	733.153	0.098	-0.266
-656.901	79.723	0.080	-0.087
-655.886	-68.328	-0.119	0.047
-654.872	43.376	0.198	0.183
-653.857	719.861	0.024	-0.065
-652.843	-52.215	-0.184	-0.086
-651.828	-200.000	0.008	-0.174
-650.814	59.516	-0.023	-0.023
-649.799	46.556	0.142	0.134
-648.784	-69.608	-0.524	0.203
-647.770	-200.000	-0.024	-0.108
-646.755	-143.689	0.134	0.013
-645.741	-174.614	0.095	0.003
-644.726	-54.745	0.125	0.057
-643.711	88.009	-0.057	-0.064
-642.697	69.343	-0.217	-0.226
-641.682	14.906	-0.214	-0.170
-640.668	157.541	0.052	-0.072
-639.653	159.222	-0.174	-0.246
-638.638	-97.075	-0.302	0.080
-637.624	-60.528	-0.281	-0.121
-636.609	-200.000	-0.019	-0.439
-635.595	-200.000	0.000	-0.163
-634.580	83.924	0.104	-0.115
-633.565	-83.492	-0.244	0.079
-632.551	-92.070	-0.026	0.007
-631.536	-54.589	-0.260	-0.119
-630.522	-76.194	0.197	0.070
-629.507	629.727	-0.083	0.212
-628.492	135.013	0.076	0.101
-627.478	-200.000	-0.027	-0.168
-626.463	299.250	0.017	-0.032
-625.449	-17.778	-0.292	-0.185
-624.434	-133.912	-0.116	-0.015
-623.419	272.741	0.314	0.561
-622.405	139.599	0.127	-0.169
-621.390	564.792	0.046	0.114
-620.376	-200.000	0.040	0.198
-619.361	-8.950	-0.123	-0.084
-618.346	-47.662	-0.336	0.165
-617.332	-200.000	0.009	0.069
-616.317	156.944	0.252	0.352
-615.303	-200.000	-0.023	-0.342
-614.288	203.680	-0.116	-0.181
-613.273	-200.000	-0.078	-0.353
-612.259	800.000	0.103	0.430
-611.244	2.618	-0.052	0.038
-610.230	-86.778	-0.306	0.095
-609.215	-42.308	-0.150	-0.078
-608.201	-200.000	0.013	0.079
-607.186	94.950	0.091	0.105
-606.171	-200.000	0.039	-0.222
-605.157	-200.000	-0.027	0.127
-604.142	-82.989	0.288	0.094
-603.128	-5.553	-0.271	-0.188
-602.113	-113.399	0.330	-0.066
-601.098	-115.495	0.367	0.070
-600.084	328.402	-0.092	-0.179
-599.069	800.000	0.110	-0.320
-598.055	165.967	0.220	-0.315
-597.040	279.884	-0.112	-0.202
-596.025	135.239	-0.113	-0.149
-595.011	-44.040	-0.128	0.065
-593.996	-28.205	0.285	0.167
-592.982	-35.691	0.122	0.067
-591.967	521.791	0.094	0.222
-590.952	-200.000	0.002	-0.024
-589.938	-62.286	0.307	0.129
-588.923	30.783	0.081	0.070
-587.909	18.917	0.065	-0.053
-586.894	-0.725	0.126	-0.090
-585.879	428.653	-0.140	0.305
-584.865	-86.610	-0.188	0.058
-583.850	800.000	0.107	-0.363
-582.836	70.896	0.169	-0.178
-581.821	-74.496	0.124	-0.045
-580.806	25.288	0.045	-0.038
-579.792	-50.374	0.146	0.070
-578.777	-28.727	0.030	0.017
-577.763	-65.800	-0.218	-0.088
-576.748	-200.000	0.029	-0.299
-575.733	7.491	-0.200	-0.151
-574.719	-10.375	-0.343	-0.230
-573.704	518.476	-0.033	-0.078
-572.690	58.657	-0.209	-0.207
-571.675	-200.000	-0.020	0.151
-570.661	102.489	-0.129	-0.153
-569.646	92.569	-0.040	0.045
-568.631	-200.000	-0.080	0.375
-567.617	-20.836	0.246	-0.153
-566.602	-44.389	-0.115	0.058
-565.588	-200.000	-0.040	0.202
-564.573	553.778	-0.103	-0.251
-563.558	304.666	-0.146	0.274
-562.544	-19.559	-0.231	-0.145
-561.529	-101.122	0.117	0.029
-560.515	-113.620	0.290	-0.057
-559.500	-200.000	0.047	-0.331
-558.485	499.202	0.045	0.104
-557.471	800.000	0.060	-0.186
-556.456	-200.000	-0.032	-0.194
-555.442	28.522	-0.172	-0.147
-554.427	175.080	0.122	-0.178
-553.412	-147.709	0.213	0.018
-552.398	-10.899	-0.311	0.208
-551.383	-200.000	-0.043	-0.249
-550.369	-155.530	-0.493	0.032
-549.354	392.475	0.111	-0.232
-548.339	-2.394	0.338	0.239
-547.325	-73.272	-0.293	-0.108
-546.310	287.222	-0.091	-0.165
-545.296	1.953	0.283	-0.206
-544.281	105.304	-0.260	-0.309
-543.266	-160.021	0.126	0.007
-542.252	-80.854	0.292	-0.098
-541.237	-72.153	0.193	-0.072
-540.223	193.431	-0.090	0.137
-539.208	65.808	0.040	-0.041
-538.193	8.980	-0.112	-0.085
-537.179	254.096	-0.116	-0.200
-536.164	800.000	-0.044	-0.160
-535.150	-95.548	-0.121	-0.033
-534.135	137.660	0.162	0.214
-533.121	764.514	0.098	0.268
-532.106	-200.000	-0.009	0.052
-531.091	-136.566	0.233	-0.027
-530.077	363.798	-0.041	0.084
-529.062	800.000	-0.021	-0.070
-528.048	327.197	0.193	0.373
-527.033	-161.989	-0.073	0.004
-526.018	87.006	-0.097	-0.108
-525.004	210.170	0.056	-0.089
-523.989	351.713	0.162	-0.323
-522.975	-11.472	-0.205	0.136
-521.960	34.927	-0.226	0.199
-520.945	-200.000	-0.000	-0.337
-519.931	301.325	0.265	-0.493
-518.916	23.871	-0.152	0.126
-517.902	343.182	-0.048	0.096
-516.887	-191.441	-0.220	-0.002
-515.872	520.874	0.033	-0.078
-514.858	-200.000	0.022	-0.108
-513.843	-134.486	0.332	-0.041
-512.829	-75.062	0.179	0.065
-511.814	-25.053	0.150	-0.090
-510.799	33.898	-0.021	0.018
-509.785	800.000	-0.068	-0.281
-508.770	-200.000	0.010	0.052
-507.756	136.274	0.090	0.118
-506.741	800.000	0.053	0.178
-505.726	244.688	-0.094	-0.159
-504.712	80.436	0.090	0.098
-503.697	-200.000	0.006	-0.146
-502.683	-54.975	-0.174	-0.079
-501.668	-200.000	0.096	-0.502
-500.653	-49.913	0.314	-0.150
-499.639	-30.740	-0.222	0.127
-498.624	-18.953	0.372	-0.233
-497.610	-87.453	0.207	-0.063
-496.595	-116.382	0.057	-0.011
-495.581	-102.953	0.073	-0.018
-494.566	800.000	-0.085	-0.266
-493.551	18.335	-0.080	0.064
-492.537	-94.381	0.082	0.023
-491.522	303.879	-0.100	0.187
-490.508	-96.743	-0.333	-0.088
-489.493	-200.000	-0.079	0.435
-488.478	-200.000	-0.036	0.276
-487.464	7.224	0.328	-0.247
-486.449	-72.522	-0.040	0.015
-485.435	-149.714	0.037	0.003
-484.420	-109.965	0.131	-0.028
-483.405	227.319	0.117	0.192
-482.391	-120.901	-0.114	0.019
-481.376	48.974	-0.159	-0.150
-480.362	149.321	0.159	0.217
-479.347	-16.638	0.208	-0.133
-478.332	-200.000	-0.025	0.484
-477.318	282.878	0.069	0.125
-476.303	-4.064	0.186	-0.130
-475.289	349.032	-0.141	-0.281
-474.274	251.194	-0.018	0.031
-473.259	-35.602	-0.257	-0.140
-472.245	-61.422	0.330	0.140
-471.230	-145.204	-0.101	-0.009
-470.216	9.983	0.145	0.111
-469.201	-142.511	-0.370	-0.037
-468.186	-4.066	-0.245	-0.171
-467.172	800.000	-0.044	0.185
-466.157	800.000	0.046	-0.158
-465.143	61.612	0.104	-0.104
-464.128	168.355	-0.027	-0.039
-463.113	219.162	0.130	-0.209
-462.099	-154.491	-0.138	0.009
-461.084	141.356	-0.128	0.170
-460.070	569.755	0.039	0.095
-459.055	-53.230	0.187	-0.086
-458.040	-200.000	-0.012	0.233
-457.026	323.266	-0.144	0.276
-456.011	257.852	-0.209	-0.362
-454.997	-200.000	-0.023	0.356
-453.982	-102.116	-0.347	0.084
-452.968	800.000	0.054	0.197
-451.953	88.467	-0.092	0.102
-450.938	800.000	-0.021	0.079
-449.924	-16.246	0.131	0.084
-448.909	367.505	-0.207	-0.420
-447.895	-105.092	-0.209	0.048
-446.880	-104.546	0.237	-0.055
-445.865	32.710	0.193	0.168
-444.851	-200.000	-0.055	-0.625
-443.836	-85.597	-0.142	0.044
-442.822	-116.991	-0.424	-0.078
-441.807	-12.926	0.257	0.168
-440.792	276.701	0.168	0.300
-439.778	48.954	0.249	-0.235
-438.763	85.625	-0.211	-0.234
-437.749	800.000	-0.097	-0.288
-436.734	-68.421	-0.155	0.061
-435.719	-200.000	-0.049	-0.268
-434.705	800.000	0.083	0.324
-433.690	-64.698	-0.167	-0.068
-432.676	35.737	-0.045	-0.040
-431.661	-9.596	0.289	0.194
-430.646	354.924	0.146	-0.293
-429.632	800.000	-0.040	-0.164
-428.617	-122.102	-0.339	0.056
-427.603	-48.177	-0.042	0.020
-426.588	800.000	0.042	0.185
-425.573	52.595	0.089	0.085
-424.559	92.451	0.081	0.092
-423.544	-200.000	0.020	0.157
-422.530	-43.998	-0.165	-0.084
-421.515	-64.845	-0.238	0.097
-420.500	-200.000	-0.027	0.120
-419.486	800.000	0.005	-0.020
-418.471	-200.000	0.015	-0.111
-417.457	242.146	-0.173	0.291
-416.442	-200.000	0.014	0.523
-415.428	-200.000	0.017	-0.170
-414.413	105.796	-0.096	0.114
-413.398	194.729	-0.210	0.320
-412.384	175.256	0.145	-0.210
-411.369	200.426	0.089	0.137
-410.355	800.000	0.065	-0.235
-409.340	-142.261	-0.245	0.024
-408.325	-76.847	-0.219	0.077
-407.311	-200.000	-0.079	-0.532
-406.296	6.287	0.107	0.080
-405.282	-200.000	-0.000	-0.102
-404.267	-121.337	-0.192	-0.032
-403.252	-0.697	0.063	0.045
-402.238	-176.746	0.165	-0.004
-401.223	374.333	0.021	-0.044
-400.209	12.894	-0.168	-0.130
-399.194	-83.048	-0.228	-0.074
-398.179	172.523	0.134	0.194
-397.165	20.572	-0.092	-0.075
-396.150	-200.000	0.022	0.127
-395.136	737.920	-0.074	0.198
-394.121	383.859	-0.102	0.212
-393.106	123.009	0.152	-0.191
-392.092	-200.000	0.038	0.297
-391.077	5.546	0.234	-0.174
-390.063	50.516	0.070	-0.066
-389.048	-45.302	0.082	0.041
-388.033	-97.360	0.361	0.094
-387.019	-190.702	-0.043	-0.000
-386.004	2.911	-0.214	-0.156
-384.990	-81.029	-0.107	0.036
-383.975	87.100	-0.089	-0.099
-382.960	-200.000	0.010	0.166
-381.946	449.416	0.112	0.249
-380.931	800.000	0.040	0.114
-379.917	0.577	-0.233	0.167
-378.902	-104.559	0.639	0.148
-377.888	-9.131	-0.157	-0.106
-376.873	-72.520	-0.178	-0.066
-375.858	-136.437	-0.215	-0.025
-374.844	137.586	0.144	-0.189
-373.829	800.000	0.050	-0.158
-372.815	177.408	-0.109	0.160
-371.800	250.006	0.179	-0.304
-370.785	-88.724	0.099	-0.030
-369.771	-21.517	-0.273	0.167
-368.756	153.948	0.155	-0.214
-367.742	-18.338	0.092	0.057
-366.727	141.874	-0.098	-0.130
-365.712	-200.000	-0.000	-0.052
-364.698	800.000	0.185	-0.586
-363.683	-5.698	0.421	-0.289
-362.669	195.381	-0.087	0.132
-361.654	-37.422	0.315	-0.169
-360.639	-37.741	-0.359	-0.192
-359.625	695.933	-0.108	0.284
-358.610	-56.036	-0.241	-0.108
-357.596	-106.507	-0.421	-0.094
-356.581	195.694	0.198	0.302
-355.566	144.903	-0.121	-0.162
-354.552	39.022	0.181	0.162
-353.537	-22.780	0.188	-0.114
-352.523	-82.015	-0.465	-0.152
-351.508	-139.330	0.133	0.014
-350.493	-124.063	-0.386	-0.061
-349.479	-139.218	-0.277	0.030
-348.464	-200.000	0.011	-0.071
-347.450	-66.852	0.416	0.165
-346.435	-150.155	0.059	0.005
-345.420	-200.000	0.027	0.150
-344.406	-74.149	-0.244	-0.089
-343.391	365.864	-0.155	-0.312
-342.377	662.319	0.036	0.094
-341.362	24.268	0.298	-0.247
-340.348	748.875	0.049	0.132
-339.333	179.170	-0.120	0.175
-338.318	0.453	-0.183	0.131
-337.304	-171.394	0.171	-0.006
-336.289	800.000	-0.065	0.182
-335.275	-200.000	0.000	-0.357
-334.260	-123.185	-0.145	0.023
-333.245	-200.000	-0.027	0.225
-332.231	800.000	0.058	0.252
-331.216	-127.457	-0.271	-0.040
-330.202	-158.130	0.290	0.017
-329.187	-162.615	0.281	0.014
-328.172	-110.783	0.250	0.052
-327.158	-185.975	-0.255	-0.004
-326.143	-147.943	-0.357	0.030
-325.129	92.040	-0.107	0.121
-324.114	20.578	-0.279	-0.226
-323.099	-138.537	0.196	-0.022
-322.085	-115.300	0.269	-0.051
-321.070	318.238	-0.114	0.217
-320.056	66.600	0.052	-0.052
-319.041	-191.133	-0.179	0.002
-318.026	-62.552	-0.302	-0.126
-317.012	-42.184	0.126	-0.064
-315.997	-67.073	-0.082	0.032
-314.983	35.928	-0.127	0.112
-313.968	-97.980	-0.136	0.035
-312.953	-200.000	-0.047	0.208
-311.939	-200.000	0.015	-0.258
-310.924	-0.028	-0.037	0.026
-309.910	-78.317	-0.104	-0.036
-308.895	-81.158	0.292	-0.097
-307.880	-100.206	0.335	-0.083
-306.866	800.000	-0.054	-0.210
-305.851	16.114	-0.149	-0.118
-304.837	-121.208	0.195	0.033
-303.822	800.000	-0.062	0.178
-302.807	117.530	0.215	0.264
-301.793	297.941	0.162	0.297
-300.778	-200.000	0.009	-0.148
-299.764	-200.000	-0.053	0.324
-298.749	-200.000	-0.003	0.081
-297.735	-173.194	0.523	0.016
-296.720	353.722	0.113	-0.224
-295.705	-86.361	0.111	0.034
-294.691	-77.628	0.158	0.055
-293.676	-73.003	-0.266	-0.098
-292.662	-200.000	0.025	-0.309
-291.647	-19.136	0.225	-0.140
-290.632	-28.074	-0.335	-0.194
-289.618	-123.672	0.228	-0.036
-288.603	800.000	0.035	0.098
-287.589	-142.138	-0.358	0.036
-286.574	254.064	0.183	-0.312
-285.559	-9.413	0.233	0.156
-284.545	800.000	-0.081	-0.231
-283.530	-107.772	-0.207	0.045
-282.516	-50.514	0.180	0.085
-281.501	411.058	0.184	0.390
-280.486	90.987	0.108	0.121
-279.472	-200.000	0.018	0.116
-278.457	121.556	0.240	0.300
-277.443	-56.645	-0.234	0.103
-276.428	17.197	0.139	-0.110
-275.413	-80.656	-0.249	0.083
-274.399	-55.437	-0.240	-0.107
-273.384	800.000	0.082	0.337
-272.370	-200.000	0.012	0.223
-271.355	127.533	0.027	0.034
-270.340	-200.000	-0.019	0.118
-269.326	15.250	-0.155	-0.121
-268.311	261.912	-0.139	0.241
-267.297	49.997	-0.304	0.287
-266.282	233.055	0.098	0.161
-265.267	-150.255	-0.177	-0.014
-264.253	48.448	-0.175	0.163
-263.238	38.995	-0.229	0.205
-262.224	59.592	-0.100	-0.099
-261.209	800.000	-0.058	-0.240
-260.195	-24.656	0.145	-0.086
-259.180	44.570	0.229	0.210
-258.165	-134.862	-0.100	-0.012
-257.151	377.503	-0.042	0.087
-256.136	-20.236	-0.223	0.137
-255.122	-57.430	-0.063	-0.027
-254.107	34.482	0.216	-0.188
-253.092	800.000	-0.075	-0.277
-252.078	307.057	-0.132	-0.246
-251.063	-41.950	0.286	0.146
-250.049	48.420	-0.109	-0.102
-249.034	-96.465	-0.331	-0.087
-248.019	-200.000	0.019	-0.267
-247.005	-200.000	-0.091	-0.000
-245.990	-200.000	0.039	0.341
-244.976	-144.758	0.370	0.034
-243.961	148.188	0.039	0.052
-242.946	111.244	0.135	-0.162
-241.932	504.542	0.119	0.275
-240.917	-8.866	0.311	0.208
-239.903	167.127	-0.100	0.142
-238.888	231.318	-0.338	0.552
-237.873	279.722	0.041	-0.073
-236.859	-200.000	-0.048	-0.233
-235.844	-200.000	0.004	0.033
-234.830	90.874	0.231	-0.258
-233.815	111.680	0.162	0.195
-232.800	800.000	0.051	-0.148
-231.786	-92.349	-0.083	0.023
-230.771	-94.002	-0.146	-0.040
-229.757	19.860	0.087	0.070
-228.742	762.420	0.052	-0.140
-227.727	216.971	0.055	-0.087
-226.713	-57.732	0.151	-0.066
-225.698	800.000	-0.071	0.255
-224.684	-121.521	-0.229	-0.038
-223.669	800.000	0.048	0.190
-222.655	33.107	0.226	0.196
-221.640	-200.000	-0.029	0.205
-220.625	-128.112	-0.127	0.018
-219.611	800.000	-0.086	0.340
-218.596	-135.316	-0.568	-0.068
-217.582	-200.000	-0.016	0.072
-216.567	-42.741	-0.231	0.117
-215.552	-200.000	-0.060	0.421
-214.538	-4.373	-0.139	-0.096
-213.523	-12.423	-0.270	0.176
-212.509	800.000	-0.055	-0.232
-211.494	70.226	0.097	-0.100
-210.479	362.419	0.103	0.205
-209.465	38.788	0.308	-0.274
-208.450	16.532	0.077	0.061
-207.436	127.045	0.208	-0.263
-206.421	-200.000	0.062	-0.275
-205.406	-100.403	0.233	-0.058
-204.392	35.334	-0.022	-0.020
-203.377	-23.274	-0.294	0.176
-202.363	-58.230	-0.419	0.182
-201.348	107.452	-0.017	0.021
-200.333	708.373	0.022	0.058
-199.319	800.000	-0.042	0.158
-198.304	-107.899	-0.285	-0.062
-197.290	601.313	-0.031	-0.077
-196.275	-131.224	0.275	-0.036
-195.260	-200.000	0.029	0.234
-194.246	-5.425	0.186	-0.127
-193.231	-19.799	0.251	0.155
-192.217	99.811	0.037	0.042
-191.202	117.779	0.112	-0.137
-190.187	615.650	-0.079	-0.197
-189.173	58.638	0.153	-0.149
-188.158	28.387	0.264	0.222
-187.144	-200.000	-0.017	0.195
-186.129	80.830	-0.100	-0.108
-185.114	74.819	0.201	0.211
-184.100	-200.000	0.035	-0.331
-183.085	43.415	-0.068	0.062
-182.071	72.821	0.124	0.129
-181.056	-131.653	-0.052	-0.007
-180.042	-86.802	0.089	-0.027
-179.027	115.660	0.110	0.134
-178.012	537.420	0.131	0.310
-176.998	-91.997	0.244	0.069
-175.983	-7.679	0.280	0.189
-174.969	-21.442	0.210	-0.127
-173.954	800.000	0.096	0.343
-172.939	292.355	0.098	-0.179
-171.925	247.491	0.216	-0.363
-170.910	43.660	0.215	0.196
-169.896	12.346	0.266	0.204
-168.881	800.000	0.132	0.393
-167.866	624.104	0.077	-0.194
-166.852	550.009	-0.096	0.228
-165.837	300.875	-0.046	0.084
-164.823	-68.939	0.344	-0.132
-163.808	800.000	0.045	-0.136
-162.793	-200.000	-0.005	0.036
-161.779	31.114	0.218	-0.186
-160.764	246.236	0.252	-0.422
-159.750	385.046	-0.008	-0.017
-158.735	160.224	0.268	0.372
-157.720	8.576	-0.207	-0.155
-156.706	22.306	-0.141	0.115
-155.691	17.779	-0.197	0.156
-154.677	449.912	-0.147	0.322
-153.662	800.000	-0.033	0.109
-152.647	-200.000	-0.015	0.232
-151.633	55.347	0.082	0.078
-150.618	-66.720	0.198	0.078
-149.604	294.335	-0.113	0.205
-148.589	94.230	-0.087	0.099
-147.574	605.326	0.129	0.319
-146.560	64.339	-0.098	0.098
-145.545	-200.000	0.023	-0.160
-144.531	264.512	-0.085	-0.147
-143.516	7.336	0.311	0.231
-142.502	-100.726	-0.161	-0.040
-141.487	-200.000	0.046	0.218
-140.472	-64.251	0.332	0.135
-139.458	34.002	0.141	-0.122
-138.443	-34.366	0.232	0.126
-137.429	484.512	-0.137	0.309
-136.414	-52.793	-0.167	-0.077
-135.399	-200.000	-0.040	0.314
-134.385	800.000	-0.037	0.126
-133.370	-200.000	0.004	-0.312
-132.356	-200.000	0.004	-0.037
-131.341	158.740	-0.194	-0.268
-130.326	-35.650	-0.165	0.089
-129.312	187.372	0.174	-0.258
-128.297	202.701	-0.164	-0.252
-127.283	46.748	-0.092	-0.085
-126.268	-180.691	-0.069	-0.001
-125.253	214.976	-0.050	-0.079
-124.239	-200.000	0.085	-0.426
-123.224	22.911	-0.205	-0.167
-122.210	-133.620	-0.114	-0.014
-121.195	-88.203	0.207	0.062
-120.180	-109.791	0.330	0.069
