DTS Sentinel unit serial number:	SN413079Multiplexer serial number:	ORYXHardware model number:	OX4-SRSoftware version number:	ORYX F/W v4.00 Oryx Data Collector v3.7.2.0data status	okinstallation	princeton_trtdifferential loss correction	single-endedforward channel	channel 4reverse channel	N/Adate	2019/09/18time	21:25:35forward acquisition time	60.00reverse acquisition time	0.00gamma	496.2192k internal	0.2330k external	0.2330temperature offset calibration	1.0034default loss term (dB/km)	0.3790temperature slope calibration	1.0000multiplexer offset coefficient	1.0000multiplexer slope coefficient	1.0000fibre end	0.00T internal ref (°C)	25.44T ext. ref 1 (°C)	0.83T ext. ref 2 (°C)	18.21length (m)	temperature (°C)	Stokes	anti-Stokes-747.200	-88.297	-0.105	0.032
-746.185	561.395	0.071	-0.172
-745.171	-76.246	-0.061	0.022
-744.156	-55.520	-0.338	0.152
-743.142	-100.239	0.385	-0.096
-742.127	-200.000	-0.019	-0.145
-741.112	281.331	-0.088	0.158
-740.098	431.326	-0.126	-0.274
-739.083	-200.000	0.036	-0.196
-738.069	27.578	-0.093	0.078
-737.054	800.000	0.054	0.208
-736.039	-200.000	0.007	-0.176
-735.025	-69.140	0.195	0.076
-734.010	-200.000	0.002	0.207
-732.996	-49.362	-0.420	-0.202
-731.981	-200.000	0.041	0.241
-730.966	-15.163	0.323	-0.208
-729.952	577.284	0.141	0.348
-728.937	-200.000	-0.030	0.249
-727.923	-102.375	-0.237	0.057
-726.908	-68.970	-0.125	-0.048
-725.894	677.366	0.085	0.221
-724.879	461.633	-0.130	-0.291
-723.864	386.519	-0.159	-0.330
-722.850	-21.403	-0.193	-0.119
-721.835	-200.000	-0.046	-0.340
-720.821	-200.000	-0.041	-0.279
-719.806	54.843	0.175	0.170
-718.791	22.028	0.304	0.249
-717.777	142.108	0.166	0.222
-716.762	217.948	-0.209	-0.336
-715.748	-200.000	0.002	-0.094
-714.733	-105.759	-0.119	0.027
-713.718	177.268	0.179	0.262
-712.704	-62.151	0.237	0.100
-711.689	231.704	-0.109	-0.180
-710.675	-152.093	0.258	-0.019
-709.660	356.957	0.105	0.211
-708.645	-200.000	0.012	0.130
-707.631	63.938	0.146	0.148
-706.616	-28.233	0.082	0.048
-705.602	-111.610	-0.194	0.040
-704.587	188.551	0.188	0.282
-703.572	800.000	-0.065	-0.208
-702.558	-200.000	0.001	-0.197
-701.543	59.653	0.147	0.146
-700.529	197.226	-0.057	-0.088
-699.514	134.737	-0.046	0.060
-698.499	293.734	-0.179	-0.328
-697.485	800.000	0.066	-0.247
-696.470	120.051	-0.228	-0.284
-695.456	63.343	-0.184	-0.185
-694.441	215.338	0.096	-0.152
-693.426	-161.432	0.037	-0.002
-692.412	-59.703	-0.225	-0.097
-691.397	735.977	-0.060	-0.160
-690.383	103.565	-0.061	0.072
-689.368	-53.973	0.045	-0.020
-688.354	-41.371	-0.139	0.072
-687.339	519.048	-0.032	0.076
-686.324	223.928	0.069	0.112
-685.310	-0.544	-0.290	-0.207
-684.295	-37.081	0.268	-0.144
-683.281	-71.061	0.185	-0.070
-682.266	-168.055	0.250	0.010
-681.251	-200.000	-0.057	0.388
-680.237	69.134	-0.319	-0.329
-679.222	127.816	-0.057	0.073
-678.208	-200.000	0.035	-0.213
-677.193	800.000	-0.079	0.314
-676.178	44.060	-0.096	0.088
-675.164	-200.000	-0.005	0.267
-674.149	-200.000	0.029	-0.138
-673.135	-26.966	0.222	-0.130
-672.120	4.020	-0.376	-0.276
-671.105	42.372	-0.156	-0.142
-670.091	-200.000	-0.005	-0.090
-669.076	-200.000	0.009	-0.089
-668.062	-200.000	0.040	-0.246
-667.047	2.571	-0.049	0.036
-666.032	100.857	0.263	0.306
-665.018	13.057	0.182	0.141
-664.003	-100.004	-0.191	-0.048
-662.989	35.613	-0.240	0.211
-661.974	90.346	-0.094	-0.105
-660.959	-24.654	-0.108	0.064
-659.945	800.000	0.044	0.152
-658.930	18.493	0.128	-0.103
-657.916	-119.617	-0.283	-0.049
-656.901	-52.352	0.158	-0.074
-655.886	183.595	-0.058	-0.086
-654.872	800.000	0.035	0.105
-653.857	-140.143	-0.198	0.021
-652.843	-35.449	-0.314	-0.171
-651.828	-200.000	0.015	0.215
-650.814	-200.000	-0.014	0.105
-649.799	-18.081	0.179	-0.112
-648.784	441.850	-0.068	0.148
-647.770	800.000	-0.143	-0.436
-646.755	111.774	-0.088	-0.106
-645.741	303.356	-0.114	0.212
-644.726	139.588	-0.267	-0.352
-643.711	-65.339	0.247	-0.100
-642.697	76.248	-0.198	0.210
-641.682	800.000	0.078	-0.293
-640.668	-200.000	-0.047	0.244
-639.653	223.825	-0.014	0.022
-638.638	128.118	-0.161	-0.206
-637.624	-200.000	-0.015	0.294
-636.609	10.300	0.040	0.030
-635.595	489.053	-0.080	-0.183
-634.580	-200.000	-0.108	0.488
-633.565	183.259	-0.083	0.122
-632.551	-200.000	-0.031	0.255
-631.536	-200.000	0.004	-0.074
-630.522	800.000	0.086	-0.374
-629.507	-116.512	-0.185	0.034
-628.492	428.898	0.185	-0.401
-627.478	495.940	-0.118	-0.273
-626.463	-75.680	-0.518	-0.184
-625.449	-200.000	0.106	-0.623
-624.434	-129.424	0.033	-0.005
-623.419	21.189	0.114	-0.093
-622.405	-200.000	-0.023	-0.217
-621.390	107.426	-0.208	-0.248
-620.376	50.130	0.070	-0.066
-619.361	111.428	-0.201	0.243
-618.346	340.846	-0.065	-0.127
-617.332	800.000	0.078	0.269
-616.317	185.205	-0.169	0.252
-615.303	374.536	0.073	0.149
-614.288	-94.831	-0.228	-0.062
-613.273	214.513	0.138	0.219
-612.259	-200.000	0.044	0.328
-611.244	-132.602	-0.253	-0.033
-610.230	-94.176	0.308	0.085
-609.215	-200.000	-0.028	-0.133
-608.201	800.000	-0.132	0.385
-607.186	68.355	0.201	0.206
-606.171	-43.006	-0.239	0.121
-605.157	22.888	-0.066	0.054
-604.142	-191.310	0.321	0.003
-603.128	-200.000	-0.036	-0.477
-602.113	433.372	-0.166	0.361
-601.098	-72.763	-0.167	-0.062
-600.084	-200.000	0.003	-0.080
-599.069	746.513	-0.079	-0.212
-598.055	-162.974	0.040	-0.002
-597.040	-200.000	0.048	-0.298
-596.025	-46.510	0.080	-0.039
-595.011	0.886	0.246	-0.176
-593.996	-42.786	0.062	-0.032
-592.982	800.000	-0.027	-0.092
-591.967	-82.228	0.288	-0.094
-590.952	-133.173	-0.306	0.039
-589.938	-115.459	-0.023	-0.004
-588.923	39.267	-0.143	-0.128
-587.909	-200.000	0.070	0.368
-586.894	612.766	0.053	0.133
-585.879	-125.962	0.055	-0.008
-584.865	-39.785	0.115	-0.060
-583.850	-6.428	0.391	0.267
-582.836	-15.176	-0.122	0.078
-581.821	-125.259	0.220	-0.034
-580.806	-92.919	0.346	-0.097
-579.792	325.893	-0.184	-0.352
-578.777	85.214	-0.164	-0.180
-577.763	-151.474	0.270	0.020
-576.748	69.867	0.153	0.157
-575.733	260.697	0.058	0.100
-574.719	-149.634	0.051	0.004
-573.704	454.425	0.109	-0.243
-572.690	-200.000	0.011	0.069
-571.675	52.993	-0.043	0.041
-570.661	21.476	-0.112	-0.091
-569.646	-81.106	-0.307	0.101
-568.631	-49.934	0.175	-0.083
-567.617	72.086	-0.126	0.131
-566.602	-200.000	0.039	0.255
-565.588	-75.277	-0.074	-0.027
-564.573	7.334	0.356	0.266
-563.558	498.489	0.091	-0.210
-562.544	80.318	-0.273	0.293
-561.529	-144.765	-0.514	0.047
-560.515	-22.547	0.099	-0.060
-559.500	800.000	-0.097	-0.398
-558.485	717.185	-0.076	0.201
-557.471	3.695	0.132	0.096
-556.456	-53.502	-0.230	-0.105
-555.442	74.784	0.056	-0.058
-554.427	-106.295	-0.159	-0.035
-553.412	-5.388	-0.167	0.115
-552.398	-64.439	0.359	-0.146
-551.383	525.615	-0.056	-0.131
-550.369	-77.284	0.161	0.056
-549.354	-71.683	0.105	-0.039
-548.339	800.000	-0.013	0.049
-547.325	501.834	0.073	0.169
-546.310	-19.384	-0.071	0.044
-545.296	307.974	0.182	-0.339
-544.281	621.977	0.042	-0.106
-543.266	-200.000	-0.018	0.169
-542.252	34.270	-0.168	0.146
-541.237	-43.897	0.171	0.086
-540.223	30.974	0.061	-0.053
-539.208	78.447	-0.200	-0.214
-538.193	-109.398	0.136	0.029
-537.179	177.538	0.034	-0.050
-536.164	-200.000	-0.039	0.364
-535.150	66.760	0.425	0.432
-534.135	-135.984	-0.169	0.020
-533.121	165.780	-0.125	0.177
-532.106	-34.556	-0.077	0.042
-531.091	17.424	0.186	0.148
-530.077	83.719	0.041	-0.044
-529.062	-200.000	-0.001	-0.200
-528.048	-200.000	0.019	-0.255
-527.033	-182.559	-0.487	-0.009
-526.018	-200.000	-0.055	-0.419
-525.004	-27.203	-0.279	-0.162
-523.989	60.002	0.179	0.176
-522.975	-29.612	0.208	0.119
-521.960	371.159	-0.123	-0.249
-520.945	-41.964	0.221	-0.113
-519.931	-19.181	-0.347	0.215
-518.916	25.502	-0.201	0.167
-517.902	266.579	-0.107	-0.186
-516.887	-74.879	0.404	0.145
-515.872	-153.757	-0.548	-0.038
-514.858	88.277	-0.289	0.320
-513.843	226.424	0.048	0.078
-512.829	-102.613	0.402	-0.096
-511.814	-200.000	-0.110	-0.490
-510.799	800.000	-0.089	-0.251
-509.785	-71.987	-0.213	-0.079
-508.770	251.541	-0.175	-0.297
-507.756	2.096	-0.116	0.084
-506.741	-93.367	0.261	-0.072
-505.726	-81.580	-0.242	-0.079
-504.712	-29.818	0.334	0.190
-503.697	448.627	-0.120	0.265
-502.683	-17.327	-0.277	0.174
-501.668	-200.000	0.001	-0.149
-500.653	-101.617	0.063	0.015
-499.639	-200.000	-0.011	-0.371
-498.624	-153.420	-0.334	-0.023
-497.610	-200.000	-0.084	0.367
-496.595	46.580	0.347	-0.321
-495.581	-79.407	-0.180	0.061
-494.566	502.136	0.063	0.145
-493.551	-32.647	0.283	0.157
-492.537	-3.331	-0.298	-0.207
-491.522	-65.705	0.175	0.070
-490.508	-105.761	0.481	-0.108
-489.493	-147.020	0.210	0.018
-488.478	599.980	-0.090	0.222
-487.464	-131.206	-0.333	0.044
-486.449	787.014	-0.047	0.128
-485.435	-89.634	-0.170	0.050
-484.420	-173.999	-0.299	-0.009
-483.405	46.871	-0.114	0.105
-482.391	-9.967	-0.305	0.202
-481.376	-55.986	0.177	-0.079
-480.362	-39.918	-0.187	0.097
-479.347	-10.824	0.045	0.029
-478.332	-71.013	0.177	0.066
-477.318	182.970	-0.082	0.121
-476.303	-113.655	-0.183	0.036
-475.289	-200.000	-0.007	0.061
-474.274	-28.226	0.198	-0.114
-473.259	-91.048	-0.194	-0.056
-472.245	232.981	-0.108	-0.176
-471.230	105.008	-0.186	0.219
-470.216	-200.000	-0.019	0.134
-469.201	256.663	-0.160	0.274
-468.186	-128.018	0.033	-0.005
-467.172	120.178	-0.011	0.014
-466.157	308.560	0.065	0.122
-465.143	220.397	-0.188	-0.299
-464.128	399.479	-0.129	-0.268
-463.113	116.342	0.117	0.142
-462.099	69.311	0.113	0.115
-461.084	144.343	-0.123	-0.163
-460.070	153.201	-0.058	0.080
-459.055	127.471	0.044	0.056
-458.040	-200.000	0.010	0.353
-457.026	-14.812	-0.261	0.167
-456.011	-89.228	-0.234	0.069
-454.997	267.160	-0.105	-0.183
-453.982	61.160	0.176	-0.174
-452.968	800.000	-0.043	-0.174
-451.953	-25.763	0.312	-0.183
-450.938	-43.356	-0.132	-0.066
-449.924	89.550	0.135	-0.150
-448.909	383.736	0.118	0.242
-447.895	-145.105	-0.146	0.013
-446.880	-200.000	0.064	0.312
-445.865	-200.000	-0.043	0.370
-444.851	644.219	-0.095	-0.241
-443.836	599.513	0.133	-0.328
-442.822	165.778	-0.090	0.127
-441.807	600.147	0.062	0.154
-440.792	10.872	-0.102	0.077
-439.778	-113.729	0.106	-0.021
-438.763	30.302	-0.050	0.042
-437.749	-200.000	-0.029	0.169
-436.734	362.356	0.046	-0.093
-435.719	65.826	0.116	-0.117
-434.705	10.298	-0.044	-0.033
-433.690	177.652	-0.248	0.359
-432.676	521.076	0.079	0.184
-431.661	484.248	0.063	-0.142
-430.646	-200.000	0.032	-0.146
-429.632	46.933	0.306	-0.283
-428.617	-200.000	0.024	0.129
-427.603	800.000	-0.082	0.335
-426.588	262.853	0.243	0.420
-425.573	800.000	0.067	0.265
-424.559	-10.419	-0.288	-0.190
-423.544	800.000	-0.088	-0.256
-422.530	-200.000	0.021	0.116
-421.515	-200.000	-0.074	0.342
-420.500	-35.871	-0.071	0.038
-419.486	-2.370	0.131	-0.091
-418.471	5.799	-0.415	0.305
-417.457	-73.224	0.239	-0.087
-416.442	800.000	0.024	0.098
-415.428	294.400	0.116	0.210
-414.413	-119.700	-0.150	-0.026
-413.398	-11.206	-0.064	-0.042
-412.384	65.058	-0.210	-0.211
-411.369	18.904	-0.174	-0.138
-410.355	-90.550	-0.310	-0.089
-409.340	-200.000	-0.063	-0.299
-408.325	143.723	-0.222	0.294
-407.311	-54.590	0.293	0.132
-406.296	689.809	-0.048	0.125
-405.282	592.750	0.148	0.364
-404.267	-104.239	0.050	0.011
-403.252	151.418	-0.131	0.177
-402.238	78.037	-0.036	0.038
-401.223	4.932	0.205	0.150
-400.209	168.254	0.127	0.180
-399.194	-41.858	0.293	0.149
-398.179	-76.220	0.147	0.051
-397.165	-4.185	-0.209	0.144
-396.150	-117.464	0.165	-0.030
-395.136	-135.381	0.244	-0.029
-394.121	114.630	0.168	0.204
-393.106	108.272	-0.034	0.041
-392.092	-200.000	0.004	0.192
-391.077	-50.864	-0.075	-0.035
-390.063	-200.000	-0.001	-0.051
-389.048	-177.847	0.348	-0.008
-388.033	-184.351	-0.337	0.005
-387.019	81.722	0.015	0.016
-386.004	206.184	0.197	0.304
-384.990	-89.587	0.107	-0.031
-383.975	-64.991	0.120	-0.048
-382.960	42.428	-0.178	0.160
-381.946	190.970	0.104	-0.155
-380.931	328.707	-0.084	0.161
-379.917	-200.000	-0.014	0.350
-378.902	503.377	-0.079	-0.181
-377.888	141.192	0.035	0.046
-376.873	-200.000	-0.020	0.464
-375.858	-119.008	0.284	-0.049
-374.844	-116.310	-0.190	-0.035
-373.829	120.733	0.174	0.214
-372.815	-41.006	-0.224	0.115
-371.800	47.595	-0.118	0.110
-370.785	76.235	0.096	0.100
-369.771	-1.362	0.060	0.042
-368.756	-200.000	-0.042	0.193
-367.742	-200.000	-0.021	-0.227
-366.727	800.000	0.038	-0.134
-365.712	-200.000	-0.056	-0.249
-364.698	-200.000	0.026	-0.376
-363.683	3.569	-0.060	0.044
-362.669	-200.000	0.025	-0.273
-361.654	114.687	0.093	0.113
-360.639	800.000	0.060	-0.232
-359.625	-45.084	-0.150	0.074
-358.610	-200.000	-0.050	0.386
-357.596	-200.000	0.021	0.190
-356.581	-200.000	0.040	0.413
-355.566	306.967	0.166	0.307
-354.552	-58.444	-0.498	-0.214
-353.537	-87.238	0.153	0.046
-352.523	-145.259	-0.250	-0.022
-351.508	-160.254	0.366	-0.020
-350.493	111.102	0.124	0.148
-349.479	-19.238	-0.122	-0.075
-348.464	-200.000	-0.006	-0.049
-347.450	-95.742	0.126	-0.033
-346.435	109.927	-0.064	-0.076
-345.420	-200.000	-0.047	0.294
-344.406	16.463	0.016	-0.013
-343.391	-8.481	0.355	0.236
-342.377	155.382	-0.111	-0.151
-341.362	-200.000	0.023	-0.123
-340.348	327.515	-0.161	0.307
-339.333	81.531	0.222	0.238
-338.318	381.089	0.079	-0.161
-337.304	232.605	-0.081	-0.132
-336.289	-71.843	0.185	-0.068
-335.275	-115.961	0.216	0.040
-334.260	97.075	-0.213	-0.242
-333.245	800.000	0.109	-0.369
-332.231	-53.065	0.423	0.193
-331.216	-87.508	0.061	-0.018
-330.202	-99.894	-0.270	-0.067
-329.187	-15.068	-0.086	0.055
-328.172	118.885	0.128	-0.157
-327.158	81.674	0.170	0.182
-326.143	560.796	0.123	0.294
-325.129	-200.000	-0.059	-0.000
-324.114	727.492	-0.194	0.513
-323.099	-188.177	0.236	-0.003
-322.085	800.000	0.069	-0.209
-321.070	52.550	0.220	-0.208
-320.056	-14.806	-0.091	-0.058
-319.041	-26.634	0.086	0.050
-318.026	-85.352	0.281	-0.087
-317.012	-200.000	-0.043	0.247
-315.997	0.134	0.030	-0.021
-314.983	-105.483	-0.073	-0.016
-313.968	110.792	0.216	0.258
-312.953	-15.424	0.246	-0.156
-311.939	-200.000	-0.005	-0.149
-310.924	18.077	-0.138	0.109
-309.910	-119.324	0.345	-0.059
-308.895	-21.525	-0.347	0.210
-307.880	183.477	0.073	0.106
-306.866	-63.596	0.309	0.126
-305.851	-73.436	-0.381	-0.138
-304.837	58.092	0.197	0.191
-303.822	-200.000	0.005	0.027
-302.807	764.799	-0.113	-0.305
-301.793	450.891	-0.043	-0.093
-300.778	-200.000	0.094	-0.421
-299.764	800.000	-0.088	-0.264
-298.749	252.133	0.071	-0.120
-297.735	107.199	0.225	-0.264
-296.720	-200.000	-0.033	-0.409
-295.705	-200.000	0.025	-0.289
-294.691	800.000	0.099	-0.283
-293.676	244.471	0.037	-0.062
-292.662	-187.885	-0.092	0.001
-291.647	-185.172	-0.184	0.003
-290.632	-200.000	0.023	0.242
-289.618	110.634	-0.127	0.152
-288.603	-99.395	-0.146	-0.036
-287.589	14.648	-0.265	-0.205
-286.574	-200.000	-0.006	-0.222
-285.559	-200.000	0.011	-0.166
-284.545	15.943	-0.222	-0.173
-283.530	-200.000	0.041	-0.209
-282.516	-200.000	0.008	-0.173
-281.501	-130.039	0.168	0.023
-280.486	800.000	0.066	-0.215
-279.472	-15.175	0.315	-0.199
-278.457	25.726	0.193	-0.159
-277.443	55.670	0.051	0.049
-276.428	10.356	0.273	0.206
-275.413	18.518	-0.075	0.059
-274.399	180.579	0.066	0.096
-273.384	230.054	-0.049	0.079
-272.370	-54.920	-0.223	0.100
-271.355	17.654	0.042	0.033
-270.340	727.828	-0.043	-0.113
-269.326	-176.025	-0.351	-0.009
-268.311	-92.288	0.364	0.101
-267.297	-114.896	-0.374	0.070
-266.282	154.236	-0.075	0.102
-265.267	-60.092	0.211	-0.089
-264.253	137.760	0.026	0.034
-263.238	18.027	-0.159	0.125
-262.224	-111.730	0.252	0.050
-261.209	17.275	-0.071	-0.056
-260.195	-42.052	-0.126	0.064
-259.180	194.435	-0.314	-0.470
-258.165	51.071	0.184	-0.173
-257.151	-200.000	-0.011	-0.242
-256.136	-133.332	-0.162	-0.020
-255.122	-200.000	0.031	0.186
-254.107	-26.839	-0.151	-0.087
-253.092	-200.000	-0.016	-0.189
-252.078	-200.000	-0.044	0.241
-251.063	157.463	0.298	0.408
-250.049	800.000	-0.057	-0.213
-249.034	-68.047	0.178	-0.069
-248.019	-98.112	0.124	-0.032
-247.005	79.505	0.147	0.155
-245.990	-200.000	0.006	0.099
-244.976	-51.758	-0.251	-0.115
-243.961	-166.913	-0.059	-0.002
-242.946	-159.408	0.186	-0.010
-241.932	-10.998	0.246	-0.160
-240.917	-84.603	-0.238	-0.074
-239.903	107.563	-0.115	-0.135
-238.888	719.869	-0.125	-0.329
-237.873	42.757	0.168	-0.151
-236.859	-9.627	0.091	-0.060
-235.844	-69.421	-0.294	-0.111
-234.830	800.000	-0.075	0.282
-233.815	800.000	-0.136	-0.438
-232.800	800.000	0.102	-0.397
-231.786	-200.000	0.001	0.173
-230.771	800.000	0.074	0.235
-229.757	383.162	-0.095	0.193
-228.742	-137.674	0.087	0.010
-227.727	328.635	0.006	-0.011
-226.713	-144.599	-0.155	-0.014
-225.698	-89.551	0.187	-0.054
-224.684	440.438	-0.097	0.209
-223.669	-136.701	0.023	0.003
-222.655	381.552	0.064	-0.129
-221.640	147.187	0.101	-0.134
-220.625	800.000	-0.052	0.153
-219.611	-66.345	0.268	-0.105
-218.596	-26.373	0.097	-0.056
-217.582	429.128	-0.076	0.161
-216.567	635.585	0.092	0.230
-215.552	27.194	0.189	0.156
-214.538	800.000	-0.036	0.132
-213.523	-13.899	-0.172	-0.110
-212.509	236.716	0.027	-0.044
-211.494	-12.678	-0.257	-0.165
-210.479	-39.344	0.036	-0.019
-209.465	-36.343	0.046	-0.024
-208.450	-200.000	0.058	0.294
-207.436	70.088	0.214	0.217
-206.421	19.307	0.052	0.041
-205.406	-144.143	0.295	-0.027
-204.392	-36.552	-0.312	0.166
-203.377	305.004	-0.083	0.152
-202.363	-5.201	-0.242	0.164
-201.348	4.212	0.156	0.113
-200.333	18.823	0.327	-0.258
-199.319	-6.271	0.252	0.170
-198.304	-200.000	0.020	0.362
-197.290	-200.000	0.032	-0.148
-196.275	241.341	-0.156	-0.257
-195.260	-200.000	0.015	-0.114
-194.246	9.957	-0.178	-0.133
-193.231	-200.000	-0.002	-0.212
-192.217	156.469	0.175	-0.238
-191.202	800.000	0.038	-0.129
-190.187	99.143	0.116	0.133
-189.173	-28.817	-0.299	0.169
-188.158	-51.327	0.073	0.034
-187.144	162.100	0.102	0.140
-186.129	-106.292	0.264	-0.058
-185.114	129.954	-0.119	0.150
-184.100	-29.798	0.083	-0.047
-183.085	800.000	-0.063	-0.186
-182.071	-139.261	-0.165	0.018
-181.056	-200.000	-0.005	0.148
-180.042	67.277	0.048	-0.048
-179.027	800.000	-0.050	0.143
-178.012	800.000	0.077	-0.270
-176.998	-83.792	0.213	-0.067
-175.983	-40.081	-0.188	-0.096
-174.969	63.074	-0.069	0.068
-173.954	-32.467	0.245	-0.134
-172.939	-141.176	-0.374	-0.038
-171.925	-113.932	0.213	-0.041
-170.910	263.226	0.294	-0.502
-169.896	800.000	0.062	-0.195
-168.881	-200.000	0.008	0.180
-167.866	10.487	-0.197	-0.148
-166.852	800.000	-0.084	-0.250
-165.837	543.165	-0.157	-0.369
-164.823	-200.000	0.017	0.129
-163.808	-110.318	-0.145	-0.030
-162.793	-82.406	-0.104	0.033
-161.779	-128.716	0.350	-0.049
-160.764	-118.759	0.209	0.036
-159.750	-56.099	-0.101	-0.044
-158.735	-60.060	0.296	-0.125
-157.720	-200.000	-0.009	0.147
-156.706	-127.356	0.243	-0.035
-155.691	-200.000	0.019	-0.085
-154.677	276.110	-0.087	0.152
-153.662	330.710	-0.139	-0.263
-152.647	251.815	0.089	0.149
-151.633	-3.864	-0.135	-0.092
-150.618	396.445	0.096	-0.196
-149.604	-50.870	-0.178	-0.083
-148.589	330.933	-0.218	-0.413
-147.574	-96.123	-0.176	-0.046
-146.560	-132.479	-0.314	-0.040
-145.545	-9.026	-0.267	0.176
-144.531	-94.242	-0.244	0.066
-143.516	12.987	-0.246	0.187
-142.502	-200.000	0.028	0.147
-141.487	800.000	-0.049	-0.144
-140.472	355.935	-0.094	-0.183
-139.458	17.955	-0.117	0.092
-138.443	800.000	-0.050	0.208
-137.429	-21.244	0.184	-0.111
-136.414	-94.704	0.287	-0.077
-135.399	535.799	0.075	0.175
-134.385	-130.286	0.160	0.021
-133.370	800.000	-0.048	0.132
-132.356	-45.392	0.270	-0.132
-131.341	-122.169	-0.257	0.041
-130.326	13.076	0.272	-0.207
-129.312	-100.461	0.207	0.050
-128.297	15.148	0.136	0.105
-127.283	800.000	-0.079	-0.263
-126.268	-92.251	0.235	0.065
-125.253	222.941	-0.241	-0.382
-124.239	279.450	-0.128	0.224
-123.224	-37.477	0.139	0.073
-122.210	-200.000	0.020	-0.397
-121.195	116.701	-0.071	0.086
