DTS Sentinel unit serial number:	SN413079Multiplexer serial number:	ORYXHardware model number:	OX4-SRSoftware version number:	ORYX F/W v4.00 Oryx Data Collector v3.7.2.0data status	okinstallation	princeton_trtdifferential loss correction	single-endedforward channel	channel 4reverse channel	N/Adate	2019/09/15time	01:25:34forward acquisition time	60.00reverse acquisition time	0.00gamma	496.2192k internal	0.2307k external	0.2307temperature offset calibration	1.0037default loss term (dB/km)	0.3790temperature slope calibration	1.0000multiplexer offset coefficient	1.0000multiplexer slope coefficient	1.0000fibre end	0.00T internal ref (°C)	31.89T ext. ref 1 (°C)	4.49T ext. ref 2 (°C)	26.77length (m)	temperature (°C)	Stokes	anti-Stokes-747.200	15.289	0.227	0.181
-746.185	800.000	-0.089	0.373
-745.171	-106.608	-0.057	0.013
-744.156	-96.818	-0.124	0.033
-743.142	62.324	0.078	-0.079
-742.127	-101.445	-0.286	0.071
-741.112	-145.686	-0.140	0.013
-740.098	-200.000	0.005	-0.032
-739.083	45.605	0.060	0.056
-738.069	180.701	-0.209	0.312
-737.054	-200.000	0.005	-0.151
-736.039	-175.928	-0.254	0.007
-735.025	-165.879	0.339	0.015
-734.010	800.000	0.012	0.051
-732.996	-18.037	-0.190	-0.121
-731.981	-39.054	-0.292	-0.156
-730.966	187.166	-0.079	0.120
-729.952	-35.576	-0.196	-0.108
-728.937	-200.000	0.008	0.192
-727.923	43.156	0.108	0.100
-726.908	-196.669	-0.236	0.002
-725.894	-90.076	0.441	0.130
-724.879	-52.638	0.275	0.129
-723.864	-76.863	0.164	0.058
-722.850	238.753	-0.142	-0.239
-721.835	-109.004	0.182	0.039
-720.821	4.399	-0.071	0.053
-719.806	-200.000	0.020	0.154
-718.791	35.457	-0.236	-0.210
-717.777	800.000	-0.056	-0.169
-716.762	-26.726	-0.518	-0.308
-715.748	241.455	0.076	0.129
-714.733	-200.000	0.055	0.269
-713.718	-107.997	-0.224	-0.049
-712.704	189.304	0.054	0.081
-711.689	80.481	0.089	-0.098
-710.675	167.295	0.184	-0.265
-709.660	366.831	0.075	0.155
-708.645	38.946	-0.184	0.167
-707.631	-200.000	-0.003	-0.013
-706.616	800.000	0.012	-0.040
-705.602	18.693	0.205	0.166
-704.587	443.218	0.152	0.339
-703.572	-0.960	-0.210	0.151
-702.558	-165.387	-0.404	-0.018
-701.543	245.890	0.196	0.335
-700.529	269.509	0.111	0.198
-699.514	-118.650	0.272	0.049
-698.499	-161.592	-0.353	0.018
-697.485	110.285	-0.065	0.079
-696.470	582.575	-0.107	0.266
-695.456	162.177	-0.134	0.190
-694.441	-25.410	0.365	-0.219
-693.426	-9.097	0.230	-0.156
-692.412	-84.507	-0.275	0.088
-691.397	605.727	-0.151	-0.381
-690.383	-200.000	-0.006	0.128
-689.368	-106.239	-0.075	0.017
-688.354	-69.392	0.359	0.140
-687.339	22.271	-0.404	-0.334
-686.324	-45.688	0.347	-0.174
-685.310	-128.553	0.155	0.022
-684.295	-121.265	-0.303	0.051
-683.281	115.473	-0.186	-0.231
-682.266	-200.000	0.000	-0.028
-681.251	-135.223	-0.230	-0.028
-680.237	105.710	-0.123	-0.148
-679.222	85.003	-0.210	-0.234
-678.208	28.760	-0.154	0.133
-677.193	-106.878	-0.141	0.032
-676.178	308.399	-0.066	0.125
-675.164	-134.341	0.300	-0.037
-674.149	-33.468	-0.121	-0.068
-673.135	236.805	-0.153	-0.258
-672.120	-115.714	-0.148	0.028
-671.105	-95.020	0.179	-0.049
-670.091	215.313	-0.115	-0.185
-669.076	-35.165	0.154	0.085
-668.062	167.727	-0.078	0.112
-667.047	-137.115	0.286	0.033
-666.032	-41.992	0.280	0.145
-665.018	242.137	-0.056	0.095
-664.003	250.192	-0.032	0.055
-662.989	-6.427	-0.209	-0.144
-661.974	60.700	-0.243	-0.244
-660.959	-200.000	-0.014	-0.107
-659.945	374.145	-0.178	-0.367
-658.930	-100.624	-0.125	-0.031
-657.916	-20.277	0.089	-0.056
-656.901	13.751	0.135	0.106
-655.886	800.000	-0.042	0.164
-654.872	-80.971	0.121	0.041
-653.857	610.793	-0.034	0.086
-652.843	129.038	-0.223	-0.289
-651.828	130.785	-0.169	0.220
-650.814	-14.213	0.199	-0.130
-649.799	168.395	-0.232	-0.334
-648.784	-87.881	0.257	-0.078
-647.770	-5.084	0.016	0.011
-646.755	-62.327	-0.278	0.117
-645.741	-182.892	-0.075	-0.001
-644.726	57.348	0.144	0.142
-643.711	-50.561	-0.126	-0.060
-642.697	31.094	-0.052	0.046
-641.682	-10.458	-0.158	-0.106
-640.668	-200.000	0.013	-0.138
-639.653	248.835	-0.175	-0.300
-638.638	-108.606	0.268	-0.058
-637.624	-54.368	-0.166	0.076
-636.609	-186.861	-0.550	0.008
-635.595	175.420	0.058	0.085
-634.580	786.416	-0.030	0.084
-633.565	-186.699	-0.621	0.009
-632.551	800.000	0.035	-0.152
-631.536	24.571	0.163	0.137
-630.522	-134.366	-0.305	0.038
-629.507	16.721	-0.121	0.097
-628.492	-17.321	-0.219	0.139
-627.478	23.631	0.168	0.140
-626.463	-56.015	0.129	-0.058
-625.449	194.303	0.095	0.146
-624.434	-200.000	0.015	-0.116
-623.419	369.456	0.081	-0.166
-622.405	-84.194	0.099	0.032
-621.390	36.253	-0.241	-0.215
-620.376	2.015	0.057	0.042
-619.361	71.256	-0.093	0.097
-618.346	46.082	0.210	-0.197
-617.332	-30.658	-0.159	-0.091
-616.317	-51.588	0.066	-0.031
-615.303	-40.960	0.110	0.058
-614.288	347.353	0.215	0.427
-613.273	79.586	0.201	0.219
-612.259	-200.000	-0.052	0.324
-611.244	-200.000	0.010	0.223
-610.230	-140.899	-0.309	-0.032
-609.215	-13.830	-0.183	0.120
-608.201	-88.602	0.237	-0.071
-607.186	-38.144	-0.114	0.061
-606.171	-50.447	-0.243	0.116
-605.157	262.344	-0.062	0.109
-604.142	-200.000	-0.042	0.202
-603.128	-128.297	-0.230	-0.033
-602.113	-74.617	-0.238	-0.087
-601.098	242.558	-0.082	-0.138
-600.084	-70.758	0.300	-0.115
-599.069	-111.840	0.309	-0.063
-598.055	-85.468	-0.211	0.066
-597.040	118.445	-0.088	-0.110
-596.025	-24.558	-0.393	0.236
-595.011	-38.264	0.086	-0.046
-593.996	15.700	-0.243	0.193
-592.982	-108.944	0.169	-0.036
-591.967	-62.012	-0.044	0.019
-590.952	597.588	0.093	0.234
-589.938	48.863	0.103	0.098
-588.923	-126.294	-0.316	-0.048
-587.909	800.000	-0.003	0.012
-586.894	48.150	-0.174	-0.165
-585.879	-200.000	0.033	0.337
-584.865	-15.529	-0.053	0.034
-583.850	-34.239	-0.358	-0.198
-582.836	-130.945	-0.348	-0.047
-581.821	-130.644	-0.086	-0.012
-580.806	-66.652	0.397	0.159
-579.792	-12.174	0.247	0.163
-578.777	-77.580	0.146	-0.051
-577.763	4.354	0.050	-0.037
-576.748	94.200	0.138	-0.159
-575.733	87.061	-0.147	0.164
-574.719	-16.560	-0.154	0.098
-573.704	-79.941	-0.101	0.034
-572.690	-197.670	-0.269	-0.002
-571.675	-16.204	-0.062	0.040
-570.661	-200.000	-0.018	-0.206
-569.646	-13.179	0.277	0.182
-568.631	138.568	-0.010	0.013
-567.617	212.404	0.090	-0.144
-566.602	294.332	-0.056	0.104
-565.588	-72.657	-0.047	0.018
-564.573	-31.338	0.219	-0.125
-563.558	475.094	-0.102	-0.233
-562.544	-200.000	-0.010	-0.316
-561.529	-160.922	0.225	-0.012
-560.515	-127.614	-0.049	-0.007
-559.500	-27.943	0.195	-0.114
-558.485	279.838	0.222	0.400
-557.471	-85.612	0.417	-0.131
-556.456	89.331	0.263	0.295
-555.442	434.731	-0.012	0.026
-554.427	393.735	-0.131	0.274
-553.412	800.000	-0.063	-0.228
-552.398	800.000	0.074	0.264
-551.383	61.278	0.221	0.222
-550.369	-102.190	-0.298	-0.072
-549.354	134.070	-0.107	-0.140
-548.339	-60.723	-0.218	0.093
-547.325	223.809	-0.071	0.115
-546.310	-200.000	-0.024	0.192
-545.296	54.955	-0.205	0.199
-544.281	-200.000	-0.050	-0.273
-543.266	140.060	-0.152	-0.202
-542.252	18.016	-0.130	0.105
-541.237	-148.082	-0.481	0.040
-540.223	-200.000	0.003	0.168
-539.208	-200.000	-0.018	0.333
-538.193	281.125	0.101	-0.182
-537.179	800.000	0.121	-0.389
-536.164	-127.455	-0.145	-0.021
-535.150	214.325	-0.214	0.341
-534.135	-200.000	0.021	-0.102
-533.121	-200.000	0.002	0.122
-532.106	335.253	0.074	0.146
-531.091	11.837	-0.268	0.208
-530.077	-105.296	-0.337	-0.078
-529.062	183.885	-0.070	0.105
-528.048	-135.392	-0.161	0.019
-527.033	-101.844	0.040	-0.010
-526.018	-18.821	0.422	-0.265
-525.004	177.469	0.033	0.048
-523.989	-31.740	-0.116	0.066
-522.975	-39.169	0.153	0.081
-521.960	159.403	0.095	0.134
-520.945	-200.000	0.048	0.347
-519.931	25.299	0.108	0.091
-518.916	400.074	-0.160	-0.337
-517.902	103.697	-0.221	0.261
-516.887	800.000	0.089	0.304
-515.872	-200.000	0.003	0.039
-514.858	484.805	0.043	-0.100
-513.843	800.000	-0.026	0.102
-512.829	46.092	-0.071	-0.067
-511.814	800.000	0.031	0.117
-510.799	-72.515	0.212	0.079
-509.785	660.869	-0.034	0.089
-508.770	195.589	0.079	-0.121
-507.756	362.631	0.218	0.441
-506.741	-200.000	-0.019	0.116
-505.726	-42.271	0.118	-0.061
-504.712	174.453	0.105	-0.152
-503.697	-119.478	0.205	-0.036
-502.683	367.538	0.040	-0.082
-501.668	800.000	-0.076	0.250
-500.653	291.577	0.058	-0.107
-499.639	-54.929	-0.075	-0.034
-498.624	-16.317	-0.129	0.082
-497.610	143.321	0.134	0.179
-496.595	-26.597	-0.167	-0.099
-495.581	-180.910	0.071	0.001
-494.566	47.367	0.080	-0.075
-493.551	-200.000	-0.023	0.329
-492.537	-200.000	0.032	-0.224
-491.522	800.000	-0.041	-0.178
-490.508	166.095	0.213	0.303
-489.493	-200.000	-0.026	0.211
-488.478	-110.764	0.091	0.019
-487.464	313.867	-0.300	-0.568
-486.449	73.294	0.280	0.295
-485.435	568.301	-0.128	-0.314
-484.420	-105.357	-0.267	0.061
-483.405	-133.981	0.174	-0.022
-482.391	-200.000	0.035	-0.193
-481.376	795.896	-0.199	-0.552
-480.362	-30.133	-0.029	-0.017
-479.347	8.947	-0.170	0.129
-478.332	622.664	-0.069	0.174
-477.318	800.000	-0.110	0.335
-476.303	800.000	-0.108	-0.343
-475.289	54.060	-0.218	-0.211
-474.274	14.389	0.145	0.114
-473.259	-125.339	0.325	-0.050
-472.245	25.637	-0.039	-0.033
-471.230	686.267	0.064	0.168
-470.216	-200.000	0.015	0.122
-469.201	20.402	0.223	0.181
-468.186	126.036	-0.196	0.250
-467.172	-3.680	-0.241	-0.168
-466.157	-153.493	-0.096	0.007
-465.143	-153.760	-0.393	-0.027
-464.128	-42.970	0.422	-0.216
-463.113	-49.398	-0.290	-0.139
-462.099	-38.499	-0.088	0.047
-461.084	341.083	0.086	0.170
-460.070	739.627	-0.139	0.376
-459.055	-4.850	0.058	-0.040
-458.040	190.788	0.067	-0.102
-457.026	122.743	0.409	0.515
-456.011	215.921	0.127	-0.203
-454.997	340.844	-0.146	-0.287
-453.982	-200.000	-0.027	-0.187
-452.968	63.281	0.086	0.086
-451.953	-33.477	-0.222	-0.123
-450.938	295.455	-0.033	-0.060
-449.924	-200.000	0.068	-0.326
-448.909	800.000	0.074	-0.252
-447.895	-200.000	0.005	-0.059
-446.880	232.292	0.210	0.346
-445.865	-85.731	-0.041	-0.013
-444.851	431.329	-0.129	-0.280
-443.836	-64.255	0.336	0.137
-442.822	186.057	-0.207	0.310
-441.807	176.148	0.123	0.180
-440.792	115.086	0.156	0.191
-439.778	24.552	-0.276	-0.230
-438.763	38.600	-0.128	-0.115
-437.749	233.978	0.199	-0.329
-436.734	-200.000	0.015	0.099
-435.719	26.320	-0.139	-0.116
-434.705	99.630	0.092	0.107
-433.690	-17.092	-0.102	0.065
-432.676	800.000	0.037	0.113
-431.661	-139.709	-0.198	0.021
-430.646	345.015	-0.078	0.154
-429.632	-99.788	-0.453	-0.114
-428.617	749.915	-0.076	0.205
-427.603	-143.730	-0.077	-0.007
-426.588	-111.497	-0.187	-0.038
-425.573	-126.717	-0.122	0.018
-424.559	800.000	0.189	0.565
-423.544	68.170	0.106	0.109
-422.530	-200.000	-0.009	0.059
-421.515	66.005	0.195	-0.199
-420.500	178.229	-0.130	-0.191
-419.486	-146.597	-0.040	0.003
-418.471	646.324	-0.064	0.165
-417.457	577.458	0.061	0.149
-416.442	-43.422	0.207	0.105
-415.428	-19.151	-0.105	0.065
-414.413	51.957	0.044	-0.042
-413.398	512.484	0.083	0.193
-412.384	800.000	0.059	-0.239
-411.369	-91.673	-0.188	0.054
-410.355	-68.784	-0.251	-0.097
-409.340	-200.000	0.017	-0.329
-408.325	-111.764	-0.190	0.039
-407.311	81.800	0.018	-0.020
-406.296	800.000	0.057	0.244
-405.282	206.413	-0.247	0.385
-404.267	258.852	-0.119	-0.205
-403.252	9.379	0.195	-0.148
-402.238	101.078	0.148	-0.173
-401.223	800.000	-0.009	-0.033
-400.209	-124.486	0.187	-0.029
-399.194	61.264	0.209	-0.208
-398.179	800.000	0.083	-0.296
-397.165	-37.396	0.214	-0.115
-396.150	26.764	0.249	-0.209
-395.136	39.413	0.293	-0.263
-394.121	376.039	0.053	-0.109
-393.106	133.477	-0.071	-0.092
-392.092	-200.000	-0.039	-0.249
-391.077	-66.997	-0.053	-0.021
-390.063	29.048	-0.114	-0.097
-389.048	-200.000	-0.006	-0.047
-388.033	48.036	-0.274	0.257
-387.019	-105.575	-0.132	0.030
-386.004	-200.000	-0.012	-0.352
-384.990	-200.000	-0.001	0.309
-383.975	258.902	-0.036	0.063
-382.960	-75.142	0.242	0.087
-381.946	-34.674	-0.415	0.228
-380.931	139.291	-0.077	-0.101
-379.917	-140.269	-0.010	-0.001
-378.902	-187.620	-0.283	0.004
-377.888	140.470	-0.061	0.081
-376.873	-200.000	0.013	0.104
-375.858	-127.761	-0.138	-0.020
-374.844	30.551	0.155	-0.133
-373.829	109.094	0.191	-0.229
-372.815	419.468	-0.097	-0.208
-371.800	-49.544	-0.174	0.083
-370.785	-200.000	0.049	0.227
-369.771	-134.401	0.265	0.033
-368.756	32.545	0.056	-0.048
-367.742	371.898	-0.105	0.214
-366.727	-200.000	0.001	0.051
-365.712	608.173	-0.147	0.366
-364.698	59.325	-0.096	0.094
-363.683	-46.589	0.066	-0.032
-362.669	-5.969	-0.145	-0.099
-361.654	271.508	0.057	-0.101
-360.639	-75.389	-0.147	0.052
-359.625	-61.050	0.028	-0.012
-358.610	-200.000	0.007	-0.318
-357.596	517.060	-0.122	-0.285
-356.581	-137.063	0.243	-0.028
-355.566	800.000	-0.119	-0.338
-354.552	-1.880	-0.289	-0.204
-353.537	450.425	0.053	-0.116
-352.523	-91.826	-0.192	-0.055
-351.508	-87.902	0.064	-0.019
-350.493	-122.516	0.424	0.069
-349.479	-200.000	-0.003	-0.040
-348.464	-40.787	-0.200	0.104
-347.450	-70.138	-0.134	-0.051
-346.435	138.527	0.161	0.212
-345.420	251.976	-0.096	0.164
-344.406	-175.972	0.126	-0.003
-343.391	-63.797	0.435	-0.178
-342.377	162.976	0.041	-0.058
-341.362	143.572	-0.116	-0.155
-340.348	-8.407	0.373	0.251
-339.333	800.000	0.011	0.045
-338.318	756.781	-0.065	-0.176
-337.304	-200.000	0.005	-0.176
-336.289	-75.315	-0.205	0.073
-335.275	-200.000	-0.032	-0.242
-334.260	210.714	-0.078	0.123
-333.245	507.895	-0.113	-0.263
-332.231	-85.695	0.162	-0.050
-331.216	-49.599	0.425	-0.202
-330.202	-19.717	0.085	-0.053
-329.187	-139.817	-0.182	-0.019
-328.172	187.985	0.123	-0.184
-327.158	-200.000	-0.003	0.063
-326.143	-200.000	0.033	0.263
-325.129	800.000	-0.012	-0.038
-324.114	-200.000	0.026	0.399
-323.099	-90.191	0.089	0.026
-322.085	40.100	-0.190	0.171
-321.070	659.797	0.064	-0.164
-320.056	-6.399	-0.226	-0.154
-319.041	-57.574	0.184	-0.081
-318.026	-27.538	0.068	-0.039
-317.012	28.283	0.310	0.262
-315.997	124.027	-0.123	0.155
-314.983	137.848	-0.212	0.278
-313.968	-32.916	0.062	-0.034
-312.953	-188.556	-0.086	-0.001
-311.939	-67.144	0.177	-0.070
-310.924	57.110	0.089	-0.087
-309.910	-54.793	0.339	0.153
-308.895	-53.893	-0.126	0.057
-307.880	-26.201	0.379	-0.223
-306.866	-23.143	0.347	-0.209
-305.851	800.000	0.106	0.310
-304.837	221.765	-0.074	0.119
-303.822	-36.878	-0.077	-0.041
-302.807	-65.199	0.239	0.096
-301.793	7.127	-0.126	0.094
-300.778	-97.516	0.261	0.068
-299.764	-200.000	0.004	0.041
-298.749	125.611	0.101	-0.128
-297.735	-82.826	-0.301	-0.097
-296.720	-83.712	-0.248	0.079
-295.705	-63.603	0.128	0.053
-294.691	800.000	0.033	0.131
-293.676	4.381	0.124	-0.091
-292.662	-200.000	-0.033	-0.197
-291.647	479.874	0.043	0.096
-290.632	168.456	0.065	-0.092
-289.618	-37.713	-0.202	0.107
-288.603	94.875	-0.108	-0.123
-287.589	212.519	0.088	0.138
-286.574	9.371	0.205	0.155
-285.559	260.489	-0.056	-0.097
-284.545	5.646	-0.280	0.206
-283.530	-188.282	0.219	-0.003
-282.516	447.398	0.077	0.170
-281.501	396.131	0.159	0.332
-280.486	680.447	0.049	-0.127
-279.472	166.577	0.101	0.142
-278.457	-100.123	0.195	-0.048
-277.443	-76.362	-0.336	-0.118
-276.428	-200.000	-0.028	0.344
-275.413	73.955	0.186	-0.195
-274.399	-200.000	0.041	0.282
-273.384	444.940	0.107	0.236
-272.370	-21.196	0.280	0.171
-271.355	53.930	0.112	0.108
-270.340	-200.000	-0.013	-0.182
-269.326	220.192	-0.122	0.196
-268.311	-200.000	-0.099	0.456
-267.297	15.072	-0.078	-0.061
-266.282	0.626	0.094	-0.067
-265.267	-68.358	-0.043	0.017
-264.253	32.909	0.165	-0.142
-263.238	132.980	0.181	0.234
-262.224	-125.981	-0.084	-0.013
-261.209	693.670	0.135	-0.354
-260.195	-68.660	0.162	-0.063
-259.180	7.310	0.076	-0.057
-258.165	-200.000	-0.063	-0.279
-257.151	-200.000	-0.023	-0.123
-256.136	800.000	0.089	-0.316
-255.122	-112.413	-0.307	-0.061
-254.107	125.074	-0.080	0.101
-253.092	-200.000	-0.010	0.051
-252.078	-13.668	0.284	-0.184
-251.063	-200.000	0.012	-0.234
-250.049	-200.000	-0.064	-0.408
-249.034	-200.000	0.039	0.230
-248.019	-12.292	-0.072	0.047
-247.005	-200.000	0.001	-0.110
-245.990	-115.893	0.437	-0.081
-244.976	184.539	0.017	-0.025
-243.961	-200.000	-0.006	-0.048
-242.946	274.879	-0.124	-0.220
-241.932	-200.000	-0.035	-0.235
-240.917	-125.111	-0.131	0.020
-239.903	-200.000	-0.036	0.195
-238.888	800.000	0.049	-0.160
-237.873	-94.339	-0.093	-0.025
-236.859	800.000	-0.077	-0.219
-235.844	-159.792	-0.138	-0.008
-234.830	127.891	0.090	-0.113
-233.815	647.696	-0.071	-0.180
-232.800	-7.384	-0.055	-0.037
-231.786	90.309	-0.098	0.109
-230.771	110.708	0.143	-0.171
-229.757	-88.057	0.719	-0.215
-228.742	330.231	-0.096	-0.185
-227.727	-46.222	-0.284	0.139
-226.713	-46.713	0.181	0.088
-225.698	-200.000	0.008	0.058
-224.684	-200.000	0.025	0.208
-223.669	-146.287	-0.309	-0.027
-222.655	476.847	0.157	-0.353
-221.640	-36.863	0.147	0.078
-220.625	-19.056	-0.274	-0.170
-219.611	211.315	-0.140	-0.220
-218.596	25.662	0.186	0.154
-217.582	-70.138	-0.298	0.113
-216.567	9.480	0.164	-0.123
-215.552	-39.940	0.120	-0.063
-214.538	31.632	0.066	-0.056
-213.523	-63.241	-0.081	0.033
-212.509	-21.212	0.107	-0.065
-211.494	-31.783	0.083	-0.046
-210.479	-200.000	0.013	-0.322
-209.465	114.412	-0.095	0.115
-208.450	285.825	-0.219	-0.394
-207.436	-152.064	0.289	-0.021
-206.421	-119.162	0.177	-0.031
-205.406	-144.935	0.079	0.007
-204.392	-102.181	0.325	-0.078
-203.377	347.414	-0.063	0.123
-202.363	364.424	0.016	-0.031
-201.348	-73.086	-0.136	-0.050
-200.333	800.000	-0.111	0.323
-199.319	-113.234	0.132	0.026
-198.304	-57.878	-0.187	-0.081
-197.290	800.000	-0.025	-0.068
-196.275	-52.709	-0.195	-0.090
-195.260	650.384	0.071	0.181
-194.246	158.014	0.079	-0.110
-193.231	474.314	0.204	-0.459
-192.217	-200.000	-0.011	-0.132
-191.202	-91.657	0.110	-0.031
-190.187	-31.634	-0.098	-0.055
-189.173	284.216	0.214	-0.383
-188.158	-44.531	-0.332	0.165
-187.144	-151.696	-0.286	-0.021
-186.129	800.000	0.049	-0.171
-185.114	-102.717	0.248	-0.059
-184.100	-28.242	0.188	-0.108
-183.085	-91.097	0.205	-0.059
-182.071	679.186	0.087	-0.226
-181.056	52.174	-0.280	0.266
-180.042	66.615	0.333	0.337
-179.027	76.275	-0.078	0.082
-178.012	1.560	0.093	0.067
-176.998	800.000	-0.014	0.048
-175.983	33.645	-0.087	0.075
-174.969	-7.926	-0.176	-0.118
-173.954	-191.407	0.256	0.003
-172.939	220.096	0.084	0.134
-171.925	-200.000	-0.053	0.284
-170.910	-62.881	0.287	0.118
-169.896	800.000	0.031	-0.096
-168.881	455.054	0.117	-0.258
-167.866	-113.888	-0.063	-0.012
-166.852	-98.180	0.161	0.041
-165.837	-200.000	0.014	0.121
-164.823	72.512	0.229	0.238
-163.808	229.853	-0.088	-0.143
-162.793	-200.000	-0.038	-0.193
-161.779	55.114	-0.230	-0.221
-160.764	-152.657	0.421	-0.030
-159.750	-6.667	0.411	-0.278
-158.735	800.000	0.076	0.264
-157.720	-31.066	0.103	-0.058
-156.706	149.738	0.148	0.199
-155.691	-113.158	-0.343	0.067
-154.677	390.492	-0.120	-0.248
-153.662	111.014	-0.010	0.012
-152.647	-11.748	-0.182	0.119
-151.633	117.855	-0.342	0.418
-150.618	-62.972	0.219	-0.090
-149.604	-60.048	0.249	0.105
-148.589	-75.413	-0.269	-0.095
-147.574	-16.432	0.143	0.090
-146.560	-131.909	0.225	0.029
-145.545	-200.000	-0.034	-0.205
-144.531	-18.328	-0.265	0.165
-143.516	-11.753	0.170	-0.111
-142.502	800.000	0.026	0.077
-141.487	23.742	0.160	0.130
-140.472	-158.416	-0.114	-0.007
-139.458	-200.000	-0.025	0.284
-138.443	-99.950	0.110	0.027
-137.429	-200.000	-0.000	0.113
-136.414	278.826	-0.337	0.597
-135.399	-101.252	0.303	-0.073
-134.385	-92.619	0.296	-0.082
-133.370	-95.690	-0.312	-0.083
-132.356	-46.406	-0.228	0.111
-131.341	800.000	0.021	0.058
-130.326	71.270	0.157	0.161
-129.312	296.808	0.137	-0.250
-128.297	117.111	0.062	0.076
-127.283	-132.447	-0.039	0.005
-126.268	800.000	-0.082	0.251
-125.253	-116.295	0.170	0.031
-124.239	-150.916	-0.403	0.030
-123.224	378.556	0.024	0.049
-122.210	-200.000	0.008	0.230
-121.195	-144.341	0.038	-0.004
