DTS Sentinel unit serial number:	SN413079Multiplexer serial number:	ORYXHardware model number:	OX4-SRSoftware version number:	ORYX F/W v4.00 Oryx Data Collector v3.7.2.0data status	okinstallation	princeton_trtdifferential loss correction	single-endedforward channel	channel 4reverse channel	N/Adate	2019/09/14time	02:45:35forward acquisition time	60.00reverse acquisition time	0.00gamma	496.2192k internal	0.2323k external	0.2323temperature offset calibration	1.0131default loss term (dB/km)	0.3790temperature slope calibration	1.0000multiplexer offset coefficient	1.0000multiplexer slope coefficient	1.0000fibre end	0.00T internal ref (°C)	26.56T ext. ref 1 (°C)	3.24T ext. ref 2 (°C)	21.62length (m)	temperature (°C)	Stokes	anti-Stokes-747.200	-166.335	-0.263	-0.011
-746.185	-133.714	-0.305	-0.038
-745.171	-0.380	0.250	-0.179
-744.156	-188.913	-0.332	-0.004
-743.142	-200.000	0.064	-0.341
-742.127	800.000	0.068	0.238
-741.112	-67.206	0.101	0.040
-740.098	9.200	-0.348	0.266
-739.083	800.000	-0.066	-0.210
-738.069	-200.000	0.000	0.077
-737.054	18.702	-0.181	-0.146
-736.039	130.624	-0.058	-0.075
-735.025	-178.654	0.392	-0.009
-734.010	332.363	0.063	0.123
-732.996	45.567	-0.235	-0.219
-731.981	-118.676	-0.164	-0.029
-730.966	-200.000	-0.017	-0.233
-729.952	-97.977	0.366	0.095
-728.937	398.987	-0.118	-0.249
-727.923	-200.000	-0.037	0.375
-726.908	-62.558	-0.121	0.051
-725.894	72.629	-0.059	0.062
-724.879	-200.000	0.023	-0.221
-723.864	22.807	0.225	-0.186
-722.850	-12.528	-0.306	0.202
-721.835	-37.286	-0.127	-0.068
-720.821	323.520	-0.070	0.134
-719.806	8.403	-0.039	-0.030
-718.791	-159.193	-0.285	-0.016
-717.777	-176.471	-0.072	0.002
-716.762	77.771	0.172	0.185
-715.748	-98.758	-0.071	-0.018
-714.733	120.523	0.087	0.109
-713.718	7.925	-0.194	-0.147
-712.704	420.656	0.055	-0.119
-711.689	-117.684	-0.112	0.020
-710.675	-134.236	-0.076	-0.009
-709.660	52.835	-0.104	0.100
-708.645	181.537	0.188	-0.279
-707.631	-1.568	-0.210	-0.149
-706.616	-200.000	-0.019	-0.166
-705.602	-47.982	-0.277	-0.135
-704.587	89.685	0.036	0.040
-703.572	19.848	0.081	0.065
-702.558	800.000	-0.044	-0.170
-701.543	41.752	0.183	-0.167
-700.529	-41.079	-0.219	-0.114
-699.514	-49.517	0.066	0.032
-698.499	-200.000	-0.029	-0.238
-697.485	-54.838	-0.178	0.081
-696.470	32.366	-0.055	0.048
-695.456	71.043	-0.090	0.094
-694.441	-45.235	-0.190	0.095
-693.426	-200.000	-0.036	0.232
-692.412	126.971	-0.137	0.175
-691.397	12.581	0.320	-0.249
-690.383	800.000	0.026	-0.109
-689.368	-176.752	-0.292	0.007
-688.354	250.346	-0.141	0.241
-687.339	800.000	-0.073	-0.215
-686.324	21.203	-0.422	-0.346
-685.310	-124.179	-0.135	0.021
-684.295	454.498	-0.134	-0.300
-683.281	89.511	-0.183	-0.206
-682.266	337.492	-0.049	-0.095
-681.251	-200.000	0.013	-0.068
-680.237	-200.000	0.001	0.214
-679.222	-41.913	-0.235	0.121
-678.208	-147.946	-0.188	-0.016
-677.193	800.000	0.037	0.138
-676.178	-200.000	0.009	0.292
-675.164	-48.161	0.046	0.022
-674.149	-57.876	-0.178	-0.078
-673.135	187.284	0.142	-0.213
-672.120	183.837	0.109	-0.163
-671.105	-42.329	-0.093	0.048
-670.091	-95.990	0.049	0.013
-669.076	-114.724	-0.160	0.031
-668.062	-111.703	-0.408	-0.083
-667.047	353.755	-0.067	0.134
-666.032	-58.119	-0.215	-0.094
-665.018	-200.000	0.025	0.150
-664.003	-200.000	0.044	-0.268
-662.989	113.581	0.168	-0.205
-661.974	134.845	0.037	0.048
-660.959	273.437	0.131	0.234
-659.945	-109.131	0.182	0.039
-658.930	-19.354	-0.224	0.140
-657.916	-153.961	0.237	0.016
-656.901	-153.155	0.247	0.017
-655.886	105.935	0.061	0.073
-654.872	-22.980	-0.175	-0.106
-653.857	-87.970	-0.161	0.049
-652.843	-36.564	-0.180	-0.097
-651.828	506.328	-0.179	-0.418
-650.814	-200.000	-0.018	-0.187
-649.799	478.404	0.138	-0.315
-648.784	7.097	-0.145	0.109
-647.770	-66.052	0.074	-0.030
-646.755	-110.595	0.063	-0.013
-645.741	38.827	0.257	0.231
-644.726	128.492	-0.105	-0.135
-643.711	-200.000	0.060	0.285
-642.697	37.039	0.153	-0.136
-641.682	-63.227	-0.100	-0.041
-640.668	800.000	0.055	-0.205
-639.653	-33.169	-0.285	0.159
-638.638	146.179	0.084	-0.114
-637.624	-160.702	-0.148	-0.008
-636.609	26.620	-0.126	-0.106
-635.595	-200.000	-0.018	0.168
-634.580	800.000	0.108	-0.376
-633.565	-200.000	-0.039	-0.197
-632.551	70.069	-0.199	-0.207
-631.536	197.304	0.191	-0.294
-630.522	-7.801	0.200	-0.136
-629.507	-18.823	-0.145	-0.091
-628.492	-3.884	0.321	0.224
-627.478	506.665	-0.133	-0.310
-626.463	-200.000	0.005	0.186
-625.449	-171.728	-0.325	-0.011
-624.434	-200.000	0.015	0.259
-623.419	173.138	-0.092	0.133
-622.405	26.216	0.163	0.136
-621.390	-60.237	0.131	-0.056
-620.376	-200.000	-0.036	0.221
-619.361	-200.000	-0.007	-0.189
-618.346	51.293	-0.045	-0.043
-617.332	-142.874	-0.321	0.031
-616.317	343.975	0.004	-0.007
-615.303	6.335	-0.172	0.128
-614.288	800.000	0.035	0.135
-613.273	106.435	0.130	-0.155
-612.259	32.661	-0.083	-0.072
-611.244	121.735	0.204	-0.256
-610.230	-52.021	-0.251	-0.117
-609.215	800.000	-0.042	0.174
-608.201	-151.693	-0.195	0.014
-607.186	141.386	-0.151	0.201
-606.171	-24.189	-0.200	0.120
-605.157	-135.373	-0.024	-0.003
-604.142	564.195	0.040	-0.098
-603.128	375.660	0.145	0.298
-602.113	-105.171	-0.235	-0.054
-601.098	-200.000	-0.044	-0.220
-600.084	800.000	0.031	0.123
-599.069	796.116	0.048	-0.132
-598.055	136.964	0.121	0.158
-597.040	-105.810	-0.153	-0.035
-596.025	90.597	-0.142	0.159
-595.011	-53.445	-0.076	0.035
-593.996	-169.009	0.168	0.006
-592.982	-105.005	-0.245	0.056
-591.967	-200.000	0.010	-0.124
-590.952	367.189	0.185	0.375
-589.938	7.033	-0.163	-0.122
-588.923	800.000	-0.053	0.190
-587.909	33.406	-0.122	0.107
-586.894	-200.000	0.017	0.146
-585.879	-200.000	0.006	0.272
-584.865	800.000	-0.067	-0.239
-583.850	791.955	0.038	-0.106
-582.836	181.549	0.142	-0.210
-581.821	17.140	-0.049	0.039
-580.806	-104.195	0.344	0.080
-579.792	66.726	0.238	0.243
-578.777	171.512	0.011	-0.016
-577.763	-190.775	0.231	0.002
-576.748	39.280	0.215	0.193
-575.733	117.407	-0.115	0.142
-574.719	-178.790	0.393	0.009
-573.704	344.616	-0.093	-0.183
-572.690	800.000	-0.062	0.191
-571.675	136.863	-0.136	0.178
-570.661	116.801	0.231	-0.284
-569.646	-170.366	0.208	-0.007
-568.631	-61.709	0.334	0.140
-567.617	402.286	0.076	0.160
-566.602	238.809	-0.047	0.079
-565.588	-89.068	0.042	-0.013
-564.573	-139.713	-0.316	-0.034
-563.558	144.580	0.155	-0.208
-562.544	-114.508	0.180	-0.035
-561.529	-87.768	0.312	-0.094
-560.515	-200.000	0.026	0.210
-559.500	-49.995	-0.067	0.032
-558.485	-53.697	-0.173	0.079
-557.471	89.188	0.098	0.109
-556.456	225.761	-0.143	-0.233
-555.442	-200.000	0.034	-0.228
-554.427	183.992	0.083	0.124
-553.412	576.349	-0.082	-0.202
-552.398	216.734	-0.071	-0.114
-551.383	-24.529	-0.306	-0.183
-550.369	140.945	0.084	-0.112
-549.354	800.000	-0.049	-0.145
-548.339	-38.050	-0.142	-0.075
-547.325	800.000	-0.007	-0.022
-546.310	82.707	-0.219	0.238
-545.296	-110.673	0.131	-0.027
-544.281	98.594	0.071	-0.082
-543.266	68.288	0.112	0.115
-542.252	-200.000	0.018	0.151
-541.237	-16.872	-0.148	-0.093
-540.223	125.283	0.217	-0.274
-539.208	79.055	0.203	0.218
-538.193	-200.000	0.025	0.154
-537.179	-73.202	0.082	-0.030
-536.164	-141.731	-0.190	0.019
-535.150	-130.293	0.074	0.010
-534.135	-200.000	0.018	0.089
-533.121	800.000	-0.064	0.196
-532.106	-34.459	0.290	0.159
-531.091	800.000	0.022	0.070
-530.077	-69.096	0.219	0.085
-529.062	-119.713	-0.103	0.018
-528.048	800.000	0.054	-0.219
-527.033	92.391	0.021	0.023
-526.018	199.866	0.190	0.292
-525.004	-93.467	-0.105	0.029
-523.989	114.529	0.228	-0.279
-522.975	461.678	-0.125	0.279
-521.960	-200.000	0.058	-0.482
-520.945	27.364	0.041	-0.035
-519.931	-34.752	0.240	-0.132
-518.916	144.049	0.148	-0.198
-517.902	-200.000	0.022	0.265
-516.887	-111.569	0.203	0.041
-515.872	609.225	-0.073	-0.183
-514.858	742.478	-0.216	0.580
-513.843	-126.220	0.264	0.040
-512.829	-200.000	0.010	-0.157
-511.814	-145.972	-0.421	0.037
-510.799	-79.498	0.211	-0.071
-509.785	338.637	0.033	0.065
-508.770	-103.959	0.054	-0.013
-507.756	418.080	0.111	0.236
-506.741	-101.419	0.310	-0.076
-505.726	80.798	-0.094	-0.101
-504.712	46.089	0.049	-0.045
-503.697	-200.000	0.012	-0.121
-502.683	-200.000	-0.010	-0.187
-501.668	-200.000	-0.012	-0.061
-500.653	619.946	0.041	0.104
-499.639	26.958	-0.098	-0.082
-498.624	-44.537	-0.294	0.147
-497.610	-200.000	-0.021	0.266
-496.595	-122.359	0.275	-0.045
-495.581	-200.000	0.022	-0.243
-494.566	8.093	0.423	-0.317
-493.551	607.678	0.065	0.163
-492.537	-122.559	-0.279	-0.045
-491.522	-46.485	0.143	-0.070
-490.508	-200.000	-0.005	0.056
-489.493	-91.249	-0.212	0.061
-488.478	9.688	0.305	-0.231
-487.464	77.708	-0.289	-0.308
-486.449	380.997	0.050	0.102
-485.435	433.069	0.073	-0.158
-484.420	-30.940	-0.037	-0.021
-483.405	482.556	0.169	0.385
-482.391	800.000	0.028	0.100
-481.376	12.744	0.247	0.191
-480.362	-32.658	-0.286	-0.159
-479.347	-23.807	0.038	-0.023
-478.332	-14.595	-0.092	-0.059
-477.318	800.000	0.081	0.234
-476.303	306.173	-0.185	0.344
-475.289	229.303	0.030	-0.049
-474.274	-180.200	0.130	-0.003
-473.259	216.703	-0.086	-0.137
-472.245	-13.848	-0.108	0.070
-471.230	-83.856	0.179	-0.057
-470.216	-27.852	0.129	0.075
-469.201	-200.000	0.009	-0.063
-468.186	-6.837	-0.135	-0.091
-467.172	-200.000	0.037	0.496
-466.157	-120.645	-0.255	0.043
-465.143	441.684	-0.024	-0.053
-464.128	-141.875	0.109	0.011
-463.113	-200.000	0.018	0.080
-462.099	-116.004	-0.168	0.031
-461.084	-200.000	-0.038	0.253
-460.070	-200.000	0.090	0.430
-459.055	-75.363	-0.147	-0.052
-458.040	-133.284	0.259	-0.033
-457.026	235.273	0.127	-0.210
-456.011	-118.151	-0.322	-0.057
-454.997	-102.738	0.077	0.018
-453.982	6.209	0.119	-0.088
-452.968	-200.000	-0.328	-0.001
-451.953	606.505	0.045	0.111
-450.938	-70.084	-0.137	-0.052
-449.924	32.915	0.176	0.152
-448.909	108.736	0.120	-0.143
-447.895	-177.458	0.172	-0.004
-446.880	158.310	-0.231	-0.320
-445.865	76.329	-0.068	0.071
-444.851	-51.325	0.251	-0.117
-443.836	36.695	-0.174	-0.154
-442.822	-8.315	-0.263	-0.176
-441.807	-35.551	0.095	0.052
-440.792	-74.553	-0.096	-0.034
-439.778	-155.835	-0.211	-0.013
-438.763	-0.521	0.187	0.132
-437.749	107.587	0.115	0.137
-436.734	-0.566	-0.315	0.223
-435.719	-31.712	-0.145	-0.081
-434.705	93.404	0.110	-0.124
-433.690	-101.629	-0.129	0.031
-432.676	14.998	-0.173	-0.136
-431.661	530.568	-0.095	-0.224
-430.646	441.745	0.080	-0.175
-429.632	800.000	0.081	-0.242
-428.617	408.870	0.061	-0.130
-427.603	-47.594	-0.415	-0.201
-426.588	3.526	-0.190	0.138
-425.573	-0.795	0.099	-0.070
-424.559	56.892	0.022	-0.021
-423.544	97.631	-0.022	0.026
-422.530	44.585	-0.069	0.063
-421.515	269.814	0.193	0.338
-420.500	31.766	-0.232	-0.200
-419.486	-65.672	0.220	-0.088
-418.471	29.751	0.224	0.190
-417.457	-122.770	-0.311	-0.050
-416.442	-18.179	-0.191	0.119
-415.428	-200.000	0.028	-0.138
-414.413	-3.995	-0.283	-0.196
-413.398	-200.000	0.025	-0.127
-412.384	-63.250	-0.428	-0.176
-411.369	-142.568	0.087	-0.009
-410.355	74.912	-0.069	0.072
-409.340	357.028	-0.100	-0.199
-408.325	130.651	0.132	-0.168
-407.311	93.015	0.095	-0.107
-406.296	42.103	-0.257	0.233
-405.282	96.861	0.137	-0.157
-404.267	-126.342	-0.161	-0.024
-403.252	87.905	-0.277	-0.306
-402.238	-151.759	-0.493	0.036
-401.223	-139.836	0.168	0.018
-400.209	-145.873	0.158	-0.014
-399.194	70.002	-0.379	0.390
-398.179	-100.084	0.105	-0.026
-397.165	-200.000	-0.027	0.163
-396.150	126.673	-0.063	-0.079
-395.136	-136.941	-0.159	-0.018
-394.121	-24.727	0.287	-0.170
-393.106	-39.492	0.217	0.113
-392.092	-130.824	-0.324	-0.043
-391.077	566.313	-0.033	-0.080
-390.063	-36.916	-0.238	0.127
-389.048	-200.000	0.027	0.434
-388.033	-70.719	-0.141	0.053
-387.019	466.620	-0.084	-0.188
-386.004	-84.164	0.140	-0.044
-384.990	408.600	-0.141	-0.298
-383.975	44.511	-0.213	-0.195
-382.960	800.000	-0.078	-0.239
-381.946	-73.738	0.367	0.133
-380.931	33.177	-0.356	0.308
-379.917	-69.280	-0.252	-0.096
-378.902	-200.000	-0.079	-0.523
-377.888	-44.175	-0.357	0.178
-376.873	67.359	-0.084	-0.085
-375.858	-59.572	-0.299	-0.128
-374.844	-24.074	0.080	-0.047
-373.829	800.000	0.066	0.208
-372.815	48.585	-0.199	-0.185
-371.800	33.013	0.139	0.120
-370.785	-200.000	0.010	0.117
-369.771	-57.278	0.395	0.173
-368.756	299.900	0.131	0.241
-367.742	205.737	0.060	-0.093
-366.727	49.988	-0.250	0.234
-365.712	800.000	0.101	-0.278
-364.698	-157.372	-0.211	0.013
-363.683	-33.646	-0.254	0.140
-362.669	800.000	0.046	-0.139
-361.654	-60.549	0.345	0.146
-360.639	378.775	-0.165	-0.336
-359.625	-67.489	0.159	-0.062
-358.610	25.867	0.155	0.128
-357.596	383.197	0.074	-0.151
-356.581	172.688	-0.195	-0.279
-355.566	70.966	0.049	0.050
-354.552	-90.430	-0.395	-0.114
-353.537	-101.466	0.472	-0.114
-352.523	34.924	0.194	-0.169
-351.508	-7.044	-0.204	-0.137
-350.493	800.000	-0.058	-0.224
-349.479	-200.000	0.029	0.333
-348.464	-13.069	0.232	0.150
-347.450	416.278	0.213	0.452
-346.435	147.013	0.112	0.150
-345.420	-11.355	0.275	-0.180
-344.406	800.000	0.085	-0.331
-343.391	335.090	0.131	-0.253
-342.377	-114.117	-0.330	0.064
-341.362	-131.852	-0.140	-0.018
-340.348	45.946	0.274	0.252
-339.333	-154.705	0.284	-0.019
-338.318	-117.502	0.332	0.060
-337.304	80.336	0.044	-0.047
-336.289	-100.594	0.326	0.080
-335.275	56.506	-0.373	0.361
-334.260	-139.607	0.248	0.026
-333.245	113.255	0.025	0.030
-332.231	206.215	0.119	-0.184
-331.216	74.484	0.113	0.118
-330.202	-79.849	0.065	0.022
-329.187	96.811	0.072	0.082
-328.172	457.109	-0.061	-0.135
-327.158	289.619	-0.073	-0.132
-326.143	-200.000	-0.003	0.162
-325.129	-200.000	0.128	-0.601
-324.114	-147.642	-0.379	-0.032
-323.099	-94.940	-0.252	-0.068
-322.085	-31.890	-0.198	-0.110
-321.070	800.000	-0.088	-0.311
-320.056	50.148	-0.151	-0.141
-319.041	-200.000	-0.019	-0.183
-318.026	-200.000	-0.074	0.396
-317.012	2.237	0.138	0.099
-315.997	-200.000	-0.037	0.234
-314.983	-73.976	0.273	0.099
-313.968	-17.042	0.194	0.122
-312.953	0.857	0.324	0.231
-311.939	71.746	-0.148	0.153
-310.924	298.602	0.077	0.140
-309.910	53.489	-0.205	0.195
-308.895	131.712	0.073	-0.093
-307.880	24.060	0.168	0.138
-306.866	-200.000	-0.042	0.240
-305.851	-200.000	0.000	0.100
-304.837	712.442	-0.157	-0.412
-303.822	75.796	0.075	0.079
-302.807	-82.818	0.243	0.078
-301.793	-48.328	0.215	0.103
-300.778	-200.000	-0.005	-0.075
-299.764	44.418	-0.136	-0.124
-298.749	-98.317	-0.131	-0.033
-297.735	49.585	-0.048	-0.045
-296.720	243.798	-0.191	0.317
-295.705	20.859	0.366	0.294
-294.691	-107.120	-0.309	-0.068
-293.676	-70.033	-0.241	-0.091
-292.662	-96.185	0.172	0.045
-291.647	219.410	-0.054	-0.085
-290.632	-94.966	-0.358	0.096
-289.618	-200.000	0.040	0.226
-288.603	-94.796	0.355	-0.096
-287.589	323.772	-0.173	-0.327
-286.574	-26.228	-0.089	0.052
-285.559	-16.326	-0.196	0.123
-284.545	245.569	-0.150	-0.250
-283.530	37.814	0.110	-0.097
-282.516	-65.568	-0.273	0.109
-281.501	542.768	-0.052	-0.123
-280.486	-110.206	-0.221	0.046
-279.472	48.302	-0.120	-0.111
-278.457	-82.215	0.128	-0.041
-277.443	800.000	-0.103	-0.306
-276.428	173.363	-0.219	-0.313
-275.413	157.238	-0.023	0.032
-274.399	-69.222	0.111	-0.042
-273.384	-8.144	0.080	-0.053
-272.370	233.922	0.193	0.315
-271.355	-57.567	-0.073	-0.032
-270.340	289.007	0.181	-0.325
-269.326	-154.471	0.115	-0.008
-268.311	800.000	0.093	-0.299
-267.297	310.769	0.246	-0.457
-266.282	-55.152	-0.392	0.175
-265.267	-117.634	0.072	0.013
-264.253	-126.272	-0.049	-0.007
-263.238	-91.927	0.280	0.079
-262.224	-85.703	0.114	-0.035
-261.209	-97.045	0.193	-0.050
-260.195	309.081	-0.105	-0.194
-259.180	681.778	0.026	-0.067
-258.165	-99.350	-0.297	-0.074
-257.151	-200.000	-0.002	-0.107
-256.136	693.779	0.034	-0.088
-255.122	-125.015	-0.086	0.013
-254.107	-46.155	-0.302	-0.147
-253.092	-187.032	-0.419	0.006
-252.078	-34.061	0.241	0.131
-251.063	73.142	-0.175	0.181
-250.049	800.000	-0.062	0.194
-249.034	132.928	0.060	0.076
-248.019	-120.349	0.170	0.029
-247.005	-166.461	0.252	-0.010
-245.990	-56.536	0.257	0.113
-244.976	91.300	-0.188	0.209
-243.961	5.781	0.238	-0.175
-242.946	-200.000	0.014	-0.210
-241.932	123.222	0.123	-0.153
-240.917	-121.523	0.295	0.049
-239.903	399.437	0.048	-0.100
-238.888	670.060	-0.087	-0.222
-237.873	-35.976	-0.259	0.139
-236.859	-52.515	0.062	0.028
-235.844	800.000	0.091	0.286
-234.830	133.540	-0.119	0.152
-233.815	-59.598	0.061	-0.026
-232.800	144.465	-0.024	-0.032
-231.786	44.467	-0.121	-0.110
-230.771	641.153	0.071	-0.180
-229.757	-140.652	-0.115	-0.012
-228.742	123.260	-0.019	0.023
-227.727	104.828	0.086	0.101
-226.713	-26.669	-0.153	0.089
-225.698	-189.879	0.352	0.004
-224.684	80.305	0.213	-0.227
-223.669	20.114	0.101	0.080
-222.655	-200.000	-0.005	-0.142
-221.640	740.455	0.041	0.108
-220.625	60.307	0.381	0.373
-219.611	-93.147	0.403	0.111
-218.596	-63.421	-0.065	0.026
-217.582	-129.321	-0.254	-0.035
-216.567	-153.936	-0.069	-0.005
-215.552	-200.000	-0.013	0.187
-214.538	800.000	-0.056	-0.179
-213.523	-142.775	-0.222	0.021
-212.509	-154.456	-0.238	0.016
-211.494	-200.000	-0.034	0.294
-210.479	-200.000	0.007	-0.147
-209.465	50.251	-0.253	0.236
-208.450	-65.835	0.256	0.101
-207.436	114.819	-0.060	-0.072
-206.421	-113.167	0.084	-0.016
-205.406	-131.339	0.324	0.042
-204.392	-20.895	0.179	0.108
-203.377	64.443	0.088	-0.088
-202.363	-77.471	-0.153	0.053
-201.348	-200.000	-0.012	0.147
-200.333	-66.131	0.196	0.077
-199.319	-17.275	0.052	-0.032
-198.304	-108.282	0.237	-0.051
-197.290	128.936	0.131	-0.165
-196.275	633.714	0.099	0.249
-195.260	54.075	-0.264	0.251
-194.246	-158.510	-0.232	-0.013
-193.231	-200.000	0.001	-0.410
-192.217	-200.000	-0.022	-0.248
-191.202	-200.000	0.016	-0.114
-190.187	800.000	-0.019	0.080
-189.173	32.546	0.058	0.049
-188.158	-0.708	-0.139	-0.097
-187.144	-12.284	-0.277	-0.179
-186.129	299.284	0.018	0.032
-185.114	-86.587	-0.389	0.118
-184.100	-16.002	0.260	0.164
-183.085	65.277	0.211	-0.211
-182.071	39.153	0.355	0.313
-181.056	80.860	0.203	0.217
-180.042	47.906	0.177	0.163
-179.027	-200.000	0.031	0.138
-178.012	63.186	0.091	-0.090
-176.998	-83.071	0.184	0.058
-175.983	-152.829	-0.335	-0.023
-174.969	800.000	-0.059	-0.196
-173.954	90.701	0.107	0.119
-172.939	-66.868	0.444	-0.173
-171.925	28.543	0.054	-0.045
-170.910	-72.188	-0.344	-0.126
-169.896	-23.614	-0.141	0.084
-168.881	-3.351	-0.070	0.048
-167.866	194.379	-0.003	0.005
-166.852	163.449	0.245	0.340
-165.837	33.970	-0.189	0.163
-164.823	-24.050	0.116	0.069
-163.808	-113.266	0.161	-0.031
-162.793	800.000	-0.082	0.311
-161.779	-62.215	0.149	0.061
-160.764	-42.264	-0.187	0.094
-159.750	-190.094	-0.304	0.003
-158.735	-171.597	-0.261	-0.009
-157.720	-200.000	-0.001	-0.137
-156.706	-130.780	0.223	-0.030
-155.691	0.972	-0.054	0.038
-154.677	-176.723	0.145	0.004
-153.662	78.251	-0.225	0.237
-152.647	17.369	-0.273	0.214
-151.633	151.460	0.065	-0.088
-150.618	-167.317	0.163	0.006
-149.604	35.071	-0.249	-0.215
-148.589	-200.000	0.026	0.208
-147.574	-5.905	0.038	0.026
-146.560	94.664	-0.184	0.206
-145.545	10.058	0.240	0.180
-144.531	-200.000	0.019	0.116
-143.516	-15.474	-0.223	0.141
-142.502	24.831	0.278	-0.227
-141.487	227.304	-0.167	0.268
-140.472	27.224	-0.125	-0.104
-139.458	69.037	0.163	0.165
-138.443	30.991	0.152	0.129
-137.429	800.000	-0.108	0.393
-136.414	-200.000	-0.006	-0.141
-135.399	-200.000	-0.020	0.095
-134.385	-23.349	0.422	-0.250
-133.370	-95.365	0.152	-0.040
-132.356	208.072	-0.034	0.053
-131.341	0.721	-0.090	-0.064
-130.326	79.215	-0.099	-0.105
-129.312	-126.854	-0.234	0.034
-128.297	-200.000	0.012	0.221
-127.283	800.000	-0.098	0.297
-126.268	181.808	0.079	-0.115
-125.253	-35.783	0.150	0.080
-124.239	-200.000	-0.002	0.132
-123.224	292.627	0.085	-0.153
-122.210	-4.896	-0.322	0.218
-121.195	-55.753	-0.173	-0.076
-120.180	800.000	-0.012	-0.040
