DTS Sentinel unit serial number:	SN413079Multiplexer serial number:	ORYXHardware model number:	OX4-SRSoftware version number:	ORYX F/W v4.00 Oryx Data Collector v3.7.2.0data status	okinstallation	princeton_trtdifferential loss correction	single-endedforward channel	channel 4reverse channel	N/Adate	2019/09/14time	13:53:35forward acquisition time	60.00reverse acquisition time	0.00gamma	496.2192k internal	0.2292k external	0.2292temperature offset calibration	1.0152default loss term (dB/km)	0.3790temperature slope calibration	1.0000multiplexer offset coefficient	1.0000multiplexer slope coefficient	1.0000fibre end	0.00T internal ref (°C)	37.81T ext. ref 1 (°C)	4.99T ext. ref 2 (°C)	34.26length (m)	temperature (°C)	Stokes	anti-Stokes-747.200	-41.901	0.283	0.148
-746.185	800.000	0.067	0.213
-745.171	-101.669	0.294	0.073
-744.156	-118.295	-0.461	0.084
-743.142	-146.711	0.171	0.015
-742.127	-114.600	-0.159	0.031
-741.112	-64.360	0.294	-0.122
-740.098	76.818	-0.099	-0.108
-739.083	55.861	-0.087	-0.087
-738.069	131.910	0.179	0.235
-737.054	-200.000	-0.219	0.000
-736.039	85.489	-0.140	-0.157
-735.025	-200.000	-0.041	0.307
-734.010	-44.973	-0.128	0.065
-732.996	-110.974	-0.309	0.065
-731.981	235.870	0.134	-0.226
-730.966	-200.000	-0.010	0.103
-729.952	-7.495	-0.292	-0.202
-728.937	-200.000	0.010	-0.562
-727.923	-0.353	-0.148	-0.107
-726.908	800.000	-0.104	-0.332
-725.894	-200.000	-0.011	-0.251
-724.879	189.686	-0.125	0.192
-723.864	-200.000	0.009	-0.236
-722.850	-7.870	-0.211	-0.145
-721.835	202.459	-0.187	-0.295
-720.821	-8.074	0.122	0.084
-719.806	-200.000	0.045	-0.265
-718.791	-147.627	-0.006	0.000
-717.777	197.916	-0.150	-0.235
-716.762	-36.352	-0.285	-0.157
-715.748	-200.000	-0.057	-0.297
-714.733	800.000	0.081	-0.292
-713.718	549.794	-0.109	-0.268
-712.704	135.054	-0.133	-0.176
-711.689	365.087	-0.018	-0.037
-710.675	-200.000	0.006	0.256
-709.660	-68.607	-0.084	-0.033
-708.645	0.037	0.507	-0.369
-707.631	49.352	-0.163	0.157
-706.616	-184.430	0.137	0.002
-705.602	-87.877	-0.217	-0.067
-704.587	-23.419	-0.129	0.079
-703.572	140.567	-0.019	-0.026
-702.558	164.132	0.069	0.100
-701.543	330.328	0.063	-0.124
-700.529	-95.585	0.171	0.047
-699.514	-200.000	0.001	0.187
-698.499	-200.000	-0.020	-0.112
-697.485	800.000	0.102	-0.354
-696.470	64.079	0.030	0.031
-695.456	323.026	0.104	0.202
-694.441	379.970	0.109	0.228
-693.426	-200.000	-0.025	0.290
-692.412	-77.878	-0.099	-0.035
-691.397	-178.194	-0.179	-0.004
-690.383	23.199	-0.188	-0.158
-689.368	-181.267	0.228	-0.005
-688.354	341.518	0.084	0.168
-687.339	113.720	-0.150	-0.187
-686.324	82.642	-0.180	-0.199
-685.310	-91.973	-0.225	-0.065
-684.295	-200.000	-0.060	-0.298
-683.281	47.249	0.230	-0.219
-682.266	-200.000	0.028	0.160
-681.251	-51.493	-0.251	-0.120
-680.237	-17.711	0.231	0.148
-679.222	289.608	0.142	-0.263
-678.208	800.000	0.041	-0.177
-677.193	-200.000	0.033	0.403
-676.178	-103.852	-0.349	0.083
-675.164	96.364	0.098	-0.114
-674.149	-200.000	-0.002	0.287
-673.135	58.075	-0.244	-0.244
-672.120	92.188	0.077	0.088
-671.105	-106.033	-0.245	0.056
-670.091	34.797	-0.197	-0.176
-669.076	14.592	-0.428	0.341
-668.062	5.228	-0.192	-0.145
-667.047	-200.000	-0.011	-0.110
-666.032	800.000	-0.069	-0.203
-665.018	-200.000	0.009	-0.289
-664.003	549.566	0.086	-0.210
-662.989	561.830	-0.088	-0.216
-661.974	459.288	-0.078	0.177
-660.959	-128.787	-0.099	-0.014
-659.945	-200.000	-0.003	-0.425
-658.930	-90.162	0.145	-0.043
-657.916	22.267	-0.039	-0.032
-656.901	-200.000	-0.001	0.052
-655.886	-73.182	0.176	-0.066
-654.872	-69.526	0.353	-0.138
-653.857	601.164	0.140	-0.355
-652.843	800.000	-0.050	0.215
-651.828	468.305	0.098	0.224
-650.814	-123.400	0.072	0.012
-649.799	179.447	0.204	-0.304
-648.784	175.569	-0.022	-0.033
-647.770	800.000	-0.031	-0.127
-646.755	76.858	0.183	-0.198
-645.741	-200.000	0.078	0.386
-644.726	138.872	0.230	-0.308
-643.711	-200.000	-0.068	0.391
-642.697	-122.386	-0.307	-0.051
-641.682	-200.000	0.020	-0.214
-640.668	50.313	0.155	-0.149
-639.653	-200.000	0.040	-0.248
-638.638	278.172	-0.149	-0.270
-637.624	524.066	0.065	-0.156
-636.609	201.171	0.030	0.046
-635.595	-142.871	0.203	-0.020
-634.580	800.000	0.050	-0.173
-633.565	800.000	-0.128	-0.365
-632.551	81.907	-0.268	0.295
-631.536	-157.061	0.257	-0.016
-630.522	-136.613	0.258	0.030
-629.507	-200.000	-0.010	0.110
-628.492	-200.000	-0.015	0.194
-627.478	-100.234	-0.236	0.060
-626.463	-200.000	0.000	-0.212
-625.449	-200.000	0.057	-0.493
-624.434	-108.224	-0.302	-0.067
-623.419	95.878	-0.030	0.035
-622.405	-200.000	-0.005	-0.083
-621.390	-63.438	0.217	-0.091
-620.376	-96.579	0.122	0.033
-619.361	-62.286	-0.151	-0.064
-618.346	679.348	-0.053	0.141
-617.332	800.000	0.049	-0.185
-616.317	586.205	0.136	-0.340
-615.303	45.205	-0.043	-0.040
-614.288	-123.446	-0.407	-0.066
-613.273	-200.000	-0.016	0.264
-612.259	19.519	-0.086	0.071
-611.244	-200.000	0.001	-0.144
-610.230	249.945	-0.162	-0.279
-609.215	-92.035	0.071	0.020
-608.201	-108.577	-0.087	-0.019
-607.186	-38.134	-0.171	0.093
-606.171	800.000	0.027	0.092
-605.157	11.060	0.038	-0.030
-604.142	0.225	0.023	-0.017
-603.128	704.696	0.061	-0.163
-602.113	40.015	-0.054	-0.050
-601.098	-200.000	0.072	0.505
-600.084	-200.000	0.033	0.170
-599.069	58.984	0.089	0.089
-598.055	-59.275	0.150	0.066
-597.040	-122.928	0.104	0.017
-596.025	800.000	0.071	0.316
-595.011	-147.085	0.229	0.020
-593.996	3.441	-0.005	-0.004
-592.982	-79.628	-0.105	0.036
-591.967	-101.473	-0.114	-0.028
-590.952	800.000	-0.031	0.110
-589.938	-200.000	-0.008	-0.236
-588.923	396.542	0.087	-0.184
-587.909	-135.081	-0.330	0.040
-586.894	-200.000	-0.007	0.197
-585.879	62.844	0.080	-0.082
-584.865	211.776	0.123	0.196
-583.850	577.146	-0.020	0.051
-582.836	442.192	-0.074	0.166
-581.821	-3.926	0.269	0.190
-580.806	-170.773	0.045	-0.002
-579.792	261.136	-0.047	0.083
-578.777	333.131	0.177	0.347
-577.763	-37.873	0.179	0.097
-576.748	-106.686	0.272	0.061
-575.733	-155.704	-0.100	-0.007
-574.719	-200.000	0.032	0.309
-573.704	-200.000	0.009	0.237
-572.690	59.567	-0.085	-0.085
-571.675	-200.000	0.022	-0.206
-570.661	800.000	0.019	0.078
-569.646	-113.005	0.344	-0.069
-568.631	-123.174	-0.233	0.038
-567.617	91.520	-0.092	-0.105
-566.602	11.124	0.164	0.127
-565.588	-103.485	-0.190	-0.046
-564.573	-85.746	0.202	0.064
-563.558	-200.000	0.055	-0.269
-562.544	300.158	0.147	-0.275
-561.529	800.000	-0.099	0.283
-560.515	107.601	0.094	0.113
-559.500	-43.543	-0.240	-0.123
-558.485	-99.826	0.138	0.035
-557.471	220.298	-0.133	-0.216
-556.456	81.270	-0.063	-0.069
-555.442	-35.638	0.126	-0.069
-554.427	36.317	-0.069	-0.062
-553.412	61.192	0.073	0.073
-552.398	160.728	0.257	-0.364
-551.383	-43.922	0.236	-0.121
-550.369	-143.340	-0.153	0.015
-549.354	-114.659	0.412	0.080
-548.339	-200.000	0.013	-0.176
-547.325	-22.754	0.202	-0.124
-546.310	525.724	0.122	-0.291
-545.296	-86.080	0.353	-0.111
-544.281	-200.000	-0.022	0.183
-543.266	-200.000	0.004	0.166
-542.252	-133.327	-0.282	0.036
-541.237	-24.734	-0.082	0.050
-540.223	294.013	-0.071	-0.132
-539.208	352.189	-0.236	-0.475
-538.193	-86.032	0.085	-0.027
-537.179	-200.000	0.053	0.475
-536.164	450.349	-0.105	0.235
-535.150	-200.000	-0.043	-0.311
-534.135	-133.588	0.154	0.020
-533.121	456.134	0.102	0.230
-532.106	658.576	-0.141	-0.368
-531.091	-15.791	-0.228	-0.147
-530.077	113.659	0.114	0.141
-529.062	-76.134	-0.257	-0.092
-528.048	-25.667	-0.162	0.097
-527.033	800.000	-0.031	0.115
-526.018	-200.000	-0.014	-0.133
-525.004	-97.439	-0.157	0.041
-523.989	393.489	0.022	-0.048
-522.975	0.931	0.271	0.197
-521.960	-111.235	0.369	0.077
-520.945	800.000	-0.021	-0.063
-519.931	-200.000	-0.017	0.237
-518.916	800.000	0.085	-0.306
-517.902	89.149	-0.118	-0.133
-516.887	-51.058	-0.235	-0.112
-515.872	-200.000	-0.031	0.484
-514.858	648.075	0.039	0.102
-513.843	-129.614	0.300	0.042
-512.829	-130.674	0.093	-0.013
-511.814	23.009	0.077	-0.064
-510.799	-200.000	-0.001	0.053
-509.785	29.704	0.067	-0.058
-508.770	671.380	0.110	0.289
-507.756	46.440	0.045	-0.043
-506.741	256.651	0.087	-0.152
-505.726	-55.890	-0.338	-0.153
-504.712	-2.376	-0.270	-0.192
-503.697	688.641	-0.183	0.485
-502.683	14.784	-0.088	0.070
-501.668	44.542	-0.042	-0.040
-500.653	-49.597	-0.159	-0.077
-499.639	-73.354	-0.299	-0.111
-498.624	80.992	-0.094	-0.103
-497.610	-63.484	-0.162	-0.068
-496.595	-94.355	-0.096	-0.027
-495.581	-27.300	-0.262	-0.154
-494.566	-100.514	0.064	0.016
-493.551	-107.696	-0.264	0.058
-492.537	-200.000	-0.010	0.069
-491.522	390.026	0.041	-0.086
-490.508	-144.028	-0.192	-0.018
-489.493	63.594	0.213	-0.217
-488.478	800.000	0.039	-0.149
-487.464	-133.539	-0.260	0.033
-486.449	-200.000	0.001	-0.043
-485.435	800.000	-0.032	0.139
-484.420	-89.267	-0.330	0.099
-483.405	51.802	-0.076	-0.074
-482.391	-81.942	0.199	-0.066
-481.376	-200.000	-0.039	-0.214
-480.362	-5.968	0.258	0.179
-479.347	-92.060	-0.439	-0.126
-478.332	156.456	-0.005	-0.007
-477.318	-175.250	0.421	0.012
-476.303	-128.497	-0.053	-0.008
-475.289	774.747	-0.068	0.189
-474.274	30.931	0.093	0.080
-473.259	-26.150	-0.279	0.166
-472.245	316.240	0.064	0.122
-471.230	800.000	0.042	-0.144
-470.216	531.792	0.051	-0.122
-469.201	-38.940	-0.088	0.047
-468.186	49.787	-0.138	-0.131
-467.172	-66.565	0.149	0.060
-466.157	745.741	0.125	0.339
-465.143	-86.708	0.272	0.084
-464.128	44.796	0.124	0.116
-463.113	138.523	-0.203	0.270
-462.099	123.285	-0.011	-0.014
-461.084	-200.000	-0.027	0.151
-460.070	96.359	0.011	-0.013
-459.055	81.329	-0.046	0.050
-458.040	19.695	-0.244	0.199
-457.026	36.049	0.144	-0.129
-456.011	-200.000	-0.016	0.116
-454.997	-200.000	-0.050	-0.431
-453.982	574.297	-0.149	0.368
-452.968	-53.325	-0.192	0.089
-451.953	800.000	-0.089	0.313
-450.938	-200.000	-0.020	-0.370
-449.924	240.849	-0.106	-0.180
-448.909	-58.821	0.055	-0.024
-447.895	800.000	0.071	-0.209
-446.880	281.796	-0.064	-0.116
-445.865	-200.000	-0.082	0.439
-444.851	47.743	0.043	-0.041
-443.836	-136.978	0.041	0.005
-442.822	186.589	-0.118	-0.178
-441.807	218.788	-0.119	0.193
-440.792	110.226	-0.030	0.036
-439.778	-122.126	-0.142	0.024
-438.763	-173.575	-0.163	0.005
-437.749	250.184	-0.145	-0.250
-436.734	800.000	0.148	-0.464
-435.719	-6.493	0.317	-0.219
-434.705	-200.000	-0.071	0.370
-433.690	-164.261	-0.472	-0.022
-432.676	30.211	-0.238	-0.205
-431.661	67.297	0.097	0.100
-430.646	34.250	0.103	-0.091
-429.632	-82.253	0.182	-0.060
-428.617	458.944	0.065	-0.146
-427.603	49.748	0.105	0.100
-426.588	-60.161	-0.241	0.104
-425.573	-163.847	0.226	-0.011
-424.559	-176.464	-0.274	0.007
-423.544	-75.291	-0.339	-0.122
-422.530	-189.669	0.260	0.003
-421.515	472.746	-0.047	0.107
-420.500	527.720	-0.058	0.139
-419.486	281.743	-0.049	-0.089
-418.471	-33.896	0.094	0.053
-417.457	800.000	-0.025	0.078
-416.442	-123.113	0.236	0.038
-415.428	26.981	0.179	-0.152
-414.413	800.000	-0.018	-0.061
-413.398	184.137	0.158	-0.236
-412.384	-200.000	-0.012	0.121
-411.369	-200.000	0.000	0.168
-410.355	146.651	0.022	-0.030
-409.340	263.729	0.170	0.298
-408.325	-10.186	0.016	-0.011
-407.311	-200.000	-0.000	-0.144
-406.296	320.210	0.045	0.087
-405.282	-27.333	-0.241	0.142
-404.267	-117.982	0.260	0.047
-403.252	147.125	-0.206	-0.280
-402.238	7.672	-0.099	0.075
-401.223	-74.399	-0.105	0.038
-400.209	697.697	0.122	0.324
-399.194	-113.367	-0.251	-0.050
-398.179	-56.573	0.191	-0.086
-397.165	78.637	0.197	0.212
-396.150	648.151	-0.075	0.194
-395.136	-200.000	-0.011	0.224
-394.121	800.000	0.020	0.078
-393.106	-200.000	-0.009	-0.125
-392.092	-200.000	0.007	-0.240
-391.077	114.655	-0.083	-0.103
-390.063	683.693	0.027	-0.072
-389.048	-41.025	0.173	0.090
-388.033	33.986	-0.132	-0.116
-387.019	-61.441	0.260	-0.110
-386.004	-69.689	-0.112	-0.043
-384.990	-57.999	-0.150	0.066
-383.975	146.545	-0.030	0.040
-382.960	239.533	-0.082	-0.138
-381.946	94.290	0.144	0.165
-380.931	79.364	-0.151	-0.163
-379.917	605.387	0.052	-0.130
-378.902	800.000	0.012	0.044
-377.888	-31.291	0.165	0.094
-376.873	-42.004	0.186	-0.096
-375.858	-98.276	0.099	0.026
-374.844	352.475	-0.079	0.158
-373.829	302.556	-0.184	-0.344
-372.815	104.850	0.115	-0.136
-371.800	-122.864	-0.325	0.053
-370.785	30.047	-0.308	-0.265
-369.771	249.799	-0.240	0.410
-368.756	-93.467	-0.316	0.088
-367.742	474.228	0.125	-0.284
-366.727	57.630	0.130	-0.128
-365.712	570.759	-0.059	-0.146
-364.698	-104.670	-0.255	-0.059
-363.683	45.904	0.115	-0.107
-362.669	-200.000	-0.003	-0.146
-361.654	-98.672	-0.127	0.033
-360.639	-122.355	0.202	-0.033
-359.625	336.335	0.128	-0.250
-358.610	-40.452	0.233	0.122
-357.596	484.770	-0.201	0.461
-356.581	16.321	-0.250	-0.199
-355.566	-200.000	0.035	-0.431
-354.552	800.000	-0.039	-0.123
-353.537	383.946	-0.140	-0.290
-352.523	-53.001	0.160	0.074
-351.508	-108.762	0.244	-0.053
-350.493	-9.601	0.158	0.106
-349.479	-128.942	-0.072	-0.010
-348.464	-200.000	0.021	0.189
-347.450	341.563	-0.152	0.299
-346.435	-95.556	-0.312	0.084
-345.420	64.098	-0.220	-0.223
-344.406	800.000	-0.042	-0.121
-343.391	689.610	-0.055	0.145
-342.377	800.000	-0.085	0.261
-341.362	5.566	-0.146	0.109
-340.348	-57.025	-0.070	-0.031
-339.333	-97.554	0.326	-0.085
-338.318	800.000	-0.031	-0.129
-337.304	15.556	0.080	0.063
-336.289	-170.366	0.214	0.008
-335.275	19.182	0.282	-0.228
-334.260	800.000	-0.120	-0.453
-333.245	630.022	0.073	0.185
-332.231	800.000	0.106	-0.435
-331.216	182.427	-0.109	-0.161
-330.202	98.613	0.198	0.230
-329.187	-52.778	-0.118	-0.055
-328.172	31.850	0.044	-0.038
-327.158	265.066	0.130	0.228
-326.143	610.483	0.108	0.272
-325.129	97.306	0.123	0.142
-324.114	253.596	-0.114	-0.196
-323.099	-5.571	-0.169	-0.117
-322.085	-133.201	-0.484	0.062
-321.070	-60.909	-0.202	0.086
-320.056	49.255	0.278	0.263
-319.041	191.537	-0.091	-0.137
-318.026	-37.872	0.145	-0.077
-317.012	-117.045	0.301	0.055
-315.997	137.052	0.176	-0.231
-314.983	800.000	-0.105	0.436
-313.968	97.914	-0.078	0.091
-312.953	-145.690	-0.170	0.015
-311.939	26.607	0.047	-0.040
-310.924	800.000	-0.012	0.047
-309.910	-135.278	-0.026	0.003
-308.895	779.161	-0.072	-0.198
-307.880	-200.000	0.019	0.207
-306.866	167.891	0.030	0.043
-305.851	398.871	-0.100	-0.211
-304.837	800.000	-0.056	0.177
-303.822	192.723	0.071	0.107
-302.807	137.567	0.108	-0.143
-301.793	-87.744	0.269	0.082
-300.778	738.081	0.075	0.201
-299.764	71.587	-0.008	0.008
-298.749	-12.056	0.342	0.226
-297.735	800.000	-0.115	-0.359
-296.720	48.623	-0.032	-0.031
-295.705	-200.000	0.009	0.091
-294.691	-168.721	-0.177	0.007
-293.676	101.352	-0.180	0.211
-292.662	-59.129	-0.147	0.064
-291.647	-42.160	0.150	-0.077
-290.632	-200.000	-0.087	-0.386
-289.618	-140.842	0.253	0.026
-288.603	164.491	-0.111	-0.157
-287.589	-169.318	0.128	-0.005
-286.574	432.260	-0.011	0.023
-285.559	-163.217	0.277	-0.013
-284.545	-41.053	-0.229	0.119
-283.530	-68.360	-0.083	-0.032
-282.516	16.621	0.039	-0.031
-281.501	-30.241	0.191	0.109
-280.486	4.306	0.114	-0.084
-279.472	330.202	0.095	-0.184
-278.457	-121.650	-0.242	0.040
-277.443	11.532	-0.139	0.107
-276.428	-200.000	0.006	-0.062
-275.413	34.496	-0.189	0.166
-274.399	373.195	0.085	0.173
-273.384	-36.552	0.138	0.074
-272.370	-8.812	0.138	0.093
-271.355	-94.495	-0.320	-0.088
-270.340	5.594	0.162	0.120
-269.326	196.640	-0.098	-0.149
-268.311	-187.231	-0.210	0.003
-267.297	800.000	0.047	0.201
-266.282	29.489	0.162	0.138
-265.267	-185.679	0.246	-0.004
-264.253	-31.908	0.320	0.180
-263.238	-11.484	-0.297	0.196
-262.224	800.000	0.092	0.361
-261.209	-200.000	0.026	0.181
-260.195	342.603	-0.069	0.136
-259.180	-67.815	0.089	0.035
-258.165	-200.000	-0.010	0.137
-257.151	-113.464	0.173	-0.034
-256.136	-100.011	0.383	-0.096
-255.122	702.139	-0.106	0.281
-254.107	257.571	-0.270	0.467
-253.092	-72.681	0.237	0.088
-252.078	-38.771	-0.246	-0.130
-251.063	-200.000	0.089	0.396
-250.049	-77.020	-0.103	-0.036
-249.034	87.466	-0.107	0.119
-248.019	800.000	0.052	0.194
-247.005	-59.768	0.182	0.078
-245.990	800.000	0.026	0.104
-244.976	-200.000	0.308	-0.000
-243.961	71.511	-0.071	0.074
-242.946	182.723	-0.114	0.169
-241.932	32.051	-0.147	-0.127
-240.917	-18.394	0.189	0.119
-239.903	78.613	0.061	-0.065
-238.888	93.448	0.337	-0.383
-237.873	-127.702	-0.578	-0.084
-236.859	161.144	-0.082	-0.115
-235.844	77.194	0.131	0.139
-234.830	-80.656	-0.372	-0.124
-233.815	-200.000	-0.041	-0.266
-232.800	63.239	0.066	0.066
-231.786	-40.048	0.132	0.069
-230.771	42.526	0.099	0.091
-229.757	797.786	-0.110	-0.304
-228.742	-200.000	-0.093	-0.505
-227.727	82.187	-0.216	-0.235
-226.713	-198.713	-0.134	-0.001
-225.698	-75.149	-0.099	-0.036
-224.684	-76.315	0.432	-0.153
-223.669	171.991	-0.051	-0.073
-222.655	99.547	0.205	0.238
-221.640	-130.556	-0.248	-0.034
-220.625	-51.106	-0.337	0.159
-219.611	163.228	-0.313	0.441
-218.596	67.833	-0.109	-0.112
-217.582	-60.619	0.259	-0.110
-216.567	-104.379	-0.260	-0.060
-215.552	310.903	0.176	-0.331
-214.538	-200.000	0.042	-0.312
-213.523	-200.000	-0.013	-0.106
-212.509	573.881	0.046	-0.112
-211.494	237.725	0.113	0.188
-210.479	-112.543	0.279	0.056
-209.465	-80.390	0.303	0.102
-208.450	-200.000	-0.037	0.328
-207.436	-9.490	0.230	0.154
-206.421	-200.000	0.027	0.143
-205.406	69.404	0.186	0.192
-204.392	800.000	-0.095	-0.274
-203.377	-115.316	0.298	-0.056
-202.363	-88.795	-0.056	0.017
-201.348	-45.742	0.196	-0.097
-200.333	-14.630	0.092	0.059
-199.319	152.186	0.184	-0.252
-198.304	778.838	-0.049	-0.133
-197.290	61.901	-0.129	-0.129
-196.275	-89.835	-0.168	-0.049
-195.260	88.686	-0.089	0.099
-194.246	800.000	0.105	0.291
-193.231	-200.000	-0.032	-0.209
-192.217	800.000	0.081	-0.242
-191.202	-200.000	-0.055	-0.255
-190.187	-29.827	0.113	-0.065
-189.173	-32.289	0.242	0.135
-188.158	800.000	-0.016	0.053
-187.144	-114.828	0.086	0.016
-186.129	2.949	0.197	-0.144
-185.114	-200.000	-0.027	-0.159
-184.100	211.300	0.029	-0.046
-183.085	-94.191	-0.415	-0.114
-182.071	6.599	-0.207	-0.154
-181.056	306.730	0.133	-0.248
-180.042	-44.619	0.150	0.075
-179.027	308.935	0.039	-0.073
-178.012	-26.411	-0.200	-0.117
-176.998	-56.942	-0.279	-0.123
-175.983	88.660	0.181	-0.201
-174.969	-142.249	0.219	-0.022
-173.954	-0.325	0.132	0.094
-172.939	-200.000	-0.005	0.312
-171.925	301.017	0.190	0.351
-170.910	260.064	0.110	0.190
-169.896	-98.974	-0.087	0.022
-168.881	163.927	0.177	0.249
-167.866	-200.000	-0.015	-0.312
-166.852	351.075	0.054	0.106
-165.837	229.257	-0.150	0.245
-164.823	-12.131	-0.086	0.056
-163.808	299.610	-0.255	0.469
-162.793	-7.909	-0.056	-0.038
-161.779	164.501	0.073	0.104
-160.764	102.937	-0.212	-0.248
-159.750	-33.438	-0.092	-0.051
-158.735	32.737	0.122	0.105
-157.720	119.792	0.148	-0.183
-156.706	27.287	-0.159	-0.134
-155.691	-200.000	0.001	0.193
-154.677	-200.000	0.001	0.055
-153.662	800.000	-0.109	0.394
-152.647	-149.801	0.188	0.015
-151.633	90.860	0.125	0.141
-150.618	800.000	0.077	0.241
-149.604	-54.648	-0.100	0.045
-148.589	59.211	0.049	-0.049
-147.574	497.667	-0.049	-0.112
-146.560	-23.218	-0.154	0.092
-145.545	117.652	-0.074	0.091
-144.531	-200.000	0.026	-0.165
-143.516	23.998	0.142	0.117
-142.502	119.306	0.044	-0.055
-141.487	-68.471	0.027	0.011
-140.472	-128.943	0.119	-0.017
-139.458	-65.346	0.075	-0.030
-138.443	15.387	0.241	-0.189
-137.429	-93.558	-0.195	-0.054
-136.414	-165.910	0.275	0.012
-135.399	-51.411	0.170	-0.079
-134.385	-200.000	0.034	0.445
-133.370	575.876	0.051	-0.126
-132.356	-200.000	-0.012	-0.079
-131.341	-63.834	-0.288	0.118
-130.326	10.314	-0.207	-0.157
-129.312	-200.000	0.006	-0.294
-128.297	-25.373	-0.131	-0.078
-127.283	222.419	0.106	0.171
-126.268	97.237	-0.047	0.054
-125.253	-108.000	0.103	-0.022
-124.239	59.612	0.004	0.004
-123.224	-200.000	-0.020	0.214
-122.210	658.075	-0.055	0.141
-121.195	-119.681	0.265	-0.046
