DTS Sentinel unit serial number:	SN413079Multiplexer serial number:	ORYXHardware model number:	OX4-SRSoftware version number:	ORYX F/W v4.00 Oryx Data Collector v3.7.2.0data status	okinstallation	princeton_trtdifferential loss correction	single-endedforward channel	channel 4reverse channel	N/Adate	2019/09/17time	15:25:34forward acquisition time	60.00reverse acquisition time	0.00gamma	496.2192k internal	0.2292k external	0.2292temperature offset calibration	0.9984default loss term (dB/km)	0.3790temperature slope calibration	1.0000multiplexer offset coefficient	1.0000multiplexer slope coefficient	1.0000fibre end	0.00T internal ref (°C)	38.14T ext. ref 1 (°C)	0.38T ext. ref 2 (°C)	35.42length (m)	temperature (°C)	Stokes	anti-Stokes-747.200	773.932	0.110	0.306
-746.185	-200.000	-0.019	0.234
-745.171	31.440	0.177	-0.156
-744.156	-170.640	0.093	-0.003
-743.142	-25.124	0.314	0.191
-742.127	800.000	0.105	0.335
-741.112	539.563	-0.075	-0.182
-740.098	-200.000	0.033	0.224
-739.083	-100.228	0.315	0.080
-738.069	90.259	-0.174	0.199
-737.054	255.156	-0.099	0.174
-736.039	174.892	0.073	0.108
-735.025	-200.000	-0.031	0.435
-734.010	15.456	0.119	-0.096
-732.996	155.634	-0.197	0.277
-731.981	-88.488	-0.286	0.087
-730.966	-200.000	0.034	0.213
-729.952	800.000	0.011	0.042
-728.937	-27.003	-0.218	0.130
-727.923	800.000	0.109	-0.436
-726.908	461.614	-0.154	-0.350
-725.894	-54.714	-0.255	0.118
-724.879	800.000	-0.050	0.184
-723.864	279.537	-0.162	0.296
-722.850	800.000	0.053	-0.158
-721.835	-19.921	-0.217	0.137
-720.821	-162.876	-0.317	0.016
-719.806	-200.000	-0.027	-0.134
-718.791	-53.646	-0.118	-0.055
-717.777	42.685	0.158	0.147
-716.762	-97.475	0.110	-0.029
-715.748	531.631	-0.085	-0.205
-714.733	328.379	0.091	-0.179
-713.718	800.000	0.175	0.501
-712.704	-200.000	-0.000	0.222
-711.689	0.957	0.249	0.182
-710.675	43.711	-0.208	-0.195
-709.660	-15.662	-0.264	-0.172
-708.645	-200.000	0.032	-0.387
-707.631	74.587	-0.056	0.060
-706.616	77.467	0.186	-0.203
-705.602	641.616	0.156	0.406
-704.587	-34.944	0.108	-0.060
-703.572	-200.000	0.010	0.127
-702.558	-200.000	0.022	0.148
-701.543	800.000	0.060	-0.261
-700.529	289.220	-0.056	0.103
-699.514	219.377	-0.024	0.039
-698.499	800.000	0.062	0.194
-697.485	379.663	0.054	0.113
-696.470	-200.000	0.003	0.092
-695.456	295.079	0.038	-0.071
-694.441	124.527	0.143	0.184
-693.426	31.032	0.270	-0.237
-692.412	-177.250	-0.207	0.005
-691.397	-200.000	0.001	-0.051
-690.383	-122.973	-0.260	0.043
-689.368	800.000	-0.064	0.190
-688.354	800.000	-0.057	0.203
-687.339	301.483	-0.063	-0.119
-686.324	-21.003	0.034	0.021
-685.310	110.207	-0.208	-0.255
-684.295	645.635	0.053	-0.139
-683.281	-126.515	0.088	0.013
-682.266	-84.284	-0.080	0.026
-681.251	-200.000	-0.008	0.251
-680.237	261.998	0.136	0.241
-679.222	-200.000	0.196	0.000
-678.208	800.000	-0.012	-0.039
-677.193	191.160	0.078	-0.120
-676.178	4.230	-0.130	0.098
-675.164	-119.906	-0.104	-0.018
-674.149	56.110	0.200	0.198
-673.135	800.000	-0.030	0.129
-672.120	190.366	0.076	0.116
-671.105	232.796	0.084	0.141
-670.091	-108.215	-0.362	-0.080
-669.076	-11.369	-0.167	-0.112
-668.062	800.000	0.090	-0.333
-667.047	-14.959	-0.246	-0.161
-666.032	98.561	-0.131	0.154
-665.018	-200.000	-0.067	0.315
-664.003	800.000	0.030	0.114
-662.989	-25.316	0.212	0.128
-661.974	-16.318	-0.146	-0.095
-660.959	-65.909	0.075	0.030
-659.945	-145.087	-0.226	0.021
-658.930	5.607	0.094	0.071
-657.916	334.668	-0.079	-0.157
-656.901	-200.000	0.010	-0.142
-655.886	-200.000	0.033	0.166
-654.872	134.290	0.230	0.304
-653.857	106.613	0.095	-0.115
-652.843	142.396	-0.071	0.096
-651.828	-200.000	-0.016	-0.245
-650.814	225.488	0.118	0.194
-649.799	-200.000	-0.108	-0.000
-648.784	-200.000	0.000	-0.168
-647.770	-137.376	0.153	0.018
-646.755	449.545	-0.020	0.044
-645.741	15.157	-0.095	-0.076
-644.726	-35.227	-0.359	0.199
-643.711	109.582	0.033	0.040
-642.697	238.304	0.152	0.257
-641.682	-153.443	-0.127	-0.009
-640.668	-200.000	0.008	0.103
-639.653	9.872	-0.409	0.317
-638.638	353.010	-0.088	-0.177
-637.624	278.243	-0.052	0.094
-636.609	-53.272	-0.174	-0.081
-635.595	-57.479	0.070	-0.031
-634.580	-48.064	0.398	-0.196
-633.565	564.392	-0.147	-0.364
-632.551	155.801	-0.117	-0.164
-631.536	-52.642	-0.162	0.076
-630.522	-110.815	0.081	-0.017
-629.507	256.940	-0.047	0.083
-628.492	-91.140	0.242	0.071
-627.478	-16.593	0.139	0.090
-626.463	110.831	0.072	0.088
-625.449	131.018	-0.197	-0.258
-624.434	800.000	-0.091	0.314
-623.419	800.000	0.024	0.083
-622.405	82.494	-0.028	0.031
-621.390	82.593	-0.292	0.323
-620.376	-9.120	-0.206	0.140
-619.361	-54.877	0.165	0.076
-618.346	235.822	-0.112	0.188
-617.332	-3.308	-0.168	-0.119
-616.317	-175.662	-0.206	-0.006
-615.303	-168.552	0.251	-0.010
-614.288	128.593	-0.160	-0.207
-613.273	17.459	-0.110	0.089
-612.259	440.658	-0.045	0.100
-611.244	-200.000	0.006	-0.055
-610.230	86.559	-0.206	0.231
-609.215	-46.230	-0.198	0.099
-608.201	-155.034	-0.085	-0.006
-607.186	-21.964	0.165	0.102
-606.171	-200.000	0.021	0.151
-605.157	-78.546	0.265	0.092
-604.142	-83.356	-0.303	0.099
-603.128	251.824	0.038	0.065
-602.113	645.041	-0.018	0.047
-601.098	800.000	-0.019	0.081
-600.084	-127.859	0.180	-0.026
-599.069	232.722	-0.094	-0.157
-598.055	-85.718	0.358	0.113
-597.040	-122.391	0.300	-0.050
-596.025	446.540	0.033	0.074
-595.011	-136.543	-0.444	-0.052
-593.996	-34.659	-0.378	-0.211
-592.982	362.012	-0.065	-0.132
-591.967	131.568	-0.241	-0.316
-590.952	-175.096	0.234	-0.007
-589.938	-200.000	0.020	-0.279
-588.923	-200.000	0.007	-0.106
-587.909	800.000	-0.082	-0.260
-586.894	800.000	-0.116	0.383
-585.879	-156.030	0.138	-0.009
-584.865	-79.666	0.074	0.025
-583.850	-200.000	0.003	0.249
-582.836	-174.879	0.318	0.009
-581.821	-105.302	0.209	0.048
-580.806	165.480	-0.174	-0.251
-579.792	49.457	0.104	-0.100
-578.777	-200.000	-0.003	-0.131
-577.763	-200.000	0.005	-0.213
-576.748	87.858	0.128	0.144
-575.733	-200.000	-0.002	0.105
-574.719	-30.139	-0.272	-0.157
-573.704	18.566	0.327	-0.266
-572.690	-158.133	0.258	-0.015
-571.675	22.316	-0.251	-0.208
-570.661	-187.182	-0.114	-0.002
-569.646	-101.126	-0.070	0.017
-568.631	-200.000	-0.002	0.195
-567.617	800.000	0.037	-0.150
-566.602	14.909	-0.245	-0.195
-565.588	685.657	0.023	-0.062
-564.573	99.040	-0.243	0.285
-563.558	-84.217	0.269	-0.087
-562.544	-200.000	0.025	0.167
-561.529	-155.880	-0.405	0.026
-560.515	16.837	0.219	0.176
-559.500	-200.000	-0.024	0.512
-558.485	287.168	-0.109	0.200
-557.471	367.087	0.152	0.311
-556.456	499.782	0.055	0.129
-555.442	77.930	-0.197	-0.214
-554.427	21.417	0.411	-0.339
-553.412	66.329	-0.188	-0.194
-552.398	800.000	-0.073	-0.218
-551.383	-200.000	-0.003	0.239
-550.369	12.598	-0.283	0.222
-549.354	-144.770	-0.318	-0.030
-548.339	800.000	0.187	-0.604
-547.325	-76.614	-0.212	-0.076
-546.310	160.103	-0.270	0.382
-545.296	-53.115	-0.253	0.118
-544.281	-8.261	0.336	-0.230
-543.266	205.421	0.063	-0.100
-542.252	218.495	-0.101	-0.163
-541.237	-87.994	0.049	0.015
-540.223	71.354	0.273	0.287
-539.208	-200.000	-0.007	-0.211
-538.193	-127.130	0.271	-0.040
-537.179	-200.000	0.007	-0.082
-536.164	-172.841	-0.360	-0.011
-535.150	27.078	0.126	-0.108
-534.135	107.617	-0.047	-0.057
-533.121	-200.000	0.016	0.234
-532.106	-144.640	-0.402	0.038
-531.091	-163.382	-0.227	-0.011
-530.077	-137.026	0.192	0.022
-529.062	-200.000	0.039	0.294
-528.048	332.981	0.094	-0.185
-527.033	-78.159	-0.205	0.072
-526.018	800.000	-0.028	0.105
-525.004	-200.000	-0.008	-0.037
-523.989	-200.000	0.039	-0.238
-522.975	800.000	0.051	0.164
-521.960	-52.238	0.198	0.093
-520.945	800.000	-0.070	0.203
-519.931	115.468	-0.038	0.047
-518.916	-200.000	-0.028	-0.128
-517.902	-102.566	0.161	-0.039
-516.887	71.199	-0.329	-0.347
-515.872	-78.797	-0.414	-0.143
-514.858	-109.641	-0.322	0.069
-513.843	-200.000	0.014	-0.244
-512.829	-200.000	-0.022	0.399
-511.814	-200.000	0.017	0.265
-510.799	-54.776	0.072	0.033
-509.785	259.354	0.177	-0.310
-508.770	-40.081	0.219	0.116
-507.756	68.473	-0.258	0.269
-506.741	547.200	-0.044	-0.107
-505.726	250.517	0.033	0.056
-504.712	800.000	-0.058	-0.182
-503.697	-200.000	-0.016	-0.373
-502.683	-40.668	-0.111	0.058
-501.668	33.738	0.112	0.099
-500.653	429.032	-0.152	0.333
-499.639	-110.098	0.168	-0.036
-498.624	-117.660	-0.169	-0.031
-497.610	-71.469	0.186	-0.071
-496.595	800.000	-0.052	0.153
-495.581	800.000	-0.032	0.107
-494.566	-45.917	0.181	0.090
-493.551	-68.473	-0.353	-0.139
-492.537	-42.840	0.131	0.067
-491.522	-168.858	-0.235	0.009
-490.508	545.537	0.149	-0.361
-489.493	-200.000	-0.028	-0.159
-488.478	800.000	-0.024	-0.099
-487.464	-104.247	-0.050	0.012
-486.449	266.279	0.280	-0.495
-485.435	-107.488	0.234	-0.052
-484.420	445.401	-0.048	0.106
-483.405	-60.404	-0.451	0.194
-482.391	26.178	0.341	0.289
-481.376	70.628	0.110	0.115
-480.362	-200.000	-0.003	0.320
-479.347	474.597	-0.036	0.081
-478.332	73.529	-0.187	-0.198
-477.318	-26.071	0.127	-0.076
-476.303	82.172	0.163	-0.179
-475.289	161.380	0.238	0.337
-474.274	329.115	0.069	0.135
-473.259	-146.145	-0.134	-0.012
-472.245	-158.678	-0.125	0.007
-471.230	800.000	-0.010	-0.035
-470.216	800.000	0.047	-0.197
-469.201	22.872	-0.019	0.016
-468.186	383.582	-0.176	0.367
-467.172	33.275	0.164	-0.144
-466.157	-200.000	0.027	-0.222
-465.143	14.773	0.223	-0.177
-464.128	42.299	0.233	0.214
-463.113	-200.000	-0.022	0.199
-462.099	-40.766	0.213	-0.112
-461.084	41.358	-0.190	0.174
-460.070	232.932	-0.088	0.146
-459.055	-25.504	-0.430	-0.257
-458.040	800.000	0.084	0.243
-457.026	9.126	-0.060	-0.046
-456.011	368.076	-0.121	-0.248
-454.997	800.000	0.051	-0.157
-453.982	800.000	-0.154	-0.443
-452.968	-69.389	0.072	0.028
-451.953	-175.632	0.265	0.007
-450.938	-137.158	0.417	0.048
-449.924	800.000	-0.082	-0.281
-448.909	800.000	-0.055	0.222
-447.895	-200.000	-0.018	0.115
-446.880	-40.286	-0.170	0.090
-445.865	-28.713	0.249	0.145
-444.851	-61.749	0.101	-0.043
-443.836	194.885	-0.033	-0.050
-442.822	460.534	0.088	0.198
-441.807	42.289	0.208	-0.191
-440.792	-119.547	0.056	0.010
-439.778	157.796	-0.066	-0.092
-438.763	344.798	0.060	0.118
-437.749	62.726	-0.151	-0.153
-436.734	-169.592	0.450	-0.017
-435.719	16.529	-0.197	-0.157
-434.705	-27.479	0.204	-0.120
-433.690	-26.138	-0.058	-0.034
-432.676	-171.987	0.273	0.009
-431.661	102.873	0.220	-0.260
-430.646	585.997	0.123	0.305
-429.632	-200.000	0.015	0.207
-428.617	-27.310	0.177	-0.104
-427.603	24.608	0.209	-0.175
-426.588	16.175	-0.166	0.132
-425.573	-200.000	0.003	0.084
-424.559	27.092	0.144	-0.122
-423.544	-101.419	-0.327	0.081
-422.530	800.000	0.032	0.109
-421.515	-200.000	-0.005	-0.224
-420.500	-200.000	-0.042	-0.324
-419.486	162.305	-0.219	0.311
-418.471	-46.253	0.059	-0.029
-417.457	-4.131	0.218	0.152
-416.442	507.886	-0.116	-0.273
-415.428	800.000	0.055	-0.203
-414.413	800.000	0.089	-0.265
-413.398	-31.725	-0.187	-0.106
-412.384	800.000	0.066	-0.257
-411.369	-148.952	-0.224	0.018
-410.355	196.892	0.209	-0.322
-409.340	800.000	-0.016	0.046
-408.325	-152.358	-0.123	0.009
-407.311	443.952	0.061	-0.136
-406.296	269.326	-0.092	0.163
-405.282	-49.130	0.228	-0.110
-404.267	-52.575	0.571	-0.267
-403.252	152.005	-0.138	-0.190
-402.238	131.958	0.121	-0.157
-401.223	-200.000	-0.049	-0.475
-400.209	119.992	-0.186	0.233
-399.194	-96.687	0.068	-0.018
-398.179	164.172	0.169	0.240
-397.165	1.864	0.084	0.061
-396.150	-200.000	0.016	0.133
-395.136	590.134	0.060	0.149
-394.121	466.339	0.131	-0.296
-393.106	-108.619	-0.187	0.041
-392.092	-130.182	0.120	0.017
-391.077	-107.502	-0.131	0.029
-390.063	-61.477	-0.135	0.057
-389.048	-67.180	-0.046	0.018
-388.033	571.078	0.144	0.354
-387.019	-96.474	-0.216	0.058
-386.004	-99.063	0.234	-0.060
-384.990	-100.003	0.150	-0.038
-383.975	-80.305	-0.253	-0.085
-382.960	294.030	0.085	0.157
-381.946	-166.652	-0.126	-0.005
-380.931	81.545	-0.074	0.080
-379.917	-7.440	0.147	0.100
-378.902	127.983	-0.193	-0.248
-377.888	103.479	-0.048	0.057
-376.873	-137.638	-0.545	-0.062
-375.858	234.296	0.124	0.205
-374.844	-108.067	0.310	-0.068
-373.829	228.620	0.253	0.416
-372.815	-12.459	-0.129	0.085
-371.800	96.378	0.126	-0.146
-370.785	21.780	-0.149	0.123
-369.771	-46.382	-0.240	0.119
-368.756	143.042	0.097	-0.130
-367.742	-200.000	-0.008	0.102
-366.727	33.127	0.220	-0.192
-365.712	-200.000	0.016	-0.075
-364.698	-53.496	0.177	-0.082
-363.683	800.000	0.027	-0.097
-362.669	-92.230	0.208	-0.059
-361.654	-158.019	-0.147	-0.009
-360.639	-154.510	-0.312	0.021
-359.625	-109.582	0.128	-0.027
-358.610	-105.694	-0.032	0.007
-357.596	79.371	0.135	0.146
-356.581	-154.416	-0.160	0.011
-355.566	-200.000	-0.004	-0.203
-354.552	-200.000	0.038	-0.318
-353.537	299.298	-0.089	0.165
-352.523	-127.191	-0.298	-0.044
-351.508	-60.939	0.047	-0.020
-350.493	800.000	0.063	0.221
-349.479	-95.779	-0.120	-0.032
-348.464	4.165	0.213	-0.157
-347.450	-200.000	0.057	0.427
-346.435	124.432	-0.063	0.080
-345.420	310.900	0.113	-0.214
-344.406	-120.267	0.503	0.086
-343.391	53.860	-0.246	0.238
-342.377	-187.123	0.098	-0.001
-341.362	-86.311	-0.328	0.102
-340.348	-138.603	-0.043	0.005
-339.333	-95.635	-0.204	0.055
-338.318	-32.590	0.160	-0.090
-337.304	194.491	-0.072	0.110
-336.289	-200.000	0.007	0.110
-335.275	-200.000	-0.016	-0.182
-334.260	-200.000	-0.058	-0.431
-333.245	513.090	0.032	0.076
-332.231	-70.348	-0.130	0.050
-331.216	328.300	-0.157	0.304
-330.202	800.000	0.057	0.221
-329.187	-88.607	0.144	0.043
-328.172	-200.000	-0.006	-0.166
-327.158	-56.024	0.173	-0.078
-326.143	-72.493	-0.131	-0.049
-325.129	-107.354	-0.106	0.023
-324.114	-112.850	0.080	0.016
-323.099	-196.375	0.158	0.001
-322.085	-136.811	-0.147	0.017
-321.070	334.844	-0.176	-0.343
-320.056	129.426	0.193	0.248
-319.041	284.808	0.072	-0.131
-318.026	68.946	0.063	0.065
-317.012	93.134	-0.057	0.065
-315.997	34.873	0.056	-0.050
-314.983	99.413	0.111	0.129
-313.968	-42.284	-0.181	0.093
-312.953	246.407	0.130	0.220
-311.939	37.646	0.134	0.120
-310.924	130.581	-0.196	0.253
-309.910	100.238	-0.102	-0.120
-308.895	183.902	-0.209	-0.311
-307.880	-14.173	-0.255	0.165
-306.866	-19.979	-0.128	0.080
-305.851	148.077	0.202	-0.274
-304.837	-200.000	0.032	-0.261
-303.822	183.052	-0.135	-0.200
-302.807	-65.257	-0.240	-0.097
-301.793	-200.000	-0.035	-0.189
-300.778	-116.094	-0.255	-0.048
-299.764	-50.582	0.119	0.057
-298.749	48.827	-0.371	0.351
-297.735	-123.528	-0.129	0.021
-296.720	2.167	-0.158	-0.115
-295.705	-200.000	-0.027	0.180
-294.691	800.000	0.035	-0.105
-293.676	48.260	0.207	-0.194
-292.662	-66.264	0.093	-0.037
-291.647	305.943	-0.046	0.086
-290.632	40.930	0.125	-0.114
-289.618	-22.457	-0.023	0.014
-288.603	-52.772	-0.293	-0.136
-287.589	1.352	0.079	0.057
-286.574	-13.911	-0.173	-0.112
-285.559	91.942	0.124	-0.140
-284.545	287.289	0.055	0.100
-283.530	-200.000	0.005	-0.167
-282.516	-148.315	-0.063	0.005
-281.501	800.000	0.018	-0.059
-280.486	-68.059	0.080	-0.031
-279.472	-200.000	-0.036	-0.194
-278.457	-200.000	-0.021	-0.283
-277.443	-105.569	0.185	0.042
-276.428	-40.163	0.262	-0.137
-275.413	-45.448	0.202	-0.100
-274.399	51.691	0.051	0.049
-273.384	221.707	0.150	0.243
-272.370	-1.653	0.246	-0.174
-271.355	-200.000	0.346	-0.002
-270.340	71.230	0.045	0.047
-269.326	33.075	-0.023	0.020
-268.311	151.454	-0.199	0.272
-267.297	25.198	-0.062	0.052
-266.282	-161.745	-0.210	0.011
-265.267	-74.115	-0.198	-0.072
-264.253	-42.222	0.201	0.103
-263.238	-168.154	0.179	-0.007
-262.224	-200.000	-0.071	-0.341
-261.209	-58.036	0.168	-0.074
-260.195	-200.000	0.000	-0.074
-259.180	-104.173	-0.099	-0.023
-258.165	-200.000	-0.011	0.102
-257.151	800.000	-0.057	0.202
-256.136	118.424	0.036	-0.045
-255.122	-44.824	0.146	0.073
-254.107	-135.579	-0.361	0.043
-253.092	-79.966	-0.217	-0.073
-252.078	4.011	0.182	0.134
-251.063	-144.739	0.167	-0.015
-250.049	-119.158	0.106	-0.019
-249.034	-87.504	-0.146	-0.044
-248.019	12.674	0.093	0.072
-247.005	-200.000	-0.010	-0.201
-245.990	21.407	-0.211	-0.172
-244.976	240.578	0.255	0.426
-243.961	-122.030	0.271	0.045
-242.946	-7.349	0.190	0.129
-241.932	21.636	-0.152	0.124
-240.917	-112.455	-0.245	-0.049
-239.903	-200.000	0.032	0.313
-238.888	-200.000	-0.002	0.170
-237.873	-134.210	-0.175	-0.022
-236.859	800.000	-0.094	0.333
-235.844	17.121	0.192	0.153
-234.830	-101.576	-0.234	0.057
-233.815	-179.145	-0.512	0.011
-232.800	-148.854	-0.276	-0.022
-231.786	15.336	-0.076	-0.060
-230.771	-200.000	-0.029	0.176
-229.757	-119.793	0.097	-0.017
-228.742	-151.864	-0.335	0.025
-227.727	-157.574	0.214	-0.013
-226.713	-129.487	0.176	-0.024
-225.698	-5.671	-0.032	-0.022
-224.684	-104.800	0.326	0.075
-223.669	146.946	0.170	0.229
-222.655	-103.030	-0.330	-0.078
-221.640	-200.000	0.056	-0.305
-220.625	-39.972	0.190	0.100
-219.611	-43.682	0.288	0.145
-218.596	4.721	0.229	0.169
-217.582	173.006	0.144	-0.208
-216.567	-89.864	0.326	0.096
-215.552	557.886	-0.077	-0.186
-214.538	164.480	0.114	0.160
-213.523	-152.916	-0.319	0.023
-212.509	-8.287	-0.190	0.128
-211.494	-85.216	0.221	-0.069
-210.479	-200.000	0.048	0.214
-209.465	-23.599	-0.158	0.095
-208.450	800.000	0.074	0.248
-207.436	198.273	0.134	-0.206
-206.421	800.000	0.027	-0.092
-205.406	280.275	0.048	0.087
-204.392	119.210	0.188	-0.233
-203.377	-200.000	0.002	0.152
-202.363	800.000	-0.110	-0.317
-201.348	179.020	0.062	0.091
-200.333	-137.849	-0.135	0.015
-199.319	-49.199	0.169	-0.081
-198.304	121.498	-0.059	-0.074
-197.290	-200.000	0.007	-0.270
-196.275	66.548	0.115	0.117
-195.260	-57.858	0.128	0.056
-194.246	-135.635	-0.087	0.010
-193.231	279.567	0.162	-0.290
-192.217	-60.399	0.470	-0.200
-191.202	-169.125	-0.329	-0.012
-190.187	800.000	-0.114	0.329
-189.173	-35.035	-0.128	0.070
-188.158	105.475	-0.181	0.215
-187.144	-121.327	0.152	-0.025
-186.129	-200.000	-0.011	-0.313
-185.114	-43.606	0.175	0.088
-184.100	-200.000	-0.016	0.071
-183.085	-21.224	0.202	0.124
-182.071	-146.502	0.262	0.023
-181.056	-40.022	0.205	0.107
-180.042	433.504	-0.063	0.137
-179.027	-200.000	-0.001	-0.108
-178.012	-85.188	0.054	-0.017
-176.998	-11.129	-0.133	-0.088
-175.983	661.903	0.075	-0.192
-174.969	-47.629	0.240	0.117
-173.954	701.929	-0.030	-0.079
-172.939	-34.300	0.126	-0.069
-171.925	12.886	0.291	0.225
-170.910	161.389	0.139	-0.194
-169.896	-200.000	-0.016	0.156
-168.881	-51.217	-0.417	-0.196
-167.866	524.092	-0.062	0.145
-166.852	12.282	0.183	0.141
-165.837	-6.326	0.252	-0.172
-164.823	-48.311	-0.173	-0.083
-163.808	82.185	0.164	-0.178
-162.793	224.131	-0.129	0.208
-161.779	58.391	-0.186	-0.183
-160.764	-28.592	-0.437	-0.252
-159.750	-98.166	0.311	0.080
-158.735	64.007	-0.149	0.150
-157.720	-75.327	-0.116	-0.041
-156.706	800.000	0.049	0.207
-155.691	428.257	-0.107	0.232
-154.677	-73.321	-0.191	-0.070
-153.662	-153.808	0.347	-0.024
-152.647	-24.086	0.021	-0.013
-151.633	222.444	0.176	0.284
-150.618	-200.000	0.036	0.282
-149.604	3.907	0.009	0.007
-148.589	-2.195	-0.017	-0.012
-147.574	-200.000	0.013	0.071
-146.560	109.787	-0.161	-0.193
-145.545	332.725	0.103	-0.199
-144.531	-102.351	-0.017	-0.004
-143.516	800.000	0.020	0.064
-142.502	-126.946	-0.172	0.025
-141.487	-172.432	0.346	-0.011
-140.472	308.170	0.166	0.310
-139.458	504.336	-0.116	0.268
-138.443	358.090	0.096	0.191
-137.429	169.237	0.132	0.188
-136.414	249.158	-0.028	-0.048
-135.399	18.326	-0.271	0.216
-134.385	-21.852	-0.277	-0.168
-133.370	416.461	-0.036	0.076
-132.356	800.000	0.106	0.306
-131.341	544.851	-0.095	0.228
-130.326	231.914	-0.159	-0.261
-129.312	-169.021	0.258	0.010
-128.297	79.621	0.300	0.322
-127.283	7.292	-0.173	-0.129
-126.268	128.999	0.214	-0.273
-125.253	287.493	-0.199	0.360
-124.239	511.300	0.125	0.292
-123.224	-156.808	0.629	0.039
-122.210	626.429	-0.039	0.097
-121.195	254.997	-0.038	0.065
