DTS Sentinel unit serial number:	SN413079Multiplexer serial number:	ORYXHardware model number:	OX4-SRSoftware version number:	ORYX F/W v4.00 Oryx Data Collector v3.7.2.0data status	okinstallation	princeton_trtdifferential loss correction	single-endedforward channel	channel 4reverse channel	N/Adate	2019/09/17time	03:13:35forward acquisition time	60.00reverse acquisition time	0.00gamma	496.2192k internal	0.2311k external	0.2311temperature offset calibration	0.9975default loss term (dB/km)	0.3790temperature slope calibration	1.0000multiplexer offset coefficient	1.0000multiplexer slope coefficient	1.0000fibre end	0.00T internal ref (°C)	30.00T ext. ref 1 (°C)	0.14T ext. ref 2 (°C)	24.90length (m)	temperature (°C)	Stokes	anti-Stokes-747.200	-113.820	-0.237	0.047
-746.185	244.113	-0.107	0.183
-745.171	42.318	0.166	0.153
-744.156	-83.748	-0.264	-0.085
-743.142	195.745	-0.067	-0.104
-742.127	109.920	-0.088	0.107
-741.112	-200.000	0.018	0.364
-740.098	98.664	-0.406	0.476
-739.083	148.556	-0.134	-0.183
-738.069	355.444	0.140	0.282
-737.054	-8.439	-0.165	0.113
-736.039	315.628	0.090	0.172
-735.025	-171.536	-0.508	0.017
-734.010	-176.952	-0.276	0.007
-732.996	-166.316	-0.223	0.010
-731.981	125.359	-0.238	0.305
-730.966	11.417	-0.224	0.174
-729.952	184.617	-0.237	0.356
-728.937	203.304	-0.114	0.178
-727.923	-61.433	-0.221	-0.094
-726.908	343.181	-0.160	-0.318
-725.894	-59.317	-0.151	-0.066
-724.879	-52.805	-0.348	0.162
-723.864	161.572	-0.085	0.121
-722.850	800.000	0.049	0.187
-721.835	-32.089	-0.340	0.193
-720.821	-7.892	-0.114	0.078
-719.806	-58.809	-0.421	0.185
-718.791	-86.970	0.234	-0.072
-717.777	128.323	0.255	0.329
-716.762	168.578	-0.121	0.176
-715.748	-142.063	-0.266	0.027
-714.733	-102.152	0.209	0.051
-713.718	117.145	-0.096	-0.120
-712.704	496.662	-0.118	0.275
-711.689	515.943	0.091	0.215
-710.675	206.775	0.081	-0.128
-709.660	-104.368	0.149	-0.035
-708.645	43.040	-0.315	-0.291
-707.631	458.210	0.175	-0.394
-706.616	-123.623	-0.257	-0.041
-705.602	259.417	0.119	0.208
-704.587	800.000	0.071	-0.273
-703.572	-80.042	-0.531	-0.181
-702.558	785.133	0.118	-0.327
-701.543	571.302	-0.091	0.224
-700.529	350.023	0.024	0.047
-699.514	380.016	0.100	-0.208
-698.499	56.046	0.051	0.050
-697.485	499.704	-0.133	0.310
-696.470	-91.797	-0.142	0.041
-695.456	626.578	0.013	0.033
-694.441	-101.328	0.181	-0.045
-693.426	362.280	-0.010	0.021
-692.412	-170.414	-0.376	-0.013
-691.397	-150.661	0.447	0.035
-690.383	-147.764	-0.147	0.012
-689.368	67.833	-0.161	0.167
-688.354	-70.960	0.157	-0.060
-687.339	265.938	0.205	0.362
-686.324	-47.373	0.229	0.113
-685.310	83.890	-0.257	-0.284
-684.295	-46.641	-0.224	-0.111
-683.281	800.000	-0.044	-0.145
-682.266	-20.075	-0.390	-0.243
-681.251	-102.335	0.294	0.071
-680.237	-84.270	0.192	0.062
-679.222	-61.973	0.276	-0.117
-678.208	105.814	-0.151	-0.180
-677.193	-30.500	-0.389	0.223
-676.178	762.686	0.104	-0.285
-675.164	-78.266	0.263	0.091
-674.149	-28.127	0.447	0.261
-673.135	-49.849	0.264	-0.127
-672.120	121.789	-0.197	-0.249
-671.105	-144.597	-0.253	-0.024
-670.091	-148.995	-0.138	-0.011
-669.076	-74.123	0.088	0.032
-668.062	-91.119	-0.130	0.038
-667.047	-60.679	0.379	-0.163
-666.032	-80.875	-0.138	0.046
-665.018	-85.626	0.416	0.131
-664.003	-55.843	0.223	0.101
-662.989	-64.449	0.125	0.051
-661.974	-143.989	-0.233	0.022
-660.959	-110.663	0.131	0.027
-659.945	498.817	-0.034	0.080
-658.930	-87.344	0.113	-0.035
-657.916	31.460	-0.104	-0.090
-656.901	-47.581	0.156	0.077
-655.886	-200.000	-0.007	-0.074
-654.872	-7.610	0.136	-0.093
-653.857	58.170	-0.154	-0.153
-652.843	20.035	-0.126	-0.103
-651.828	-51.485	0.200	0.095
-650.814	72.424	0.073	-0.077
-649.799	71.713	-0.145	-0.152
-648.784	-46.773	0.197	0.097
-647.770	199.748	-0.080	0.124
-646.755	-11.438	0.064	0.043
-645.741	800.000	-0.129	-0.544
-644.726	-59.252	-0.153	-0.067
-643.711	-200.000	-0.035	0.254
-642.697	454.101	0.114	0.254
-641.682	-76.726	0.105	-0.037
-640.668	452.625	0.051	-0.115
-639.653	44.458	-0.108	0.100
-638.638	-200.000	0.011	0.148
-637.624	-175.486	-0.195	0.005
-636.609	-34.120	-0.061	-0.034
-635.595	447.081	-0.023	-0.051
-634.580	-56.665	0.121	-0.054
-633.565	82.643	0.088	-0.096
-632.551	-146.765	-0.198	-0.017
-631.536	-200.000	0.008	-0.312
-630.522	0.515	-0.239	0.173
-629.507	-41.564	0.143	-0.074
-628.492	-200.000	-0.070	0.363
-627.478	-114.612	-0.262	0.051
-626.463	380.627	-0.123	-0.255
-625.449	44.591	-0.036	-0.033
-624.434	800.000	-0.039	0.121
-623.419	435.983	0.146	-0.320
-622.405	-6.534	0.240	-0.165
-621.390	-1.830	-0.232	0.165
-620.376	-200.000	0.027	-0.206
-619.361	250.910	-0.022	-0.037
-618.346	150.241	-0.357	0.490
-617.332	343.026	-0.089	-0.176
-616.317	-53.512	0.164	0.076
-615.303	-200.000	0.008	-0.174
-614.288	-102.227	-0.257	0.062
-613.273	29.400	0.275	0.236
-612.259	800.000	0.032	-0.130
-611.244	800.000	-0.154	-0.449
-610.230	50.657	0.195	-0.187
-609.215	-95.311	-0.343	0.093
-608.201	445.500	-0.096	-0.213
-607.186	-99.889	-0.644	-0.162
-606.171	-200.000	-0.003	0.107
-605.157	-164.727	-0.346	0.016
-604.142	-54.237	0.348	-0.160
-603.128	163.214	0.239	-0.338
-602.113	58.200	0.182	0.180
-601.098	317.740	-0.056	0.106
-600.084	-116.937	-0.414	0.076
-599.069	-200.000	-0.040	0.269
-598.055	-200.000	-0.027	0.416
-597.040	-115.590	-0.077	0.015
-596.025	404.609	-0.152	-0.323
-595.011	85.364	-0.086	-0.096
-593.996	-200.000	0.061	-0.377
-592.982	59.222	-0.176	0.175
-591.967	-114.423	0.162	-0.032
-590.952	-5.826	0.281	0.194
-589.938	601.720	0.125	-0.314
-588.923	107.858	0.190	-0.228
-587.909	-200.000	-0.001	0.092
-586.894	248.848	-0.181	0.309
-585.879	81.474	0.097	-0.106
-584.865	-160.383	-0.195	0.011
-583.850	-122.902	-0.553	-0.090
-582.836	52.669	0.227	0.219
-581.821	-90.120	-0.173	0.051
-580.806	800.000	0.097	-0.281
-579.792	-74.939	-0.376	-0.136
-578.777	-100.112	0.235	0.059
-577.763	-56.562	-0.243	0.109
-576.748	-200.000	-0.000	0.183
-575.733	-106.274	-0.251	-0.057
-574.719	148.325	-0.093	0.127
-573.704	122.990	0.212	-0.267
-572.690	107.030	-0.130	-0.156
-571.675	622.034	-0.064	0.163
-570.661	-200.000	-0.000	0.053
-569.646	-200.000	0.002	-0.136
-568.631	-200.000	-0.061	-0.352
-567.617	-54.694	0.275	0.125
-566.602	-200.000	0.026	-0.169
-565.588	46.055	-0.199	-0.186
-564.573	-200.000	-0.001	0.192
-563.558	68.048	0.169	0.175
-562.544	-43.589	-0.179	0.091
-561.529	158.848	-0.057	0.079
-560.515	-129.126	0.305	-0.043
-559.500	72.785	-0.167	0.176
-558.485	372.031	-0.139	0.284
-557.471	82.976	0.074	-0.081
-556.456	-69.955	0.348	-0.134
-555.442	35.716	-0.226	0.200
-554.427	-200.000	-0.008	-0.143
-553.412	77.795	-0.150	0.161
-552.398	-68.873	-0.139	0.054
-551.383	107.576	-0.129	-0.155
-550.369	1.901	-0.171	-0.124
-549.354	457.491	-0.048	-0.108
-548.339	-74.661	-0.165	0.060
-547.325	-200.000	-0.015	-0.197
-546.310	-200.000	0.046	-0.324
-545.296	21.544	0.205	0.168
-544.281	-119.324	0.215	-0.038
-543.266	230.422	0.071	-0.116
-542.252	102.527	0.104	-0.123
-541.237	611.489	-0.025	-0.063
-540.223	-59.407	0.235	0.102
-539.208	-14.071	-0.186	0.121
-538.193	-200.000	0.041	0.237
-537.179	-121.003	-0.036	0.006
-536.164	-40.826	-0.040	-0.021
-535.150	-25.442	-0.306	0.182
-534.135	-39.296	-0.069	0.036
-533.121	-200.000	0.045	-0.308
-532.106	800.000	-0.148	-0.416
-531.091	213.239	-0.249	0.396
-530.077	777.363	0.060	0.166
-529.062	98.278	-0.117	-0.136
-528.048	197.000	-0.129	-0.198
-527.033	90.407	0.162	-0.182
-526.018	279.356	-0.079	0.142
-525.004	-38.961	-0.124	0.066
-523.989	-79.164	0.143	0.049
-522.975	454.886	-0.085	-0.190
-521.960	-16.643	-0.126	-0.081
-520.945	709.202	0.083	0.221
-519.931	41.664	0.082	0.074
-518.916	-200.000	0.018	0.369
-517.902	-155.993	0.097	-0.006
-516.887	45.696	0.102	-0.095
-515.872	66.502	-0.158	0.162
-514.858	41.727	0.062	0.057
-513.843	800.000	-0.019	0.064
-512.829	-159.916	-0.157	-0.009
-511.814	-36.915	0.173	-0.093
-510.799	800.000	-0.069	0.254
-509.785	-118.293	0.350	0.063
-508.770	-124.427	-0.208	-0.033
-507.756	-200.000	0.027	-0.316
-506.741	-200.000	-0.038	-0.252
-505.726	6.758	-0.364	-0.272
-504.712	-46.371	0.445	-0.220
-503.697	172.598	0.102	0.147
-502.683	-73.986	-0.129	0.047
-501.668	-81.919	-0.130	-0.043
-500.653	-68.278	0.249	-0.098
-499.639	73.391	0.025	-0.027
-498.624	-72.001	-0.196	0.073
-497.610	603.269	-0.050	-0.125
-496.595	-120.399	-0.387	-0.066
-495.581	-55.741	-0.169	0.076
-494.566	-80.107	-0.195	-0.066
-493.551	121.118	0.173	0.217
-492.537	330.338	0.042	-0.081
-491.522	14.159	-0.175	0.137
-490.508	-119.799	-0.092	-0.016
-489.493	44.031	0.279	-0.257
-488.478	274.540	-0.107	0.190
-487.464	-200.000	-0.033	-0.178
-486.449	176.205	-0.175	0.255
-485.435	128.747	0.038	0.048
-484.420	-126.842	0.272	-0.040
-483.405	95.810	0.046	-0.053
-482.391	-200.000	0.015	-0.147
-481.376	-88.405	-0.021	0.006
-480.362	296.769	-0.136	-0.250
-479.347	63.019	-0.055	0.055
-478.332	-25.740	0.217	-0.129
-477.318	800.000	0.031	-0.125
-476.303	-200.000	0.008	0.079
-475.289	52.872	-0.264	-0.253
-474.274	800.000	0.137	0.454
-473.259	-130.990	-0.113	0.015
-472.245	297.747	-0.090	0.165
-471.230	70.364	-0.071	0.074
-470.216	71.866	0.160	0.167
-469.201	100.401	0.106	0.124
-468.186	431.290	0.029	0.063
-467.172	252.992	-0.214	0.367
-466.157	-72.166	0.122	0.046
-465.143	34.520	0.267	-0.234
-464.128	-47.483	0.129	-0.063
-463.113	217.593	0.128	0.205
-462.099	-86.373	0.196	0.061
-461.084	111.195	-0.145	0.175
-460.070	85.970	-0.087	0.096
-459.055	-157.248	0.367	0.022
-458.040	150.347	-0.208	-0.283
-457.026	469.236	0.054	0.122
-456.011	-66.485	0.032	0.013
-454.997	400.807	-0.151	-0.318
-453.982	800.000	-0.013	-0.038
-452.968	12.965	-0.142	-0.110
-451.953	-128.977	-0.246	0.035
-450.938	800.000	-0.052	-0.150
-449.924	279.776	0.094	-0.169
-448.909	-200.000	-0.046	0.354
-447.895	-25.976	0.228	-0.135
-446.880	503.094	0.032	0.074
-445.865	-200.000	-0.078	-0.476
-444.851	23.911	-0.205	0.169
-443.836	-130.651	-0.246	0.033
-442.822	-200.000	0.013	-0.146
-441.807	-200.000	0.011	0.140
-440.792	-200.000	0.049	-0.316
-439.778	-200.000	0.002	0.190
-438.763	255.840	-0.169	0.291
-437.749	-122.383	-0.229	0.037
-436.734	-167.593	-0.367	-0.015
-435.719	142.176	0.052	-0.070
-434.705	-97.034	0.178	0.047
-433.690	238.702	0.230	0.383
-432.676	-113.226	0.179	-0.035
-431.661	-140.726	-0.452	-0.047
-430.646	109.181	0.288	0.345
-429.632	-200.000	0.003	0.237
-428.617	227.755	-0.033	0.054
-427.603	578.225	0.042	0.103
-426.588	45.297	0.213	-0.197
-425.573	-121.176	0.174	-0.029
-424.559	-40.876	0.177	0.092
-423.544	-57.684	-0.166	0.073
-422.530	-141.755	-0.097	-0.010
-421.515	-27.212	-0.399	0.233
-420.500	-72.888	0.179	-0.066
-419.486	0.416	-0.166	-0.119
-418.471	35.783	0.328	-0.289
-417.457	286.496	-0.169	0.306
-416.442	687.341	-0.049	0.127
-415.428	-21.304	0.225	-0.138
-414.413	722.136	0.041	-0.110
-413.398	-42.124	-0.191	0.098
-412.384	-123.751	-0.252	-0.040
-411.369	-200.000	0.003	-0.159
-410.355	-14.325	-0.233	-0.151
-409.340	-42.930	-0.079	0.040
-408.325	73.855	0.175	0.184
-407.311	126.489	0.147	0.187
-406.296	30.090	0.124	0.106
-405.282	-200.000	-0.001	0.026
-404.267	-48.032	-0.143	-0.069
-403.252	-200.000	0.044	0.452
-402.238	-200.000	-0.016	-0.101
-401.223	26.905	-0.347	0.291
-400.209	-156.637	-0.229	-0.014
-399.194	-200.000	0.031	-0.235
-398.179	299.931	-0.104	-0.192
-397.165	-93.806	0.247	-0.068
-396.150	510.195	-0.078	0.182
-395.136	-14.135	0.205	-0.133
-394.121	144.964	-0.064	-0.086
-393.106	800.000	-0.038	-0.134
-392.092	42.861	0.126	0.115
-391.077	33.011	0.138	0.119
-390.063	-66.079	-0.179	0.071
-389.048	-44.483	0.141	0.070
-388.033	86.207	0.091	-0.100
-387.019	-124.292	0.148	0.023
-386.004	-42.174	0.182	0.093
-384.990	84.417	0.170	-0.186
-383.975	800.000	-0.034	-0.144
-382.960	-200.000	0.006	0.218
-381.946	248.802	-0.082	-0.139
-380.931	-200.000	0.016	-0.339
-379.917	120.255	0.163	-0.202
-378.902	402.964	-0.100	-0.209
-377.888	-165.165	0.073	-0.003
-376.873	-27.547	-0.093	-0.054
-375.858	-88.740	-0.259	0.077
-374.844	-48.219	0.222	0.107
-373.829	185.800	0.074	0.111
-372.815	13.370	-0.206	0.160
-371.800	60.079	0.088	0.087
-370.785	-200.000	0.016	0.134
-369.771	484.934	0.113	0.257
-368.756	-30.502	0.203	-0.115
-367.742	569.081	0.030	-0.074
-366.727	-179.314	-0.399	0.009
-365.712	-200.000	0.049	0.298
-364.698	-110.766	0.208	0.043
-363.683	253.837	0.071	-0.122
-362.669	102.994	0.063	0.074
-361.654	-19.564	-0.113	-0.070
-360.639	58.263	0.078	-0.077
-359.625	90.105	0.137	0.153
-358.610	105.072	0.032	0.038
-357.596	675.792	-0.026	-0.068
-356.581	149.638	0.120	0.163
-355.566	31.510	-0.194	0.166
-354.552	800.000	-0.034	-0.105
-353.537	-106.346	0.348	0.078
-352.523	25.328	0.118	-0.098
-351.508	126.712	-0.223	-0.283
-350.493	152.132	0.219	-0.299
-349.479	-158.850	-0.204	0.012
-348.464	689.479	0.089	-0.232
-347.450	132.786	-0.043	-0.055
-346.435	-18.300	-0.213	0.133
-345.420	-20.398	-0.024	-0.015
-344.406	-200.000	0.014	0.244
-343.391	-84.822	-0.129	0.041
-342.377	-137.848	-0.103	-0.011
-341.362	359.708	0.107	-0.214
-340.348	385.807	0.040	-0.083
-339.333	-200.000	-0.026	-0.183
-338.318	-61.083	0.276	-0.116
-337.304	59.675	-0.218	-0.215
-336.289	691.478	0.070	-0.182
-335.275	70.972	-0.179	0.186
-334.260	-21.589	0.137	-0.083
-333.245	-159.599	0.340	-0.019
-332.231	800.000	0.100	0.304
-331.216	183.866	-0.160	0.237
-330.202	800.000	-0.050	0.170
-329.187	-126.843	0.384	-0.056
-328.172	-63.937	-0.251	0.102
-327.158	800.000	-0.050	0.164
-326.143	-48.197	0.246	-0.119
-325.129	-126.164	0.236	-0.035
-324.114	116.716	0.225	0.275
-323.099	83.521	-0.012	0.013
-322.085	53.399	-0.106	-0.102
-321.070	126.162	-0.080	-0.101
-320.056	800.000	-0.051	-0.209
-319.041	-200.000	-0.028	-0.137
-318.026	800.000	0.100	-0.389
-317.012	-137.245	0.348	0.039
-315.997	-0.031	-0.240	0.171
-314.983	133.492	0.205	0.265
-313.968	440.139	-0.076	0.165
-312.953	-45.340	-0.254	-0.126
-311.939	-132.792	-0.113	-0.014
-310.924	-200.000	0.168	-0.001
-309.910	-102.272	-0.066	-0.016
-308.895	751.034	0.043	0.117
-307.880	-200.000	-0.084	-0.410
-306.866	55.306	-0.186	0.179
-305.851	-200.000	0.061	0.309
-304.837	-200.000	-0.034	-0.422
-303.822	276.330	0.122	-0.217
-302.807	296.062	0.101	0.185
-301.793	-200.000	-0.065	0.337
-300.778	157.009	-0.119	-0.164
-299.764	129.275	-0.193	0.246
-298.749	172.992	-0.238	0.341
-297.735	-200.000	-0.027	0.199
-296.720	-7.759	-0.209	0.140
-295.705	175.867	0.132	0.191
-294.691	179.598	-0.190	0.278
-293.676	-200.000	-0.074	0.384
-292.662	-148.805	-0.148	-0.012
-291.647	33.799	-0.190	0.165
-290.632	-163.788	0.410	0.019
-289.618	486.934	-0.081	0.185
-288.603	-35.276	-0.189	0.103
-287.589	-200.000	0.007	-0.230
-286.574	-200.000	0.041	0.241
-285.559	52.089	-0.165	-0.157
-284.545	281.407	-0.011	0.020
-283.530	-118.377	0.056	-0.010
-282.516	163.129	0.155	-0.217
-281.501	-141.299	0.312	-0.032
-280.486	-200.000	0.036	-0.252
-279.472	-200.000	0.029	0.210
-278.457	-167.513	0.279	-0.011
-277.443	-106.122	-0.300	0.067
-276.428	-63.250	-0.352	0.145
-275.413	-116.417	-0.064	-0.012
-274.399	153.232	-0.059	-0.081
-273.384	800.000	-0.065	0.233
-272.370	697.912	0.061	0.160
-271.355	1.382	0.110	0.079
-270.340	800.000	-0.093	-0.270
-269.326	-91.810	0.142	-0.040
-268.311	90.747	-0.061	0.069
-267.297	469.330	-0.081	-0.182
-266.282	-165.380	-0.220	-0.010
-265.267	156.945	0.152	-0.209
-264.253	257.061	0.076	-0.130
-263.238	-106.255	0.361	0.081
-262.224	-200.000	0.024	-0.131
-261.209	174.263	0.044	0.064
-260.195	800.000	-0.026	0.080
-259.180	-200.000	-0.019	0.224
-258.165	2.531	-0.225	0.162
-257.151	-200.000	-0.003	-0.152
-256.136	-66.057	0.254	0.101
-255.122	117.194	-0.064	0.078
-254.107	-88.389	0.146	0.043
-253.092	800.000	-0.115	-0.459
-252.078	508.797	0.167	0.387
-251.063	-21.459	0.206	-0.125
-250.049	-194.788	0.157	0.001
-249.034	-17.895	0.134	-0.083
-248.019	-70.609	0.180	-0.068
-247.005	431.752	0.088	-0.191
-245.990	630.243	0.127	0.319
-244.976	453.331	0.164	0.361
-243.961	800.000	-0.040	0.146
-242.946	190.945	0.115	-0.172
-241.932	214.585	0.105	-0.166
-240.917	-57.311	0.235	-0.103
-239.903	-179.545	0.237	-0.005
-238.888	-150.769	-0.288	0.022
-237.873	-55.323	-0.075	-0.033
-236.859	-145.318	-0.128	-0.011
-235.844	641.471	0.150	0.380
-234.830	-30.644	-0.188	-0.106
-233.815	-39.039	0.214	-0.112
-232.800	-73.214	0.273	0.099
-231.786	-58.100	0.109	0.047
-230.771	-157.209	0.296	0.018
-229.757	-15.701	-0.229	0.146
-228.742	800.000	-0.089	-0.298
-227.727	-200.000	0.030	0.338
-226.713	800.000	-0.093	-0.298
-225.698	-131.240	-0.105	0.014
-224.684	-26.984	0.208	0.121
-223.669	-41.659	0.092	0.047
-222.655	-124.887	0.404	-0.062
-221.640	145.446	0.124	-0.165
-220.625	800.000	0.020	-0.085
-219.611	-63.457	0.234	-0.096
-218.596	53.671	-0.354	-0.338
-217.582	-97.093	-0.122	-0.032
-216.567	192.514	0.159	0.239
-215.552	21.530	-0.231	-0.187
-214.538	-86.249	0.204	-0.062
-213.523	134.990	0.219	0.283
-212.509	490.650	0.032	-0.072
-211.494	54.652	0.251	-0.240
-210.479	-200.000	0.049	0.260
-209.465	-200.000	0.060	0.283
-208.450	-122.009	-0.066	-0.011
-207.436	800.000	-0.094	0.293
-206.421	-85.864	0.507	-0.156
-205.406	26.077	-0.378	-0.314
-204.392	715.859	0.133	-0.351
-203.377	549.946	-0.123	-0.293
-202.363	87.491	-0.058	-0.064
-201.348	800.000	-0.038	-0.129
-200.333	108.102	-0.150	-0.178
-199.319	679.611	-0.067	0.174
-198.304	800.000	-0.206	-0.683
-197.290	-109.726	0.030	-0.006
-196.275	-42.014	0.189	-0.096
-195.260	-68.748	0.233	0.089
-194.246	-58.722	-0.245	-0.105
-193.231	47.902	0.213	0.198
-192.217	-116.089	0.224	-0.041
-191.202	-72.664	-0.224	-0.082
-190.187	-200.000	-0.004	0.066
-189.173	-199.156	0.356	-0.002
-188.158	-80.966	0.104	0.034
-187.144	-200.000	-0.050	-0.268
-186.129	-44.075	0.375	0.187
-185.114	-61.773	0.195	-0.081
-184.100	-200.000	0.046	0.289
-183.085	-127.937	-0.387	0.055
-182.071	33.278	0.202	0.174
-181.056	-59.213	0.108	0.046
-180.042	-79.427	-0.142	-0.048
-179.027	-110.230	0.224	-0.046
-178.012	-41.399	-0.326	0.167
-176.998	-54.059	-0.027	-0.012
-175.983	35.439	-0.063	0.055
-174.969	407.579	-0.049	0.102
-173.954	800.000	-0.086	-0.333
-172.939	331.083	-0.295	0.564
-171.925	800.000	-0.045	-0.178
-170.910	65.706	0.035	0.035
-169.896	262.844	-0.129	0.223
-168.881	-109.596	0.424	0.089
-167.866	82.279	0.219	-0.235
-166.852	-200.000	-0.004	0.042
-165.837	-200.000	0.032	-0.193
-164.823	-59.786	-0.184	0.078
-163.808	128.350	0.189	0.239
-162.793	-200.000	-0.035	-0.200
-161.779	-119.021	0.327	0.057
-160.764	-61.900	-0.138	-0.057
-159.750	800.000	0.049	-0.148
-158.735	-107.516	0.417	0.091
-157.720	363.290	0.065	0.129
-156.706	764.285	0.058	-0.157
-155.691	-27.308	-0.117	-0.068
-154.677	119.387	-0.179	-0.220
-153.662	800.000	0.093	-0.273
-152.647	146.036	0.101	-0.134
-151.633	-200.000	0.008	0.411
-150.618	800.000	-0.031	-0.135
-149.604	278.355	-0.150	-0.265
-148.589	-83.401	-0.526	-0.167
-147.574	-31.010	-0.063	-0.035
-146.560	230.236	-0.017	-0.028
-145.545	-169.708	0.266	-0.010
-144.531	197.283	0.357	0.540
-143.516	-90.547	0.213	0.061
-142.502	800.000	-0.106	-0.432
-141.487	23.145	0.141	-0.115
-140.472	144.876	0.025	0.033
-139.458	-125.095	-0.095	-0.014
-138.443	-120.943	0.378	0.063
-137.429	355.453	-0.170	-0.335
-136.414	-105.962	-0.064	-0.014
-135.399	-14.517	0.257	0.164
-134.385	-200.000	0.013	-0.282
-133.370	-200.000	0.000	-0.161
-132.356	-107.972	0.216	-0.046
-131.341	-68.909	0.144	-0.055
-130.326	800.000	-0.098	-0.306
-129.312	212.094	-0.052	0.081
-128.297	-200.000	0.001	0.204
-127.283	146.708	-0.149	0.199
-126.268	365.029	0.075	0.149
-125.253	800.000	-0.038	-0.135
-124.239	-38.010	0.047	-0.025
-123.224	11.473	-0.334	-0.254
-122.210	322.602	-0.062	-0.117
-121.195	-152.300	0.109	-0.008
