DTS Sentinel unit serial number:	SN413079Multiplexer serial number:	ORYXHardware model number:	OX4-SRSoftware version number:	ORYX F/W v4.00 Oryx Data Collector v3.7.2.0data status	okinstallation	princeton_trtdifferential loss correction	single-endedforward channel	channel 4reverse channel	N/Adate	2019/09/17time	12:33:35forward acquisition time	60.00reverse acquisition time	0.00gamma	496.2192k internal	0.2303k external	0.2303temperature offset calibration	0.9988default loss term (dB/km)	0.3790temperature slope calibration	1.0000multiplexer offset coefficient	1.0000multiplexer slope coefficient	1.0000fibre end	0.00T internal ref (°C)	32.06T ext. ref 1 (°C)	0.42T ext. ref 2 (°C)	29.45length (m)	temperature (°C)	Stokes	anti-Stokes-747.200	29.898	0.051	-0.045
-746.185	-200.000	-0.418	0.000
-745.171	-168.939	0.244	0.009
-744.156	209.077	-0.101	0.161
-743.142	-68.399	-0.166	0.066
-742.127	10.172	0.251	-0.194
-741.112	484.810	0.074	0.172
-740.098	-200.000	-0.044	0.268
-739.083	-179.214	-0.047	-0.001
-738.069	104.822	0.116	0.139
-737.054	244.729	-0.026	0.044
-736.039	418.542	-0.100	-0.218
-735.025	-15.827	-0.085	0.055
-734.010	187.550	-0.074	0.113
-732.996	-124.913	0.177	0.028
-731.981	332.496	0.044	0.086
-730.966	-200.000	0.071	-0.362
-729.952	98.980	-0.249	-0.292
-728.937	-95.512	-0.491	0.134
-727.923	601.921	-0.115	0.291
-726.908	-14.136	-0.178	-0.117
-725.894	800.000	-0.063	-0.214
-724.879	800.000	-0.062	-0.248
-723.864	205.546	0.164	-0.259
-722.850	-200.000	-0.049	0.250
-721.835	242.311	0.204	-0.347
-720.821	-34.067	0.145	-0.081
-719.806	-35.432	-0.223	0.124
-718.791	-20.465	-0.118	0.074
-717.777	499.936	-0.045	-0.106
-716.762	23.403	-0.221	0.185
-715.748	-127.789	-0.318	0.047
-714.733	135.447	-0.144	-0.191
-713.718	-68.049	-0.247	0.098
-712.704	-65.621	0.228	0.093
-711.689	50.604	-0.212	0.204
-710.675	-19.379	-0.098	0.062
-709.660	-129.644	-0.300	-0.042
-708.645	-200.000	-0.041	0.240
-707.631	2.530	-0.005	-0.004
-706.616	23.241	0.179	0.150
-705.602	-128.828	0.163	-0.023
-704.587	111.742	-0.071	-0.087
-703.572	72.109	-0.110	-0.116
-702.558	32.149	0.259	-0.227
-701.543	-106.138	-0.141	0.032
-700.529	-200.000	-0.023	0.169
-699.514	265.719	0.132	0.234
-698.499	-200.000	0.001	0.337
-697.485	304.951	0.185	0.349
-696.470	-115.335	-0.645	0.124
-695.456	-142.752	-0.238	0.024
-694.441	357.870	-0.211	0.428
-693.426	-200.000	0.061	-0.298
-692.412	10.381	0.377	-0.292
-691.397	-95.917	0.274	-0.074
-690.383	12.416	-0.269	0.211
-689.368	54.730	-0.270	0.265
-688.354	23.713	-0.255	0.214
-687.339	266.367	-0.102	-0.181
-686.324	-76.580	-0.060	-0.021
-685.310	411.544	0.102	-0.220
-684.295	44.535	0.259	-0.242
-683.281	-200.000	0.007	-0.256
-682.266	242.007	-0.136	-0.232
-681.251	-129.307	-0.147	0.021
-680.237	171.321	0.109	-0.159
-679.222	-200.000	0.075	-0.470
-678.208	3.312	0.100	0.074
-677.193	21.329	-0.190	0.157
-676.178	-122.350	-0.251	-0.042
-675.164	16.772	-0.186	0.150
-674.149	-122.442	-0.197	0.033
-673.135	-200.000	-0.034	0.305
-672.120	800.000	0.082	0.288
-671.105	-70.300	-0.127	0.049
-670.091	800.000	0.004	-0.013
-669.076	-25.051	-0.256	-0.154
-668.062	-200.000	-0.000	-0.067
-667.047	142.819	0.183	-0.247
-666.032	-200.000	-0.006	0.265
-665.018	-168.972	0.199	0.008
-664.003	757.408	-0.059	0.162
-662.989	102.259	-0.161	0.191
-661.974	-34.505	0.051	0.029
-660.959	-200.000	0.002	0.164
-659.945	-200.000	-0.040	-0.234
-658.930	183.620	-0.091	-0.137
-657.916	-200.000	0.009	-0.097
-656.901	-22.246	-0.090	-0.055
-655.886	-193.381	-0.132	0.001
-654.872	-200.000	-0.028	0.221
-653.857	-155.788	0.217	0.014
-652.843	-200.000	-0.015	0.158
-651.828	-111.698	0.062	-0.013
-650.814	800.000	-0.111	-0.350
-649.799	141.303	-0.119	-0.160
-648.784	-58.586	-0.122	-0.054
-647.770	800.000	0.021	0.088
-646.755	-172.993	-0.137	-0.004
-645.741	-131.962	-0.149	-0.020
-644.726	-28.974	0.190	0.111
-643.711	-124.610	-0.191	-0.030
-642.697	-142.835	-0.080	0.008
-641.682	16.437	-0.091	-0.073
-640.668	-200.000	-0.006	-0.029
-639.653	-144.492	-0.286	-0.027
-638.638	199.758	0.060	0.093
-637.624	16.709	0.098	-0.079
-636.609	-119.135	-0.187	-0.033
-635.595	486.371	-0.065	0.150
-634.580	-30.879	-0.210	0.121
-633.565	-166.456	0.366	0.016
-632.551	260.968	-0.082	-0.145
-631.536	238.279	0.130	-0.218
-630.522	-148.698	0.315	0.026
-629.507	-117.843	-0.127	0.023
-628.492	-32.324	-0.384	0.217
-627.478	604.795	0.086	-0.217
-626.463	158.159	-0.045	-0.063
-625.449	17.826	-0.058	0.047
-624.434	0.642	-0.223	0.162
-623.419	-1.282	-0.350	0.250
-622.405	531.950	0.138	0.331
-621.390	153.067	-0.047	-0.065
-620.376	206.062	0.051	-0.080
-619.361	-65.424	0.273	0.111
-618.346	-2.676	-0.126	0.089
-617.332	800.000	-0.129	0.362
-616.317	-5.831	-0.125	0.087
-615.303	-178.756	0.168	-0.004
-614.288	800.000	-0.057	-0.165
-613.273	800.000	-0.166	-0.475
-612.259	-49.425	-0.254	0.123
-611.244	109.459	0.124	0.151
-610.230	-124.005	0.240	-0.038
-609.215	-200.000	0.020	-0.300
-608.201	288.289	0.198	0.363
-607.186	-41.633	0.331	0.172
-606.171	-200.000	-0.025	-0.291
-605.157	-74.398	0.327	-0.120
-604.142	130.001	0.093	0.121
-603.128	-74.574	0.173	0.063
-602.113	23.951	-0.068	0.057
-601.098	800.000	-0.066	0.234
-600.084	45.120	-0.082	-0.076
-599.069	7.266	0.297	0.225
-598.055	-200.000	-0.116	0.586
-597.040	-87.326	-0.236	0.073
-596.025	-131.547	-0.167	0.022
-595.011	294.912	-0.066	-0.122
-593.996	-93.159	-0.189	0.053
-592.982	36.949	0.157	-0.141
-591.967	-22.831	0.184	-0.113
-590.952	180.249	0.062	0.092
-589.938	-200.000	-0.029	-0.277
-588.923	140.272	-0.109	0.145
-587.909	-200.000	0.016	-0.328
-586.894	800.000	0.105	0.315
-585.879	62.768	0.077	0.078
-584.865	-32.151	-0.123	-0.069
-583.850	16.361	0.387	0.309
-582.836	25.800	0.151	0.127
-581.821	137.859	0.068	-0.091
-580.806	-78.458	-0.255	-0.089
-579.792	-9.321	-0.172	-0.116
-578.777	-105.363	-0.292	-0.067
-577.763	-112.461	0.238	-0.048
-576.748	82.022	0.103	-0.113
-575.733	338.418	0.063	0.125
-574.719	-166.931	0.455	-0.019
-573.704	286.387	-0.101	-0.184
-572.690	800.000	0.023	0.065
-571.675	178.043	-0.237	0.349
-570.661	-176.114	-0.129	-0.003
-569.646	-26.563	-0.065	0.039
-568.631	39.517	-0.110	-0.100
-567.617	-200.000	-0.019	0.383
-566.602	103.653	-0.027	0.032
-565.588	-103.711	0.125	-0.030
-564.573	-43.322	0.185	0.095
-563.558	155.917	-0.045	-0.063
-562.544	-200.000	-0.003	0.264
-561.529	-200.000	0.030	0.301
-560.515	-200.000	-0.003	0.017
-559.500	92.584	-0.237	0.271
-558.485	-94.883	-0.177	0.048
-557.471	-73.210	0.167	-0.062
-556.456	-165.214	-0.220	-0.010
-555.442	-38.050	-0.124	-0.066
-554.427	147.030	0.059	0.080
-553.412	-102.925	0.468	-0.112
-552.398	-200.000	-0.032	0.189
-551.383	-100.824	0.101	0.025
-550.369	-200.000	0.048	-0.238
-549.354	-59.920	-0.065	-0.028
-548.339	-42.056	0.054	-0.028
-547.325	374.361	0.081	-0.168
-546.310	682.852	0.085	0.223
-545.296	-25.839	0.061	0.036
-544.281	687.123	-0.013	-0.035
-543.266	212.488	0.087	0.139
-542.252	746.529	0.047	-0.128
-541.237	-200.000	-0.040	-0.291
-540.223	368.537	-0.176	-0.360
-539.208	99.666	-0.179	-0.210
-538.193	-133.348	0.141	0.018
-537.179	37.928	0.173	0.155
-536.164	800.000	0.074	-0.228
-535.150	800.000	0.092	-0.329
-534.135	-90.889	0.229	-0.066
-533.121	77.310	-0.222	0.239
-532.106	-161.139	-0.116	-0.006
-531.091	-96.153	-0.350	0.094
-530.077	261.562	-0.088	0.154
-529.062	730.939	-0.059	0.160
-528.048	800.000	-0.052	-0.195
-527.033	800.000	-0.119	-0.348
-526.018	800.000	-0.058	-0.188
-525.004	37.289	0.088	-0.079
-523.989	-35.942	0.016	0.009
-522.975	-200.000	-0.011	0.214
-521.960	-200.000	-0.027	0.174
-520.945	559.132	0.010	0.024
-519.931	-177.447	-0.035	0.001
-518.916	-110.547	-0.011	-0.002
-517.902	-200.000	0.041	0.266
-516.887	800.000	0.061	0.252
-515.872	-37.941	0.174	-0.093
-514.858	115.919	0.073	-0.091
-513.843	-97.835	-0.246	-0.064
-512.829	-64.163	-0.079	0.033
-511.814	800.000	0.115	-0.450
-510.799	-200.000	-0.018	0.208
-509.785	13.022	-0.302	0.236
-508.770	-200.000	-0.012	0.382
-507.756	-102.677	-0.183	0.044
-506.741	81.339	-0.096	-0.104
-505.726	-60.785	-0.210	-0.090
-504.712	74.942	-0.107	-0.114
-503.697	14.118	-0.050	0.039
-502.683	101.033	0.168	0.197
-501.668	256.074	-0.093	-0.161
-500.653	24.134	0.348	-0.290
-499.639	90.073	0.079	-0.090
-498.624	-200.000	-0.014	-0.072
-497.610	118.265	0.078	0.098
-496.595	33.489	-0.067	0.058
-495.581	-131.213	0.256	0.034
-494.566	-200.000	-0.013	-0.202
-493.551	150.385	0.115	-0.158
-492.537	-46.494	-0.154	0.076
-491.522	316.482	0.029	-0.054
-490.508	5.649	-0.254	-0.190
-489.493	-152.241	0.254	0.019
-488.478	-95.135	-0.045	0.012
-487.464	111.229	-0.149	-0.181
-486.449	171.763	0.058	0.084
-485.435	363.262	0.209	-0.424
-484.420	-200.000	-0.022	0.167
-483.405	685.078	-0.057	0.150
-482.391	306.600	-0.034	-0.064
-481.376	800.000	0.108	-0.352
-480.362	106.207	0.091	0.109
-479.347	130.335	-0.119	-0.153
-478.332	800.000	0.012	0.052
-477.318	-10.316	0.149	-0.100
-476.303	-200.000	0.007	-0.130
-475.289	1.433	0.342	0.248
-474.274	278.565	-0.141	-0.253
-473.259	343.807	0.127	0.250
-472.245	-34.731	0.332	0.183
-471.230	-184.430	-0.182	-0.003
-470.216	114.252	-0.141	-0.173
-469.201	-138.756	0.226	0.025
-468.186	143.048	-0.243	-0.325
-467.172	800.000	-0.026	0.113
-466.157	-103.239	0.208	0.050
-465.143	-200.000	0.002	-0.110
-464.128	-7.897	-0.250	-0.170
-463.113	588.845	0.097	0.241
-462.099	800.000	-0.023	-0.071
-461.084	-3.226	0.306	-0.215
-460.070	44.913	-0.308	-0.285
-459.055	-74.763	-0.186	0.067
-458.040	-200.000	-0.009	0.218
-457.026	-92.018	0.087	0.025
-456.011	-163.494	0.177	-0.008
-454.997	-136.476	0.444	0.052
-453.982	-63.216	-0.025	-0.010
-452.968	66.367	0.009	-0.009
-451.953	800.000	0.031	-0.101
-450.938	92.427	0.141	-0.160
-449.924	309.081	0.114	-0.214
-448.909	228.195	-0.101	0.165
-447.895	-78.837	0.567	-0.195
-446.880	-151.574	0.022	0.002
-445.865	175.596	-0.114	0.166
-444.851	132.165	0.121	0.157
-443.836	22.950	-0.155	-0.128
-442.822	-78.060	-0.250	0.087
-441.807	-200.000	-0.035	-0.253
-440.792	217.180	0.068	0.109
-439.778	328.158	0.026	-0.051
-438.763	-16.068	0.133	0.085
-437.749	800.000	0.086	-0.348
-436.734	33.441	-0.090	-0.078
-435.719	-22.506	-0.232	-0.141
-434.705	-29.562	0.130	-0.075
-433.690	-139.830	0.165	-0.018
-432.676	-200.000	-0.024	0.206
-431.661	118.018	0.253	0.314
-430.646	-50.919	0.015	-0.007
-429.632	800.000	-0.044	0.159
-428.617	13.935	-0.284	0.222
-427.603	-200.000	0.006	0.059
-426.588	-200.000	0.025	0.208
-425.573	-99.244	-0.093	-0.024
-424.559	644.293	0.094	-0.242
-423.544	73.877	0.129	0.136
-422.530	400.278	-0.065	0.138
-421.515	-200.000	-0.041	0.225
-420.500	60.665	0.117	-0.117
-419.486	-26.622	-0.067	0.040
-418.471	84.212	-0.084	-0.092
-417.457	-147.201	-0.078	-0.007
-416.442	-200.000	0.041	-0.214
-415.428	57.081	-0.256	-0.251
-414.413	-73.503	0.254	-0.093
-413.398	-172.916	0.552	0.017
-412.384	-110.988	0.081	-0.017
-411.369	44.462	-0.263	0.243
-410.355	-34.988	0.113	0.062
-409.340	-187.295	-0.197	0.003
-408.325	-200.000	0.029	0.396
-407.311	249.693	-0.039	0.067
-406.296	18.274	-0.267	0.214
-405.282	-13.924	0.301	0.196
-404.267	27.746	-0.031	0.027
-403.252	-109.172	0.093	0.020
-402.238	-168.058	-0.132	0.005
-401.223	-48.027	-0.082	-0.040
-400.209	-200.000	-0.011	0.191
-399.194	-200.000	0.015	0.245
-398.179	146.247	0.107	-0.145
-397.165	-200.000	-0.043	-0.263
-396.150	-200.000	0.038	0.358
-395.136	0.905	0.212	0.153
-394.121	-184.991	0.177	0.003
-393.106	196.581	0.114	-0.175
-392.092	123.871	0.022	-0.028
-391.077	-34.987	-0.112	0.061
-390.063	-141.937	-0.167	-0.017
-389.048	437.394	0.080	-0.175
-388.033	-105.090	0.081	0.019
-387.019	34.398	-0.125	0.109
-386.004	800.000	-0.041	0.167
-384.990	800.000	0.038	-0.122
-383.975	170.596	0.143	-0.206
-382.960	10.397	-0.344	-0.263
-381.946	244.259	0.156	0.264
-380.931	264.230	-0.039	0.069
-379.917	1.646	-0.114	0.082
-378.902	562.424	0.083	0.201
-377.888	83.167	-0.130	0.142
-376.873	227.892	0.231	-0.377
-375.858	118.242	0.057	0.071
-374.844	-130.548	0.309	0.042
-373.829	158.271	0.119	-0.165
-372.815	-123.507	-0.056	-0.009
-371.800	71.140	0.045	-0.047
-370.785	-133.925	0.079	-0.010
-369.771	488.569	0.057	0.131
-368.756	193.931	0.061	0.093
-367.742	193.372	-0.047	-0.071
-366.727	-200.000	0.016	-0.313
-365.712	35.392	0.022	0.020
-364.698	-200.000	-0.004	-0.167
-363.683	632.429	0.059	-0.150
-362.669	128.878	-0.121	-0.155
-361.654	-153.640	-0.180	0.012
-360.639	-48.258	-0.282	-0.136
-359.625	-101.953	0.112	0.027
-358.610	11.130	-0.244	0.187
-357.596	-200.000	-0.015	-0.307
-356.581	-91.306	-0.194	0.056
-355.566	800.000	0.038	-0.112
-354.552	800.000	0.045	0.138
-353.537	-69.986	-0.142	0.054
-352.523	-92.132	-0.116	-0.033
-351.508	-142.385	-0.189	0.019
-350.493	284.612	0.107	0.194
-349.479	-108.942	-0.037	-0.008
-348.464	455.068	0.106	-0.236
-347.450	-105.922	-0.404	0.091
-346.435	-13.863	-0.274	0.178
-345.420	-129.336	0.315	0.044
-344.406	-200.000	0.043	-0.321
-343.391	-5.962	0.105	-0.072
-342.377	-39.261	0.069	0.036
-341.362	-200.000	0.013	0.116
-340.348	-200.000	-0.057	0.388
-339.333	-113.311	-0.120	0.024
-338.318	148.233	0.197	-0.267
-337.304	-69.974	0.069	-0.026
-336.289	1.080	0.184	0.132
-335.275	356.216	-0.104	-0.209
-334.260	800.000	-0.086	0.291
-333.245	-63.097	-0.171	-0.071
-332.231	381.188	-0.059	-0.122
-331.216	-200.000	-0.007	-0.088
-330.202	147.691	0.060	-0.081
-329.187	-200.000	-0.009	-0.101
-328.172	-200.000	0.024	-0.124
-327.158	776.770	0.048	-0.131
-326.143	800.000	0.090	-0.263
-325.129	-200.000	0.003	0.166
-324.114	-200.000	0.013	-0.113
-323.099	16.364	-0.387	-0.306
-322.085	-161.512	-0.066	-0.003
-321.070	-12.368	0.232	0.152
-320.056	-200.000	0.005	-0.435
-319.041	-159.003	-0.177	0.010
-318.026	-75.303	0.159	-0.057
-317.012	78.907	-0.112	0.120
-315.997	-200.000	-0.009	0.404
-314.983	367.326	-0.121	0.244
-313.968	-200.000	-0.007	0.080
-312.953	-200.000	0.033	-0.407
-311.939	573.745	0.188	0.458
-310.924	166.650	0.214	0.303
-309.910	-63.668	0.145	0.059
-308.895	-106.985	0.314	-0.069
-307.880	-200.000	0.023	-0.403
-306.866	-200.000	-0.030	-0.162
-305.851	149.165	-0.261	-0.353
-304.837	-200.000	-0.020	-0.096
-303.822	-61.344	-0.281	-0.118
-302.807	-200.000	0.004	-0.256
-301.793	-200.000	0.015	-0.113
-300.778	-96.762	-0.043	-0.011
-299.764	35.611	0.116	0.102
-298.749	114.828	-0.109	-0.133
-297.735	-200.000	-0.031	0.213
-296.720	-109.828	-0.238	-0.050
-295.705	-79.722	-0.259	-0.088
-294.691	273.538	0.077	-0.137
-293.676	-200.000	0.021	0.127
-292.662	800.000	-0.107	0.352
-291.647	184.512	-0.042	-0.062
-290.632	-56.108	-0.202	-0.090
-289.618	-177.462	-0.357	0.009
-288.603	82.352	0.130	-0.142
-287.589	-65.633	-0.066	-0.026
-286.574	464.164	0.042	-0.093
-285.559	-128.975	0.294	0.041
-284.545	-123.022	0.148	-0.024
-283.530	-136.316	-0.393	-0.046
-282.516	-36.321	-0.227	0.122
-281.501	335.010	0.067	-0.131
-280.486	-200.000	0.011	0.220
-279.472	-5.726	-0.203	-0.139
-278.457	-66.162	0.171	-0.068
-277.443	800.000	-0.066	0.209
-276.428	-69.513	0.182	0.070
-275.413	130.850	0.095	-0.121
-274.399	-200.000	-0.098	0.504
-273.384	-143.785	-0.085	-0.008
-272.370	-187.367	0.075	0.001
-271.355	-59.244	-0.501	0.216
-270.340	179.015	0.074	0.108
-269.326	800.000	0.018	0.063
-268.311	-200.000	-0.006	-0.058
-267.297	66.394	0.181	-0.184
-266.282	-200.000	0.010	-0.427
-265.267	398.590	0.102	-0.214
-264.253	-13.575	0.163	-0.106
-263.238	-85.157	0.220	-0.069
-262.224	-200.000	0.008	-0.087
-261.209	-33.868	-0.185	-0.102
-260.195	110.167	-0.171	0.205
-259.180	-27.431	0.401	0.233
-258.165	-44.623	-0.279	0.140
-257.151	713.958	0.042	-0.110
-256.136	-3.075	-0.123	0.086
-255.122	-35.764	-0.065	-0.035
-254.107	442.192	-0.052	0.113
-253.092	541.299	0.204	0.486
-252.078	734.246	-0.094	0.252
-251.063	515.670	-0.043	0.100
-250.049	800.000	-0.083	-0.230
-249.034	-200.000	-0.002	-0.026
-248.019	251.226	-0.097	-0.165
-247.005	-200.000	0.019	-0.117
-245.990	800.000	-0.043	0.122
-244.976	-45.317	0.323	0.160
-243.961	-200.000	0.026	0.198
-242.946	-75.709	-0.207	0.073
-241.932	-18.822	0.122	0.076
-240.917	800.000	-0.086	0.244
-239.903	-55.631	0.157	0.070
-238.888	-60.603	0.061	-0.026
-237.873	531.676	-0.104	-0.246
-236.859	98.259	-0.033	-0.038
-235.844	384.774	0.149	0.307
-234.830	34.393	0.051	-0.045
-233.815	14.325	-0.150	0.117
-232.800	-200.000	0.029	0.304
-231.786	-200.000	-0.035	-0.193
-230.771	-200.000	-0.001	-0.232
-229.757	-132.183	-0.149	-0.019
-228.742	-130.360	0.117	0.016
-227.727	-41.379	-0.142	-0.073
-226.713	297.232	0.189	-0.347
-225.698	10.166	-0.240	0.182
-224.684	-109.314	-0.098	-0.021
-223.669	297.471	0.121	0.222
-222.655	-200.000	0.016	-0.247
-221.640	800.000	-0.032	-0.088
-220.625	-90.896	0.064	-0.018
-219.611	-87.632	0.079	0.024
-218.596	-90.373	0.216	-0.063
-217.582	-200.000	-0.039	-0.184
-216.567	648.031	0.089	-0.227
-215.552	-11.987	-0.198	-0.129
-214.538	80.205	0.145	0.155
-213.523	611.228	-0.153	0.382
-212.509	-200.000	-0.029	0.169
-211.494	62.125	0.047	-0.047
-210.479	128.865	-0.104	-0.133
-209.465	-121.270	0.208	0.035
-208.450	-24.706	0.162	-0.096
-207.436	55.356	-0.171	0.165
-206.421	800.000	-0.082	-0.248
-205.406	-176.903	0.260	-0.007
-204.392	-87.690	-0.329	0.099
-203.377	-200.000	0.052	-0.255
-202.363	800.000	0.023	0.084
-201.348	-200.000	0.034	0.155
-200.333	-200.000	0.008	-0.042
-199.319	620.428	-0.014	0.035
-198.304	287.438	0.062	0.111
-197.290	-22.851	-0.008	0.005
-196.275	-57.275	-0.260	-0.114
-195.260	-131.380	0.146	-0.019
-194.246	289.960	0.111	-0.202
-193.231	-22.504	-0.127	-0.077
-192.217	-32.422	0.283	-0.157
-191.202	732.752	-0.050	-0.133
-190.187	-200.000	-0.004	-0.083
-189.173	-22.932	-0.172	0.103
-188.158	152.873	-0.116	-0.159
-187.144	276.378	-0.115	0.203
-186.129	-65.822	-0.215	0.086
-185.114	-200.000	-0.024	-0.135
-184.100	-117.738	-0.328	-0.059
-183.085	-98.232	-0.328	-0.084
-182.071	28.476	-0.252	0.212
-181.056	-200.000	0.039	-0.287
-180.042	27.216	0.060	-0.051
-179.027	-158.983	0.074	-0.004
-178.012	420.854	0.107	0.229
-176.998	506.306	0.070	-0.162
-175.983	-200.000	-0.024	0.177
-174.969	268.968	-0.087	0.152
-173.954	-200.000	-0.006	0.123
-172.939	-119.369	0.042	-0.007
-171.925	0.599	0.232	0.165
-170.910	-200.000	0.023	-0.115
-169.896	-185.318	0.173	-0.003
-168.881	594.407	-0.018	-0.045
-167.866	-200.000	-0.008	0.245
-166.852	215.557	-0.109	-0.172
-165.837	-98.660	0.321	-0.082
-164.823	331.050	0.094	-0.181
-163.808	-200.000	-0.031	0.272
-162.793	-63.577	-0.045	-0.018
-161.779	-47.300	0.315	-0.153
-160.764	-200.000	0.005	0.316
-159.750	800.000	0.023	-0.077
-158.735	163.808	-0.139	-0.195
-157.720	-69.570	0.238	-0.091
-156.706	220.954	0.096	-0.154
-155.691	-9.876	0.208	-0.138
-154.677	-14.048	0.154	-0.099
-153.662	-2.380	0.248	0.173
-152.647	800.000	-0.042	0.122
-151.633	265.198	-0.218	0.378
-150.618	-39.866	0.156	-0.081
-149.604	0.611	-0.143	-0.102
-148.589	-200.000	-0.006	-0.307
-147.574	195.151	0.103	0.156
-146.560	-37.438	0.044	-0.023
-145.545	-105.138	-0.312	0.071
-144.531	134.396	0.090	0.116
-143.516	33.000	-0.309	-0.267
-142.502	91.365	0.021	-0.023
-141.487	800.000	0.083	-0.265
-140.472	235.279	-0.135	0.222
-139.458	-200.000	0.004	0.174
-138.443	-200.000	-0.006	-0.055
-137.429	96.499	-0.210	0.240
-136.414	-200.000	-0.025	-0.117
-135.399	371.312	-0.123	-0.248
-134.385	-200.000	-0.007	-0.043
-133.370	26.821	0.117	-0.098
-132.356	-200.000	0.045	0.298
-131.341	-200.000	0.062	0.518
-130.326	800.000	-0.059	-0.198
-129.312	-200.000	0.054	-0.356
-128.297	-19.022	0.132	0.081
-127.283	-69.637	-0.030	0.011
-126.268	-74.317	-0.343	-0.123
-125.253	-200.000	0.019	0.147
-124.239	-41.392	-0.195	0.100
-123.224	134.479	0.100	0.129
