DTS Sentinel unit serial number:	SN413079Multiplexer serial number:	ORYXHardware model number:	OX4-SRSoftware version number:	ORYX F/W v4.00 Oryx Data Collector v3.7.2.0data status	okinstallation	princeton_trtdifferential loss correction	single-endedforward channel	channel 4reverse channel	N/Adate	2019/09/14time	03:49:35forward acquisition time	60.00reverse acquisition time	0.00gamma	496.2192k internal	0.2322k external	0.2322temperature offset calibration	1.0135default loss term (dB/km)	0.3790temperature slope calibration	1.0000multiplexer offset coefficient	1.0000multiplexer slope coefficient	1.0000fibre end	0.00T internal ref (°C)	26.66T ext. ref 1 (°C)	3.30T ext. ref 2 (°C)	21.67length (m)	temperature (°C)	Stokes	anti-Stokes-747.200	150.165	0.123	-0.169
-746.185	-178.521	-0.166	-0.004
-745.171	238.580	0.154	-0.259
-744.156	271.344	-0.234	-0.416
-743.142	-125.055	-0.327	-0.051
-742.127	-200.000	-0.016	0.248
-741.112	-52.993	0.507	-0.236
-740.098	800.000	0.047	0.157
-739.083	23.590	-0.124	0.103
-738.069	-53.334	0.207	-0.096
-737.054	-200.000	-0.385	-0.001
-736.039	-200.000	0.030	0.329
-735.025	24.103	0.231	-0.193
-734.010	800.000	-0.079	0.263
-732.996	550.356	-0.233	-0.564
-731.981	13.732	-0.113	0.089
-730.966	80.234	-0.290	-0.315
-729.952	11.972	-0.323	-0.250
-728.937	-23.349	0.136	-0.083
-727.923	-78.968	0.277	0.095
-726.908	53.915	0.175	0.170
-725.894	64.449	-0.081	-0.083
-724.879	-62.589	0.173	0.073
-723.864	-30.631	0.058	-0.033
-722.850	262.354	-0.146	0.255
-721.835	248.925	-0.023	0.040
-720.821	-200.000	0.002	0.135
-719.806	-105.781	-0.311	0.071
-718.791	800.000	0.056	-0.240
-717.777	476.805	-0.087	-0.198
-716.762	232.575	0.090	-0.149
-715.748	-114.865	-0.113	-0.022
-714.733	800.000	0.045	-0.148
-713.718	-133.704	0.233	-0.029
-712.704	-129.751	-0.416	-0.058
-711.689	-37.078	-0.206	0.111
-710.675	-26.052	-0.090	-0.054
-709.660	-109.748	0.164	-0.035
-708.645	290.054	-0.116	0.212
-707.631	-129.476	-0.267	0.037
-706.616	-39.957	0.425	0.224
-705.602	-38.488	0.280	-0.149
-704.587	69.360	0.226	0.234
-703.572	800.000	-0.027	0.078
-702.558	-64.892	-0.168	-0.068
-701.543	-200.000	0.082	-0.430
-700.529	-46.381	0.146	0.073
-699.514	-22.499	-0.175	-0.107
-698.499	-28.089	0.081	-0.047
-697.485	800.000	-0.123	-0.377
-696.470	-166.568	-0.166	-0.007
-695.456	-200.000	-0.018	-0.092
-694.441	109.784	0.079	-0.095
-693.426	-86.139	0.166	0.052
-692.412	657.091	-0.090	-0.233
-691.397	-200.000	0.057	0.272
-690.383	-77.456	0.410	0.143
-689.368	-31.258	-0.367	-0.208
-688.354	131.328	0.150	0.194
-687.339	723.832	-0.009	0.023
-686.324	-28.235	-0.240	-0.140
-685.310	666.572	-0.048	0.124
-684.295	-200.000	0.078	-0.374
-683.281	-200.000	0.039	0.280
-682.266	60.316	-0.087	0.087
-681.251	156.245	0.101	-0.140
-680.237	-200.000	-0.069	-0.403
-679.222	-200.000	0.047	-0.421
-678.208	360.379	-0.079	-0.159
-677.193	19.317	0.414	-0.335
-676.178	129.493	0.141	0.182
-675.164	0.342	-0.301	0.216
-674.149	718.621	-0.026	-0.069
-673.135	-88.014	0.180	-0.054
-672.120	-77.983	-0.344	-0.119
-671.105	-107.244	-0.365	-0.081
-670.091	-200.000	-0.021	-0.277
-669.076	-57.132	-0.098	0.043
-668.062	127.322	0.066	-0.084
-667.047	269.970	0.102	-0.181
-666.032	-200.000	-0.043	-0.198
-665.018	-2.744	-0.156	-0.110
-664.003	464.581	-0.108	-0.243
-662.989	-50.696	0.371	-0.176
-661.974	-200.000	0.017	-0.135
-660.959	-200.000	0.022	0.187
-659.945	-111.723	-0.066	0.013
-658.930	-18.468	0.255	0.161
-657.916	800.000	-0.046	0.177
-656.901	-200.000	-0.037	0.179
-655.886	4.712	-0.157	-0.116
-654.872	-10.772	-0.173	0.115
-653.857	-81.900	0.158	-0.052
-652.843	11.992	0.263	-0.204
-651.828	493.450	-0.103	-0.238
-650.814	-89.222	-0.184	-0.055
-649.799	18.753	-0.130	-0.105
-648.784	-200.000	0.027	-0.359
-647.770	800.000	0.092	-0.349
-646.755	-200.000	0.072	-0.328
-645.741	31.755	-0.132	-0.114
-644.726	800.000	0.015	0.060
-643.711	-72.854	0.324	-0.120
-642.697	72.912	-0.079	0.083
-641.682	69.469	-0.195	0.202
-640.668	317.889	-0.030	-0.057
-639.653	255.113	0.100	0.172
-638.638	534.141	0.119	-0.283
-637.624	-138.761	-0.497	-0.055
-636.609	456.246	0.058	0.130
-635.595	242.298	0.154	-0.259
-634.580	-34.889	-0.055	-0.030
-633.565	-200.000	-0.048	0.268
-632.551	-115.596	-0.387	-0.073
-631.536	307.508	0.122	-0.228
-630.522	26.819	0.161	0.136
-629.507	342.672	0.145	-0.285
-628.492	136.403	-0.074	0.097
-627.478	800.000	-0.085	-0.244
-626.463	38.994	0.276	-0.248
-625.449	-104.826	0.258	0.060
-624.434	19.933	0.300	0.243
-623.419	-57.116	-0.253	0.112
-622.405	358.308	-0.010	0.020
-621.390	505.086	-0.144	-0.335
-620.376	40.058	-0.035	-0.031
-619.361	176.659	0.162	-0.237
-618.346	-9.559	-0.251	0.168
-617.332	-153.727	0.146	0.010
-616.317	-156.996	-0.193	0.012
-615.303	295.417	0.101	-0.185
-614.288	119.711	0.245	0.305
-613.273	-1.064	0.056	-0.040
-612.259	587.808	0.060	-0.148
-611.244	800.000	-0.038	0.120
-610.230	-33.031	-0.174	0.097
-609.215	206.647	-0.077	0.120
-608.201	444.858	0.135	0.297
-607.186	55.736	-0.100	0.098
-606.171	95.113	0.081	0.092
-605.157	2.230	0.221	-0.161
-604.142	37.423	0.314	-0.280
-603.128	630.981	-0.141	-0.359
-602.113	-200.000	0.044	0.312
-601.098	50.482	0.265	0.251
-600.084	-200.000	-0.013	0.062
-599.069	484.363	-0.046	0.106
-598.055	-10.112	0.079	0.053
-597.040	726.118	-0.186	-0.499
-596.025	800.000	0.068	0.277
-595.011	87.610	0.107	0.119
-593.996	-35.722	0.284	-0.155
-592.982	-49.058	-0.297	0.143
-591.967	24.665	0.101	0.084
-590.952	800.000	-0.029	0.090
-589.938	368.489	-0.090	0.183
-588.923	-200.000	0.019	-0.217
-587.909	-200.000	-0.029	0.128
-586.894	-200.000	0.004	0.031
-585.879	149.775	-0.292	0.397
-584.865	126.978	-0.210	0.267
-583.850	26.311	-0.338	-0.284
-582.836	328.035	-0.044	0.084
-581.821	-143.886	-0.255	0.024
-580.806	-156.376	-0.142	0.009
-579.792	5.636	0.138	0.102
-578.777	-102.864	-0.030	-0.007
-577.763	-151.333	-0.143	-0.011
-576.748	77.557	0.188	-0.201
-575.733	64.901	-0.228	-0.231
-574.719	106.748	-0.114	-0.136
-573.704	-103.883	0.166	0.039
-572.690	800.000	-0.090	0.323
-571.675	-124.364	0.063	-0.010
-570.661	236.377	0.044	0.073
-569.646	-25.088	-0.076	-0.045
-568.631	-52.248	0.265	0.123
-567.617	491.524	0.075	0.173
-566.602	-114.388	-0.073	0.014
-565.588	107.080	0.132	0.157
-564.573	107.779	0.032	0.038
-563.558	-68.530	-0.021	0.008
-562.544	-200.000	0.008	0.167
-561.529	-37.077	-0.291	-0.156
-560.515	-70.372	-0.258	0.098
-559.500	-21.558	0.141	0.086
-558.485	6.364	0.145	0.108
-557.471	318.819	-0.042	-0.080
-556.456	618.306	0.101	0.254
-555.442	-88.207	0.203	0.061
-554.427	137.978	0.156	-0.205
-553.412	-39.153	0.260	-0.137
-552.398	-113.587	-0.247	-0.048
-551.383	548.735	0.035	0.083
-550.369	-167.892	0.204	0.008
-549.354	240.302	0.075	0.125
-548.339	-39.667	0.141	-0.074
-547.325	800.000	-0.136	-0.393
-546.310	-189.133	0.060	-0.001
-545.296	48.036	-0.169	0.158
-544.281	-200.000	0.040	-0.255
-543.266	-99.179	-0.212	-0.054
-542.252	-200.000	0.028	-0.266
-541.237	-56.391	0.184	-0.082
-540.223	-59.716	-0.210	-0.090
-539.208	-200.000	-0.116	0.556
-538.193	-151.136	0.259	0.019
-537.179	-200.000	-0.003	-0.446
-536.164	272.545	0.166	0.293
-535.150	800.000	-0.087	0.329
-534.135	19.800	0.222	-0.179
-533.121	67.442	0.097	-0.099
-532.106	-112.308	-0.196	0.039
-531.091	169.711	-0.098	0.140
-530.077	-70.660	-0.452	-0.171
-529.062	-200.000	0.027	0.209
-528.048	11.223	-0.147	-0.113
-527.033	4.625	-0.081	-0.059
-526.018	-30.471	0.123	0.070
-525.004	-133.588	-0.365	-0.046
-523.989	38.846	0.184	0.165
-522.975	-119.922	0.074	-0.013
-521.960	161.433	0.219	-0.306
-520.945	-12.679	-0.243	-0.158
-519.931	641.595	-0.124	-0.315
-518.916	372.318	-0.142	-0.290
-517.902	800.000	0.112	-0.405
-516.887	-107.782	-0.270	0.059
-515.872	-54.712	-0.255	-0.115
-514.858	-178.309	-0.393	-0.009
-513.843	65.908	0.133	-0.135
-512.829	-200.000	-0.038	0.184
-511.814	60.807	-0.176	0.175
-510.799	723.119	-0.040	0.107
-509.785	57.581	0.055	0.054
-508.770	21.258	-0.040	0.033
-507.756	-68.356	0.321	0.125
-506.741	696.149	-0.020	-0.051
-505.726	171.504	0.080	0.115
-504.712	-160.813	-0.241	0.013
-503.697	-10.298	-0.180	-0.120
-502.683	55.723	-0.206	0.199
-501.668	309.053	-0.176	0.329
-500.653	-59.382	-0.344	-0.148
-499.639	-93.117	-0.230	0.064
-498.624	700.654	-0.028	0.075
-497.610	-141.578	-0.112	-0.011
-496.595	160.472	0.027	-0.038
-495.581	-153.380	-0.153	-0.011
-494.566	-97.008	0.330	-0.087
-493.551	-92.299	0.206	-0.058
-492.537	-41.420	0.148	-0.076
-491.522	-8.577	-0.113	0.076
-490.508	-82.401	0.089	-0.029
-489.493	-157.579	0.179	0.011
-488.478	368.754	0.010	-0.019
-487.464	127.858	-0.127	0.161
-486.449	-68.950	-0.267	-0.103
-485.435	-152.171	-0.063	-0.005
-484.420	-91.100	-0.237	-0.068
-483.405	-99.384	0.151	-0.038
-482.391	-80.805	0.154	-0.051
-481.376	126.965	0.089	-0.113
-480.362	-200.000	-0.028	0.584
-479.347	-200.000	-0.012	-0.262
-478.332	688.608	0.099	-0.259
-477.318	-53.311	-0.103	0.047
-476.303	33.186	0.077	0.067
-475.289	800.000	0.082	0.235
-474.274	-29.005	0.154	-0.088
-473.259	17.159	0.062	0.049
-472.245	-68.337	-0.082	0.032
-471.230	338.131	-0.136	0.264
-470.216	-67.705	-0.129	0.050
-469.201	224.637	0.190	-0.308
-468.186	-52.702	-0.121	-0.056
-467.172	766.547	0.077	-0.210
-466.157	-150.413	0.237	0.018
-465.143	326.830	0.017	-0.032
-464.128	218.862	-0.071	0.113
-463.113	-137.634	0.237	-0.027
-462.099	-200.000	0.303	-0.001
-461.084	-136.692	-0.238	-0.027
-460.070	327.861	-0.221	-0.424
-459.055	168.292	0.080	-0.114
-458.040	-78.851	-0.143	-0.049
-457.026	-72.668	-0.252	0.093
-456.011	-23.292	-0.188	-0.113
-454.997	-37.224	0.248	-0.133
-453.982	-22.991	-0.149	-0.089
-452.968	4.634	0.123	0.090
-451.953	-150.729	0.192	-0.015
-450.938	-163.746	-0.205	-0.010
-449.924	53.268	0.167	0.160
-448.909	54.815	-0.138	0.133
-447.895	-70.358	0.376	-0.142
-446.880	-36.080	0.239	-0.129
-445.865	-144.064	0.250	-0.023
-444.851	-136.786	0.272	0.031
-443.836	-89.965	0.086	-0.025
-442.822	165.165	-0.183	0.258
-441.807	-73.438	-0.143	-0.052
-440.792	759.694	0.032	-0.086
-439.778	-70.711	0.284	0.107
-438.763	-25.023	0.173	-0.102
-437.749	46.561	-0.127	0.117
-436.734	160.023	-0.071	-0.098
-435.719	800.000	-0.157	-0.449
-434.705	-119.466	-0.202	-0.035
-433.690	800.000	0.137	-0.378
-432.676	-65.158	0.249	0.100
-431.661	14.252	0.189	0.147
-430.646	-76.137	-0.266	-0.094
-429.632	-56.476	-0.094	0.042
-428.617	-200.000	0.008	0.038
-427.603	197.875	-0.040	-0.061
-426.588	-13.980	-0.134	0.086
-425.573	-200.000	-0.027	-0.123
-424.559	-200.000	0.016	-0.314
-423.544	-200.000	-0.005	-0.140
-422.530	510.384	-0.093	0.215
-421.515	-200.000	-0.031	0.173
-420.500	-62.405	0.298	0.124
-419.486	-0.407	-0.151	0.107
-418.471	96.748	0.090	-0.103
-417.457	800.000	-0.086	-0.262
-416.442	-200.000	-0.030	-0.470
-415.428	-200.000	-0.040	0.218
-414.413	-90.153	-0.321	0.093
-413.398	346.100	0.155	0.303
-412.384	704.833	-0.062	0.163
-411.369	-200.000	-0.053	0.286
-410.355	800.000	0.107	0.319
-409.340	-109.928	0.239	-0.050
-408.325	695.951	0.026	-0.067
-407.311	73.784	-0.189	-0.197
-406.296	667.889	-0.150	0.387
-405.282	-133.617	-0.465	-0.058
-404.267	131.127	0.155	0.198
-403.252	800.000	-0.020	0.065
-402.238	61.100	-0.183	0.182
-401.223	-200.000	-0.035	-0.196
-400.209	800.000	-0.026	0.101
-399.194	78.852	-0.085	0.091
-398.179	-13.125	-0.254	0.165
-397.165	182.475	-0.115	0.170
-396.150	181.104	0.125	0.183
-395.136	-42.529	-0.101	-0.051
-394.121	-26.311	0.088	0.052
-393.106	-91.246	-0.271	-0.077
-392.092	356.355	0.173	-0.344
-391.077	115.535	-0.032	-0.039
-390.063	-200.000	-0.018	0.231
-389.048	-110.103	0.334	-0.069
-388.033	-200.000	-0.001	0.085
-387.019	337.541	0.054	0.104
-386.004	-200.000	0.004	0.079
-384.990	35.951	0.057	-0.050
-383.975	-200.000	-0.040	-0.381
-382.960	-101.648	-0.122	-0.030
-381.946	-200.000	0.096	-0.493
-380.931	800.000	0.034	-0.135
-379.917	633.428	-0.086	0.216
-378.902	480.874	0.029	-0.065
-377.888	-157.789	0.075	-0.004
-376.873	-34.702	-0.332	-0.181
-375.858	800.000	-0.042	0.156
-374.844	312.116	-0.092	-0.172
-373.829	138.518	-0.250	0.327
-372.815	248.198	-0.095	-0.161
-371.800	54.155	-0.187	-0.179
-370.785	-18.821	0.269	0.167
-369.771	80.328	-0.162	-0.173
-368.756	-200.000	-0.016	-0.130
-367.742	353.503	0.051	0.101
-366.727	-111.053	0.230	0.047
-365.712	522.593	-0.109	-0.254
-364.698	-125.050	0.275	-0.042
-363.683	-116.217	0.133	0.024
-362.669	41.023	0.160	0.144
-361.654	-41.990	0.104	-0.053
-360.639	105.801	0.281	-0.331
-359.625	-35.596	-0.237	0.128
-358.610	-57.562	-0.232	-0.101
-357.596	48.227	-0.266	-0.248
-356.581	146.533	-0.040	-0.054
-355.566	36.257	-0.061	-0.054
-354.552	-58.772	0.402	-0.173
-353.537	-167.278	0.348	0.014
-352.523	-101.252	-0.403	-0.098
-351.508	260.408	-0.062	0.106
-350.493	598.848	-0.061	0.150
-349.479	480.005	-0.036	-0.082
-348.464	202.397	-0.103	-0.159
-347.450	-132.886	0.338	-0.043
-346.435	-6.266	-0.162	0.110
-345.420	-89.629	0.230	-0.067
-344.406	-81.861	-0.264	-0.086
-343.391	-93.087	-0.188	-0.052
-342.377	-200.000	0.064	-0.307
-341.362	40.809	-0.174	-0.156
-340.348	-1.110	0.152	-0.107
-339.333	-117.271	0.241	0.043
-338.318	69.099	0.046	-0.047
-337.304	-197.170	0.184	-0.001
-336.289	-200.000	-0.075	0.458
-335.275	-200.000	-0.024	-0.110
-334.260	-69.611	0.048	0.018
-333.245	-200.000	-0.036	0.289
-332.231	-80.720	-0.158	0.052
-331.216	190.777	-0.037	-0.055
-330.202	122.041	0.155	0.192
-329.187	142.750	0.100	-0.132
-328.172	-184.277	-0.044	0.001
-327.158	261.375	0.103	0.177
-326.143	-61.226	0.297	0.124
-325.129	-140.172	0.189	0.020
-324.114	-100.810	0.405	0.099
-323.099	84.252	-0.096	-0.105
-322.085	-200.000	-0.009	0.055
-321.070	262.270	0.128	0.221
-320.056	-200.000	0.067	0.425
-319.041	-200.000	-0.019	0.161
-318.026	-67.583	0.198	0.077
-317.012	524.189	-0.082	-0.192
-315.997	334.373	0.104	0.200
-314.983	-200.000	0.068	0.337
-313.968	800.000	0.062	-0.216
-312.953	152.811	0.082	0.111
-311.939	-200.000	0.005	0.090
-310.924	-200.000	-0.018	0.163
-309.910	-192.699	0.453	0.004
-308.895	79.652	-0.036	-0.038
-307.880	-122.401	0.183	-0.030
-306.866	-200.000	0.019	0.223
-305.851	43.777	0.026	-0.024
-304.837	800.000	0.044	-0.187
-303.822	-200.000	-0.027	-0.129
-302.807	773.528	0.025	0.067
-301.793	-200.000	-0.007	-0.044
-300.778	21.897	0.158	0.128
-299.764	181.929	-0.015	-0.022
-298.749	-200.000	-0.020	0.331
-297.735	-66.355	0.218	0.086
-296.720	46.749	0.166	-0.154
-295.705	75.312	0.301	-0.316
-294.691	-128.089	0.221	-0.031
-293.676	6.350	-0.290	-0.213
-292.662	-154.445	-0.123	0.008
-291.647	-200.000	0.008	0.140
-290.632	-138.811	-0.280	0.030
-289.618	-125.193	0.043	-0.007
-288.603	-200.000	0.029	-0.240
-287.589	-200.000	-0.010	0.135
-286.574	-46.425	0.365	-0.178
-285.559	-200.000	-0.025	-0.125
-284.545	92.866	-0.151	-0.170
-283.530	39.086	-0.026	0.023
-282.516	-200.000	0.039	-0.172
-281.501	-91.642	-0.203	-0.057
-280.486	-36.960	0.296	0.157
-279.472	148.325	-0.155	-0.208
-278.457	283.394	-0.094	-0.168
-277.443	741.640	-0.091	-0.242
-276.428	27.194	0.110	-0.091
-275.413	248.622	0.185	-0.311
-274.399	1.583	-0.194	-0.139
-273.384	800.000	0.071	-0.256
-272.370	581.220	-0.101	-0.244
-271.355	-113.725	0.043	-0.008
-270.340	-80.632	-0.189	0.062
-269.326	248.230	0.014	0.023
-268.311	-200.000	-0.011	-0.197
-267.297	-70.977	-0.281	-0.105
-266.282	195.215	-0.152	-0.228
-265.267	16.551	-0.096	-0.075
-264.253	19.505	-0.120	0.096
-263.238	-27.041	0.404	-0.234
-262.224	800.000	0.055	-0.197
-261.209	249.095	0.011	0.019
-260.195	5.703	-0.147	0.108
-259.180	800.000	-0.007	0.030
-258.165	-76.818	0.180	0.062
-257.151	-99.270	0.433	-0.108
-256.136	603.935	-0.080	-0.198
-255.122	34.932	-0.232	0.201
-254.107	25.338	0.229	0.189
-253.092	40.801	0.194	0.173
-252.078	68.437	0.084	0.085
-251.063	-115.086	-0.016	0.003
-250.049	-200.000	0.007	-0.332
-249.034	-78.630	0.280	0.095
-248.019	204.912	0.078	0.120
-247.005	278.555	-0.121	0.214
-245.990	101.974	-0.113	0.131
-244.976	-7.830	0.128	-0.085
-243.961	-187.368	-0.232	-0.003
-242.946	270.469	0.076	0.133
-241.932	-59.191	-0.195	0.083
-240.917	-119.875	-0.112	-0.019
-239.903	17.323	-0.400	0.315
-238.888	135.018	-0.174	0.224
-237.873	-147.985	0.173	0.014
-236.859	522.084	0.083	0.193
-235.844	-148.929	0.367	-0.029
-234.830	800.000	0.036	0.100
-233.815	-79.373	-0.203	0.068
-232.800	499.746	-0.132	-0.301
-231.786	-98.746	-0.268	0.068
-230.771	114.139	0.103	-0.125
-229.757	664.669	0.049	-0.124
-228.742	28.658	0.061	0.051
-227.727	-64.084	0.449	0.181
-226.713	-31.763	-0.090	0.050
-225.698	-131.179	-0.211	-0.028
-224.684	-101.977	-0.068	0.016
-223.669	-24.086	0.113	-0.067
-222.655	-83.267	0.410	-0.130
-221.640	-72.796	-0.181	0.066
-220.625	-125.862	-0.225	0.034
-219.611	-58.705	0.262	-0.112
-218.596	32.234	-0.277	0.237
-217.582	385.664	0.137	0.280
-216.567	623.740	-0.165	-0.412
-215.552	9.021	0.078	-0.058
-214.538	96.293	-0.104	0.117
-213.523	-174.252	0.104	0.003
-212.509	-43.941	0.138	0.069
-211.494	21.836	0.123	0.099
-210.479	48.805	0.088	0.081
-209.465	120.072	-0.229	0.281
-208.450	800.000	0.026	-0.071
-207.436	27.004	0.265	-0.220
-206.421	75.695	-0.204	0.214
-205.406	377.399	-0.071	-0.144
-204.392	-119.081	0.267	0.046
-203.377	64.415	-0.198	0.197
-202.363	-200.000	0.003	0.073
-201.348	2.281	0.321	0.229
-200.333	122.610	-0.112	0.139
-199.319	-200.000	-0.015	-0.276
-198.304	-131.876	0.283	0.037
-197.290	67.341	-0.151	-0.152
-196.275	9.212	0.277	0.207
-195.260	800.000	0.083	0.300
-194.246	-110.294	0.297	0.061
-193.231	800.000	-0.048	-0.150
-192.217	800.000	-0.025	0.076
-191.202	-200.000	-0.059	0.294
-190.187	-38.516	-0.208	-0.109
-189.173	-16.987	-0.428	-0.267
-188.158	-56.137	0.105	0.046
-187.144	310.911	-0.034	-0.063
-186.129	-119.447	0.366	0.063
-185.114	-115.133	-0.405	0.076
-184.100	263.024	-0.146	0.251
-183.085	800.000	0.050	-0.143
-182.071	-105.445	-0.264	-0.059
-181.056	-26.987	0.173	-0.100
-180.042	-79.839	-0.219	0.073
-179.027	516.500	-0.055	0.127
-178.012	-3.517	0.229	0.157
-176.998	757.307	-0.138	0.370
-175.983	41.993	0.181	-0.162
-174.969	-73.269	0.022	-0.008
-173.954	-24.457	-0.275	-0.162
-172.939	389.183	0.152	0.312
-171.925	10.486	-0.135	-0.102
-170.910	-85.019	-0.180	0.056
-169.896	160.089	0.173	-0.238
-168.881	225.431	0.158	0.253
-167.866	76.056	-0.209	-0.218
-166.852	-93.378	-0.195	-0.054
-165.837	22.050	-0.014	0.011
-164.823	118.485	-0.136	0.166
-163.808	-12.568	-0.080	0.051
-162.793	-85.841	0.146	0.045
-161.779	330.520	-0.022	0.042
-160.764	-113.655	0.188	-0.036
-159.750	130.931	-0.102	-0.129
-158.735	-110.944	-0.205	0.042
-157.720	440.123	0.205	0.443
-156.706	-200.000	-0.028	-0.143
-155.691	93.100	-0.145	0.162
-154.677	139.363	0.222	0.288
-153.662	-146.229	-0.273	0.024
-152.647	800.000	0.121	0.338
-151.633	131.789	-0.065	0.082
-150.618	-147.601	-0.310	-0.026
-149.604	-200.000	-0.101	-0.487
-148.589	-155.155	-0.177	0.011
-147.574	294.706	-0.083	-0.150
-146.560	-41.688	0.142	0.072
-145.545	182.505	-0.085	0.124
-144.531	-140.503	0.216	0.022
-143.516	-200.000	0.015	-0.203
-142.502	-63.992	0.328	0.132
-141.487	328.894	0.048	0.092
-140.472	91.245	-0.212	-0.235
-139.458	204.890	0.071	0.109
-138.443	-71.219	0.232	-0.086
-137.429	534.572	0.029	-0.068
-136.414	-150.093	0.244	-0.019
-135.399	-103.386	-0.249	0.058
-134.385	-70.116	0.196	0.074
-133.370	408.270	-0.028	0.059
-132.356	-200.000	-0.022	0.275
-131.341	186.104	-0.204	-0.299
-130.326	78.803	-0.081	-0.085
-129.312	-85.819	-0.120	0.037
-128.297	-106.751	0.244	0.053
-127.283	-29.871	0.177	-0.099
-126.268	-66.155	0.183	0.072
-125.253	256.185	-0.169	-0.286
-124.239	-108.980	0.260	0.055
-123.224	39.963	0.294	0.260
-122.210	-43.958	0.112	-0.055
-121.195	-77.151	-0.184	0.063
