DTS Sentinel unit serial number:	SN413079Multiplexer serial number:	ORYXHardware model number:	OX4-SRSoftware version number:	ORYX F/W v4.00 Oryx Data Collector v3.7.2.0data status	okinstallation	princeton_trtdifferential loss correction	single-endedforward channel	channel 4reverse channel	N/Adate	2019/09/19time	01:49:35forward acquisition time	60.00reverse acquisition time	0.00gamma	496.2192k internal	0.2340k external	0.2340temperature offset calibration	1.0025default loss term (dB/km)	0.3790temperature slope calibration	1.0000multiplexer offset coefficient	1.0000multiplexer slope coefficient	1.0000fibre end	0.00T internal ref (°C)	21.37T ext. ref 1 (°C)	0.68T ext. ref 2 (°C)	14.81length (m)	temperature (°C)	Stokes	anti-Stokes-747.200	-174.418	-0.385	-0.011
-746.185	47.802	-0.086	-0.081
-745.171	-125.013	-0.132	0.020
-744.156	800.000	0.032	0.093
-743.142	74.218	-0.161	0.169
-742.127	-200.000	0.005	0.052
-741.112	244.241	0.202	-0.341
-740.098	800.000	-0.063	0.243
-739.083	-165.046	0.359	0.016
-738.069	-196.639	-0.383	0.003
-737.054	-98.031	-0.024	-0.006
-736.039	122.686	0.140	0.175
-735.025	800.000	0.115	-0.362
-734.010	109.599	-0.099	-0.119
-732.996	-99.324	-0.137	0.035
-731.981	-83.412	0.233	0.075
-730.966	-13.078	-0.151	-0.098
-729.952	307.173	-0.032	-0.060
-728.937	-120.900	0.252	-0.043
-727.923	-200.000	0.054	-0.359
-726.908	-113.619	-0.205	-0.040
-725.894	-13.500	0.118	-0.077
-724.879	800.000	-0.115	0.393
-723.864	179.581	-0.074	-0.109
-722.850	15.123	-0.121	0.095
-721.835	429.342	-0.114	0.247
-720.821	800.000	0.001	0.005
-719.806	-75.896	0.067	-0.024
-718.791	-56.413	0.315	0.140
-717.777	-93.984	-0.215	0.059
-716.762	380.072	0.193	-0.396
-715.748	260.237	-0.064	-0.111
-714.733	-26.063	-0.253	-0.149
-713.718	-101.917	0.067	-0.016
-712.704	-200.000	0.150	-0.000
-711.689	-86.778	0.213	-0.065
-710.675	-46.911	-0.508	-0.249
-709.660	-23.794	0.113	0.068
-708.645	50.209	0.274	-0.259
-707.631	-50.593	-0.304	0.143
-706.616	-200.000	-0.013	0.197
-705.602	-200.000	0.006	0.117
-704.587	-2.881	0.308	0.215
-703.572	-200.000	-0.037	0.210
-702.558	-132.306	0.108	0.014
-701.543	465.070	0.100	0.224
-700.529	68.458	0.134	-0.137
-699.514	-118.887	0.275	-0.048
-698.499	800.000	0.047	0.131
-697.485	33.014	0.234	0.203
-696.470	27.750	0.160	-0.135
-695.456	-100.510	-0.183	-0.045
-694.441	-200.000	0.014	0.150
-693.426	-3.368	-0.199	-0.139
-692.412	800.000	-0.067	-0.243
-691.397	-20.912	-0.206	-0.126
-690.383	-200.000	0.243	0.000
-689.368	-23.678	0.185	-0.111
-688.354	39.181	-0.358	0.321
-687.339	358.451	-0.101	0.202
-686.324	-108.887	-0.565	-0.121
-685.310	-126.117	0.562	-0.084
-684.295	42.084	-0.083	-0.076
-683.281	-122.124	-0.376	-0.062
-682.266	-109.706	-0.278	-0.059
-681.251	-34.610	-0.229	-0.126
-680.237	-23.586	-0.185	0.111
-679.222	-146.503	0.180	-0.016
-678.208	276.780	0.065	0.116
-677.193	-62.514	-0.136	0.057
-676.178	-200.000	-0.010	0.234
-675.164	-200.000	-0.077	-0.357
-674.149	181.053	-0.164	0.241
-673.135	323.285	-0.154	-0.293
-672.120	-200.000	-0.018	-0.099
-671.105	-35.277	-0.177	0.096
-670.091	88.158	0.020	-0.022
-669.076	-187.596	0.149	0.002
-668.062	38.292	-0.236	0.210
-667.047	718.507	-0.149	0.397
-666.032	-187.645	0.101	-0.001
-665.018	229.919	-0.246	0.402
-664.003	58.427	-0.226	0.222
-662.989	676.705	-0.089	-0.232
-661.974	-67.407	-0.137	-0.054
-660.959	702.811	-0.114	-0.301
-659.945	800.000	-0.123	-0.411
-658.930	800.000	-0.075	-0.206
-657.916	266.894	-0.171	0.298
-656.901	800.000	0.040	0.124
-655.886	60.211	-0.170	-0.168
-654.872	85.208	0.005	-0.006
-653.857	-200.000	0.026	0.135
-652.843	-72.412	-0.258	0.095
-651.828	78.616	0.141	-0.150
-650.814	27.289	-0.113	-0.095
-649.799	800.000	0.046	0.148
-648.784	115.533	-0.214	-0.261
-647.770	42.067	0.144	-0.130
-646.755	60.244	0.129	-0.128
-645.741	-103.101	-0.479	-0.113
-644.726	357.626	0.002	0.003
-643.711	77.512	-0.180	0.191
-642.697	7.904	-0.130	-0.098
-641.682	-200.000	-0.011	-0.349
-640.668	800.000	0.013	0.042
-639.653	3.019	-0.173	-0.125
-638.638	183.544	-0.040	-0.060
-637.624	125.117	0.121	0.153
-636.609	-200.000	0.015	0.097
-635.595	-31.449	0.186	-0.105
-634.580	-200.000	0.014	-0.402
-633.565	800.000	-0.126	-0.484
-632.551	800.000	0.051	0.183
-631.536	129.971	-0.031	-0.040
-630.522	369.310	-0.110	-0.222
-629.507	365.986	-0.095	-0.191
-628.492	8.185	-0.186	0.140
-627.478	-200.000	-0.013	0.081
-626.463	150.798	-0.182	0.247
-625.449	36.365	0.045	0.040
-624.434	-133.329	-0.270	0.034
-623.419	-49.603	-0.384	0.183
-622.405	-200.000	-0.019	0.201
-621.390	-200.000	0.047	0.217
-620.376	-200.000	-0.030	-0.283
-619.361	800.000	0.026	-0.085
-618.346	39.570	0.140	-0.125
-617.332	-86.683	-0.153	-0.047
-616.317	312.329	0.133	0.249
-615.303	2.912	-0.147	0.107
-614.288	-200.000	-0.052	0.423
-613.273	-200.000	-0.033	0.290
-612.259	800.000	-0.095	0.312
-611.244	134.634	-0.099	-0.129
-610.230	408.486	0.080	-0.168
-609.215	-200.000	-0.041	-0.229
-608.201	-200.000	-0.021	0.395
-607.186	-200.000	-0.004	0.375
-606.171	63.954	0.082	-0.082
-605.157	177.930	-0.050	-0.073
-604.142	393.769	0.041	-0.086
-603.128	199.230	-0.090	0.137
-602.113	-95.986	0.233	0.062
-601.098	-28.060	0.200	-0.115
-600.084	648.067	0.100	-0.255
-599.069	-126.223	0.154	0.023
-598.055	51.312	-0.057	0.054
-597.040	-105.743	-0.206	0.046
-596.025	800.000	0.035	-0.140
-595.011	112.416	0.178	-0.214
-593.996	-200.000	-0.049	-0.356
-592.982	116.320	0.079	-0.097
-591.967	202.682	-0.221	-0.340
-590.952	-200.000	0.032	0.281
-589.938	-28.656	-0.394	-0.226
-588.923	48.990	-0.112	0.105
-587.909	-71.273	-0.198	-0.074
-586.894	270.714	0.058	0.101
-585.879	-7.631	0.053	0.036
-584.865	-61.058	0.421	0.177
-583.850	-10.084	-0.060	0.040
-582.836	-8.327	0.219	-0.147
-581.821	-114.832	-0.108	-0.021
-580.806	-26.683	0.155	0.090
-579.792	4.800	0.214	0.156
-578.777	-200.000	0.012	-0.435
-577.763	-129.108	0.147	0.021
-576.748	-200.000	0.013	0.118
-575.733	94.471	0.133	0.151
-574.719	-200.000	0.034	0.155
-573.704	431.585	0.043	0.093
-572.690	71.036	-0.191	0.197
-571.675	133.608	-0.206	0.265
-570.661	-200.000	-0.048	0.267
-569.646	-200.000	0.041	-0.193
-568.631	62.769	-0.283	0.282
-567.617	-110.103	0.317	0.066
-566.602	-38.939	0.172	0.090
-565.588	-200.000	0.011	0.108
-564.573	202.136	-0.133	0.205
-563.558	-1.243	0.160	0.112
-562.544	-136.881	-0.257	0.029
-561.529	-200.000	-0.003	0.014
-560.515	126.739	-0.063	-0.080
-559.500	800.000	-0.051	-0.153
-558.485	99.521	-0.252	-0.291
-557.471	-75.338	-0.167	0.059
-556.456	21.141	0.165	0.133
-555.442	800.000	0.051	0.176
-554.427	168.802	-0.151	0.214
-553.412	117.231	-0.228	0.279
-552.398	456.926	-0.147	0.325
-551.383	130.143	-0.048	-0.061
-550.369	488.823	-0.061	-0.139
-549.354	8.628	0.159	-0.119
-548.339	21.096	0.223	0.180
-547.325	-200.000	0.057	-0.278
-546.310	-32.260	0.308	-0.171
-545.296	199.706	-0.115	-0.176
-544.281	187.567	-0.081	0.121
-543.266	-58.048	-0.139	0.061
-542.252	-105.485	0.124	-0.028
-541.237	517.244	0.110	-0.255
-540.223	-200.000	-0.097	-0.497
-539.208	-96.897	-0.347	-0.091
-538.193	-133.957	0.170	0.021
-537.179	-161.620	0.208	0.011
-536.164	-102.336	0.160	-0.038
-535.150	-137.344	0.279	-0.032
-534.135	-112.234	0.335	-0.067
-533.121	-26.298	0.195	-0.114
-532.106	56.348	0.143	0.138
-531.091	-146.537	-0.071	-0.006
-530.077	614.045	-0.061	0.151
-529.062	135.416	0.086	0.111
-528.048	676.658	-0.018	-0.046
-527.033	800.000	0.090	-0.246
-526.018	2.367	0.166	0.119
-525.004	-200.000	0.001	0.015
-523.989	-105.029	0.153	-0.035
-522.975	-152.483	0.132	-0.009
-521.960	177.480	0.094	-0.137
-520.945	3.012	0.198	-0.143
-519.931	116.856	-0.227	-0.277
-518.916	472.945	-0.158	-0.354
-517.902	-200.000	0.043	0.196
-516.887	800.000	-0.059	0.245
-515.872	29.784	-0.130	0.110
-514.858	76.621	-0.226	-0.238
-513.843	-200.000	-0.048	-0.335
-512.829	142.587	-0.241	-0.317
-511.814	-97.836	-0.106	-0.027
-510.799	-41.902	0.106	-0.054
-509.785	-34.339	-0.109	-0.060
-508.770	159.129	0.109	0.150
-507.756	-120.888	0.067	0.011
-506.741	-200.000	0.006	0.133
-505.726	-28.098	-0.168	0.097
-504.712	282.478	0.080	0.143
-503.697	8.354	-0.302	0.225
-502.683	-35.383	0.045	0.025
-501.668	-179.045	-0.352	-0.008
-500.653	-98.051	-0.083	-0.021
-499.639	260.606	-0.086	-0.147
-498.624	-91.835	0.144	0.041
-497.610	113.882	-0.158	-0.190
-496.595	-85.700	0.243	-0.075
-495.581	-45.376	-0.314	-0.154
-494.566	-34.599	-0.170	-0.092
-493.551	-200.000	-0.034	-0.255
-492.537	-71.924	0.164	-0.061
-491.522	-56.194	0.181	0.080
-490.508	-57.204	0.107	0.047
-489.493	-110.940	-0.232	-0.047
-488.478	-164.305	-0.152	-0.007
-487.464	26.742	0.168	-0.140
-486.449	800.000	0.123	-0.338
-485.435	-59.646	0.239	-0.102
-484.420	179.513	0.090	0.131
-483.405	-38.331	0.405	-0.213
-482.391	-159.333	-0.186	-0.010
-481.376	-200.000	0.026	0.157
-480.362	-200.000	0.032	-0.262
-479.347	-98.338	0.376	0.096
-478.332	156.135	-0.237	0.324
-477.318	-41.639	0.239	0.122
-476.303	-13.861	0.143	0.092
-475.289	-193.496	0.190	-0.002
-474.274	-22.326	-0.079	0.047
-473.259	-200.000	-0.030	0.278
-472.245	800.000	0.049	0.168
-471.230	-152.525	0.071	-0.005
-470.216	800.000	0.010	-0.042
-469.201	1.318	-0.276	0.197
-468.186	208.934	-0.210	-0.326
-467.172	-90.180	-0.324	0.094
-466.157	-81.305	0.185	-0.060
-465.143	-128.000	0.139	0.020
-464.128	-200.000	-0.019	0.202
-463.113	-120.010	-0.196	0.033
-462.099	-200.000	-0.009	0.048
-461.084	-62.788	-0.329	0.135
-460.070	-167.253	-0.095	-0.004
-459.055	-200.000	-0.009	-0.510
-458.040	351.862	0.091	0.178
-457.026	-200.000	0.014	0.143
-456.011	800.000	-0.047	-0.133
-454.997	7.057	0.083	0.062
-453.982	61.393	-0.190	0.187
-452.968	-200.000	0.009	0.073
-451.953	-24.502	0.031	-0.018
-450.938	-200.000	0.104	-0.000
-449.924	-68.771	-0.116	-0.045
-448.909	724.465	0.096	0.254
-447.895	-15.429	-0.172	-0.109
-446.880	-11.107	0.322	-0.210
-445.865	-200.000	-0.026	0.159
-444.851	-137.406	-0.152	-0.017
-443.836	-200.000	-0.003	-0.120
-442.822	-200.000	-0.023	0.145
-441.807	-200.000	0.010	0.120
-440.792	82.347	0.161	0.173
-439.778	443.302	0.074	-0.162
-438.763	-200.000	0.049	0.291
-437.749	-109.274	0.390	0.082
-436.734	-44.885	-0.301	-0.149
-435.719	-200.000	-0.275	0.000
-434.705	15.141	-0.263	-0.204
-433.690	613.317	-0.137	0.339
-432.676	-146.412	-0.219	0.019
-431.661	400.159	-0.125	0.259
-430.646	-102.760	0.187	0.044
-429.632	-24.222	0.115	-0.068
-428.617	-200.000	0.022	0.118
-427.603	52.037	-0.182	0.172
-426.588	-200.000	-0.036	0.320
-425.573	800.000	-0.086	-0.319
-424.559	50.420	-0.141	0.132
-423.544	195.723	0.093	0.140
-422.530	-87.453	0.416	0.125
-421.515	800.000	-0.036	0.106
-420.500	293.168	0.137	-0.247
-419.486	-65.454	-0.192	-0.076
-418.471	0.923	0.159	-0.113
-417.457	-200.000	0.015	-0.186
-416.442	-79.629	0.224	-0.075
-415.428	-136.126	-0.143	-0.017
-414.413	-130.029	-0.142	0.019
-413.398	-134.670	0.089	0.011
-412.384	-70.268	-0.075	-0.028
-411.369	80.022	-0.140	0.149
-410.355	-200.000	-0.061	-0.433
-409.340	-200.000	-0.028	0.202
-408.325	44.470	0.030	-0.027
-407.311	12.296	-0.119	-0.091
-406.296	-146.881	-0.096	-0.008
-405.282	476.322	0.097	0.218
-404.267	92.393	-0.188	-0.210
-403.252	-18.457	0.288	-0.178
-402.238	800.000	-0.074	0.234
-401.223	-200.000	0.043	-0.218
-400.209	131.809	0.344	-0.437
-399.194	194.543	-0.094	0.141
-398.179	-65.785	0.116	-0.046
-397.165	142.970	0.111	-0.146
-396.150	-3.664	-0.162	0.111
-395.136	-93.431	-0.129	0.035
-394.121	-200.000	-0.018	0.134
-393.106	800.000	-0.066	-0.206
-392.092	-14.305	0.224	-0.143
-391.077	-200.000	-0.025	-0.118
-390.063	-26.916	-0.228	-0.132
-389.048	-200.000	0.071	-0.371
-388.033	800.000	-0.117	-0.402
-387.019	-172.020	-0.492	0.016
-386.004	49.647	0.167	0.156
-384.990	-200.000	-0.003	-0.287
-383.975	-200.000	-0.020	0.294
-382.960	-81.772	-0.232	-0.075
-381.946	-200.000	0.011	-0.243
-380.931	243.527	0.067	0.111
-379.917	-69.188	-0.204	-0.078
-378.902	-200.000	0.044	-0.192
-377.888	-106.060	0.462	0.103
-376.873	331.653	-0.093	-0.178
-375.858	-161.810	0.239	-0.012
-374.844	-125.941	0.118	0.018
-373.829	74.360	-0.260	0.270
-372.815	442.209	-0.109	0.236
-371.800	-9.385	-0.168	-0.111
-370.785	-200.000	0.036	-0.159
-369.771	800.000	-0.028	-0.088
-368.756	-200.000	-0.026	0.132
-367.742	-200.000	0.000	0.075
-366.727	-25.258	-0.221	-0.129
-365.712	208.158	0.032	0.049
-364.698	-121.047	0.360	-0.060
-363.683	-78.611	-0.151	0.051
-362.669	-141.460	-0.266	0.027
-361.654	-115.052	0.239	0.045
-360.639	17.564	-0.188	-0.147
-359.625	-36.658	-0.193	-0.102
-358.610	237.989	0.072	0.118
-357.596	213.114	-0.046	-0.072
-356.581	-200.000	0.008	0.116
-355.566	800.000	0.060	0.182
-354.552	60.558	-0.407	-0.398
-353.537	-161.266	-0.095	0.005
-352.523	-200.000	-0.020	0.213
-351.508	800.000	-0.032	-0.127
-350.493	-123.724	0.402	-0.063
-349.479	-28.688	-0.195	0.111
-348.464	222.950	0.093	-0.147
-347.450	-200.000	0.002	-0.143
-346.435	-44.771	0.213	0.105
-345.420	420.539	-0.172	-0.364
-344.406	-200.000	-0.026	-0.175
-343.391	-70.615	0.156	0.058
-342.377	-47.914	-0.095	-0.045
-341.362	188.428	0.136	-0.201
-340.348	-200.000	-0.010	0.121
-339.333	-200.000	-0.076	0.333
-338.318	229.849	0.108	0.175
-337.304	800.000	-0.084	-0.293
-336.289	-120.896	0.195	0.032
-335.275	49.223	0.128	0.118
-334.260	-200.000	0.015	0.070
-333.245	553.853	-0.109	0.259
-332.231	-67.152	0.178	0.069
-331.216	-95.826	0.099	-0.026
-330.202	800.000	0.068	-0.204
-329.187	178.949	0.094	0.136
-328.172	-200.000	0.036	0.320
-327.158	494.728	-0.046	0.105
-326.143	-24.180	0.169	0.100
-325.129	150.844	0.225	-0.301
-324.114	-200.000	-0.011	0.338
-323.099	42.130	0.116	0.103
-322.085	68.152	-0.120	-0.122
-321.070	-18.643	-0.151	0.093
-320.056	180.517	0.044	-0.064
-319.041	-68.015	0.102	-0.039
-318.026	-142.705	-0.349	-0.034
-317.012	68.285	0.200	-0.202
-315.997	-89.391	0.397	0.115
-314.983	-6.353	-0.140	-0.094
-313.968	-120.427	0.073	-0.012
-312.953	-200.000	0.007	-0.375
-311.939	9.763	0.116	0.087
-310.924	-200.000	0.007	0.282
-309.910	-30.165	-0.435	-0.244
-308.895	-2.073	0.184	0.128
-307.880	-12.243	0.021	-0.014
-306.866	-148.916	0.175	-0.014
-305.851	-39.591	0.280	0.145
-304.837	96.156	0.141	0.159
-303.822	-188.369	-0.188	-0.002
-302.807	-185.719	0.240	-0.004
-301.793	800.000	-0.077	0.226
-300.778	-129.246	0.150	0.021
-299.764	800.000	0.049	-0.196
-298.749	-104.682	0.149	-0.034
-297.735	-120.974	0.444	0.074
-296.720	-49.356	0.098	0.046
-295.705	176.150	0.085	0.122
-294.691	190.765	-0.122	-0.180
-293.676	46.107	-0.117	0.107
-292.662	503.267	0.100	0.227
-291.647	159.195	0.052	0.071
-290.632	-200.000	-0.004	0.153
-289.618	800.000	0.040	0.122
-288.603	-82.430	0.197	-0.063
-287.589	-26.391	0.118	-0.068
-286.574	-136.530	0.266	0.030
-285.559	24.784	-0.343	0.280
-284.545	-168.588	-0.332	0.012
-283.530	730.464	-0.077	-0.202
-282.516	-200.000	-0.024	-0.201
-281.501	-175.785	0.133	-0.004
-280.486	82.739	-0.160	-0.171
-279.472	178.896	-0.068	-0.099
-278.457	-97.755	0.182	-0.046
-277.443	128.611	0.227	0.284
-276.428	171.813	-0.204	-0.288
-275.413	-200.000	-0.008	-0.086
-274.399	-188.287	0.155	0.002
-273.384	205.518	0.238	-0.363
-272.370	-183.056	-0.195	0.003
-271.355	14.734	-0.106	-0.081
-270.340	-145.389	-0.231	-0.020
-269.326	-73.183	0.143	-0.052
-268.311	-200.000	0.020	0.325
-267.297	-200.000	-0.005	-0.154
-266.282	84.134	-0.089	-0.096
-265.267	59.362	-0.209	-0.203
-264.253	-46.825	0.121	-0.058
-263.238	87.926	-0.036	-0.039
-262.224	19.750	0.060	-0.047
-261.209	-200.000	0.010	-0.211
-260.195	-200.000	-0.035	-0.221
-259.180	13.998	-0.359	0.275
-258.165	-7.793	-0.025	0.017
-257.151	63.639	0.023	0.022
-256.136	541.098	-0.083	-0.195
-255.122	37.932	0.315	-0.275
-254.107	-134.885	-0.305	0.036
-253.092	-133.901	0.082	0.010
-252.078	-7.856	0.121	0.080
-251.063	-2.007	0.299	-0.207
-250.049	17.878	-0.123	-0.096
-249.034	-200.000	0.023	-0.117
-248.019	266.132	0.099	0.171
-247.005	129.364	0.258	-0.323
-245.990	-178.212	-0.327	-0.008
-244.976	115.330	-0.128	-0.154
-243.961	742.459	-0.142	-0.374
-242.946	303.349	-0.061	0.111
-241.932	-23.443	-0.215	-0.127
-240.917	-200.000	0.046	-0.240
-239.903	-10.385	0.251	0.164
-238.888	-200.000	0.023	0.200
-237.873	800.000	0.057	-0.236
-236.859	800.000	0.041	0.119
-235.844	-148.476	0.324	0.026
-234.830	-49.884	0.341	-0.159
-233.815	-97.376	0.198	-0.051
-232.800	-200.000	0.008	-0.187
-231.786	58.874	0.067	-0.065
-230.771	800.000	-0.197	0.593
-229.757	-98.454	0.349	0.088
-228.742	19.896	0.106	0.084
-227.727	-35.079	0.105	-0.056
-226.713	159.422	0.095	0.130
-225.698	800.000	-0.088	-0.313
-224.684	-113.493	-0.098	0.019
-223.669	-200.000	0.015	0.142
-222.655	129.613	0.074	0.093
-221.640	254.036	-0.082	0.138
-220.625	-128.613	0.081	0.011
-219.611	-200.000	0.025	0.163
-218.596	800.000	-0.049	-0.172
-217.582	800.000	0.059	-0.178
-216.567	115.205	0.179	0.215
-215.552	-100.467	-0.122	-0.030
-214.538	-200.000	-0.013	-0.191
-213.523	800.000	-0.060	-0.217
-212.509	181.582	-0.063	-0.091
-211.494	37.192	-0.330	0.287
-210.479	-200.000	-0.017	0.318
-209.465	800.000	0.092	-0.348
-208.450	-62.831	-0.453	-0.184
-207.436	137.330	-0.270	0.347
-206.421	800.000	0.014	-0.038
-205.406	-19.440	0.214	0.130
-204.392	142.979	0.203	0.265
-203.377	486.999	0.078	0.174
-202.363	-200.000	-0.042	0.332
-201.348	22.349	-0.240	0.193
-200.333	81.710	0.305	0.324
-199.319	336.646	0.129	-0.246
-198.304	-101.324	0.134	0.032
-197.290	99.436	0.134	-0.153
-196.275	59.939	-0.220	0.213
-195.260	-33.817	0.376	0.203
-194.246	-77.763	0.435	0.147
-193.231	232.738	-0.093	0.149
-192.217	-73.746	-0.103	-0.037
-191.202	672.033	0.093	0.235
-190.187	-200.000	0.022	0.201
-189.173	-121.336	0.125	-0.020
-188.158	-37.617	-0.339	-0.177
-187.144	-27.368	0.055	0.031
-186.129	800.000	0.049	0.167
-185.114	-200.000	-0.025	0.195
-184.100	-200.000	0.028	0.245
-183.085	-200.000	-0.091	0.615
-182.071	-200.000	0.037	0.218
-181.056	121.079	0.076	-0.092
-180.042	-112.866	0.232	-0.045
-179.027	369.150	0.017	-0.035
-178.012	-153.999	-0.323	0.022
-176.998	800.000	0.053	0.165
-175.983	222.740	0.083	0.131
-174.969	207.512	-0.096	-0.147
-173.954	-200.000	0.081	-0.459
-172.939	355.241	0.119	-0.232
-171.925	800.000	0.091	0.352
-170.910	-200.000	-0.004	0.034
-169.896	-86.277	0.052	0.016
-168.881	1.565	-0.350	-0.247
-167.866	208.569	-0.058	-0.089
-166.852	521.182	-0.138	0.318
-165.837	417.318	-0.192	-0.402
-164.823	-200.000	-0.012	-0.197
-163.808	-8.820	-0.169	0.111
-162.793	788.072	0.070	0.188
-161.779	800.000	-0.045	0.194
-160.764	-58.432	0.085	0.036
-159.750	-52.853	0.076	-0.034
-158.735	-67.812	-0.279	0.107
-157.720	-6.492	0.327	0.218
-156.706	-200.000	-0.016	0.206
-155.691	-132.278	-0.228	-0.029
-154.677	269.491	-0.179	-0.308
-153.662	-29.965	-0.347	0.193
-152.647	-50.048	-0.072	-0.033
-151.633	-5.105	0.190	0.128
-150.618	-104.112	0.073	0.017
-149.604	-200.000	-0.005	0.242
-148.589	288.913	0.144	-0.256
-147.574	-200.000	-0.004	-0.081
-146.560	800.000	0.028	0.105
-145.545	-65.828	0.346	0.136
-144.531	800.000	0.041	0.151
-143.516	65.905	0.040	0.040
-142.502	39.064	0.037	0.033
-141.487	-81.945	-0.380	0.122
-140.472	-52.874	0.297	0.134
-139.458	-200.000	0.015	0.267
-138.443	-59.349	-0.346	-0.146
-137.429	800.000	0.026	0.107
-136.414	-200.000	0.011	0.335
-135.399	629.581	0.050	0.124
-134.385	110.056	0.275	-0.323
-133.370	-33.783	-0.237	-0.128
-132.356	750.352	0.073	-0.192
-131.341	746.039	-0.105	0.277
-130.326	-200.000	0.008	0.108
-129.312	-58.391	-0.192	0.082
-128.297	-93.091	0.172	0.047
-127.283	500.609	-0.145	-0.327
-126.268	0.723	0.211	-0.148
-125.253	371.689	-0.065	-0.128
-124.239	-87.556	0.245	-0.072
-123.224	85.914	-0.106	0.114
-122.210	-200.000	0.034	-0.411
-121.195	-93.127	-0.099	-0.027
