DTS Sentinel unit serial number:	SN413079Multiplexer serial number:	ORYXHardware model number:	OX4-SRSoftware version number:	ORYX F/W v4.00 Oryx Data Collector v3.7.2.0data status	okinstallation	princeton_trtdifferential loss correction	single-endedforward channel	channel 4reverse channel	N/Adate	2019/09/13time	03:37:35forward acquisition time	60.00reverse acquisition time	0.00gamma	496.2192k internal	0.2320k external	0.2320temperature offset calibration	1.0194default loss term (dB/km)	0.3790temperature slope calibration	1.0000multiplexer offset coefficient	1.0000multiplexer slope coefficient	1.0000fibre end	0.00T internal ref (°C)	27.25T ext. ref 1 (°C)	4.08T ext. ref 2 (°C)	21.63length (m)	temperature (°C)	Stokes	anti-Stokes-747.200	339.920	-0.195	0.384
-746.185	-143.314	-0.152	0.015
-745.171	-200.000	-0.035	0.172
-744.156	77.065	0.234	0.251
-743.142	339.239	0.166	-0.327
-742.127	16.037	-0.097	-0.077
-741.112	-200.000	0.006	0.138
-740.098	-169.195	-0.363	0.014
-739.083	4.113	-0.083	-0.062
-738.069	-200.000	-0.036	0.201
-737.054	116.203	-0.274	-0.339
-736.039	315.236	-0.115	-0.219
-735.025	-172.365	0.339	-0.011
-734.010	800.000	-0.020	-0.074
-732.996	-182.829	-0.274	-0.005
-731.981	-169.375	0.127	0.005
-730.966	-136.423	-0.059	-0.007
-729.952	174.966	0.081	-0.118
-728.937	207.523	0.154	-0.243
-727.923	337.987	-0.139	-0.274
-726.908	-110.443	0.103	0.022
-725.894	339.472	-0.127	-0.250
-724.879	-5.047	-0.153	-0.107
-723.864	-34.208	-0.070	-0.039
-722.850	2.755	-0.210	-0.154
-721.835	-200.000	-0.001	-0.027
-720.821	172.797	0.129	-0.187
-719.806	-81.147	-0.173	-0.058
-718.791	798.016	-0.064	0.179
-717.777	-55.468	-0.188	-0.085
-716.762	47.431	-0.204	-0.192
-715.748	-200.000	-0.012	0.064
-714.733	-97.826	-0.549	-0.143
-713.718	-127.303	-0.123	-0.018
-712.704	-141.148	-0.161	0.017
-711.689	-65.201	0.375	0.153
-710.675	-61.832	0.250	0.106
-709.660	203.612	0.093	-0.146
-708.645	-110.026	-0.223	0.047
-707.631	306.405	-0.040	0.075
-706.616	-127.248	0.396	-0.058
-705.602	-87.770	0.271	0.083
-704.587	496.560	0.112	-0.260
-703.572	800.000	-0.064	-0.189
-702.558	244.450	-0.093	0.157
-701.543	98.590	-0.305	0.355
-700.529	-21.970	-0.203	0.124
-699.514	-200.000	-0.038	-0.214
-698.499	25.545	-0.338	0.284
-697.485	55.486	0.202	-0.198
-696.470	16.955	-0.068	0.054
-695.456	404.774	0.058	0.124
-694.441	313.826	-0.120	-0.227
-693.426	178.980	-0.123	0.181
-692.412	-200.000	0.045	-0.496
-691.397	-5.046	0.085	0.059
-690.383	-95.757	-0.434	-0.117
-689.368	-200.000	-0.008	-0.211
-688.354	99.968	0.295	0.345
-687.339	23.366	-0.033	-0.028
-686.324	-109.384	0.152	0.033
-685.310	-151.541	0.316	-0.024
-684.295	-34.398	0.050	0.028
-683.281	510.657	-0.140	-0.328
-682.266	-200.000	0.028	0.214
-681.251	-78.332	-0.225	-0.078
-680.237	-24.006	0.336	-0.203
-679.222	501.076	0.028	0.065
-678.208	28.322	-0.269	0.229
-677.193	0.400	-0.123	0.089
-676.178	-4.792	0.247	-0.172
-675.164	-200.000	0.017	0.225
-674.149	28.085	-0.105	0.090
-673.135	41.188	-0.167	0.152
-672.120	607.031	-0.143	0.359
-671.105	-117.670	-0.281	0.051
-670.091	-68.704	-0.305	-0.119
-669.076	-83.601	-0.262	0.084
-668.062	-12.723	0.270	0.177
-667.047	19.689	-0.085	-0.069
-666.032	44.992	-0.142	-0.132
-665.018	263.512	-0.067	-0.117
-664.003	-190.445	-0.275	0.003
-662.989	-200.000	0.050	-0.422
-661.974	180.360	-0.022	-0.032
-660.959	88.721	0.288	-0.323
-659.945	331.313	0.060	-0.117
-658.930	180.265	-0.086	-0.127
-657.916	-97.892	0.151	-0.039
-656.901	-200.000	-0.081	0.384
-655.886	-116.723	-0.333	0.062
-654.872	118.671	0.175	-0.218
-653.857	57.392	-0.202	0.199
-652.843	110.856	-0.232	0.282
-651.828	413.878	0.101	-0.216
-650.814	-130.984	0.167	0.022
-649.799	-200.000	-0.035	0.395
-648.784	-119.111	-0.198	-0.035
-647.770	-200.000	0.014	-0.112
-646.755	-58.826	-0.173	0.076
-645.741	106.798	-0.150	-0.180
-644.726	164.707	-0.151	-0.214
-643.711	8.151	-0.236	-0.179
-642.697	-112.251	0.173	-0.035
-641.682	-190.787	-0.107	-0.001
-640.668	-96.807	-0.097	0.026
-639.653	-200.000	-0.023	0.149
-638.638	-88.712	-0.132	-0.040
-637.624	-112.774	0.153	0.031
-636.609	92.339	-0.161	-0.183
-635.595	36.217	0.159	-0.141
-634.580	2.656	-0.204	-0.149
-633.565	694.152	0.025	-0.065
-632.551	-200.000	0.003	0.029
-631.536	800.000	-0.044	-0.171
-630.522	-81.288	-0.329	-0.109
-629.507	-200.000	0.023	0.272
-628.492	-200.000	0.003	-0.244
-627.478	-78.415	0.224	0.077
-626.463	56.189	0.084	0.082
-625.449	-47.318	0.108	-0.053
-624.434	-102.354	0.023	-0.006
-623.419	-59.650	-0.069	0.030
-622.405	-12.719	-0.095	-0.062
-621.390	-28.562	-0.097	0.056
-620.376	116.761	0.015	0.019
-619.361	54.828	0.265	0.258
-618.346	-200.000	-0.026	-0.131
-617.332	371.572	0.164	0.335
-616.317	-121.552	-0.340	-0.057
-615.303	64.897	0.073	-0.075
-614.288	800.000	0.083	-0.303
-613.273	-46.456	-0.204	-0.101
-612.259	-50.222	0.219	0.104
-611.244	-200.000	0.026	0.224
-610.230	-3.479	-0.356	0.249
-609.215	593.851	-0.098	-0.245
-608.201	-31.976	-0.140	-0.079
-607.186	-62.083	-0.234	-0.098
-606.171	-200.000	0.015	0.225
-605.157	-200.000	-0.081	-0.470
-604.142	-98.211	0.189	0.049
-603.128	-179.364	0.058	-0.001
-602.113	147.331	-0.358	-0.484
-601.098	15.565	-0.060	-0.048
-600.084	-69.932	-0.311	-0.119
-599.069	93.977	-0.089	-0.102
-598.055	-47.724	0.160	0.078
-597.040	157.564	0.083	0.116
-596.025	298.290	-0.066	-0.123
-595.011	79.140	0.124	0.134
-593.996	-153.372	-0.114	0.008
-592.982	-200.000	0.016	0.119
-591.967	83.816	-0.116	0.128
-590.952	48.779	0.155	0.146
-589.938	-159.880	-0.112	0.006
-588.923	38.823	-0.088	0.079
-587.909	466.555	0.110	-0.247
-586.894	188.883	-0.193	-0.291
-585.879	800.000	-0.023	-0.078
-584.865	-197.368	-0.290	0.002
-583.850	-27.694	-0.227	0.132
-582.836	-78.880	-0.405	0.139
-581.821	-137.030	0.187	-0.022
-580.806	249.128	0.099	0.168
-579.792	-200.000	-0.331	-0.001
-578.777	-103.806	-0.195	0.046
-577.763	-200.000	0.023	0.182
-576.748	-200.000	0.028	0.133
-575.733	152.379	-0.124	-0.169
-574.719	-163.552	-0.313	0.015
-573.704	-55.289	-0.348	-0.157
-572.690	-167.227	0.137	-0.006
-571.675	-200.000	-0.033	-0.179
-570.661	365.651	0.124	-0.251
-569.646	186.160	-0.199	-0.298
-568.631	-21.509	-0.379	0.232
-567.617	300.073	0.082	0.152
-566.602	-91.348	-0.272	-0.078
-565.588	-101.001	0.199	0.049
-564.573	-40.942	-0.048	0.025
-563.558	-84.255	0.216	-0.069
-562.544	-120.321	0.284	-0.049
-561.529	-183.342	-0.277	0.005
-560.515	-46.491	-0.059	-0.029
-559.500	-38.012	-0.471	0.251
-558.485	-21.363	0.132	-0.081
-557.471	514.165	-0.066	-0.155
-556.456	-71.349	0.170	-0.064
-555.442	120.960	-0.206	-0.257
-554.427	296.893	0.223	-0.411
-553.412	800.000	-0.052	-0.178
-552.398	-78.829	-0.330	-0.113
-551.383	-109.032	0.337	0.072
-550.369	203.085	-0.152	-0.235
-549.354	800.000	0.021	0.090
-548.339	10.775	-0.152	-0.117
-547.325	-33.387	-0.261	0.145
-546.310	-17.875	-0.091	-0.057
-545.296	586.407	0.053	0.131
-544.281	800.000	0.063	-0.200
-543.266	-119.074	0.248	-0.043
-542.252	-58.285	-0.306	-0.134
-541.237	-102.102	-0.065	-0.016
-540.223	-58.764	0.111	-0.048
-539.208	-133.860	0.146	0.018
-538.193	82.668	0.236	-0.257
-537.179	-25.123	-0.245	0.146
-536.164	264.506	0.067	0.118
-535.150	290.900	-0.188	0.343
-534.135	-200.000	-0.023	0.325
-533.121	-133.246	0.166	0.021
-532.106	-175.600	-0.228	-0.006
-531.091	197.300	-0.068	-0.104
-530.077	-128.527	0.227	0.032
-529.062	130.150	0.062	0.080
-528.048	-63.405	0.162	0.067
-527.033	60.996	0.097	-0.096
-526.018	-200.000	-0.015	0.201
-525.004	-102.343	-0.092	0.022
-523.989	-25.446	0.100	-0.060
-522.975	800.000	0.040	0.130
-521.960	-200.000	0.017	0.388
-520.945	395.648	-0.071	-0.149
-519.931	-200.000	0.017	-0.162
-518.916	-88.107	0.167	0.050
-517.902	-11.117	0.243	0.161
-516.887	143.563	0.309	0.412
-515.872	52.997	0.150	0.144
-514.858	43.885	0.219	-0.201
-513.843	-29.642	0.307	0.175
-512.829	-0.167	-0.279	-0.199
-511.814	450.261	0.066	-0.146
-510.799	-140.913	-0.158	0.016
-509.785	800.000	-0.040	-0.141
-508.770	-125.644	-0.162	-0.025
-507.756	-34.968	0.202	0.110
-506.741	-95.837	0.187	-0.050
-505.726	-39.989	-0.152	0.080
-504.712	-200.000	0.003	-0.055
-503.697	-200.000	0.038	0.222
-502.683	-200.000	0.022	0.125
-501.668	-96.557	0.202	-0.053
-500.653	-126.181	-0.327	-0.049
-499.639	-185.317	-0.256	-0.004
-498.624	-46.627	0.243	0.119
-497.610	-19.757	0.191	-0.118
-496.595	-200.000	0.002	0.109
-495.581	-53.421	0.138	0.063
-494.566	75.411	-0.051	-0.054
-493.551	134.643	-0.132	-0.172
-492.537	-200.000	0.010	-0.233
-491.522	-200.000	0.011	0.054
-490.508	88.936	0.028	0.031
-489.493	20.954	0.132	0.107
-488.478	-99.358	0.314	0.079
-487.464	-133.035	0.140	0.018
-486.449	304.446	0.103	0.192
-485.435	-32.092	-0.145	-0.081
-484.420	19.070	-0.101	0.081
-483.405	77.417	0.172	0.183
-482.391	-132.213	-0.116	-0.015
-481.376	800.000	-0.085	-0.365
-480.362	40.222	0.231	0.208
-479.347	61.535	0.119	0.118
-478.332	550.875	0.141	0.339
-477.318	-83.380	0.190	0.061
-476.303	800.000	0.012	-0.047
-475.289	-164.636	-0.040	0.002
-474.274	417.565	-0.166	-0.355
-473.259	-141.345	-0.196	0.020
-472.245	-200.000	0.046	-0.243
-471.230	-136.798	0.434	0.050
-470.216	-144.556	0.336	0.031
-469.201	-88.355	-0.084	-0.025
-468.186	-200.000	0.078	0.364
-467.172	-41.513	-0.286	-0.147
-466.157	-47.867	0.047	-0.023
-465.143	73.163	-0.217	0.227
-464.128	-152.233	0.286	0.021
-463.113	-15.015	0.283	0.181
-462.099	-59.323	0.198	0.085
-461.084	-74.153	-0.077	-0.028
-460.070	158.754	-0.036	0.049
-459.055	-200.000	-0.031	-0.142
-458.040	280.540	-0.023	0.042
-457.026	343.318	0.105	-0.206
-456.011	771.043	0.074	-0.202
-454.997	101.221	0.164	0.191
-453.982	-200.000	-0.019	0.242
-452.968	800.000	0.099	0.287
-451.953	-65.801	-0.249	-0.100
-450.938	562.600	-0.036	-0.088
-449.924	741.627	0.020	0.053
-448.909	-89.579	0.217	-0.064
-447.895	65.521	0.041	0.042
-446.880	87.075	0.142	0.157
-445.865	-200.000	-0.012	0.126
-444.851	-68.258	-0.233	0.090
-443.836	-106.417	-0.277	-0.062
-442.822	153.827	-0.033	0.045
-441.807	36.167	0.180	-0.158
-440.792	30.785	-0.118	-0.101
-439.778	-142.720	-0.245	-0.024
-438.763	492.021	-0.044	-0.100
-437.749	92.000	0.163	0.183
-436.734	-200.000	0.006	-0.069
-435.719	386.077	0.123	0.254
-434.705	-200.000	-0.063	-0.356
-433.690	-192.851	-0.405	0.004
-432.676	266.192	0.119	-0.208
-431.661	-157.489	0.112	-0.007
-430.646	104.637	-0.171	0.201
-429.632	-200.000	0.021	0.356
-428.617	-200.000	0.004	0.097
-427.603	-92.515	0.197	0.055
-426.588	-69.298	0.338	-0.130
-425.573	101.267	-0.048	-0.056
-424.559	127.640	-0.057	-0.072
-423.544	254.939	-0.147	0.251
-422.530	-81.793	0.265	-0.087
-421.515	38.651	-0.101	-0.090
-420.500	-77.713	0.046	0.016
-419.486	392.725	-0.166	0.344
-418.471	45.881	-0.329	0.304
-417.457	-58.219	0.195	-0.085
-416.442	86.311	-0.287	-0.315
-415.428	-191.954	-0.119	0.001
-414.413	24.038	-0.076	0.063
-413.398	374.691	0.073	-0.148
-412.384	372.839	-0.046	0.094
-411.369	800.000	0.026	0.103
-410.355	-40.973	-0.353	-0.182
-409.340	-87.416	0.077	0.023
-408.325	-200.000	0.075	0.476
-407.311	-200.000	-0.005	0.109
-406.296	-129.732	0.073	0.010
-405.282	-200.000	-0.012	0.364
-404.267	-112.387	-0.220	-0.044
-403.252	19.594	0.220	0.177
-402.238	453.907	-0.093	0.206
-401.223	277.223	0.138	0.245
-400.209	300.397	-0.144	-0.264
-399.194	28.131	-0.112	0.095
-398.179	-45.482	0.226	0.112
-397.165	-94.828	-0.162	0.044
-396.150	800.000	0.022	0.078
-395.136	-83.618	-0.187	-0.059
-394.121	267.737	0.086	0.150
-393.106	510.886	-0.125	-0.290
-392.092	-30.024	-0.097	-0.055
-391.077	396.468	0.055	0.115
-390.063	-114.974	0.257	0.049
-389.048	-200.000	-0.063	0.342
-388.033	-49.595	-0.017	-0.008
-387.019	800.000	-0.125	-0.480
-386.004	393.856	0.116	-0.242
-384.990	-119.085	-0.181	-0.032
-383.975	73.109	0.069	-0.072
-382.960	162.133	-0.152	0.213
-381.946	-96.070	-0.394	0.104
-380.931	167.172	0.275	0.390
-379.917	198.169	-0.174	0.266
-378.902	4.479	0.305	0.223
-377.888	155.103	-0.181	-0.248
-376.873	64.083	-0.089	-0.089
-375.858	-89.660	-0.189	-0.055
-374.844	-110.090	0.159	0.033
-373.829	-200.000	-0.026	-0.163
-372.815	-96.940	0.250	-0.065
-371.800	-200.000	-0.042	0.383
-370.785	-177.707	-0.254	-0.006
-369.771	149.308	-0.136	0.184
-368.756	-127.907	0.344	0.049
-367.742	-93.454	0.159	0.044
-366.727	-200.000	0.029	0.177
-365.712	-195.342	-0.173	-0.001
-364.698	113.400	-0.043	0.052
-363.683	-200.000	0.009	-0.289
-362.669	94.614	-0.208	-0.235
-361.654	-142.287	-0.204	-0.020
-360.639	-185.236	0.262	-0.004
-359.625	-200.000	0.029	0.227
-358.610	145.577	-0.116	-0.155
-357.596	121.513	0.040	-0.050
-356.581	-144.149	-0.283	0.026
-355.566	-78.131	-0.158	0.054
-354.552	800.000	0.024	-0.101
-353.537	463.319	-0.110	0.244
-352.523	54.496	-0.109	0.105
-351.508	-115.587	-0.064	-0.012
-350.493	97.293	0.137	-0.156
-349.479	100.388	0.199	-0.230
-348.464	-152.916	0.389	0.027
-347.450	500.109	0.073	-0.169
-346.435	-200.000	0.009	-0.278
-345.420	-141.915	0.580	0.058
-344.406	494.863	-0.173	-0.396
-343.391	403.256	-0.107	0.223
-342.377	800.000	-0.092	-0.301
-341.362	83.287	0.178	-0.193
-340.348	43.043	0.094	-0.085
-339.333	299.056	0.076	-0.139
-338.318	-17.164	-0.167	-0.105
-337.304	240.134	-0.157	-0.261
-336.289	-52.358	0.100	-0.046
-335.275	-167.949	-0.227	-0.009
-334.260	-10.754	0.258	-0.170
-333.245	-67.135	0.243	-0.095
-332.231	411.343	-0.101	-0.213
-331.216	800.000	0.044	-0.161
-330.202	-88.079	0.448	0.134
-329.187	186.070	0.234	-0.346
-328.172	-60.658	-0.218	0.092
-327.158	-61.245	0.150	0.063
-326.143	-41.287	-0.127	-0.065
-325.129	-200.000	0.028	-0.238
-324.114	603.975	0.054	0.133
-323.099	-94.323	-0.232	-0.063
-322.085	223.393	0.119	-0.190
-321.070	-80.103	0.092	0.031
-320.056	800.000	0.116	0.318
-319.041	163.715	0.090	-0.126
-318.026	-93.958	-0.266	-0.073
-317.012	-117.782	-0.352	-0.063
-315.997	738.856	-0.058	-0.156
-314.983	136.690	0.168	-0.219
-313.968	206.510	0.135	-0.209
-312.953	-118.302	0.166	0.029
-311.939	-77.065	-0.045	-0.015
-310.924	-200.000	-0.017	-0.207
-309.910	-6.443	-0.198	-0.134
-308.895	800.000	-0.163	-0.475
-307.880	-200.000	-0.005	-0.247
-306.866	314.543	-0.095	0.178
-305.851	-130.550	0.275	0.037
-304.837	-200.000	0.027	-0.170
-303.822	-148.118	0.100	0.008
-302.807	-17.966	0.230	-0.144
-301.793	-134.997	0.252	-0.030
-300.778	11.254	-0.080	-0.061
-299.764	11.160	-0.106	-0.081
-298.749	152.452	-0.053	-0.072
-297.735	184.974	-0.280	0.413
-296.720	800.000	-0.072	0.293
-295.705	-57.006	0.203	0.089
-294.691	490.730	-0.135	0.308
-293.676	459.240	0.059	0.130
-292.662	16.428	0.236	-0.185
-291.647	-83.525	-0.096	-0.030
-290.632	-186.284	-0.151	-0.002
-289.618	-200.000	-0.003	-0.216
-288.603	-120.091	0.236	0.040
-287.589	-200.000	-0.001	0.085
-286.574	-90.774	0.158	0.045
-285.559	-51.199	0.201	-0.093
-284.545	493.625	-0.062	0.142
-283.530	-71.026	-0.160	0.060
-282.516	232.032	0.104	-0.170
-281.501	800.000	-0.021	-0.063
-280.486	-200.000	-0.036	0.501
-279.472	51.379	0.205	0.193
-278.457	251.572	-0.128	-0.215
-277.443	417.996	-0.086	-0.183
-276.428	140.010	0.141	-0.185
-275.413	800.000	0.068	0.192
-274.399	268.197	0.069	0.120
-273.384	-200.000	-0.026	-0.297
-272.370	150.819	-0.047	0.063
-271.355	-200.000	0.020	-0.194
-270.340	127.471	0.146	0.184
-269.326	-113.599	-0.240	0.047
-268.311	248.323	0.038	0.064
-267.297	15.841	-0.077	-0.060
-266.282	207.948	0.269	-0.417
-265.267	109.312	-0.093	-0.111
-264.253	-200.000	0.073	0.484
-263.238	-84.159	-0.290	-0.091
-262.224	-200.000	-0.023	-0.258
-261.209	5.575	0.108	0.079
-260.195	-200.000	0.016	0.153
-259.180	-31.378	0.201	-0.112
-258.165	800.000	0.040	0.155
-257.151	-72.629	0.077	0.028
-256.136	-24.364	0.304	0.180
-255.122	-33.392	0.190	-0.104
-254.107	800.000	-0.038	-0.159
-253.092	-121.325	0.287	0.048
-252.078	40.827	0.209	0.187
-251.063	-200.000	-0.001	-0.319
-250.049	341.303	-0.085	-0.166
-249.034	-121.729	0.148	-0.024
-248.019	33.246	0.179	-0.154
-247.005	522.368	0.082	-0.191
-245.990	-19.192	0.215	-0.133
-244.976	213.072	0.055	-0.086
-243.961	-200.000	-0.011	0.207
-242.946	464.629	-0.112	0.249
-241.932	397.542	0.043	-0.088
-240.917	-200.000	-0.045	0.260
-239.903	-149.542	-0.152	0.012
-238.888	-10.457	-0.109	-0.072
-237.873	-200.000	-0.035	0.463
-236.859	17.315	0.133	-0.105
-235.844	105.132	-0.134	0.156
-234.830	42.999	-0.280	-0.253
-233.815	312.710	0.067	0.125
-232.800	55.699	0.046	-0.044
-231.786	99.773	-0.234	0.268
-230.771	-200.000	-0.033	0.210
-229.757	228.827	0.067	0.108
-228.742	17.341	-0.126	-0.099
-227.727	-100.847	-0.380	0.093
-226.713	-200.000	0.002	0.037
-225.698	243.742	-0.260	-0.432
-224.684	-188.475	0.524	0.006
-223.669	-200.000	-0.000	-0.314
-222.655	78.094	-0.094	0.099
-221.640	96.324	0.098	0.112
-220.625	20.031	0.088	0.071
-219.611	-78.318	0.105	0.036
-218.596	108.768	0.189	0.224
-217.582	-0.178	0.160	-0.113
-216.567	312.776	-0.069	-0.129
-215.552	800.000	0.043	-0.148
-214.538	53.389	-0.192	-0.182
-213.523	-108.360	-0.220	0.047
-212.509	-115.232	-0.275	0.052
-211.494	-84.193	0.404	0.127
-210.479	-200.000	0.006	-0.039
-209.465	291.791	-0.096	0.173
-208.450	-200.000	-0.026	0.228
-207.436	-65.782	-0.272	-0.108
-206.421	70.455	0.208	0.213
-205.406	-157.683	-0.290	0.017
-204.392	124.062	0.335	-0.417
-203.377	-200.000	0.026	-0.205
-202.363	-200.000	0.031	0.174
-201.348	-54.155	0.260	0.117
-200.333	59.882	0.097	0.095
-199.319	-88.013	0.266	0.079
-198.304	-200.000	0.032	0.194
-197.290	-132.986	-0.121	-0.015
-196.275	800.000	0.041	0.174
-195.260	-149.946	-0.267	0.021
-194.246	607.626	0.127	0.315
-193.231	7.977	-0.245	0.182
-192.217	800.000	0.107	0.316
-191.202	-200.000	0.026	-0.194
-190.187	528.321	-0.197	-0.460
-189.173	-15.305	-0.090	0.057
-188.158	-200.000	-0.030	0.172
-187.144	-135.683	-0.204	0.024
-186.129	-61.977	0.083	0.034
-185.114	-200.000	0.040	-0.176
-184.100	30.741	0.092	0.078
-183.085	-8.139	0.164	0.109
-182.071	351.008	0.148	-0.290
-181.056	-200.000	0.043	0.219
-180.042	-133.757	0.166	0.020
-179.027	-200.000	0.034	0.170
-178.012	-54.060	0.214	-0.096
-176.998	16.477	0.224	0.175
-175.983	144.205	-0.036	0.048
-174.969	-200.000	0.037	-0.267
-173.954	-53.927	0.169	0.076
-172.939	-121.110	-0.055	-0.009
-171.925	110.943	-0.384	-0.457
-170.910	-156.332	-0.138	-0.009
-169.896	66.006	-0.106	0.107
-168.881	58.715	-0.095	-0.093
-167.866	-95.473	0.112	-0.030
-166.852	13.730	-0.055	-0.042
-165.837	763.813	-0.102	0.275
-164.823	99.785	0.136	0.156
-163.808	64.981	-0.166	0.165
-162.793	101.371	-0.070	0.080
-161.779	-200.000	0.008	0.164
-160.764	3.150	-0.039	0.028
-159.750	214.909	0.144	0.226
-158.735	-95.514	-0.432	-0.114
-157.720	-19.274	0.254	-0.156
-156.706	-43.798	0.223	0.111
-155.691	192.996	-0.070	0.104
-154.677	62.901	-0.065	0.065
-153.662	57.889	0.190	-0.184
-152.647	-134.080	0.268	-0.033
-151.633	-150.847	0.405	0.030
-150.618	-78.788	-0.173	-0.058
-149.604	34.558	-0.191	-0.165
-148.589	142.107	0.186	-0.244
-147.574	167.780	-0.249	-0.350
-146.560	157.811	0.054	0.074
-145.545	135.721	-0.145	0.187
-144.531	14.629	0.193	0.149
-143.516	-110.589	0.142	0.029
-142.502	7.943	-0.258	0.191
-141.487	139.521	-0.117	0.152
-140.472	107.425	0.028	0.032
-139.458	200.177	-0.202	0.307
-138.443	-200.000	-0.282	0.000
-137.429	-200.000	-0.022	0.320
-136.414	800.000	-0.024	0.091
-135.399	-200.000	-0.021	-0.129
-134.385	8.663	0.173	0.129
-133.370	32.229	-0.261	-0.222
-132.356	-33.446	0.159	-0.087
-131.341	-191.484	-0.280	0.003
-130.326	-36.269	-0.298	0.159
-129.312	-200.000	0.066	0.447
-128.297	398.066	0.172	0.355
-127.283	800.000	-0.056	-0.178
-126.268	361.938	0.099	0.196
-125.253	-87.448	-0.453	-0.135
-124.239	-76.200	-0.106	0.037
-123.224	710.349	-0.103	0.268
-122.210	-101.947	-0.325	-0.077
-121.195	-200.000	-0.014	0.156
