DTS Sentinel unit serial number:	SN413079Multiplexer serial number:	ORYXHardware model number:	OX4-SRSoftware version number:	ORYX F/W v4.00 Oryx Data Collector v3.7.2.0data status	okinstallation	princeton_trtdifferential loss correction	single-endedforward channel	channel 4reverse channel	N/Adate	2019/09/15time	22:53:34forward acquisition time	60.00reverse acquisition time	0.00gamma	496.2192k internal	0.2321k external	0.2321temperature offset calibration	0.9956default loss term (dB/km)	0.3790temperature slope calibration	1.0000multiplexer offset coefficient	1.0000multiplexer slope coefficient	1.0000fibre end	0.00T internal ref (°C)	28.69T ext. ref 1 (°C)	8.91T ext. ref 2 (°C)	22.26length (m)	temperature (°C)	Stokes	anti-Stokes-747.200	-129.128	0.255	0.036
-746.185	-200.000	-0.024	0.145
-745.171	-200.000	0.037	-0.255
-744.156	-13.790	0.104	0.068
-743.142	-200.000	-0.043	-0.231
-742.127	-200.000	0.009	-0.050
-741.112	-200.000	-0.062	0.486
-740.098	205.197	-0.217	0.340
-739.083	-200.000	0.027	0.262
-738.069	-53.885	-0.099	0.045
-737.054	-25.237	0.156	0.094
-736.039	-200.000	0.031	0.281
-735.025	7.331	0.109	0.082
-734.010	-75.866	-0.528	-0.189
-732.996	76.384	-0.277	-0.296
-731.981	731.583	0.075	-0.203
-730.966	7.442	0.229	-0.173
-729.952	-163.369	-0.145	-0.007
-728.937	-95.735	-0.317	0.086
-727.923	-143.770	0.322	0.031
-726.908	-200.000	0.025	0.350
-725.894	-200.000	-0.025	-0.425
-724.879	-200.000	0.016	0.095
-723.864	123.276	-0.128	0.162
-722.850	-200.000	0.005	-0.086
-721.835	-60.014	-0.436	-0.188
-720.821	-155.554	-0.116	0.008
-719.806	-200.000	-0.086	-0.476
-718.791	448.782	0.154	-0.342
-717.777	130.846	-0.115	0.149
-716.762	-200.000	0.029	-0.151
-715.748	129.729	0.176	0.227
-714.733	-126.621	-0.107	0.016
-713.718	-91.475	-0.195	0.056
-712.704	800.000	-0.070	-0.228
-711.689	-87.576	-0.151	-0.046
-710.675	132.099	-0.172	0.224
-709.660	364.539	0.096	0.195
-708.645	95.267	-0.059	0.068
-707.631	-124.094	-0.398	-0.063
-706.616	-50.718	0.528	-0.251
-705.602	232.995	0.105	0.174
-704.587	-92.551	-0.211	-0.060
-703.572	-154.129	-0.086	0.006
-702.558	-200.000	0.005	0.495
-701.543	159.324	0.049	0.069
-700.529	55.044	-0.090	0.087
-699.514	-142.348	0.307	-0.031
-698.499	168.584	0.097	0.139
-697.485	-140.500	-0.201	-0.021
-696.470	436.876	-0.062	-0.136
-695.456	-200.000	0.041	-0.372
-694.441	-90.587	-0.189	0.055
-693.426	-129.874	0.117	-0.016
-692.412	-64.811	-0.297	0.121
-691.397	301.433	0.124	-0.231
-690.383	-23.608	0.135	-0.082
-689.368	-200.000	-0.039	-0.405
-688.354	800.000	0.042	-0.158
-687.339	-42.617	0.084	0.043
-686.324	4.254	-0.156	0.115
-685.310	600.614	0.043	0.108
-684.295	-200.000	-0.077	0.350
-683.281	-75.432	-0.250	-0.090
-682.266	4.707	0.071	-0.052
-681.251	-200.000	-0.088	-0.440
-680.237	-200.000	0.043	-0.267
-679.222	162.731	0.066	-0.094
-678.208	-3.144	-0.261	0.183
-677.193	-29.814	-0.152	0.087
-676.178	800.000	0.028	-0.121
-675.164	432.882	0.134	-0.292
-674.149	94.863	0.060	0.069
-673.135	-122.264	-0.175	0.029
-672.120	-37.160	0.115	-0.062
-671.105	800.000	-0.050	-0.208
-670.091	-11.259	0.155	0.103
-669.076	-200.000	0.016	0.129
-668.062	37.767	-0.248	-0.222
-667.047	384.451	-0.131	-0.272
-666.032	-101.076	0.026	-0.006
-665.018	800.000	0.088	-0.257
-664.003	66.547	0.163	-0.167
-662.989	-41.119	-0.006	-0.003
-661.974	-83.803	-0.198	-0.064
-660.959	-153.959	0.098	-0.007
-659.945	800.000	0.050	0.169
-658.930	-99.966	0.073	-0.018
-657.916	-61.915	-0.265	0.112
-656.901	-43.499	-0.211	-0.107
-655.886	-200.000	0.055	0.274
-654.872	-200.000	0.001	-0.028
-653.857	-34.349	0.128	-0.071
-652.843	289.561	-0.010	-0.018
-651.828	-106.144	0.188	-0.043
-650.814	329.544	0.081	-0.156
-649.799	140.902	-0.065	0.087
-648.784	-160.100	0.105	0.006
-647.770	800.000	-0.121	-0.382
-646.755	-200.000	-0.018	0.194
-645.741	121.404	-0.215	0.270
-644.726	-14.738	0.216	-0.140
-643.711	-50.295	0.173	-0.082
-642.697	-105.221	0.138	-0.032
-641.682	-137.506	-0.111	0.013
-640.668	29.482	-0.244	-0.208
-639.653	-200.000	0.004	0.166
-638.638	-3.556	-0.226	-0.158
-637.624	-61.043	-0.044	0.019
-636.609	800.000	0.058	0.171
-635.595	-82.136	-0.147	0.048
-634.580	-72.465	-0.242	-0.090
-633.565	667.938	0.189	-0.491
-632.551	-122.925	0.289	0.047
-631.536	11.645	-0.383	0.296
-630.522	-65.201	0.437	0.177
-629.507	800.000	0.031	-0.111
-628.492	602.729	0.054	-0.136
-627.478	-200.000	-0.042	-0.290
-626.463	313.093	-0.174	0.330
-625.449	-20.857	0.096	-0.059
-624.434	-200.000	0.001	-0.081
-623.419	-145.519	-0.373	0.034
-622.405	306.319	0.109	0.203
-621.390	84.856	-0.188	0.207
-620.376	26.396	0.385	0.323
-619.361	-200.000	0.015	0.278
-618.346	-200.000	-0.045	-0.328
-617.332	-175.945	-0.094	-0.003
-616.317	121.359	0.196	-0.245
-615.303	625.048	-0.150	-0.379
-614.288	-183.934	-0.015	0.000
-613.273	264.077	-0.061	0.107
-612.259	-64.146	0.209	-0.086
-611.244	55.761	0.221	0.215
-610.230	162.067	0.087	0.123
-609.215	749.887	0.033	0.088
-608.201	800.000	0.118	-0.352
-607.186	235.755	0.094	0.155
-606.171	-148.387	0.076	-0.006
-605.157	-113.662	0.237	-0.047
-604.142	54.009	0.188	0.182
-603.128	121.624	0.131	0.165
-602.113	-94.226	-0.276	0.076
-601.098	66.283	-0.154	0.158
-600.084	-161.605	0.090	-0.005
-599.069	84.059	0.102	0.112
-598.055	351.443	0.053	0.106
-597.040	152.695	0.116	0.160
-596.025	800.000	0.127	-0.497
-595.011	-200.000	0.021	-0.288
-593.996	306.139	0.208	-0.389
-592.982	140.324	0.018	0.024
-591.967	-200.000	-0.034	-0.399
-590.952	291.414	-0.121	0.221
-589.938	108.173	-0.339	0.407
-588.923	241.511	-0.224	-0.375
-587.909	-170.139	0.076	-0.003
-586.894	247.730	-0.024	-0.041
-585.879	171.732	0.085	0.122
-584.865	629.853	0.117	0.297
-583.850	-138.680	-0.168	-0.018
-582.836	800.000	-0.034	-0.125
-581.821	-88.965	0.173	-0.051
-580.806	539.159	0.098	0.234
-579.792	-172.986	-0.266	0.008
-578.777	800.000	-0.061	-0.240
-577.763	-66.906	-0.216	0.086
-576.748	-65.804	0.093	-0.037
-575.733	363.777	-0.193	-0.389
-574.719	-27.342	0.055	0.032
-573.704	93.796	0.111	0.127
-572.690	-200.000	0.068	0.441
-571.675	-200.000	-0.032	0.184
-570.661	-61.593	0.249	-0.105
-569.646	-144.090	-0.234	-0.022
-568.631	-180.453	0.364	0.008
-567.617	-200.000	-0.010	-0.279
-566.602	113.393	-0.214	0.260
-565.588	-137.598	-0.097	0.011
-564.573	-151.973	0.121	-0.009
-563.558	286.636	0.170	0.308
-562.544	498.419	-0.078	-0.181
-561.529	-114.920	0.152	0.029
-560.515	-129.877	-0.036	0.005
-559.500	4.198	-0.233	-0.171
-558.485	141.193	0.236	-0.313
-557.471	-200.000	-0.092	0.567
-556.456	-135.246	-0.135	-0.016
-555.442	138.028	0.142	-0.187
-554.427	-163.906	0.376	-0.018
-553.412	-200.000	-0.001	0.018
-552.398	-0.589	-0.292	-0.208
-551.383	800.000	0.065	0.188
-550.369	461.872	0.108	-0.242
-549.354	50.045	-0.190	0.179
-548.339	128.299	-0.114	-0.146
-547.325	275.096	0.065	-0.115
-546.310	-70.606	-0.155	0.059
-545.296	154.015	0.104	0.143
-544.281	-200.000	-0.082	-0.497
-543.266	77.397	-0.234	0.250
-542.252	-200.000	0.017	0.152
-541.237	-27.355	-0.112	-0.066
-540.223	211.699	-0.179	-0.283
-539.208	-77.655	-0.084	0.029
-538.193	-29.006	-0.386	0.222
-537.179	102.739	0.027	-0.031
-536.164	-34.581	0.080	-0.044
-535.150	-200.000	-0.010	-0.066
-534.135	-35.190	0.242	-0.132
-533.121	800.000	-0.130	0.372
-532.106	-53.523	-0.234	-0.107
-531.091	-165.742	-0.309	-0.013
-530.077	800.000	-0.045	-0.145
-529.062	328.307	-0.039	0.076
-528.048	800.000	-0.079	0.234
-527.033	696.184	0.020	0.054
-526.018	45.880	0.221	0.205
-525.004	55.808	-0.110	0.107
-523.989	-200.000	-0.035	0.157
-522.975	800.000	0.061	0.251
-521.960	67.967	0.095	-0.098
-520.945	800.000	0.060	0.220
-519.931	277.781	0.054	0.096
-518.916	389.233	-0.082	0.171
-517.902	-4.223	0.026	-0.018
-516.887	-118.719	-0.208	-0.037
-515.872	34.839	-0.261	0.228
-514.858	383.309	0.273	-0.562
-513.843	130.620	-0.079	-0.102
-512.829	117.973	0.106	-0.130
-511.814	-118.741	0.193	0.034
-510.799	115.045	-0.182	-0.222
-509.785	-131.877	-0.316	0.041
-508.770	-39.987	0.235	-0.123
-507.756	48.750	0.193	-0.181
-506.741	27.437	0.069	0.058
-505.726	800.000	0.074	-0.251
-504.712	-200.000	-0.018	0.301
-503.697	120.734	0.145	-0.181
-502.683	32.189	-0.157	-0.136
-501.668	-200.000	0.015	0.109
-500.653	-128.110	-0.361	0.052
-499.639	-200.000	-0.003	0.192
-498.624	-23.957	0.248	-0.148
-497.610	-57.192	-0.209	0.092
-496.595	20.023	0.237	-0.191
-495.581	-200.000	0.073	0.356
-494.566	-146.012	0.154	0.014
-493.551	-62.948	0.426	0.176
-492.537	117.130	-0.035	-0.043
-491.522	580.531	-0.084	0.207
-490.508	-111.004	0.219	-0.045
-489.493	109.545	-0.294	-0.353
-488.478	688.380	0.058	0.153
-487.464	-114.699	0.414	-0.079
-486.449	-170.876	0.213	-0.007
-485.435	35.787	-0.255	0.225
-484.420	290.802	0.151	0.275
-483.405	-72.962	-0.078	0.029
-482.391	-20.935	0.075	-0.046
-481.376	-200.000	-0.002	0.087
-480.362	280.416	-0.063	-0.113
-479.347	188.663	-0.133	0.200
-478.332	25.282	0.237	0.197
-477.318	-171.352	-0.230	-0.008
-476.303	141.062	0.160	-0.211
-475.289	247.422	0.092	-0.156
-474.274	-98.182	-0.142	0.036
-473.259	-137.923	-0.191	-0.021
-472.245	-75.182	-0.175	0.063
-471.230	-107.596	-0.056	0.012
-470.216	-57.601	0.113	-0.049
-469.201	-33.080	-0.342	0.190
-468.186	-62.871	-0.041	0.017
-467.172	201.680	-0.129	-0.198
-466.157	196.137	-0.213	0.324
-465.143	-53.099	0.318	-0.146
-464.128	-200.000	-0.026	0.122
-463.113	-145.225	-0.280	0.025
-462.099	800.000	0.125	-0.352
-461.084	800.000	0.033	0.136
-460.070	-94.759	-0.176	0.048
-459.055	13.297	0.122	0.094
-458.040	156.202	-0.154	0.212
-457.026	-141.674	0.115	0.012
-456.011	504.472	-0.047	0.108
-454.997	-41.432	0.496	-0.255
-453.982	-200.000	-0.009	-0.150
-452.968	-200.000	-0.033	0.236
-451.953	371.018	0.156	0.317
-450.938	-200.000	-0.010	-0.098
-449.924	-132.072	0.092	0.012
-448.909	800.000	0.059	0.200
-447.895	-200.000	0.040	-0.313
-446.880	-106.443	0.264	-0.059
-445.865	174.922	0.107	0.154
-444.851	-54.140	0.150	-0.068
-443.836	127.650	0.052	-0.066
-442.822	-135.040	-0.332	0.040
-441.807	-81.912	-0.255	0.083
-440.792	-42.715	-0.273	0.139
-439.778	-79.109	0.197	-0.067
-438.763	-58.099	-0.153	-0.067
-437.749	-200.000	-0.049	-0.293
-436.734	132.951	0.179	-0.231
-435.719	476.706	-0.120	0.270
-434.705	800.000	0.035	0.118
-433.690	800.000	0.037	-0.121
-432.676	-200.000	0.041	-0.253
-431.661	446.068	-0.072	-0.158
-430.646	-47.098	0.479	-0.233
-429.632	-79.291	-0.172	0.058
-428.617	-34.232	0.384	-0.211
-427.603	198.398	-0.124	0.190
-426.588	367.866	-0.038	-0.076
-425.573	267.098	-0.090	0.157
-424.559	361.997	-0.022	-0.044
-423.544	-129.542	0.314	-0.043
-422.530	-96.022	0.299	0.079
-421.515	268.788	0.092	0.161
-420.500	-200.000	-0.019	-0.123
-419.486	375.174	0.019	0.038
-418.471	-105.231	0.358	-0.082
-417.457	744.406	-0.047	0.125
-416.442	101.260	-0.101	-0.118
-415.428	-115.596	0.352	-0.066
-414.413	-148.887	0.236	0.019
-413.398	-200.000	-0.002	-0.067
-412.384	202.316	0.170	0.261
-411.369	800.000	0.075	-0.318
-410.355	71.150	-0.243	-0.252
-409.340	-200.000	-0.313	0.001
-408.325	-0.849	0.140	-0.099
-407.311	800.000	0.123	0.382
-406.296	665.786	-0.070	-0.180
-405.282	769.793	-0.086	0.232
-404.267	-28.001	-0.250	0.144
-403.252	-61.924	-0.210	-0.088
-402.238	194.761	0.053	-0.080
-401.223	-94.454	0.207	0.056
-400.209	800.000	0.090	-0.283
-399.194	-74.047	-0.165	-0.060
-398.179	147.771	-0.142	0.190
-397.165	105.931	-0.138	0.163
-396.150	60.456	-0.260	-0.257
-395.136	275.517	-0.100	0.177
-394.121	1.669	-0.330	0.237
-393.106	-50.323	0.120	0.057
-392.092	-16.116	0.287	-0.182
-391.077	274.894	0.098	-0.174
-390.063	-142.291	-0.282	0.028
-389.048	-151.332	0.065	0.005
-388.033	83.894	0.313	-0.340
-387.019	-177.108	-0.332	0.008
-386.004	26.208	0.202	0.168
-384.990	-46.973	-0.234	0.114
-383.975	-200.000	0.020	-0.152
-382.960	43.858	-0.175	0.160
-381.946	-126.001	0.053	-0.008
-380.931	-200.000	0.002	-0.099
-379.917	48.918	-0.400	0.374
-378.902	146.403	-0.103	0.138
-377.888	-67.572	0.165	-0.065
-376.873	-132.150	0.257	-0.033
-375.858	227.088	-0.134	0.217
-374.844	800.000	0.033	-0.117
-373.829	-100.553	0.221	-0.054
-372.815	800.000	-0.163	0.468
-371.800	-136.120	-0.069	0.008
-370.785	434.871	0.105	-0.228
-369.771	364.057	0.155	0.311
-368.756	76.459	-0.179	-0.189
-367.742	-200.000	-0.033	0.195
-366.727	-37.559	-0.128	0.068
-365.712	420.435	0.040	-0.086
-364.698	800.000	0.038	-0.156
-363.683	-32.135	0.235	0.131
-362.669	800.000	0.118	-0.390
-361.654	-54.537	0.308	-0.139
-360.639	-54.507	-0.342	-0.154
-359.625	397.006	0.115	0.239
-358.610	800.000	-0.031	0.131
-357.596	-90.306	0.259	0.075
-356.581	-114.593	0.196	-0.037
-355.566	-128.197	-0.133	-0.019
-354.552	86.568	0.135	0.149
-353.537	173.969	0.112	0.161
-352.523	-160.228	0.306	-0.016
-351.508	-5.954	-0.061	0.042
-350.493	8.088	-0.263	0.196
-349.479	800.000	-0.058	0.172
-348.464	-200.000	-0.011	0.209
-347.450	-200.000	0.005	0.026
-346.435	234.527	0.126	0.207
-345.420	-173.322	0.264	-0.008
-344.406	-69.521	-0.196	0.075
-343.391	-85.981	-0.177	0.055
-342.377	-200.000	-0.043	-0.326
-341.362	410.534	0.089	-0.189
-340.348	-147.902	0.488	-0.041
-339.333	-44.621	-0.114	-0.057
-338.318	72.714	-0.125	-0.130
-337.304	-44.180	0.136	0.068
-336.289	800.000	0.091	-0.257
-335.275	286.065	0.213	-0.382
-334.260	800.000	-0.061	-0.179
-333.245	530.560	-0.135	-0.318
-332.231	-35.312	0.067	-0.037
-331.216	-200.000	0.002	-0.104
-330.202	-200.000	-0.031	0.166
-329.187	-40.291	-0.243	0.126
-328.172	161.376	0.097	0.135
-327.158	20.881	-0.166	0.134
-326.143	-200.000	0.009	-0.232
-325.129	28.225	-0.047	0.040
-324.114	-146.786	0.379	0.033
-323.099	-120.452	0.126	0.021
-322.085	-200.000	-0.011	0.117
-321.070	-125.915	-0.230	-0.034
-320.056	800.000	0.031	-0.133
-319.041	-38.266	-0.184	-0.097
-318.026	-92.954	0.208	0.058
-317.012	-124.535	-0.223	-0.035
-315.997	-200.000	0.382	-0.001
-314.983	105.968	0.198	0.233
-313.968	-89.254	0.339	-0.099
-312.953	-200.000	0.014	0.091
-311.939	-200.000	0.050	-0.321
-310.924	-200.000	0.005	-0.229
-309.910	-39.476	0.122	-0.064
-308.895	204.409	-0.141	0.218
-307.880	-44.125	0.167	-0.084
-306.866	-200.000	0.009	-0.234
-305.851	-47.817	-0.221	0.106
-304.837	-200.000	0.024	0.293
-303.822	-200.000	-0.054	-0.265
-302.807	-115.785	-0.234	-0.043
-301.793	-79.127	-0.274	0.092
-300.778	-139.612	-0.027	0.003
-299.764	-105.292	0.200	0.045
-298.749	8.756	-0.155	0.116
-297.735	800.000	-0.055	-0.179
-296.720	34.362	0.221	0.192
-295.705	-29.905	0.145	-0.082
-294.691	352.434	-0.074	-0.146
-293.676	-73.501	0.066	0.024
-292.662	-125.168	0.362	-0.055
-291.647	329.129	0.106	-0.203
-290.632	126.236	0.203	0.255
-289.618	48.213	0.184	-0.171
-288.603	293.760	0.134	-0.243
-287.589	177.924	0.027	0.040
-286.574	14.471	0.114	0.089
-285.559	190.978	0.036	0.053
-284.545	-85.716	-0.168	-0.052
-283.530	-34.015	0.150	-0.082
-282.516	283.461	-0.161	-0.288
-281.501	-200.000	-0.027	-0.443
-280.486	-113.595	-0.112	-0.022
-279.472	572.769	0.053	-0.127
-278.457	-32.312	0.307	-0.170
-277.443	-90.693	0.109	-0.031
-276.428	-200.000	0.019	0.486
-275.413	-66.089	-0.174	0.069
-274.399	368.935	-0.030	0.060
-273.384	-2.064	0.192	0.134
-272.370	-51.205	-0.305	-0.142
-271.355	-158.033	-0.257	-0.015
-270.340	-23.455	0.291	-0.174
-269.326	800.000	-0.155	-0.445
-268.311	1.049	0.191	0.136
-267.297	-200.000	-0.020	-0.177
-266.282	-59.133	0.167	-0.072
-265.267	-200.000	-0.055	-0.264
-264.253	-24.945	-0.085	0.050
-263.238	-85.684	0.189	0.058
-262.224	249.357	-0.106	0.179
-261.209	675.792	-0.059	0.153
-260.195	351.966	0.040	0.078
-259.180	-119.969	0.281	-0.048
-258.165	-145.145	0.265	-0.024
-257.151	48.577	-0.246	0.229
-256.136	260.773	0.059	0.101
-255.122	-200.000	-0.051	-0.356
-254.107	-200.000	-0.154	0.000
-253.092	19.904	-0.228	0.182
-252.078	-59.287	0.182	0.078
-251.063	12.781	-0.305	0.234
-250.049	765.040	-0.010	0.026
-249.034	51.523	0.120	-0.113
-248.019	50.593	-0.216	-0.203
-247.005	-200.000	0.011	-0.082
-245.990	442.959	0.090	-0.195
-244.976	-135.453	-0.249	-0.029
-243.961	800.000	0.103	-0.296
-242.946	-200.000	-0.012	-0.083
-241.932	-30.248	0.042	-0.024
-240.917	-12.303	-0.443	-0.287
-239.903	-61.051	-0.139	0.058
-238.888	-38.117	-0.094	-0.049
-237.873	55.390	-0.153	-0.147
-236.859	-60.083	0.194	-0.082
-235.844	-130.106	0.061	0.008
-234.830	-161.871	0.225	-0.011
-233.815	-38.906	-0.155	0.081
-232.800	115.911	0.066	-0.080
-231.786	-176.100	0.334	-0.009
-230.771	-200.000	0.008	-0.047
-229.757	-16.385	-0.376	0.236
-228.742	90.447	-0.181	0.201
-227.727	-200.000	-0.007	0.259
-226.713	-112.774	-0.181	0.036
-225.698	-139.977	0.105	0.011
-224.684	196.308	-0.099	0.150
-223.669	-51.747	0.324	0.150
-222.655	26.499	-0.228	0.189
-221.640	56.869	0.041	-0.040
-220.625	279.149	0.108	0.191
-219.611	18.839	-0.289	0.229
-218.596	-45.021	0.143	0.071
-217.582	109.977	0.043	-0.051
-216.567	16.828	0.088	-0.069
-215.552	-50.322	-0.368	0.172
-214.538	-14.438	-0.218	-0.139
-213.523	800.000	0.075	-0.275
-212.509	-25.604	0.049	0.029
-211.494	151.688	-0.139	0.188
-210.479	-130.542	0.243	-0.033
-209.465	-56.684	0.029	0.013
-208.450	-200.000	0.002	-0.146
-207.436	-96.166	0.098	0.026
-206.421	18.972	-0.191	0.151
-205.406	-156.829	-0.268	0.016
-204.392	209.353	-0.254	0.394
-203.377	-18.200	0.148	0.092
-202.363	-86.540	-0.503	0.153
-201.348	-200.000	0.017	-0.102
-200.333	-200.000	-0.021	-0.094
-199.319	-74.930	-0.452	-0.160
-198.304	10.511	-0.241	-0.182
-197.290	208.871	0.135	0.210
-196.275	-78.118	-0.218	0.074
-195.260	-85.415	-0.112	-0.035
-194.246	44.605	-0.250	-0.227
-193.231	-200.000	0.005	0.215
-192.217	-90.835	-0.113	0.032
-191.202	-200.000	-0.020	-0.321
-190.187	-5.483	0.407	0.277
-189.173	-19.520	-0.142	0.087
-188.158	-72.103	-0.418	0.154
-187.144	800.000	-0.105	-0.329
-186.129	267.337	0.125	0.217
-185.114	-38.627	0.138	0.072
-184.100	-120.663	0.169	-0.028
-183.085	-96.753	-0.321	-0.084
-182.071	800.000	-0.062	0.185
-181.056	-12.491	0.203	0.131
-180.042	558.997	0.189	0.452
-179.027	-42.556	0.310	0.156
-178.012	-141.920	0.189	0.019
-176.998	83.014	-0.090	-0.096
-175.983	768.810	-0.036	-0.096
-174.969	800.000	0.022	-0.081
-173.954	127.123	0.069	-0.086
-172.939	-139.469	-0.448	-0.047
-171.925	-98.449	0.350	-0.089
-170.910	209.374	-0.253	0.392
-169.896	-200.000	-0.007	0.042
-168.881	3.964	0.448	-0.324
-167.866	-102.827	-0.425	0.100
-166.852	-81.649	-0.089	0.029
-165.837	-200.000	0.040	0.356
-164.823	798.562	0.029	-0.080
-163.808	599.011	0.089	-0.217
-162.793	175.260	-0.201	0.288
-161.779	-123.047	-0.478	-0.076
-160.764	152.673	0.124	-0.167
-159.750	-160.355	-0.055	0.003
-158.735	-140.061	-0.254	-0.026
-157.720	-200.000	0.004	-0.238
-156.706	133.486	0.196	-0.251
-155.691	-127.635	-0.159	-0.023
-154.677	374.417	-0.072	0.144
-153.662	-70.909	0.236	-0.088
-152.647	-200.000	0.025	-0.112
-151.633	-81.351	0.262	0.085
-150.618	-6.272	0.118	0.079
-149.604	23.572	0.247	0.200
-148.589	-54.177	-0.038	-0.017
-147.574	800.000	-0.098	0.352
-146.560	275.252	0.022	-0.038
-145.545	119.150	0.173	-0.211
-144.531	193.920	0.151	-0.226
-143.516	17.891	0.191	0.150
-142.502	420.558	-0.126	-0.267
-141.487	-65.190	0.169	0.067
-140.472	-200.000	-0.043	-0.224
-139.458	800.000	-0.131	-0.401
-138.443	106.018	-0.134	0.157
-137.429	83.788	0.105	0.113
-136.414	101.615	0.133	-0.153
-135.399	-200.000	-0.008	-0.274
-134.385	52.152	-0.063	-0.060
-133.370	-200.000	0.006	-0.069
-132.356	77.887	0.397	0.418
-131.341	128.636	-0.120	0.151
-130.326	-131.032	0.377	0.050
-129.312	-200.000	0.002	-0.125
-128.297	800.000	0.040	0.161
-127.283	344.133	0.108	-0.209
-126.268	158.342	-0.154	0.211
-125.253	-200.000	0.013	0.111
-124.239	124.138	0.319	0.395
-123.224	112.856	-0.072	0.086
-122.210	13.978	0.255	0.196
