DTS Sentinel unit serial number:	SN413079Multiplexer serial number:	ORYXHardware model number:	OX4-SRSoftware version number:	ORYX F/W v4.00 Oryx Data Collector v3.7.2.0data status	okinstallation	princeton_trtdifferential loss correction	single-endedforward channel	channel 4reverse channel	N/Adate	2019/09/14time	03:05:35forward acquisition time	60.00reverse acquisition time	0.00gamma	496.2192k internal	0.2322k external	0.2322temperature offset calibration	1.0135default loss term (dB/km)	0.3790temperature slope calibration	1.0000multiplexer offset coefficient	1.0000multiplexer slope coefficient	1.0000fibre end	0.00T internal ref (°C)	26.56T ext. ref 1 (°C)	3.26T ext. ref 2 (°C)	21.65length (m)	temperature (°C)	Stokes	anti-Stokes-747.200	-200.000	0.020	0.148
-746.185	-2.028	-0.305	-0.217
-745.171	800.000	0.018	0.069
-744.156	-200.000	-0.005	0.198
-743.142	176.432	0.078	-0.115
-742.127	800.000	0.054	0.165
-741.112	301.836	0.072	-0.135
-740.098	-109.844	-0.380	-0.081
-739.083	-61.188	-0.364	-0.155
-738.069	-175.475	-0.171	-0.005
-737.054	270.200	-0.211	-0.374
-736.039	-105.396	-0.130	-0.030
-735.025	-159.006	0.244	0.014
-734.010	800.000	-0.069	0.246
-732.996	-138.970	-0.042	0.005
-731.981	-70.413	-0.294	0.113
-730.966	-48.054	-0.065	0.032
-729.952	17.823	0.106	-0.085
-728.937	800.000	-0.062	-0.197
-727.923	85.462	0.077	-0.085
-726.908	344.687	0.020	-0.040
-725.894	109.971	0.089	0.107
-724.879	411.961	-0.200	-0.428
-723.864	800.000	-0.067	-0.224
-722.850	73.381	0.113	0.119
-721.835	74.460	0.208	-0.220
-720.821	559.620	-0.112	0.272
-719.806	-40.385	0.264	0.139
-718.791	800.000	0.039	0.152
-717.777	697.698	-0.086	0.227
-716.762	-87.041	-0.321	0.099
-715.748	-71.554	0.312	-0.118
-714.733	85.126	-0.118	-0.131
-713.718	115.949	-0.242	0.299
-712.704	-162.109	0.041	0.002
-711.689	-118.082	-0.169	-0.030
-710.675	87.714	-0.138	0.154
-709.660	-11.413	0.101	0.067
-708.645	-200.000	-0.036	0.192
-707.631	-1.912	-0.150	0.107
-706.616	-200.000	0.019	-0.299
-705.602	-94.039	-0.238	-0.066
-704.587	-155.809	-0.019	0.001
-703.572	-200.000	-0.020	-0.096
-702.558	-139.485	0.290	0.031
-701.543	-104.036	0.232	-0.054
-700.529	85.652	0.081	0.089
-699.514	213.806	-0.010	-0.017
-698.499	648.007	-0.059	0.153
-697.485	-138.686	-0.261	-0.029
-696.470	-200.000	0.034	-0.308
-695.456	39.822	0.101	-0.092
-694.441	-110.938	0.341	-0.071
-693.426	-200.000	-0.006	-0.101
-692.412	259.940	0.065	-0.114
-691.397	225.263	-0.142	-0.232
-690.383	198.536	-0.118	-0.182
-689.368	-200.000	0.021	-0.276
-688.354	93.146	-0.097	-0.110
-687.339	7.680	0.206	0.156
-686.324	-108.853	0.260	-0.056
-685.310	267.975	-0.093	-0.165
-684.295	18.194	-0.154	0.124
-683.281	-25.754	0.143	-0.085
-682.266	551.228	-0.016	-0.040
-681.251	-200.000	0.029	-0.160
-680.237	667.161	-0.078	-0.203
-679.222	-150.800	-0.177	0.014
-678.208	91.462	-0.160	0.181
-677.193	167.057	0.181	-0.259
-676.178	203.532	0.114	0.178
-675.164	425.784	-0.078	-0.169
-674.149	679.688	-0.009	0.023
-673.135	481.742	-0.018	-0.041
-672.120	25.617	-0.252	0.212
-671.105	-49.662	-0.257	0.123
-670.091	-73.300	-0.044	0.016
-669.076	219.848	0.020	0.032
-668.062	70.033	0.180	-0.187
-667.047	-59.141	-0.129	-0.056
-666.032	207.268	-0.116	-0.182
-665.018	99.788	-0.101	0.118
-664.003	311.671	0.154	-0.291
-662.989	44.140	-0.188	-0.174
-661.974	50.236	0.101	-0.096
-660.959	1.494	-0.302	0.219
-659.945	214.057	-0.064	0.103
-658.930	-11.759	-0.242	0.160
-657.916	5.651	0.333	0.248
-656.901	-98.053	-0.519	-0.135
-655.886	34.545	0.186	-0.164
-654.872	800.000	-0.068	0.210
-653.857	434.516	0.133	0.290
-652.843	-200.000	0.029	-0.155
-651.828	-34.655	0.166	0.091
-650.814	-154.266	-0.122	-0.008
-649.799	-36.085	0.277	0.150
-648.784	154.469	-0.212	0.293
-647.770	110.839	-0.168	0.204
-646.755	-200.000	0.012	-0.372
-645.741	256.348	0.131	-0.226
-644.726	268.431	-0.063	-0.110
-643.711	141.462	0.113	0.151
-642.697	-183.933	-0.225	-0.004
-641.682	-200.000	-0.015	-0.072
-640.668	-200.000	0.044	-0.258
-639.653	-200.000	-0.006	-0.143
-638.638	-119.792	-0.404	0.070
-637.624	228.552	-0.067	-0.110
-636.609	94.053	0.130	-0.148
-635.595	-200.000	0.009	-0.394
-634.580	189.813	-0.086	-0.129
-633.565	-186.195	0.110	-0.002
-632.551	234.802	0.145	-0.240
-631.536	800.000	-0.048	0.179
-630.522	-200.000	-0.010	0.175
-629.507	489.932	-0.033	-0.077
-628.492	-94.006	-0.163	-0.045
-627.478	-200.000	0.001	-0.193
-626.463	-130.645	-0.221	-0.030
-625.449	-200.000	-0.024	-0.266
-624.434	652.469	0.126	-0.325
-623.419	15.737	0.183	-0.145
-622.405	-27.989	0.134	0.078
-621.390	-200.000	0.106	-0.502
-620.376	179.092	0.225	-0.331
-619.361	-27.945	-0.164	-0.096
-618.346	176.890	0.201	-0.294
-617.332	-42.053	0.241	0.124
-616.317	49.533	-0.095	0.090
-615.303	-200.000	-0.015	0.131
-614.288	-96.353	-0.180	0.048
-613.273	-51.230	0.172	0.081
-612.259	67.988	0.089	0.092
-611.244	352.966	-0.126	-0.252
-610.230	-88.213	-0.323	-0.097
-609.215	-200.000	0.021	0.221
-608.201	-160.818	-0.261	0.014
-607.186	590.575	-0.094	-0.232
-606.171	-88.546	0.100	-0.030
-605.157	-200.000	0.043	-0.500
-604.142	-200.000	0.034	0.272
-603.128	-182.999	-0.372	-0.007
-602.113	-36.118	0.020	0.011
-601.098	244.537	-0.111	0.187
-600.084	-165.197	0.205	0.009
-599.069	-200.000	-0.017	-0.112
-598.055	-75.551	0.281	0.100
-597.040	-55.878	-0.200	-0.090
-596.025	-96.725	-0.250	-0.066
-595.011	-200.000	0.019	-0.094
-593.996	-179.913	0.500	0.011
-592.982	11.111	-0.269	0.206
-591.967	800.000	0.049	-0.198
-590.952	-55.804	0.110	-0.050
-589.938	81.863	0.148	-0.161
-588.923	-71.227	-0.060	-0.023
-587.909	-63.638	-0.059	0.024
-586.894	45.072	0.026	0.024
-585.879	-128.545	-0.177	0.025
-584.865	324.141	0.051	0.097
-583.850	-11.070	0.288	0.191
-582.836	-20.270	-0.332	-0.205
-581.821	-200.000	-0.050	-0.222
-580.806	104.286	-0.095	0.112
-579.792	-120.698	0.274	-0.046
-578.777	-200.000	0.057	0.301
-577.763	-200.000	0.006	0.117
-576.748	-98.757	-0.120	-0.031
-575.733	145.858	0.162	0.218
-574.719	77.067	-0.223	0.238
-573.704	-33.160	-0.191	-0.106
-572.690	800.000	0.022	0.078
-571.675	37.412	0.264	0.234
-570.661	-200.000	0.004	-0.129
-569.646	-200.000	-0.001	-0.202
-568.631	-11.926	-0.079	0.052
-567.617	-96.082	0.096	-0.026
-566.602	-173.967	-0.096	0.003
-565.588	-106.758	-0.337	0.075
-564.573	-154.306	0.125	0.008
-563.558	123.426	0.197	-0.248
-562.544	270.984	0.125	0.221
-561.529	70.965	0.167	0.173
-560.515	800.000	0.069	0.281
-559.500	301.724	0.101	-0.186
-558.485	310.898	-0.035	0.065
-557.471	-35.188	0.259	-0.142
-556.456	-118.977	0.190	-0.033
-555.442	-144.634	-0.238	0.022
-554.427	-32.140	0.154	-0.086
-553.412	60.824	-0.216	0.215
-552.398	-200.000	-0.003	0.242
-551.383	-117.967	-0.205	-0.037
-550.369	207.628	0.167	0.262
-549.354	798.384	0.062	0.172
-548.339	503.459	0.088	0.205
-547.325	-6.845	0.177	-0.121
-546.310	43.176	-0.162	0.148
-545.296	-23.378	0.114	-0.069
-544.281	164.859	-0.185	0.262
-543.266	-148.891	-0.120	-0.010
-542.252	-50.695	0.228	-0.108
-541.237	-200.000	-0.006	0.110
-540.223	-200.000	-0.011	0.156
-539.208	-4.368	0.373	-0.259
-538.193	-131.390	-0.249	0.033
-537.179	800.000	0.014	0.044
-536.164	207.796	-0.091	-0.143
-535.150	-200.000	-0.032	0.389
-534.135	-115.190	0.164	-0.031
-533.121	-54.236	-0.112	0.051
-532.106	-70.686	0.094	-0.035
-531.091	253.101	-0.248	-0.425
-530.077	68.520	-0.213	-0.219
-529.062	-20.602	-0.073	-0.045
-528.048	173.032	-0.133	-0.192
-527.033	-108.028	0.290	-0.063
-526.018	211.418	-0.118	0.186
-525.004	-200.000	0.010	0.136
-523.989	-12.400	0.061	0.040
-522.975	239.681	0.124	-0.206
-521.960	-200.000	-0.001	-0.138
-520.945	185.324	0.196	0.292
-519.931	-200.000	-0.023	0.196
-518.916	-137.755	0.219	-0.025
-517.902	293.299	0.016	0.029
-516.887	-200.000	0.037	0.252
-515.872	71.433	-0.182	-0.189
-514.858	125.454	-0.211	-0.266
-513.843	-200.000	-0.004	0.083
-512.829	440.805	-0.084	-0.183
-511.814	-41.735	-0.093	0.048
-510.799	93.790	-0.227	0.258
-509.785	276.376	0.081	-0.144
-508.770	-89.871	0.393	-0.115
-507.756	-200.000	-0.026	0.382
-506.741	-200.000	0.012	0.450
-505.726	-200.000	0.015	0.388
-504.712	462.891	-0.089	-0.199
-503.697	180.790	-0.072	-0.106
-502.683	-99.769	-0.299	0.075
-501.668	-200.000	-0.034	-0.272
-500.653	-49.349	-0.222	-0.106
-499.639	-102.330	0.126	0.030
-498.624	58.458	-0.132	0.130
-497.610	-35.728	0.110	-0.060
-496.595	-200.000	0.017	-0.144
-495.581	12.866	0.260	-0.201
-494.566	596.490	0.191	0.473
-493.551	800.000	-0.109	-0.327
-492.537	800.000	-0.032	-0.093
-491.522	10.803	-0.119	-0.091
-490.508	-200.000	0.014	-0.366
-489.493	-200.000	0.010	-0.077
-488.478	166.806	-0.108	-0.153
-487.464	-65.417	0.292	-0.117
-486.449	-126.467	-0.230	0.034
-485.435	112.969	0.237	-0.287
-484.420	-200.000	-0.064	0.282
-483.405	769.305	-0.056	0.151
-482.391	-9.281	0.342	0.228
-481.376	-200.000	-0.019	0.248
-480.362	-200.000	-0.019	0.551
-479.347	800.000	-0.055	0.192
-478.332	37.947	-0.111	0.099
-477.318	-135.003	-0.047	0.006
-476.303	-200.000	0.004	-0.105
-475.289	85.651	-0.295	-0.324
-474.274	-200.000	-0.016	-0.169
-473.259	-23.802	0.070	-0.042
-472.245	352.492	0.155	0.306
-471.230	9.377	-0.055	0.041
-470.216	400.065	-0.083	0.173
-469.201	-78.498	0.014	-0.005
-468.186	-200.000	0.003	-0.300
-467.172	-25.780	-0.265	-0.156
-466.157	-200.000	0.026	0.138
-465.143	331.038	-0.109	0.210
-464.128	290.860	-0.212	-0.385
-463.113	-39.963	0.202	0.105
-462.099	297.285	-0.063	0.116
-461.084	199.227	0.068	0.104
-460.070	137.567	-0.136	0.178
-459.055	-50.085	-0.191	-0.091
-458.040	-94.620	-0.323	-0.088
-457.026	359.387	0.089	-0.179
-456.011	-55.421	0.255	-0.114
-454.997	355.108	0.104	0.206
-453.982	-90.147	-0.081	-0.024
-452.968	-31.426	-0.375	-0.211
-451.953	-76.135	-0.428	-0.151
-450.938	80.378	-0.250	0.268
-449.924	422.043	-0.084	-0.181
-448.909	-68.424	0.215	0.083
-447.895	-95.004	-0.150	-0.041
-446.880	-64.753	0.106	0.043
-445.865	-98.176	-0.066	0.017
-444.851	-115.526	0.424	-0.080
-443.836	387.507	-0.097	0.201
-442.822	164.882	0.140	0.197
-441.807	-27.915	-0.102	-0.059
-440.792	-200.000	0.006	0.352
-439.778	-200.000	0.020	0.186
-438.763	-200.000	0.026	0.126
-437.749	-200.000	0.020	-0.120
-436.734	800.000	0.035	-0.132
-435.719	-45.723	0.075	0.037
-434.705	-200.000	0.000	-0.156
-433.690	-200.000	0.016	-0.185
-432.676	10.695	-0.285	-0.217
-431.661	-22.577	-0.130	-0.078
-430.646	-109.619	0.340	-0.072
-429.632	-200.000	0.055	-0.248
-428.617	73.280	-0.184	-0.192
-427.603	91.165	-0.134	0.150
-426.588	-71.982	0.046	0.017
-425.573	86.451	0.198	-0.218
-424.559	-200.000	-0.012	0.227
-423.544	292.161	0.045	-0.081
-422.530	-200.000	0.033	-0.242
-421.515	446.505	0.044	-0.097
-420.500	210.489	-0.153	-0.240
-419.486	-20.029	0.168	0.103
-418.471	-200.000	0.004	-0.048
-417.457	-120.457	0.367	0.062
-416.442	135.777	0.054	0.070
-415.428	476.805	-0.101	-0.228
-414.413	-88.844	-0.251	-0.074
-413.398	-200.000	-0.037	0.418
-412.384	-12.673	0.031	0.020
-411.369	-110.985	0.198	0.041
-410.355	800.000	0.077	-0.331
-409.340	-45.368	-0.321	-0.159
-408.325	368.873	0.050	0.100
-407.311	108.334	0.206	-0.245
-406.296	-164.981	0.157	0.007
-405.282	-119.486	0.259	-0.045
-404.267	449.675	-0.096	-0.211
-403.252	90.993	-0.115	0.129
-402.238	-1.230	-0.119	-0.084
-401.223	598.992	-0.037	-0.092
-400.209	-170.999	-0.428	-0.015
-399.194	148.021	-0.016	0.022
-398.179	40.380	0.116	-0.104
-397.165	-50.389	0.081	-0.038
-396.150	-70.729	-0.073	-0.027
-395.136	-122.182	-0.208	0.034
-394.121	-200.000	-0.002	-0.286
-393.106	-200.000	-0.000	-0.050
-392.092	800.000	0.067	-0.185
-391.077	110.041	0.087	0.104
-390.063	-63.449	0.146	-0.060
-389.048	67.191	-0.195	0.198
-388.033	800.000	0.022	0.072
-387.019	800.000	-0.102	0.398
-386.004	286.744	-0.175	0.316
-384.990	800.000	0.029	0.102
-383.975	223.848	0.204	0.329
-382.960	75.785	0.062	0.065
-381.946	-29.008	-0.413	0.236
-380.931	483.188	-0.116	-0.264
-379.917	-114.772	0.326	0.062
-378.902	719.968	-0.044	0.115
-377.888	-200.000	-0.014	-0.402
-376.873	-200.000	-0.011	0.217
-375.858	-200.000	-0.036	-0.326
-374.844	-58.165	0.114	0.049
-373.829	92.602	0.127	-0.143
-372.815	-79.114	-0.240	-0.081
-371.800	-84.713	0.099	0.031
-370.785	-136.411	-0.263	0.030
-369.771	-74.599	0.224	0.080
-368.756	59.288	0.278	-0.273
-367.742	625.183	0.090	-0.225
-366.727	336.152	0.129	0.249
-365.712	102.831	0.055	0.064
-364.698	191.895	0.030	-0.045
-363.683	-31.198	0.160	-0.090
-362.669	-200.000	-0.032	0.241
-361.654	768.315	-0.024	-0.064
-360.639	-200.000	0.011	-0.118
-359.625	-73.577	-0.422	0.153
-358.610	-200.000	0.040	0.000
-357.596	540.247	0.073	-0.172
-356.581	-200.000	-0.013	0.396
-355.566	185.023	0.080	-0.118
-354.552	-200.000	0.055	0.352
-353.537	-100.065	0.226	-0.056
-352.523	775.041	-0.066	-0.180
-351.508	-200.000	-0.028	0.148
-350.493	-173.266	-0.095	0.003
-349.479	-19.594	-0.287	0.177
-348.464	7.533	-0.485	-0.361
-347.450	214.038	-0.079	-0.124
-346.435	-127.223	-0.261	0.038
-345.420	-23.503	-0.302	0.181
-344.406	15.427	-0.085	0.067
-343.391	-74.733	-0.170	0.061
-342.377	38.388	0.172	-0.152
-341.362	44.749	-0.125	-0.114
-340.348	-7.809	0.261	-0.176
-339.333	800.000	-0.076	-0.265
-338.318	-0.065	-0.193	-0.136
-337.304	155.909	-0.118	-0.162
-336.289	-131.692	0.282	-0.037
-335.275	-107.131	-0.194	-0.042
-334.260	15.492	0.149	-0.117
-333.245	-61.747	0.323	-0.135
-332.231	188.618	-0.179	0.267
-331.216	-95.600	0.122	-0.032
-330.202	-70.797	0.197	0.074
-329.187	164.478	0.019	-0.026
-328.172	-169.140	0.485	-0.018
-327.158	-120.966	0.264	-0.044
-326.143	-80.520	0.343	0.114
-325.129	20.519	0.069	0.055
-324.114	425.375	-0.070	-0.151
-323.099	91.668	0.053	-0.059
-322.085	-131.853	-0.179	-0.023
-321.070	-107.088	0.311	-0.068
-320.056	-200.000	-0.030	0.288
-319.041	800.000	-0.237	0.677
-318.026	800.000	0.018	-0.080
-317.012	79.017	-0.248	0.263
-315.997	-67.844	0.403	-0.156
-314.983	-77.368	-0.304	0.105
-313.968	-200.000	0.022	-0.370
-312.953	-200.000	0.002	0.285
-311.939	1.501	-0.099	-0.071
-310.924	580.972	-0.113	-0.275
-309.910	194.964	0.099	-0.149
-308.895	-75.694	0.163	-0.058
-307.880	13.880	-0.157	-0.121
-306.866	26.995	0.290	-0.242
-305.851	103.320	0.157	0.183
-304.837	131.483	-0.097	-0.124
-303.822	800.000	-0.022	-0.094
-302.807	-200.000	-0.079	0.498
-301.793	-200.000	-0.014	-0.231
-300.778	141.251	0.046	-0.060
-299.764	21.652	0.129	0.104
-298.749	174.363	-0.141	0.202
-297.735	-25.995	0.462	-0.270
-296.720	800.000	0.061	0.169
-295.705	800.000	-0.074	-0.279
-294.691	-42.087	0.170	0.086
-293.676	-67.099	-0.121	0.047
-292.662	634.798	0.078	-0.196
-291.647	237.728	0.022	-0.036
-290.632	-54.520	-0.084	-0.038
-289.618	-200.000	-0.072	0.418
-288.603	-47.261	0.033	-0.016
-287.589	102.788	-0.131	0.152
-286.574	77.748	0.104	0.110
-285.559	-95.010	-0.197	0.053
-284.545	372.497	0.042	-0.084
-283.530	-29.055	-0.328	0.187
-282.516	-143.659	0.023	-0.002
-281.501	-200.000	-0.049	-0.320
-280.486	-200.000	-0.027	-0.181
-279.472	-125.798	0.113	-0.017
-278.457	445.533	0.077	-0.167
-277.443	31.783	-0.137	-0.117
-276.428	133.908	0.133	-0.171
-275.413	-102.137	-0.274	0.065
-274.399	-193.643	-0.142	0.001
-273.384	20.903	-0.160	-0.129
-272.370	157.238	0.116	0.159
-271.355	-21.709	-0.064	-0.039
-270.340	-24.988	0.246	0.145
-269.326	-135.371	-0.424	0.050
-268.311	800.000	-0.033	0.100
-267.297	49.006	0.127	0.118
-266.282	800.000	-0.065	0.229
-265.267	-3.839	-0.223	0.153
-264.253	194.964	0.137	-0.206
-263.238	-57.211	0.172	-0.075
-262.224	-161.218	0.130	0.007
-261.209	-60.684	0.081	0.034
-260.195	-47.339	0.086	-0.042
-259.180	156.403	-0.130	-0.178
-258.165	-40.064	0.190	-0.098
-257.151	800.000	-0.068	0.214
-256.136	-200.000	0.001	0.083
-255.122	-200.000	0.054	0.346
-254.107	93.444	-0.181	-0.203
-253.092	135.962	0.072	-0.093
-252.078	-87.745	-0.172	0.052
-251.063	800.000	-0.086	0.343
-250.049	-46.772	-0.121	0.059
-249.034	329.071	0.020	-0.039
-248.019	-115.589	-0.472	-0.088
-247.005	-143.994	0.193	0.018
-245.990	800.000	-0.059	0.252
-244.976	-63.187	0.267	0.109
-243.961	275.525	0.090	-0.158
-242.946	-106.951	-0.172	-0.038
-241.932	3.544	-0.162	-0.117
-240.917	-73.195	0.077	0.028
-239.903	636.788	0.081	0.204
-238.888	37.534	0.237	-0.208
-237.873	47.000	0.170	0.156
-236.859	272.157	0.046	-0.081
-235.844	-140.457	-0.383	-0.039
-234.830	-41.784	-0.286	0.145
-233.815	533.908	0.155	-0.365
-232.800	-113.410	0.267	-0.052
-231.786	323.657	-0.108	0.203
-230.771	-200.000	0.019	-0.197
-229.757	149.167	0.267	0.358
-228.742	-200.000	-0.013	0.153
-227.727	-200.000	0.000	-0.123
-226.713	-5.072	-0.184	-0.126
-225.698	83.454	-0.157	0.170
-224.684	-93.397	0.131	-0.036
-223.669	800.000	0.050	0.160
-222.655	176.151	-0.055	0.078
-221.640	538.905	0.162	-0.381
-220.625	110.645	-0.215	-0.255
-219.611	-39.154	0.419	0.218
-218.596	800.000	-0.051	0.162
-217.582	-105.512	0.184	0.041
-216.567	311.908	0.225	0.418
-215.552	20.622	0.065	-0.052
-214.538	76.558	0.049	-0.052
-213.523	27.146	0.204	-0.170
-212.509	94.903	-0.183	0.206
-211.494	-122.710	0.329	-0.053
-210.479	-132.646	0.180	0.023
-209.465	-184.649	0.309	0.005
-208.450	482.475	0.144	0.323
-207.436	-143.311	-0.297	0.028
-206.421	800.000	0.067	-0.236
-205.406	-20.407	0.091	-0.055
-204.392	-200.000	0.026	-0.261
-203.377	-151.683	-0.454	0.033
-202.363	-56.645	0.238	0.104
-201.348	45.928	-0.216	0.198
-200.333	-66.071	0.205	-0.081
-199.319	-10.262	0.251	0.165
-198.304	-137.191	-0.228	-0.026
-197.290	16.760	-0.144	-0.113
-196.275	-200.000	0.026	0.343
-195.260	-53.582	-0.125	-0.057
-194.246	-200.000	0.010	-0.112
-193.231	343.262	0.034	-0.066
-192.217	122.334	-0.037	-0.045
-191.202	44.767	-0.129	0.117
-190.187	83.238	-0.230	-0.247
-189.173	-41.048	-0.191	0.098
-188.158	649.096	0.149	0.377
-187.144	7.930	-0.128	-0.095
-186.129	62.209	0.064	0.064
-185.114	-106.618	0.078	-0.017
-184.100	52.898	0.228	0.215
-183.085	800.000	-0.076	-0.309
-182.071	-148.843	0.201	0.016
-181.056	17.322	-0.173	-0.136
-180.042	-200.000	0.006	-0.249
-179.027	-53.772	-0.066	0.030
-178.012	29.352	-0.140	-0.117
-176.998	-94.914	-0.078	-0.021
-175.983	800.000	-0.028	-0.118
-174.969	-73.364	0.456	0.165
-173.954	291.118	0.013	0.024
-172.939	156.648	-0.069	0.094
-171.925	-200.000	0.001	-0.269
-170.910	-200.000	0.018	-0.092
-169.896	-200.000	-0.011	-0.151
-168.881	133.811	0.132	0.168
-167.866	-200.000	-0.014	0.229
-166.852	114.981	0.077	0.093
-165.837	29.736	-0.080	0.067
-164.823	-58.105	0.200	0.086
-163.808	-34.489	0.095	0.051
-162.793	800.000	-0.170	0.479
-161.779	-200.000	-0.018	0.269
-160.764	-159.245	-0.281	-0.016
-159.750	-91.047	0.133	-0.038
-158.735	-131.449	0.447	-0.058
-157.720	800.000	-0.086	-0.269
-156.706	-200.000	0.049	0.233
-155.691	-200.000	-0.027	0.154
-154.677	-200.000	0.009	0.239
-153.662	598.846	0.119	0.292
-152.647	228.077	0.133	0.213
-151.633	-103.722	-0.253	0.059
-150.618	25.469	0.109	-0.089
-149.604	-113.126	-0.292	0.057
-148.589	-200.000	0.000	-0.056
-147.574	800.000	0.082	0.331
-146.560	-163.918	-0.322	-0.015
-145.545	78.120	0.051	0.053
-144.531	327.540	-0.134	-0.253
-143.516	312.428	0.089	-0.165
-142.502	-8.203	-0.201	0.134
-141.487	357.736	-0.065	-0.128
-140.472	-151.302	0.254	0.019
-139.458	-53.644	-0.520	0.235
-138.443	800.000	0.040	-0.109
-137.429	-100.741	0.155	-0.038
-136.414	-48.064	0.319	0.152
-135.399	45.917	0.271	-0.248
-134.385	-200.000	-0.001	-0.136
-133.370	-65.620	-0.282	-0.112
-132.356	-17.415	-0.186	0.115
-131.341	-147.922	0.170	0.014
-130.326	800.000	0.091	0.253
-129.312	45.691	0.120	-0.110
-128.297	-98.560	0.257	0.065
-127.283	-46.883	0.156	0.075
-126.268	-75.291	0.238	0.084
-125.253	-173.904	0.175	0.005
-124.239	800.000	0.046	-0.157
-123.224	-200.000	0.001	-0.091
-122.210	-49.312	0.109	0.051
