DTS Sentinel unit serial number:	SN413079Multiplexer serial number:	ORYXHardware model number:	OX4-SRSoftware version number:	ORYX F/W v4.00 Oryx Data Collector v3.7.2.0data status	okinstallation	princeton_trtdifferential loss correction	single-endedforward channel	channel 4reverse channel	N/Adate	2019/09/18time	22:25:35forward acquisition time	60.00reverse acquisition time	0.00gamma	496.2192k internal	0.2333k external	0.2333temperature offset calibration	1.0030default loss term (dB/km)	0.3790temperature slope calibration	1.0000multiplexer offset coefficient	1.0000multiplexer slope coefficient	1.0000fibre end	0.00T internal ref (°C)	24.27T ext. ref 1 (°C)	0.80T ext. ref 2 (°C)	17.98length (m)	temperature (°C)	Stokes	anti-Stokes-747.200	81.575	-0.020	0.021
-746.185	-31.409	0.091	-0.052
-745.171	-16.146	0.122	0.078
-744.156	-200.000	-0.055	0.285
-743.142	401.441	0.067	-0.141
-742.127	201.794	-0.080	0.124
-741.112	-65.193	0.117	0.048
-740.098	-50.928	-0.338	0.160
-739.083	724.014	0.069	-0.185
-738.069	31.803	-0.222	-0.192
-737.054	-159.007	0.425	0.024
-736.039	218.514	-0.016	0.026
-735.025	30.816	0.382	-0.329
-734.010	800.000	-0.049	0.150
-732.996	64.318	-0.463	0.469
-731.981	-60.486	-0.102	0.043
-730.966	-200.000	-0.086	-0.455
-729.952	800.000	-0.092	0.265
-728.937	-32.887	-0.157	-0.088
-727.923	19.628	0.205	-0.166
-726.908	59.148	0.091	-0.090
-725.894	-138.628	0.361	-0.040
-724.879	-33.862	-0.166	0.092
-723.864	-42.402	0.105	0.054
-722.850	-200.000	-0.001	0.198
-721.835	58.090	-0.237	-0.233
-720.821	800.000	0.038	-0.136
-719.806	171.217	0.068	-0.098
-718.791	-171.331	-0.217	0.007
-717.777	-43.966	-0.307	-0.155
-716.762	193.382	0.113	0.171
-715.748	180.287	-0.129	-0.190
-714.733	-200.000	-0.056	0.606
-713.718	277.052	-0.096	-0.172
-712.704	536.877	0.113	0.270
-711.689	70.085	-0.048	-0.050
-710.675	209.682	-0.013	-0.021
-709.660	-200.000	0.062	0.300
-708.645	32.926	0.403	-0.351
-707.631	453.284	-0.016	0.036
-706.616	163.496	0.242	0.341
-705.602	-43.732	0.324	-0.164
-704.587	-114.619	-0.078	0.015
-703.572	-48.175	0.214	0.104
-702.558	-113.163	-0.073	-0.015
-701.543	-53.371	-0.268	0.123
-700.529	-200.000	-0.003	0.114
-699.514	192.650	-0.194	-0.295
-698.499	800.000	-0.063	-0.274
-697.485	-103.531	-0.013	-0.003
-696.470	78.862	-0.290	-0.311
-695.456	-200.000	-0.006	-0.320
-694.441	370.996	-0.034	-0.070
-693.426	281.497	-0.128	-0.231
-692.412	13.483	0.216	0.168
-691.397	-72.323	-0.355	-0.132
-690.383	-200.000	-0.028	-0.192
-689.368	-127.254	-0.239	-0.035
-688.354	16.499	-0.018	-0.014
-687.339	-146.478	-0.361	-0.032
-686.324	86.377	0.244	-0.270
-685.310	83.690	-0.187	0.205
-684.295	800.000	-0.073	-0.214
-683.281	317.031	-0.070	-0.133
-682.266	-87.644	-0.353	-0.107
-681.251	-181.570	0.046	0.001
-680.237	800.000	0.103	0.365
-679.222	-48.195	-0.019	0.009
-678.208	174.372	-0.062	-0.090
-677.193	-200.000	0.004	-0.053
-676.178	-166.158	0.221	0.009
-675.164	398.778	-0.089	-0.187
-674.149	199.455	-0.026	0.041
-673.135	-189.039	0.284	0.003
-672.120	-200.000	0.012	0.346
-671.105	194.418	-0.181	-0.276
-670.091	-34.407	0.223	0.122
-669.076	216.834	0.082	0.131
-668.062	-126.013	0.280	0.042
-667.047	800.000	-0.121	-0.337
-666.032	-200.000	-0.024	-0.286
-665.018	252.792	-0.060	0.103
-664.003	0.608	0.179	-0.129
-662.989	119.287	-0.168	0.208
-661.974	-135.543	0.273	0.033
-660.959	74.990	-0.148	0.157
-659.945	-57.077	-0.150	0.066
-658.930	-200.000	-0.000	-0.013
-657.916	-75.989	-0.246	0.087
-656.901	-29.695	0.199	0.114
-655.886	114.407	0.105	0.128
-654.872	-200.000	0.040	0.356
-653.857	670.469	0.132	-0.343
-652.843	-200.000	0.022	-0.178
-651.828	154.685	0.068	-0.094
-650.814	-51.859	-0.344	-0.160
-649.799	120.746	0.123	0.153
-648.784	-36.928	0.147	-0.079
-647.770	-200.000	0.015	-0.285
-646.755	170.892	-0.138	-0.198
-645.741	-68.669	-0.097	0.037
-644.726	800.000	-0.028	-0.104
-643.711	-200.000	-0.045	-0.264
-642.697	161.537	0.108	-0.151
-641.682	-200.000	-0.062	-0.330
-640.668	-100.610	-0.098	0.024
-639.653	82.011	0.089	-0.097
-638.638	419.619	-0.150	-0.322
-637.624	49.985	0.131	-0.124
-636.609	222.585	-0.012	0.019
-635.595	473.533	-0.089	-0.201
-634.580	-200.000	0.021	-0.137
-633.565	158.668	-0.265	0.368
-632.551	378.359	0.101	0.206
-631.536	64.232	-0.260	-0.262
-630.522	800.000	-0.044	-0.126
-629.507	-200.000	0.049	-0.248
-628.492	-200.000	0.029	-0.270
-627.478	-200.000	-0.020	0.267
-626.463	577.884	0.097	-0.237
-625.449	-200.000	0.004	-0.326
-624.434	-200.000	-0.007	-0.109
-623.419	-76.200	0.305	0.108
-622.405	-135.490	0.363	-0.043
-621.390	-12.023	0.389	0.255
-620.376	-166.889	-0.354	0.015
-619.361	-20.265	-0.448	0.276
-618.346	-80.882	0.259	-0.086
-617.332	800.000	0.012	-0.035
-616.317	800.000	-0.026	0.096
-615.303	-20.049	0.228	-0.141
-614.288	380.602	0.025	-0.052
-613.273	-102.324	0.139	0.033
-612.259	31.329	-0.144	0.124
-611.244	-131.250	-0.236	-0.031
-610.230	33.055	0.141	-0.122
-609.215	-135.037	-0.273	-0.033
-608.201	44.667	-0.096	-0.089
-607.186	693.944	-0.098	0.258
-606.171	-200.000	0.027	0.163
-605.157	-200.000	-0.004	-0.055
-604.142	-200.000	0.080	-0.422
-603.128	-91.447	0.100	-0.028
-602.113	-111.109	-0.320	-0.066
-601.098	800.000	-0.008	-0.024
-600.084	800.000	0.029	-0.101
-599.069	122.913	0.149	-0.187
-598.055	-53.888	-0.334	0.152
-597.040	-129.115	0.161	-0.023
-596.025	-200.000	0.034	0.239
-595.011	-35.850	-0.242	-0.131
-593.996	-58.475	-0.023	-0.010
-592.982	460.497	0.067	-0.150
-591.967	-200.000	0.041	0.213
-590.952	51.499	-0.160	-0.152
-589.938	41.118	-0.141	-0.127
-588.923	75.054	-0.158	-0.167
-587.909	106.085	0.067	0.079
-586.894	800.000	0.035	-0.117
-585.879	-99.347	0.181	0.046
-584.865	800.000	-0.047	0.135
-583.850	-134.984	-0.060	-0.007
-582.836	-158.067	0.092	0.005
-581.821	93.913	-0.106	0.120
-580.806	-122.097	0.266	0.044
-579.792	333.162	0.046	-0.088
-578.777	-139.856	0.357	0.038
-577.763	-109.433	-0.241	-0.051
-576.748	-64.353	0.275	0.112
-575.733	-165.053	-0.314	0.014
-574.719	-131.717	0.092	0.012
-573.704	194.932	-0.099	0.151
-572.690	-200.000	-0.022	-0.220
-571.675	207.310	0.047	0.073
-570.661	-74.323	-0.161	0.058
-569.646	168.195	-0.197	-0.280
-568.631	-52.593	-0.212	-0.098
-567.617	-70.876	-0.154	0.058
-566.602	-170.533	-0.416	0.014
-565.588	72.151	-0.086	-0.089
-564.573	-109.904	-0.316	0.066
-563.558	-115.898	-0.072	-0.014
-562.544	163.763	-0.075	0.105
-561.529	-200.000	-0.023	-0.362
-560.515	128.726	-0.158	-0.202
-559.500	155.849	0.066	-0.091
-558.485	800.000	0.026	0.100
-557.471	79.899	-0.179	-0.192
-556.456	-44.641	0.039	0.019
-555.442	-129.455	-0.076	0.011
-554.427	800.000	-0.032	-0.117
-553.412	-200.000	-0.052	0.314
-552.398	113.548	0.150	0.182
-551.383	299.572	-0.076	-0.139
-550.369	-147.493	-0.154	0.013
-549.354	800.000	-0.023	0.099
-548.339	107.360	0.151	0.179
-547.325	-200.000	0.000	-0.004
-546.310	320.676	-0.134	-0.254
-545.296	-200.000	-0.040	-0.272
-544.281	191.200	0.029	0.044
-543.266	21.230	0.271	-0.219
-542.252	-146.088	0.285	0.025
-541.237	-27.707	-0.031	-0.018
-540.223	13.989	-0.271	0.210
-539.208	81.697	-0.203	0.219
-538.193	-200.000	-0.032	0.157
-537.179	-91.417	-0.334	-0.095
-536.164	438.093	0.185	-0.403
-535.150	-200.000	-0.021	-0.162
-534.135	294.105	-0.115	0.210
-533.121	19.023	0.223	0.178
-532.106	-116.630	0.412	0.076
-531.091	123.400	-0.097	0.121
-530.077	110.751	-0.162	-0.194
-529.062	-64.397	-0.444	-0.180
-528.048	-168.059	0.373	-0.015
-527.033	-200.000	0.032	0.159
-526.018	116.076	0.079	0.096
-525.004	-153.348	-0.100	0.007
-523.989	800.000	0.048	-0.169
-522.975	-0.488	-0.180	0.127
-521.960	-200.000	-0.340	0.001
-520.945	56.814	0.102	-0.099
-519.931	202.674	-0.160	0.247
-518.916	-71.970	0.280	-0.104
-517.902	119.687	0.133	-0.165
-516.887	-200.000	0.044	0.216
-515.872	81.689	0.043	0.047
-514.858	-37.990	0.411	0.218
-513.843	-21.014	0.147	-0.090
-512.829	173.646	0.052	-0.075
-511.814	-11.803	0.147	-0.096
-510.799	-200.000	-0.016	-0.112
-509.785	-22.346	0.107	-0.064
-508.770	646.312	0.142	-0.362
-507.756	800.000	-0.068	-0.271
-506.741	-51.627	0.221	0.103
-505.726	800.000	-0.046	0.149
-504.712	-66.891	0.147	0.058
-503.697	-141.926	0.268	0.027
-502.683	-9.557	-0.132	0.088
-501.668	339.555	0.042	0.081
-500.653	68.538	-0.172	-0.176
-499.639	-133.673	0.087	-0.011
-498.624	-5.311	-0.262	0.179
-497.610	-200.000	0.003	0.022
-496.595	-62.593	-0.188	0.078
-495.581	-141.244	-0.285	-0.029
-494.566	-200.000	0.000	-0.055
-493.551	-200.000	-0.002	-0.172
-492.537	-200.000	0.006	0.175
-491.522	-145.048	-0.203	0.018
-490.508	-53.954	-0.209	-0.095
-489.493	-200.000	-0.001	-0.050
-488.478	-91.621	-0.215	-0.061
-487.464	-122.554	-0.179	0.029
-486.449	-200.000	-0.083	0.515
-485.435	-110.730	0.173	0.036
-484.420	164.984	0.080	0.113
-483.405	82.829	-0.169	0.183
-482.391	-49.460	0.155	-0.073
-481.376	-26.711	-0.205	0.119
-480.362	697.894	0.180	0.472
-479.347	320.204	-0.107	-0.203
-478.332	-41.674	0.093	0.047
-477.318	-87.065	0.348	0.106
-476.303	36.882	0.067	-0.059
-475.289	800.000	0.066	0.254
-474.274	-136.649	0.203	-0.023
-473.259	58.458	-0.160	0.156
-472.245	-78.140	0.061	0.021
-471.230	-137.439	0.294	0.033
-470.216	-8.421	-0.087	0.058
-469.201	161.500	-0.087	-0.121
-468.186	-11.912	-0.197	-0.129
-467.172	800.000	0.012	-0.036
-466.157	-200.000	-0.003	0.056
-465.143	-126.605	-0.138	-0.020
-464.128	277.731	0.071	-0.126
-463.113	69.845	-0.092	-0.095
-462.099	175.301	-0.171	0.246
-461.084	-200.000	-0.017	0.094
-460.070	63.106	-0.080	-0.080
-459.055	602.892	-0.075	0.185
-458.040	-156.179	0.190	-0.012
-457.026	19.151	-0.222	-0.177
-456.011	-157.458	0.564	0.034
-454.997	-200.000	0.004	-0.039
-453.982	800.000	-0.143	0.403
-452.968	-200.000	-0.021	-0.188
-451.953	-37.477	0.090	-0.048
-450.938	15.461	-0.279	-0.218
-449.924	-116.157	0.198	-0.037
-448.909	8.498	0.264	0.197
-447.895	-44.239	0.098	0.049
-446.880	21.320	0.230	-0.186
-445.865	-200.000	0.010	0.190
-444.851	125.129	0.054	-0.067
-443.836	-91.674	-0.139	-0.039
-442.822	-37.611	0.195	-0.103
-441.807	-49.331	0.067	0.032
-440.792	-28.051	0.029	0.017
-439.778	-122.477	0.452	0.073
-438.763	-162.889	-0.076	-0.004
-437.749	85.991	-0.336	0.368
-436.734	-91.503	-0.374	-0.106
-435.719	223.101	-0.082	-0.132
-434.705	26.097	0.083	0.069
-433.690	-37.826	-0.138	-0.073
-432.676	-44.044	0.242	-0.121
-431.661	-36.107	-0.255	-0.137
-430.646	66.510	-0.261	0.264
-429.632	-79.158	0.230	-0.078
-428.617	-200.000	-0.023	0.190
-427.603	-71.912	-0.024	-0.009
-426.588	46.233	0.147	-0.135
-425.573	293.150	0.195	0.353
-424.559	-106.224	-0.122	0.027
-423.544	84.938	-0.178	-0.193
-422.530	-182.995	-0.489	0.009
-421.515	-144.578	0.362	-0.033
-420.500	152.534	0.227	0.309
-419.486	-94.062	0.182	0.050
-418.471	-150.986	-0.435	0.033
-417.457	291.370	-0.153	-0.276
-416.442	543.765	-0.070	-0.167
-415.428	173.371	0.288	-0.412
-414.413	-74.925	-0.296	0.105
-413.398	-200.000	-0.011	-0.134
-412.384	307.034	0.135	-0.250
-411.369	-200.000	-0.027	0.369
-410.355	654.907	0.088	0.224
-409.340	-20.962	-0.108	-0.066
-408.325	-150.436	0.311	-0.024
-407.311	-94.346	0.225	0.061
-406.296	124.412	-0.212	-0.264
-405.282	247.696	0.130	-0.218
-404.267	-127.848	-0.094	0.013
-403.252	73.105	-0.175	-0.181
-402.238	-170.127	0.356	0.013
-401.223	371.154	-0.046	-0.093
-400.209	800.000	0.042	-0.131
-399.194	750.118	-0.067	-0.180
-398.179	-200.000	-0.005	-0.193
-397.165	-90.513	-0.138	0.040
-396.150	-126.529	0.087	-0.013
-395.136	-200.000	-0.008	-0.141
-394.121	-157.833	0.384	0.023
-393.106	-101.282	-0.177	-0.043
-392.092	800.000	-0.036	-0.113
-391.077	-200.000	-0.005	-0.023
-390.063	-196.912	0.360	-0.002
-389.048	-200.000	-0.028	0.272
-388.033	800.000	0.037	0.122
-387.019	-195.444	-0.203	0.001
-386.004	-35.700	0.040	-0.021
-384.990	155.417	-0.084	0.115
-383.975	-131.187	0.365	0.048
-382.960	43.912	-0.203	-0.184
-381.946	800.000	-0.120	0.436
-380.931	-200.000	-0.014	-0.234
-379.917	138.865	-0.157	-0.204
-378.902	-200.000	-0.009	0.409
-377.888	800.000	-0.101	0.350
-376.873	-10.139	-0.060	-0.039
-375.858	-74.681	-0.029	-0.010
-374.844	-1.977	0.085	-0.059
-373.829	-29.003	0.302	0.172
-372.815	199.595	0.178	0.271
-371.800	403.781	0.038	-0.079
-370.785	172.791	0.086	0.122
-369.771	133.562	-0.186	-0.238
-368.756	-50.196	0.115	-0.054
-367.742	-84.122	0.185	0.058
-366.727	-200.000	-0.037	0.316
-365.712	41.475	-0.183	-0.164
-364.698	21.704	0.056	-0.045
-363.683	800.000	0.105	0.344
-362.669	-62.954	0.204	0.083
-361.654	-112.841	-0.355	0.070
-360.639	1.112	-0.331	-0.235
-359.625	292.412	-0.175	0.317
-358.610	62.811	0.300	0.297
-357.596	-154.804	-0.241	0.016
-356.581	-165.005	-0.215	-0.009
-355.566	800.000	0.166	0.490
-354.552	-138.594	0.284	0.031
-353.537	-200.000	-0.033	0.170
-352.523	-94.136	0.165	-0.045
-351.508	234.677	-0.167	-0.273
-350.493	83.302	-0.174	-0.187
-349.479	204.454	0.144	0.222
-348.464	41.502	-0.374	0.335
-347.450	-77.504	0.453	0.155
-346.435	36.596	-0.117	-0.102
-345.420	-200.000	-0.002	0.205
-344.406	-119.379	0.235	0.041
-343.391	800.000	-0.085	-0.341
-342.377	-200.000	-0.269	0.000
-341.362	11.072	0.324	0.245
-340.348	87.851	0.263	0.288
-339.333	-13.832	0.345	-0.221
-338.318	52.450	-0.258	0.244
-337.304	-70.236	-0.161	-0.060
-336.289	-38.262	0.258	-0.135
-335.275	152.103	0.072	0.098
-334.260	3.830	0.056	0.041
-333.245	800.000	0.127	0.407
-332.231	102.521	0.269	-0.311
-331.216	-200.000	-0.019	-0.107
-330.202	-95.721	-0.097	0.026
-329.187	800.000	-0.040	-0.146
-328.172	-113.915	-0.121	-0.023
-327.158	800.000	-0.117	0.400
-326.143	278.210	-0.124	0.218
-325.129	-200.000	-0.001	-0.047
-324.114	160.151	-0.177	-0.244
-323.099	-171.276	0.070	-0.002
-322.085	31.737	-0.077	-0.065
-321.070	55.995	0.181	0.174
-320.056	34.784	-0.146	-0.127
-319.041	-17.085	0.285	-0.178
-318.026	663.182	-0.095	0.241
-317.012	25.302	0.331	0.272
-315.997	-84.375	-0.096	-0.030
-314.983	372.632	-0.143	-0.287
-313.968	112.075	0.072	0.086
-312.953	800.000	0.039	-0.144
-311.939	-200.000	-0.008	-0.150
-310.924	-200.000	0.007	-0.125
-309.910	-26.381	-0.309	-0.179
-308.895	474.883	0.032	-0.072
-307.880	54.398	-0.162	-0.154
-306.866	255.877	-0.177	-0.300
-305.851	333.140	0.128	-0.245
-304.837	-200.000	-0.004	-0.151
-303.822	800.000	0.051	-0.164
-302.807	701.785	0.120	-0.313
-301.793	-2.028	0.168	0.117
-300.778	-84.463	-0.144	-0.045
-299.764	332.411	-0.133	0.254
-298.749	-200.000	0.001	-0.178
-297.735	-78.139	0.164	-0.056
-296.720	-33.135	0.239	-0.131
-295.705	121.627	0.229	-0.282
-294.691	800.000	0.044	-0.142
-293.676	789.184	0.015	0.039
-292.662	-92.838	0.383	0.106
-291.647	-76.374	-0.289	0.100
-290.632	190.530	-0.096	-0.142
-289.618	29.259	0.200	0.168
-288.603	53.896	0.210	-0.199
-287.589	-99.739	0.420	0.104
-286.574	-200.000	-0.030	0.254
-285.559	800.000	0.059	-0.221
-284.545	-26.238	-0.271	-0.157
-283.530	118.365	0.182	0.222
-282.516	-200.000	0.031	-0.163
-281.501	225.891	-0.083	0.133
-280.486	800.000	0.050	-0.137
-279.472	800.000	-0.042	0.123
-278.457	-37.362	0.117	0.062
-277.443	763.907	0.043	0.115
-276.428	-55.790	-0.227	-0.100
-275.413	800.000	-0.092	0.294
-274.399	468.974	0.234	0.518
-273.384	-200.000	0.039	-0.202
-272.370	-101.529	0.274	0.066
-271.355	800.000	0.087	0.292
-270.340	800.000	-0.033	0.112
-269.326	-185.288	0.107	-0.002
-268.311	69.880	0.221	0.225
-267.297	-200.000	0.022	0.219
-266.282	-200.000	-0.011	-0.225
-265.267	114.777	-0.312	-0.376
-264.253	662.962	0.124	-0.316
-263.238	126.078	-0.117	-0.147
-262.224	132.659	-0.264	0.336
-261.209	219.814	-0.103	0.162
-260.195	752.950	-0.064	0.172
-259.180	673.818	-0.117	0.299
-258.165	7.580	-0.066	0.049
-257.151	-30.178	0.129	-0.072
-256.136	800.000	-0.046	0.190
-255.122	89.213	-0.251	-0.276
-254.107	34.844	-0.087	-0.075
-253.092	-51.113	0.194	-0.090
-252.078	800.000	-0.040	0.169
-251.063	-139.793	-0.370	-0.039
-250.049	-49.218	0.414	0.195
-249.034	-108.179	0.202	-0.043
-248.019	8.548	-0.095	-0.071
-247.005	257.836	0.109	0.185
-245.990	175.000	-0.222	-0.317
-244.976	-39.528	0.147	-0.076
-243.961	-44.896	0.147	-0.072
-242.946	-200.000	-0.034	0.176
-241.932	-129.723	-0.201	0.027
-240.917	-200.000	-0.016	-0.255
-239.903	-35.381	-0.380	-0.204
-238.888	177.349	0.039	0.057
-237.873	42.214	0.071	0.064
-236.859	-200.000	-0.014	-0.246
-235.844	-46.483	-0.310	-0.150
-234.830	176.064	0.116	-0.166
-233.815	-200.000	0.010	0.201
-232.800	-200.000	0.015	-0.246
-231.786	-92.471	-0.213	0.059
-230.771	-200.000	-0.006	0.049
-229.757	513.590	0.101	0.233
-228.742	190.081	-0.094	0.140
-227.727	-189.178	0.055	0.001
-226.713	-200.000	-0.008	0.195
-225.698	-88.239	-0.295	0.087
-224.684	-19.699	0.351	-0.214
-223.669	-21.877	0.014	0.009
-222.655	800.000	0.119	0.351
-221.640	-200.000	-0.020	0.443
-220.625	-4.092	0.360	0.246
-219.611	800.000	0.080	0.218
-218.596	-41.589	-0.357	-0.181
-217.582	348.823	-0.227	-0.441
-216.567	-5.633	0.237	-0.160
-215.552	800.000	0.040	0.128
-214.538	436.314	0.102	-0.218
-213.523	-94.235	0.154	0.041
-212.509	-90.191	-0.332	0.095
-211.494	383.789	-0.047	0.096
-210.479	-106.503	0.316	0.069
-209.465	10.543	-0.135	0.102
-208.450	800.000	0.078	-0.246
-207.436	169.230	0.146	0.206
-206.421	-194.854	-0.506	-0.004
-205.406	-26.172	-0.145	0.084
-204.392	-74.008	0.219	0.078
-203.377	-166.996	-0.418	0.017
-202.363	138.444	0.111	-0.143
-201.348	-200.000	0.003	0.104
-200.333	-51.728	-0.153	-0.070
-199.319	-10.792	-0.238	-0.155
-198.304	645.911	-0.096	0.241
-197.290	20.272	-0.085	-0.068
-196.275	-200.000	-0.004	0.027
-195.260	800.000	-0.043	-0.159
-194.246	450.057	-0.050	-0.109
-193.231	800.000	-0.008	-0.026
-192.217	240.240	-0.079	0.130
-191.202	115.774	0.103	0.124
-190.187	450.482	0.044	-0.095
-189.173	-130.389	-0.187	0.025
-188.158	-200.000	0.044	0.439
-187.144	-200.000	0.003	-0.072
-186.129	-14.725	0.106	-0.067
-185.114	-200.000	-0.019	0.424
-184.100	85.650	0.089	0.097
-183.085	-172.981	-0.047	-0.001
-182.071	-127.185	-0.139	0.020
-181.056	96.019	-0.237	-0.266
-180.042	78.706	-0.068	0.072
-179.027	800.000	0.061	-0.213
-178.012	-45.173	0.100	0.049
-176.998	-63.197	0.096	-0.039
-175.983	107.981	-0.093	0.109
-174.969	465.066	0.076	0.167
-173.954	-36.988	0.137	0.072
-172.939	77.441	-0.123	0.129
-171.925	-31.280	0.167	-0.092
-170.910	-200.000	-0.003	-0.017
-169.896	-60.086	0.255	-0.107
-168.881	800.000	-0.076	-0.283
-167.866	-80.985	0.209	-0.068
-166.852	-101.362	0.209	-0.050
-165.837	18.677	0.145	0.114
-164.823	-172.506	-0.299	-0.009
-163.808	-17.196	0.155	-0.096
-162.793	-65.031	0.235	0.093
-161.779	-24.766	-0.285	-0.166
-160.764	-24.672	-0.044	0.026
-159.750	13.207	0.355	0.270
-158.735	800.000	0.051	0.173
-157.720	800.000	-0.036	-0.149
-156.706	-95.417	0.058	0.015
-155.691	92.210	0.267	0.296
-154.677	7.345	0.063	0.046
-153.662	-200.000	-0.010	-0.151
-152.647	188.689	0.262	-0.386
-151.633	-62.196	-0.263	0.108
-150.618	800.000	-0.143	-0.391
-149.604	800.000	0.096	0.296
-148.589	265.745	0.204	0.349
-147.574	800.000	0.067	-0.284
-146.560	607.156	-0.126	0.309
-145.545	-200.000	0.060	-0.455
-144.531	-67.609	0.075	0.029
-143.516	125.699	-0.062	-0.077
-142.502	-72.962	-0.332	0.120
-141.487	43.321	-0.124	-0.111
-140.472	-200.000	-0.102	0.654
-139.458	161.615	0.218	-0.300
-138.443	800.000	-0.097	-0.365
-137.429	-126.019	0.263	-0.039
-136.414	800.000	-0.067	-0.287
-135.399	-200.000	-0.042	0.197
-134.385	-138.956	0.096	-0.010
-133.370	-78.027	-0.220	-0.074
-132.356	-44.626	0.392	-0.192
-131.341	249.872	0.148	0.247
-130.326	209.006	0.071	0.110
-129.312	280.443	0.156	0.274
-128.297	-1.195	-0.213	0.147
-127.283	296.997	0.183	-0.330
-126.268	-87.226	0.157	-0.047
-125.253	-64.813	0.124	0.049
-124.239	186.279	0.145	0.212
-123.224	77.136	-0.093	-0.097
-122.210	-120.904	0.144	0.024
