DTS Sentinel unit serial number:	SN413079Multiplexer serial number:	ORYXHardware model number:	OX4-SRSoftware version number:	ORYX F/W v4.00 Oryx Data Collector v3.7.2.0data status	okinstallation	princeton_trtdifferential loss correction	single-endedforward channel	channel 4reverse channel	N/Adate	2019/09/13time	18:01:35forward acquisition time	60.00reverse acquisition time	0.00gamma	496.2192k internal	0.2299k external	0.2299temperature offset calibration	1.0206default loss term (dB/km)	0.3790temperature slope calibration	1.0000multiplexer offset coefficient	1.0000multiplexer slope coefficient	1.0000fibre end	0.00T internal ref (°C)	34.94T ext. ref 1 (°C)	4.71T ext. ref 2 (°C)	27.69length (m)	temperature (°C)	Stokes	anti-Stokes-747.200	800.000	0.037	0.112
-746.185	12.201	0.069	-0.054
-745.171	-79.211	0.194	-0.067
-744.156	74.678	-0.148	0.159
-743.142	97.746	0.206	0.241
-742.127	800.000	-0.057	0.161
-741.112	800.000	0.017	-0.048
-740.098	77.762	-0.129	0.140
-739.083	-81.526	0.025	-0.008
-738.069	2.154	-0.333	0.246
-737.054	53.228	0.415	0.406
-736.039	-128.077	-0.086	0.013
-735.025	-60.028	0.315	-0.137
-734.010	-125.065	-0.252	0.040
-732.996	800.000	-0.013	0.050
-731.981	-200.000	0.000	-0.088
-730.966	269.097	0.200	-0.358
-729.952	-33.868	0.143	-0.080
-728.937	-6.730	0.253	0.175
-727.923	-200.000	-0.015	-0.128
-726.908	309.071	-0.204	0.389
-725.894	-200.000	-0.021	0.096
-724.879	-135.156	-0.125	0.015
-723.864	220.738	0.089	-0.146
-722.850	-61.024	-0.286	-0.123
-721.835	169.696	-0.290	-0.422
-720.821	53.022	0.140	0.137
-719.806	277.886	0.132	0.240
-718.791	-200.000	0.035	-0.214
-717.777	57.011	0.097	0.096
-716.762	169.049	-0.100	-0.145
-715.748	-200.000	-0.046	-0.247
-714.733	-11.267	0.309	-0.207
-713.718	-57.035	-0.157	-0.071
-712.704	171.038	-0.206	0.301
-711.689	-43.953	-0.181	0.093
-710.675	-200.000	0.019	-0.094
-709.660	-96.595	-0.054	0.015
-708.645	-70.965	-0.139	-0.053
-707.631	-152.395	0.387	-0.028
-706.616	308.078	-0.204	0.389
-705.602	-104.736	0.304	0.071
-704.587	294.207	-0.054	0.101
-703.572	146.117	0.121	-0.166
-702.558	-55.812	0.100	0.045
-701.543	54.888	0.129	-0.126
-700.529	-54.104	0.089	-0.041
-699.514	70.686	-0.080	-0.085
-698.499	29.325	0.117	0.101
-697.485	-128.616	-0.128	0.018
-696.470	-162.299	0.217	-0.011
-695.456	-200.000	-0.039	-0.330
-694.441	800.000	0.063	-0.220
-693.426	-166.929	0.169	0.007
-692.412	800.000	0.093	0.337
-691.397	800.000	0.053	-0.176
-690.383	568.512	-0.187	-0.463
-689.368	61.514	0.298	-0.301
-688.354	-42.196	-0.136	-0.071
-687.339	-99.262	-0.154	0.040
-686.324	266.269	-0.086	0.153
-685.310	800.000	-0.014	0.051
-684.295	-112.874	-0.333	0.067
-683.281	-145.419	0.077	-0.007
-682.266	41.317	-0.179	-0.165
-681.251	-200.000	0.025	-0.410
-680.237	105.917	-0.143	-0.172
-679.222	607.245	0.126	-0.320
-678.208	36.808	0.127	0.114
-677.193	-171.737	-0.192	-0.006
-676.178	617.926	-0.014	-0.036
-675.164	-86.943	-0.508	-0.158
-674.149	-110.680	-0.096	0.020
-673.135	786.198	-0.120	-0.334
-672.120	142.735	0.188	-0.254
-671.105	-200.000	0.034	0.157
-670.091	596.541	0.083	-0.208
-669.076	-200.000	0.023	-0.207
-668.062	416.616	-0.180	-0.391
-667.047	126.389	0.107	0.137
-666.032	136.368	-0.066	0.088
-665.018	342.690	0.005	-0.011
-664.003	173.887	0.092	0.135
-662.989	-200.000	-0.010	0.288
-661.974	-36.079	-0.215	-0.118
-660.959	-148.039	0.257	-0.022
-659.945	290.144	-0.042	-0.077
-658.930	6.814	-0.329	-0.249
-657.916	142.362	0.249	-0.337
-656.901	-200.000	0.025	-0.324
-655.886	199.413	-0.270	-0.421
-654.872	-92.764	-0.467	-0.133
-653.857	-200.000	0.043	-0.318
-652.843	511.622	-0.083	0.197
-651.828	64.334	-0.050	-0.051
-650.814	800.000	0.130	-0.412
-649.799	155.290	0.046	0.064
-648.784	-144.448	0.089	0.008
-647.770	800.000	-0.132	-0.372
-646.755	59.504	-0.164	-0.164
-645.741	-79.080	-0.136	0.047
-644.726	-99.605	0.268	-0.068
-643.711	-55.010	-0.137	0.063
-642.697	344.201	0.089	0.177
-641.682	-98.625	-0.151	-0.039
-640.668	355.347	-0.137	-0.277
-639.653	2.107	-0.419	-0.308
-638.638	103.692	0.156	0.186
-637.624	-200.000	-0.029	-0.144
-636.609	-99.487	-0.279	0.071
-635.595	124.393	-0.092	-0.118
-634.580	-50.192	-0.023	0.011
-633.565	-157.522	0.043	0.003
-632.551	19.872	-0.115	0.094
-631.536	-13.138	-0.125	-0.083
-630.522	368.578	-0.033	-0.068
-629.507	-154.700	-0.193	0.013
-628.492	199.548	-0.138	-0.215
-627.478	45.481	0.274	0.256
-626.463	-131.611	0.145	0.019
-625.449	-35.588	-0.069	0.038
-624.434	8.405	-0.114	0.087
-623.419	61.796	0.091	0.092
-622.405	221.766	0.057	0.093
-621.390	-168.216	0.199	0.008
-620.376	-151.025	-0.212	0.016
-619.361	-77.555	-0.311	0.109
-618.346	95.105	-0.244	-0.282
-617.332	800.000	0.032	0.101
-616.317	-200.000	0.036	0.179
-615.303	-65.572	-0.169	0.069
-614.288	135.157	0.125	0.165
-613.273	-93.260	0.334	0.094
-612.259	-123.901	0.214	-0.034
-611.244	-82.291	-0.320	-0.106
-610.230	-26.191	0.364	-0.217
-609.215	-95.585	0.148	-0.040
-608.201	-200.000	0.018	-0.106
-607.186	147.201	0.165	0.225
-606.171	600.622	0.119	0.301
-605.157	-121.342	0.224	-0.038
-604.142	94.836	-0.019	0.022
-603.128	-110.295	0.134	-0.028
-602.113	-14.512	0.339	0.221
-601.098	-200.000	-0.001	-0.042
-600.084	580.598	0.082	-0.203
-599.069	150.275	-0.130	0.180
-598.055	481.171	0.158	0.365
-597.040	-200.000	0.029	-0.219
-596.025	-124.397	-0.075	-0.012
-595.011	800.000	0.070	0.256
-593.996	244.078	0.087	-0.149
-592.982	-121.420	-0.381	-0.064
-591.967	-14.408	0.189	-0.124
-590.952	800.000	-0.064	-0.196
-589.938	-61.795	0.243	0.103
-588.923	-94.614	-0.305	-0.084
-587.909	-6.457	-0.203	-0.140
-586.894	-153.766	0.033	0.002
-585.879	797.316	-0.017	0.048
-584.865	-200.000	-0.001	0.222
-583.850	-70.452	-0.148	0.057
-582.836	423.529	-0.064	0.139
-581.821	800.000	0.049	0.153
-580.806	-132.484	0.309	-0.040
-579.792	44.815	0.065	-0.061
-578.777	353.633	-0.122	0.246
-577.763	-149.670	0.114	0.009
-576.748	192.266	0.226	-0.346
-575.733	84.256	-0.089	0.098
-574.719	800.000	0.058	-0.185
-573.704	418.250	-0.054	0.116
-572.690	154.416	0.068	-0.095
-571.675	-57.176	0.144	-0.064
-570.661	-200.000	-0.088	0.440
-569.646	-200.000	0.028	-0.178
-568.631	-200.000	-0.002	-0.119
-567.617	-63.076	-0.132	-0.055
-566.602	-138.972	0.120	0.013
-565.588	-200.000	0.004	0.139
-564.573	595.954	-0.131	0.327
-563.558	-151.595	-0.263	0.020
-562.544	-123.512	0.477	0.077
-561.529	372.336	-0.082	-0.169
-560.515	401.022	-0.099	0.211
-559.500	132.314	-0.255	-0.333
-558.485	-200.000	-0.069	-0.538
-557.471	-200.000	0.044	0.246
-556.456	-200.000	-0.009	0.110
-555.442	-81.456	0.271	-0.090
-554.427	-200.000	0.092	-0.418
-553.412	-200.000	-0.009	-0.140
-552.398	-200.000	-0.040	-0.279
-551.383	223.601	-0.097	0.158
-550.369	88.584	0.078	0.088
-549.354	-200.000	-0.031	-0.423
-548.339	227.242	-0.102	-0.168
-547.325	-61.859	0.192	-0.081
-546.310	212.597	-0.180	-0.288
-545.296	449.714	-0.131	0.293
-544.281	417.508	0.083	-0.179
-543.266	-83.223	0.263	-0.085
-542.252	247.741	-0.029	0.050
-541.237	-44.784	-0.152	0.077
-540.223	-54.201	0.302	0.139
-539.208	270.559	-0.058	0.103
-538.193	-200.000	0.003	0.309
-537.179	-127.520	-0.321	0.047
-536.164	-200.000	0.046	-0.396
-535.150	10.577	-0.076	-0.059
-534.135	-106.238	-0.240	0.055
-533.121	327.109	-0.106	-0.205
-532.106	-72.079	0.410	-0.154
-531.091	-123.785	-0.075	0.012
-530.077	190.884	-0.143	0.218
-529.062	-143.076	-0.180	0.018
-528.048	-137.545	-0.218	0.025
-527.033	373.265	-0.117	-0.240
-526.018	84.071	-0.107	-0.119
-525.004	-200.000	-0.011	-0.225
-523.989	108.185	0.074	0.089
-522.975	-7.939	-0.310	0.212
-521.960	-82.952	-0.140	0.046
-520.945	-153.394	0.243	-0.017
-519.931	81.290	0.129	-0.141
-518.916	-30.796	0.363	0.208
-517.902	-113.669	-0.186	0.037
-516.887	-47.889	0.093	-0.046
-515.872	11.966	-0.130	0.101
-514.858	-91.612	-0.151	0.043
-513.843	192.266	-0.057	0.088
-512.829	-200.000	0.001	0.127
-511.814	-144.529	-0.261	0.024
-510.799	-20.585	0.147	-0.091
-509.785	4.512	0.104	-0.077
-508.770	-200.000	-0.030	0.139
-507.756	-200.000	0.005	-0.176
-506.741	-145.361	0.299	0.027
-505.726	46.916	-0.134	0.126
-504.712	-144.393	-0.063	0.006
-503.697	-83.921	0.067	-0.022
-502.683	713.321	0.119	0.319
-501.668	273.016	0.126	0.225
-500.653	-200.000	0.029	0.424
-499.639	-200.000	0.022	0.175
-498.624	-200.000	0.025	-0.270
-497.610	-200.000	-0.010	0.191
-496.595	175.534	0.098	0.144
-495.581	105.511	-0.178	0.212
-494.566	-4.476	0.082	0.057
-493.551	-200.000	-0.013	-0.143
-492.537	-200.000	0.019	-0.324
-491.522	-100.485	0.362	0.091
-490.508	-17.257	0.271	-0.172
-489.493	800.000	-0.074	-0.277
-488.478	425.844	-0.157	0.341
-487.464	800.000	0.099	-0.292
-486.449	785.925	-0.029	-0.081
-485.435	-1.896	0.124	0.088
-484.420	10.803	0.064	-0.049
-483.405	-61.531	0.215	0.091
-482.391	-76.179	0.265	-0.094
-481.376	0.849	-0.072	-0.052
-480.362	-76.665	0.465	0.165
-479.347	-51.203	0.243	0.115
-478.332	-111.674	-0.100	0.020
-477.318	-200.000	-0.030	0.260
-476.303	393.003	-0.239	-0.503
-475.289	-81.318	-0.143	0.048
-474.274	74.512	-0.078	-0.082
-473.259	49.334	-0.321	0.305
-472.245	-29.601	0.098	0.057
-471.230	23.302	0.013	-0.011
-470.216	800.000	0.080	0.266
-469.201	20.788	0.200	0.163
-468.186	548.937	-0.035	-0.086
-467.172	-104.510	0.126	0.029
-466.157	-200.000	0.040	0.385
-465.143	-68.765	0.370	-0.144
-464.128	43.074	0.182	-0.168
-463.113	179.681	-0.089	0.131
-462.099	-94.243	-0.208	0.057
-461.084	-150.096	-0.296	0.023
-460.070	-135.805	-0.100	0.012
-459.055	230.171	0.184	-0.304
-458.040	800.000	-0.040	-0.113
-457.026	-200.000	-0.053	-0.383
-456.011	8.039	0.251	-0.190
-454.997	-144.494	-0.095	0.009
-453.982	-108.080	0.355	-0.078
-452.968	-79.577	-0.131	0.044
-451.953	110.819	-0.092	-0.112
-450.938	257.634	0.049	0.085
-449.924	0.552	-0.158	0.114
-448.909	175.332	-0.263	0.384
-447.895	-176.227	-0.193	-0.005
-446.880	-5.751	-0.061	0.042
-445.865	-200.000	0.006	0.180
-444.851	-84.837	-0.117	0.037
-443.836	572.286	0.219	0.538
-442.822	174.131	-0.146	-0.213
-441.807	62.363	-0.231	0.233
-440.792	-200.000	-0.017	-0.146
-439.778	-67.143	0.172	-0.068
-438.763	-200.000	0.036	0.221
-437.749	-30.919	-0.133	0.076
-436.734	-42.923	0.263	-0.135
-435.719	94.972	0.121	0.138
-434.705	-159.523	-0.129	0.007
-433.690	307.919	0.097	-0.182
-432.676	800.000	0.028	0.088
-431.661	-108.174	-0.251	-0.055
-430.646	193.046	-0.178	-0.272
-429.632	-200.000	0.008	0.056
-428.617	-54.532	0.351	-0.160
-427.603	-140.336	0.109	-0.011
-426.588	-73.540	0.227	-0.083
-425.573	505.535	0.094	-0.219
-424.559	-74.038	-0.185	-0.068
-423.544	110.147	-0.162	-0.196
-422.530	130.246	-0.215	0.278
-421.515	-84.592	0.208	0.066
-420.500	-110.672	0.046	-0.010
-419.486	573.575	0.042	-0.103
-418.471	-53.965	0.087	-0.040
-417.457	421.183	-0.139	0.301
-416.442	563.521	-0.059	-0.144
-415.428	-88.097	0.227	0.068
-414.413	-146.649	-0.292	0.025
-413.398	99.086	0.109	-0.127
-412.384	-50.825	-0.202	0.095
-411.369	-128.672	-0.062	0.009
-410.355	-104.563	0.103	-0.024
-409.340	-91.392	0.154	0.044
-408.325	-200.000	-0.053	-0.255
-407.311	800.000	-0.100	0.339
-406.296	-38.197	0.228	-0.121
-405.282	-11.264	-0.252	-0.167
-404.267	450.044	-0.082	-0.183
-403.252	-200.000	0.033	0.154
-402.238	-21.064	-0.217	-0.133
-401.223	800.000	-0.040	0.121
-400.209	159.583	0.196	-0.274
-399.194	-129.679	-0.307	0.043
-398.179	43.831	-0.129	-0.119
-397.165	-200.000	-0.008	-0.276
-396.150	161.731	0.063	0.089
-395.136	63.855	-0.239	0.241
-394.121	32.024	-0.234	-0.203
-393.106	-168.124	0.313	0.012
-392.092	-194.097	0.130	-0.001
-391.077	61.088	-0.083	0.083
-390.063	-30.913	0.129	-0.073
-389.048	800.000	0.041	0.121
-388.033	170.962	0.105	0.152
-387.019	-56.481	0.194	0.087
-386.004	34.732	-0.082	-0.073
-384.990	746.150	-0.067	-0.182
-383.975	-10.634	-0.305	-0.203
-382.960	-61.165	-0.264	-0.112
-381.946	44.230	0.059	-0.054
-380.931	-200.000	0.009	-0.093
-379.917	-83.151	-0.138	-0.045
-378.902	368.232	-0.099	-0.201
-377.888	-200.000	-0.009	-0.146
-376.873	-126.076	-0.179	-0.027
-375.858	-14.767	-0.140	0.090
-374.844	36.429	-0.299	-0.265
-373.829	-120.077	-0.053	0.009
-372.815	-99.559	0.257	0.065
-371.800	-200.000	-0.042	0.252
-370.785	100.259	0.021	0.025
-369.771	94.644	-0.146	-0.167
-368.756	171.890	0.156	-0.226
-367.742	6.122	0.173	-0.129
-366.727	108.331	0.065	0.078
-365.712	-13.582	0.075	-0.049
-364.698	800.000	-0.030	0.106
-363.683	-200.000	-0.029	0.214
-362.669	-67.587	-0.105	0.041
-361.654	67.208	0.265	-0.272
-360.639	-70.538	0.091	0.035
-359.625	84.922	-0.114	-0.126
-358.610	33.053	0.221	0.192
-357.596	-75.790	0.233	0.083
-356.581	155.442	0.171	0.237
-355.566	-99.656	-0.034	-0.008
-354.552	-109.792	0.195	-0.041
-353.537	-98.968	-0.082	-0.021
-352.523	-102.780	-0.174	0.042
-351.508	29.489	-0.343	-0.293
-350.493	-40.796	-0.184	0.096
-349.479	-35.154	0.127	-0.069
-348.464	-58.403	0.200	-0.087
-347.450	-200.000	-0.019	0.183
-346.435	96.496	0.134	0.155
-345.420	-56.949	0.185	0.082
-344.406	800.000	-0.078	-0.216
-343.391	-162.159	-0.329	0.017
-342.377	-71.229	-0.159	-0.060
-341.362	-102.749	0.199	0.048
-340.348	-47.457	-0.116	-0.057
-339.333	800.000	-0.012	0.041
-338.318	456.793	-0.062	0.137
-337.304	-88.709	0.156	0.047
-336.289	-200.000	0.039	0.255
-335.275	112.220	0.247	0.299
-334.260	-135.242	-0.122	-0.015
-333.245	22.556	0.233	0.191
-332.231	106.032	-0.088	-0.105
-331.216	-200.000	-0.010	0.319
-330.202	92.035	0.242	0.274
-329.187	-200.000	0.009	0.267
-328.172	-26.967	0.183	0.107
-327.158	-100.570	0.183	-0.045
-326.143	-200.000	0.047	-0.438
-325.129	180.093	0.195	0.287
-324.114	-200.000	-0.028	0.354
-323.099	-33.384	-0.097	-0.054
-322.085	317.482	-0.164	-0.312
-321.070	16.410	0.119	-0.094
-320.056	361.032	-0.070	-0.142
-319.041	273.801	-0.080	-0.143
-318.026	57.074	0.235	0.230
-317.012	-200.000	-0.012	-0.066
-315.997	-2.528	0.038	-0.026
-314.983	3.525	0.188	0.138
-313.968	-200.000	0.006	0.065
-312.953	763.085	0.066	0.179
-311.939	66.057	0.189	0.192
-310.924	75.581	0.264	-0.279
-309.910	-200.000	0.005	-0.433
-308.895	-134.914	0.230	-0.028
-307.880	-46.263	-0.087	0.043
-306.866	500.509	0.142	-0.330
-305.851	-31.143	0.135	-0.076
-304.837	-81.710	0.451	0.149
-303.822	274.209	0.178	0.317
-302.807	8.625	-0.333	-0.251
-301.793	673.036	-0.099	0.258
-300.778	-177.580	0.293	-0.007
-299.764	-115.257	0.409	-0.078
-298.749	-200.000	0.028	0.171
-297.735	138.181	-0.199	0.262
-296.720	-200.000	-0.031	0.246
-295.705	258.111	-0.113	0.195
-294.691	-27.687	-0.297	0.173
-293.676	13.104	-0.127	-0.099
-292.662	-98.393	0.044	0.011
-291.647	-117.491	-0.076	0.014
-290.632	-200.000	-0.026	-0.604
-289.618	331.328	0.073	0.140
-288.603	-36.684	-0.144	0.078
-287.589	-132.714	-0.233	-0.030
-286.574	464.371	-0.061	0.136
-285.559	-151.634	-0.299	-0.022
-284.545	-200.000	0.008	0.101
-283.530	212.978	-0.111	-0.176
-282.516	-98.784	0.136	-0.035
-281.501	-137.339	0.285	-0.032
-280.486	-100.656	0.349	0.086
-279.472	-80.754	-0.032	0.011
-278.457	91.331	-0.164	0.185
-277.443	537.134	-0.038	0.091
-276.428	-108.814	-0.119	0.025
-275.413	636.887	0.046	-0.117
-274.399	-121.741	-0.321	0.053
-273.384	-60.977	0.133	-0.056
-272.370	418.490	0.047	0.101
-271.355	-30.947	-0.154	-0.087
-270.340	-102.920	0.186	0.044
-269.326	-136.166	0.021	0.002
-268.311	77.334	0.093	0.099
-267.297	-29.878	0.227	0.130
-266.282	-65.429	-0.179	0.072
-265.267	-200.000	-0.017	-0.341
-264.253	-50.202	-0.245	-0.116
-263.238	-2.159	0.331	0.233
-262.224	-52.546	-0.228	0.106
-261.209	222.807	-0.177	-0.286
-260.195	-200.000	0.000	-0.384
-259.180	-124.625	0.316	-0.049
-258.165	17.408	0.215	-0.171
-257.151	9.935	-0.126	0.096
-256.136	42.077	0.220	-0.200
-255.122	-166.226	-0.243	-0.010
-254.107	-123.465	0.305	0.049
-253.092	-136.604	-0.309	-0.036
-252.078	460.833	0.119	-0.265
-251.063	42.600	0.072	-0.066
-250.049	-122.724	0.277	-0.045
-249.034	525.172	-0.102	0.240
-248.019	-34.365	-0.353	-0.194
-247.005	-67.294	0.073	-0.029
-245.990	49.576	-0.205	-0.193
-244.976	-13.135	0.090	0.058
-243.961	-112.114	0.069	0.014
-242.946	-92.340	-0.238	0.067
-241.932	96.133	0.183	0.209
-240.917	174.305	-0.055	-0.079
-239.903	-200.000	0.004	0.144
-238.888	800.000	-0.054	-0.182
-237.873	-30.023	0.334	0.190
-236.859	-200.000	0.030	-0.229
-235.844	-200.000	0.024	0.148
-234.830	250.585	-0.101	-0.172
-233.815	-200.000	-0.034	-0.268
-232.800	109.812	0.347	0.416
-231.786	179.025	-0.061	-0.090
-230.771	-18.721	-0.223	-0.139
-229.757	-20.372	-0.272	0.167
-228.742	586.804	0.125	0.308
-227.727	69.219	-0.121	-0.124
-226.713	-140.516	-0.366	0.038
-225.698	37.789	-0.201	0.178
-224.684	117.256	-0.368	0.452
-223.669	-44.782	0.248	0.124
-222.655	-27.886	0.172	0.099
-221.640	4.408	-0.180	0.132
-220.625	62.836	-0.270	-0.270
-219.611	-53.775	-0.086	-0.039
-218.596	-8.082	-0.369	-0.248
-217.582	189.544	-0.013	0.019
-216.567	386.356	-0.175	-0.361
-215.552	-200.000	0.002	-0.073
-214.538	23.344	-0.097	0.079
-213.523	155.040	-0.120	-0.164
-212.509	800.000	-0.050	-0.143
-211.494	-168.459	-0.168	-0.006
-210.479	-15.415	-0.018	0.012
-209.465	-123.477	0.162	-0.026
-208.450	-112.871	0.055	0.011
-207.436	-200.000	0.006	-0.154
-206.421	-49.335	-0.184	-0.088
-205.406	26.666	0.277	0.232
-204.392	-49.960	-0.092	-0.043
-203.377	-6.500	0.364	0.248
-202.363	39.010	0.251	-0.224
-201.348	-40.897	0.296	0.153
-200.333	364.862	-0.112	-0.225
-199.319	800.000	-0.013	-0.043
-198.304	800.000	0.056	-0.222
-197.290	128.397	0.026	0.033
-196.275	73.315	0.132	0.138
-195.260	-118.113	-0.208	-0.037
-194.246	-105.770	0.052	0.012
-193.231	-48.937	-0.353	-0.169
-192.217	-200.000	0.013	0.077
-191.202	59.576	0.203	0.200
-190.187	467.464	0.081	-0.182
-189.173	250.157	0.213	0.361
-188.158	-106.616	-0.183	0.041
-187.144	205.624	-0.031	-0.049
-186.129	70.823	-0.020	0.020
-185.114	79.438	-0.156	0.167
-184.100	-200.000	-0.051	0.318
-183.085	-31.300	-0.169	0.095
-182.071	800.000	0.043	0.160
-181.056	8.212	-0.087	0.065
-180.042	-65.738	0.193	-0.077
-179.027	-77.266	-0.106	-0.037
-178.012	800.000	-0.071	0.198
-176.998	4.639	0.240	-0.176
-175.983	800.000	0.024	0.093
-174.969	-200.000	0.069	0.331
-173.954	-200.000	-0.013	-0.402
-172.939	-200.000	-0.003	0.171
-171.925	85.689	-0.329	-0.360
-170.910	22.704	-0.274	-0.224
-169.896	539.890	-0.027	-0.063
-168.881	185.221	-0.050	-0.074
-167.866	522.202	-0.062	-0.145
-166.852	29.381	-0.125	-0.106
-165.837	800.000	0.051	0.155
-164.823	89.328	-0.096	-0.106
-163.808	60.522	0.211	-0.209
-162.793	497.793	-0.161	0.371
-161.779	353.529	-0.050	-0.100
-160.764	-147.971	0.242	-0.020
-159.750	800.000	0.079	0.227
-158.735	-200.000	0.007	0.047
-157.720	800.000	-0.024	-0.103
-156.706	-146.151	0.055	-0.005
-155.691	-6.948	0.071	-0.048
-154.677	38.843	-0.155	0.138
-153.662	-125.638	-0.338	0.051
-152.647	-55.993	0.084	-0.038
-151.633	-33.883	0.354	-0.194
-150.618	-100.818	-0.080	-0.020
-149.604	4.946	-0.207	-0.152
-148.589	28.619	-0.081	-0.069
-147.574	130.945	-0.180	0.231
-146.560	-200.000	-0.002	-0.190
-145.545	800.000	0.061	-0.200
-144.531	-93.618	-0.165	-0.046
-143.516	-65.638	0.116	0.046
-142.502	-57.942	-0.308	0.134
-141.487	525.187	0.093	-0.217
-140.472	-130.342	0.252	0.034
-139.458	288.359	0.072	-0.130
-138.443	-200.000	0.009	-0.133
-137.429	151.005	0.156	0.211
-136.414	175.273	-0.260	-0.376
-135.399	-200.000	0.005	0.097
-134.385	-200.000	0.038	0.247
-133.370	-70.902	0.291	-0.109
-132.356	440.989	-0.010	-0.021
-131.341	-2.447	-0.190	0.133
-130.326	800.000	0.075	-0.290
-129.312	374.071	-0.040	0.080
-128.297	-35.714	0.202	-0.109
-127.283	94.117	-0.337	-0.380
-126.268	-142.071	-0.431	0.043
-125.253	-200.000	-0.026	-0.242
-124.239	-51.166	-0.304	0.142
-123.224	10.400	0.221	0.168
-122.210	10.947	0.140	0.107
-121.195	436.335	0.188	0.408
