DTS Sentinel unit serial number:	SN413079Multiplexer serial number:	ORYXHardware model number:	OX4-SRSoftware version number:	ORYX F/W v4.00 Oryx Data Collector v3.7.2.0data status	okinstallation	princeton_trtdifferential loss correction	single-endedforward channel	channel 4reverse channel	N/Adate	2019/09/15time	08:21:35forward acquisition time	60.00reverse acquisition time	0.00gamma	496.2192k internal	0.2307k external	0.2307temperature offset calibration	1.0031default loss term (dB/km)	0.3790temperature slope calibration	1.0000multiplexer offset coefficient	1.0000multiplexer slope coefficient	1.0000fibre end	0.00T internal ref (°C)	31.31T ext. ref 1 (°C)	5.02T ext. ref 2 (°C)	28.45length (m)	temperature (°C)	Stokes	anti-Stokes-747.200	-101.053	-0.243	-0.061
-746.185	-48.564	-0.295	0.144
-745.171	-130.106	-0.237	0.033
-744.156	-68.560	-0.225	0.089
-743.142	-111.932	0.155	0.032
-742.127	-155.544	-0.073	-0.005
-741.112	-53.300	0.256	-0.119
-740.098	-171.929	-0.409	-0.014
-739.083	-93.861	-0.185	0.052
-738.069	287.663	0.154	0.284
-737.054	800.000	-0.044	-0.129
-736.039	43.513	-0.244	0.227
-735.025	269.586	0.186	0.332
-734.010	-81.956	-0.232	-0.077
-732.996	114.103	-0.253	-0.312
-731.981	364.912	-0.094	-0.192
-730.966	75.124	-0.291	-0.311
-729.952	457.375	-0.112	-0.252
-728.937	-27.383	0.226	0.134
-727.923	-200.000	0.004	0.190
-726.908	800.000	0.066	0.241
-725.894	49.601	-0.172	0.165
-724.879	775.476	0.078	0.215
-723.864	144.938	-0.173	-0.235
-722.850	-29.087	-0.240	-0.140
-721.835	-1.679	0.289	0.207
-720.821	-88.441	0.094	-0.029
-719.806	-78.619	0.164	-0.057
-718.791	-200.000	0.066	-0.332
-717.777	-16.192	0.431	-0.278
-716.762	-44.351	0.227	0.115
-715.748	-78.678	0.128	0.044
-714.733	-200.000	-0.254	-0.001
-713.718	-200.000	0.061	-0.300
-712.704	123.053	0.103	-0.131
-711.689	303.069	-0.093	-0.175
-710.675	-200.000	-0.026	0.259
-709.660	-16.270	-0.206	-0.133
-708.645	-64.323	0.074	-0.031
-707.631	-63.375	-0.142	-0.060
-706.616	-137.963	0.043	0.005
-705.602	-101.631	-0.222	0.055
-704.587	83.666	-0.193	0.214
-703.572	-200.000	-0.025	0.145
-702.558	88.321	-0.261	-0.294
-701.543	800.000	0.044	-0.152
-700.529	800.000	0.164	-0.486
-699.514	-199.846	0.164	0.001
-698.499	-87.936	-0.074	-0.023
-697.485	579.130	0.065	-0.161
-696.470	15.762	0.149	0.119
-695.456	-35.279	-0.112	-0.062
-694.441	-200.000	-0.043	-0.331
-693.426	-147.770	0.153	0.013
-692.412	210.786	0.024	-0.038
-691.397	32.325	0.229	-0.201
-690.383	800.000	-0.120	0.391
-689.368	-69.254	-0.234	0.091
-688.354	-174.370	-0.325	0.010
-687.339	273.509	0.226	0.405
-686.324	-200.000	-0.009	0.114
-685.310	-200.000	0.013	0.337
-684.295	294.941	0.110	0.205
-683.281	274.135	-0.204	-0.367
-682.266	-48.227	-0.247	0.121
-681.251	-174.210	-0.112	-0.003
-680.237	-46.793	-0.119	0.059
-679.222	-151.140	-0.288	0.022
-678.208	693.324	0.102	-0.271
-677.193	-200.000	-0.031	-0.180
-676.178	-122.476	0.053	0.009
-675.164	-200.000	0.002	0.279
-674.149	-200.000	-0.013	0.231
-673.135	-200.000	-0.008	-0.108
-672.120	443.669	0.104	0.231
-671.105	161.326	-0.218	0.309
-670.091	-200.000	-0.000	0.015
-669.076	-65.614	0.164	0.067
-668.062	-47.860	-0.017	-0.009
-667.047	-39.007	-0.368	0.196
-666.032	-125.337	0.255	-0.039
-665.018	-109.531	0.109	0.023
-664.003	63.654	0.065	-0.066
-662.989	233.393	0.136	0.227
-661.974	-200.000	-0.027	-0.205
-660.959	-200.000	-0.008	0.059
-659.945	43.022	-0.069	0.063
-658.930	800.000	-0.038	-0.116
-657.916	-132.142	0.134	0.018
-656.901	-200.000	0.009	0.054
-655.886	328.995	0.129	-0.251
-654.872	603.225	-0.087	-0.219
-653.857	-200.000	-0.037	-0.218
-652.843	-127.437	0.169	0.025
-651.828	-86.811	0.127	0.039
-650.814	-200.000	-0.014	0.208
-649.799	34.703	-0.190	-0.168
-648.784	163.933	-0.120	-0.171
-647.770	-67.913	-0.316	-0.125
-646.755	-200.000	0.038	0.279
-645.741	-50.301	0.230	-0.110
-644.726	-81.754	-0.142	-0.047
-643.711	75.573	0.081	0.087
-642.697	279.688	-0.240	-0.434
-641.682	-200.000	0.019	-0.178
-640.668	800.000	0.057	0.192
-639.653	-94.766	0.182	0.050
-638.638	-65.532	0.245	-0.099
-637.624	179.150	-0.056	-0.083
-636.609	-53.893	-0.172	0.079
-635.595	-112.734	0.251	-0.050
-634.580	334.696	0.130	-0.255
-633.565	341.171	0.056	-0.111
-632.551	-127.342	-0.264	-0.039
-631.536	293.869	0.076	0.140
-630.522	-150.377	-0.159	0.012
-629.507	269.657	-0.160	-0.284
-628.492	288.631	0.147	-0.270
-627.478	101.661	-0.049	0.057
-626.463	800.000	0.113	-0.338
-625.449	800.000	0.073	-0.242
-624.434	-200.000	-0.022	-0.311
-623.419	21.769	0.165	0.136
-622.405	-51.573	0.045	-0.021
-621.390	40.890	0.067	-0.061
-620.376	-86.389	-0.184	-0.057
-619.361	253.995	-0.056	0.097
-618.346	-40.669	0.112	-0.059
-617.332	-200.000	-0.015	-0.076
-616.317	-72.119	-0.066	-0.025
-615.303	-126.285	0.030	0.004
-614.288	-77.000	-0.205	0.072
-613.273	255.504	0.186	0.322
-612.259	-83.175	0.270	0.088
-611.244	61.498	-0.234	-0.235
-610.230	-122.189	-0.131	0.022
-609.215	38.539	0.205	-0.185
-608.201	182.730	0.140	-0.209
-607.186	203.290	-0.149	-0.233
-606.171	-80.319	-0.245	-0.083
-605.157	-128.892	0.191	0.027
-604.142	-56.016	0.147	0.066
-603.128	-44.760	-0.189	-0.096
-602.113	-45.126	-0.083	-0.042
-601.098	-156.243	-0.409	0.026
-600.084	-48.992	-0.084	-0.041
-599.069	-92.776	-0.257	0.073
-598.055	-200.000	-0.004	0.147
-597.040	49.034	-0.115	-0.109
-596.025	-200.000	0.031	-0.361
-595.011	-84.815	-0.157	-0.050
-593.996	9.884	0.111	0.085
-592.982	425.310	-0.029	-0.064
-591.967	-200.000	0.021	0.112
-590.952	-88.868	-0.110	0.033
-589.938	-65.703	-0.228	-0.092
-588.923	-200.000	0.026	-0.360
-587.909	189.627	0.136	-0.207
-586.894	-43.324	-0.239	0.122
-585.879	300.617	0.038	-0.071
-584.865	-200.000	-0.049	0.433
-583.850	3.497	-0.200	-0.147
-582.836	276.483	0.089	-0.160
-581.821	556.274	-0.024	-0.059
-580.806	-31.977	-0.083	0.047
-579.792	-128.766	-0.437	0.062
-578.777	488.983	-0.046	-0.107
-577.763	587.447	0.118	-0.292
-576.748	117.180	0.125	0.155
-575.733	157.695	0.051	-0.071
-574.719	-20.763	0.226	0.140
-573.704	-200.000	0.017	0.174
-572.690	-200.000	0.042	-0.269
-571.675	552.669	0.053	0.129
-570.661	40.984	-0.234	0.214
-569.646	-20.207	0.215	-0.134
-568.631	-200.000	0.016	-0.181
-567.617	-200.000	-0.016	-0.148
-566.602	-47.292	-0.125	0.061
-565.588	240.535	-0.117	-0.198
-564.573	300.419	0.036	0.067
-563.558	-200.000	-0.020	-0.102
-562.544	-200.000	-0.016	0.216
-561.529	-105.950	-0.069	0.016
-560.515	-200.000	-0.016	0.183
-559.500	667.835	-0.259	0.675
-558.485	-47.289	-0.265	0.130
-557.471	-106.724	-0.578	-0.130
-556.456	534.916	0.093	-0.222
-555.442	-11.573	-0.015	0.010
-554.427	47.810	-0.147	-0.139
-553.412	44.725	0.270	0.250
-552.398	-74.754	-0.255	0.093
-551.383	-200.000	0.057	0.000
-550.369	-200.000	0.037	0.391
-549.354	0.879	0.150	-0.108
-548.339	-43.192	0.085	-0.044
-547.325	-67.485	-0.186	0.074
-546.310	-53.654	0.189	0.087
-545.296	-159.948	-0.369	-0.020
-544.281	800.000	0.090	-0.296
-543.266	66.544	-0.188	-0.192
-542.252	77.348	0.178	0.191
-541.237	-2.465	-0.285	-0.202
-540.223	111.046	0.095	-0.116
-539.208	12.663	0.047	-0.037
-538.193	-40.141	-0.209	-0.110
-537.179	246.868	0.149	0.253
-536.164	-109.504	0.176	0.037
-535.150	-120.777	0.203	-0.035
-534.135	-87.927	0.199	0.060
-533.121	-89.936	-0.282	-0.083
-532.106	-16.381	-0.145	0.093
-531.091	-82.145	-0.084	0.028
-530.077	800.000	-0.048	-0.189
-529.062	-200.000	0.036	0.182
-528.048	-37.198	-0.076	0.041
-527.033	-200.000	0.009	-0.085
-526.018	131.911	-0.178	0.231
-525.004	-76.080	-0.057	0.020
-523.989	153.325	-0.215	0.297
-522.975	3.614	0.289	-0.213
-521.960	-4.802	-0.104	-0.072
-520.945	255.978	0.134	-0.232
-519.931	-200.000	0.001	0.061
-518.916	800.000	0.059	0.187
-517.902	8.053	0.186	0.141
-516.887	391.160	-0.104	0.217
-515.872	-20.711	0.104	-0.065
-514.858	250.643	0.138	-0.237
-513.843	280.679	-0.086	0.154
-512.829	-85.864	0.141	-0.044
-511.814	-35.367	0.249	0.137
-510.799	-200.000	0.075	0.353
-509.785	-21.726	0.117	-0.072
-508.770	-44.712	0.215	0.108
-507.756	30.364	-0.159	-0.137
-506.741	15.960	0.375	-0.298
-505.726	-113.383	0.060	0.012
-504.712	227.585	-0.075	-0.123
-503.697	38.966	0.139	-0.125
-502.683	-33.216	-0.196	-0.109
-501.668	256.064	-0.174	0.300
-500.653	-20.223	0.165	0.103
-499.639	-158.524	0.183	-0.011
-498.624	19.306	0.151	-0.122
-497.610	800.000	-0.085	0.290
-496.595	81.772	0.277	-0.302
-495.581	-41.133	-0.253	-0.132
-494.566	-68.335	0.268	-0.105
-493.551	-200.000	-0.001	-0.155
-492.537	213.947	0.162	0.258
-491.522	25.804	-0.119	-0.100
-490.508	297.397	-0.101	-0.186
-489.493	-78.955	-0.168	-0.058
-488.478	-88.270	0.078	-0.023
-487.464	-94.006	0.050	-0.014
-486.449	-200.000	0.007	0.193
-485.435	800.000	-0.042	0.180
-484.420	-110.089	0.421	0.089
-483.405	-200.000	-0.045	0.320
-482.391	-200.000	0.020	0.132
-481.376	-114.052	0.139	0.027
-480.362	-106.219	-0.195	0.044
-479.347	-59.675	0.258	0.111
-478.332	-200.000	-0.034	-0.168
-477.318	800.000	0.119	-0.370
-476.303	-19.573	0.186	-0.116
-475.289	-52.586	-0.101	0.047
-474.274	688.147	-0.008	0.021
-473.259	191.091	-0.074	-0.111
-472.245	174.425	-0.152	0.221
-471.230	11.423	0.151	-0.116
-470.216	-83.997	-0.120	0.038
-469.201	800.000	0.115	-0.378
-468.186	187.407	-0.076	0.114
-467.172	100.554	-0.055	-0.065
-466.157	-36.451	0.256	-0.139
-465.143	-176.962	0.170	0.004
-464.128	28.333	-0.175	-0.149
-463.113	221.814	0.142	-0.230
-462.099	-29.702	0.132	0.076
-461.084	165.499	0.259	-0.368
-460.070	-200.000	-0.003	-0.067
-459.055	-162.987	0.131	0.006
-458.040	-137.380	0.227	-0.026
-457.026	-200.000	-0.006	0.270
-456.011	250.582	0.041	-0.069
-454.997	-54.651	0.324	0.147
-453.982	225.340	0.120	0.195
-452.968	-102.214	0.248	-0.060
-451.953	-200.000	-0.000	0.083
-450.938	-200.000	0.027	-0.134
-449.924	299.575	-0.067	-0.124
-448.909	-144.878	-0.340	-0.031
-447.895	-44.528	0.031	-0.016
-446.880	800.000	0.025	0.096
-445.865	-109.067	0.307	-0.066
-444.851	-200.000	0.025	0.205
-443.836	65.092	-0.075	-0.076
-442.822	-58.229	-0.051	0.022
-441.807	-24.150	0.112	-0.067
-440.792	75.674	-0.188	0.199
-439.778	343.812	-0.038	-0.074
-438.763	-200.000	0.026	0.381
-437.749	-78.619	0.080	0.027
-436.734	433.442	0.116	-0.253
-435.719	800.000	0.057	-0.172
-434.705	-108.803	-0.349	0.075
-433.690	499.224	-0.129	-0.300
-432.676	21.107	-0.254	-0.207
-431.661	-30.318	-0.263	-0.150
-430.646	-84.715	-0.201	0.064
-429.632	-3.843	-0.228	-0.159
-428.617	79.488	-0.046	0.050
-427.603	800.000	0.036	0.129
-426.588	111.194	0.032	-0.039
-425.573	197.878	0.112	0.172
-424.559	-79.386	0.322	-0.109
-423.544	-200.000	0.016	0.129
-422.530	-200.000	0.030	-0.331
-421.515	133.934	0.070	-0.090
-420.500	10.569	0.104	-0.080
-419.486	-200.000	0.252	0.001
-418.471	151.788	-0.097	-0.132
-417.457	-77.693	-0.314	-0.109
-416.442	123.966	0.186	-0.234
-415.428	-200.000	0.000	-0.254
-414.413	113.522	0.137	0.167
-413.398	-52.402	0.315	0.146
-412.384	-131.815	0.101	0.013
-411.369	-200.000	0.089	0.519
-410.355	-167.901	-0.038	0.001
-409.340	800.000	-0.015	0.053
-408.325	-18.397	-0.116	0.073
-407.311	39.597	0.152	0.137
-406.296	87.372	0.216	-0.240
-405.282	800.000	-0.157	0.434
-404.267	-121.180	0.125	-0.021
-403.252	-106.452	0.294	-0.066
-402.238	30.267	0.145	-0.124
-401.223	-200.000	-0.065	0.286
-400.209	116.904	-0.445	0.548
-399.194	57.959	0.161	-0.158
-398.179	-124.457	-0.183	0.029
-397.165	800.000	0.012	0.043
-396.150	102.540	-0.217	0.255
-395.136	800.000	0.032	0.118
-394.121	-166.550	-0.156	-0.007
-393.106	-0.577	-0.146	-0.104
-392.092	-98.150	0.071	0.018
-391.077	39.978	-0.136	0.123
-390.063	169.721	-0.071	-0.102
-389.048	172.308	0.130	0.187
-388.033	153.752	-0.079	0.108
-387.019	264.930	0.118	0.207
-386.004	26.125	0.177	0.148
-384.990	-200.000	-0.053	-0.283
-383.975	-63.448	-0.016	-0.007
-382.960	-90.343	0.057	-0.017
-381.946	102.370	-0.018	-0.021
-380.931	-159.446	0.200	-0.011
-379.917	-200.000	0.007	-0.122
-378.902	-57.580	0.069	-0.030
-377.888	-200.000	0.006	0.370
-376.873	-70.455	0.227	0.086
-375.858	-74.041	-0.366	0.133
-374.844	-128.832	0.109	-0.015
-373.829	182.604	0.021	0.031
-372.815	800.000	0.129	0.471
-371.800	-165.014	0.249	-0.011
-370.785	-109.429	-0.216	-0.046
-369.771	381.010	0.086	0.177
-368.756	196.622	0.081	0.124
-367.742	-156.196	-0.024	0.001
-366.727	-200.000	0.012	0.113
-365.712	800.000	-0.035	-0.102
-364.698	272.573	-0.069	0.122
-363.683	-92.573	-0.258	-0.073
-362.669	734.162	-0.017	-0.045
-361.654	-200.000	0.002	-0.054
-360.639	800.000	0.081	0.227
-359.625	-159.568	-0.082	-0.005
-358.610	383.103	-0.024	0.049
-357.596	25.413	0.168	-0.140
-356.581	289.606	0.112	0.203
-355.566	-1.544	-0.149	0.106
-354.552	-127.635	0.236	-0.034
-353.537	127.227	0.105	0.134
-352.523	348.668	0.095	0.187
-351.508	29.072	0.047	0.040
-350.493	-174.771	0.348	-0.010
-349.479	-114.874	-0.154	0.029
-348.464	-124.128	0.174	-0.027
-347.450	800.000	0.086	0.271
-346.435	-200.000	0.014	0.094
-345.420	95.572	-0.097	-0.111
-344.406	113.321	-0.088	0.108
-343.391	95.301	0.278	0.317
-342.377	-55.021	-0.006	-0.003
-341.362	-200.000	-0.007	-0.129
-340.348	800.000	0.078	0.283
-339.333	229.287	0.092	-0.151
-338.318	-50.199	0.231	-0.109
-337.304	-170.740	-0.336	0.012
-336.289	-68.736	-0.151	0.058
-335.275	-32.139	0.437	0.245
-334.260	-67.733	-0.095	0.037
-333.245	138.122	0.202	-0.266
-332.231	-200.000	0.017	0.231
-331.216	-99.259	-0.251	0.063
-330.202	-115.450	-0.342	0.064
-329.187	74.362	-0.283	0.298
-328.172	-200.000	0.031	0.252
-327.158	45.595	0.053	0.049
-326.143	82.440	-0.126	0.137
-325.129	800.000	0.026	-0.096
-324.114	286.352	-0.155	0.280
-323.099	145.003	0.064	0.086
-322.085	87.985	0.142	-0.158
-321.070	800.000	-0.030	0.089
-320.056	-116.940	-0.207	0.038
-319.041	-93.245	0.159	-0.044
-318.026	9.435	0.074	0.056
-317.012	-92.231	-0.297	0.084
-315.997	-112.357	-0.198	-0.040
-314.983	20.295	0.181	-0.146
-313.968	-200.000	-0.004	0.024
-312.953	52.906	-0.201	0.192
-311.939	116.381	-0.085	0.104
-310.924	-47.226	0.365	0.178
-309.910	800.000	0.077	-0.266
-308.895	-114.858	0.034	0.006
-307.880	-108.022	-0.120	0.026
-306.866	-200.000	0.026	0.270
-305.851	-124.308	0.124	0.019
-304.837	-128.141	0.463	-0.066
-303.822	343.617	-0.201	0.394
-302.807	178.252	-0.075	0.110
-301.793	-160.132	0.151	-0.008
-300.778	-30.938	0.221	0.125
-299.764	-92.502	0.159	0.045
-298.749	656.930	0.044	-0.112
-297.735	-200.000	0.012	-0.127
-296.720	192.710	-0.043	0.065
-295.705	-200.000	-0.159	-0.000
-294.691	-6.601	0.083	0.056
-293.676	800.000	-0.077	-0.336
-292.662	32.734	0.168	0.145
-291.647	-200.000	0.051	-0.310
-290.632	-25.247	0.058	0.035
-289.618	50.506	-0.108	-0.102
-288.603	-147.461	0.264	0.022
-287.589	125.227	0.187	0.236
-286.574	-46.953	-0.160	0.078
-285.559	314.573	0.034	0.065
-284.545	-146.229	-0.025	-0.002
-283.530	80.734	0.068	0.073
-282.516	-85.323	-0.193	-0.060
-281.501	-37.489	-0.215	-0.114
-280.486	-39.934	0.112	0.058
-279.472	-70.037	-0.185	-0.070
-278.457	239.461	0.071	-0.118
-277.443	-17.744	0.097	0.061
-276.428	-24.352	0.011	-0.006
-275.413	800.000	-0.091	0.320
-274.399	-200.000	0.001	0.209
-273.384	800.000	0.092	0.311
-272.370	149.124	-0.034	-0.046
-271.355	-193.916	-0.136	0.001
-270.340	800.000	-0.094	-0.286
-269.326	22.198	0.141	0.115
-268.311	133.065	-0.042	0.054
-267.297	-200.000	0.078	0.000
-266.282	-200.000	-0.064	-0.326
-265.267	-138.559	0.155	0.017
-264.253	3.825	0.164	-0.119
-263.238	788.717	-0.070	-0.191
-262.224	62.518	-0.044	0.044
-261.209	16.306	0.209	0.164
-260.195	800.000	0.053	-0.188
-259.180	7.641	0.204	-0.152
-258.165	459.920	0.075	-0.167
-257.151	120.061	0.215	0.267
-256.136	-128.583	0.062	-0.009
-255.122	306.492	-0.089	-0.165
-254.107	144.905	-0.075	-0.100
-253.092	800.000	-0.034	-0.120
-252.078	-117.385	0.433	0.078
-251.063	-61.794	-0.305	-0.127
-250.049	303.499	-0.074	-0.138
-249.034	-149.060	-0.227	0.018
-248.019	306.708	-0.129	-0.239
-247.005	-200.000	-0.014	0.326
-245.990	-73.108	0.194	0.071
-244.976	-200.000	-0.033	-0.279
-243.961	370.030	0.051	0.103
-242.946	383.211	-0.160	0.328
-241.932	148.437	0.163	0.220
-240.917	-151.839	-0.415	0.030
-239.903	-53.285	0.129	-0.059
-238.888	-189.119	-0.241	-0.003
-237.873	-200.000	0.058	-0.262
-236.859	-165.563	0.237	-0.010
-235.844	-200.000	-0.022	0.298
-234.830	12.467	-0.048	0.037
-233.815	-99.635	-0.251	0.063
-232.800	-82.638	0.197	0.064
-231.786	-178.820	-0.367	0.008
-230.771	-200.000	0.009	0.147
-229.757	800.000	0.029	0.100
-228.742	14.351	-0.129	-0.100
-227.727	-150.856	-0.071	0.005
-226.713	37.218	-0.117	-0.103
-225.698	-94.222	-0.425	0.116
-224.684	-27.441	-0.157	0.091
-223.669	20.002	-0.057	-0.046
-222.655	-23.193	0.140	0.084
-221.640	38.972	0.138	-0.123
-220.625	-101.960	0.228	-0.055
-219.611	800.000	0.103	0.299
-218.596	720.132	0.149	-0.396
-217.582	552.329	-0.154	0.368
-216.567	54.233	0.237	0.228
-215.552	598.446	0.006	-0.015
-214.538	254.056	-0.049	-0.083
-213.523	-130.536	-0.154	-0.021
-212.509	150.931	-0.033	0.045
-211.494	344.416	-0.132	0.258
-210.479	-9.372	-0.319	-0.213
-209.465	-77.765	0.188	-0.065
-208.450	191.607	0.168	0.252
-207.436	173.706	-0.110	-0.158
-206.421	101.090	-0.069	-0.080
-205.406	-63.790	0.294	-0.120
-204.392	-72.868	-0.144	-0.053
-203.377	-200.000	-0.020	0.115
-202.363	1.325	-0.006	0.004
-201.348	175.870	0.207	-0.300
-200.333	-61.065	0.098	0.041
-199.319	-89.706	0.115	0.034
-198.304	305.679	-0.131	-0.242
-197.290	-13.867	-0.216	-0.139
-196.275	234.495	-0.063	0.103
-195.260	57.716	-0.100	0.097
-194.246	800.000	0.095	-0.328
-193.231	-92.670	0.093	0.026
-192.217	31.360	0.248	-0.212
-191.202	132.586	-0.242	-0.310
-190.187	579.030	-0.129	0.313
-189.173	18.824	-0.169	-0.135
-188.158	76.644	-0.104	-0.110
-187.144	800.000	0.134	-0.414
-186.129	-122.907	0.214	0.034
-185.114	-194.634	-0.247	0.002
-184.100	31.371	0.056	0.048
-183.085	14.874	0.236	0.184
-182.071	24.366	-0.123	0.101
-181.056	-200.000	-0.026	-0.115
-180.042	146.896	-0.048	0.064
-179.027	-32.306	-0.041	-0.023
-178.012	-168.504	-0.299	0.011
-176.998	-74.716	-0.487	0.174
-175.983	107.429	-0.052	0.062
-174.969	-82.197	0.464	-0.150
-173.954	-180.972	-0.121	-0.002
-172.939	-200.000	0.083	-0.373
-171.925	800.000	-0.059	-0.192
-170.910	-200.000	-0.001	0.140
-169.896	82.635	0.087	-0.094
-168.881	8.602	0.103	-0.077
-167.866	120.167	-0.171	0.212
-166.852	-1.584	-0.084	-0.059
-165.837	-200.000	0.010	-0.207
-164.823	800.000	-0.097	0.294
-163.808	800.000	-0.064	-0.204
-162.793	-200.000	-0.043	-0.505
-161.779	41.922	-0.089	0.080
-160.764	-23.502	0.127	0.076
-159.750	183.257	-0.187	-0.275
-158.735	187.401	-0.125	-0.186
-157.720	-200.000	-0.045	0.219
-156.706	800.000	-0.012	-0.040
-155.691	182.702	-0.316	-0.464
-154.677	263.603	-0.112	0.193
-153.662	13.125	-0.203	-0.156
-152.647	-145.306	0.145	-0.013
-151.633	78.581	0.179	0.190
-150.618	-200.000	0.009	0.254
-149.604	193.825	-0.083	0.124
-148.589	-112.963	0.264	-0.052
-147.574	-7.565	0.110	-0.074
-146.560	117.911	0.219	0.268
-145.545	-83.715	-0.257	0.082
-144.531	-119.904	0.283	0.048
-143.516	226.729	-0.059	-0.096
-142.502	85.881	-0.214	-0.234
-141.487	-5.590	0.143	-0.097
-140.472	157.695	0.079	0.109
-139.458	79.910	-0.126	0.135
-138.443	-135.615	0.228	0.027
-137.429	-200.000	-0.008	0.047
-136.414	-104.272	0.240	0.055
-135.399	-48.066	0.192	-0.092
-134.385	-10.335	0.088	-0.058
-133.370	-200.000	0.012	0.232
-132.356	137.994	0.095	0.123
-131.341	-4.990	0.211	-0.144
-130.326	800.000	-0.095	-0.370
-129.312	-19.625	0.207	0.127
-128.297	-103.594	-0.273	0.064
-127.283	-41.419	0.261	-0.134
-126.268	285.171	-0.043	-0.078
-125.253	800.000	0.038	-0.152
-124.239	87.093	0.113	-0.124
-123.224	768.315	-0.079	0.213
-122.210	800.000	0.027	0.086
-121.195	44.159	-0.181	-0.164
