DTS Sentinel unit serial number:	SN413079Multiplexer serial number:	ORYXHardware model number:	OX4-SRSoftware version number:	ORYX F/W v4.00 Oryx Data Collector v3.7.2.0data status	okinstallation	princeton_trtdifferential loss correction	single-endedforward channel	channel 4reverse channel	N/Adate	2019/09/12time	23:01:35forward acquisition time	60.00reverse acquisition time	0.00gamma	496.2192k internal	0.2316k external	0.2316temperature offset calibration	1.0178default loss term (dB/km)	0.3790temperature slope calibration	1.0000multiplexer offset coefficient	1.0000multiplexer slope coefficient	1.0000fibre end	0.00T internal ref (°C)	29.31T ext. ref 1 (°C)	3.75T ext. ref 2 (°C)	23.92length (m)	temperature (°C)	Stokes	anti-Stokes-747.200	-200.000	0.024	0.134
-746.185	800.000	-0.095	0.291
-745.171	-200.000	0.018	0.110
-744.156	800.000	-0.086	0.255
-743.142	-133.536	-0.167	0.021
-742.127	-141.415	0.252	0.026
-741.112	-18.805	0.115	-0.072
-740.098	-200.000	-0.022	0.210
-739.083	-200.000	0.034	0.290
-738.069	-129.392	-0.252	-0.035
-737.054	-147.978	0.147	-0.012
-736.039	-97.981	-0.278	-0.073
-735.025	-160.154	0.513	0.028
-734.010	-172.523	-0.151	0.005
-732.996	-183.714	0.230	0.004
-731.981	295.204	0.229	-0.425
-730.966	-9.525	0.141	-0.095
-729.952	37.364	-0.192	-0.172
-728.937	-97.552	-0.174	0.046
-727.923	-22.674	-0.357	-0.218
-726.908	137.904	0.110	0.146
-725.894	-134.952	0.196	-0.024
-724.879	-200.000	0.027	0.148
-723.864	-200.000	-0.028	-0.263
-722.850	-8.744	0.157	-0.106
-721.835	136.567	-0.062	-0.082
-720.821	169.159	-0.135	0.195
-719.806	239.925	0.067	0.112
-718.791	19.735	-0.135	0.110
-717.777	-96.518	-0.326	-0.087
-716.762	800.000	-0.046	0.195
-715.748	-200.000	0.042	0.361
-714.733	-38.919	0.204	0.109
-713.718	73.526	-0.018	0.019
-712.704	187.564	-0.112	-0.169
-711.689	-83.383	0.293	-0.095
-710.675	-83.815	-0.021	0.007
-709.660	-200.000	0.008	-0.300
-708.645	260.650	-0.037	-0.065
-707.631	-3.215	0.174	0.123
-706.616	-104.539	0.206	-0.048
-705.602	-21.520	0.447	0.275
-704.587	-54.502	-0.084	-0.038
-703.572	-81.068	-0.167	0.056
-702.558	-200.000	0.023	0.219
-701.543	13.969	-0.113	-0.089
-700.529	66.323	-0.202	0.207
-699.514	8.818	-0.150	0.115
-698.499	-200.000	-0.008	-0.071
-697.485	800.000	0.093	-0.310
-696.470	143.911	0.216	-0.291
-695.456	91.289	-0.110	-0.125
-694.441	555.034	-0.077	-0.186
-693.426	-109.148	-0.301	0.065
-692.412	12.045	-0.078	-0.061
-691.397	80.055	-0.036	-0.039
-690.383	-88.221	-0.361	-0.109
-689.368	-200.000	-0.032	0.325
-688.354	270.147	0.195	-0.347
-687.339	-200.000	-0.057	-0.292
-686.324	-200.000	0.034	-0.198
-685.310	322.448	-0.036	0.070
-684.295	-135.890	0.066	0.008
-683.281	71.632	0.316	0.332
-682.266	199.298	-0.223	-0.346
-681.251	-9.716	0.219	-0.147
-680.237	-84.748	0.207	0.066
-679.222	139.921	0.215	-0.286
-678.208	-39.651	0.266	0.141
-677.193	292.120	0.140	-0.257
-676.178	-24.601	0.099	0.060
-675.164	-82.251	0.097	0.032
-674.149	-131.128	-0.256	0.034
-673.135	50.869	0.193	-0.185
-672.120	171.980	-0.175	-0.254
-671.105	199.272	-0.208	0.322
-670.091	-100.741	0.256	0.064
-669.076	800.000	0.107	-0.300
-668.062	-37.768	-0.165	-0.089
-667.047	-194.415	-0.172	-0.001
-666.032	201.569	-0.062	0.097
-665.018	-32.112	0.155	0.087
-664.003	248.763	-0.113	-0.193
-662.989	382.360	0.117	-0.244
-661.974	-76.046	0.098	0.035
-660.959	-112.059	-0.125	0.025
-659.945	-11.070	0.195	0.130
-658.930	470.455	-0.101	-0.229
-657.916	-81.326	-0.267	0.089
-656.901	-200.000	-0.011	0.158
-655.886	-200.000	-0.019	-0.500
-654.872	38.909	0.118	-0.106
-653.857	-200.000	0.010	0.123
-652.843	263.216	-0.228	0.400
-651.828	94.780	0.315	0.361
-650.814	-200.000	-0.029	-0.231
-649.799	-133.957	0.351	0.044
-648.784	169.027	-0.118	-0.171
-647.770	800.000	-0.221	-0.621
-646.755	-8.441	-0.171	-0.116
-645.741	-200.000	0.011	-0.129
-644.726	-146.482	-0.105	-0.009
-643.711	800.000	-0.050	0.217
-642.697	447.408	-0.092	-0.204
-641.682	541.494	-0.186	0.447
-640.668	-163.318	0.241	-0.012
-639.653	-200.000	-0.038	-0.242
-638.638	-32.156	0.108	0.061
-637.624	800.000	-0.062	0.184
-636.609	-108.374	-0.075	-0.016
-635.595	-200.000	0.010	0.137
-634.580	131.425	0.218	0.283
-633.565	80.263	0.051	-0.055
-632.551	366.314	0.059	-0.121
-631.536	-58.644	-0.193	0.084
-630.522	-142.913	-0.307	-0.030
-629.507	134.653	0.123	-0.161
-628.492	245.446	-0.076	-0.129
-627.478	800.000	-0.085	-0.290
-626.463	-200.000	-0.029	-0.251
-625.449	-149.781	-0.225	0.018
-624.434	800.000	0.057	-0.202
-623.419	331.858	0.067	-0.131
-622.405	97.291	-0.186	-0.215
-621.390	-17.553	0.153	-0.097
-620.376	-200.000	-0.002	-0.179
-619.361	-143.032	-0.117	0.011
-618.346	-110.090	-0.209	-0.044
-617.332	13.825	0.121	-0.095
-616.317	93.880	0.247	0.282
-615.303	-102.031	0.360	0.087
-614.288	-200.000	0.009	0.246
-613.273	-200.000	0.006	0.389
-612.259	-148.856	-0.236	0.019
-611.244	-96.865	0.143	-0.038
-610.230	73.458	0.051	-0.054
-609.215	348.111	-0.118	0.235
-608.201	155.881	-0.048	0.067
-607.186	351.849	-0.133	0.265
-606.171	46.278	-0.098	0.092
-605.157	-154.745	0.064	0.004
-604.142	-82.931	0.138	-0.045
-603.128	-134.902	-0.331	0.040
-602.113	-179.478	0.098	0.002
-601.098	42.033	-0.115	-0.105
-600.084	149.405	-0.091	-0.125
-599.069	-138.824	0.062	-0.007
-598.055	24.994	0.175	0.146
-597.040	2.910	0.058	-0.042
-596.025	-90.865	0.325	-0.094
-595.011	768.459	-0.098	-0.268
-593.996	29.637	0.201	-0.172
-592.982	-200.000	-0.002	0.163
-591.967	12.623	0.215	-0.167
-590.952	8.712	-0.170	0.129
-589.938	86.074	-0.062	-0.068
-588.923	37.236	0.119	-0.106
-587.909	800.000	0.131	-0.388
-586.894	46.912	-0.096	-0.090
-585.879	4.839	0.268	-0.198
-584.865	-200.000	-0.029	0.189
-583.850	800.000	-0.116	-0.386
-582.836	-151.431	-0.343	0.026
-581.821	-79.252	-0.450	0.153
-580.806	286.274	0.156	0.284
-579.792	-99.308	0.284	-0.072
-578.777	-13.430	0.212	-0.138
-577.763	-60.545	-0.316	0.135
-576.748	-68.403	-0.371	-0.145
-575.733	-57.280	0.217	0.096
-574.719	-151.801	-0.183	-0.014
-573.704	-153.061	0.110	-0.008
-572.690	86.491	0.013	0.015
-571.675	-200.000	0.019	0.216
-570.661	67.309	-0.075	-0.077
-569.646	86.236	-0.144	-0.160
-568.631	181.753	-0.101	0.149
-567.617	-19.533	0.147	-0.091
-566.602	-75.927	0.254	0.090
-565.588	-54.580	0.182	0.083
-564.573	17.372	-0.315	-0.252
-563.558	560.658	-0.075	-0.183
-562.544	-161.300	-0.048	0.002
-561.529	800.000	0.050	-0.219
-560.515	-144.874	0.286	-0.026
-559.500	-200.000	0.014	0.073
-558.485	243.437	0.036	0.061
-557.471	141.989	0.234	-0.312
-556.456	-144.083	0.340	-0.032
-555.442	25.496	-0.176	0.147
-554.427	-119.166	-0.127	0.022
-553.412	-200.000	-0.025	0.186
-552.398	-163.120	0.183	0.009
-551.383	-112.079	-0.437	0.088
-550.369	74.615	-0.168	0.178
-549.354	115.631	-0.204	0.250
-548.339	-151.344	-0.115	-0.009
-547.325	-200.000	-0.017	0.384
-546.310	-200.000	0.019	-0.404
-545.296	211.426	0.264	-0.418
-544.281	-136.622	0.286	-0.033
-543.266	-147.089	-0.275	-0.024
-542.252	65.884	0.261	-0.266
-541.237	-13.678	-0.133	-0.087
-540.223	-64.464	0.227	-0.093
-539.208	-200.000	0.003	0.262
-538.193	335.060	0.090	0.176
-537.179	-200.000	0.007	0.118
-536.164	22.295	-0.361	-0.296
-535.150	800.000	0.068	-0.240
-534.135	212.240	0.022	-0.035
-533.121	-200.000	-0.009	-0.062
-532.106	-78.873	0.425	0.145
-531.091	176.440	-0.113	-0.165
-530.077	800.000	-0.098	-0.293
-529.062	80.818	-0.032	0.035
-528.048	-139.780	0.321	-0.034
-527.033	99.238	-0.082	-0.095
-526.018	-176.861	-0.270	-0.007
-525.004	38.459	-0.036	-0.032
-523.989	-200.000	-0.013	-0.191
-522.975	-189.366	-0.156	-0.002
-521.960	183.604	0.028	-0.041
-520.945	800.000	0.063	-0.208
-519.931	444.471	0.196	-0.433
-518.916	156.805	0.268	0.372
-517.902	-13.578	-0.052	-0.034
-516.887	118.854	-0.189	-0.235
-515.872	-119.986	0.275	0.047
-514.858	287.015	-0.048	-0.088
-513.843	-100.987	-0.311	0.077
-512.829	256.883	-0.128	-0.221
-511.814	-200.000	-0.014	-0.296
-510.799	-87.312	0.167	0.051
-509.785	-10.021	-0.059	0.039
-508.770	-200.000	0.026	0.183
-507.756	-200.000	0.181	-0.001
-506.741	-76.683	-0.138	0.048
-505.726	-35.917	-0.307	-0.167
-504.712	-112.560	-0.297	0.059
-503.697	-162.510	0.279	-0.014
-502.683	164.526	-0.210	-0.297
-501.668	6.959	-0.110	-0.082
-500.653	-71.345	-0.141	0.053
-499.639	-41.553	0.349	0.180
-498.624	107.189	0.185	0.220
-497.610	-79.314	0.273	-0.093
-496.595	800.000	-0.018	-0.059
-495.581	61.485	-0.352	-0.351
-494.566	101.823	0.126	0.147
-493.551	256.288	-0.108	-0.187
-492.537	226.813	0.023	0.037
-491.522	3.955	-0.070	0.051
-490.508	185.419	-0.222	-0.331
-489.493	-116.511	-0.189	0.035
-488.478	199.534	-0.061	-0.094
-487.464	-194.296	0.398	0.003
-486.449	-96.161	-0.167	-0.045
-485.435	-128.646	-0.250	0.035
-484.420	755.138	-0.016	-0.042
-483.405	-74.526	0.377	-0.136
-482.391	187.848	0.185	0.277
-481.376	800.000	0.092	0.256
-480.362	-110.300	0.129	-0.027
-479.347	-200.000	0.012	-0.129
-478.332	-200.000	-0.038	0.184
-477.318	-109.734	0.242	-0.051
-476.303	-200.000	-0.041	0.255
-475.289	307.739	-0.243	-0.455
-474.274	-200.000	-0.010	-0.390
-473.259	23.280	-0.194	-0.160
-472.245	349.795	0.068	0.136
-471.230	30.110	-0.020	0.017
-470.216	-200.000	-0.034	0.255
-469.201	166.104	-0.028	-0.039
-468.186	-16.923	-0.126	-0.080
-467.172	-178.912	-0.293	0.007
-466.157	-101.027	-0.086	-0.021
-465.143	-45.194	-0.315	0.157
-464.128	-200.000	-0.044	-0.390
-463.113	197.371	0.055	0.084
-462.099	240.292	-0.131	0.219
-461.084	-137.837	-0.230	0.026
-460.070	-200.000	0.001	-0.239
-459.055	-89.190	-0.148	0.044
-458.040	-200.000	-0.002	-0.053
-457.026	-200.000	-0.019	-0.211
-456.011	538.580	0.129	0.306
-454.997	-108.791	0.236	0.051
-453.982	29.650	-0.106	0.091
-452.968	475.841	0.081	-0.183
-451.953	74.360	-0.074	0.078
-450.938	-200.000	-0.031	-0.222
-449.924	774.081	0.060	0.163
-448.909	12.138	0.098	0.075
-447.895	61.268	0.251	0.250
-446.880	-132.100	0.217	-0.028
-445.865	599.395	0.085	-0.212
-444.851	-103.380	-0.234	-0.055
-443.836	78.455	0.126	-0.135
-442.822	-20.834	0.156	0.096
-441.807	-200.000	0.114	-0.511
-440.792	26.076	-0.040	0.033
-439.778	-200.000	-0.026	-0.129
-438.763	-200.000	-0.019	0.163
-437.749	-70.087	0.184	0.070
-436.734	800.000	0.170	-0.470
-435.719	269.290	-0.108	-0.190
-434.705	0.111	-0.305	0.217
-433.690	800.000	-0.048	0.205
-432.676	800.000	0.102	0.290
-431.661	87.922	0.116	0.128
-430.646	-148.037	0.202	0.017
-429.632	127.479	-0.257	-0.327
-428.617	48.972	0.223	0.209
-427.603	-35.850	0.087	0.047
-426.588	-7.814	0.240	-0.162
-425.573	-70.534	-0.377	-0.143
-424.559	28.360	-0.178	0.151
-423.544	191.023	0.163	-0.246
-422.530	-200.000	0.007	0.152
-421.515	37.177	-0.064	-0.056
-420.500	133.147	-0.186	0.240
-419.486	-57.006	-0.275	0.121
-418.471	800.000	0.067	-0.281
-417.457	707.685	0.044	0.116
-416.442	30.391	0.318	-0.271
-415.428	768.410	0.052	-0.140
-414.413	10.252	0.121	-0.092
-413.398	195.874	-0.051	-0.077
-412.384	695.378	0.119	0.313
-411.369	714.213	-0.078	0.208
-410.355	-196.712	0.407	-0.003
-409.340	-200.000	0.032	-0.222
-408.325	335.535	0.128	0.249
-407.311	-23.869	0.205	-0.122
-406.296	39.635	0.106	0.095
-405.282	800.000	-0.053	0.171
-404.267	221.754	0.103	0.166
-403.252	-200.000	-0.041	0.258
-402.238	-50.492	-0.124	-0.058
-401.223	499.546	0.113	-0.259
-400.209	-103.846	-0.052	-0.012
-399.194	-200.000	-0.007	0.061
-398.179	-200.000	-0.004	-0.034
-397.165	10.261	-0.172	0.131
-396.150	-200.000	0.047	-0.248
-395.136	-62.771	0.169	0.070
-394.121	-200.000	-0.016	0.272
-393.106	800.000	0.067	0.234
-392.092	10.268	-0.046	0.035
-391.077	-194.113	-0.210	0.002
-390.063	800.000	0.016	-0.044
-389.048	-200.000	-0.001	0.082
-388.033	-127.012	0.278	0.041
-387.019	-32.035	-0.143	0.080
-386.004	209.654	-0.071	-0.111
-384.990	794.669	0.052	-0.143
-383.975	17.499	-0.101	0.080
-382.960	3.299	0.121	0.088
-381.946	-88.861	-0.251	-0.074
-380.931	800.000	0.092	0.366
-379.917	800.000	-0.055	0.209
-378.902	-4.265	0.180	0.125
-377.888	338.773	-0.092	-0.180
-376.873	21.288	-0.116	0.094
-375.858	-118.882	-0.369	0.065
-374.844	-43.423	-0.363	0.183
-373.829	-200.000	0.019	0.225
-372.815	-110.032	0.221	0.046
-371.800	200.193	0.171	0.263
-370.785	-173.683	0.182	0.005
-369.771	110.610	0.095	0.114
-368.756	51.942	0.308	0.292
-367.742	-109.063	0.159	-0.034
-366.727	-200.000	0.010	0.208
-365.712	246.155	-0.166	0.280
-364.698	800.000	-0.063	0.237
-363.683	-149.993	0.235	-0.018
-362.669	223.507	0.173	0.278
-361.654	256.944	-0.141	0.242
-360.639	-99.592	0.319	-0.080
-359.625	-14.122	-0.110	-0.071
-358.610	-133.233	0.308	-0.039
-357.596	184.981	0.153	-0.227
-356.581	-67.692	-0.387	-0.151
-355.566	-69.260	-0.091	-0.035
-354.552	0.804	0.124	-0.088
-353.537	6.575	0.144	0.107
-352.523	370.558	0.161	0.326
-351.508	54.970	-0.238	0.230
-350.493	800.000	-0.101	0.350
-349.479	27.269	0.111	-0.093
-348.464	236.744	-0.092	0.152
-347.450	-200.000	-0.068	0.425
-346.435	-42.205	0.306	0.156
-345.420	-66.370	-0.242	-0.096
-344.406	-48.994	-0.184	-0.088
-343.391	-59.624	0.199	0.085
-342.377	-77.442	-0.231	-0.080
-341.362	-84.105	-0.048	-0.015
-340.348	-94.329	0.159	-0.043
-339.333	-115.886	0.159	0.030
-338.318	-43.943	0.314	-0.157
-337.304	-46.510	0.153	0.075
-336.289	-137.406	0.380	-0.043
-335.275	71.088	0.027	-0.028
-334.260	-77.531	-0.265	-0.092
-333.245	169.661	-0.060	0.085
-332.231	-200.000	-0.052	0.481
-331.216	277.114	0.091	0.162
-330.202	207.634	-0.057	0.089
-329.187	43.886	-0.089	0.081
-328.172	15.360	-0.200	0.156
-327.158	-105.441	-0.224	0.051
-326.143	-45.894	-0.133	-0.065
-325.129	-191.070	-0.097	0.001
-324.114	-200.000	0.005	0.052
-323.099	800.000	-0.050	0.200
-322.085	-200.000	-0.021	-0.162
-321.070	466.003	0.037	0.083
-320.056	-200.000	-0.046	-0.221
-319.041	-4.913	-0.379	0.260
-318.026	-14.358	0.202	-0.130
-317.012	-54.670	-0.326	0.147
-315.997	-200.000	0.009	-0.145
-314.983	23.184	0.098	0.080
-313.968	800.000	-0.072	-0.300
-312.953	97.883	0.180	-0.206
-311.939	-119.740	-0.298	0.051
-310.924	-33.427	0.105	-0.058
-309.910	-95.970	0.228	-0.060
-308.895	161.659	-0.282	0.393
-307.880	800.000	0.004	-0.013
-306.866	-112.459	-0.215	0.043
-305.851	-71.360	-0.184	-0.069
-304.837	18.113	-0.294	-0.234
-303.822	26.603	0.134	0.112
-302.807	177.479	-0.300	-0.436
-301.793	193.370	0.256	-0.385
-300.778	-84.285	0.138	-0.043
-299.764	-63.316	0.308	-0.126
-298.749	-148.234	0.208	-0.017
-297.735	-93.790	-0.181	-0.050
-296.720	-69.647	-0.149	-0.057
-295.705	607.803	0.082	0.204
-294.691	18.697	0.256	0.204
-293.676	-180.771	-0.091	-0.002
-292.662	239.475	-0.066	-0.110
-291.647	56.443	-0.145	0.141
-290.632	-174.808	-0.213	-0.006
-289.618	800.000	0.068	-0.263
-288.603	-62.064	-0.331	-0.138
-287.589	-200.000	0.017	-0.245
-286.574	-113.854	0.430	-0.083
-285.559	-63.284	-0.256	0.105
-284.545	-118.277	0.023	0.004
-283.530	106.356	-0.366	-0.432
-282.516	-63.776	-0.028	0.012
-281.501	800.000	0.034	0.104
-280.486	7.577	0.176	0.131
-279.472	104.129	-0.148	0.173
-278.457	121.201	-0.334	0.413
-277.443	192.586	-0.111	-0.166
-276.428	-200.000	-0.014	0.232
-275.413	206.557	0.159	-0.246
-274.399	106.657	0.113	-0.134
-273.384	-3.186	-0.136	-0.094
-272.370	-106.098	-0.152	-0.034
-271.355	-200.000	-0.075	0.580
-270.340	85.478	0.175	-0.191
-269.326	800.000	0.025	0.093
-268.311	23.534	0.092	0.075
-267.297	-25.196	-0.337	0.198
-266.282	-8.591	0.144	-0.096
-265.267	-200.000	0.019	0.172
-264.253	-4.926	0.187	-0.128
-263.238	-101.800	-0.265	0.064
-262.224	162.643	-0.214	-0.299
-261.209	131.131	-0.190	0.242
-260.195	-99.294	0.655	-0.164
-259.180	-71.902	-0.174	0.064
-258.165	202.201	-0.118	-0.181
-257.151	-100.025	-0.221	0.055
-256.136	800.000	0.126	0.422
-255.122	125.603	0.163	0.204
-254.107	800.000	0.031	0.095
-253.092	107.400	0.351	0.415
-252.078	358.621	-0.146	0.291
-251.063	-200.000	-0.015	0.112
-250.049	-200.000	-0.017	-0.599
-249.034	-189.962	0.258	-0.003
-248.019	-169.660	-0.333	0.012
-247.005	-58.815	-0.289	0.124
-245.990	-175.711	-0.171	0.005
-244.976	-44.194	0.072	-0.036
-243.961	-125.374	0.134	0.020
-242.946	-29.335	-0.452	-0.257
-241.932	-175.441	-0.223	0.006
-240.917	-200.000	0.015	-0.181
-239.903	800.000	0.049	-0.141
-238.888	33.541	0.044	-0.038
-237.873	-200.000	-0.006	-0.058
-236.859	-78.538	-0.233	0.079
-235.844	265.928	-0.033	0.058
-234.830	-105.674	0.334	0.075
-233.815	-200.000	-0.034	-0.149
-232.800	-23.592	-0.205	-0.122
-231.786	226.745	-0.140	0.225
-230.771	-80.162	-0.196	-0.065
-229.757	-200.000	-0.017	-0.124
-228.742	185.752	0.105	0.154
-227.727	581.252	-0.035	-0.084
-226.713	642.184	0.043	0.109
-225.698	188.047	-0.131	-0.195
-224.684	-200.000	-0.027	-0.172
-223.669	-98.366	-0.313	0.080
-222.655	786.007	0.153	-0.417
-221.640	166.434	-0.299	-0.421
-220.625	-91.699	0.196	-0.055
-219.611	565.251	0.076	0.183
-218.596	-162.145	-0.052	-0.003
-217.582	-135.972	-0.216	-0.025
-216.567	-117.584	0.240	-0.043
-215.552	11.484	0.092	0.070
-214.538	-96.107	-0.087	-0.023
-213.523	-48.309	-0.227	-0.109
-212.509	-72.706	-0.122	0.044
-211.494	359.679	0.191	0.378
-210.479	-200.000	-0.013	0.261
-209.465	103.075	0.156	-0.181
-208.450	-121.050	-0.285	0.047
-207.436	-200.000	-0.034	0.284
-206.421	35.311	0.206	0.179
-205.406	-141.156	0.167	0.017
-204.392	-33.379	0.152	0.084
-203.377	-200.000	0.024	-0.470
-202.363	-68.067	0.094	0.036
-201.348	651.711	-0.082	0.208
-200.333	30.024	-0.047	0.040
-199.319	-44.773	-0.145	-0.072
-198.304	-83.265	0.223	-0.071
-197.290	65.950	-0.280	-0.281
-196.275	1.968	0.179	-0.128
-195.260	-200.000	0.025	0.174
-194.246	-200.000	-0.003	0.140
-193.231	800.000	0.082	0.308
-192.217	-122.167	-0.310	-0.050
-191.202	240.085	0.098	0.161
-190.187	190.484	0.128	-0.190
-189.173	-200.000	0.017	0.355
-188.158	-200.000	0.017	0.224
-187.144	-43.969	-0.217	0.108
-186.129	-91.997	0.234	0.066
-185.114	-30.343	0.177	-0.100
-184.100	-33.715	0.202	0.110
-183.085	-168.242	-0.101	-0.004
-182.071	-124.570	-0.329	-0.051
-181.056	35.439	-0.060	-0.052
-180.042	37.850	0.278	-0.245
-179.027	-89.280	0.081	-0.024
-178.012	-117.699	0.605	0.108
-176.998	20.170	0.138	0.110
-175.983	-127.589	-0.329	0.047
-174.969	734.306	0.129	0.343
-173.954	-200.000	0.049	-0.324
-172.939	-187.038	0.183	0.002
-171.925	-19.400	0.139	0.085
-170.910	279.336	-0.029	0.051
-169.896	379.385	-0.085	-0.173
-168.881	800.000	-0.037	0.119
-167.866	-200.000	-0.028	0.202
-166.852	-48.975	0.123	-0.058
-165.837	529.487	0.089	0.209
-164.823	-87.422	0.202	-0.061
-163.808	-200.000	-0.038	0.213
-162.793	369.820	0.138	0.276
-161.779	-200.000	0.014	0.064
-160.764	-128.007	0.364	-0.052
-159.750	-140.007	0.110	0.012
-158.735	-120.861	-0.072	-0.012
-157.720	-200.000	-0.003	-0.259
-156.706	291.049	-0.060	-0.108
-155.691	622.295	-0.039	0.098
-154.677	61.640	0.237	-0.233
-153.662	141.092	0.124	0.162
-152.647	525.743	0.042	-0.099
-151.633	-30.520	0.539	-0.302
-150.618	-62.322	-0.329	-0.136
-149.604	-28.457	0.297	-0.169
-148.589	243.435	-0.035	0.058
-147.574	-15.438	0.251	0.159
-146.560	-18.301	-0.253	0.156
-145.545	-43.246	-0.166	0.083
-144.531	-89.943	0.393	-0.114
-143.516	93.196	-0.146	0.164
-142.502	-110.081	0.216	0.045
-141.487	341.491	0.117	0.225
-140.472	800.000	-0.026	0.090
-139.458	20.637	0.192	0.154
-138.443	-200.000	0.004	0.069
-137.429	-200.000	-0.057	0.254
-136.414	-200.000	0.011	0.139
-135.399	-87.327	0.246	0.074
-134.385	100.258	0.152	-0.175
-133.370	-9.074	-0.256	0.169
-132.356	-134.027	-0.329	-0.040
-131.341	3.576	-0.152	0.109
-130.326	13.226	0.273	-0.209
-129.312	-200.000	-0.009	-0.242
-128.297	-200.000	0.019	-0.092
-127.283	-200.000	-0.016	-0.327
-126.268	-6.755	0.139	-0.094
-125.253	167.349	-0.031	0.044
-124.239	-4.974	-0.134	0.092
-123.224	-22.669	0.335	-0.200
-122.210	11.666	0.142	-0.108
