DTS Sentinel unit serial number:	SN413079Multiplexer serial number:	ORYXHardware model number:	OX4-SRSoftware version number:	ORYX F/W v4.00 Oryx Data Collector v3.7.2.0data status	okinstallation	princeton_trtdifferential loss correction	single-endedforward channel	channel 4reverse channel	N/Adate	2019/09/17time	02:33:35forward acquisition time	60.00reverse acquisition time	0.00gamma	496.2192k internal	0.2312k external	0.2312temperature offset calibration	0.9973default loss term (dB/km)	0.3790temperature slope calibration	1.0000multiplexer offset coefficient	1.0000multiplexer slope coefficient	1.0000fibre end	0.00T internal ref (°C)	29.81T ext. ref 1 (°C)	0.13T ext. ref 2 (°C)	24.76length (m)	temperature (°C)	Stokes	anti-Stokes-747.200	169.214	0.134	0.194
-746.185	505.035	0.027	0.064
-745.171	-200.000	0.053	-0.264
-744.156	298.165	-0.171	0.319
-743.142	-70.414	0.296	0.114
-742.127	-137.008	-0.229	0.027
-741.112	-5.906	0.204	0.142
-740.098	69.726	0.120	-0.125
-739.083	-136.458	0.298	0.035
-738.069	-165.717	-0.413	0.018
-737.054	-183.648	0.146	0.003
-736.039	-136.787	-0.415	-0.048
-735.025	-83.982	-0.229	-0.074
-734.010	282.971	-0.156	-0.284
-732.996	800.000	-0.045	-0.155
-731.981	-200.000	-0.008	-0.271
-730.966	-111.021	-0.121	0.025
-729.952	-52.279	-0.203	-0.096
-728.937	41.096	-0.054	0.050
-727.923	-200.000	0.034	-0.304
-726.908	183.791	-0.040	-0.059
-725.894	-200.000	0.027	-0.144
-724.879	-12.787	-0.358	-0.236
-723.864	279.664	0.082	-0.149
-722.850	-68.264	-0.174	-0.069
-721.835	133.810	0.085	-0.111
-720.821	-200.000	0.038	-0.302
-719.806	-200.000	-0.013	-0.241
-718.791	465.082	-0.168	-0.381
-717.777	-90.133	-0.293	-0.087
-716.762	65.734	-0.045	-0.047
-715.748	-200.000	-0.039	-0.314
-714.733	-55.647	-0.174	-0.079
-713.718	639.663	0.033	-0.086
-712.704	136.322	-0.115	-0.152
-711.689	-130.944	0.430	-0.058
-710.675	-59.090	0.217	-0.095
-709.660	-63.869	-0.285	-0.118
-708.645	-200.000	-0.041	0.191
-707.631	-159.025	0.377	0.022
-706.616	89.806	0.184	-0.209
-705.602	64.111	-0.112	-0.114
-704.587	-200.000	-0.001	-0.335
-703.572	-69.028	0.051	-0.020
-702.558	267.726	-0.070	0.125
-701.543	7.628	-0.168	-0.127
-700.529	73.494	-0.111	0.118
-699.514	83.244	0.238	-0.262
-698.499	800.000	0.081	-0.272
-697.485	159.280	0.116	0.163
-696.470	800.000	-0.060	0.228
-695.456	-200.000	0.031	-0.223
-694.441	-200.000	-0.056	0.389
-693.426	-125.308	0.200	0.031
-692.412	260.661	0.120	-0.210
-691.397	-105.240	0.401	0.093
-690.383	-171.106	-0.324	0.011
-689.368	71.073	-0.137	0.144
-688.354	87.595	-0.064	0.072
-687.339	-161.883	-0.335	-0.017
-686.324	101.912	-0.023	0.027
-685.310	147.447	0.102	-0.139
-684.295	-37.675	-0.378	-0.204
-683.281	-92.247	0.091	-0.026
-682.266	93.816	-0.134	-0.154
-681.251	185.596	-0.134	0.202
-680.237	-51.592	-0.194	0.092
-679.222	142.511	-0.110	-0.148
-678.208	-200.000	0.006	-0.037
-677.193	-200.000	-0.002	0.049
-676.178	781.252	0.091	0.252
-675.164	800.000	-0.088	-0.362
-674.149	-140.007	-0.068	-0.007
-673.135	-80.667	0.263	-0.088
-672.120	-125.993	0.252	0.038
-671.105	490.772	-0.099	-0.229
-670.091	800.000	0.135	-0.380
-669.076	339.207	-0.023	-0.045
-668.062	-200.000	0.019	-0.151
-667.047	-200.000	-0.301	0.001
-666.032	-200.000	0.025	0.181
-665.018	800.000	0.024	0.081
-664.003	-122.953	-0.132	0.022
-662.989	800.000	-0.076	0.301
-661.974	-200.000	-0.005	-0.263
-660.959	398.200	-0.131	-0.276
-659.945	-32.058	-0.362	-0.205
-658.930	77.871	-0.059	0.063
-657.916	112.081	-0.162	-0.198
-656.901	-50.692	-0.183	0.087
-655.886	-200.000	-0.006	-0.207
-654.872	263.528	0.103	0.181
-653.857	800.000	-0.024	-0.070
-652.843	-200.000	-0.009	-0.169
-651.828	800.000	0.075	-0.303
-650.814	-200.000	-0.015	0.077
-649.799	13.126	0.148	0.116
-648.784	436.844	-0.037	-0.082
-647.770	-144.761	-0.262	0.024
-646.755	24.766	0.141	-0.118
-645.741	441.429	-0.091	0.201
-644.726	-77.465	-0.324	-0.114
-643.711	182.955	-0.114	-0.170
-642.697	-200.000	-0.000	-0.027
-641.682	-200.000	-0.020	0.114
-640.668	794.254	0.083	0.232
-639.653	800.000	-0.064	0.279
-638.638	360.027	0.089	0.179
-637.624	-111.267	0.274	-0.057
-636.609	-200.000	0.033	0.150
-635.595	800.000	0.005	0.021
-634.580	5.914	0.189	0.141
-633.565	-166.926	0.179	-0.007
-632.551	-120.346	0.286	0.049
-631.536	46.533	-0.218	-0.204
-630.522	-192.291	0.323	-0.003
-629.507	-180.201	-0.349	0.007
-628.492	432.893	-0.034	-0.074
-627.478	800.000	0.109	-0.466
-626.463	-116.575	0.234	0.044
-625.449	-53.203	-0.560	0.260
-624.434	-29.212	0.182	-0.106
-623.419	172.797	0.229	-0.332
-622.405	-24.199	-0.082	0.050
-621.390	130.691	0.161	0.208
-620.376	-123.864	0.461	-0.074
-619.361	-11.579	0.152	-0.101
-618.346	431.703	-0.090	0.196
-617.332	65.018	-0.106	-0.108
-616.317	-179.735	0.123	0.003
-615.303	-14.512	-0.145	-0.094
-614.288	49.754	0.147	-0.140
-613.273	-48.069	0.271	0.132
-612.259	-18.216	0.078	-0.049
-611.244	178.955	0.118	-0.175
-610.230	-47.977	-0.110	-0.054
-609.215	45.642	-0.052	-0.049
-608.201	-167.279	-0.272	-0.011
-607.186	-0.973	0.170	0.122
-606.171	77.477	0.253	0.271
-605.157	49.697	-0.083	0.079
-604.142	13.683	0.090	0.071
-603.128	134.923	0.126	-0.165
-602.113	389.127	0.179	-0.375
-601.098	-187.294	-0.097	-0.001
-600.084	-200.000	0.026	-0.205
-599.069	800.000	-0.025	0.071
-598.055	-58.507	-0.169	-0.074
-597.040	-125.295	0.180	0.028
-596.025	81.302	-0.138	0.151
-595.011	11.420	0.329	0.254
-593.996	-20.388	0.156	-0.097
-592.982	283.574	0.055	0.100
-591.967	22.399	0.162	-0.134
-590.952	121.647	0.116	-0.146
-589.938	-200.000	0.010	-0.058
-588.923	-200.000	0.009	-0.181
-587.909	-93.036	0.215	0.061
-586.894	43.669	-0.188	0.173
-585.879	-94.879	0.140	0.038
-584.865	-142.387	0.022	-0.002
-583.850	54.627	-0.114	-0.111
-582.836	-33.399	0.372	0.208
-581.821	163.591	0.054	0.077
-580.806	664.855	-0.078	0.202
-579.792	-200.000	-0.002	0.114
-578.777	-182.857	-0.318	-0.006
-577.763	-139.678	0.141	0.015
-576.748	800.000	-0.034	-0.105
-575.733	-19.358	-0.311	-0.194
-574.719	-53.485	-0.082	0.038
-573.704	77.836	0.285	-0.307
-572.690	-39.809	-0.123	-0.065
-571.675	-58.437	0.327	0.143
-570.661	-49.704	-0.356	0.171
-569.646	-200.000	0.002	-0.039
-568.631	800.000	-0.177	-0.525
-567.617	132.040	0.111	-0.144
-566.602	-200.000	0.024	-0.164
-565.588	67.581	-0.076	0.078
-564.573	-125.286	-0.112	0.017
-563.558	800.000	-0.058	0.245
-562.544	149.015	0.201	-0.274
-561.529	-151.659	0.221	-0.016
-560.515	-83.292	-0.277	0.090
-559.500	139.017	0.182	-0.241
-558.485	600.434	0.110	-0.275
-557.471	-134.147	-0.269	0.033
-556.456	-111.609	-0.033	-0.007
-555.442	54.425	0.114	0.110
-554.427	162.107	-0.302	0.426
-553.412	-200.000	0.029	-0.229
-552.398	32.991	0.233	-0.204
-551.383	800.000	-0.069	0.250
-550.369	-88.704	-0.284	-0.085
-549.354	-200.000	0.023	-0.233
-548.339	736.908	0.061	-0.164
-547.325	-120.711	0.275	-0.047
-546.310	800.000	0.034	-0.148
-545.296	-7.644	-0.195	-0.133
-544.281	377.582	0.144	-0.295
-543.266	-36.920	-0.298	-0.161
-542.252	-200.000	-0.052	0.325
-541.237	5.449	-0.203	0.151
-540.223	477.082	-0.200	-0.456
-539.208	242.008	0.151	-0.254
-538.193	149.276	0.089	0.121
-537.179	-200.000	0.040	-0.226
-536.164	149.836	0.142	0.193
-535.150	7.426	0.321	-0.242
-534.135	-29.867	-0.211	0.121
-533.121	622.652	-0.108	-0.274
-532.106	83.748	0.208	0.229
-531.091	67.578	0.048	-0.049
-530.077	-200.000	0.064	-0.293
-529.062	-200.000	-0.038	-0.260
-528.048	-164.829	0.062	-0.003
-527.033	-15.424	-0.182	-0.117
-526.018	-76.455	0.008	-0.003
-525.004	105.916	0.164	-0.195
-523.989	-200.000	-0.012	-0.106
-522.975	-58.755	-0.219	0.095
-521.960	479.875	0.019	-0.042
-520.945	421.911	0.121	0.261
-519.931	39.128	0.144	0.129
-518.916	50.036	0.066	0.063
-517.902	-15.432	0.158	-0.102
-516.887	800.000	0.051	0.150
-515.872	169.776	-0.067	0.097
-514.858	-174.012	0.302	0.009
-513.843	5.044	-0.191	0.141
-512.829	-90.939	-0.228	-0.066
-511.814	-200.000	-0.024	-0.224
-510.799	79.799	-0.181	0.196
-509.785	-200.000	0.048	0.360
-508.770	-200.000	-0.040	-0.213
-507.756	102.888	-0.183	0.215
-506.741	-200.000	0.006	0.138
-505.726	800.000	0.019	-0.055
-504.712	-200.000	-0.002	0.018
-503.697	-15.917	-0.195	-0.125
-502.683	233.560	0.083	-0.137
-501.668	-99.556	-0.299	-0.076
-500.653	-49.654	-0.097	-0.046
-499.639	800.000	-0.083	0.349
-498.624	97.425	-0.154	0.177
-497.610	-10.751	0.211	-0.140
-496.595	-136.384	-0.079	0.009
-495.581	110.118	-0.156	-0.188
-494.566	-1.471	-0.170	0.121
-493.551	800.000	-0.084	-0.238
-492.537	-30.442	-0.332	-0.189
-491.522	-200.000	-0.004	0.102
-490.508	-7.078	-0.227	0.155
-489.493	-200.000	-0.029	0.256
-488.478	-31.503	-0.411	-0.232
-487.464	-151.044	-0.190	-0.014
-486.449	-138.943	-0.134	-0.015
-485.435	220.020	-0.198	0.319
-484.420	-69.492	-0.051	-0.020
-483.405	345.180	-0.034	0.066
-482.391	-6.154	0.238	0.163
-481.376	800.000	-0.099	-0.275
-480.362	78.527	-0.088	-0.095
-479.347	-154.750	0.062	0.004
-478.332	48.731	-0.110	-0.104
-477.318	516.957	0.072	0.168
-476.303	53.217	-0.152	0.146
-475.289	-127.878	0.189	0.027
-474.274	52.158	0.107	-0.103
-473.259	59.188	-0.073	-0.072
-472.245	630.886	0.039	-0.098
-471.230	279.753	0.145	-0.261
-470.216	522.760	-0.061	-0.143
-469.201	32.319	0.250	-0.216
-468.186	-115.621	-0.295	0.056
-467.172	-56.119	0.273	0.122
-466.157	800.000	0.033	0.130
-465.143	800.000	0.026	-0.116
-464.128	67.534	0.168	0.172
-463.113	309.767	-0.049	0.091
-462.099	92.521	-0.098	-0.111
-461.084	-166.386	-0.144	-0.006
-460.070	-35.756	0.281	-0.153
-459.055	-200.000	-0.017	-0.174
-458.040	-200.000	-0.018	-0.098
-457.026	-73.962	-0.084	-0.031
-456.011	-105.819	-0.173	0.039
-454.997	-59.801	0.054	-0.023
-453.982	-45.798	-0.272	0.135
-452.968	6.161	-0.052	0.039
-451.953	-200.000	0.000	0.037
-450.938	-9.059	0.177	-0.119
-449.924	-200.000	0.076	0.488
-448.909	-53.930	-0.230	0.105
-447.895	800.000	0.050	0.179
-446.880	11.823	-0.307	0.237
-445.865	193.021	0.029	-0.044
-444.851	-200.000	-0.023	0.500
-443.836	-98.034	0.104	-0.027
-442.822	-140.055	0.164	0.017
-441.807	-143.838	-0.111	0.011
-440.792	223.193	0.136	0.219
-439.778	122.637	0.234	0.294
-438.763	254.217	-0.101	0.173
-437.749	-79.833	-0.115	0.039
-436.734	-66.137	0.165	0.066
-435.719	800.000	-0.145	0.461
-434.705	-124.988	-0.126	0.019
-433.690	28.154	0.204	-0.173
-432.676	35.558	-0.182	0.160
-431.661	445.884	0.043	0.094
-430.646	-115.216	0.301	0.057
-429.632	341.167	0.112	0.220
-428.617	6.180	0.093	0.069
-427.603	-200.000	0.067	-0.471
-426.588	103.356	0.175	-0.206
-425.573	484.259	0.089	0.203
-424.559	-83.574	0.309	0.099
-423.544	-8.747	0.166	0.112
-422.530	-79.672	0.119	0.040
-421.515	-59.272	-0.277	-0.120
-420.500	40.315	0.211	0.191
-419.486	320.854	0.037	-0.070
-418.471	47.804	0.155	0.145
-417.457	259.611	-0.158	-0.273
-416.442	-13.713	-0.300	-0.195
-415.428	-66.859	-0.246	0.097
-414.413	66.376	-0.077	-0.079
-413.398	800.000	-0.074	-0.242
-412.384	68.948	0.141	-0.145
-411.369	-27.620	0.172	-0.100
-410.355	-173.613	-0.069	-0.002
-409.340	265.880	0.064	-0.112
-408.325	-190.250	0.160	-0.002
-407.311	-41.175	0.061	-0.032
-406.296	346.538	-0.101	-0.199
-405.282	140.466	0.144	0.191
-404.267	293.049	0.071	-0.129
-403.252	-200.000	-0.016	-0.272
-402.238	-149.494	0.338	0.027
-401.223	-200.000	0.011	-0.104
-400.209	-56.151	0.220	0.098
-399.194	45.762	0.137	-0.127
-398.179	-7.582	0.100	-0.068
-397.165	131.997	-0.119	0.153
-396.150	31.726	-0.438	0.378
-395.136	-171.225	0.053	0.002
-394.121	29.186	-0.240	0.204
-393.106	-103.541	-0.134	0.032
-392.092	76.433	-0.133	-0.141
-391.077	-82.644	0.186	0.060
-390.063	-200.000	0.011	0.149
-389.048	-98.984	-0.175	-0.044
-388.033	234.117	-0.052	0.086
-387.019	-200.000	0.011	-0.092
-386.004	-95.688	-0.064	0.017
-384.990	-200.000	-0.009	-0.082
-383.975	12.519	0.075	0.058
-382.960	-129.689	0.176	0.024
-381.946	-130.753	0.341	-0.046
-380.931	-76.867	-0.034	-0.012
-379.917	154.810	-0.060	0.083
-378.902	-200.000	-0.035	0.290
-377.888	-98.047	-0.334	-0.086
-376.873	23.125	-0.218	0.179
-375.858	-170.935	0.247	-0.008
-374.844	743.972	-0.122	0.328
-373.829	-101.457	0.236	0.057
-372.815	-18.683	-0.179	-0.112
-371.800	-131.405	-0.269	-0.036
-370.785	-98.534	-0.016	-0.004
-369.771	-156.517	0.181	0.011
-368.756	88.362	0.200	0.222
-367.742	-30.629	0.058	0.033
-366.727	299.553	-0.167	0.308
-365.712	-27.009	-0.292	0.171
-364.698	-198.924	-0.294	-0.002
-363.683	161.423	-0.128	-0.180
-362.669	-200.000	0.012	0.143
-361.654	524.771	0.121	0.284
-360.639	-99.812	0.364	0.091
-359.625	800.000	0.104	0.380
-358.610	-157.451	0.092	0.006
-357.596	-104.375	0.063	-0.015
-356.581	-200.000	-0.068	-0.411
-355.566	-82.986	-0.127	0.041
-354.552	-200.000	-0.001	-0.038
-353.537	397.549	-0.177	-0.369
-352.523	-2.485	-0.203	0.142
-351.508	-137.883	0.163	-0.018
-350.493	160.668	-0.226	0.315
-349.479	800.000	0.118	-0.360
-348.464	-138.779	-0.144	-0.016
-347.450	-46.756	-0.105	0.051
-346.435	125.382	-0.056	-0.071
-345.420	56.721	-0.242	-0.235
-344.406	175.744	-0.096	-0.139
-343.391	-18.670	0.225	0.140
-342.377	-200.000	-0.011	0.199
-341.362	181.829	0.058	0.086
-340.348	629.516	-0.075	-0.188
-339.333	-200.000	0.007	0.226
-338.318	483.713	-0.033	0.074
-337.304	-135.587	0.197	0.023
-336.289	-114.424	0.344	-0.066
-335.275	144.816	0.265	0.353
-334.260	145.400	-0.155	0.207
-333.245	124.139	-0.069	0.087
-332.231	-200.000	0.017	-0.180
-331.216	119.026	0.196	-0.242
-330.202	53.982	-0.304	-0.292
-329.187	-143.623	-0.444	-0.042
-328.172	131.173	-0.188	0.241
-327.158	165.499	-0.130	0.184
-326.143	-0.137	-0.183	0.130
-325.129	800.000	0.071	-0.204
-324.114	219.278	0.158	0.253
-323.099	39.633	0.251	0.224
-322.085	-103.049	0.142	-0.033
-321.070	-200.000	-0.041	-0.238
-320.056	169.508	-0.043	-0.062
-319.041	800.000	-0.019	-0.079
-318.026	-63.911	0.402	-0.164
-317.012	-106.074	-0.119	0.027
-315.997	-145.767	-0.395	-0.035
-314.983	540.874	0.078	-0.184
-313.968	-106.758	0.196	0.043
-312.953	800.000	-0.150	0.427
-311.939	10.477	-0.265	-0.202
-310.924	-30.428	0.012	0.007
-309.910	-1.943	-0.251	0.176
-308.895	-96.703	-0.081	0.021
-307.880	178.722	-0.043	-0.063
-306.866	-200.000	-0.042	0.318
-305.851	-200.000	0.055	0.290
-304.837	70.613	-0.025	-0.025
-303.822	69.636	0.109	0.112
-302.807	-200.000	0.064	-0.416
-301.793	43.348	-0.280	0.255
-300.778	33.473	0.287	-0.248
-299.764	-99.643	-0.052	0.013
-298.749	334.816	0.074	-0.142
-297.735	122.516	-0.070	-0.087
-296.720	-105.936	-0.168	0.038
-295.705	-143.838	0.280	0.026
-294.691	160.057	0.316	-0.439
-293.676	141.199	0.038	0.050
-292.662	-200.000	0.009	-0.279
-291.647	800.000	-0.159	-0.464
-290.632	-34.154	0.274	-0.150
-289.618	41.778	-0.222	-0.201
-288.603	638.010	-0.063	-0.160
-287.589	-143.068	-0.494	0.048
-286.574	-121.092	0.016	-0.003
-285.559	-200.000	-0.037	-0.174
-284.545	-200.000	-0.002	0.022
-283.530	-106.650	-0.249	0.055
-282.516	-200.000	0.035	-0.291
-281.501	800.000	-0.082	-0.273
-280.486	-129.568	0.213	0.029
-279.472	-101.850	0.191	0.046
-278.457	125.760	-0.074	0.093
-277.443	-78.175	-0.120	-0.041
-276.428	-30.348	-0.163	0.092
-275.413	-152.092	0.170	0.012
-274.399	457.831	0.074	-0.164
-273.384	-58.192	0.134	0.058
-272.370	-200.000	0.037	-0.172
-271.355	-134.956	0.176	-0.021
-270.340	-68.793	0.112	-0.043
-269.326	-200.000	0.007	0.119
-268.311	670.326	-0.044	-0.113
-267.297	-50.286	0.107	-0.051
-266.282	155.822	-0.212	-0.291
-265.267	-23.236	-0.184	-0.110
-264.253	60.235	-0.055	0.054
-263.238	-16.492	-0.272	0.172
-262.224	125.292	-0.139	0.174
-261.209	312.976	0.148	0.277
-260.195	63.375	-0.171	0.171
-259.180	199.266	0.023	-0.035
-258.165	-200.000	0.133	-0.000
-257.151	-31.840	-0.201	0.112
-256.136	-50.415	-0.017	-0.008
-255.122	29.160	0.089	-0.075
-254.107	-35.418	-0.049	-0.027
-253.092	91.400	0.196	-0.219
-252.078	56.762	-0.061	0.059
-251.063	262.861	0.167	0.289
-250.049	482.918	-0.008	0.018
-249.034	-2.050	0.072	-0.051
-248.019	95.333	0.105	-0.120
-247.005	234.105	-0.170	-0.278
-245.990	144.629	-0.163	0.216
-244.976	-49.292	-0.159	-0.076
-243.961	-65.478	0.252	-0.101
-242.946	-139.615	0.236	-0.025
-241.932	-123.197	-0.244	0.039
-240.917	-200.000	-0.009	0.198
-239.903	-122.343	-0.230	0.037
-238.888	794.687	-0.065	0.178
-237.873	800.000	-0.089	-0.300
-236.859	-180.665	0.285	0.006
-235.844	335.349	-0.100	-0.193
-234.830	-151.571	-0.167	-0.012
-233.815	800.000	0.103	-0.407
-232.800	462.168	0.114	0.254
-231.786	-200.000	0.029	0.179
-230.771	-100.912	-0.044	0.011
-229.757	51.347	0.073	0.069
-228.742	-145.113	-0.225	0.020
-227.727	-200.000	0.013	-0.317
-226.713	-113.206	0.223	-0.044
-225.698	149.251	-0.076	-0.102
-224.684	-200.000	0.022	0.304
-223.669	-200.000	0.027	-0.170
-222.655	650.283	-0.077	0.197
-221.640	171.230	-0.061	0.087
-220.625	-167.633	0.172	-0.007
-219.611	326.673	-0.097	-0.185
-218.596	-144.628	0.064	-0.006
-217.582	-78.863	0.264	0.089
-216.567	-63.596	0.104	0.042
-215.552	800.000	0.067	0.210
-214.538	-119.318	-0.026	0.004
-213.523	4.265	-0.234	0.171
-212.509	-200.000	0.031	-0.277
-211.494	800.000	-0.086	0.247
-210.479	-115.170	-0.159	-0.030
-209.465	-200.000	-0.003	0.125
-208.450	-58.899	-0.238	0.102
-207.436	800.000	0.095	0.385
-206.421	84.922	0.190	-0.207
-205.406	-57.654	-0.193	-0.084
-204.392	63.638	0.124	-0.123
-203.377	-42.987	-0.099	0.050
-202.363	-119.436	0.126	0.022
-201.348	-27.598	0.313	0.180
-200.333	-200.000	0.011	-0.282
-199.319	355.273	0.054	0.107
-198.304	-125.528	-0.099	-0.015
-197.290	108.368	-0.149	0.177
-196.275	626.251	-0.067	-0.168
-195.260	-200.000	-0.019	-0.146
-194.246	800.000	0.019	0.072
-193.231	639.048	-0.083	-0.208
-192.217	54.036	0.069	-0.066
-191.202	18.283	-0.408	0.323
-190.187	-200.000	0.003	0.019
-189.173	-119.781	0.122	-0.021
-188.158	213.699	-0.133	0.209
-187.144	74.997	0.228	0.238
-186.129	800.000	0.032	-0.089
-185.114	-130.271	-0.301	0.041
-184.100	-200.000	-0.032	-0.287
-183.085	34.316	-0.183	0.159
-182.071	800.000	-0.077	0.242
-181.056	-200.000	0.004	-0.158
-180.042	-56.577	0.146	0.064
-179.027	-101.891	-0.156	0.037
-178.012	235.453	0.067	0.110
-176.998	-200.000	-0.013	0.433
-175.983	114.214	-0.176	0.213
-174.969	-69.316	0.439	-0.167
-173.954	-60.767	0.174	-0.073
-172.939	128.492	0.202	0.255
-171.925	54.240	0.085	0.081
-170.910	224.345	0.129	-0.207
-169.896	-51.940	0.099	0.046
-168.881	126.764	0.112	0.140
-167.866	800.000	-0.071	-0.271
-166.852	94.498	0.090	-0.102
-165.837	-72.223	0.071	-0.026
-164.823	189.374	0.091	-0.135
-163.808	71.506	0.168	-0.173
-162.793	800.000	-0.118	-0.397
-161.779	567.393	0.089	0.215
-160.764	207.800	0.133	-0.206
-159.750	167.531	-0.101	-0.143
-158.735	-93.017	0.329	-0.091
-157.720	-200.000	0.029	0.205
-156.706	-200.000	-0.074	0.344
-155.691	-200.000	-0.014	0.281
-154.677	471.554	-0.195	-0.435
-153.662	800.000	-0.039	-0.147
-152.647	-200.000	0.071	0.411
-151.633	-136.698	0.268	0.031
-150.618	-36.820	0.290	0.154
-149.604	-123.069	0.248	-0.039
-148.589	438.895	-0.067	-0.144
-147.574	-11.183	-0.285	0.186
-146.560	558.108	0.071	0.171
-145.545	-127.908	0.387	0.055
-144.531	664.267	-0.107	0.274
-143.516	800.000	0.113	0.387
-142.502	-127.471	0.270	0.039
-141.487	255.924	0.103	-0.175
-140.472	-200.000	0.018	-0.271
-139.458	334.611	-0.094	0.180
-138.443	800.000	0.022	0.070
-137.429	278.984	-0.054	0.095
-136.414	-200.000	-0.069	0.300
-135.399	56.963	-0.100	0.096
-134.385	190.571	0.157	0.233
-133.370	800.000	0.031	-0.126
-132.356	98.673	-0.298	0.341
-131.341	44.722	-0.101	-0.092
-130.326	-42.291	0.222	0.112
-129.312	-108.455	0.031	0.007
-128.297	-111.551	0.129	0.026
-127.283	-164.017	-0.499	-0.023
-126.268	-31.333	0.061	-0.034
-125.253	-28.844	-0.128	-0.073
-124.239	800.000	0.053	0.197
-123.224	-200.000	0.036	0.283
-122.210	73.106	-0.241	0.250
