DTS Sentinel unit serial number:	SN413079Multiplexer serial number:	ORYXHardware model number:	OX4-SRSoftware version number:	ORYX F/W v4.00 Oryx Data Collector v3.7.2.0data status	okinstallation	princeton_trtdifferential loss correction	single-endedforward channel	channel 4reverse channel	N/Adate	2019/09/15time	18:09:34forward acquisition time	60.00reverse acquisition time	0.00gamma	496.2192k internal	0.2275k external	0.2275temperature offset calibration	0.9920default loss term (dB/km)	0.3790temperature slope calibration	1.0000multiplexer offset coefficient	1.0000multiplexer slope coefficient	1.0000fibre end	0.00T internal ref (°C)	44.61T ext. ref 1 (°C)	6.54T ext. ref 2 (°C)	39.03length (m)	temperature (°C)	Stokes	anti-Stokes-747.200	-25.052	0.208	-0.127
-746.185	78.267	-0.415	0.457
-745.171	-51.242	0.222	-0.107
-744.156	-10.649	0.323	0.220
-743.142	-169.644	0.179	0.007
-742.127	-107.058	0.272	-0.062
-741.112	-118.121	0.031	-0.006
-740.098	800.000	-0.108	0.411
-739.083	123.695	-0.227	-0.294
-738.069	800.000	0.049	0.186
-737.054	47.897	0.093	0.089
-736.039	-92.780	-0.416	-0.120
-735.025	-19.694	0.081	-0.052
-734.010	528.655	-0.162	-0.394
-732.996	447.571	-0.086	-0.196
-731.981	18.270	-0.114	0.094
-730.966	253.844	-0.234	0.412
-729.952	-78.946	-0.169	-0.059
-728.937	800.000	0.069	-0.201
-727.923	-169.718	-0.265	0.010
-726.908	-142.010	-0.162	0.017
-725.894	-98.817	0.029	0.008
-724.879	284.177	0.168	-0.312
-723.864	401.489	0.227	-0.491
-722.850	226.681	-0.092	-0.154
-721.835	-152.881	0.054	-0.004
-720.821	-144.410	0.189	0.018
-719.806	53.505	-0.162	0.161
-718.791	-200.000	-0.020	-0.230
-717.777	48.799	0.200	0.193
-716.762	-160.893	-0.083	0.004
-715.748	207.675	0.121	-0.195
-714.733	157.981	-0.094	-0.134
-713.718	125.931	0.066	-0.086
-712.704	-50.232	0.395	0.192
-711.689	-41.778	-0.186	0.098
-710.675	-38.668	0.203	-0.110
-709.660	-57.255	0.053	-0.024
-708.645	-129.926	-0.247	-0.035
-707.631	-158.667	0.284	-0.017
-706.616	321.513	0.110	0.215
-705.602	367.714	0.057	-0.119
-704.587	-200.000	-0.009	-0.057
-703.572	475.431	-0.037	-0.087
-702.558	41.373	-0.173	-0.161
-701.543	-200.000	-0.031	-0.172
-700.529	-111.997	-0.370	0.077
-699.514	-200.000	0.011	0.258
-698.499	-200.000	0.058	-0.294
-697.485	800.000	0.083	0.302
-696.470	92.846	0.158	0.183
-695.456	-134.621	-0.160	0.020
-694.441	-48.581	-0.076	-0.038
-693.426	800.000	0.095	0.297
-692.412	357.977	0.092	-0.189
-691.397	137.530	-0.175	-0.236
-690.383	217.057	0.067	0.111
-689.368	-116.641	-0.107	0.020
-688.354	-87.810	0.455	-0.141
-687.339	64.333	-0.106	-0.110
-686.324	-200.000	0.008	-0.261
-685.310	-64.073	0.052	0.022
-684.295	85.363	0.075	0.085
-683.281	182.771	0.037	0.056
-682.266	130.418	-0.126	0.167
-681.251	206.119	-0.134	-0.214
-680.237	27.334	0.355	-0.307
-679.222	35.786	-0.068	-0.062
-678.208	800.000	-0.113	-0.502
-677.193	327.736	0.056	-0.110
-676.178	-77.950	-0.091	-0.032
-675.164	-200.000	0.013	-0.352
-674.149	46.281	-0.120	-0.114
-673.135	-200.000	0.055	-0.281
-672.120	403.039	-0.167	-0.362
-671.105	4.796	-0.265	0.200
-670.091	-133.718	-0.127	0.016
-669.076	-120.505	-0.213	-0.037
-668.062	19.498	-0.141	-0.117
-667.047	246.819	-0.089	0.154
-666.032	198.546	0.176	-0.277
-665.018	800.000	0.041	0.145
-664.003	-187.330	-0.259	0.004
-662.989	221.152	-0.200	-0.331
-661.974	-154.691	-0.195	-0.013
-660.959	-1.832	0.244	0.177
-659.945	114.046	0.114	0.142
-658.930	-100.229	-0.206	-0.053
-657.916	800.000	0.078	0.237
-656.901	686.066	0.015	0.040
-655.886	-200.000	0.017	-0.229
-654.872	-200.000	0.029	0.202
-653.857	14.955	0.205	0.165
-652.843	800.000	0.047	-0.144
-651.828	155.630	-0.056	-0.080
-650.814	-200.000	0.023	-0.131
-649.799	110.737	0.203	-0.252
-648.784	-70.848	0.198	-0.077
-647.770	751.804	0.068	-0.188
-646.755	-37.138	-0.221	-0.121
-645.741	306.170	-0.138	-0.264
-644.726	53.569	0.075	-0.074
-643.711	106.795	-0.123	0.150
-642.697	-200.000	0.014	0.428
-641.682	-52.807	-0.101	0.048
-640.668	-15.283	-0.107	0.071
-639.653	42.279	0.129	0.121
-638.638	114.711	-0.196	-0.246
-637.624	-200.000	-0.018	-0.156
-636.609	41.262	-0.234	0.217
-635.595	506.919	0.089	0.213
-634.580	57.790	-0.039	0.039
-633.565	212.089	0.147	-0.237
-632.551	-140.602	-0.190	-0.020
-631.536	50.790	0.108	0.105
-630.522	25.070	0.184	0.157
-629.507	3.890	0.129	0.097
-628.492	14.298	0.092	-0.073
-627.478	83.811	0.073	0.081
-626.463	800.000	-0.046	-0.180
-625.449	-106.221	-0.328	-0.076
-624.434	-101.233	0.298	-0.075
-623.419	-58.128	0.262	0.117
-622.405	164.709	-0.070	0.101
-621.390	-132.234	-0.050	0.007
-620.376	13.467	0.364	0.290
-619.361	-95.034	0.265	-0.073
-618.346	800.000	0.016	0.068
-617.332	-70.810	-0.163	0.063
-616.317	800.000	-0.121	0.481
-615.303	143.927	0.074	0.101
-614.288	-23.825	-0.318	-0.196
-613.273	-145.160	0.120	0.011
-612.259	-200.000	-0.049	0.293
-611.244	-200.000	0.041	0.343
-610.230	40.023	-0.125	0.115
-609.215	-68.248	-0.265	-0.106
-608.201	93.926	-0.084	-0.097
-607.186	800.000	0.118	0.456
-606.171	-200.000	-0.003	-0.078
-605.157	-15.614	0.209	-0.137
-604.142	-92.365	-0.426	-0.123
-603.128	-101.805	-0.053	0.013
-602.113	-37.811	-0.056	-0.031
-601.098	97.706	0.087	-0.103
-600.084	-140.656	0.230	0.024
-599.069	800.000	0.057	0.199
-598.055	-125.908	0.128	-0.020
-597.040	-200.000	0.019	-0.569
-596.025	-108.726	0.120	0.026
-595.011	-104.417	0.208	0.049
-593.996	-200.000	0.020	-0.111
-592.982	-200.000	0.067	-0.379
-591.967	203.424	0.156	0.248
-590.952	196.351	-0.127	0.198
-589.938	-35.651	-0.095	-0.053
-588.923	-200.000	0.027	0.200
-587.909	153.616	0.192	0.270
-586.894	-107.432	0.290	-0.065
-585.879	1.131	-0.154	0.113
-584.865	118.171	-0.154	-0.195
-583.850	-200.000	0.005	-0.258
-582.836	-47.706	0.350	-0.174
-581.821	132.387	-0.067	0.088
-580.806	-200.000	-0.016	-0.259
-579.792	189.040	-0.062	-0.095
-578.777	-16.352	0.060	0.039
-577.763	-45.285	0.174	0.089
-576.748	-51.674	-0.097	0.046
-575.733	-200.000	-0.026	-0.117
-574.719	-137.101	0.179	-0.021
-573.704	206.551	-0.116	-0.185
-572.690	175.769	-0.217	0.322
-571.675	-200.000	-0.004	0.091
-570.661	317.797	-0.108	0.209
-569.646	38.233	-0.173	-0.158
-568.631	-200.000	-0.016	0.144
-567.617	26.162	-0.192	-0.164
-566.602	800.000	-0.044	-0.160
-565.588	-200.000	-0.013	0.369
-564.573	-200.000	0.000	-0.167
-563.558	-46.751	0.354	-0.178
-562.544	169.208	0.143	0.210
-561.529	339.206	0.024	0.048
-560.515	-118.730	-0.631	0.114
-559.500	-200.000	0.018	0.188
-558.485	495.755	0.184	0.432
-557.471	349.419	-0.149	0.301
-556.456	-200.000	0.014	-0.327
-555.442	-130.627	0.077	0.011
-554.427	-32.008	-0.103	-0.059
-553.412	-97.177	-0.031	-0.008
-552.398	201.850	-0.244	-0.385
-551.383	-170.558	0.119	0.004
-550.369	244.535	0.102	-0.175
-549.354	-143.450	0.093	0.009
-548.339	-200.000	0.006	-0.242
-547.325	-200.000	-0.031	0.226
-546.310	800.000	-0.047	-0.185
-545.296	-91.639	0.146	-0.043
-544.281	-58.798	0.283	-0.125
-543.266	49.469	0.109	-0.105
-542.252	-27.698	0.246	-0.146
-541.237	-144.588	-0.037	0.003
-540.223	-200.000	-0.022	-0.133
-539.208	-145.889	0.221	0.020
-538.193	800.000	0.042	-0.143
-537.179	-200.000	-0.019	0.105
-536.164	-200.000	0.021	0.097
-535.150	-70.618	0.095	0.037
-534.135	-200.000	0.012	-0.096
-533.121	-182.516	-0.217	0.004
-532.106	-138.615	-0.215	-0.024
-531.091	-94.794	-0.109	0.030
-530.077	-141.217	-0.027	-0.003
-529.062	13.176	-0.071	-0.056
-528.048	40.598	0.125	0.115
-527.033	517.889	0.118	0.282
-526.018	90.419	0.025	0.028
-525.004	800.000	0.083	-0.333
-523.989	-39.506	0.114	-0.061
-522.975	210.387	-0.154	-0.247
-521.960	800.000	-0.084	0.321
-520.945	-9.503	0.123	0.084
-519.931	161.435	0.058	0.083
-518.916	-149.538	0.342	0.028
-517.902	800.000	0.131	-0.378
-516.887	-200.000	-0.024	-0.348
-515.872	301.283	0.157	0.296
-514.858	252.579	-0.146	-0.255
-513.843	294.705	0.099	0.185
-512.829	210.242	0.160	0.256
-511.814	-200.000	0.020	0.213
-510.799	-143.595	-0.025	0.002
-509.785	272.933	-0.129	0.233
-508.770	312.785	-0.070	0.135
-507.756	6.003	-0.206	0.156
-506.741	318.799	0.104	-0.202
-505.726	-76.366	-0.106	-0.038
-504.712	800.000	-0.047	-0.139
-503.697	800.000	0.035	-0.115
-502.683	259.043	0.085	0.150
-501.668	133.012	0.234	-0.308
-500.653	-94.288	-0.292	-0.081
-499.639	-200.000	0.066	0.406
-498.624	504.969	0.101	0.240
-497.610	6.388	0.044	0.033
-496.595	236.341	0.113	-0.190
-495.581	139.376	-0.169	-0.227
-494.566	-8.622	-0.142	-0.097
-493.551	-105.893	0.172	-0.040
-492.537	28.906	-0.145	-0.126
-491.522	177.530	0.115	-0.171
-490.508	399.544	0.040	-0.086
-489.493	-137.006	-0.284	0.033
-488.478	-33.058	0.158	-0.089
-487.464	-121.335	-0.237	-0.040
-486.449	800.000	-0.145	-0.411
-485.435	130.913	0.038	0.049
-484.420	381.380	-0.035	0.074
-483.405	278.444	-0.176	-0.320
-482.391	800.000	-0.045	-0.166
-481.376	-66.865	0.149	-0.060
-480.362	-88.667	0.320	-0.097
-479.347	4.885	0.052	0.039
-478.332	-178.035	-0.333	0.008
-477.318	-200.000	-0.002	-0.208
-476.303	-39.152	0.334	-0.179
-475.289	-23.133	-0.071	-0.044
-474.274	-94.764	0.052	0.014
-473.259	11.431	0.161	0.126
-472.245	-151.581	0.034	0.003
-471.230	176.831	0.121	-0.179
-470.216	-200.000	0.078	0.387
-469.201	241.920	0.068	-0.116
-468.186	-200.000	0.033	-0.160
-467.172	-70.287	0.131	0.051
-466.157	-200.000	-0.013	0.072
-465.143	18.343	-0.180	-0.147
-464.128	800.000	-0.158	0.570
-463.113	196.600	-0.245	-0.382
-462.099	17.086	0.035	0.028
-461.084	-53.217	-0.454	-0.212
-460.070	-187.963	-0.173	-0.002
-459.055	-200.000	-0.412	0.002
-458.040	-149.951	-0.129	-0.010
-457.026	-115.980	-0.258	-0.049
-456.011	800.000	0.017	0.065
-454.997	-91.020	-0.046	-0.013
-453.982	-200.000	0.030	-0.185
-452.968	-59.354	-0.164	-0.072
-451.953	-200.000	-0.004	-0.546
-450.938	1.895	0.346	-0.255
-449.924	-185.827	-0.054	0.001
-448.909	-43.421	0.177	0.091
-447.895	-106.906	0.077	0.017
-446.880	800.000	0.078	-0.342
-445.865	-114.550	0.078	0.015
-444.851	288.221	-0.138	0.254
-443.836	242.138	-0.103	-0.175
-442.822	-108.678	0.174	-0.038
-441.807	800.000	0.028	-0.124
-440.792	-200.000	0.035	-0.319
-439.778	-79.978	0.249	-0.085
-438.763	-200.000	0.003	-0.219
-437.749	24.966	0.036	0.030
-436.734	-67.925	-0.303	0.120
-435.719	-30.087	0.237	-0.138
-434.705	-42.187	-0.035	-0.018
-433.690	771.026	0.012	-0.034
-432.676	-31.414	0.030	0.017
-431.661	537.901	0.118	-0.285
-430.646	321.414	-0.054	0.106
-429.632	-153.759	0.084	0.006
-428.617	-48.365	-0.148	-0.072
-427.603	-200.000	-0.038	0.215
-426.588	249.807	-0.092	0.158
-425.573	-51.299	-0.237	-0.113
-424.559	-52.719	-0.133	0.062
-423.544	-200.000	0.013	-0.237
-422.530	120.867	-0.063	0.079
-421.515	29.132	-0.303	0.262
-420.500	-74.021	0.157	0.058
-419.486	-55.476	0.378	-0.173
-418.471	196.846	0.118	0.183
-417.457	-89.200	0.348	0.105
-416.442	235.899	-0.116	0.195
-415.428	-155.428	0.246	0.016
-414.413	800.000	0.023	-0.082
-413.398	-88.850	-0.060	-0.018
-412.384	-141.906	0.361	-0.037
-411.369	-124.710	-0.207	0.033
-410.355	-14.037	0.145	0.095
-409.340	800.000	0.082	0.231
-408.325	-104.065	-0.265	-0.063
-407.311	800.000	-0.044	0.155
-406.296	800.000	0.062	0.228
-405.282	-200.000	-0.001	-0.050
-404.267	25.270	-0.251	0.212
-403.252	-200.000	0.007	0.319
-402.238	-200.000	-0.022	0.300
-401.223	86.097	0.323	0.361
-400.209	-84.243	-0.067	0.022
-399.194	78.035	-0.231	0.251
-398.179	-4.078	0.094	-0.066
-397.165	76.770	0.167	0.181
-396.150	-7.738	-0.126	-0.087
-395.136	-117.691	-0.220	-0.040
-394.121	-101.925	-0.259	-0.064
-393.106	-41.795	0.241	-0.126
-392.092	16.920	0.126	0.101
-391.077	-46.686	0.149	0.074
-390.063	-200.000	-0.008	0.179
-389.048	591.042	0.127	0.318
-388.033	100.278	-0.136	0.160
-387.019	-89.474	0.246	0.074
-386.004	800.000	0.067	0.293
-384.990	501.791	-0.147	0.346
-383.975	-55.764	-0.086	0.039
-382.960	-200.000	-0.008	-0.158
-381.946	-149.891	-0.539	0.043
-380.931	-200.000	0.028	0.180
-379.917	-156.804	-0.353	0.022
-378.902	-125.233	0.142	-0.022
-377.888	-200.000	0.005	0.071
-376.873	52.218	0.044	0.043
-375.858	-84.313	0.079	0.026
-374.844	-200.000	-0.007	-0.358
-373.829	-200.000	0.010	-0.271
-372.815	19.007	0.288	-0.234
-371.800	134.313	-0.293	0.386
-370.785	783.511	0.081	0.227
-369.771	-30.231	-0.327	0.189
-368.756	148.679	-0.083	0.114
-367.742	-200.000	-0.003	-0.210
-366.727	303.585	-0.101	-0.190
-365.712	91.057	0.291	0.332
-364.698	21.663	-0.094	0.078
-363.683	-81.055	-0.176	-0.059
-362.669	-92.776	-0.102	0.029
-361.654	-111.138	0.207	0.043
-360.639	-200.000	0.038	0.180
-359.625	-200.000	0.052	-0.276
-358.610	-161.071	-0.188	-0.010
-357.596	47.095	-0.243	-0.230
-356.581	-200.000	0.013	0.253
-355.566	127.232	-0.179	0.231
-354.552	18.872	-0.138	-0.113
-353.537	-35.741	0.327	0.180
-352.523	472.984	0.158	0.361
-351.508	11.211	-0.239	0.186
-350.493	-115.214	0.164	0.031
-349.479	800.000	-0.024	-0.070
-348.464	-103.720	0.160	0.038
-347.450	41.878	-0.095	-0.088
-346.435	-66.644	0.380	0.153
-345.420	-84.337	0.224	0.072
-344.406	-145.340	0.132	-0.012
-343.391	-71.229	-0.087	0.033
-342.377	95.152	-0.096	0.111
-341.362	579.418	0.090	0.223
-340.348	-149.009	-0.133	0.011
-339.333	-79.007	0.132	-0.045
-338.318	52.917	-0.117	-0.114
-337.304	-61.715	0.043	0.018
-336.289	-187.342	0.006	0.000
-335.275	341.283	-0.057	-0.114
-334.260	-15.133	-0.193	-0.125
-333.245	-22.817	0.336	0.206
-332.231	-200.000	-0.011	0.069
-331.216	84.904	0.139	-0.155
-330.202	-84.652	-0.250	-0.080
-329.187	800.000	-0.023	-0.088
-328.172	-200.000	0.002	-0.301
-327.158	248.267	-0.109	0.187
-326.143	-42.705	0.158	0.082
-325.129	-113.896	-0.103	-0.020
-324.114	-5.828	0.240	-0.167
-323.099	-49.452	-0.091	0.044
-322.085	171.499	0.079	0.115
-321.070	-156.890	-0.197	-0.012
-320.056	51.908	-0.112	-0.108
-319.041	184.111	0.013	-0.020
-318.026	-70.951	0.220	-0.084
-317.012	73.931	0.142	-0.151
-315.997	800.000	0.073	0.315
-314.983	-150.272	0.156	0.012
-313.968	-56.245	-0.044	0.020
-312.953	-9.803	-0.324	0.219
-311.939	19.259	-0.054	-0.044
-310.924	-200.000	0.231	-0.001
-309.910	276.662	0.070	-0.126
-308.895	-200.000	-0.006	0.116
-307.880	-65.720	-0.127	-0.052
-306.866	-37.027	0.167	0.091
-305.851	362.658	-0.071	0.144
-304.837	-121.322	-0.058	-0.010
-303.822	36.065	-0.231	-0.207
-302.807	190.264	0.094	0.143
-301.793	340.992	0.036	-0.071
-300.778	-106.722	0.370	-0.083
-299.764	104.935	-0.098	0.117
-298.749	150.043	-0.096	-0.132
-297.735	-41.741	-0.203	-0.106
-296.720	-84.335	-0.292	0.094
-295.705	287.369	0.053	-0.097
-294.691	-45.165	0.203	-0.102
-293.676	-56.174	-0.288	-0.130
-292.662	-61.309	0.323	0.138
-291.647	-200.000	-0.002	0.037
-290.632	-46.327	-0.156	-0.077
-289.618	-177.175	-0.185	-0.005
-288.603	800.000	0.144	0.436
-287.589	800.000	-0.077	-0.273
-286.574	-64.436	-0.319	-0.131
-285.559	-29.729	-0.252	0.146
-284.545	-117.594	-0.242	-0.044
-283.530	-56.939	-0.142	0.064
-282.516	167.906	0.070	0.100
-281.501	-30.589	-0.223	0.128
-280.486	-23.193	0.153	0.093
-279.472	481.979	0.097	-0.224
-278.457	-140.808	-0.081	0.008
-277.443	-57.867	-0.171	-0.076
-276.428	-194.891	-0.479	0.004
-275.413	-115.680	0.289	-0.055
-274.399	-177.939	-0.145	-0.004
-273.384	36.802	0.236	-0.211
-272.370	-200.000	-0.009	-0.144
-271.355	47.136	-0.213	-0.200
-270.340	54.839	0.189	0.184
-269.326	-17.332	-0.433	-0.276
-268.311	207.249	0.140	-0.221
-267.297	800.000	-0.038	0.119
-266.282	-96.221	0.187	-0.050
-265.267	-200.000	0.031	-0.289
-264.253	44.380	0.102	-0.095
-263.238	-30.429	-0.077	-0.044
-262.224	-200.000	-0.019	-0.367
-261.209	-200.000	-0.034	-0.384
-260.195	60.905	-0.213	0.214
-259.180	800.000	0.055	0.226
-258.165	87.042	0.147	-0.165
-257.151	-130.050	0.064	0.009
-256.136	338.765	-0.060	0.118
-255.122	9.926	0.129	0.099
-254.107	513.508	0.101	0.239
-253.092	-200.000	-0.011	-0.135
-252.078	800.000	0.059	0.168
-251.063	-200.000	-0.041	0.262
-250.049	-200.000	0.012	0.113
-249.034	9.946	-0.234	0.180
-248.019	90.723	0.094	-0.106
-247.005	-83.625	0.318	0.103
-245.990	800.000	-0.080	-0.349
-244.976	36.685	0.121	0.108
-243.961	-97.405	-0.214	-0.056
-242.946	170.626	0.124	-0.179
-241.932	-112.805	-0.173	-0.035
-240.917	-49.514	0.421	0.203
-239.903	85.295	0.147	0.163
-238.888	372.711	-0.097	0.199
-237.873	496.025	-0.022	-0.052
-236.859	91.195	-0.335	-0.380
-235.844	-200.000	-0.031	-0.374
-234.830	-120.571	-0.159	-0.027
-233.815	800.000	0.008	0.025
-232.800	-200.000	-0.015	0.197
-231.786	-31.058	0.172	-0.098
-230.771	114.814	0.217	-0.268
-229.757	462.773	-0.046	-0.105
-228.742	-114.937	0.235	-0.045
-227.727	-91.123	0.284	0.082
-226.713	207.650	0.053	0.083
-225.698	800.000	-0.073	-0.212
-224.684	-34.827	-0.340	0.188
-223.669	-120.291	-0.527	0.091
-222.655	305.694	0.120	-0.225
-221.640	-106.097	-0.120	0.027
-220.625	385.854	-0.189	-0.395
-219.611	800.000	0.089	-0.391
-218.596	273.837	0.102	-0.183
-217.582	-200.000	-0.017	-0.139
-216.567	-50.769	0.068	-0.033
-215.552	-35.015	-0.319	0.175
-214.538	-69.320	-0.161	-0.062
-213.523	72.037	0.107	0.112
-212.509	800.000	-0.061	0.228
-211.494	-37.081	0.172	-0.093
-210.479	169.799	0.031	0.045
-209.465	-100.772	0.067	0.017
-208.450	-71.670	-0.126	-0.047
-207.436	220.025	0.052	0.084
-206.421	-54.466	-0.305	-0.139
-205.406	-64.061	0.320	-0.132
-204.392	-123.850	-0.129	0.021
-203.377	18.490	-0.122	-0.098
-202.363	-106.701	0.220	0.049
-201.348	-29.203	0.148	-0.086
-200.333	-126.651	0.198	-0.030
-199.319	148.591	0.176	0.240
-198.304	-55.616	-0.420	0.190
-197.290	-64.201	-0.171	-0.070
-196.275	0.308	0.086	0.062
-195.260	-200.000	-0.031	-0.209
-194.246	-128.347	0.214	-0.031
-193.231	-69.100	-0.106	0.041
-192.217	-145.102	-0.198	-0.018
-191.202	800.000	-0.032	0.105
-190.187	167.561	0.142	-0.204
-189.173	-200.000	-0.022	-0.129
-188.158	121.398	-0.083	-0.104
-187.144	37.464	0.135	-0.121
-186.129	800.000	-0.050	-0.196
-185.114	82.694	0.251	0.275
-184.100	-15.573	0.302	0.194
-183.085	382.880	0.052	0.109
-182.071	800.000	-0.039	-0.141
-181.056	-200.000	0.019	0.355
-180.042	-32.421	-0.235	-0.132
-179.027	-28.078	0.207	-0.121
-178.012	72.617	0.246	-0.258
-176.998	-200.000	-0.004	-0.099
-175.983	-69.731	-0.217	-0.084
-174.969	414.017	0.173	0.372
-173.954	-200.000	-0.001	-0.057
-172.939	-106.818	-0.222	-0.050
-171.925	-200.000	0.035	0.564
-170.910	2.405	0.136	0.099
-169.896	800.000	0.120	-0.351
-168.881	592.896	-0.176	0.437
-167.866	242.591	-0.253	0.428
-166.852	-74.828	0.356	-0.129
-165.837	-60.882	0.105	0.045
-164.823	349.012	0.235	-0.467
-163.808	-200.000	0.012	0.270
-162.793	-93.297	0.158	0.044
-161.779	361.744	0.247	0.500
-160.764	-200.000	0.004	0.267
-159.750	-31.107	-0.170	-0.097
-158.735	-123.636	0.105	-0.017
-157.720	800.000	0.023	-0.078
-156.706	-180.349	-0.125	-0.003
-155.691	-200.000	-0.001	-0.192
-154.677	242.978	0.038	0.065
-153.662	-25.685	-0.258	-0.154
-152.647	-63.151	-0.082	-0.034
-151.633	222.186	-0.053	0.085
-150.618	175.130	0.128	-0.187
-149.604	-50.538	0.282	0.134
-148.589	-143.163	0.087	-0.008
-147.574	96.087	0.257	-0.296
-146.560	-200.000	-0.001	0.021
-145.545	-200.000	0.018	0.204
-144.531	13.697	0.212	0.166
-143.516	46.946	0.101	0.094
-142.502	-49.233	0.043	-0.021
-141.487	-151.646	-0.159	0.012
-140.472	-160.429	-0.114	-0.006
-139.458	-200.000	-0.050	0.244
-138.443	-114.846	0.239	0.046
-137.429	-95.722	-0.324	-0.087
-136.414	-140.207	-0.048	0.005
-135.399	103.361	0.100	0.118
-134.385	58.281	-0.343	0.338
-133.370	-158.603	-0.216	-0.013
-132.356	4.809	-0.185	-0.137
-131.341	-200.000	-0.007	-0.106
-130.326	-200.000	0.028	0.151
-129.312	-0.284	-0.251	-0.180
-128.297	109.869	-0.096	0.116
-127.283	-55.536	-0.391	0.176
-126.268	221.371	-0.087	0.141
-125.253	121.536	-0.204	0.256
-124.239	5.475	-0.236	-0.176
-123.224	-200.000	0.027	0.137
-122.210	511.934	0.133	0.312
