DTS Sentinel unit serial number:	SN413079Multiplexer serial number:	ORYXHardware model number:	OX4-SRSoftware version number:	ORYX F/W v4.00 Oryx Data Collector v3.7.2.0data status	okinstallation	princeton_trtdifferential loss correction	single-endedforward channel	channel 4reverse channel	N/Adate	2019/09/15time	05:53:35forward acquisition time	60.00reverse acquisition time	0.00gamma	496.2192k internal	0.2311k external	0.2311temperature offset calibration	1.0037default loss term (dB/km)	0.3790temperature slope calibration	1.0000multiplexer offset coefficient	1.0000multiplexer slope coefficient	1.0000fibre end	0.00T internal ref (°C)	30.62T ext. ref 1 (°C)	4.86T ext. ref 2 (°C)	25.43length (m)	temperature (°C)	Stokes	anti-Stokes-747.200	800.000	0.114	0.466
-746.185	182.890	-0.151	0.227
-745.171	-137.194	-0.383	-0.044
-744.156	-200.000	0.104	0.607
-743.142	-106.584	0.196	-0.044
-742.127	-200.000	0.018	0.213
-741.112	800.000	0.093	-0.390
-740.098	10.211	-0.098	0.076
-739.083	-170.916	0.226	0.008
-738.069	421.861	-0.223	0.485
-737.054	322.293	0.154	-0.298
-736.039	-81.015	-0.253	0.085
-735.025	-16.538	0.251	-0.162
-734.010	-137.073	-0.328	-0.038
-732.996	358.155	-0.081	-0.164
-731.981	16.978	-0.272	0.218
-730.966	800.000	0.034	0.147
-729.952	32.967	0.167	-0.147
-728.937	-80.016	-0.180	-0.061
-727.923	309.368	0.158	0.300
-726.908	366.107	0.108	-0.220
-725.894	-19.392	-0.299	-0.188
-724.879	-86.226	0.080	0.025
-723.864	77.450	-0.181	-0.195
-722.850	-38.699	0.197	0.105
-721.835	129.609	-0.092	0.119
-720.821	587.764	0.082	-0.204
-719.806	-54.397	-0.226	-0.104
-718.791	-163.332	-0.312	0.015
-717.777	-70.879	-0.293	-0.112
-716.762	127.927	-0.131	0.168
-715.748	800.000	0.123	0.415
-714.733	186.283	-0.148	0.224
-713.718	233.747	-0.049	0.082
-712.704	26.090	0.094	0.079
-711.689	207.052	-0.132	0.209
-710.675	-21.022	0.400	-0.248
-709.660	-58.584	0.205	0.090
-708.645	19.609	-0.057	0.047
-707.631	49.796	-0.095	-0.091
-706.616	-200.000	-0.049	-0.495
-705.602	-200.000	-0.003	0.076
-704.587	213.568	-0.078	0.125
-703.572	158.412	0.042	-0.059
-702.558	20.906	0.153	-0.126
-701.543	-200.000	-0.091	0.427
-700.529	90.027	0.094	-0.106
-699.514	110.934	0.079	-0.096
-698.499	-72.211	0.219	0.082
-697.485	-112.367	-0.217	-0.044
-696.470	800.000	-0.056	-0.189
-695.456	-154.178	-0.241	0.016
-694.441	-200.000	-0.024	0.214
-693.426	-106.658	-0.113	-0.025
-692.412	-34.503	-0.410	-0.228
-691.397	562.312	-0.067	0.165
-690.383	-39.271	-0.269	-0.143
-689.368	-200.000	0.029	0.193
-688.354	-200.000	0.065	-0.307
-687.339	111.609	0.050	0.061
-686.324	800.000	0.036	0.117
-685.310	4.941	-0.226	0.168
-684.295	77.590	0.213	0.229
-683.281	220.721	-0.071	0.116
-682.266	-200.000	0.006	-0.057
-681.251	-200.000	-0.032	0.398
-680.237	-200.000	-0.019	0.128
-679.222	330.046	0.100	0.196
-678.208	172.874	0.225	0.329
-677.193	-25.075	-0.331	0.199
-676.178	-55.438	-0.093	-0.042
-675.164	-200.000	0.029	0.400
-674.149	37.776	0.121	-0.109
-673.135	-76.106	-0.189	-0.068
-672.120	-80.284	0.206	0.070
-671.105	224.846	0.033	0.055
-670.091	201.090	-0.115	-0.179
-669.076	151.593	0.231	-0.318
-668.062	-136.006	-0.236	-0.028
-667.047	-92.422	0.291	-0.083
-666.032	-26.196	-0.187	0.111
-665.018	95.622	0.128	0.148
-664.003	-54.486	-0.003	0.001
-662.989	105.004	-0.072	-0.086
-661.974	292.266	0.033	0.061
-660.959	-177.927	-0.197	0.005
-659.945	-129.562	0.279	0.039
-658.930	384.455	-0.082	-0.172
-657.916	-82.618	0.157	0.052
-656.901	-48.380	0.101	0.049
-655.886	79.927	-0.186	-0.202
-654.872	-200.000	-0.046	0.272
-653.857	-200.000	-0.019	0.158
-652.843	69.182	0.106	0.111
-651.828	-200.000	0.023	-0.228
-650.814	-200.000	-0.040	-0.353
-649.799	-17.747	0.130	0.083
-648.784	445.564	-0.004	0.009
-647.770	-78.153	0.086	-0.030
-646.755	-200.000	0.024	-0.135
-645.741	-8.075	-0.303	-0.207
-644.726	47.055	-0.159	-0.149
-643.711	-200.000	0.069	0.324
-642.697	-157.855	-0.112	0.007
-641.682	10.852	0.277	0.214
-640.668	-132.515	-0.167	-0.022
-639.653	6.672	-0.141	0.106
-638.638	-174.900	0.325	0.009
-637.624	105.970	0.141	0.169
-636.609	-200.000	-0.013	-0.170
-635.595	-114.071	0.147	-0.029
-634.580	188.464	-0.106	0.161
-633.565	800.000	0.082	0.360
-632.551	-200.000	-0.002	0.112
-631.536	237.923	-0.267	0.447
-630.522	284.267	-0.078	0.142
-629.507	129.622	0.214	0.277
-628.492	-200.000	0.003	0.073
-627.478	-200.000	-0.016	0.185
-626.463	553.720	-0.149	-0.362
-625.449	34.023	-0.123	0.108
-624.434	-200.000	-0.019	0.113
-623.419	327.319	0.135	-0.262
-622.405	-114.583	0.284	0.055
-621.390	-1.579	0.212	0.151
-620.376	38.087	-0.342	0.307
-619.361	237.803	0.108	-0.181
-618.346	699.170	0.055	0.145
-617.332	-33.508	0.054	0.030
-616.317	-57.234	-0.275	-0.122
-615.303	432.816	0.088	0.192
-614.288	-94.170	-0.377	-0.104
-613.273	-200.000	0.022	-0.250
-612.259	800.000	0.024	0.095
-611.244	-60.124	-0.183	-0.079
-610.230	25.689	-0.055	0.046
-609.215	800.000	-0.064	-0.218
-608.201	-115.504	-0.152	0.029
-607.186	10.284	-0.119	0.092
-606.171	41.233	-0.184	-0.168
-605.157	61.476	-0.080	-0.080
-604.142	119.596	-0.180	0.225
-603.128	-64.266	-0.232	0.095
-602.113	-46.508	-0.288	0.143
-601.098	315.274	0.127	-0.243
-600.084	208.996	0.122	0.193
-599.069	-200.000	-0.054	-0.271
-598.055	-135.575	-0.171	-0.020
-597.040	117.849	-0.066	-0.082
-596.025	195.120	-0.147	-0.225
-595.011	239.631	0.026	0.044
-593.996	-73.365	0.377	0.139
-592.982	366.201	-0.075	0.152
-591.967	-98.174	-0.217	0.056
-590.952	598.898	-0.017	0.042
-589.938	-115.369	0.337	0.064
-588.923	-200.000	-0.026	0.190
-587.909	-200.000	-0.049	-0.419
-586.894	-200.000	-0.012	0.256
-585.879	-37.867	-0.190	-0.102
-584.865	-151.054	-0.205	0.016
-583.850	-104.528	0.052	-0.012
-582.836	232.699	-0.159	-0.263
-581.821	-10.796	0.116	-0.077
-580.806	8.548	-0.052	-0.039
-579.792	67.157	-0.145	-0.149
-578.777	519.269	0.062	-0.146
-577.763	289.931	0.176	-0.322
-576.748	-171.547	0.158	0.005
-575.733	65.574	0.075	-0.076
-574.719	38.238	0.393	-0.352
-573.704	-31.153	-0.394	0.224
-572.690	146.940	-0.109	-0.147
-571.675	541.132	0.096	0.230
-570.661	102.107	-0.213	0.251
-569.646	-122.327	0.090	-0.015
-568.631	-97.591	-0.076	0.020
-567.617	102.040	0.275	-0.324
-566.602	-200.000	-0.005	-0.079
-565.588	800.000	-0.053	-0.212
-564.573	-35.554	-0.113	-0.062
-563.558	256.326	-0.194	-0.336
-562.544	-111.066	0.139	-0.029
-561.529	111.769	0.188	0.229
-560.515	76.438	0.199	0.212
-559.500	67.800	-0.145	0.150
-558.485	364.491	0.140	0.285
-557.471	800.000	-0.053	-0.154
-556.456	106.801	-0.106	0.127
-555.442	427.540	-0.151	0.327
-554.427	162.855	-0.093	-0.131
-553.412	214.624	-0.130	0.208
-552.398	-200.000	0.043	-0.212
-551.383	-73.181	0.131	0.048
-550.369	-200.000	-0.034	0.200
-549.354	444.468	-0.063	-0.140
-548.339	-200.000	0.024	0.221
-547.325	-200.000	0.010	0.442
-546.310	339.751	-0.105	0.207
-545.296	-91.681	-0.353	-0.101
-544.281	-97.681	0.378	-0.099
-543.266	135.284	-0.044	-0.058
-542.252	-46.417	-0.035	-0.017
-541.237	303.734	0.042	0.079
-540.223	72.222	-0.095	-0.099
-539.208	88.644	-0.290	0.325
-538.193	271.399	-0.039	-0.070
-537.179	-76.638	0.171	-0.060
-536.164	-200.000	-0.004	-0.158
-535.150	-200.000	0.299	-0.001
-534.135	-62.249	0.148	-0.062
-533.121	165.052	0.156	0.222
-532.106	-62.993	-0.248	-0.103
-531.091	-142.760	-0.386	-0.038
-530.077	71.285	-0.163	0.170
-529.062	-200.000	0.006	-0.074
-528.048	-144.528	-0.263	0.024
-527.033	800.000	-0.028	-0.084
-526.018	-112.698	-0.081	-0.016
-525.004	-22.015	0.161	0.098
-523.989	-143.649	-0.167	0.016
-522.975	-200.000	0.000	0.024
-521.960	17.655	-0.177	0.142
-520.945	800.000	-0.027	0.094
-519.931	200.927	-0.078	-0.120
-518.916	313.705	-0.115	-0.218
-517.902	31.759	0.080	0.069
-516.887	-200.000	-0.020	-0.152
-515.872	91.751	0.124	-0.140
-514.858	-200.000	-0.035	0.154
-513.843	800.000	-0.034	0.110
-512.829	-200.000	0.024	0.182
-511.814	89.616	0.276	-0.310
-510.799	303.631	-0.119	0.222
-509.785	-35.535	-0.233	0.127
-508.770	-119.158	0.331	-0.058
-507.756	-200.000	-0.004	0.117
-506.741	-35.930	-0.215	-0.117
-505.726	-179.239	-0.447	-0.010
-504.712	96.710	-0.128	-0.148
-503.697	-105.517	-0.257	0.059
-502.683	714.592	-0.027	0.071
-501.668	-43.657	-0.091	-0.046
-500.653	-99.289	0.185	0.047
-499.639	-14.717	-0.117	-0.075
-498.624	696.657	-0.074	-0.195
-497.610	800.000	0.048	0.162
-496.595	-200.000	0.000	0.063
-495.581	24.736	-0.166	-0.138
-494.566	-28.798	0.213	0.123
-493.551	-49.685	-0.188	0.090
-492.537	800.000	-0.035	-0.136
-491.522	800.000	-0.021	0.085
-490.508	-57.246	0.105	-0.046
-489.493	127.956	-0.112	-0.143
-488.478	121.148	0.121	-0.151
-487.464	800.000	0.120	0.422
-486.449	164.328	-0.078	0.110
-485.435	6.639	-0.139	-0.103
-484.420	-87.172	-0.281	0.086
-483.405	161.901	-0.069	-0.097
-482.391	-93.650	-0.365	-0.101
-481.376	-200.000	0.011	-0.063
-480.362	800.000	0.033	0.112
-479.347	-85.750	-0.620	-0.193
-478.332	-200.000	-0.078	-0.520
-477.318	-170.541	0.188	-0.007
-476.303	-27.328	-0.224	-0.131
-475.289	47.674	0.158	0.149
-474.274	387.628	-0.123	-0.256
-473.259	456.451	0.099	0.220
-472.245	70.217	0.034	-0.035
-471.230	-126.872	0.336	-0.050
-470.216	7.132	-0.423	-0.317
-469.201	708.156	0.073	0.194
-468.186	-200.000	0.044	0.372
-467.172	323.891	-0.083	-0.160
-466.157	-112.098	-0.108	-0.022
-465.143	-200.000	-0.005	-0.233
-464.128	231.092	0.108	-0.178
-463.113	59.684	-0.054	0.053
-462.099	-17.926	-0.226	0.142
-461.084	-200.000	-0.002	0.076
-460.070	546.417	0.087	-0.210
-459.055	800.000	-0.085	-0.253
-458.040	-200.000	-0.035	-0.273
-457.026	-179.105	-0.471	-0.011
-456.011	-200.000	0.052	-0.281
-454.997	-136.330	-0.418	-0.049
-453.982	-200.000	-0.051	-0.508
-452.968	88.448	0.107	-0.119
-451.953	46.040	-0.183	-0.170
-450.938	800.000	0.048	-0.178
-449.924	230.702	0.183	-0.301
-448.909	-123.657	0.179	-0.028
-447.895	800.000	0.037	-0.110
-446.880	165.054	0.132	-0.186
-445.865	191.558	0.125	-0.189
-444.851	248.267	0.031	0.052
-443.836	-190.129	0.121	0.001
-442.822	30.389	0.208	0.178
-441.807	-200.000	-0.013	0.193
-440.792	-1.992	-0.128	0.090
-439.778	-53.212	0.392	-0.180
-438.763	-42.481	-0.095	-0.049
-437.749	35.640	0.329	-0.290
-436.734	119.853	-0.238	0.296
-435.719	24.246	-0.058	0.048
-434.705	179.348	-0.233	0.342
-433.690	-200.000	-0.015	0.478
-432.676	800.000	-0.041	-0.140
-431.661	-200.000	-0.013	0.064
-430.646	261.405	0.107	-0.186
-429.632	439.720	-0.106	-0.232
-428.617	-99.392	-0.052	0.013
-427.603	465.932	0.102	-0.229
-426.588	16.577	0.307	-0.243
-425.573	-200.000	-0.012	0.099
-424.559	94.949	-0.127	-0.144
-423.544	57.289	-0.127	0.124
-422.530	-135.821	0.108	-0.013
-421.515	-50.250	-0.164	0.078
-420.500	274.477	-0.092	0.163
-419.486	24.533	0.334	-0.277
-418.471	72.422	-0.080	-0.084
-417.457	-200.000	-0.008	0.039
-416.442	-56.792	0.036	0.016
-415.428	90.956	0.198	0.222
-414.413	-145.506	0.066	-0.006
-413.398	-148.802	-0.331	0.027
-412.384	-200.000	0.009	0.107
-411.369	-38.382	-0.069	-0.037
-410.355	-54.815	0.317	-0.144
-409.340	-56.711	-0.379	-0.168
-408.325	-200.000	-0.005	-0.200
-407.311	116.351	0.109	-0.133
-406.296	-3.380	0.068	0.048
-405.282	-156.001	0.376	0.024
-404.267	-200.000	-0.053	-0.255
-403.252	236.125	-0.137	0.228
-402.238	384.104	-0.057	-0.117
-401.223	-62.591	-0.322	0.134
-400.209	-35.291	0.096	-0.052
-399.194	-85.354	0.246	0.077
-398.179	591.318	0.102	-0.253
-397.165	-4.702	-0.130	-0.090
-396.150	38.298	0.215	-0.191
-395.136	10.065	0.109	-0.083
-394.121	-200.000	-0.013	0.219
-393.106	-49.671	0.155	-0.074
-392.092	-117.556	-0.146	0.026
-391.077	-110.506	-0.071	-0.015
-390.063	-71.420	-0.168	0.063
-389.048	-116.756	-0.219	0.040
-388.033	-142.371	-0.103	-0.010
-387.019	-200.000	-0.005	0.283
-386.004	-156.748	0.081	0.005
-384.990	-48.118	0.235	-0.114
-383.975	-200.000	0.012	0.187
-382.960	-22.667	0.230	0.139
-381.946	-200.000	-0.019	-0.164
-380.931	305.571	-0.084	0.156
-379.917	-146.403	0.159	0.014
-378.902	1.302	0.209	-0.150
-377.888	95.492	-0.139	-0.159
-376.873	-200.000	0.002	0.090
-375.858	800.000	-0.095	0.301
-374.844	298.190	-0.069	-0.126
-373.829	-63.844	0.295	0.121
-372.815	800.000	-0.008	-0.028
-371.800	128.625	-0.049	-0.062
-370.785	362.449	-0.017	0.034
-369.771	800.000	-0.090	-0.273
-368.756	-10.149	-0.108	-0.072
-367.742	200.394	0.018	-0.028
-366.727	-41.158	-0.043	-0.022
-365.712	-61.828	0.125	0.052
-364.698	-122.777	-0.206	-0.033
-363.683	349.302	0.066	-0.129
-362.669	-200.000	0.005	-0.289
-361.654	-200.000	0.053	-0.408
-360.639	-93.211	-0.182	0.050
-359.625	72.856	-0.310	-0.324
-358.610	393.699	0.031	0.065
-357.596	-12.202	0.081	0.053
-356.581	293.403	0.050	-0.091
-355.566	-200.000	-0.012	-0.231
-354.552	800.000	0.096	-0.328
-353.537	-200.000	-0.024	0.149
-352.523	-44.874	0.134	0.067
-351.508	-114.136	0.271	-0.052
-350.493	-153.324	0.079	-0.005
-349.479	-200.000	-0.029	0.271
-348.464	57.929	0.050	0.049
-347.450	195.561	-0.230	-0.350
-346.435	-116.764	0.077	0.014
-345.420	-200.000	0.026	-0.219
-344.406	-80.237	-0.012	-0.004
-343.391	161.276	0.064	0.089
-342.377	-200.000	0.007	0.174
-341.362	-200.000	0.016	-0.135
-340.348	289.748	0.044	-0.079
-339.333	507.449	0.110	-0.256
-338.318	-20.940	-0.207	0.127
-337.304	32.866	0.190	-0.164
-336.289	-119.616	0.262	0.045
-335.275	82.780	0.123	0.133
-334.260	145.030	0.136	-0.182
-333.245	-96.596	-0.036	-0.010
-332.231	39.894	-0.077	-0.069
-331.216	78.209	0.226	-0.241
-330.202	-78.089	-0.614	-0.211
-329.187	444.008	0.152	0.333
-328.172	-31.410	0.198	0.111
-327.158	-97.381	0.276	-0.072
-326.143	-111.241	0.245	-0.050
-325.129	-43.526	0.121	0.061
-324.114	800.000	-0.081	-0.271
-323.099	-79.792	-0.232	-0.078
-322.085	30.545	-0.012	-0.010
-321.070	-93.262	0.308	-0.085
-320.056	-200.000	-0.092	0.436
-319.041	146.068	-0.271	0.363
-318.026	102.931	0.099	0.116
-317.012	150.935	-0.069	-0.093
-315.997	-200.000	0.000	0.313
-314.983	800.000	0.137	0.424
-313.968	619.566	-0.089	-0.223
-312.953	-164.609	0.178	-0.008
-311.939	-139.987	-0.207	-0.022
-310.924	-49.775	0.059	0.028
-309.910	598.882	0.042	-0.104
-308.895	-159.466	-0.304	0.017
-307.880	800.000	0.077	0.228
-306.866	800.000	0.052	0.168
-305.851	-200.000	0.006	0.164
-304.837	-19.412	-0.148	0.092
-303.822	295.559	0.109	0.200
-302.807	-9.649	-0.006	0.004
-301.793	-200.000	0.011	-0.216
-300.778	279.664	0.123	0.220
-299.764	208.283	0.268	0.418
-298.749	91.115	0.125	-0.140
-297.735	-63.489	-0.101	-0.041
-296.720	201.481	0.109	-0.167
-295.705	-93.215	-0.410	0.114
-294.691	-88.788	0.238	0.070
-293.676	-27.839	-0.087	0.050
-292.662	-14.611	0.094	-0.060
-291.647	-200.000	0.050	0.258
-290.632	-86.898	0.136	0.041
-289.618	-31.453	0.325	0.182
-288.603	800.000	0.106	-0.387
-287.589	12.757	-0.358	0.276
-286.574	-134.999	0.072	0.009
-285.559	-177.429	0.261	0.006
-284.545	-89.292	0.144	-0.042
-283.530	461.762	0.057	0.126
-282.516	-78.654	0.131	0.045
-281.501	-200.000	0.043	0.225
-280.486	-61.690	-0.355	-0.148
-279.472	218.486	0.068	0.108
-278.457	800.000	0.082	-0.264
-277.443	-68.445	0.106	0.041
-276.428	-51.544	0.217	0.101
-275.413	154.707	0.092	0.126
-274.399	181.289	-0.062	-0.090
-273.384	-200.000	0.019	-0.086
-272.370	-44.046	-0.172	0.086
-271.355	-133.814	-0.111	-0.014
-270.340	-200.000	-0.072	0.381
-269.326	-129.970	-0.287	0.039
-268.311	670.331	-0.148	0.383
-267.297	-169.916	0.300	0.011
-266.282	165.303	-0.103	-0.146
-265.267	74.750	0.226	-0.237
-264.253	-176.197	0.129	0.003
-263.238	-57.407	0.228	-0.100
-262.224	-55.785	-0.292	0.130
-261.209	-104.687	-0.170	0.039
-260.195	-50.721	0.155	-0.073
-259.180	29.703	-0.188	0.159
-258.165	24.375	0.042	-0.035
-257.151	-110.888	0.372	-0.076
-256.136	402.963	-0.015	0.031
-255.122	199.267	0.119	0.181
-254.107	457.498	0.204	0.450
-253.092	-148.663	0.161	-0.013
-252.078	268.886	-0.107	0.188
-251.063	-53.210	-0.360	-0.164
-250.049	-200.000	0.001	-0.156
-249.034	-200.000	0.088	-0.416
-248.019	29.048	-0.316	-0.266
-247.005	10.198	-0.279	0.212
-245.990	-90.576	-0.181	-0.052
-244.976	800.000	0.095	-0.290
-243.961	-181.251	-0.171	0.003
-242.946	505.046	0.118	-0.273
-241.932	-122.126	-0.327	-0.053
-240.917	75.520	-0.265	0.278
-239.903	-81.647	0.277	-0.090
-238.888	108.732	-0.036	0.042
-237.873	-27.875	0.147	-0.085
-236.859	-168.953	0.175	-0.007
-235.844	800.000	-0.072	0.233
-234.830	-200.000	-0.025	0.133
-233.815	-200.000	0.029	-0.209
-232.800	-130.668	0.181	0.024
-231.786	-86.960	-0.157	-0.048
-230.771	63.533	0.213	0.213
-229.757	-82.117	0.262	0.085
-228.742	528.983	-0.191	0.449
-227.727	-81.488	-0.262	0.086
-226.713	-145.464	0.202	-0.018
-225.698	56.644	-0.124	-0.120
-224.684	800.000	-0.015	0.060
-223.669	-78.478	-0.368	0.125
-222.655	87.189	0.079	0.086
-221.640	36.914	0.066	-0.058
-220.625	-62.366	-0.213	0.088
-219.611	-52.860	0.319	0.146
-218.596	800.000	-0.043	-0.123
-217.582	800.000	-0.020	-0.062
-216.567	154.687	0.080	0.109
-215.552	-200.000	-0.024	-0.119
-214.538	-89.657	0.240	0.070
-213.523	703.236	-0.021	-0.055
-212.509	-198.707	0.242	0.001
-211.494	320.814	0.204	-0.385
-210.479	800.000	0.064	-0.186
-209.465	71.481	-0.005	-0.005
-208.450	282.292	0.096	-0.171
-207.436	-104.780	0.267	0.061
-206.421	104.947	-0.082	0.096
-205.406	132.395	0.060	-0.077
-204.392	94.764	0.173	-0.195
-203.377	-141.813	-0.170	0.017
-202.363	-200.000	0.016	-0.110
-201.348	800.000	0.040	-0.173
-200.333	-113.235	0.453	0.089
-199.319	-148.046	0.203	0.017
-198.304	192.729	0.125	0.188
-197.290	800.000	0.120	-0.355
-196.275	-99.465	0.360	-0.090
-195.260	18.059	-0.246	0.195
-194.246	800.000	0.015	-0.046
-193.231	464.034	0.024	-0.053
-192.217	5.409	-0.289	-0.212
-191.202	39.027	-0.101	0.090
-190.187	655.714	0.048	0.123
-189.173	3.565	0.286	0.207
-188.158	-84.301	-0.054	-0.017
-187.144	-200.000	0.011	0.213
-186.129	-89.369	0.220	0.064
-185.114	-168.283	0.243	0.009
-184.100	-63.647	-0.112	-0.046
-183.085	144.280	0.094	-0.125
-182.071	5.830	0.257	-0.189
-181.056	-200.000	-0.015	0.466
-180.042	-200.000	0.041	0.303
-179.027	800.000	0.055	0.183
-178.012	281.617	-0.034	0.061
-176.998	-76.692	0.474	-0.165
-175.983	-12.385	0.339	0.220
-174.969	173.438	0.166	-0.238
-173.954	35.632	-0.240	-0.209
-172.939	-200.000	0.030	0.255
-171.925	14.032	-0.120	-0.093
-170.910	800.000	0.066	-0.276
-169.896	-134.773	-0.301	-0.036
-168.881	-9.290	-0.211	0.140
-167.866	25.981	-0.086	0.071
-166.852	71.390	-0.045	-0.047
-165.837	-161.974	0.106	-0.005
-164.823	-134.449	0.361	-0.044
-163.808	403.018	-0.095	0.199
-162.793	272.014	-0.100	0.175
-161.779	-128.193	0.248	0.035
-160.764	-200.000	0.007	0.098
-159.750	177.122	0.096	0.138
-158.735	-96.533	-0.266	0.070
-157.720	191.708	0.099	0.147
-156.706	150.344	0.081	0.109
-155.691	115.103	0.070	-0.085
-154.677	662.155	-0.053	0.136
-153.662	-89.616	0.353	-0.103
-152.647	38.605	-0.164	0.145
-151.633	86.463	-0.098	0.107
-150.618	-65.304	0.504	0.201
-149.604	-112.974	-0.452	-0.089
-148.589	-24.833	0.054	0.032
-147.574	800.000	0.050	0.214
-146.560	-59.474	0.192	0.082
-145.545	800.000	0.074	-0.233
-144.531	453.073	-0.131	0.288
-143.516	42.035	0.085	0.076
-142.502	52.217	-0.048	-0.046
-141.487	-34.396	-0.043	-0.023
-140.472	800.000	-0.072	-0.250
-139.458	253.551	0.101	-0.171
-138.443	140.237	0.168	0.219
-137.429	-200.000	0.003	-0.120
-136.414	306.110	0.099	0.182
-135.399	800.000	-0.061	0.248
-134.385	-58.470	0.120	0.052
-133.370	79.035	0.217	-0.230
-132.356	304.748	-0.019	-0.034
-131.341	563.290	0.082	0.196
-130.326	-98.513	0.202	0.051
-129.312	94.287	0.122	0.137
-128.297	-128.476	-0.171	-0.024
-127.283	-131.307	0.156	0.020
-126.268	32.457	-0.220	-0.189
-125.253	-200.000	0.045	0.261
-124.239	-8.775	0.167	-0.111
-123.224	-200.000	-0.033	-0.306
-122.210	-200.000	-0.029	0.178
-121.195	721.065	-0.012	0.031
