DTS Sentinel unit serial number:	SN413079Multiplexer serial number:	ORYXHardware model number:	OX4-SRSoftware version number:	ORYX F/W v4.00 Oryx Data Collector v3.7.2.0data status	okinstallation	princeton_trtdifferential loss correction	single-endedforward channel	channel 4reverse channel	N/Adate	2019/09/14time	00:53:34forward acquisition time	60.00reverse acquisition time	0.00gamma	496.2192k internal	0.2324k external	0.2324temperature offset calibration	1.0130default loss term (dB/km)	0.3790temperature slope calibration	1.0000multiplexer offset coefficient	1.0000multiplexer slope coefficient	1.0000fibre end	0.00T internal ref (°C)	26.39T ext. ref 1 (°C)	3.17T ext. ref 2 (°C)	21.21length (m)	temperature (°C)	Stokes	anti-Stokes-747.200	31.353	0.114	0.099
-746.185	123.653	0.313	0.397
-745.171	-26.623	0.226	0.133
-744.156	-200.000	-0.074	0.339
-743.142	800.000	0.067	0.297
-742.127	-189.072	0.048	0.001
-741.112	-134.640	0.032	0.004
-740.098	-154.164	-0.159	-0.011
-739.083	800.000	-0.110	0.316
-738.069	127.715	0.096	-0.123
-737.054	-200.000	-0.023	0.183
-736.039	800.000	-0.063	-0.213
-735.025	-113.652	0.284	0.056
-734.010	-200.000	-0.006	-0.230
-732.996	292.970	-0.133	-0.244
-731.981	-106.572	0.164	0.037
-730.966	121.446	0.176	-0.222
-729.952	-200.000	0.051	0.246
-728.937	206.615	-0.090	-0.141
-727.923	-200.000	0.246	-0.000
-726.908	-64.956	-0.266	0.109
-725.894	-200.000	0.003	0.134
-724.879	-200.000	0.020	0.328
-723.864	-14.628	0.285	0.185
-722.850	800.000	-0.093	0.368
-721.835	-133.446	0.465	0.059
-720.821	800.000	-0.087	-0.342
-719.806	-34.429	-0.330	-0.182
-718.791	43.923	0.331	-0.306
-717.777	-163.969	0.230	0.011
-716.762	185.502	-0.284	-0.426
-715.748	410.788	-0.114	0.244
-714.733	-200.000	0.007	-0.131
-713.718	-15.612	-0.189	-0.121
-712.704	361.062	-0.122	0.246
-711.689	-70.023	-0.064	0.025
-710.675	141.711	-0.158	-0.211
-709.660	-200.000	-0.018	0.263
-708.645	800.000	-0.060	-0.222
-707.631	200.058	-0.130	-0.201
-706.616	20.639	0.073	-0.060
-705.602	121.731	0.157	-0.198
-704.587	-17.321	-0.201	0.127
-703.572	-102.582	-0.196	-0.047
-702.558	-200.000	0.004	-0.128
-701.543	-73.696	0.195	0.072
-700.529	-200.000	0.014	-0.222
-699.514	-126.209	0.328	0.049
-698.499	-200.000	-0.013	-0.256
-697.485	-85.968	0.159	-0.050
-696.470	-90.570	-0.337	-0.098
-695.456	-50.666	-0.264	0.125
-694.441	177.178	0.248	-0.364
-693.426	-138.193	0.057	0.006
-692.412	-24.535	-0.123	0.074
-691.397	-23.456	0.108	-0.065
-690.383	-200.000	-0.006	-0.243
-689.368	-80.354	0.188	-0.063
-688.354	-21.763	-0.132	-0.081
-687.339	-139.393	-0.195	-0.021
-686.324	-144.456	0.312	-0.029
-685.310	705.375	0.023	0.062
-684.295	-20.738	-0.184	-0.114
-683.281	-200.000	-0.022	0.119
-682.266	-200.000	0.091	0.555
-681.251	686.005	0.147	-0.387
-680.237	302.687	0.115	-0.215
-679.222	462.250	-0.135	-0.303
-678.208	1.853	-0.074	-0.054
-677.193	-104.820	-0.247	-0.057
-676.178	-102.199	0.227	0.055
-675.164	20.168	-0.169	-0.138
-674.149	639.517	-0.071	-0.182
-673.135	-200.000	-0.035	0.205
-672.120	800.000	-0.048	0.190
-671.105	72.629	0.160	-0.168
-670.091	300.127	0.068	-0.126
-669.076	-20.829	0.223	0.138
-668.062	668.186	-0.070	0.182
-667.047	-32.104	0.259	-0.146
-666.032	-99.158	-0.392	0.100
-665.018	-142.266	-0.124	-0.012
-664.003	-178.971	0.057	0.001
-662.989	631.491	-0.059	-0.150
-661.974	-200.000	-0.028	0.145
-660.959	-13.920	0.043	0.028
-659.945	-6.060	0.242	-0.166
-658.930	-35.876	-0.121	0.066
-657.916	800.000	-0.021	-0.070
-656.901	800.000	-0.082	0.254
-655.886	260.284	0.013	0.022
-654.872	800.000	-0.021	0.072
-653.857	-84.970	0.167	0.053
-652.843	-200.000	0.070	-0.319
-651.828	172.400	0.088	0.128
-650.814	-5.735	0.190	0.131
-649.799	122.281	-0.129	0.162
-648.784	-200.000	0.003	0.062
-647.770	-60.863	0.010	0.004
-646.755	-200.000	0.002	-0.093
-645.741	-57.865	-0.165	-0.073
-644.726	-174.263	0.132	0.004
-643.711	398.685	-0.140	-0.295
-642.697	370.244	0.079	0.160
-641.682	206.978	-0.159	0.249
-640.668	-200.000	0.033	-0.167
-639.653	-82.376	-0.389	0.127
-638.638	-62.078	0.302	0.127
-637.624	674.640	0.049	-0.129
-636.609	-200.000	0.075	-0.335
-635.595	41.343	0.112	0.102
-634.580	-142.881	-0.232	-0.023
-633.565	-200.000	0.027	-0.190
-632.551	-111.618	0.121	-0.025
-631.536	9.583	-0.245	0.187
-630.522	-200.000	-0.020	-0.398
-629.507	36.669	0.131	0.116
-628.492	0.206	0.296	-0.212
-627.478	30.549	-0.279	0.240
-626.463	143.226	-0.139	-0.186
-625.449	-9.844	-0.096	0.064
-624.434	143.033	0.070	-0.094
-623.419	65.069	0.278	0.282
-622.405	800.000	0.088	0.277
-621.390	-146.142	-0.322	-0.029
-620.376	-104.405	0.191	-0.044
-619.361	361.777	-0.054	-0.109
-618.346	117.603	0.039	0.048
-617.332	-200.000	-0.016	-0.414
-616.317	-7.532	0.273	0.185
-615.303	85.903	0.229	-0.253
-614.288	-51.537	0.237	0.111
-613.273	483.741	0.157	0.360
-612.259	-102.531	0.137	0.033
-611.244	14.284	0.166	-0.130
-610.230	-132.857	0.072	-0.009
-609.215	-200.000	-0.070	-0.320
-608.201	-200.000	0.020	0.123
-607.186	800.000	0.074	0.270
-606.171	-120.203	-0.329	0.056
-605.157	-73.234	0.113	-0.042
-604.142	59.149	0.113	-0.111
-603.128	287.741	0.209	0.379
-602.113	32.760	-0.204	-0.178
-601.098	142.316	0.192	0.256
-600.084	-109.069	-0.259	0.055
-599.069	137.455	-0.077	0.101
-598.055	-100.879	0.330	0.081
-597.040	182.760	0.081	-0.121
-596.025	516.540	0.007	0.017
-595.011	-20.870	0.351	0.216
-593.996	121.267	-0.167	0.208
-592.982	386.175	0.069	0.143
-591.967	85.824	0.139	-0.153
-590.952	203.571	0.220	-0.342
-589.938	131.271	-0.113	-0.145
-588.923	282.316	0.021	-0.038
-587.909	-200.000	-0.048	-0.253
-586.894	-20.512	-0.162	-0.100
-585.879	122.379	-0.146	0.184
-584.865	217.114	-0.176	0.280
-583.850	1.635	0.150	-0.108
-582.836	253.539	0.117	0.200
-581.821	-56.613	-0.345	0.153
-580.806	-200.000	-0.005	-0.207
-579.792	-50.414	-0.191	-0.090
-578.777	-200.000	-0.030	-0.216
-577.763	-200.000	-0.009	-0.239
-576.748	16.610	0.284	0.225
-575.733	-119.330	0.189	0.033
-574.719	793.177	-0.055	-0.152
-573.704	-200.000	0.031	0.296
-572.690	131.317	0.263	-0.338
-571.675	800.000	0.018	-0.073
-570.661	-186.010	0.123	-0.002
-569.646	347.155	-0.151	0.299
-568.631	800.000	0.074	0.262
-567.617	155.011	0.077	0.106
-566.602	244.230	-0.053	-0.090
-565.588	-183.826	0.402	-0.007
-564.573	-200.000	-0.016	-0.081
-563.558	174.353	-0.066	0.096
-562.544	-75.131	0.195	-0.070
-561.529	-200.000	0.025	0.194
-560.515	165.743	-0.064	0.091
-559.500	-149.747	-0.294	-0.023
-558.485	-131.233	-0.485	-0.065
-557.471	-133.271	0.201	-0.025
-556.456	-79.809	0.261	-0.088
-555.442	-200.000	0.072	-0.403
-554.427	44.062	-0.003	-0.003
-553.412	-47.298	0.204	0.100
-552.398	-200.000	-0.014	-0.374
-551.383	54.463	0.278	-0.269
-550.369	800.000	-0.128	-0.475
-549.354	403.372	-0.142	-0.300
-548.339	-45.792	-0.156	0.077
-547.325	-64.214	-0.364	0.149
-546.310	800.000	-0.107	-0.436
-545.296	333.395	0.169	-0.327
-544.281	121.116	-0.216	-0.269
-543.266	-147.641	0.259	-0.022
-542.252	-138.993	0.163	-0.018
-541.237	76.235	-0.125	-0.133
-540.223	314.411	0.024	0.045
-539.208	71.953	-0.074	0.077
-538.193	5.925	0.109	-0.081
-537.179	268.546	0.108	-0.189
-536.164	-11.220	0.045	0.029
-535.150	5.549	0.176	-0.130
-534.135	-85.881	-0.371	0.115
-533.121	-200.000	0.015	-0.079
-532.106	-30.750	-0.080	0.045
-531.091	-200.000	0.003	0.217
-530.077	-200.000	0.004	-0.212
-529.062	468.088	-0.063	0.141
-528.048	83.853	0.175	0.192
-527.033	378.535	-0.113	0.231
-526.018	218.505	-0.252	0.403
-525.004	378.350	0.199	-0.407
-523.989	24.969	-0.219	-0.182
-522.975	-107.979	-0.055	-0.012
-521.960	-200.000	-0.069	0.412
-520.945	-200.000	0.023	-0.274
-519.931	-107.067	0.298	0.066
-518.916	5.303	0.189	0.139
-517.902	342.281	-0.092	0.180
-516.887	117.357	0.166	0.204
-515.872	141.222	-0.165	0.219
-514.858	-147.575	-0.340	-0.029
-513.843	-200.000	0.029	0.162
-512.829	32.669	0.090	-0.078
-511.814	-200.000	-0.041	0.420
-510.799	-18.749	-0.251	-0.156
-509.785	582.616	0.047	0.116
-508.770	-40.916	-0.277	-0.144
-507.756	748.262	0.031	0.082
-506.741	-172.214	0.309	0.010
-505.726	-163.408	-0.211	0.010
-504.712	800.000	-0.101	-0.306
-503.697	344.356	0.049	0.096
-502.683	-105.878	0.025	0.006
-501.668	-200.000	0.002	0.168
-500.653	-139.749	0.131	0.014
-499.639	-200.000	0.022	0.236
-498.624	-200.000	0.016	0.261
-497.610	-200.000	0.037	-0.202
-496.595	420.060	-0.043	-0.092
-495.581	-94.674	0.318	-0.086
-494.566	150.014	-0.236	0.319
-493.551	15.273	-0.190	0.149
-492.537	-200.000	0.013	-0.175
-491.522	-18.215	0.138	0.086
-490.508	179.598	0.250	-0.365
-489.493	-200.000	0.034	0.436
-488.478	42.108	0.175	0.159
-487.464	206.184	0.113	0.175
-486.449	586.595	0.056	0.138
-485.435	201.775	-0.194	-0.299
-484.420	447.193	0.092	0.203
-483.405	800.000	0.005	-0.020
-482.391	-200.000	-0.035	0.521
-481.376	-31.006	0.235	0.133
-480.362	800.000	0.142	0.431
-479.347	800.000	-0.021	0.061
-478.332	-200.000	-0.008	-0.121
-477.318	194.451	-0.127	0.193
-476.303	117.578	0.170	0.209
-475.289	-66.620	0.088	-0.035
-474.274	-122.101	-0.174	0.028
-473.259	774.652	0.030	0.080
-472.245	-118.494	-0.343	0.061
-471.230	-47.210	-0.183	0.089
-470.216	-44.303	-0.101	0.051
-469.201	-26.269	0.139	-0.082
-468.186	-63.494	-0.058	0.024
-467.172	-92.174	0.271	-0.076
-466.157	87.408	0.086	0.095
-465.143	-200.000	-0.070	-0.311
-464.128	135.297	-0.185	-0.241
-463.113	800.000	-0.072	-0.242
-462.099	66.354	0.227	-0.230
-461.084	39.586	0.155	-0.139
-460.070	2.028	-0.238	-0.172
-459.055	-200.000	0.008	-0.187
-458.040	800.000	-0.093	-0.285
-457.026	-200.000	-0.024	-0.408
-456.011	-103.434	-0.172	-0.040
-454.997	-17.966	-0.380	-0.238
-453.982	161.224	0.309	0.431
-452.968	-149.643	-0.129	0.010
-451.953	-11.090	-0.032	0.021
-450.938	-81.187	0.126	-0.042
-449.924	-200.000	0.038	-0.243
-448.909	32.892	-0.143	-0.123
-447.895	98.971	0.076	0.087
-446.880	-95.666	-0.052	0.014
-445.865	-40.043	-0.107	-0.055
-444.851	2.931	0.079	-0.057
-443.836	629.523	0.032	0.080
-442.822	557.975	0.089	-0.213
-441.807	-95.832	-0.236	0.063
-440.792	-200.000	-0.141	-0.000
-439.778	-148.972	0.206	0.017
-438.763	-30.451	0.122	0.069
-437.749	192.799	0.260	-0.392
-436.734	42.465	0.132	0.120
-435.719	153.053	0.165	-0.225
-434.705	465.517	0.108	0.241
-433.690	78.312	-0.025	0.026
-432.676	-127.042	0.233	-0.034
-431.661	241.118	0.100	0.167
-430.646	-200.000	0.001	0.156
-429.632	-189.672	0.234	-0.003
-428.617	-105.261	-0.356	0.081
-427.603	429.405	0.111	0.239
-426.588	-200.000	0.011	0.081
-425.573	43.281	-0.171	0.156
-424.559	81.952	0.116	0.125
-423.544	-45.926	0.099	-0.049
-422.530	-156.801	-0.424	0.026
-421.515	-148.583	-0.264	-0.022
-420.500	531.479	-0.166	0.392
-419.486	800.000	0.011	-0.033
-418.471	109.918	-0.043	-0.052
-417.457	111.836	-0.110	-0.132
-416.442	-200.000	0.003	-0.022
-415.428	-1.062	0.120	0.084
-414.413	-28.750	-0.364	0.209
-413.398	-24.847	-0.131	-0.077
-412.384	-200.000	-0.012	0.078
-411.369	637.298	0.037	0.094
-410.355	269.309	-0.268	-0.468
-409.340	-61.115	0.051	0.022
-408.325	-200.000	-0.015	0.228
-407.311	106.024	-0.194	-0.229
-406.296	-12.934	-0.241	0.156
-405.282	-98.411	0.170	-0.043
-404.267	110.564	0.137	-0.164
-403.252	115.644	-0.178	-0.217
-402.238	678.410	0.101	-0.261
-401.223	-115.812	-0.502	-0.094
-400.209	169.756	0.063	-0.089
-399.194	-200.000	-0.000	-0.139
-398.179	-182.888	-0.458	-0.008
-397.165	-45.035	-0.192	0.095
-396.150	800.000	-0.043	-0.186
-395.136	270.807	0.123	0.216
-394.121	101.172	0.116	0.135
-393.106	155.764	0.218	-0.300
-392.092	-167.653	0.046	-0.002
-391.077	403.466	0.091	0.192
-390.063	78.776	0.280	-0.298
-389.048	64.919	-0.196	-0.197
-388.033	221.719	-0.113	-0.180
-387.019	118.935	-0.096	0.119
-386.004	800.000	0.105	0.334
-384.990	800.000	-0.053	0.158
-383.975	-137.597	-0.090	-0.010
-382.960	-0.567	-0.159	0.112
-381.946	-108.640	-0.177	0.038
-380.931	154.950	0.146	0.200
-379.917	49.466	0.062	0.058
-378.902	-72.650	0.138	-0.051
-377.888	-85.727	-0.091	-0.028
-376.873	90.926	-0.122	-0.136
-375.858	46.508	0.158	-0.146
-374.844	-111.507	0.201	-0.041
-373.829	683.514	-0.037	0.096
-372.815	-200.000	0.037	0.406
-371.800	-118.182	-0.130	0.023
-370.785	50.590	0.184	-0.174
-369.771	-32.954	0.237	-0.131
-368.756	283.509	0.094	0.169
-367.742	-13.883	0.090	0.058
-366.727	164.277	0.119	-0.167
-365.712	-200.000	0.038	-0.215
-364.698	-60.957	0.188	0.079
-363.683	-18.455	-0.222	0.138
-362.669	540.784	-0.070	-0.165
-361.654	800.000	-0.053	-0.161
-360.639	-16.886	0.277	-0.174
-359.625	413.178	-0.044	0.092
-358.610	-40.418	-0.178	-0.092
-357.596	800.000	0.022	-0.071
-356.581	-64.195	0.091	0.037
-355.566	51.868	-0.257	-0.243
-354.552	-109.978	-0.291	0.061
-353.537	226.469	-0.208	-0.335
-352.523	119.869	0.037	-0.046
-351.508	11.321	0.278	-0.212
-350.493	-41.622	-0.107	0.055
-349.479	238.973	0.071	-0.117
-348.464	800.000	0.074	0.226
-347.450	539.372	-0.033	-0.079
-346.435	-131.162	-0.110	-0.015
-345.420	119.099	-0.041	0.050
-344.406	800.000	0.061	0.178
-343.391	-200.000	-0.051	0.329
-342.377	800.000	-0.066	-0.266
-341.362	75.727	0.172	-0.181
-340.348	-20.321	-0.127	0.078
-339.333	-14.880	0.501	-0.319
-338.318	-200.000	-0.015	0.122
-337.304	588.731	0.046	0.112
-336.289	-80.796	0.197	0.065
-335.275	-70.240	-0.168	-0.063
-334.260	83.129	-0.184	0.199
-333.245	-13.517	0.364	0.234
-332.231	81.943	-0.183	-0.197
-331.216	21.838	-0.118	0.095
-330.202	358.950	-0.131	-0.260
-329.187	211.113	-0.085	0.133
-328.172	-200.000	0.019	-0.168
-327.158	280.140	0.132	-0.235
-326.143	240.324	0.055	0.091
-325.129	580.253	-0.086	0.208
-324.114	-200.000	-0.048	0.297
-323.099	-32.115	0.326	0.181
-322.085	-17.868	-0.273	-0.170
-321.070	-13.640	0.151	-0.097
-320.056	300.804	-0.099	0.181
-319.041	-110.904	0.318	0.065
-318.026	-41.212	0.142	-0.073
-317.012	800.000	0.078	0.266
-315.997	228.956	0.083	0.134
-314.983	-160.062	-0.024	0.001
-313.968	2.062	0.241	0.173
-312.953	113.787	0.078	-0.094
-311.939	287.270	0.070	0.126
-310.924	-200.000	-0.009	0.135
-309.910	800.000	0.045	-0.184
-308.895	800.000	-0.065	0.237
-307.880	800.000	0.114	0.337
-306.866	59.820	0.337	-0.330
-305.851	-113.036	-0.539	-0.106
-304.837	-200.000	-0.017	0.098
-303.822	-149.965	-0.241	0.019
-302.807	-107.149	0.053	0.012
-301.793	252.885	0.075	0.127
-300.778	-142.269	-0.219	0.021
-299.764	1.598	-0.159	0.114
-298.749	4.857	-0.156	0.114
-297.735	800.000	0.046	0.133
-296.720	-53.460	-0.326	-0.148
-295.705	-132.511	-0.172	0.022
-294.691	-119.658	-0.151	0.026
-293.676	240.832	-0.089	0.147
-292.662	-200.000	-0.006	0.356
-291.647	-200.000	-0.054	-0.280
-290.632	177.192	-0.023	0.033
-289.618	-151.990	-0.492	-0.036
-288.603	-165.083	-0.274	-0.012
-287.589	39.663	0.245	0.218
-286.574	-200.000	-0.003	0.098
-285.559	355.444	0.071	-0.140
-284.545	125.976	-0.210	-0.263
-283.530	382.187	-0.099	-0.201
-282.516	-200.000	0.014	-0.064
-281.501	62.521	-0.177	0.175
-280.486	-93.187	-0.380	-0.105
-279.472	23.371	-0.144	0.117
-278.457	-68.361	-0.273	-0.105
-277.443	-37.969	-0.215	-0.113
-276.428	-67.896	-0.188	-0.073
-275.413	-200.000	0.007	0.147
-274.399	-6.847	0.089	0.060
-273.384	800.000	0.082	0.248
-272.370	-56.461	-0.163	-0.072
-271.355	-113.661	-0.287	0.056
-270.340	-39.376	-0.167	-0.087
-269.326	579.505	0.070	-0.170
-268.311	800.000	0.024	-0.068
-267.297	-152.267	0.153	0.011
-266.282	380.006	0.148	-0.301
-265.267	183.090	-0.027	0.039
-264.253	-200.000	-0.016	-0.315
-263.238	-4.817	0.098	0.067
-262.224	-26.409	0.286	-0.166
-261.209	55.511	-0.043	-0.042
-260.195	154.611	0.185	0.252
-259.180	155.580	0.091	0.124
-258.165	72.727	0.224	-0.232
-257.151	79.812	-0.250	-0.266
-256.136	74.201	0.296	-0.308
-255.122	-167.931	-0.382	-0.015
-254.107	295.528	0.155	0.282
-253.092	800.000	-0.091	0.371
-252.078	-60.557	0.357	0.150
-251.063	83.258	-0.191	0.206
-250.049	150.239	0.133	0.179
-249.034	-128.677	-0.045	-0.006
-248.019	800.000	-0.010	-0.036
-247.005	-94.648	-0.068	-0.018
-245.990	162.242	0.143	0.198
-244.976	114.998	0.182	-0.220
-243.961	363.705	0.099	0.196
-242.946	-200.000	0.033	0.177
-241.932	320.714	-0.008	-0.015
-240.917	-200.000	-0.008	0.087
-239.903	-76.853	0.214	0.074
-238.888	272.982	0.070	0.122
-237.873	-94.522	0.251	-0.068
-236.859	35.303	0.184	0.160
-235.844	-138.877	-0.075	0.008
-234.830	-95.913	0.255	0.067
-233.815	-47.341	-0.086	-0.042
-232.800	94.226	0.065	-0.073
-231.786	-20.773	-0.236	0.143
-230.771	-58.402	0.257	0.110
-229.757	-70.806	0.252	0.094
-228.742	-68.435	0.195	-0.075
-227.727	-115.265	0.325	0.061
-226.713	-72.924	0.131	-0.048
-225.698	-96.019	0.276	0.073
-224.684	-70.245	0.277	-0.104
-223.669	-67.541	-0.389	-0.151
-222.655	17.064	-0.051	-0.040
-221.640	-200.000	0.064	0.391
-220.625	43.804	-0.145	0.131
-219.611	-116.470	-0.193	0.035
-218.596	543.537	-0.110	0.260
-217.582	-158.509	-0.312	-0.018
-216.567	800.000	0.052	-0.190
-215.552	148.951	-0.051	-0.068
-214.538	-167.367	0.422	-0.017
-213.523	34.198	-0.295	-0.255
-212.509	-75.180	-0.144	-0.051
-211.494	13.045	0.209	0.160
-210.479	493.151	0.154	-0.349
-209.465	-200.000	0.037	0.323
-208.450	-200.000	0.003	0.210
-207.436	260.501	-0.104	-0.178
-206.421	-43.965	-0.390	-0.194
-205.406	-200.000	0.055	-0.325
-204.392	-23.647	-0.134	0.079
-203.377	301.936	-0.057	-0.105
-202.363	800.000	0.019	-0.070
-201.348	228.890	0.182	-0.294
-200.333	209.859	0.137	0.213
-199.319	172.350	0.055	-0.078
-198.304	800.000	-0.091	-0.298
-197.290	-40.522	-0.198	-0.101
-196.275	49.796	0.032	-0.030
-195.260	800.000	0.022	0.088
-194.246	279.062	0.115	-0.203
-193.231	-66.991	-0.093	-0.036
-192.217	167.594	-0.084	-0.118
-191.202	187.891	0.114	-0.169
-190.187	628.286	-0.124	-0.309
-189.173	-116.502	-0.079	-0.014
-188.158	8.627	-0.023	-0.017
-187.144	-80.513	-0.272	-0.089
-186.129	-146.941	0.274	-0.023
-185.114	57.586	-0.117	0.113
-184.100	-71.850	-0.136	-0.050
-183.085	283.040	-0.129	0.229
-182.071	137.159	-0.076	0.098
-181.056	697.763	-0.095	-0.247
-180.042	213.422	-0.214	-0.334
-179.027	-4.917	-0.098	0.067
-178.012	-145.889	0.347	-0.030
-176.998	190.657	0.212	0.314
-175.983	-200.000	0.025	0.211
-174.969	49.149	-0.150	0.140
-173.954	-200.000	-0.004	-0.042
-172.939	-163.618	0.182	-0.008
-171.925	218.600	0.118	-0.186
-170.910	-38.417	0.287	-0.150
-169.896	-200.000	-0.020	0.260
-168.881	-94.166	0.181	0.049
-167.866	-28.200	-0.301	0.171
-166.852	-164.969	-0.227	-0.010
-165.837	378.599	-0.051	0.103
-164.823	234.330	-0.062	0.102
-163.808	424.687	0.085	0.180
-162.793	-132.466	0.127	-0.016
-161.779	-200.000	-0.003	0.292
-160.764	800.000	0.078	0.290
-159.750	630.638	-0.124	-0.310
-158.735	651.083	-0.086	-0.218
-157.720	-68.332	-0.099	0.038
-156.706	-87.027	0.355	-0.107
-155.691	-157.039	0.064	0.004
-154.677	-163.421	-0.024	0.001
-153.662	24.471	0.150	-0.122
-152.647	-127.939	0.164	0.023
-151.633	67.706	-0.089	0.090
-150.618	-75.315	0.203	0.071
-149.604	-32.231	-0.252	0.139
-148.589	38.311	-0.277	-0.243
-147.574	-200.000	0.032	-0.268
-146.560	-200.000	0.006	-0.163
-145.545	-70.632	0.109	0.040
-144.531	-118.508	0.384	0.067
-143.516	-122.052	-0.440	-0.071
-142.502	400.859	-0.091	-0.188
-141.487	113.366	0.240	0.288
-140.472	-200.000	-0.009	0.065
-139.458	372.599	0.082	0.164
-138.443	-167.987	0.459	-0.018
-137.429	800.000	0.050	-0.206
-136.414	-68.727	0.218	-0.083
-135.399	-94.681	0.070	0.019
-134.385	-200.000	0.015	-0.373
-133.370	-66.683	0.233	0.091
-132.356	-118.277	0.182	0.032
-131.341	-16.401	0.028	0.017
-130.326	41.716	0.026	0.023
-129.312	-200.000	0.012	0.187
-128.297	42.478	0.177	-0.159
-127.283	-24.869	-0.208	-0.122
-126.268	141.616	0.030	0.040
-125.253	-61.006	-0.349	0.145
-124.239	-20.919	-0.360	0.217
-123.224	189.690	-0.177	-0.262
-122.210	1.131	0.338	0.239
-121.195	-84.615	0.315	0.098
