DTS Sentinel unit serial number:	SN413079Multiplexer serial number:	ORYXHardware model number:	OX4-SRSoftware version number:	ORYX F/W v4.00 Oryx Data Collector v3.7.2.0data status	okinstallation	princeton_trtdifferential loss correction	single-endedforward channel	channel 4reverse channel	N/Adate	2019/09/13time	21:17:35forward acquisition time	60.00reverse acquisition time	0.00gamma	496.2192k internal	0.2319k external	0.2319temperature offset calibration	1.0130default loss term (dB/km)	0.3790temperature slope calibration	1.0000multiplexer offset coefficient	1.0000multiplexer slope coefficient	1.0000fibre end	0.00T internal ref (°C)	28.44T ext. ref 1 (°C)	3.12T ext. ref 2 (°C)	22.98length (m)	temperature (°C)	Stokes	anti-Stokes-747.200	112.693	0.224	-0.274
-746.185	190.818	0.168	0.255
-745.171	729.276	-0.154	-0.417
-744.156	-119.979	-0.339	0.059
-743.142	174.431	0.079	0.115
-742.127	338.314	-0.175	0.344
-741.112	79.583	0.181	0.197
-740.098	-200.000	0.010	-0.189
-739.083	-137.730	0.335	0.038
-738.069	234.256	-0.211	0.351
-737.054	-193.001	0.470	-0.004
-736.039	800.000	-0.026	0.087
-735.025	-200.000	-0.012	0.470
-734.010	-45.374	0.249	0.125
-732.996	-15.473	-0.409	0.264
-731.981	-200.000	0.014	-0.131
-730.966	-200.000	0.002	0.161
-729.952	-47.356	-0.331	-0.163
-728.937	173.492	0.155	0.226
-727.923	680.479	-0.296	-0.778
-726.908	-200.000	0.006	-0.152
-725.894	-66.413	0.129	-0.052
-724.879	-90.488	0.326	-0.096
-723.864	-58.829	-0.177	0.077
-722.850	161.396	-0.197	-0.278
-721.835	-200.000	-0.021	-0.168
-720.821	248.154	0.099	-0.169
-719.806	0.359	-0.127	0.092
-718.791	-58.825	0.076	-0.033
-717.777	-176.795	-0.387	-0.010
-716.762	-174.122	0.137	0.004
-715.748	23.561	-0.066	0.054
-714.733	189.352	0.075	0.113
-713.718	-109.617	-0.291	-0.062
-712.704	230.960	0.140	0.232
-711.689	-181.567	-0.106	-0.002
-710.675	-200.000	0.118	-0.567
-709.660	373.801	0.087	0.179
-708.645	-176.908	0.048	0.001
-707.631	-200.000	0.004	0.317
-706.616	459.841	-0.041	0.093
-705.602	800.000	0.031	-0.103
-704.587	-70.442	0.205	0.078
-703.572	-175.939	0.188	-0.005
-702.558	-200.000	-0.026	-0.251
-701.543	67.042	-0.120	0.124
-700.529	109.572	0.153	-0.186
-699.514	-200.000	0.041	-0.184
-698.499	-24.145	0.302	0.182
-697.485	-84.027	-0.241	-0.077
-696.470	114.408	0.268	-0.330
-695.456	-65.212	0.134	0.054
-694.441	-108.212	-0.194	-0.042
-693.426	-150.492	-0.188	-0.015
-692.412	-20.834	0.221	-0.137
-691.397	-91.052	-0.175	-0.051
-690.383	555.742	-0.066	0.160
-689.368	-84.905	0.255	-0.081
-688.354	-73.681	-0.259	0.095
-687.339	-61.026	0.341	0.145
-686.324	-5.195	0.122	-0.085
-685.310	-200.000	0.019	-0.273
-684.295	-200.000	0.012	-0.098
-683.281	20.990	0.310	0.254
-682.266	6.659	0.226	0.170
-681.251	800.000	-0.032	-0.109
-680.237	214.324	-0.096	0.154
-679.222	-200.000	-0.014	0.120
-678.208	-200.000	-0.097	-0.443
-677.193	-200.000	-0.006	0.102
-676.178	280.252	-0.046	0.084
-675.164	-192.690	0.240	-0.002
-674.149	8.540	0.170	-0.129
-673.135	-55.159	0.197	0.089
-672.120	-200.000	-0.065	0.337
-671.105	-200.000	0.017	0.132
-670.091	282.226	-0.209	-0.378
-669.076	26.554	-0.264	-0.223
-668.062	-200.000	-0.004	-0.066
-667.047	-47.029	-0.063	-0.031
-666.032	737.857	0.020	-0.055
-665.018	-30.201	-0.165	0.095
-664.003	424.579	0.013	0.028
-662.989	-63.882	0.056	-0.023
-661.974	-200.000	-0.021	0.163
-660.959	582.381	-0.165	-0.407
-659.945	-85.582	-0.170	-0.053
-658.930	22.036	0.135	0.111
-657.916	224.895	0.066	-0.107
-656.901	190.658	-0.214	-0.325
-655.886	-18.906	-0.389	0.244
-654.872	81.921	-0.122	-0.133
-653.857	38.145	-0.339	0.304
-652.843	-200.000	-0.026	-0.176
-651.828	40.133	0.102	0.092
-650.814	29.642	0.208	-0.179
-649.799	-76.059	-0.370	-0.132
-648.784	-200.000	0.036	0.417
-647.770	87.955	-0.215	-0.241
-646.755	79.646	-0.065	0.070
-645.741	-200.000	-0.038	-0.219
-644.726	12.411	-0.430	-0.334
-643.711	800.000	-0.037	0.139
-642.697	-64.162	-0.171	-0.070
-641.682	301.720	-0.092	0.172
-640.668	-14.438	-0.150	-0.097
-639.653	234.952	0.115	0.191
-638.638	442.982	0.073	-0.160
-637.624	-89.007	-0.072	-0.021
-636.609	-161.811	0.258	-0.013
-635.595	276.491	-0.139	0.248
-634.580	39.671	-0.085	0.077
-633.565	275.011	0.146	-0.261
-632.551	726.913	-0.058	-0.155
-631.536	-41.705	-0.247	0.128
-630.522	774.714	0.063	0.173
-629.507	176.693	-0.022	-0.032
-628.492	-200.000	-0.005	0.048
-627.478	-31.250	-0.170	-0.096
-626.463	100.192	-0.192	0.225
-625.449	171.696	0.130	0.188
-624.434	319.198	-0.148	0.283
-623.419	-2.382	-0.281	-0.198
-622.405	-46.638	-0.195	0.096
-621.390	-80.777	0.399	0.133
-620.376	1.680	-0.144	-0.104
-619.361	-200.000	0.029	0.256
-618.346	67.211	-0.020	0.021
-617.332	-200.000	0.089	-0.506
-616.317	-72.037	-0.375	0.140
-615.303	22.956	0.245	-0.202
-614.288	-28.082	0.419	0.244
-613.273	673.175	-0.048	0.126
-612.259	106.563	-0.125	-0.149
-611.244	199.212	-0.376	-0.579
-610.230	-186.972	-0.266	-0.004
-609.215	-50.552	-0.197	0.094
-608.201	-200.000	0.036	0.319
-607.186	-92.429	-0.243	-0.069
-606.171	-63.087	-0.060	-0.025
-605.157	417.027	-0.052	0.111
-604.142	43.696	0.220	-0.203
-603.128	-87.138	0.246	0.075
-602.113	-200.000	0.021	-0.293
-601.098	-109.434	-0.451	0.096
-600.084	-33.672	0.125	0.069
-599.069	800.000	-0.057	0.230
-598.055	266.824	-0.175	-0.308
-597.040	800.000	-0.044	0.146
-596.025	87.181	0.011	-0.012
-595.011	203.515	-0.056	0.088
-593.996	282.487	0.026	0.047
-592.982	800.000	0.013	-0.038
-591.967	-200.000	0.023	0.219
-590.952	800.000	-0.078	0.253
-589.938	800.000	0.057	-0.192
-588.923	489.412	0.127	-0.292
-587.909	-115.451	-0.217	0.041
-586.894	-200.000	-0.025	0.134
-585.879	-18.101	-0.183	-0.115
-584.865	800.000	0.009	-0.029
-583.850	-75.437	0.143	-0.051
-582.836	-21.321	0.207	-0.127
-581.821	-125.821	-0.200	0.030
-580.806	800.000	0.057	0.221
-579.792	800.000	0.170	0.537
-578.777	-88.766	-0.101	-0.030
-577.763	-101.599	-0.116	0.028
-576.748	52.769	-0.101	-0.097
-575.733	212.810	-0.265	-0.420
-574.719	457.012	0.063	0.141
-573.704	10.005	0.184	-0.141
-572.690	36.758	0.169	-0.150
-571.675	-200.000	0.048	0.214
-570.661	167.907	0.089	0.127
-569.646	80.226	-0.298	0.322
-568.631	222.483	-0.213	0.344
-567.617	-94.939	-0.253	-0.069
-566.602	-36.178	0.272	0.147
-565.588	-79.633	0.112	0.038
-564.573	-200.000	0.043	-0.320
-563.558	22.133	0.137	0.112
-562.544	-80.439	-0.303	0.101
-561.529	-67.771	0.184	0.072
-560.515	-200.000	-0.056	-0.361
-559.500	-54.088	0.266	-0.122
-558.485	-200.000	0.011	-0.078
-557.471	-117.231	0.266	0.049
-556.456	-35.855	0.136	0.074
-555.442	-200.000	-0.030	0.209
-554.427	800.000	0.048	0.149
-553.412	109.505	0.141	-0.170
-552.398	699.952	-0.069	-0.183
-551.383	-7.326	-0.193	-0.131
-550.369	800.000	-0.049	-0.176
-549.354	-100.361	-0.154	0.038
-548.339	71.281	-0.118	0.123
-547.325	-19.982	-0.083	-0.051
-546.310	-75.848	0.049	0.017
-545.296	-200.000	0.045	0.236
-544.281	105.199	0.206	-0.244
-543.266	294.585	0.148	-0.272
-542.252	-68.764	-0.184	0.071
-541.237	-36.195	-0.250	-0.136
-540.223	-132.184	-0.226	-0.029
-539.208	800.000	-0.006	-0.018
-538.193	-2.719	0.107	0.075
-537.179	18.200	-0.107	0.086
-536.164	-200.000	0.049	-0.231
-535.150	510.418	-0.030	0.070
-534.135	-137.143	0.193	-0.022
-533.121	-21.812	-0.085	0.052
-532.106	-135.546	0.112	-0.013
-531.091	-59.527	-0.116	0.050
-530.077	-200.000	0.053	-0.426
-529.062	-189.462	0.228	-0.003
-528.048	76.655	0.139	-0.148
-527.033	80.052	-0.056	0.060
-526.018	-200.000	0.048	0.244
-525.004	-104.213	-0.105	0.024
-523.989	116.954	-0.127	-0.157
-522.975	636.367	0.013	0.032
-521.960	79.787	0.246	-0.265
-520.945	-66.919	0.126	0.050
-519.931	14.547	0.277	-0.217
-518.916	-77.220	0.137	0.048
-517.902	-71.938	-0.144	0.054
-516.887	-200.000	-0.008	0.197
-515.872	800.000	0.033	0.137
-514.858	-41.751	-0.151	0.078
-513.843	120.480	0.194	-0.242
-512.829	593.385	-0.057	-0.140
-511.814	800.000	0.053	0.175
-510.799	423.762	0.138	0.296
-509.785	-200.000	0.027	0.250
-508.770	-66.945	-0.171	0.068
-507.756	-84.594	-0.127	0.040
-506.741	97.857	-0.121	0.140
-505.726	95.838	-0.180	0.206
-504.712	-56.840	0.139	-0.061
-503.697	-63.469	0.322	-0.133
-502.683	330.809	-0.088	-0.169
-501.668	-33.994	-0.084	0.046
-500.653	-137.698	-0.287	0.032
-499.639	427.935	0.040	0.086
-498.624	-106.602	0.074	0.016
-497.610	-135.094	0.237	0.029
-496.595	-116.527	0.309	-0.057
-495.581	800.000	0.105	0.363
-494.566	-147.855	-0.245	-0.020
-493.551	-87.880	-0.210	0.063
-492.537	150.689	0.285	0.387
-491.522	-200.000	0.025	0.180
-490.508	-112.070	0.134	-0.027
-489.493	10.374	-0.219	-0.167
-488.478	-23.133	0.080	0.048
-487.464	-40.151	-0.288	0.150
-486.449	592.845	-0.095	-0.236
-485.435	154.625	-0.276	-0.380
-484.420	-78.402	0.438	-0.150
-483.405	97.385	-0.187	-0.215
-482.391	-200.000	0.005	0.085
-481.376	15.846	-0.051	-0.040
-480.362	19.962	-0.309	0.249
-479.347	-79.154	-0.120	-0.041
-478.332	25.487	-0.259	0.215
-477.318	-200.000	0.010	-0.146
-476.303	-167.678	0.138	0.005
-475.289	-200.000	-0.022	0.380
-474.274	311.602	-0.089	0.168
-473.259	66.699	0.225	-0.229
-472.245	-165.758	0.340	-0.015
-471.230	97.065	-0.032	-0.036
-470.216	174.542	-0.206	-0.298
-469.201	-200.000	-0.056	-0.273
-468.186	800.000	-0.013	0.054
-467.172	317.596	0.188	0.355
-466.157	5.986	-0.136	-0.100
-465.143	184.292	-0.026	0.039
-464.128	-108.373	0.138	-0.030
-463.113	-157.192	-0.211	0.013
-462.099	103.661	0.162	-0.191
-461.084	10.902	-0.301	-0.230
-460.070	96.694	0.147	0.168
-459.055	-153.106	-0.107	-0.008
-458.040	-200.000	-0.056	-0.269
-457.026	-71.158	-0.098	-0.037
-456.011	-68.938	-0.103	-0.040
-454.997	-125.539	-0.160	-0.024
-453.982	-200.000	-0.015	-0.293
-452.968	-123.220	-0.082	-0.013
-451.953	-113.544	0.108	-0.021
-450.938	-200.000	0.008	0.064
-449.924	44.356	0.201	-0.184
-448.909	-200.000	-0.232	0.000
-447.895	-125.459	-0.185	0.028
-446.880	800.000	0.138	-0.519
-445.865	-169.069	-0.411	0.015
-444.851	183.679	0.092	0.136
-443.836	182.991	-0.031	0.046
-442.822	-163.305	-0.350	-0.017
-441.807	90.258	-0.166	-0.186
-440.792	41.478	0.148	-0.134
-439.778	800.000	0.057	-0.208
-438.763	-165.980	0.371	-0.016
-437.749	4.867	-0.180	-0.132
-436.734	-162.748	-0.099	-0.005
-435.719	-200.000	0.058	0.271
-434.705	800.000	0.046	-0.155
-433.690	415.606	-0.111	0.235
-432.676	-137.185	-0.282	0.032
-431.661	458.593	-0.070	0.155
-430.646	800.000	0.038	-0.136
-429.632	109.697	-0.136	-0.163
-428.617	-89.299	-0.412	-0.121
-427.603	56.577	0.227	0.220
-426.588	161.786	0.057	-0.080
-425.573	342.057	0.052	0.103
-424.559	273.340	-0.035	0.062
-423.544	800.000	0.053	0.168
-422.530	800.000	0.089	0.353
-421.515	-200.000	0.017	-0.237
-420.500	-68.615	0.316	0.122
-419.486	-200.000	0.031	0.219
-418.471	-64.195	-0.190	-0.077
-417.457	-70.547	-0.088	0.033
-416.442	-146.224	-0.052	-0.005
-415.428	334.957	-0.118	0.229
-414.413	-116.339	0.427	0.079
-413.398	-104.001	-0.405	-0.094
-412.384	52.508	0.282	0.269
-411.369	-2.068	0.072	-0.050
-410.355	51.677	-0.090	-0.086
-409.340	-82.333	-0.258	-0.084
-408.325	13.236	0.210	-0.162
-407.311	-64.410	0.260	-0.105
-406.296	-24.102	-0.312	0.186
-405.282	412.932	-0.089	-0.189
-404.267	800.000	-0.087	0.265
-403.252	-60.089	0.228	0.097
-402.238	61.208	0.149	0.147
-401.223	24.288	0.195	0.161
-400.209	-200.000	-0.019	-0.385
-399.194	-200.000	-0.007	0.108
-398.179	-111.018	-0.162	0.033
-397.165	681.690	0.052	0.136
-396.150	-59.214	0.301	0.129
-395.136	-200.000	0.016	0.185
-394.121	108.118	-0.285	-0.339
-393.106	-190.767	0.113	0.001
-392.092	309.472	0.044	-0.082
-391.077	-19.858	-0.095	-0.059
-390.063	-111.593	-0.105	-0.021
-389.048	171.578	0.147	-0.211
-388.033	457.683	0.162	-0.359
-387.019	-57.735	-0.261	0.114
-386.004	-200.000	0.019	0.347
-384.990	-200.000	-0.052	-0.331
-383.975	-132.939	0.272	-0.035
-382.960	285.454	-0.086	0.155
-381.946	-85.767	0.234	-0.072
-380.931	159.291	0.126	0.175
-379.917	-116.811	-0.137	0.025
-378.902	-109.601	-0.224	-0.047
-377.888	800.000	0.036	-0.133
-376.873	-200.000	-0.035	0.239
-375.858	-118.167	0.222	-0.039
-374.844	-136.678	-0.050	-0.006
-373.829	-135.562	0.278	-0.033
-372.815	800.000	-0.096	-0.272
-371.800	-49.906	-0.179	-0.085
-370.785	227.750	-0.048	-0.078
-369.771	800.000	-0.062	-0.172
-368.756	-200.000	-0.027	-0.290
-367.742	-61.336	-0.248	-0.104
-366.727	97.248	-0.216	0.247
-365.712	217.658	-0.140	0.223
-364.698	-15.360	0.222	-0.141
-363.683	-3.356	-0.254	0.177
-362.669	86.836	-0.243	-0.268
-361.654	147.750	0.239	0.321
-360.639	800.000	0.029	0.113
-359.625	-14.499	0.102	0.065
-358.610	171.040	0.220	0.314
-357.596	74.208	0.165	0.173
-356.581	500.550	0.040	-0.091
-355.566	253.516	-0.105	0.178
-354.552	93.926	0.079	-0.090
-353.537	-69.045	-0.065	0.025
-352.523	800.000	0.046	0.140
-351.508	-33.735	0.639	0.351
-350.493	-45.752	-0.179	-0.088
-349.479	-124.242	0.580	-0.090
-348.464	-23.418	-0.320	0.192
-347.450	13.632	0.233	-0.180
-346.435	800.000	0.108	0.468
-345.420	-140.345	-0.074	-0.008
-344.406	-127.130	0.281	-0.041
-343.391	-2.883	0.090	-0.062
-342.377	800.000	0.062	0.258
-341.362	-145.140	-0.147	-0.013
-340.348	-200.000	-0.022	0.181
-339.333	-150.439	-0.235	0.018
-338.318	138.534	0.269	-0.352
-337.304	800.000	-0.050	-0.156
-336.289	-200.000	-0.023	-0.144
-335.275	-18.848	0.146	-0.091
-334.260	-200.000	0.002	-0.171
-333.245	67.666	-0.220	-0.224
-332.231	415.645	-0.116	-0.245
-331.216	5.748	0.428	0.315
-330.202	66.981	0.110	0.112
-329.187	-140.873	-0.350	0.036
-328.172	-200.000	-0.088	0.408
-327.158	-163.175	0.311	0.015
-326.143	800.000	-0.041	-0.130
-325.129	32.150	0.185	0.159
-324.114	75.139	-0.220	-0.231
-323.099	21.406	-0.137	0.111
-322.085	800.000	0.020	0.078
-321.070	114.038	0.283	0.342
-320.056	768.254	-0.079	0.214
-319.041	-154.462	0.211	-0.014
-318.026	187.864	0.084	-0.124
-317.012	39.028	-0.135	-0.120
-315.997	-200.000	-0.017	-0.217
-314.983	-78.833	-0.119	-0.040
-313.968	-112.576	0.232	0.046
-312.953	-24.460	-0.106	-0.063
-311.939	-134.211	-0.264	0.032
-310.924	-143.807	0.131	0.012
-309.910	9.533	0.140	0.105
-308.895	-114.801	0.280	-0.053
-307.880	88.713	-0.078	0.086
-306.866	-167.367	0.213	0.009
-305.851	-93.654	0.085	0.023
-304.837	123.920	-0.135	0.169
-303.822	800.000	-0.092	0.302
-302.807	-111.786	-0.171	0.034
-301.793	-200.000	0.015	-0.130
-300.778	148.189	0.177	0.238
-299.764	47.046	0.165	0.153
-298.749	19.573	-0.084	0.067
-297.735	356.277	0.189	0.374
-296.720	222.629	0.055	0.088
-295.705	-5.623	-0.180	-0.122
-294.691	-186.113	0.324	-0.005
-293.676	57.734	-0.205	-0.199
-292.662	800.000	0.044	-0.165
-291.647	-200.000	0.007	-0.129
-290.632	-200.000	0.030	0.224
-289.618	-47.012	0.230	-0.112
-288.603	-200.000	-0.011	0.048
-287.589	-37.166	0.288	-0.153
-286.574	800.000	-0.061	0.172
-285.559	608.725	-0.087	-0.216
-284.545	800.000	0.138	-0.396
-283.530	82.309	0.117	-0.126
-282.516	27.145	0.145	0.121
-281.501	-156.213	-0.366	-0.023
-280.486	800.000	0.066	-0.259
-279.472	294.333	-0.081	0.147
-278.457	389.911	-0.229	0.471
-277.443	800.000	-0.043	0.128
-276.428	-17.660	-0.074	-0.046
-275.413	383.570	0.180	0.368
-274.399	54.242	0.059	0.056
-273.384	-29.136	-0.115	0.065
-272.370	-113.346	0.203	-0.040
-271.355	415.766	-0.023	0.049
-270.340	14.906	-0.141	-0.110
-269.326	-78.318	0.267	-0.091
-268.311	187.170	-0.132	-0.195
-267.297	-76.180	0.295	-0.103
-266.282	-45.006	0.287	-0.142
-265.267	-29.708	0.178	0.101
-264.253	-79.215	0.167	-0.056
-263.238	66.911	-0.209	-0.211
-262.224	13.519	-0.373	0.287
-261.209	-200.000	0.126	0.000
-260.195	-95.661	-0.220	-0.058
-259.180	544.443	-0.005	0.011
-258.165	-84.703	0.216	0.067
-257.151	-200.000	-0.019	-0.088
-256.136	28.875	0.328	-0.276
-255.122	-200.000	0.002	0.217
-254.107	547.449	0.059	0.140
-253.092	-84.080	-0.265	0.083
-252.078	128.432	-0.214	-0.270
-251.063	150.690	-0.028	0.038
-250.049	-200.000	0.016	-0.230
-249.034	-8.214	-0.142	-0.095
-248.019	47.082	-0.094	-0.087
-247.005	-200.000	-0.006	0.194
-245.990	706.072	-0.018	-0.047
-244.976	-127.228	0.364	0.053
-243.961	8.312	-0.025	-0.019
-242.946	-117.249	0.357	0.064
-241.932	-119.856	-0.275	-0.047
-240.917	-200.000	0.009	-0.131
-239.903	800.000	0.062	-0.203
-238.888	635.346	0.117	-0.295
-237.873	496.986	-0.116	0.265
-236.859	541.216	-0.142	0.335
-235.844	76.451	0.109	0.115
-234.830	80.326	0.172	-0.184
-233.815	-86.462	0.076	-0.023
-232.800	49.133	-0.145	-0.135
-231.786	427.465	-0.105	0.224
-230.771	-24.275	0.084	0.050
-229.757	291.957	-0.057	0.102
-228.742	-18.210	0.213	0.132
-227.727	-52.614	0.330	0.151
-226.713	800.000	-0.064	0.201
-225.698	466.685	0.050	0.112
-224.684	-200.000	0.007	-0.363
-223.669	-121.276	0.221	-0.037
-222.655	-54.593	-0.171	-0.077
-221.640	800.000	-0.029	0.117
-220.625	-25.137	-0.087	-0.051
-219.611	171.978	-0.052	0.075
-218.596	-73.911	0.443	-0.159
-217.582	-54.612	-0.436	0.196
-216.567	110.751	-0.120	-0.143
-215.552	-101.108	-0.083	0.020
-214.538	-200.000	0.046	-0.317
-213.523	800.000	-0.100	0.311
-212.509	379.756	0.062	-0.126
-211.494	800.000	0.053	-0.178
-210.479	24.960	0.289	0.237
-209.465	-0.384	-0.051	0.036
-208.450	-77.110	0.150	0.052
-207.436	-104.671	-0.117	0.027
-206.421	-132.618	-0.272	-0.035
-205.406	12.513	-0.206	-0.157
-204.392	-200.000	0.017	-0.212
-203.377	-200.000	-0.011	0.186
-202.363	424.783	0.062	0.132
-201.348	0.121	0.070	-0.050
-200.333	-200.000	0.007	-0.254
-199.319	117.907	0.107	-0.130
-198.304	-114.155	0.307	-0.059
-197.290	-162.212	-0.283	0.014
-196.275	200.391	-0.120	-0.183
-195.260	-200.000	0.002	-0.157
-194.246	255.231	0.244	-0.415
-193.231	392.919	0.095	0.195
-192.217	-22.528	0.234	-0.140
-191.202	-84.066	-0.274	0.086
-190.187	-200.000	-0.040	-0.349
-189.173	-127.455	-0.111	0.016
-188.158	264.992	0.093	0.161
-187.144	800.000	-0.033	0.134
-186.129	182.455	0.192	0.280
-185.114	-200.000	0.023	-0.127
-184.100	-138.773	-0.159	0.017
-183.085	-43.470	0.093	0.047
-182.071	35.141	0.195	-0.169
-181.056	337.321	0.037	0.071
-180.042	-1.617	0.192	-0.134
-179.027	-61.773	0.151	0.063
-178.012	-73.322	-0.181	0.066
-176.998	-116.349	-0.248	0.045
-175.983	69.822	0.201	-0.205
-174.969	-200.000	0.035	-0.158
-173.954	-165.192	-0.098	-0.004
-172.939	-200.000	0.047	-0.231
-171.925	670.725	0.035	0.088
-170.910	-50.276	0.242	0.113
-169.896	449.365	-0.109	0.238
-168.881	-200.000	0.023	0.238
-167.866	800.000	0.040	-0.133
-166.852	-11.978	-0.187	0.121
-165.837	800.000	0.089	-0.336
-164.823	-15.401	0.266	-0.168
-163.808	-90.621	0.144	0.041
-162.793	-200.000	-0.021	0.109
-161.779	-27.720	-0.227	0.130
-160.764	800.000	-0.025	-0.104
-159.750	-8.037	0.254	-0.169
-158.735	800.000	0.012	0.039
-157.720	1.556	-0.201	0.143
-156.706	-200.000	-0.029	-0.188
-155.691	-135.295	0.264	-0.031
-154.677	38.515	-0.224	-0.197
-153.662	-151.010	-0.217	-0.016
-152.647	-103.568	0.197	0.046
-151.633	-176.173	-0.057	0.001
-150.618	103.466	-0.161	0.186
-149.604	-65.488	0.349	0.138
-148.589	-158.610	0.059	-0.003
-147.574	-200.000	-0.030	0.148
-146.560	130.568	-0.219	0.278
-145.545	-17.433	-0.187	0.116
-144.531	-88.978	0.112	-0.033
-143.516	-62.575	-0.256	0.105
-142.502	13.560	0.312	0.239
-141.487	-46.583	-0.188	-0.091
-140.472	257.697	0.039	0.067
-139.458	-55.920	0.213	-0.094
-138.443	-119.017	-0.093	-0.016
-137.429	-200.000	0.011	-0.095
-136.414	-67.905	-0.203	-0.078
-135.399	-200.000	0.063	-0.321
-134.385	490.462	0.093	-0.210
-133.370	-61.059	-0.389	0.162
-132.356	-88.683	-0.259	-0.076
-131.341	-132.471	0.078	-0.010
-130.326	800.000	0.077	0.264
-129.312	48.925	-0.237	-0.220
-128.297	-25.475	-0.095	0.056
-127.283	-77.727	0.244	0.083
-126.268	94.276	0.120	0.134
-125.253	652.750	-0.019	0.048
-124.239	4.853	-0.148	0.108
-123.224	-80.105	-0.069	0.023
-122.210	-200.000	-0.004	0.061
-121.195	45.836	0.175	-0.160
