DTS Sentinel unit serial number:	SN413079Multiplexer serial number:	ORYXHardware model number:	OX4-SRSoftware version number:	ORYX F/W v4.00 Oryx Data Collector v3.7.2.0data status	okinstallation	princeton_trtdifferential loss correction	single-endedforward channel	channel 4reverse channel	N/Adate	2019/09/11time	18:35:10forward acquisition time	60.00reverse acquisition time	0.00gamma	496.2192k internal	0.2276k external	0.2276temperature offset calibration	1.0028default loss term (dB/km)	0.3790temperature slope calibration	1.0000multiplexer offset coefficient	1.0000multiplexer slope coefficient	1.0000fibre end	0.00T internal ref (°C)	43.69T ext. ref 1 (°C)	1.17T ext. ref 2 (°C)	36.65length (m)	temperature (°C)	Stokes	anti-Stokes-747.200	135.473	-0.184	-0.246
-746.185	-5.628	-0.121	-0.086
-745.171	800.000	-0.060	-0.214
-744.156	450.579	0.062	0.140
-743.142	16.893	0.123	-0.101
-742.127	800.000	-0.157	0.550
-741.112	-7.419	0.219	0.153
-740.098	59.331	0.104	0.106
-739.083	-144.648	0.409	0.039
-738.069	134.012	0.071	0.095
-737.054	86.739	-0.071	-0.081
-736.039	800.000	0.038	-0.126
-735.025	-70.031	0.048	0.019
-734.010	-200.000	-0.116	-0.617
-732.996	222.983	-0.125	0.207
-731.981	-89.574	-0.433	0.131
-730.966	-200.000	-0.025	-0.186
-729.952	-183.965	0.090	0.002
-728.937	153.551	-0.237	0.335
-727.923	-37.015	0.131	-0.072
-726.908	800.000	0.038	-0.158
-725.894	152.621	-0.134	-0.188
-724.879	-22.258	-0.045	-0.028
-723.864	6.489	0.121	0.092
-722.850	19.406	0.090	-0.075
-721.835	-61.979	-0.103	0.044
-720.821	-76.125	0.128	-0.046
-719.806	-1.857	-0.222	0.161
-718.791	-92.414	0.166	0.048
-717.777	216.838	0.122	-0.200
-716.762	27.101	-0.133	0.114
-715.748	193.396	0.108	0.168
-714.733	467.714	0.079	0.183
-713.718	-111.409	0.065	-0.014
-712.704	-59.671	-0.080	0.035
-711.689	391.107	0.112	0.240
-710.675	46.516	-0.150	0.144
-709.660	-112.561	-0.104	-0.021
-708.645	-200.000	-0.056	0.360
-707.631	73.661	0.109	-0.117
-706.616	-200.000	-0.045	0.242
-705.602	108.225	-0.090	0.111
-704.587	-200.000	-0.019	-0.345
-703.572	44.752	-0.220	-0.209
-702.558	139.693	-0.069	0.094
-701.543	-98.879	0.140	0.037
-700.529	-46.416	0.192	0.097
-699.514	129.265	0.167	0.220
-698.499	-76.956	-0.243	-0.087
-697.485	155.704	0.179	0.254
-696.470	-200.000	-0.025	0.133
-695.456	-124.100	0.166	-0.027
-694.441	122.706	-0.060	0.077
-693.426	-136.518	-0.313	0.037
-692.412	-113.150	-0.146	-0.030
-691.397	133.799	-0.107	0.143
-690.383	-200.000	0.062	-0.297
-689.368	143.302	-0.187	-0.256
-688.354	-200.000	-0.061	-0.321
-687.339	144.617	-0.119	0.164
-686.324	-22.156	-0.203	0.127
-685.310	-98.048	0.199	-0.053
-684.295	696.340	0.175	0.472
-683.281	-34.688	0.231	-0.130
-682.266	-200.000	-0.014	-0.104
-681.251	-62.616	-0.053	-0.022
-680.237	-46.702	0.099	0.050
-679.222	-109.355	0.143	0.031
-678.208	490.294	0.036	0.085
-677.193	-69.244	-0.141	0.056
-676.178	-108.334	-0.226	0.050
-675.164	-56.433	-0.320	-0.146
-674.149	239.290	0.081	-0.139
-673.135	331.938	-0.137	-0.272
-672.120	149.568	-0.233	-0.325
-671.105	9.264	-0.061	-0.048
-670.091	154.971	0.073	0.104
-669.076	675.790	-0.045	-0.121
-668.062	-62.715	-0.210	-0.089
-667.047	249.308	0.021	-0.037
-666.032	242.619	0.142	-0.245
-665.018	-153.640	-0.131	-0.009
-664.003	164.525	0.140	0.203
-662.989	160.594	-0.189	-0.271
-661.974	311.825	0.177	-0.342
-660.959	-23.570	-0.183	-0.113
-659.945	-84.071	-0.265	0.087
-658.930	20.427	-0.096	0.079
-657.916	107.407	-0.226	-0.276
-656.901	-180.578	0.346	-0.007
-655.886	-200.000	-0.024	0.209
-654.872	221.172	0.026	0.043
-653.857	-79.949	-0.047	-0.016
-652.843	171.697	-0.238	-0.351
-651.828	-82.270	0.211	-0.070
-650.814	800.000	-0.092	0.322
-649.799	-200.000	0.000	0.199
-648.784	498.008	-0.049	-0.115
-647.770	245.192	-0.134	0.232
-646.755	-30.576	-0.130	0.075
-645.741	76.722	-0.125	0.136
-644.726	-200.000	0.016	-0.219
-643.711	189.403	0.116	-0.179
-642.697	23.947	-0.152	0.129
-641.682	-126.135	0.287	-0.044
-640.668	-66.260	0.415	0.169
-639.653	188.954	-0.122	0.187
-638.638	66.121	0.112	-0.117
-637.624	-200.000	-0.052	-0.295
-636.609	-200.000	-0.032	-0.210
-635.595	320.820	-0.121	0.236
-634.580	668.842	0.095	-0.254
-633.565	-24.411	0.265	-0.162
-632.551	358.414	-0.133	-0.273
-631.536	800.000	-0.060	-0.247
-630.522	-107.519	-0.097	0.022
-629.507	192.309	0.086	-0.132
-628.492	239.079	-0.153	-0.260
-627.478	-54.217	0.289	-0.135
-626.463	191.080	-0.064	-0.099
-625.449	211.541	0.194	0.312
-624.434	-63.133	-0.068	0.029
-623.419	800.000	0.071	0.201
-622.405	126.326	0.145	0.188
-621.390	7.361	-0.132	0.101
-620.376	-200.000	0.010	-0.091
-619.361	-138.259	-0.170	0.019
-618.346	249.465	-0.129	-0.224
-617.332	127.665	-0.075	0.098
-616.317	-106.609	-0.242	0.055
-615.303	44.568	-0.017	0.016
-614.288	800.000	0.085	-0.260
-613.273	23.905	0.204	0.172
-612.259	130.448	0.155	0.203
-611.244	800.000	0.043	-0.143
-610.230	-200.000	-0.055	-0.313
-609.215	13.563	-0.180	0.143
-608.201	-91.062	0.282	-0.083
-607.186	-200.000	0.061	-0.572
-606.171	101.511	-0.137	0.163
-605.157	-168.569	-0.331	0.013
-604.142	-128.466	0.110	0.016
-603.128	1.958	0.071	-0.053
-602.113	24.052	0.128	-0.108
-601.098	-200.000	-0.071	0.418
-600.084	-124.828	0.334	-0.053
-599.069	-200.000	-0.044	0.273
-598.055	-55.821	0.252	0.115
-597.040	23.039	0.124	0.104
-596.025	-159.224	-0.086	0.005
-595.011	347.272	-0.086	0.174
-593.996	3.964	-0.273	-0.204
-592.982	-200.000	-0.038	0.177
-591.967	-78.244	0.102	-0.036
-590.952	8.117	0.167	-0.129
-589.938	292.191	0.059	-0.110
-588.923	800.000	0.090	-0.344
-587.909	-32.228	0.237	0.136
-586.894	70.581	-0.045	0.048
-585.879	386.544	0.082	0.173
-584.865	-10.816	-0.115	0.078
-583.850	663.824	-0.128	-0.338
-582.836	-49.578	-0.016	-0.008
-581.821	-56.284	0.180	-0.082
-580.806	-87.144	0.065	-0.020
-579.792	32.848	0.175	0.155
-578.777	-98.140	-0.302	-0.079
-577.763	62.442	0.226	0.231
-576.748	-200.000	-0.050	0.396
-575.733	-200.000	-0.005	-0.460
-574.719	66.454	-0.039	-0.041
-573.704	-66.183	-0.346	0.141
-572.690	-200.000	0.024	-0.128
-571.675	-25.908	0.143	-0.086
-570.661	-200.000	0.003	-0.303
-569.646	-148.739	-0.642	0.053
-568.631	-200.000	0.000	-0.218
-567.617	-137.480	0.097	0.011
-566.602	-158.457	0.222	-0.013
-565.588	-200.000	0.005	-0.076
-564.573	18.266	0.206	-0.169
-563.558	440.987	0.105	-0.236
-562.544	521.837	-0.016	0.039
-561.529	19.924	-0.018	-0.015
-560.515	-200.000	-0.008	0.067
-559.500	39.571	-0.171	0.157
-558.485	118.264	-0.308	0.388
-557.471	-136.755	0.440	0.052
-556.456	339.020	-0.037	0.074
-555.442	437.957	-0.020	0.044
-554.427	72.689	-0.157	-0.168
-553.412	215.616	0.168	-0.273
-552.398	-99.834	0.215	0.055
-551.383	725.668	-0.093	-0.252
-550.369	98.671	-0.136	-0.161
-549.354	-182.379	0.020	0.000
-548.339	-47.918	-0.201	-0.099
-547.325	28.065	0.076	-0.066
-546.310	-112.928	-0.477	0.097
-545.296	519.399	0.068	0.163
-544.281	0.536	-0.310	-0.227
-543.266	47.355	0.073	-0.070
-542.252	800.000	0.036	-0.113
-541.237	-56.476	-0.171	-0.078
-540.223	51.822	-0.256	0.249
-539.208	-200.000	-0.065	-0.352
-538.193	-200.000	0.026	-0.208
-537.179	-200.000	0.066	-0.380
-536.164	103.498	-0.049	0.059
-535.150	394.264	0.059	-0.125
-534.135	42.089	-0.251	-0.233
-533.121	-138.362	-0.480	-0.054
-532.106	112.443	0.214	0.265
-531.091	800.000	0.063	-0.202
-530.077	180.237	0.213	0.320
-529.062	-200.000	-0.017	0.226
-528.048	800.000	-0.078	0.277
-527.033	47.273	-0.060	0.057
-526.018	63.673	0.214	-0.220
-525.004	-126.425	-0.127	0.019
-523.989	-24.289	0.213	0.130
-522.975	-106.173	-0.205	0.047
-521.960	119.241	0.160	0.202
-520.945	-200.000	-0.032	0.349
-519.931	418.726	0.092	0.202
-518.916	-103.575	0.382	-0.092
-517.902	-82.892	0.094	-0.031
-516.887	-4.485	-0.169	0.120
-515.872	34.794	-0.255	-0.227
-514.858	-88.015	-0.363	0.111
-513.843	207.954	-0.069	-0.111
-512.829	-29.330	0.281	0.164
-511.814	-200.000	-0.049	-0.301
-510.799	209.701	0.176	0.281
-509.785	-200.000	0.018	0.478
-508.770	78.178	-0.095	-0.103
-507.756	800.000	0.094	-0.305
-506.741	225.330	0.142	0.234
-505.726	-114.182	0.166	-0.033
-504.712	-200.000	-0.031	-0.153
-503.697	25.508	-0.297	-0.252
-502.683	0.414	0.114	-0.083
-501.668	50.739	-0.196	-0.190
-500.653	-64.128	-0.209	-0.087
-499.639	231.090	-0.048	-0.079
-498.624	-10.892	-0.277	0.187
-497.610	313.256	0.280	0.538
-496.595	-165.130	0.054	-0.002
-495.581	-155.263	0.367	-0.024
-494.566	-3.165	0.109	-0.078
-493.551	-169.364	0.262	0.010
-492.537	-23.910	0.023	-0.014
-491.522	25.879	-0.261	-0.222
-490.508	-200.000	-0.002	0.184
-489.493	297.034	-0.098	-0.184
-488.478	-128.128	-0.354	0.052
-487.464	-28.519	0.033	-0.020
-486.449	391.000	0.017	-0.036
-485.435	354.660	-0.173	-0.350
-484.420	800.000	0.169	0.518
-483.405	-200.000	-0.037	0.237
-482.391	-142.086	-0.579	0.059
-481.376	-101.352	0.085	0.021
-480.362	81.962	0.135	0.149
-479.347	-47.667	0.152	-0.075
-478.332	-200.000	-0.063	0.414
-477.318	800.000	0.073	-0.298
-476.303	-200.000	-0.012	0.220
-475.289	11.032	0.076	0.059
-474.274	322.945	-0.143	-0.279
-473.259	-117.797	0.154	-0.028
-472.245	-74.923	0.156	0.057
-471.230	800.000	0.029	-0.117
-470.216	800.000	0.049	0.153
-469.201	174.113	-0.103	0.152
-468.186	35.617	-0.235	0.210
-467.172	229.066	-0.042	-0.070
-466.157	-34.619	-0.283	0.158
-465.143	661.267	0.075	-0.198
-464.128	186.487	0.030	0.046
-463.113	-200.000	0.047	0.357
-462.099	125.836	-0.296	-0.381
-461.084	98.333	-0.279	0.327
-460.070	-32.196	0.073	-0.042
-459.055	38.126	0.145	-0.132
-458.040	-106.175	-0.408	-0.093
-457.026	37.690	0.193	-0.175
-456.011	-151.233	0.100	0.008
-454.997	-200.000	-0.004	0.156
-453.982	226.743	0.214	-0.354
-452.968	271.129	0.164	-0.294
-451.953	42.912	0.101	-0.094
-450.938	351.633	-0.132	-0.267
-449.924	-108.946	0.350	0.076
-448.909	-200.000	-0.039	-0.303
-447.895	-200.000	0.010	0.110
-446.880	-200.000	0.056	0.254
-445.865	70.536	0.206	-0.217
-444.851	-107.658	0.171	-0.038
-443.836	589.619	-0.120	-0.302
-442.822	-52.502	-0.324	-0.153
-441.807	142.194	-0.070	-0.094
-440.792	-200.000	0.077	-0.513
-439.778	-47.556	-0.249	-0.123
-438.763	43.317	-0.284	0.264
-437.749	-86.232	0.221	-0.069
-436.734	-69.900	-0.215	-0.083
-435.719	266.271	-0.119	-0.212
-434.705	437.152	-0.258	0.572
-433.690	-200.000	-0.003	0.113
-432.676	3.897	-0.190	0.141
-431.661	-200.000	-0.010	-0.094
-430.646	-20.047	0.173	-0.109
-429.632	-200.000	0.029	-0.129
-428.617	97.033	0.054	-0.063
-427.603	384.594	-0.125	0.263
-426.588	-106.798	-0.333	0.075
-425.573	-200.000	0.042	0.276
-424.559	209.560	0.064	-0.102
-423.544	800.000	0.121	-0.355
-422.530	275.405	-0.179	-0.323
-421.515	-21.903	0.233	-0.144
-420.500	-195.251	0.285	-0.002
-419.486	-38.348	-0.229	-0.123
-418.471	800.000	-0.088	-0.264
-417.457	800.000	0.066	0.200
-416.442	-116.339	0.166	-0.031
-415.428	-200.000	0.003	-0.065
-414.413	12.061	-0.062	-0.049
-413.398	800.000	-0.081	-0.235
-412.384	45.073	0.193	0.181
-411.369	-200.000	0.017	-0.100
-410.355	167.081	0.078	0.113
-409.340	-28.836	0.309	-0.181
-408.325	-99.118	0.133	-0.034
-407.311	117.992	0.072	0.091
-406.296	-37.093	-0.149	0.081
-405.282	38.016	-0.146	0.132
-404.267	495.253	0.061	-0.142
-403.252	62.087	-0.184	0.186
-402.238	511.315	-0.104	-0.246
-401.223	70.306	-0.235	-0.247
-400.209	-144.141	0.217	0.021
-399.194	501.427	0.061	-0.143
-398.179	77.433	0.119	-0.129
-397.165	165.862	-0.033	0.047
-396.150	364.719	0.166	-0.339
-395.136	-34.572	0.117	0.065
-394.121	-132.871	-0.298	-0.039
-393.106	541.876	-0.040	0.098
-392.092	-41.598	-0.068	0.035
-391.077	-51.183	-0.118	0.056
-390.063	-144.510	-0.237	-0.022
-389.048	-200.000	0.005	-0.083
-388.033	419.358	0.178	-0.388
-387.019	-44.914	-0.245	-0.124
-386.004	-92.881	0.279	0.079
-384.990	778.941	0.050	0.140
-383.975	262.075	-0.102	-0.180
-382.960	-104.954	0.506	0.118
-381.946	-185.445	0.455	-0.007
-380.931	-99.174	0.117	-0.030
-379.917	-119.569	0.157	0.028
-378.902	800.000	-0.028	0.094
-377.888	800.000	-0.036	0.151
-376.873	-200.000	-0.032	0.146
-375.858	-97.088	0.108	-0.029
-374.844	800.000	-0.062	0.236
-373.829	-125.831	-0.069	0.011
-372.815	-153.215	0.124	0.009
-371.800	-54.554	-0.098	0.045
-370.785	-73.110	0.248	-0.092
-369.771	37.905	-0.285	-0.257
-368.756	-108.523	0.316	0.069
-367.742	-36.190	-0.271	-0.149
-366.727	-200.000	-0.001	0.167
-365.712	-200.000	0.034	0.255
-364.698	-66.104	0.195	0.079
-363.683	-76.881	-0.310	-0.110
-362.669	56.619	-0.339	-0.335
-361.654	-28.921	-0.282	0.164
-360.639	-200.000	-0.007	-0.101
-359.625	-200.000	0.029	-0.183
-358.610	-99.124	0.090	-0.023
-357.596	800.000	0.043	-0.178
-356.581	-200.000	-0.004	0.109
-355.566	-200.000	0.004	-0.313
-354.552	-200.000	-0.055	0.427
-353.537	317.071	0.111	-0.213
-352.523	-34.738	-0.354	-0.196
-351.508	-200.000	0.014	-0.255
-350.493	34.942	-0.172	0.152
-349.479	-9.828	-0.403	0.272
-348.464	409.853	0.102	0.220
-347.450	17.187	0.126	0.101
-346.435	201.457	0.051	0.080
-345.420	800.000	0.080	0.251
-344.406	-115.459	0.252	-0.048
-343.391	-44.605	0.133	-0.067
-342.377	-130.893	0.059	-0.008
-341.362	-142.844	-0.131	0.013
-340.348	-47.437	-0.230	0.114
-339.333	-177.043	-0.345	0.009
-338.318	5.207	-0.138	-0.103
-337.304	-200.000	0.042	0.299
-336.289	-71.211	-0.322	-0.123
-335.275	321.694	-0.133	-0.257
-334.260	-85.012	0.133	-0.042
-333.245	236.616	0.094	0.158
-332.231	-164.245	-0.119	-0.006
-331.216	63.660	0.246	0.250
-330.202	86.436	-0.169	-0.189
-329.187	184.749	0.035	-0.052
-328.172	263.619	0.085	-0.150
-327.158	-200.000	-0.027	0.311
-326.143	-200.000	-0.029	0.252
-325.129	-152.302	0.188	-0.014
-324.114	-172.381	0.273	-0.009
-323.099	-130.816	-0.188	0.026
-322.085	-200.000	0.027	-0.324
-321.070	8.369	0.214	-0.163
-320.056	0.346	0.209	0.151
-319.041	800.000	-0.051	0.199
-318.026	-97.196	-0.164	-0.043
-317.012	24.590	-0.045	-0.038
-315.997	-200.000	0.002	0.087
-314.983	-200.000	0.006	-0.098
-313.968	-139.121	0.091	-0.010
-312.953	301.042	0.152	-0.284
-311.939	-178.535	0.389	0.009
-310.924	101.219	0.025	0.030
-309.910	-74.141	-0.182	-0.067
-308.895	-200.000	-0.010	-0.064
-307.880	-150.333	0.185	0.014
-306.866	184.354	0.099	0.149
-305.851	-19.678	-0.230	0.144
-304.837	-154.912	0.143	-0.010
-303.822	-141.594	0.094	0.010
-302.807	-71.363	0.219	0.083
-301.793	-7.045	0.070	0.048
-300.778	47.855	-0.160	-0.151
-299.764	217.329	-0.042	0.068
-298.749	-200.000	-0.173	0.000
-297.735	-31.809	-0.205	0.117
-296.720	-132.489	0.179	0.023
-295.705	-200.000	-0.048	0.237
-294.691	74.200	0.352	0.374
-293.676	244.424	0.125	0.213
-292.662	132.604	0.303	0.395
-291.647	-200.000	-0.048	0.291
-290.632	26.792	-0.129	-0.110
-289.618	-200.000	-0.017	-0.075
-288.603	-200.000	0.010	-0.098
-287.589	800.000	-0.052	0.221
-286.574	-118.624	-0.188	-0.034
-285.559	800.000	-0.088	-0.254
-284.545	-127.220	0.282	-0.042
-283.530	-86.814	-0.085	-0.026
-282.516	-45.596	-0.117	0.059
-281.501	-52.399	-0.197	-0.092
-280.486	-167.738	-0.234	0.009
-279.472	66.062	-0.322	0.331
-278.457	58.563	0.172	0.171
-277.443	-52.769	0.080	-0.037
-276.428	1.044	0.127	-0.092
-275.413	136.818	0.194	0.257
-274.399	-200.000	0.040	0.290
-273.384	800.000	-0.077	-0.245
-272.370	-200.000	-0.001	0.131
-271.355	800.000	0.034	-0.143
-270.340	800.000	0.020	0.080
-269.326	-200.000	0.020	0.188
-268.311	14.388	-0.209	-0.165
-267.297	-200.000	-0.034	-0.266
-266.282	-71.054	0.238	0.091
-265.267	-87.747	0.182	-0.055
-264.253	179.906	-0.118	0.175
-263.238	29.499	0.187	0.160
-262.224	-22.980	0.051	-0.031
-261.209	-200.000	0.001	0.113
-260.195	-200.000	0.001	-0.109
-259.180	-200.000	0.060	0.412
-258.165	-0.314	-0.173	-0.125
-257.151	-200.000	-0.012	0.099
-256.136	330.472	-0.082	-0.160
-255.122	-85.401	-0.156	0.049
-254.107	-102.481	0.251	0.061
-253.092	100.816	0.082	0.097
-252.078	50.243	0.218	-0.208
-251.063	-64.854	-0.199	0.082
-250.049	-88.310	0.027	-0.008
-249.034	-19.758	0.126	0.079
-248.019	-68.137	0.328	-0.129
-247.005	172.256	-0.101	-0.146
-245.990	-152.094	-0.197	-0.014
-244.976	485.623	0.065	-0.149
-243.961	98.093	0.067	0.078
-242.946	-200.000	0.020	-0.159
-241.932	10.671	0.113	-0.087
-240.917	-35.471	0.194	0.107
-239.903	-96.509	0.358	0.096
-238.888	17.518	-0.133	0.107
-237.873	-7.167	-0.113	0.078
-236.859	800.000	-0.093	0.320
-235.844	-5.827	0.237	-0.164
-234.830	12.336	-0.098	0.076
-233.815	800.000	0.125	0.404
-232.800	-167.472	0.156	0.006
-231.786	-15.450	-0.340	0.219
-230.771	-96.440	-0.061	-0.016
-229.757	404.152	-0.052	-0.111
-228.742	20.522	0.235	-0.192
-227.727	192.012	0.138	-0.210
-226.713	-16.137	-0.247	0.159
-225.698	7.050	0.300	0.226
-224.684	800.000	0.069	0.216
-223.669	74.092	-0.185	-0.196
-222.655	115.427	0.169	-0.209
-221.640	-26.905	-0.233	0.137
-220.625	26.392	0.264	-0.223
-219.611	102.999	-0.087	0.103
-218.596	69.863	0.052	0.055
-217.582	5.988	0.066	-0.049
-216.567	-28.344	-0.093	0.054
-215.552	800.000	0.073	-0.208
-214.538	295.899	-0.084	-0.156
-213.523	49.987	-0.262	-0.249
-212.509	-200.000	-0.012	0.073
-211.494	-200.000	0.000	-0.272
-210.479	-14.589	-0.435	-0.282
-209.465	631.444	-0.049	-0.124
-208.450	800.000	-0.105	0.304
-207.436	-104.899	0.236	-0.055
-206.421	-200.000	0.035	0.190
-205.406	169.952	-0.038	0.055
-204.392	430.417	0.100	-0.219
-203.377	-46.699	0.169	0.084
-202.363	-34.016	0.179	-0.099
-201.348	-200.000	-0.076	0.418
-200.333	8.126	0.085	-0.064
-199.319	17.916	-0.157	0.126
-198.304	-112.248	-0.375	0.076
-197.290	38.249	-0.126	0.113
-196.275	20.243	-0.561	-0.457
-195.260	55.038	-0.189	0.185
-194.246	436.022	0.109	-0.239
-193.231	-82.097	0.248	0.081
-192.217	-90.251	0.228	0.067
-191.202	-200.000	-0.015	0.325
-190.187	-78.411	0.354	0.123
-189.173	800.000	-0.045	-0.161
-188.158	-16.821	-0.242	-0.154
-187.144	-77.503	-0.330	0.116
-186.129	202.874	0.169	0.264
-185.114	-6.487	0.190	0.131
-184.100	125.411	-0.124	0.158
-183.085	-140.819	0.163	0.017
-182.071	-200.000	0.040	0.314
-181.056	-200.000	0.019	-0.204
-180.042	-131.552	-0.129	0.017
-179.027	264.083	-0.175	0.308
-178.012	51.053	-0.119	-0.114
-176.998	282.286	0.058	0.105
-175.983	-143.447	-0.248	-0.024
-174.969	-200.000	0.015	0.307
-173.954	-86.223	0.136	-0.042
-172.939	-200.000	-0.000	0.041
-171.925	-200.000	-0.008	0.088
-170.910	-200.000	-0.012	-0.128
-169.896	34.618	0.149	0.131
-168.881	313.430	-0.058	-0.110
-167.866	-150.604	0.438	-0.034
-166.852	40.938	-0.147	0.133
-165.837	367.262	0.054	-0.111
-164.823	-65.721	0.129	-0.052
-163.808	340.177	0.053	0.105
-162.793	748.922	-0.063	-0.172
-161.779	800.000	0.063	0.177
-160.764	-92.395	0.065	0.019
-159.750	-6.273	-0.200	0.138
-158.735	-138.005	0.253	-0.028
-157.720	-20.430	0.281	-0.174
-156.706	-34.259	-0.279	0.154
-155.691	-40.731	0.242	0.126
-154.677	-54.476	-0.080	0.037
-153.662	27.464	0.072	0.061
-152.647	-14.394	-0.165	0.107
-151.633	800.000	0.054	-0.160
-150.618	-26.818	-0.077	0.045
-149.604	170.433	0.176	-0.253
-148.589	93.766	-0.221	0.252
-147.574	-4.887	0.288	0.200
-146.560	82.445	0.210	0.229
-145.545	-61.946	0.154	-0.065
-144.531	-119.407	-0.084	-0.015
-143.516	13.120	-0.147	0.114
-142.502	-200.000	0.028	0.522
-141.487	-96.534	-0.021	-0.006
-140.472	-85.260	-0.044	-0.014
-139.458	-63.721	0.294	-0.121
-138.443	367.843	0.104	0.211
-137.429	-93.867	0.253	0.070
-136.414	333.717	0.052	0.101
-135.399	-164.318	-0.377	-0.017
-134.385	-38.548	0.150	-0.080
-133.370	800.000	-0.076	-0.233
-132.356	-94.415	-0.187	0.051
-131.341	-200.000	0.020	-0.116
-130.326	-90.542	0.105	0.031
-129.312	-200.000	-0.017	-0.106
-128.297	318.857	0.343	0.654
-127.283	6.500	0.223	-0.166
-126.268	-25.367	0.131	-0.078
-125.253	-13.165	0.228	-0.149
-124.239	165.375	-0.157	-0.224
-123.224	-51.738	0.101	0.047
-122.210	52.081	0.204	-0.195
-121.195	-200.000	-0.028	-0.193
-120.180	37.535	-0.145	0.130
