DTS Sentinel unit serial number:	SN413079Multiplexer serial number:	ORYXHardware model number:	OX4-SRSoftware version number:	ORYX F/W v4.00 Oryx Data Collector v3.7.2.0data status	okinstallation	princeton_trtdifferential loss correction	single-endedforward channel	channel 4reverse channel	N/Adate	2019/09/12time	22:37:34forward acquisition time	60.00reverse acquisition time	0.00gamma	496.2192k internal	0.2316k external	0.2316temperature offset calibration	1.0177default loss term (dB/km)	0.3790temperature slope calibration	1.0000multiplexer offset coefficient	1.0000multiplexer slope coefficient	1.0000fibre end	0.00T internal ref (°C)	29.62T ext. ref 1 (°C)	3.76T ext. ref 2 (°C)	24.17length (m)	temperature (°C)	Stokes	anti-Stokes-747.200	-167.585	-0.298	-0.012
-746.185	-119.218	0.157	0.028
-745.171	-35.074	-0.385	-0.213
-744.156	-27.079	-0.307	-0.181
-743.142	491.041	0.161	-0.372
-742.127	-110.128	-0.050	0.011
-741.112	9.920	0.186	-0.143
-740.098	-102.132	-0.191	0.047
-739.083	21.831	0.181	0.150
-738.069	73.147	-0.105	-0.111
-737.054	-178.126	0.123	0.003
-736.039	-26.331	-0.283	0.168
-735.025	-7.424	0.194	-0.133
-734.010	800.000	-0.129	-0.478
-732.996	389.384	-0.085	0.179
-731.981	362.873	0.109	0.221
-730.966	50.990	-0.044	0.042
-729.952	-56.814	0.162	0.073
-728.937	-115.082	0.161	-0.031
-727.923	-117.681	0.428	-0.078
-726.908	-185.602	0.327	0.005
-725.894	-200.000	0.003	-0.130
-724.879	-18.049	-0.345	-0.219
-723.864	599.388	0.159	-0.399
-722.850	-67.548	-0.147	0.058
-721.835	-120.481	-0.442	-0.076
-720.821	32.530	-0.194	-0.169
-719.806	-6.169	-0.090	0.062
-718.791	5.820	-0.045	0.034
-717.777	-9.518	-0.226	0.153
-716.762	129.063	-0.061	-0.079
-715.748	-143.319	-0.330	0.032
-714.733	-58.337	-0.319	0.141
-713.718	442.178	-0.096	-0.212
-712.704	569.245	0.049	-0.121
-711.689	-71.566	-0.364	0.138
-710.675	-200.000	0.000	0.094
-709.660	282.482	-0.072	0.131
-708.645	759.284	-0.143	-0.391
-707.631	-172.173	-0.174	0.006
-706.616	-58.539	0.275	0.121
-705.602	-57.145	-0.228	0.101
-704.587	2.318	-0.310	0.227
-703.572	-36.526	0.329	-0.179
-702.558	-152.666	-0.385	-0.028
-701.543	-93.819	0.213	-0.059
-700.529	-200.000	0.002	-0.053
-699.514	-200.000	-0.023	-0.283
-698.499	349.760	-0.212	-0.423
-697.485	-158.140	0.147	-0.009
-696.470	-75.150	0.130	0.047
-695.456	-5.358	-0.067	0.047
-694.441	98.831	-0.137	-0.160
-693.426	-115.495	-0.113	-0.021
-692.412	-200.000	-0.023	0.155
-691.397	-200.000	0.035	-0.175
-690.383	761.080	-0.139	-0.382
-689.368	-177.094	-0.158	-0.004
-688.354	129.389	-0.226	-0.292
-687.339	-151.301	-0.232	-0.017
-686.324	116.032	0.168	-0.208
-685.310	178.311	-0.085	-0.125
-684.295	-141.777	-0.098	0.010
-683.281	-43.008	-0.525	0.269
-682.266	-178.586	0.139	0.003
-681.251	-58.943	0.208	0.091
-680.237	23.155	-0.108	0.089
-679.222	733.531	0.019	0.050
-678.208	-83.235	-0.086	0.028
-677.193	514.900	-0.149	-0.352
-676.178	32.363	-0.078	0.068
-675.164	-139.861	0.147	-0.016
-674.149	-200.000	-0.091	-0.559
-673.135	-173.228	0.230	-0.007
-672.120	-128.439	0.381	-0.055
-671.105	319.497	0.130	0.248
-670.091	-200.000	0.032	0.165
-669.076	-200.000	0.008	-0.246
-668.062	-200.000	-0.000	0.185
-667.047	-200.000	0.019	0.102
-666.032	-200.000	-0.012	0.187
-665.018	255.754	-0.135	-0.233
-664.003	-34.542	-0.366	-0.202
-662.989	-28.460	0.235	-0.137
-661.974	-200.000	-0.050	-0.281
-660.959	135.930	-0.125	-0.165
-659.945	-129.808	-0.066	-0.009
-658.930	557.795	-0.079	-0.193
-657.916	-15.501	0.082	-0.053
-656.901	-155.715	0.211	-0.014
-655.886	-200.000	-0.018	-0.182
-654.872	662.245	-0.064	0.168
-653.857	-71.800	-0.168	-0.063
-652.843	-27.177	0.167	0.098
-651.828	-0.167	-0.228	-0.164
-650.814	608.559	0.149	-0.376
-649.799	-150.883	0.091	0.007
-648.784	800.000	0.139	-0.483
-647.770	-54.127	-0.171	0.079
-646.755	7.292	0.173	0.130
-645.741	-105.279	-0.166	-0.038
-644.726	351.957	-0.112	-0.224
-643.711	800.000	-0.006	-0.023
-642.697	-19.689	-0.260	0.162
-641.682	-91.864	-0.100	-0.029
-640.668	-200.000	0.002	-0.292
-639.653	58.490	-0.113	-0.112
-638.638	-90.231	0.218	0.064
-637.624	162.967	-0.095	-0.135
-636.609	-131.841	-0.109	-0.014
-635.595	255.325	0.098	0.170
-634.580	-200.000	-0.009	-0.072
-633.565	-106.483	0.326	0.073
-632.551	-56.262	0.105	-0.047
-631.536	-62.983	-0.482	0.201
-630.522	-138.859	0.312	-0.034
-629.507	282.738	-0.094	0.170
-628.492	5.831	-0.139	-0.103
-627.478	217.120	0.029	-0.046
-626.463	134.148	0.215	0.281
-625.449	-140.654	0.158	-0.016
-624.434	-105.553	0.376	-0.086
-623.419	260.264	-0.239	-0.417
-622.405	-192.944	-0.047	-0.000
-621.390	-200.000	-0.029	0.127
-620.376	13.255	0.286	-0.223
-619.361	-54.169	-0.116	-0.053
-618.346	-3.300	0.133	0.093
-617.332	-126.863	0.099	0.015
-616.317	-124.530	-0.291	0.046
-615.303	80.227	0.170	-0.184
-614.288	-30.377	0.139	0.080
-613.273	76.628	0.150	-0.160
-612.259	-12.137	-0.238	0.157
-611.244	-134.072	-0.034	0.004
-610.230	185.171	0.075	-0.113
-609.215	2.466	-0.152	-0.111
-608.201	800.000	0.048	-0.136
-607.186	82.638	0.121	0.133
-606.171	-141.428	-0.119	-0.012
-605.157	-200.000	0.006	0.090
-604.142	-7.082	0.115	0.078
-603.128	-200.000	0.059	-0.451
-602.113	81.869	-0.221	-0.241
-601.098	-128.208	-0.212	-0.031
-600.084	-200.000	-0.004	0.141
-599.069	671.787	0.074	0.192
-598.055	664.948	-0.061	0.159
-597.040	496.502	0.096	-0.222
-596.025	-200.000	-0.020	-0.103
-595.011	-66.842	-0.051	0.020
-593.996	-200.000	0.030	0.175
-592.982	800.000	0.064	-0.199
-591.967	-104.413	-0.175	-0.041
-590.952	52.441	-0.072	0.069
-589.938	-200.000	0.024	-0.126
-588.923	-75.031	0.158	-0.057
-587.909	126.103	-0.183	-0.233
-586.894	-200.000	-0.010	-0.066
-585.879	539.472	-0.024	-0.057
-584.865	-28.271	0.119	-0.069
-583.850	-200.000	-0.061	-0.302
-582.836	-89.650	0.092	-0.027
-581.821	800.000	0.041	-0.119
-580.806	155.187	-0.174	-0.240
-579.792	721.756	-0.061	-0.164
-578.777	-3.350	0.046	0.032
-577.763	445.456	-0.179	0.396
-576.748	-200.000	-0.036	0.338
-575.733	348.211	-0.119	-0.236
-574.719	290.528	-0.175	-0.319
-573.704	-75.871	-0.276	-0.099
-572.690	-200.000	-0.021	0.267
-571.675	-129.862	0.498	-0.069
-570.661	-200.000	0.010	-0.159
-569.646	-36.079	0.109	-0.059
-568.631	-11.581	0.058	-0.039
-567.617	628.199	-0.156	-0.396
-566.602	-200.000	-0.002	-0.014
-565.588	-200.000	-0.039	-0.216
-564.573	65.863	0.207	-0.211
-563.558	1.000	-0.131	0.094
-562.544	-30.136	-0.090	0.051
-561.529	373.333	0.105	-0.215
-560.515	-200.000	0.020	-0.274
-559.500	-123.815	0.064	0.010
-558.485	-77.148	0.142	0.050
-557.471	-123.997	0.300	-0.047
-556.456	800.000	0.042	0.173
-555.442	588.266	-0.035	0.087
-554.427	85.052	-0.182	0.201
-553.412	-23.186	-0.164	0.099
-552.398	32.573	-0.149	0.130
-551.383	-55.230	-0.073	0.033
-550.369	4.541	-0.044	0.032
-549.354	800.000	-0.025	0.088
-548.339	-0.281	-0.112	-0.080
-547.325	236.726	-0.134	0.224
-546.310	-53.613	-0.169	-0.078
-545.296	-200.000	-0.017	-0.164
-544.281	28.412	0.254	-0.216
-543.266	-200.000	0.025	-0.273
-542.252	47.541	-0.146	0.137
-541.237	-116.687	-0.132	-0.024
-540.223	522.463	0.079	0.187
-539.208	-69.193	-0.376	0.145
-538.193	-200.000	-0.026	-0.246
-537.179	-200.000	-0.028	0.281
-536.164	583.588	0.127	0.313
-535.150	800.000	-0.054	-0.190
-534.135	-172.189	-0.243	0.008
-533.121	353.435	0.061	0.122
-532.106	94.247	-0.195	-0.222
-531.091	-93.704	-0.279	0.077
-530.077	-200.000	-0.012	0.107
-529.062	-200.000	0.015	-0.543
-528.048	-200.000	-0.007	-0.118
-527.033	-86.147	-0.280	0.087
-526.018	39.373	0.186	-0.168
-525.004	800.000	-0.029	-0.082
-523.989	79.764	0.056	-0.060
-522.975	800.000	-0.148	-0.425
-521.960	225.723	-0.122	-0.199
-520.945	-135.394	-0.189	-0.023
-519.931	687.336	-0.062	-0.164
-518.916	221.674	0.077	0.124
-517.902	-98.921	-0.199	-0.051
-516.887	-52.880	-0.290	0.134
-515.872	800.000	0.073	0.237
-514.858	-114.269	-0.349	-0.068
-513.843	-118.343	-0.501	-0.089
-512.829	160.843	-0.355	0.498
-511.814	-100.263	0.111	0.028
-510.799	709.639	-0.064	-0.171
-509.785	13.996	-0.369	0.288
-508.770	-117.040	-0.149	0.027
-507.756	800.000	0.037	0.152
-506.741	473.316	-0.037	-0.084
-505.726	785.114	0.055	0.151
-504.712	182.338	-0.146	0.216
-503.697	151.625	0.236	-0.322
-502.683	-160.373	0.052	-0.003
-501.668	68.394	-0.194	0.199
-500.653	-115.624	-0.311	-0.059
-499.639	-124.503	0.425	0.066
-498.624	211.453	-0.106	-0.167
-497.610	800.000	0.105	0.292
-496.595	-200.000	0.017	-0.136
-495.581	-170.263	0.290	-0.010
-494.566	-53.658	-0.208	0.095
-493.551	-63.697	-0.164	-0.067
-492.537	123.836	0.050	-0.063
-491.522	-39.624	-0.417	-0.219
-490.508	291.222	0.092	-0.167
-489.493	216.024	-0.042	0.067
-488.478	208.295	0.079	-0.124
-487.464	570.152	-0.080	-0.196
-486.449	79.639	-0.100	0.108
-485.435	307.938	-0.017	0.031
-484.420	-5.719	-0.123	0.084
-483.405	543.119	0.138	0.330
-482.391	800.000	-0.034	0.149
-481.376	-54.094	-0.267	-0.122
-480.362	-15.937	-0.241	-0.154
-479.347	800.000	0.062	0.191
-478.332	47.223	-0.052	-0.049
-477.318	-75.273	0.051	0.018
-476.303	-132.309	-0.534	0.069
-475.289	100.214	-0.222	0.258
-474.274	149.540	0.134	0.181
-473.259	37.793	-0.080	0.071
-472.245	-1.842	-0.127	-0.090
-471.230	121.039	-0.076	-0.095
-470.216	130.724	0.135	0.173
-469.201	391.483	0.084	0.175
-468.186	-200.000	-0.002	0.065
-467.172	-200.000	0.047	-0.300
-466.157	-96.767	0.634	-0.167
-465.143	48.827	0.095	-0.089
-464.128	-67.326	0.099	-0.039
-463.113	-111.032	-0.240	-0.049
-462.099	-91.947	0.362	0.103
-461.084	-169.613	-0.183	0.007
-460.070	92.727	-0.105	-0.119
-459.055	42.772	0.091	0.083
-458.040	-60.274	-0.161	-0.069
-457.026	-153.291	-0.225	0.016
-456.011	-8.684	0.241	-0.162
-454.997	20.063	0.078	0.063
-453.982	39.453	0.050	-0.045
-452.968	89.646	0.108	0.120
-451.953	800.000	-0.078	-0.239
-450.938	-27.845	-0.170	0.098
-449.924	-38.100	0.222	-0.118
-448.909	98.493	-0.087	-0.100
-447.895	579.675	-0.037	0.091
-446.880	402.231	-0.119	0.249
-445.865	238.136	-0.156	-0.260
-444.851	82.392	0.263	0.285
-443.836	-105.699	-0.093	0.021
-442.822	292.489	-0.106	-0.193
-441.807	100.884	0.236	0.275
-440.792	271.586	-0.095	0.167
-439.778	-200.000	0.009	-0.307
-438.763	292.895	0.085	-0.156
-437.749	582.907	-0.036	0.088
-436.734	-200.000	-0.008	0.080
-435.719	310.916	-0.077	-0.144
-434.705	800.000	-0.111	0.391
-433.690	3.329	-0.228	0.166
-432.676	9.526	-0.386	0.293
-431.661	711.401	0.100	0.265
-430.646	433.955	-0.076	-0.165
-429.632	21.901	0.116	-0.094
-428.617	181.406	-0.126	0.186
-427.603	-106.419	0.403	0.090
-426.588	-98.838	-0.349	0.089
-425.573	382.903	-0.038	0.077
-424.559	-72.712	0.218	-0.080
-423.544	-200.000	0.004	-0.063
-422.530	176.339	0.177	0.257
-421.515	-200.000	0.043	0.227
-420.500	-200.000	0.082	-0.397
-419.486	-104.480	0.192	0.044
-418.471	182.626	0.184	-0.271
-417.457	175.644	0.236	0.342
-416.442	-29.718	-0.079	0.045
-415.428	-22.903	0.407	0.246
-414.413	12.022	-0.201	0.154
-413.398	-123.683	0.181	-0.029
-412.384	-200.000	0.354	0.000
-411.369	330.906	-0.127	-0.245
-410.355	-186.797	0.285	0.004
-409.340	67.927	0.146	0.149
-408.325	-200.000	0.075	0.333
-407.311	144.542	-0.126	0.168
-406.296	-60.782	-0.156	-0.066
-405.282	-48.862	-0.146	-0.070
-404.267	800.000	-0.034	0.104
-403.252	-78.606	-0.094	0.032
-402.238	-200.000	0.094	-0.453
-401.223	-30.571	-0.041	-0.023
-400.209	82.739	0.234	-0.254
-399.194	48.258	0.169	-0.158
-398.179	-117.504	-0.387	-0.070
-397.165	-200.000	0.007	0.224
-396.150	-95.761	0.225	0.060
-395.136	49.119	0.118	0.111
-394.121	269.048	0.176	-0.308
-393.106	104.361	0.227	0.268
-392.092	15.953	-0.181	0.142
-391.077	-96.550	-0.365	0.096
-390.063	800.000	-0.024	0.070
-389.048	-110.878	-0.105	-0.022
-388.033	-95.574	-0.272	0.073
-387.019	-97.354	0.289	-0.075
-386.004	800.000	0.103	0.353
-384.990	-117.262	-0.102	-0.019
-383.975	189.629	0.172	-0.258
-382.960	-88.697	0.300	0.089
-381.946	191.683	0.108	-0.163
-380.931	-200.000	0.004	0.264
-379.917	-125.358	-0.323	-0.049
-378.902	450.130	0.069	0.152
-377.888	800.000	-0.060	-0.212
-376.873	-139.180	-0.414	-0.045
-375.858	240.670	-0.089	0.149
-374.844	-5.739	0.320	0.219
-373.829	-200.000	0.032	-0.334
-372.815	-1.008	0.368	0.260
-371.800	22.673	0.163	-0.134
-370.785	176.508	0.061	0.088
-369.771	17.053	-0.055	0.044
-368.756	-2.778	0.279	0.195
-367.742	-160.583	-0.503	0.027
-366.727	800.000	0.048	0.179
-365.712	-115.982	0.170	0.032
-364.698	215.840	-0.132	0.210
-363.683	159.460	0.203	-0.282
-362.669	535.991	-0.011	0.025
-361.654	514.919	0.113	0.263
-360.639	-45.618	-0.049	0.024
-359.625	-107.375	-0.358	0.079
-358.610	-200.000	-0.037	-0.237
-357.596	-163.842	0.206	0.010
-356.581	-200.000	-0.003	0.143
-355.566	-93.824	0.243	0.067
-354.552	254.957	-0.098	0.168
-353.537	192.024	0.087	-0.131
-352.523	-83.342	-0.412	-0.132
-351.508	-200.000	-0.031	0.191
-350.493	-17.201	0.198	0.125
-349.479	284.025	0.141	0.253
-348.464	216.775	-0.050	0.080
-347.450	25.626	0.203	0.169
-346.435	-97.337	-0.294	-0.076
-345.420	34.645	0.092	-0.080
-344.406	-69.230	0.301	-0.115
-343.391	384.193	-0.043	-0.089
-342.377	-138.309	0.347	-0.038
-341.362	376.321	-0.200	0.407
-340.348	-200.000	0.035	-0.228
-339.333	252.534	-0.172	-0.292
-338.318	65.305	0.111	0.112
-337.304	-122.924	-0.215	0.035
-336.289	356.427	-0.050	-0.100
-335.275	-200.000	0.004	-0.235
-334.260	-8.854	-0.247	0.165
-333.245	370.458	0.097	-0.196
-332.231	-78.610	-0.181	-0.062
-331.216	79.264	0.155	-0.166
-330.202	76.189	-0.165	-0.174
-329.187	39.156	-0.084	-0.075
-328.172	-70.424	0.106	0.040
-327.158	-30.459	0.162	0.091
-326.143	-72.826	0.233	0.085
-325.129	100.073	0.109	-0.126
-324.114	263.271	-0.076	0.132
-323.099	-125.161	0.188	0.029
-322.085	-169.817	-0.388	-0.014
-321.070	-97.966	0.012	-0.003
-320.056	-200.000	0.027	-0.353
-319.041	43.607	0.023	0.021
-318.026	2.014	0.216	-0.156
-317.012	0.670	-0.107	-0.076
-315.997	91.868	0.246	-0.276
-314.983	13.537	0.186	0.144
-313.968	-200.000	-0.022	0.108
-312.953	-131.693	0.041	-0.005
-311.939	576.944	0.125	0.305
-310.924	-200.000	0.001	0.246
-309.910	589.769	-0.143	-0.351
-308.895	-138.777	-0.104	-0.011
-307.880	-41.321	0.373	0.192
-306.866	165.383	-0.186	0.262
-305.851	-77.752	-0.419	0.144
-304.837	-117.188	-0.158	0.029
-303.822	244.266	0.173	0.289
-302.807	169.101	-0.101	-0.143
-301.793	-143.800	-0.387	-0.036
-300.778	-150.623	0.209	-0.016
-299.764	177.063	0.135	0.196
-298.749	800.000	-0.040	0.127
-297.735	235.917	-0.101	0.167
-296.720	-30.687	0.315	-0.178
-295.705	-200.000	0.024	0.371
-294.691	-26.005	0.151	0.088
-293.676	-200.000	-0.019	-0.094
-292.662	-200.000	0.034	0.397
-291.647	74.229	0.066	-0.069
-290.632	-72.693	0.296	-0.109
-289.618	-87.259	0.222	-0.067
-288.603	-48.917	0.274	-0.130
-287.589	314.036	-0.114	0.213
-286.574	800.000	-0.074	0.240
-285.559	-200.000	0.015	-0.247
-284.545	-57.754	0.392	-0.171
-283.530	36.604	-0.092	0.081
-282.516	37.686	0.185	0.163
-281.501	-200.000	-0.012	0.215
-280.486	-85.201	0.217	-0.067
-279.472	-142.940	-0.487	-0.047
-278.457	-108.749	-0.166	-0.035
-277.443	-200.000	-0.017	0.149
-276.428	39.331	-0.218	0.194
-275.413	-165.281	0.270	-0.012
-274.399	-23.542	-0.239	0.142
-273.384	318.804	0.011	-0.021
-272.370	-116.856	-0.333	0.061
-271.355	26.369	0.259	-0.215
-270.340	492.231	-0.138	0.315
-269.326	-17.946	-0.049	-0.031
-268.311	67.277	-0.140	-0.142
-267.297	-20.540	0.259	0.158
-266.282	-200.000	-0.011	0.221
-265.267	238.705	0.078	0.129
-264.253	-200.000	-0.031	-0.143
-263.238	93.760	0.095	0.107
-262.224	107.150	0.251	0.297
-261.209	-144.010	-0.168	0.016
-260.195	-82.633	0.214	-0.069
-259.180	51.159	0.101	-0.095
-258.165	-200.000	0.040	-0.226
-257.151	264.486	-0.095	-0.165
-256.136	-154.310	0.142	-0.010
-255.122	745.828	0.157	-0.419
-254.107	-93.427	0.281	0.077
-253.092	44.870	0.038	0.034
-252.078	-11.495	0.503	0.329
-251.063	368.573	-0.057	0.114
-250.049	-164.714	-0.113	-0.005
-249.034	457.657	-0.119	0.262
-248.019	6.440	0.042	0.031
-247.005	-119.770	-0.176	-0.030
-245.990	481.457	0.151	-0.341
-244.976	771.276	-0.014	0.038
-243.961	125.717	-0.196	0.246
-242.946	-151.304	0.318	-0.024
-241.932	251.732	0.175	-0.296
-240.917	682.618	-0.075	-0.194
-239.903	-99.003	-0.018	-0.004
-238.888	-18.551	-0.386	0.239
-237.873	51.923	-0.351	0.332
-236.859	32.306	0.256	0.220
-235.844	650.795	-0.093	0.237
-234.830	99.584	-0.095	-0.109
-233.815	24.090	0.165	-0.136
-232.800	-140.806	-0.284	-0.029
-231.786	263.605	0.065	-0.113
-230.771	-200.000	0.011	0.146
-229.757	84.479	-0.332	0.360
-228.742	221.093	0.196	0.313
-227.727	78.066	0.124	0.132
-226.713	199.890	0.120	-0.183
-225.698	366.197	-0.049	0.098
-224.684	24.491	-0.148	-0.121
-223.669	-200.000	-0.020	-0.192
-222.655	-123.613	-0.325	0.051
-221.640	-200.000	-0.038	-0.237
-220.625	800.000	-0.094	-0.345
-219.611	373.910	0.046	0.093
-218.596	-40.704	0.173	0.089
-217.582	-83.754	0.162	-0.051
-216.567	107.381	0.215	-0.254
-215.552	605.781	-0.119	0.295
-214.538	9.462	0.133	0.100
-213.523	-200.000	0.017	0.153
-212.509	409.890	0.076	-0.159
-211.494	-89.736	0.240	-0.070
-210.479	-126.056	0.087	0.013
-209.465	800.000	0.067	-0.251
-208.450	-112.673	-0.255	0.050
-207.436	800.000	-0.118	-0.419
-206.421	87.309	-0.014	0.015
-205.406	81.424	-0.103	-0.111
-204.392	-200.000	0.007	-0.212
-203.377	212.763	0.027	-0.043
-202.363	-159.074	0.367	-0.021
-201.348	-200.000	-0.091	-0.557
-200.333	-80.331	0.062	0.021
-199.319	-159.790	-0.051	0.003
-198.304	749.936	0.053	0.143
-197.290	-123.829	0.255	0.040
-196.275	65.491	-0.187	-0.187
-195.260	-141.197	-0.117	-0.012
-194.246	-138.835	0.137	-0.015
-193.231	-16.367	-0.197	-0.124
-192.217	-100.368	0.180	0.044
-191.202	-83.487	-0.333	-0.106
-190.187	-129.201	0.278	0.038
-189.173	-200.000	0.037	-0.175
-188.158	-200.000	-0.002	0.135
-187.144	-83.249	0.301	-0.096
-186.129	-200.000	0.013	0.099
-185.114	38.158	0.105	0.093
-184.100	213.782	-0.131	-0.205
-183.085	-35.000	0.211	0.114
-182.071	-200.000	0.013	-0.161
-181.056	-43.940	-0.085	0.042
-180.042	-78.468	0.251	-0.085
-179.027	-166.978	-0.271	-0.011
-178.012	-122.070	-0.043	-0.007
-176.998	116.364	0.169	-0.205
-175.983	-200.000	0.000	0.100
-174.969	34.372	-0.280	-0.242
-173.954	10.771	-0.114	-0.087
-172.939	-0.724	0.104	0.073
-171.925	800.000	-0.140	-0.390
-170.910	-79.075	0.122	-0.041
-169.896	1.011	0.043	0.030
-168.881	-151.702	0.157	-0.011
-167.866	340.830	0.057	0.111
-166.852	-116.923	0.409	0.074
-165.837	-57.220	-0.302	0.132
-164.823	84.159	0.091	0.099
-163.808	-89.580	0.048	0.014
-162.793	11.710	0.134	-0.102
-161.779	-200.000	0.013	0.336
-160.764	-35.352	0.200	-0.108
-159.750	-59.052	0.303	0.129
-158.735	-200.000	-0.015	0.174
-157.720	-148.217	0.040	-0.003
-156.706	-143.817	-0.419	-0.039
-155.691	-158.857	0.195	0.011
-154.677	800.000	0.090	0.332
-153.662	800.000	-0.025	-0.093
-152.647	-44.049	0.083	-0.041
-151.633	-200.000	0.004	-0.066
-150.618	276.096	0.046	-0.081
-149.604	-52.918	-0.109	0.050
-148.589	-109.693	0.414	-0.086
-147.574	-128.384	-0.386	-0.054
-146.560	103.696	-0.150	0.174
-145.545	800.000	0.025	0.071
-144.531	153.044	-0.113	0.153
-143.516	82.628	-0.172	-0.184
-142.502	611.181	-0.058	0.144
-141.487	-115.072	0.220	-0.041
-140.472	19.131	-0.135	0.107
-139.458	307.643	-0.091	-0.169
-138.443	-131.888	0.050	0.007
-137.429	491.611	-0.067	-0.152
-136.414	114.113	-0.053	0.064
-135.399	502.313	-0.048	-0.110
-134.385	-69.577	0.120	-0.045
-133.370	-5.693	0.246	0.167
-132.356	-174.065	-0.388	0.011
-131.341	49.406	0.192	-0.179
-130.326	-0.685	0.202	-0.142
-129.312	-113.076	-0.198	-0.039
-128.297	-200.000	0.011	0.083
-127.283	-15.878	-0.171	0.108
-126.268	28.244	0.110	-0.092
-125.253	286.714	0.061	0.109
-124.239	-62.248	-0.269	0.111
-123.224	30.324	-0.169	0.143
-122.210	800.000	0.074	0.254
