DTS Sentinel unit serial number:	SN413079Multiplexer serial number:	ORYXHardware model number:	OX4-SRSoftware version number:	ORYX F/W v4.00 Oryx Data Collector v3.7.2.0data status	okinstallation	princeton_trtdifferential loss correction	single-endedforward channel	channel 4reverse channel	N/Adate	2019/09/12time	18:13:19forward acquisition time	15.00reverse acquisition time	0.00gamma	496.2192k internal	0.2307k external	0.2307temperature offset calibration	1.0132default loss term (dB/km)	0.3790temperature slope calibration	1.0000multiplexer offset coefficient	1.0000multiplexer slope coefficient	1.0000fibre end	0.00T internal ref (°C)	33.56T ext. ref 1 (°C)	2.90T ext. ref 2 (°C)	28.12length (m)	temperature (°C)	Stokes	anti-Stokes-747.200	-135.702	-0.592	-0.071
-746.185	-200.000	-0.025	-0.476
-745.171	-16.606	-0.406	-0.261
-744.156	47.739	-0.560	-0.531
-743.142	-199.365	-0.628	0.003
-742.127	-200.000	-0.099	0.611
-741.112	240.949	0.142	-0.242
-740.098	190.479	0.493	0.754
-739.083	579.254	0.266	0.662
-738.069	-111.300	-0.666	0.138
-737.054	800.000	-0.269	-0.826
-736.039	154.480	-0.179	0.250
-735.025	291.087	-0.263	-0.486
-734.010	47.967	-0.350	0.332
-732.996	-200.000	0.108	0.605
-731.981	173.235	-0.178	-0.261
-730.966	-39.932	-0.342	-0.181
-729.952	-200.000	-0.087	-0.400
-728.937	62.835	-0.566	-0.576
-727.923	37.445	0.468	-0.422
-726.908	133.518	0.131	0.172
-725.894	366.465	-0.262	-0.536
-724.879	-105.920	0.398	-0.091
-723.864	648.868	-0.305	-0.793
-722.850	-108.631	0.332	0.072
-721.835	-108.656	-0.414	-0.090
-720.821	293.043	-0.660	-1.223
-719.806	-27.278	-0.726	0.430
-718.791	-200.000	0.033	-0.841
-717.777	-56.582	1.005	0.452
-716.762	-46.142	-0.218	-0.109
-715.748	-197.977	-0.425	0.003
-714.733	-200.000	0.132	-0.970
-713.718	141.189	0.300	0.403
-712.704	800.000	0.215	-0.752
-711.689	-125.755	-0.771	0.118
-710.675	106.344	-0.523	0.629
-709.660	-157.107	-0.509	-0.031
-708.645	80.710	0.133	0.146
-707.631	-18.889	-0.793	0.501
-706.616	159.554	0.277	-0.392
-705.602	-124.976	-0.319	0.050
-704.587	120.504	-0.400	0.504
-703.572	30.522	-0.201	0.175
-702.558	-33.363	-0.356	0.200
-701.543	48.575	0.655	-0.623
-700.529	-191.731	0.567	0.006
-699.514	396.144	0.257	-0.545
-698.499	-200.000	0.059	-0.652
-697.485	279.659	0.147	-0.266
-696.470	-31.525	0.258	-0.147
-695.456	452.615	-0.360	0.807
-694.441	-107.228	0.528	-0.118
-693.426	354.780	0.491	-0.990
-692.412	-72.732	-0.552	-0.206
-691.397	-27.788	-0.458	0.269
-690.383	247.167	0.263	0.450
-689.368	-200.000	-0.108	-0.853
-688.354	-21.967	-0.736	0.454
-687.339	800.000	0.155	0.555
-686.324	231.855	0.428	0.713
-685.310	800.000	-0.151	-0.425
-684.295	-110.805	-0.258	0.054
-683.281	129.403	0.246	-0.318
-682.266	518.919	0.431	-1.024
-681.251	-48.853	0.668	-0.325
-680.237	599.521	-0.240	0.605
-679.222	-200.000	-0.004	-0.079
-678.208	-83.849	-0.306	-0.099
-677.193	-200.000	-0.080	0.855
-676.178	-200.000	0.057	-0.345
-675.164	-43.959	0.857	0.437
-674.149	800.000	0.132	-0.577
-673.135	263.752	-0.290	0.511
-672.120	-200.000	-0.031	0.697
-671.105	-69.224	0.511	0.199
-670.091	-200.000	-0.194	0.874
-669.076	92.825	0.385	0.441
-668.062	200.601	0.307	0.479
-667.047	800.000	-0.213	0.638
-666.032	456.863	-0.190	0.428
-665.018	-78.783	-0.549	-0.190
-664.003	-200.000	0.096	0.909
-662.989	-99.156	-0.203	-0.052
-661.974	33.328	0.661	-0.582
-660.959	174.951	-0.245	0.360
-659.945	800.000	-0.255	-0.727
-658.930	-23.798	-0.643	-0.390
-657.916	-200.000	-0.002	0.073
-656.901	-9.808	0.153	0.103
-655.886	319.966	-0.182	-0.351
-654.872	-200.000	0.003	0.605
-653.857	-129.105	-0.304	-0.043
-652.843	800.000	0.182	-0.545
-651.828	-200.000	-0.024	-0.227
-650.814	800.000	0.198	-0.618
-649.799	218.676	0.401	-0.648
-648.784	-61.655	-0.267	0.113
-647.770	130.624	-0.583	0.757
-646.755	-200.000	-0.107	-0.479
-645.741	-135.457	-0.368	-0.044
-644.726	575.806	-0.084	0.207
-643.711	-91.224	0.183	0.053
-642.697	-123.599	0.832	-0.134
-641.682	386.148	0.238	0.497
-640.668	-31.723	-0.580	-0.329
-639.653	800.000	-0.297	-1.035
-638.638	800.000	-0.187	0.566
-637.624	-30.463	-0.535	-0.307
-636.609	800.000	-0.015	-0.060
-635.595	224.096	0.452	0.740
-634.580	321.283	-0.160	0.308
-633.565	203.134	0.150	-0.235
-632.551	-78.346	-0.718	-0.249
-631.536	67.156	0.643	-0.664
-630.522	-144.611	-0.215	0.020
-629.507	800.000	-0.058	0.238
-628.492	13.670	-0.788	0.619
-627.478	-78.860	-0.705	-0.243
-626.463	-200.000	0.030	-0.454
-625.449	3.960	-0.377	0.279
-624.434	205.564	0.419	-0.659
-623.419	-172.602	0.871	0.028
-622.405	179.274	0.338	-0.500
-621.390	358.328	-0.366	-0.739
-620.376	2.595	0.541	0.396
-619.361	58.723	-0.331	0.329
-618.346	111.756	0.417	0.510
-617.332	-68.290	0.485	-0.191
-616.317	186.844	0.276	0.415
-615.303	134.782	0.683	0.897
-614.288	89.302	0.429	-0.484
-613.273	658.414	0.152	-0.396
-612.259	-41.292	0.664	0.346
-611.244	-200.000	-0.034	0.526
-610.230	-200.000	-0.039	0.459
-609.215	-152.736	0.721	-0.052
-608.201	-200.000	0.058	0.410
-607.186	32.019	0.832	-0.725
-606.171	-27.015	0.341	-0.201
-605.157	-70.760	0.776	-0.296
-604.142	-9.166	-0.624	-0.422
-603.128	-143.955	0.274	0.026
-602.113	295.140	-0.298	-0.552
-601.098	-200.000	0.008	-0.866
-600.084	-99.390	0.919	-0.234
-599.069	516.075	0.146	0.345
-598.055	800.000	-0.162	-0.560
-597.040	-31.875	-0.467	0.265
-596.025	800.000	0.160	0.568
-595.011	800.000	-0.321	1.042
-593.996	2.808	-0.690	-0.506
-592.982	-200.000	-0.067	-0.692
-591.967	-94.393	0.113	0.031
-590.952	121.841	-0.624	0.787
-589.938	-200.000	-0.047	-0.267
-588.923	-200.000	-0.003	-0.102
-587.909	800.000	-0.042	-0.174
-586.894	-200.000	-0.015	0.766
-585.879	319.067	-0.036	0.069
-584.865	-200.000	-0.132	-0.606
-583.850	-6.975	-0.866	0.595
-582.836	-200.000	0.054	-0.322
-581.821	-25.053	0.319	0.191
-580.806	-24.034	1.049	0.634
-579.792	800.000	0.157	-0.619
-578.777	-85.907	0.512	-0.160
-577.763	-73.519	0.264	-0.097
-576.748	-200.000	0.020	0.505
-575.733	41.668	0.124	-0.114
-574.719	202.236	-0.491	-0.765
-573.704	-200.000	-0.021	-0.809
-572.690	-111.233	-0.722	0.149
-571.675	-162.733	-0.417	-0.021
-570.661	-116.173	-0.788	-0.148
-569.646	145.354	-0.321	0.434
-568.631	-164.218	-0.933	0.043
-567.617	619.703	-0.407	-1.034
-566.602	-200.000	-0.135	0.763
-565.588	532.428	-0.136	0.325
-564.573	-66.360	0.905	0.363
-563.558	-89.076	0.341	-0.102
-562.544	-95.886	-0.947	0.255
-561.529	617.709	-0.069	-0.175
-560.515	5.437	-0.435	0.324
-559.500	-200.000	0.066	-0.312
-558.485	655.115	-0.354	-0.918
-557.471	-124.836	0.535	0.083
-556.456	-3.498	-0.625	-0.439
-555.442	-200.000	-0.010	0.195
-554.427	-200.000	-0.062	0.289
-553.412	265.224	0.168	-0.295
-552.398	-37.392	0.634	0.341
-551.383	-99.197	0.759	-0.194
-550.369	480.733	-0.046	-0.105
-549.354	139.071	0.144	-0.191
-548.339	136.046	-0.527	-0.694
-547.325	366.939	0.342	0.697
-546.310	64.623	0.278	0.283
-545.296	-40.855	0.342	0.178
-544.281	332.604	0.393	0.765
-543.266	-46.461	0.047	-0.023
-542.252	-200.000	0.080	-0.428
-541.237	800.000	0.015	-0.042
-540.223	-176.318	0.917	0.024
-539.208	59.811	0.130	-0.130
-538.193	81.883	-0.524	-0.573
-537.179	-126.216	-0.369	-0.056
-536.164	20.930	-0.552	0.451
-535.150	-30.227	-0.046	0.026
-534.135	-74.977	-0.287	-0.104
-533.121	-200.000	-0.056	0.729
-532.106	-200.000	-0.008	-0.103
-531.091	-200.000	0.021	0.893
-530.077	454.532	0.426	0.951
-529.062	19.447	0.673	0.545
-528.048	232.652	-0.140	-0.231
-527.033	-110.951	0.300	-0.062
-526.018	58.045	0.226	-0.224
-525.004	-129.645	0.674	-0.094
-523.989	354.853	0.114	0.229
-522.975	-141.635	-0.595	0.060
-521.960	-149.481	0.760	0.061
-520.945	235.730	0.371	-0.618
-519.931	-103.588	-0.233	-0.055
-518.916	109.708	-0.387	0.468
-517.902	434.219	-0.104	-0.228
-516.887	-200.000	-0.058	-0.492
-515.872	800.000	-0.093	-0.290
-514.858	-41.146	-0.565	-0.294
-513.843	194.382	0.414	0.633
-512.829	-135.671	-1.010	0.121
-511.814	-200.000	0.096	-0.508
-510.799	-131.052	0.770	0.104
-509.785	-200.000	-0.186	-0.927
-508.770	200.621	-0.488	0.756
-507.756	-76.764	-0.156	0.055
-506.741	-143.972	0.472	0.045
-505.726	-37.428	-0.717	0.386
-504.712	-104.844	0.463	-0.107
-503.697	108.942	-0.318	-0.383
-502.683	-35.505	0.305	0.167
-501.668	-133.720	-0.255	-0.032
-500.653	82.223	0.074	0.081
-499.639	-200.000	0.110	-0.980
-498.624	-107.800	0.777	-0.170
-497.610	215.284	0.320	0.511
-496.595	128.541	0.509	-0.652
-495.581	146.237	0.172	-0.233
-494.566	295.914	-0.219	-0.404
-493.551	-116.076	-0.944	-0.177
-492.537	183.221	-0.500	-0.744
-491.522	-200.000	0.074	-0.847
-490.508	130.861	0.454	-0.586
-489.493	707.219	0.152	-0.404
-488.478	348.254	0.031	0.062
-487.464	-34.529	-0.506	0.279
-486.449	222.904	-0.189	0.307
-485.435	-200.000	-0.093	-0.693
-484.420	-171.646	0.343	-0.011
-483.405	46.624	0.242	0.226
-482.391	-200.000	-0.051	1.091
-481.376	32.373	-0.418	-0.363
-480.362	-18.782	-0.584	0.366
-479.347	321.572	-0.181	0.346
-478.332	336.394	0.259	0.506
-477.318	5.789	0.751	0.559
-476.303	83.957	0.230	0.252
-475.289	-200.000	-0.076	0.420
-474.274	13.232	0.463	-0.361
-473.259	632.152	0.332	-0.847
-472.245	-200.000	0.115	-0.550
-471.230	-78.798	-0.202	-0.069
-470.216	-119.429	-0.605	0.106
-469.201	-5.948	0.263	0.181
-468.186	-81.244	-0.144	-0.048
-467.172	-48.726	-0.174	0.084
-466.157	16.774	-0.167	0.133
-465.143	-200.000	0.107	-0.564
-464.128	102.606	-0.489	-0.575
-463.113	11.828	-0.326	0.252
-462.099	-19.771	0.243	0.151
-461.084	800.000	-0.136	0.578
-460.070	84.553	-0.316	0.348
-459.055	-65.277	-0.455	0.184
-458.040	-108.024	-0.193	-0.042
-457.026	77.445	-0.098	0.104
-456.011	-200.000	-0.123	-1.083
-454.997	-60.279	0.622	0.267
-453.982	180.122	-0.534	0.788
-452.968	307.831	-0.213	-0.400
-451.953	245.668	-0.121	-0.204
-450.938	170.983	-0.079	-0.114
-449.924	118.242	0.562	-0.697
-448.909	-200.000	0.012	0.494
-447.895	185.121	-0.264	-0.394
-446.880	-164.651	-1.220	-0.055
-445.865	-200.000	0.024	-0.215
-444.851	-83.877	-0.306	0.098
-443.836	-193.692	-0.353	0.003
-442.822	-0.817	0.570	0.406
-441.807	800.000	0.179	0.524
-440.792	-113.400	0.260	-0.051
-439.778	-64.098	-0.295	0.121
-438.763	-87.890	0.424	0.128
-437.749	107.734	-0.420	0.503
-436.734	800.000	-0.190	-0.649
-435.719	-138.931	-0.618	-0.067
-434.705	99.200	-0.605	-0.703
-433.690	-133.174	0.906	0.115
-432.676	-200.000	-0.080	0.407
-431.661	-200.000	-0.037	0.392
-430.646	66.615	-0.460	-0.470
-429.632	-18.907	-0.303	-0.190
-428.617	-150.106	-0.859	-0.067
-427.603	737.653	-0.222	-0.597
-426.588	-16.775	-0.191	0.122
-425.573	41.070	0.641	-0.582
-424.559	-159.750	0.567	-0.031
-423.544	800.000	-0.062	-0.272
-422.530	-200.000	0.036	0.644
-421.515	-23.839	0.358	0.215
-420.500	-88.434	0.401	-0.120
-419.486	69.940	0.819	0.849
-418.471	-0.433	-0.327	-0.233
-417.457	-21.396	-0.482	-0.295
-416.442	-200.000	0.085	-0.525
-415.428	800.000	0.172	-0.541
-414.413	55.641	-0.439	-0.427
-413.398	-33.039	-0.209	-0.116
-412.384	800.000	0.256	-0.737
-411.369	800.000	0.189	-0.559
-410.355	-138.044	0.146	-0.016
-409.340	222.323	0.177	0.287
-408.325	272.365	0.295	0.522
-407.311	-69.122	0.263	-0.102
-406.296	-200.000	-0.033	0.331
-405.282	800.000	0.137	0.596
-404.267	-200.000	0.081	0.398
-403.252	-105.963	-0.205	-0.046
-402.238	-112.780	-0.847	-0.169
-401.223	-148.398	-0.787	-0.065
-400.209	554.502	-0.214	-0.516
-399.194	465.052	0.191	0.428
-398.179	-38.409	0.184	0.098
-397.165	457.482	0.212	-0.472
-396.150	-191.741	0.210	-0.002
-395.136	800.000	-0.171	0.497
-394.121	-20.992	-0.359	-0.221
-393.106	111.992	-0.355	-0.431
-392.092	-200.000	-0.007	-0.193
-391.077	-87.950	-0.573	0.173
-390.063	-61.731	-0.396	0.167
-389.048	-100.157	-0.303	-0.076
-388.033	168.552	0.157	-0.224
-387.019	70.108	-0.283	0.293
-386.004	-115.722	0.772	0.145
-384.990	-200.000	0.021	0.119
-383.975	800.000	0.200	0.656
-382.960	-200.000	-0.090	0.661
-381.946	140.516	-0.072	-0.096
-380.931	190.376	0.372	0.560
-379.917	35.413	-0.410	0.360
-378.902	-81.116	-0.280	0.093
-377.888	-106.873	-0.170	0.038
-376.873	-200.000	0.145	-0.879
-375.858	5.284	-0.561	-0.414
-374.844	-69.131	0.455	-0.175
-373.829	182.377	0.374	0.552
-372.815	-200.000	-0.029	0.602
-371.800	800.000	0.144	0.477
-370.785	-193.163	0.464	0.004
-369.771	-75.218	0.605	-0.216
-368.756	-82.818	-1.009	-0.327
-367.742	71.111	0.589	0.612
-366.727	-163.234	-0.834	0.040
-365.712	-47.965	-0.476	0.231
-364.698	246.481	-0.220	-0.372
-363.683	-8.147	-0.160	-0.108
-362.669	-200.000	0.131	-1.193
-361.654	-96.621	-0.592	-0.156
-360.639	442.342	0.182	-0.399
-359.625	53.473	-0.079	-0.076
-358.610	-37.978	-1.137	0.605
-357.596	-200.000	-0.023	0.551
-356.581	54.993	0.471	0.456
-355.566	-93.493	-0.989	0.274
-354.552	278.294	0.541	0.965
-353.537	-160.166	0.645	-0.035
-352.523	260.484	-0.146	0.254
-351.508	64.303	0.720	-0.726
-350.493	800.000	0.105	-0.326
-349.479	217.574	-0.464	0.741
-348.464	-109.777	-0.486	0.102
-347.450	12.143	0.289	-0.223
-346.435	-197.268	-0.714	-0.005
-345.420	239.498	-0.958	-1.596
-344.406	391.572	-0.228	-0.474
-343.391	169.709	-0.363	0.519
-342.377	73.994	0.272	-0.285
-341.362	112.333	0.260	-0.315
-340.348	1.178	0.509	-0.365
-339.333	-200.000	-0.096	0.587
-338.318	20.778	0.163	0.132
-337.304	-200.000	0.205	1.274
-336.289	-45.447	-0.322	-0.160
-335.275	-7.276	0.392	0.266
-334.260	800.000	-0.038	-0.155
-333.245	119.574	0.407	0.505
-332.231	800.000	0.266	-1.148
-331.216	-75.182	-0.690	-0.247
-330.202	167.514	0.281	0.399
-329.187	-200.000	0.111	-0.583
-328.172	-200.000	0.124	1.049
-327.158	800.000	0.257	-0.806
-326.143	24.801	-0.421	0.349
-325.129	2.685	-0.081	-0.059
-324.114	521.806	0.295	0.691
-323.099	800.000	0.190	-0.577
-322.085	3.830	-0.412	0.301
-321.070	-80.355	0.160	0.053
-320.056	133.664	0.128	-0.165
-319.041	51.214	0.414	0.393
-318.026	-106.381	-0.541	-0.121
-317.012	-200.000	-0.130	0.696
-315.997	-111.895	0.772	-0.156
-314.983	-48.886	-1.271	-0.609
-313.968	141.926	0.155	0.205
-312.953	-45.104	0.198	0.098
-311.939	-89.077	-0.281	0.083
-310.924	-200.000	0.030	-0.352
-309.910	800.000	-0.220	0.748
-308.895	-200.000	0.129	0.716
-307.880	63.779	-0.579	0.581
-306.866	-29.882	0.305	-0.174
-305.851	800.000	-0.047	-0.146
-304.837	-200.000	-0.067	0.670
-303.822	90.861	0.492	-0.551
-302.807	-29.691	-0.467	-0.267
-301.793	-53.808	0.203	-0.092
-300.778	800.000	-0.136	-0.527
-299.764	735.387	-0.097	0.260
-298.749	-117.972	-0.267	-0.048
-297.735	213.767	-0.555	0.877
-296.720	-200.000	0.063	0.356
-295.705	-125.296	0.315	-0.048
-294.691	25.302	-0.542	-0.450
-293.676	-51.597	-0.592	0.276
-292.662	312.792	-0.092	0.173
-291.647	-101.953	0.235	-0.057
-290.632	-50.983	0.053	-0.025
-289.618	-200.000	0.007	-0.280
-288.603	18.843	-0.460	-0.368
-287.589	-22.673	0.056	-0.034
-286.574	104.591	-0.539	0.634
-285.559	135.513	0.269	0.350
-284.545	-64.022	-0.142	0.058
-283.530	481.090	-0.143	-0.324
-282.516	-200.000	-0.052	0.677
-281.501	-200.000	-0.045	0.465
-280.486	-127.717	-0.426	-0.061
-279.472	522.045	-0.112	0.262
-278.457	43.626	-0.545	-0.498
-277.443	-135.722	0.120	0.014
-276.428	-20.812	0.180	0.110
-275.413	-82.756	0.281	-0.091
-274.399	158.303	0.670	0.928
-273.384	287.268	-0.363	-0.655
-272.370	67.615	0.362	-0.369
-271.355	30.093	-0.933	0.794
-270.340	-75.070	0.675	0.241
-269.326	-200.000	-0.069	0.568
-268.311	-200.000	0.032	-0.483
-267.297	46.135	-0.182	0.168
-266.282	-129.515	-1.039	0.144
-265.267	800.000	0.210	0.719
-264.253	-135.692	-0.471	-0.056
-263.238	396.323	0.277	0.576
-262.224	-89.361	-0.846	-0.249
-261.209	-200.000	0.009	0.955
-260.195	-102.622	0.607	0.145
-259.180	73.814	-0.497	-0.520
-258.165	5.418	0.748	-0.551
-257.151	-144.471	0.151	0.014
-256.136	-200.000	-0.132	0.777
-255.122	119.212	-0.184	-0.227
-254.107	-94.241	-0.497	-0.136
-253.092	104.902	-0.381	0.448
-252.078	-94.473	0.776	0.211
-251.063	800.000	-0.048	-0.134
-250.049	-19.368	0.371	-0.230
-249.034	-200.000	-0.009	-0.925
-248.019	336.758	-0.088	-0.170
-247.005	706.510	0.245	0.644
-245.990	269.875	0.395	0.692
-244.976	-200.000	0.063	0.349
-243.961	-200.000	0.038	-0.188
-242.946	-200.000	-0.182	-0.881
-241.932	800.000	0.155	0.449
-240.917	-18.782	0.841	0.523
-239.903	-134.676	0.179	0.022
-238.888	42.392	-0.298	0.270
-237.873	82.912	-0.193	-0.209
-236.859	-66.941	-0.106	0.042
-235.844	-200.000	-0.044	-0.709
-234.830	-106.816	0.383	-0.085
-233.815	23.112	-0.670	-0.549
-232.800	-30.097	-0.498	-0.282
-231.786	-200.000	0.043	0.616
-230.771	800.000	-0.178	0.690
-229.757	204.527	0.408	0.631
-228.742	-161.970	-0.310	-0.016
-227.727	-131.274	0.448	0.059
-226.713	-131.319	-0.769	0.102
-225.698	233.870	0.429	-0.703
-224.684	-14.503	0.274	-0.176
-223.669	800.000	0.245	0.944
-222.655	800.000	-0.183	-0.559
-221.640	122.659	0.778	-0.970
-220.625	176.892	0.419	0.607
-219.611	45.969	0.236	0.217
-218.596	351.780	-0.391	-0.771
-217.582	-50.477	0.465	-0.219
-216.567	234.587	-0.298	-0.489
-215.552	-11.529	0.579	-0.379
-214.538	-128.170	-0.491	-0.070
-213.523	-179.409	-0.588	0.013
-212.509	-200.000	-0.033	0.574
-211.494	-105.814	-0.687	0.155
-210.479	-47.152	0.185	-0.090
-209.465	-200.000	-0.015	-0.132
-208.450	456.034	-0.284	-0.628
-207.436	-200.000	-0.124	0.592
-206.421	-200.000	0.096	-1.014
-205.406	386.018	-0.237	0.487
-204.392	31.922	0.802	0.688
-203.377	404.605	0.086	0.180
-202.363	-200.000	0.065	-0.343
-201.348	-48.136	0.375	-0.180
-200.333	-58.493	0.380	0.164
-199.319	25.533	0.397	0.329
-198.304	510.936	-0.106	0.246
-197.290	-6.050	0.436	-0.297
-196.275	41.990	0.489	-0.442
-195.260	-156.412	-0.373	-0.023
-194.246	303.034	0.250	-0.461
-193.231	290.722	-0.068	0.123
-192.217	-46.203	0.703	-0.344
-191.202	-82.265	0.787	0.255
-190.187	-116.973	0.498	-0.091
-189.173	0.595	0.751	0.535
-188.158	-200.000	-0.015	-0.180
-187.144	-200.000	0.000	-0.158
-186.129	-106.588	0.321	0.071
-185.114	193.799	-0.127	0.191
-184.100	139.929	0.497	-0.652
-183.085	284.695	0.109	-0.196
-182.071	-200.000	-0.017	-0.105
-181.056	446.479	0.434	-0.949
-180.042	101.259	-0.215	0.249
-179.027	-200.000	0.014	0.121
-178.012	-200.000	-0.002	1.024
-176.998	467.535	-0.023	-0.052
-175.983	-128.675	-0.389	0.055
-174.969	-51.180	0.677	-0.315
-173.954	40.013	-0.164	-0.147
-172.939	-119.878	1.108	0.190
-171.925	-106.888	-0.534	-0.118
-170.910	226.192	0.219	-0.354
-169.896	-53.053	0.450	-0.206
-168.881	-112.917	-0.299	-0.059
-167.866	-200.000	-0.055	-0.434
-166.852	-186.998	0.749	-0.010
-165.837	-63.093	0.720	-0.295
-164.823	-200.000	0.043	-0.571
-163.808	-109.930	1.023	-0.213
-162.793	-78.070	-0.320	0.109
-161.779	-94.267	0.262	0.071
-160.764	800.000	0.220	0.616
-159.750	76.373	0.499	0.526
-158.735	-64.478	-0.116	-0.047
-157.720	57.731	-0.425	-0.413
-156.706	76.412	-0.183	0.193
-155.691	-40.947	-0.186	-0.095
-154.677	-200.000	0.013	-0.180
-153.662	205.690	-0.111	0.171
-152.647	109.470	0.346	0.412
-151.633	-56.074	-0.069	0.030
-150.618	211.951	-0.070	0.110
-149.604	-200.000	-0.182	-1.076
-148.589	-200.000	-0.016	-0.453
-147.574	7.510	-0.175	-0.130
-146.560	204.263	0.379	-0.584
-145.545	176.586	-0.360	-0.520
-144.531	13.943	-0.760	0.587
-143.516	351.273	0.210	0.412
-142.502	800.000	0.416	-1.177
-141.487	45.081	0.776	-0.710
-140.472	-69.826	-0.372	0.141
-139.458	89.555	-0.576	-0.639
-138.443	82.572	-0.289	0.312
-137.429	-200.000	0.026	-0.376
-136.414	28.667	-0.097	0.082
-135.399	-116.425	-0.993	0.182
-134.385	-200.000	-0.039	0.235
-133.370	319.922	0.247	-0.466
-132.356	86.285	0.611	0.668
-131.341	119.768	0.402	0.495
-130.326	63.329	0.062	-0.062
-129.312	800.000	-0.273	0.805
-128.297	629.545	-0.140	0.350
-127.283	-77.956	-0.782	-0.268
-126.268	800.000	0.096	-0.396
-125.253	310.145	0.274	0.508
-124.239	-200.000	0.156	0.738
-123.224	587.106	0.235	0.574
