DTS Sentinel unit serial number:	SN413079Multiplexer serial number:	ORYXHardware model number:	OX4-SRSoftware version number:	ORYX F/W v4.00 Oryx Data Collector v3.7.2.0data status	okinstallation	princeton_trtdifferential loss correction	single-endedforward channel	channel 4reverse channel	N/Adate	2019/09/16time	16:41:34forward acquisition time	60.00reverse acquisition time	0.00gamma	496.2192k internal	0.2293k external	0.2293temperature offset calibration	0.9938default loss term (dB/km)	0.3790temperature slope calibration	1.0000multiplexer offset coefficient	1.0000multiplexer slope coefficient	1.0000fibre end	0.00T internal ref (°C)	39.83T ext. ref 1 (°C)	15.16T ext. ref 2 (°C)	33.82length (m)	temperature (°C)	Stokes	anti-Stokes-747.200	200.335	-0.104	-0.164
-746.185	132.218	-0.119	0.157
-745.171	7.751	0.444	0.340
-744.156	800.000	0.126	0.506
-743.142	-200.000	-0.034	-0.168
-742.127	-69.720	-0.241	0.094
-741.112	-64.201	0.105	-0.044
-740.098	-200.000	0.225	-0.001
-739.083	-200.000	0.030	0.424
-738.069	-88.409	-0.343	0.105
-737.054	21.226	-0.249	0.207
-736.039	386.085	0.081	-0.170
-735.025	101.044	0.174	0.207
-734.010	800.000	-0.018	0.069
-732.996	-83.602	-0.047	-0.015
-731.981	-127.449	-0.136	-0.020
-730.966	378.449	-0.073	0.152
-729.952	-21.765	-0.318	0.198
-728.937	-200.000	0.006	-0.368
-727.923	198.478	0.210	-0.329
-726.908	-58.875	-0.289	0.128
-725.894	800.000	-0.044	0.138
-724.879	-83.150	-0.194	0.064
-723.864	-200.000	-0.012	-0.090
-722.850	549.202	-0.039	0.096
-721.835	-13.869	0.151	-0.100
-720.821	-50.869	0.188	0.090
-719.806	-102.357	0.171	-0.042
-718.791	-4.957	0.229	-0.162
-717.777	-200.000	-0.018	-0.132
-716.762	29.626	0.116	-0.101
-715.748	356.725	-0.089	-0.182
-714.733	77.801	0.232	0.253
-713.718	-3.096	-0.100	-0.071
-712.704	-200.000	0.005	0.061
-711.689	797.292	0.065	0.184
-710.675	-85.405	-0.305	0.097
-709.660	-66.969	0.201	-0.081
-708.645	613.345	-0.140	0.358
-707.631	800.000	-0.097	0.274
-706.616	155.506	-0.337	0.474
-705.602	-2.317	0.321	0.230
-704.587	-60.701	-0.298	0.129
-703.572	-200.000	-0.007	-0.108
-702.558	-69.026	0.146	0.058
-701.543	9.112	0.113	-0.087
-700.529	620.274	0.021	0.054
-699.514	209.185	0.054	-0.086
-698.499	-200.000	0.034	0.208
-697.485	31.289	-0.135	-0.118
-696.470	344.220	-0.061	0.122
-695.456	-83.461	0.312	0.102
-694.441	-60.635	-0.054	-0.024
-693.426	-200.000	-0.014	-0.283
-692.412	-200.000	-0.004	-0.088
-691.397	301.659	-0.097	0.183
-690.383	800.000	-0.029	-0.112
-689.368	10.988	-0.240	-0.187
-688.354	-72.975	-0.127	-0.048
-687.339	-98.081	0.105	-0.028
-686.324	397.296	0.196	-0.417
-685.310	-180.554	0.328	-0.007
-684.295	800.000	0.046	0.134
-683.281	354.051	0.062	-0.126
-682.266	371.175	-0.064	0.132
-681.251	37.035	-0.129	0.116
-680.237	202.483	0.066	-0.104
-679.222	-124.110	-0.405	0.065
-678.208	229.387	0.115	0.192
-677.193	-81.792	0.232	-0.078
-676.178	-121.934	-0.451	0.076
-675.164	112.157	-0.079	-0.097
-674.149	-46.131	-0.099	0.050
-673.135	800.000	0.046	-0.172
-672.120	20.326	-0.251	0.207
-671.105	123.086	0.244	0.312
-670.091	172.625	-0.105	0.154
-669.076	-84.137	-0.174	-0.056
-668.062	-153.194	0.270	-0.019
-667.047	396.194	-0.207	-0.440
-666.032	396.953	-0.106	-0.227
-665.018	-39.321	-0.140	-0.075
-664.003	-11.929	-0.006	0.004
-662.989	45.658	0.258	-0.243
-661.974	207.064	-0.090	-0.143
-660.959	119.368	0.086	-0.108
-659.945	-139.402	0.125	0.014
-658.930	-200.000	0.006	-0.349
-657.916	-62.101	0.239	0.102
-656.901	-116.767	0.364	0.068
-655.886	-17.739	0.106	-0.068
-654.872	258.730	-0.076	-0.133
-653.857	-109.445	-0.245	0.053
-652.843	-31.898	0.301	0.172
-651.828	-37.380	-0.039	0.021
-650.814	-200.000	0.023	-0.142
-649.799	-200.000	0.041	-0.191
-648.784	-117.529	-0.336	-0.062
-647.770	189.553	-0.085	-0.130
-646.755	-200.000	0.019	-0.297
-645.741	-200.000	0.040	-0.188
-644.726	-91.268	0.442	-0.129
-643.711	-53.759	0.268	-0.124
-642.697	133.759	0.060	-0.079
-641.682	304.866	-0.041	-0.078
-640.668	268.187	0.161	-0.287
-639.653	49.888	0.181	0.174
-638.638	-200.000	-0.022	-0.181
-637.624	304.590	0.037	0.069
-636.609	800.000	-0.086	-0.250
-635.595	-79.592	-0.066	-0.023
-634.580	-200.000	0.014	-0.217
-633.565	-31.331	0.204	-0.117
-632.551	351.393	-0.201	-0.405
-631.536	158.004	-0.062	0.088
-630.522	350.357	-0.132	-0.266
-629.507	-27.475	0.269	-0.159
-628.492	617.920	0.104	-0.266
-627.478	-125.166	-0.152	-0.024
-626.463	-57.186	-0.065	0.029
-625.449	-32.485	0.200	-0.113
-624.434	-200.000	-0.011	0.216
-623.419	-33.922	0.118	0.066
-622.405	-200.000	0.008	0.074
-621.390	134.375	-0.168	-0.221
-620.376	-86.464	-0.346	-0.108
-619.361	-39.667	-0.176	0.094
-618.346	-37.245	-0.167	0.091
-617.332	308.351	0.111	-0.211
-616.317	-200.000	-0.027	-0.172
-615.303	54.380	0.218	-0.214
-614.288	800.000	-0.085	0.292
-613.273	27.837	-0.027	0.023
-612.259	-38.443	0.122	-0.066
-611.244	-111.238	0.135	-0.028
-610.230	-36.313	0.359	0.197
-609.215	393.605	-0.023	0.048
-608.201	27.630	0.235	0.201
-607.186	-200.000	-0.006	0.075
-606.171	-157.042	-0.329	-0.020
-605.157	-200.000	0.044	-0.519
-604.142	47.383	0.164	-0.155
-603.128	800.000	-0.039	0.156
-602.113	222.520	0.084	-0.138
-601.098	-83.036	0.271	0.089
-600.084	372.812	-0.139	-0.286
-599.069	-179.844	-0.305	-0.007
-598.055	-74.374	-0.108	-0.040
-597.040	156.043	0.065	0.092
-596.025	109.324	-0.190	-0.231
-595.011	800.000	-0.060	0.220
-593.996	-200.000	-0.013	-0.146
-592.982	167.519	0.180	-0.260
-591.967	-28.810	-0.067	-0.039
-590.952	-200.000	-0.042	-0.250
-589.938	-13.753	-0.169	0.111
-588.923	338.824	-0.120	-0.237
-587.909	325.105	-0.134	-0.261
-586.894	127.723	0.239	-0.309
-585.879	71.320	0.131	0.138
-584.865	-124.442	-0.162	0.026
-583.850	40.297	0.255	0.233
-582.836	395.414	-0.005	0.011
-581.821	192.519	-0.116	-0.177
-580.806	-106.307	0.144	-0.033
-579.792	800.000	0.070	0.209
-578.777	22.973	0.334	-0.279
-577.763	800.000	-0.095	-0.271
-576.748	225.323	0.043	-0.070
-575.733	-200.000	0.023	0.188
-574.719	275.476	0.049	-0.088
-573.704	702.328	-0.085	-0.229
-572.690	800.000	0.038	0.167
-571.675	212.432	-0.248	-0.397
-570.661	800.000	-0.066	-0.187
-569.646	-68.140	-0.210	-0.083
-568.631	62.077	0.181	-0.183
-567.617	800.000	0.011	-0.043
-566.602	-162.697	-0.211	-0.011
-565.588	131.420	-0.119	0.156
-564.573	795.208	0.154	0.431
-563.558	800.000	0.052	0.191
-562.544	-135.329	-0.282	-0.034
-561.529	611.942	-0.035	-0.088
-560.515	-200.000	-0.034	-0.251
-559.500	140.944	-0.193	0.259
-558.485	-200.000	0.025	0.394
-557.471	800.000	0.054	-0.222
-556.456	737.448	0.090	0.246
-555.442	217.474	-0.043	0.069
-554.427	101.297	-0.123	-0.145
-553.412	-200.000	-0.044	-0.372
-552.398	358.597	0.031	-0.063
-551.383	-200.000	-0.009	-0.105
-550.369	182.861	-0.169	0.252
-549.354	-13.265	0.114	-0.075
-548.339	-200.000	0.070	-0.342
-547.325	-121.289	0.155	-0.026
-546.310	13.332	-0.298	0.235
-545.296	800.000	-0.019	0.074
-544.281	142.019	0.066	-0.089
-543.266	-131.979	0.192	-0.025
-542.252	-157.359	-0.116	-0.007
-541.237	-62.384	0.142	0.060
-540.223	-33.589	-0.501	0.280
-539.208	-200.000	-0.033	0.158
-538.193	-85.304	-0.135	-0.043
-537.179	-171.569	-0.232	-0.008
-536.164	-176.617	-0.268	0.007
-535.150	-142.946	-0.296	-0.029
-534.135	-83.440	0.371	-0.121
-533.121	-165.916	-0.268	-0.012
-532.106	800.000	-0.062	-0.209
-531.091	-128.442	0.167	0.024
-530.077	-200.000	-0.013	-0.105
-529.062	-140.269	0.439	0.047
-528.048	-200.000	0.022	0.233
-527.033	-38.779	-0.207	-0.111
-526.018	138.808	0.160	0.213
-525.004	-85.217	0.227	0.072
-523.989	-38.296	-0.195	-0.105
-522.975	27.685	0.286	-0.244
-521.960	623.025	-0.037	-0.094
-520.945	750.798	0.114	0.313
-519.931	-200.000	-0.022	0.106
-518.916	800.000	0.068	-0.270
-517.902	73.095	-0.248	0.263
-516.887	348.705	0.240	-0.480
-515.872	-119.416	-0.198	-0.035
-514.858	800.000	0.033	-0.095
-513.843	-81.873	-0.104	-0.035
-512.829	-20.792	0.068	-0.042
-511.814	325.982	0.037	0.072
-510.799	-193.815	0.146	0.001
-509.785	138.856	0.059	0.079
-508.770	-50.552	-0.177	-0.084
-507.756	-164.585	-0.364	-0.017
-506.741	-118.935	-0.207	0.037
-505.726	-94.762	0.322	0.089
-504.712	-98.198	0.180	0.047
-503.697	232.830	-0.109	-0.182
-502.683	743.439	0.084	0.228
-501.668	800.000	0.090	0.349
-500.653	324.414	0.125	-0.242
-499.639	-200.000	0.011	0.061
-498.624	78.400	-0.203	0.220
-497.610	-56.421	0.074	0.033
-496.595	-99.938	0.077	-0.020
-495.581	39.818	-0.082	0.074
-494.566	241.129	-0.072	-0.121
-493.551	11.587	0.107	-0.083
-492.537	417.166	0.171	-0.369
-491.522	-97.291	-0.234	-0.062
-490.508	800.000	-0.160	0.457
-489.493	-150.125	0.266	-0.021
-488.478	800.000	-0.098	-0.410
-487.464	168.607	-0.229	0.330
-486.449	-82.565	0.148	0.049
-485.435	71.152	-0.060	0.063
-484.420	-200.000	-0.008	0.313
-483.405	52.997	-0.115	-0.111
-482.391	-200.000	0.034	0.161
-481.376	195.308	-0.125	0.192
-480.362	-49.517	-0.084	0.041
-479.347	35.935	0.092	-0.082
-478.332	-5.887	-0.258	0.179
-477.318	12.313	-0.172	0.134
-476.303	-105.105	0.401	0.093
-475.289	-200.000	-0.072	-0.332
-474.274	62.686	-0.219	-0.221
-473.259	63.907	0.263	-0.268
-472.245	82.205	0.195	0.214
-471.230	800.000	-0.029	0.093
-470.216	-34.341	0.208	0.115
-469.201	-80.422	-0.109	-0.037
-468.186	-200.000	-0.020	-0.169
-467.172	317.865	0.021	-0.040
-466.157	800.000	0.094	0.269
-465.143	40.555	-0.065	0.059
-464.128	-6.699	0.177	-0.122
-463.113	-103.735	-0.460	0.109
-462.099	-71.042	0.200	0.076
-461.084	-200.000	0.003	0.169
-460.070	196.685	0.088	0.136
-459.055	452.494	0.109	-0.244
-458.040	277.586	-0.059	-0.106
-457.026	-122.069	0.063	0.010
-456.011	-78.772	-0.141	0.049
-454.997	17.445	-0.149	0.119
-453.982	-166.729	-0.052	-0.002
-452.968	-110.839	-0.152	-0.032
-451.953	29.055	0.067	-0.058
-450.938	-102.220	0.416	0.101
-449.924	-83.899	0.045	-0.014
-448.909	35.530	0.237	-0.210
-447.895	-200.000	-0.004	-0.140
-446.880	103.910	0.130	0.155
-445.865	88.164	0.067	0.075
-444.851	-58.477	0.053	0.023
-443.836	-118.904	-0.198	-0.035
-442.822	-200.000	-0.004	0.140
-441.807	-116.764	-0.253	-0.047
-440.792	319.582	0.180	-0.345
-439.778	236.163	-0.116	0.194
-438.763	163.756	0.130	-0.185
-437.749	345.366	0.152	0.301
-436.734	89.877	0.099	0.112
-435.719	-56.004	-0.273	-0.123
-434.705	-109.077	0.108	0.023
-433.690	800.000	0.057	0.207
-432.676	-71.002	-0.184	-0.070
-431.661	310.846	-0.096	-0.181
-430.646	-120.211	0.314	-0.054
-429.632	-152.627	0.155	-0.011
-428.617	150.956	0.011	0.015
-427.603	-200.000	-0.022	0.165
-426.588	-200.000	0.012	-0.154
-425.573	-94.826	-0.058	-0.016
-424.559	-114.554	0.073	-0.014
-423.544	66.690	0.280	-0.288
-422.530	-35.326	0.209	0.115
-421.515	132.791	0.126	-0.164
-420.500	156.010	0.190	-0.265
-419.486	800.000	-0.007	-0.025
-418.471	-200.000	0.036	0.213
-417.457	-7.331	0.197	0.135
-416.442	-40.099	0.125	0.066
-415.428	107.818	-0.082	-0.098
-414.413	275.415	0.065	-0.117
-413.398	309.927	0.140	0.265
-412.384	-200.000	0.007	0.316
-411.369	-69.861	-0.257	0.099
-410.355	800.000	-0.100	-0.395
-409.340	505.936	0.066	-0.156
-408.325	740.668	0.111	-0.301
-407.311	-26.080	0.519	0.308
-406.296	-200.000	0.060	-0.322
-405.282	215.187	0.127	-0.204
-404.267	-200.000	-0.028	-0.143
-403.252	-116.990	-0.174	0.032
-402.238	182.674	0.174	0.260
-401.223	800.000	-0.039	0.163
-400.209	-11.137	0.051	-0.034
-399.194	-188.150	0.248	-0.003
-398.179	152.066	0.077	0.106
-397.165	3.356	0.262	-0.193
-396.150	60.002	-0.102	-0.102
-395.136	198.408	0.090	-0.138
-394.121	66.533	-0.195	0.200
-393.106	-3.760	-0.335	0.235
-392.092	800.000	-0.060	-0.208
-391.077	174.143	0.076	-0.111
-390.063	202.318	-0.175	-0.272
-389.048	204.891	0.200	-0.314
-388.033	-200.000	-0.025	0.114
-387.019	40.479	0.059	-0.054
-386.004	-200.000	0.011	-0.204
-384.990	638.731	-0.032	-0.082
-383.975	3.335	-0.135	0.099
-382.960	-62.861	0.191	0.080
-381.946	112.455	-0.180	-0.219
-380.931	-128.328	0.102	0.015
-379.917	-144.364	0.068	-0.006
-378.902	-44.258	-0.200	0.101
-377.888	27.476	-0.147	0.125
-376.873	190.076	-0.154	0.233
-375.858	-200.000	0.033	0.161
-374.844	506.195	0.028	0.065
-373.829	-109.331	0.065	-0.014
-372.815	220.960	-0.106	-0.172
-371.800	79.149	-0.121	0.130
-370.785	800.000	-0.020	-0.066
-369.771	-35.582	0.063	-0.034
-368.756	743.770	0.013	-0.035
-367.742	45.371	-0.123	0.114
-366.727	354.430	0.104	0.209
-365.712	-200.000	0.039	0.421
-364.698	-161.709	-0.088	-0.005
-363.683	-200.000	0.000	-0.366
-362.669	-74.810	0.242	0.087
-361.654	800.000	0.063	-0.238
-360.639	-200.000	-0.005	-0.071
-359.625	623.318	0.029	-0.073
-358.610	-200.000	-0.055	-0.244
-357.596	203.147	-0.256	-0.399
-356.581	-4.200	0.367	-0.256
-355.566	-48.609	-0.156	-0.076
-354.552	-171.194	0.155	0.005
-353.537	262.150	-0.220	0.384
-352.523	257.247	0.177	-0.307
-351.508	19.428	0.291	-0.236
-350.493	111.703	0.061	0.074
-349.479	420.949	-0.094	0.203
-348.464	-97.611	-0.206	-0.054
-347.450	-92.603	0.219	0.062
-346.435	-39.084	-0.238	-0.126
-345.420	-158.149	0.058	0.003
-344.406	-47.119	0.135	-0.066
-343.391	94.536	-0.192	0.220
-342.377	-192.056	-0.327	0.003
-341.362	-86.784	-0.087	0.027
-340.348	760.478	-0.060	-0.165
-339.333	167.127	-0.134	-0.192
-338.318	-200.000	0.025	0.281
-337.304	-122.739	-0.108	0.018
-336.289	338.346	0.117	0.228
-335.275	-200.000	0.089	0.403
-334.260	-134.712	-0.079	-0.010
-333.245	173.138	0.234	0.339
-332.231	-127.531	-0.125	0.018
-331.216	-200.000	-0.042	-0.247
-330.202	-107.014	0.218	0.048
-329.187	-135.262	-0.177	-0.021
-328.172	-133.836	0.118	0.015
-327.158	4.519	0.108	0.080
-326.143	15.593	0.229	0.181
-325.129	498.257	-0.081	-0.187
-324.114	800.000	0.113	0.395
-323.099	292.094	0.025	0.045
-322.085	166.262	-0.264	-0.376
-321.070	431.569	0.081	-0.178
-320.056	800.000	0.069	0.220
-319.041	-4.881	-0.215	-0.149
-318.026	-136.926	-0.214	0.025
-317.012	-36.304	0.269	-0.146
-315.997	6.029	-0.325	0.242
-314.983	-85.096	-0.115	0.036
-313.968	106.778	0.115	0.137
-312.953	259.836	-0.175	-0.305
-311.939	32.061	-0.102	0.088
-310.924	-175.150	-0.170	-0.005
-309.910	305.897	-0.150	0.281
-308.895	-181.075	0.427	-0.009
-307.880	-200.000	0.021	0.218
-306.866	77.212	-0.248	0.265
-305.851	-200.000	0.025	0.161
-304.837	-150.274	0.231	0.018
-303.822	-200.000	-0.029	0.438
-302.807	-125.642	-0.412	-0.063
-301.793	12.270	0.035	0.027
-300.778	61.468	0.057	-0.057
-299.764	205.012	-0.073	-0.114
-298.749	421.454	0.169	0.365
-297.735	-123.222	0.156	-0.025
-296.720	-171.168	0.008	-0.000
-295.705	-200.000	0.023	-0.439
-294.691	70.130	-0.169	-0.175
-293.676	-200.000	-0.007	0.254
-292.662	-200.000	-0.093	0.450
-291.647	-42.745	-0.184	-0.094
-290.632	355.577	-0.066	-0.132
-289.618	388.555	-0.125	0.261
-288.603	236.207	-0.066	-0.109
-287.589	-172.875	-0.212	-0.007
-286.574	-102.309	0.127	-0.031
-285.559	-200.000	-0.017	-0.142
-284.545	4.589	0.107	-0.079
-283.530	11.332	-0.132	-0.102
-282.516	-79.024	-0.283	0.097
-281.501	179.356	-0.215	-0.316
-280.486	130.849	-0.185	0.238
-279.472	10.532	0.237	-0.182
-278.457	-200.000	0.040	0.240
-277.443	-164.394	0.127	0.006
-276.428	-136.922	0.105	-0.012
-275.413	199.995	-0.220	0.340
-274.399	-23.779	0.173	0.104
-273.384	166.237	0.187	0.266
-272.370	-200.000	0.013	0.377
-271.355	29.042	-0.117	-0.100
-270.340	-200.000	0.001	-0.116
-269.326	-19.555	0.143	-0.089
-268.311	-200.000	0.007	0.167
-267.297	-187.556	0.318	-0.004
-266.282	-200.000	-0.003	0.374
-265.267	-33.476	-0.115	-0.064
-264.253	-116.097	0.220	0.041
-263.238	-81.593	-0.213	-0.070
-262.224	-200.000	-0.012	0.064
-261.209	-53.550	0.250	-0.115
-260.195	-119.473	-0.015	0.003
-259.180	64.845	0.434	0.440
-258.165	-128.778	-0.154	-0.022
-257.151	-147.857	-0.272	0.023
-256.136	126.574	0.077	0.098
-255.122	-108.978	-0.180	-0.039
-254.107	-200.000	0.040	0.413
-253.092	548.656	-0.069	0.166
-252.078	101.251	0.105	-0.123
-251.063	-200.000	-0.001	0.174
-250.049	-200.000	0.151	0.000
-249.034	-164.948	-0.081	-0.004
-248.019	271.266	0.136	-0.240
-247.005	-200.000	0.018	0.185
-245.990	41.028	0.046	-0.042
-244.976	-200.000	-0.066	0.339
-243.961	-200.000	0.017	0.158
-242.946	-200.000	0.090	-0.000
-241.932	8.248	0.138	0.104
-240.917	568.014	0.097	0.235
-239.903	-129.317	-0.104	-0.015
-238.888	-5.869	-0.254	0.174
-237.873	51.060	-0.042	0.040
-236.859	-132.689	-0.359	-0.046
-235.844	-74.267	0.331	-0.120
-234.830	-142.299	-0.185	0.018
-233.815	-61.440	-0.020	0.008
-232.800	-99.642	-0.172	-0.043
-231.786	-85.720	0.249	0.078
-230.771	-142.518	-0.362	0.036
-229.757	187.036	-0.076	0.113
-228.742	192.927	-0.122	0.185
-227.727	54.781	-0.385	0.372
-226.713	221.845	0.147	0.238
-225.698	407.616	-0.080	-0.169
-224.684	800.000	-0.131	-0.364
-223.669	-140.970	-0.199	-0.020
-222.655	124.497	0.092	0.116
-221.640	-167.108	-0.244	0.010
-220.625	-58.879	0.242	0.105
-219.611	12.177	0.120	0.093
-218.596	195.073	-0.149	0.227
-217.582	800.000	-0.031	0.088
-216.567	-73.230	-0.153	-0.056
-215.552	271.480	0.107	0.190
-214.538	-19.211	-0.088	0.055
-213.523	-118.704	-0.234	-0.041
-212.509	120.263	-0.080	-0.099
-211.494	-132.439	-0.088	-0.011
-210.479	-43.421	0.199	0.101
-209.465	-45.034	0.243	0.121
-208.450	1.640	0.033	0.024
-207.436	-68.591	-0.063	0.025
-206.421	-147.355	-0.153	0.013
-205.406	-86.619	0.348	0.107
-204.392	356.885	0.038	0.075
-203.377	-11.024	0.208	-0.138
-202.363	-35.478	-0.120	0.065
-201.348	264.965	0.119	-0.208
-200.333	-200.000	-0.010	0.048
-199.319	-23.587	0.607	0.365
-198.304	196.702	0.131	-0.199
-197.290	38.491	-0.135	0.121
-196.275	573.300	0.101	-0.247
-195.260	2.765	-0.277	-0.201
-194.246	-84.503	-0.509	-0.161
-193.231	-58.457	0.136	0.059
-192.217	208.343	0.079	0.124
-191.202	-165.510	-0.170	-0.007
-190.187	151.135	-0.117	-0.159
-189.173	202.875	-0.172	-0.267
-188.158	-26.389	-0.155	0.091
-187.144	-200.000	0.004	0.019
-186.129	-87.398	-0.156	-0.047
-185.114	-200.000	0.011	0.080
-184.100	-48.259	-0.142	0.068
-183.085	-148.613	0.169	0.014
-182.071	-142.695	0.430	-0.042
-181.056	212.394	0.127	-0.200
-180.042	-105.777	-0.071	-0.016
-179.027	437.708	-0.037	-0.080
-178.012	340.057	0.042	-0.082
-176.998	-40.114	0.178	0.093
-175.983	115.454	0.086	-0.105
-174.969	-70.501	-0.175	-0.066
-173.954	-58.175	-0.214	0.093
-172.939	388.841	-0.033	-0.069
-171.925	-200.000	0.063	0.323
-170.910	-127.012	-0.295	0.043
-169.896	4.575	-0.165	0.121
-168.881	789.148	0.135	-0.370
-167.866	800.000	-0.038	-0.132
-166.852	90.060	-0.154	0.172
-165.837	63.334	0.392	0.393
-164.823	-172.602	-0.259	0.008
-163.808	73.494	0.105	0.110
-162.793	-64.857	0.200	-0.081
-161.779	241.835	0.153	-0.255
-160.764	48.732	-0.176	0.165
-159.750	-113.278	0.245	0.048
-158.735	-80.281	0.209	0.070
-157.720	-60.965	0.181	0.077
-156.706	800.000	0.028	-0.091
-155.691	34.961	0.197	-0.172
-154.677	-13.959	-0.275	0.178
-153.662	-182.309	0.124	-0.002
-152.647	361.518	-0.080	0.160
-151.633	60.856	-0.161	0.159
-150.618	-150.585	0.245	0.019
-149.604	-200.000	0.022	-0.113
-148.589	12.477	-0.082	-0.063
-147.574	-174.425	-0.354	-0.010
-146.560	-56.125	-0.329	-0.146
-145.545	393.707	0.033	0.069
-144.531	746.956	0.032	0.085
-143.516	800.000	0.017	0.070
-142.502	-25.363	-0.172	0.102
-141.487	-200.000	-0.011	0.424
-140.472	800.000	-0.058	0.182
-139.458	-143.685	0.366	-0.035
-138.443	800.000	0.100	-0.349
-137.429	800.000	0.085	0.248
-136.414	800.000	-0.063	-0.176
-135.399	-200.000	0.034	0.333
-134.385	45.987	0.157	0.145
-133.370	-200.000	0.020	-0.100
-132.356	13.007	-0.355	-0.274
-131.341	-150.716	0.325	0.025
-130.326	-124.745	0.261	0.040
-129.312	294.081	0.099	-0.181
-128.297	-133.763	0.146	0.018
-127.283	800.000	0.060	-0.250
-126.268	-29.687	0.022	0.013
-125.253	-200.000	0.001	-0.025
-124.239	26.583	-0.223	-0.186
-123.224	-29.639	-0.244	0.139
-122.210	-103.046	0.120	-0.028
