DTS Sentinel unit serial number:	SN413079Multiplexer serial number:	ORYXHardware model number:	OX4-SRSoftware version number:	ORYX F/W v4.00 Oryx Data Collector v3.7.2.0data status	okinstallation	princeton_trtdifferential loss correction	single-endedforward channel	channel 4reverse channel	N/Adate	2019/09/16time	07:13:34forward acquisition time	60.00reverse acquisition time	0.00gamma	496.2192k internal	0.2320k external	0.2320temperature offset calibration	0.9982default loss term (dB/km)	0.3790temperature slope calibration	1.0000multiplexer offset coefficient	1.0000multiplexer slope coefficient	1.0000fibre end	0.00T internal ref (°C)	27.37T ext. ref 1 (°C)	11.55T ext. ref 2 (°C)	22.13length (m)	temperature (°C)	Stokes	anti-Stokes-747.200	-6.258	0.402	-0.278
-746.185	51.962	-0.249	0.240
-745.171	-45.173	-0.106	-0.053
-744.156	23.867	-0.267	-0.222
-743.142	-8.475	0.286	-0.195
-742.127	-200.000	0.005	0.255
-741.112	367.593	0.187	0.382
-740.098	-200.000	0.023	-0.146
-739.083	94.898	0.271	0.312
-738.069	-97.466	-0.249	-0.066
-737.054	570.895	0.056	-0.137
-736.039	-26.281	-0.290	0.172
-735.025	395.529	0.127	0.268
-734.010	-18.405	-0.380	0.240
-732.996	120.444	0.194	-0.244
-731.981	-22.650	-0.256	0.156
-730.966	-68.844	0.047	-0.018
-729.952	15.257	-0.252	-0.200
-728.937	49.782	-0.310	-0.295
-727.923	-26.889	0.072	0.043
-726.908	74.518	-0.118	-0.125
-725.894	-136.408	0.094	-0.011
-724.879	75.272	-0.243	0.259
-723.864	197.662	0.081	0.126
-722.850	800.000	-0.022	0.074
-721.835	800.000	0.124	0.401
-720.821	-154.011	-0.205	0.014
-719.806	0.662	-0.161	-0.116
-718.791	65.259	0.112	0.114
-717.777	248.409	-0.071	-0.121
-716.762	-187.541	-0.264	-0.004
-715.748	-27.340	-0.197	-0.116
-714.733	800.000	-0.099	0.294
-713.718	49.450	0.216	-0.205
-712.704	-81.965	-0.273	-0.090
-711.689	-200.000	-0.268	-0.001
-710.675	54.044	0.251	0.243
-709.660	188.292	0.134	0.202
-708.645	318.935	-0.057	0.109
-707.631	146.424	-0.044	-0.060
-706.616	800.000	0.059	-0.197
-705.602	267.115	0.186	0.329
-704.587	-35.634	-0.255	-0.139
-703.572	-104.393	0.296	0.069
-702.558	116.577	0.180	-0.223
-701.543	-71.516	0.127	0.048
-700.529	-77.562	-0.141	0.049
-699.514	9.015	-0.048	0.037
-698.499	-200.000	-0.016	0.245
-697.485	800.000	0.043	-0.142
-696.470	60.915	0.222	-0.222
-695.456	167.178	0.049	-0.070
-694.441	-200.000	-0.008	-0.342
-693.426	-21.180	0.089	0.055
-692.412	86.580	0.012	-0.013
-691.397	-111.734	-0.139	0.028
-690.383	37.199	-0.155	-0.139
-689.368	800.000	-0.081	-0.280
-688.354	-129.306	-0.170	-0.024
-687.339	44.142	-0.190	-0.175
-686.324	259.307	-0.119	-0.208
-685.310	28.838	-0.265	-0.226
-684.295	-200.000	0.011	0.324
-683.281	540.335	-0.063	0.151
-682.266	52.978	-0.184	0.177
-681.251	-76.177	-0.268	0.095
-680.237	-132.895	0.169	0.022
-679.222	-194.329	0.224	-0.002
-678.208	172.812	-0.102	-0.149
-677.193	-103.304	-0.470	-0.112
-676.178	-66.732	0.450	0.180
-675.164	-57.016	0.104	-0.046
-674.149	39.631	-0.276	-0.250
-673.135	9.587	-0.104	-0.079
-672.120	225.276	-0.089	-0.145
-671.105	-200.000	0.011	0.131
-670.091	-90.238	0.245	0.072
-669.076	800.000	0.046	0.195
-668.062	-200.000	-0.184	-0.001
-667.047	800.000	0.084	-0.295
-666.032	50.329	-0.123	-0.117
-665.018	-200.000	0.010	0.125
-664.003	-100.808	0.124	-0.031
-662.989	49.911	0.104	0.099
-661.974	-124.107	-0.424	-0.067
-660.959	-35.242	-0.070	-0.038
-659.945	-200.000	-0.006	-0.056
-658.930	-144.505	-0.157	0.015
-657.916	-30.876	0.192	-0.109
-656.901	110.478	-0.234	-0.283
-655.886	251.162	-0.102	-0.174
-654.872	66.854	-0.097	0.099
-653.857	63.260	0.062	0.062
-652.843	-58.184	0.151	-0.066
-651.828	98.288	0.090	-0.105
-650.814	48.339	-0.170	0.160
-649.799	-111.839	0.199	-0.041
-648.784	-91.674	-0.165	0.047
-647.770	40.549	-0.144	0.131
-646.755	-104.565	0.142	-0.033
-645.741	-200.000	-0.003	0.187
-644.726	-200.000	0.050	0.506
-643.711	-200.000	0.023	0.294
-642.697	14.690	0.203	0.160
-641.682	-200.000	0.007	-0.216
-640.668	-66.259	-0.401	0.161
-639.653	21.202	0.325	-0.266
-638.638	-75.249	-0.547	0.197
-637.624	-200.000	-0.018	-0.154
-636.609	7.370	-0.439	-0.330
-635.595	178.611	0.050	0.073
-634.580	-38.909	0.205	-0.109
-633.565	800.000	-0.080	0.243
-632.551	800.000	0.058	-0.162
-631.536	50.702	0.133	-0.126
-630.522	-125.831	0.286	-0.043
-629.507	-122.108	0.085	-0.014
-628.492	-200.000	0.018	-0.141
-627.478	-58.741	0.075	0.033
-626.463	4.885	-0.188	0.139
-625.449	225.721	-0.174	-0.283
-624.434	84.790	0.344	-0.379
-623.419	-200.000	-0.021	-0.211
-622.405	355.950	0.233	0.467
-621.390	140.075	0.097	0.128
-620.376	-128.364	0.515	0.074
-619.361	137.990	0.109	-0.143
-618.346	-176.762	-0.031	-0.001
-617.332	-200.000	0.009	0.100
-616.317	-101.175	-0.164	0.040
-615.303	16.930	-0.132	-0.105
-614.288	-58.359	0.180	0.079
-613.273	-88.370	0.283	-0.085
-612.259	47.305	-0.333	-0.312
-611.244	-114.370	-0.162	0.031
-610.230	-48.646	-0.299	-0.145
-609.215	-200.000	0.007	0.133
-608.201	-143.844	-0.043	-0.004
-607.186	203.261	0.074	-0.115
-606.171	-200.000	-0.011	0.127
-605.157	-79.031	0.105	0.036
-604.142	-161.396	0.204	0.011
-603.128	49.341	0.110	-0.104
-602.113	-54.803	-0.055	0.025
-601.098	-121.479	-0.256	-0.043
-600.084	-200.000	0.061	0.350
-599.069	-200.000	0.006	0.041
-598.055	-40.670	0.255	0.133
-597.040	-112.976	-0.383	0.076
-596.025	93.322	0.286	-0.325
-595.011	-71.955	0.078	-0.029
-593.996	-118.308	0.235	-0.042
-592.982	-45.778	-0.316	0.157
-591.967	3.134	-0.368	-0.269
-590.952	65.267	-0.079	-0.080
-589.938	-200.000	-0.006	-0.056
-588.923	-200.000	0.002	0.091
-587.909	-67.901	-0.174	-0.068
-586.894	23.750	-0.141	0.117
-585.879	-200.000	-0.019	-0.107
-584.865	-118.945	0.220	0.039
-583.850	-106.504	-0.181	-0.041
-582.836	69.695	-0.042	0.043
-581.821	-200.000	-0.005	0.247
-580.806	-1.609	0.147	-0.104
-579.792	-3.152	0.269	0.189
-578.777	-60.905	0.158	0.067
-577.763	-74.120	0.090	0.033
-576.748	-200.000	-0.054	0.272
-575.733	231.322	0.042	0.069
-574.719	242.395	0.104	-0.174
-573.704	-30.754	-0.230	-0.131
-572.690	-200.000	0.028	-0.220
-571.675	-200.000	-0.031	-0.390
-570.661	-128.333	-0.305	0.044
-569.646	265.137	0.042	0.073
-568.631	496.259	-0.124	-0.287
-567.617	-3.104	-0.107	-0.075
-566.602	-200.000	0.016	-0.312
-565.588	-48.783	-0.033	-0.016
-564.573	800.000	-0.055	-0.194
-563.558	-200.000	-0.006	-0.088
-562.544	317.605	-0.251	-0.477
-561.529	72.082	0.231	0.242
-560.515	126.904	-0.267	0.340
-559.500	-164.061	0.276	0.013
-558.485	800.000	-0.083	0.237
-557.471	-136.515	-0.266	-0.031
-556.456	-103.090	0.107	0.026
-555.442	-88.432	-0.211	-0.063
-554.427	-200.000	-0.006	-0.044
-553.412	19.288	0.046	0.037
-552.398	-100.140	-0.355	0.089
-551.383	714.839	0.069	-0.182
-550.369	-200.000	0.368	-0.002
-549.354	-78.788	0.158	0.054
-548.339	188.617	-0.101	0.152
-547.325	44.180	-0.021	0.019
-546.310	-200.000	0.045	0.287
-545.296	-200.000	-0.077	-0.430
-544.281	-45.489	-0.181	0.090
-543.266	244.241	0.153	-0.259
-542.252	-120.603	-0.100	0.017
-541.237	-43.838	0.330	0.166
-540.223	-67.868	-0.379	0.148
-539.208	-95.247	-0.352	-0.095
-538.193	-200.000	-0.008	0.079
-537.179	70.706	0.040	0.042
-536.164	-200.000	-0.018	0.114
-535.150	0.126	0.170	0.121
-534.135	-200.000	0.007	-0.091
-533.121	-129.036	-0.224	-0.031
-532.106	729.681	0.068	0.183
-531.091	406.490	0.118	0.249
-530.077	165.267	-0.180	-0.254
-529.062	-146.185	-0.300	-0.026
-528.048	-61.444	-0.054	0.023
-527.033	120.118	-0.104	0.129
-526.018	-200.000	0.006	-0.321
-525.004	169.583	0.132	0.189
-523.989	-129.530	0.099	0.014
-522.975	521.062	-0.102	-0.240
-521.960	190.497	-0.087	-0.132
-520.945	152.492	0.088	-0.121
-519.931	-17.370	0.226	0.143
-518.916	573.924	-0.200	-0.489
-517.902	53.326	0.241	-0.231
-516.887	-48.408	-0.301	-0.145
-515.872	-200.000	-0.003	0.176
-514.858	800.000	-0.036	-0.103
-513.843	-105.820	0.238	0.054
-512.829	-46.845	-0.360	-0.176
-511.814	244.289	-0.111	0.187
-510.799	304.569	0.130	-0.243
-509.785	-101.193	0.244	0.060
-508.770	168.252	0.247	0.352
-507.756	28.416	0.274	-0.232
-506.741	-200.000	-0.055	-0.272
-505.726	475.854	-0.021	-0.048
-504.712	-200.000	0.015	0.412
-503.697	-37.882	-0.265	-0.141
-502.683	163.184	0.099	-0.139
-501.668	365.137	0.089	0.180
-500.653	-30.042	-0.221	-0.126
-499.639	-91.740	0.213	0.061
-498.624	230.878	0.114	-0.188
-497.610	380.016	-0.103	-0.211
-496.595	345.965	-0.067	-0.132
-495.581	197.127	0.130	0.199
-494.566	-50.053	-0.079	-0.037
-493.551	-11.536	0.108	-0.071
-492.537	-184.165	-0.155	-0.003
-491.522	-85.759	-0.373	0.116
-490.508	-26.384	-0.043	-0.025
-489.493	-200.000	0.005	-0.044
-488.478	800.000	-0.042	-0.169
-487.464	-200.000	-0.017	0.088
-486.449	800.000	-0.027	-0.083
-485.435	483.604	0.046	0.105
-484.420	-93.146	-0.136	-0.038
-483.405	-134.830	-0.139	0.017
-482.391	-107.303	0.487	-0.107
-481.376	-200.000	-0.059	-0.275
-480.362	-132.687	0.094	0.012
-479.347	257.515	0.071	0.122
-478.332	429.589	-0.127	-0.275
-477.318	-61.434	-0.070	0.030
-476.303	-200.000	0.028	0.275
-475.289	15.969	-0.089	-0.070
-474.274	-95.521	-0.432	-0.116
-473.259	-81.186	-0.265	0.088
-472.245	-62.402	0.329	0.137
-471.230	163.988	0.092	-0.129
-470.216	-200.000	-0.022	0.157
-469.201	541.562	0.063	-0.150
-468.186	240.136	0.058	-0.097
-467.172	-196.243	-0.709	0.005
-466.157	-33.799	-0.281	0.155
-465.143	-200.000	-0.049	0.274
-464.128	-200.000	-0.026	0.528
-463.113	-200.000	0.009	-0.135
-462.099	-200.000	0.268	0.001
-461.084	367.890	-0.026	-0.053
-460.070	-119.551	-0.182	0.032
-459.055	-200.000	-0.061	-0.327
-458.040	-61.118	0.417	-0.176
-457.026	377.601	0.126	-0.257
-456.011	38.340	-0.243	-0.217
-454.997	-200.000	-0.034	0.285
-453.982	254.996	0.090	-0.154
-452.968	147.191	-0.136	-0.183
-451.953	322.107	0.108	-0.205
-450.938	98.318	-0.094	-0.108
-449.924	-200.000	-0.021	-0.232
-448.909	-6.408	-0.079	0.054
-447.895	143.489	-0.129	0.172
-446.880	103.249	-0.102	-0.119
-445.865	-62.340	0.129	0.054
-444.851	77.627	0.171	0.182
-443.836	-200.000	-0.007	0.227
-442.822	-8.703	-0.183	-0.123
-441.807	-98.176	0.054	-0.014
-440.792	202.341	-0.145	-0.224
-439.778	800.000	0.102	-0.319
-438.763	328.421	-0.012	-0.022
-437.749	-200.000	-0.030	0.249
-436.734	-200.000	0.072	0.356
-435.719	51.553	-0.300	0.285
-434.705	193.637	-0.157	-0.237
-433.690	-167.596	0.188	-0.007
-432.676	-31.922	0.111	-0.062
-431.661	-200.000	0.008	-0.065
-430.646	772.779	-0.074	-0.201
-429.632	205.062	-0.223	-0.346
-428.617	576.159	0.079	-0.192
-427.603	-3.244	-0.077	0.053
-426.588	114.590	-0.115	-0.139
-425.573	15.572	-0.180	0.142
-424.559	-200.000	0.041	-0.217
-423.544	105.472	-0.099	-0.116
-422.530	-135.313	0.182	-0.022
-421.515	-53.944	-0.158	0.072
-420.500	-109.071	-0.556	0.118
-419.486	180.983	-0.047	0.068
-418.471	800.000	-0.115	0.379
-417.457	313.238	0.091	-0.170
-416.442	39.099	-0.148	-0.132
-415.428	-99.277	0.280	0.071
-414.413	-17.642	0.073	-0.046
-413.398	-200.000	-0.038	-0.198
-412.384	800.000	-0.080	0.237
-411.369	16.431	0.145	-0.114
-410.355	220.918	0.210	-0.336
-409.340	-200.000	-0.034	0.193
-408.325	52.938	-0.096	-0.091
-407.311	107.114	0.217	-0.257
-406.296	-100.448	-0.190	0.047
-405.282	800.000	-0.141	0.388
-404.267	-122.700	0.113	0.018
-403.252	12.237	-0.091	-0.070
-402.238	4.947	0.301	0.221
-401.223	-89.951	-0.256	0.075
-400.209	-200.000	0.008	-0.122
-399.194	40.282	-0.111	-0.099
-398.179	-200.000	-0.018	-0.178
-397.165	-9.476	-0.071	0.047
-396.150	-55.465	-0.126	-0.056
-395.136	193.499	0.086	-0.130
-394.121	800.000	-0.088	0.334
-393.106	340.299	0.105	0.204
-392.092	-200.000	-0.017	0.198
-391.077	-156.100	-0.469	-0.030
-390.063	225.948	-0.078	0.126
-389.048	800.000	0.110	-0.308
-388.033	800.000	0.031	0.090
-387.019	186.169	-0.087	-0.129
-386.004	800.000	0.091	-0.395
-384.990	-200.000	-0.006	0.235
-383.975	-8.720	0.216	-0.144
-382.960	-200.000	-0.030	0.146
-381.946	800.000	0.081	0.278
-380.931	284.869	-0.012	0.022
-379.917	-200.000	0.040	0.306
-378.902	36.667	0.233	0.205
-377.888	-24.513	-0.116	0.069
-376.873	-92.518	-0.287	-0.080
-375.858	309.786	0.093	-0.173
-374.844	336.551	0.069	-0.134
-373.829	800.000	0.031	0.129
-372.815	-91.509	-0.143	0.041
-371.800	800.000	-0.105	0.318
-370.785	-22.769	0.144	-0.087
-369.771	253.134	0.074	0.125
-368.756	800.000	0.106	-0.404
-367.742	-96.198	0.174	0.046
-366.727	-15.408	-0.242	-0.154
-365.712	-200.000	0.004	-0.199
-364.698	65.768	-0.076	0.077
-363.683	-161.267	-0.086	-0.004
-362.669	163.008	-0.187	-0.262
-361.654	-147.937	0.432	-0.036
-360.639	-200.000	0.024	0.120
-359.625	33.917	-0.063	0.054
-358.610	134.337	-0.184	-0.238
-357.596	-97.291	0.307	0.080
-356.581	104.649	-0.455	0.534
-355.566	-144.115	0.126	0.012
-354.552	21.764	-0.089	0.072
-353.537	108.415	0.172	-0.205
-352.523	-90.041	-0.118	-0.034
-351.508	-3.253	-0.155	-0.107
-350.493	120.765	-0.080	0.099
-349.479	28.801	-0.082	0.070
-348.464	113.607	0.169	0.205
-347.450	123.786	-0.046	0.057
-346.435	99.214	-0.031	-0.036
-345.420	-19.028	0.449	0.278
-344.406	-96.684	-0.471	0.124
-343.391	-124.364	0.225	0.035
-342.377	-40.902	0.096	-0.049
-341.362	-98.080	-0.092	-0.024
-340.348	220.612	0.186	-0.298
-339.333	-200.000	-0.099	0.444
-338.318	-200.000	-0.083	-0.494
-337.304	-41.993	0.138	-0.070
-336.289	800.000	-0.133	0.377
-335.275	8.367	-0.189	0.141
-334.260	45.076	-0.177	0.162
-333.245	800.000	-0.045	-0.172
-332.231	-200.000	0.017	-0.330
-331.216	-165.404	0.306	-0.013
-330.202	-200.000	-0.027	0.245
-329.187	-200.000	-0.041	-0.199
-328.172	211.314	-0.110	0.173
-327.158	117.567	-0.221	0.271
-326.143	-12.366	-0.208	0.135
-325.129	-25.224	0.290	0.171
-324.114	62.568	-0.035	-0.035
-323.099	-68.999	-0.174	0.067
-322.085	86.665	0.172	0.189
-321.070	-3.041	0.057	0.039
-320.056	6.380	-0.082	0.060
-319.041	-200.000	-0.067	-0.421
-318.026	64.290	-0.103	0.103
-317.012	800.000	0.030	-0.084
-315.997	-142.724	0.095	-0.009
-314.983	-1.558	0.145	0.101
-313.968	20.404	0.376	0.302
-312.953	-126.525	-0.089	0.013
-311.939	75.651	-0.074	0.077
-310.924	800.000	0.025	-0.101
-309.910	-5.594	0.177	-0.121
-308.895	-200.000	0.016	0.362
-307.880	-148.322	0.251	-0.021
-306.866	-181.618	-0.232	0.004
-305.851	-18.645	-0.295	-0.183
-304.837	800.000	-0.048	0.140
-303.822	273.934	0.099	-0.174
-302.807	437.209	0.027	-0.058
-301.793	-82.926	0.196	0.063
-300.778	-45.213	-0.039	-0.019
-299.764	-200.000	-0.118	-0.000
-298.749	800.000	-0.046	0.154
-297.735	-127.895	-0.093	-0.013
-296.720	347.314	0.171	-0.335
-295.705	-78.553	0.251	0.085
-294.691	800.000	-0.051	0.157
-293.676	-154.325	0.292	0.020
-292.662	-30.395	0.176	0.099
-291.647	342.553	0.093	0.181
-290.632	800.000	0.069	0.257
-289.618	311.695	0.071	0.133
-288.603	219.019	0.191	0.304
-287.589	-24.404	-0.122	-0.072
-286.574	9.537	0.147	-0.111
-285.559	90.154	-0.107	0.119
-284.545	176.904	-0.111	0.160
-283.530	215.105	0.144	0.226
-282.516	-200.000	-0.011	0.243
-281.501	-125.107	0.263	0.040
-280.486	-1.969	-0.218	-0.152
-279.472	800.000	0.050	-0.210
-278.457	388.407	-0.139	-0.286
-277.443	718.541	0.088	-0.233
-276.428	-14.656	0.055	-0.035
-275.413	-200.000	0.009	0.127
-274.399	127.142	0.187	-0.236
-273.384	2.240	-0.181	0.130
-272.370	320.071	-0.124	-0.233
-271.355	-10.906	0.160	-0.105
-270.340	-96.627	0.178	-0.047
-269.326	-43.981	-0.164	0.082
-268.311	-200.000	0.057	-0.372
-267.297	119.599	0.225	-0.276
-266.282	800.000	0.071	0.238
-265.267	641.773	-0.071	-0.180
-264.253	-49.866	-0.172	0.081
-263.238	800.000	0.051	0.205
-262.224	116.107	-0.023	0.028
-261.209	162.736	-0.030	-0.042
-260.195	800.000	-0.050	0.149
-259.180	-200.000	-0.008	-0.145
-258.165	-200.000	-0.010	-0.306
-257.151	-132.225	-0.093	0.012
-256.136	-72.557	0.087	0.032
-255.122	-120.804	0.316	-0.053
-254.107	193.164	0.146	0.219
-253.092	178.896	0.087	0.126
-252.078	-21.852	-0.082	-0.049
-251.063	800.000	-0.083	-0.326
-250.049	378.551	0.102	0.206
-249.034	324.388	0.115	0.217
-248.019	-200.000	0.001	-0.264
-247.005	-76.879	0.025	-0.008
-245.990	-114.517	0.262	-0.050
-244.976	-200.000	0.032	0.302
-243.961	61.096	0.086	-0.085
-242.946	-200.000	0.011	0.253
-241.932	-200.000	-0.015	-0.081
-240.917	69.625	-0.163	-0.166
-239.903	12.864	-0.078	-0.059
-238.888	-83.683	0.290	-0.092
-237.873	-83.007	-0.077	-0.024
-236.859	314.181	0.050	-0.094
-235.844	-99.928	-0.229	0.057
-234.830	-141.183	0.251	-0.025
-233.815	800.000	-0.033	-0.105
-232.800	-200.000	0.063	0.323
-231.786	-200.000	0.059	-0.257
-230.771	45.816	-0.199	0.182
-229.757	-84.751	-0.159	-0.050
-228.742	-93.137	0.201	-0.055
-227.727	-63.734	0.120	0.049
-226.713	-141.828	-0.299	-0.030
-225.698	85.812	0.099	-0.108
-224.684	73.425	-0.139	0.145
-223.669	-6.385	-0.201	0.136
-222.655	323.144	-0.178	-0.336
-221.640	538.861	0.056	0.133
-220.625	136.059	0.104	-0.135
-219.611	334.065	0.084	0.160
-218.596	-22.888	0.256	-0.153
-217.582	792.093	0.010	-0.027
-216.567	183.674	0.127	-0.186
-215.552	-143.737	-0.101	0.009
-214.538	-200.000	0.007	-0.050
-213.523	246.303	0.141	-0.236
-212.509	-200.000	-0.012	0.268
-211.494	-31.352	0.074	0.041
-210.479	-9.904	0.092	0.061
-209.465	81.375	0.196	-0.210
-208.450	-200.000	-0.012	-0.288
-207.436	800.000	0.054	-0.149
-206.421	87.656	0.162	0.177
-205.406	-200.000	0.032	-0.195
-204.392	-138.065	-0.169	-0.019
-203.377	206.887	-0.139	-0.214
-202.363	-200.000	-0.003	0.410
-201.348	-58.873	0.269	0.115
-200.333	324.011	-0.049	0.093
-199.319	-200.000	-0.005	0.066
-198.304	-122.856	0.271	0.043
-197.290	-52.025	-0.161	-0.074
-196.275	250.937	-0.101	0.170
-195.260	-87.697	0.352	0.105
-194.246	161.258	-0.154	-0.213
-193.231	35.201	-0.259	-0.224
-192.217	-200.000	-0.009	-0.327
-191.202	362.776	-0.082	0.163
-190.187	-200.000	0.042	-0.194
-189.173	97.524	-0.114	-0.129
-188.158	800.000	0.052	0.222
-187.144	-115.491	0.204	0.038
-186.129	-200.000	0.020	0.112
-185.114	-96.546	0.277	0.072
-184.100	138.048	0.230	0.299
-183.085	800.000	-0.032	0.094
-182.071	-2.917	0.042	0.029
-181.056	83.727	-0.107	0.115
-180.042	-200.000	-0.044	0.262
-179.027	0.601	0.230	-0.163
-178.012	-59.107	0.148	-0.063
-176.998	114.380	0.110	0.132
-175.983	800.000	0.127	0.357
-174.969	255.837	0.257	0.436
-173.954	-200.000	0.035	-0.226
-172.939	-101.889	0.112	-0.027
-171.925	-81.104	-0.163	0.053
-170.910	-200.000	0.034	0.322
-169.896	-200.000	0.019	0.177
-168.881	-117.456	-0.446	-0.080
-167.866	-161.341	0.144	0.007
-166.852	111.147	0.177	0.211
-165.837	-22.566	0.234	-0.140
-164.823	-148.045	0.056	0.005
-163.808	33.662	0.027	0.023
-162.793	-200.000	-0.024	-0.203
-161.779	121.382	-0.117	0.144
-160.764	777.377	-0.109	0.293
-159.750	-117.328	0.123	-0.022
-158.735	-121.928	-0.380	0.062
-157.720	-33.386	0.223	0.122
-156.706	-44.867	0.157	0.077
-155.691	336.513	0.146	0.280
-154.677	-200.000	0.004	-0.175
-153.662	308.160	-0.054	-0.100
-152.647	65.890	-0.077	0.077
-151.633	68.300	0.053	0.054
-150.618	-200.000	-0.032	0.249
-149.604	392.417	-0.100	0.205
-148.589	-200.000	0.013	0.109
-147.574	321.100	-0.024	-0.046
-146.560	-13.615	0.019	0.012
-145.545	800.000	-0.107	0.300
-144.531	-49.259	0.068	-0.032
-143.516	-200.000	0.016	0.165
-142.502	515.917	-0.164	0.379
-141.487	719.633	0.077	-0.202
-140.472	-129.091	-0.052	0.007
-139.458	312.968	-0.071	0.131
-138.443	110.433	0.058	0.069
-137.429	-120.944	-0.242	-0.040
-136.414	-60.270	-0.058	-0.024
-135.399	-95.808	0.289	-0.076
-134.385	343.356	-0.010	-0.019
-133.370	-200.000	0.004	-0.225
-132.356	-200.000	-0.045	0.428
-131.341	151.155	0.048	-0.065
-130.326	-104.328	-0.108	0.025
-129.312	179.625	-0.155	0.225
-128.297	35.804	-0.082	0.071
-127.283	800.000	-0.056	-0.169
-126.268	173.273	0.315	-0.449
-125.253	-200.000	0.004	0.053
-124.239	331.454	0.173	0.329
-123.224	-98.088	0.302	-0.077
-122.210	191.380	0.076	0.113
-121.195	800.000	-0.058	0.249
