DTS Sentinel unit serial number:	SN413079Multiplexer serial number:	ORYXHardware model number:	OX4-SRSoftware version number:	ORYX F/W v4.00 Oryx Data Collector v3.7.2.0data status	okinstallation	princeton_trtdifferential loss correction	single-endedforward channel	channel 4reverse channel	N/Adate	2019/09/19time	06:17:35forward acquisition time	60.00reverse acquisition time	0.00gamma	496.2192k internal	0.2340k external	0.2340temperature offset calibration	1.0027default loss term (dB/km)	0.3790temperature slope calibration	1.0000multiplexer offset coefficient	1.0000multiplexer slope coefficient	1.0000fibre end	0.00T internal ref (°C)	19.06T ext. ref 1 (°C)	0.57T ext. ref 2 (°C)	12.78length (m)	temperature (°C)	Stokes	anti-Stokes-747.200	263.299	0.190	-0.330
-746.185	-10.191	-0.116	-0.077
-745.171	106.271	0.129	-0.153
-744.156	800.000	-0.047	0.143
-743.142	-102.723	0.400	-0.096
-742.127	105.666	-0.214	0.254
-741.112	-71.944	0.117	-0.044
-740.098	-66.086	-0.210	0.084
-739.083	-118.478	0.268	-0.048
-738.069	-37.325	-0.282	0.151
-737.054	-5.053	-0.269	-0.186
-736.039	24.905	-0.117	0.097
-735.025	-200.000	-0.040	-0.239
-734.010	-200.000	-0.004	-0.106
-732.996	320.673	0.205	-0.389
-731.981	-200.000	-0.033	-0.180
-730.966	-200.000	-0.035	-0.248
-729.952	-20.623	0.314	-0.193
-728.937	-170.321	-0.256	0.009
-727.923	-4.012	-0.218	-0.152
-726.908	84.733	0.092	-0.101
-725.894	-200.000	-0.044	0.215
-724.879	800.000	-0.041	-0.168
-723.864	-39.579	0.202	0.106
-722.850	538.578	0.099	0.236
-721.835	-14.926	-0.305	-0.196
-720.821	7.738	-0.387	-0.290
-719.806	-154.302	-0.136	0.009
-718.791	-200.000	0.092	0.469
-717.777	-106.932	-0.343	-0.076
-716.762	435.682	0.132	-0.289
-715.748	800.000	0.057	-0.207
-714.733	-146.223	0.192	0.017
-713.718	-139.916	-0.352	-0.037
-712.704	26.430	-0.180	0.151
-711.689	-200.000	0.019	-0.106
-710.675	52.372	-0.370	0.354
-709.660	192.126	0.068	-0.103
-708.645	-194.819	-0.119	-0.001
-707.631	-17.521	-0.113	-0.071
-706.616	-108.415	0.169	-0.037
-705.602	-103.801	0.125	0.029
-704.587	367.844	0.186	0.377
-703.572	800.000	-0.042	-0.167
-702.558	800.000	0.015	-0.065
-701.543	-31.963	0.017	0.010
-700.529	95.643	0.250	-0.285
-699.514	166.802	0.187	0.266
-698.499	110.373	-0.315	0.379
-697.485	676.950	-0.190	-0.495
-696.470	-42.042	-0.191	0.098
-695.456	480.190	-0.067	0.153
-694.441	-77.888	-0.253	0.087
-693.426	-200.000	0.024	-0.137
-692.412	-200.000	0.035	0.262
-691.397	6.101	0.121	-0.090
-690.383	50.441	-0.472	-0.447
-689.368	-145.275	-0.463	-0.042
-688.354	-36.640	0.052	0.028
-687.339	25.072	0.098	-0.082
-686.324	-141.947	0.090	-0.009
-685.310	800.000	0.036	0.116
-684.295	-199.515	-0.349	-0.002
-683.281	451.521	0.094	-0.208
-682.266	-173.907	-0.215	0.006
-681.251	247.667	0.221	-0.373
-680.237	-73.327	-0.080	-0.029
-679.222	-53.818	0.365	-0.166
-678.208	-111.151	0.294	-0.060
-677.193	-200.000	0.046	-0.235
-676.178	110.165	-0.195	0.234
-675.164	-87.386	-0.248	0.075
-674.149	800.000	0.029	-0.082
-673.135	-200.000	-0.017	0.084
-672.120	391.088	0.125	0.259
-671.105	-200.000	0.011	0.163
-670.091	800.000	-0.066	0.182
-669.076	146.139	-0.032	-0.042
-668.062	531.427	-0.107	-0.253
-667.047	-200.000	0.004	-0.039
-666.032	-45.741	0.097	-0.048
-665.018	-154.204	-0.148	-0.010
-664.003	800.000	0.092	-0.330
-662.989	-122.383	-0.448	0.073
-661.974	-118.046	0.327	-0.058
-660.959	-94.756	-0.346	0.094
-659.945	-109.964	0.309	0.065
-658.930	-95.368	-0.202	-0.054
-657.916	35.292	-0.109	-0.095
-656.901	-40.821	0.200	-0.104
-655.886	800.000	-0.085	-0.246
-654.872	-46.042	-0.263	0.130
-653.857	-150.563	0.360	-0.027
-652.843	800.000	-0.031	0.116
-651.828	-25.425	0.159	-0.094
-650.814	310.592	-0.174	-0.326
-649.799	254.875	0.096	0.164
-648.784	-112.405	0.195	0.039
-647.770	-118.318	-0.234	0.042
-646.755	-200.000	-0.001	0.021
-645.741	121.889	0.075	0.093
-644.726	280.409	0.089	-0.160
-643.711	331.066	0.156	-0.301
-642.697	-200.000	-0.021	-0.192
-641.682	-200.000	0.008	0.042
-640.668	223.188	0.075	-0.121
-639.653	171.792	0.127	0.182
-638.638	-200.000	0.042	-0.273
-637.624	-96.922	-0.131	-0.034
-636.609	129.272	-0.090	-0.114
-635.595	294.793	-0.175	-0.319
-634.580	434.197	0.046	-0.099
-633.565	-200.000	-0.031	0.187
-632.551	208.773	0.100	0.156
-631.536	-200.000	0.012	-0.135
-630.522	335.470	-0.108	0.209
-629.507	465.107	0.060	0.134
-628.492	-125.754	0.164	-0.025
-627.478	208.029	0.086	-0.135
-626.463	119.109	-0.045	-0.055
-625.449	99.490	0.321	0.371
-624.434	-19.195	0.143	-0.089
-623.419	800.000	0.024	0.095
-622.405	-200.000	0.002	0.093
-621.390	17.265	0.094	0.074
-620.376	226.178	0.080	0.129
-619.361	-200.000	0.023	-0.180
-618.346	100.469	0.206	-0.238
-617.332	-172.666	0.113	0.004
-616.317	171.067	-0.176	0.251
-615.303	-25.222	-0.178	-0.105
-614.288	425.368	-0.103	-0.220
-613.273	-200.000	-0.136	0.000
-612.259	-200.000	0.015	0.230
-611.244	89.124	0.117	-0.129
-610.230	800.000	-0.062	0.185
-609.215	-102.488	0.216	0.051
-608.201	-62.308	-0.191	0.079
-607.186	-118.593	-0.252	0.044
-606.171	-21.963	-0.362	-0.219
-605.157	560.691	-0.089	-0.214
-604.142	-19.979	-0.075	-0.046
-603.128	-91.510	-0.136	0.039
-602.113	367.169	-0.143	-0.288
-601.098	-46.154	0.282	0.138
-600.084	-200.000	0.001	0.262
-599.069	-86.951	0.240	0.073
-598.055	68.889	-0.433	-0.444
-597.040	-179.296	0.035	-0.001
-596.025	-76.315	-0.148	-0.052
-595.011	118.540	-0.258	-0.317
-593.996	-77.180	0.238	0.083
-592.982	30.910	-0.217	-0.186
-591.967	-98.386	-0.188	0.048
-590.952	446.260	-0.058	-0.127
-589.938	186.888	0.177	-0.262
-588.923	800.000	0.045	-0.146
-587.909	-78.402	-0.090	-0.031
-586.894	216.001	-0.073	0.116
-585.879	-98.372	-0.044	-0.011
-584.865	58.566	0.193	0.189
-583.850	-80.529	0.288	-0.096
-582.836	-37.950	0.130	0.069
-581.821	-83.643	0.027	0.009
-580.806	198.320	0.069	-0.105
-579.792	132.089	-0.131	-0.167
-578.777	-82.486	0.198	0.064
-577.763	630.540	0.124	0.312
-576.748	-1.802	-0.264	-0.185
-575.733	615.629	0.081	-0.203
-574.719	320.595	-0.050	-0.095
-573.704	75.966	-0.026	0.028
-572.690	657.822	0.018	-0.046
-571.675	-200.000	0.007	-0.152
-570.661	2.606	-0.241	-0.174
-569.646	-119.214	0.166	0.029
-568.631	-105.366	0.118	0.027
-567.617	-200.000	0.085	0.440
-566.602	66.891	-0.222	0.225
-565.588	-200.000	-0.012	-0.133
-564.573	11.360	-0.199	0.152
-563.558	347.821	0.037	0.073
-562.544	-13.570	0.147	-0.095
-561.529	-200.000	-0.015	-0.377
-560.515	146.781	0.063	-0.085
-559.500	261.971	0.120	-0.207
-558.485	51.017	-0.079	0.075
-557.471	800.000	-0.097	0.363
-556.456	-90.935	0.073	-0.021
-555.442	4.366	-0.167	-0.122
-554.427	-200.000	-0.179	0.001
-553.412	-101.943	-0.323	0.078
-552.398	11.675	-0.245	0.187
-551.383	800.000	0.082	0.244
-550.369	399.156	0.077	-0.161
-549.354	179.942	0.030	-0.043
-548.339	-89.653	-0.160	0.047
-547.325	63.686	0.095	-0.095
-546.310	-200.000	0.063	0.308
-545.296	-120.456	0.198	0.034
-544.281	669.302	-0.043	-0.110
-543.266	-69.282	-0.310	0.118
-542.252	800.000	0.088	0.274
-541.237	-63.796	0.394	-0.160
-540.223	-200.000	-0.055	0.516
-539.208	356.478	-0.145	0.288
-538.193	-200.000	-0.005	0.148
-537.179	-92.270	0.049	-0.014
-536.164	-94.394	-0.310	-0.084
-535.150	381.337	0.106	-0.217
-534.135	75.620	-0.315	0.331
-533.121	-200.000	-0.002	-0.012
-532.106	44.070	-0.326	0.297
-531.091	800.000	-0.038	0.142
-530.077	-129.973	-0.276	-0.038
-529.062	-59.944	0.409	0.174
-528.048	468.581	0.081	-0.180
-527.033	139.602	0.111	0.145
-526.018	-200.000	-0.030	0.264
-525.004	-118.645	0.270	-0.047
-523.989	160.300	0.148	0.205
-522.975	-106.991	-0.091	0.020
-521.960	-139.846	-0.107	-0.011
-520.945	-200.000	-0.015	-0.368
-519.931	60.485	0.224	-0.221
-518.916	800.000	0.066	-0.259
-517.902	-200.000	-0.007	-0.213
-516.887	-131.831	0.199	-0.026
-515.872	-200.000	-0.005	0.118
-514.858	-17.015	-0.185	0.116
-513.843	-74.727	0.232	-0.083
-512.829	65.659	-0.019	-0.019
-511.814	-21.497	0.102	-0.062
-510.799	-86.550	-0.140	-0.043
-509.785	-128.258	0.125	0.018
-508.770	-93.610	-0.193	-0.053
-507.756	166.802	0.101	-0.143
-506.741	19.800	-0.267	0.214
-505.726	-121.510	-0.368	0.061
-504.712	128.281	-0.223	0.281
-503.697	210.813	-0.095	-0.148
-502.683	-200.000	0.008	-0.136
-501.668	800.000	0.115	-0.347
-500.653	-200.000	0.045	0.395
-499.639	460.775	0.136	-0.302
-498.624	-43.571	-0.287	0.144
-497.610	800.000	-0.072	0.295
-496.595	-62.690	-0.165	0.068
-495.581	-200.000	-0.066	0.402
-494.566	4.074	-0.013	-0.010
-493.551	140.758	0.122	-0.160
-492.537	-104.052	0.205	0.047
-491.522	276.973	-0.053	-0.094
-490.508	387.064	0.079	0.162
-489.493	-200.000	-0.052	-0.293
-488.478	19.269	0.260	-0.207
-487.464	-77.040	0.089	-0.031
-486.449	34.863	0.049	-0.043
-485.435	-102.212	0.437	-0.104
-484.420	800.000	-0.127	-0.353
-483.405	-104.988	-0.191	-0.043
-482.391	-139.622	-0.195	0.021
-481.376	-147.966	0.418	0.035
-480.362	48.638	-0.130	-0.121
-479.347	-64.430	-0.037	-0.015
-478.332	-200.000	0.047	-0.241
-477.318	2.633	-0.169	0.122
-476.303	-200.000	-0.028	-0.166
-475.289	-200.000	-0.043	-0.351
-474.274	494.879	0.066	0.150
-473.259	-97.684	-0.332	-0.085
-472.245	75.887	-0.069	-0.073
-471.230	-122.580	-0.086	-0.014
-470.216	399.624	0.084	-0.175
-469.201	6.419	-0.273	-0.201
-468.186	96.906	0.152	-0.173
-467.172	434.755	-0.074	0.160
-466.157	-130.945	0.321	0.043
-465.143	672.537	0.056	-0.144
-464.128	-200.000	0.049	0.220
-463.113	34.564	0.119	0.103
-462.099	18.423	-0.229	0.181
-461.084	3.249	-0.139	0.100
-460.070	216.163	0.046	-0.073
-459.055	-45.011	0.271	0.134
-458.040	800.000	-0.096	-0.272
-457.026	310.802	-0.024	0.044
-456.011	-200.000	0.077	-0.390
-454.997	77.841	0.131	-0.139
-453.982	437.980	0.101	0.219
-452.968	-142.674	-0.264	-0.026
-451.953	73.568	0.327	0.339
-450.938	800.000	0.023	-0.080
-449.924	77.216	-0.115	0.121
-448.909	-37.407	0.115	-0.061
-447.895	-44.143	-0.202	-0.100
-446.880	800.000	0.064	-0.233
-445.865	-149.749	-0.089	0.007
-444.851	436.872	-0.011	0.024
-443.836	-200.000	0.025	0.166
-442.822	10.689	-0.148	-0.111
-441.807	87.837	0.218	-0.240
-440.792	-200.000	-0.036	0.231
-439.778	35.093	-0.179	-0.155
-438.763	-186.663	0.189	0.003
-437.749	130.821	-0.244	-0.310
-436.734	800.000	-0.039	0.115
-435.719	-200.000	0.049	0.309
-434.705	416.438	0.042	-0.088
-433.690	-25.315	-0.092	-0.054
-432.676	-200.000	0.013	-0.216
-431.661	477.879	0.196	0.440
-430.646	-200.000	0.006	0.172
-429.632	-41.075	0.064	0.033
-428.617	800.000	0.018	-0.071
-427.603	-200.000	-0.028	0.185
-426.588	27.949	0.174	-0.145
-425.573	-16.978	0.153	-0.096
-424.559	-172.989	-0.329	0.010
-423.544	149.100	-0.237	-0.317
-422.530	90.965	0.055	-0.061
-421.515	-115.682	-0.357	-0.066
-420.500	-33.742	0.181	-0.099
-419.486	-200.000	0.006	0.178
-418.471	-74.469	-0.069	-0.025
-417.457	61.307	0.081	0.080
-416.442	-56.054	-0.067	-0.030
-415.428	699.867	0.080	-0.207
-414.413	-183.085	0.247	-0.004
-413.398	800.000	-0.072	0.230
-412.384	162.671	0.075	-0.104
-411.369	-2.339	0.188	-0.131
-410.355	-63.943	0.249	0.101
-409.340	-72.945	0.269	0.098
-408.325	-79.340	-0.219	-0.074
-407.311	-200.000	0.016	-0.221
-406.296	-200.000	0.027	-0.172
-405.282	-200.000	0.017	-0.241
-404.267	53.610	-0.131	-0.125
-403.252	-45.298	-0.218	-0.107
-402.238	39.157	-0.145	0.128
-401.223	-200.000	-0.002	-0.042
-400.209	800.000	-0.135	-0.395
-399.194	77.006	-0.166	-0.175
-398.179	24.276	0.305	-0.250
-397.165	115.973	0.184	0.223
-396.150	128.707	-0.100	0.126
-395.136	-200.000	0.049	-0.251
-394.121	-28.958	0.185	-0.105
-393.106	-200.000	-0.018	0.086
-392.092	136.066	-0.181	0.234
-391.077	-200.000	0.035	-0.165
-390.063	-77.231	0.116	-0.040
-389.048	0.502	-0.050	0.036
-388.033	-200.000	-0.066	-0.465
-387.019	-114.786	-0.273	0.051
-386.004	-104.446	-0.158	0.036
-384.990	125.811	0.104	0.130
-383.975	-200.000	0.088	-0.474
-382.960	93.542	-0.196	-0.220
-381.946	-6.276	-0.059	0.040
-380.931	636.578	0.122	-0.305
-379.917	-104.747	0.301	0.069
-378.902	319.240	0.211	0.395
-377.888	-19.825	-0.059	0.036
-376.873	97.054	-0.162	0.183
-375.858	-200.000	0.025	0.158
-374.844	102.204	-0.090	-0.104
-373.829	677.424	0.086	0.220
-372.815	-126.812	-0.517	0.075
-371.800	741.930	0.092	-0.244
-370.785	591.329	-0.061	-0.149
-369.771	-200.000	0.143	-0.723
-368.756	-200.000	-0.013	-0.242
-367.742	800.000	0.076	-0.284
-366.727	-61.861	0.356	-0.147
-365.712	95.108	0.170	-0.191
-364.698	-94.261	0.212	0.057
-363.683	-26.020	-0.215	-0.125
-362.669	44.416	-0.176	-0.160
-361.654	-75.833	0.209	-0.073
-360.639	92.547	0.183	-0.203
-359.625	153.979	0.089	0.121
-358.610	-25.087	-0.102	-0.060
-357.596	-200.000	0.004	-0.392
-356.581	-200.000	-0.034	-0.166
-355.566	-200.000	-0.015	0.189
-354.552	53.077	-0.175	0.166
-353.537	-108.014	0.078	0.017
-352.523	244.206	0.142	-0.236
-351.508	800.000	-0.087	-0.304
-350.493	-28.582	-0.221	0.126
-349.479	185.267	-0.147	-0.215
-348.464	-200.000	-0.027	0.133
-347.450	-200.000	-0.006	-0.083
-346.435	-128.362	0.209	-0.029
-345.420	-42.660	0.262	0.131
-344.406	579.665	0.022	-0.054
-343.391	-200.000	0.031	0.173
-342.377	444.275	0.090	0.195
-341.362	-69.446	-0.127	0.048
-340.348	-148.033	0.281	-0.023
-339.333	800.000	-0.086	-0.272
-338.318	-200.000	-0.042	0.236
-337.304	800.000	0.047	0.150
-336.289	172.546	0.121	0.172
-335.275	-200.000	0.011	-0.489
-334.260	-118.149	-0.055	0.010
-333.245	-57.820	0.223	0.096
-332.231	69.108	0.130	-0.132
-331.216	101.236	-0.150	0.172
-330.202	-120.301	-0.090	0.015
-329.187	-111.491	-0.237	0.048
-328.172	551.417	-0.114	-0.271
-327.158	-200.000	-0.018	0.129
-326.143	-4.427	0.172	-0.118
-325.129	-56.232	-0.426	0.187
-324.114	586.370	-0.158	0.384
-323.099	-43.656	0.210	-0.105
-322.085	800.000	0.037	-0.150
-321.070	-200.000	0.016	-0.178
-320.056	-200.000	0.026	-0.129
-319.041	52.120	-0.215	0.202
-318.026	36.223	-0.098	-0.085
-317.012	146.090	0.124	0.163
-315.997	-154.107	-0.199	0.013
-314.983	800.000	0.072	0.300
-313.968	800.000	-0.067	-0.269
-312.953	2.580	-0.073	-0.052
-311.939	-84.304	0.257	0.080
-310.924	-138.573	-0.105	0.011
-309.910	-67.377	0.231	-0.090
-308.895	-98.266	-0.139	0.035
-307.880	307.828	-0.146	-0.268
-306.866	12.835	-0.074	0.057
-305.851	414.991	0.059	0.123
-304.837	800.000	-0.017	-0.071
-303.822	-200.000	0.075	0.476
-302.807	-149.529	-0.352	-0.027
-301.793	215.737	0.052	-0.081
-300.778	492.758	0.158	0.357
-299.764	634.982	0.076	-0.191
-298.749	800.000	-0.095	0.263
-297.735	-134.326	0.103	0.012
-296.720	358.567	-0.093	0.183
-295.705	-135.404	0.236	-0.028
-294.691	81.367	0.108	-0.115
-293.676	179.499	-0.137	-0.198
-292.662	50.574	-0.079	0.073
-291.647	-38.754	-0.250	0.130
-290.632	-200.000	0.007	0.156
-289.618	-94.132	0.265	0.072
-288.603	-72.010	0.075	-0.027
-287.589	-200.000	0.017	0.253
-286.574	-9.659	-0.228	0.149
-285.559	-26.813	-0.387	0.223
-284.545	-51.781	0.276	0.126
-283.530	0.916	0.195	0.138
-282.516	-84.080	0.035	-0.011
-281.501	800.000	-0.130	0.381
-280.486	800.000	-0.039	-0.135
-279.472	-200.000	-0.033	-0.276
-278.457	-124.139	-0.174	0.027
-277.443	-44.099	-0.048	0.024
-276.428	800.000	-0.029	-0.124
-275.413	163.443	0.251	-0.348
-274.399	-172.998	-0.299	-0.009
-273.384	-115.078	0.179	0.034
-272.370	115.369	0.118	0.142
-271.355	800.000	0.050	-0.141
-270.340	610.012	0.027	-0.068
-269.326	-200.000	-0.045	-0.266
-268.311	800.000	0.052	0.175
-267.297	206.567	-0.092	0.141
-266.282	65.500	0.167	0.166
-265.267	-52.896	-0.197	0.089
-264.253	-35.954	-0.333	0.177
-263.238	-10.574	0.472	0.307
-262.224	-200.000	0.012	0.105
-261.209	-200.000	0.029	-0.246
-260.195	800.000	0.013	-0.042
-259.180	-34.118	-0.132	0.071
-258.165	-87.901	-0.178	-0.053
-257.151	52.458	0.148	0.139
-256.136	-108.823	0.247	0.052
-255.122	203.355	0.141	0.215
-254.107	-122.395	0.206	-0.033
-253.092	-162.290	0.078	0.004
-252.078	60.320	0.218	0.212
-251.063	-200.000	-0.072	-0.427
-250.049	-160.875	0.270	-0.014
-249.034	-200.000	-0.050	0.378
-248.019	800.000	-0.119	0.338
-247.005	-31.767	-0.140	-0.077
-245.990	-197.366	0.355	0.002
-244.976	-90.228	-0.255	0.073
-243.961	-18.149	0.322	-0.198
-242.946	96.035	-0.044	-0.050
-241.932	-98.184	-0.138	-0.035
-240.917	2.740	-0.130	-0.093
-239.903	27.768	-0.024	-0.020
-238.888	259.995	0.136	0.232
-237.873	-9.573	0.297	0.195
-236.859	49.824	0.124	-0.115
-235.844	800.000	0.036	-0.103
-234.830	72.186	0.089	0.091
-233.815	117.453	-0.155	0.187
-232.800	101.429	-0.121	0.139
-231.786	-200.000	-0.070	-0.350
-230.771	-44.495	-0.361	-0.178
-229.757	416.126	0.048	-0.100
-228.742	678.425	0.101	0.258
-227.727	261.089	0.038	-0.064
-226.713	-65.005	0.223	-0.088
-225.698	-166.498	-0.138	-0.006
-224.684	71.022	0.127	-0.129
-223.669	-126.950	-0.327	0.047
-222.655	5.073	0.025	-0.018
-221.640	-200.000	-0.017	-0.190
-220.625	361.468	0.098	-0.192
-219.611	-30.063	-0.214	0.119
-218.596	12.177	0.142	0.107
-217.582	800.000	0.029	-0.103
-216.567	3.646	0.184	-0.132
-215.552	183.739	-0.066	-0.096
-214.538	-57.023	0.137	0.059
-213.523	444.059	0.084	0.181
-212.509	306.650	0.036	-0.067
-211.494	800.000	-0.007	-0.021
-210.479	734.973	0.097	-0.255
-209.465	-127.533	0.266	-0.038
-208.450	800.000	-0.020	0.075
-207.436	800.000	0.100	0.378
-206.421	-200.000	-0.040	0.224
-205.406	134.609	0.282	0.359
-204.392	-196.686	-0.087	0.001
-203.377	290.687	0.160	-0.286
-202.363	96.082	0.280	0.314
-201.348	5.388	-0.282	0.204
-200.333	259.202	0.275	0.465
-199.319	-119.037	-0.080	0.014
-198.304	-200.000	-0.239	-0.001
-197.290	-101.339	0.036	-0.009
-196.275	373.553	-0.162	0.322
-195.260	-99.783	-0.283	0.070
-194.246	70.684	0.231	0.235
-193.231	800.000	0.109	0.426
-192.217	-50.724	-0.265	-0.122
-191.202	283.799	-0.030	0.052
-190.187	204.200	-0.090	0.137
-189.173	680.866	0.069	-0.177
-188.158	-173.976	-0.171	-0.005
-187.144	-126.165	0.297	-0.044
-186.129	800.000	0.061	0.175
-185.114	-62.341	-0.300	-0.122
-184.100	-200.000	0.012	0.346
-183.085	-115.279	0.135	-0.025
-182.071	55.113	-0.115	0.109
-181.056	-58.358	-0.185	-0.079
-180.042	-31.717	-0.089	-0.049
-179.027	-200.000	0.049	0.327
-178.012	800.000	-0.153	0.434
-176.998	220.917	0.043	-0.068
-175.983	44.745	-0.202	0.183
-174.969	435.341	-0.103	0.219
-173.954	-200.000	0.055	-0.317
-172.939	-200.000	-0.029	-0.153
-171.925	346.255	0.042	-0.080
-170.910	-124.767	0.163	0.025
-169.896	-200.000	0.038	-0.199
-168.881	800.000	0.032	0.132
-167.866	-152.155	0.135	0.010
-166.852	-72.407	-0.051	0.019
-165.837	-200.000	0.017	-0.192
-164.823	-138.804	0.105	0.011
-163.808	-149.391	-0.362	0.028
-162.793	-200.000	-0.000	0.365
-161.779	-69.575	-0.279	0.105
-160.764	-37.703	-0.100	-0.052
-159.750	-200.000	-0.061	0.281
-158.735	248.980	0.209	-0.346
-157.720	381.664	0.105	-0.212
-156.706	-58.064	-0.077	0.033
-155.691	545.926	-0.065	-0.152
-154.677	-200.000	-0.122	0.643
-153.662	-200.000	0.002	0.337
-152.647	-130.854	0.363	0.048
-151.633	800.000	-0.044	0.155
-150.618	-8.517	-0.026	0.017
-149.604	800.000	0.081	-0.244
-148.589	800.000	0.054	-0.175
-147.574	800.000	-0.034	-0.104
-146.560	515.365	-0.057	0.130
-145.545	-30.398	0.188	0.104
-144.531	41.129	0.120	0.107
-143.516	71.453	-0.167	-0.169
-142.502	-82.029	-0.179	0.057
-141.487	-50.943	-0.093	-0.043
-140.472	-88.297	0.166	-0.049
-139.458	6.660	-0.216	0.157
-138.443	-199.554	0.082	0.000
-137.429	-200.000	-0.013	-0.101
-136.414	97.675	-0.059	0.066
-135.399	-56.078	-0.245	-0.107
-134.385	-200.000	-0.052	0.527
-133.370	146.322	0.187	-0.246
-132.356	-200.000	0.008	0.566
-131.341	200.891	0.097	0.147
-130.326	248.412	-0.063	0.104
-129.312	97.527	-0.108	-0.122
-128.297	-60.814	0.274	0.113
-127.283	-31.533	0.245	0.135
-126.268	-75.113	0.223	0.078
-125.253	-200.000	0.054	-0.301
-124.239	-200.000	-0.024	-0.215
-123.224	-200.000	0.028	0.298
-122.210	-200.000	0.003	0.482
