DTS Sentinel unit serial number:	SN413079Multiplexer serial number:	ORYXHardware model number:	OX4-SRSoftware version number:	ORYX F/W v4.00 Oryx Data Collector v3.7.2.0data status	okinstallation	princeton_trtdifferential loss correction	single-endedforward channel	channel 4reverse channel	N/Adate	2019/09/16time	06:01:35forward acquisition time	60.00reverse acquisition time	0.00gamma	496.2192k internal	0.2320k external	0.2320temperature offset calibration	0.9980default loss term (dB/km)	0.3790temperature slope calibration	1.0000multiplexer offset coefficient	1.0000multiplexer slope coefficient	1.0000fibre end	0.00T internal ref (°C)	27.44T ext. ref 1 (°C)	11.26T ext. ref 2 (°C)	22.13length (m)	temperature (°C)	Stokes	anti-Stokes-747.200	800.000	0.060	0.209
-746.185	800.000	0.119	0.369
-745.171	230.749	0.079	0.131
-744.156	-35.862	-0.133	0.073
-743.142	359.273	-0.058	-0.118
-742.127	-200.000	-0.017	0.219
-741.112	-7.025	0.331	-0.227
-740.098	-14.747	-0.218	-0.142
-739.083	800.000	-0.008	-0.033
-738.069	-197.923	-0.335	-0.002
-737.054	-200.000	-0.010	0.179
-736.039	315.702	0.121	-0.232
-735.025	-0.623	0.319	0.229
-734.010	651.238	-0.101	0.261
-732.996	-142.688	0.063	0.006
-731.981	-43.176	0.396	0.203
-730.966	-32.982	-0.243	0.136
-729.952	-91.263	-0.107	0.031
-728.937	-85.532	-0.367	-0.115
-727.923	-16.589	-0.084	-0.054
-726.908	78.945	-0.249	-0.269
-725.894	800.000	0.117	-0.333
-724.879	-108.189	0.080	-0.018
-723.864	-68.442	0.359	0.141
-722.850	-200.000	0.030	0.201
-721.835	-200.000	0.245	0.000
-720.821	34.090	-0.161	-0.142
-719.806	157.104	0.119	-0.167
-718.791	408.686	-0.100	-0.213
-717.777	-100.862	0.303	0.075
-716.762	315.346	0.010	-0.020
-715.748	271.596	-0.097	0.172
-714.733	44.621	0.100	-0.093
-713.718	506.863	-0.201	-0.471
-712.704	295.655	0.105	0.194
-711.689	-71.067	0.397	-0.151
-710.675	-29.783	-0.153	0.088
-709.660	169.978	0.185	-0.267
-708.645	710.902	-0.059	-0.157
-707.631	-140.491	-0.145	-0.015
-706.616	-162.961	-0.128	-0.006
-705.602	187.764	-0.178	-0.269
-704.587	311.215	0.122	-0.231
-703.572	-41.499	0.230	-0.119
-702.558	-86.871	-0.247	0.076
-701.543	-123.433	-0.234	-0.038
-700.529	717.353	0.081	0.217
-699.514	458.517	0.016	-0.036
-698.499	800.000	0.105	0.328
-697.485	800.000	0.036	-0.157
-696.470	57.725	-0.033	0.032
-695.456	-68.431	0.350	0.137
-694.441	-161.791	0.180	-0.009
-693.426	-148.222	-0.340	-0.028
-692.412	110.908	-0.299	-0.364
-691.397	-59.872	-0.228	0.098
-690.383	-200.000	0.047	0.219
-689.368	-60.192	0.240	0.103
-688.354	508.281	-0.052	-0.122
-687.339	253.570	0.190	-0.327
-686.324	-37.913	-0.215	0.115
-685.310	-200.000	-0.031	-0.225
-684.295	-108.565	0.462	0.100
-683.281	-200.000	0.028	-0.246
-682.266	20.198	-0.276	-0.224
-681.251	-62.851	0.217	-0.090
-680.237	-200.000	0.030	0.156
-679.222	-50.280	0.180	-0.086
-678.208	800.000	-0.086	0.281
-677.193	77.985	0.158	-0.170
-676.178	800.000	-0.054	0.180
-675.164	-157.623	-0.278	-0.017
-674.149	-200.000	0.055	-0.269
-673.135	-98.060	-0.100	-0.026
-672.120	-184.281	0.164	-0.003
-671.105	24.576	-0.296	0.247
-670.091	-91.578	0.317	0.091
-669.076	-200.000	-0.024	-0.119
-668.062	276.432	0.046	0.083
-667.047	48.717	0.299	0.282
-666.032	-111.899	-0.138	-0.028
-665.018	81.668	0.136	0.148
-664.003	-200.000	-0.049	-0.290
-662.989	-200.000	-0.021	0.120
-661.974	564.952	0.082	0.201
-660.959	499.212	0.080	-0.186
-659.945	800.000	-0.084	0.252
-658.930	-19.156	-0.159	0.100
-657.916	10.204	-0.050	-0.038
-656.901	80.831	-0.086	-0.093
-655.886	290.493	0.048	-0.088
-654.872	5.162	0.211	-0.156
-653.857	462.720	-0.096	0.215
-652.843	365.686	0.092	-0.187
-651.828	-54.889	0.182	-0.083
-650.814	138.556	0.237	0.313
-649.799	-10.840	0.060	0.040
-648.784	433.857	-0.057	-0.125
-647.770	135.797	-0.288	0.377
-646.755	-141.015	0.210	0.022
-645.741	14.211	-0.218	0.171
-644.726	-156.995	-0.254	0.016
-643.711	480.829	-0.100	-0.228
-642.697	-87.815	0.068	-0.021
-641.682	-28.891	0.130	0.075
-640.668	-200.000	-0.003	0.227
-639.653	279.818	0.056	-0.102
-638.638	800.000	-0.020	0.082
-637.624	-22.498	-0.116	-0.071
-636.609	-90.671	0.066	-0.019
-635.595	800.000	0.148	-0.414
-634.580	-22.264	0.255	-0.155
-633.565	263.803	0.053	-0.092
-632.551	36.055	-0.072	-0.063
-631.536	743.047	-0.105	-0.285
-630.522	-59.964	-0.170	0.073
-629.507	-159.619	0.270	-0.015
-628.492	-37.307	0.079	0.042
-627.478	92.301	0.224	0.254
-626.463	729.882	0.068	-0.182
-625.449	-200.000	0.048	0.221
-624.434	-43.735	0.073	-0.037
-623.419	6.946	-0.241	-0.181
-622.405	-154.185	-0.352	-0.024
-621.390	180.227	-0.060	-0.089
-620.376	62.501	-0.220	0.221
-619.361	93.907	0.125	-0.143
-618.346	-200.000	-0.018	0.306
-617.332	-46.315	0.427	0.211
-616.317	154.935	-0.148	-0.205
-615.303	-87.251	0.150	0.046
-614.288	800.000	-0.077	0.266
-613.273	-165.889	-0.250	0.011
-612.259	46.996	0.246	-0.230
-611.244	-35.426	0.235	-0.128
-610.230	268.141	-0.112	0.198
-609.215	-200.000	-0.042	0.216
-608.201	-73.833	-0.356	0.130
-607.186	-112.558	-0.197	-0.040
-606.171	-179.931	-0.058	0.001
-605.157	-200.000	-0.040	0.406
-604.142	-200.000	-0.027	-0.273
-603.128	78.586	-0.097	-0.104
-602.113	283.542	-0.142	-0.257
-601.098	7.990	0.294	0.222
-600.084	124.948	0.101	-0.128
-599.069	117.009	-0.113	0.139
-598.055	260.842	-0.209	-0.363
-597.040	-40.025	-0.284	0.149
-596.025	800.000	0.040	0.131
-595.011	-137.649	0.191	-0.022
-593.996	128.545	-0.193	-0.247
-592.982	51.791	0.089	-0.085
-591.967	-107.795	0.426	-0.093
-590.952	800.000	-0.047	0.153
-589.938	-200.000	0.029	0.161
-588.923	304.723	0.132	-0.247
-587.909	372.115	-0.063	0.128
-586.894	92.745	0.200	-0.226
-585.879	188.762	-0.234	0.352
-584.865	-60.684	0.424	0.181
-583.850	79.940	-0.107	0.116
-582.836	-50.841	-0.173	0.082
-581.821	-191.050	-0.052	-0.001
-580.806	-95.090	0.253	0.069
-579.792	41.007	-0.047	0.042
-578.777	358.589	0.145	0.291
-577.763	-126.992	0.255	-0.038
-576.748	500.253	-0.038	0.089
-575.733	-67.137	0.075	-0.030
-574.719	-200.000	-0.003	0.339
-573.704	-145.716	-0.241	0.022
-572.690	75.723	0.104	-0.110
-571.675	97.765	-0.164	0.189
-570.661	93.159	-0.145	0.164
-569.646	47.201	-0.137	0.128
-568.631	182.329	0.100	-0.148
-567.617	-22.934	0.230	-0.139
-566.602	47.704	-0.245	0.229
-565.588	-96.868	0.057	0.015
-564.573	0.351	0.386	0.277
-563.558	-146.689	-0.282	0.025
-562.544	-200.000	-0.009	0.162
-561.529	-140.971	0.309	0.032
-560.515	-200.000	-0.006	-0.115
-559.500	25.510	-0.104	-0.087
-558.485	-200.000	-0.016	-0.296
-557.471	800.000	0.061	-0.195
-556.456	-200.000	-0.024	-0.230
-555.442	-77.268	-0.254	0.089
-554.427	-40.243	0.124	-0.065
-553.412	-52.761	-0.263	0.122
-552.398	726.749	0.063	-0.167
-551.383	664.066	0.123	-0.318
-550.369	800.000	-0.024	-0.069
-549.354	9.236	-0.073	0.055
-548.339	0.737	-0.077	-0.055
-547.325	-200.000	-0.047	-0.206
-546.310	-128.457	-0.274	0.039
-545.296	-200.000	-0.022	0.171
-544.281	492.624	-0.127	-0.292
-543.266	394.048	-0.099	-0.207
-542.252	800.000	0.067	0.292
-541.237	-71.170	-0.291	0.110
-540.223	767.436	-0.066	0.180
-539.208	-15.850	0.238	0.152
-538.193	111.820	-0.076	-0.092
-537.179	648.367	0.188	0.483
-536.164	-144.722	0.043	0.004
-535.150	-200.000	0.039	0.202
-534.135	-69.509	0.171	0.066
-533.121	-145.424	0.125	0.011
-532.106	-200.000	0.038	-0.224
-531.091	-38.336	0.192	0.102
-530.077	-119.952	-0.308	0.053
-529.062	800.000	0.076	0.212
-528.048	55.810	0.190	0.185
-527.033	-54.297	0.060	-0.027
-526.018	-55.180	0.284	0.128
-525.004	-200.000	-0.011	0.199
-523.989	-111.268	-0.119	-0.024
-522.975	66.145	-0.245	0.249
-521.960	-65.479	0.111	-0.045
-520.945	88.968	0.189	0.210
-519.931	-163.977	-0.097	0.005
-518.916	-42.359	-0.276	-0.141
-517.902	-200.000	0.021	-0.154
-516.887	-200.000	-0.013	0.168
-515.872	146.399	-0.216	-0.291
-514.858	100.267	-0.101	-0.118
-513.843	64.371	-0.353	0.356
-512.829	-127.716	-0.156	-0.023
-511.814	132.179	0.207	-0.267
-510.799	-103.344	0.183	-0.043
-509.785	-169.170	-0.050	0.002
-508.770	-118.404	-0.204	-0.036
-507.756	-164.933	0.157	-0.007
-506.741	71.241	-0.247	-0.257
-505.726	-146.507	0.229	-0.020
-504.712	18.157	-0.339	-0.271
-503.697	54.607	0.177	0.171
-502.683	-126.057	0.209	-0.031
-501.668	-144.800	0.209	0.019
-500.653	11.299	0.113	0.086
-499.639	64.100	-0.037	-0.038
-498.624	800.000	-0.034	-0.129
-497.610	49.162	0.121	-0.114
-496.595	-200.000	0.022	-0.178
-495.581	619.609	0.090	-0.227
-494.566	-42.468	-0.156	0.080
-493.551	-11.520	-0.303	-0.199
-492.537	26.170	-0.164	-0.137
-491.522	172.153	-0.219	-0.315
-490.508	-192.148	0.392	0.004
-489.493	-31.145	-0.197	-0.111
-488.478	-200.000	0.004	-0.057
-487.464	800.000	0.126	-0.457
-486.449	122.394	-0.081	-0.101
-485.435	-40.070	-0.252	0.131
-484.420	-71.720	0.167	0.063
-483.405	-200.000	0.009	0.354
-482.391	410.472	-0.092	-0.195
-481.376	800.000	0.013	0.054
-480.362	800.000	0.104	0.312
-479.347	118.575	0.107	0.132
-478.332	-200.000	-0.003	0.233
-477.318	168.311	0.052	-0.074
-476.303	-63.470	-0.305	0.125
-475.289	-142.293	-0.317	-0.031
-474.274	-86.561	0.292	0.090
-473.259	95.235	-0.087	0.099
-472.245	-200.000	0.018	-0.160
-471.230	-10.638	-0.129	0.085
-470.216	115.377	-0.245	-0.299
-469.201	360.704	0.191	-0.382
-468.186	190.796	0.099	0.150
-467.172	146.388	0.071	0.095
-466.157	-200.000	0.016	-0.130
-465.143	192.238	0.103	-0.156
-464.128	171.187	0.041	-0.058
-463.113	-200.000	0.007	-0.050
-462.099	207.469	0.049	0.077
-461.084	-176.745	-0.277	0.007
-460.070	-121.682	0.203	0.034
-459.055	33.995	-0.092	0.080
-458.040	20.468	0.095	0.077
-457.026	119.995	-0.276	0.342
-456.011	-49.583	0.359	-0.171
-454.997	-200.000	0.091	0.494
-453.982	60.597	0.089	-0.088
-452.968	159.469	0.062	0.086
-451.953	-127.974	-0.235	0.034
-450.938	-43.652	-0.229	-0.115
-449.924	710.194	0.008	0.021
-448.909	-168.683	-0.432	-0.016
-447.895	800.000	0.057	-0.176
-446.880	800.000	0.013	-0.050
-445.865	580.057	-0.039	-0.095
-444.851	-200.000	-0.062	-0.343
-443.836	118.307	0.080	-0.098
-442.822	370.052	0.106	-0.215
-441.807	-7.429	0.187	-0.126
-440.792	-72.564	-0.201	-0.074
-439.778	-20.063	-0.371	0.229
-438.763	800.000	-0.087	0.268
-437.749	9.839	-0.225	0.170
-436.734	-107.063	0.254	-0.056
-435.719	-3.396	-0.370	0.258
-434.705	-200.000	-0.046	0.218
-433.690	-5.641	0.412	0.282
-432.676	-132.980	0.176	-0.022
-431.661	-200.000	-0.008	-0.158
-430.646	-200.000	0.032	0.365
-429.632	-118.255	-0.376	-0.067
-428.617	-21.716	-0.420	-0.256
-427.603	86.506	0.060	-0.067
-426.588	-31.652	-0.293	0.164
-425.573	-36.864	-0.080	-0.043
-424.559	232.981	-0.148	0.243
-423.544	-26.885	-0.246	-0.143
-422.530	-4.374	0.301	0.208
-421.515	117.267	-0.242	-0.297
-420.500	0.283	0.200	-0.142
-419.486	-51.094	0.083	0.039
-418.471	175.207	-0.158	-0.229
-417.457	50.183	-0.189	-0.178
-416.442	234.302	0.143	-0.235
-415.428	-78.969	0.036	0.012
-414.413	19.308	-0.189	0.152
-413.398	-58.308	-0.071	-0.031
-412.384	-200.000	0.020	-0.091
-411.369	-200.000	0.026	0.142
-410.355	354.647	0.024	-0.048
-409.340	-112.068	0.146	0.029
-408.325	180.478	-0.245	-0.359
-407.311	-29.037	-0.233	-0.133
-406.296	84.567	0.108	-0.118
-405.282	240.885	-0.146	0.243
-404.267	17.714	-0.193	-0.153
-403.252	-160.940	-0.295	0.015
-402.238	800.000	-0.032	0.128
-401.223	-63.178	0.289	0.119
-400.209	126.653	0.055	-0.070
-399.194	-150.317	0.348	-0.027
-398.179	323.996	-0.093	0.178
-397.165	-53.729	-0.138	-0.063
-396.150	-200.000	0.198	0.000
-395.136	8.512	0.200	0.150
-394.121	-200.000	-0.055	0.435
-393.106	6.887	0.249	0.185
-392.092	-143.643	-0.217	0.021
-391.077	800.000	-0.050	0.163
-390.063	36.934	-0.091	-0.080
-389.048	22.870	0.223	0.182
-388.033	52.504	0.157	0.150
-387.019	-200.000	-0.049	0.235
-386.004	-200.000	0.012	0.127
-384.990	-31.622	0.233	0.131
-383.975	11.232	-0.189	-0.144
-382.960	138.890	0.144	-0.188
-381.946	-105.805	0.166	-0.037
-380.931	24.235	-0.004	0.004
-379.917	-86.411	0.261	0.080
-378.902	-147.576	-0.305	0.026
-377.888	-72.689	0.163	0.060
-376.873	-200.000	0.003	-0.159
-375.858	-200.000	0.024	-0.145
-374.844	710.440	0.060	-0.159
-373.829	-200.000	0.029	-0.355
-372.815	-200.000	-0.022	0.276
-371.800	68.526	0.116	0.119
-370.785	-12.483	0.262	-0.170
-369.771	-200.000	-0.001	0.029
-368.756	186.593	0.086	-0.127
-367.742	800.000	-0.077	0.248
-366.727	38.200	0.199	-0.177
-365.712	692.660	0.097	-0.254
-364.698	-200.000	-0.015	-0.082
-363.683	-173.821	0.449	-0.013
-362.669	98.248	-0.299	-0.343
-361.654	206.888	-0.146	-0.227
-360.639	-154.445	0.059	0.004
-359.625	347.430	-0.044	0.086
-358.610	800.000	-0.061	-0.172
-357.596	-12.398	0.043	-0.028
-356.581	-60.186	-0.112	0.048
-355.566	-138.101	0.116	0.013
-354.552	-67.941	-0.231	-0.090
-353.537	-25.132	0.172	-0.101
-352.523	-44.066	-0.090	0.045
-351.508	-159.505	0.430	0.024
-350.493	6.760	-0.233	0.172
-349.479	-53.842	-0.142	0.065
-348.464	-137.281	0.331	-0.037
-347.450	-40.587	-0.017	0.009
-346.435	-200.000	-0.053	-0.260
-345.420	-200.000	-0.022	-0.326
-344.406	-20.803	-0.134	0.082
-343.391	116.478	0.103	0.126
-342.377	135.270	-0.173	-0.223
-341.362	-101.594	0.248	0.060
-340.348	-200.000	-0.010	-0.075
-339.333	138.524	-0.209	0.273
-338.318	-26.843	0.236	-0.137
-337.304	-8.866	0.147	0.098
-336.289	200.669	-0.019	-0.029
-335.275	258.048	-0.073	-0.125
-334.260	-200.000	-0.026	0.240
-333.245	246.818	-0.039	0.065
-332.231	-116.451	0.282	0.052
-331.216	-90.361	-0.444	0.128
-330.202	-67.919	-0.089	-0.035
-329.187	447.585	0.108	0.236
-328.172	64.623	-0.181	0.182
-327.158	-107.226	-0.179	0.039
-326.143	-134.677	0.400	0.048
-325.129	-95.402	-0.103	-0.028
-324.114	800.000	0.011	-0.044
-323.099	111.595	0.375	-0.451
-322.085	-200.000	0.036	0.233
-321.070	468.864	0.120	0.267
-320.056	-140.002	0.358	0.038
-319.041	-175.057	-0.425	-0.012
-318.026	48.029	-0.130	-0.121
-317.012	-200.000	-0.027	-0.241
-315.997	-200.000	0.006	0.032
-314.983	198.519	0.126	-0.191
-313.968	-200.000	0.001	-0.080
-312.953	-200.000	-0.061	-0.345
-311.939	-97.999	0.301	0.077
-310.924	-120.799	-0.124	0.021
-309.910	118.034	0.118	-0.145
-308.895	-123.785	0.411	0.065
-307.880	-79.914	-0.248	0.083
-306.866	-51.984	0.194	-0.090
-305.851	124.595	0.156	0.195
-304.837	800.000	0.109	-0.372
-303.822	-42.322	0.291	-0.147
-302.807	103.251	0.329	0.383
-301.793	-138.656	-0.252	-0.027
-300.778	-200.000	-0.038	0.187
-299.764	-200.000	0.000	-0.112
-298.749	-125.560	-0.085	-0.013
-297.735	-200.000	0.010	0.357
-296.720	-62.041	0.238	-0.099
-295.705	800.000	-0.004	0.015
-294.691	1.886	-0.159	0.114
-293.676	-57.119	-0.116	-0.051
-292.662	-200.000	0.027	0.225
-291.647	-69.833	0.130	-0.049
-290.632	3.293	-0.069	-0.050
-289.618	26.797	-0.321	-0.267
-288.603	127.856	-0.047	-0.060
-287.589	192.049	-0.233	-0.348
-286.574	236.634	-0.252	-0.414
-285.559	800.000	-0.047	0.129
-284.545	180.749	-0.042	-0.061
-283.530	96.196	0.066	0.075
-282.516	-200.000	-0.053	-0.255
-281.501	743.056	-0.177	-0.472
-280.486	800.000	-0.041	0.114
-279.472	800.000	-0.100	0.337
-278.457	456.232	0.078	0.171
-277.443	-111.721	0.290	0.058
-276.428	-2.160	-0.184	0.128
-275.413	-46.151	0.289	0.141
-274.399	-137.146	0.094	0.011
-273.384	161.976	-0.207	-0.287
-272.370	-176.244	0.214	-0.006
-271.355	-37.507	0.279	-0.148
-270.340	800.000	-0.106	0.414
-269.326	11.429	0.292	-0.222
-268.311	57.582	-0.065	-0.063
-267.297	-93.584	0.212	0.058
-266.282	-200.000	0.050	0.359
-265.267	800.000	0.108	-0.349
-264.253	117.066	-0.183	-0.223
-263.238	-11.749	-0.071	-0.047
-262.224	-129.605	-0.559	-0.077
-261.209	-200.000	0.020	-0.415
-260.195	800.000	0.077	-0.241
-259.180	-200.000	0.019	-0.182
-258.165	559.566	0.117	-0.280
-257.151	-200.000	-0.011	0.265
-256.136	506.374	0.044	0.101
-255.122	-81.330	-0.225	-0.074
-254.107	-55.875	-0.179	-0.079
-253.092	-200.000	-0.063	0.339
-252.078	70.013	-0.172	0.176
-251.063	-141.969	0.356	0.035
-250.049	229.946	-0.162	0.262
-249.034	377.617	0.065	-0.131
-248.019	101.277	0.064	-0.074
-247.005	-91.459	0.053	0.015
-245.990	-66.506	0.335	0.132
-244.976	141.596	0.100	0.132
-243.961	113.016	-0.002	0.003
-242.946	-200.000	0.037	0.259
-241.932	-127.399	-0.309	-0.045
-240.917	288.163	0.018	0.033
-239.903	-4.206	0.266	-0.183
-238.888	-115.841	-0.194	-0.036
-237.873	-70.477	-0.253	-0.095
-236.859	175.847	0.157	0.226
-235.844	30.624	0.142	0.121
-234.830	-119.073	-0.254	0.044
-233.815	-66.560	0.183	0.072
-232.800	-200.000	0.009	-0.077
-231.786	-36.040	-0.105	-0.056
-230.771	-84.153	-0.312	-0.098
-229.757	-99.838	0.174	-0.043
-228.742	-52.650	-0.219	0.100
-227.727	800.000	-0.052	-0.211
-226.713	-92.916	-0.072	0.020
-225.698	118.762	-0.132	-0.161
-224.684	-122.429	0.272	-0.044
-223.669	-139.967	0.237	-0.025
-222.655	83.015	0.065	-0.070
-221.640	54.523	0.160	0.153
-220.625	235.125	0.079	0.129
-219.611	31.358	0.140	-0.119
-218.596	-78.544	-0.190	-0.064
-217.582	-27.249	0.137	0.079
-216.567	800.000	-0.063	-0.175
-215.552	-11.387	-0.006	-0.004
-214.538	-126.836	0.260	-0.038
-213.523	266.849	0.158	0.273
-212.509	-111.252	0.243	-0.049
-211.494	395.249	0.080	-0.166
-210.479	-123.879	-0.162	0.025
-209.465	222.308	-0.134	-0.214
-208.450	-45.774	-0.296	0.145
-207.436	95.215	-0.170	-0.192
-206.421	-25.525	-0.187	0.110
-205.406	-38.233	0.100	-0.052
-204.392	244.175	0.091	-0.151
-203.377	-97.252	-0.166	0.043
-202.363	276.935	-0.110	-0.193
-201.348	800.000	-0.052	0.222
-200.333	-200.000	0.052	0.288
-199.319	-63.207	0.270	-0.110
-198.304	38.761	0.021	0.018
-197.290	466.100	0.019	-0.042
-196.275	-200.000	0.019	0.109
-195.260	500.205	-0.024	0.055
-194.246	5.921	0.107	0.078
-193.231	800.000	0.085	0.282
-192.217	800.000	0.143	0.477
-191.202	198.845	-0.175	0.266
-190.187	142.378	0.245	0.321
-189.173	-16.091	0.210	0.132
-188.158	-88.485	0.090	-0.027
-187.144	-200.000	0.040	0.279
-186.129	-118.413	0.291	-0.051
-185.114	-138.140	-0.475	0.052
-184.100	-4.690	0.034	-0.024
-183.085	-106.182	-0.187	-0.042
-182.071	800.000	0.073	-0.254
-181.056	232.840	-0.042	-0.069
-180.042	-200.000	-0.014	0.358
-179.027	-200.000	-0.040	0.314
-178.012	-200.000	0.049	-0.337
-176.998	-94.123	-0.166	0.045
-175.983	800.000	0.060	0.204
-174.969	258.316	-0.180	-0.306
-173.954	116.171	0.305	-0.370
-172.939	55.189	0.212	-0.203
-171.925	440.966	-0.064	-0.137
-170.910	70.374	0.095	-0.097
-169.896	-80.387	0.023	0.007
-168.881	477.835	-0.057	0.128
-167.866	800.000	-0.049	0.150
-166.852	-45.514	0.088	0.043
-165.837	-24.592	-0.223	-0.131
-164.823	-200.000	-0.004	-0.139
-163.808	-133.104	0.244	0.031
-162.793	-31.794	0.230	0.127
-161.779	-71.490	0.148	-0.055
-160.764	295.335	0.018	-0.032
-159.750	-111.843	-0.233	0.047
-158.735	-35.766	-0.255	0.137
-157.720	-148.305	0.071	-0.006
-156.706	800.000	-0.031	0.096
-155.691	800.000	-0.046	0.200
-154.677	-147.538	-0.238	0.020
-153.662	74.086	0.109	-0.113
-152.647	-200.000	0.100	-0.459
-151.633	347.370	0.043	0.083
-150.618	232.469	0.072	-0.116
-149.604	159.002	0.201	-0.277
-148.589	139.534	-0.143	-0.186
-147.574	-28.806	-0.335	0.190
-146.560	-140.809	-0.385	-0.039
-145.545	16.922	0.216	-0.169
-144.531	182.656	0.059	0.086
-143.516	-73.121	-0.123	-0.044
-142.502	54.344	0.112	0.106
-141.487	-102.032	0.290	-0.069
-140.472	23.990	0.262	0.213
-139.458	-200.000	0.004	0.106
-138.443	12.587	0.143	-0.109
-137.429	26.239	0.276	0.228
-136.414	-49.033	0.253	0.120
-135.399	63.094	0.265	-0.262
-134.385	800.000	0.098	-0.312
-133.370	-200.000	-0.014	-0.178
-132.356	-65.837	0.229	-0.090
-131.341	-169.586	-0.216	0.008
-130.326	-19.276	-0.340	0.208
-129.312	162.605	0.272	0.377
-128.297	-200.000	0.021	-0.156
-127.283	-6.902	-0.072	-0.049
-126.268	-107.703	0.352	0.076
-125.253	13.784	-0.052	-0.040
-124.239	-115.849	0.053	-0.010
-123.224	33.187	0.103	0.088
-122.210	55.841	0.171	0.164
-121.195	99.246	-0.105	0.120
