DTS Sentinel unit serial number:	SN413079Multiplexer serial number:	ORYXHardware model number:	OX4-SRSoftware version number:	ORYX F/W v4.00 Oryx Data Collector v3.7.2.0data status	okinstallation	princeton_trtdifferential loss correction	single-endedforward channel	channel 4reverse channel	N/Adate	2019/09/13time	06:37:34forward acquisition time	60.00reverse acquisition time	0.00gamma	496.2192k internal	0.2324k external	0.2324temperature offset calibration	1.0198default loss term (dB/km)	0.3790temperature slope calibration	1.0000multiplexer offset coefficient	1.0000multiplexer slope coefficient	1.0000fibre end	0.00T internal ref (°C)	26.06T ext. ref 1 (°C)	4.10T ext. ref 2 (°C)	20.65length (m)	temperature (°C)	Stokes	anti-Stokes-747.200	-137.651	-0.168	0.019
-746.185	-126.204	-0.294	0.044
-745.171	-55.519	0.078	0.035
-744.156	24.077	-0.322	0.268
-743.142	-8.494	0.163	-0.111
-742.127	-200.000	-0.052	0.364
-741.112	378.153	-0.100	-0.207
-740.098	-100.141	-0.427	-0.107
-739.083	-127.767	0.198	-0.029
-738.069	-72.287	0.164	-0.061
-737.054	-12.755	0.132	0.087
-736.039	-11.869	-0.291	-0.192
-735.025	360.097	0.066	0.133
-734.010	38.278	0.138	0.124
-732.996	-66.195	-0.072	0.029
-731.981	-200.000	0.021	0.125
-730.966	-200.000	0.049	0.398
-729.952	-200.000	-0.050	-0.235
-728.937	-200.000	0.045	0.254
-727.923	529.901	-0.072	0.173
-726.908	-44.472	0.062	-0.031
-725.894	584.132	0.067	-0.165
-724.879	99.474	0.084	-0.098
-723.864	20.014	-0.071	0.057
-722.850	72.974	-0.123	-0.129
-721.835	-67.792	0.097	-0.038
-720.821	-200.000	0.075	-0.461
-719.806	-36.946	0.444	0.240
-718.791	800.000	0.074	0.253
-717.777	800.000	0.014	-0.040
-716.762	-3.382	-0.104	0.073
-715.748	-154.360	0.140	0.009
-714.733	-200.000	0.025	-0.435
-713.718	-200.000	0.029	0.129
-712.704	-200.000	0.009	0.154
-711.689	-71.487	-0.376	-0.142
-710.675	9.350	0.036	0.028
-709.660	-15.350	0.248	0.160
-708.645	-200.000	0.014	0.146
-707.631	-74.269	0.141	-0.051
-706.616	-200.000	-0.047	-0.364
-705.602	-200.000	-0.094	-0.493
-704.587	-160.161	-0.299	-0.016
-703.572	61.007	-0.196	-0.196
-702.558	-122.067	0.226	-0.037
-701.543	641.980	-0.114	0.292
-700.529	699.541	-0.118	0.312
-699.514	-100.763	0.114	-0.028
-698.499	-200.000	0.025	0.141
-697.485	-200.000	-0.001	-0.090
-696.470	-200.000	-0.041	-0.454
-695.456	800.000	-0.020	-0.088
-694.441	86.045	-0.173	-0.192
-693.426	67.930	-0.187	-0.192
-692.412	-133.351	0.116	0.015
-691.397	27.376	-0.209	-0.177
-690.383	-142.741	0.450	-0.044
-689.368	-200.000	-0.133	-0.696
-688.354	-40.632	-0.385	-0.201
-687.339	-132.294	-0.280	-0.036
-686.324	-29.259	-0.085	-0.049
-685.310	-200.000	-0.241	-0.000
-684.295	52.347	0.157	-0.151
-683.281	-75.644	0.155	0.055
-682.266	800.000	0.057	0.182
-681.251	474.312	-0.115	-0.261
-680.237	211.782	-0.110	-0.174
-679.222	800.000	-0.052	0.153
-678.208	-82.890	0.185	0.060
-677.193	-200.000	-0.043	-0.271
-676.178	21.131	-0.227	-0.185
-675.164	614.752	0.202	0.510
-674.149	-168.826	-0.041	-0.002
-673.135	280.606	0.027	0.049
-672.120	-26.499	0.129	0.076
-671.105	194.478	-0.174	-0.266
-670.091	-102.559	-0.029	-0.007
-669.076	-25.059	-0.166	0.099
-668.062	129.326	0.106	0.136
-667.047	76.512	-0.132	-0.140
-666.032	64.666	0.046	0.046
-665.018	-200.000	0.003	-0.253
-664.003	-27.319	0.139	0.082
-662.989	-96.913	0.245	0.065
-661.974	128.500	-0.114	-0.147
-660.959	-168.324	-0.188	-0.007
-659.945	-34.914	-0.178	-0.098
-658.930	381.382	-0.062	-0.128
-657.916	-65.306	0.224	-0.091
-656.901	-126.118	-0.162	-0.024
-655.886	-29.136	0.134	0.077
-654.872	96.681	-0.217	-0.250
-653.857	-200.000	0.003	-0.101
-652.843	-58.836	0.109	0.047
-651.828	-200.000	-0.006	0.156
-650.814	111.866	0.193	-0.234
-649.799	-175.756	-0.194	-0.005
-648.784	-200.000	-0.009	-0.208
-647.770	-200.000	0.000	-0.191
-646.755	-200.000	0.019	0.119
-645.741	423.537	-0.090	-0.194
-644.726	800.000	0.071	0.264
-643.711	-77.603	-0.193	-0.067
-642.697	-142.138	0.312	0.031
-641.682	-200.000	0.008	0.269
-640.668	800.000	0.055	-0.227
-639.653	-91.563	0.055	-0.016
-638.638	-50.757	-0.138	0.065
-637.624	483.216	0.043	0.099
-636.609	-125.928	-0.077	0.012
-635.595	-200.000	-0.009	0.058
-634.580	-200.000	-0.010	-0.094
-633.565	13.811	0.158	-0.124
-632.551	-200.000	0.004	0.154
-631.536	-168.929	0.100	-0.004
-630.522	-65.195	-0.107	-0.043
-629.507	-72.495	0.132	0.049
-628.492	-87.911	-0.264	-0.080
-627.478	-200.000	0.015	0.125
-626.463	319.371	-0.103	0.197
-625.449	-103.998	-0.307	0.072
-624.434	-200.000	-0.032	0.172
-623.419	66.104	-0.133	0.136
-622.405	589.913	-0.067	0.166
-621.390	120.579	0.253	0.316
-620.376	623.216	-0.122	-0.309
-619.361	-200.000	0.030	-0.388
-618.346	28.909	0.215	0.183
-617.332	-130.600	-0.320	-0.043
-616.317	155.658	0.204	-0.282
-615.303	-120.966	0.305	-0.051
-614.288	-120.397	-0.376	-0.064
-613.273	-83.133	-0.110	-0.035
-612.259	-200.000	0.014	-0.202
-611.244	-18.294	0.175	0.110
-610.230	-111.068	-0.354	0.073
-609.215	-200.000	-0.019	-0.124
-608.201	-101.406	-0.080	0.020
-607.186	208.494	0.142	0.223
-606.171	602.480	-0.057	-0.143
-605.157	800.000	0.013	-0.043
-604.142	-79.443	-0.304	0.103
-603.128	-107.299	-0.100	0.022
-602.113	-43.496	-0.177	-0.090
-601.098	-200.000	-0.031	-0.173
-600.084	800.000	0.010	-0.035
-599.069	800.000	0.030	0.094
-598.055	-60.538	-0.211	0.090
-597.040	800.000	0.046	-0.173
-596.025	-102.371	-0.285	-0.069
-595.011	-200.000	0.043	-0.195
-593.996	197.757	0.021	0.032
-592.982	111.936	-0.104	-0.126
-591.967	-102.565	-0.139	-0.033
-590.952	-110.924	0.418	0.086
-589.938	-200.000	0.065	0.465
-588.923	-89.430	0.146	-0.043
-587.909	-200.000	0.008	0.164
-586.894	-200.000	0.001	0.079
-585.879	-200.000	-0.025	-0.147
-584.865	68.236	0.225	0.231
-583.850	389.277	-0.202	0.419
-582.836	46.941	0.243	0.226
-581.821	-34.012	-0.147	0.081
-580.806	-200.000	-0.051	0.309
-579.792	293.541	0.079	-0.144
-578.777	70.899	-0.170	-0.176
-577.763	-200.000	0.018	-0.099
-576.748	-9.624	-0.144	-0.096
-575.733	-96.011	-0.300	0.080
-574.719	-200.000	-0.016	0.118
-573.704	20.014	0.159	0.128
-572.690	-42.635	-0.120	-0.061
-571.675	-127.496	0.092	-0.013
-570.661	-67.145	0.220	-0.087
-569.646	-200.000	-0.009	-0.350
-568.631	-200.000	-0.024	0.181
-567.617	800.000	-0.057	-0.234
-566.602	210.584	-0.144	-0.226
-565.588	-14.725	0.125	-0.080
-564.573	-101.694	-0.164	0.040
-563.558	16.404	0.035	0.028
-562.544	51.336	-0.014	0.013
-561.529	-29.886	-0.225	0.128
-560.515	299.344	0.172	-0.318
-559.500	142.591	0.283	-0.376
-558.485	800.000	0.124	0.365
-557.471	-200.000	0.008	-0.040
-556.456	226.238	0.116	-0.188
-555.442	305.782	0.048	-0.089
-554.427	525.099	-0.138	-0.325
-553.412	-43.321	-0.185	0.094
-552.398	141.810	0.172	-0.228
-551.383	3.960	0.181	0.132
-550.369	800.000	-0.036	-0.142
-549.354	-43.663	-0.183	-0.093
-548.339	-49.455	0.205	-0.098
-547.325	-66.184	0.199	0.080
-546.310	-200.000	-0.062	-0.390
-545.296	-109.601	0.222	-0.047
-544.281	-139.379	-0.271	0.029
-543.266	103.691	-0.174	0.205
-542.252	35.815	0.346	0.304
-541.237	14.575	-0.238	-0.186
-540.223	-180.359	-0.096	0.002
-539.208	800.000	0.095	-0.326
-538.193	-111.645	-0.158	0.032
-537.179	-23.830	0.290	-0.174
-536.164	232.532	0.223	-0.366
-535.150	97.518	-0.093	-0.107
-534.135	-159.623	-0.199	0.011
-533.121	233.869	-0.165	0.272
-532.106	-80.087	-0.178	-0.060
-531.091	442.074	-0.143	0.314
-530.077	27.134	0.146	-0.123
-529.062	428.127	0.102	-0.220
-528.048	-0.595	0.275	0.195
-527.033	38.629	0.147	0.131
-526.018	125.406	-0.140	-0.176
-525.004	-92.338	-0.148	-0.042
-523.989	-81.058	-0.132	-0.044
-522.975	21.265	0.109	0.088
-521.960	365.328	-0.043	0.087
-520.945	-22.501	0.212	-0.129
-519.931	386.827	-0.021	0.044
-518.916	31.684	-0.125	-0.108
-517.902	-50.654	-0.363	0.171
-516.887	-200.000	0.035	0.165
-515.872	260.128	-0.067	0.117
-514.858	331.858	-0.133	-0.257
-513.843	-200.000	-0.080	-0.359
-512.829	22.611	0.219	0.179
-511.814	584.937	-0.094	-0.232
-510.799	-49.899	-0.138	0.066
-509.785	-91.950	-0.311	0.088
-508.770	-200.000	0.005	-0.325
-507.756	800.000	-0.045	0.174
-506.741	-90.627	0.100	0.029
-505.726	65.821	0.070	-0.071
-504.712	-90.257	-0.187	0.054
-503.697	-200.000	-0.046	-0.274
-502.683	-135.549	-0.480	0.057
-501.668	800.000	-0.013	0.037
-500.653	78.772	0.334	0.357
-499.639	-113.410	0.183	0.036
-498.624	-200.000	-0.045	-0.219
-497.610	-72.340	-0.078	-0.029
-496.595	-30.944	-0.296	0.167
-495.581	397.391	0.075	-0.157
-494.566	-200.000	0.005	0.238
-493.551	-86.933	-0.280	0.085
-492.537	-107.224	0.302	-0.066
-491.522	-200.000	-0.038	0.476
-490.508	516.431	-0.065	0.153
-489.493	-94.623	-0.020	-0.005
-488.478	-162.918	-0.134	0.006
-487.464	800.000	0.031	0.101
-486.449	40.916	0.346	-0.312
-485.435	244.787	0.095	0.159
-484.420	-120.940	-0.182	0.031
-483.405	-20.726	0.399	-0.245
-482.391	-123.708	0.283	0.045
-481.376	57.515	-0.363	0.354
-480.362	-59.193	0.280	0.120
-479.347	184.083	-0.140	-0.207
-478.332	-26.989	-0.108	-0.063
-477.318	-200.000	-0.002	-0.051
-476.303	1.303	-0.259	0.186
-475.289	-200.000	-0.053	0.281
-474.274	23.651	0.175	0.144
-473.259	-82.679	-0.437	0.141
-472.245	-57.381	-0.071	-0.031
-471.230	233.681	0.103	-0.169
-470.216	800.000	-0.112	0.324
-469.201	81.463	0.163	0.176
-468.186	-200.000	-0.019	-0.275
-467.172	-112.899	0.239	-0.047
-466.157	9.835	0.044	0.033
-465.143	-34.821	-0.135	-0.074
-464.128	145.261	-0.169	-0.226
-463.113	349.806	-0.159	-0.313
-462.099	-200.000	-0.001	0.025
-461.084	-14.082	-0.284	-0.183
-460.070	-151.974	-0.308	-0.022
-459.055	-114.492	-0.348	-0.067
-458.040	800.000	-0.058	0.173
-457.026	-74.410	0.248	0.089
-456.011	104.702	-0.135	0.159
-454.997	800.000	-0.145	-0.442
-453.982	800.000	-0.071	-0.196
-452.968	800.000	0.133	0.367
-451.953	-60.693	-0.446	-0.189
-450.938	-103.796	0.245	-0.057
-449.924	-103.066	-0.205	-0.048
-448.909	-87.889	-0.083	-0.025
-447.895	50.050	-0.163	0.153
-446.880	-81.196	0.417	-0.137
-445.865	-200.000	0.033	-0.288
-444.851	784.513	-0.083	0.227
-443.836	-200.000	-0.012	0.156
-442.822	177.533	0.140	0.203
-441.807	-53.445	-0.106	-0.048
-440.792	198.637	-0.339	0.517
-439.778	-75.449	0.139	-0.049
-438.763	131.391	0.152	0.195
-437.749	-115.696	0.411	-0.077
-436.734	-200.000	0.045	0.226
-435.719	800.000	0.077	0.286
-434.705	501.840	-0.027	0.062
-433.690	554.055	-0.161	0.386
-432.676	-54.813	0.205	0.092
-431.661	-61.576	0.354	0.148
-430.646	-200.000	0.026	0.301
-429.632	729.111	0.157	0.418
-428.617	3.815	0.096	0.070
-427.603	800.000	0.087	-0.242
-426.588	-200.000	0.010	0.295
-425.573	-25.503	-0.280	0.165
-424.559	-200.000	-0.026	0.255
-423.544	207.289	0.071	0.110
-422.530	422.991	-0.121	-0.259
-421.515	86.177	-0.153	0.168
-420.500	-144.690	-0.140	-0.013
-419.486	-21.182	0.205	0.125
-418.471	-200.000	-0.048	0.345
-417.457	-112.845	0.172	0.034
-416.442	-200.000	-0.035	-0.163
-415.428	-200.000	-0.006	0.235
-414.413	-143.508	0.218	0.021
-413.398	112.206	0.026	-0.031
-412.384	90.660	-0.105	0.118
-411.369	252.827	0.131	0.222
-410.355	147.978	0.016	-0.022
-409.340	270.091	-0.049	-0.086
-408.325	800.000	-0.072	-0.222
-407.311	72.366	0.074	-0.077
-406.296	-123.816	0.279	-0.044
-405.282	95.429	0.158	-0.180
-404.267	-200.000	-0.013	-0.204
-403.252	-73.697	0.308	-0.112
-402.238	-200.000	-0.077	0.354
-401.223	32.868	0.092	0.079
-400.209	-2.868	-0.400	-0.278
-399.194	-25.671	-0.325	-0.191
-398.179	-200.000	-0.037	0.174
-397.165	362.017	0.067	-0.135
-396.150	27.637	0.162	0.136
-395.136	223.356	0.192	0.308
-394.121	68.496	0.253	0.258
-393.106	-200.000	0.036	0.426
-392.092	-79.895	0.087	-0.029
-391.077	101.804	0.036	0.041
-390.063	-140.086	0.315	0.033
-389.048	-96.249	0.108	-0.028
-388.033	-114.335	-0.259	0.050
-387.019	-50.728	0.120	-0.056
-386.004	-3.312	0.245	-0.170
-384.990	-7.472	0.086	-0.058
-383.975	12.633	-0.214	0.164
-382.960	3.372	0.172	0.125
-381.946	-200.000	-0.010	0.127
-380.931	-29.818	-0.223	-0.126
-379.917	256.279	0.151	0.258
-378.902	-200.000	0.024	0.214
-377.888	-78.304	-0.327	-0.112
-376.873	-200.000	-0.009	-0.161
-375.858	800.000	-0.058	-0.173
-374.844	-17.719	0.203	-0.127
-373.829	-200.000	-0.039	-0.269
-372.815	-200.000	0.002	0.037
-371.800	583.852	-0.100	0.244
-370.785	800.000	-0.044	-0.129
-369.771	-14.127	0.415	-0.266
-368.756	199.175	-0.179	-0.273
-367.742	123.018	0.140	-0.174
-366.727	800.000	0.029	0.090
-365.712	12.057	0.063	0.048
-364.698	457.400	0.070	0.154
-363.683	-5.173	0.125	0.085
-362.669	600.124	-0.057	-0.140
-361.654	-200.000	0.005	0.376
-360.639	119.250	-0.086	-0.106
-359.625	-51.570	0.111	0.052
-358.610	-200.000	0.020	-0.140
-357.596	100.537	-0.232	-0.268
-356.581	140.415	0.155	-0.203
-355.566	-52.790	-0.103	-0.047
-354.552	149.545	0.086	-0.115
-353.537	-7.717	0.175	0.118
-352.523	21.452	0.134	-0.109
-351.508	-79.100	0.141	-0.048
-350.493	-37.057	0.349	0.186
-349.479	115.733	-0.072	-0.087
-348.464	0.552	0.185	-0.131
-347.450	-200.000	-0.035	-0.239
-346.435	346.449	-0.064	-0.126
-345.420	-85.091	0.157	0.049
-344.406	-179.310	-0.311	-0.007
-343.391	-17.600	-0.296	-0.185
-342.377	800.000	-0.040	-0.117
-341.362	-142.618	-0.295	-0.029
-340.348	218.067	-0.208	0.329
-339.333	-0.956	-0.132	0.093
-338.318	800.000	-0.039	0.141
-337.304	-100.372	-0.259	0.064
-336.289	159.145	-0.139	-0.192
-335.275	260.328	0.163	0.279
-334.260	362.131	0.086	-0.172
-333.245	800.000	-0.015	0.054
-332.231	254.196	0.106	0.180
-331.216	73.559	0.079	-0.082
-330.202	-126.812	0.136	0.020
-329.187	31.237	-0.296	-0.252
-328.172	-166.617	0.295	-0.012
-327.158	-168.134	0.136	-0.005
-326.143	95.624	-0.122	-0.138
-325.129	-144.089	-0.133	0.012
-324.114	1.185	0.099	0.070
-323.099	-188.552	-0.077	-0.001
-322.085	-135.218	-0.253	-0.030
-321.070	-57.760	0.559	-0.243
-320.056	-200.000	0.038	0.228
-319.041	178.720	-0.236	-0.342
-318.026	538.793	0.025	-0.058
-317.012	-28.946	-0.162	0.092
-315.997	-200.000	0.034	0.000
-314.983	-105.801	0.060	0.013
-313.968	397.746	-0.035	0.074
-312.953	-200.000	0.025	0.198
-311.939	67.648	0.072	0.073
-310.924	-142.800	-0.117	-0.011
-309.910	4.944	0.264	0.193
-308.895	373.753	0.113	0.229
-307.880	-200.000	0.034	0.182
-306.866	72.335	-0.029	0.030
-305.851	218.009	0.111	0.176
-304.837	70.740	0.075	0.077
-303.822	-24.497	0.196	0.116
-302.807	461.667	-0.170	-0.377
-301.793	186.035	0.084	-0.124
-300.778	-106.007	0.194	0.043
-299.764	404.472	-0.172	-0.360
-298.749	-0.417	-0.084	-0.059
-297.735	-200.000	-0.047	-0.220
-296.720	-103.751	0.544	0.126
-295.705	120.506	0.204	-0.252
-294.691	-58.630	0.224	0.096
-293.676	-54.709	-0.062	0.028
-292.662	4.904	-0.431	-0.314
-291.647	4.468	0.258	0.188
-290.632	110.821	0.065	-0.077
-289.618	-200.000	0.021	-0.162
-288.603	-50.713	0.377	-0.176
-287.589	-10.204	-0.072	-0.047
-286.574	-200.000	0.082	0.495
-285.559	-88.290	0.103	-0.031
-284.545	-200.000	-0.005	0.230
-283.530	458.308	0.135	0.297
-282.516	-23.590	-0.269	-0.160
-281.501	-13.437	-0.096	-0.062
-280.486	-33.481	0.449	-0.246
-279.472	44.436	0.223	-0.203
-278.457	800.000	-0.075	-0.229
-277.443	-93.213	-0.293	-0.081
-276.428	-200.000	0.033	-0.279
-275.413	-126.996	0.168	-0.024
-274.399	81.323	0.198	0.212
-273.384	-200.000	-0.024	-0.186
-272.370	28.415	0.101	0.084
-271.355	-2.653	-0.455	-0.315
-270.340	800.000	0.042	-0.145
-269.326	-200.000	-0.020	-0.204
-268.311	538.058	0.082	-0.192
-267.297	-52.872	-0.345	-0.158
-266.282	-24.359	-0.220	-0.130
-265.267	-83.596	0.269	0.085
-264.253	351.429	-0.094	-0.184
-263.238	-95.834	-0.198	0.052
-262.224	-136.496	0.091	0.010
-261.209	71.846	-0.071	-0.073
-260.195	800.000	0.014	-0.042
-259.180	199.608	0.127	-0.193
-258.165	-24.553	0.077	0.045
-257.151	-46.907	0.155	0.075
-256.136	-59.963	0.275	0.116
-255.122	-200.000	0.004	0.053
-254.107	-114.759	0.522	0.099
-253.092	-200.000	0.019	0.124
-252.078	255.041	-0.141	0.239
-251.063	-200.000	-0.038	0.176
-250.049	-74.203	-0.291	-0.104
-249.034	-191.574	0.332	-0.003
-248.019	800.000	-0.122	0.337
-247.005	-136.128	-0.235	0.027
-245.990	-114.855	0.205	-0.039
-244.976	-111.981	-0.279	-0.056
-243.961	800.000	-0.096	-0.330
-242.946	-52.599	0.238	-0.109
-241.932	4.315	0.165	-0.120
-240.917	-200.000	-0.016	0.085
-239.903	474.177	0.154	0.344
-238.888	-121.376	-0.178	0.029
-237.873	-27.377	0.201	0.116
-236.859	-3.599	-0.071	-0.049
-235.844	5.329	-0.044	0.032
-234.830	146.477	0.131	0.175
-233.815	-4.615	-0.124	-0.085
-232.800	414.303	-0.110	0.232
-231.786	-165.159	-0.201	-0.009
-230.771	85.156	0.264	-0.287
-229.757	38.029	0.193	-0.170
-228.742	-186.348	-0.321	0.005
-227.727	19.373	-0.197	0.157
-226.713	304.381	-0.139	-0.256
-225.698	800.000	-0.078	-0.234
-224.684	45.426	-0.248	0.227
-223.669	800.000	0.027	0.116
-222.655	507.725	0.014	-0.031
-221.640	-107.512	-0.121	0.026
-220.625	-23.576	0.234	-0.139
-219.611	800.000	0.003	0.009
-218.596	160.610	0.123	0.170
-217.582	-0.731	-0.098	-0.069
-216.567	675.676	-0.099	-0.254
-215.552	496.989	-0.039	-0.088
-214.538	322.185	-0.136	-0.255
-213.523	33.442	0.181	-0.155
-212.509	8.572	0.063	-0.047
-211.494	-200.000	0.002	0.191
-210.479	-200.000	-0.000	0.032
-209.465	800.000	-0.055	-0.217
-208.450	800.000	-0.068	0.207
-207.436	-161.962	0.373	0.019
-206.421	384.852	0.038	0.078
-205.406	-10.499	-0.138	0.090
-204.392	33.097	-0.111	0.095
-203.377	-200.000	-0.016	0.290
-202.363	-124.025	0.411	0.064
-201.348	-105.953	-0.261	0.058
-200.333	98.742	0.182	0.207
-199.319	734.696	0.039	0.102
-198.304	-64.802	0.046	0.019
-197.290	77.746	0.067	0.070
-196.275	91.669	0.201	-0.223
-195.260	-17.188	-0.317	-0.198
-194.246	800.000	-0.025	-0.092
-193.231	-105.344	0.195	0.044
-192.217	21.755	-0.145	-0.116
-191.202	-113.380	-0.400	0.078
-190.187	-141.784	-0.252	-0.025
-189.173	-71.955	0.311	-0.114
-188.158	186.729	-0.134	-0.197
-187.144	800.000	0.050	0.187
-186.129	430.680	0.105	-0.225
-185.114	95.609	-0.117	0.131
-184.100	-109.405	0.078	-0.016
-183.085	-181.426	-0.363	-0.007
-182.071	-50.460	0.479	0.223
-181.056	-105.035	-0.501	-0.113
-180.042	53.187	0.328	0.310
-179.027	-66.999	0.170	0.066
-178.012	90.450	0.295	-0.326
-176.998	157.607	0.137	-0.187
-175.983	28.692	0.075	-0.063
-174.969	226.612	-0.148	0.238
-173.954	-12.603	0.045	0.029
-172.939	-51.571	-0.194	-0.090
-171.925	516.063	-0.043	0.099
-170.910	-32.970	-0.192	-0.105
-169.896	4.140	0.190	-0.137
-168.881	-200.000	-0.009	-0.128
-167.866	-60.715	-0.227	-0.095
-166.852	421.985	0.089	0.188
-165.837	-64.056	-0.341	0.138
-164.823	800.000	0.053	0.188
-163.808	-62.144	0.215	-0.089
-162.793	0.073	-0.187	-0.132
-161.779	-9.560	-0.258	-0.170
-160.764	-167.676	0.187	-0.007
-159.750	-90.232	-0.099	0.028
-158.735	-72.199	-0.040	-0.015
-157.720	161.271	0.274	0.378
-156.706	-200.000	-0.059	-0.480
-155.691	179.726	-0.043	0.062
-154.677	-34.270	-0.063	0.034
-153.662	-29.907	-0.106	0.060
-152.647	-169.633	0.404	0.014
-151.633	-102.158	-0.130	0.031
-150.618	2.159	0.098	0.070
-149.604	-34.547	0.186	-0.100
-148.589	-200.000	-0.000	0.114
-147.574	171.668	0.284	-0.403
-146.560	81.767	-0.155	-0.165
-145.545	655.945	-0.053	0.134
-144.531	426.344	-0.138	0.293
-143.516	10.503	0.229	-0.172
-142.502	800.000	-0.026	0.110
-141.487	-200.000	-0.057	0.344
-140.472	618.615	0.112	-0.277
-139.458	-98.340	0.253	-0.064
-138.443	68.434	0.163	-0.165
-137.429	-135.371	-0.176	0.021
-136.414	179.114	0.068	0.099
-135.399	375.171	-0.035	0.070
-134.385	800.000	0.099	0.338
-133.370	-200.000	0.003	0.160
-132.356	190.797	0.089	0.132
-131.341	-80.748	0.166	0.054
-130.326	126.722	0.026	-0.032
-129.312	-129.076	-0.313	-0.043
-128.297	-67.098	-0.203	-0.079
-127.283	-200.000	-0.015	-0.132
-126.268	152.361	-0.239	0.322
-125.253	800.000	-0.039	-0.153
-124.239	777.579	-0.037	-0.101
-123.224	-97.500	0.059	-0.015
-122.210	-200.000	0.038	0.264
