DTS Sentinel unit serial number:	SN413079Multiplexer serial number:	ORYXHardware model number:	OX4-SRSoftware version number:	ORYX F/W v4.00 Oryx Data Collector v3.7.2.0data status	okinstallation	princeton_trtdifferential loss correction	single-endedforward channel	channel 4reverse channel	N/Adate	2019/09/13time	22:05:35forward acquisition time	60.00reverse acquisition time	0.00gamma	496.2192k internal	0.2320k external	0.2320temperature offset calibration	1.0139default loss term (dB/km)	0.3790temperature slope calibration	1.0000multiplexer offset coefficient	1.0000multiplexer slope coefficient	1.0000fibre end	0.00T internal ref (°C)	27.94T ext. ref 1 (°C)	3.25T ext. ref 2 (°C)	22.69length (m)	temperature (°C)	Stokes	anti-Stokes-747.200	-7.593	-0.161	0.110
-746.185	-41.324	0.264	0.137
-745.171	135.653	-0.138	0.182
-744.156	-124.121	0.090	0.014
-743.142	-87.787	0.071	-0.022
-742.127	-22.775	0.066	0.041
-741.112	6.295	0.011	0.008
-740.098	-90.945	-0.317	-0.092
-739.083	-141.194	0.284	0.029
-738.069	232.239	-0.120	0.200
-737.054	639.250	-0.158	0.406
-736.039	-89.605	-0.180	-0.053
-735.025	34.647	-0.213	-0.188
-734.010	-7.249	-0.195	-0.134
-732.996	99.905	-0.316	-0.370
-731.981	-71.584	-0.111	0.042
-730.966	-47.952	-0.211	0.103
-729.952	-87.603	-0.252	0.077
-728.937	-111.546	-0.313	-0.064
-727.923	-200.000	0.036	-0.338
-726.908	-27.836	0.352	-0.206
-725.894	327.963	0.118	-0.228
-724.879	-200.000	-0.109	-0.515
-723.864	198.038	0.176	-0.272
-722.850	-98.006	0.390	-0.102
-721.835	-40.383	-0.071	-0.037
-720.821	-145.962	-0.373	-0.033
-719.806	17.258	-0.134	0.107
-718.791	-200.000	-0.020	0.269
-717.777	-200.000	0.025	-0.441
-716.762	104.247	0.286	-0.340
-715.748	-200.000	-0.008	-0.130
-714.733	253.176	-0.124	-0.213
-713.718	688.260	-0.120	-0.317
-712.704	-32.459	0.045	-0.025
-711.689	-79.832	-0.433	0.147
-710.675	6.225	0.105	-0.079
-709.660	339.954	0.045	-0.088
-708.645	76.743	0.224	-0.239
-707.631	-37.168	0.352	0.190
-706.616	267.788	-0.050	0.088
-705.602	704.152	0.080	0.213
-704.587	-117.849	-0.308	0.056
-703.572	-13.491	0.379	-0.248
-702.558	-97.756	-0.084	0.022
-701.543	739.575	-0.054	-0.147
-700.529	-118.206	0.242	0.044
-699.514	7.376	-0.165	-0.124
-698.499	34.496	-0.221	0.195
-697.485	168.678	0.118	-0.169
-696.470	494.912	-0.081	0.189
-695.456	161.611	0.194	0.274
-694.441	2.904	0.359	-0.263
-693.426	-59.311	-0.255	-0.111
-692.412	-185.869	0.214	-0.003
-691.397	335.346	0.204	0.400
-690.383	-200.000	0.021	-0.183
-689.368	-200.000	0.004	0.234
-688.354	-75.071	-0.382	-0.138
-687.339	-200.000	0.043	-0.216
-686.324	-41.800	-0.267	-0.138
-685.310	-58.532	0.252	-0.110
-684.295	-0.635	-0.050	-0.036
-683.281	391.886	0.165	-0.346
-682.266	-28.741	-0.197	-0.114
-681.251	401.064	-0.080	0.169
-680.237	-34.087	-0.273	-0.151
-679.222	-105.323	0.193	0.044
-678.208	-161.809	-0.198	0.010
-677.193	-30.190	-0.259	-0.149
-676.178	800.000	-0.103	0.400
-675.164	146.568	-0.249	0.337
-674.149	-99.509	-0.178	0.045
-673.135	84.459	0.128	-0.141
-672.120	382.877	-0.081	0.169
-671.105	-20.866	0.028	-0.018
-670.091	127.626	0.136	-0.174
-669.076	120.210	-0.072	-0.090
-668.062	106.291	0.278	-0.332
-667.047	134.322	0.243	0.318
-666.032	-0.875	0.045	-0.032
-665.018	-152.663	0.173	-0.012
-664.003	115.007	-0.048	-0.059
-662.989	87.073	-0.161	0.179
-661.974	-13.027	-0.133	0.087
-660.959	-200.000	0.007	0.133
-659.945	131.281	-0.214	-0.277
-658.930	-142.625	0.109	-0.011
-657.916	-77.886	-0.069	-0.024
-656.901	-200.000	-0.043	-0.400
-655.886	-127.429	0.072	-0.010
-654.872	800.000	-0.064	0.186
-653.857	186.980	0.061	0.091
-652.843	-65.123	0.150	0.061
-651.828	-57.701	0.309	0.136
-650.814	800.000	0.104	0.412
-649.799	-200.000	-0.014	0.120
-648.784	213.202	-0.080	-0.128
-647.770	-95.627	-0.288	-0.078
-646.755	227.523	-0.072	-0.117
-645.741	-86.553	-0.172	-0.053
-644.726	65.096	0.188	0.192
-643.711	6.955	0.151	-0.114
-642.697	-26.438	0.193	0.114
-641.682	-30.181	0.118	0.068
-640.668	514.931	-0.060	-0.141
-639.653	357.863	0.171	-0.345
-638.638	-4.993	0.058	0.040
-637.624	99.402	0.096	0.112
-636.609	-98.066	0.127	0.033
-635.595	-98.026	0.244	0.063
-634.580	12.656	-0.222	0.172
-633.565	25.811	-0.098	-0.082
-632.551	122.087	0.056	0.070
-631.536	138.411	-0.197	-0.261
-630.522	-145.705	-0.386	-0.035
-629.507	466.478	-0.061	-0.138
-628.492	-25.201	0.228	0.136
-627.478	800.000	0.073	0.295
-626.463	121.520	0.172	0.216
-625.449	-200.000	0.025	-0.147
-624.434	-200.000	-0.009	-0.189
-623.419	-13.551	0.146	0.095
-622.405	800.000	0.009	0.027
-621.390	-59.970	-0.388	0.167
-620.376	-83.207	0.033	0.011
-619.361	-200.000	0.024	0.133
-618.346	800.000	-0.149	0.414
-617.332	124.096	0.153	0.194
-616.317	19.281	-0.096	0.077
-615.303	42.284	-0.231	0.212
-614.288	747.859	0.061	-0.165
-613.273	192.628	-0.099	-0.151
-612.259	45.130	-0.052	0.049
-611.244	-200.000	-0.020	0.269
-610.230	197.965	-0.088	0.136
-609.215	238.269	-0.086	0.144
-608.201	103.427	0.230	0.272
-607.186	289.292	0.044	-0.081
-606.171	-115.183	-0.116	0.022
-605.157	-166.773	-0.124	-0.005
-604.142	119.132	-0.042	0.052
-603.128	-82.096	0.327	0.107
-602.113	-200.000	0.024	0.223
-601.098	-200.000	-0.012	-0.197
-600.084	12.625	-0.238	-0.185
-599.069	800.000	-0.014	0.058
-598.055	181.236	0.110	-0.163
-597.040	154.433	-0.040	0.056
-596.025	-200.000	-0.039	-0.267
-595.011	-78.465	-0.238	-0.082
-593.996	-200.000	0.019	0.140
-592.982	-3.776	0.071	0.049
-591.967	121.980	-0.036	-0.046
-590.952	-14.262	-0.280	0.182
-589.938	71.571	0.093	0.097
-588.923	-72.968	-0.397	-0.147
-587.909	91.659	0.062	-0.071
-586.894	32.083	0.070	0.060
-585.879	-12.690	-0.046	-0.030
-584.865	800.000	0.042	-0.130
-583.850	-163.900	-0.464	-0.022
-582.836	-200.000	-0.020	0.145
-581.821	69.477	0.192	-0.199
-580.806	-54.344	-0.064	0.029
-579.792	-200.000	0.009	0.289
-578.777	-88.160	0.233	-0.070
-577.763	800.000	0.049	-0.202
-576.748	283.353	0.119	-0.215
-575.733	-81.317	0.184	0.061
-574.719	-16.499	-0.292	-0.186
-573.704	-120.053	0.344	-0.059
-572.690	185.278	0.065	-0.097
-571.675	800.000	0.004	0.012
-570.661	800.000	0.084	-0.299
-569.646	29.832	0.133	-0.114
-568.631	-27.399	-0.217	0.126
-567.617	-200.000	-0.033	0.366
-566.602	-58.920	0.149	-0.065
-565.588	-85.394	-0.228	-0.071
-564.573	-56.173	-0.096	-0.043
-563.558	-200.000	-0.004	-0.397
-562.544	280.990	-0.154	0.276
-561.529	800.000	0.048	0.144
-560.515	-200.000	0.007	0.186
-559.500	47.079	0.160	-0.150
-558.485	800.000	-0.072	0.308
-557.471	-105.870	-0.340	-0.077
-556.456	-89.431	0.182	-0.054
-555.442	800.000	-0.013	-0.039
-554.427	176.122	-0.089	0.130
-553.412	-87.505	0.331	0.101
-552.398	18.034	0.154	0.123
-551.383	185.582	0.108	-0.161
-550.369	40.537	0.151	-0.136
-549.354	47.069	0.086	0.080
-548.339	-60.297	0.031	0.013
-547.325	269.782	-0.100	0.176
-546.310	-200.000	-0.040	0.225
-545.296	-44.929	-0.129	0.064
-544.281	-167.647	0.150	0.006
-543.266	43.434	0.292	0.268
-542.252	-200.000	0.002	-0.080
-541.237	270.882	-0.161	-0.285
-540.223	-15.695	0.321	-0.205
-539.208	113.186	0.051	-0.062
-538.193	-56.332	-0.162	-0.072
-537.179	-48.100	0.058	0.028
-536.164	800.000	-0.078	-0.341
-535.150	449.163	0.089	0.197
-534.135	-187.124	0.321	-0.004
-533.121	-104.607	0.077	-0.018
-532.106	-200.000	0.011	0.468
-531.091	-200.000	-0.002	-0.246
-530.077	98.513	0.182	-0.211
-529.062	128.433	-0.237	-0.303
-528.048	-31.075	0.143	-0.081
-527.033	-137.225	0.227	-0.026
-526.018	-5.327	-0.119	0.082
-525.004	130.920	-0.091	-0.117
-523.989	241.135	-0.273	-0.457
-522.975	37.517	0.173	0.154
-521.960	146.610	0.050	0.068
-520.945	14.950	-0.175	-0.138
-519.931	-200.000	0.009	0.059
-518.916	-200.000	-0.012	-0.208
-517.902	-133.702	0.121	0.015
-516.887	-200.000	-0.008	0.139
-515.872	-98.190	-0.233	0.060
-514.858	-5.668	-0.235	-0.162
-513.843	531.276	0.092	0.218
-512.829	-200.000	-0.020	-0.198
-511.814	-36.109	-0.086	0.047
-510.799	64.768	0.104	-0.105
-509.785	800.000	-0.005	0.018
-508.770	329.868	0.217	0.418
-507.756	455.715	0.150	0.334
-506.741	47.805	0.166	-0.155
-505.726	-91.797	0.187	-0.053
-504.712	94.814	-0.125	0.142
-503.697	-200.000	0.021	0.185
-502.683	-18.341	0.212	-0.133
-501.668	-134.503	-0.363	-0.044
-500.653	-35.448	0.342	-0.186
-499.639	-31.208	0.295	-0.167
-498.624	351.500	0.044	-0.088
-497.610	103.652	0.240	-0.282
-496.595	-156.967	-0.108	-0.007
-495.581	-7.628	0.128	0.086
-494.566	28.658	0.158	-0.134
-493.551	-102.535	0.432	-0.103
-492.537	-200.000	-0.008	-0.245
-491.522	-76.617	0.041	0.014
-490.508	-40.099	-0.106	-0.055
-489.493	-200.000	0.001	-0.324
-488.478	-10.085	-0.265	0.176
-487.464	-200.000	0.031	0.151
-486.449	113.390	-0.121	0.147
-485.435	-200.000	0.016	-0.113
-484.420	800.000	0.087	-0.273
-483.405	-100.695	0.173	0.043
-482.391	-99.979	-0.154	-0.038
-481.376	-157.129	0.250	-0.015
-480.362	-200.000	0.020	0.111
-479.347	-64.905	-0.079	-0.032
-478.332	-43.223	-0.097	0.049
-477.318	-185.828	0.162	0.002
-476.303	210.318	-0.040	-0.063
-475.289	800.000	0.049	-0.150
-474.274	84.093	-0.123	0.135
-473.259	38.302	0.091	-0.081
-472.245	-6.511	0.272	-0.185
-471.230	-110.568	-0.275	-0.057
-470.216	-200.000	-0.020	0.205
-469.201	93.967	0.232	-0.264
-468.186	25.894	-0.142	-0.118
-467.172	31.908	0.123	-0.106
-466.157	-72.015	0.047	0.017
-465.143	-200.000	-0.023	0.103
-464.128	83.467	0.196	0.213
-463.113	-106.729	0.272	0.060
-462.099	800.000	-0.015	0.063
-461.084	-200.000	-0.012	0.093
-460.070	-200.000	-0.032	-0.353
-459.055	-103.625	0.349	-0.082
-458.040	-93.104	0.060	0.017
-457.026	-33.117	-0.146	0.081
-456.011	274.974	-0.131	-0.232
-454.997	298.714	0.036	0.066
-453.982	698.463	0.058	0.152
-452.968	-200.000	-0.050	-0.300
-451.953	-200.000	0.039	-0.234
-450.938	800.000	-0.059	-0.197
-449.924	-38.990	0.221	0.116
-448.909	153.564	-0.090	-0.124
-447.895	-95.206	-0.080	0.021
-446.880	-65.581	-0.193	0.077
-445.865	-104.015	-0.115	-0.027
-444.851	-131.942	0.128	-0.017
-443.836	-200.000	-0.017	0.204
-442.822	-108.642	0.256	0.055
-441.807	-200.000	-0.081	-0.437
-440.792	179.919	-0.134	-0.197
-439.778	-200.000	0.012	-0.097
-438.763	-157.677	-0.216	-0.013
-437.749	800.000	-0.124	-0.373
-436.734	112.770	-0.059	0.071
-435.719	633.439	0.133	-0.336
-434.705	-125.372	-0.382	-0.058
-433.690	-158.619	0.239	0.014
-432.676	800.000	-0.035	-0.137
-431.661	-103.642	0.180	0.042
-430.646	-9.158	-0.428	-0.286
-429.632	-8.259	0.079	-0.053
-428.617	393.127	-0.145	0.302
-427.603	44.819	0.167	-0.154
-426.588	-200.000	-0.012	0.051
-425.573	-200.000	-0.004	-0.033
-424.559	53.538	0.169	0.162
-423.544	-105.067	-0.146	0.033
-422.530	-62.251	-0.223	0.093
-421.515	91.260	0.215	-0.242
-420.500	800.000	0.062	-0.176
-419.486	-9.645	-0.231	-0.154
-418.471	-126.498	-0.328	-0.049
-417.457	800.000	-0.108	0.471
-416.442	493.034	0.020	0.045
-415.428	6.420	0.113	-0.084
-414.413	73.059	0.155	0.162
-413.398	58.928	0.115	-0.113
-412.384	413.830	-0.112	-0.239
-411.369	22.039	-0.042	-0.034
-410.355	326.020	-0.092	0.176
-409.340	351.257	0.122	0.242
-408.325	444.919	-0.055	0.120
-407.311	-200.000	-0.036	-0.496
-406.296	-133.103	0.288	0.036
-405.282	-200.000	-0.004	0.126
-404.267	-9.615	0.176	-0.117
-403.252	-148.308	0.337	-0.028
-402.238	204.853	-0.206	0.319
-401.223	-178.347	0.187	0.004
-400.209	51.111	-0.147	-0.139
-399.194	-107.360	0.262	0.057
-398.179	-200.000	-0.002	-0.220
-397.165	158.410	-0.145	0.201
-396.150	24.828	-0.136	-0.113
-395.136	302.350	-0.110	-0.203
-394.121	64.713	0.126	0.126
-393.106	-200.000	-0.017	0.317
-392.092	119.125	0.182	0.224
-391.077	800.000	0.051	-0.203
-390.063	-200.000	-0.006	0.072
-389.048	-81.787	-0.105	0.034
-388.033	243.942	0.124	-0.208
-387.019	255.418	-0.159	0.272
-386.004	-198.936	-0.127	-0.001
-384.990	463.484	0.032	-0.071
-383.975	-167.158	0.331	0.013
-382.960	231.666	-0.092	0.151
-381.946	-200.000	-0.006	-0.103
-380.931	-88.416	0.072	0.021
-379.917	-49.364	-0.136	-0.065
-378.902	-27.129	-0.220	-0.128
-377.888	-200.000	-0.029	-0.266
-376.873	187.859	-0.080	-0.120
-375.858	-39.097	-0.275	-0.144
-374.844	-200.000	0.015	0.383
-373.829	800.000	-0.026	0.076
-372.815	129.416	-0.064	0.082
-371.800	-164.966	0.088	0.004
-370.785	-77.822	-0.323	0.111
-369.771	229.843	0.098	-0.159
-368.756	-185.623	-0.015	-0.000
-367.742	326.500	0.084	-0.159
-366.727	-122.483	-0.289	0.047
-365.712	-138.072	0.294	-0.033
-364.698	45.483	-0.231	0.212
-363.683	-68.259	-0.283	-0.109
-362.669	-44.965	-0.286	-0.142
-361.654	-68.035	-0.193	0.075
-360.639	-72.581	-0.206	0.076
-359.625	-34.014	0.234	-0.128
-358.610	-127.930	0.071	-0.010
-357.596	96.067	-0.100	-0.113
-356.581	-79.160	0.277	0.094
-355.566	-28.814	0.211	0.121
-354.552	-125.700	-0.067	-0.010
-353.537	-200.000	0.016	0.220
-352.523	48.498	0.094	0.087
-351.508	-16.773	-0.087	-0.055
-350.493	20.256	0.064	0.051
-349.479	431.267	-0.084	-0.181
-348.464	-200.000	-0.018	0.231
-347.450	-200.000	0.004	-0.051
-346.435	324.958	0.104	0.198
-345.420	800.000	0.038	-0.158
-344.406	-197.231	-0.295	-0.002
-343.391	-157.097	0.133	0.008
-342.377	-117.979	0.081	0.014
-341.362	115.346	-0.259	0.315
-340.348	681.573	0.123	0.320
-339.333	-72.949	0.131	0.048
-338.318	-62.032	-0.078	-0.033
-337.304	-50.350	0.251	-0.118
-336.289	-200.000	-0.044	-0.306
-335.275	70.874	0.303	-0.312
-334.260	-192.989	0.290	0.003
-333.245	800.000	0.095	-0.282
-332.231	-103.157	-0.189	0.044
-331.216	-154.390	0.064	-0.004
-330.202	340.039	0.013	0.026
-329.187	312.050	0.037	-0.070
-328.172	-114.245	-0.211	0.040
-327.158	15.028	0.363	0.282
-326.143	-116.960	-0.103	-0.019
-325.129	800.000	-0.142	-0.443
-324.114	-200.000	0.025	-0.117
-323.099	-107.437	-0.184	0.040
-322.085	-112.720	0.297	-0.059
-321.070	-198.201	-0.187	0.001
-320.056	-200.000	0.006	0.111
-319.041	800.000	0.025	0.096
-318.026	800.000	0.086	-0.356
-317.012	129.375	0.179	-0.228
-315.997	22.879	-0.106	-0.087
-314.983	-25.193	-0.293	0.172
-313.968	444.776	-0.075	0.163
-312.953	800.000	0.062	0.247
-311.939	220.420	0.045	-0.071
-310.924	40.794	0.202	-0.181
-309.910	-86.549	-0.055	-0.017
-308.895	-108.253	-0.047	-0.010
-307.880	-68.249	0.175	-0.068
-306.866	444.138	-0.018	0.038
-305.851	-34.153	0.135	-0.074
-304.837	36.981	0.228	-0.200
-303.822	-37.653	0.271	0.144
-302.807	-93.417	-0.237	0.065
-301.793	800.000	0.051	-0.149
-300.778	128.235	-0.272	-0.344
-299.764	-101.607	0.075	-0.018
-298.749	-17.735	-0.252	0.158
-297.735	-37.060	-0.272	-0.145
-296.720	-4.201	-0.260	0.179
-295.705	-66.659	0.240	0.094
-294.691	-120.312	-0.487	-0.082
-293.676	-94.613	0.320	0.087
-292.662	-45.715	0.167	-0.082
-291.647	79.606	-0.131	-0.139
-290.632	200.438	-0.211	-0.322
-289.618	60.570	0.114	-0.112
-288.603	490.358	0.140	0.318
-287.589	477.384	0.095	0.213
-286.574	-200.000	0.006	-0.355
-285.559	-157.199	-0.088	-0.005
-284.545	-80.805	-0.209	0.069
-283.530	-24.184	-0.389	-0.230
-282.516	80.589	0.141	-0.151
-281.501	800.000	0.088	-0.254
-280.486	-200.000	0.012	0.057
-279.472	429.912	0.190	0.408
-278.457	-142.065	0.291	-0.029
-277.443	347.752	-0.105	0.206
-276.428	560.270	0.175	0.419
-275.413	168.246	0.183	-0.259
-274.399	800.000	-0.069	-0.206
-273.384	-79.996	-0.255	-0.085
-272.370	-200.000	-0.012	0.117
-271.355	800.000	-0.070	0.200
-270.340	7.806	-0.055	0.041
-269.326	-40.113	0.101	-0.052
-268.311	14.562	-0.263	-0.204
-267.297	149.203	0.248	-0.333
-266.282	-138.737	-0.256	-0.028
-265.267	307.031	0.048	0.089
-264.253	-148.733	0.095	0.008
-263.238	-200.000	0.015	-0.067
-262.224	16.158	-0.317	-0.248
-261.209	602.265	0.130	0.320
-260.195	-200.000	0.008	0.554
-259.180	-8.992	0.638	0.424
-258.165	4.509	0.193	0.140
-257.151	-48.545	-0.085	-0.040
-256.136	-91.716	0.173	-0.049
-255.122	-200.000	0.017	0.128
-254.107	-200.000	-0.038	0.198
-253.092	800.000	0.080	0.282
-252.078	243.865	0.149	-0.249
-251.063	-49.202	0.279	-0.132
-250.049	-75.278	-0.297	0.105
-249.034	-95.702	-0.451	-0.120
-248.019	215.690	-0.120	-0.189
-247.005	13.604	-0.142	-0.110
-245.990	-109.147	-0.119	-0.025
-244.976	482.006	-0.079	-0.178
-243.961	124.729	0.185	0.231
-242.946	42.962	-0.123	-0.111
-241.932	-200.000	-0.014	0.126
-240.917	-104.179	0.204	-0.047
-239.903	0.039	0.363	-0.257
-238.888	-97.209	0.241	-0.062
-237.873	374.298	0.178	0.359
-236.859	-100.762	-0.204	-0.050
-235.844	40.181	0.202	0.180
-234.830	-200.000	0.052	-0.250
-233.815	16.118	0.186	-0.145
-232.800	-200.000	0.031	-0.378
-231.786	-104.055	-0.142	-0.033
-230.771	-61.398	0.206	0.086
-229.757	-168.379	-0.282	0.011
-228.742	-200.000	-0.055	0.413
-227.727	-200.000	0.018	0.170
-226.713	-200.000	0.019	0.131
-225.698	29.869	0.148	0.125
-224.684	-200.000	-0.023	0.155
-223.669	-200.000	-0.035	0.299
-222.655	486.084	0.081	0.184
-221.640	133.895	-0.109	0.140
-220.625	606.473	-0.199	0.490
-219.611	-200.000	0.027	0.231
-218.596	-136.144	-0.455	0.053
-217.582	-93.881	0.498	0.136
-216.567	-187.803	-0.270	-0.003
-215.552	418.437	0.085	0.179
-214.538	-200.000	-0.046	-0.304
-213.523	61.628	-0.314	-0.309
-212.509	-200.000	-0.013	0.307
-211.494	-200.000	-0.001	0.107
-210.479	-48.552	0.034	0.016
-209.465	-200.000	-0.015	-0.367
-208.450	-33.450	-0.267	0.146
-207.436	32.430	-0.328	0.280
-206.421	252.723	-0.037	0.063
-205.406	-200.000	-0.074	0.326
-204.392	-116.398	-0.140	0.026
-203.377	800.000	-0.067	0.214
-202.363	383.903	-0.136	-0.278
-201.348	217.323	-0.183	-0.289
-200.333	305.613	-0.152	0.280
-199.319	-66.262	0.314	-0.124
-198.304	-200.000	0.007	0.055
-197.290	800.000	0.113	0.362
-196.275	149.953	-0.287	0.385
-195.260	-91.485	-0.084	-0.024
-194.246	800.000	-0.084	-0.309
-193.231	198.497	0.146	-0.221
-192.217	-36.646	-0.217	0.116
-191.202	3.092	0.096	0.069
-190.187	800.000	0.079	0.229
-189.173	-200.000	0.010	0.053
-188.158	-45.461	-0.149	0.073
-187.144	81.129	-0.146	0.156
-186.129	-99.064	-0.120	-0.030
-185.114	96.988	-0.147	0.167
-184.100	-70.699	-0.208	-0.078
-183.085	-99.994	0.424	-0.105
-182.071	-200.000	0.011	0.113
-181.056	-42.321	0.078	-0.039
-180.042	378.737	0.041	0.083
-179.027	135.916	-0.079	0.102
-178.012	-200.000	0.057	-0.302
-176.998	62.667	-0.074	0.073
-175.983	-88.853	-0.139	-0.041
-174.969	800.000	-0.009	-0.037
-173.954	-200.000	-0.000	0.119
-172.939	-38.029	0.176	0.093
-171.925	74.766	0.264	0.275
-170.910	546.250	0.024	0.058
-169.896	-38.937	-0.276	-0.144
-168.881	-38.907	-0.159	0.083
-167.866	800.000	0.028	-0.097
-166.852	-38.242	-0.296	-0.155
-165.837	-89.884	0.402	-0.116
-164.823	-16.490	0.155	0.097
-163.808	51.669	0.268	0.252
-162.793	-81.414	0.134	0.044
-161.779	98.626	-0.093	-0.106
-160.764	40.499	-0.327	-0.291
-159.750	425.472	0.238	-0.506
-158.735	-19.041	-0.453	0.278
-157.720	-41.867	-0.377	-0.191
-156.706	258.727	-0.159	0.271
-155.691	-200.000	-0.002	0.221
-154.677	-61.992	0.230	-0.095
-153.662	-162.839	0.282	0.014
-152.647	375.557	0.102	0.206
-151.633	-112.280	-0.290	0.057
-150.618	-28.957	-0.320	-0.181
-149.604	526.458	-0.111	-0.259
-148.589	-200.000	-0.008	-0.124
-147.574	33.632	-0.184	0.158
-146.560	27.950	-0.213	0.177
-145.545	-200.000	0.037	-0.201
-144.531	-90.919	0.355	-0.101
-143.516	183.965	0.074	-0.108
-142.502	-120.373	0.116	-0.020
-141.487	800.000	0.085	0.303
-140.472	-200.000	0.004	-0.087
-139.458	800.000	0.053	0.145
-138.443	-69.532	0.250	-0.094
-137.429	-200.000	-0.074	0.411
-136.414	-143.202	0.311	0.030
-135.399	66.225	-0.080	-0.081
-134.385	1.328	-0.131	0.093
-133.370	-6.060	-0.186	0.126
-132.356	600.566	-0.107	0.262
-131.341	15.283	0.284	-0.220
-130.326	263.903	0.134	0.230
-129.312	-200.000	0.003	-0.062
-128.297	-125.568	0.128	-0.019
-127.283	208.040	0.145	-0.224
-126.268	-200.000	0.010	0.258
-125.253	-63.652	-0.218	-0.088
-124.239	85.150	0.107	-0.116
-123.224	-60.861	0.272	0.114
-122.210	-175.350	0.139	0.004
-121.195	800.000	-0.015	-0.066
