DTS Sentinel unit serial number:	SN413079Multiplexer serial number:	ORYXHardware model number:	OX4-SRSoftware version number:	ORYX F/W v4.00 Oryx Data Collector v3.7.2.0data status	okinstallation	princeton_trtdifferential loss correction	single-endedforward channel	channel 4reverse channel	N/Adate	2019/09/14time	21:01:35forward acquisition time	60.00reverse acquisition time	0.00gamma	496.2192k internal	0.2305k external	0.2305temperature offset calibration	1.0081default loss term (dB/km)	0.3790temperature slope calibration	1.0000multiplexer offset coefficient	1.0000multiplexer slope coefficient	1.0000fibre end	0.00T internal ref (°C)	33.12T ext. ref 1 (°C)	4.78T ext. ref 2 (°C)	27.87length (m)	temperature (°C)	Stokes	anti-Stokes-747.200	650.278	0.093	-0.241
-746.185	-34.331	-0.102	0.057
-745.171	21.003	0.304	0.251
-744.156	800.000	0.069	0.224
-743.142	395.792	-0.105	-0.224
-742.127	12.054	0.212	0.166
-741.112	25.186	-0.070	0.059
-740.098	-101.261	0.285	-0.071
-739.083	-200.000	-0.023	0.164
-738.069	-200.000	0.011	0.109
-737.054	-146.974	0.142	0.012
-736.039	630.016	-0.123	0.317
-735.025	10.281	0.171	0.133
-734.010	-155.833	-0.219	0.014
-732.996	-43.238	-0.132	0.068
-731.981	-200.000	0.038	-0.222
-730.966	-2.247	0.212	0.152
-729.952	800.000	0.116	-0.331
-728.937	-169.663	-0.264	-0.010
-727.923	95.317	0.032	0.037
-726.908	636.370	0.150	-0.386
-725.894	-73.570	0.176	0.065
-724.879	-200.000	-0.013	0.120
-723.864	-200.000	0.065	0.298
-722.850	-23.782	-0.151	0.092
-721.835	-90.934	-0.360	-0.105
-720.821	340.115	-0.192	0.381
-719.806	-51.625	-0.187	-0.089
-718.791	-76.927	-0.282	-0.100
-717.777	-13.190	-0.300	-0.198
-716.762	4.639	0.073	0.055
-715.748	-164.858	0.250	-0.011
-714.733	-200.000	-0.068	-0.414
-713.718	102.848	-0.302	-0.359
-712.704	-200.000	0.005	-0.113
-711.689	124.650	-0.143	0.183
-710.675	1.440	-0.101	-0.074
-709.660	-100.076	-0.162	0.041
-708.645	147.406	0.127	0.173
-707.631	-151.126	0.214	0.016
-706.616	53.449	0.047	0.046
-705.602	74.830	0.185	-0.198
-704.587	800.000	0.056	-0.183
-703.572	-59.337	0.278	-0.122
-702.558	-200.000	-0.018	0.218
-701.543	-100.411	-0.130	0.033
-700.529	-103.835	0.239	-0.057
-699.514	77.991	0.146	-0.158
-698.499	328.203	-0.129	-0.251
-697.485	164.055	-0.042	0.060
-696.470	-200.000	0.027	-0.339
-695.456	-93.774	0.360	0.101
-694.441	-82.303	-0.118	-0.039
-693.426	226.252	-0.117	-0.193
-692.412	602.691	-0.059	-0.150
-691.397	-200.000	0.045	0.312
-690.383	115.638	0.055	0.068
-689.368	174.552	0.045	0.066
-688.354	170.739	-0.161	-0.234
-687.339	800.000	0.039	0.132
-686.324	30.656	0.172	0.149
-685.310	-132.361	-0.433	0.057
-684.295	-57.961	-0.070	-0.031
-683.281	210.261	-0.114	-0.181
-682.266	-66.887	0.134	-0.054
-681.251	-47.688	-0.225	-0.111
-680.237	184.273	-0.182	-0.274
-679.222	10.638	0.192	0.148
-678.208	21.353	0.139	-0.115
-677.193	76.361	-0.136	0.146
-676.178	-122.447	-0.328	-0.054
-675.164	39.089	-0.016	0.015
-674.149	-200.000	0.003	-0.157
-673.135	-200.000	0.012	-0.324
-672.120	-86.889	-0.124	0.038
-671.105	-200.000	0.012	-0.068
-670.091	-134.924	0.375	-0.046
-669.076	-63.192	-0.100	-0.042
-668.062	118.152	-0.055	-0.069
-667.047	-42.182	0.338	-0.175
-666.032	150.761	0.075	0.103
-665.018	566.353	-0.129	0.317
-664.003	-21.100	0.179	-0.111
-662.989	5.444	-0.090	-0.068
-661.974	-100.704	-0.129	0.032
-660.959	-103.308	0.333	-0.080
-659.945	178.243	-0.118	-0.174
-658.930	114.865	0.097	0.120
-657.916	126.345	-0.047	0.060
-656.901	-90.791	0.120	-0.035
-655.886	800.000	-0.231	-0.685
-654.872	200.331	0.042	0.066
-653.857	800.000	-0.052	0.171
-652.843	-113.633	-0.346	-0.068
-651.828	-200.000	0.036	-0.252
-650.814	-66.924	0.222	0.089
-649.799	800.000	0.016	0.055
-648.784	565.980	0.156	0.384
-647.770	542.617	-0.151	-0.366
-646.755	769.696	0.033	-0.090
-645.741	-200.000	-0.003	0.124
-644.726	-94.762	-0.343	0.094
-643.711	800.000	-0.058	0.203
-642.697	-67.598	-0.100	-0.040
-641.682	-21.102	-0.128	-0.079
-640.668	93.845	0.074	-0.085
-639.653	206.445	-0.121	-0.190
-638.638	-200.000	-0.023	-0.188
-637.624	261.060	-0.163	-0.287
-636.609	800.000	0.021	0.075
-635.595	-69.943	-0.265	-0.103
-634.580	-159.428	0.189	-0.011
-633.565	-61.414	0.469	0.200
-632.551	283.714	0.221	-0.403
-631.536	-200.000	-0.005	-0.061
-630.522	-200.000	-0.036	0.321
-629.507	-19.386	0.261	-0.164
-628.492	-52.501	-0.340	-0.159
-627.478	33.570	0.119	0.105
-626.463	-41.828	-0.227	-0.118
-625.449	-200.000	0.082	-0.420
-624.434	-200.000	0.058	0.268
-623.419	-49.272	0.254	0.123
-622.405	-71.054	0.227	0.086
-621.390	25.752	0.260	0.219
-620.376	-200.000	0.022	0.319
-619.361	85.249	-0.113	-0.126
-618.346	448.840	-0.042	0.094
-617.332	-51.742	0.325	0.153
-616.317	-20.888	-0.054	0.033
-615.303	191.880	0.080	-0.122
-614.288	239.361	-0.098	-0.165
-613.273	305.358	-0.045	0.085
-612.259	-84.496	-0.213	-0.068
-611.244	95.450	-0.107	-0.123
-610.230	677.024	-0.045	0.117
-609.215	239.785	0.081	-0.137
-608.201	111.991	0.198	-0.242
-607.186	-79.427	0.219	-0.075
-606.171	-200.000	-0.259	-0.001
-605.157	140.971	-0.195	0.261
-604.142	39.257	0.172	0.155
-603.128	800.000	0.075	-0.217
-602.113	-200.000	-0.012	0.091
-601.098	-61.259	-0.373	-0.159
-600.084	-200.000	0.005	-0.111
-599.069	9.229	0.300	-0.229
-598.055	452.195	0.073	0.164
-597.040	-17.507	-0.063	0.040
-596.025	-135.908	-0.154	0.018
-595.011	-200.000	-0.010	-0.374
-593.996	221.181	0.089	-0.145
-592.982	-44.103	-0.250	-0.127
-591.967	258.148	-0.101	0.176
-590.952	121.077	-0.041	0.052
-589.938	-41.858	-0.231	0.120
-588.923	569.092	0.079	-0.195
-587.909	21.724	0.035	0.029
-586.894	-194.329	-0.300	-0.002
-585.879	800.000	-0.068	-0.203
-584.865	800.000	0.061	0.197
-583.850	370.777	0.135	0.278
-582.836	-200.000	-0.000	0.113
-581.821	9.604	-0.087	-0.067
-580.806	385.607	0.167	0.349
-579.792	-6.805	-0.271	-0.187
-578.777	13.417	-0.181	-0.142
-577.763	20.739	0.254	-0.208
-576.748	800.000	-0.046	0.169
-575.733	800.000	-0.052	-0.197
-574.719	281.783	0.052	-0.095
-573.704	24.433	-0.200	-0.167
-572.690	106.869	0.198	-0.238
-571.675	142.897	-0.218	0.293
-570.661	800.000	0.134	0.380
-569.646	197.670	0.129	-0.199
-568.631	313.101	0.081	0.154
-567.617	-117.633	0.196	0.036
-566.602	414.801	-0.089	-0.192
-565.588	639.030	-0.016	0.041
-564.573	72.847	0.085	0.090
-563.558	-54.945	-0.129	-0.059
-562.544	-200.000	-0.000	0.009
-561.529	-164.393	0.305	0.014
-560.515	-90.508	0.176	-0.051
-559.500	49.720	-0.087	-0.082
-558.485	-124.350	-0.366	-0.058
-557.471	42.997	-0.087	-0.080
-556.456	104.330	-0.050	-0.059
-555.442	-9.098	-0.171	-0.115
-554.427	109.389	-0.199	0.241
-553.412	81.042	0.213	-0.233
-552.398	166.786	0.240	-0.343
-551.383	27.706	0.089	-0.076
-550.369	-103.901	-0.307	-0.072
-549.354	-26.781	0.227	0.134
-548.339	139.800	-0.202	0.269
-547.325	-76.773	-0.100	0.035
-546.310	-55.354	0.175	-0.080
-545.296	167.403	-0.140	0.201
-544.281	-200.000	-0.015	-0.252
-543.266	-200.000	0.143	-0.712
-542.252	-46.342	-0.083	-0.041
-541.237	10.920	-0.112	0.086
-540.223	-72.207	-0.141	-0.053
-539.208	-29.715	0.113	-0.065
-538.193	41.885	0.157	0.143
-537.179	417.028	0.083	0.179
-536.164	-92.869	0.330	0.093
-535.150	98.069	-0.087	0.101
-534.135	-97.337	-0.141	0.037
-533.121	45.396	0.190	0.177
-532.106	-105.238	0.240	0.055
-531.091	-85.062	-0.106	-0.034
-530.077	-200.000	0.018	-0.295
-529.062	-43.873	-0.114	-0.058
-528.048	146.289	0.081	0.110
-527.033	199.921	0.181	0.280
-526.018	564.989	0.095	0.231
-525.004	-2.536	-0.207	-0.146
-523.989	800.000	0.042	-0.166
-522.975	-2.322	-0.059	0.042
-521.960	800.000	0.097	-0.346
-520.945	319.828	-0.095	0.182
-519.931	48.244	-0.100	0.095
-518.916	-37.796	0.135	0.073
-517.902	427.831	0.037	-0.081
-516.887	305.840	-0.052	0.098
-515.872	368.121	-0.111	-0.226
-514.858	-200.000	0.026	0.134
-513.843	-200.000	-0.025	0.211
-512.829	517.309	-0.134	0.317
-511.814	-86.377	-0.176	-0.054
-510.799	190.169	0.026	-0.040
-509.785	-200.000	0.036	0.262
-508.770	-72.508	0.276	0.103
-507.756	-31.933	-0.178	-0.101
-506.741	-66.523	-0.155	-0.062
-505.726	-123.930	0.127	-0.020
-504.712	13.212	0.101	0.079
-503.697	-139.624	0.412	0.044
-502.683	800.000	-0.018	-0.065
-501.668	-99.747	0.272	-0.069
-500.653	140.354	0.177	-0.236
-499.639	-96.507	0.296	-0.079
-498.624	-26.898	0.179	0.105
-497.610	11.692	0.156	0.121
-496.595	-180.523	-0.434	-0.009
-495.581	1.652	-0.135	-0.098
-494.566	-6.271	0.175	-0.120
-493.551	800.000	-0.086	-0.248
-492.537	-173.312	-0.140	0.004
-491.522	800.000	0.027	0.101
-490.508	118.566	-0.042	0.052
-489.493	-19.175	0.084	-0.053
-488.478	-32.963	0.124	0.069
-487.464	-50.429	0.251	-0.119
-486.449	127.517	-0.100	0.128
-485.435	167.116	0.156	0.223
-484.420	119.745	0.216	0.270
-483.405	719.100	0.101	-0.269
-482.391	-200.000	-0.026	-0.130
-481.376	-130.907	0.355	-0.048
-480.362	5.008	-0.214	-0.158
-479.347	-145.642	-0.152	0.014
-478.332	-1.296	0.166	-0.118
-477.318	-163.240	0.247	-0.012
-476.303	-200.000	-0.028	-0.237
-475.289	-160.176	0.183	0.010
-474.274	-18.953	0.076	-0.048
-473.259	-76.189	-0.100	-0.036
-472.245	-200.000	0.010	0.249
-471.230	400.381	0.166	0.351
-470.216	800.000	0.097	0.350
-469.201	43.541	-0.082	0.076
-468.186	-48.105	-0.119	0.058
-467.172	267.232	-0.123	0.217
-466.157	147.510	0.026	-0.036
-465.143	-200.000	-0.051	-0.305
-464.128	-200.000	-0.001	0.138
-463.113	800.000	-0.045	-0.199
-462.099	800.000	0.109	-0.352
-461.084	135.280	0.072	0.094
-460.070	-200.000	-0.034	0.197
-459.055	-101.622	-0.168	0.041
-458.040	-200.000	-0.026	-0.137
-457.026	800.000	0.046	-0.163
-456.011	-46.504	0.273	-0.135
-454.997	-26.010	0.104	-0.062
-453.982	-70.068	0.091	-0.035
-452.968	-155.656	-0.306	0.020
-451.953	-200.000	-0.024	-0.200
-450.938	-74.971	-0.188	0.068
-449.924	-7.539	-0.113	-0.077
-448.909	-200.000	-0.054	0.296
-447.895	62.996	0.125	0.126
-446.880	65.705	-0.297	-0.302
-445.865	-54.566	0.272	0.124
-444.851	14.457	-0.097	0.076
-443.836	283.262	-0.169	-0.306
-442.822	-123.593	0.172	0.027
-441.807	-82.375	-0.202	-0.066
-440.792	-17.494	0.091	-0.057
-439.778	139.744	-0.162	-0.214
-438.763	419.241	-0.027	0.058
-437.749	-178.640	0.308	-0.007
-436.734	95.849	-0.177	0.203
-435.719	421.453	0.028	0.061
-434.705	-200.000	-0.013	0.101
-433.690	800.000	-0.039	-0.164
-432.676	-200.000	-0.132	0.000
-431.661	-200.000	0.081	-0.459
-430.646	-200.000	-0.029	-0.154
-429.632	147.279	-0.105	0.143
-428.617	4.277	-0.137	0.101
-427.603	-30.344	0.141	0.080
-426.588	-160.312	0.198	-0.011
-425.573	13.901	0.138	0.108
-424.559	-76.529	-0.174	-0.061
-423.544	-12.286	-0.145	0.095
-422.530	365.028	-0.170	-0.343
-421.515	-89.902	-0.056	-0.016
-420.500	538.784	-0.106	0.253
-419.486	128.652	-0.062	-0.079
-418.471	-168.789	-0.366	0.014
-417.457	56.040	-0.036	0.035
-416.442	227.703	-0.294	-0.481
-415.428	540.269	0.086	0.205
-414.413	-45.690	-0.034	0.017
-413.398	189.219	0.178	-0.268
-412.384	-200.000	0.030	-0.292
-411.369	-27.288	0.164	0.096
-410.355	-23.021	-0.195	0.118
-409.340	189.615	0.036	-0.054
-408.325	-114.304	-0.151	-0.029
-407.311	800.000	-0.114	-0.357
-406.296	63.067	0.123	0.123
-405.282	-8.958	-0.115	-0.078
-404.267	-41.775	-0.201	0.104
-403.252	25.583	0.221	0.185
-402.238	177.793	0.160	0.235
-401.223	29.924	0.353	-0.302
-400.209	-47.906	-0.176	-0.086
-399.194	60.303	0.177	0.176
-398.179	800.000	-0.071	0.301
-397.165	-88.917	0.357	-0.106
-396.150	472.695	-0.132	-0.299
-395.136	-200.000	-0.002	0.160
-394.121	-40.472	0.151	0.078
-393.106	107.574	-0.143	0.171
-392.092	52.225	-0.100	0.096
-391.077	357.777	-0.101	0.202
-390.063	75.193	-0.100	0.105
-389.048	-118.311	-0.368	-0.066
-388.033	-55.227	-0.184	0.083
-387.019	140.472	-0.064	-0.085
-386.004	19.661	-0.168	0.136
-384.990	-121.103	0.101	0.017
-383.975	-151.688	-0.077	-0.006
-382.960	193.174	-0.044	0.067
-381.946	83.594	-0.144	0.157
-380.931	350.236	-0.027	-0.053
-379.917	171.650	-0.146	0.211
-378.902	-200.000	-0.037	0.422
-377.888	-148.845	-0.028	0.002
-376.873	239.070	-0.123	0.205
-375.858	-200.000	0.017	0.248
-374.844	-94.969	0.064	0.017
-373.829	281.374	-0.080	-0.144
-372.815	-139.919	-0.087	0.009
-371.800	58.683	0.101	0.100
-370.785	-155.526	0.023	0.001
-369.771	446.054	0.100	-0.221
-368.756	-3.223	-0.205	0.143
-367.742	108.808	0.097	-0.116
-366.727	800.000	0.065	0.190
-365.712	800.000	0.026	-0.075
-364.698	9.734	0.032	-0.024
-363.683	325.238	0.110	-0.211
-362.669	439.079	-0.042	-0.093
-361.654	34.302	0.041	-0.036
-360.639	-200.000	-0.355	0.000
-359.625	421.273	-0.095	0.204
-358.610	-28.022	0.219	0.127
-357.596	-69.201	-0.222	0.085
-356.581	-200.000	-0.027	0.159
-355.566	40.851	-0.090	0.081
-354.552	242.718	0.188	0.315
-353.537	44.119	0.198	0.182
-352.523	-151.633	0.138	0.010
-351.508	97.819	0.224	0.259
-350.493	-47.014	-0.132	-0.064
-349.479	25.493	0.285	-0.238
-348.464	-38.505	0.207	0.110
-347.450	-58.361	-0.396	-0.172
-346.435	61.973	-0.114	-0.114
-345.420	-81.953	0.086	-0.028
-344.406	-22.279	0.401	-0.243
-343.391	-21.186	-0.247	-0.152
-342.377	-107.790	-0.191	0.042
-341.362	-105.259	-0.115	0.026
-340.348	38.402	0.068	0.060
-339.333	-106.264	-0.251	0.056
-338.318	-32.632	0.058	0.032
-337.304	112.790	0.175	-0.213
-336.289	-39.107	0.181	0.095
-335.275	-5.721	0.261	0.179
-334.260	-62.199	0.163	0.068
-333.245	14.560	-0.160	0.125
-332.231	-124.213	-0.185	-0.029
-331.216	136.992	-0.064	-0.083
-330.202	-200.000	-0.005	0.156
-329.187	133.786	0.240	0.311
-328.172	142.390	-0.093	0.123
-327.158	340.851	-0.140	0.273
-326.143	800.000	0.034	-0.116
-325.129	-15.034	-0.250	-0.160
-324.114	-186.422	0.155	0.002
-323.099	137.067	0.167	0.218
-322.085	-71.898	-0.169	0.063
-321.070	33.702	-0.103	-0.089
-320.056	-132.972	0.435	-0.055
-319.041	-200.000	-0.039	0.198
-318.026	-200.000	0.010	0.329
-317.012	289.790	-0.024	-0.044
-315.997	40.338	-0.133	0.119
-314.983	800.000	0.059	0.179
-313.968	-157.881	-0.220	-0.013
-312.953	11.009	0.069	-0.053
-311.939	-112.470	-0.165	0.033
-310.924	-117.187	0.189	0.034
-309.910	-3.583	0.157	0.109
-308.895	205.272	-0.172	-0.268
-307.880	-80.280	-0.118	-0.040
-306.866	429.898	-0.084	-0.181
-305.851	-96.115	-0.124	-0.033
-304.837	6.786	-0.120	0.089
-303.822	245.733	0.045	-0.075
-302.807	800.000	-0.012	0.042
-301.793	-83.942	0.219	-0.070
-300.778	115.576	0.145	-0.177
-299.764	-42.268	-0.075	0.039
-298.749	15.848	0.081	-0.064
-297.735	245.328	0.052	-0.088
-296.720	-200.000	-0.056	-0.393
-295.705	302.334	-0.047	-0.088
-294.691	-97.561	0.246	-0.064
-293.676	-94.884	0.203	0.055
-292.662	-88.891	0.250	0.074
-291.647	70.957	0.236	0.245
-290.632	29.735	0.028	-0.024
-289.618	-116.785	-0.164	-0.030
-288.603	-200.000	0.026	0.158
-287.589	-87.017	-0.402	-0.122
-286.574	-69.846	0.202	-0.077
-285.559	1.653	-0.164	-0.118
-284.545	340.705	-0.102	0.199
-283.530	385.599	-0.170	0.351
-282.516	-73.948	-0.138	0.050
-281.501	-21.680	0.440	-0.268
-280.486	585.041	-0.067	-0.165
-279.472	-5.483	-0.237	0.163
-278.457	163.191	-0.036	-0.050
-277.443	-200.000	0.041	-0.405
-276.428	-200.000	-0.040	-0.357
-275.413	225.248	0.086	-0.139
-274.399	54.163	0.226	-0.217
-273.384	-200.000	0.000	0.070
-272.370	-148.172	0.148	-0.012
-271.355	-9.269	0.101	-0.067
-270.340	-200.000	-0.024	0.184
-269.326	800.000	-0.071	0.196
-268.311	-200.000	0.011	0.316
-267.297	276.139	0.143	-0.253
-266.282	-87.141	0.309	-0.094
-265.267	157.813	0.053	-0.073
-264.253	285.198	-0.099	0.179
-263.238	800.000	-0.083	-0.252
-262.224	38.364	0.082	0.073
-261.209	-200.000	0.037	-0.208
-260.195	-126.105	-0.103	0.015
-259.180	-98.563	-0.258	0.066
-258.165	-200.000	0.027	-0.312
-257.151	-83.482	-0.131	-0.042
-256.136	-200.000	0.009	0.082
-255.122	274.165	-0.090	-0.160
-254.107	-192.852	-0.173	-0.002
-253.092	-13.046	0.200	0.130
-252.078	26.302	0.314	0.262
-251.063	-76.823	-0.223	-0.078
-250.049	-142.156	0.197	-0.020
-249.034	183.728	0.068	-0.101
-248.019	77.968	-0.150	-0.160
-247.005	-196.778	-0.022	-0.000
-245.990	-99.312	0.126	0.032
-244.976	-96.946	0.337	-0.088
-243.961	-96.961	-0.012	-0.003
-242.946	185.986	0.214	0.317
-241.932	-109.883	-0.290	0.061
-240.917	257.358	0.140	-0.240
-239.903	-50.889	0.247	0.116
-238.888	800.000	-0.112	0.342
-237.873	-41.591	-0.309	0.159
-236.859	-140.788	-0.207	-0.021
-235.844	343.424	-0.069	-0.136
-234.830	-73.303	0.536	0.196
-233.815	9.212	-0.381	0.288
-232.800	14.256	0.187	0.146
-231.786	-135.195	0.274	-0.033
-230.771	20.575	0.154	-0.125
-229.757	-34.767	-0.083	-0.045
-228.742	775.529	-0.145	-0.394
-227.727	800.000	0.136	-0.378
-226.713	-200.000	-0.001	0.036
-225.698	-49.479	0.074	0.035
-224.684	86.423	0.058	-0.064
-223.669	800.000	-0.038	-0.127
-222.655	-175.375	-0.315	-0.009
-221.640	-85.113	0.256	-0.080
-220.625	-200.000	0.043	-0.212
-219.611	265.706	-0.009	-0.015
-218.596	-200.000	-0.007	0.300
-217.582	242.671	0.084	0.140
-216.567	46.174	-0.178	0.164
-215.552	3.999	-0.229	0.167
-214.538	652.233	-0.053	-0.134
-213.523	-125.210	0.101	-0.015
-212.509	-200.000	0.005	-0.343
-211.494	14.242	-0.045	0.035
-210.479	-80.015	-0.266	0.089
-209.465	-200.000	0.045	0.266
-208.450	50.036	0.129	-0.122
-207.436	109.993	0.105	-0.126
-206.421	2.604	-0.152	-0.109
-205.406	228.894	-0.114	-0.185
-204.392	391.326	0.131	-0.271
-203.377	-70.806	-0.115	-0.043
-202.363	-57.702	-0.247	-0.108
-201.348	-200.000	0.002	-0.158
-200.333	-200.000	0.029	-0.227
-199.319	-94.168	0.020	-0.006
-198.304	427.225	-0.085	0.182
-197.290	-26.220	0.065	0.038
-196.275	-30.664	0.143	0.081
-195.260	800.000	-0.080	-0.254
-194.246	-200.000	0.018	0.189
-193.231	800.000	-0.113	0.453
-192.217	176.722	-0.166	-0.240
-191.202	800.000	-0.030	-0.086
-190.187	118.001	0.116	0.143
-189.173	8.893	-0.021	0.016
-188.158	-200.000	0.020	0.161
-187.144	183.481	-0.108	0.159
-186.129	-200.000	-0.033	0.160
-185.114	-46.750	0.292	0.142
-184.100	-200.000	0.023	0.259
-183.085	800.000	0.032	0.131
-182.071	11.182	0.172	0.131
-181.056	112.764	-0.109	0.131
-180.042	397.112	0.076	0.158
-179.027	676.358	-0.049	0.127
-178.012	-125.590	-0.191	0.029
-176.998	800.000	-0.035	0.108
-175.983	-62.727	0.240	0.099
-174.969	-57.121	-0.255	-0.112
-173.954	14.539	-0.205	0.160
-172.939	-81.789	0.364	0.119
-171.925	-111.010	-0.178	0.036
-170.910	-55.159	-0.221	0.099
-169.896	-4.112	0.048	-0.033
-168.881	-118.693	0.177	0.031
-167.866	-112.602	0.317	-0.063
-166.852	-200.000	-0.058	0.373
-165.837	480.361	-0.070	0.158
-164.823	-113.566	0.373	-0.073
-163.808	-200.000	-0.043	-0.289
-162.793	-23.084	0.225	-0.135
-161.779	-167.214	-0.309	-0.012
-160.764	-200.000	0.001	0.244
-159.750	-12.644	-0.187	-0.122
-158.735	169.867	0.266	0.379
-157.720	253.582	-0.151	-0.256
-156.706	-200.000	0.025	-0.257
-155.691	-104.829	-0.171	0.039
-154.677	50.312	-0.049	0.046
-153.662	497.357	0.090	-0.206
-152.647	-83.532	-0.446	-0.142
-151.633	64.712	-0.193	-0.194
-150.618	-139.615	0.205	0.022
-149.604	29.947	0.151	0.128
-148.589	-57.279	0.117	0.051
-147.574	-133.462	0.133	-0.017
-146.560	-21.719	-0.152	0.092
-145.545	418.945	0.162	-0.344
-144.531	-82.349	0.260	-0.084
-143.516	-18.774	0.154	-0.095
-142.502	-79.385	-0.195	0.066
-141.487	800.000	0.109	0.374
-140.472	50.293	0.068	-0.064
-139.458	14.371	-0.122	0.095
-138.443	483.019	0.098	0.221
-137.429	267.718	-0.202	0.352
-136.414	-125.313	0.348	0.053
-135.399	70.860	-0.056	0.058
-134.385	53.393	-0.116	0.110
-133.370	108.968	-0.098	0.116
-132.356	187.646	0.038	-0.057
-131.341	800.000	0.017	-0.056
-130.326	-91.627	-0.171	-0.048
-129.312	-200.000	0.060	-0.267
-128.297	-200.000	0.057	0.376
-127.283	-111.778	0.110	-0.022
-126.268	-75.161	0.054	0.019
-125.253	285.805	0.088	0.158
-124.239	-200.000	-0.015	-0.312
-123.224	-35.323	-0.229	-0.123
-122.210	-60.976	-0.103	0.043
-121.195	-200.000	-0.055	0.349
-120.180	221.727	-0.095	-0.152
