DTS Sentinel unit serial number:	SN413079Multiplexer serial number:	ORYXHardware model number:	OX4-SRSoftware version number:	ORYX F/W v4.00 Oryx Data Collector v3.7.2.0data status	okinstallation	princeton_trtdifferential loss correction	single-endedforward channel	channel 4reverse channel	N/Adate	2019/09/16time	17:09:35forward acquisition time	60.00reverse acquisition time	0.00gamma	496.2192k internal	0.2295k external	0.2295temperature offset calibration	0.9941default loss term (dB/km)	0.3790temperature slope calibration	1.0000multiplexer offset coefficient	1.0000multiplexer slope coefficient	1.0000fibre end	0.00T internal ref (°C)	39.06T ext. ref 1 (°C)	15.34T ext. ref 2 (°C)	33.16length (m)	temperature (°C)	Stokes	anti-Stokes-747.200	-107.682	-0.161	-0.036
-746.185	-200.000	-0.011	0.151
-745.171	-0.601	0.264	-0.191
-744.156	-27.757	0.134	-0.079
-743.142	541.800	-0.086	0.211
-742.127	-101.502	0.292	0.073
-741.112	-138.643	-0.260	0.029
-740.098	-200.000	0.036	0.312
-739.083	-60.058	-0.098	-0.043
-738.069	12.287	0.081	0.064
-737.054	34.647	-0.206	-0.184
-736.039	-64.533	-0.162	0.067
-735.025	193.817	-0.129	0.199
-734.010	-200.000	-0.083	-0.440
-732.996	292.185	-0.218	-0.406
-731.981	157.011	0.206	-0.291
-730.966	420.121	-0.087	-0.191
-729.952	-200.000	-0.007	-0.653
-728.937	513.853	-0.029	-0.069
-727.923	162.693	-0.209	-0.300
-726.908	800.000	-0.043	-0.153
-725.894	-139.947	0.134	0.014
-724.879	-90.704	0.197	-0.058
-723.864	-200.000	-0.021	-0.352
-722.850	-200.000	-0.012	-0.089
-721.835	15.362	0.284	0.228
-720.821	48.156	-0.283	0.270
-719.806	-108.596	-0.407	0.089
-718.791	580.956	-0.152	0.381
-717.777	112.726	0.036	0.045
-716.762	-60.781	0.128	0.055
-715.748	95.053	0.071	-0.083
-714.733	-55.252	0.062	-0.029
-713.718	-121.885	-0.474	0.080
-712.704	-200.000	-0.067	-0.309
-711.689	131.335	0.115	-0.150
-710.675	-200.000	-0.008	0.211
-709.660	-200.000	0.028	0.131
-708.645	-144.826	0.423	-0.040
-707.631	86.104	0.285	0.320
-706.616	-39.692	-0.196	-0.105
-705.602	-150.234	0.283	-0.022
-704.587	-34.776	0.114	0.064
-703.572	596.817	-0.132	-0.335
-702.558	196.275	-0.151	-0.235
-701.543	329.039	0.012	0.023
-700.529	-200.000	0.008	-0.373
-699.514	-45.158	-0.085	0.043
-698.499	224.725	0.105	0.173
-697.485	86.154	0.278	0.313
-696.470	336.643	0.108	0.213
-695.456	269.016	-0.008	-0.014
-694.441	-57.330	-0.129	0.058
-693.426	337.719	-0.037	-0.073
-692.412	-22.767	0.120	0.074
-691.397	800.000	0.049	-0.192
-690.383	141.761	0.114	0.154
-689.368	-159.515	-0.273	0.015
-688.354	-200.000	0.011	-0.059
-687.339	91.981	-0.139	-0.159
-686.324	-200.000	-0.026	-0.160
-685.310	44.800	0.202	-0.189
-684.295	193.371	-0.184	-0.284
-683.281	543.177	-0.176	-0.428
-682.266	-200.000	-0.019	-0.198
-681.251	-200.000	0.002	-0.219
-680.237	-188.975	-0.286	-0.004
-679.222	800.000	0.026	0.112
-678.208	-161.344	0.349	0.018
-677.193	172.073	0.196	0.287
-676.178	200.989	-0.283	-0.444
-675.164	300.537	0.047	0.089
-674.149	800.000	0.077	-0.245
-673.135	-166.228	0.150	-0.006
-672.120	-155.012	-0.198	0.013
-671.105	-200.000	0.036	0.221
-670.091	800.000	-0.049	0.182
-669.076	-200.000	-0.038	-0.252
-668.062	199.050	0.158	-0.247
-667.047	106.718	-0.190	-0.230
-666.032	-200.000	-0.041	-0.303
-665.018	-41.102	-0.080	-0.042
-664.003	-200.000	-0.029	-0.343
-662.989	-45.779	0.297	-0.149
-661.974	283.842	-0.136	-0.249
-660.959	-2.545	0.081	0.058
-659.945	9.701	-0.101	0.078
-658.930	-55.577	0.378	0.173
-657.916	800.000	0.128	-0.386
-656.901	-111.074	-0.273	-0.057
-655.886	-109.612	0.084	0.018
-654.872	800.000	-0.016	0.051
-653.857	-11.400	0.069	-0.046
-652.843	-25.102	0.044	0.027
-651.828	31.435	0.170	-0.149
-650.814	-200.000	0.045	-0.292
-649.799	-120.962	-0.190	0.033
-648.784	-110.083	0.076	-0.016
-647.770	-200.000	0.108	-0.549
-646.755	-75.668	-0.195	0.070
-645.741	-37.502	0.169	0.092
-644.726	106.689	0.186	-0.225
-643.711	800.000	-0.049	-0.157
-642.697	-180.228	-0.293	0.006
-641.682	-124.864	0.114	0.018
-640.668	-200.000	-0.104	0.518
-639.653	115.005	0.182	0.226
-638.638	-5.567	-0.361	0.252
-637.624	607.299	-0.101	0.257
-636.609	259.719	-0.205	0.361
-635.595	68.069	0.211	0.220
-634.580	-200.000	-0.010	0.121
-633.565	-128.052	0.218	0.032
-632.551	-169.597	0.272	-0.010
-631.536	302.543	-0.045	0.085
-630.522	-200.000	0.020	0.358
-629.507	800.000	0.104	-0.338
-628.492	472.101	0.202	-0.463
-627.478	13.951	-0.290	0.230
-626.463	-200.000	-0.016	0.091
-625.449	633.887	-0.114	0.295
-624.434	514.077	0.078	0.186
-623.419	-124.249	-0.443	-0.071
-622.405	-41.910	-0.115	0.060
-621.390	-200.000	0.024	-0.112
-620.376	-51.671	0.020	0.010
-619.361	-85.180	-0.143	-0.045
-618.346	261.948	-0.143	-0.252
-617.332	-130.159	-0.152	-0.021
-616.317	-64.462	0.087	-0.036
-615.303	-81.871	0.228	0.076
-614.288	-200.000	-0.052	-0.312
-613.273	-172.622	-0.295	-0.009
-612.259	-200.000	0.021	-0.102
-611.244	-87.150	-0.164	0.051
-610.230	-22.241	0.196	-0.121
-609.215	-109.729	0.192	0.041
-608.201	-200.000	-0.066	0.299
-607.186	-200.000	-0.005	0.326
-606.171	800.000	-0.029	-0.104
-605.157	82.148	0.217	0.239
-604.142	-114.578	-0.190	0.037
-603.128	-134.237	-0.201	0.025
-602.113	229.274	0.133	-0.220
-601.098	-18.354	-0.162	0.103
-600.084	-200.000	-0.047	0.278
-599.069	173.274	0.031	-0.046
-598.055	800.000	-0.053	0.167
-597.040	117.682	-0.194	0.243
-596.025	-99.070	-0.093	0.024
-595.011	101.693	-0.118	-0.139
-593.996	-200.000	0.020	-0.232
-592.982	116.216	0.058	-0.072
-591.967	-200.000	-0.014	0.193
-590.952	-93.915	-0.265	-0.074
-589.938	-200.000	0.002	-0.260
-588.923	800.000	0.043	-0.146
-587.909	-38.655	-0.137	0.073
-586.894	693.641	-0.046	0.123
-585.879	414.744	0.105	-0.226
-584.865	101.686	-0.135	-0.160
-583.850	-0.057	-0.279	-0.202
-582.836	470.372	-0.076	-0.174
-581.821	-200.000	0.013	-0.098
-580.806	-51.167	-0.168	-0.080
-579.792	-69.131	-0.245	-0.096
-578.777	-31.565	0.113	0.065
-577.763	-137.557	-0.246	-0.028
-576.748	66.213	0.362	-0.373
-575.733	-69.956	-0.124	0.048
-574.719	186.701	0.190	-0.288
-573.704	7.083	0.078	0.059
-572.690	-68.365	-0.108	0.042
-571.675	-200.000	-0.074	-0.355
-570.661	800.000	-0.051	-0.192
-569.646	127.918	0.143	0.184
-568.631	10.408	-0.154	-0.119
-567.617	-91.763	-0.111	-0.032
-566.602	800.000	-0.102	0.315
-565.588	-200.000	-0.029	-0.351
-564.573	167.358	0.065	0.094
-563.558	-144.987	-0.109	0.010
-562.544	542.388	-0.098	-0.237
-561.529	30.587	-0.323	0.280
-560.515	90.587	-0.222	0.252
-559.500	490.167	0.074	-0.171
-558.485	800.000	-0.030	0.087
-557.471	97.921	-0.167	-0.195
-556.456	115.445	-0.172	0.213
-555.442	215.344	-0.177	-0.285
-554.427	-200.000	-0.005	-0.116
-553.412	-1.852	0.211	-0.150
-552.398	109.413	0.164	0.199
-551.383	-129.046	-0.088	0.012
-550.369	753.584	-0.114	-0.312
-549.354	182.498	-0.206	-0.308
-548.339	-200.000	-0.008	-0.136
-547.325	-144.125	0.284	-0.027
-546.310	-28.696	-0.251	-0.146
-545.296	19.093	0.106	-0.086
-544.281	-200.000	0.056	0.476
-543.266	49.983	0.132	0.126
-542.252	-200.000	-0.035	0.417
-541.237	106.805	-0.116	-0.140
-540.223	-55.826	0.299	-0.135
-539.208	800.000	-0.014	0.044
-538.193	367.608	0.078	0.161
-537.179	-200.000	0.023	0.139
-536.164	328.783	-0.011	0.021
-535.150	220.822	-0.099	0.161
-534.135	-78.622	0.157	0.054
-533.121	102.068	0.184	0.218
-532.106	-48.765	-0.079	0.039
-531.091	-143.853	-0.155	-0.015
-530.077	-200.000	0.021	-0.097
-529.062	140.246	0.106	0.142
-528.048	-147.540	0.294	0.025
-527.033	7.764	0.314	0.239
-526.018	-200.000	-0.082	0.379
-525.004	-97.774	-0.385	-0.101
-523.989	30.146	-0.131	-0.113
-522.975	761.013	0.052	0.143
-521.960	43.624	0.160	0.148
-520.945	-140.046	0.098	-0.010
-519.931	474.821	0.107	-0.245
-518.916	-171.259	-0.138	-0.005
-517.902	-200.000	0.001	0.013
-516.887	-56.189	-0.194	0.088
-515.872	161.395	-0.015	0.021
-514.858	8.920	0.383	0.293
-513.843	331.680	-0.040	-0.078
-512.829	119.849	0.150	-0.188
-511.814	-180.111	0.178	-0.004
-510.799	82.135	0.220	0.242
-509.785	624.581	-0.081	0.208
-508.770	-200.000	0.019	0.129
-507.756	134.962	0.080	0.105
-506.741	800.000	-0.093	-0.366
-505.726	309.003	0.025	-0.047
-504.712	95.558	0.191	-0.221
-503.697	-200.000	-0.007	0.068
-502.683	-200.000	-0.014	0.105
-501.668	-160.572	0.254	-0.014
-500.653	-200.000	-0.017	-0.353
-499.639	65.619	0.154	0.158
-498.624	-200.000	0.022	-0.130
-497.610	-164.774	-0.281	0.013
-496.595	148.069	0.155	0.212
-495.581	-200.000	-0.004	-0.096
-494.566	-57.677	0.138	-0.061
-493.551	87.396	0.218	0.244
-492.537	-115.017	-0.185	-0.036
-491.522	-200.000	-0.060	0.290
-490.508	60.041	0.117	-0.117
-489.493	249.697	-0.142	0.243
-488.478	-50.149	-0.127	0.061
-487.464	153.161	0.227	0.315
-486.449	-200.000	0.049	-0.308
-485.435	8.712	0.071	-0.054
-484.420	-50.744	-0.174	-0.083
-483.405	-11.831	0.224	0.149
-482.391	-200.000	0.023	0.218
-481.376	800.000	-0.049	-0.195
-480.362	319.236	0.043	-0.082
-479.347	-30.069	-0.316	-0.182
-478.332	26.216	0.199	0.168
-477.318	287.939	-0.053	0.097
-476.303	21.953	-0.137	-0.113
-475.289	25.611	0.159	0.134
-474.274	387.138	0.050	-0.105
-473.259	-79.893	-0.150	-0.051
-472.245	800.000	0.008	0.021
-471.230	55.854	-0.166	0.163
-470.216	236.450	-0.169	0.282
-469.201	12.797	-0.177	-0.138
-468.186	-58.417	-0.059	-0.026
-467.172	-54.550	-0.239	0.109
-466.157	-20.957	0.351	0.217
-465.143	-75.789	0.069	-0.025
-464.128	127.275	0.021	0.027
-463.113	49.313	0.168	0.159
-462.099	21.861	0.266	-0.219
-461.084	-200.000	0.004	0.031
-460.070	229.731	0.141	0.233
-459.055	-99.457	0.341	-0.087
-458.040	800.000	-0.029	-0.090
-457.026	-84.198	0.341	0.109
-456.011	424.721	-0.115	-0.251
-454.997	1.849	-0.103	0.075
-453.982	-134.530	0.114	0.014
-452.968	-200.000	0.018	-0.202
-451.953	-200.000	-0.021	-0.190
-450.938	-72.684	0.414	-0.154
-449.924	-130.055	-0.019	-0.003
-448.909	67.628	-0.068	-0.070
-447.895	382.594	0.099	-0.205
-446.880	236.330	-0.224	-0.375
-445.865	-145.064	-0.201	-0.018
-444.851	321.580	0.092	-0.176
-443.836	52.370	0.024	-0.023
-442.822	278.238	-0.142	0.255
-441.807	-41.198	-0.261	0.136
-440.792	99.243	-0.098	0.115
-439.778	-200.000	-0.038	0.245
-438.763	319.102	-0.112	-0.214
-437.749	391.482	0.097	0.204
-436.734	-30.086	-0.233	0.134
-435.719	-55.254	-0.236	0.107
-434.705	-108.740	0.170	-0.037
-433.690	-132.914	0.115	-0.015
-432.676	-143.165	0.254	0.025
-431.661	-200.000	-0.016	-0.238
-430.646	-95.708	-0.233	0.063
-429.632	800.000	0.027	-0.095
-428.617	-48.180	0.209	-0.102
-427.603	-123.662	0.241	0.039
-426.588	-155.592	-0.102	-0.007
-425.573	-84.450	0.106	0.034
-424.559	187.756	-0.117	-0.177
-423.544	371.685	0.158	0.324
-422.530	-200.000	-0.046	0.337
-421.515	41.583	0.170	0.155
-420.500	-200.000	-0.002	0.169
-419.486	800.000	0.084	-0.244
-418.471	-16.516	0.222	0.142
-417.457	78.648	0.135	-0.146
-416.442	10.870	-0.142	-0.109
-415.428	556.688	-0.138	0.335
-414.413	184.631	-0.073	0.110
-413.398	-179.706	0.148	-0.003
-412.384	800.000	0.099	0.284
-411.369	-101.815	-0.103	0.025
-410.355	241.502	-0.107	-0.181
-409.340	-200.000	0.017	-0.334
-408.325	-91.260	0.172	0.050
-407.311	-173.118	-0.470	0.015
-406.296	-37.599	-0.330	0.177
-405.282	-97.771	0.112	-0.029
-404.267	-119.909	0.425	0.074
-403.252	55.153	0.141	-0.137
-402.238	-200.000	0.044	0.206
-401.223	-109.799	0.227	0.048
-400.209	-110.542	0.141	-0.029
-399.194	-137.498	0.116	0.013
-398.179	530.224	-0.020	0.047
-397.165	-29.677	-0.079	0.045
-396.150	310.099	0.014	0.026
-395.136	117.449	-0.022	0.027
-394.121	25.989	-0.333	-0.280
-393.106	-104.062	0.272	0.064
-392.092	-200.000	-0.048	0.372
-391.077	-136.923	-0.167	0.019
-390.063	94.090	0.163	0.187
-389.048	671.927	0.026	-0.069
-388.033	-7.776	0.241	0.164
-387.019	-182.730	-0.201	-0.004
-386.004	139.764	-0.064	-0.084
-384.990	35.178	0.149	-0.131
-383.975	-44.940	-0.199	-0.100
-382.960	800.000	-0.125	-0.440
-381.946	481.793	-0.042	-0.096
-380.931	-33.980	-0.037	-0.020
-379.917	-0.834	0.251	0.179
-378.902	-96.038	0.194	0.052
-377.888	-94.995	-0.307	-0.084
-376.873	-200.000	0.045	-0.229
-375.858	15.329	0.348	-0.275
-374.844	-113.985	-0.264	0.052
-373.829	-7.433	0.119	0.081
-372.815	7.793	0.143	-0.108
-371.800	202.929	-0.048	-0.074
-370.785	228.280	-0.151	-0.249
-369.771	-169.200	0.311	0.012
-368.756	-200.000	0.007	-0.126
-367.742	-200.000	0.016	0.110
-366.727	37.067	-0.374	0.333
-365.712	212.821	-0.149	-0.237
-364.698	-154.524	0.299	-0.020
-363.683	-200.000	-0.059	-0.302
-362.669	-200.000	-0.036	-0.332
-361.654	-41.915	0.137	0.071
-360.639	-200.000	0.006	0.248
-359.625	464.867	0.050	-0.114
-358.610	-141.262	-0.089	-0.009
-357.596	-39.039	0.053	-0.028
-356.581	-90.869	-0.142	0.041
-355.566	9.649	-0.255	0.195
-354.552	102.927	-0.224	0.264
-353.537	-34.477	-0.127	-0.070
-352.523	-126.986	-0.261	-0.039
-351.508	-174.369	-0.277	0.008
-350.493	-53.877	-0.196	-0.090
-349.479	-157.220	-0.271	0.017
-348.464	-200.000	-0.023	0.292
-347.450	-17.711	0.178	-0.113
-346.435	-200.000	0.033	0.288
-345.420	-129.374	-0.222	-0.031
-344.406	-12.582	0.486	-0.319
-343.391	-64.669	-0.221	-0.090
-342.377	514.406	0.080	-0.189
-341.362	328.884	0.158	0.305
-340.348	-56.303	0.126	0.057
-339.333	-200.000	-0.011	-0.185
-338.318	3.288	0.048	-0.035
-337.304	-200.000	0.001	0.081
-336.289	-101.539	-0.127	-0.031
-335.275	326.187	-0.099	-0.190
-334.260	224.227	-0.116	-0.189
-333.245	259.475	-0.075	-0.131
-332.231	-12.065	0.138	-0.091
-331.216	14.922	0.280	-0.220
-330.202	-200.000	0.036	-0.306
-329.187	-179.680	0.227	0.005
-328.172	-130.933	0.131	-0.018
-327.158	269.075	-0.059	0.104
-326.143	-57.534	-0.169	0.074
-325.129	132.534	-0.058	0.075
-324.114	-68.501	-0.335	-0.131
-323.099	-16.889	-0.256	-0.163
-322.085	800.000	0.062	0.242
-321.070	-200.000	0.023	-0.360
-320.056	-123.498	-0.548	0.088
-319.041	-187.175	0.382	0.005
-318.026	800.000	-0.069	0.204
-317.012	-200.000	-0.053	0.333
-315.997	188.149	0.057	0.086
-314.983	97.570	-0.235	-0.272
-313.968	310.081	-0.101	-0.190
-312.953	-184.004	-0.152	0.003
-311.939	-141.077	-0.254	0.026
-310.924	85.128	-0.163	0.180
-309.910	181.856	0.136	0.201
-308.895	144.756	0.072	0.097
-307.880	-168.528	-0.258	-0.010
-306.866	-52.863	0.239	-0.110
-305.851	47.553	0.158	0.149
-304.837	36.660	-0.193	0.171
-303.822	-13.738	0.113	-0.074
-302.807	800.000	-0.038	-0.141
-301.793	-11.483	-0.323	-0.213
-300.778	-200.000	0.041	-0.282
-299.764	-200.000	-0.170	0.000
-298.749	300.733	0.068	-0.126
-297.735	-200.000	-0.038	0.349
-296.720	82.614	-0.162	0.177
-295.705	-11.290	0.110	0.073
-294.691	-18.845	-0.341	-0.213
-293.676	800.000	0.041	0.127
-292.662	22.119	0.025	0.021
-291.647	100.670	0.098	0.115
-290.632	-200.000	-0.026	-0.162
-289.618	800.000	0.099	0.281
-288.603	-58.899	-0.351	0.153
-287.589	335.963	-0.054	-0.106
-286.574	138.919	-0.093	-0.122
-285.559	-200.000	0.024	0.308
-284.545	57.343	-0.233	-0.229
-283.530	188.971	0.064	0.096
-282.516	480.741	0.132	-0.302
-281.501	437.721	-0.060	-0.131
-280.486	-115.172	0.209	0.040
-279.472	123.051	0.089	-0.112
-278.457	-105.980	0.115	-0.026
-277.443	275.515	0.017	-0.029
-276.428	574.141	-0.159	-0.389
-275.413	73.219	-0.146	0.154
-274.399	-87.252	0.214	0.065
-273.384	-64.346	0.401	0.164
-272.370	-26.308	0.165	0.097
-271.355	140.947	0.228	0.302
-270.340	800.000	-0.075	0.208
-269.326	-149.903	0.194	-0.015
-268.311	558.221	0.067	-0.163
-267.297	508.956	-0.123	-0.286
-266.282	286.683	-0.123	0.222
-265.267	-130.897	-0.258	-0.035
-264.253	123.138	-0.046	0.058
-263.238	198.474	-0.161	0.247
-262.224	59.980	-0.094	0.093
-261.209	670.367	-0.125	-0.326
-260.195	-1.269	0.276	0.196
-259.180	413.305	0.050	0.107
-258.165	-101.157	0.168	0.041
-257.151	59.353	0.208	-0.206
-256.136	-0.372	-0.158	0.113
-255.122	-200.000	-0.023	0.119
-254.107	-140.962	0.077	0.008
-253.092	359.091	0.070	0.141
-252.078	71.773	-0.134	0.140
-251.063	-111.466	0.092	0.019
-250.049	46.747	0.101	0.094
-249.034	279.881	0.072	0.130
-248.019	36.374	-0.245	-0.216
-247.005	71.667	0.114	-0.119
-245.990	800.000	0.096	-0.279
-244.976	-28.588	0.115	0.066
-243.961	164.429	0.229	-0.324
-242.946	-60.412	0.080	0.034
-241.932	-159.366	-0.203	-0.011
-240.917	800.000	-0.025	0.105
-239.903	800.000	-0.093	-0.331
-238.888	20.493	-0.138	0.112
-237.873	144.956	-0.087	0.117
-236.859	-200.000	-0.038	0.180
-235.844	420.080	-0.102	-0.219
-234.830	-80.442	-0.089	-0.030
-233.815	36.308	-0.257	-0.227
-232.800	-96.890	0.231	-0.061
-231.786	800.000	0.037	0.161
-230.771	800.000	-0.090	-0.250
-229.757	-76.021	-0.081	0.029
-228.742	-86.650	-0.181	-0.056
-227.727	4.845	0.162	-0.119
-226.713	-200.000	-0.004	0.026
-225.698	-51.485	-0.329	-0.154
-224.684	-22.099	0.239	0.145
-223.669	143.602	-0.052	0.069
-222.655	396.720	0.062	-0.130
-221.640	-200.000	-0.020	-0.133
-220.625	348.129	-0.063	-0.125
-219.611	-51.100	-0.350	-0.164
-218.596	32.961	-0.132	0.115
-217.582	221.643	-0.147	0.236
-216.567	-46.939	0.180	-0.088
-215.552	228.674	0.145	-0.237
-214.538	-200.000	0.007	0.292
-213.523	-65.003	0.384	0.155
-212.509	-200.000	-0.014	-0.250
-211.494	290.493	-0.024	0.044
-210.479	218.480	0.304	0.487
-209.465	40.961	-0.068	-0.062
-208.450	271.117	0.068	0.120
-207.436	800.000	0.031	-0.089
-206.421	521.903	0.041	0.097
-205.406	101.633	0.090	-0.106
-204.392	-105.043	0.058	-0.013
-203.377	78.385	-0.082	0.088
-202.363	199.385	-0.202	-0.311
-201.348	-107.390	0.448	-0.098
-200.333	-101.712	-0.376	0.091
-199.319	-138.555	-0.024	-0.003
-198.304	184.345	0.133	-0.197
-197.290	165.868	0.126	0.178
-196.275	259.994	-0.066	-0.114
-195.260	4.206	-0.142	0.104
-194.246	-90.193	0.055	0.016
-193.231	-26.319	0.272	-0.160
-192.217	800.000	0.077	0.303
-191.202	-200.000	-0.031	-0.162
-190.187	343.635	0.133	-0.261
-189.173	40.718	-0.040	0.036
-188.158	62.990	-0.151	-0.151
-187.144	-73.264	0.121	-0.044
-186.129	-126.296	-0.119	0.018
-185.114	293.882	0.031	0.057
-184.100	390.734	0.040	-0.084
-183.085	-200.000	-0.022	-0.193
-182.071	800.000	0.066	-0.199
-181.056	62.299	0.049	0.049
-180.042	45.882	-0.078	-0.072
-179.027	38.842	0.108	-0.097
-178.012	102.173	-0.182	-0.213
-176.998	-118.233	0.199	-0.035
-175.983	-37.859	-0.040	-0.021
-174.969	-121.775	0.227	0.037
-173.954	132.339	0.071	-0.091
-172.939	28.405	0.221	0.186
-171.925	81.183	0.037	-0.040
-170.910	-44.014	0.214	-0.107
-169.896	-200.000	0.019	0.364
-168.881	-200.000	0.072	0.388
-167.866	-200.000	0.038	0.176
-166.852	-200.000	-0.003	-0.087
-165.837	-149.137	0.321	0.026
-164.823	-142.678	-0.093	0.009
-163.808	-108.290	0.388	0.084
-162.793	273.955	-0.125	0.221
-161.779	51.999	0.171	-0.163
-160.764	-179.053	0.154	0.003
-159.750	43.919	-0.067	0.061
-158.735	324.387	0.107	-0.203
-157.720	800.000	-0.018	0.074
-156.706	-200.000	0.011	-0.193
-155.691	-200.000	-0.005	-0.092
-154.677	-55.451	0.288	0.129
-153.662	-25.826	0.219	0.129
-152.647	28.314	0.086	-0.072
-151.633	-23.733	0.166	0.099
-150.618	-200.000	0.015	0.197
-149.604	117.994	-0.144	-0.178
-148.589	800.000	-0.127	-0.425
-147.574	-159.332	0.323	-0.018
-146.560	-67.091	-0.233	0.092
-145.545	-200.000	0.040	0.345
-144.531	-7.255	0.127	-0.086
-143.516	419.618	0.154	0.330
-142.502	-0.720	0.263	-0.186
-141.487	592.427	0.155	-0.382
-140.472	-200.000	0.055	0.327
-139.458	642.346	-0.088	0.223
-138.443	106.591	-0.149	0.177
-137.429	-40.808	0.282	-0.146
-136.414	-59.648	0.173	0.074
-135.399	-108.924	-0.161	0.034
-134.385	36.957	-0.082	0.072
-133.370	-200.000	0.072	-0.344
-132.356	664.749	-0.137	0.352
-131.341	-26.899	-0.361	-0.211
-130.326	-200.000	0.084	-0.418
-129.312	51.201	0.048	0.046
-128.297	800.000	-0.082	0.334
-127.283	-200.000	0.002	0.111
-126.268	-141.137	0.093	-0.009
-125.253	194.809	-0.104	0.157
-124.239	-64.617	0.223	0.090
-123.224	-200.000	0.042	0.236
-122.210	237.536	0.186	0.308
