DTS Sentinel unit serial number:	SN413079Multiplexer serial number:	ORYXHardware model number:	OX4-SRSoftware version number:	ORYX F/W v4.00 Oryx Data Collector v3.7.2.0data status	okinstallation	princeton_trtdifferential loss correction	single-endedforward channel	channel 4reverse channel	N/Adate	2019/09/15time	07:17:35forward acquisition time	60.00reverse acquisition time	0.00gamma	496.2192k internal	0.2310k external	0.2310temperature offset calibration	1.0032default loss term (dB/km)	0.3790temperature slope calibration	1.0000multiplexer offset coefficient	1.0000multiplexer slope coefficient	1.0000fibre end	0.00T internal ref (°C)	30.55T ext. ref 1 (°C)	4.87T ext. ref 2 (°C)	25.84length (m)	temperature (°C)	Stokes	anti-Stokes-747.200	42.505	0.075	0.069
-746.185	320.958	0.089	0.171
-745.171	-146.988	-0.258	-0.022
-744.156	-170.025	-0.422	0.015
-743.142	2.462	0.162	-0.119
-742.127	20.215	0.112	0.092
-741.112	58.168	-0.110	0.110
-740.098	-21.970	-0.138	0.085
-739.083	-131.641	-0.166	-0.022
-738.069	-98.157	0.214	-0.056
-737.054	-20.779	0.206	-0.129
-736.039	-173.172	-0.301	-0.009
-735.025	-48.313	0.381	-0.186
-734.010	-200.000	0.004	0.152
-732.996	800.000	0.048	0.155
-731.981	88.683	-0.070	-0.079
-730.966	308.423	0.039	-0.075
-729.952	-200.000	0.016	-0.305
-728.937	800.000	-0.021	-0.059
-727.923	-72.573	-0.219	0.082
-726.908	-147.174	0.155	-0.013
-725.894	-111.145	-0.368	-0.077
-724.879	-200.000	0.045	-0.315
-723.864	-200.000	-0.083	0.489
-722.850	-138.840	-0.426	0.047
-721.835	-200.000	0.002	-0.081
-720.821	377.994	-0.133	0.277
-719.806	321.669	0.073	-0.141
-718.791	-142.855	-0.287	-0.028
-717.777	-57.990	0.439	-0.194
-716.762	780.618	-0.060	0.165
-715.748	-200.000	0.020	-0.242
-714.733	-200.000	0.072	0.416
-713.718	162.100	-0.111	0.158
-712.704	21.268	0.176	-0.145
-711.689	195.784	-0.052	-0.080
-710.675	173.185	0.259	0.379
-709.660	800.000	-0.025	-0.070
-708.645	-200.000	0.029	0.419
-707.631	-200.000	-0.053	-0.361
-706.616	-17.676	-0.199	-0.127
-705.602	800.000	-0.010	0.039
-704.587	580.602	0.039	0.097
-703.572	-200.000	-0.020	0.102
-702.558	-75.387	0.458	-0.165
-701.543	-112.667	-0.216	-0.044
-700.529	-185.908	-0.371	-0.006
-699.514	33.890	0.066	-0.059
-698.499	800.000	0.071	-0.263
-697.485	-49.246	-0.215	-0.104
-696.470	-73.911	-0.335	-0.123
-695.456	-84.222	-0.538	-0.173
-694.441	189.734	0.003	-0.004
-693.426	88.381	0.152	-0.171
-692.412	800.000	-0.050	0.141
-691.397	-159.421	0.192	-0.011
-690.383	-200.000	-0.014	-0.145
-689.368	91.401	-0.137	0.156
-688.354	-33.505	-0.010	-0.006
-687.339	-74.314	0.046	-0.017
-686.324	-200.000	0.024	-0.160
-685.310	134.725	-0.185	-0.243
-684.295	14.340	0.084	-0.067
-683.281	800.000	0.066	-0.283
-682.266	-113.772	-0.230	-0.045
-681.251	388.576	-0.187	-0.391
-680.237	53.789	0.028	-0.028
-679.222	-109.145	-0.404	-0.087
-678.208	23.464	0.153	-0.127
-677.193	-150.726	0.140	0.011
-676.178	-107.669	-0.328	-0.073
-675.164	-45.693	0.135	-0.068
-674.149	-90.546	-0.155	0.045
-673.135	800.000	-0.039	0.167
-672.120	90.253	0.332	-0.376
-671.105	78.758	0.176	-0.190
-670.091	-54.435	-0.150	0.069
-669.076	-166.284	0.042	-0.002
-668.062	-116.504	-0.217	-0.041
-667.047	39.509	0.148	-0.134
-666.032	-138.489	0.052	0.006
-665.018	54.771	-0.344	-0.336
-664.003	114.835	-0.084	0.104
-662.989	21.074	-0.379	0.311
-661.974	-107.925	-0.291	-0.064
-660.959	21.703	-0.323	0.266
-659.945	-200.000	0.024	-0.271
-658.930	-104.148	0.216	-0.051
-657.916	698.402	0.145	0.386
-656.901	800.000	0.088	0.334
-655.886	67.777	0.171	0.177
-654.872	-10.303	-0.305	0.205
-653.857	13.150	-0.111	-0.087
-652.843	800.000	0.061	0.220
-651.828	-200.000	-0.065	0.289
-650.814	-86.803	0.246	0.076
-649.799	-180.665	0.060	0.001
-648.784	-50.918	-0.240	-0.114
-647.770	1.898	0.040	-0.029
-646.755	800.000	-0.087	-0.335
-645.741	36.695	-0.234	0.209
-644.726	-200.000	-0.013	-0.247
-643.711	-116.208	0.498	0.094
-642.697	205.280	0.064	-0.100
-641.682	-200.000	-0.049	-0.293
-640.668	-37.014	-0.161	-0.087
-639.653	93.535	-0.139	-0.159
-638.638	-82.127	-0.083	-0.027
-637.624	69.977	0.139	0.145
-636.609	-93.407	0.179	0.050
-635.595	-200.000	0.084	0.405
-634.580	-200.000	-0.015	-0.140
-633.565	-39.261	0.096	0.051
-632.551	-200.000	-0.018	0.222
-631.536	73.654	0.021	0.023
-630.522	2.955	0.016	0.012
-629.507	-171.471	-0.169	0.006
-628.492	-200.000	0.009	-0.043
-627.478	800.000	0.032	-0.124
-626.463	-69.364	0.057	-0.022
-625.449	-200.000	0.014	-0.290
-624.434	-136.735	0.374	-0.044
-623.419	-126.853	0.164	-0.024
-622.405	26.263	0.126	0.106
-621.390	-200.000	-0.041	-0.274
-620.376	-140.578	-0.177	-0.019
-619.361	-74.558	0.167	-0.061
-618.346	800.000	0.051	-0.157
-617.332	-114.960	0.270	0.052
-616.317	-20.814	-0.027	0.017
-615.303	138.222	-0.331	0.438
-614.288	-87.654	0.041	-0.012
-613.273	-152.087	-0.286	0.021
-612.259	-151.109	0.037	0.003
-611.244	-200.000	-0.015	-0.098
-610.230	-15.581	-0.246	0.159
-609.215	-21.432	-0.336	-0.207
-608.201	-66.941	0.198	0.079
-607.186	-200.000	0.075	0.427
-606.171	800.000	0.062	-0.211
-605.157	-168.062	-0.179	-0.007
-604.142	800.000	-0.062	-0.193
-603.128	144.154	-0.068	-0.091
-602.113	-154.129	-0.228	-0.016
-601.098	44.992	0.014	0.013
-600.084	800.000	0.024	0.093
-599.069	-78.335	0.201	0.070
-598.055	78.663	-0.220	-0.237
-597.040	-125.490	-0.060	-0.009
-596.025	-74.073	0.053	0.019
-595.011	190.631	0.033	-0.050
-593.996	339.029	-0.020	0.039
-592.982	800.000	-0.098	0.406
-591.967	-157.667	0.173	-0.010
-590.952	800.000	0.093	-0.298
-589.938	-94.731	-0.115	0.031
-588.923	-77.416	0.153	-0.054
-587.909	31.171	0.060	-0.052
-586.894	13.989	0.082	-0.064
-585.879	-200.000	0.004	-0.197
-584.865	-200.000	-0.073	-0.498
-583.850	-130.718	0.335	0.046
-582.836	-148.040	0.084	0.007
-581.821	-200.000	-0.028	-0.446
-580.806	611.236	-0.100	-0.252
-579.792	-200.000	0.030	-0.379
-578.777	-133.871	-0.148	0.019
-577.763	-121.492	-0.111	-0.019
-576.748	168.836	-0.064	-0.092
-575.733	-76.483	-0.160	0.057
-574.719	155.047	0.219	0.303
-573.704	-119.439	0.277	-0.049
-572.690	392.422	-0.158	0.331
-571.675	460.300	-0.015	-0.033
-570.661	323.740	-0.190	-0.365
-569.646	-137.694	-0.199	-0.023
-568.631	21.669	0.147	-0.121
-567.617	-68.153	-0.218	-0.085
-566.602	-200.000	0.036	-0.348
-565.588	-200.000	0.030	-0.170
-564.573	143.419	-0.122	0.164
-563.558	-60.510	-0.212	-0.091
-562.544	221.296	-0.061	-0.098
-561.529	-21.022	-0.243	-0.150
-560.515	-37.728	-0.266	0.143
-559.500	32.387	-0.052	0.045
-558.485	-101.848	0.410	0.100
-557.471	-16.273	-0.104	-0.066
-556.456	-82.746	0.194	0.063
-555.442	-200.000	-0.016	0.255
-554.427	451.370	-0.093	-0.207
-553.412	-5.294	-0.181	-0.125
-552.398	-147.638	-0.519	0.044
-551.383	-42.005	-0.204	-0.105
-550.369	-12.845	0.260	0.170
-549.354	210.506	0.127	0.201
-548.339	-162.529	-0.281	0.014
-547.325	-93.775	0.077	0.021
-546.310	-31.223	-0.151	-0.086
-545.296	238.553	0.059	0.098
-544.281	-21.091	-0.206	-0.127
-543.266	800.000	0.113	-0.398
-542.252	596.743	0.092	-0.229
-541.237	15.591	-0.148	-0.117
-540.223	-93.857	-0.240	-0.067
-539.208	-200.000	0.002	-0.056
-538.193	-121.915	-0.080	-0.013
-537.179	-200.000	-0.059	0.295
-536.164	49.369	0.080	-0.075
-535.150	-107.454	0.104	-0.023
-534.135	-85.875	-0.178	-0.056
-533.121	550.818	-0.078	0.189
-532.106	414.924	-0.062	0.134
-531.091	-153.483	-0.206	0.014
-530.077	800.000	-0.079	-0.259
-529.062	-20.803	0.098	0.061
-528.048	258.389	0.108	-0.188
-527.033	-71.087	-0.156	0.059
-526.018	-200.000	0.006	0.233
-525.004	-154.194	-0.481	0.033
-523.989	-32.947	-0.227	0.127
-522.975	-200.000	-0.011	0.305
-521.960	-17.511	0.163	-0.103
-520.945	-11.562	-0.206	0.136
-519.931	800.000	0.051	0.191
-518.916	119.574	0.199	0.248
-517.902	67.520	0.342	-0.352
-516.887	55.421	-0.195	0.190
-515.872	-200.000	0.016	-0.291
-514.858	722.521	0.032	-0.087
-513.843	199.092	0.221	-0.341
-512.829	65.169	0.168	-0.170
-511.814	110.294	-0.058	0.070
-510.799	-169.110	0.377	-0.014
-509.785	73.145	0.033	0.035
-508.770	800.000	0.022	0.085
-507.756	445.601	0.343	0.758
-506.741	-141.758	-0.282	-0.028
-505.726	21.886	0.166	0.136
-504.712	6.403	0.122	0.091
-503.697	426.445	-0.069	0.149
-502.683	-200.000	-0.035	0.272
-501.668	-192.394	0.116	0.001
-500.653	5.627	0.376	-0.279
-499.639	-169.428	0.356	0.013
-498.624	89.335	0.253	0.283
-497.610	-200.000	-0.020	0.430
-496.595	111.119	0.167	-0.203
-495.581	13.349	-0.379	-0.295
-494.566	-192.412	-0.124	0.001
-493.551	-118.741	0.258	0.046
-492.537	34.992	0.372	0.327
-491.522	800.000	-0.101	0.339
-490.508	-99.400	0.220	-0.056
-489.493	-0.488	-0.007	0.005
-488.478	-153.591	-0.034	-0.002
-487.464	-200.000	-0.028	-0.181
-486.449	138.310	0.280	-0.369
-485.435	-105.306	-0.461	-0.106
-484.420	189.394	0.165	0.249
-483.405	-68.075	0.174	-0.068
-482.391	269.563	-0.114	0.201
-481.376	133.262	-0.286	0.371
-480.362	295.820	0.265	0.489
-479.347	-131.515	0.232	-0.031
-478.332	-53.612	0.074	-0.034
-477.318	466.221	0.079	-0.179
-476.303	-120.772	0.234	-0.040
-475.289	-200.000	-0.026	0.408
-474.274	-200.000	0.041	-0.396
-473.259	34.939	-0.087	-0.076
-472.245	-29.452	0.287	-0.165
-471.230	33.425	-0.001	0.001
-470.216	-119.911	-0.332	0.057
-469.201	-142.459	0.205	0.020
-468.186	-54.757	-0.073	0.033
-467.172	-142.991	0.118	0.011
-466.157	28.123	-0.091	-0.077
-465.143	-179.350	0.110	0.002
-464.128	-200.000	0.040	0.421
-463.113	-21.856	0.478	0.292
-462.099	220.538	-0.124	-0.200
-461.084	18.927	-0.059	-0.047
-460.070	800.000	-0.080	0.319
-459.055	95.636	0.072	-0.083
-458.040	-199.042	-0.385	-0.002
-457.026	-200.000	0.035	-0.221
-456.011	619.726	0.029	-0.073
-454.997	-127.617	-0.201	-0.029
-453.982	800.000	0.060	0.259
-452.968	-107.471	-0.462	0.102
-451.953	407.294	-0.133	0.281
-450.938	229.775	0.047	-0.076
-449.924	-53.420	-0.144	-0.066
-448.909	-65.554	0.354	0.143
-447.895	194.389	0.078	-0.119
-446.880	32.541	-0.192	0.167
-445.865	800.000	-0.043	0.128
-444.851	800.000	-0.064	0.208
-443.836	-10.438	-0.126	-0.084
-442.822	-200.000	-0.008	0.315
-441.807	-89.412	-0.297	-0.088
-440.792	-93.686	-0.359	0.099
-439.778	-200.000	-0.030	-0.144
-438.763	-160.092	-0.110	0.006
-437.749	-15.130	0.094	-0.061
-436.734	-200.000	-0.005	0.090
-435.719	800.000	0.054	-0.180
-434.705	-43.025	-0.261	-0.133
-433.690	-130.591	-0.548	-0.074
-432.676	-111.262	-0.159	-0.033
-431.661	82.584	0.080	-0.087
-430.646	706.734	-0.024	-0.063
-429.632	-145.578	0.171	0.015
-428.617	166.899	-0.113	0.161
-427.603	-161.943	0.512	-0.026
-426.588	800.000	-0.123	-0.376
-425.573	-12.921	0.114	-0.075
-424.559	409.102	0.090	-0.192
-423.544	-63.728	-0.239	-0.098
-422.530	540.358	0.054	0.128
-421.515	-99.631	-0.206	-0.052
-420.500	-155.011	0.159	0.010
-419.486	177.684	-0.078	0.114
-418.471	-59.543	0.313	-0.135
-417.457	800.000	0.028	0.122
-416.442	736.115	0.084	0.225
-415.428	46.307	0.146	-0.136
-414.413	171.724	0.049	0.070
-413.398	-11.138	0.097	-0.064
-412.384	247.119	-0.054	-0.092
-411.369	240.245	0.135	0.226
-410.355	-13.582	0.067	-0.044
-409.340	800.000	-0.078	0.257
-408.325	-95.000	0.362	-0.098
-407.311	800.000	0.074	-0.227
-406.296	180.882	-0.097	0.143
-405.282	129.653	-0.158	-0.202
-404.267	-30.896	0.170	0.096
-403.252	-200.000	0.006	-0.107
-402.238	-114.673	-0.222	0.043
-401.223	-106.998	0.110	0.024
-400.209	335.980	-0.076	0.149
-399.194	159.900	-0.184	0.257
-398.179	-103.569	-0.322	-0.076
-397.165	-85.585	-0.108	0.034
-396.150	-200.000	0.020	0.127
-395.136	-59.905	-0.114	0.049
-394.121	-30.877	0.256	0.145
-393.106	-4.130	0.313	0.217
-392.092	9.313	0.055	0.042
-391.077	-200.000	0.030	0.196
-390.063	736.374	-0.081	-0.217
-389.048	-200.000	0.043	0.199
-388.033	514.287	0.167	0.390
-387.019	-171.735	-0.387	0.013
-386.004	-102.198	0.254	-0.061
-384.990	-92.833	-0.100	0.028
-383.975	17.750	-0.098	-0.078
-382.960	-200.000	0.030	-0.202
-381.946	480.787	-0.071	0.161
-380.931	192.902	0.203	0.308
-379.917	7.400	0.056	0.042
-378.902	-200.000	-0.005	-0.084
-377.888	57.308	0.202	-0.197
-376.873	-67.684	-0.150	-0.059
-375.858	-74.954	0.392	-0.141
-374.844	554.413	0.050	-0.121
-373.829	800.000	0.125	0.444
-372.815	-102.446	0.123	-0.029
-371.800	-80.290	0.233	-0.078
-370.785	236.191	-0.037	-0.061
-369.771	-30.511	-0.274	-0.155
-368.756	395.846	0.055	-0.114
-367.742	59.615	-0.199	-0.196
-366.727	76.985	0.209	0.222
-365.712	229.195	0.035	-0.057
-364.698	-13.510	0.035	0.023
-363.683	-67.931	0.178	-0.070
-362.669	354.349	0.163	-0.325
-361.654	-200.000	-0.014	-0.118
-360.639	686.341	0.129	-0.338
-359.625	800.000	0.072	-0.206
-358.610	245.274	0.128	0.215
-357.596	218.477	0.091	-0.145
-356.581	-123.708	-0.129	-0.020
-355.566	-162.705	0.256	-0.013
-354.552	40.067	0.127	-0.114
-353.537	-200.000	0.045	0.233
-352.523	800.000	0.028	-0.085
-351.508	-63.025	-0.240	0.099
-350.493	-105.082	0.494	-0.113
-349.479	-200.000	-0.008	-0.238
-348.464	75.338	0.149	0.157
-347.450	-200.000	-0.019	-0.384
-346.435	-73.222	-0.245	0.090
-345.420	69.595	-0.221	-0.228
-344.406	-94.562	-0.165	-0.045
-343.391	-12.024	-0.128	-0.084
-342.377	1.986	-0.261	-0.188
-341.362	543.785	-0.118	0.281
-340.348	-179.168	0.021	-0.000
-339.333	-200.000	-0.007	-0.110
-338.318	-200.000	0.023	0.162
-337.304	21.787	-0.293	0.238
-336.289	-33.351	-0.168	-0.093
-335.275	-93.220	-0.137	0.038
-334.260	257.300	-0.130	-0.224
-333.245	-136.297	-0.194	-0.023
-332.231	-127.497	-0.056	0.008
-331.216	150.273	0.149	0.203
-330.202	800.000	-0.043	0.158
-329.187	-48.193	-0.135	0.065
-328.172	800.000	-0.038	0.119
-327.158	5.363	0.178	0.131
-326.143	-35.788	0.065	0.035
-325.129	-200.000	-0.020	0.196
-324.114	-200.000	0.010	-0.157
-323.099	257.016	0.153	0.262
-322.085	127.003	0.090	0.114
-321.070	-16.460	0.366	-0.232
-320.056	292.827	0.181	0.330
-319.041	-131.656	-0.169	-0.022
-318.026	800.000	0.102	-0.309
-317.012	-64.409	-0.252	-0.102
-315.997	40.374	-0.191	0.172
-314.983	165.551	0.107	-0.151
-313.968	658.439	-0.126	-0.324
-312.953	-90.733	0.367	-0.106
-311.939	-122.044	-0.261	-0.043
-310.924	-142.655	0.390	0.038
-309.910	-75.607	0.119	-0.042
-308.895	-200.000	0.001	-0.540
-307.880	-105.893	-0.260	-0.059
-306.866	197.492	0.307	-0.467
-305.851	-54.779	0.158	0.071
-304.837	-67.200	-0.129	-0.051
-303.822	450.901	-0.033	0.073
-302.807	-200.000	0.013	0.073
-301.793	-67.405	0.354	0.139
-300.778	-200.000	0.014	-0.419
-299.764	800.000	0.051	-0.159
-298.749	-49.952	0.319	-0.151
-297.735	-118.309	-0.242	0.043
-296.720	800.000	-0.058	0.235
-295.705	-83.467	-0.382	0.122
-294.691	38.806	-0.182	0.162
-293.676	-86.469	0.611	0.187
-292.662	800.000	-0.083	-0.260
-291.647	7.608	0.198	0.148
-290.632	594.610	-0.048	0.118
-289.618	-200.000	-0.041	-0.314
-288.603	154.793	-0.161	0.220
-287.589	800.000	-0.013	0.055
-286.574	-96.727	0.109	-0.029
-285.559	115.317	-0.104	0.127
-284.545	-200.000	-0.028	0.158
-283.530	-130.491	-0.310	-0.042
-282.516	87.820	0.121	0.133
-281.501	-4.430	-0.401	-0.276
-280.486	-53.726	0.105	-0.048
-279.472	14.282	-0.134	-0.104
-278.457	171.741	-0.124	-0.177
-277.443	68.552	-0.255	0.261
-276.428	-200.000	0.051	-0.410
-275.413	85.272	0.147	-0.161
-274.399	-111.509	0.097	0.020
-273.384	-118.738	-0.112	-0.020
-272.370	-129.695	0.098	0.013
-271.355	-91.227	0.316	-0.090
-270.340	-200.000	-0.039	0.188
-269.326	-166.705	-0.079	0.003
-268.311	-121.278	-0.283	0.047
-267.297	-130.261	0.135	0.018
-266.282	-81.420	-0.110	-0.036
-265.267	267.788	-0.107	0.186
-264.253	-0.483	0.077	0.054
-263.238	800.000	0.062	-0.244
-262.224	261.224	-0.169	-0.292
-261.209	59.690	-0.328	0.322
-260.195	800.000	0.078	0.261
-259.180	186.889	0.113	0.168
-258.165	-152.171	-0.205	-0.015
-257.151	96.520	-0.148	0.168
-256.136	152.560	0.262	0.356
-255.122	127.125	0.103	0.130
-254.107	-96.601	-0.201	-0.053
-253.092	745.875	-0.061	0.165
-252.078	147.569	0.116	0.156
-251.063	-42.452	0.042	-0.021
-250.049	-200.000	0.043	0.258
-249.034	33.732	0.166	-0.144
-248.019	-64.737	-0.108	-0.044
-247.005	-17.105	0.264	-0.166
-245.990	-4.359	-0.136	0.094
-244.976	258.727	-0.047	0.081
-243.961	800.000	-0.037	0.114
-242.946	786.406	-0.162	0.443
-241.932	298.548	0.083	-0.152
-240.917	97.192	-0.178	-0.203
-239.903	-107.192	-0.374	0.082
-238.888	-200.000	0.020	-0.100
-237.873	-200.000	0.040	-0.218
-236.859	224.221	0.133	-0.213
-235.844	-200.000	0.001	-0.171
-234.830	-8.646	-0.131	-0.088
-233.815	88.355	0.115	-0.127
-232.800	800.000	0.092	0.313
-231.786	-17.211	-0.292	-0.183
-230.771	-84.134	0.295	-0.093
-229.757	46.499	0.109	0.101
-228.742	636.425	0.025	-0.064
-227.727	-9.184	-0.337	-0.224
-226.713	800.000	-0.004	-0.013
-225.698	800.000	0.076	0.257
-224.684	-121.739	0.074	0.012
-223.669	-23.399	0.128	0.077
-222.655	-77.822	0.363	0.125
-221.640	155.056	0.159	0.218
-220.625	-91.755	0.165	0.047
-219.611	-106.496	0.184	-0.041
-218.596	800.000	0.019	-0.064
-217.582	-138.139	-0.630	0.070
-216.567	-10.980	-0.127	0.083
-215.552	-26.035	0.224	-0.131
-214.538	-29.435	0.318	0.181
-213.523	-62.798	0.228	0.094
-212.509	336.105	0.263	-0.508
-211.494	-73.782	-0.251	-0.091
-210.479	-75.177	-0.344	-0.122
-209.465	67.173	-0.077	0.079
-208.450	-17.649	0.073	0.046
-207.436	721.005	0.017	-0.046
-206.421	5.680	-0.246	0.181
-205.406	-32.429	0.085	-0.047
-204.392	8.548	-0.266	0.199
-203.377	162.754	0.271	0.378
-202.363	800.000	-0.035	0.106
-201.348	179.087	-0.082	-0.120
-200.333	-162.707	0.298	0.015
-199.319	-90.410	-0.058	-0.017
-198.304	289.255	0.071	-0.128
-197.290	800.000	0.067	0.221
-196.275	-95.394	0.091	-0.024
-195.260	-5.601	0.038	0.026
-194.246	-200.000	-0.009	0.202
-193.231	337.073	-0.066	0.128
-192.217	86.739	0.054	0.059
-191.202	7.028	0.149	-0.111
-190.187	-62.364	-0.354	-0.146
-189.173	-61.466	-0.082	-0.034
-188.158	-68.919	-0.227	0.087
-187.144	75.982	-0.135	0.142
-186.129	-200.000	0.259	0.000
-185.114	116.092	-0.091	0.111
-184.100	-58.584	0.216	0.093
-183.085	658.160	0.128	0.328
-182.071	800.000	0.033	0.092
-181.056	182.190	0.210	-0.308
-180.042	-200.000	0.008	0.057
-179.027	209.186	0.013	-0.020
-178.012	-86.660	0.246	-0.075
-176.998	-46.161	0.442	0.216
-175.983	228.139	-0.118	0.191
-174.969	39.674	0.131	0.116
-173.954	-200.000	0.012	-0.150
-172.939	81.524	-0.197	0.212
-171.925	-149.835	-0.017	-0.001
-170.910	-200.000	0.046	0.463
-169.896	60.753	-0.163	0.161
-168.881	-200.000	-0.034	-0.238
-167.866	119.119	-0.086	0.105
-166.852	-200.000	0.035	-0.565
-165.837	800.000	0.099	-0.310
-164.823	-34.171	-0.413	0.225
-163.808	-200.000	0.006	0.267
-162.793	203.586	-0.171	-0.262
-161.779	59.467	-0.098	0.096
-160.764	27.031	-0.182	-0.152
-159.750	-77.655	0.294	0.101
-158.735	65.789	0.174	-0.175
-157.720	-69.325	-0.408	0.155
-156.706	117.967	-0.257	-0.314
-155.691	-72.853	0.154	-0.056
-154.677	-200.000	-0.006	-0.032
-153.662	76.348	-0.139	-0.146
-152.647	649.923	-0.052	0.133
-151.633	85.544	0.228	-0.249
-150.618	-117.223	-0.171	-0.031
-149.604	-64.127	0.401	-0.162
-148.589	-200.000	-0.056	0.337
-147.574	-200.000	0.015	0.129
-146.560	782.986	0.058	0.157
-145.545	-169.006	0.380	0.014
-144.531	400.334	0.135	-0.281
-143.516	-104.088	-0.224	-0.052
-142.502	193.576	0.072	-0.107
-141.487	-200.000	0.020	-0.094
-140.472	-85.809	0.119	0.037
-139.458	393.428	0.073	-0.151
-138.443	211.801	-0.145	0.226
-137.429	721.445	-0.080	-0.211
-136.414	-81.801	0.495	0.161
-135.399	482.559	0.114	-0.257
-134.385	50.364	0.102	-0.095
-133.370	-88.199	-0.126	0.037
-132.356	104.545	0.118	0.138
-131.341	407.973	0.090	0.188
-130.326	131.200	0.164	-0.209
-129.312	-116.480	0.166	-0.030
-128.297	214.897	0.038	0.059
-127.283	800.000	-0.072	-0.224
-126.268	64.371	0.129	0.129
-125.253	438.028	-0.122	-0.264
-124.239	-108.591	0.113	-0.024
-123.224	170.121	0.155	-0.220
-122.210	78.714	-0.097	0.103
-121.195	31.798	-0.283	0.241
