DTS Sentinel unit serial number:	SN413079Multiplexer serial number:	ORYXHardware model number:	OX4-SRSoftware version number:	ORYX F/W v4.00 Oryx Data Collector v3.7.2.0data status	okinstallation	princeton_trtdifferential loss correction	single-endedforward channel	channel 4reverse channel	N/Adate	2019/09/11time	05:31:11forward acquisition time	60.00reverse acquisition time	0.00gamma	496.2192k internal	0.2316k external	0.2316temperature offset calibration	0.9943default loss term (dB/km)	0.3790temperature slope calibration	1.0000multiplexer offset coefficient	1.0000multiplexer slope coefficient	1.0000fibre end	0.00T internal ref (°C)	29.42T ext. ref 1 (°C)	-0.22T ext. ref 2 (°C)	23.32length (m)	temperature (°C)	Stokes	anti-Stokes-747.200	97.220	0.062	-0.072
-746.185	-200.000	-0.079	0.389
-745.171	-110.338	0.127	-0.027
-744.156	-114.110	0.273	-0.054
-743.142	532.490	-0.100	0.241
-742.127	-24.674	-0.226	0.136
-741.112	-200.000	0.039	0.324
-740.098	-78.740	-0.163	-0.056
-739.083	350.457	0.132	-0.264
-738.069	-89.215	0.353	0.106
-737.054	-200.000	-0.027	-0.143
-736.039	-122.865	-0.476	-0.078
-735.025	-167.511	0.137	0.006
-734.010	23.955	-0.245	-0.205
-732.996	135.676	-0.210	-0.277
-731.981	190.569	-0.145	-0.221
-730.966	245.442	-0.023	0.038
-729.952	-163.437	-0.041	-0.002
-728.937	800.000	-0.084	-0.291
-727.923	-200.000	0.025	-0.150
-726.908	-200.000	0.005	-0.112
-725.894	-69.917	0.231	-0.089
-724.879	-29.442	-0.372	-0.216
-723.864	-47.300	-0.111	-0.055
-722.850	-16.865	0.244	-0.156
-721.835	-42.770	-0.371	0.191
-720.821	-191.013	-0.375	-0.004
-719.806	-200.000	0.017	0.146
-718.791	281.775	0.197	-0.358
-717.777	-112.425	-0.148	0.030
-716.762	168.700	0.115	-0.166
-715.748	-148.231	0.319	-0.027
-714.733	107.916	0.343	-0.413
-713.718	800.000	-0.103	-0.307
-712.704	236.425	-0.035	-0.058
-711.689	493.932	0.103	-0.240
-710.675	178.968	0.131	-0.194
-709.660	-200.000	-0.058	0.336
-708.645	214.125	-0.115	-0.183
-707.631	103.321	-0.181	-0.215
-706.616	-92.478	0.055	-0.016
-705.602	12.512	-0.278	0.217
-704.587	718.640	0.114	0.305
-703.572	82.644	-0.131	0.144
-702.558	800.000	0.153	-0.461
-701.543	800.000	-0.128	-0.437
-700.529	-28.575	-0.104	0.060
-699.514	800.000	-0.059	-0.242
-698.499	-3.974	0.055	0.038
-697.485	-10.715	-0.133	0.089
-696.470	197.634	0.068	0.105
-695.456	-99.713	-0.359	-0.091
-694.441	780.433	0.099	0.275
-693.426	89.503	0.379	-0.428
-692.412	148.519	0.216	-0.295
-691.397	501.724	-0.083	-0.193
-690.383	-19.151	-0.259	0.163
-689.368	-15.454	0.143	0.093
-688.354	800.000	0.093	0.368
-687.339	20.484	-0.229	0.187
-686.324	-44.435	-0.169	-0.085
-685.310	560.016	0.072	-0.175
-684.295	-30.703	-0.148	-0.084
-683.281	-200.000	-0.071	-0.355
-682.266	-161.852	0.310	0.016
-681.251	236.326	-0.086	0.144
-680.237	385.115	-0.107	0.222
-679.222	-200.000	0.017	0.279
-678.208	800.000	-0.120	-0.447
-677.193	8.147	-0.296	-0.225
-676.178	-171.801	0.463	0.015
-675.164	-50.714	-0.347	0.165
-674.149	105.819	0.084	-0.101
-673.135	-107.786	-0.101	-0.022
-672.120	800.000	-0.094	0.348
-671.105	241.961	0.208	-0.351
-670.091	528.493	0.178	-0.424
-669.076	-73.253	0.167	-0.062
-668.062	-164.805	-0.321	0.015
-667.047	-200.000	-0.005	-0.028
-666.032	800.000	-0.041	-0.113
-665.018	-65.687	0.211	0.085
-664.003	-61.643	-0.071	-0.030
-662.989	6.346	-0.040	0.030
-661.974	-56.633	-0.259	0.116
-660.959	89.352	0.149	-0.168
-659.945	-93.251	-0.041	0.012
-658.930	800.000	-0.088	-0.367
-657.916	-16.139	-0.093	0.060
-656.901	-200.000	0.010	0.239
-655.886	368.650	0.074	0.151
-654.872	288.953	0.097	-0.177
-653.857	-18.106	0.339	0.214
-652.843	-88.394	0.130	0.039
-651.828	-200.000	-0.021	0.125
-650.814	194.200	-0.083	-0.128
-649.799	112.760	-0.268	0.328
-648.784	-5.777	-0.129	-0.089
-647.770	-147.657	-0.114	0.010
-646.755	-200.000	-0.001	0.212
-645.741	-200.000	0.009	0.100
-644.726	248.605	-0.195	-0.334
-643.711	-29.209	0.209	-0.121
-642.697	-95.285	0.227	0.062
-641.682	-200.000	0.016	-0.238
-640.668	-78.887	0.110	-0.038
-639.653	457.972	0.050	-0.111
-638.638	-6.854	-0.156	-0.107
-637.624	-160.725	-0.400	0.021
-636.609	228.118	0.170	-0.279
-635.595	230.106	0.217	-0.358
-634.580	-120.841	0.187	-0.032
-633.565	59.448	0.062	0.062
-632.551	464.681	-0.131	-0.295
-631.536	-53.261	0.010	0.005
-630.522	-61.260	-0.304	0.129
-629.507	800.000	0.053	0.193
-628.492	-110.843	0.240	0.050
-627.478	95.724	-0.055	-0.063
-626.463	-153.535	0.224	-0.016
-625.449	-143.539	-0.252	0.024
-624.434	-112.280	-0.089	0.018
-623.419	-155.296	-0.175	0.011
-622.405	-155.309	-0.085	0.006
-621.390	-200.000	-0.002	-0.116
-620.376	-200.000	0.006	-0.121
-619.361	-27.685	-0.168	0.098
-618.346	-200.000	0.010	0.129
-617.332	-141.078	-0.385	-0.040
-616.317	-200.000	0.024	-0.325
-615.303	-200.000	-0.003	0.051
-614.288	142.659	-0.093	0.124
-613.273	-49.711	-0.290	0.139
-612.259	-200.000	0.032	0.156
-611.244	81.068	-0.233	0.254
-610.230	12.938	-0.314	0.245
-609.215	800.000	0.067	-0.241
-608.201	4.053	-0.115	-0.084
-607.186	-102.702	0.221	0.053
-606.171	-132.613	0.214	-0.028
-605.157	139.041	-0.148	0.196
-604.142	-6.058	0.199	-0.137
-603.128	27.543	0.168	0.142
-602.113	-74.860	-0.180	0.065
-601.098	-200.000	0.003	-0.015
-600.084	-200.000	0.006	0.296
-599.069	137.731	-0.168	0.222
-598.055	136.380	0.213	0.280
-597.040	237.371	-0.056	-0.094
-596.025	-142.550	-0.232	-0.023
-595.011	-200.000	-0.040	0.410
-593.996	-200.000	-0.031	-0.165
-592.982	41.897	-0.121	0.111
-591.967	-40.736	0.136	0.071
-590.952	336.487	-0.233	0.456
-589.938	-75.261	-0.203	0.073
-588.923	794.983	0.012	-0.032
-587.909	265.121	-0.104	0.183
-586.894	-180.804	-0.078	-0.002
-585.879	25.003	0.413	-0.345
-584.865	408.158	0.132	-0.281
-583.850	110.162	0.191	-0.230
-582.836	120.535	0.156	-0.195
-581.821	-200.000	0.001	0.254
-580.806	-50.702	0.213	0.101
-579.792	-47.369	-0.291	0.142
-578.777	21.389	-0.218	-0.178
-577.763	-55.598	0.188	-0.085
-576.748	-200.000	-0.007	-0.034
-575.733	2.178	-0.038	-0.027
-574.719	-31.018	0.201	0.114
-573.704	800.000	0.082	0.328
-572.690	227.210	0.041	0.067
-571.675	-140.970	0.134	0.014
-570.661	241.287	0.121	0.203
-569.646	492.257	-0.053	-0.121
-568.631	-6.970	0.260	-0.178
-567.617	-152.605	-0.263	0.019
-566.602	383.155	0.121	0.251
-565.588	-92.676	0.341	-0.096
-564.573	-19.560	0.137	-0.085
-563.558	160.094	-0.091	-0.127
-562.544	-200.000	-0.096	-0.505
-561.529	-170.412	-0.356	-0.013
-560.515	-200.000	0.081	0.399
-559.500	-177.214	0.489	-0.012
-558.485	-21.089	0.404	0.248
-557.471	-44.220	-0.264	-0.133
-556.456	38.299	-0.012	-0.011
-555.442	-200.000	-0.001	0.004
-554.427	179.087	0.188	-0.277
-553.412	15.098	0.138	0.109
-552.398	-108.490	-0.229	0.050
-551.383	169.970	-0.301	0.432
-550.369	-116.797	0.071	-0.013
-549.354	448.485	-0.080	0.178
-548.339	-37.100	0.182	0.098
-547.325	168.424	0.192	0.275
-546.310	-56.648	-0.144	-0.064
-545.296	-165.260	0.370	0.016
-544.281	218.091	0.130	-0.209
-543.266	-200.000	0.005	-0.035
-542.252	115.799	-0.133	-0.164
-541.237	72.525	-0.213	0.224
-540.223	187.968	0.085	0.128
-539.208	4.865	0.073	0.054
-538.193	-200.000	-0.023	0.145
-537.179	-59.692	0.289	0.124
-536.164	-200.000	0.001	-0.150
-535.150	-132.965	0.143	0.018
-534.135	-91.900	-0.286	-0.081
-533.121	-14.088	0.232	-0.151
-532.106	-200.000	0.017	-0.337
-531.091	-109.472	0.250	0.053
-530.077	-200.000	-0.014	-0.230
-529.062	-82.495	-0.416	0.136
-528.048	-81.995	0.144	0.047
-527.033	-162.590	0.259	0.013
-526.018	64.468	0.117	0.118
-525.004	665.490	-0.087	0.226
-523.989	686.826	0.200	-0.524
-522.975	584.813	0.062	-0.152
-521.960	-200.000	0.042	-0.346
-520.945	346.351	-0.140	0.276
-519.931	-108.472	0.192	0.042
-518.916	413.715	0.090	-0.192
-517.902	-28.470	0.039	0.023
-516.887	2.991	0.135	-0.099
-515.872	-172.059	-0.414	-0.013
-514.858	-200.000	-0.023	-0.379
-513.843	460.657	0.113	-0.252
-512.829	-33.802	0.348	0.193
-511.814	605.648	0.080	0.200
-510.799	288.652	0.123	-0.224
-509.785	-200.000	-0.031	-0.420
-508.770	-91.280	-0.219	0.063
-507.756	-1.984	-0.062	-0.044
-506.741	800.000	0.065	0.232
-505.726	-61.905	-0.320	0.134
-504.712	56.412	-0.183	-0.178
-503.697	-117.395	-0.388	-0.071
-502.683	235.722	-0.177	-0.294
-501.668	-11.887	-0.185	0.122
-500.653	65.167	0.116	-0.118
-499.639	-75.466	-0.217	-0.078
-498.624	-200.000	-0.002	0.129
-497.610	323.361	0.060	-0.114
-496.595	-200.000	0.017	-0.102
-495.581	-200.000	0.020	-0.148
-494.566	15.748	-0.030	-0.024
-493.551	6.592	0.014	-0.010
-492.537	-11.551	0.193	-0.127
-491.522	237.375	0.120	-0.200
-490.508	36.898	-0.217	0.193
-489.493	-80.985	-0.013	0.004
-488.478	109.654	-0.217	-0.261
-487.464	-83.105	-0.207	0.067
-486.449	210.689	0.172	0.271
-485.435	162.054	0.195	0.274
-484.420	-134.537	-0.294	0.036
-483.405	7.659	0.030	-0.023
-482.391	-17.391	-0.178	-0.112
-481.376	409.935	-0.086	-0.183
-480.362	800.000	0.045	0.142
-479.347	-127.244	-0.306	0.045
-478.332	450.149	-0.051	0.112
-477.318	3.662	-0.049	0.035
-476.303	-110.299	-0.343	-0.072
-475.289	89.084	0.103	-0.115
-474.274	-53.332	0.288	-0.132
-473.259	-61.850	-0.232	-0.097
-472.245	55.110	-0.161	-0.156
-471.230	-104.190	0.119	-0.028
-470.216	-58.860	-0.238	-0.103
-469.201	-162.658	0.168	-0.008
-468.186	641.887	0.114	-0.291
-467.172	427.335	0.140	0.302
-466.157	106.835	0.208	0.248
-465.143	800.000	0.064	0.182
-464.128	-19.009	0.023	-0.014
-463.113	226.071	0.230	0.374
-462.099	800.000	-0.031	0.109
-461.084	-169.879	0.300	-0.011
-460.070	800.000	-0.070	-0.258
-459.055	248.749	0.126	0.214
-458.040	-62.117	-0.246	-0.103
-457.026	285.915	-0.099	0.179
-456.011	-200.000	0.019	0.243
-454.997	-113.450	-0.093	-0.018
-453.982	91.910	-0.088	-0.100
-452.968	762.612	0.029	0.080
-451.953	10.516	0.092	0.070
-450.938	394.149	0.164	0.341
-449.924	298.341	-0.096	-0.177
-448.909	78.078	-0.205	0.219
-447.895	-17.380	-0.222	-0.140
-446.880	-106.328	0.209	0.047
-445.865	-200.000	0.521	-0.002
-444.851	6.443	0.036	0.027
-443.836	-69.436	0.325	-0.125
-442.822	83.332	0.188	0.205
-441.807	800.000	0.036	0.119
-440.792	-2.233	-0.215	-0.151
-439.778	800.000	0.017	0.052
-438.763	35.066	-0.231	0.202
-437.749	-200.000	-0.004	-0.137
-436.734	-78.516	0.205	-0.070
-435.719	176.962	0.128	0.187
-434.705	-46.013	-0.287	-0.142
-433.690	6.545	-0.139	0.104
-432.676	519.957	0.030	0.070
-431.661	-200.000	-0.006	0.084
-430.646	286.439	0.063	-0.115
-429.632	-200.000	0.038	-0.468
-428.617	438.087	-0.178	-0.388
-427.603	-155.132	-0.187	-0.012
-426.588	73.439	0.165	0.173
-425.573	-165.852	0.406	0.017
-424.559	800.000	0.035	0.112
-423.544	800.000	0.041	-0.119
-422.530	2.145	-0.178	0.129
-421.515	-142.451	-0.298	0.029
-420.500	-200.000	-0.047	-0.289
-419.486	137.820	0.124	-0.162
-418.471	-64.241	0.194	-0.079
-417.457	158.493	0.287	-0.399
-416.442	-200.000	0.006	-0.054
-415.428	-52.617	0.121	0.056
-414.413	-200.000	-0.002	-0.013
-413.398	-1.295	0.100	0.071
-412.384	-97.490	0.150	-0.039
-411.369	-200.000	-0.002	0.187
-410.355	336.066	-0.133	0.259
-409.340	-121.175	0.202	-0.034
-408.325	20.714	0.156	0.126
-407.311	-200.000	-0.041	0.335
-406.296	-143.936	-0.076	0.007
-405.282	64.498	-0.177	-0.178
-404.267	-73.720	0.161	-0.059
-403.252	109.249	0.138	-0.165
-402.238	238.682	-0.187	-0.311
-401.223	-200.000	0.021	-0.109
-400.209	42.774	-0.111	0.101
-399.194	-97.972	-0.215	0.055
-398.179	113.560	0.217	-0.263
-397.165	169.337	0.131	-0.187
-396.150	246.697	-0.239	0.402
-395.136	535.796	-0.151	-0.358
-394.121	800.000	0.050	-0.140
-393.106	800.000	0.061	0.231
-392.092	-128.900	0.337	0.047
-391.077	338.793	0.164	0.319
-390.063	66.298	-0.137	-0.139
-389.048	12.694	-0.105	0.081
-388.033	-73.929	-0.321	-0.116
-387.019	304.044	0.069	-0.127
-386.004	361.803	0.079	0.158
-384.990	-123.502	-0.114	0.018
-383.975	131.771	-0.172	-0.221
-382.960	475.928	-0.079	-0.178
-381.946	-16.360	-0.117	0.074
-380.931	800.000	0.037	0.128
-379.917	615.242	0.061	-0.154
-378.902	-200.000	-0.007	-0.080
-377.888	-100.241	-0.144	-0.036
-376.873	26.452	0.133	0.111
-375.858	38.140	0.348	0.309
-374.844	-197.384	-0.128	-0.001
-373.829	259.063	-0.284	0.489
-372.815	85.450	0.117	0.129
-371.800	-200.000	-0.029	0.210
-370.785	800.000	0.036	0.151
-369.771	308.169	0.149	-0.277
-368.756	-166.677	0.052	0.002
-367.742	38.581	0.174	-0.155
-366.727	589.927	0.011	-0.028
-365.712	-86.820	0.140	-0.043
-364.698	-200.000	0.001	-0.160
-363.683	66.389	-0.058	-0.059
-362.669	800.000	-0.128	-0.424
-361.654	-151.612	-0.250	0.018
-360.639	250.601	0.171	0.290
-359.625	237.030	-0.108	0.179
-358.610	649.529	0.073	0.186
-357.596	-37.778	-0.053	-0.028
-356.581	65.234	-0.273	0.275
-355.566	-102.522	0.264	0.063
-354.552	800.000	0.038	0.118
-353.537	-200.000	0.015	0.259
-352.523	-120.780	-0.072	0.012
-351.508	800.000	-0.083	0.334
-350.493	-11.204	-0.387	-0.255
-349.479	-200.000	-0.018	-0.168
-348.464	185.173	-0.092	0.136
-347.450	-74.424	0.230	0.083
-346.435	-164.188	0.440	-0.020
-345.420	-100.584	0.286	-0.071
-344.406	-200.000	0.023	-0.184
-343.391	-9.380	-0.208	0.139
-342.377	-136.962	0.093	0.011
-341.362	-200.000	-0.038	0.172
-340.348	171.811	0.111	-0.159
-339.333	-200.000	0.024	0.231
-338.318	-71.475	0.082	-0.031
-337.304	381.924	-0.031	0.063
-336.289	141.067	-0.078	0.103
-335.275	800.000	-0.127	-0.428
-334.260	-200.000	-0.017	-0.133
-333.245	791.653	-0.081	0.223
-332.231	-182.762	-0.258	-0.005
-331.216	-200.000	-0.007	-0.088
-330.202	188.685	0.028	-0.041
-329.187	-45.171	0.195	-0.097
-328.172	-200.000	-0.041	-0.404
-327.158	-200.000	-0.005	-0.093
-326.143	91.476	0.138	-0.154
-325.129	361.728	-0.055	-0.109
-324.114	35.709	-0.179	-0.157
-323.099	188.445	-0.206	0.308
-322.085	-86.532	-0.297	-0.091
-321.070	800.000	-0.101	-0.438
-320.056	-139.836	-0.127	-0.013
-319.041	-200.000	0.018	-0.191
-318.026	-72.430	0.128	-0.047
-317.012	34.885	-0.214	0.186
-315.997	-113.020	0.455	0.089
-314.983	-200.000	0.005	-0.195
-313.968	-70.168	-0.204	0.077
-312.953	-76.204	0.212	0.075
-311.939	-29.437	-0.136	-0.078
-310.924	-200.000	0.033	-0.206
-309.910	57.199	0.099	-0.096
-308.895	95.257	0.147	-0.167
-307.880	800.000	0.099	0.315
-306.866	-200.000	-0.001	-0.012
-305.851	255.179	-0.134	-0.228
-304.837	533.622	-0.126	-0.297
-303.822	-200.000	-0.031	0.167
-302.807	73.297	-0.197	0.205
-301.793	-200.000	0.019	-0.209
-300.778	-83.299	-0.263	0.084
-299.764	-200.000	0.017	-0.181
-298.749	71.373	0.249	0.257
-297.735	374.483	0.158	0.321
-296.720	327.076	-0.104	-0.199
-295.705	-200.000	-0.008	-0.317
-294.691	800.000	0.047	0.182
-293.676	44.679	0.391	0.358
-292.662	800.000	0.121	-0.371
-291.647	-1.537	-0.157	-0.110
-290.632	-71.344	0.123	-0.046
-289.618	189.426	-0.187	0.279
-288.603	-200.000	0.000	-0.051
-287.589	607.859	-0.025	0.061
-286.574	-183.447	-0.303	0.005
-285.559	32.721	0.064	-0.055
-284.545	-83.941	-0.048	0.015
-283.530	-91.345	0.078	0.022
-282.516	800.000	-0.084	0.305
-281.501	-48.002	-0.105	-0.050
-280.486	-200.000	-0.022	-0.156
-279.472	245.601	-0.153	-0.257
-278.457	-200.000	0.115	-0.588
-277.443	-21.647	0.156	-0.094
-276.428	-200.000	-0.021	-0.202
-275.413	180.601	-0.094	-0.137
-274.399	-200.000	-0.026	0.432
-273.384	-189.671	-0.187	-0.002
-272.370	800.000	0.055	0.226
-271.355	-200.000	0.013	0.165
-270.340	-81.319	0.315	-0.103
-269.326	48.906	-0.073	0.068
-268.311	-11.305	-0.292	-0.191
-267.297	-39.569	0.161	0.084
-266.282	-200.000	-0.003	-0.091
-265.267	-125.970	0.336	-0.050
-264.253	91.074	0.235	0.262
-263.238	-147.807	0.136	-0.011
-262.224	-200.000	0.039	-0.213
-261.209	-32.874	-0.168	-0.093
-260.195	-200.000	0.010	0.047
-259.180	395.025	0.086	0.178
-258.165	-103.818	0.164	-0.038
-257.151	-59.281	-0.195	0.083
-256.136	317.162	0.079	-0.149
-255.122	-5.538	-0.194	-0.132
-254.107	-110.770	-0.204	-0.042
-253.092	-117.004	0.219	0.040
-252.078	-108.618	-0.092	0.020
-251.063	-200.000	-0.012	-0.127
-250.049	-162.620	0.208	-0.010
-249.034	315.365	0.175	-0.327
-248.019	27.783	-0.164	-0.137
-247.005	800.000	-0.064	-0.218
-245.990	13.750	0.122	-0.094
-244.976	85.238	-0.245	-0.267
-243.961	-7.483	0.431	-0.290
-242.946	119.800	-0.243	0.299
-241.932	10.492	0.024	-0.018
-240.917	791.410	0.058	0.158
-239.903	-35.788	-0.280	0.151
-238.888	332.133	-0.074	0.142
-237.873	-200.000	0.011	0.125
-236.859	792.582	-0.054	-0.147
-235.844	-200.000	-0.041	-0.195
-234.830	122.536	0.209	0.259
-233.815	-24.869	-0.378	-0.223
-232.800	261.518	0.159	-0.273
-231.786	9.661	-0.221	0.166
-230.771	-147.009	-0.189	0.016
-229.757	-161.792	0.183	0.009
-228.742	483.556	0.035	-0.080
-227.727	-31.129	-0.203	-0.113
-226.713	-139.791	-0.166	0.017
-225.698	20.302	0.372	-0.299
-224.684	-69.935	0.390	0.148
-223.669	-51.348	-0.199	-0.092
-222.655	-78.023	0.169	0.058
-221.640	37.407	0.168	0.148
-220.625	-41.573	-0.186	0.095
-219.611	-32.925	0.078	0.043
-218.596	-75.284	-0.326	0.116
-217.582	-96.915	0.333	0.087
-216.567	-128.628	-0.162	0.023
-215.552	-140.696	-0.056	-0.006
-214.538	240.470	0.121	0.199
-213.523	-178.792	-0.149	-0.003
-212.509	-131.060	-0.117	0.016
-211.494	295.660	0.098	0.178
-210.479	-200.000	-0.039	0.268
-209.465	68.296	0.133	0.135
-208.450	152.310	0.135	0.183
-207.436	645.276	0.211	0.534
-206.421	-200.000	-0.013	0.303
-205.406	-61.341	0.134	-0.056
-204.392	36.632	0.105	0.092
-203.377	800.000	-0.104	0.390
-202.363	32.161	-0.101	0.087
-201.348	-121.850	0.234	-0.038
-200.333	800.000	0.064	-0.206
-199.319	-36.768	-0.108	-0.057
-198.304	-89.664	-0.259	-0.075
-197.290	172.808	-0.022	0.031
-196.275	-132.351	-0.116	0.015
-195.260	431.976	-0.093	0.201
-194.246	-200.000	0.003	-0.059
-193.231	23.578	-0.080	0.066
-192.217	31.766	-0.139	-0.118
-191.202	681.766	0.063	-0.162
-190.187	-68.240	-0.177	0.068
-189.173	29.458	0.155	-0.131
-188.158	-62.969	0.255	0.105
-187.144	64.118	-0.233	-0.233
-186.129	-200.000	-0.016	-0.082
-185.114	-113.311	0.182	-0.035
-184.100	5.533	-0.316	-0.231
-183.085	510.173	-0.139	0.320
-182.071	220.303	-0.068	0.108
-181.056	800.000	0.090	-0.377
-180.042	-200.000	0.031	0.172
-179.027	434.876	0.161	-0.347
-178.012	-200.000	0.095	0.417
-176.998	-200.000	-0.052	-0.311
-175.983	45.269	-0.079	-0.072
-174.969	-77.973	0.134	0.046
-173.954	201.003	-0.246	-0.375
-172.939	800.000	-0.039	0.117
-171.925	419.176	-0.065	0.138
-170.910	-25.513	0.119	-0.070
-169.896	169.539	0.062	-0.088
-168.881	238.117	-0.116	0.190
-167.866	-200.000	-0.016	0.204
-166.852	-179.330	0.154	-0.003
-165.837	-200.000	-0.031	-0.190
-164.823	-151.541	0.282	0.021
-163.808	168.986	-0.055	-0.078
-162.793	-200.000	0.022	0.342
-161.779	85.353	0.147	0.160
-160.764	800.000	-0.082	0.282
-159.750	159.683	0.079	0.109
-158.735	-58.243	-0.083	0.036
-157.720	180.381	0.089	0.129
-156.706	-55.668	-0.150	0.066
-155.691	-128.491	-0.040	0.006
-154.677	-6.916	-0.183	-0.123
-153.662	-40.161	-0.304	0.157
-152.647	-186.467	0.259	-0.004
-151.633	213.453	0.201	0.315
-150.618	-53.488	0.141	0.064
-149.604	800.000	0.134	-0.383
-148.589	-148.667	-0.139	0.011
-147.574	260.859	-0.160	0.274
-146.560	96.110	0.230	-0.260
-145.545	212.320	-0.138	-0.216
-144.531	-3.941	0.243	0.167
-143.516	-107.324	0.218	-0.048
-142.502	-104.529	-0.165	-0.038
-141.487	-31.774	0.068	-0.038
-140.472	-48.606	0.256	-0.122
-139.458	205.873	0.066	0.101
-138.443	-113.625	-0.199	0.038
-137.429	-142.082	-0.158	0.016
-136.414	35.698	-0.151	-0.131
-135.399	510.091	0.072	-0.164
-134.385	317.267	0.087	-0.162
-133.370	66.259	0.241	-0.242
-132.356	274.567	0.076	0.133
-131.341	130.551	-0.096	-0.122
-130.326	800.000	0.082	0.246
-129.312	-134.687	-0.198	0.024
-128.297	800.000	0.051	-0.197
-127.283	-200.000	-0.181	0.001
-126.268	-200.000	-0.036	0.222
-125.253	-200.000	0.013	-0.131
-124.239	-26.307	-0.068	-0.039
-123.224	680.625	0.056	-0.143
-122.210	-91.331	-0.378	-0.107
