DTS Sentinel unit serial number:	SN413079Multiplexer serial number:	ORYXHardware model number:	OX4-SRSoftware version number:	ORYX F/W v4.00 Oryx Data Collector v3.7.2.0data status	okinstallation	princeton_trtdifferential loss correction	single-endedforward channel	channel 4reverse channel	N/Adate	2019/09/15time	22:21:35forward acquisition time	60.00reverse acquisition time	0.00gamma	496.2192k internal	0.2320k external	0.2320temperature offset calibration	0.9951default loss term (dB/km)	0.3790temperature slope calibration	1.0000multiplexer offset coefficient	1.0000multiplexer slope coefficient	1.0000fibre end	0.00T internal ref (°C)	29.34T ext. ref 1 (°C)	8.68T ext. ref 2 (°C)	22.75length (m)	temperature (°C)	Stokes	anti-Stokes-747.200	602.822	0.085	0.214
-746.185	-200.000	-0.060	0.443
-745.171	-36.320	0.203	0.111
-744.156	21.438	0.030	-0.024
-743.142	387.178	0.118	0.247
-742.127	-33.052	-0.176	0.099
-741.112	88.066	-0.084	0.095
-740.098	66.469	0.133	0.137
-739.083	25.988	0.242	-0.204
-738.069	-34.328	-0.143	0.079
-737.054	-56.539	0.445	-0.199
-736.039	-155.369	-0.244	-0.016
-735.025	-14.377	0.328	0.213
-734.010	397.429	-0.108	-0.228
-732.996	-200.000	-0.012	0.092
-731.981	-100.085	-0.108	-0.027
-730.966	800.000	0.092	0.328
-729.952	800.000	-0.089	0.296
-728.937	800.000	0.036	-0.128
-727.923	-92.894	-0.283	-0.080
-726.908	-30.852	0.288	-0.165
-725.894	-153.920	-0.370	-0.026
-724.879	-76.325	0.135	0.048
-723.864	800.000	-0.042	-0.167
-722.850	-200.000	0.026	0.228
-721.835	-57.304	-0.118	-0.053
-720.821	48.266	0.026	-0.024
-719.806	94.797	0.184	-0.211
-718.791	14.559	0.112	0.089
-717.777	259.400	0.153	0.266
-716.762	-123.998	-0.430	0.068
-715.748	25.925	0.205	0.173
-714.733	19.041	0.266	-0.216
-713.718	-30.138	-0.214	-0.123
-712.704	-12.933	0.203	-0.134
-711.689	-5.286	0.172	-0.119
-710.675	-155.046	0.107	-0.007
-709.660	-92.041	0.341	-0.098
-708.645	-19.975	0.195	0.121
-707.631	-97.721	0.260	0.068
-706.616	800.000	0.016	0.059
-705.602	84.015	-0.164	0.181
-704.587	403.665	0.048	-0.102
-703.572	-84.663	-0.316	0.100
-702.558	-200.000	-0.012	-0.348
-701.543	800.000	-0.006	-0.026
-700.529	-102.864	-0.052	0.012
-699.514	493.435	-0.128	0.295
-698.499	800.000	-0.036	0.101
-697.485	-200.000	0.056	0.376
-696.470	-66.570	-0.218	-0.087
-695.456	29.910	-0.074	-0.064
-694.441	136.335	0.230	-0.303
-693.426	11.714	0.239	-0.185
-692.412	59.395	-0.099	0.098
-691.397	159.762	-0.048	0.068
-690.383	-58.410	-0.179	0.079
-689.368	-39.614	-0.113	-0.060
-688.354	480.674	-0.052	-0.120
-687.339	154.041	0.204	0.283
-686.324	-200.000	-0.017	0.126
-685.310	-68.767	-0.316	0.123
-684.295	800.000	-0.067	-0.194
-683.281	-185.194	-0.275	-0.004
-682.266	19.218	0.166	-0.135
-681.251	-200.000	0.019	0.309
-680.237	467.116	0.050	0.114
-679.222	46.472	0.080	-0.075
-678.208	-90.100	-0.192	-0.056
-677.193	265.772	-0.122	0.215
-676.178	574.169	-0.092	-0.226
-675.164	36.454	-0.178	0.158
-674.149	415.409	-0.018	0.039
-673.135	45.137	0.163	-0.152
-672.120	800.000	0.123	-0.460
-671.105	577.385	-0.124	-0.307
-670.091	199.850	-0.129	-0.200
-669.076	-112.830	-0.250	0.050
-668.062	-36.653	-0.068	-0.037
-667.047	-25.881	0.251	-0.149
-666.032	298.574	0.042	0.078
-665.018	800.000	0.116	0.426
-664.003	-105.149	0.036	-0.008
-662.989	-104.963	-0.121	0.028
-661.974	36.576	0.132	0.117
-660.959	-54.655	-0.222	0.101
-659.945	-39.386	0.256	0.135
-658.930	189.345	-0.099	0.150
-657.916	73.009	-0.181	-0.190
-656.901	-84.972	-0.243	0.077
-655.886	356.677	-0.037	-0.073
-654.872	276.053	0.158	-0.282
-653.857	-87.990	-0.428	-0.130
-652.843	319.964	0.150	-0.288
-651.828	31.647	0.053	0.046
-650.814	22.520	0.182	-0.150
-649.799	-97.735	-0.092	0.024
-648.784	23.753	-0.117	0.097
-647.770	800.000	-0.079	0.315
-646.755	-79.874	0.325	0.110
-645.741	34.792	0.059	0.052
-644.726	409.187	-0.120	0.255
-643.711	762.097	0.120	0.327
-642.697	581.185	-0.055	-0.135
-641.682	3.922	-0.243	-0.179
-640.668	144.296	-0.022	0.029
-639.653	-138.634	0.192	-0.021
-638.638	-163.201	0.104	0.005
-637.624	55.042	-0.088	-0.086
-636.609	-90.232	0.138	-0.040
-635.595	279.042	0.107	0.193
-634.580	-3.178	-0.260	-0.183
-633.565	298.612	-0.102	-0.190
-632.551	-75.870	0.048	0.017
-631.536	-174.296	0.281	0.008
-630.522	800.000	-0.114	-0.374
-629.507	-91.850	0.430	0.123
-628.492	550.992	0.113	0.274
-627.478	-15.225	-0.212	-0.137
-626.463	-200.000	-0.005	-0.111
-625.449	800.000	-0.054	0.233
-624.434	-82.168	0.378	-0.124
-623.419	800.000	-0.089	0.318
-622.405	298.108	0.145	-0.268
-621.390	75.636	-0.188	-0.199
-620.376	800.000	-0.020	-0.078
-619.361	-73.095	-0.257	-0.095
-618.346	37.253	-0.263	0.234
-617.332	-111.566	0.308	-0.063
-616.317	-76.291	0.318	-0.113
-615.303	-200.000	0.045	0.220
-614.288	-58.884	-0.252	-0.110
-613.273	-93.622	-0.164	-0.045
-612.259	-81.928	-0.172	-0.057
-611.244	800.000	-0.035	0.113
-610.230	-200.000	-0.013	-0.197
-609.215	497.109	0.050	-0.115
-608.201	310.626	0.102	-0.192
-607.186	-74.423	0.099	0.036
-606.171	-200.000	-0.013	0.141
-605.157	-139.000	0.179	-0.020
-604.142	164.960	0.159	-0.225
-603.128	106.230	-0.018	-0.021
-602.113	73.413	0.094	-0.099
-601.098	-159.194	-0.188	-0.011
-600.084	459.606	0.063	0.141
-599.069	89.466	0.067	0.075
-598.055	684.346	-0.088	0.232
-597.040	-200.000	-0.024	-0.619
-596.025	-79.042	-0.112	-0.038
-595.011	518.410	-0.094	0.220
-593.996	91.892	0.107	-0.122
-592.982	23.567	-0.221	-0.183
-591.967	-60.840	0.059	-0.025
-590.952	-160.452	-0.189	-0.010
-589.938	-200.000	-0.066	-0.302
-588.923	-42.704	0.067	0.034
-587.909	-14.203	-0.077	-0.050
-586.894	262.125	0.026	-0.046
-585.879	-57.247	0.242	0.107
-584.865	-169.319	-0.229	0.008
-583.850	220.058	-0.040	0.065
-582.836	800.000	-0.091	0.359
-581.821	214.157	0.091	-0.145
-580.806	-41.367	-0.331	-0.171
-579.792	-7.317	0.107	-0.073
-578.777	-78.031	0.006	0.002
-577.763	279.916	0.073	0.131
-576.748	630.166	0.130	0.332
-575.733	-22.674	-0.178	-0.108
-574.719	-67.799	-0.140	-0.055
-573.704	339.156	0.087	0.169
-572.690	-163.444	0.230	0.011
-571.675	-200.000	0.001	-0.025
-570.661	108.589	-0.105	-0.126
-569.646	22.730	-0.125	-0.103
-568.631	171.814	-0.142	-0.204
-567.617	14.206	0.145	-0.114
-566.602	-200.000	0.000	0.361
-565.588	-200.000	-0.012	-0.172
-564.573	800.000	0.031	0.103
-563.558	55.243	0.118	0.114
-562.544	-200.000	-0.014	0.181
-561.529	-200.000	0.008	-0.158
-560.515	-101.172	-0.177	-0.043
-559.500	-188.301	0.068	0.001
-558.485	-134.942	-0.685	0.083
-557.471	-200.000	0.024	0.301
-556.456	180.016	-0.212	-0.312
-555.442	638.019	0.123	0.313
-554.427	406.115	0.143	-0.303
-553.412	-200.000	-0.001	-0.008
-552.398	-17.350	-0.149	0.094
-551.383	-12.082	-0.154	-0.101
-550.369	-125.452	0.156	-0.024
-549.354	-179.156	0.318	-0.007
-548.339	229.814	-0.120	-0.198
-547.325	37.019	-0.122	0.108
-546.310	-13.738	0.475	-0.309
-545.296	-154.387	0.236	-0.016
-544.281	-200.000	-0.026	-0.260
-543.266	-200.000	-0.003	0.123
-542.252	-13.864	0.344	0.223
-541.237	-63.669	-0.263	0.108
-540.223	-100.045	-0.097	-0.024
-539.208	-18.052	0.304	-0.191
-538.193	-70.371	-0.298	-0.114
-537.179	800.000	0.121	0.354
-536.164	30.269	-0.206	0.177
-535.150	198.806	0.142	-0.218
-534.135	7.971	0.123	-0.092
-533.121	-128.422	0.326	-0.046
-532.106	-22.285	-0.147	0.089
-531.091	390.460	0.060	-0.124
-530.077	-145.874	-0.135	0.012
-529.062	-200.000	-0.002	0.130
-528.048	4.978	-0.174	-0.128
-527.033	800.000	0.084	0.245
-526.018	194.387	-0.135	0.205
-525.004	-111.169	-0.202	0.041
-523.989	-106.740	-0.231	0.051
-522.975	22.479	-0.139	0.114
-521.960	-1.442	-0.270	-0.191
-520.945	800.000	0.056	-0.182
-519.931	-73.165	0.131	0.048
-518.916	-164.453	-0.124	-0.006
-517.902	-200.000	0.005	0.068
-516.887	-64.924	-0.267	-0.108
-515.872	-196.210	0.175	0.001
-514.858	595.938	0.063	-0.157
-513.843	56.849	-0.173	0.169
-512.829	-86.734	-0.299	0.092
-511.814	-164.969	0.109	-0.005
-510.799	-54.554	0.132	-0.060
-509.785	-151.326	-0.234	-0.017
-508.770	-200.000	-0.015	-0.110
-507.756	-127.067	0.217	-0.032
-506.741	-200.000	-0.038	0.544
-505.726	800.000	0.145	0.427
-504.712	-66.444	-0.145	-0.058
-503.697	-200.000	-0.005	0.077
-502.683	-55.367	-0.162	-0.073
-501.668	48.540	0.204	-0.191
-500.653	17.149	-0.306	0.243
-499.639	-137.724	-0.301	0.034
-498.624	-118.744	-0.310	0.055
-497.610	75.537	0.125	-0.132
-496.595	257.903	-0.152	0.262
-495.581	-72.760	0.376	0.139
-494.566	800.000	0.071	0.247
-493.551	767.588	-0.109	-0.297
-492.537	73.359	0.072	-0.075
-491.522	-200.000	0.011	0.088
-490.508	465.112	-0.066	0.149
-489.493	800.000	-0.125	-0.364
-488.478	18.777	0.265	0.213
-487.464	605.699	-0.145	0.361
-486.449	-37.765	0.278	-0.148
-485.435	800.000	-0.099	-0.291
-484.420	-170.360	0.185	0.007
-483.405	20.484	-0.246	0.199
-482.391	45.012	0.207	-0.191
-481.376	-33.351	-0.100	0.055
-480.362	309.942	-0.080	0.149
-479.347	290.379	0.051	0.094
-478.332	-17.306	-0.048	-0.030
-477.318	-80.926	-0.081	-0.027
-476.303	-41.802	0.091	-0.047
-475.289	12.976	0.158	-0.122
-474.274	-200.000	0.046	0.271
-473.259	-72.212	-0.157	-0.058
-472.245	-69.400	-0.246	-0.095
-471.230	29.356	-0.230	0.196
-470.216	124.003	-0.156	-0.196
-469.201	-49.508	0.104	-0.049
-468.186	-19.674	0.166	-0.103
-467.172	800.000	-0.069	-0.283
-466.157	-200.000	0.017	0.175
-465.143	-136.297	0.426	-0.050
-464.128	-10.246	0.090	0.060
-463.113	48.044	-0.061	0.057
-462.099	-21.262	-0.254	-0.155
-461.084	4.214	-0.132	0.097
-460.070	-200.000	-0.023	0.116
-459.055	-0.302	-0.166	0.118
-458.040	-0.756	0.105	0.075
-457.026	9.799	-0.127	-0.096
-456.011	-200.000	-0.015	-0.070
-454.997	617.345	-0.094	-0.236
-453.982	433.712	-0.029	-0.063
-452.968	-71.677	-0.303	-0.113
-451.953	-91.861	-0.119	-0.034
-450.938	-171.407	0.288	-0.010
-449.924	13.026	-0.088	0.068
-448.909	-41.757	0.149	0.076
-447.895	-65.612	0.169	0.068
-446.880	-63.782	0.329	0.135
-445.865	-113.609	0.285	-0.056
-444.851	-53.087	-0.134	0.062
-443.836	-200.000	-0.020	0.121
-442.822	-200.000	-0.016	-0.119
-441.807	115.010	-0.140	0.170
-440.792	800.000	-0.045	-0.132
-439.778	-200.000	-0.026	-0.452
-438.763	-200.000	-0.031	-0.370
-437.749	-200.000	-0.014	-0.065
-436.734	44.910	0.096	0.089
-435.719	-200.000	-0.012	-0.383
-434.705	138.446	0.039	-0.051
-433.690	-200.000	0.029	-0.133
-432.676	-200.000	-0.006	0.145
-431.661	-42.829	-0.243	-0.123
-430.646	148.441	-0.119	-0.160
-429.632	365.594	-0.170	-0.342
-428.617	800.000	-0.056	0.202
-427.603	-200.000	0.009	0.150
-426.588	87.957	-0.229	-0.253
-425.573	173.191	0.178	-0.256
-424.559	26.068	0.231	0.193
-423.544	-46.410	0.145	-0.071
-422.530	-92.910	0.158	-0.044
-421.515	-153.519	-0.585	0.040
-420.500	586.178	-0.096	-0.236
-419.486	3.302	0.212	0.154
-418.471	-200.000	-0.030	-0.170
-417.457	-40.592	0.111	0.057
-416.442	800.000	0.118	-0.499
-415.428	-200.000	-0.051	-0.224
-414.413	-93.125	0.151	0.042
-413.398	49.741	-0.026	0.024
-412.384	-167.747	-0.346	0.014
-411.369	-111.626	0.168	-0.034
-410.355	-197.967	0.180	0.001
-409.340	83.620	0.103	-0.112
-408.325	-200.000	0.028	-0.126
-407.311	-23.296	-0.250	0.150
-406.296	-109.038	0.119	-0.025
-405.282	149.169	0.127	-0.171
-404.267	101.762	0.079	-0.092
-403.252	468.326	0.073	0.164
-402.238	800.000	-0.025	-0.083
-401.223	-95.168	0.182	0.049
-400.209	461.072	-0.003	-0.008
-399.194	800.000	-0.099	0.333
-398.179	-200.000	0.024	0.166
-397.165	-23.841	0.054	-0.032
-396.150	-65.181	-0.524	-0.211
-395.136	638.865	-0.087	-0.220
-394.121	-200.000	0.026	0.408
-393.106	322.335	0.124	0.235
-392.092	-100.369	-0.223	0.055
-391.077	694.327	0.031	-0.081
-390.063	800.000	0.105	0.381
-389.048	12.047	0.067	0.051
-388.033	-106.004	0.165	0.037
-387.019	83.241	-0.050	-0.054
-386.004	-10.605	0.126	0.083
-384.990	-15.949	-0.127	-0.080
-383.975	-200.000	0.016	-0.291
-382.960	-34.142	-0.485	-0.266
-381.946	393.125	0.124	-0.257
-380.931	-94.314	0.275	-0.075
-379.917	-160.786	-0.115	-0.006
-378.902	41.107	-0.142	-0.128
-377.888	-200.000	-0.014	-0.088
-376.873	800.000	-0.086	-0.251
-375.858	-68.279	-0.210	-0.081
-374.844	-13.467	0.182	-0.118
-373.829	-102.709	0.327	0.078
-372.815	800.000	-0.069	0.246
-371.800	-96.335	0.184	-0.049
-370.785	-200.000	-0.004	0.118
-369.771	217.375	0.132	-0.210
-368.756	-200.000	0.036	0.175
-367.742	45.545	-0.193	0.177
-366.727	21.531	-0.116	0.094
-365.712	-200.000	-0.018	0.169
-364.698	-200.000	0.029	-0.260
-363.683	33.502	0.019	0.016
-362.669	800.000	0.091	0.257
-361.654	-200.000	-0.038	0.424
-360.639	-28.991	0.356	-0.203
-359.625	-34.472	0.193	0.105
-358.610	-51.520	0.093	-0.043
-357.596	-122.910	0.187	-0.030
-356.581	216.801	-0.127	-0.201
-355.566	192.661	0.069	0.104
-354.552	477.354	0.106	0.238
-353.537	800.000	-0.023	0.067
-352.523	-200.000	-0.006	-0.104
-351.508	-200.000	0.045	-0.219
-350.493	85.275	-0.206	-0.225
-349.479	279.444	0.146	-0.259
-348.464	-167.533	-0.090	-0.004
-347.450	800.000	0.030	0.096
-346.435	-200.000	-0.025	-0.196
-345.420	304.242	-0.042	-0.077
-344.406	525.249	-0.110	0.258
-343.391	-126.942	-0.214	-0.031
-342.377	-85.469	0.145	-0.045
-341.362	-48.388	-0.136	0.065
-340.348	-200.000	-0.002	0.232
-339.333	-137.169	-0.134	0.015
-338.318	199.450	0.061	-0.093
-337.304	640.817	-0.143	0.363
-336.289	-200.000	-0.024	0.193
-335.275	123.310	-0.118	-0.147
-334.260	-200.000	0.016	0.166
-333.245	-200.000	0.023	0.337
-332.231	-20.039	-0.028	-0.017
-331.216	526.170	-0.134	-0.314
-330.202	95.133	-0.136	0.155
-329.187	800.000	0.027	-0.110
-328.172	44.108	-0.139	0.127
-327.158	-200.000	0.052	-0.243
-326.143	219.857	-0.070	-0.112
-325.129	216.432	-0.131	0.207
-324.114	800.000	-0.095	0.343
-323.099	127.074	0.041	0.052
-322.085	326.951	-0.017	0.032
-321.070	707.837	-0.082	-0.215
-320.056	800.000	0.023	-0.097
-319.041	120.918	0.125	0.155
-318.026	19.199	0.262	0.209
-317.012	800.000	0.046	0.190
-315.997	38.759	0.171	-0.152
-314.983	-200.000	-0.008	0.058
-313.968	-72.303	0.140	-0.052
-312.953	-114.461	0.296	-0.057
-311.939	-108.854	0.115	-0.024
-310.924	-152.924	0.263	-0.018
-309.910	-200.000	0.019	0.135
-308.895	108.420	0.128	0.152
-307.880	44.308	-0.357	0.326
-306.866	-200.000	0.032	0.235
-305.851	247.176	0.084	-0.141
-304.837	-26.306	0.166	0.097
-303.822	800.000	-0.095	0.312
-302.807	-95.806	0.442	0.117
-301.793	800.000	-0.065	0.261
-300.778	19.317	-0.024	-0.019
-299.764	509.849	-0.028	-0.065
-298.749	6.599	0.086	0.064
-297.735	-108.359	0.149	0.032
-296.720	-84.190	-0.104	-0.033
-295.705	646.601	0.058	0.148
-294.691	173.224	0.183	0.262
-293.676	-19.883	-0.254	0.156
-292.662	-200.000	-0.004	0.044
-291.647	-200.000	-0.001	-0.244
-290.632	6.088	0.373	-0.275
-289.618	-200.000	0.005	0.141
-288.603	139.228	-0.193	0.253
-287.589	-102.176	-0.083	0.020
-286.574	-64.446	-0.065	0.026
-285.559	5.033	0.101	-0.074
-284.545	272.526	-0.178	0.312
-283.530	800.000	0.080	0.225
-282.516	800.000	0.140	-0.410
-281.501	-118.758	0.120	-0.021
-280.486	55.036	0.250	-0.240
-279.472	-12.631	0.365	-0.236
-278.457	483.691	-0.040	-0.091
-277.443	56.117	0.099	0.095
-276.428	86.533	0.066	-0.073
-275.413	-72.161	-0.171	-0.063
-274.399	617.943	0.111	0.276
-273.384	-60.525	-0.156	0.066
-272.370	503.720	-0.053	-0.123
-271.355	-200.000	0.080	-0.388
-270.340	204.503	-0.160	0.246
-269.326	166.674	-0.136	0.191
-268.311	490.331	-0.109	0.247
-267.297	93.307	-0.208	0.234
-266.282	163.024	0.193	0.269
-265.267	-30.868	-0.198	0.111
-264.253	-91.285	0.204	0.058
-263.238	146.569	-0.190	0.254
-262.224	-45.119	-0.060	-0.030
-261.209	-104.982	-0.295	0.067
-260.195	-25.044	-0.189	0.111
-259.180	134.285	-0.076	0.098
-258.165	800.000	0.059	0.210
-257.151	-142.715	0.054	-0.005
-256.136	-126.996	0.175	0.026
-255.122	-8.704	-0.212	-0.141
-254.107	-44.545	-0.102	0.050
-253.092	-94.374	-0.457	-0.124
-252.078	-11.655	0.369	0.241
-251.063	748.857	-0.066	-0.177
-250.049	-200.000	0.005	0.326
-249.034	101.630	0.111	-0.129
-248.019	800.000	-0.028	-0.113
-247.005	214.915	-0.114	-0.180
-245.990	60.987	0.198	0.195
-244.976	30.834	0.294	0.250
-243.961	289.164	-0.146	0.262
-242.946	800.000	0.065	-0.184
-241.932	-194.996	-0.347	-0.003
-240.917	-200.000	0.002	-0.241
-239.903	10.871	-0.099	0.075
-238.888	800.000	-0.145	0.454
-237.873	-200.000	0.034	-0.217
-236.859	-158.849	-0.314	0.018
-235.844	-38.192	-0.366	0.192
-234.830	-66.461	0.306	0.121
-233.815	800.000	0.051	-0.195
-232.800	-200.000	-0.023	-0.311
-231.786	-200.000	0.041	-0.398
-230.771	214.784	-0.038	-0.060
-229.757	72.032	0.087	-0.090
-228.742	33.265	0.083	0.071
-227.727	542.570	0.093	-0.220
-226.713	132.925	-0.077	0.099
-225.698	19.250	0.066	-0.053
-224.684	172.782	0.107	-0.153
-223.669	-200.000	0.005	0.284
-222.655	101.857	0.199	0.230
-221.640	-150.891	-0.239	-0.018
-220.625	-45.864	0.299	-0.146
-219.611	-26.199	-0.179	0.104
-218.596	38.589	-0.322	0.284
-217.582	34.303	0.244	0.211
-216.567	-0.222	-0.134	-0.094
-215.552	800.000	0.069	-0.232
-214.538	-130.513	0.191	-0.026
-213.523	-143.246	-0.154	-0.015
-212.509	160.715	0.153	-0.212
-211.494	137.931	0.161	0.209
-210.479	-27.871	-0.104	0.060
-209.465	-21.018	0.039	-0.024
-208.450	-180.566	0.110	-0.002
-207.436	10.537	-0.328	-0.248
-206.421	-137.619	0.057	-0.006
-205.406	1.255	-0.351	-0.249
-204.392	-200.000	-0.036	0.216
-203.377	-154.874	-0.073	0.005
-202.363	-35.440	0.201	0.108
-201.348	67.431	-0.131	0.133
-200.333	-80.139	0.043	-0.014
-199.319	-134.689	0.137	0.016
-198.304	-74.176	-0.276	-0.099
-197.290	223.762	0.050	-0.080
-196.275	-165.385	0.242	0.011
-195.260	99.717	0.191	-0.219
-194.246	-43.484	0.069	0.035
-193.231	27.486	-0.110	0.092
-192.217	-200.000	0.027	-0.259
-191.202	-200.000	-0.016	-0.401
-190.187	-109.843	-0.232	-0.048
-189.173	-90.624	0.263	-0.075
-188.158	211.202	0.057	-0.089
-187.144	-94.926	0.178	0.048
-186.129	240.341	0.075	-0.123
-185.114	364.886	0.103	-0.205
-184.100	-110.760	0.320	-0.065
-183.085	-108.502	0.094	-0.020
-182.071	166.244	0.218	-0.306
-181.056	800.000	0.036	0.113
-180.042	505.736	-0.109	0.250
-179.027	-83.114	0.091	0.029
-178.012	-200.000	0.012	0.295
-176.998	-180.985	0.431	-0.009
-175.983	8.262	0.103	-0.077
-174.969	106.720	0.273	0.321
-173.954	329.751	0.120	-0.228
-172.939	39.354	0.177	-0.157
-171.925	211.414	-0.099	0.154
-170.910	800.000	0.042	0.152
-169.896	-63.049	0.101	0.041
-168.881	-104.042	-0.092	-0.021
-167.866	157.271	0.075	0.102
-166.852	-105.838	-0.159	-0.035
-165.837	-200.000	-0.005	0.058
-164.823	270.383	-0.235	-0.408
-163.808	800.000	-0.074	0.220
-162.793	-200.000	-0.029	-0.232
-161.779	-200.000	0.006	-0.342
-160.764	800.000	0.078	0.288
-159.750	13.406	-0.134	-0.103
-158.735	54.721	0.020	-0.019
-157.720	-44.695	0.195	0.096
-156.706	-6.366	0.164	-0.111
-155.691	-9.782	-0.294	-0.193
-154.677	38.090	0.299	-0.263
-153.662	-116.034	-0.129	-0.024
-152.647	127.154	0.045	-0.056
-151.633	-155.123	-0.364	0.024
-150.618	206.664	-0.196	-0.302
-149.604	150.813	-0.174	-0.234
-148.589	80.970	-0.231	0.247
-147.574	-200.000	0.010	0.220
-146.560	26.131	0.030	0.025
-145.545	-50.872	0.226	-0.105
-144.531	-132.576	0.284	0.036
-143.516	225.394	-0.126	-0.202
-142.502	-51.484	0.093	-0.043
-141.487	-72.500	-0.028	-0.010
-140.472	-178.002	0.036	-0.001
-139.458	23.461	0.392	0.319
-138.443	-52.085	0.053	-0.024
-137.429	-58.718	-0.232	0.099
-136.414	67.184	0.141	-0.142
-135.399	-82.027	-0.471	0.152
-134.385	10.277	0.184	-0.138
-133.370	254.297	0.070	0.118
-132.356	5.488	0.119	-0.087
-131.341	800.000	-0.053	-0.151
-130.326	16.395	0.082	0.064
-129.312	115.233	0.072	-0.086
-128.297	-37.831	-0.211	0.111
-127.283	-69.931	0.344	0.130
-126.268	-46.897	0.114	0.055
-125.253	288.880	-0.193	-0.345
-124.239	61.406	0.303	0.298
-123.224	187.373	-0.103	-0.152
-122.210	-200.000	-0.004	0.140
-121.195	-18.628	0.079	-0.048
