DTS Sentinel unit serial number:	SN413079Multiplexer serial number:	ORYXHardware model number:	OX4-SRSoftware version number:	ORYX F/W v4.00 Oryx Data Collector v3.7.2.0data status	okinstallation	princeton_trtdifferential loss correction	single-endedforward channel	channel 4reverse channel	N/Adate	2019/09/11time	11:11:11forward acquisition time	60.00reverse acquisition time	0.00gamma	496.2192k internal	0.2292k external	0.2292temperature offset calibration	0.9975default loss term (dB/km)	0.3790temperature slope calibration	1.0000multiplexer offset coefficient	1.0000multiplexer slope coefficient	1.0000fibre end	0.00T internal ref (°C)	37.50T ext. ref 1 (°C)	0.19T ext. ref 2 (°C)	33.63length (m)	temperature (°C)	Stokes	anti-Stokes-747.200	734.946	-0.054	0.149
-746.185	5.319	0.211	-0.159
-745.171	-70.701	0.301	0.116
-744.156	-200.000	-0.010	0.064
-743.142	800.000	0.022	0.090
-742.127	15.813	-0.226	0.182
-741.112	-8.714	-0.168	-0.115
-740.098	1.125	0.245	0.180
-739.083	-108.383	0.309	-0.068
-738.069	-20.456	-0.126	-0.079
-737.054	81.892	-0.095	-0.105
-736.039	-200.000	-0.004	-0.440
-735.025	-200.000	0.031	-0.399
-734.010	-55.615	-0.372	-0.170
-732.996	-28.494	-0.157	-0.092
-731.981	51.182	0.070	0.068
-730.966	93.459	0.098	-0.114
-729.952	161.171	0.139	-0.199
-728.937	-54.334	0.059	0.027
-727.923	-14.525	0.174	-0.114
-726.908	-200.000	0.004	-0.034
-725.894	-50.877	-0.176	0.085
-724.879	12.068	0.082	-0.064
-723.864	86.656	0.159	-0.179
-722.850	294.400	0.121	-0.226
-721.835	-110.072	0.140	-0.030
-720.821	-61.639	0.150	-0.064
-719.806	-128.919	-0.362	-0.052
-718.791	-36.582	0.322	0.177
-717.777	-200.000	0.019	0.138
-716.762	800.000	-0.122	-0.497
-715.748	-99.821	0.053	0.014
-714.733	-200.000	-0.024	0.110
-713.718	-124.415	-0.128	-0.020
-712.704	-0.533	0.116	-0.084
-711.689	1.660	0.097	0.072
-710.675	-200.000	-0.061	-0.318
-709.660	-200.000	0.037	-0.170
-708.645	-94.356	0.196	0.055
-707.631	-88.346	-0.296	-0.090
-706.616	-166.092	0.210	-0.009
-705.602	-120.534	0.321	0.056
-704.587	800.000	0.179	-0.635
-703.572	81.435	-0.071	-0.078
-702.558	800.000	-0.025	-0.100
-701.543	-54.491	-0.212	-0.098
-700.529	800.000	0.042	0.127
-699.514	252.507	0.026	-0.045
-698.499	-26.753	-0.199	0.119
-697.485	-53.376	0.255	0.119
-696.470	-135.184	-0.134	0.016
-695.456	35.496	-0.149	-0.134
-694.441	-200.000	0.064	-0.409
-693.426	123.107	0.083	0.107
-692.412	14.121	0.189	0.150
-691.397	-120.201	-0.343	0.060
-690.383	-42.453	0.343	-0.179
-689.368	66.105	0.079	-0.081
-688.354	635.398	0.040	-0.104
-687.339	-200.000	0.000	-0.003
-686.324	70.504	-0.127	-0.135
-685.310	131.726	0.100	0.131
-684.295	-107.199	-0.174	-0.039
-683.281	-122.422	0.117	-0.020
-682.266	126.785	0.170	0.220
-681.251	-137.031	0.209	-0.024
-680.237	-29.139	-0.152	-0.089
-679.222	-39.711	0.274	-0.146
-678.208	405.988	-0.189	0.406
-677.193	77.505	0.112	0.121
-676.178	-200.000	0.024	0.188
-675.164	-38.154	0.165	-0.089
-674.149	36.189	-0.151	-0.136
-673.135	-91.330	-0.150	-0.044
-672.120	33.894	0.194	0.172
-671.105	-200.000	-0.402	-0.002
-670.091	219.030	-0.049	0.080
-669.076	666.132	0.087	-0.230
-668.062	-121.715	-0.073	0.012
-667.047	110.817	0.059	-0.072
-666.032	128.612	0.235	0.305
-665.018	80.165	-0.087	-0.095
-664.003	-200.000	-0.003	-0.086
-662.989	-21.032	-0.010	0.006
-661.974	-200.000	0.005	-0.078
-660.959	-104.029	0.407	-0.097
-659.945	-68.813	-0.271	-0.107
-658.930	110.319	0.095	0.116
-657.916	800.000	0.056	-0.176
-656.901	175.535	0.160	-0.237
-655.886	-200.000	0.032	-0.178
-654.872	-48.872	0.102	-0.050
-653.857	-127.191	-0.026	0.004
-652.843	-34.801	-0.132	-0.073
-651.828	83.477	-0.143	-0.158
-650.814	-200.000	0.030	-0.164
-649.799	18.312	-0.096	0.078
-648.784	800.000	0.018	-0.076
-647.770	-200.000	-0.027	0.319
-646.755	-200.000	-0.025	0.287
-645.741	-65.034	-0.090	0.037
-644.726	-142.556	0.118	0.012
-643.711	-131.290	0.166	0.022
-642.697	800.000	-0.130	-0.549
-641.682	-76.356	0.273	-0.098
-640.668	-150.751	-0.290	0.022
-639.653	-45.028	0.353	0.179
-638.638	-103.191	-0.243	-0.059
-637.624	-32.451	-0.062	0.035
-636.609	800.000	-0.102	0.324
-635.595	-109.061	-0.121	0.026
-634.580	-200.000	0.023	0.248
-633.565	484.319	-0.127	0.295
-632.551	800.000	0.041	-0.177
-631.536	800.000	-0.041	-0.123
-630.522	427.684	0.177	-0.390
-629.507	422.931	-0.046	0.101
-628.492	-200.000	-0.069	0.311
-627.478	226.928	-0.116	-0.192
-626.463	-26.280	-0.155	0.093
-625.449	-71.932	0.105	0.040
-624.434	-200.000	0.045	0.370
-623.419	66.866	-0.113	0.117
-622.405	235.121	-0.195	0.329
-621.390	800.000	-0.096	-0.283
-620.376	18.411	-0.185	-0.150
-619.361	33.731	-0.056	0.049
-618.346	26.457	-0.280	0.239
-617.332	592.162	0.008	-0.020
-616.317	-31.973	0.155	0.088
-615.303	121.320	0.149	-0.189
-614.288	-91.279	0.388	0.113
-613.273	232.470	0.142	0.237
-612.259	-106.146	-0.182	0.042
-611.244	-22.761	0.022	-0.014
-610.230	-200.000	0.011	0.053
-609.215	127.259	0.104	-0.134
-608.201	-200.000	0.027	0.272
-607.186	225.078	-0.162	-0.266
-606.171	-97.875	-0.203	-0.053
-605.157	-200.000	-0.021	-0.136
-604.142	-200.000	-0.004	-0.153
-603.128	27.610	0.119	-0.102
-602.113	452.277	-0.084	0.188
-601.098	-43.278	-0.118	0.061
-600.084	-200.000	-0.047	0.321
-599.069	-200.000	0.024	0.334
-598.055	10.312	0.139	0.108
-597.040	326.555	-0.126	-0.246
-596.025	59.024	-0.110	0.110
-595.011	-200.000	0.003	-0.202
-593.996	113.740	-0.138	0.170
-592.982	800.000	0.040	0.134
-591.967	-160.205	0.115	-0.006
-590.952	-47.743	-0.089	0.044
-589.938	-200.000	-0.018	-0.150
-588.923	-12.545	0.183	-0.121
-587.909	800.000	-0.020	-0.070
-586.894	-66.306	0.237	0.096
-585.879	-128.025	-0.233	-0.034
-584.865	-180.663	-0.302	-0.006
-583.850	-31.623	-0.397	0.227
-582.836	-120.757	0.440	0.076
-581.821	-0.188	-0.369	0.267
-580.806	11.890	-0.141	-0.110
-579.792	-14.709	0.141	0.092
-578.777	-200.000	-0.016	0.131
-577.763	-200.000	0.025	-0.434
-576.748	-65.432	0.119	0.049
-575.733	-163.955	0.487	0.023
-574.719	-48.465	-0.232	0.114
-573.704	-72.655	-0.310	-0.116
-572.690	-12.484	0.071	-0.047
-571.675	-109.921	0.324	0.069
-570.661	-200.000	-0.000	0.138
-569.646	45.522	-0.239	-0.225
-568.631	800.000	0.039	0.153
-567.617	167.245	0.068	-0.098
-566.602	195.970	-0.040	0.062
-565.588	-122.913	0.042	0.007
-564.573	800.000	0.086	-0.278
-563.558	478.500	0.138	-0.319
-562.544	4.931	-0.086	0.064
-561.529	-140.389	0.083	0.009
-560.515	479.138	0.066	0.152
-559.500	-200.000	0.037	-0.245
-558.485	36.583	0.058	-0.052
-557.471	-86.538	-0.259	0.081
-556.456	-200.000	0.026	0.212
-555.442	-32.616	-0.180	0.102
-554.427	618.104	0.064	0.164
-553.412	-200.000	-0.057	0.269
-552.398	-56.261	0.164	-0.074
-551.383	-40.021	0.105	-0.055
-550.369	26.339	-0.326	-0.277
-549.354	-195.606	0.088	0.001
-548.339	-200.000	-0.006	-0.143
-547.325	277.380	-0.100	-0.180
-546.310	36.934	0.120	-0.108
-545.296	-56.976	0.139	0.063
-544.281	246.799	-0.216	0.371
-543.266	-72.456	-0.052	0.020
-542.252	295.837	-0.115	0.213
-541.237	-74.980	0.164	0.060
-540.223	-8.871	-0.069	0.047
-539.208	-200.000	0.009	-0.098
-538.193	-77.603	0.197	0.069
-537.179	75.514	0.213	-0.229
-536.164	24.535	0.245	-0.206
-535.150	-200.000	-0.037	-0.195
-534.135	132.823	0.082	-0.107
-533.121	-200.000	-0.012	0.173
-532.106	235.637	0.137	0.229
-531.091	114.839	0.122	-0.151
-530.077	-200.000	-0.042	-0.292
-529.062	275.837	-0.153	-0.275
-528.048	350.945	0.097	-0.194
-527.033	105.448	0.025	0.030
-526.018	-162.625	0.141	-0.007
-525.004	-34.706	0.213	0.118
-523.989	-200.000	-0.026	0.118
-522.975	312.336	-0.055	0.104
-521.960	800.000	-0.024	-0.094
-520.945	20.648	-0.140	0.115
-519.931	145.578	-0.066	0.090
-518.916	-63.027	0.152	0.064
-517.902	-34.084	-0.150	0.084
-516.887	-59.571	-0.314	-0.137
-515.872	-65.511	-0.216	-0.088
-514.858	199.192	-0.057	0.088
-513.843	-200.000	-0.025	-0.232
-512.829	800.000	0.076	0.264
-511.814	-165.738	-0.076	-0.003
-510.799	-160.248	0.353	-0.019
-509.785	-200.000	-0.009	-0.131
-508.770	35.110	-0.228	0.202
-507.756	-57.116	-0.223	-0.099
-506.741	683.991	-0.004	-0.010
-505.726	-46.175	-0.129	-0.064
-504.712	800.000	-0.098	-0.397
-503.697	1.707	-0.181	0.132
-502.683	-200.000	0.056	0.263
-501.668	800.000	0.087	-0.377
-500.653	-99.173	0.432	0.111
-499.639	-140.030	0.331	-0.035
-498.624	187.538	0.072	-0.109
-497.610	-200.000	0.047	-0.249
-496.595	-200.000	0.017	0.112
-495.581	-28.622	-0.138	0.081
-494.566	-136.251	-0.231	0.027
-493.551	602.664	0.051	-0.127
-492.537	-200.000	0.018	0.257
-491.522	175.192	0.178	0.261
-490.508	-83.067	0.081	-0.026
-489.493	93.922	-0.061	0.070
-488.478	93.144	0.154	-0.177
-487.464	376.861	-0.094	-0.194
-486.449	-152.992	-0.107	0.008
-485.435	8.740	-0.125	0.095
-484.420	-200.000	0.016	-0.290
-483.405	-49.242	-0.114	-0.055
-482.391	20.542	-0.219	0.180
-481.376	-200.000	0.012	0.178
-480.362	-50.826	-0.200	0.095
-479.347	-102.186	-0.295	0.072
-478.332	321.064	0.099	-0.191
-477.318	800.000	-0.085	-0.254
-476.303	800.000	-0.073	0.318
-475.289	210.709	0.310	-0.494
-474.274	-149.193	-0.290	-0.024
-473.259	-106.374	0.134	0.030
-472.245	-200.000	0.000	0.080
-471.230	60.423	-0.129	-0.130
-470.216	122.358	0.212	-0.268
-469.201	514.599	-0.197	0.466
-468.186	-68.114	0.168	-0.066
-467.172	129.325	0.123	0.159
-466.157	36.926	-0.257	-0.230
-465.143	-200.000	0.047	-0.286
-464.128	123.472	0.120	-0.153
-463.113	-167.038	0.174	-0.007
-462.099	-200.000	0.039	-0.561
-461.084	-133.890	0.194	-0.024
-460.070	800.000	-0.057	0.175
-459.055	-122.423	-0.091	0.015
-458.040	22.178	-0.172	0.142
-457.026	240.754	0.070	-0.119
-456.011	-200.000	0.006	-0.100
-454.997	-71.297	-0.092	-0.035
-453.982	-166.807	0.172	0.007
-452.968	-112.363	0.241	-0.049
-451.953	27.260	0.173	0.147
-450.938	53.988	0.179	0.174
-449.924	-200.000	-0.024	-0.287
-448.909	800.000	-0.098	-0.333
-447.895	-72.578	-0.666	-0.249
-446.880	800.000	0.050	0.183
-445.865	-200.000	0.003	-0.143
-444.851	5.547	0.171	0.127
-443.836	-39.875	0.350	-0.185
-442.822	800.000	0.019	0.058
-441.807	152.948	0.193	0.267
-440.792	480.726	0.129	-0.296
-439.778	105.303	0.211	0.252
-438.763	432.407	-0.147	0.323
-437.749	335.060	-0.117	-0.229
-436.734	38.460	-0.162	-0.146
-435.719	447.580	0.171	0.380
-434.705	175.932	0.036	0.053
-433.690	-67.650	-0.100	-0.040
-432.676	213.843	-0.237	0.379
-431.661	169.942	-0.053	-0.076
-430.646	-173.677	-0.095	-0.003
-429.632	93.134	-0.190	0.217
-428.617	76.560	-0.068	-0.073
-427.603	213.536	-0.047	-0.075
-426.588	-200.000	0.035	-0.292
-425.573	105.120	-0.091	-0.109
-424.559	-31.965	-0.191	-0.108
-423.544	5.820	-0.336	0.252
-422.530	-200.000	0.050	-0.468
-421.515	23.248	-0.293	0.243
-420.500	-96.675	0.322	-0.086
-419.486	138.985	0.141	-0.187
-418.471	800.000	0.033	-0.107
-417.457	-200.000	-0.054	-0.306
-416.442	111.196	0.196	0.239
-415.428	-94.634	-0.286	-0.079
-414.413	-4.151	-0.303	0.212
-413.398	111.390	0.201	-0.245
-412.384	56.490	0.119	0.117
-411.369	-200.000	-0.053	0.266
-410.355	163.059	-0.069	0.099
-409.340	-151.339	0.036	0.003
-408.325	1.744	0.191	-0.139
-407.311	229.143	0.041	0.067
-406.296	-39.116	-0.077	-0.041
-405.282	124.393	0.171	-0.217
-404.267	104.777	-0.130	0.155
-403.252	-200.000	0.013	-0.214
-402.238	-25.745	-0.266	0.159
-401.223	-101.236	-0.280	-0.069
-400.209	-57.303	0.087	-0.039
-399.194	-82.500	-0.215	0.070
-398.179	-200.000	-0.005	-0.028
-397.165	-200.000	0.044	-0.240
-396.150	-31.770	0.087	0.049
-395.136	-90.681	-0.241	0.070
-394.121	134.611	0.087	-0.115
-393.106	-200.000	0.039	0.212
-392.092	-98.080	0.116	0.030
-391.077	-133.532	0.145	0.018
-390.063	-125.581	0.208	0.032
-389.048	-49.422	0.073	0.035
-388.033	800.000	-0.008	-0.031
-387.019	-200.000	-0.057	0.253
-386.004	668.082	-0.077	-0.202
-384.990	666.893	-0.108	-0.282
-383.975	-14.662	-0.075	-0.048
-382.960	-58.036	0.070	0.031
-381.946	800.000	0.040	-0.113
-380.931	-32.879	-0.301	0.169
-379.917	263.130	0.089	-0.156
-378.902	-25.838	-0.187	0.111
-377.888	-4.770	0.186	-0.130
-376.873	-200.000	-0.010	-0.169
-375.858	-157.235	-0.156	-0.010
-374.844	-200.000	0.053	0.259
-373.829	-200.000	0.003	-0.272
-372.815	25.523	-0.254	0.213
-371.800	-101.773	-0.427	0.104
-370.785	-107.737	0.084	0.018
-369.771	-3.250	0.064	-0.045
-368.756	-106.443	-0.369	-0.083
-367.742	279.078	-0.041	-0.073
-366.727	800.000	0.071	-0.216
-365.712	296.425	-0.149	-0.275
-364.698	-81.699	0.228	-0.075
-363.683	800.000	0.059	0.182
-362.669	86.139	-0.046	-0.051
-361.654	-124.181	0.171	-0.027
-360.639	-200.000	0.009	-0.329
-359.625	800.000	-0.063	0.224
-358.610	800.000	0.055	-0.230
-357.596	-8.975	-0.100	0.068
-356.581	800.000	0.052	-0.151
-355.566	-33.957	0.169	0.094
-354.552	-98.972	0.188	-0.048
-353.537	162.267	0.072	0.102
-352.523	265.022	0.160	0.281
-351.508	-139.601	-0.445	0.048
-350.493	-189.743	-0.082	0.001
-349.479	-30.383	0.129	0.074
-348.464	-84.843	-0.126	0.040
-347.450	-63.893	-0.166	-0.068
-346.435	38.235	-0.312	-0.280
-345.420	356.954	0.138	-0.278
-344.406	-119.108	0.089	0.016
-343.391	800.000	-0.015	-0.042
-342.377	32.662	0.138	-0.120
-341.362	48.459	0.284	0.268
-340.348	64.679	0.102	0.104
-339.333	353.050	-0.100	0.201
-338.318	-26.404	0.135	-0.080
-337.304	18.579	0.088	0.071
-336.289	-127.450	0.100	-0.015
-335.275	-85.450	0.292	-0.092
-334.260	154.082	0.231	0.320
-333.245	78.794	-0.087	0.093
-332.231	-41.348	0.244	-0.127
-331.216	800.000	0.033	-0.111
-330.202	800.000	0.031	0.130
-329.187	56.664	-0.178	-0.174
-328.172	-99.480	-0.140	-0.036
-327.158	450.780	0.080	0.178
-326.143	-152.986	0.281	0.020
-325.129	800.000	0.049	0.145
-324.114	-200.000	0.029	-0.158
-323.099	-200.000	0.015	-0.111
-322.085	-2.109	0.065	-0.046
-321.070	-38.055	-0.269	-0.143
-320.056	-200.000	-0.108	0.561
-319.041	-115.392	0.113	0.021
-318.026	-24.898	-0.146	-0.087
-317.012	-200.000	-0.024	0.490
-315.997	190.426	-0.060	0.091
-314.983	-87.665	-0.404	0.123
-313.968	-22.993	-0.098	-0.060
-312.953	-91.368	-0.192	0.055
-311.939	500.809	0.122	-0.284
-310.924	55.573	0.047	0.045
-309.910	-154.283	-0.098	-0.007
-308.895	-43.603	-0.260	-0.132
-307.880	-200.000	0.002	0.095
-306.866	132.111	0.122	0.158
-305.851	-22.346	0.252	0.154
-304.837	-129.498	0.186	-0.026
-303.822	1.395	-0.060	0.044
-302.807	59.088	-0.087	-0.086
-301.793	-38.567	-0.269	0.143
-300.778	-58.488	0.397	0.173
-299.764	26.765	0.185	0.155
-298.749	-10.566	-0.192	0.128
-297.735	-51.808	-0.095	-0.044
-296.720	800.000	0.067	-0.212
-295.705	-66.717	0.161	-0.064
-294.691	268.811	0.119	-0.210
-293.676	63.267	0.042	-0.043
-292.662	196.719	0.140	0.215
-291.647	-100.434	0.074	-0.018
-290.632	-200.000	-0.013	0.223
-289.618	-148.860	0.088	0.007
-288.603	-86.147	-0.184	0.057
-287.589	-117.079	0.018	-0.003
-286.574	84.006	-0.177	-0.195
-285.559	185.112	0.112	-0.167
-284.545	127.170	-0.069	-0.088
-283.530	-34.487	0.318	0.175
-282.516	62.523	-0.044	0.044
-281.501	-179.909	0.342	-0.007
-280.486	-171.677	0.056	0.002
-279.472	31.517	-0.189	-0.163
-278.457	45.892	-0.058	0.054
-277.443	354.078	-0.068	-0.136
-276.428	11.248	-0.150	-0.116
-275.413	14.159	-0.153	0.120
-274.399	12.712	0.173	0.135
-273.384	629.990	-0.110	-0.281
-272.370	193.358	-0.110	0.168
-271.355	16.166	0.061	-0.048
-270.340	73.732	-0.157	-0.165
-269.326	-200.000	0.007	-0.040
-268.311	-200.000	0.005	0.179
-267.297	296.727	0.127	0.235
-266.282	13.466	0.154	0.120
-265.267	-200.000	-0.025	-0.155
-264.253	-200.000	-0.008	0.197
-263.238	97.471	0.141	-0.163
-262.224	-103.551	0.167	0.039
-261.209	112.356	0.079	0.096
-260.195	-200.000	-0.210	0.000
-259.180	57.415	0.128	-0.126
-258.165	30.427	0.221	0.189
-257.151	214.837	-0.037	-0.058
-256.136	17.727	-0.185	-0.148
-255.122	-112.562	0.449	0.090
-254.107	-99.726	-0.166	-0.042
-253.092	-78.842	-0.230	-0.079
-252.078	192.378	-0.112	-0.170
-251.063	-200.000	0.010	-0.188
-250.049	-128.223	-0.131	0.019
-249.034	800.000	-0.052	0.206
-248.019	156.710	-0.038	0.053
-247.005	-156.305	-0.058	0.004
-245.990	143.526	-0.041	-0.054
-244.976	97.843	0.212	-0.244
-243.961	-88.073	0.309	0.093
-242.946	-158.550	0.114	-0.007
-241.932	-200.000	0.056	-0.427
-240.917	-112.744	0.483	-0.096
-239.903	-64.436	-0.184	-0.075
-238.888	-200.000	-0.025	0.218
-237.873	3.276	0.029	0.021
-236.859	-101.161	-0.215	0.053
-235.844	-131.684	-0.258	-0.034
-234.830	-200.000	0.010	-0.247
-233.815	-12.460	0.359	0.235
-232.800	-200.000	-0.041	0.187
-231.786	-94.852	-0.194	-0.053
-230.771	572.740	-0.139	0.339
-229.757	80.500	0.079	-0.085
-228.742	-200.000	-0.014	0.327
-227.727	-200.000	-0.032	0.552
-226.713	-200.000	0.013	0.230
-225.698	800.000	0.080	-0.240
-224.684	604.088	-0.146	-0.364
-223.669	284.202	0.125	-0.225
-222.655	303.757	0.053	0.098
-221.640	541.442	0.212	0.507
-220.625	-110.911	-0.124	0.026
-219.611	-67.516	0.287	0.113
-218.596	-200.000	-0.005	-0.081
-217.582	551.276	0.039	0.093
-216.567	800.000	0.060	0.262
-215.552	-92.153	-0.205	0.058
-214.538	-200.000	-0.002	0.082
-213.523	-123.810	0.060	-0.010
-212.509	-34.522	0.334	-0.184
-211.494	-32.999	0.052	0.029
-210.479	379.382	0.059	-0.121
-209.465	800.000	0.045	0.194
-208.450	796.993	0.022	0.061
-207.436	-59.525	-0.136	0.059
-206.421	-200.000	-0.023	-0.175
-205.406	12.961	-0.295	0.229
-204.392	-87.515	-0.061	0.019
-203.377	-141.980	-0.360	-0.036
-202.363	200.092	-0.239	-0.367
-201.348	-13.964	0.236	-0.153
-200.333	10.059	-0.014	-0.011
-199.319	669.827	-0.063	-0.164
-198.304	262.866	0.048	-0.083
-197.290	-200.000	0.001	0.055
-196.275	-78.350	-0.264	-0.091
-195.260	-124.547	-0.253	0.039
-194.246	-200.000	-0.049	0.333
-193.231	58.421	0.205	0.202
-192.217	-88.191	-0.394	0.118
-191.202	-46.900	-0.423	-0.207
-190.187	-83.002	-0.162	0.052
-189.173	-109.034	0.400	0.085
-188.158	-114.207	0.033	-0.006
-187.144	208.218	-0.046	0.072
-186.129	61.858	0.104	-0.103
-185.114	50.091	-0.045	0.043
-184.100	-50.493	-0.064	0.030
-183.085	-200.000	-0.029	0.269
-182.071	127.484	0.360	-0.458
-181.056	-71.429	0.262	-0.098
-180.042	800.000	-0.018	-0.058
-179.027	800.000	0.121	-0.356
-178.012	672.047	0.095	0.246
-176.998	800.000	-0.053	-0.220
-175.983	-200.000	0.009	0.080
-174.969	-24.356	-0.121	0.072
-173.954	-55.178	0.254	0.114
-172.939	-24.789	-0.257	-0.153
-171.925	16.541	-0.096	0.076
-170.910	636.412	-0.083	-0.211
-169.896	-47.144	-0.182	-0.089
-168.881	-154.241	0.240	-0.016
-167.866	194.327	-0.018	-0.028
-166.852	-127.732	0.224	0.032
-165.837	29.043	0.230	0.195
-164.823	88.656	0.182	-0.202
-163.808	-200.000	0.001	0.014
-162.793	118.143	-0.052	-0.064
-161.779	-31.312	0.300	-0.169
-160.764	-18.319	0.221	-0.138
-159.750	-131.248	0.376	-0.050
-158.735	800.000	-0.075	-0.233
-157.720	-94.709	-0.056	-0.015
-156.706	316.063	0.072	0.137
-155.691	581.079	0.060	-0.147
-154.677	-117.007	-0.137	0.025
-153.662	29.014	0.322	0.273
-152.647	257.963	0.147	0.253
-151.633	-200.000	0.004	0.107
-150.618	-67.504	-0.332	-0.130
-149.604	-200.000	0.018	-0.095
-148.589	628.419	-0.100	-0.253
-147.574	-73.169	0.198	-0.073
-146.560	-32.150	-0.274	0.153
-145.545	43.674	-0.075	-0.069
-144.531	255.923	-0.079	-0.135
-143.516	728.629	-0.086	-0.229
-142.502	-200.000	-0.018	-0.215
-141.487	136.177	-0.202	0.263
-140.472	59.490	0.122	0.120
-139.458	-43.723	0.386	-0.195
-138.443	264.190	-0.072	0.126
-137.429	800.000	-0.048	0.133
-136.414	-55.102	0.190	0.085
-135.399	-67.597	-0.151	0.059
-134.385	-145.616	0.129	0.012
-133.370	-184.455	0.097	-0.002
-132.356	195.366	0.122	-0.185
-131.341	532.945	0.165	0.391
-130.326	3.333	-0.034	-0.025
-129.312	-142.313	0.312	-0.031
-128.297	1.178	-0.072	-0.052
-127.283	-68.133	0.116	0.045
-126.268	-3.431	-0.292	0.203
-125.253	800.000	-0.009	-0.029
-124.239	-109.962	-0.224	-0.047
-123.224	-95.899	0.182	-0.049
-122.210	15.830	0.067	-0.052
-121.195	-163.597	0.067	0.003
