DTS Sentinel unit serial number:	SN413079Multiplexer serial number:	ORYXHardware model number:	OX4-SRSoftware version number:	ORYX F/W v4.00 Oryx Data Collector v3.7.2.0data status	okinstallation	princeton_trtdifferential loss correction	single-endedforward channel	channel 4reverse channel	N/Adate	2019/09/18time	02:13:34forward acquisition time	60.00reverse acquisition time	0.00gamma	496.2192k internal	0.2335k external	0.2335temperature offset calibration	0.9993default loss term (dB/km)	0.3790temperature slope calibration	1.0000multiplexer offset coefficient	1.0000multiplexer slope coefficient	1.0000fibre end	0.00T internal ref (°C)	22.87T ext. ref 1 (°C)	0.16T ext. ref 2 (°C)	16.73length (m)	temperature (°C)	Stokes	anti-Stokes-747.200	-100.056	0.411	-0.103
-746.185	-44.361	-0.119	-0.060
-745.171	217.663	-0.074	-0.119
-744.156	-200.000	0.006	0.126
-743.142	363.684	0.127	-0.256
-742.127	-200.000	0.003	0.150
-741.112	800.000	0.073	0.311
-740.098	189.271	0.005	-0.007
-739.083	169.734	0.235	0.338
-738.069	641.279	-0.172	0.440
-737.054	28.145	-0.109	-0.093
-736.039	-46.814	-0.150	0.074
-735.025	89.457	0.279	0.313
-734.010	-102.139	-0.112	-0.027
-732.996	-200.000	0.009	0.169
-731.981	-165.094	0.181	-0.008
-730.966	100.994	-0.221	-0.258
-729.952	-113.055	-0.115	-0.023
-728.937	16.837	0.162	0.129
-727.923	-193.459	0.160	-0.001
-726.908	-1.754	-0.136	-0.096
-725.894	195.528	-0.153	-0.234
-724.879	-182.870	-0.298	-0.005
-723.864	141.768	-0.194	0.258
-722.850	96.295	0.221	-0.253
-721.835	221.455	-0.084	0.135
-720.821	800.000	-0.084	-0.245
-719.806	-139.867	-0.225	0.024
-718.791	-183.837	-0.194	-0.003
-717.777	-200.000	0.006	-0.173
-716.762	-200.000	-0.030	0.166
-715.748	-200.000	-0.108	-0.496
-714.733	-28.856	-0.327	-0.189
-713.718	31.961	0.116	-0.101
-712.704	-84.612	-0.044	0.014
-711.689	98.065	0.086	-0.099
-710.675	-0.490	-0.066	0.047
-709.660	800.000	0.084	0.327
-708.645	-200.000	-0.017	-0.134
-707.631	-200.000	-0.011	0.108
-706.616	-57.976	-0.081	-0.036
-705.602	-29.032	-0.115	-0.066
-704.587	8.425	-0.153	0.115
-703.572	138.622	-0.022	0.030
-702.558	-56.430	0.033	-0.015
-701.543	80.768	0.212	0.230
-700.529	-113.960	-0.333	-0.065
-699.514	-106.643	-0.322	0.072
-698.499	-200.000	0.020	-0.171
-697.485	-23.658	-0.240	0.144
-696.470	-108.621	0.414	0.089
-695.456	-45.511	0.171	0.085
-694.441	-141.842	0.267	0.027
-693.426	-186.193	-0.258	-0.004
-692.412	-152.155	-0.194	-0.014
-691.397	417.683	0.094	0.202
-690.383	800.000	0.031	-0.103
-689.368	153.312	0.093	-0.127
-688.354	186.350	0.190	0.284
-687.339	-148.753	-0.216	-0.018
-686.324	230.999	-0.065	0.106
-685.310	-19.823	0.192	-0.119
-684.295	34.373	0.188	0.165
-683.281	-91.052	0.060	0.017
-682.266	100.108	-0.092	-0.107
-681.251	-140.832	0.247	-0.026
-680.237	-81.839	0.236	0.077
-679.222	-3.842	0.104	-0.073
-678.208	-77.134	0.222	0.077
-677.193	-44.868	-0.215	0.107
-676.178	800.000	-0.029	0.107
-675.164	-86.929	-0.108	-0.033
-674.149	-41.900	0.337	0.173
-673.135	-109.833	-0.141	0.030
-672.120	-88.360	-0.328	0.098
-671.105	214.359	0.077	0.122
-670.091	-58.270	-0.147	0.064
-669.076	-40.288	-0.090	0.047
-668.062	289.988	0.076	0.139
-667.047	149.673	-0.126	0.171
-666.032	-200.000	0.007	0.134
-665.018	-200.000	-0.013	0.357
-664.003	800.000	-0.044	-0.152
-662.989	-32.860	-0.234	-0.130
-661.974	-166.757	-0.282	0.012
-660.959	-81.481	-0.089	0.029
-659.945	-200.000	-0.025	0.109
-658.930	-89.795	0.110	0.032
-657.916	-200.000	-0.015	-0.468
-656.901	-25.231	-0.195	-0.116
-655.886	-173.997	0.054	0.002
-654.872	-37.523	-0.423	0.226
-653.857	-100.433	0.180	-0.045
-652.843	3.214	-0.119	0.087
-651.828	-133.836	0.139	0.017
-650.814	-63.583	-0.195	-0.080
-649.799	-144.528	-0.032	0.003
-648.784	132.792	0.091	0.117
-647.770	134.916	0.144	-0.187
-646.755	-57.423	-0.301	-0.132
-645.741	122.015	-0.061	-0.076
-644.726	-42.299	-0.264	0.135
-643.711	62.355	-0.245	-0.245
-642.697	0.552	-0.172	-0.123
-641.682	-16.074	-0.284	-0.181
-640.668	-141.962	0.207	-0.021
-639.653	-78.370	-0.145	0.050
-638.638	-200.000	-0.017	-0.112
-637.624	103.383	-0.139	0.163
-636.609	22.650	0.211	0.172
-635.595	2.382	0.135	0.098
-634.580	-115.792	-0.136	0.025
-633.565	-108.151	-0.047	0.010
-632.551	-45.909	-0.256	-0.127
-631.536	-184.182	-0.056	-0.001
-630.522	27.829	0.229	0.193
-629.507	-200.000	-0.003	-0.118
-628.492	800.000	0.069	0.279
-627.478	-26.168	-0.143	-0.084
-626.463	88.014	-0.184	-0.204
-625.449	-200.000	-0.001	0.074
-624.434	-44.289	0.041	0.020
-623.419	800.000	-0.017	0.052
-622.405	-129.092	0.130	0.018
-621.390	-200.000	0.013	0.116
-620.376	-106.098	-0.098	-0.022
-619.361	467.292	0.083	-0.186
-618.346	-128.544	-0.367	0.052
-617.332	13.804	0.235	-0.183
-616.317	218.269	-0.126	-0.201
-615.303	-200.000	0.023	0.356
-614.288	-109.115	-0.211	-0.045
-613.273	-30.541	-0.368	-0.208
-612.259	249.698	-0.174	-0.294
-611.244	78.420	0.226	-0.242
-610.230	-155.302	0.090	-0.006
-609.215	-200.000	0.002	-0.257
-608.201	237.629	-0.021	0.035
-607.186	83.383	0.092	0.100
-606.171	316.017	0.192	0.363
-605.157	-48.583	-0.049	0.024
-604.142	-200.000	-0.024	-0.177
-603.128	-200.000	-0.034	-0.526
-602.113	74.251	0.078	-0.081
-601.098	-27.391	-0.176	-0.102
-600.084	200.310	0.114	0.174
-599.069	-14.005	0.069	0.044
-598.055	-127.752	-0.220	-0.032
-597.040	800.000	-0.072	-0.232
-596.025	298.360	0.092	-0.168
-595.011	-138.723	0.395	0.043
-593.996	800.000	0.093	0.312
-592.982	-200.000	-0.019	0.292
-591.967	190.806	0.103	0.154
-590.952	231.485	-0.032	-0.053
-589.938	-200.000	-0.049	-0.461
-588.923	-200.000	0.037	-0.217
-587.909	-34.612	-0.139	-0.076
-586.894	-88.053	-0.418	0.125
-585.879	-55.756	-0.136	0.061
-584.865	14.242	-0.212	0.165
-583.850	363.331	0.194	-0.389
-582.836	38.180	0.294	0.262
-581.821	24.466	-0.161	0.133
-580.806	3.378	0.318	-0.231
-579.792	83.716	0.010	0.011
-578.777	800.000	-0.042	0.122
-577.763	-129.121	0.199	0.028
-576.748	-127.483	-0.097	0.014
-575.733	47.275	-0.253	0.235
-574.719	-200.000	0.032	0.245
-573.704	507.545	0.083	0.193
-572.690	-74.935	-0.314	-0.112
-571.675	800.000	0.064	0.180
-570.661	-12.355	0.157	-0.102
-569.646	-142.432	0.063	0.006
-568.631	62.871	-0.397	0.396
-567.617	-200.000	0.014	-0.155
-566.602	199.484	0.117	-0.179
-565.588	800.000	0.052	0.177
-564.573	62.722	-0.111	0.110
-563.558	-34.206	0.158	-0.087
-562.544	44.929	0.078	0.072
-561.529	800.000	-0.108	0.336
-560.515	-200.000	0.003	0.026
-559.500	179.657	-0.098	0.143
-558.485	-200.000	-0.008	-0.044
-557.471	19.472	-0.222	-0.178
-556.456	-172.348	-0.311	0.010
-555.442	-132.299	0.195	-0.025
-554.427	800.000	0.075	-0.307
-553.412	-200.000	-0.026	-0.283
-552.398	-101.334	0.248	0.060
-551.383	-116.548	-0.310	0.057
-550.369	-41.225	0.387	0.199
-549.354	-20.664	-0.331	0.203
-548.339	-159.166	0.098	-0.006
-547.325	174.053	-0.235	-0.338
-546.310	-56.446	0.065	0.029
-545.296	0.755	-0.191	0.136
-544.281	-200.000	0.022	-0.181
-543.266	190.170	-0.104	0.156
-542.252	-200.000	0.016	0.216
-541.237	48.852	0.076	-0.071
-540.223	-137.459	-0.140	-0.016
-539.208	303.726	-0.045	-0.084
-538.193	-54.234	0.121	-0.055
-537.179	-176.141	0.081	-0.002
-536.164	18.703	-0.166	-0.133
-535.150	-120.069	-0.277	0.047
-534.135	117.455	0.114	-0.140
-533.121	800.000	0.041	0.157
-532.106	-200.000	-0.010	0.059
-531.091	-58.463	-0.406	-0.176
-530.077	49.387	0.079	-0.074
-529.062	174.530	-0.178	-0.257
-528.048	800.000	0.100	-0.395
-527.033	-54.478	-0.106	-0.048
-526.018	85.566	0.106	-0.116
-525.004	215.527	0.074	0.118
-523.989	44.030	0.166	-0.152
-522.975	-25.630	0.335	-0.197
-521.960	396.900	0.125	0.260
-520.945	44.572	0.228	0.209
-519.931	800.000	0.024	-0.090
-518.916	800.000	0.038	-0.118
-517.902	525.550	0.109	0.256
-516.887	151.909	-0.048	0.065
-515.872	-68.833	0.178	-0.069
-514.858	-3.066	-0.246	0.171
-513.843	-200.000	-0.097	-0.502
-512.829	670.592	-0.166	-0.429
-511.814	561.216	0.064	0.153
-510.799	375.184	0.079	0.160
-509.785	129.607	-0.056	-0.071
-508.770	22.532	-0.188	0.153
-507.756	167.347	0.188	-0.267
-506.741	-200.000	-0.032	-0.211
-505.726	-60.848	0.197	0.083
-504.712	182.103	0.210	-0.307
-503.697	149.428	-0.188	0.254
-502.683	-200.000	0.029	0.323
-501.668	-95.962	-0.466	0.124
-500.653	-65.514	-0.087	-0.035
-499.639	-103.544	-0.095	0.022
-498.624	-120.455	0.091	0.015
-497.610	-48.707	0.286	0.137
-496.595	-63.162	0.162	-0.066
-495.581	188.089	-0.032	0.047
-494.566	21.977	0.183	0.149
-493.551	351.927	-0.175	0.344
-492.537	160.424	-0.118	-0.164
-491.522	-159.876	-0.126	-0.007
-490.508	-94.452	0.075	-0.020
-489.493	-26.774	0.055	0.032
-488.478	-200.000	0.000	0.162
-487.464	41.522	-0.206	-0.185
-486.449	800.000	0.055	-0.158
-485.435	-100.778	0.056	-0.014
-484.420	-200.000	-0.014	-0.196
-483.405	-50.373	-0.162	-0.076
-482.391	-60.281	0.120	0.051
-481.376	83.040	0.076	0.082
-480.362	-40.614	0.130	0.067
-479.347	-14.524	-0.191	-0.122
-478.332	-200.000	-0.025	-0.247
-477.318	63.381	0.187	-0.186
-476.303	-51.016	-0.244	-0.114
-475.289	73.390	0.123	-0.128
-474.274	-104.541	0.340	-0.078
-473.259	-193.619	-0.144	-0.001
-472.245	22.537	0.075	0.061
-471.230	-200.000	-0.028	0.124
-470.216	67.253	0.202	-0.205
-469.201	134.872	-0.126	0.163
-468.186	-178.737	0.381	-0.009
-467.172	-44.620	0.375	0.186
-466.157	-13.946	0.176	-0.113
-465.143	-140.728	-0.269	-0.028
-464.128	128.244	0.136	-0.173
-463.113	-124.247	0.095	0.015
-462.099	-108.230	0.136	0.029
-461.084	7.282	0.074	0.055
-460.070	145.420	-0.305	-0.406
-459.055	-46.227	-0.112	0.055
-458.040	800.000	-0.044	0.174
-457.026	-20.000	-0.204	0.125
-456.011	800.000	-0.102	-0.398
-454.997	-163.776	-0.338	-0.016
-453.982	-2.309	-0.472	-0.329
-452.968	-95.915	-0.177	0.047
-451.953	-200.000	0.026	-0.202
-450.938	-142.116	0.055	0.005
-449.924	-41.900	-0.257	0.131
-448.909	-107.626	0.391	0.085
-447.895	-36.497	0.113	0.060
-446.880	-200.000	-0.006	0.117
-445.865	638.716	0.046	0.116
-444.851	43.362	0.237	-0.215
-443.836	168.673	-0.168	0.238
-442.822	162.709	0.124	-0.172
-441.807	-156.159	0.191	0.012
-440.792	125.905	0.132	-0.166
-439.778	76.064	-0.415	-0.436
-438.763	81.988	-0.143	-0.153
-437.749	226.959	-0.206	-0.333
-436.734	14.778	-0.089	0.069
-435.719	163.650	-0.116	0.162
-434.705	5.233	0.125	0.092
-433.690	113.402	-0.180	0.217
-432.676	125.433	0.193	-0.242
-431.661	800.000	-0.088	-0.291
-430.646	-171.785	-0.069	-0.002
-429.632	-11.183	-0.274	-0.179
-428.617	109.454	0.199	0.236
-427.603	48.433	-0.172	-0.160
-426.588	119.480	0.061	-0.075
-425.573	510.637	-0.048	0.110
-424.559	800.000	-0.086	-0.251
-423.544	-200.000	-0.002	0.045
-422.530	-48.267	-0.083	-0.040
-421.515	-36.773	0.249	-0.133
-420.500	43.098	0.106	0.096
-419.486	111.091	0.148	0.176
-418.471	-200.000	-0.004	-0.240
-417.457	800.000	-0.050	-0.159
-416.442	-200.000	-0.041	-0.212
-415.428	-116.235	-0.153	0.028
-414.413	264.374	0.056	0.097
-413.398	80.219	0.181	-0.193
-412.384	729.028	-0.085	0.226
-411.369	-69.401	0.487	0.185
-410.355	-80.863	-0.222	0.073
-409.340	-200.000	0.027	0.325
-408.325	-105.522	0.306	-0.069
-407.311	-113.928	0.006	-0.001
-406.296	-200.000	-0.089	0.413
-405.282	-200.000	0.039	-0.274
-404.267	-123.809	0.171	-0.027
-403.252	23.833	-0.027	0.022
-402.238	-14.195	-0.201	-0.128
-401.223	198.460	-0.155	-0.235
-400.209	-23.818	-0.216	-0.128
-399.194	-145.331	0.221	-0.020
-398.179	154.271	-0.285	-0.388
-397.165	-200.000	-0.006	-0.180
-396.150	-14.939	0.188	0.119
-395.136	230.562	0.071	0.115
-394.121	221.047	-0.038	0.060
-393.106	291.997	0.150	-0.271
-392.092	-200.000	0.089	0.593
-391.077	226.759	0.114	0.184
-390.063	28.232	0.232	-0.194
-389.048	-86.918	0.229	0.069
-388.033	-72.577	-0.413	-0.151
-387.019	19.721	-0.193	0.154
-386.004	-104.753	-0.221	-0.050
-384.990	30.653	0.101	0.086
-383.975	-87.835	0.209	-0.062
-382.960	-43.454	0.209	-0.105
-381.946	-200.000	-0.009	-0.104
-380.931	605.989	0.031	0.077
-379.917	-76.932	-0.082	-0.028
-378.902	-200.000	0.002	0.092
-377.888	-197.564	-0.067	0.000
-376.873	-135.614	0.100	0.012
-375.858	-52.637	-0.106	0.048
-374.844	89.874	-0.089	0.099
-373.829	601.357	0.063	0.155
-372.815	-18.937	0.129	0.080
-371.800	-19.270	-0.348	0.214
-370.785	61.348	0.171	-0.168
-369.771	-138.961	-0.331	0.036
-368.756	-69.074	-0.208	-0.080
-367.742	-103.944	-0.190	0.044
-366.727	-200.000	-0.015	-0.350
-365.712	-36.162	-0.037	0.020
-364.698	244.122	0.073	0.121
-363.683	547.312	-0.052	0.123
-362.669	-200.000	0.032	0.167
-361.654	-200.000	-0.053	0.390
-360.639	-123.928	0.233	-0.036
-359.625	-200.000	-0.003	-0.369
-358.610	-70.039	-0.022	0.008
-357.596	800.000	-0.029	0.088
-356.581	567.776	0.065	0.156
-355.566	-43.267	-0.104	0.052
-354.552	-133.528	0.252	0.031
-353.537	139.635	0.047	-0.062
-352.523	3.108	-0.297	-0.214
-351.508	-200.000	0.039	-0.399
-350.493	2.690	0.450	0.322
-349.479	-200.000	0.040	-0.216
-348.464	-200.000	-0.057	0.477
-347.450	-128.932	0.246	-0.034
-346.435	800.000	-0.102	-0.323
-345.420	-118.061	0.237	0.042
-344.406	191.781	-0.070	-0.105
-343.391	75.970	0.024	-0.026
-342.377	-98.023	-0.289	-0.074
-341.362	73.128	-0.017	-0.017
-340.348	-103.738	0.038	-0.009
-339.333	398.757	-0.080	0.165
-338.318	-200.000	-0.054	0.495
-337.304	517.710	-0.036	0.084
-336.289	398.179	-0.143	0.295
-335.275	-200.000	-0.030	-0.200
-334.260	800.000	-0.071	-0.213
-333.245	12.320	0.333	0.254
-332.231	-12.935	-0.075	0.048
-331.216	52.969	0.056	-0.053
-330.202	-44.389	0.085	-0.042
-329.187	800.000	0.085	-0.264
-328.172	43.204	-0.108	0.097
-327.158	53.610	-0.168	-0.159
-326.143	735.403	-0.029	-0.077
-325.129	77.160	0.248	-0.260
-324.114	-200.000	0.011	-0.151
-323.099	261.801	-0.171	0.294
-322.085	-200.000	-0.322	-0.000
-321.070	-122.629	-0.150	0.024
-320.056	800.000	0.145	0.404
-319.041	-150.751	-0.175	0.013
-318.026	-200.000	-0.017	0.142
-317.012	-119.726	0.274	0.047
-315.997	-122.430	-0.233	-0.037
-314.983	-200.000	0.021	0.108
-313.968	-128.352	0.121	-0.017
-312.953	-84.758	-0.173	0.054
-311.939	-95.970	-0.372	-0.098
-310.924	252.474	0.036	-0.060
-309.910	295.412	-0.085	0.153
-308.895	-124.425	-0.048	-0.007
-307.880	331.449	0.116	0.221
-306.866	-55.672	-0.188	-0.083
-305.851	-61.108	-0.116	0.048
-304.837	-18.440	0.169	0.104
-303.822	8.650	0.237	0.176
-302.807	-174.554	0.301	-0.008
-301.793	314.391	0.024	0.044
-300.778	-200.000	-0.024	0.108
-299.764	-200.000	0.009	-0.142
-298.749	305.179	-0.146	-0.267
-297.735	-15.822	-0.118	-0.074
-296.720	73.076	0.135	0.139
-295.705	-19.193	0.225	0.138
-294.691	717.158	0.119	0.312
-293.676	-200.000	-0.026	0.208
-292.662	50.566	-0.110	-0.103
-291.647	-200.000	0.098	-0.450
-290.632	183.566	-0.140	0.204
-289.618	-129.796	-0.124	-0.017
-288.603	-72.277	-0.220	-0.081
-287.589	411.270	0.056	-0.116
-286.574	7.691	-0.161	0.119
-285.559	130.161	-0.089	0.113
-284.545	-89.427	-0.267	0.077
-283.530	-132.735	-0.269	-0.034
-282.516	-200.000	-0.011	-0.104
-281.501	163.601	0.126	-0.175
-280.486	44.564	-0.224	0.203
-279.472	20.163	0.147	0.117
-278.457	800.000	-0.035	-0.141
-277.443	-80.603	-0.398	0.131
-276.428	-200.000	-0.010	0.387
-275.413	22.398	0.242	0.195
-274.399	89.741	0.252	0.277
-273.384	-27.800	0.152	-0.087
-272.370	-9.574	-0.246	-0.162
-271.355	217.597	-0.075	0.119
-270.340	60.723	0.185	0.181
-269.326	-34.471	-0.142	-0.077
-268.311	-7.897	-0.138	-0.092
-267.297	233.312	0.140	0.227
-266.282	-81.472	-0.237	0.077
-265.267	-187.554	0.233	0.003
-264.253	-166.872	0.559	0.023
-263.238	73.069	-0.078	0.080
-262.224	800.000	0.089	-0.353
-261.209	364.059	0.197	-0.391
-260.195	-184.650	-0.129	0.002
-259.180	-92.513	0.386	0.107
-258.165	-45.803	0.355	0.173
-257.151	-200.000	0.017	0.195
-256.136	-171.952	-0.161	0.005
-255.122	800.000	-0.034	0.123
-254.107	320.598	0.136	-0.255
-253.092	-139.918	0.112	-0.012
-252.078	206.272	0.114	-0.175
-251.063	49.111	-0.152	0.141
-250.049	-200.000	0.004	-0.100
-249.034	-87.085	0.508	0.152
-248.019	-200.000	-0.002	0.244
-247.005	-200.000	-0.038	-0.211
-245.990	-65.870	0.188	0.074
-244.976	-151.929	-0.040	-0.003
-243.961	-200.000	0.065	0.389
-242.946	53.355	0.176	0.166
-241.932	-126.855	-0.561	-0.081
-240.917	-2.265	0.189	0.130
-239.903	-95.418	0.082	-0.022
-238.888	606.794	-0.093	0.230
-237.873	0.441	0.106	-0.074
-236.859	292.979	-0.022	-0.040
-235.844	-200.000	-0.033	0.275
-234.830	-19.595	-0.266	-0.162
-233.815	-159.969	0.143	0.008
-232.800	-200.000	-0.057	0.274
-231.786	-51.354	0.275	0.127
-230.771	-200.000	0.016	0.208
-229.757	-126.049	-0.203	-0.030
-228.742	800.000	-0.030	0.113
-227.727	800.000	-0.100	-0.280
-226.713	230.398	0.240	-0.386
-225.698	26.352	-0.220	-0.181
-224.684	314.861	0.040	-0.073
-223.669	46.430	-0.078	0.071
-222.655	800.000	0.103	-0.310
-221.640	69.911	-0.147	0.150
-220.625	-105.386	0.224	0.050
-219.611	85.252	-0.156	0.168
-218.596	698.382	0.121	-0.312
-217.582	-76.964	0.151	-0.052
-216.567	-128.727	-0.295	-0.041
-215.552	-200.000	-0.055	-0.268
-214.538	-200.000	-0.038	0.271
-213.523	-83.304	0.180	0.057
-212.509	-114.081	-0.074	0.014
-211.494	422.619	0.147	0.311
-210.479	72.156	-0.025	0.025
-209.465	-134.651	-0.246	0.029
-208.450	-200.000	0.000	-0.034
-207.436	522.554	-0.062	0.144
-206.421	108.158	0.063	0.074
-205.406	-61.671	0.110	-0.046
-204.392	-22.045	0.326	0.195
-203.377	118.097	0.115	0.140
-202.363	-200.000	-0.047	-0.303
-201.348	296.922	-0.076	-0.137
-200.333	187.633	0.251	-0.369
-199.319	-102.897	-0.224	0.052
-198.304	21.050	0.099	0.079
-197.290	-13.010	0.076	-0.049
-196.275	-200.000	0.009	0.153
-195.260	313.012	0.066	0.122
-194.246	251.626	0.187	0.312
-193.231	-151.562	0.172	-0.012
-192.217	28.308	0.057	0.047
-191.202	800.000	-0.188	-0.543
-190.187	-65.762	-0.265	0.104
-189.173	-32.508	0.443	-0.243
-188.158	-43.887	-0.176	-0.087
-187.144	-8.716	0.102	-0.067
-186.129	427.739	0.095	0.202
-185.114	8.610	-0.023	0.017
-184.100	-97.604	-0.325	-0.083
-183.085	-138.031	0.008	0.001
-182.071	132.172	0.130	0.165
-181.056	800.000	-0.063	0.179
-180.042	-35.359	0.432	0.231
-179.027	-56.651	-0.210	0.092
-178.012	800.000	-0.007	-0.028
-176.998	-166.406	0.359	0.015
-175.983	-43.915	0.186	0.092
-174.969	397.356	0.053	0.110
-173.954	179.627	0.095	0.137
-172.939	-91.496	0.362	0.102
-171.925	-52.497	-0.167	-0.076
-170.910	1.274	-0.066	-0.046
-169.896	164.410	0.096	-0.133
-168.881	75.908	0.231	-0.240
-167.866	-200.000	0.024	-0.366
-166.852	-51.876	0.416	-0.190
-165.837	-106.760	0.130	-0.028
-164.823	56.404	-0.211	-0.201
-163.808	-59.583	-0.376	-0.159
-162.793	800.000	-0.049	0.154
-161.779	4.754	-0.167	0.120
-160.764	-31.125	0.187	0.104
-159.750	42.200	0.211	0.189
-158.735	800.000	0.131	0.538
-157.720	36.446	0.164	0.142
-156.706	138.901	-0.080	0.103
-155.691	76.451	-0.113	0.118
-154.677	800.000	0.018	0.062
-153.662	-200.000	0.012	0.105
-152.647	229.215	0.094	0.151
-151.633	-200.000	-0.017	-0.128
-150.618	-116.813	0.123	0.022
-149.604	-181.139	0.238	-0.005
-148.589	164.351	-0.153	-0.212
-147.574	-56.598	-0.381	0.166
-146.560	24.505	0.337	-0.274
-145.545	39.095	0.256	0.225
-144.531	-51.661	0.114	-0.052
-143.516	-103.799	0.215	0.049
-142.502	-200.000	-0.027	0.196
-141.487	-200.000	0.041	0.247
-140.472	-136.510	0.285	0.032
-139.458	-136.016	0.090	-0.010
-138.443	-200.000	0.035	-0.180
-137.429	-200.000	0.015	0.120
-136.414	211.958	-0.178	-0.276
-135.399	17.880	0.157	0.122
-134.385	-128.282	-0.122	0.017
-133.370	218.007	0.136	-0.212
-132.356	-35.363	-0.240	0.128
-131.341	-117.610	0.067	-0.012
-130.326	-200.000	-0.052	0.490
-129.312	56.958	0.101	-0.097
-128.297	800.000	0.030	0.097
-127.283	729.066	-0.075	0.196
-126.268	-38.504	0.079	-0.041
-125.253	214.379	0.112	-0.174
-124.239	124.459	0.134	-0.166
-123.224	72.539	0.338	-0.346
-122.210	-70.213	-0.108	0.040
-121.195	800.000	0.113	0.377
