DTS Sentinel unit serial number:	SN413079Multiplexer serial number:	ORYXHardware model number:	OX4-SRSoftware version number:	ORYX F/W v4.00 Oryx Data Collector v3.7.2.0data status	okinstallation	princeton_trtdifferential loss correction	single-endedforward channel	channel 4reverse channel	N/Adate	2019/09/13time	22:53:34forward acquisition time	60.00reverse acquisition time	0.00gamma	496.2192k internal	0.2322k external	0.2322temperature offset calibration	1.0139default loss term (dB/km)	0.3790temperature slope calibration	1.0000multiplexer offset coefficient	1.0000multiplexer slope coefficient	1.0000fibre end	0.00T internal ref (°C)	27.44T ext. ref 1 (°C)	3.22T ext. ref 2 (°C)	21.53length (m)	temperature (°C)	Stokes	anti-Stokes-747.200	-200.000	0.008	0.264
-746.185	-20.574	0.283	0.176
-745.171	-123.643	0.268	0.043
-744.156	-157.212	-0.193	0.012
-743.142	43.543	-0.293	0.271
-742.127	147.717	-0.197	0.268
-741.112	6.196	0.067	-0.050
-740.098	-174.521	-0.307	0.009
-739.083	-9.671	-0.142	-0.095
-738.069	-200.000	0.023	-0.103
-737.054	70.750	0.167	0.174
-736.039	-69.945	0.102	0.039
-735.025	-119.019	0.712	0.126
-734.010	462.090	0.103	-0.233
-732.996	71.812	0.044	-0.047
-731.981	-47.262	-0.429	-0.211
-730.966	794.230	0.072	-0.200
-729.952	45.358	0.176	-0.164
-728.937	374.972	0.049	-0.101
-727.923	800.000	-0.048	0.183
-726.908	800.000	0.011	0.039
-725.894	-162.674	-0.300	-0.015
-724.879	-74.436	0.116	0.042
-723.864	-80.187	-0.123	-0.042
-722.850	125.637	0.205	0.261
-721.835	-133.435	-0.326	-0.041
-720.821	800.000	0.006	0.025
-719.806	-200.000	-0.055	0.350
-718.791	105.240	0.175	-0.208
-717.777	36.463	0.058	0.051
-716.762	5.513	0.170	-0.127
-715.748	55.205	0.271	-0.264
-714.733	800.000	0.037	-0.137
-713.718	594.505	-0.048	-0.120
-712.704	-117.944	0.330	0.060
-711.689	-102.178	0.215	0.052
-710.675	-125.745	-0.347	-0.053
-709.660	157.474	-0.099	0.138
-708.645	-200.000	0.013	0.435
-707.631	28.188	-0.119	-0.101
-706.616	-200.000	-0.013	0.063
-705.602	106.369	-0.099	0.119
-704.587	42.915	-0.285	0.262
-703.572	253.779	-0.077	-0.134
-702.558	75.526	0.131	0.139
-701.543	86.430	-0.104	-0.115
-700.529	52.052	0.319	0.306
-699.514	89.651	-0.222	-0.250
-698.499	53.870	0.366	-0.355
-697.485	-40.988	0.175	0.091
-696.470	442.076	-0.119	0.262
-695.456	-172.327	0.248	0.008
-694.441	-86.859	0.174	0.054
-693.426	-200.000	0.041	0.295
-692.412	-200.000	-0.076	-0.353
-691.397	800.000	0.246	-0.698
-690.383	-200.000	0.040	0.236
-689.368	261.372	0.240	0.419
-688.354	725.695	0.055	0.149
-687.339	800.000	0.039	-0.141
-686.324	-161.056	-0.266	-0.014
-685.310	-108.970	0.246	-0.053
-684.295	800.000	-0.022	-0.096
-683.281	-129.168	0.088	-0.012
-682.266	67.797	0.155	-0.160
-681.251	-200.000	-0.088	-0.462
-680.237	-89.141	0.199	-0.059
-679.222	-200.000	-0.009	-0.266
-678.208	-200.000	0.002	0.165
-677.193	-200.000	-0.032	0.170
-676.178	159.304	0.149	-0.208
-675.164	81.737	0.125	0.136
-674.149	800.000	0.002	0.006
-673.135	16.838	0.142	0.114
-672.120	-159.450	0.130	0.007
-671.105	267.691	-0.016	0.027
-670.091	98.624	0.142	-0.165
-669.076	-126.253	-0.294	0.044
-668.062	326.760	-0.061	-0.118
-667.047	-115.429	-0.190	-0.036
-666.032	-68.923	-0.254	0.099
-665.018	-88.589	0.118	-0.035
-664.003	-41.085	0.329	-0.171
-662.989	-200.000	-0.008	-0.184
-661.974	-85.429	0.095	0.030
-660.959	-200.000	0.029	0.221
-659.945	-82.368	0.223	-0.073
-658.930	-200.000	-0.023	-0.262
-657.916	-146.384	-0.402	-0.035
-656.901	800.000	0.069	0.238
-655.886	87.994	0.126	-0.140
-654.872	557.582	-0.062	-0.151
-653.857	-161.737	0.274	-0.014
-652.843	48.503	-0.034	0.032
-651.828	-27.380	-0.365	0.214
-650.814	208.678	0.138	0.217
-649.799	319.212	-0.109	0.209
-648.784	624.010	0.042	-0.107
-647.770	-66.716	-0.189	-0.075
-646.755	290.349	-0.101	0.185
-645.741	-17.683	-0.155	0.098
-644.726	-100.727	0.204	-0.051
-643.711	-200.000	0.016	-0.108
-642.697	-76.199	0.192	0.068
-641.682	-200.000	0.006	-0.286
-640.668	-13.558	0.317	-0.207
-639.653	-87.877	0.164	0.050
-638.638	248.330	-0.104	-0.177
-637.624	-58.668	-0.087	-0.038
-636.609	-137.981	0.103	0.012
-635.595	-200.000	-0.036	-0.288
-634.580	-1.518	-0.037	0.026
-633.565	179.966	-0.036	0.053
-632.551	-69.333	-0.216	0.083
-631.536	15.025	0.321	-0.253
-630.522	224.813	-0.061	-0.099
-629.507	-200.000	-0.034	-0.337
-628.492	165.480	-0.104	-0.149
-627.478	-97.077	-0.301	-0.079
-626.463	-7.858	0.168	0.114
-625.449	-78.077	0.133	0.046
-624.434	12.913	0.187	-0.146
-623.419	-59.526	-0.391	0.169
-622.405	494.687	0.115	-0.265
-621.390	-72.348	-0.172	0.064
-620.376	134.233	0.132	0.172
-619.361	-131.422	-0.125	-0.017
-618.346	-200.000	0.030	-0.290
-617.332	-108.995	0.136	0.029
-616.317	800.000	-0.157	0.530
-615.303	-137.747	-0.063	0.007
-614.288	800.000	0.099	0.325
-613.273	151.828	0.062	0.085
-612.259	800.000	-0.121	-0.393
-611.244	10.557	0.113	0.087
-610.230	-130.329	0.112	0.015
-609.215	161.838	-0.123	-0.173
-608.201	228.611	-0.207	-0.340
-607.186	156.151	0.301	0.418
-606.171	-109.696	-0.244	0.052
-605.157	-200.000	0.013	0.467
-604.142	800.000	-0.107	0.309
-603.128	-200.000	-0.045	0.369
-602.113	-68.592	0.126	-0.049
-601.098	-42.014	-0.210	0.108
-600.084	62.785	0.085	-0.085
-599.069	542.671	0.088	-0.212
-598.055	-152.528	0.213	-0.015
-597.040	62.988	-0.139	-0.140
-596.025	-200.000	0.038	-0.305
-595.011	61.924	-0.251	0.251
-593.996	-35.492	-0.431	0.235
-592.982	-152.697	0.108	0.008
-591.967	27.737	0.251	-0.213
-590.952	67.585	0.046	-0.047
-589.938	-121.911	-0.212	-0.035
-588.923	93.339	0.134	-0.152
-587.909	4.408	0.217	0.160
-586.894	206.942	-0.220	-0.344
-585.879	77.772	-0.155	0.165
-584.865	-28.706	-0.110	-0.063
-583.850	15.118	-0.025	-0.019
-582.836	-114.373	0.246	-0.048
-581.821	-82.475	0.334	-0.109
-580.806	-200.000	0.023	-0.169
-579.792	-200.000	-0.012	0.305
-578.777	4.705	-0.154	0.114
-577.763	-72.703	0.136	0.050
-576.748	-69.263	0.179	0.069
-575.733	-131.934	-0.409	0.054
-574.719	800.000	-0.055	-0.180
-573.704	17.441	-0.104	-0.083
-572.690	-56.412	-0.185	-0.082
-571.675	59.666	-0.054	-0.053
-570.661	-200.000	0.012	-0.206
-569.646	-173.439	-0.185	0.006
-568.631	-138.041	0.161	0.018
-567.617	197.494	0.131	-0.200
-566.602	-38.389	-0.336	0.179
-565.588	-99.736	-0.190	0.048
-564.573	32.213	0.171	0.148
-563.558	295.813	0.055	-0.101
-562.544	398.983	-0.029	0.061
-561.529	-200.000	0.006	0.255
-560.515	-200.000	-0.098	0.520
-559.500	92.266	0.098	-0.110
-558.485	28.822	-0.176	0.149
-557.471	139.126	-0.097	0.127
-556.456	278.079	-0.071	-0.127
-555.442	122.286	-0.086	0.108
-554.427	-182.228	0.339	-0.006
-553.412	-160.828	-0.360	0.019
-552.398	-69.995	0.204	-0.078
-551.383	261.168	0.036	0.063
-550.369	-42.144	0.257	0.132
-549.354	-42.551	0.165	0.084
-548.339	-45.685	-0.250	-0.124
-547.325	-81.917	-0.179	-0.059
-546.310	1.372	-0.229	-0.165
-545.296	487.361	-0.135	0.309
-544.281	-200.000	-0.005	0.032
-543.266	50.547	-0.187	0.177
-542.252	-200.000	-0.023	-0.419
-541.237	-200.000	-0.024	-0.111
-540.223	68.226	-0.164	-0.169
-539.208	293.561	0.157	-0.288
-538.193	101.217	-0.339	0.396
-537.179	169.420	-0.114	-0.164
-536.164	222.017	-0.145	-0.234
-535.150	-77.505	-0.148	-0.051
-534.135	-61.136	-0.244	-0.103
-533.121	-8.471	-0.129	-0.087
-532.106	800.000	0.033	-0.142
-531.091	800.000	-0.037	-0.141
-530.077	-17.072	0.166	-0.105
-529.062	-40.416	-0.239	-0.124
-528.048	-170.606	-0.167	0.006
-527.033	-64.461	-0.277	-0.113
-526.018	-102.059	0.113	0.027
-525.004	-200.000	-0.102	0.470
-523.989	10.907	-0.113	-0.087
-522.975	-200.000	-0.052	-0.306
-521.960	-137.516	0.150	-0.017
-520.945	-23.640	-0.268	-0.161
-519.931	30.193	0.140	0.119
-518.916	-200.000	-0.036	-0.408
-517.902	-184.833	-0.188	0.003
-516.887	-200.000	-0.047	0.214
-515.872	-200.000	0.001	-0.221
-514.858	180.529	0.084	0.124
-513.843	-200.000	0.014	0.090
-512.829	136.373	0.184	0.240
-511.814	-118.468	0.173	0.031
-510.799	97.677	0.206	-0.237
-509.785	359.962	-0.055	-0.111
-508.770	-52.327	0.130	-0.061
-507.756	139.224	0.184	-0.242
-506.741	-22.546	-0.209	-0.126
-505.726	-200.000	-0.006	-0.284
-504.712	800.000	0.076	-0.333
-503.697	800.000	-0.153	-0.472
-502.683	530.792	-0.074	-0.176
-501.668	-73.206	-0.411	-0.151
-500.653	-4.725	0.289	0.200
-499.639	-200.000	-0.037	0.332
-498.624	-200.000	0.007	0.051
-497.610	-200.000	-0.001	-0.208
-496.595	423.411	-0.091	0.195
-495.581	-200.000	0.035	0.231
-494.566	800.000	0.040	-0.142
-493.551	-91.387	-0.262	0.075
-492.537	525.812	-0.101	-0.237
-491.522	203.833	0.136	-0.211
-490.508	543.418	0.105	-0.252
-489.493	529.494	-0.059	-0.139
-488.478	-75.134	0.146	0.052
-487.464	-200.000	-0.063	-0.375
-486.449	218.936	0.096	-0.154
-485.435	-92.759	-0.355	0.099
-484.420	-74.302	-0.312	0.113
-483.405	182.322	-0.203	-0.299
-482.391	127.093	-0.220	0.279
-481.376	-200.000	0.022	-0.229
-480.362	23.712	-0.050	-0.041
-479.347	800.000	0.030	-0.087
-478.332	575.810	0.072	-0.176
-477.318	-99.816	-0.090	0.023
-476.303	800.000	0.019	0.065
-475.289	-15.681	-0.305	-0.195
-474.274	-52.244	0.221	-0.102
-473.259	-133.387	0.066	0.008
-472.245	-182.168	0.149	0.003
-471.230	-5.826	0.138	-0.094
-470.216	341.516	-0.166	-0.323
-469.201	-122.058	0.225	-0.037
-468.186	-200.000	0.013	0.091
-467.172	-200.000	-0.022	0.272
-466.157	-175.302	-0.171	0.005
-465.143	-157.440	0.173	0.010
-464.128	-52.059	0.263	-0.122
-463.113	-157.870	-0.035	-0.002
-462.099	65.316	0.157	0.159
-461.084	-99.986	-0.184	-0.046
-460.070	-78.558	-0.415	-0.142
-459.055	218.202	0.043	0.069
-458.040	13.254	-0.334	-0.259
-457.026	-48.625	0.331	-0.159
-456.011	-174.166	0.360	0.010
-454.997	-200.000	0.065	0.481
-453.982	-68.112	0.365	0.142
-452.968	-200.000	-0.042	0.249
-451.953	625.668	0.059	-0.148
-450.938	-3.825	0.070	-0.048
-449.924	-56.944	-0.311	0.137
-448.909	107.048	-0.139	-0.165
-447.895	800.000	0.036	-0.108
-446.880	800.000	-0.108	0.360
-445.865	-131.899	-0.410	0.053
-444.851	-176.959	0.378	0.010
-443.836	-200.000	-0.016	-0.172
-442.822	1.203	-0.320	0.229
-441.807	-184.378	-0.189	0.003
-440.792	-200.000	0.008	0.121
-439.778	-200.000	-0.005	0.124
-438.763	-68.237	-0.196	0.076
-437.749	-56.545	0.093	-0.041
-436.734	-133.841	0.210	-0.026
-435.719	-122.231	-0.118	0.019
-434.705	-87.873	-0.270	0.081
-433.690	189.502	-0.195	-0.292
-432.676	472.066	0.215	-0.483
-431.661	102.909	-0.031	-0.036
-430.646	-87.397	-0.397	0.120
-429.632	-121.894	-0.174	-0.029
-428.617	316.399	-0.168	-0.317
-427.603	-63.951	0.168	0.069
-426.588	678.763	-0.086	0.224
-425.573	-113.281	0.333	0.065
-424.559	-166.388	0.300	-0.013
-423.544	232.589	-0.172	0.281
-422.530	-200.000	0.014	0.228
-421.515	575.518	-0.060	0.146
-420.500	99.698	-0.171	-0.198
-419.486	114.140	-0.037	0.045
-418.471	800.000	0.116	0.400
-417.457	445.200	0.095	0.208
-416.442	15.500	0.031	-0.024
-415.428	800.000	-0.108	0.458
-414.413	34.164	0.218	-0.190
-413.398	-97.460	0.286	-0.074
-412.384	-38.099	-0.231	0.122
-411.369	-200.000	-0.040	0.231
-410.355	-21.051	0.253	0.155
-409.340	800.000	-0.020	0.081
-408.325	-200.000	0.010	0.209
-407.311	54.529	0.009	0.009
-406.296	-115.295	0.123	0.023
-405.282	-200.000	-0.048	0.220
-404.267	-67.970	0.242	0.094
-403.252	-200.000	0.002	-0.301
-402.238	-51.168	0.188	-0.088
-401.223	97.338	-0.155	0.177
-400.209	-188.812	0.185	0.002
-399.194	-200.000	-0.016	-0.215
-398.179	115.097	-0.319	0.388
-397.165	800.000	0.116	0.349
-396.150	-133.906	-0.268	-0.033
-395.136	800.000	-0.054	-0.208
-394.121	340.448	0.084	-0.163
-393.106	-200.000	-0.011	-0.181
-392.092	800.000	-0.023	-0.098
-391.077	-200.000	0.078	0.496
-390.063	196.549	-0.182	-0.276
-389.048	-180.663	-0.231	0.005
-388.033	45.006	-0.124	-0.113
-387.019	21.634	-0.166	0.134
-386.004	100.036	-0.027	-0.032
-384.990	-200.000	0.016	0.191
-383.975	138.254	0.265	-0.347
-382.960	800.000	-0.060	-0.198
-381.946	-200.000	-0.005	-0.131
-380.931	-138.818	0.222	0.024
-379.917	-116.407	-0.101	-0.019
-378.902	-40.949	0.100	0.051
-377.888	66.316	0.267	0.270
-376.873	-169.358	-0.278	0.010
-375.858	-68.061	0.331	-0.128
-374.844	76.338	-0.117	-0.123
-373.829	120.486	0.051	-0.063
-372.815	43.714	-0.259	-0.236
-371.800	98.572	0.254	-0.291
-370.785	-131.421	0.186	-0.024
-369.771	-200.000	-0.043	0.412
-368.756	800.000	-0.083	-0.279
-367.742	-110.460	0.234	0.048
-366.727	800.000	-0.147	-0.423
-365.712	-56.899	-0.007	0.003
-364.698	-200.000	-0.134	0.000
-363.683	311.375	-0.136	-0.254
-362.669	-138.157	0.371	0.041
-361.654	161.137	0.259	-0.360
-360.639	17.242	-0.281	-0.222
-359.625	-200.000	0.008	0.153
-358.610	-200.000	-0.000	-0.097
-357.596	-157.569	0.228	-0.014
-356.581	-96.333	0.169	-0.045
-355.566	-155.104	0.116	0.008
-354.552	-170.551	0.153	0.005
-353.537	800.000	-0.031	-0.091
-352.523	-78.535	-0.223	0.076
-351.508	220.768	0.153	-0.244
-350.493	800.000	0.069	-0.211
-349.479	-200.000	0.029	0.424
-348.464	-200.000	0.022	-0.217
-347.450	509.114	0.035	-0.080
-346.435	-200.000	0.005	0.398
-345.420	148.409	0.144	0.194
-344.406	-165.977	-0.421	0.018
-343.391	4.844	0.180	-0.132
-342.377	-200.000	-0.029	0.273
-341.362	7.236	0.118	0.087
-340.348	-200.000	-0.053	-0.445
-339.333	-186.048	-0.286	0.004
-338.318	-200.000	-0.058	-0.347
-337.304	13.885	-0.204	-0.158
-336.289	46.637	0.161	-0.148
-335.275	-200.000	-0.014	0.177
-334.260	-200.000	-0.006	0.033
-333.245	26.137	0.176	0.146
-332.231	57.073	-0.393	-0.381
-331.216	-200.000	0.045	-0.420
-330.202	800.000	-0.030	0.114
-329.187	-200.000	0.021	-0.210
-328.172	9.317	0.268	-0.202
-327.158	31.529	-0.263	0.225
-326.143	800.000	0.077	-0.261
-325.129	-200.000	-0.022	-0.195
-324.114	66.220	0.158	-0.159
-323.099	-80.550	-0.061	0.020
-322.085	-12.740	-0.113	0.073
-321.070	305.095	-0.113	-0.208
-320.056	-51.007	0.199	0.093
-319.041	-200.000	-0.015	0.296
-318.026	-82.482	-0.583	0.188
-317.012	-154.303	0.047	0.003
-315.997	-30.373	0.115	-0.065
-314.983	154.172	0.060	0.082
-313.968	155.066	0.235	-0.321
-312.953	800.000	-0.065	-0.260
-311.939	1.979	-0.187	-0.134
-310.924	350.369	-0.229	0.451
-309.910	602.446	-0.107	0.264
-308.895	-67.226	0.082	-0.032
-307.880	-200.000	-0.009	-0.256
-306.866	800.000	-0.008	0.028
-305.851	-73.357	0.163	-0.059
-304.837	-200.000	-0.051	0.232
-303.822	-200.000	0.007	0.125
-302.807	70.447	-0.053	-0.054
-301.793	-74.528	0.257	-0.092
-300.778	304.033	-0.030	-0.055
-299.764	-128.446	0.325	-0.046
-298.749	-200.000	0.034	0.172
-297.735	-200.000	0.006	0.240
-296.720	-91.144	0.255	-0.073
-295.705	-82.164	-0.371	-0.120
-294.691	-92.311	-0.175	-0.049
-293.676	-148.838	0.168	-0.014
-292.662	-52.513	-0.198	0.091
-291.647	163.602	0.146	-0.205
-290.632	-176.120	-0.035	0.001
-289.618	-50.342	0.071	-0.034
-288.603	201.506	-0.216	-0.331
-287.589	-13.387	0.070	0.045
-286.574	-157.868	0.282	-0.017
-285.559	-200.000	0.093	0.462
-284.545	-25.006	0.151	0.089
-283.530	151.232	0.180	0.244
-282.516	30.448	-0.221	0.187
-281.501	-200.000	0.014	0.074
-280.486	458.287	0.150	0.331
-279.472	-121.028	0.464	0.077
-278.457	105.810	-0.188	0.221
-277.443	-0.980	0.129	0.091
-276.428	100.922	0.101	0.116
-275.413	127.581	-0.110	0.139
-274.399	170.168	0.224	0.318
-273.384	-109.395	-0.214	0.045
-272.370	47.290	-0.131	0.121
-271.355	-200.000	-0.032	0.309
-270.340	-103.743	-0.283	-0.066
-269.326	800.000	0.078	-0.289
-268.311	-200.000	0.035	0.299
-267.297	-29.271	0.195	-0.111
-266.282	-135.208	-0.289	0.034
-265.267	800.000	0.023	-0.098
-264.253	-109.494	-0.186	0.039
-263.238	800.000	0.034	0.103
-262.224	138.521	-0.174	0.226
-261.209	-53.877	0.384	0.174
-260.195	462.199	-0.088	0.196
-259.180	800.000	-0.026	-0.096
-258.165	239.328	0.031	-0.051
-257.151	-79.846	0.129	-0.043
-256.136	174.404	-0.031	0.045
-255.122	-30.988	-0.183	0.103
-254.107	-181.695	0.234	0.004
-253.092	800.000	-0.092	0.354
-252.078	-83.867	0.287	-0.091
-251.063	800.000	-0.073	0.309
-250.049	-200.000	-0.002	-0.043
-249.034	-31.204	0.405	0.226
-248.019	114.968	0.104	0.125
-247.005	-200.000	0.010	0.207
-245.990	-86.152	-0.332	0.101
-244.976	-83.139	-0.192	0.061
-243.961	-200.000	0.180	-0.001
-242.946	800.000	0.006	0.019
-241.932	-42.411	0.117	0.059
-240.917	269.457	0.146	0.254
-239.903	-200.000	0.005	-0.115
-238.888	250.615	0.066	0.111
-237.873	15.709	-0.166	0.130
-236.859	-177.735	0.054	0.001
-235.844	-200.000	-0.015	0.131
-234.830	-43.823	-0.297	-0.148
-233.815	-165.029	0.357	0.016
-232.800	267.731	-0.071	-0.123
-231.786	70.313	-0.260	0.266
-230.771	-200.000	0.014	-0.117
-229.757	169.183	-0.023	0.033
-228.742	-190.371	-0.066	0.001
-227.727	-200.000	0.038	0.222
-226.713	-52.118	-0.023	-0.010
-225.698	-200.000	0.077	-0.453
-224.684	-64.686	-0.281	0.113
-223.669	-2.504	0.202	-0.140
-222.655	18.601	-0.041	0.032
-221.640	61.541	0.207	-0.204
-220.625	79.467	0.076	-0.081
-219.611	-46.059	-0.060	0.029
-218.596	282.592	0.113	-0.201
-217.582	-137.337	0.313	0.035
-216.567	-194.918	-0.151	0.001
-215.552	250.721	-0.120	0.203
-214.538	-43.218	-0.044	-0.022
-213.523	-106.340	-0.365	-0.081
-212.509	142.986	0.121	-0.160
-211.494	102.671	0.147	0.170
-210.479	-56.112	0.504	-0.222
-209.465	800.000	0.079	0.295
-208.450	-200.000	-0.020	0.206
-207.436	-85.421	0.361	0.111
-206.421	-134.018	-0.237	-0.029
-205.406	-28.806	-0.096	-0.055
-204.392	-200.000	0.173	0.000
-203.377	4.500	-0.205	-0.148
-202.363	109.587	0.227	-0.269
-201.348	787.788	-0.080	-0.216
-200.333	-181.401	-0.284	-0.006
-199.319	155.519	0.114	-0.155
-198.304	-52.772	0.278	0.127
-197.290	33.075	-0.223	0.192
-196.275	-200.000	0.025	0.123
-195.260	800.000	-0.137	0.398
-194.246	-146.159	-0.261	-0.023
-193.231	-200.000	-0.007	0.047
-192.217	486.109	0.187	0.422
-191.202	-108.678	0.290	-0.061
-190.187	-58.907	0.118	0.051
-189.173	-200.000	-0.032	0.209
-188.158	61.892	0.285	0.281
-187.144	128.754	0.111	-0.140
-186.129	42.703	-0.205	0.185
-185.114	-200.000	-0.027	0.201
-184.100	374.416	0.116	0.233
-183.085	313.003	0.075	-0.139
-182.071	-200.000	-0.018	-0.206
-181.056	545.884	-0.096	-0.226
-180.042	-65.834	0.285	0.113
-179.027	-93.197	0.229	-0.063
-178.012	543.683	-0.081	-0.192
-176.998	-73.530	0.177	-0.064
-175.983	-200.000	0.033	0.615
-174.969	-200.000	-0.020	-0.135
-173.954	29.858	0.047	0.040
-172.939	-22.222	0.233	-0.140
-171.925	-105.055	0.408	0.092
-170.910	-182.205	0.483	0.009
-169.896	-42.192	0.105	-0.053
-168.881	316.603	0.071	0.133
-167.866	-46.414	-0.352	0.171
-166.852	145.400	-0.176	-0.233
-165.837	-47.148	0.129	0.062
-164.823	395.530	0.070	0.144
-163.808	-67.835	0.310	-0.120
-162.793	-200.000	-0.082	-0.453
-161.779	800.000	-0.033	-0.121
-160.764	-121.151	0.306	-0.051
-159.750	-200.000	0.037	0.183
-158.735	-70.366	-0.251	0.094
-157.720	-116.345	0.217	0.040
-156.706	-31.435	-0.198	0.110
-155.691	800.000	-0.039	-0.114
-154.677	-128.630	0.356	-0.050
-153.662	714.306	-0.126	0.329
-152.647	-28.920	0.296	0.168
-151.633	-200.000	-0.012	-0.300
-150.618	800.000	0.033	-0.104
-149.604	-17.606	0.195	0.121
-148.589	-103.964	0.335	0.077
-147.574	-62.899	0.161	0.066
-146.560	-50.085	0.154	0.072
-145.545	-109.318	0.060	0.013
-144.531	641.688	-0.054	-0.136
-143.516	-143.657	0.203	-0.019
-142.502	800.000	0.053	0.177
-141.487	800.000	-0.040	0.150
-140.472	-200.000	-0.030	-0.224
-139.458	403.290	0.092	0.190
-138.443	4.991	0.027	0.020
-137.429	-132.934	0.192	0.024
-136.414	515.255	0.070	-0.161
-135.399	58.428	0.128	0.123
-134.385	-200.000	0.000	-0.178
-133.370	703.048	0.045	0.118
-132.356	-103.692	-0.240	0.055
-131.341	172.958	0.062	-0.087
-130.326	176.003	-0.075	-0.108
-129.312	50.067	-0.110	0.102
-128.297	132.043	-0.097	-0.124
-127.283	-200.000	0.010	0.084
-126.268	148.300	-0.145	0.193
-125.253	-71.670	-0.241	-0.089
-124.239	-200.000	0.034	-0.386
-123.224	-200.000	0.001	0.306
-122.210	231.381	0.042	-0.067
