DTS Sentinel unit serial number:	SN413079Multiplexer serial number:	ORYXHardware model number:	OX4-SRSoftware version number:	ORYX F/W v4.00 Oryx Data Collector v3.7.2.0data status	okinstallation	princeton_trtdifferential loss correction	single-endedforward channel	channel 4reverse channel	N/Adate	2019/09/17time	18:21:35forward acquisition time	60.00reverse acquisition time	0.00gamma	496.2192k internal	0.2278k external	0.2278temperature offset calibration	0.9980default loss term (dB/km)	0.3790temperature slope calibration	1.0000multiplexer offset coefficient	1.0000multiplexer slope coefficient	1.0000fibre end	0.00T internal ref (°C)	43.25T ext. ref 1 (°C)	0.31T ext. ref 2 (°C)	36.80length (m)	temperature (°C)	Stokes	anti-Stokes-747.200	800.000	-0.061	-0.239
-746.185	800.000	-0.047	0.147
-745.171	-200.000	0.002	-0.048
-744.156	232.731	-0.067	0.113
-743.142	-118.000	0.211	0.039
-742.127	72.020	0.071	0.076
-741.112	-20.382	0.127	-0.081
-740.098	797.102	0.128	0.363
-739.083	209.459	0.090	-0.146
-738.069	-200.000	0.020	0.130
-737.054	245.453	0.086	-0.149
-736.039	-82.683	-0.055	0.018
-735.025	-129.869	0.187	-0.026
-734.010	-119.418	-0.237	0.042
-732.996	-118.874	-0.284	-0.051
-731.981	-48.535	0.119	-0.059
-730.966	203.819	-0.128	0.205
-729.952	61.660	-0.083	-0.085
-728.937	39.429	-0.142	-0.131
-727.923	69.019	-0.287	-0.304
-726.908	-133.219	-0.351	0.046
-725.894	-146.856	-0.358	0.032
-724.879	-89.284	-0.055	-0.017
-723.864	329.498	-0.115	-0.227
-722.850	-95.603	0.171	-0.047
-721.835	-200.000	-0.002	-0.032
-720.821	-94.371	-0.029	0.008
-719.806	-166.997	-0.219	0.009
-718.791	-64.133	-0.025	0.011
-717.777	-61.515	0.225	-0.097
-716.762	-134.965	-0.143	-0.018
-715.748	-41.794	-0.129	-0.068
-714.733	-200.000	0.012	0.089
-713.718	-200.000	-0.025	-0.286
-712.704	800.000	-0.072	0.244
-711.689	121.848	-0.128	-0.164
-710.675	-200.000	-0.010	-0.085
-709.660	-95.723	-0.563	0.155
-708.645	27.576	0.156	-0.135
-707.631	-164.700	0.242	-0.011
-706.616	-3.930	-0.232	-0.166
-705.602	-118.632	-0.329	0.060
-704.587	136.056	0.191	-0.255
-703.572	56.117	-0.186	-0.186
-702.558	800.000	0.057	0.217
-701.543	-48.443	-0.292	-0.145
-700.529	232.564	-0.054	-0.092
-699.514	-200.000	0.000	0.023
-698.499	-61.333	-0.501	-0.217
-697.485	-157.631	-0.296	-0.018
-696.470	-88.260	-0.164	-0.051
-695.456	800.000	0.023	-0.099
-694.441	-200.000	0.012	0.085
-693.426	-109.957	0.251	0.054
-692.412	-174.665	0.108	-0.003
-691.397	20.898	0.167	-0.139
-690.383	800.000	-0.102	0.363
-689.368	-137.487	0.266	-0.031
-688.354	-92.773	-0.074	0.021
-687.339	-100.455	-0.317	-0.081
-686.324	94.795	0.122	-0.143
-685.310	-100.555	0.186	0.047
-684.295	114.847	-0.153	0.192
-683.281	-200.000	0.015	0.091
-682.266	125.381	-0.155	0.201
-681.251	30.740	0.086	0.075
-680.237	800.000	-0.071	-0.254
-679.222	-56.816	0.135	0.061
-678.208	-200.000	-0.023	0.169
-677.193	334.789	0.094	-0.188
-676.178	-65.912	-0.498	-0.205
-675.164	800.000	-0.080	0.334
-674.149	62.782	-0.185	-0.190
-673.135	-119.578	-0.099	0.018
-672.120	781.199	-0.044	0.124
-671.105	-200.000	0.008	-0.355
-670.091	-110.031	-0.084	0.018
-669.076	-130.043	0.137	-0.019
-668.062	-200.000	0.006	-0.043
-667.047	196.773	-0.102	0.160
-666.032	-200.000	-0.018	0.119
-665.018	89.637	-0.066	-0.076
-664.003	145.370	0.023	-0.031
-662.989	-28.077	0.179	0.106
-661.974	125.426	-0.031	0.040
-660.959	-19.256	-0.552	0.351
-659.945	281.674	0.170	-0.313
-658.930	-81.197	0.112	-0.038
-657.916	152.549	0.191	-0.267
-656.901	-200.000	-0.038	0.193
-655.886	-113.747	-0.075	0.015
-654.872	448.663	-0.168	0.379
-653.857	32.937	-0.240	0.214
-652.843	418.884	0.139	-0.306
-651.828	-99.123	-0.288	-0.075
-650.814	15.383	0.276	-0.222
-649.799	-200.000	0.068	-0.330
-648.784	-200.000	0.016	-0.082
-647.770	-70.989	-0.103	-0.040
-646.755	-200.000	0.010	-0.052
-645.741	-50.355	0.137	0.067
-644.726	-200.000	-0.032	-0.379
-643.711	-103.867	0.251	0.060
-642.697	97.303	0.074	-0.087
-641.682	197.603	0.180	-0.282
-640.668	55.120	-0.173	-0.171
-639.653	-26.121	0.033	0.020
-638.638	-200.000	0.037	-0.223
-637.624	-200.000	-0.030	0.180
-636.609	-200.000	-0.002	0.164
-635.595	-200.000	0.007	0.059
-634.580	-200.000	-0.026	-0.335
-633.565	800.000	0.047	-0.198
-632.551	-67.709	0.156	0.063
-631.536	-3.768	-0.227	0.161
-630.522	-55.939	-0.142	0.065
-629.507	51.057	-0.101	-0.098
-628.492	5.619	0.155	-0.117
-627.478	-200.000	0.069	0.344
-626.463	-200.000	-0.096	-0.512
-625.449	-71.417	0.222	0.085
-624.434	-27.745	0.335	-0.199
-623.419	-159.087	-0.153	0.009
-622.405	73.466	-0.146	-0.156
-621.390	21.745	0.125	0.104
-620.376	233.316	0.053	-0.089
-619.361	-200.000	0.006	-0.135
-618.346	-11.568	-0.149	0.100
-617.332	-75.376	-0.359	-0.131
-616.317	800.000	0.063	-0.198
-615.303	-169.527	-0.241	0.009
-614.288	800.000	-0.093	-0.357
-613.273	-70.928	-0.070	-0.027
-612.259	-200.000	-0.088	0.397
-611.244	-91.650	-0.159	0.046
-610.230	105.816	0.228	-0.276
-609.215	-113.184	0.100	0.020
-608.201	-81.806	0.167	0.056
-607.186	-123.963	0.196	-0.032
-606.171	800.000	0.119	-0.444
-605.157	-81.052	-0.378	-0.128
-604.142	-200.000	0.017	-0.229
-603.128	12.502	0.232	0.183
-602.113	111.758	-0.228	0.282
-601.098	-46.144	0.272	0.137
-600.084	-200.000	-0.043	-0.376
-599.069	401.003	0.071	0.153
-598.055	-200.000	0.009	-0.095
-597.040	-200.000	0.014	0.288
-596.025	-29.440	-0.197	0.115
-595.011	-200.000	-0.027	0.229
-593.996	-188.296	-0.386	-0.005
-592.982	645.045	-0.126	-0.330
-591.967	181.509	0.099	-0.148
-590.952	-162.532	-0.039	-0.002
-589.938	-200.000	-0.023	0.134
-588.923	13.167	0.259	0.205
-587.909	-34.285	0.124	-0.070
-586.894	-2.927	-0.076	0.054
-585.879	604.881	-0.067	-0.171
-584.865	-159.309	0.298	-0.017
-583.850	-200.000	-0.029	0.201
-582.836	-165.380	-0.191	0.009
-581.821	329.439	-0.044	0.087
-580.806	-28.599	0.176	-0.104
-579.792	-5.416	-0.322	-0.226
-578.777	-97.315	-0.278	0.074
-577.763	-56.610	0.166	0.075
-576.748	-49.355	-0.438	0.214
-575.733	-76.963	0.026	0.009
-574.719	-61.427	0.226	-0.097
-573.704	800.000	0.063	-0.205
-572.690	-88.753	-0.134	-0.041
-571.675	-200.000	0.028	-0.238
-570.661	-56.244	0.254	0.115
-569.646	-56.818	-0.179	-0.081
-568.631	167.641	0.102	-0.148
-567.617	-34.666	-0.021	-0.012
-566.602	-13.646	0.113	-0.075
-565.588	-44.188	0.325	-0.167
-564.573	-64.693	-0.169	-0.070
-563.558	-200.000	-0.008	-0.156
-562.544	98.705	0.334	0.394
-561.529	-200.000	0.044	-0.344
-560.515	249.070	0.040	0.070
-559.500	-126.536	0.040	-0.006
-558.485	800.000	0.068	0.230
-557.471	210.508	0.245	-0.393
-556.456	91.876	-0.143	0.164
-555.442	-200.000	-0.039	-0.196
-554.427	116.191	0.117	-0.147
-553.412	-200.000	0.032	0.183
-552.398	47.375	-0.389	-0.370
-551.383	-36.845	0.175	0.096
-550.369	222.106	0.171	-0.281
-549.354	-200.000	-0.025	0.246
-548.339	-200.000	-0.018	0.215
-547.325	500.017	-0.114	0.269
-546.310	-12.841	-0.257	0.171
-545.296	-81.266	-0.504	0.170
-544.281	-200.000	0.007	-0.162
-543.266	-88.091	-0.297	0.091
-542.252	-90.380	-0.171	-0.051
-541.237	-40.222	-0.171	0.091
-540.223	109.183	0.113	0.138
-539.208	-75.226	0.346	-0.126
-538.193	-65.481	-0.373	0.153
-537.179	-200.000	0.011	0.055
-536.164	-36.689	-0.076	-0.042
-535.150	-108.007	0.134	0.030
-534.135	-91.062	-0.012	-0.003
-533.121	120.101	-0.031	-0.039
-532.106	109.451	0.121	-0.148
-531.091	-13.644	0.220	-0.145
-530.077	800.000	0.027	0.099
-529.062	800.000	0.017	-0.069
-528.048	182.095	0.160	-0.241
-527.033	124.242	-0.072	0.093
-526.018	5.794	0.280	0.211
-525.004	-200.000	0.017	0.084
-523.989	-115.379	0.161	-0.031
-522.975	192.916	-0.123	0.190
-521.960	-7.606	-0.103	0.071
-520.945	14.060	-0.232	0.185
-519.931	800.000	0.037	-0.123
-518.916	-200.000	-0.049	0.473
-517.902	-73.093	0.431	0.161
-516.887	54.606	0.256	-0.252
-515.872	7.329	0.186	0.142
-514.858	36.348	0.019	0.017
-513.843	-125.151	0.160	0.025
-512.829	-112.942	-0.306	-0.062
-511.814	99.630	-0.201	-0.238
-510.799	181.360	-0.083	0.125
-509.785	-102.321	0.142	0.035
-508.770	199.837	0.190	-0.297
-507.756	-33.580	0.325	-0.183
-506.741	-155.607	-0.236	-0.016
-505.726	17.831	-0.181	0.147
-504.712	455.571	-0.114	0.257
-503.697	263.764	0.104	0.185
-502.683	372.403	0.126	-0.260
-501.668	-200.000	-0.036	-0.305
-500.653	214.800	0.173	0.279
-499.639	800.000	-0.018	-0.052
-498.624	-39.651	0.137	0.073
-497.610	-68.877	0.219	-0.086
-496.595	800.000	0.060	0.246
-495.581	-200.000	-0.084	0.505
-494.566	17.062	-0.156	-0.126
-493.551	52.356	-0.166	0.162
-492.537	488.472	0.034	0.079
-491.522	800.000	0.085	0.361
-490.508	-28.728	0.047	0.027
-489.493	-200.000	0.010	0.173
-488.478	-4.099	-0.191	-0.135
-487.464	-8.879	-0.191	0.131
-486.449	-123.396	-0.370	-0.060
-485.435	-59.927	-0.053	-0.023
-484.420	54.542	-0.061	-0.060
-483.405	9.653	-0.137	-0.106
-482.391	675.265	-0.093	-0.247
-481.376	-189.853	0.310	-0.004
-480.362	-200.000	0.003	-0.037
-479.347	-200.000	0.029	-0.157
-478.332	-94.546	0.088	-0.025
-477.318	-15.626	-0.101	0.066
-476.303	-148.647	0.089	-0.007
-475.289	419.807	0.052	-0.112
-474.274	102.195	0.253	-0.302
-473.259	-76.606	0.254	-0.091
-472.245	156.727	0.054	-0.076
-471.230	91.795	0.269	0.309
-470.216	70.458	0.146	-0.154
-469.201	596.837	0.149	-0.376
-468.186	0.882	0.135	0.099
-467.172	-31.664	-0.197	0.113
-466.157	800.000	0.080	0.229
-465.143	-200.000	-0.061	0.280
-464.128	800.000	0.064	0.219
-463.113	68.974	-0.303	-0.317
-462.099	-200.000	-0.021	-0.218
-461.084	-200.000	0.033	-0.227
-460.070	-171.987	-0.174	-0.006
-459.055	75.967	-0.096	-0.104
-458.040	663.916	0.067	0.177
-457.026	-200.000	-0.025	0.129
-456.011	567.887	-0.083	0.206
-454.997	800.000	-0.062	-0.191
-453.982	-106.810	0.157	-0.036
-452.968	-41.615	0.298	0.156
-451.953	169.027	0.272	-0.396
-450.938	122.700	0.075	0.095
-449.924	9.463	-0.369	0.285
-448.909	-70.484	0.383	-0.148
-447.895	215.202	-0.075	0.121
-446.880	189.813	-0.167	-0.255
-445.865	230.735	-0.122	0.203
-444.851	-189.803	-0.138	0.002
-443.836	-81.582	0.162	0.054
-442.822	-200.000	0.024	0.557
-441.807	157.775	0.107	0.150
-440.792	-137.037	0.229	-0.027
-439.778	5.429	-0.261	0.196
-438.763	212.698	0.106	0.171
-437.749	382.341	0.042	0.088
-436.734	-200.000	0.004	-0.380
-435.719	-155.655	-0.163	-0.011
-434.705	57.575	-0.192	0.191
-433.690	-200.000	-0.015	-0.207
-432.676	-200.000	-0.025	-0.307
-431.661	-40.753	-0.224	-0.118
-430.646	-21.860	-0.322	-0.199
-429.632	-114.406	-0.229	0.045
-428.617	800.000	-0.080	-0.239
-427.603	-59.742	-0.273	-0.119
-426.588	698.493	-0.113	-0.303
-425.573	14.561	0.073	0.058
-424.559	-200.000	0.008	0.086
-423.544	102.697	-0.072	0.086
-422.530	-139.697	-0.622	0.067
-421.515	800.000	-0.076	-0.268
-420.500	76.821	-0.158	0.171
-419.486	-44.257	0.298	0.152
-418.471	207.857	-0.178	0.282
-417.457	396.240	-0.072	0.152
-416.442	125.050	0.148	0.190
-415.428	-12.171	0.160	-0.106
-414.413	-200.000	-0.057	0.267
-413.398	-13.721	-0.468	-0.308
-412.384	-200.000	-0.082	-0.392
-411.369	-200.000	-0.008	0.151
-410.355	-66.873	0.166	0.067
-409.340	-200.000	-0.012	0.292
-408.325	-200.000	0.010	0.140
-407.311	97.893	-0.019	-0.022
-406.296	211.407	0.108	0.173
-405.282	90.107	0.106	0.120
-404.267	-108.918	-0.129	0.028
-403.252	13.367	-0.116	0.091
-402.238	-96.286	0.278	0.075
-401.223	-50.609	-0.089	-0.043
-400.209	-71.298	0.076	-0.029
-399.194	-73.009	-0.303	0.113
-398.179	800.000	0.085	0.256
-397.165	326.126	-0.136	0.265
-396.150	-200.000	-0.036	0.309
-395.136	-22.174	0.187	0.115
-394.121	46.653	0.157	0.148
-393.106	177.457	-0.085	-0.127
-392.092	-80.552	0.188	0.064
-391.077	-92.300	0.102	-0.029
-390.063	34.418	0.136	-0.120
-389.048	-87.293	-0.204	-0.063
-388.033	-114.079	-0.045	-0.009
-387.019	-24.518	0.156	-0.095
-386.004	-26.092	-0.167	-0.100
-384.990	-92.890	-0.246	0.070
-383.975	431.228	-0.078	0.172
-382.960	157.614	0.140	0.197
-381.946	-63.429	0.223	-0.093
-380.931	-131.244	-0.102	-0.014
-379.917	671.125	0.045	0.118
-378.902	-200.000	0.005	0.074
-377.888	72.212	-0.548	-0.580
-376.873	-200.000	-0.041	-0.205
-375.858	-81.617	-0.164	0.055
-374.844	310.605	0.087	0.165
-373.829	-134.921	0.253	0.031
-372.815	117.528	-0.115	-0.144
-371.800	-200.000	0.016	-0.145
-370.785	74.509	0.168	0.179
-369.771	-200.000	0.053	0.310
-368.756	87.876	-0.123	-0.139
-367.742	-168.888	0.226	-0.009
-366.727	800.000	-0.064	-0.267
-365.712	758.970	-0.074	0.202
-364.698	-77.806	0.189	-0.066
-363.683	-162.529	-0.137	-0.007
-362.669	-200.000	0.013	-0.200
-361.654	-22.610	0.023	-0.014
-360.639	60.233	-0.421	-0.423
-359.625	-200.000	0.013	-0.116
-358.610	-62.887	0.373	0.157
-357.596	-200.000	-0.068	-0.378
-356.581	-200.000	-0.015	-0.151
-355.566	-90.426	0.129	0.038
-354.552	288.627	0.150	0.276
-353.537	-82.895	0.312	0.102
-352.523	109.666	-0.072	-0.088
-351.508	494.460	-0.163	0.380
-350.493	-106.695	0.077	-0.017
-349.479	152.473	0.103	-0.142
-348.464	-131.490	0.161	-0.022
-347.450	25.254	-0.184	0.155
-346.435	-200.000	0.015	0.115
-345.420	-167.296	0.091	-0.004
-344.406	-200.000	0.022	0.287
-343.391	486.065	0.057	0.132
-342.377	-200.000	-0.025	0.121
-341.362	800.000	0.016	0.056
-340.348	-200.000	-0.003	-0.038
-339.333	-81.278	-0.193	-0.064
-338.318	731.145	-0.102	-0.275
-337.304	140.287	-0.100	-0.134
-336.289	-5.648	-0.244	-0.170
-335.275	-200.000	-0.007	-0.135
-334.260	-200.000	0.061	0.345
-333.245	-154.526	0.383	-0.026
-332.231	14.307	0.096	-0.076
-331.216	159.488	0.085	-0.120
-330.202	98.781	0.259	0.303
-329.187	-81.896	0.239	0.079
-328.172	800.000	0.030	0.096
-327.158	-200.000	0.013	-0.063
-326.143	-11.954	0.085	0.056
-325.129	302.047	0.089	-0.166
-324.114	672.639	-0.138	-0.362
-323.099	149.920	-0.090	-0.123
-322.085	-132.596	0.134	0.017
-321.070	-116.525	-0.345	-0.064
-320.056	-62.780	-0.369	-0.155
-319.041	372.188	0.172	-0.354
-318.026	800.000	0.024	0.091
-317.012	-40.122	0.231	-0.122
-315.997	27.418	0.259	0.221
-314.983	372.183	0.081	0.166
-313.968	547.616	-0.054	0.130
-312.953	-19.349	0.401	-0.252
-311.939	272.985	-0.135	-0.242
-310.924	796.651	0.138	-0.385
-309.910	-132.588	0.350	0.046
-308.895	52.387	-0.176	0.170
-307.880	-11.503	-0.056	0.037
-306.866	155.587	-0.132	0.184
-305.851	-200.000	-0.057	0.327
-304.837	82.210	-0.053	0.058
-303.822	-18.610	0.162	0.102
-302.807	237.628	-0.194	0.326
-301.793	-73.042	0.189	-0.070
-300.778	-200.000	-0.020	-0.199
-299.764	169.791	0.140	0.202
-298.749	-200.000	-0.045	0.351
-297.735	-128.685	-0.361	-0.052
-296.720	800.000	-0.074	0.230
-295.705	-130.125	-0.255	-0.035
-294.691	394.368	0.086	0.181
-293.676	-89.981	0.258	-0.076
-292.662	91.676	0.128	0.145
-291.647	-200.000	0.003	0.457
-290.632	61.938	-0.156	0.157
-289.618	-150.236	-0.103	0.008
-288.603	800.000	-0.100	0.303
-287.589	33.471	0.065	-0.057
-286.574	-50.008	0.358	-0.172
-285.559	726.556	0.121	0.326
-284.545	43.020	-0.152	0.140
-283.530	-6.607	0.421	0.290
-282.516	139.731	0.163	-0.217
-281.501	-87.804	0.112	0.034
-280.486	790.007	0.096	-0.267
-279.472	420.503	0.033	0.071
-278.457	-200.000	0.072	0.361
-277.443	-153.412	-0.252	0.018
-276.428	98.778	0.227	-0.264
-275.413	-200.000	0.003	-0.108
-274.399	-200.000	0.021	0.135
-273.384	-25.334	-0.133	0.079
-272.370	-200.000	-0.008	0.083
-271.355	800.000	-0.029	0.086
-270.340	-162.002	-0.306	-0.016
-269.326	-86.376	0.490	0.152
-268.311	147.011	-0.177	-0.240
-267.297	-4.230	0.295	-0.207
-266.282	75.266	0.144	-0.154
-265.267	15.909	-0.118	-0.094
-264.253	28.752	0.092	-0.079
-263.238	-42.393	0.224	-0.116
-262.224	-200.000	0.241	-0.001
-261.209	-136.988	-0.201	0.023
-260.195	-139.500	-0.295	-0.032
-259.180	-200.000	0.002	-0.179
-258.165	551.097	-0.047	-0.115
-257.151	-28.666	0.144	-0.084
-256.136	-74.823	0.181	0.066
-255.122	2.811	-0.197	0.144
-254.107	-134.851	-0.098	0.012
-253.092	-200.000	0.003	-0.093
-252.078	60.519	-0.228	0.228
-251.063	800.000	0.015	0.057
-250.049	58.036	-0.289	-0.286
-249.034	800.000	-0.050	-0.179
-248.019	173.760	0.179	-0.261
-247.005	-15.085	-0.112	-0.073
-245.990	42.715	-0.120	-0.110
-244.976	2.838	0.389	-0.285
-243.961	-71.803	-0.153	-0.058
-242.946	3.026	-0.029	0.021
-241.932	800.000	-0.057	-0.214
-240.917	-38.404	0.160	-0.086
-239.903	186.913	-0.209	-0.315
-238.888	777.370	-0.051	-0.141
-237.873	-92.514	-0.532	-0.151
-236.859	-200.000	0.014	0.164
-235.844	-46.953	0.124	0.061
-234.830	-55.962	-0.062	0.028
-233.815	-34.784	-0.136	0.075
-232.800	-0.834	0.354	0.253
-231.786	2.917	-0.055	-0.041
-230.771	270.421	0.083	0.147
-229.757	-200.000	0.005	-0.122
-228.742	800.000	-0.068	-0.248
-227.727	678.224	0.086	-0.227
-226.713	225.279	0.029	-0.048
-225.698	251.446	0.111	-0.191
-224.684	-29.837	0.239	0.137
-223.669	800.000	-0.110	-0.419
-222.655	-112.056	0.136	-0.028
-221.640	744.221	-0.090	-0.245
-220.625	-69.354	0.098	0.038
-219.611	-200.000	0.054	0.307
-218.596	-68.243	-0.088	0.034
-217.582	-123.491	0.121	0.019
-216.567	131.071	-0.174	0.226
-215.552	158.075	-0.139	0.195
-214.538	-3.969	0.099	0.069
-213.523	-43.130	0.105	0.053
-212.509	527.226	0.059	0.141
-211.494	164.780	-0.171	0.244
-210.479	-62.622	-0.113	-0.047
-209.465	-75.720	0.110	-0.039
-208.450	-46.354	0.277	0.137
-207.436	800.000	-0.023	-0.070
-206.421	333.794	-0.079	-0.153
-205.406	17.562	-0.176	0.141
-204.392	-166.348	0.123	0.005
-203.377	-143.006	0.305	0.030
-202.363	-156.971	-0.200	0.012
-201.348	-30.429	0.213	0.122
-200.333	193.272	-0.047	-0.072
-199.319	392.905	-0.044	0.092
-198.304	-200.000	-0.017	0.363
-197.290	-200.000	0.092	0.479
-196.275	157.266	-0.091	-0.127
-195.260	439.936	-0.065	0.143
-194.246	800.000	-0.086	-0.299
-193.231	71.127	0.222	-0.232
-192.217	300.480	-0.146	0.271
-191.202	752.778	-0.043	-0.118
-190.187	-200.000	0.187	0.000
-189.173	-39.787	0.290	-0.153
-188.158	-82.742	0.116	0.038
-187.144	-200.000	0.032	-0.277
-186.129	57.708	-0.209	0.206
-185.114	-42.230	-0.117	0.060
-184.100	-106.661	0.322	0.072
-183.085	75.124	-0.114	0.121
-182.071	-50.895	0.163	0.077
-181.056	-83.818	-0.265	0.085
-180.042	226.568	0.058	0.094
-179.027	800.000	-0.124	-0.409
-178.012	-200.000	0.001	-0.186
-176.998	-92.366	-0.319	0.090
-175.983	-200.000	-0.104	0.000
-174.969	-200.000	0.035	-0.223
-173.954	247.657	0.069	0.118
-172.939	-9.091	-0.138	0.093
-171.925	42.603	0.198	-0.181
-170.910	537.130	-0.029	-0.069
-169.896	-141.640	-0.238	-0.024
-168.881	800.000	-0.058	-0.205
-167.866	106.500	-0.152	0.182
-166.852	-103.394	-0.367	0.087
-165.837	-133.249	0.128	-0.016
-164.823	-200.000	-0.005	0.039
-163.808	410.508	-0.074	0.158
-162.793	433.202	0.024	0.052
-161.779	-58.749	-0.073	0.032
-160.764	-103.837	-0.185	-0.044
-159.750	-200.000	0.018	-0.204
-158.735	800.000	0.022	0.062
-157.720	-39.304	-0.329	0.174
-156.706	604.816	0.108	-0.270
-155.691	78.827	0.130	0.139
-154.677	-158.353	0.150	-0.009
-153.662	-200.000	-0.066	0.361
-152.647	-96.886	-0.108	0.029
-151.633	527.039	-0.103	0.244
-150.618	88.329	0.271	0.303
-149.604	800.000	-0.064	0.234
-148.589	-85.030	0.232	0.073
-147.574	800.000	0.051	-0.153
-146.560	-7.250	-0.265	-0.181
-145.545	318.839	0.088	-0.168
-144.531	626.649	-0.116	-0.296
-143.516	-74.054	-0.158	-0.058
-142.502	-115.290	0.354	-0.067
-141.487	86.955	-0.129	0.143
-140.472	-200.000	-0.028	0.178
-139.458	54.190	0.299	0.289
-138.443	-200.000	-0.011	0.232
-137.429	3.080	-0.297	-0.217
-136.414	-83.907	0.069	-0.022
-135.399	-13.174	0.186	-0.121
-134.385	800.000	0.062	-0.229
-133.370	94.492	-0.207	0.237
-132.356	1.911	-0.440	-0.319
-131.341	-49.008	0.262	0.126
-130.326	51.529	0.144	0.137
-129.312	-200.000	0.006	-0.230
-128.297	503.899	0.095	-0.220
-127.283	800.000	0.044	0.160
-126.268	-21.318	-0.135	0.083
-125.253	72.339	-0.085	0.090
-124.239	-76.927	-0.484	-0.170
-123.224	-200.000	0.009	0.133
-122.210	-192.579	0.178	-0.002
-121.195	-107.086	0.126	0.028
