DTS Sentinel unit serial number:	SN413079Multiplexer serial number:	ORYXHardware model number:	OX4-SRSoftware version number:	ORYX F/W v4.00 Oryx Data Collector v3.7.2.0data status	okinstallation	princeton_trtdifferential loss correction	single-endedforward channel	channel 4reverse channel	N/Adate	2019/09/14time	03:33:35forward acquisition time	60.00reverse acquisition time	0.00gamma	496.2192k internal	0.2322k external	0.2322temperature offset calibration	1.0132default loss term (dB/km)	0.3790temperature slope calibration	1.0000multiplexer offset coefficient	1.0000multiplexer slope coefficient	1.0000fibre end	0.00T internal ref (°C)	26.62T ext. ref 1 (°C)	3.30T ext. ref 2 (°C)	21.58length (m)	temperature (°C)	Stokes	anti-Stokes-747.200	-86.136	0.070	-0.022
-746.185	800.000	-0.031	-0.104
-745.171	503.542	0.217	0.508
-744.156	2.420	-0.235	0.172
-743.142	77.387	-0.106	0.114
-742.127	-200.000	0.026	0.328
-741.112	0.278	0.179	-0.129
-740.098	-96.342	-0.165	0.044
-739.083	104.247	0.122	0.145
-738.069	-21.791	-0.294	-0.181
-737.054	87.345	0.134	0.150
-736.039	395.914	0.184	-0.387
-735.025	800.000	0.027	-0.088
-734.010	-69.122	-0.196	-0.076
-732.996	4.740	-0.148	-0.110
-731.981	92.859	0.083	0.095
-730.966	800.000	-0.075	-0.304
-729.952	-5.183	-0.461	-0.320
-728.937	-99.132	-0.213	0.054
-727.923	-137.468	-0.208	-0.024
-726.908	-1.505	-0.217	-0.155
-725.894	800.000	-0.016	0.053
-724.879	-88.459	-0.147	-0.044
-723.864	28.519	0.252	-0.215
-722.850	-46.307	0.245	0.121
-721.835	53.329	0.216	0.209
-720.821	291.089	-0.034	0.062
-719.806	232.492	0.077	0.128
-718.791	157.601	-0.037	-0.051
-717.777	-132.670	-0.136	0.018
-716.762	361.517	0.129	-0.260
-715.748	77.752	-0.217	-0.234
-714.733	52.965	0.180	0.173
-713.718	15.945	-0.138	-0.109
-712.704	-154.840	0.243	0.016
-711.689	231.255	-0.093	-0.153
-710.675	-143.273	-0.255	0.025
-709.660	349.191	-0.215	-0.428
-708.645	-65.566	-0.150	-0.061
-707.631	102.164	-0.028	0.033
-706.616	-200.000	0.011	-0.326
-705.602	-200.000	0.007	-0.256
-704.587	-200.000	-0.024	0.122
-703.572	2.634	-0.288	0.211
-702.558	651.355	0.096	-0.248
-701.543	800.000	0.043	-0.123
-700.529	-87.242	0.319	-0.098
-699.514	-1.933	-0.109	0.077
-698.499	769.988	-0.170	-0.466
-697.485	123.749	0.092	-0.117
-696.470	-200.000	-0.011	-0.292
-695.456	33.793	0.298	0.261
-694.441	99.216	-0.162	0.188
-693.426	129.650	-0.079	0.102
-692.412	-73.971	0.181	0.066
-691.397	-57.639	0.201	-0.089
-690.383	27.336	0.165	-0.139
-689.368	-200.000	0.021	0.267
-688.354	-17.747	-0.159	-0.101
-687.339	-34.585	0.201	0.111
-686.324	38.149	0.142	0.128
-685.310	-200.000	-0.046	-0.226
-684.295	12.435	0.307	-0.239
-683.281	-36.987	-0.143	0.077
-682.266	-89.874	-0.141	0.042
-681.251	-70.054	-0.170	0.065
-680.237	-200.000	0.012	-0.268
-679.222	-164.852	0.371	-0.017
-678.208	290.650	0.132	-0.241
-677.193	150.382	-0.044	-0.060
-676.178	-191.081	-0.292	-0.003
-675.164	93.153	-0.300	-0.342
-674.149	-52.202	0.148	0.069
-673.135	-102.140	0.172	0.042
-672.120	-100.963	0.187	0.046
-671.105	800.000	-0.044	-0.167
-670.091	-110.154	-0.121	-0.025
-669.076	-2.732	-0.148	0.104
-668.062	181.847	-0.352	-0.523
-667.047	800.000	-0.049	0.202
-666.032	-19.831	0.206	0.128
-665.018	-33.167	-0.167	-0.093
-664.003	-55.503	0.342	0.155
-662.989	-162.785	0.516	-0.025
-661.974	-176.252	-0.138	0.004
-660.959	-1.974	0.266	-0.188
-659.945	165.410	-0.128	0.182
-658.930	-200.000	-0.027	-0.270
-657.916	95.064	-0.271	0.310
-656.901	-84.861	-0.056	-0.018
-655.886	-175.359	0.282	-0.008
-654.872	-101.335	-0.156	-0.038
-653.857	800.000	0.029	-0.111
-652.843	-91.783	-0.402	-0.115
-651.828	80.773	0.169	-0.183
-650.814	422.952	-0.055	0.118
-649.799	448.671	0.060	0.133
-648.784	195.065	0.063	-0.096
-647.770	450.596	0.002	0.005
-646.755	-106.919	-0.093	-0.021
-645.741	-67.127	0.191	-0.076
-644.726	93.449	0.074	0.085
-643.711	380.634	-0.070	0.145
-642.697	61.078	-0.483	-0.482
-641.682	-200.000	-0.003	-0.127
-640.668	215.502	-0.067	0.107
-639.653	-200.000	0.066	-0.365
-638.638	-47.280	0.251	-0.123
-637.624	67.579	0.142	-0.146
-636.609	-200.000	0.010	-0.099
-635.595	482.894	0.092	0.210
-634.580	366.612	-0.115	0.233
-633.565	-200.000	-0.002	-0.457
-632.551	-200.000	-0.008	-0.223
-631.536	800.000	-0.123	0.473
-630.522	-200.000	0.007	0.217
-629.507	596.732	0.184	-0.457
-628.492	421.850	-0.243	-0.524
-627.478	-200.000	0.014	0.350
-626.463	153.045	0.080	-0.110
-625.449	183.175	-0.116	-0.172
-624.434	-9.354	-0.272	-0.183
-623.419	800.000	0.048	-0.143
-622.405	451.910	0.111	-0.246
-621.390	-112.474	-0.138	-0.028
-620.376	-170.750	0.029	0.001
-619.361	-65.562	0.031	-0.012
-618.346	-76.695	-0.201	0.071
-617.332	-25.718	0.077	-0.046
-616.317	145.456	-0.098	-0.132
-615.303	-200.000	-0.067	-0.389
-614.288	-138.451	-0.131	0.015
-613.273	358.260	-0.074	-0.149
-612.259	-200.000	0.011	-0.139
-611.244	-108.426	0.102	0.022
-610.230	-68.851	-0.163	-0.063
-609.215	-200.000	-0.026	0.294
-608.201	-200.000	0.042	0.218
-607.186	-200.000	-0.000	-0.173
-606.171	-153.756	0.177	-0.012
-605.157	-200.000	0.007	0.281
-604.142	-177.983	0.117	0.003
-603.128	70.872	-0.115	-0.120
-602.113	22.364	-0.214	-0.176
-601.098	14.532	-0.147	-0.116
-600.084	53.894	0.160	0.154
-599.069	-13.513	-0.569	-0.371
-598.055	164.505	-0.143	-0.203
-597.040	-200.000	-0.039	-0.265
-596.025	-53.014	0.173	0.080
-595.011	-200.000	0.029	0.450
-593.996	-94.448	-0.205	0.056
-592.982	-7.383	-0.097	-0.066
-591.967	71.832	-0.158	-0.165
-590.952	800.000	0.106	0.344
-589.938	-110.529	-0.423	-0.088
-588.923	715.609	-0.037	-0.098
-587.909	-200.000	0.016	-0.219
-586.894	102.747	-0.165	-0.193
-585.879	-200.000	0.011	-0.094
-584.865	-35.040	-0.128	0.070
-583.850	614.717	0.090	0.226
-582.836	-200.000	0.420	-0.001
-581.821	800.000	-0.067	0.246
-580.806	542.767	0.146	0.349
-579.792	-6.823	-0.238	-0.162
-578.777	-55.869	0.190	-0.085
-577.763	55.453	-0.275	-0.268
-576.748	-200.000	0.005	-0.057
-575.733	476.285	0.118	0.268
-574.719	800.000	-0.055	0.194
-573.704	44.257	-0.067	-0.062
-572.690	-169.521	0.350	0.013
-571.675	-84.650	-0.197	0.062
-570.661	162.621	0.087	0.122
-569.646	40.688	0.070	-0.063
-568.631	99.238	0.148	-0.171
-567.617	-200.000	-0.012	0.235
-566.602	-108.076	-0.475	-0.103
-565.588	-147.609	0.156	0.013
-564.573	800.000	0.069	-0.213
-563.558	159.189	-0.089	-0.124
-562.544	66.534	0.144	-0.147
-561.529	-94.703	0.077	-0.021
-560.515	-79.300	-0.374	0.127
-559.500	-26.887	-0.220	-0.129
-558.485	163.110	-0.189	-0.266
-557.471	-200.000	-0.043	-0.205
-556.456	-200.000	-0.113	0.000
-555.442	-30.950	-0.227	-0.129
-554.427	21.693	-0.047	0.039
-553.412	-66.620	0.025	0.010
-552.398	-54.621	-0.446	-0.202
-551.383	158.438	-0.257	0.358
-550.369	741.627	0.108	0.291
-549.354	-73.526	0.312	0.114
-548.339	-73.444	-0.070	-0.026
-547.325	18.713	0.083	0.066
-546.310	-80.416	-0.136	-0.046
-545.296	3.413	-0.169	0.123
-544.281	800.000	0.040	0.141
-543.266	-99.926	0.240	-0.060
-542.252	583.620	0.062	0.153
-541.237	97.167	0.168	-0.193
-540.223	129.845	-0.237	-0.304
-539.208	579.342	0.113	-0.277
-538.193	-42.616	-0.208	0.106
-537.179	-125.820	-0.156	-0.024
-536.164	263.383	0.159	-0.277
-535.150	59.245	-0.136	0.135
-534.135	800.000	-0.071	-0.286
-533.121	-200.000	0.039	0.302
-532.106	423.026	0.082	-0.176
-531.091	-200.000	-0.020	-0.156
-530.077	332.718	0.123	-0.238
-529.062	167.271	0.067	0.095
-528.048	-200.000	-0.001	-0.200
-527.033	-200.000	-0.006	-0.146
-526.018	42.180	-0.152	0.139
-525.004	-116.721	-0.101	0.019
-523.989	196.418	-0.023	0.035
-522.975	-69.120	-0.417	0.161
-521.960	663.567	-0.069	0.178
-520.945	800.000	0.203	0.686
-519.931	302.893	-0.233	-0.431
-518.916	660.170	0.039	0.100
-517.902	700.671	0.135	-0.355
-516.887	254.345	0.063	0.108
-515.872	559.356	0.120	0.290
-514.858	-135.715	0.292	0.035
-513.843	-200.000	-0.017	-0.683
-512.829	-154.978	0.045	0.003
-511.814	489.090	-0.133	-0.305
-510.799	-141.451	0.139	-0.014
-509.785	-58.145	-0.333	0.145
-508.770	-142.933	0.277	-0.027
-507.756	182.860	0.185	-0.273
-506.741	18.543	-0.090	-0.072
-505.726	20.694	-0.186	-0.150
-504.712	-91.169	0.245	0.070
-503.697	-200.000	-0.044	0.332
-502.683	-119.271	-0.319	0.056
-501.668	-200.000	-0.009	0.208
-500.653	-147.632	0.166	-0.014
-499.639	-69.454	0.094	0.036
-498.624	-113.694	-0.037	-0.007
-497.610	-73.333	0.381	0.139
-496.595	119.451	-0.043	-0.053
-495.581	-47.004	0.345	-0.168
-494.566	243.656	-0.176	0.295
-493.551	-74.769	0.080	0.029
-492.537	142.194	-0.286	0.379
-491.522	3.144	0.270	0.196
-490.508	-200.000	-0.070	0.311
-489.493	119.511	0.145	-0.180
-488.478	-200.000	-0.038	-0.399
-487.464	-200.000	-0.012	-0.342
-486.449	-77.944	-0.296	-0.102
-485.435	-115.200	-0.463	0.088
-484.420	-60.080	0.112	-0.048
-483.405	10.576	-0.244	-0.186
-482.391	355.556	0.152	-0.303
-481.376	-47.816	0.124	-0.060
-480.362	-121.892	0.393	-0.065
-479.347	-49.035	-0.477	0.228
-478.332	-62.767	0.295	0.122
-477.318	42.240	-0.245	-0.223
-476.303	800.000	0.061	-0.203
-475.289	24.851	-0.342	0.284
-474.274	-3.464	0.050	0.035
-473.259	188.604	0.069	-0.103
-472.245	-200.000	0.044	0.321
-471.230	375.437	-0.139	-0.282
-470.216	278.105	0.121	0.216
-469.201	-14.168	0.260	0.168
-468.186	39.955	-0.230	-0.207
-467.172	-27.284	0.369	0.215
-466.157	-43.493	0.340	0.171
-465.143	-59.687	-0.220	-0.094
-464.128	-139.576	0.265	0.028
-463.113	-18.807	-0.306	0.191
-462.099	234.505	-0.091	-0.149
-461.084	-72.468	0.272	0.100
-460.070	800.000	0.042	0.141
-459.055	173.654	0.066	0.094
-458.040	613.978	-0.115	-0.289
-457.026	-200.000	-0.018	-0.110
-456.011	-163.443	0.052	0.002
-454.997	-52.016	0.246	-0.114
-453.982	800.000	0.029	-0.104
-452.968	32.207	-0.230	0.198
-451.953	800.000	-0.065	-0.252
-450.938	110.790	0.118	-0.142
-449.924	89.747	-0.160	0.178
-448.909	800.000	-0.115	0.341
-447.895	-121.932	0.343	0.056
-446.880	-20.451	-0.099	0.061
-445.865	-106.890	-0.241	-0.053
-444.851	469.162	-0.091	-0.204
-443.836	-200.000	-0.050	0.265
-442.822	135.872	-0.079	0.103
-441.807	13.642	0.193	-0.149
-440.792	440.236	-0.079	-0.173
-439.778	800.000	0.067	-0.248
-438.763	421.871	0.025	0.054
-437.749	78.038	0.118	0.126
-436.734	-88.548	0.236	-0.070
-435.719	-104.829	0.215	-0.049
-434.705	-132.624	-0.028	0.004
-433.690	136.591	0.201	0.262
-432.676	800.000	-0.033	0.094
-431.661	-11.050	-0.014	-0.009
-430.646	-59.128	-0.150	-0.065
-429.632	190.789	0.238	-0.357
-428.617	296.771	0.111	-0.203
-427.603	-2.633	0.195	-0.136
-426.588	24.201	-0.239	0.197
-425.573	299.595	-0.114	-0.210
-424.559	592.156	0.091	-0.225
-423.544	-200.000	0.015	-0.116
-422.530	-115.846	0.124	-0.023
-421.515	-90.810	-0.185	-0.053
-420.500	135.528	0.144	-0.187
-419.486	82.946	-0.050	0.055
-418.471	-24.010	0.266	-0.159
-417.457	-55.812	0.124	-0.055
-416.442	800.000	0.135	-0.387
-415.428	103.474	0.030	-0.035
-414.413	-79.456	0.071	-0.024
-413.398	-145.075	0.261	0.024
-412.384	-27.400	-0.194	0.113
-411.369	800.000	0.118	0.491
-410.355	-67.423	-0.569	0.223
-409.340	-88.530	0.435	0.129
-408.325	-8.108	-0.247	0.166
-407.311	-30.347	-0.149	0.084
-406.296	460.670	0.105	-0.232
-405.282	57.855	-0.157	-0.153
-404.267	800.000	0.070	0.304
-403.252	-200.000	-0.032	0.148
-402.238	-83.150	0.123	-0.039
-401.223	-119.002	-0.102	-0.018
-400.209	170.862	0.110	0.158
-399.194	-158.261	-0.385	0.022
-398.179	546.814	-0.047	0.112
-397.165	39.748	-0.278	0.249
-396.150	-36.494	0.327	-0.175
-395.136	2.395	-0.174	-0.126
-394.121	-50.804	0.430	0.202
-393.106	207.777	-0.089	-0.139
-392.092	-200.000	0.032	-0.228
-391.077	374.398	-0.056	0.113
-390.063	-163.168	0.169	-0.008
-389.048	-52.006	-0.331	0.153
-388.033	800.000	-0.044	-0.123
-387.019	0.898	0.083	-0.059
-386.004	728.743	0.030	-0.080
-384.990	81.277	0.131	0.141
-383.975	-58.811	0.335	0.144
-382.960	-200.000	0.001	-0.135
-381.946	800.000	-0.064	-0.219
-380.931	358.096	-0.075	-0.148
-379.917	-95.505	-0.404	-0.108
-378.902	800.000	0.078	0.224
-377.888	-200.000	0.085	-0.371
-376.873	28.275	-0.392	0.330
-375.858	630.151	-0.168	0.424
-374.844	7.845	-0.116	0.086
-373.829	16.382	0.105	0.083
-372.815	-200.000	-0.010	-0.149
-371.800	-35.437	0.059	0.032
-370.785	60.823	-0.178	0.176
-369.771	504.049	0.213	0.490
-368.756	392.531	0.042	-0.087
-367.742	-66.591	0.250	-0.099
-366.727	16.470	0.316	0.248
-365.712	118.784	-0.333	0.410
-364.698	628.105	0.011	0.028
-363.683	-144.209	0.334	-0.031
-362.669	122.555	-0.182	0.227
-361.654	800.000	0.080	0.299
-360.639	800.000	0.047	-0.148
-359.625	641.101	-0.055	-0.138
-358.610	567.672	-0.033	0.080
-357.596	-52.260	-0.103	-0.048
-356.581	-200.000	-0.013	-0.151
-355.566	246.420	0.160	-0.269
-354.552	-200.000	-0.013	-0.227
-353.537	118.627	-0.045	0.055
-352.523	-54.614	0.142	-0.064
-351.508	-200.000	0.032	0.208
-350.493	-200.000	-0.020	-0.191
-349.479	-111.534	0.164	-0.033
-348.464	34.224	0.207	-0.180
-347.450	132.644	0.146	-0.187
-346.435	-200.000	0.002	0.131
-345.420	2.174	0.111	0.080
-344.406	-200.000	-0.008	-0.064
-343.391	-173.919	0.467	0.014
-342.377	-56.638	0.239	0.105
-341.362	-200.000	0.047	0.317
-340.348	259.787	0.074	-0.127
-339.333	-105.248	-0.345	-0.078
-338.318	-200.000	-0.011	-0.242
-337.304	134.893	0.120	0.155
-336.289	110.547	-0.090	-0.108
-335.275	-200.000	-0.039	0.228
-334.260	800.000	-0.034	-0.144
-333.245	-200.000	-0.041	0.283
-332.231	-82.880	0.146	-0.047
-331.216	138.079	0.109	0.142
-330.202	-126.401	-0.130	-0.019
-329.187	-200.000	-0.045	0.361
-328.172	-90.857	-0.167	0.048
-327.158	138.785	0.123	-0.161
-326.143	-67.851	0.269	0.105
-325.129	-103.855	0.259	-0.060
-324.114	-96.489	0.212	-0.056
-323.099	291.239	-0.176	-0.318
-322.085	235.301	0.094	0.155
-321.070	-42.292	0.127	0.064
-320.056	251.208	-0.105	-0.177
-319.041	250.808	-0.146	0.246
-318.026	310.583	-0.072	0.135
-317.012	69.366	-0.187	0.191
-315.997	9.220	0.195	-0.147
-314.983	-200.000	0.004	0.234
-313.968	14.169	0.084	-0.065
-312.953	235.689	0.099	0.162
-311.939	-155.954	-0.156	-0.010
-310.924	-200.000	-0.089	-0.434
-309.910	-34.504	0.223	0.121
-308.895	800.000	0.043	0.121
-307.880	-200.000	-0.002	0.042
-306.866	451.201	0.052	-0.113
-305.851	274.392	-0.194	0.342
-304.837	290.109	0.236	-0.425
-303.822	793.077	0.044	-0.121
-302.807	175.643	0.039	-0.056
-301.793	800.000	0.085	0.346
-300.778	-6.095	-0.221	0.150
-299.764	-200.000	-0.016	-0.298
-298.749	-200.000	-0.030	0.300
-297.735	-200.000	-0.068	0.379
-296.720	536.470	-0.064	0.151
-295.705	-0.707	0.294	-0.207
-294.691	-83.129	-0.237	0.076
-293.676	35.292	-0.088	-0.077
-292.662	195.754	0.176	-0.266
-291.647	800.000	0.069	0.280
-290.632	-200.000	-0.004	0.139
-289.618	249.219	0.157	0.264
-288.603	-200.000	-0.114	0.514
-287.589	-13.414	-0.143	-0.092
-286.574	-200.000	0.018	-0.097
-285.559	800.000	0.008	0.033
-284.545	-34.622	-0.279	-0.152
-283.530	0.657	0.273	0.194
-282.516	-200.000	0.059	-0.281
-281.501	-102.802	0.109	0.026
-280.486	-73.474	-0.143	0.052
-279.472	-53.207	0.207	-0.094
-278.457	98.426	0.014	-0.016
-277.443	-200.000	0.008	0.092
-276.428	392.814	0.034	0.069
-275.413	57.086	0.060	0.058
-274.399	-117.107	-0.201	-0.036
-273.384	-100.446	-0.164	-0.040
-272.370	275.446	-0.198	-0.348
-271.355	800.000	-0.070	0.233
-270.340	-84.168	-0.351	-0.111
-269.326	69.499	0.140	-0.143
-268.311	-146.253	0.210	0.018
-267.297	146.186	-0.220	0.293
-266.282	-200.000	0.014	0.175
-265.267	32.657	0.351	-0.301
-264.253	-152.321	0.254	0.018
-263.238	111.970	0.211	-0.252
-262.224	-41.187	-0.059	-0.030
-261.209	800.000	-0.090	-0.350
-260.195	229.958	0.036	-0.058
-259.180	-13.984	0.201	-0.129
-258.165	320.080	-0.062	-0.117
-257.151	-128.507	-0.225	0.032
-256.136	168.643	-0.298	0.421
-255.122	53.104	-0.348	-0.331
-254.107	5.417	-0.278	0.203
-253.092	202.868	0.209	0.320
-252.078	-98.554	-0.068	0.017
-251.063	529.569	0.195	0.457
-250.049	800.000	-0.037	0.124
-249.034	19.148	0.068	0.054
-248.019	-200.000	-0.003	0.103
-247.005	-80.194	0.269	-0.089
-245.990	-200.000	-0.005	-0.168
-244.976	-70.228	0.403	0.152
-243.961	-200.000	-0.052	0.365
-242.946	-200.000	0.040	-0.270
-241.932	13.936	0.381	0.293
-240.917	-200.000	-0.064	-0.401
-239.903	800.000	0.057	0.169
-238.888	30.617	-0.204	-0.173
-237.873	-200.000	0.048	-0.304
-236.859	-97.764	0.407	0.104
-235.844	-200.000	-0.031	-0.182
-234.830	-200.000	-0.009	0.169
-233.815	5.931	0.351	0.257
-232.800	237.589	-0.168	-0.276
-231.786	-200.000	0.018	0.147
-230.771	-200.000	0.015	-0.119
-229.757	191.783	0.156	-0.233
-228.742	800.000	-0.072	0.198
-227.727	-98.919	-0.058	-0.014
-226.713	194.999	-0.060	-0.090
-225.698	191.998	-0.176	0.263
-224.684	83.361	0.166	-0.179
-223.669	595.794	-0.082	0.202
-222.655	-6.770	-0.211	-0.142
-221.640	-79.021	-0.461	-0.155
-220.625	385.285	0.217	0.443
-219.611	-4.449	-0.115	-0.079
-218.596	-120.910	-0.274	-0.046
-217.582	30.960	0.017	0.015
-216.567	-75.835	-0.030	-0.011
-215.552	-122.715	-0.344	0.055
-214.538	6.174	0.310	0.227
-213.523	-5.742	0.040	0.027
-212.509	126.036	0.129	-0.161
-211.494	-140.862	0.123	-0.013
-210.479	-200.000	0.034	0.302
-209.465	37.120	-0.136	0.119
-208.450	156.773	-0.148	-0.202
-207.436	800.000	0.054	0.186
-206.421	141.652	-0.148	-0.194
-205.406	173.411	-0.173	-0.247
-204.392	64.020	0.096	0.095
-203.377	61.686	0.084	0.082
-202.363	-44.482	-0.409	0.202
-201.348	22.809	0.171	-0.139
-200.333	93.117	-0.231	-0.258
-199.319	-21.186	0.415	-0.251
-198.304	-135.479	-0.429	0.051
-197.290	-200.000	-0.009	0.428
-196.275	461.564	-0.138	-0.304
-195.260	60.830	-0.165	-0.161
-194.246	800.000	0.122	0.419
-193.231	-200.000	-0.023	-0.230
-192.217	258.221	-0.218	-0.371
-191.202	800.000	0.009	-0.028
-190.187	-81.704	0.334	-0.108
-189.173	45.288	0.169	0.154
-188.158	445.920	-0.099	-0.215
-187.144	-130.916	0.339	-0.045
-186.129	800.000	0.094	0.310
-185.114	-118.810	0.145	0.025
-184.100	84.276	0.170	0.184
-183.085	14.233	0.110	0.085
-182.071	-87.543	-0.180	0.054
-181.056	800.000	0.135	0.397
-180.042	189.230	-0.148	-0.219
-179.027	800.000	0.042	0.161
-178.012	800.000	-0.018	-0.062
-176.998	-98.157	0.197	0.050
-175.983	800.000	0.093	0.298
-174.969	-200.000	-0.055	0.515
-173.954	800.000	0.102	0.317
-172.939	47.235	-0.286	-0.263
-171.925	13.992	-0.201	-0.155
-170.910	-54.202	0.226	0.102
-169.896	240.440	-0.141	-0.232
-168.881	-67.433	0.135	0.052
-167.866	286.665	0.208	0.371
-166.852	-57.036	0.102	0.044
-165.837	-117.975	0.121	0.021
-164.823	-103.281	-0.033	0.008
-163.808	-14.961	-0.125	-0.079
-162.793	38.192	-0.181	-0.159
-161.779	36.464	-0.203	0.177
-160.764	53.331	-0.090	0.085
-159.750	800.000	0.063	0.269
-158.735	306.099	0.263	-0.483
-157.720	-23.108	-0.272	0.162
-156.706	701.362	-0.111	0.289
-155.691	800.000	0.057	-0.217
-154.677	-109.304	0.435	-0.091
-153.662	71.050	-0.069	0.071
-152.647	-65.862	-0.272	-0.107
-151.633	-54.266	0.236	-0.106
-150.618	800.000	-0.040	0.127
-149.604	-33.456	0.149	0.081
-148.589	-64.190	0.130	-0.052
-147.574	140.630	-0.119	-0.155
-146.560	-45.106	-0.147	0.072
-145.545	-200.000	0.006	0.159
-144.531	362.941	-0.062	0.123
-143.516	93.029	-0.055	0.061
-142.502	-161.058	0.193	0.010
-141.487	18.592	-0.228	-0.180
-140.472	-200.000	-0.033	-0.196
-139.458	-200.000	-0.020	-0.305
-138.443	-145.674	0.083	-0.007
-137.429	178.777	-0.133	0.192
-136.414	-200.000	-0.039	-0.284
-135.399	-167.996	-0.218	0.008
-134.385	800.000	-0.065	0.225
-133.370	9.107	0.145	0.108
-132.356	-200.000	-0.011	0.168
-131.341	-127.905	0.051	0.007
-130.326	99.542	0.270	-0.308
-129.312	329.208	-0.105	-0.200
-128.297	-136.066	0.268	-0.031
-127.283	800.000	-0.101	-0.336
-126.268	341.358	0.058	0.113
-125.253	-200.000	0.002	-0.114
-124.239	-200.000	0.018	-0.079
-123.224	359.230	-0.050	-0.099
-122.210	-200.000	-0.045	0.197
-121.195	95.149	0.176	0.197
-120.180	170.436	0.096	-0.135
