DTS Sentinel unit serial number:	SN413079Multiplexer serial number:	ORYXHardware model number:	OX4-SRSoftware version number:	ORYX F/W v4.00 Oryx Data Collector v3.7.2.0data status	okinstallation	princeton_trtdifferential loss correction	single-endedforward channel	channel 4reverse channel	N/Adate	2019/09/14time	18:37:35forward acquisition time	60.00reverse acquisition time	0.00gamma	496.2192k internal	0.2300k external	0.2300temperature offset calibration	1.0107default loss term (dB/km)	0.3790temperature slope calibration	1.0000multiplexer offset coefficient	1.0000multiplexer slope coefficient	1.0000fibre end	0.00T internal ref (°C)	36.37T ext. ref 1 (°C)	4.92T ext. ref 2 (°C)	30.09length (m)	temperature (°C)	Stokes	anti-Stokes-747.200	800.000	0.078	-0.280
-746.185	278.668	0.251	0.456
-745.171	47.574	0.226	-0.215
-744.156	282.410	-0.171	0.313
-743.142	-13.880	-0.262	0.173
-742.127	618.557	-0.150	0.384
-741.112	-56.032	-0.212	-0.096
-740.098	-83.644	0.415	0.135
-739.083	87.565	0.309	-0.349
-738.069	309.561	0.034	0.065
-737.054	74.313	0.125	-0.134
-736.039	311.404	-0.038	0.073
-735.025	-200.000	0.045	-0.222
-734.010	800.000	-0.108	-0.416
-732.996	-110.754	0.230	-0.048
-731.981	6.048	-0.154	0.116
-730.966	5.955	-0.081	-0.061
-729.952	-200.000	0.028	-0.131
-728.937	-105.792	-0.107	0.025
-727.923	-200.000	-0.024	-0.182
-726.908	136.776	-0.179	-0.238
-725.894	22.290	0.310	0.259
-724.879	-200.000	-0.168	-0.001
-723.864	-154.489	0.312	0.021
-722.850	156.872	-0.152	0.214
-721.835	-84.314	-0.336	0.108
-720.821	718.558	0.045	0.121
-719.806	-200.000	0.059	-0.293
-718.791	-103.219	-0.217	0.052
-717.777	5.411	-0.124	0.093
-716.762	-200.000	-0.001	-0.275
-715.748	706.929	0.040	-0.108
-714.733	-132.586	0.160	0.021
-713.718	-134.558	-0.149	0.018
-712.704	-30.121	-0.230	0.133
-711.689	14.473	-0.299	-0.238
-710.675	-79.213	0.238	-0.082
-709.660	72.136	0.189	0.200
-708.645	36.652	-0.006	-0.006
-707.631	800.000	-0.075	0.249
-706.616	180.534	0.143	-0.213
-705.602	658.183	-0.071	0.187
-704.587	-4.833	-0.235	0.165
-703.572	-59.541	-0.061	-0.027
-702.558	63.424	-0.130	0.132
-701.543	-200.000	-0.051	-0.238
-700.529	-132.544	-0.517	-0.068
-699.514	-22.006	0.086	0.053
-698.499	339.647	-0.097	-0.193
-697.485	800.000	-0.074	-0.242
-696.470	35.471	0.081	-0.072
-695.456	218.090	0.099	0.161
-694.441	-100.440	-0.056	0.014
-693.426	569.754	0.072	-0.179
-692.412	800.000	0.026	0.086
-691.397	0.924	-0.257	-0.187
-690.383	91.538	-0.182	-0.208
-689.368	118.937	0.143	0.179
-688.354	-73.357	0.042	0.015
-687.339	-22.423	0.218	-0.134
-686.324	-56.698	-0.281	-0.127
-685.310	57.976	0.127	-0.127
-684.295	-200.000	0.025	-0.127
-683.281	123.833	-0.122	-0.156
-682.266	800.000	0.054	-0.216
-681.251	-200.000	0.008	-0.318
-680.237	3.142	-0.297	0.220
-679.222	800.000	-0.047	-0.196
-678.208	800.000	-0.042	0.170
-677.193	-200.000	-0.007	0.126
-676.178	-35.531	0.240	0.133
-675.164	394.189	-0.067	-0.143
-674.149	-109.754	0.072	0.015
-673.135	-97.800	-0.329	-0.087
-672.120	42.180	0.200	0.185
-671.105	-13.257	-0.095	-0.063
-670.091	-31.861	-0.182	0.104
-669.076	-97.235	-0.269	-0.071
-668.062	-200.000	0.050	-0.442
-667.047	-200.000	-0.028	-0.248
-666.032	50.536	0.183	-0.176
-665.018	-200.000	-0.019	-0.087
-664.003	58.325	0.102	-0.101
-662.989	382.083	-0.080	-0.167
-661.974	-79.038	-0.038	-0.013
-660.959	-47.280	0.173	0.086
-659.945	744.437	-0.005	-0.013
-658.930	-127.923	0.123	-0.018
-657.916	-180.591	-0.077	-0.002
-656.901	-65.326	-0.338	-0.138
-655.886	800.000	0.040	0.128
-654.872	18.095	-0.166	-0.135
-653.857	-200.000	-0.014	0.140
-652.843	-102.620	0.186	-0.045
-651.828	800.000	0.027	0.113
-650.814	181.281	0.054	0.081
-649.799	138.333	-0.295	0.394
-648.784	69.738	0.278	-0.291
-647.770	800.000	0.116	-0.389
-646.755	35.085	-0.126	-0.112
-645.741	-200.000	-0.020	-0.163
-644.726	-103.762	-0.174	-0.041
-643.711	-93.861	0.041	0.011
-642.697	800.000	0.091	-0.288
-641.682	800.000	-0.077	0.243
-640.668	-200.000	0.026	0.235
-639.653	-88.348	-0.318	-0.096
-638.638	153.254	0.088	-0.123
-637.624	-113.503	-0.022	-0.004
-636.609	92.672	-0.172	0.197
-635.595	-131.181	-0.155	-0.021
-634.580	-146.927	-0.439	0.038
-633.565	800.000	-0.106	-0.357
-632.551	95.477	-0.089	0.103
-631.536	118.968	-0.201	0.252
-630.522	-55.692	0.138	0.063
-629.507	-200.000	0.000	-0.051
-628.492	173.237	0.159	0.233
-627.478	-200.000	0.030	-0.254
-626.463	329.586	0.046	-0.089
-625.449	466.555	-0.080	-0.182
-624.434	78.826	0.007	0.008
-623.419	104.445	-0.045	-0.053
-622.405	194.213	-0.152	-0.234
-621.390	284.967	0.133	-0.243
-620.376	-4.767	-0.379	-0.266
-619.361	591.029	-0.107	0.268
-618.346	800.000	0.027	0.118
-617.332	-200.000	0.106	0.508
-616.317	20.404	-0.151	0.124
-615.303	-200.000	-0.028	0.278
-614.288	800.000	0.072	-0.232
-613.273	-83.145	0.111	0.036
-612.259	-200.000	0.010	0.057
-611.244	-113.549	0.225	-0.045
-610.230	1.542	0.108	-0.079
-609.215	-140.988	-0.054	0.006
-608.201	800.000	-0.062	-0.193
-607.186	137.821	0.129	0.171
-606.171	-79.067	0.209	0.072
-605.157	-114.480	-0.241	0.047
-604.142	-12.844	-0.275	-0.182
-603.128	-0.458	-0.064	0.046
-602.113	-1.495	-0.035	-0.025
-601.098	800.000	0.075	-0.230
-600.084	-200.000	0.003	-0.053
-599.069	800.000	-0.028	0.096
-598.055	197.661	-0.175	-0.272
-597.040	38.520	-0.047	-0.043
-596.025	-66.740	0.198	-0.079
-595.011	-137.173	-0.069	0.008
-593.996	-79.343	-0.119	0.041
-592.982	471.834	-0.040	0.092
-591.967	800.000	-0.066	-0.242
-590.952	-128.970	-0.035	-0.005
-589.938	500.836	-0.037	-0.087
-588.923	-3.630	0.116	0.082
-587.909	50.886	0.124	0.119
-586.894	10.714	-0.190	-0.147
-585.879	164.995	-0.038	-0.054
-584.865	-10.532	-0.208	0.139
-583.850	-14.279	-0.133	-0.087
-582.836	-88.924	-0.270	-0.081
-581.821	-137.037	0.267	-0.031
-580.806	800.000	-0.107	0.337
-579.792	-108.814	0.050	0.011
-578.777	-200.000	-0.026	-0.151
-577.763	-39.853	0.399	0.211
-576.748	609.157	-0.080	-0.201
-575.733	-72.371	0.201	0.075
-574.719	-200.000	0.040	-0.315
-573.704	800.000	-0.046	-0.132
-572.690	260.148	0.265	-0.464
-571.675	-200.000	0.000	-0.005
-570.661	112.016	-0.048	0.059
-569.646	-13.386	0.074	0.048
-568.631	-114.803	0.274	-0.053
-567.617	-32.873	-0.031	-0.017
-566.602	-50.915	-0.139	0.066
-565.588	200.608	-0.086	0.134
-564.573	-178.901	0.130	0.003
-563.558	106.932	-0.138	-0.166
-562.544	583.618	-0.042	-0.104
-561.529	800.000	0.016	0.055
-560.515	-4.538	0.286	-0.200
-559.500	800.000	-0.079	0.233
-558.485	-122.492	0.051	0.008
-557.471	132.319	-0.351	0.458
-556.456	-140.330	-0.250	0.026
-555.442	607.215	-0.048	0.121
-554.427	14.119	-0.210	0.166
-553.412	-18.164	-0.262	0.166
-552.398	-58.491	0.288	0.127
-551.383	-71.332	-0.141	0.053
-550.369	120.670	0.159	-0.200
-549.354	-68.875	-0.156	-0.061
-548.339	-38.759	0.133	-0.071
-547.325	92.930	0.113	0.129
-546.310	35.218	-0.080	0.071
-545.296	-139.701	-0.224	-0.024
-544.281	84.048	0.322	0.356
-543.266	110.599	-0.229	0.279
-542.252	800.000	0.065	-0.193
-541.237	800.000	0.065	-0.185
-540.223	0.512	0.103	0.074
-539.208	187.977	-0.237	0.359
-538.193	777.760	-0.112	0.310
-537.179	-58.547	0.124	-0.054
-536.164	24.689	-0.044	-0.037
-535.150	-108.318	0.162	-0.035
-534.135	116.560	0.124	-0.154
-533.121	490.436	0.092	-0.212
-532.106	-50.254	0.350	0.167
-531.091	767.045	-0.077	-0.212
-530.077	-47.831	0.316	0.155
-529.062	-200.000	0.060	-0.316
-528.048	-200.000	-0.087	-0.495
-527.033	497.249	-0.111	0.259
-526.018	-200.000	0.005	0.157
-525.004	-126.990	0.295	-0.044
-523.989	800.000	-0.074	-0.259
-522.975	54.935	-0.064	-0.063
-521.960	382.586	-0.166	0.346
-520.945	-25.490	-0.246	0.147
-519.931	-200.000	0.024	-0.220
-518.916	-200.000	-0.045	-0.206
-517.902	8.504	-0.143	-0.109
-516.887	800.000	0.150	0.492
-515.872	260.264	-0.044	-0.077
-514.858	800.000	0.099	0.329
-513.843	351.606	-0.132	0.265
-512.829	603.554	-0.019	-0.048
-511.814	-200.000	-0.041	-0.342
-510.799	-129.921	-0.222	-0.031
-509.785	-200.000	0.003	-0.151
-508.770	-45.910	-0.336	0.167
-507.756	-79.213	-0.305	-0.104
-506.741	668.607	-0.047	-0.123
-505.726	8.031	-0.242	-0.184
-504.712	-114.875	0.150	0.029
-503.697	206.285	-0.039	-0.061
-502.683	10.136	-0.104	-0.080
-501.668	-200.000	0.008	0.180
-500.653	238.371	-0.052	-0.088
-499.639	-77.550	-0.176	0.062
-498.624	-5.313	-0.183	-0.127
-497.610	-39.632	0.104	0.055
-496.595	-137.700	0.399	-0.045
-495.581	-24.251	-0.348	0.210
-494.566	-134.759	-0.168	0.021
-493.551	28.345	0.110	-0.094
-492.537	-8.791	0.279	-0.189
-491.522	18.255	-0.297	-0.240
-490.508	-93.135	-0.059	0.017
-489.493	-7.859	-0.206	0.141
-488.478	800.000	-0.053	-0.149
-487.464	-3.826	0.093	0.065
-486.449	52.662	0.080	-0.078
-485.435	-200.000	0.026	0.179
-484.420	-7.211	0.078	-0.053
-483.405	218.007	-0.034	-0.055
-482.391	-171.261	0.191	0.006
-481.376	-140.885	-0.119	0.012
-480.362	-118.250	0.309	-0.056
-479.347	80.589	0.293	0.318
-478.332	-96.204	-0.133	0.036
-477.318	101.207	0.236	-0.277
-476.303	366.860	0.067	0.136
-475.289	-8.549	0.069	0.046
-474.274	355.737	0.041	-0.083
-473.259	-200.000	0.079	-0.349
-472.245	800.000	-0.105	0.393
-471.230	23.411	0.015	0.013
-470.216	585.684	0.049	-0.122
-469.201	-70.614	0.317	0.121
-468.186	130.738	-0.157	-0.203
-467.172	67.891	0.246	-0.254
-466.157	17.382	-0.193	0.155
-465.143	-200.000	0.027	0.120
-464.128	102.432	-0.377	0.444
-463.113	-82.234	0.068	0.022
-462.099	490.016	-0.176	0.406
-461.084	6.963	0.164	-0.123
-460.070	800.000	-0.082	-0.333
-459.055	800.000	-0.074	0.287
-458.040	93.308	0.133	-0.152
-457.026	-92.951	0.230	0.065
-456.011	29.725	0.189	-0.162
-454.997	-14.245	-0.234	0.152
-453.982	124.612	0.120	-0.152
-452.968	800.000	0.026	-0.085
-451.953	-112.886	-0.099	0.020
-450.938	36.523	0.127	-0.113
-449.924	274.380	-0.208	-0.371
-448.909	-200.000	0.090	-0.526
-447.895	-200.000	-0.012	-0.180
-446.880	800.000	0.049	0.155
-445.865	22.135	-0.056	-0.046
-444.851	-41.836	0.311	0.161
-443.836	-200.000	-0.013	0.268
-442.822	-121.386	-0.117	-0.020
-441.807	109.995	-0.038	-0.046
-440.792	-86.226	-0.481	0.149
-439.778	-155.649	0.317	-0.021
-438.763	-200.000	0.017	0.091
-437.749	-125.856	0.248	0.038
-436.734	-79.602	-0.193	-0.066
-435.719	-200.000	-0.033	-0.189
-434.705	0.001	0.200	-0.143
-433.690	568.699	-0.122	0.300
-432.676	-200.000	0.010	-0.163
-431.661	-138.442	-0.593	0.066
-430.646	12.386	0.167	0.130
-429.632	-200.000	0.029	0.138
-428.617	443.136	-0.181	-0.400
-427.603	270.218	-0.136	0.241
-426.588	-122.303	-0.278	-0.046
-425.573	-13.042	-0.286	0.187
-424.559	-78.988	0.193	0.066
-423.544	-150.042	0.184	-0.014
-422.530	-50.558	0.147	0.070
-421.515	155.033	-0.024	0.034
-420.500	-128.700	-0.066	-0.009
-419.486	800.000	0.119	-0.337
-418.471	800.000	0.087	-0.365
-417.457	-136.527	0.091	-0.011
-416.442	-68.896	0.079	-0.031
-415.428	-50.007	-0.199	0.095
-414.413	-200.000	-0.003	0.213
-413.398	72.568	0.150	-0.158
-412.384	800.000	0.040	0.166
-411.369	-134.431	0.197	0.024
-410.355	31.832	0.084	0.073
-409.340	138.202	-0.052	0.068
-408.325	152.045	-0.164	0.225
-407.311	-130.526	0.211	0.029
-406.296	-200.000	0.002	-0.119
-405.282	-164.342	0.085	-0.004
-404.267	376.709	-0.076	-0.157
-403.252	-19.823	-0.116	-0.072
-402.238	82.904	0.183	0.200
-401.223	-112.343	-0.164	0.033
-400.209	35.156	-0.097	-0.086
-399.194	44.138	0.073	0.067
-398.179	-200.000	-0.055	0.261
-397.165	-86.345	-0.255	-0.079
-396.150	-200.000	-0.001	0.088
-395.136	-1.744	-0.070	-0.049
-394.121	-2.937	0.158	-0.111
-393.106	-15.089	-0.181	-0.117
-392.092	-16.855	0.029	-0.018
-391.077	51.767	-0.181	0.173
-390.063	-200.000	-0.059	0.353
-389.048	-200.000	-0.015	0.563
-388.033	264.857	-0.099	0.174
-387.019	-200.000	0.000	-0.546
-386.004	589.842	-0.063	0.157
-384.990	-200.000	0.002	0.075
-383.975	-107.857	0.170	0.037
-382.960	-105.448	-0.117	0.027
-381.946	-65.495	0.120	0.049
-380.931	-158.301	-0.399	0.023
-379.917	-40.405	0.118	-0.062
-378.902	25.313	0.217	0.181
-377.888	49.961	-0.134	-0.127
-376.873	75.447	0.036	-0.038
-375.858	129.447	-0.129	0.166
-374.844	800.000	-0.040	0.165
-373.829	800.000	-0.090	-0.305
-372.815	701.943	0.076	-0.201
-371.800	-58.841	0.223	0.097
-370.785	-200.000	-0.009	-0.068
-369.771	-200.000	-0.020	0.169
-368.756	-63.085	-0.049	0.020
-367.742	63.051	-0.264	0.266
-366.727	67.903	-0.084	-0.086
-365.712	-6.619	-0.100	0.069
-364.698	79.345	-0.443	-0.477
-363.683	278.992	0.134	-0.240
-362.669	444.575	0.184	0.405
-361.654	422.040	-0.108	0.232
-360.639	160.454	0.174	0.243
-359.625	-200.000	-0.059	-0.275
-358.610	642.961	-0.025	-0.064
-357.596	579.136	-0.015	-0.038
-356.581	-5.424	-0.098	-0.068
-355.566	96.424	0.186	-0.214
-354.552	120.223	0.152	0.190
-353.537	-174.436	0.242	0.007
-352.523	-89.179	-0.211	-0.063
-351.508	800.000	-0.067	0.215
-350.493	-200.000	-0.019	0.110
-349.479	-77.494	-0.144	0.050
-348.464	235.138	0.150	0.249
-347.450	-200.000	0.012	-0.104
-346.435	-78.768	0.023	0.008
-345.420	800.000	0.023	0.084
-344.406	-131.318	-0.372	-0.049
-343.391	72.580	-0.184	0.193
-342.377	-125.393	0.062	0.009
-341.362	3.202	0.064	-0.047
-340.348	-200.000	-0.030	-0.208
-339.333	636.985	0.108	-0.277
-338.318	315.021	0.126	0.238
-337.304	-125.167	-0.083	-0.013
-336.289	-200.000	0.022	0.250
-335.275	-89.347	0.192	-0.057
-334.260	153.574	0.290	0.398
-333.245	-200.000	-0.056	-0.246
-332.231	723.932	0.114	-0.305
-331.216	-72.342	0.139	0.052
-330.202	344.077	0.091	-0.179
-329.187	-56.812	-0.219	0.097
-328.172	-200.000	0.085	0.000
-327.158	219.516	-0.090	-0.145
-326.143	-20.462	-0.159	-0.098
-325.129	-17.671	0.154	-0.097
-324.114	311.972	0.094	0.177
-323.099	23.133	0.286	0.235
-322.085	287.336	0.028	-0.051
-321.070	-102.938	0.184	-0.044
-320.056	548.357	-0.039	-0.094
-319.041	141.225	-0.104	0.138
-318.026	-200.000	0.041	-0.189
-317.012	179.943	0.134	-0.197
-315.997	-8.025	-0.143	-0.097
-314.983	-131.815	0.098	-0.013
-313.968	46.628	-0.195	-0.181
-312.953	-110.469	0.406	-0.084
-311.939	-139.839	-0.027	-0.003
-310.924	-176.646	0.284	0.007
-309.910	11.858	0.171	-0.132
-308.895	-58.396	0.079	0.035
-307.880	-110.141	-0.122	-0.026
-306.866	-45.429	0.105	-0.052
-305.851	800.000	-0.044	-0.160
-304.837	88.888	0.097	0.108
-303.822	-30.799	0.267	-0.152
-302.807	-200.000	0.006	-0.093
-301.793	11.396	0.064	0.049
-300.778	534.482	-0.088	0.210
-299.764	619.109	-0.109	-0.275
-298.749	-88.961	-0.144	0.043
-297.735	-21.251	0.122	0.075
-296.720	145.463	0.061	0.082
-295.705	-56.717	-0.112	0.050
-294.691	-16.427	0.257	-0.163
-293.676	364.807	0.064	-0.129
-292.662	-78.106	-0.134	-0.046
-291.647	-60.063	0.225	0.096
-290.632	800.000	-0.076	0.292
-289.618	800.000	0.080	0.328
-288.603	194.605	0.080	-0.121
-287.589	800.000	0.098	0.298
-286.574	-200.000	0.001	0.045
-285.559	-200.000	0.002	-0.068
-284.545	-112.608	-0.257	0.051
-283.530	223.348	-0.120	0.194
-282.516	11.109	-0.229	0.176
-281.501	-200.000	0.004	0.168
-280.486	-145.415	-0.115	0.010
-279.472	-162.769	-0.259	-0.013
-278.457	800.000	-0.091	0.281
-277.443	-11.030	-0.305	-0.202
-276.428	800.000	-0.054	0.206
-275.413	527.762	0.018	-0.042
-274.399	-123.067	-0.212	-0.034
-273.384	800.000	0.029	0.081
-272.370	-5.076	-0.087	0.060
-271.355	186.374	-0.081	0.121
-270.340	800.000	0.076	0.242
-269.326	-200.000	0.021	0.228
-268.311	194.400	-0.025	-0.038
-267.297	391.173	0.081	0.168
-266.282	-200.000	-0.000	-0.049
-265.267	-79.987	0.273	0.092
-264.253	800.000	-0.048	-0.158
-263.238	-35.494	0.390	0.212
-262.224	54.060	-0.052	0.050
-261.209	-60.323	0.078	0.033
-260.195	34.148	-0.161	-0.140
-259.180	-7.659	0.176	-0.119
-258.165	68.676	0.231	-0.237
-257.151	-133.937	0.115	-0.014
-256.136	-76.413	0.173	0.061
-255.122	-13.503	-0.170	-0.110
-254.107	208.014	0.094	-0.147
-253.092	-200.000	0.003	0.071
-252.078	55.103	0.229	-0.221
-251.063	-130.583	0.222	0.030
-250.049	-200.000	-0.001	-0.165
-249.034	800.000	-0.072	-0.312
-248.019	-19.209	0.058	-0.036
-247.005	-200.000	-0.020	0.329
-245.990	87.876	-0.130	-0.145
-244.976	-60.726	-0.238	-0.101
-243.961	567.030	0.006	-0.015
-242.946	71.574	-0.243	-0.252
-241.932	-31.963	-0.087	-0.049
-240.917	-105.563	0.051	0.012
-239.903	9.663	0.267	0.202
-238.888	47.005	0.265	0.247
-237.873	800.000	-0.100	-0.284
-236.859	65.652	-0.204	-0.207
-235.844	-200.000	0.040	0.348
-234.830	177.524	0.054	-0.079
-233.815	-200.000	-0.023	-0.134
-232.800	-200.000	0.013	-0.179
-231.786	-200.000	-0.023	-0.413
-230.771	-112.540	0.434	0.087
-229.757	-200.000	0.018	-0.277
-228.742	-15.390	-0.211	0.135
-227.727	-200.000	0.022	-0.217
-226.713	-200.000	0.035	-0.292
-225.698	-200.000	-0.024	0.138
-224.684	800.000	0.037	0.140
-223.669	299.249	-0.071	-0.131
-222.655	-22.534	-0.198	-0.120
-221.640	12.794	-0.085	0.065
-220.625	-200.000	0.021	-0.182
-219.611	21.976	-0.163	-0.133
-218.596	177.605	0.096	-0.140
-217.582	-91.857	0.066	0.019
-216.567	50.685	-0.263	0.249
-215.552	800.000	-0.053	0.147
-214.538	-26.077	-0.312	0.183
-213.523	58.115	-0.052	-0.050
-212.509	200.153	-0.042	0.064
-211.494	-14.443	0.203	-0.130
-210.479	-127.683	0.235	0.034
-209.465	-200.000	-0.014	0.085
-208.450	-135.429	0.149	-0.018
-207.436	159.779	0.138	0.192
-206.421	-23.370	0.071	0.043
-205.406	493.781	-0.030	0.068
-204.392	47.941	-0.013	0.012
-203.377	-200.000	0.032	-0.172
-202.363	-106.835	0.446	-0.099
-201.348	-139.525	-0.291	0.031
-200.333	-18.435	0.192	0.120
-199.319	-117.994	0.307	0.055
-198.304	27.809	0.079	-0.066
-197.290	81.890	0.215	-0.233
-196.275	-200.000	0.012	0.219
-195.260	298.990	0.255	0.468
-194.246	166.819	-0.113	-0.160
-193.231	-200.000	-0.036	0.185
-192.217	-200.000	-0.004	0.117
-191.202	547.519	0.137	0.328
-190.187	-200.000	0.092	0.411
-189.173	-161.865	-0.109	0.006
-188.158	215.389	0.187	0.296
-187.144	-4.497	-0.234	0.161
-186.129	85.343	0.104	-0.114
-185.114	750.817	-0.051	-0.138
-184.100	800.000	-0.104	-0.290
-183.085	-122.136	-0.299	0.049
-182.071	-42.062	0.217	-0.111
-181.056	800.000	-0.022	0.068
-180.042	32.589	0.095	0.082
-179.027	147.794	0.201	-0.270
-178.012	800.000	0.111	-0.419
-176.998	-120.323	-0.420	-0.071
-175.983	574.819	0.098	-0.240
-174.969	182.199	-0.115	0.169
-173.954	-146.706	0.139	0.012
-172.939	800.000	0.102	0.368
-171.925	-102.662	0.364	0.087
-170.910	-200.000	-0.033	-0.193
-169.896	-200.000	-0.012	-0.107
-168.881	-134.671	-0.432	0.052
-167.866	-200.000	-0.035	-0.357
-166.852	450.448	0.174	0.382
-165.837	160.322	0.147	0.204
-164.823	313.930	-0.008	0.014
-163.808	-92.922	0.202	0.056
-162.793	-200.000	-0.014	-0.321
-161.779	-200.000	0.004	-0.137
-160.764	-200.000	0.006	0.066
-159.750	800.000	0.011	-0.047
-158.735	-200.000	0.032	-0.236
-157.720	-78.836	0.147	0.050
-156.706	-61.585	-0.180	-0.075
-155.691	-1.923	0.103	-0.072
-154.677	-200.000	-0.081	0.385
-153.662	522.866	0.011	0.026
-152.647	-160.095	0.206	0.011
-151.633	-115.490	0.145	-0.027
-150.618	136.470	0.194	0.252
-149.604	513.158	0.065	0.151
-148.589	60.609	-0.098	-0.097
-147.574	103.097	-0.071	-0.082
-146.560	101.956	-0.034	0.039
-145.545	-200.000	-0.060	0.341
-144.531	-109.399	0.329	0.069
-143.516	-63.232	0.040	-0.016
-142.502	293.022	-0.049	0.089
-141.487	800.000	-0.042	-0.167
-140.472	92.667	0.194	0.218
-139.458	-86.732	-0.212	-0.065
-138.443	-73.686	0.303	-0.110
-137.429	559.702	-0.201	-0.482
-136.414	-3.779	0.069	0.047
-135.399	-200.000	-0.008	0.033
-134.385	-200.000	0.022	0.179
-133.370	-98.537	-0.277	0.071
-132.356	-45.923	-0.186	-0.092
-131.341	-200.000	-0.349	0.001
-130.326	-159.967	-0.141	-0.008
-129.312	-69.740	0.079	0.030
-128.297	172.596	0.155	0.222
-127.283	440.400	-0.067	0.145
-126.268	-33.067	-0.126	0.070
-125.253	-126.212	0.067	-0.010
-124.239	-25.864	-0.133	-0.078
-123.224	-90.699	-0.178	-0.051
-122.210	800.000	0.074	0.231
-121.195	427.668	-0.064	-0.138
