DTS Sentinel unit serial number:	SN413079Multiplexer serial number:	ORYXHardware model number:	OX4-SRSoftware version number:	ORYX F/W v4.00 Oryx Data Collector v3.7.2.0data status	okinstallation	princeton_trtdifferential loss correction	single-endedforward channel	channel 4reverse channel	N/Adate	2019/09/12time	19:13:19forward acquisition time	15.00reverse acquisition time	0.00gamma	496.2192k internal	0.2308k external	0.2308temperature offset calibration	1.0149default loss term (dB/km)	0.3790temperature slope calibration	1.0000multiplexer offset coefficient	1.0000multiplexer slope coefficient	1.0000fibre end	0.00T internal ref (°C)	32.56T ext. ref 1 (°C)	3.22T ext. ref 2 (°C)	27.12length (m)	temperature (°C)	Stokes	anti-Stokes-747.200	200.660	-0.159	-0.249
-746.185	-178.190	0.547	-0.013
-745.171	-184.661	0.760	0.012
-744.156	364.425	-0.408	0.834
-743.142	-122.028	0.529	0.088
-742.127	98.389	-0.328	0.384
-741.112	-74.808	0.509	0.186
-740.098	-83.610	-0.851	0.276
-739.083	-118.651	0.949	0.170
-738.069	-126.797	-0.351	-0.053
-737.054	430.238	-0.257	0.565
-736.039	151.097	0.120	0.166
-735.025	800.000	-0.168	0.676
-734.010	-19.319	-0.499	-0.314
-732.996	-200.000	0.075	-0.350
-731.981	137.506	-0.373	-0.496
-730.966	-63.149	-0.572	0.239
-729.952	-171.931	-0.514	-0.017
-728.937	77.097	-0.378	0.408
-727.923	-200.000	-0.020	-0.345
-726.908	-200.000	-0.034	-0.155
-725.894	-39.513	-0.651	-0.346
-724.879	-200.000	-0.035	0.167
-723.864	210.307	-0.146	-0.232
-722.850	-105.026	-0.320	-0.074
-721.835	4.616	-0.199	0.148
-720.821	6.340	-1.179	0.889
-719.806	-200.000	-0.103	0.775
-718.791	132.264	-0.296	0.387
-717.777	149.813	-0.163	0.224
-716.762	-2.460	-1.102	-0.784
-715.748	240.390	-0.420	-0.710
-714.733	382.729	0.253	0.528
-713.718	-57.839	0.429	0.191
-712.704	-104.128	-0.398	0.094
-711.689	-11.243	-0.050	-0.033
-710.675	-115.784	0.844	0.160
-709.660	-74.389	0.710	0.260
-708.645	296.589	-0.407	-0.758
-707.631	70.690	0.477	0.501
-706.616	721.706	-0.176	-0.476
-705.602	334.008	0.314	-0.617
-704.587	-200.000	-0.605	0.001
-703.572	85.716	0.298	-0.332
-702.558	-200.000	0.029	-0.491
-701.543	-200.000	0.001	-0.029
-700.529	-200.000	-0.071	0.498
-699.514	-200.000	0.037	-0.360
-698.499	-134.790	0.918	0.113
-697.485	-134.357	0.369	0.046
-696.470	-51.130	0.205	-0.097
-695.456	537.272	0.103	-0.247
-694.441	-7.445	0.500	-0.343
-693.426	240.328	0.113	0.192
-692.412	-77.059	-0.609	-0.216
-691.397	2.081	-0.140	0.102
-690.383	32.711	-0.704	0.617
-689.368	-90.179	-0.106	0.031
-688.354	-37.053	0.568	-0.309
-687.339	59.309	0.144	0.144
-686.324	342.638	-0.245	-0.487
-685.310	339.870	-0.603	-1.193
-684.295	-54.922	-0.707	0.323
-683.281	144.119	0.602	-0.814
-682.266	-136.271	-0.678	-0.080
-681.251	-32.313	0.679	0.384
-680.237	18.257	-0.571	-0.462
-679.222	-136.106	0.300	0.036
-678.208	-90.712	0.317	0.093
-677.193	-200.000	0.036	-0.493
-676.178	-163.693	-0.372	0.018
-675.164	20.984	-0.476	-0.391
-674.149	92.866	0.320	-0.367
-673.135	-200.000	-0.098	0.657
-672.120	225.445	-0.063	0.103
-671.105	-100.245	0.202	0.051
-670.091	106.799	-0.203	0.244
-669.076	-86.856	-0.633	0.196
-668.062	-200.000	-0.057	-0.519
-667.047	-126.102	0.351	0.053
-666.032	-54.137	0.716	-0.330
-665.018	-95.156	-0.512	-0.140
-664.003	164.798	-0.323	0.462
-662.989	800.000	-0.022	-0.082
-661.974	-200.000	0.026	0.476
-660.959	78.436	0.792	-0.857
-659.945	800.000	0.061	-0.210
-658.930	-200.000	-0.035	0.471
-657.916	37.754	0.189	0.170
-656.901	-174.972	-1.073	0.030
-655.886	-200.000	-0.098	-0.774
-654.872	-4.327	-0.666	-0.466
-653.857	104.061	-0.731	-0.871
-652.843	-200.000	-0.142	-0.855
-651.828	218.701	0.171	-0.277
-650.814	148.523	-0.481	0.657
-649.799	390.588	-0.256	-0.537
-648.784	-55.919	0.854	-0.386
-647.770	66.691	0.320	-0.330
-646.755	200.840	0.493	0.768
-645.741	500.877	-0.142	0.331
-644.726	-54.303	-0.264	-0.121
-643.711	-200.000	0.068	-0.816
-642.697	-27.382	0.564	0.332
-641.682	-200.000	0.081	-0.514
-640.668	159.556	0.520	-0.732
-639.653	-48.369	-1.157	-0.565
-638.638	31.429	0.473	-0.412
-637.624	800.000	0.144	0.563
-636.609	-48.889	0.507	0.246
-635.595	-16.301	0.596	-0.383
-634.580	252.902	-0.476	-0.822
-633.565	202.972	0.530	-0.829
-632.551	-44.790	0.524	0.265
-631.536	800.000	0.189	-0.637
-630.522	-200.000	-0.021	-1.606
-629.507	-106.416	0.170	-0.038
-628.492	359.277	-0.413	0.836
-627.478	-118.398	-0.067	0.012
-626.463	-24.052	0.284	0.172
-625.449	-19.747	0.162	-0.101
-624.434	-200.000	-0.111	-0.706
-623.419	-179.421	-0.403	0.009
-622.405	-100.256	0.494	-0.124
-621.390	59.453	-0.133	0.132
-620.376	800.000	-0.222	-0.801
-619.361	-30.214	0.584	0.336
-618.346	-118.808	-0.480	0.085
-617.332	-200.000	0.006	0.591
-616.317	106.323	-0.379	-0.454
-615.303	67.577	0.193	-0.199
-614.288	-19.250	0.620	0.389
-613.273	346.869	0.346	-0.689
-612.259	-30.306	-0.669	-0.384
-611.244	313.376	-0.110	-0.208
-610.230	123.364	-0.359	0.456
-609.215	607.463	-0.426	1.074
-608.201	800.000	-0.025	0.071
-607.186	195.816	0.614	-0.944
-606.171	-71.075	-0.358	0.136
-605.157	91.147	-0.322	0.365
-604.142	161.205	0.124	-0.175
-603.128	117.052	0.158	-0.197
-602.113	16.864	-1.021	-0.817
-601.098	36.512	0.232	-0.207
-600.084	446.004	-0.194	0.431
-599.069	334.584	0.452	0.885
-598.055	-42.197	-0.446	-0.230
-597.040	-72.973	0.224	-0.083
-596.025	-54.983	0.442	0.201
-595.011	295.260	-0.179	-0.331
-593.996	158.284	-0.357	-0.501
-592.982	4.543	0.601	0.446
-591.967	13.275	0.162	0.127
-590.952	-81.979	0.551	0.182
-589.938	4.735	0.517	-0.384
-588.923	-21.956	0.150	-0.092
-587.909	-200.000	0.115	0.655
-586.894	-115.523	-0.620	-0.118
-585.879	-91.955	-0.457	-0.131
-584.865	48.564	-0.368	-0.348
-583.850	-107.277	0.838	-0.186
-582.836	775.942	0.125	-0.345
-581.821	-15.794	0.454	0.292
-580.806	-105.397	-0.099	-0.023
-579.792	258.671	0.143	0.249
-578.777	-200.000	0.052	-0.457
-577.763	217.560	-0.440	0.708
-576.748	-88.042	-0.147	-0.044
-575.733	188.690	0.283	-0.428
-574.719	-94.440	-0.317	-0.087
-573.704	271.321	-0.160	0.284
-572.690	54.487	-0.723	-0.703
-571.675	-48.986	0.149	0.072
-570.661	-103.789	0.314	0.074
-569.646	391.735	0.317	0.664
-568.631	-48.751	-0.601	0.291
-567.617	149.808	-0.575	-0.786
-566.602	-200.000	-0.015	0.602
-565.588	124.218	-0.544	-0.690
-564.573	-200.000	-0.081	0.661
-563.558	-200.000	-0.069	-0.339
-562.544	-178.187	-0.245	-0.006
-561.529	603.423	0.108	0.271
-560.515	-200.000	-0.025	-0.909
-559.500	-200.000	-0.024	0.407
-558.485	63.812	-0.821	-0.832
-557.471	-55.055	0.302	-0.137
-556.456	203.119	-0.266	0.416
-555.442	-175.857	1.151	-0.031
-554.427	-17.187	0.305	-0.194
-553.412	-92.325	-0.263	-0.075
-552.398	-130.056	-0.659	-0.091
-551.383	57.994	0.293	0.289
-550.369	-200.000	0.130	-0.610
-549.354	54.728	0.236	0.230
-548.339	135.336	0.093	0.121
-547.325	-126.180	-0.251	0.038
-546.310	-67.083	0.053	-0.021
-545.296	56.540	0.382	0.375
-544.281	-80.089	0.628	0.212
-543.266	-200.000	-0.032	-0.852
-542.252	-81.528	-0.306	-0.102
-541.237	-107.411	-0.145	0.032
-540.223	-18.550	-0.866	-0.545
-539.208	-200.000	-1.100	0.005
-538.193	800.000	0.038	0.116
-537.179	3.517	-0.349	-0.256
-536.164	-116.994	0.650	0.120
-535.150	40.228	-0.206	0.187
-534.135	177.565	0.528	-0.775
-533.121	-67.439	0.103	0.041
-532.106	800.000	-0.089	-0.302
-531.091	-200.000	0.031	0.288
-530.077	364.977	0.325	-0.659
-529.062	800.000	-0.175	-0.494
-528.048	-200.000	0.056	-0.495
-527.033	31.426	0.211	0.183
-526.018	-87.446	0.230	0.070
-525.004	129.328	0.468	0.602
-523.989	-18.275	0.253	0.159
-522.975	69.091	-0.761	0.788
-521.960	439.838	-0.085	0.187
-520.945	-123.433	0.636	0.102
-519.931	-66.050	0.926	0.372
-518.916	-110.639	0.784	-0.163
-517.902	-135.988	-0.578	0.068
-516.887	-200.000	0.097	0.844
-515.872	-41.673	-0.692	0.358
-514.858	-69.297	0.383	0.148
-513.843	-126.781	1.478	-0.220
-512.829	-200.000	0.012	-0.290
-511.814	83.867	0.383	0.421
-510.799	800.000	0.074	0.237
-509.785	-32.192	0.127	-0.071
-508.770	-33.000	-0.679	-0.379
-507.756	-94.283	-0.425	0.117
-506.741	169.398	0.362	0.521
-505.726	-200.000	0.050	0.317
-504.712	-81.347	0.396	0.132
-503.697	-125.140	-0.491	0.076
-502.683	800.000	0.048	0.160
-501.668	-200.000	-0.052	0.392
-500.653	539.598	0.137	0.329
-499.639	534.964	0.115	-0.275
-498.624	-200.000	-0.056	-0.342
-497.610	56.324	-0.366	-0.358
-496.595	18.763	-0.054	-0.043
-495.581	-111.178	-0.225	0.046
-494.566	-130.763	0.415	0.056
-493.551	19.944	-0.250	0.203
-492.537	35.521	0.485	-0.429
-491.522	-29.047	-0.123	-0.071
-490.508	-163.378	0.294	-0.014
-489.493	-200.000	-0.234	1.315
-488.478	-31.293	0.450	0.255
-487.464	-200.000	0.194	1.009
-486.449	-81.311	1.095	0.363
-485.435	206.434	-0.394	0.617
-484.420	276.734	-0.228	-0.407
-483.405	-134.425	0.224	0.028
-482.391	23.167	0.252	-0.208
-481.376	180.445	-0.241	0.356
-480.362	-91.947	-1.256	0.358
-479.347	-200.000	0.049	0.437
-478.332	-130.718	-0.509	0.069
-477.318	800.000	-0.255	-1.029
-476.303	-66.881	-0.370	-0.147
-475.289	-43.892	0.911	-0.461
-474.274	717.395	0.327	0.874
-473.259	454.505	0.157	0.351
-472.245	153.648	-0.358	-0.493
-471.230	183.808	-0.408	-0.607
-470.216	-139.215	0.414	0.045
-469.201	47.021	0.447	-0.418
-468.186	717.895	-0.151	-0.404
-467.172	601.745	-0.180	0.450
-466.157	-70.782	0.854	-0.324
-465.143	-165.578	-0.734	-0.032
-464.128	245.641	0.340	0.575
-463.113	-200.000	0.114	0.873
-462.099	4.569	-0.122	-0.090
-461.084	800.000	-0.150	-0.462
-460.070	-79.507	-0.713	-0.242
-459.055	-57.033	1.003	0.445
-458.040	471.594	-0.166	0.375
-457.026	52.665	-0.143	-0.137
-456.011	291.077	0.018	-0.032
-454.997	0.855	0.178	0.128
-453.982	-200.000	-0.044	1.288
-452.968	149.104	0.481	-0.654
-451.953	-130.984	-0.281	-0.038
-450.938	800.000	-0.128	0.527
-449.924	178.130	-0.356	0.521
-448.909	-8.078	-0.584	-0.396
-447.895	-159.559	0.313	-0.017
-446.880	95.081	0.218	0.249
-445.865	-174.986	-0.859	-0.024
-444.851	-73.674	0.517	0.189
-443.836	800.000	-0.213	0.656
-442.822	-100.991	0.735	-0.181
-441.807	125.517	-0.415	0.526
-440.792	-64.444	0.321	0.131
-439.778	36.106	0.149	-0.132
-438.763	-146.077	0.554	-0.049
-437.749	441.197	0.101	0.222
-436.734	-200.000	0.091	0.402
-435.719	636.880	-0.035	-0.090
-434.705	-200.000	-0.020	-0.585
-433.690	-8.198	0.110	-0.075
-432.676	590.783	0.077	0.190
-431.661	800.000	0.066	0.259
-430.646	-153.641	-0.096	0.007
-429.632	314.929	0.299	0.566
-428.617	349.187	-0.184	-0.365
-427.603	800.000	0.130	-0.552
-426.588	-185.446	0.418	0.006
-425.573	-200.000	0.075	0.864
-424.559	-94.892	-1.230	0.334
-423.544	-50.258	1.020	-0.484
-422.530	-109.591	0.311	0.066
-421.515	-116.956	0.602	-0.110
-420.500	158.687	-0.316	0.440
-419.486	-200.000	-0.005	0.423
-418.471	-92.014	0.457	-0.130
-417.457	410.875	0.285	0.606
-416.442	172.434	-0.134	0.193
-415.428	-87.702	-0.451	-0.137
-414.413	-61.744	-0.109	-0.046
-413.398	800.000	0.073	-0.234
-412.384	114.183	-0.362	-0.442
-411.369	-32.353	-0.533	-0.298
-410.355	329.718	-0.269	-0.519
-409.340	6.248	-0.559	-0.416
-408.325	16.810	-0.214	0.170
-407.311	570.472	0.070	-0.171
-406.296	-93.876	0.253	0.070
-405.282	-157.415	-0.547	-0.033
-404.267	128.898	-0.587	0.751
-403.252	771.669	0.058	0.159
-402.238	800.000	0.086	0.353
-401.223	248.191	-0.299	0.507
-400.209	71.789	0.536	-0.559
-399.194	210.675	-0.516	-0.812
-398.179	-200.000	0.024	-0.187
-397.165	-71.444	-0.623	-0.234
-396.150	800.000	0.096	0.281
-395.136	66.966	0.296	0.303
-394.121	-11.893	0.426	-0.280
-393.106	-200.000	0.210	-1.356
-392.092	-88.076	0.098	0.029
-391.077	-160.437	0.631	0.034
-390.063	24.897	-0.536	0.446
-389.048	-200.000	-0.219	0.988
-388.033	800.000	-0.135	0.531
-387.019	-145.327	0.876	-0.079
-386.004	507.902	-0.035	0.082
-384.990	-156.331	0.612	0.038
-383.975	299.353	-0.185	0.342
-382.960	156.205	-0.474	0.656
-381.946	-200.000	-0.005	-0.190
-380.931	400.006	-0.193	0.405
-379.917	49.741	-0.323	-0.305
-378.902	-169.239	0.397	0.015
-377.888	149.065	-0.106	-0.143
-376.873	-200.000	0.036	-1.114
-375.858	-25.517	0.811	-0.480
-374.844	800.000	0.121	-0.349
-373.829	-122.310	-0.635	-0.104
-372.815	-166.419	-0.723	-0.030
-371.800	-200.000	0.021	0.457
-370.785	-30.548	0.296	-0.168
-369.771	-82.582	0.966	0.314
-368.756	800.000	-0.088	0.374
-367.742	-134.226	-0.428	-0.053
-366.727	61.566	-0.308	0.307
-365.712	-16.188	-0.428	0.272
-364.698	800.000	0.106	-0.300
-363.683	-200.000	0.056	-0.371
-362.669	-200.000	0.072	0.619
-361.654	116.211	-0.108	0.133
-360.639	55.289	0.298	-0.288
-359.625	-200.000	-0.062	0.378
-358.610	-169.600	-0.217	-0.008
-357.596	321.431	-0.410	-0.781
-356.581	-90.639	0.259	0.075
-355.566	-153.088	-0.569	0.040
-354.552	-200.000	-0.510	-0.002
-353.537	800.000	0.151	0.466
-352.523	206.325	-0.868	-1.353
-351.508	-200.000	-0.059	-0.948
-350.493	-35.234	-0.467	-0.254
-349.479	102.574	0.161	0.189
-348.464	-107.999	0.474	-0.103
-347.450	184.342	-0.452	0.670
-346.435	-200.000	0.072	-0.541
-345.420	-78.433	0.289	0.099
-344.406	109.414	-0.167	0.200
-343.391	138.223	-0.488	0.640
-342.377	-200.000	-0.023	-0.128
-341.362	800.000	0.092	0.294
-340.348	84.246	0.155	-0.169
-339.333	410.660	0.240	0.510
-338.318	-43.972	-0.927	-0.466
-337.304	41.480	0.047	-0.043
-336.289	-56.536	-0.386	0.171
-335.275	-79.916	-0.612	-0.206
-334.260	-49.401	-0.521	0.248
-333.245	-10.452	-0.449	0.297
-332.231	-200.000	-0.073	0.369
-331.216	188.723	-0.196	-0.293
-330.202	-47.319	0.676	0.329
-329.187	-156.927	0.669	-0.041
-328.172	208.751	-0.217	0.339
-327.158	60.375	0.436	0.431
-326.143	117.431	-0.440	0.541
-325.129	-20.374	-0.451	0.277
-324.114	-27.054	0.515	-0.300
-323.099	-200.000	-0.071	1.163
-322.085	-2.747	0.401	-0.280
-321.070	563.221	0.124	0.299
-320.056	-116.580	-0.348	0.064
-319.041	541.110	0.257	-0.611
-318.026	287.789	-0.080	-0.144
-317.012	61.400	-0.312	0.310
-315.997	37.015	-0.431	-0.381
-314.983	122.689	-0.196	0.245
-313.968	141.634	-0.640	-0.847
-312.953	2.374	-1.104	-0.798
-311.939	-151.047	-0.366	-0.028
-310.924	-106.666	0.621	0.138
-309.910	103.564	0.246	0.288
-308.895	64.518	-0.651	0.655
-307.880	-35.817	-0.288	-0.156
-306.866	-101.871	1.202	0.290
-305.851	-200.000	-0.116	-0.605
-304.837	800.000	0.164	-0.611
-303.822	-200.000	-0.097	-0.716
-302.807	-132.979	-0.113	0.014
-301.793	-150.796	-0.570	0.043
-300.778	276.334	-0.184	0.326
-299.764	800.000	0.196	0.691
-298.749	-124.390	-0.425	-0.066
-297.735	-64.639	1.230	0.498
-296.720	138.166	0.180	0.236
-295.705	-43.850	-0.373	-0.188
-294.691	-98.715	-0.672	0.171
-293.676	73.965	-0.320	-0.335
-292.662	-200.000	0.013	0.515
-291.647	-83.437	-0.519	-0.166
-290.632	76.811	0.201	-0.213
-289.618	190.225	0.268	0.402
-288.603	2.884	0.558	-0.404
-287.589	55.420	-0.460	0.444
-286.574	800.000	0.278	-0.799
-285.559	17.800	-0.314	0.249
-284.545	-99.697	0.373	-0.093
-283.530	-33.108	-0.336	0.186
-282.516	230.345	-0.754	-1.230
-281.501	37.789	-0.426	0.378
-280.486	800.000	-0.139	-0.429
-279.472	800.000	-0.289	-1.013
-278.457	76.482	-0.563	-0.595
-277.443	77.140	-0.824	-0.874
-276.428	152.277	-0.502	0.684
-275.413	-200.000	0.115	1.256
-274.399	1.625	-0.327	-0.235
-273.384	-200.000	0.054	-0.633
-272.370	97.389	0.599	-0.687
-271.355	-149.538	0.045	0.004
-270.340	694.040	-0.079	0.207
-269.326	422.606	0.323	-0.693
-268.311	458.360	-0.076	0.170
-267.297	4.752	0.281	-0.206
-266.282	77.873	0.579	-0.615
-265.267	-200.000	0.013	-0.454
-264.253	-90.614	-0.382	0.110
-263.238	-79.101	-0.777	0.263
-262.224	-4.350	0.419	0.289
-261.209	-200.000	0.030	-0.239
-260.195	800.000	0.088	0.265
-259.180	321.049	0.482	-0.914
-258.165	-200.000	-0.090	0.526
-257.151	-200.000	0.255	1.247
-256.136	-26.208	-0.283	0.166
-255.122	-119.908	0.208	0.036
-254.107	-95.667	-0.197	-0.053
-253.092	118.689	0.207	0.255
-252.078	-66.875	-0.271	0.107
-251.063	-122.217	0.394	0.064
-250.049	-112.400	0.943	-0.188
-249.034	-105.570	-0.288	0.065
-248.019	111.913	-0.156	0.188
-247.005	-0.365	-0.532	0.377
-245.990	-189.247	0.984	-0.012
-244.976	-200.000	-0.087	-0.600
-243.961	-13.926	-0.039	-0.025
-242.946	29.400	-0.231	-0.195
-241.932	55.159	0.795	0.766
-240.917	17.599	-0.648	0.514
-239.903	-200.000	0.023	0.169
-238.888	126.394	0.334	-0.422
-237.873	512.430	-0.395	0.916
-236.859	443.529	0.328	0.716
-235.844	-200.000	-0.042	0.707
-234.830	-13.381	1.007	0.650
-233.815	579.574	0.202	-0.493
-232.800	-109.053	0.322	-0.068
-231.786	-110.670	0.461	0.095
-230.771	175.980	0.175	0.253
-229.757	800.000	0.128	0.529
-228.742	800.000	-0.100	-0.283
-227.727	-79.125	0.178	-0.060
-226.713	-13.772	0.451	-0.290
-225.698	72.849	0.523	-0.544
-224.684	-156.153	0.853	0.054
-223.669	-200.000	0.134	-0.601
-222.655	337.216	0.139	0.270
-221.640	-83.619	0.279	-0.089
-220.625	-62.205	-0.345	0.143
-219.611	679.223	0.170	-0.439
-218.596	800.000	-0.192	-0.796
-217.582	-72.269	0.533	0.197
-216.567	1.328	-0.519	0.371
-215.552	128.558	0.236	-0.300
-214.538	201.510	-0.126	0.193
-213.523	-200.000	-0.023	0.462
-212.509	-85.608	-0.167	-0.052
-211.494	800.000	0.171	0.580
-210.479	-200.000	-0.040	0.188
-209.465	393.676	-0.273	-0.565
-208.450	-164.506	-0.491	-0.022
-207.436	-183.747	-0.720	0.012
-206.421	-131.047	0.895	-0.119
-205.406	-118.882	-0.785	-0.137
-204.392	-4.700	0.443	0.304
-203.377	4.346	-0.459	0.335
-202.363	-200.000	-0.145	-0.980
-201.348	-200.000	0.118	1.009
-200.333	-121.989	-0.298	-0.049
-199.319	91.116	-0.223	0.249
-198.304	81.971	-0.255	-0.275
-197.290	52.343	-0.563	-0.535
-196.275	-200.000	-0.061	-0.439
-195.260	-200.000	-0.015	0.140
-194.246	-200.000	-0.020	-0.301
-193.231	-81.330	0.329	0.108
-192.217	-107.201	-0.064	0.014
-191.202	-15.095	-0.395	-0.252
-190.187	252.906	0.063	0.107
-189.173	800.000	-0.102	0.284
-188.158	-83.249	-0.707	0.226
-187.144	435.583	0.265	-0.573
-186.129	-63.301	0.492	-0.202
-185.114	-78.776	-0.346	0.117
-184.100	-161.907	-0.395	-0.020
-183.085	800.000	-0.154	0.645
-182.071	-200.000	-0.064	0.629
-181.056	-43.975	-0.593	-0.296
-180.042	134.362	0.381	-0.491
-179.027	-200.000	-0.012	0.134
-178.012	133.010	-0.277	0.355
-176.998	534.201	-0.242	-0.570
-175.983	-137.922	0.881	0.098
-174.969	-90.235	-0.459	-0.133
-173.954	-200.000	0.023	0.797
-172.939	-57.653	0.308	0.134
-171.925	-85.916	-0.420	0.129
-170.910	84.778	-0.136	0.148
-169.896	-83.340	0.521	0.166
-168.881	800.000	0.149	0.533
-167.866	24.822	-0.260	-0.214
-166.852	-48.512	-0.860	-0.411
-165.837	-200.000	0.040	0.179
-164.823	800.000	0.273	-0.945
-163.808	-200.000	-0.019	0.569
-162.793	-82.737	1.227	-0.394
-161.779	-108.414	0.808	-0.173
-160.764	-45.365	0.589	0.290
-159.750	-62.703	-0.500	0.206
-158.735	800.000	0.080	-0.255
-157.720	-200.000	-0.006	-0.066
-156.706	-200.000	-0.017	-0.650
-155.691	69.639	-0.425	0.435
-154.677	183.643	0.275	0.403
-153.662	-69.394	0.945	-0.360
-152.647	-81.339	-0.409	0.134
-151.633	17.439	0.479	-0.378
-150.618	173.537	0.301	0.431
-149.604	-118.548	0.498	-0.088
-148.589	-4.921	-0.360	-0.246
-147.574	149.619	-0.239	0.321
-146.560	800.000	-0.077	0.274
-145.545	-123.382	0.473	0.075
-144.531	-200.000	0.086	0.690
-143.516	-200.000	-0.038	0.732
-142.502	332.771	0.181	0.346
-141.487	-31.521	-0.616	-0.344
-140.472	-74.401	-0.396	-0.142
-139.458	-14.863	-0.531	0.338
-138.443	9.816	0.518	-0.390
-137.429	-146.371	-0.901	0.078
-136.414	-42.063	-0.500	0.254
-135.399	-200.000	-0.054	-0.599
-134.385	-78.076	0.587	0.200
-133.370	81.438	0.315	-0.338
-132.356	-67.411	0.956	-0.372
-131.341	-200.000	-0.151	-0.685
-130.326	-67.613	-0.198	0.077
-129.312	98.867	0.252	-0.289
-128.297	-62.633	0.380	-0.156
-127.283	34.300	-0.034	-0.030
-126.268	-200.000	0.060	0.311
-125.253	455.123	-0.385	-0.847
-124.239	-200.000	0.015	-0.692
-123.224	1.499	-0.532	-0.379
-122.210	-96.777	-0.474	0.124
-121.195	385.990	-0.302	0.617
