DTS Sentinel unit serial number:	SN413079Multiplexer serial number:	ORYXHardware model number:	OX4-SRSoftware version number:	ORYX F/W v4.00 Oryx Data Collector v3.7.2.0data status	okinstallation	princeton_trtdifferential loss correction	single-endedforward channel	channel 4reverse channel	N/Adate	2019/09/13time	10:05:35forward acquisition time	60.00reverse acquisition time	0.00gamma	496.2192k internal	0.2309k external	0.2309temperature offset calibration	1.0191default loss term (dB/km)	0.3790temperature slope calibration	1.0000multiplexer offset coefficient	1.0000multiplexer slope coefficient	1.0000fibre end	0.00T internal ref (°C)	30.39T ext. ref 1 (°C)	4.50T ext. ref 2 (°C)	27.66length (m)	temperature (°C)	Stokes	anti-Stokes-747.200	-18.403	-0.411	-0.261
-746.185	-26.749	-0.221	-0.131
-745.171	28.819	-0.152	0.131
-744.156	-112.146	0.236	-0.048
-743.142	-19.503	-0.086	-0.054
-742.127	-166.246	0.151	-0.006
-741.112	104.056	-0.041	0.049
-740.098	800.000	-0.084	0.261
-739.083	302.365	-0.072	0.135
-738.069	299.668	-0.102	0.192
-737.054	95.726	0.065	-0.075
-736.039	-200.000	0.008	-0.106
-735.025	-72.361	0.359	0.135
-734.010	-97.215	0.161	-0.043
-732.996	21.020	0.256	-0.211
-731.981	-200.000	0.010	-0.160
-730.966	162.213	-0.135	-0.192
-729.952	-11.330	-0.247	-0.165
-728.937	85.912	-0.154	-0.172
-727.923	23.474	0.063	-0.053
-726.908	-122.187	-0.309	0.051
-725.894	-4.206	0.108	-0.076
-724.879	8.346	-0.339	0.259
-723.864	-200.000	0.040	0.279
-722.850	-112.589	0.003	-0.001
-721.835	55.928	-0.055	0.054
-720.821	-25.476	-0.148	-0.089
-719.806	-200.000	0.019	0.159
-718.791	-22.537	0.069	-0.042
-717.777	-66.877	0.111	-0.045
-716.762	255.973	-0.054	0.094
-715.748	100.934	0.218	0.257
-714.733	326.025	-0.069	0.133
-713.718	141.293	-0.077	0.104
-712.704	800.000	-0.008	0.023
-711.689	-200.000	0.018	-0.121
-710.675	611.169	-0.086	-0.218
-709.660	-200.000	0.025	0.229
-708.645	800.000	0.084	0.237
-707.631	800.000	-0.005	0.017
-706.616	800.000	-0.022	0.080
-705.602	450.296	0.081	-0.182
-704.587	-150.442	-0.073	0.006
-703.572	-142.657	0.472	0.047
-702.558	164.659	0.131	0.187
-701.543	47.177	-0.229	-0.217
-700.529	267.197	0.111	-0.197
-699.514	-138.806	0.096	0.011
-698.499	37.105	0.206	-0.185
-697.485	-27.326	-0.150	-0.089
-696.470	436.779	0.038	0.084
-695.456	95.617	-0.134	0.156
-694.441	-117.847	0.261	-0.048
-693.426	365.607	0.044	0.090
-692.412	-95.662	-0.173	-0.047
-691.397	8.629	0.283	-0.216
-690.383	122.680	0.175	-0.222
-689.368	800.000	0.104	-0.430
-688.354	562.989	0.089	-0.218
-687.339	800.000	0.051	-0.159
-686.324	-200.000	0.008	0.056
-685.310	-56.066	-0.405	0.183
-684.295	17.276	0.100	-0.080
-683.281	184.768	0.064	0.097
-682.266	-18.665	0.222	-0.140
-681.251	-116.826	-0.285	0.053
-680.237	-0.958	-0.283	0.203
-679.222	-100.801	0.016	0.004
-678.208	-80.544	0.084	-0.029
-677.193	-15.308	-0.236	-0.153
-676.178	-200.000	0.008	-0.129
-675.164	-200.000	-0.001	-0.195
-674.149	-13.882	-0.062	-0.041
-673.135	-85.606	-0.180	0.057
-672.120	-200.000	0.009	0.426
-671.105	800.000	-0.093	0.277
-670.091	59.394	-0.200	0.200
-669.076	99.037	0.158	0.185
-668.062	-42.248	0.124	0.064
-667.047	-159.448	0.211	0.012
-666.032	183.952	0.044	-0.067
-665.018	-69.549	0.134	0.052
-664.003	725.678	0.131	-0.353
-662.989	353.086	-0.038	-0.076
-661.974	159.295	-0.057	-0.080
-660.959	-76.061	0.390	-0.139
-659.945	124.166	0.099	-0.126
-658.930	248.075	0.069	0.119
-657.916	-200.000	0.010	-0.472
-656.901	303.805	-0.138	-0.260
-655.886	468.307	0.142	-0.322
-654.872	-121.332	-0.106	0.018
-653.857	-123.564	0.482	0.077
-652.843	-68.972	0.288	0.112
-651.828	-200.000	0.007	-0.088
-650.814	91.248	-0.087	-0.099
-649.799	561.751	-0.033	0.081
-648.784	162.695	-0.118	-0.167
-647.770	68.367	0.114	-0.118
-646.755	-46.324	-0.318	-0.158
-645.741	193.042	-0.170	0.261
-644.726	-95.051	0.101	0.028
-643.711	-51.302	-0.134	0.064
-642.697	-94.930	-0.328	0.090
-641.682	-60.480	0.205	0.088
-640.668	800.000	-0.072	0.265
-639.653	-32.366	0.128	0.072
-638.638	34.308	0.041	-0.036
-637.624	-59.338	0.039	-0.017
-636.609	21.405	0.022	0.018
-635.595	-36.112	-0.295	-0.161
-634.580	-79.323	-0.123	0.042
-633.565	800.000	0.054	-0.196
-632.551	-155.841	-0.141	0.009
-631.536	485.358	0.024	0.056
-630.522	-200.000	0.043	-0.201
-629.507	-200.000	-0.070	0.442
-628.492	-71.903	-0.109	-0.041
-627.478	85.828	0.046	-0.051
-626.463	176.913	-0.176	0.259
-625.449	-200.000	-0.012	0.295
-624.434	46.280	0.060	-0.056
-623.419	34.534	-0.229	-0.202
-622.405	800.000	-0.044	0.152
-621.390	-200.000	0.001	-0.233
-620.376	58.447	0.023	-0.023
-619.361	340.269	-0.107	-0.212
-618.346	-200.000	0.003	0.152
-617.332	-107.091	-0.197	0.044
-616.317	507.445	0.080	-0.188
-615.303	-19.438	0.193	0.121
-614.288	450.076	0.062	-0.138
-613.273	-200.000	-0.026	0.249
-612.259	-200.000	-0.052	-0.411
-611.244	800.000	-0.096	-0.292
-610.230	173.834	0.079	0.116
-609.215	140.878	0.111	0.148
-608.201	-200.000	0.016	-0.138
-607.186	364.485	-0.054	-0.111
-606.171	800.000	0.041	-0.134
-605.157	-132.634	0.194	0.025
-604.142	-9.460	0.062	0.042
-603.128	1.535	0.091	0.066
-602.113	44.585	0.133	-0.124
-601.098	182.055	-0.103	-0.153
-600.084	-200.000	0.017	0.195
-599.069	335.415	-0.071	-0.138
-598.055	-73.326	0.407	0.150
-597.040	390.213	0.039	0.081
-596.025	392.955	-0.125	0.262
-595.011	156.774	0.060	0.084
-593.996	-147.212	-0.132	-0.011
-592.982	28.486	-0.431	0.368
-591.967	-146.397	0.194	-0.017
-590.952	-83.839	-0.279	0.090
-589.938	-38.043	-0.240	0.128
-588.923	95.132	-0.045	0.052
-587.909	231.582	-0.119	0.197
-586.894	800.000	-0.013	-0.038
-585.879	306.111	0.081	0.152
-584.865	800.000	-0.043	0.152
-583.850	-200.000	-0.037	-0.452
-582.836	-200.000	0.021	-0.268
-581.821	110.063	0.214	0.259
-580.806	-99.169	0.328	-0.084
-579.792	175.353	0.196	-0.287
-578.777	148.661	0.249	-0.339
-577.763	-148.860	-0.266	-0.022
-576.748	-51.100	-0.080	0.038
-575.733	-136.397	0.109	0.013
-574.719	-40.085	-0.111	-0.058
-573.704	772.478	-0.113	0.310
-572.690	-77.002	0.186	-0.066
-571.675	19.730	-0.210	-0.170
-570.661	-100.119	0.465	0.117
-569.646	-116.187	-0.381	0.071
-568.631	148.559	0.097	0.132
-567.617	-200.000	-0.007	0.036
-566.602	-44.206	0.233	-0.118
-565.588	18.102	-0.167	-0.135
-564.573	-27.053	-0.168	-0.099
-563.558	55.929	-0.451	-0.442
-562.544	-18.275	-0.089	-0.056
-561.529	31.485	0.217	0.188
-560.515	282.011	-0.064	-0.116
-559.500	-200.000	0.052	-0.252
-558.485	371.725	0.141	0.288
-557.471	-158.080	0.306	0.018
-556.456	-29.419	-0.281	0.162
-555.442	9.407	0.268	-0.205
-554.427	54.275	0.174	-0.169
-553.412	-200.000	0.008	-0.206
-552.398	-112.728	-0.134	0.027
-551.383	140.109	-0.078	-0.103
-550.369	-192.467	-0.292	0.003
-549.354	-200.000	0.012	-0.230
-548.339	-155.006	0.079	-0.005
-547.325	-200.000	-0.004	-0.371
-546.310	800.000	0.072	-0.286
-545.296	8.803	0.048	-0.036
-544.281	800.000	0.066	-0.256
-543.266	-3.568	-0.146	0.102
-542.252	-10.392	0.082	-0.055
-541.237	-200.000	0.003	-0.196
-540.223	-49.650	-0.225	-0.108
-539.208	-77.965	-0.291	0.101
-538.193	-29.831	0.079	-0.045
-537.179	-109.415	-0.148	-0.032
-536.164	-200.000	-0.012	-0.235
-535.150	-106.271	0.269	0.061
-534.135	14.549	-0.156	0.123
-533.121	41.296	-0.143	0.130
-532.106	-200.000	0.001	0.066
-531.091	-41.309	-0.147	-0.076
-530.077	800.000	-0.071	0.298
-529.062	340.095	-0.081	0.158
-528.048	74.738	-0.073	0.077
-527.033	-109.355	-0.133	0.028
-526.018	-8.275	0.350	-0.237
-525.004	-32.881	-0.153	0.085
-523.989	68.978	-0.253	0.262
-522.975	13.964	0.115	-0.090
-521.960	-126.544	-0.269	-0.040
-520.945	-98.184	0.314	0.081
-519.931	-148.408	-0.069	-0.006
-518.916	-46.870	-0.193	-0.095
-517.902	-177.873	-0.125	-0.003
-516.887	90.756	-0.070	-0.079
-515.872	169.235	0.168	-0.242
-514.858	-200.000	0.005	0.268
-513.843	-76.325	-0.185	0.066
-512.829	29.288	0.346	-0.296
-511.814	118.829	0.064	-0.080
-510.799	-97.231	-0.269	0.071
-509.785	273.497	0.111	0.198
-508.770	-97.591	0.071	-0.019
-507.756	-200.000	0.050	0.341
-506.741	140.131	0.139	-0.184
-505.726	800.000	-0.084	-0.289
-504.712	146.308	0.053	0.071
-503.697	112.810	-0.180	0.220
-502.683	66.970	-0.320	0.328
-501.668	-6.520	-0.330	-0.227
-500.653	495.974	0.089	0.206
-499.639	-21.442	-0.077	0.048
-498.624	-52.005	0.283	0.132
-497.610	-52.302	0.085	-0.040
-496.595	82.735	0.171	0.187
-495.581	-200.000	0.069	0.362
-494.566	-68.654	-0.068	0.026
-493.551	800.000	0.035	0.118
-492.537	114.790	0.182	0.223
-491.522	317.267	-0.078	-0.149
-490.508	-107.791	-0.387	-0.085
-489.493	256.872	-0.026	-0.044
-488.478	-169.567	-0.209	-0.008
-487.464	311.476	0.110	-0.207
-486.449	122.085	0.173	-0.217
-485.435	-150.821	-0.187	-0.014
-484.420	-151.989	-0.199	-0.015
-483.405	-82.102	0.229	0.075
-482.391	-106.405	0.289	-0.065
-481.376	-90.397	0.162	0.047
-480.362	-96.342	-0.146	0.039
-479.347	13.043	0.215	0.167
-478.332	253.083	-0.134	0.231
-477.318	165.175	0.253	0.359
-476.303	-200.000	0.048	0.315
-475.289	-26.605	0.129	-0.076
-474.274	108.088	-0.287	-0.344
-473.259	-200.000	0.035	-0.169
-472.245	-61.558	0.201	0.085
-471.230	-13.547	0.074	0.048
-470.216	-200.000	-0.037	0.171
-469.201	180.151	-0.148	-0.218
-468.186	800.000	-0.035	-0.101
-467.172	-200.000	-0.025	0.134
-466.157	-123.819	-0.155	0.025
-465.143	-111.774	-0.315	-0.064
-464.128	-9.193	0.185	0.124
-463.113	-87.215	-0.263	0.080
-462.099	-200.000	-0.013	0.366
-461.084	-109.409	-0.127	-0.027
-460.070	-105.288	0.225	-0.052
-459.055	-200.000	-0.027	0.202
-458.040	-200.000	-0.025	0.229
-457.026	36.334	0.041	0.036
-456.011	-200.000	-0.051	-0.416
-454.997	-140.109	-0.394	-0.042
-453.982	378.430	-0.055	-0.112
-452.968	-109.723	-0.301	0.064
-451.953	37.204	0.180	-0.160
-450.938	-200.000	-0.034	0.159
-449.924	150.041	-0.082	-0.112
-448.909	118.623	0.220	-0.272
-447.895	-200.000	-0.044	0.229
-446.880	223.657	0.224	0.362
-445.865	-58.959	-0.149	-0.065
-444.851	-132.658	0.115	0.015
-443.836	116.885	0.121	0.150
-442.822	195.017	-0.139	-0.212
-441.807	-200.000	-0.004	0.064
-440.792	-85.022	0.294	0.092
-439.778	27.646	0.218	-0.185
-438.763	800.000	-0.061	-0.185
-437.749	9.976	0.199	0.152
-436.734	170.388	-0.137	-0.196
-435.719	-161.066	0.233	-0.012
-434.705	800.000	0.083	-0.274
-433.690	162.650	-0.121	0.170
-432.676	-200.000	0.032	-0.229
-431.661	-200.000	-0.083	-0.419
-430.646	-200.000	0.015	-0.140
-429.632	260.833	-0.073	-0.127
-428.617	131.710	-0.106	-0.136
-427.603	-162.473	0.037	0.002
-426.588	-22.755	0.260	0.158
-425.573	523.128	0.041	-0.096
-424.559	-13.745	-0.072	0.046
-423.544	622.035	-0.124	0.312
-422.530	244.456	-0.156	-0.263
-421.515	35.295	-0.078	-0.069
-420.500	37.147	0.150	0.133
-419.486	-200.000	0.007	0.049
-418.471	29.736	-0.085	-0.073
-417.457	800.000	0.012	0.043
-416.442	800.000	0.133	-0.454
-415.428	701.833	0.071	-0.188
-414.413	735.956	0.121	0.325
-413.398	349.661	0.173	0.342
-412.384	-200.000	-0.049	0.265
-411.369	-200.000	0.026	-0.228
-410.355	-74.440	0.138	0.050
-409.340	170.941	-0.061	-0.087
-408.325	-128.543	-0.461	-0.065
-407.311	-170.682	0.075	-0.003
-406.296	-66.918	-0.091	-0.036
-405.282	-50.383	0.063	-0.030
-404.267	506.133	-0.133	0.309
-403.252	-200.000	0.070	-0.343
-402.238	14.373	-0.140	-0.109
-401.223	-26.395	-0.327	0.192
-400.209	800.000	0.091	-0.336
-399.194	109.334	-0.137	-0.164
-398.179	-200.000	-0.005	0.035
-397.165	-200.000	-0.006	0.297
-396.150	-200.000	0.026	0.345
-395.136	-200.000	-0.027	0.123
-394.121	57.741	0.062	0.061
-393.106	36.621	-0.151	-0.134
-392.092	-200.000	-0.030	-0.321
-391.077	-110.058	-0.087	0.018
-390.063	-37.289	0.146	-0.078
-389.048	-25.419	0.252	-0.150
-388.033	-28.079	0.244	-0.141
-387.019	-83.353	-0.100	-0.032
-386.004	-137.121	0.466	-0.053
-384.990	-136.950	-0.285	0.033
-383.975	-45.949	0.102	-0.050
-382.960	-1.468	0.120	-0.085
-381.946	-125.736	0.260	0.039
-380.931	-57.479	-0.342	0.150
-379.917	100.445	0.135	0.156
-378.902	-9.501	0.166	-0.111
-377.888	-119.031	-0.373	-0.065
-376.873	-54.109	-0.251	-0.114
-375.858	-37.191	-0.166	-0.089
-374.844	-89.393	-0.272	-0.080
-373.829	-10.660	-0.023	-0.015
-372.815	14.047	0.346	0.270
-371.800	-45.066	0.262	0.131
-370.785	201.949	-0.154	-0.238
-369.771	57.120	0.110	-0.107
-368.756	-200.000	-0.018	0.114
-367.742	223.190	0.059	0.095
-366.727	247.326	-0.076	0.128
-365.712	625.946	-0.070	-0.178
-364.698	277.600	-0.102	-0.182
-363.683	92.797	0.100	0.113
-362.669	-148.408	0.220	-0.018
-361.654	-24.726	-0.333	0.198
-360.639	-7.879	0.226	-0.153
-359.625	-51.759	-0.300	0.140
-358.610	44.309	-0.183	-0.168
-357.596	-61.393	0.149	0.063
-356.581	-67.180	-0.182	0.072
-355.566	-164.489	0.171	0.008
-354.552	-179.484	0.342	-0.008
-353.537	217.932	-0.253	-0.404
-352.523	-200.000	-0.072	-0.369
-351.508	25.540	-0.357	-0.297
-350.493	-12.216	0.322	0.211
-349.479	-200.000	-0.005	-0.262
-348.464	84.317	0.248	0.271
-347.450	684.259	-0.070	-0.182
-346.435	-200.000	-0.063	0.277
-345.420	69.456	-0.306	-0.316
-344.406	-109.036	0.161	-0.034
-343.391	-127.422	-0.288	-0.042
-342.377	-134.486	-0.380	0.046
-341.362	-121.749	-0.243	-0.040
-340.348	-34.527	0.223	-0.122
-339.333	-49.626	0.125	0.060
-338.318	800.000	0.032	0.101
-337.304	288.145	-0.067	-0.121
-336.289	17.645	0.113	0.090
-335.275	-71.118	0.307	-0.115
-334.260	-200.000	0.044	0.262
-333.245	-143.332	0.125	0.012
-332.231	-159.149	0.075	0.004
-331.216	223.720	0.174	0.281
-330.202	-57.592	0.376	0.165
-329.187	-200.000	0.001	-0.113
-328.172	210.423	0.195	0.307
-327.158	-75.513	-0.207	-0.073
-326.143	-21.675	0.087	0.053
-325.129	-72.207	0.261	0.097
-324.114	58.214	-0.069	-0.068
-323.099	-200.000	-0.033	0.191
-322.085	-200.000	-0.030	-0.382
-321.070	207.797	0.089	0.139
-320.056	220.730	0.140	-0.225
-319.041	-200.000	0.050	-0.230
-318.026	8.269	0.202	-0.151
-317.012	305.113	0.110	-0.205
-315.997	82.849	-0.087	-0.094
-314.983	-8.196	0.160	-0.107
-313.968	38.611	-0.210	-0.187
-312.953	-73.641	0.292	0.106
-311.939	-135.751	-0.258	-0.030
-310.924	99.659	0.164	0.189
-309.910	703.209	0.033	-0.088
-308.895	-200.000	0.032	0.346
-307.880	-17.544	0.396	0.248
-306.866	-16.695	0.093	0.059
-305.851	-200.000	0.035	-0.246
-304.837	-58.863	-0.056	-0.024
-303.822	305.740	-0.118	-0.218
-302.807	189.164	0.043	0.065
-301.793	-200.000	-0.008	-0.155
-300.778	-7.144	0.243	-0.165
-299.764	78.772	0.187	-0.200
-298.749	-200.000	-0.033	-0.291
-297.735	-200.000	-0.019	0.146
-296.720	-107.928	-0.302	0.066
-295.705	-200.000	0.017	-0.091
-294.691	-181.370	-0.208	0.004
-293.676	99.470	-0.123	-0.142
-292.662	-200.000	-0.051	0.259
-291.647	-115.630	0.553	0.104
-290.632	800.000	0.044	0.130
-289.618	52.143	-0.121	0.115
-288.603	-41.911	0.507	0.260
-287.589	298.611	-0.203	0.373
-286.574	-163.799	-0.325	-0.015
-285.559	138.272	0.204	0.267
-284.545	-200.000	-0.015	0.107
-283.530	-124.505	-0.173	-0.027
-282.516	-82.099	0.224	0.073
-281.501	24.739	-0.171	-0.142
-280.486	26.987	0.212	-0.177
-279.472	-161.852	-0.168	0.009
-278.457	-31.819	0.353	0.198
-277.443	69.699	-0.150	0.154
-276.428	71.337	-0.057	0.059
-275.413	270.668	0.058	0.102
-274.399	60.760	-0.115	-0.114
-273.384	-90.914	0.260	0.075
-272.370	800.000	0.030	-0.107
-271.355	-25.182	0.168	0.099
-270.340	-200.000	-0.010	-0.195
-269.326	-71.119	0.129	-0.048
-268.311	800.000	-0.069	0.238
-267.297	800.000	0.070	0.257
-266.282	-200.000	0.045	0.278
-265.267	-200.000	-0.003	0.139
-264.253	800.000	-0.126	-0.428
-263.238	-53.268	-0.227	-0.104
-262.224	-185.225	0.493	-0.008
-261.209	8.060	-0.129	0.097
-260.195	-200.000	-0.032	0.434
-259.180	238.902	-0.083	-0.138
-258.165	117.280	-0.152	0.187
-257.151	800.000	0.066	0.280
-256.136	-76.707	-0.134	-0.047
-255.122	-135.318	-0.256	0.031
-254.107	0.169	0.203	0.144
-253.092	470.458	0.025	-0.055
-252.078	28.598	-0.092	0.078
-251.063	-102.805	-0.391	-0.093
-250.049	73.919	0.196	-0.205
-249.034	461.894	0.039	-0.086
-248.019	-200.000	0.030	0.136
-247.005	286.442	0.099	-0.178
-245.990	800.000	0.054	-0.183
-244.976	-68.664	0.170	-0.066
-243.961	53.450	0.150	0.144
-242.946	131.824	-0.241	0.309
-241.932	279.715	-0.087	-0.155
-240.917	353.217	-0.017	-0.033
-239.903	-3.531	-0.166	-0.115
-238.888	31.039	0.169	0.144
-237.873	65.307	-0.274	0.276
-236.859	-103.277	0.190	-0.045
-235.844	800.000	-0.049	0.163
-234.830	-124.447	0.210	-0.033
-233.815	-200.000	-0.023	0.210
-232.800	270.043	-0.158	-0.277
-231.786	-187.813	0.086	0.001
-230.771	26.297	0.066	-0.054
-229.757	-180.403	-0.412	0.009
-228.742	397.852	-0.019	-0.039
-227.727	-12.194	-0.097	-0.063
-226.713	800.000	0.100	0.342
-225.698	-33.051	0.036	0.020
-224.684	800.000	-0.067	-0.257
-223.669	21.907	0.029	0.024
-222.655	-87.036	0.114	0.035
-221.640	-200.000	-0.026	-0.121
-220.625	170.084	-0.096	0.136
-219.611	800.000	-0.083	0.288
-218.596	542.646	-0.093	0.220
-217.582	181.209	0.165	0.242
-216.567	19.758	-0.104	0.084
-215.552	-200.000	-0.078	0.348
-214.538	-154.515	0.197	-0.013
-213.523	530.615	0.174	-0.409
-212.509	800.000	-0.028	0.111
-211.494	10.387	0.159	-0.120
-210.479	61.464	-0.262	0.260
-209.465	-200.000	-0.012	0.196
-208.450	388.793	-0.130	-0.267
-207.436	-200.000	-0.009	-0.141
-206.421	-200.000	-0.010	0.193
-205.406	-121.411	0.386	0.064
-204.392	800.000	-0.063	-0.188
-203.377	-64.357	-0.150	-0.061
-202.363	-2.586	0.258	0.180
-201.348	47.463	-0.038	-0.035
-200.333	6.358	-0.047	0.035
-199.319	125.337	0.164	-0.206
-198.304	-97.558	-0.332	-0.086
-197.290	29.461	-0.168	-0.142
-196.275	-77.418	0.142	0.049
-195.260	800.000	0.054	0.152
-194.246	-200.000	-0.014	0.261
-193.231	5.975	-0.121	-0.089
-192.217	521.848	0.036	0.085
-191.202	-200.000	-0.048	0.214
-190.187	-90.340	-0.178	-0.051
-189.173	-120.078	0.414	-0.070
-188.158	-24.417	-0.225	-0.133
-187.144	800.000	-0.054	0.220
-186.129	-25.844	0.328	0.192
-185.114	-74.370	0.388	0.139
-184.100	225.725	-0.061	0.099
-183.085	-200.000	-0.013	-0.056
-182.071	-53.720	-0.243	0.110
-181.056	283.409	-0.219	-0.392
-180.042	127.579	-0.072	-0.091
-179.027	800.000	0.059	-0.190
-178.012	-145.232	0.194	-0.017
-176.998	786.464	0.060	0.164
-175.983	163.705	-0.167	-0.234
-174.969	-55.294	-0.246	-0.110
-173.954	355.929	0.129	-0.255
-172.939	-33.710	-0.205	-0.112
-171.925	-111.143	0.069	-0.014
-170.910	800.000	0.124	-0.344
-169.896	800.000	-0.045	-0.150
-168.881	-13.257	0.226	-0.146
-167.866	800.000	0.061	-0.248
-166.852	-49.801	-0.229	0.108
-165.837	-54.135	0.356	0.161
-164.823	480.471	0.162	0.365
-163.808	-101.452	-0.307	-0.074
-162.793	-200.000	-0.033	-0.180
-161.779	-14.136	0.315	0.202
-160.764	-147.342	-0.120	-0.010
-159.750	-200.000	0.019	-0.085
-158.735	3.801	-0.195	-0.141
-157.720	38.787	0.126	-0.111
-156.706	-200.000	0.020	0.408
-155.691	145.942	0.053	0.071
-154.677	-144.023	-0.123	0.012
-153.662	-98.431	0.266	-0.068
-152.647	800.000	0.048	0.157
-151.633	-93.707	0.334	0.092
-150.618	60.273	0.240	0.236
-149.604	154.567	0.138	-0.189
-148.589	146.820	0.237	0.316
-147.574	-93.999	0.213	-0.058
-146.560	48.338	-0.181	0.168
-145.545	800.000	0.070	-0.295
-144.531	-70.620	0.313	0.117
-143.516	154.968	-0.008	-0.011
-142.502	-58.791	-0.184	-0.079
-141.487	-12.895	-0.208	0.134
-140.472	53.399	0.126	-0.120
-139.458	-200.000	0.050	0.363
-138.443	-200.000	-0.067	0.364
-137.429	359.673	0.077	-0.153
-136.414	-25.523	0.103	-0.060
-135.399	221.790	-0.111	-0.177
-134.385	204.194	-0.238	-0.366
-133.370	503.601	-0.082	0.188
-132.356	24.212	0.369	-0.302
-131.341	-200.000	-0.082	-0.374
-130.326	-200.000	-0.107	0.499
-129.312	308.834	0.159	0.295
-128.297	-28.532	0.098	-0.056
-127.283	-94.985	0.246	0.066
-126.268	-139.913	0.234	-0.025
-125.253	-137.550	-0.317	0.035
-124.239	-200.000	0.001	0.162
-123.224	800.000	-0.060	-0.199
-122.210	-200.000	0.030	0.288
-121.195	128.769	0.150	0.190
