DTS Sentinel unit serial number:	SN413079Multiplexer serial number:	ORYXHardware model number:	OX4-SRSoftware version number:	ORYX F/W v4.00 Oryx Data Collector v3.7.2.0data status	okinstallation	princeton_trtdifferential loss correction	single-endedforward channel	channel 4reverse channel	N/Adate	2019/09/17time	22:25:35forward acquisition time	60.00reverse acquisition time	0.00gamma	496.2192k internal	0.2330k external	0.2330temperature offset calibration	0.9994default loss term (dB/km)	0.3790temperature slope calibration	1.0000multiplexer offset coefficient	1.0000multiplexer slope coefficient	1.0000fibre end	0.00T internal ref (°C)	25.44T ext. ref 1 (°C)	0.18T ext. ref 2 (°C)	18.54length (m)	temperature (°C)	Stokes	anti-Stokes-747.200	-151.592	-0.306	0.023
-746.185	800.000	-0.059	0.185
-745.171	40.759	-0.194	0.176
-744.156	-200.000	0.007	0.148
-743.142	-153.812	0.330	0.023
-742.127	610.276	-0.136	0.343
-741.112	-200.000	-0.028	0.169
-740.098	19.695	0.081	-0.066
-739.083	-66.950	-0.056	0.022
-738.069	-200.000	0.009	-0.097
-737.054	65.797	0.063	0.064
-736.039	24.970	0.167	-0.139
-735.025	128.687	-0.201	-0.258
-734.010	-151.063	-0.373	0.028
-732.996	-165.254	0.366	0.016
-731.981	-100.213	-0.183	-0.046
-730.966	-86.357	0.131	-0.041
-729.952	34.174	-0.207	-0.181
-728.937	800.000	-0.064	-0.218
-727.923	80.368	-0.176	0.190
-726.908	257.501	-0.141	-0.243
-725.894	17.179	-0.297	-0.237
-724.879	-200.000	-0.029	0.210
-723.864	-19.549	0.249	-0.155
-722.850	-200.000	-0.000	-0.114
-721.835	-115.182	0.325	0.062
-720.821	800.000	-0.018	0.056
-719.806	381.126	-0.077	-0.159
-718.791	183.391	-0.193	-0.287
-717.777	-200.000	-0.040	0.567
-716.762	-200.000	-0.044	-0.317
-715.748	438.369	0.058	0.126
-714.733	318.300	-0.109	-0.208
-713.718	-200.000	0.017	-0.210
-712.704	629.897	-0.146	-0.371
-711.689	43.630	0.105	-0.097
-710.675	141.854	0.147	-0.195
-709.660	-31.019	-0.031	0.018
-708.645	140.905	0.158	0.210
-707.631	521.188	-0.041	0.097
-706.616	-200.000	0.012	-0.210
-705.602	-100.198	0.034	0.009
-704.587	-122.716	-0.149	-0.024
-703.572	800.000	0.012	0.040
-702.558	-200.000	-0.064	0.286
-701.543	-200.000	-0.019	-0.188
-700.529	-102.789	-0.292	0.070
-699.514	81.567	0.192	-0.209
-698.499	-200.000	-0.011	-0.063
-697.485	-200.000	-0.012	-0.252
-696.470	190.046	-0.142	0.215
-695.456	-11.247	-0.024	-0.016
-694.441	84.372	0.201	-0.221
-693.426	17.301	0.110	-0.088
-692.412	166.348	0.041	0.058
-691.397	-200.000	-0.002	-0.024
-690.383	-12.116	-0.027	0.018
-689.368	62.469	0.077	0.077
-688.354	-68.583	0.106	-0.041
-687.339	800.000	0.053	-0.206
-686.324	-43.001	-0.129	-0.066
-685.310	-200.000	0.020	0.293
-684.295	-5.918	-0.256	-0.176
-683.281	154.108	-0.114	0.157
-682.266	243.311	0.042	0.070
-681.251	800.000	-0.053	0.170
-680.237	4.043	0.118	-0.087
-679.222	-30.350	-0.238	-0.135
-678.208	-70.130	0.198	-0.076
-677.193	800.000	-0.068	-0.231
-676.178	95.298	-0.071	0.081
-675.164	800.000	-0.041	0.142
-674.149	-116.650	-0.208	0.038
-673.135	-23.676	-0.209	0.126
-672.120	-73.464	0.215	-0.079
-671.105	800.000	-0.046	0.159
-670.091	101.088	-0.104	-0.122
-669.076	-143.306	-0.156	0.015
-668.062	193.227	-0.136	-0.206
-667.047	508.516	0.062	-0.145
-666.032	-200.000	0.001	0.225
-665.018	-181.792	0.405	-0.008
-664.003	-35.034	-0.039	-0.021
-662.989	-116.238	0.193	-0.036
-661.974	-59.222	-0.453	0.196
-660.959	-79.824	0.212	0.072
-659.945	800.000	0.050	0.177
-658.930	-62.826	0.270	-0.112
-657.916	478.935	0.054	0.123
-656.901	73.197	0.090	0.094
-655.886	240.916	-0.126	-0.212
-654.872	800.000	-0.038	0.147
-653.857	-200.000	-0.050	0.347
-652.843	-79.270	0.078	0.027
-651.828	800.000	0.177	0.561
-650.814	33.266	-0.118	0.103
-649.799	-142.417	-0.113	-0.011
-648.784	102.238	-0.069	-0.081
-647.770	82.661	-0.120	-0.130
-646.755	-81.464	-0.132	0.043
-645.741	-28.791	-0.117	0.068
-644.726	123.993	-0.172	-0.217
-643.711	311.311	-0.163	-0.306
-642.697	-109.810	-0.304	0.064
-641.682	-200.000	-0.008	-0.261
-640.668	43.467	-0.086	0.079
-639.653	-146.594	0.124	0.011
-638.638	-200.000	-0.015	-0.268
-637.624	-120.206	-0.399	0.068
-636.609	-112.701	0.030	0.006
-635.595	36.883	-0.249	0.220
-634.580	159.060	0.176	0.246
-633.565	-200.000	-0.067	0.325
-632.551	304.257	-0.047	0.088
-631.536	-0.911	-0.330	-0.234
-630.522	42.809	0.269	0.246
-629.507	-200.000	-0.013	0.077
-628.492	-54.685	-0.304	-0.138
-627.478	-49.784	0.120	-0.057
-626.463	249.227	0.222	-0.377
-625.449	684.220	-0.125	-0.328
-624.434	37.925	0.204	-0.181
-623.419	-170.856	0.222	-0.008
-622.405	249.599	-0.089	-0.151
-621.390	-43.535	0.180	0.091
-620.376	-162.611	-0.359	0.018
-619.361	-153.039	-0.070	-0.005
-618.346	-42.318	-0.212	0.109
-617.332	14.612	0.259	0.203
-616.317	-165.453	0.083	-0.004
-615.303	-35.922	-0.080	0.043
-614.288	-59.919	-0.093	0.040
-613.273	-200.000	0.008	-0.145
-612.259	-133.239	-0.154	-0.020
-611.244	-106.220	-0.285	0.064
-610.230	23.469	-0.065	-0.053
-609.215	129.749	0.147	-0.188
-608.201	-159.233	0.120	-0.007
-607.186	51.561	0.157	-0.149
-606.171	-200.000	0.018	-0.092
-605.157	-87.452	0.332	0.101
-604.142	800.000	-0.133	-0.396
-603.128	-109.486	-0.305	0.065
-602.113	15.797	-0.231	0.182
-601.098	41.090	0.412	0.373
-600.084	-100.667	0.501	0.124
-599.069	-110.098	-0.177	-0.037
-598.055	171.389	-0.218	0.313
-597.040	-200.000	0.047	-0.279
-596.025	-200.000	-0.046	-0.225
-595.011	39.131	0.049	-0.044
-593.996	154.139	0.114	-0.157
-592.982	-97.001	0.238	-0.062
-591.967	215.525	0.161	0.255
-590.952	-120.093	0.073	-0.013
-589.938	126.653	-0.103	-0.130
-588.923	-93.664	0.132	-0.036
-587.909	-118.447	-0.403	-0.072
-586.894	413.204	0.026	-0.055
-585.879	-43.948	-0.040	-0.020
-584.865	113.506	0.178	-0.216
-583.850	312.984	-0.048	-0.090
-582.836	-57.140	0.224	0.099
-581.821	-200.000	0.008	0.273
-580.806	165.189	-0.076	0.107
-579.792	-137.460	0.229	-0.026
-578.777	167.991	0.164	0.234
-577.763	-200.000	0.024	0.211
-576.748	-133.193	-0.280	0.035
-575.733	65.315	-0.102	-0.103
-574.719	135.041	-0.130	-0.169
-573.704	354.501	0.028	-0.056
-572.690	372.037	-0.060	-0.122
-571.675	-191.836	-0.221	-0.002
-570.661	-200.000	-0.008	0.156
-569.646	60.945	-0.138	0.137
-568.631	150.202	-0.117	0.159
-567.617	167.457	-0.055	-0.078
-566.602	-200.000	0.034	0.179
-565.588	-193.150	-0.228	-0.002
-564.573	-52.011	-0.344	-0.160
-563.558	-144.299	0.119	-0.011
-562.544	-88.654	0.378	-0.112
-561.529	8.735	-0.075	-0.057
-560.515	800.000	-0.057	-0.171
-559.500	316.285	-0.068	-0.128
-558.485	-192.368	-0.136	0.001
-557.471	-88.214	0.130	0.039
-556.456	-60.340	0.192	-0.082
-555.442	50.573	-0.186	0.176
-554.427	90.969	-0.136	0.152
-553.412	-55.986	0.544	0.243
-552.398	1.594	-0.192	-0.138
-551.383	-200.000	0.002	0.086
-550.369	-118.923	0.198	-0.035
-549.354	-93.351	0.402	0.112
-548.339	208.054	-0.122	0.190
-547.325	-30.148	0.118	-0.067
-546.310	800.000	0.064	-0.203
-545.296	-58.982	-0.212	-0.092
-544.281	-44.869	0.235	-0.117
-543.266	-162.534	-0.302	-0.015
-542.252	67.632	-0.169	-0.173
-541.237	1.543	-0.150	-0.108
-540.223	-171.730	0.272	-0.009
-539.208	-37.511	-0.285	0.152
-538.193	-78.143	0.270	-0.093
-537.179	81.793	-0.093	0.100
-536.164	-123.433	-0.049	0.008
-535.150	96.027	0.090	-0.103
-534.135	-89.866	-0.190	-0.055
-533.121	-200.000	0.026	-0.250
-532.106	19.809	0.353	-0.284
-531.091	800.000	-0.069	0.254
-530.077	202.011	0.115	0.178
-529.062	20.301	-0.164	-0.132
-528.048	627.922	-0.073	-0.185
-527.033	113.747	0.243	-0.294
-526.018	202.614	-0.008	0.013
-525.004	-138.943	-0.140	-0.015
-523.989	-44.893	-0.036	-0.018
-522.975	269.946	0.038	0.066
-521.960	97.766	0.158	0.181
-520.945	-29.691	-0.109	-0.062
-519.931	-24.389	-0.145	0.087
-518.916	315.187	0.242	0.456
-517.902	745.925	-0.064	0.171
-516.887	-20.715	-0.137	-0.084
-515.872	50.542	-0.129	-0.121
-514.858	-77.186	0.054	0.019
-513.843	261.794	-0.012	0.021
-512.829	-7.301	-0.309	-0.209
-511.814	-124.300	-0.131	-0.020
-510.799	92.959	-0.210	-0.236
-509.785	239.549	-0.234	0.389
-508.770	-124.187	0.358	0.056
-507.756	-200.000	0.007	0.209
-506.741	0.329	0.352	0.251
-505.726	325.967	-0.146	0.278
-504.712	-200.000	-0.004	0.191
-503.697	622.279	-0.137	0.344
-502.683	55.439	-0.167	-0.161
-501.668	-190.172	0.072	-0.001
-500.653	-158.967	-0.053	0.003
-499.639	-194.186	-0.266	0.002
-498.624	800.000	-0.122	0.347
-497.610	-120.656	0.355	-0.060
-496.595	-154.412	0.371	-0.025
-495.581	-80.115	0.394	-0.132
-494.566	-69.887	-0.244	-0.093
-493.551	18.376	0.397	-0.317
-492.537	282.929	-0.027	0.048
-491.522	49.206	-0.202	-0.189
-490.508	320.448	-0.046	0.086
-489.493	150.772	-0.128	0.174
-488.478	800.000	0.034	0.136
-487.464	-147.550	0.212	-0.018
-486.449	231.254	0.105	0.171
-485.435	-70.023	-0.113	-0.043
-484.420	-200.000	0.012	-0.187
-483.405	362.692	0.059	0.118
-482.391	127.964	-0.165	0.209
-481.376	800.000	0.101	0.322
-480.362	800.000	0.079	0.235
-479.347	-71.644	-0.068	0.025
-478.332	-87.135	-0.158	0.048
-477.318	-200.000	0.028	-0.271
-476.303	190.778	0.109	0.163
-475.289	-107.520	0.328	-0.071
-474.274	63.676	0.235	0.236
-473.259	-200.000	0.010	-0.149
-472.245	-65.536	0.064	0.025
-471.230	159.022	0.129	0.178
-470.216	192.615	0.069	-0.104
-469.201	65.204	0.321	-0.323
-468.186	-70.382	0.334	0.126
-467.172	-14.373	-0.299	0.192
-466.157	-37.058	-0.073	0.039
-465.143	-200.000	-0.093	0.427
-464.128	-140.388	-0.265	-0.028
-463.113	-154.030	0.166	0.011
-462.099	-200.000	-0.004	0.111
-461.084	763.057	-0.071	0.193
-460.070	-46.532	-0.295	0.144
-459.055	800.000	-0.113	0.391
-458.040	-200.000	-0.009	-0.042
-457.026	800.000	0.058	-0.223
-456.011	334.165	-0.070	-0.135
-454.997	-81.331	-0.283	0.093
-453.982	-200.000	-0.002	-0.337
-452.968	-6.908	-0.222	0.150
-451.953	-115.680	-0.503	0.094
-450.938	-124.305	-0.255	0.040
-449.924	-200.000	0.071	-0.617
-448.909	-113.811	0.228	-0.044
-447.895	-109.543	0.175	0.037
-446.880	140.346	0.140	0.184
-445.865	-103.487	0.293	0.069
-444.851	-95.646	-0.336	-0.090
-443.836	-74.175	0.119	-0.043
-442.822	-200.000	-0.019	-0.459
-441.807	-150.653	0.219	0.017
-440.792	63.120	-0.059	0.059
-439.778	-197.559	0.105	0.001
-438.763	-58.916	0.060	-0.026
-437.749	-159.640	-0.235	0.013
-436.734	-40.206	-0.031	0.016
-435.719	-63.853	0.059	-0.024
-434.705	800.000	0.069	0.204
-433.690	-115.639	0.124	0.023
-432.676	800.000	0.043	0.151
-431.661	70.827	-0.213	-0.219
-430.646	800.000	-0.148	0.510
-429.632	-120.891	0.259	-0.043
-428.617	186.165	-0.099	0.146
-427.603	-200.000	0.008	-0.119
-426.588	-143.632	0.120	-0.011
-425.573	-58.994	-0.467	-0.201
-424.559	-117.735	-0.496	-0.089
-423.544	-200.000	-0.022	0.335
-422.530	-0.523	0.025	-0.018
-421.515	283.562	0.101	0.181
-420.500	53.988	-0.276	0.264
-419.486	-63.519	0.152	-0.062
-418.471	-113.451	-0.087	-0.017
-417.457	-56.894	0.264	0.116
-416.442	-200.000	0.029	-0.159
-415.428	-200.000	0.091	0.000
-414.413	72.261	0.174	0.180
-413.398	101.040	-0.299	0.346
-412.384	182.270	0.200	-0.293
-411.369	-152.645	0.367	0.026
-410.355	414.699	-0.066	0.139
-409.340	800.000	-0.031	0.098
-408.325	156.991	-0.129	-0.177
-407.311	48.219	-0.095	0.089
-406.296	-200.000	-0.095	-0.509
-405.282	424.424	-0.135	-0.289
-404.267	101.317	-0.115	0.133
-403.252	331.833	-0.128	-0.245
-402.238	-15.714	0.155	0.098
-401.223	284.691	-0.196	-0.350
-400.209	45.486	0.089	0.081
-399.194	284.358	0.029	0.052
-398.179	142.529	0.127	-0.168
-397.165	538.801	-0.041	0.098
-396.150	407.081	-0.171	-0.358
-395.136	-22.588	-0.249	-0.150
-394.121	-64.224	-0.149	-0.060
-393.106	212.891	0.155	0.242
-392.092	207.415	0.109	0.169
-391.077	-128.673	0.149	-0.021
-390.063	-4.735	0.152	0.104
-389.048	-122.422	0.177	0.029
-388.033	-200.000	0.006	-0.250
-387.019	256.723	0.026	0.045
-386.004	600.019	0.139	0.342
-384.990	800.000	0.095	-0.271
-383.975	67.168	-0.094	0.095
-382.960	-94.159	0.289	-0.079
-381.946	-162.642	0.344	-0.017
-380.931	-31.376	-0.177	-0.099
-379.917	33.241	0.116	0.100
-378.902	-57.281	0.360	0.157
-377.888	118.943	0.099	0.121
-376.873	-74.164	-0.279	0.100
-375.858	-44.290	0.197	0.098
-374.844	-96.444	0.121	-0.032
-373.829	256.227	-0.214	-0.365
-372.815	-88.232	0.231	-0.069
-371.800	118.629	-0.074	0.090
-370.785	-200.000	-0.001	0.118
-369.771	169.324	-0.086	0.121
-368.756	-2.937	0.094	0.065
-367.742	227.504	-0.062	-0.100
-366.727	-50.130	0.258	-0.121
-365.712	-54.430	-0.293	-0.132
-364.698	-162.679	0.074	0.004
-363.683	-105.317	-0.226	0.051
-362.669	-147.855	0.094	-0.008
-361.654	800.000	0.079	0.244
-360.639	58.984	-0.212	-0.207
-359.625	360.253	0.070	-0.139
-358.610	-83.757	0.317	-0.100
-357.596	787.670	0.109	0.296
-356.581	512.424	0.089	0.207
-355.566	123.511	0.118	0.147
-354.552	-200.000	0.003	-0.049
-353.537	41.203	-0.163	0.146
-352.523	116.876	-0.160	-0.194
-351.508	-113.048	0.152	-0.030
-350.493	-200.000	-0.014	-0.115
-349.479	79.582	0.024	-0.025
-348.464	-57.838	0.440	0.191
-347.450	-112.539	-0.207	0.041
-346.435	-200.000	0.019	0.226
-345.420	429.002	-0.108	0.231
-344.406	523.684	-0.059	0.138
-343.391	18.644	-0.180	0.143
-342.377	73.349	0.168	-0.174
-341.362	-133.217	-0.254	0.032
-340.348	-35.468	-0.149	0.080
-339.333	-91.907	-0.240	0.067
-338.318	281.176	0.021	-0.036
-337.304	29.964	-0.072	-0.061
-336.289	-21.870	-0.202	0.121
-335.275	177.243	0.123	-0.177
-334.260	-42.926	0.238	-0.120
-333.245	606.797	-0.111	0.273
-332.231	-128.217	-0.125	-0.018
-331.216	0.411	0.109	-0.077
-330.202	-58.304	-0.135	0.058
-329.187	-21.808	-0.201	-0.121
-328.172	40.535	-0.135	0.121
-327.158	349.159	-0.178	-0.348
-326.143	-75.892	-0.236	-0.083
-325.129	800.000	-0.098	0.367
-324.114	16.363	0.312	-0.244
-323.099	-143.134	0.199	-0.019
-322.085	-200.000	-0.062	-0.314
-321.070	-200.000	0.031	-0.147
-320.056	171.386	-0.071	0.101
-319.041	-108.267	0.151	0.032
-318.026	-200.000	-0.009	0.055
-317.012	-58.725	-0.054	0.023
-315.997	224.788	-0.115	0.183
-314.983	174.769	0.105	-0.150
-313.968	-200.000	0.001	-0.069
-312.953	680.164	-0.086	-0.221
-311.939	-43.051	0.340	0.171
-310.924	800.000	-0.043	-0.123
-309.910	344.518	0.122	-0.237
-308.895	177.459	-0.166	-0.240
-307.880	125.788	0.123	0.153
-306.866	-200.000	-0.009	0.152
-305.851	-90.007	0.299	0.086
-304.837	-200.000	-0.041	-0.353
-303.822	-200.000	0.095	-0.451
-302.807	-200.000	-0.042	-0.250
-301.793	-200.000	0.008	-0.097
-300.778	-200.000	0.026	-0.490
-299.764	-28.381	0.072	-0.041
-298.749	800.000	0.061	0.197
-297.735	345.926	-0.134	-0.260
-296.720	-69.034	0.085	0.033
-295.705	125.144	-0.030	0.038
-294.691	-144.578	0.371	0.034
-293.676	220.364	-0.173	0.275
-292.662	123.044	-0.094	-0.116
-291.647	-95.208	0.196	0.052
-290.632	281.100	-0.148	0.262
-289.618	-44.517	0.310	-0.153
-288.603	-200.000	-0.013	-0.238
-287.589	-90.863	-0.115	0.033
-286.574	-143.679	0.249	0.023
-285.559	51.233	0.019	-0.018
-284.545	-96.822	-0.203	0.053
-283.530	-144.159	0.183	0.017
-282.516	496.548	-0.139	0.316
-281.501	7.587	-0.190	0.141
-280.486	800.000	-0.064	0.246
-279.472	-200.000	-0.041	0.231
-278.457	-57.654	0.317	0.137
-277.443	-155.201	-0.266	-0.017
-276.428	-128.189	0.102	-0.014
-275.413	110.375	0.109	-0.129
-274.399	-94.425	-0.119	-0.032
-273.384	-200.000	0.012	0.289
-272.370	-63.025	0.109	-0.044
-271.355	-200.000	-0.279	-0.001
-270.340	11.767	0.121	0.092
-269.326	-154.682	-0.111	0.007
-268.311	800.000	-0.052	-0.161
-267.297	-114.655	-0.058	-0.011
-266.282	-89.330	-0.286	0.083
-265.267	-148.643	0.281	0.023
-264.253	81.565	-0.367	-0.392
-263.238	-200.000	-0.080	-0.463
-262.224	800.000	0.070	0.218
-261.209	-40.871	0.124	-0.063
-260.195	-4.250	0.143	0.098
-259.180	112.231	-0.187	0.224
-258.165	-3.140	0.200	0.138
-257.151	87.669	0.063	-0.069
-256.136	-200.000	-0.011	-0.139
-255.122	119.637	-0.041	-0.050
-254.107	-76.470	0.050	-0.017
-253.092	457.677	0.136	0.298
-252.078	13.665	0.142	-0.109
-251.063	-85.233	-0.019	0.006
-250.049	-159.191	-0.204	-0.011
-249.034	-200.000	0.059	0.436
-248.019	-200.000	0.029	-0.234
-247.005	116.075	-0.384	-0.464
-245.990	-96.700	-0.342	-0.089
-244.976	93.702	0.292	0.327
-243.961	-25.709	0.331	-0.193
-242.946	-200.000	-0.007	0.083
-241.932	800.000	-0.037	-0.133
-240.917	-200.000	0.207	-0.000
-239.903	77.062	-0.190	0.200
-238.888	800.000	-0.090	-0.268
-237.873	375.153	-0.072	0.145
-236.859	800.000	-0.023	0.065
-235.844	42.261	0.011	-0.010
-234.830	-103.226	-0.155	0.036
-233.815	164.214	-0.185	0.258
-232.800	325.109	-0.112	0.212
-231.786	-200.000	0.004	0.156
-230.771	74.508	-0.125	0.130
-229.757	296.051	0.111	0.201
-228.742	800.000	-0.048	-0.137
-227.727	800.000	0.040	0.172
-226.713	-123.008	0.146	0.023
-225.698	20.984	-0.261	-0.209
-224.684	-80.029	0.230	-0.076
-223.669	31.506	-0.308	0.261
-222.655	-57.696	0.159	0.069
-221.640	-200.000	-0.049	-0.229
-220.625	-200.000	-0.003	-0.175
-219.611	-148.853	0.220	0.018
-218.596	-106.221	0.081	-0.018
-217.582	-192.592	0.476	-0.004
-216.567	-200.000	0.013	0.067
-215.552	39.980	-0.082	0.073
-214.538	28.998	-0.204	-0.170
-213.523	35.694	-0.116	0.100
-212.509	119.643	-0.084	0.103
-211.494	66.033	0.074	-0.074
-210.479	119.428	-0.026	-0.031
-209.465	-170.481	-0.346	-0.012
-208.450	-121.546	-0.222	-0.036
-207.436	-200.000	-0.011	-0.146
-206.421	749.595	-0.037	-0.100
-205.406	-35.303	-0.036	-0.019
-204.392	159.740	-0.036	0.050
-203.377	459.495	-0.170	-0.372
-202.363	-200.000	-0.043	-0.214
-201.348	4.064	0.389	-0.281
-200.333	-158.047	0.436	0.025
-199.319	800.000	0.122	-0.336
-198.304	800.000	0.031	-0.126
-197.290	-15.335	0.182	0.115
-196.275	-15.558	-0.118	0.074
-195.260	-54.287	0.213	-0.095
-194.246	-96.049	-0.377	-0.099
-193.231	632.629	0.039	-0.097
-192.217	800.000	0.046	0.146
-191.202	-200.000	-0.015	0.093
-190.187	-137.190	-0.171	0.019
-189.173	736.762	-0.129	0.342
-188.158	255.232	-0.138	-0.233
-187.144	800.000	0.113	-0.329
-186.129	-74.366	-0.114	-0.040
-185.114	0.094	0.087	0.061
-184.100	-109.231	-0.085	0.018
-183.085	-2.033	0.251	0.174
-182.071	-74.625	0.265	-0.094
-181.056	-107.251	0.343	-0.074
-180.042	410.638	0.111	0.232
-179.027	-36.559	0.197	0.104
-178.012	325.526	0.092	-0.174
-176.998	-39.649	0.245	-0.126
-175.983	-200.000	0.030	0.139
-174.969	-23.792	-0.108	-0.064
-173.954	1.088	-0.017	-0.012
-172.939	228.738	0.127	0.203
-171.925	23.908	-0.097	0.079
-170.910	-107.798	0.274	-0.059
-169.896	181.917	0.112	-0.163
-168.881	-200.000	-0.061	-0.335
-167.866	211.194	0.156	0.242
-166.852	546.017	0.037	-0.088
-165.837	526.013	-0.036	-0.083
-164.823	89.385	-0.048	0.053
-163.808	-85.425	-0.293	-0.090
-162.793	215.265	-0.082	-0.128
-161.779	182.512	-0.168	0.243
-160.764	-100.608	-0.280	0.068
-159.750	145.533	-0.167	0.220
-158.735	-99.229	0.206	0.051
-157.720	13.646	0.366	0.280
-156.706	169.068	0.203	0.285
-155.691	-200.000	0.045	-0.240
-154.677	359.719	-0.104	0.205
-153.662	-175.190	0.156	-0.004
-152.647	-200.000	-0.034	-0.179
-151.633	82.082	0.134	-0.143
-150.618	18.145	-0.133	0.104
-149.604	50.456	-0.274	0.255
-148.589	-36.111	-0.235	0.125
-147.574	-200.000	0.032	-0.287
-146.560	-151.657	0.176	-0.013
-145.545	-21.821	-0.091	0.054
-144.531	-200.000	0.070	0.373
-143.516	-57.793	-0.247	0.106
-142.502	256.218	0.184	0.310
-141.487	227.755	-0.128	-0.204
-140.472	-78.065	-0.262	0.089
-139.458	57.001	0.128	-0.123
-138.443	-200.000	0.017	0.237
-137.429	352.832	0.183	0.357
-136.414	569.546	-0.070	-0.167
-135.399	173.560	0.198	0.281
-134.385	449.536	0.067	-0.146
-133.370	567.092	0.117	0.279
-132.356	800.000	-0.067	0.188
-131.341	-200.000	-0.044	0.217
-130.326	-155.966	0.136	-0.009
-129.312	-91.568	0.070	-0.020
-128.297	-200.000	0.000	-0.205
-127.283	-137.754	-0.441	0.049
-126.268	800.000	0.070	0.266
-125.253	174.917	0.189	-0.269
-124.239	213.058	0.093	0.144
-123.224	-72.406	-0.184	-0.067
-122.210	77.096	0.217	0.226
