DTS Sentinel unit serial number:	SN413079Multiplexer serial number:	ORYXHardware model number:	OX4-SRSoftware version number:	ORYX F/W v4.00 Oryx Data Collector v3.7.2.0data status	okinstallation	princeton_trtdifferential loss correction	single-endedforward channel	channel 4reverse channel	N/Adate	2019/09/13time	23:33:35forward acquisition time	60.00reverse acquisition time	0.00gamma	496.2192k internal	0.2323k external	0.2323temperature offset calibration	1.0134default loss term (dB/km)	0.3790temperature slope calibration	1.0000multiplexer offset coefficient	1.0000multiplexer slope coefficient	1.0000fibre end	0.00T internal ref (°C)	26.81T ext. ref 1 (°C)	3.17T ext. ref 2 (°C)	21.03length (m)	temperature (°C)	Stokes	anti-Stokes-747.200	187.661	-0.104	-0.157
-746.185	-118.596	-0.242	0.043
-745.171	-200.000	0.030	-0.188
-744.156	-107.442	0.148	-0.033
-743.142	-132.343	-0.394	0.051
-742.127	510.872	-0.010	-0.024
-741.112	-61.392	-0.131	-0.056
-740.098	-164.760	-0.266	0.012
-739.083	-62.467	0.240	0.101
-738.069	29.600	0.160	0.137
-737.054	94.795	-0.091	-0.104
-736.039	-147.231	-0.592	0.051
-735.025	186.224	0.196	0.295
-734.010	70.050	-0.348	-0.362
-732.996	-200.000	-0.021	0.117
-731.981	26.393	0.234	-0.198
-730.966	-164.191	-0.232	-0.011
-729.952	-97.181	-0.639	-0.168
-728.937	-93.916	0.204	0.057
-727.923	143.126	0.210	-0.282
-726.908	-187.483	-0.448	-0.006
-725.894	-23.725	-0.243	-0.147
-724.879	-200.000	0.018	0.279
-723.864	-37.707	-0.241	-0.130
-722.850	105.643	-0.176	0.210
-721.835	23.638	-0.195	-0.162
-720.821	-19.319	-0.065	-0.041
-719.806	-200.000	-0.073	-0.516
-718.791	-92.542	0.181	-0.051
-717.777	-200.000	-0.022	-0.257
-716.762	-2.244	0.084	-0.060
-715.748	464.911	-0.051	-0.115
-714.733	-145.683	0.183	0.016
-713.718	51.951	0.142	0.136
-712.704	292.913	0.121	0.222
-711.689	-200.000	-0.016	-0.298
-710.675	800.000	-0.073	0.232
-709.660	-200.000	-0.059	0.341
-708.645	126.193	-0.168	-0.215
-707.631	100.561	-0.135	0.158
-706.616	-103.201	0.168	0.040
-705.602	800.000	-0.099	0.374
-704.587	-51.734	0.124	0.058
-703.572	-200.000	-0.033	0.185
-702.558	-200.000	0.029	-0.166
-701.543	800.000	0.012	-0.047
-700.529	773.611	-0.066	-0.181
-699.514	-98.764	0.142	-0.037
-698.499	800.000	-0.056	0.193
-697.485	-158.437	0.197	0.011
-696.470	-200.000	0.039	-0.319
-695.456	-71.123	0.277	-0.105
-694.441	800.000	-0.086	-0.362
-693.426	124.063	-0.155	0.196
-692.412	800.000	-0.056	-0.164
-691.397	-200.000	-0.035	-0.180
-690.383	800.000	0.029	-0.102
-689.368	-103.677	0.249	-0.059
-688.354	-160.978	-0.078	-0.004
-687.339	-200.000	0.040	0.273
-686.324	-200.000	-0.012	-0.236
-685.310	-158.774	-0.392	-0.023
-684.295	-24.712	-0.153	-0.092
-683.281	761.245	0.016	-0.044
-682.266	73.260	-0.212	-0.223
-681.251	67.897	0.182	0.188
-680.237	-116.967	-0.253	-0.047
-679.222	291.426	-0.140	-0.256
-678.208	-124.916	0.038	-0.006
-677.193	-119.782	0.077	0.013
-676.178	-43.457	0.157	0.080
-675.164	78.294	-0.122	0.131
-674.149	291.157	-0.004	0.008
-673.135	-51.022	-0.107	-0.051
-672.120	196.502	0.036	-0.055
-671.105	214.675	-0.091	-0.145
-670.091	339.055	0.086	-0.168
-669.076	726.338	-0.042	0.114
-668.062	83.425	0.022	0.024
-667.047	19.097	-0.080	0.065
-666.032	-200.000	-0.004	-0.149
-665.018	652.477	0.079	-0.204
-664.003	265.285	0.134	-0.236
-662.989	800.000	0.114	-0.343
-661.974	-20.035	-0.370	0.230
-660.959	800.000	-0.013	0.050
-659.945	131.985	-0.059	0.077
-658.930	-200.000	-0.021	0.157
-657.916	-24.525	-0.369	-0.221
-656.901	448.908	-0.115	0.256
-655.886	-200.000	0.020	0.160
-654.872	575.172	-0.036	0.087
-653.857	800.000	0.071	0.209
-652.843	-28.230	0.271	-0.158
-651.828	104.909	0.046	0.054
-650.814	5.499	-0.236	0.175
-649.799	-74.199	-0.255	-0.093
-648.784	-200.000	-0.008	0.057
-647.770	313.830	0.113	0.214
-646.755	-200.000	0.019	0.125
-645.741	-108.732	-0.127	0.027
-644.726	-23.161	0.250	0.151
-643.711	81.812	-0.007	0.008
-642.697	-82.103	-0.163	0.054
-641.682	-102.655	-0.203	-0.049
-640.668	31.073	0.273	0.235
-639.653	-200.000	0.008	-0.163
-638.638	-97.994	0.307	0.080
-637.624	-88.697	-0.477	0.143
-636.609	89.193	-0.134	0.151
-635.595	-142.284	-0.032	0.003
-634.580	664.485	0.031	-0.081
-633.565	396.987	-0.042	-0.089
-632.551	800.000	0.062	0.250
-631.536	53.289	-0.306	0.295
-630.522	26.447	-0.126	0.106
-629.507	-200.000	0.019	-0.284
-628.492	-24.826	-0.055	-0.033
-627.478	104.995	-0.063	-0.075
-626.463	-200.000	-0.008	-0.164
-625.449	-167.672	-0.174	-0.007
-624.434	-200.000	0.038	0.169
-623.419	377.946	-0.117	0.239
-622.405	-113.317	0.292	-0.058
-621.390	-200.000	0.011	-0.069
-620.376	-52.593	-0.036	0.017
-619.361	-200.000	0.022	0.104
-618.346	452.378	-0.032	0.070
-617.332	-128.838	0.184	-0.026
-616.317	-117.883	-0.289	-0.052
-615.303	20.974	-0.068	-0.056
-614.288	-64.293	-0.301	0.123
-613.273	77.305	0.087	0.093
-612.259	-79.979	-0.298	-0.100
-611.244	-25.901	-0.170	-0.100
-610.230	-136.357	-0.175	-0.021
-609.215	800.000	-0.073	0.267
-608.201	800.000	-0.013	0.054
-607.186	361.416	0.108	-0.217
-606.171	-200.000	0.002	0.019
-605.157	-200.000	-0.043	-0.302
-604.142	-108.096	0.198	-0.043
-603.128	-200.000	-0.055	-0.270
-602.113	-36.734	-0.149	-0.081
-601.098	9.808	0.182	-0.139
-600.084	71.631	0.165	-0.172
-599.069	-166.247	0.036	0.002
-598.055	-188.036	-0.430	-0.006
-597.040	-117.809	-0.135	-0.024
-596.025	-200.000	0.057	-0.370
-595.011	-191.686	-0.361	0.004
-593.996	800.000	-0.062	-0.272
-592.982	-82.826	-0.224	-0.073
-591.967	-147.283	-0.314	0.027
-590.952	-168.698	-0.233	-0.009
-589.938	-200.000	-0.020	-0.153
-588.923	-85.058	-0.123	0.039
-587.909	79.614	0.088	-0.095
-586.894	-200.000	0.026	-0.317
-585.879	-165.231	-0.259	0.011
-584.865	227.856	-0.058	0.094
-583.850	174.492	0.135	0.196
-582.836	800.000	0.046	0.129
-581.821	252.701	0.146	-0.250
-580.806	319.993	-0.045	-0.086
-579.792	-135.857	-0.350	0.041
-578.777	-200.000	0.042	0.280
-577.763	-73.023	0.300	-0.110
-576.748	-200.000	0.019	-0.143
-575.733	27.795	0.139	0.117
-574.719	20.256	0.223	0.181
-573.704	20.898	0.194	0.158
-572.690	0.206	-0.197	0.141
-571.675	-178.824	-0.322	0.007
-570.661	73.279	-0.301	-0.316
-569.646	201.410	0.116	0.180
-568.631	-80.512	-0.089	0.030
-567.617	-49.427	-0.213	-0.102
-566.602	-200.000	0.053	0.277
-565.588	88.741	0.212	-0.237
-564.573	-200.000	-0.024	-0.160
-563.558	102.890	-0.182	-0.214
-562.544	-113.042	0.233	-0.046
-561.529	-200.000	0.013	-0.203
-560.515	57.177	-0.059	0.058
-559.500	55.259	0.029	-0.028
-558.485	174.496	-0.117	-0.170
-557.471	307.951	0.046	-0.086
-556.456	-129.571	0.254	0.035
-555.442	94.244	0.087	0.099
-554.427	485.673	-0.117	0.266
-553.412	569.405	-0.069	-0.169
-552.398	-153.719	0.306	0.021
-551.383	-106.502	0.072	0.016
-550.369	42.074	0.168	-0.153
-549.354	10.131	0.116	0.089
-548.339	-158.286	-0.152	-0.009
-547.325	-51.486	0.136	-0.064
-546.310	313.562	-0.154	-0.291
-545.296	-200.000	-0.008	-0.083
-544.281	342.799	-0.159	-0.312
-543.266	169.528	0.045	-0.065
-542.252	338.984	0.117	-0.229
-541.237	-9.684	0.094	-0.062
-540.223	-200.000	-0.014	0.177
-539.208	38.342	0.147	-0.131
-538.193	461.417	0.043	-0.096
-537.179	39.604	0.038	-0.034
-536.164	-200.000	0.011	0.131
-535.150	23.196	0.256	0.211
-534.135	119.385	-0.064	0.079
-533.121	-148.437	0.160	0.013
-532.106	800.000	0.052	0.165
-531.091	194.767	-0.104	0.158
-530.077	593.454	-0.069	-0.171
-529.062	495.444	0.034	-0.078
-528.048	-200.000	0.021	0.246
-527.033	177.069	0.276	-0.402
-526.018	107.413	0.038	0.046
-525.004	800.000	-0.060	-0.211
-523.989	-157.492	-0.120	-0.007
-522.975	-48.300	0.117	0.057
-521.960	135.772	0.153	-0.200
-520.945	123.668	0.092	-0.115
-519.931	-127.184	-0.112	0.016
-518.916	382.427	0.201	-0.413
-517.902	-80.203	-0.139	0.046
-516.887	80.489	0.194	0.209
-515.872	-200.000	0.001	-0.077
-514.858	-148.367	0.349	-0.029
-513.843	125.487	0.124	0.157
-512.829	-73.959	-0.053	-0.019
-511.814	-62.394	-0.384	-0.160
-510.799	-200.000	0.003	0.293
-509.785	301.663	-0.064	0.118
-508.770	4.140	-0.125	-0.092
-507.756	-63.394	-0.368	-0.152
-506.741	800.000	0.125	0.467
-505.726	-100.065	0.370	0.092
-504.712	800.000	-0.141	0.410
-503.697	-24.946	0.104	-0.062
-502.683	-92.270	-0.038	0.011
-501.668	82.144	-0.108	0.117
-500.653	-126.013	0.093	-0.014
-499.639	14.505	-0.152	-0.118
-498.624	738.908	-0.094	-0.253
-497.610	114.586	0.066	-0.081
-496.595	124.942	-0.253	0.319
-495.581	-183.396	-0.309	0.005
-494.566	-79.553	-0.172	0.058
-493.551	-53.043	-0.155	0.071
-492.537	53.165	-0.168	-0.161
-491.522	14.601	0.258	0.202
-490.508	-75.502	0.093	0.033
-489.493	-44.489	-0.346	0.173
-488.478	-100.352	-0.244	0.061
-487.464	-119.100	0.208	0.036
-486.449	468.463	-0.168	0.376
-485.435	83.270	-0.201	0.219
-484.420	-82.622	0.047	-0.015
-483.405	304.800	0.119	-0.220
-482.391	-7.267	-0.152	-0.103
-481.376	117.441	0.066	-0.082
-480.362	468.142	-0.147	0.330
-479.347	800.000	-0.034	-0.103
-478.332	-69.777	-0.082	0.031
-477.318	31.091	0.036	0.031
-476.303	-200.000	0.063	-0.404
-475.289	609.343	-0.053	-0.133
-474.274	-108.605	0.535	-0.115
-473.259	197.634	-0.122	-0.186
-472.245	-113.405	-0.509	-0.100
-471.230	-95.843	0.092	-0.024
-470.216	534.949	0.087	-0.206
-469.201	-21.557	-0.185	0.113
-468.186	-200.000	0.034	0.190
-467.172	-99.123	-0.316	0.080
-466.157	-110.477	0.338	-0.070
-465.143	-200.000	-0.009	-0.129
-464.128	-78.347	0.336	0.115
-463.113	-50.256	0.098	-0.046
-462.099	14.405	0.246	0.192
-461.084	94.104	0.075	-0.085
-460.070	434.003	-0.073	-0.158
-459.055	-84.738	-0.153	0.048
-458.040	-200.000	-0.055	0.406
-457.026	46.787	0.093	-0.086
-456.011	-200.000	0.001	0.480
-454.997	34.167	0.424	0.369
-453.982	164.719	-0.030	0.042
-452.968	589.832	-0.030	-0.073
-451.953	-56.809	-0.061	0.027
-450.938	116.307	-0.114	0.139
-449.924	23.226	0.130	0.107
-448.909	-200.000	-0.035	-0.336
-447.895	-165.878	-0.199	-0.009
-446.880	767.104	0.117	0.318
-445.865	-200.000	0.007	-0.046
-444.851	800.000	-0.088	0.335
-443.836	-200.000	0.003	-0.091
-442.822	299.216	0.092	0.169
-441.807	-113.310	0.327	-0.064
-440.792	201.986	0.127	0.196
-439.778	66.092	0.212	-0.215
-438.763	-200.000	-0.046	0.205
-437.749	39.436	0.074	-0.066
-436.734	28.242	-0.135	-0.114
-435.719	-6.582	0.037	-0.025
-434.705	-32.042	0.444	0.248
-433.690	-129.488	-0.209	0.029
-432.676	51.693	0.033	-0.031
-431.661	126.676	-0.246	0.311
-430.646	800.000	0.019	-0.057
-429.632	60.798	-0.176	0.174
-428.617	463.304	-0.224	-0.498
-427.603	71.388	-0.101	0.105
-426.588	-200.000	-0.017	0.256
-425.573	65.859	0.149	-0.150
-424.559	-200.000	0.009	0.215
-423.544	164.874	0.199	0.280
-422.530	185.343	-0.160	0.237
-421.515	95.897	0.040	0.045
-420.500	-127.032	0.523	-0.077
-419.486	470.095	-0.198	-0.443
-418.471	-200.000	-0.017	0.132
-417.457	800.000	0.018	-0.056
-416.442	-110.801	0.162	0.033
-415.428	62.620	0.162	0.162
-414.413	-76.875	-0.130	-0.045
-413.398	338.461	-0.143	-0.278
-412.384	84.753	-0.179	-0.195
-411.369	-124.253	0.079	-0.012
-410.355	-136.989	0.116	0.013
-409.340	-43.881	0.189	0.095
-408.325	-126.235	-0.243	0.036
-407.311	-7.443	0.141	0.095
-406.296	618.266	0.075	0.188
-405.282	-31.720	-0.211	-0.118
-404.267	800.000	0.055	-0.177
-403.252	-200.000	0.017	-0.333
-402.238	576.388	0.022	-0.054
-401.223	-200.000	-0.011	0.126
-400.209	-14.878	0.158	0.101
-399.194	149.901	0.130	0.175
-398.179	-49.316	-0.071	-0.034
-397.165	800.000	-0.081	-0.222
-396.150	183.324	0.083	0.122
-395.136	419.772	0.093	-0.199
-394.121	-138.497	-0.086	-0.009
-393.106	-151.153	0.068	-0.005
-392.092	-180.267	-0.115	0.002
-391.077	-200.000	-0.007	0.116
-390.063	-21.479	0.238	0.145
-389.048	-74.817	0.145	-0.052
-388.033	59.243	0.116	-0.114
-387.019	28.937	-0.462	-0.390
-386.004	-127.348	0.273	-0.040
-384.990	493.760	-0.085	0.195
-383.975	196.366	0.089	0.136
-382.960	-19.918	0.131	-0.080
-381.946	-200.000	-0.001	-0.183
-380.931	-137.613	-0.084	0.009
-379.917	76.322	-0.131	0.139
-378.902	-132.704	0.233	-0.030
-377.888	452.277	-0.113	-0.248
-376.873	800.000	-0.054	0.149
-375.858	291.429	0.154	-0.279
-374.844	316.471	0.077	-0.144
-373.829	-24.672	-0.138	0.082
-372.815	91.023	0.138	0.154
-371.800	-78.246	0.399	0.136
-370.785	-29.798	0.238	-0.135
-369.771	800.000	0.047	0.201
-368.756	210.198	0.078	-0.121
-367.742	259.186	0.204	-0.349
-366.727	-28.624	-0.183	0.105
-365.712	-200.000	0.143	-0.000
-364.698	153.905	-0.126	-0.172
-363.683	-52.077	0.239	0.110
-362.669	-10.939	-0.271	0.178
-361.654	-22.163	0.246	-0.148
-360.639	311.383	-0.070	-0.130
-359.625	281.474	0.183	-0.325
-358.610	-106.541	-0.386	0.086
-357.596	14.820	0.151	0.118
-356.581	74.175	-0.184	0.192
-355.566	800.000	-0.068	0.292
-354.552	-200.000	-0.013	-0.471
-353.537	-6.304	0.055	-0.037
-352.523	-56.370	0.059	0.026
-351.508	-155.906	-0.261	0.016
-350.493	79.711	-0.173	0.185
-349.479	38.211	-0.139	0.123
-348.464	179.733	-0.100	-0.146
-347.450	-200.000	0.023	-0.186
-346.435	800.000	0.074	-0.211
-345.420	524.877	-0.054	-0.127
-344.406	-87.304	-0.045	-0.014
-343.391	-18.122	-0.565	-0.352
-342.377	-30.010	-0.045	-0.026
-341.362	-96.307	0.497	0.131
-340.348	480.725	-0.125	-0.281
-339.333	-200.000	0.019	-0.387
-338.318	800.000	0.109	0.329
-337.304	64.942	-0.095	0.095
-336.289	126.294	0.082	0.103
-335.275	27.605	0.096	0.080
-334.260	411.278	-0.153	-0.323
-333.245	59.444	-0.052	-0.051
-332.231	-200.000	-0.011	0.145
-331.216	284.908	-0.222	-0.397
-330.202	-93.972	0.119	-0.032
-329.187	-200.000	0.000	-0.015
-328.172	33.077	-0.038	0.033
-327.158	-200.000	-0.019	0.260
-326.143	217.365	-0.427	0.675
-325.129	25.836	0.210	-0.174
-324.114	-12.443	0.147	0.096
-323.099	-147.219	0.099	0.008
-322.085	246.496	0.100	0.167
-321.070	-39.299	-0.262	-0.137
-320.056	235.817	0.046	-0.076
-319.041	-74.602	0.186	0.066
-318.026	781.948	0.164	0.447
-317.012	-127.831	0.102	-0.015
-315.997	-200.000	-0.039	0.177
-314.983	-200.000	-0.031	-0.290
-313.968	-200.000	-0.017	0.144
-312.953	303.558	0.153	-0.282
-311.939	-39.941	0.235	-0.122
-310.924	-104.023	-0.222	0.051
-309.910	-69.698	0.180	0.068
-308.895	-21.969	-0.143	-0.086
-307.880	-60.097	0.233	-0.099
-306.866	-6.890	-0.279	0.188
-305.851	-40.725	-0.085	-0.044
-304.837	152.713	0.131	0.177
-303.822	-200.000	-0.067	0.312
-302.807	-21.415	-0.281	0.170
-301.793	652.484	-0.034	0.086
-300.778	800.000	0.070	-0.233
-299.764	-200.000	0.033	-0.153
-298.749	-77.586	0.098	0.034
-297.735	591.659	-0.063	-0.155
-296.720	-35.026	-0.217	-0.118
-295.705	-200.000	-0.016	-0.087
-294.691	236.250	0.166	0.272
-293.676	329.225	-0.166	0.317
-292.662	-76.864	-0.355	0.123
-291.647	-200.000	-0.006	0.297
-290.632	15.614	0.104	0.081
-289.618	-104.922	-0.287	-0.065
-288.603	40.717	-0.038	0.034
-287.589	116.325	0.045	-0.055
-286.574	-52.038	-0.233	0.107
-285.559	-133.825	0.019	-0.002
-284.545	-41.665	0.311	0.158
-283.530	-66.329	0.087	0.034
-282.516	258.330	-0.044	-0.076
-281.501	-3.398	-0.038	0.026
-280.486	264.176	-0.112	-0.193
-279.472	-133.739	-0.182	0.022
-278.457	800.000	-0.075	0.256
-277.443	-59.469	0.188	-0.080
-276.428	-32.082	-0.272	-0.151
-275.413	-200.000	0.004	0.033
-274.399	-200.000	-0.024	-0.226
-273.384	115.165	0.051	-0.062
-272.370	-104.299	-0.323	0.074
-271.355	107.974	-0.069	-0.081
-270.340	-101.402	0.127	0.031
-269.326	-92.904	0.344	-0.095
-268.311	297.259	0.096	-0.175
-267.297	32.701	-0.201	-0.172
-266.282	-200.000	-0.033	0.174
-265.267	-200.000	0.008	-0.071
-264.253	-84.884	-0.227	-0.071
-263.238	31.284	0.202	0.171
-262.224	37.138	0.015	-0.013
-261.209	-177.974	0.122	0.003
-260.195	-200.000	0.002	0.164
-259.180	-26.592	0.248	-0.144
-258.165	-71.474	0.255	-0.095
-257.151	211.799	0.171	0.266
-256.136	-200.000	-0.004	-0.050
-255.122	54.251	-0.153	-0.146
-254.107	6.715	0.246	0.181
-253.092	-59.876	-0.037	-0.015
-252.078	-200.000	0.035	-0.260
-251.063	-150.876	-0.282	0.021
-250.049	-46.428	-0.057	0.028
-249.034	-200.000	-0.017	-0.296
-248.019	-108.595	0.110	0.023
-247.005	-200.000	0.029	-0.210
-245.990	-95.060	0.095	0.026
-244.976	-147.788	-0.126	-0.010
-243.961	-116.386	0.180	0.033
-242.946	-136.124	-0.598	0.069
-241.932	24.303	0.053	0.043
-240.917	-68.159	-0.120	-0.046
-239.903	-149.260	0.137	0.011
-238.888	-45.267	0.312	-0.153
-237.873	-200.000	-0.002	0.468
-236.859	-200.000	-0.026	0.315
-235.844	800.000	0.039	0.160
-234.830	-16.415	0.295	0.185
-233.815	-200.000	0.007	0.262
-232.800	13.037	-0.108	0.083
-231.786	-89.041	0.283	-0.083
-230.771	47.555	-0.208	-0.192
-229.757	-1.713	0.285	0.199
-228.742	-30.694	-0.184	0.103
-227.727	-108.726	0.154	-0.033
-226.713	74.615	0.185	0.193
-225.698	21.536	-0.418	0.337
-224.684	377.226	-0.030	0.061
-223.669	-86.866	0.193	-0.058
-222.655	35.094	0.202	0.175
-221.640	-170.267	0.194	-0.007
-220.625	65.599	0.086	-0.086
-219.611	7.536	0.084	0.062
-218.596	800.000	0.066	0.209
-217.582	64.738	0.127	0.126
-216.567	48.843	0.319	0.297
-215.552	800.000	0.048	0.164
-214.538	-109.280	-0.306	0.064
-213.523	-77.781	-0.180	0.061
-212.509	-200.000	-0.003	0.046
-211.494	88.434	0.225	0.247
-210.479	0.677	-0.168	0.119
-209.465	-50.995	-0.301	0.140
-208.450	-200.000	0.055	-0.532
-207.436	-200.000	-0.017	-0.240
-206.421	-113.415	-0.234	-0.045
-205.406	-147.199	0.252	0.021
-204.392	13.648	-0.107	0.082
-203.377	24.668	0.137	-0.112
-202.363	147.809	0.080	0.107
-201.348	-1.414	0.228	-0.159
-200.333	-75.975	-0.235	-0.082
-199.319	-37.515	0.295	0.156
-198.304	-124.124	-0.104	-0.016
-197.290	-200.000	-0.004	-0.154
-196.275	-200.000	0.005	0.170
-195.260	5.839	-0.067	0.049
-194.246	-200.000	-0.008	-0.059
-193.231	-33.519	-0.127	0.069
-192.217	333.033	-0.106	-0.203
-191.202	150.579	0.209	-0.280
-190.187	118.233	-0.045	-0.054
-189.173	-19.580	0.064	0.039
-188.158	-200.000	0.031	-0.179
-187.144	159.469	0.151	-0.208
-186.129	-167.950	0.481	0.019
-185.114	-62.145	-0.180	-0.074
-184.100	-200.000	-0.013	-0.091
-183.085	5.213	0.088	0.064
-182.071	-200.000	0.011	-0.478
-181.056	355.881	0.134	-0.264
-180.042	800.000	-0.048	-0.173
-179.027	284.641	0.037	0.066
-178.012	-200.000	0.324	-0.001
-176.998	-144.926	-0.086	0.008
-175.983	-133.646	0.226	0.028
-174.969	117.614	0.057	0.069
-173.954	-159.019	-0.295	0.017
-172.939	118.151	0.049	-0.060
-171.925	469.569	-0.093	-0.207
-170.910	-26.569	-0.379	0.219
-169.896	-200.000	0.010	-0.112
-168.881	230.102	-0.032	-0.051
-167.866	-71.867	-0.158	-0.058
-166.852	-154.373	0.378	0.025
-165.837	320.645	-0.085	-0.160
-164.823	-200.000	0.005	-0.075
-163.808	432.577	0.091	0.195
-162.793	-200.000	0.001	0.387
-161.779	46.407	0.110	-0.101
-160.764	728.388	-0.093	-0.245
-159.750	-45.316	-0.252	0.123
-158.735	-200.000	-0.007	-0.056
-157.720	-92.422	0.143	-0.040
-156.706	-107.476	0.289	0.063
-155.691	-70.633	0.160	0.060
-154.677	142.188	-0.013	0.016
-153.662	12.938	-0.061	0.046
-152.647	-200.000	0.008	-0.454
-151.633	-90.488	-0.088	-0.025
-150.618	80.737	-0.062	-0.066
-149.604	-95.813	0.162	-0.043
-148.589	143.441	-0.137	-0.179
-147.574	-31.319	-0.196	0.109
-146.560	117.263	0.090	0.109
-145.545	-200.000	0.038	-0.290
-144.531	72.250	-0.137	0.140
-143.516	800.000	-0.020	0.071
-142.502	116.589	-0.166	0.200
-141.487	-110.608	0.233	-0.048
-140.472	800.000	0.139	-0.500
-139.458	-8.378	-0.240	-0.159
-138.443	690.302	0.046	-0.118
-137.429	-200.000	-0.023	-0.374
-136.414	-21.027	0.103	-0.062
-135.399	225.182	0.189	0.301
-134.385	-189.306	-0.488	0.006
-133.370	-138.119	-0.221	-0.024
-132.356	-42.562	-0.389	0.195
-131.341	-33.813	0.237	-0.129
-130.326	-53.302	-0.178	0.081
-129.312	-138.815	-0.192	0.021
-128.297	152.972	-0.092	-0.124
-127.283	168.608	0.160	0.225
-126.268	138.161	-0.059	0.077
-125.253	-87.767	0.162	0.048
-124.239	-97.050	0.470	0.121
-123.224	800.000	-0.070	0.259
-122.210	697.184	0.128	0.332
