DTS Sentinel unit serial number:	SN413079Multiplexer serial number:	ORYXHardware model number:	OX4-SRSoftware version number:	ORYX F/W v4.00 Oryx Data Collector v3.7.2.0data status	okinstallation	princeton_trtdifferential loss correction	single-endedforward channel	channel 4reverse channel	N/Adate	2019/09/16time	04:45:35forward acquisition time	60.00reverse acquisition time	0.00gamma	496.2192k internal	0.2321k external	0.2321temperature offset calibration	0.9979default loss term (dB/km)	0.3790temperature slope calibration	1.0000multiplexer offset coefficient	1.0000multiplexer slope coefficient	1.0000fibre end	0.00T internal ref (°C)	27.19T ext. ref 1 (°C)	10.92T ext. ref 2 (°C)	21.47length (m)	temperature (°C)	Stokes	anti-Stokes-747.200	401.805	0.175	0.372
-746.185	180.044	-0.176	0.261
-745.171	-151.810	0.398	-0.030
-744.156	-70.174	-0.102	-0.039
-743.142	46.605	-0.132	0.124
-742.127	-146.796	-0.403	0.035
-741.112	-139.230	0.203	-0.022
-740.098	-31.954	0.005	0.003
-739.083	-154.194	-0.442	0.030
-738.069	-54.447	-0.426	0.195
-737.054	62.473	-0.381	0.385
-736.039	-190.230	-0.412	-0.005
-735.025	-125.178	0.184	0.028
-734.010	-135.028	0.235	-0.029
-732.996	-132.724	-0.212	-0.027
-731.981	4.976	-0.137	-0.102
-730.966	-31.585	-0.224	-0.127
-729.952	-80.417	-0.203	-0.068
-728.937	-200.000	0.021	0.096
-727.923	-148.981	-0.177	-0.014
-726.908	-126.788	0.123	-0.018
-725.894	344.077	0.066	-0.131
-724.879	-86.183	0.325	0.101
-723.864	-76.604	-0.258	0.091
-722.850	13.931	0.247	-0.194
-721.835	85.163	-0.173	0.192
-720.821	294.653	-0.142	0.262
-719.806	-15.510	-0.086	-0.056
-718.791	-148.366	-0.155	0.013
-717.777	181.706	-0.124	0.185
-716.762	154.335	-0.088	-0.122
-715.748	281.922	-0.115	-0.209
-714.733	-128.354	0.115	-0.016
-713.718	-200.000	0.050	0.252
-712.704	-46.269	-0.231	0.115
-711.689	-71.263	0.261	-0.099
-710.675	51.295	-0.018	0.017
-709.660	-136.067	-0.179	0.021
-708.645	-146.998	-0.187	-0.016
-707.631	56.690	0.175	-0.172
-706.616	329.284	0.222	0.430
-705.602	-46.445	-0.182	-0.090
-704.587	-33.577	0.162	-0.090
-703.572	178.840	-0.138	-0.203
-702.558	-145.604	-0.245	-0.022
-701.543	-200.000	0.019	-0.101
-700.529	-104.478	-0.050	-0.012
-699.514	800.000	0.066	-0.276
-698.499	-70.143	-0.091	0.035
-697.485	-125.807	0.105	-0.016
-696.470	471.311	-0.087	-0.199
-695.456	7.393	0.044	-0.033
-694.441	63.236	0.068	-0.069
-693.426	-35.220	0.145	0.080
-692.412	-78.711	-0.415	0.143
-691.397	-200.000	0.044	-0.203
-690.383	12.646	0.240	0.187
-689.368	-99.076	-0.284	0.073
-688.354	87.165	-0.345	0.384
-687.339	-160.791	-0.208	-0.011
-686.324	-36.357	0.394	-0.214
-685.310	-138.751	0.259	-0.028
-684.295	-95.606	0.134	0.036
-683.281	-200.000	-0.021	-0.245
-682.266	-33.692	0.186	0.103
-681.251	37.400	-0.180	0.161
-680.237	-45.275	-0.251	0.126
-679.222	4.732	-0.340	-0.252
-678.208	800.000	-0.030	-0.091
-677.193	-200.000	0.045	-0.212
-676.178	-37.378	0.098	0.053
-675.164	256.318	0.074	-0.128
-674.149	26.103	-0.264	-0.222
-673.135	-38.095	-0.110	0.059
-672.120	-8.849	0.149	0.101
-671.105	-200.000	0.005	0.284
-670.091	354.642	-0.045	0.090
-669.076	-50.744	0.020	-0.009
-668.062	-138.079	0.335	0.037
-667.047	-64.030	-0.320	-0.132
-666.032	124.534	0.176	-0.223
-665.018	800.000	-0.088	-0.334
-664.003	237.536	0.014	-0.023
-662.989	-103.754	-0.097	0.023
-661.974	-89.411	-0.563	-0.167
-660.959	-124.710	-0.315	-0.049
-659.945	-56.529	-0.147	-0.066
-658.930	-110.012	-0.490	-0.103
-657.916	-6.998	-0.382	-0.261
-656.901	334.343	-0.164	-0.320
-655.886	-86.268	0.263	0.082
-654.872	800.000	-0.113	0.347
-653.857	-200.000	0.011	-0.276
-652.843	-200.000	-0.004	-0.393
-651.828	-200.000	0.029	0.178
-650.814	-50.250	-0.153	0.073
-649.799	-200.000	0.010	-0.435
-648.784	-130.225	0.250	0.034
-647.770	-39.826	-0.479	-0.252
-646.755	17.380	-0.291	0.232
-645.741	26.523	-0.146	0.123
-644.726	126.984	-0.190	-0.242
-643.711	800.000	0.104	-0.382
-642.697	-38.706	0.098	0.052
-641.682	755.572	0.060	-0.163
-640.668	-79.093	0.116	0.040
-639.653	800.000	-0.067	0.199
-638.638	-200.000	0.010	0.330
-637.624	36.208	-0.169	0.150
-636.609	-170.110	-0.029	0.001
-635.595	800.000	0.035	-0.112
-634.580	-200.000	0.013	-0.187
-633.565	-51.983	-0.191	0.089
-632.551	-29.494	-0.220	-0.127
-631.536	-91.083	-0.212	0.061
-630.522	-76.260	-0.197	0.070
-629.507	-200.000	0.012	0.118
-628.492	32.305	-0.052	-0.045
-627.478	800.000	0.121	0.361
-626.463	225.144	-0.156	0.254
-625.449	800.000	0.062	-0.189
-624.434	-200.000	0.014	0.128
-623.419	32.465	-0.182	0.158
-622.405	-200.000	0.035	0.191
-621.390	-28.834	-0.323	0.187
-620.376	79.205	0.086	0.093
-619.361	-115.632	0.272	-0.051
-618.346	-11.176	0.156	-0.103
-617.332	-200.000	0.003	-0.134
-616.317	-83.339	-0.176	-0.057
-615.303	-200.000	-0.041	0.190
-614.288	255.184	-0.119	-0.205
-613.273	-67.500	0.031	-0.012
-612.259	-129.548	-0.029	0.004
-611.244	73.765	-0.201	0.212
-610.230	-40.358	-0.111	0.058
-609.215	129.887	-0.043	-0.055
-608.201	41.056	0.183	-0.166
-607.186	-120.297	0.154	0.026
-606.171	94.929	-0.104	-0.119
-605.157	-130.909	0.197	0.027
-604.142	-95.269	-0.259	0.070
-603.128	166.308	-0.186	-0.264
-602.113	800.000	-0.103	-0.294
-601.098	-51.592	0.219	-0.103
-600.084	-78.121	-0.233	-0.081
-599.069	10.377	0.146	-0.111
-598.055	-21.678	-0.173	-0.106
-597.040	-200.000	0.071	0.320
-596.025	-200.000	0.008	0.157
-595.011	-200.000	0.020	-0.183
-593.996	36.630	-0.101	0.090
-592.982	-46.789	-0.187	0.092
-591.967	50.157	0.106	0.101
-590.952	-63.014	-0.212	0.088
-589.938	114.412	-0.164	-0.201
-588.923	87.022	-0.206	0.229
-587.909	-125.046	0.397	0.061
-586.894	29.477	-0.219	0.187
-585.879	-33.675	-0.095	-0.053
-584.865	166.355	0.246	-0.351
-583.850	-24.350	-0.149	-0.089
-582.836	-9.152	-0.188	-0.126
-581.821	676.259	-0.128	0.335
-580.806	-113.524	-0.225	0.044
-579.792	-111.817	0.377	0.076
-578.777	-70.419	0.417	0.159
-577.763	122.046	0.106	0.133
-576.748	-200.000	0.043	-0.240
-575.733	-70.849	-0.195	-0.074
-574.719	-200.000	0.051	-0.317
-573.704	-106.661	0.212	-0.047
-572.690	85.308	0.146	-0.160
-571.675	-200.000	-0.007	0.266
-570.661	-62.775	-0.119	-0.049
-569.646	184.884	-0.029	0.044
-568.631	-57.879	0.214	-0.094
-567.617	324.136	-0.080	0.154
-566.602	4.256	-0.154	-0.113
-565.588	32.535	0.085	0.074
-564.573	-120.149	-0.339	-0.058
-563.558	114.113	-0.338	-0.413
-562.544	-200.000	0.001	0.033
-561.529	-200.000	-0.062	-0.295
-560.515	-159.270	-0.429	-0.024
-559.500	237.817	0.107	0.178
-558.485	742.651	0.021	-0.057
-557.471	-200.000	-0.085	0.493
-556.456	563.675	0.046	0.111
-555.442	246.763	-0.105	0.178
-554.427	238.507	-0.151	0.252
-553.412	-39.261	0.117	-0.062
-552.398	-115.519	0.310	-0.058
-551.383	-91.377	-0.103	0.030
-550.369	53.142	-0.117	0.112
-549.354	93.180	0.076	0.087
-548.339	800.000	-0.038	-0.150
-547.325	35.520	0.247	0.217
-546.310	507.489	-0.073	0.170
-545.296	-25.996	0.008	-0.004
-544.281	38.419	-0.068	-0.061
-543.266	-200.000	-0.038	-0.182
-542.252	-138.583	-0.156	0.017
-541.237	-69.577	0.108	0.041
-540.223	-43.975	0.280	-0.141
-539.208	10.516	-0.038	-0.029
-538.193	-166.427	0.240	-0.010
-537.179	-169.498	0.085	0.003
-536.164	577.139	0.138	-0.338
-535.150	114.344	0.186	-0.227
-534.135	-82.445	-0.145	-0.047
-533.121	-141.665	-0.437	0.044
-532.106	-99.455	0.187	0.047
-531.091	63.425	-0.242	0.244
-530.077	-200.000	0.007	-0.431
-529.062	43.849	-0.168	-0.154
-528.048	-174.252	-0.459	0.013
-527.033	362.753	0.041	0.082
-526.018	38.596	0.154	0.137
-525.004	70.127	-0.210	-0.217
-523.989	800.000	-0.069	-0.192
-522.975	64.006	-0.074	-0.075
-521.960	36.959	-0.051	-0.045
-520.945	-66.030	0.256	-0.102
-519.931	-76.962	0.173	-0.061
-518.916	-200.000	0.001	-0.088
-517.902	458.031	0.044	0.097
-516.887	508.677	0.110	0.257
-515.872	-40.819	0.116	-0.060
-514.858	-110.977	0.266	0.055
-513.843	-170.322	-0.341	0.012
-512.829	-145.382	0.215	-0.019
-511.814	-73.154	0.200	0.074
-510.799	-40.993	0.072	-0.037
-509.785	-26.901	0.460	0.269
-508.770	800.000	-0.075	-0.218
-507.756	60.937	0.182	-0.181
-506.741	800.000	0.040	-0.135
-505.726	685.395	0.019	-0.049
-504.712	283.621	0.022	-0.039
-503.697	-116.894	0.404	0.074
-502.683	141.612	-0.120	0.159
-501.668	-40.259	0.124	-0.065
-500.653	64.902	-0.067	-0.067
-499.639	-29.048	0.123	-0.070
-498.624	-200.000	0.014	-0.157
-497.610	-200.000	0.037	0.165
-496.595	-162.662	0.277	0.014
-495.581	-200.000	-0.081	0.409
-494.566	-15.594	-0.214	-0.137
-493.551	-163.166	-0.394	0.019
-492.537	-70.453	0.191	0.072
-491.522	-102.348	-0.153	0.037
-490.508	-200.000	0.010	-0.219
-489.493	-130.904	0.343	-0.046
-488.478	-107.457	0.069	-0.015
-487.464	800.000	-0.111	0.357
-486.449	-141.256	-0.175	-0.018
-485.435	800.000	-0.077	-0.233
-484.420	-132.396	-0.273	-0.035
-483.405	-62.580	0.314	-0.130
-482.391	333.825	0.070	0.136
-481.376	800.000	-0.053	-0.205
-480.362	800.000	-0.070	0.231
-479.347	-54.612	0.320	-0.145
-478.332	692.658	-0.062	-0.163
-477.318	274.147	-0.156	0.276
-476.303	271.793	0.087	0.153
-475.289	-116.116	0.170	-0.032
-474.274	-200.000	0.035	-0.210
-473.259	-75.414	0.074	-0.026
-472.245	-113.672	0.084	-0.016
-471.230	-200.000	0.004	-0.255
-470.216	610.696	-0.143	-0.357
-469.201	-200.000	-0.023	-0.253
-468.186	4.032	0.248	0.181
-467.172	763.411	-0.040	-0.108
-466.157	-200.000	-0.037	0.213
-465.143	-60.286	0.078	-0.033
-464.128	121.975	0.111	-0.139
-463.113	-184.242	0.323	0.005
-462.099	-200.000	-0.008	-0.284
-461.084	-83.731	-0.083	0.027
-460.070	-200.000	0.053	-0.349
-459.055	352.005	0.037	-0.073
-458.040	122.946	-0.130	-0.162
-457.026	-101.345	0.225	-0.055
-456.011	-55.430	-0.126	-0.057
-454.997	367.256	0.237	-0.478
-453.982	257.272	-0.095	-0.164
-452.968	240.541	0.242	0.404
-451.953	-169.778	-0.140	0.005
-450.938	331.234	0.108	-0.209
-449.924	122.055	0.068	0.085
-448.909	219.548	-0.007	0.011
-447.895	800.000	0.055	0.233
-446.880	-109.190	-0.181	0.038
-445.865	-25.446	-0.163	-0.096
-444.851	800.000	0.138	-0.435
-443.836	71.446	0.310	-0.321
-442.822	-200.000	-0.044	0.205
-441.807	-83.788	0.122	-0.039
-440.792	496.460	0.042	-0.095
-439.778	528.523	0.129	-0.303
-438.763	-135.602	0.036	-0.004
-437.749	148.788	-0.091	0.122
-436.734	-11.634	-0.146	0.096
-435.719	16.095	-0.265	-0.209
-434.705	800.000	0.115	0.393
-433.690	-200.000	0.004	0.272
-432.676	-68.787	-0.175	0.067
-431.661	-200.000	0.083	0.473
-430.646	-200.000	-0.007	-0.183
-429.632	-23.281	0.419	-0.252
-428.617	92.399	-0.135	-0.152
-427.603	-200.000	0.031	0.139
-426.588	-200.000	-0.063	0.296
-425.573	800.000	0.047	0.159
-424.559	5.259	-0.145	-0.107
-423.544	568.715	0.086	-0.208
-422.530	-81.004	-0.119	-0.039
-421.515	-200.000	0.010	-0.182
-420.500	-109.945	0.240	-0.050
-419.486	-175.395	-0.168	-0.005
-418.471	281.146	-0.213	-0.381
-417.457	99.270	-0.106	-0.122
-416.442	58.759	-0.136	0.134
-415.428	87.624	0.118	-0.130
-414.413	237.829	-0.169	-0.280
-413.398	-33.727	-0.258	0.142
-412.384	-76.186	-0.151	0.053
-411.369	-200.000	-0.041	-0.292
-410.355	17.165	-0.133	-0.105
-409.340	4.876	0.179	0.131
-408.325	-66.887	-0.417	0.164
-407.311	58.920	-0.301	0.296
-406.296	800.000	0.071	0.302
-405.282	104.688	0.130	0.153
-404.267	800.000	-0.105	0.329
-403.252	-34.739	-0.141	0.077
-402.238	800.000	-0.060	0.199
-401.223	-185.475	-0.204	-0.003
-400.209	-72.744	0.156	-0.057
-399.194	-47.727	0.286	0.138
-398.179	-68.283	-0.188	0.073
-397.165	800.000	0.031	-0.102
-396.150	-200.000	-0.014	-0.114
-395.136	-200.000	-0.017	0.131
-394.121	-117.974	-0.043	0.008
-393.106	-90.715	0.263	-0.076
-392.092	-200.000	0.020	-0.309
-391.077	374.091	0.196	0.397
-390.063	53.335	0.060	0.057
-389.048	-169.324	-0.222	0.008
-388.033	-29.411	-0.303	0.173
-387.019	-79.525	0.270	-0.091
-386.004	277.104	-0.196	-0.347
-384.990	-63.556	-0.189	-0.077
-383.975	-56.536	-0.052	-0.023
-382.960	419.335	0.100	-0.213
-381.946	49.257	0.157	-0.147
-380.931	-156.284	0.128	0.008
-379.917	-86.151	0.133	-0.041
-378.902	-84.077	0.227	-0.072
-377.888	63.188	-0.186	0.185
-376.873	-38.421	-0.196	-0.103
-375.858	-200.000	-0.020	-0.191
-374.844	-200.000	-0.045	-0.368
-373.829	264.246	-0.100	0.173
-372.815	800.000	-0.065	0.252
-371.800	349.226	0.247	-0.485
-370.785	-112.115	0.324	-0.065
-369.771	-143.199	0.407	-0.039
-368.756	-14.762	0.174	0.111
-367.742	-200.000	0.006	-0.170
-366.727	-112.487	0.324	0.064
-365.712	-200.000	0.001	0.155
-364.698	171.673	-0.065	0.093
-363.683	-128.885	-0.418	-0.059
-362.669	800.000	0.076	-0.226
-361.654	-117.483	0.130	-0.023
-360.639	-49.404	-0.369	0.175
-359.625	-63.526	-0.144	-0.059
-358.610	-93.445	0.281	0.078
-357.596	800.000	0.158	-0.471
-356.581	800.000	0.018	0.071
-355.566	-133.920	0.082	-0.010
-354.552	-200.000	-0.036	-0.279
-353.537	-90.424	-0.220	-0.064
-352.523	-35.202	-0.246	0.133
-351.508	-121.780	0.135	0.022
-350.493	145.867	0.089	0.119
-349.479	150.522	-0.073	-0.099
-348.464	-89.799	-0.177	0.052
-347.450	220.370	0.060	0.095
-346.435	-171.370	-0.209	-0.007
-345.420	-200.000	-0.037	-0.254
-344.406	-200.000	-0.015	-0.164
-343.391	-200.000	-0.036	-0.202
-342.377	800.000	0.123	0.348
-341.362	-98.201	0.302	0.077
-340.348	-71.012	-0.211	-0.079
-339.333	46.256	0.040	-0.037
-338.318	-92.422	-0.196	0.055
-337.304	-200.000	0.045	0.338
-336.289	52.383	-0.248	0.235
-335.275	-71.348	-0.217	0.081
-334.260	-63.642	0.113	0.046
-333.245	-15.260	-0.227	-0.144
-332.231	47.157	-0.088	-0.082
-331.216	-165.452	-0.331	-0.014
-330.202	400.383	-0.029	-0.060
-329.187	800.000	-0.107	0.392
-328.172	19.627	-0.224	-0.179
-327.158	13.007	-0.206	0.158
-326.143	-98.293	0.432	0.110
-325.129	-200.000	0.011	0.217
-324.114	93.524	0.051	0.057
-323.099	-200.000	0.020	0.273
-322.085	-200.000	-0.038	-0.327
-321.070	-167.370	0.256	-0.010
-320.056	115.835	0.130	0.158
-319.041	800.000	-0.077	-0.288
-318.026	169.357	0.279	-0.396
-317.012	-26.433	-0.238	0.139
-315.997	720.877	-0.028	0.075
-314.983	-200.000	0.073	0.417
-313.968	-33.125	-0.263	-0.145
-312.953	154.254	-0.040	-0.054
-311.939	76.631	0.179	0.189
-310.924	-200.000	0.012	-0.072
-309.910	45.629	0.253	0.232
-308.895	11.398	-0.152	0.115
-307.880	-200.000	0.014	-0.071
-306.866	800.000	0.116	0.399
-305.851	38.709	0.034	0.030
-304.837	106.108	-0.189	-0.223
-303.822	-200.000	-0.038	-0.214
-302.807	47.239	-0.093	-0.086
-301.793	43.837	0.210	0.191
-300.778	800.000	0.083	-0.255
-299.764	-60.267	-0.167	-0.071
-298.749	800.000	0.028	0.115
-297.735	46.106	-0.118	-0.109
-296.720	252.175	0.154	-0.261
-295.705	49.468	0.088	0.082
-294.691	-200.000	-0.002	0.281
-293.676	-31.358	0.287	-0.161
-292.662	218.760	-0.043	0.068
-291.647	672.550	0.128	0.330
-290.632	146.120	-0.029	-0.039
-289.618	-70.584	-0.326	-0.123
-288.603	0.101	0.265	0.187
-287.589	-39.683	-0.387	0.201
-286.574	800.000	0.049	-0.151
-285.559	800.000	0.030	-0.125
-284.545	2.769	0.278	0.200
-283.530	-103.057	0.197	0.046
-282.516	491.770	-0.076	0.173
-281.501	108.032	-0.102	0.121
-280.486	-90.990	0.237	-0.068
-279.472	-200.000	0.012	-0.156
-278.457	-200.000	0.046	-0.217
-277.443	25.131	0.102	-0.084
-276.428	-4.656	-0.249	-0.171
-275.413	-122.463	0.362	-0.058
-274.399	-178.474	0.289	0.007
-273.384	-22.182	-0.130	0.078
-272.370	-27.139	-0.296	-0.171
-271.355	-39.164	-0.279	-0.146
-270.340	11.337	0.210	-0.159
-269.326	-120.650	0.305	-0.051
-268.311	800.000	-0.062	-0.228
-267.297	-69.653	-0.094	0.036
-266.282	-106.299	-0.285	-0.063
-265.267	-200.000	-0.022	-0.132
-264.253	69.834	0.149	0.153
-263.238	24.583	0.150	0.123
-262.224	-144.291	0.419	0.039
-261.209	800.000	0.060	-0.178
-260.195	-14.691	0.048	-0.031
-259.180	50.931	0.091	-0.085
-258.165	172.155	-0.130	0.185
-257.151	-75.924	0.443	-0.155
-256.136	-200.000	0.004	-0.185
-255.122	-200.000	0.037	-0.218
-254.107	-200.000	-0.007	0.360
-253.092	-87.263	-0.390	-0.117
-252.078	-52.171	-0.290	0.134
-251.063	8.756	0.085	-0.063
-250.049	-7.886	-0.312	0.209
-249.034	95.433	-0.113	0.127
-248.019	-200.000	-0.058	0.388
-247.005	800.000	-0.034	0.099
-245.990	138.946	-0.149	-0.195
-244.976	22.560	0.243	0.197
-243.961	41.061	0.204	0.182
-242.946	800.000	0.076	0.315
-241.932	-200.000	-0.055	-0.283
-240.917	-161.922	-0.245	-0.012
-239.903	-200.000	-0.016	-0.293
-238.888	-103.691	0.236	-0.055
-237.873	-200.000	0.019	-0.116
-236.859	-59.053	0.277	-0.119
-235.844	800.000	-0.026	-0.102
-234.830	-19.210	0.270	-0.166
-233.815	123.654	0.174	-0.216
-232.800	-9.818	0.155	0.102
-231.786	-107.522	0.098	-0.021
-230.771	-40.630	0.228	-0.117
-229.757	564.963	0.070	-0.169
-228.742	179.161	0.108	-0.157
-227.727	123.269	0.318	0.394
-226.713	800.000	-0.069	-0.273
-225.698	-96.448	-0.290	0.076
-224.684	350.743	-0.257	-0.504
-223.669	20.202	0.342	-0.274
-222.655	130.401	-0.173	0.219
-221.640	-44.828	-0.235	-0.116
-220.625	107.536	-0.097	-0.114
-219.611	-200.000	-0.041	0.388
-218.596	209.755	-0.118	0.183
-217.582	-200.000	-0.012	0.166
-216.567	19.013	-0.244	0.193
-215.552	159.241	0.034	0.047
-214.538	-186.108	-0.358	-0.005
-213.523	800.000	0.061	-0.227
-212.509	272.404	0.172	0.300
-211.494	-179.571	0.377	0.008
-210.479	13.214	0.046	0.035
-209.465	138.670	-0.066	-0.086
-208.450	-200.000	0.068	-0.306
-207.436	55.095	0.058	0.055
-206.421	-139.948	-0.376	-0.039
-205.406	-90.102	-0.321	-0.093
-204.392	-200.000	0.059	-0.299
-203.377	228.726	-0.138	0.222
-202.363	-200.000	-0.011	0.516
-201.348	76.243	0.264	0.277
-200.333	-21.637	-0.164	0.099
-199.319	-101.502	0.099	-0.024
-198.304	-9.911	0.218	0.143
-197.290	786.194	-0.005	-0.012
-196.275	9.244	-0.010	-0.007
-195.260	74.139	0.208	0.216
-194.246	800.000	0.041	-0.125
-193.231	66.503	-0.079	0.079
-192.217	50.974	0.223	0.209
-191.202	800.000	0.045	0.169
-190.187	-200.000	0.017	0.189
-189.173	21.345	-0.078	-0.062
-188.158	46.391	-0.313	-0.287
-187.144	367.230	0.171	0.342
-186.129	-14.517	0.230	0.147
-185.114	562.366	0.168	0.402
-184.100	-2.591	0.109	0.076
-183.085	800.000	0.134	0.417
-182.071	-128.365	-0.314	-0.044
-181.056	-109.202	0.153	0.032
-180.042	542.708	0.069	-0.162
-179.027	-48.130	-0.161	-0.077
-178.012	-200.000	0.030	0.477
-176.998	32.667	0.168	-0.143
-175.983	-43.222	-0.332	-0.166
-174.969	-156.088	0.301	0.019
-173.954	-200.000	-0.050	0.237
-172.939	-161.265	-0.136	-0.007
-171.925	-200.000	-0.019	0.201
-170.910	523.118	-0.201	0.467
-169.896	81.351	-0.141	0.151
-168.881	25.314	0.257	-0.211
-167.866	-18.495	-0.098	0.060
-166.852	24.777	0.211	0.173
-165.837	613.766	-0.086	0.212
-164.823	275.809	0.249	0.437
-163.808	800.000	0.150	0.456
-162.793	-104.413	-0.244	0.056
-161.779	422.481	0.108	0.229
-160.764	-62.454	-0.252	0.103
-159.750	27.818	0.097	0.081
-158.735	-157.321	-0.425	-0.025
-157.720	62.818	0.199	-0.196
-156.706	171.982	0.139	-0.197
-155.691	638.114	-0.043	-0.108
-154.677	132.671	0.225	-0.287
-153.662	46.201	-0.150	-0.137
-152.647	-200.000	-0.018	0.237
-151.633	153.981	0.147	-0.199
-150.618	-101.710	0.142	-0.034
-149.604	-117.701	0.324	-0.058
-148.589	-48.438	-0.069	-0.033
-147.574	53.722	0.233	0.221
-146.560	-27.412	-0.331	0.190
-145.545	626.546	-0.119	-0.297
-144.531	800.000	0.049	0.189
-143.516	-200.000	-0.014	-0.105
-142.502	-37.377	-0.163	0.086
-141.487	121.665	0.154	-0.190
-140.472	-200.000	0.049	0.262
-139.458	800.000	-0.092	0.342
-138.443	205.401	0.140	0.214
-137.429	-143.577	-0.300	0.028
-136.414	-200.000	0.019	0.156
-135.399	-7.780	-0.124	-0.082
-134.385	96.299	-0.125	-0.141
-133.370	800.000	0.117	-0.458
-132.356	-111.324	-0.235	-0.047
-131.341	-91.523	-0.286	0.080
-130.326	-200.000	0.036	0.322
-129.312	99.545	0.277	-0.317
-128.297	22.516	0.208	0.168
-127.283	729.497	-0.053	-0.139
-126.268	456.882	0.103	-0.225
-125.253	-200.000	-0.069	-0.384
-124.239	-158.646	0.131	-0.007
-123.224	15.810	-0.166	0.129
-122.210	-80.861	0.285	-0.093
