DTS Sentinel unit serial number:	SN413079Multiplexer serial number:	ORYXHardware model number:	OX4-SRSoftware version number:	ORYX F/W v4.00 Oryx Data Collector v3.7.2.0data status	okinstallation	princeton_trtdifferential loss correction	single-endedforward channel	channel 4reverse channel	N/Adate	2019/09/12time	04:27:10forward acquisition time	60.00reverse acquisition time	0.00gamma	496.2192k internal	0.2311k external	0.2311temperature offset calibration	1.0100default loss term (dB/km)	0.3790temperature slope calibration	1.0000multiplexer offset coefficient	1.0000multiplexer slope coefficient	1.0000fibre end	0.00T internal ref (°C)	31.64T ext. ref 1 (°C)	2.26T ext. ref 2 (°C)	26.01length (m)	temperature (°C)	Stokes	anti-Stokes-747.200	-200.000	0.010	-0.123
-746.185	106.804	0.144	0.174
-745.171	800.000	-0.038	-0.118
-744.156	311.702	0.103	-0.196
-743.142	-144.087	-0.278	0.026
-742.127	10.603	-0.211	0.163
-741.112	-9.148	-0.157	0.106
-740.098	266.260	0.069	0.122
-739.083	-166.601	-0.096	-0.004
-738.069	-17.335	0.171	0.109
-737.054	75.148	0.106	0.114
-736.039	128.441	-0.146	0.188
-735.025	-0.025	0.164	-0.118
-734.010	800.000	-0.066	-0.208
-732.996	-134.442	-0.503	-0.062
-731.981	26.869	-0.102	0.086
-730.966	-200.000	-0.049	-0.226
-729.952	-64.104	0.174	-0.072
-728.937	-200.000	0.018	0.229
-727.923	-94.561	-0.208	-0.057
-726.908	-121.284	-0.091	0.015
-725.894	111.108	-0.077	-0.094
-724.879	-105.507	-0.285	0.066
-723.864	-45.515	-0.336	0.169
-722.850	16.442	0.385	-0.309
-721.835	78.707	0.222	-0.241
-720.821	39.184	-0.366	-0.332
-719.806	-54.527	-0.070	-0.032
-718.791	237.914	0.131	0.220
-717.777	-200.000	-0.009	0.309
-716.762	695.028	0.150	-0.398
-715.748	-200.000	0.052	-0.293
-714.733	-90.737	0.212	0.062
-713.718	-73.739	-0.264	-0.097
-712.704	40.472	0.092	0.084
-711.689	694.906	-0.077	-0.204
-710.675	-113.396	-0.278	-0.055
-709.660	-55.252	0.116	-0.053
-708.645	46.685	0.358	0.337
-707.631	675.788	0.112	-0.295
-706.616	40.667	0.225	-0.206
-705.602	-95.604	0.109	0.030
-704.587	544.720	0.111	-0.269
-703.572	683.956	-0.037	-0.097
-702.558	427.275	-0.135	-0.295
-701.543	78.542	0.276	-0.299
-700.529	-99.593	-0.265	-0.067
-699.514	-96.461	0.206	0.055
-698.499	29.796	-0.146	-0.126
-697.485	51.996	0.143	0.138
-696.470	-200.000	0.001	0.320
-695.456	422.343	-0.079	0.173
-694.441	-72.856	0.108	-0.040
-693.426	597.232	0.117	-0.294
-692.412	-127.181	0.073	-0.011
-691.397	141.867	-0.175	0.234
-690.383	183.044	-0.122	0.183
-689.368	-184.914	0.256	-0.004
-688.354	221.903	0.089	-0.146
-687.339	239.147	0.161	-0.271
-686.324	800.000	0.060	0.204
-685.310	-103.374	0.303	0.072
-684.295	-200.000	-0.163	-0.000
-683.281	-10.974	0.294	0.197
-682.266	800.000	0.033	0.145
-681.251	2.939	-0.182	-0.134
-680.237	-200.000	0.032	0.145
-679.222	-24.148	-0.207	-0.125
-678.208	764.029	-0.094	0.258
-677.193	5.368	0.219	-0.164
-676.178	-77.977	-0.173	-0.060
-675.164	-40.166	-0.111	0.059
-674.149	800.000	0.072	-0.265
-673.135	383.756	-0.053	-0.111
-672.120	-85.962	0.292	0.091
-671.105	60.334	-0.252	0.252
-670.091	800.000	-0.029	-0.104
-669.076	-17.114	0.116	-0.074
-668.062	172.208	0.094	0.137
-667.047	634.196	0.110	0.282
-666.032	-45.964	0.198	0.099
-665.018	-67.709	-0.195	0.077
-664.003	800.000	-0.040	0.159
-662.989	-69.340	-0.277	0.108
-661.974	-95.484	0.061	-0.017
-660.959	85.535	-0.098	0.109
-659.945	-200.000	0.025	0.135
-658.930	12.744	0.136	-0.106
-657.916	-84.221	-0.156	-0.050
-656.901	-200.000	0.047	-0.219
-655.886	110.612	0.009	-0.011
-654.872	191.990	0.137	0.209
-653.857	-200.000	0.009	-0.391
-652.843	-36.138	0.224	-0.122
-651.828	-8.715	-0.118	-0.080
-650.814	-93.156	-0.165	-0.046
-649.799	-25.981	0.218	0.130
-648.784	-200.000	-0.005	-0.041
-647.770	-94.099	0.039	0.011
-646.755	37.163	-0.209	0.187
-645.741	-53.319	-0.120	0.056
-644.726	800.000	-0.057	0.177
-643.711	-200.000	0.035	-0.278
-642.697	-177.935	0.334	0.008
-641.682	-61.092	0.236	-0.101
-640.668	512.971	0.067	-0.157
-639.653	-129.484	0.223	-0.031
-638.638	0.442	-0.249	-0.180
-637.624	-53.271	-0.126	0.059
-636.609	-200.000	-0.025	0.216
-635.595	-23.366	-0.218	0.132
-634.580	6.908	-0.115	-0.087
-633.565	-71.574	-0.061	-0.023
-632.551	233.529	0.089	0.148
-631.536	47.407	0.163	0.153
-630.522	251.262	0.092	-0.158
-629.507	399.146	-0.019	-0.040
-628.492	-200.000	0.011	0.200
-627.478	-71.528	-0.164	-0.062
-626.463	-17.296	0.253	0.161
-625.449	-200.000	0.055	0.464
-624.434	-110.994	-0.135	-0.028
-623.419	-25.225	-0.099	-0.059
-622.405	213.768	0.137	0.219
-621.390	-27.740	-0.150	-0.088
-620.376	-102.742	-0.306	0.074
-619.361	731.116	-0.186	-0.501
-618.346	65.035	-0.186	0.190
-617.332	-105.413	-0.235	0.054
-616.317	40.291	-0.244	-0.221
-615.303	222.999	0.139	-0.226
-614.288	74.462	-0.156	-0.166
-613.273	377.430	0.010	0.020
-612.259	176.961	0.138	-0.202
-611.244	800.000	0.102	-0.302
-610.230	244.943	-0.136	0.232
-609.215	112.778	-0.141	-0.172
-608.201	128.479	0.013	-0.017
-607.186	19.969	-0.153	-0.124
-606.171	-71.069	0.271	0.103
-605.157	-200.000	-0.005	0.038
-604.142	25.099	-0.126	0.105
-603.128	107.837	0.060	0.072
-602.113	-25.833	-0.283	-0.168
-601.098	315.622	0.102	-0.194
-600.084	528.690	-0.039	-0.092
-599.069	47.141	-0.099	0.093
-598.055	-59.695	-0.096	-0.042
-597.040	476.474	-0.053	-0.120
-596.025	550.511	-0.051	0.123
-595.011	-103.876	-0.104	-0.025
-593.996	134.800	-0.077	-0.101
-592.982	119.901	0.211	-0.264
-591.967	260.695	-0.194	-0.338
-590.952	-13.643	-0.200	-0.131
-589.938	-200.000	-0.014	0.252
-588.923	53.055	0.231	-0.223
-587.909	-63.454	-0.373	0.155
-586.894	-200.000	0.009	-0.104
-585.879	513.422	-0.072	-0.168
-584.865	108.789	0.146	0.176
-583.850	-149.201	-0.269	-0.022
-582.836	800.000	0.019	0.059
-581.821	-73.347	0.148	0.054
-580.806	38.336	0.341	0.307
-579.792	208.284	-0.178	-0.281
-578.777	-109.997	0.118	-0.025
-577.763	-25.229	-0.109	0.065
-576.748	-200.000	-0.029	-0.342
-575.733	-65.332	0.031	-0.012
-574.719	-116.616	-0.223	-0.041
-573.704	-84.838	0.048	-0.015
-572.690	-182.916	-0.437	-0.008
-571.675	199.577	-0.216	-0.333
-570.661	-48.276	-0.277	-0.135
-569.646	-200.000	0.022	-0.172
-568.631	186.303	-0.143	-0.214
-567.617	246.701	-0.149	-0.253
-566.602	-165.380	-0.323	-0.014
-565.588	-83.678	-0.348	-0.112
-564.573	-53.672	0.217	-0.100
-563.558	-13.916	-0.153	-0.099
-562.544	-200.000	0.021	-0.260
-561.529	329.674	-0.105	0.203
-560.515	519.720	0.117	0.277
-559.500	-36.145	0.100	0.054
-558.485	44.942	-0.287	0.266
-557.471	655.514	-0.136	-0.353
-556.456	-28.321	-0.094	0.055
-555.442	88.182	-0.173	-0.193
-554.427	-82.063	-0.058	0.019
-553.412	-200.000	-0.009	-0.066
-552.398	-114.734	0.234	-0.045
-551.383	-200.000	0.049	0.275
-550.369	-200.000	-0.018	0.136
-549.354	-90.010	0.309	0.091
-548.339	-134.478	-0.133	-0.016
-547.325	274.745	-0.047	-0.085
-546.310	-153.390	-0.346	-0.024
-545.296	527.720	0.095	-0.226
-544.281	-200.000	0.000	-0.139
-543.266	56.335	0.108	-0.105
-542.252	543.009	-0.121	0.291
-541.237	287.056	-0.119	-0.217
-540.223	66.479	-0.072	0.074
-539.208	800.000	0.068	-0.219
-538.193	800.000	-0.074	-0.294
-537.179	800.000	-0.080	-0.270
-536.164	-80.843	-0.230	0.077
-535.150	143.657	0.364	0.488
-534.135	139.015	0.114	-0.151
-533.121	193.907	-0.061	0.093
-532.106	326.042	0.125	0.241
-531.091	5.223	-0.165	0.122
-530.077	58.354	-0.087	0.086
-529.062	700.114	0.127	0.335
-528.048	-6.306	-0.208	0.143
-527.033	30.663	0.093	0.080
-526.018	-55.364	-0.108	-0.049
-525.004	116.210	0.134	-0.165
-523.989	0.780	0.290	-0.209
-522.975	-200.000	0.004	-0.556
-521.960	800.000	-0.131	-0.425
-520.945	-160.110	-0.212	0.012
-519.931	800.000	-0.049	0.146
-518.916	8.948	-0.113	-0.086
-517.902	800.000	-0.111	-0.331
-516.887	-67.187	0.137	0.054
-515.872	-96.162	0.261	0.070
-514.858	800.000	0.078	-0.217
-513.843	64.891	0.219	0.223
-512.829	-64.893	-0.433	0.176
-511.814	-53.692	0.133	-0.061
-510.799	800.000	-0.085	0.241
-509.785	-13.501	-0.248	0.162
-508.770	-200.000	0.004	0.042
-507.756	579.117	-0.079	0.195
-506.741	25.545	-0.224	-0.187
-505.726	44.902	0.559	0.517
-504.712	-56.944	-0.106	-0.047
-503.697	-33.372	0.078	-0.043
-502.683	-19.512	-0.146	0.091
-501.668	-200.000	-0.099	0.495
-500.653	18.804	0.118	0.095
-499.639	-200.000	0.027	-0.135
-498.624	-200.000	0.021	-0.130
-497.610	4.099	0.087	-0.064
-496.595	35.372	-0.198	0.174
-495.581	-2.159	0.077	0.054
-494.566	-84.703	0.462	0.146
-493.551	-111.932	0.177	-0.036
-492.537	67.445	0.255	-0.261
-491.522	145.375	0.247	-0.332
-490.508	800.000	-0.064	-0.261
-489.493	-126.503	-0.339	-0.051
-488.478	-200.000	0.067	-0.586
-487.464	-71.847	-0.183	-0.069
-486.449	800.000	0.069	-0.288
-485.435	345.153	-0.051	-0.100
-484.420	-39.577	0.152	0.080
-483.405	78.535	0.149	0.160
-482.391	-31.059	0.181	0.103
-481.376	1.550	-0.347	0.251
-480.362	32.628	0.161	0.140
-479.347	-200.000	-0.036	-0.276
-478.332	-106.722	0.149	0.033
-477.318	157.192	0.146	-0.202
-476.303	191.159	0.237	-0.359
-475.289	-53.518	-0.090	0.041
-474.274	-80.873	0.082	-0.027
-473.259	287.769	0.167	0.304
-472.245	123.240	0.074	0.093
-471.230	202.335	-0.071	-0.111
-470.216	426.579	-0.013	0.029
-469.201	444.952	-0.107	0.237
-468.186	35.641	0.045	-0.039
-467.172	158.348	-0.213	-0.297
-466.157	-200.000	0.014	-0.309
-465.143	33.220	0.138	0.120
-464.128	-56.471	-0.082	0.036
-463.113	-200.000	-0.034	0.323
-462.099	67.504	-0.124	-0.127
-461.084	800.000	0.126	-0.396
-460.070	152.635	-0.122	-0.167
-459.055	105.849	-0.133	-0.158
-458.040	-200.000	-0.021	0.328
-457.026	141.178	-0.140	0.185
-456.011	-119.389	0.264	0.046
-454.997	251.318	-0.028	0.047
-453.982	18.406	-0.249	0.200
-452.968	-11.309	0.226	0.149
-451.953	-159.871	-0.309	-0.017
-450.938	-200.000	-0.050	-0.261
-449.924	-133.960	0.227	0.028
-448.909	37.661	-0.083	0.074
-447.895	-104.867	-0.273	-0.063
-446.880	32.223	0.170	0.147
-445.865	9.781	0.217	-0.165
-444.851	4.664	0.339	0.250
-443.836	-98.702	-0.116	-0.030
-442.822	-97.396	0.192	-0.050
-441.807	91.534	-0.165	0.186
-440.792	243.847	0.070	0.118
-439.778	113.952	-0.051	0.062
-438.763	-200.000	0.026	0.149
-437.749	800.000	0.071	-0.226
-436.734	644.691	0.051	0.130
-435.719	27.568	0.029	0.025
-434.705	310.186	0.161	-0.303
-433.690	120.703	-0.204	0.254
-432.676	82.197	0.322	-0.350
-431.661	-25.850	0.161	0.095
-430.646	-19.990	-0.343	-0.212
-429.632	-69.230	-0.101	-0.039
-428.617	-200.000	0.039	-0.423
-427.603	256.954	-0.024	0.041
-426.588	537.801	0.105	-0.250
-425.573	53.794	0.123	0.118
-424.559	-200.000	0.004	0.331
-423.544	-64.253	0.211	0.086
-422.530	-57.621	-0.282	-0.124
-421.515	-144.754	-0.184	0.017
-420.500	-50.982	0.076	0.036
-419.486	-200.000	0.008	0.149
-418.471	-17.617	-0.217	-0.136
-417.457	-200.000	-0.002	-0.442
-416.442	-46.892	0.431	-0.211
-415.428	-106.643	0.099	-0.022
-414.413	800.000	0.056	0.207
-413.398	-200.000	0.034	-0.185
-412.384	-200.000	-0.026	-0.223
-411.369	51.461	0.162	0.155
-410.355	64.246	-0.261	-0.263
-409.340	103.103	-0.069	0.081
-408.325	-200.000	0.030	0.170
-407.311	27.112	0.228	-0.191
-406.296	-66.903	0.057	0.023
-405.282	234.001	0.140	-0.230
-404.267	109.254	-0.024	-0.029
-403.252	462.678	0.170	0.380
-402.238	776.981	-0.014	-0.039
-401.223	-112.284	0.165	-0.033
-400.209	-58.040	-0.230	0.101
-399.194	800.000	0.031	-0.099
-398.179	-15.129	0.220	-0.141
-397.165	83.461	0.156	0.171
-396.150	266.562	0.223	0.391
-395.136	-91.337	0.423	-0.121
-394.121	67.971	-0.064	0.065
-393.106	-25.679	0.111	-0.066
-392.092	800.000	0.078	0.336
-391.077	800.000	0.082	-0.337
-390.063	34.984	-0.011	-0.009
-389.048	178.681	-0.117	-0.171
-388.033	673.950	0.183	-0.475
-387.019	-16.665	-0.295	-0.187
-386.004	39.142	-0.148	0.132
-384.990	-62.828	0.233	-0.097
-383.975	-175.766	-0.383	-0.010
-382.960	800.000	0.031	0.103
-381.946	-200.000	0.003	0.095
-380.931	-129.494	0.088	0.012
-379.917	453.473	-0.102	-0.226
-378.902	800.000	0.025	-0.104
-377.888	-75.107	0.115	0.041
-376.873	-122.771	0.551	-0.089
-375.858	800.000	-0.026	0.090
-374.844	-3.667	0.266	0.185
-373.829	-75.079	-0.098	0.035
-372.815	159.417	-0.257	-0.358
-371.800	-200.000	0.023	0.105
-370.785	5.861	0.083	-0.061
-369.771	14.298	0.115	-0.090
-368.756	800.000	0.061	-0.174
-367.742	459.453	0.140	-0.312
-366.727	81.512	0.131	0.142
-365.712	-94.549	0.244	0.067
-364.698	-69.075	-0.443	0.171
-363.683	634.144	-0.082	-0.207
-362.669	-127.176	0.198	-0.029
-361.654	682.066	0.081	0.210
-360.639	-132.005	-0.189	-0.025
-359.625	-145.266	-0.197	-0.018
-358.610	60.289	0.089	-0.088
-357.596	-115.001	0.210	0.040
-356.581	-200.000	0.005	-0.146
-355.566	800.000	0.036	-0.127
-354.552	23.139	-0.113	0.093
-353.537	-200.000	-0.031	0.182
-352.523	-200.000	0.034	-0.239
-351.508	-166.521	0.294	0.012
-350.493	-46.972	-0.186	-0.091
-349.479	57.397	0.198	0.193
-348.464	-33.008	0.198	0.110
-347.450	260.262	-0.094	0.163
-346.435	-200.000	0.062	0.326
-345.420	200.556	-0.204	-0.313
-344.406	-28.438	0.212	-0.122
-343.391	-63.447	-0.280	-0.115
-342.377	62.178	0.130	0.129
-341.362	162.297	0.293	0.410
-340.348	172.841	-0.184	0.265
-339.333	-40.815	-0.151	0.078
-338.318	38.287	-0.216	0.192
-337.304	78.474	0.061	0.066
-336.289	-200.000	-0.007	0.185
-335.275	149.792	-0.172	0.233
-334.260	145.780	-0.205	0.274
-333.245	288.197	-0.023	-0.042
-332.231	-21.710	-0.409	-0.249
-331.216	800.000	0.107	-0.346
-330.202	-125.978	-0.114	0.017
-329.187	46.779	-0.078	-0.072
-328.172	-93.200	0.329	0.091
-327.158	-124.571	-0.269	0.042
-326.143	-41.353	0.209	0.108
-325.129	240.469	-0.066	-0.110
-324.114	0.538	-0.151	0.108
-323.099	646.464	-0.053	0.135
-322.085	-200.000	0.008	0.051
-321.070	-39.448	0.022	-0.011
-320.056	800.000	-0.126	0.370
-319.041	-108.971	0.171	0.036
-318.026	4.206	-0.153	-0.112
-317.012	-80.492	-0.236	-0.078
-315.997	800.000	-0.013	0.051
-314.983	-200.000	-0.023	-0.332
-313.968	69.737	-0.256	0.263
-312.953	-200.000	-0.026	0.179
-311.939	800.000	0.088	0.372
-310.924	-141.530	-0.187	-0.019
-309.910	312.874	-0.115	-0.216
-308.895	177.364	-0.156	0.227
-307.880	421.002	0.095	0.203
-306.866	61.510	-0.267	0.265
-305.851	800.000	-0.127	-0.370
-304.837	229.704	0.206	-0.336
-303.822	-112.112	0.240	-0.048
-302.807	210.107	-0.049	-0.076
-301.793	153.148	0.174	0.237
-300.778	4.114	-0.037	0.027
-299.764	800.000	-0.053	-0.183
-298.749	-128.525	0.174	0.025
-297.735	20.944	-0.077	0.062
-296.720	-200.000	0.007	-0.078
-295.705	58.561	0.166	-0.163
-294.691	47.906	0.157	-0.146
-293.676	-98.826	-0.395	-0.100
-292.662	-144.981	-0.506	0.046
-291.647	800.000	-0.049	-0.202
-290.632	-200.000	0.030	-0.180
-289.618	-130.282	-0.280	0.038
-288.603	-100.239	0.331	0.082
-287.589	-12.732	0.230	0.149
-286.574	194.083	0.039	-0.058
-285.559	-200.000	-0.053	0.302
-284.545	-61.102	0.117	0.049
-283.530	268.050	0.187	-0.326
-282.516	125.394	0.132	0.166
-281.501	-116.058	0.334	-0.062
-280.486	-130.373	-0.161	0.022
-279.472	105.353	0.206	-0.243
-278.457	578.308	0.103	-0.252
-277.443	-119.465	0.244	0.042
-276.428	20.311	0.187	-0.151
-275.413	-126.382	-0.103	-0.015
-274.399	-25.333	0.243	0.143
-273.384	-148.804	0.229	-0.018
-272.370	-107.838	0.200	0.043
-271.355	-129.315	-0.271	0.038
-270.340	-16.533	-0.194	0.122
-269.326	-196.568	0.147	-0.001
-268.311	-27.582	0.183	0.106
-267.297	-200.000	0.041	0.268
-266.282	-200.000	-0.013	0.060
-265.267	453.644	-0.165	-0.363
-264.253	737.142	0.060	-0.160
-263.238	17.708	-0.129	0.102
-262.224	800.000	0.003	-0.010
-261.209	165.505	-0.022	0.030
-260.195	608.997	-0.197	0.489
-259.180	363.619	0.109	-0.218
-258.165	-4.928	-0.189	-0.130
-257.151	2.595	0.307	0.221
-256.136	-99.648	-0.157	0.039
-255.122	-16.205	-0.251	-0.159
-254.107	92.472	-0.186	-0.209
-253.092	192.251	-0.111	0.167
-252.078	-200.000	-0.001	-0.019
-251.063	262.160	-0.030	-0.052
-250.049	800.000	-0.037	-0.157
-249.034	-75.904	-0.130	0.046
-248.019	-46.233	0.253	-0.124
-247.005	-122.376	0.261	0.042
-245.990	259.587	-0.212	0.364
-244.976	72.111	0.128	0.132
-243.961	68.315	0.067	0.068
-242.946	-132.393	-0.122	-0.016
-241.932	-40.612	-0.074	0.038
-240.917	800.000	0.024	0.100
-239.903	25.850	0.143	0.119
-238.888	88.296	-0.059	-0.065
-237.873	715.545	-0.166	-0.438
-236.859	-122.261	-0.281	0.046
-235.844	-200.000	0.006	-0.112
-234.830	90.460	0.110	-0.123
-233.815	-62.731	0.170	0.070
-232.800	-122.149	-0.257	-0.042
-231.786	54.039	-0.191	-0.183
-230.771	52.104	0.309	-0.293
-229.757	69.772	0.273	0.280
-228.742	81.931	0.292	-0.314
-227.727	54.783	0.175	-0.168
-226.713	-41.664	0.174	0.089
-225.698	276.503	0.130	0.230
-224.684	15.392	-0.154	-0.120
-223.669	-200.000	-0.017	-0.198
-222.655	175.878	-0.147	0.212
-221.640	174.010	0.157	0.226
-220.625	-62.842	0.302	0.124
-219.611	-30.929	0.066	0.037
-218.596	366.297	-0.170	-0.342
-217.582	-117.681	-0.171	0.031
-216.567	270.945	-0.243	0.426
-215.552	800.000	0.054	0.211
-214.538	-41.358	0.126	0.064
-213.523	65.731	-0.070	0.070
-212.509	-93.950	0.221	-0.060
-211.494	800.000	0.063	-0.178
-210.479	-200.000	0.000	0.188
-209.465	134.902	0.062	0.080
-208.450	800.000	0.028	-0.116
-207.436	420.057	0.111	0.236
-206.421	-71.489	-0.188	-0.070
-205.406	178.043	0.132	-0.192
-204.392	-200.000	0.012	0.453
-203.377	375.119	-0.154	0.311
-202.363	9.025	0.193	0.145
-201.348	290.619	0.088	0.159
-200.333	202.686	-0.162	0.248
-199.319	2.848	0.335	-0.242
-198.304	-200.000	0.068	0.324
-197.290	-31.350	-0.134	-0.075
-196.275	-125.858	0.080	-0.012
-195.260	406.228	-0.049	0.103
-194.246	328.143	0.132	0.252
-193.231	202.481	-0.101	0.155
-192.217	800.000	-0.065	0.262
-191.202	257.056	-0.164	-0.279
-190.187	-101.514	-0.240	0.058
-189.173	55.534	0.156	-0.150
-188.158	-94.040	0.262	-0.071
-187.144	-1.907	0.184	0.129
-186.129	-177.846	-0.135	-0.003
-185.114	800.000	0.096	-0.366
-184.100	800.000	0.027	0.099
-183.085	-119.100	-0.222	-0.039
-182.071	-127.397	-0.298	-0.043
-181.056	800.000	-0.110	0.449
-180.042	95.834	0.199	0.225
-179.027	74.372	-0.115	0.120
-178.012	162.819	0.100	0.140
-176.998	219.653	-0.212	0.336
-175.983	800.000	0.064	0.273
-174.969	-92.509	0.316	0.088
-173.954	657.226	-0.062	-0.158
-172.939	2.777	0.313	-0.226
-171.925	-31.711	0.126	0.070
-170.910	-200.000	-0.011	0.078
-169.896	-86.637	-0.151	0.046
-168.881	-200.000	-0.008	0.040
-167.866	82.700	0.110	0.119
-166.852	800.000	-0.110	0.434
-165.837	241.902	0.147	0.244
-164.823	14.252	0.292	0.226
-163.808	132.931	0.188	-0.240
-162.793	314.905	-0.076	-0.143
-161.779	199.129	0.139	-0.211
-160.764	103.110	0.171	0.199
-159.750	-101.693	0.334	0.080
-158.735	-200.000	-0.002	0.302
-157.720	50.661	-0.336	0.315
-156.706	-9.297	-0.108	-0.072
-155.691	-43.326	-0.110	-0.055
-154.677	130.754	-0.113	0.144
-153.662	-39.476	-0.112	0.058
-152.647	106.049	-0.162	-0.190
-151.633	-143.514	-0.175	-0.017
-150.618	57.341	0.221	-0.214
-149.604	82.908	0.239	-0.258
-148.589	503.648	-0.167	0.383
-147.574	-161.363	-0.206	0.011
-146.560	434.564	0.033	-0.072
-145.545	-200.000	-0.023	0.144
-144.531	-200.000	0.045	0.303
-143.516	-50.681	-0.086	-0.040
-142.502	-60.266	0.189	0.080
-141.487	40.289	0.206	-0.184
-140.472	221.422	-0.130	-0.206
-139.458	146.403	0.203	-0.270
-138.443	82.384	0.041	0.044
-137.429	-200.000	-0.069	-0.441
-136.414	-32.136	0.354	0.196
-135.399	736.664	-0.073	0.194
-134.385	16.089	0.121	0.095
-133.370	-200.000	0.014	0.208
-132.356	-19.659	0.161	-0.099
-131.341	800.000	0.040	-0.142
-130.326	-38.680	0.099	-0.052
-129.312	173.259	0.155	-0.221
-128.297	800.000	0.118	0.364
-127.283	-200.000	0.084	0.417
-126.268	-200.000	0.017	0.081
-125.253	-200.000	-0.026	0.279
-124.239	33.851	-0.184	-0.159
-123.224	800.000	-0.080	-0.227
-122.210	-90.466	-0.302	0.087
-121.195	-57.459	0.205	-0.089
-120.180	165.775	-0.068	-0.095
-119.166	-66.871	0.142	0.055
