DTS Sentinel unit serial number:	SN413079Multiplexer serial number:	ORYXHardware model number:	OX4-SRSoftware version number:	ORYX F/W v4.00 Oryx Data Collector v3.7.2.0data status	okinstallation	princeton_trtdifferential loss correction	single-endedforward channel	channel 4reverse channel	N/Adate	2019/09/19time	03:21:35forward acquisition time	60.00reverse acquisition time	0.00gamma	496.2192k internal	0.2340k external	0.2340temperature offset calibration	1.0032default loss term (dB/km)	0.3790temperature slope calibration	1.0000multiplexer offset coefficient	1.0000multiplexer slope coefficient	1.0000fibre end	0.00T internal ref (°C)	20.69T ext. ref 1 (°C)	0.66T ext. ref 2 (°C)	14.21length (m)	temperature (°C)	Stokes	anti-Stokes-747.200	-71.988	0.240	0.089
-746.185	-200.000	0.157	0.000
-745.171	-112.894	-0.183	0.036
-744.156	800.000	0.045	0.195
-743.142	-200.000	0.012	-0.097
-742.127	-95.870	-0.248	-0.066
-741.112	110.057	-0.071	-0.085
-740.098	71.036	-0.146	0.151
-739.083	638.608	0.087	0.223
-738.069	-117.832	0.316	0.057
-737.054	-159.449	-0.344	0.019
-736.039	-174.594	0.092	-0.003
-735.025	-200.000	0.034	0.383
-734.010	149.541	0.063	-0.086
-732.996	-54.343	-0.324	-0.147
-731.981	-152.263	-0.276	-0.020
-730.966	-146.980	-0.330	-0.028
-729.952	129.017	-0.184	0.235
-728.937	-151.679	-0.237	-0.018
-727.923	-200.000	-0.017	0.173
-726.908	800.000	0.046	-0.204
-725.894	-163.419	-0.093	-0.004
-724.879	800.000	-0.087	-0.269
-723.864	-66.629	0.218	0.087
-722.850	-10.212	-0.707	-0.470
-721.835	695.045	-0.156	-0.411
-720.821	-156.923	-0.371	0.023
-719.806	-200.000	-0.043	-0.340
-718.791	-144.350	0.088	-0.008
-717.777	-41.798	0.175	0.090
-716.762	52.173	0.111	-0.106
-715.748	-2.917	0.072	0.051
-714.733	246.698	-0.049	0.082
-713.718	38.085	0.232	-0.207
-712.704	-200.000	0.019	-0.219
-711.689	266.386	-0.279	-0.488
-710.675	-106.906	0.301	-0.067
-709.660	40.158	-0.048	-0.043
-708.645	800.000	0.025	-0.097
-707.631	100.176	0.181	-0.210
-706.616	114.004	-0.117	0.143
-705.602	90.745	0.131	0.147
-704.587	-27.891	-0.088	-0.051
-703.572	54.090	0.130	0.125
-702.558	-46.047	-0.029	-0.014
-701.543	21.439	0.210	0.171
-700.529	365.473	-0.233	-0.469
-699.514	-61.778	-0.115	-0.048
-698.499	-12.649	0.246	-0.160
-697.485	-95.033	-0.058	-0.016
-696.470	463.238	-0.119	0.267
-695.456	83.498	-0.085	-0.092
-694.441	495.982	0.125	0.288
-693.426	-62.320	-0.062	-0.026
-692.412	303.940	-0.142	-0.263
-691.397	-0.407	-0.256	-0.182
-690.383	710.162	-0.043	0.113
-689.368	-200.000	0.023	-0.191
-688.354	800.000	0.006	-0.018
-687.339	19.533	0.053	0.042
-686.324	-41.085	-0.170	0.088
-685.310	-200.000	-0.073	-0.470
-684.295	203.555	0.161	0.250
-683.281	127.105	0.108	-0.137
-682.266	-200.000	-0.070	-0.475
-681.251	-50.915	-0.218	-0.102
-680.237	335.426	0.061	0.119
-679.222	187.197	0.190	-0.283
-678.208	19.376	-0.144	-0.115
-677.193	198.187	-0.270	-0.413
-676.178	-200.000	-0.017	0.155
-675.164	240.241	0.181	-0.302
-674.149	180.285	-0.096	-0.140
-673.135	800.000	0.076	0.258
-672.120	-91.262	-0.314	-0.090
-671.105	-30.673	-0.164	0.093
-670.091	406.898	-0.111	0.233
-669.076	-116.869	0.335	-0.061
-668.062	135.009	-0.254	0.329
-667.047	118.955	-0.209	-0.259
-666.032	-200.000	0.018	0.319
-665.018	5.652	-0.118	-0.087
-664.003	-200.000	0.026	-0.135
-662.989	631.160	0.041	-0.103
-661.974	142.470	0.158	0.210
-660.959	-111.682	0.262	-0.053
-659.945	-33.998	0.425	0.234
-658.930	-72.053	-0.174	0.065
-657.916	203.160	0.099	0.153
-656.901	800.000	0.030	0.101
-655.886	432.727	-0.060	0.131
-654.872	25.091	0.181	0.150
-653.857	-200.000	-0.059	0.399
-652.843	340.873	-0.119	-0.232
-651.828	-105.789	-0.174	-0.039
-650.814	27.130	-0.120	0.101
-649.799	230.573	-0.193	0.315
-648.784	72.870	0.181	0.188
-647.770	281.520	-0.089	0.159
-646.755	800.000	-0.096	0.287
-645.741	111.801	-0.162	0.195
-644.726	192.366	-0.183	-0.276
-643.711	-20.842	0.274	-0.168
-642.697	352.164	-0.073	-0.144
-641.682	-200.000	-0.057	-0.249
-640.668	-200.000	0.032	0.272
-639.653	476.692	0.029	-0.066
-638.638	-121.231	-0.397	0.066
-637.624	41.947	-0.160	0.145
-636.609	399.780	0.126	0.264
-635.595	732.900	-0.097	0.260
-634.580	-155.021	0.197	0.013
-633.565	-58.066	-0.162	-0.071
-632.551	-26.272	-0.096	0.056
-631.536	30.290	0.183	-0.156
-630.522	388.379	-0.067	-0.138
-629.507	-124.556	0.160	0.025
-628.492	541.244	0.079	-0.187
-627.478	31.326	0.165	-0.141
-626.463	-200.000	0.018	-0.338
-625.449	-62.627	0.114	0.047
-624.434	-200.000	-0.031	0.169
-623.419	-77.619	0.131	0.045
-622.405	-61.634	-0.180	0.075
-621.390	195.270	0.086	-0.130
-620.376	800.000	0.057	-0.233
-619.361	-110.913	-0.240	0.049
-618.346	-79.573	0.287	0.097
-617.332	-121.271	0.382	-0.064
-616.317	-200.000	-0.008	0.132
-615.303	-109.823	-0.240	0.050
-614.288	-57.830	-0.106	0.046
-613.273	24.010	0.127	0.105
-612.259	-153.461	0.113	-0.008
-611.244	-34.362	-0.029	-0.016
-610.230	-200.000	0.021	0.341
-609.215	-84.310	-0.096	-0.030
-608.201	223.880	0.078	0.126
-607.186	-144.675	0.063	0.006
-606.171	-44.060	0.147	0.074
-605.157	-29.102	-0.158	-0.090
-604.142	-178.887	-0.169	-0.004
-603.128	638.151	-0.060	-0.153
-602.113	-117.299	0.096	-0.017
-601.098	-140.827	-0.150	-0.015
-600.084	146.818	-0.272	0.365
-599.069	62.889	0.260	0.259
-598.055	70.457	-0.158	-0.163
-597.040	272.281	-0.054	0.095
-596.025	1.269	-0.464	-0.332
-595.011	-200.000	0.020	0.131
-593.996	-190.447	-0.277	0.003
-592.982	640.235	-0.088	0.224
-591.967	-200.000	0.008	-0.194
-590.952	197.276	0.063	0.095
-589.938	-38.200	-0.087	0.046
-588.923	-200.000	-0.003	0.086
-587.909	120.552	0.037	-0.046
-586.894	-131.063	-0.321	0.043
-585.879	15.798	0.208	-0.163
-584.865	11.019	-0.174	-0.133
-583.850	-38.711	-0.093	0.049
-582.836	-126.820	-0.129	0.019
-581.821	80.752	-0.245	-0.264
-580.806	214.772	-0.291	-0.460
-579.792	118.829	-0.036	0.044
-578.777	138.480	0.104	0.136
-577.763	-138.383	0.102	0.011
-576.748	227.375	0.111	-0.179
-575.733	-99.814	0.132	-0.033
-574.719	258.864	-0.175	0.300
-573.704	96.719	-0.251	0.286
-572.690	103.776	-0.057	0.066
-571.675	718.549	-0.023	-0.060
-570.661	153.270	0.042	-0.057
-569.646	800.000	0.053	0.193
-568.631	76.777	0.123	-0.130
-567.617	-33.743	0.166	0.091
-566.602	-31.457	-0.131	-0.073
-565.588	-200.000	-0.006	-0.286
-564.573	-31.596	-0.059	-0.033
-563.558	17.881	-0.085	-0.068
-562.544	-200.000	0.004	0.061
-561.529	-68.194	-0.215	-0.083
-560.515	-102.935	0.211	0.050
-559.500	-200.000	-0.017	0.247
-558.485	-108.157	0.111	0.024
-557.471	-200.000	0.020	-0.117
-556.456	110.719	0.111	-0.133
-555.442	-85.357	-0.207	-0.064
-554.427	-68.813	-0.441	0.170
-553.412	-200.000	0.053	-0.430
-552.398	-200.000	-0.016	-0.377
-551.383	-200.000	-0.034	0.183
-550.369	-75.515	-0.190	0.067
-549.354	-200.000	0.091	-0.421
-548.339	491.880	-0.049	0.113
-547.325	800.000	0.012	-0.045
-546.310	-147.784	0.185	-0.015
-545.296	-142.276	0.147	0.014
-544.281	-138.189	0.228	0.025
-543.266	-114.329	0.430	0.082
-542.252	-169.260	-0.137	0.005
-541.237	-200.000	-0.018	-0.129
-540.223	-200.000	0.022	-0.155
-539.208	2.735	0.077	0.055
-538.193	-200.000	0.042	-0.239
-537.179	800.000	-0.022	0.062
-536.164	116.716	-0.108	-0.132
-535.150	800.000	-0.048	0.182
-534.135	-200.000	-0.001	-0.261
-533.121	-48.102	-0.055	0.027
-532.106	258.399	-0.023	-0.039
-531.091	-200.000	0.026	0.240
-530.077	466.066	-0.061	-0.136
-529.062	65.190	-0.185	0.186
-528.048	354.946	0.104	0.206
-527.033	-170.436	-0.080	-0.003
-526.018	91.649	-0.033	0.037
-525.004	465.002	-0.027	0.060
-523.989	-22.744	-0.168	0.101
-522.975	-101.185	-0.253	0.062
-521.960	699.394	0.030	-0.078
-520.945	436.616	0.067	0.146
-519.931	-2.667	-0.172	0.120
-518.916	-86.561	0.079	-0.024
-517.902	469.536	-0.063	-0.140
-516.887	800.000	0.086	-0.296
-515.872	-200.000	-0.026	0.151
-514.858	800.000	-0.075	0.236
-513.843	142.890	0.176	0.232
-512.829	-46.853	-0.212	-0.103
-511.814	-17.397	0.112	0.070
-510.799	-200.000	0.016	0.249
-509.785	185.875	-0.139	0.205
-508.770	-95.999	0.323	0.085
-507.756	-200.000	0.060	0.307
-506.741	-2.849	-0.056	-0.039
-505.726	-200.000	0.030	-0.134
-504.712	135.083	0.120	0.154
-503.697	-135.657	0.161	0.019
-502.683	-0.631	0.291	-0.205
-501.668	387.858	0.066	-0.135
-500.653	-125.847	-0.128	-0.019
-499.639	60.850	0.158	0.156
-498.624	239.871	-0.184	0.304
-497.610	-200.000	-0.001	-0.221
-496.595	-200.000	-0.024	0.115
-495.581	-34.479	0.268	-0.146
-494.566	-108.063	-0.234	0.050
-493.551	390.115	-0.067	-0.138
-492.537	-200.000	0.000	-0.107
-491.522	-74.359	-0.124	0.044
-490.508	496.072	0.047	0.108
-489.493	40.044	0.284	-0.253
-488.478	-82.289	0.118	-0.038
-487.464	165.181	0.158	-0.221
-486.449	-82.597	-0.374	0.120
-485.435	-200.000	0.022	0.299
-484.420	-81.520	-0.365	0.119
-483.405	800.000	-0.113	0.430
-482.391	179.553	0.164	-0.238
-481.376	120.870	0.086	0.106
-480.362	-119.849	0.147	0.025
-479.347	-200.000	-0.032	0.427
-478.332	65.440	-0.190	0.190
-477.318	-8.281	-0.232	-0.155
-476.303	81.240	-0.126	0.135
-475.289	4.444	0.102	0.074
-474.274	-88.064	-0.385	-0.115
-473.259	-110.437	0.262	0.054
-472.245	68.071	0.146	-0.148
-471.230	-200.000	0.028	-0.180
-470.216	236.481	-0.067	-0.110
-469.201	480.229	-0.099	0.224
-468.186	509.576	-0.137	0.317
-467.172	-200.000	0.002	-0.331
-466.157	800.000	-0.111	-0.387
-465.143	199.687	-0.063	0.096
-464.128	-118.872	-0.246	0.043
-463.113	310.440	-0.129	0.239
-462.099	60.739	0.139	-0.137
-461.084	800.000	0.094	-0.261
-460.070	-68.763	0.221	-0.085
-459.055	-36.537	-0.291	-0.155
-458.040	-102.997	0.192	0.045
-457.026	358.424	0.111	-0.219
-456.011	88.933	-0.017	0.019
-454.997	150.465	-0.143	-0.192
-453.982	349.384	0.098	0.193
-452.968	293.250	0.081	-0.146
-451.953	800.000	-0.020	0.060
-450.938	84.012	0.075	0.081
-449.924	-3.534	0.329	0.227
-448.909	-69.449	-0.146	0.055
-447.895	800.000	0.025	-0.068
-446.880	-148.210	0.116	-0.010
-445.865	-42.956	-0.113	-0.057
-444.851	-64.911	-0.637	0.255
-443.836	-200.000	-0.017	-0.252
-442.822	800.000	0.071	-0.260
-441.807	151.957	0.151	-0.204
-440.792	800.000	-0.078	0.215
-439.778	-105.219	-0.110	0.025
-438.763	800.000	-0.122	-0.334
-437.749	-52.947	0.063	-0.029
-436.734	-88.217	0.231	-0.069
-435.719	-200.000	-0.016	-0.165
-434.705	252.766	-0.132	0.222
-433.690	23.649	-0.308	0.251
-432.676	-200.000	-0.015	0.353
-431.661	127.960	-0.196	0.246
-430.646	-200.000	0.001	0.135
-429.632	-20.379	0.255	0.155
-428.617	331.391	0.075	-0.144
-427.603	-200.000	0.046	-0.203
-426.588	-55.213	-0.310	-0.138
-425.573	-200.000	-0.010	-0.279
-424.559	-200.000	0.075	-0.405
-423.544	12.710	0.139	-0.106
-422.530	-77.799	0.195	-0.067
-421.515	-200.000	-0.298	-0.001
-420.500	396.108	0.116	-0.240
-419.486	298.589	0.200	0.364
-418.471	93.578	0.201	0.225
-417.457	-10.683	0.237	0.155
-416.442	300.650	-0.094	0.171
-415.428	-153.289	0.471	0.032
-414.413	-6.371	-0.223	-0.150
-413.398	-200.000	-0.008	0.258
-412.384	-142.371	0.143	0.014
-411.369	201.182	-0.036	-0.054
-410.355	697.781	-0.030	0.077
-409.340	-116.218	0.554	-0.102
-408.325	-200.000	-0.005	-0.296
-407.311	45.829	-0.063	0.057
-406.296	127.155	-0.165	0.206
-405.282	143.709	0.064	0.085
-404.267	-39.286	0.470	0.244
-403.252	-75.368	0.416	-0.147
-402.238	7.907	-0.063	0.046
-401.223	800.000	-0.101	-0.338
-400.209	-53.511	0.178	-0.081
-399.194	651.803	0.039	0.099
-398.179	800.000	-0.097	-0.296
-397.165	-42.938	-0.274	-0.137
-396.150	161.820	-0.113	-0.157
-395.136	491.689	-0.205	0.464
-394.121	331.564	0.083	-0.159
-393.106	-200.000	0.003	0.060
-392.092	141.485	-0.131	-0.172
-391.077	224.997	-0.180	-0.288
-390.063	97.058	-0.119	-0.135
-389.048	183.858	0.169	0.247
-388.033	-103.587	-0.052	-0.012
-387.019	800.000	-0.080	-0.297
-386.004	11.752	0.145	0.110
-384.990	-85.582	-0.129	-0.040
-383.975	-92.574	-0.312	-0.086
-382.960	-200.000	0.089	0.558
-381.946	449.687	0.089	-0.194
-380.931	-200.000	-0.006	-0.078
-379.917	570.460	0.034	-0.081
-378.902	800.000	-0.067	-0.250
-377.888	-117.326	-0.127	-0.023
-376.873	757.092	-0.009	0.025
-375.858	340.689	0.228	-0.441
-374.844	349.571	-0.130	-0.254
-373.829	-200.000	0.019	0.244
-372.815	-156.863	-0.064	0.004
-371.800	800.000	0.027	0.106
-370.785	-200.000	0.003	0.062
-369.771	-95.918	0.515	0.135
-368.756	145.156	0.046	0.061
-367.742	-167.446	0.323	-0.013
-366.727	695.367	-0.038	-0.099
-365.712	631.393	-0.033	0.082
-364.698	6.590	-0.058	0.043
-363.683	-142.013	0.060	0.006
-362.669	-17.466	-0.206	0.128
-361.654	-110.705	0.228	-0.047
-360.639	-43.674	0.184	0.092
-359.625	532.537	-0.118	0.275
-358.610	159.552	0.115	0.157
-357.596	-70.308	0.354	-0.133
-356.581	182.523	-0.121	-0.177
-355.566	-200.000	-0.001	-0.131
-354.552	-200.000	0.039	-0.328
-353.537	347.510	0.134	-0.261
-352.523	-49.885	-0.311	0.146
-351.508	104.214	0.186	-0.216
-350.493	10.425	0.330	-0.248
-349.479	-141.575	-0.289	-0.029
-348.464	70.961	-0.174	-0.178
-347.450	152.456	-0.092	-0.124
-346.435	-200.000	0.010	0.189
-345.420	-7.150	-0.272	0.182
-344.406	157.572	-0.242	0.331
-343.391	56.580	-0.204	-0.195
-342.377	132.869	0.067	-0.085
-341.362	-36.080	0.104	0.056
-340.348	-200.000	0.025	0.290
-339.333	-200.000	0.013	0.283
-338.318	-200.000	0.023	-0.181
-337.304	413.233	0.149	-0.314
-336.289	-115.824	0.442	-0.081
-335.275	-103.380	-0.451	0.105
-334.260	-200.000	0.029	-0.186
-333.245	800.000	0.063	0.183
-332.231	-200.000	0.012	0.087
-331.216	-68.228	0.192	0.074
-330.202	-200.000	0.013	0.292
-329.187	-125.855	0.303	0.045
-328.172	800.000	0.019	0.057
-327.158	800.000	0.035	0.135
-326.143	129.057	-0.174	-0.219
-325.129	800.000	0.050	0.201
-324.114	-168.748	0.277	-0.010
-323.099	-147.368	-0.130	-0.011
-322.085	-71.054	0.140	-0.052
-321.070	-40.943	-0.156	0.080
-320.056	534.882	0.048	-0.112
-319.041	169.505	0.073	-0.102
-318.026	127.610	-0.145	-0.182
-317.012	329.314	0.121	-0.229
-315.997	-200.000	0.036	0.204
-314.983	-200.000	0.002	0.074
-313.968	800.000	-0.039	-0.109
-312.953	-200.000	0.016	-0.291
-311.939	225.003	0.143	-0.228
-310.924	-200.000	0.061	-0.329
-309.910	-19.195	0.023	-0.014
-308.895	-90.711	-0.275	0.078
-307.880	-200.000	0.035	-0.233
-306.866	800.000	-0.051	0.198
-305.851	377.773	0.153	-0.308
-304.837	115.680	-0.105	0.126
-303.822	-71.063	0.119	0.044
-302.807	-53.881	0.120	0.054
-301.793	250.860	0.019	-0.031
-300.778	-200.000	-0.008	0.040
-299.764	-200.000	0.026	0.154
-298.749	-19.120	0.223	0.137
-297.735	35.152	-0.110	0.095
-296.720	64.980	0.202	-0.201
-295.705	-113.136	0.050	0.010
-294.691	718.317	0.147	0.385
-293.676	-76.119	0.191	0.066
-292.662	577.954	0.177	0.427
-291.647	168.244	-0.053	-0.074
-290.632	217.034	0.071	0.112
-289.618	-64.713	-0.401	0.160
-288.603	-91.235	-0.415	-0.117
-287.589	-200.000	-0.003	0.305
-286.574	-200.000	-0.044	-0.283
-285.559	800.000	0.017	-0.061
-284.545	18.520	-0.198	-0.156
-283.530	-27.691	0.316	0.181
-282.516	45.527	0.115	0.104
-281.501	-200.000	0.046	0.250
-280.486	-100.291	0.084	0.021
-279.472	800.000	-0.062	-0.200
-278.457	-124.869	-0.165	0.025
-277.443	800.000	-0.048	-0.166
-276.428	-66.197	0.158	0.062
-275.413	-20.676	0.115	-0.069
-274.399	-200.000	-0.064	-0.310
-273.384	273.530	0.095	-0.165
-272.370	-168.220	-0.042	0.002
-271.355	97.113	0.202	-0.228
-270.340	-196.215	-0.193	0.001
-269.326	-200.000	-0.021	0.095
-268.311	417.395	-0.081	-0.170
-267.297	-146.095	-0.228	0.020
-266.282	358.493	0.083	0.162
-265.267	398.206	-0.103	0.213
-264.253	258.544	-0.109	0.185
-263.238	-200.000	0.104	-0.502
-262.224	108.961	-0.109	-0.128
-261.209	-149.488	0.279	-0.022
-260.195	59.055	-0.169	-0.164
-259.180	-200.000	0.016	-0.187
-258.165	397.797	0.038	0.078
-257.151	121.922	0.144	0.177
-256.136	75.611	-0.177	-0.184
-255.122	-0.112	0.139	0.097
-254.107	-200.000	0.005	0.282
-253.092	109.843	0.227	0.267
-252.078	122.539	0.130	0.160
-251.063	51.999	0.287	0.268
-250.049	-127.566	0.308	0.044
-249.034	322.195	0.151	0.283
-248.019	-132.193	0.180	-0.023
-247.005	-86.369	-0.091	-0.027
-245.990	-52.270	-0.372	-0.169
-244.976	-7.953	-0.211	-0.140
-243.961	364.882	-0.014	0.027
-242.946	-171.331	0.233	-0.008
-241.932	-46.966	-0.128	0.061
-240.917	-21.100	-0.243	-0.146
-239.903	3.978	-0.076	-0.054
-238.888	-12.718	0.048	-0.031
-237.873	-26.901	0.165	0.095
-236.859	467.179	0.058	0.128
-235.844	-117.175	0.157	0.028
-234.830	185.655	0.217	-0.317
-233.815	-160.281	-0.109	-0.006
-232.800	-200.000	0.004	-0.077
-231.786	32.104	0.111	0.094
-230.771	800.000	-0.030	-0.113
-229.757	17.956	0.226	-0.177
-228.742	117.460	0.220	0.266
-227.727	191.654	-0.039	-0.057
-226.713	247.743	-0.176	-0.292
-225.698	-174.796	-0.507	0.014
-224.684	77.584	-0.261	-0.273
-223.669	-200.000	0.023	-0.171
-222.655	-35.004	0.211	-0.113
-221.640	-71.128	-0.239	-0.088
-220.625	-200.000	-0.007	0.045
-219.611	-200.000	0.000	0.199
-218.596	-28.732	-0.080	-0.045
-217.582	-100.207	0.346	-0.084
-216.567	800.000	0.186	0.569
-215.552	-13.871	0.284	-0.180
-214.538	-143.721	-0.097	-0.009
-213.523	-58.833	0.158	0.067
-212.509	-200.000	-0.003	0.054
-211.494	14.346	0.095	-0.073
-210.479	800.000	-0.037	-0.128
-209.465	-163.211	0.444	-0.021
-208.450	-116.927	-0.164	-0.029
-207.436	-30.100	0.147	0.082
-206.421	-200.000	-0.008	0.262
-205.406	-163.570	-0.204	0.009
-204.392	2.183	-0.158	0.112
-203.377	147.487	-0.112	0.149
-202.363	-165.043	0.303	0.013
-201.348	19.813	-0.147	0.116
-200.333	-116.343	-0.378	-0.069
-199.319	-103.629	0.119	-0.027
-198.304	-130.923	-0.241	0.032
-197.290	17.629	0.099	-0.077
-196.275	-45.544	-0.267	-0.130
-195.260	-111.029	0.274	0.055
-194.246	-200.000	-0.030	0.131
-193.231	62.000	0.094	-0.092
-192.217	-155.007	-0.110	-0.007
-191.202	35.473	0.137	-0.118
-190.187	-171.148	-0.171	0.006
-189.173	800.000	-0.031	-0.120
-188.158	-13.010	-0.261	-0.166
-187.144	313.702	-0.172	0.318
-186.129	-111.807	0.087	0.017
-185.114	-118.708	-0.135	0.023
-184.100	218.936	0.072	0.113
-183.085	181.106	-0.085	0.122
-182.071	800.000	0.012	0.042
-181.056	-63.088	-0.275	0.111
-180.042	-153.947	-0.115	-0.008
-179.027	-56.086	0.284	0.124
-178.012	187.985	0.135	-0.197
-176.998	31.384	0.215	-0.181
-175.983	41.066	-0.371	-0.328
-174.969	25.426	-0.229	0.187
-173.954	-122.261	0.043	-0.007
-172.939	-200.000	-0.010	0.121
-171.925	-200.000	0.002	-0.079
-170.910	741.225	0.082	0.217
-169.896	-183.816	0.573	0.010
-168.881	800.000	-0.087	0.329
-167.866	-61.442	0.246	-0.101
-166.852	-159.774	-0.151	-0.008
-165.837	189.437	-0.146	-0.214
-164.823	-91.491	-0.090	0.025
-163.808	295.059	0.100	0.179
-162.793	143.187	-0.101	-0.131
-161.779	-200.000	-0.008	0.380
-160.764	800.000	-0.065	-0.221
-159.750	174.047	-0.032	-0.046
-158.735	13.156	0.116	0.088
-157.720	-200.000	0.061	-0.391
-156.706	-6.388	-0.291	0.195
-155.691	-171.885	-0.159	0.005
-154.677	-133.064	-0.252	0.031
-153.662	800.000	0.031	-0.123
-152.647	-107.188	0.222	-0.048
-151.633	-73.563	0.238	0.085
-150.618	8.499	-0.288	-0.213
-149.604	-108.168	0.116	-0.025
-148.589	800.000	-0.030	0.115
-147.574	-200.000	-0.066	-0.370
-146.560	4.650	-0.213	-0.153
-145.545	-200.000	0.059	0.264
-144.531	-87.382	0.401	-0.119
-143.516	-130.886	0.305	0.040
-142.502	800.000	-0.024	0.085
-141.487	151.372	0.111	0.147
-140.472	290.732	-0.266	0.473
-139.458	324.015	0.100	-0.188
-138.443	-118.685	0.308	0.053
-137.429	-12.296	-0.102	-0.065
-136.414	800.000	-0.048	0.159
-135.399	-11.433	-0.172	0.111
-134.385	-85.996	-0.022	-0.007
-133.370	-140.735	0.170	-0.017
-132.356	91.288	0.082	-0.091
-131.341	154.971	0.154	0.207
-130.326	365.248	0.118	-0.233
-129.312	47.230	0.095	-0.087
-128.297	636.693	0.118	-0.293
-127.283	-124.440	-0.244	-0.037
-126.268	7.584	0.219	0.161
-125.253	800.000	-0.036	-0.133
-124.239	-71.661	-0.040	0.015
-123.224	-200.000	-0.043	-0.265
-122.210	396.713	-0.208	-0.425
