DTS Sentinel unit serial number:	SN413079Multiplexer serial number:	ORYXHardware model number:	OX4-SRSoftware version number:	ORYX F/W v4.00 Oryx Data Collector v3.7.2.0data status	okinstallation	princeton_trtdifferential loss correction	single-endedforward channel	channel 4reverse channel	N/Adate	2019/09/13time	13:53:35forward acquisition time	60.00reverse acquisition time	0.00gamma	496.2192k internal	0.2296k external	0.2296temperature offset calibration	1.0206default loss term (dB/km)	0.3790temperature slope calibration	1.0000multiplexer offset coefficient	1.0000multiplexer slope coefficient	1.0000fibre end	0.00T internal ref (°C)	35.19T ext. ref 1 (°C)	4.59T ext. ref 2 (°C)	31.28length (m)	temperature (°C)	Stokes	anti-Stokes-747.200	-82.331	0.144	-0.048
-746.185	155.880	-0.026	0.036
-745.171	-200.000	0.006	-0.209
-744.156	-173.722	0.405	0.012
-743.142	800.000	0.067	-0.254
-742.127	100.006	-0.322	0.381
-741.112	64.240	-0.165	0.170
-740.098	470.955	-0.108	0.247
-739.083	1.274	-0.341	0.250
-738.069	225.552	-0.169	0.280
-737.054	393.793	-0.022	0.047
-736.039	-200.000	-0.017	-0.491
-735.025	800.000	0.074	-0.211
-734.010	800.000	0.066	-0.278
-732.996	298.252	-0.152	-0.285
-731.981	-200.000	0.032	-0.168
-730.966	-200.000	0.016	-0.245
-729.952	-200.000	-0.063	0.480
-728.937	-200.000	0.046	-0.249
-727.923	800.000	-0.017	0.066
-726.908	-93.874	0.174	-0.049
-725.894	216.235	-0.164	-0.266
-724.879	-114.951	-0.090	-0.018
-723.864	800.000	0.090	-0.313
-722.850	-200.000	-0.002	-0.096
-721.835	-138.747	-0.265	-0.029
-720.821	661.505	-0.067	-0.176
-719.806	-200.000	0.036	-0.182
-718.791	57.597	0.124	-0.123
-717.777	-200.000	-0.006	-0.095
-716.762	-33.528	-0.175	-0.099
-715.748	-128.699	-0.505	0.073
-714.733	-42.336	0.119	0.062
-713.718	-120.679	0.189	0.033
-712.704	14.028	-0.069	0.055
-711.689	608.985	-0.085	-0.216
-710.675	800.000	-0.023	0.098
-709.660	485.075	0.070	-0.163
-708.645	-51.776	0.185	-0.088
-707.631	-114.273	-0.152	-0.030
-706.616	-148.366	-0.159	0.013
-705.602	800.000	0.083	-0.330
-704.587	-200.000	0.030	-0.498
-703.572	120.343	0.123	-0.156
-702.558	-32.892	0.484	0.274
-701.543	-200.000	0.042	0.505
-700.529	-200.000	0.069	-0.708
-699.514	134.822	-0.119	-0.158
-698.499	279.311	-0.206	-0.376
-697.485	-200.000	0.024	-0.193
-696.470	-47.081	-0.202	0.101
-695.456	-200.000	-0.018	-0.305
-694.441	-200.000	-0.019	0.146
-693.426	478.185	0.086	-0.200
-692.412	-81.827	-0.101	-0.034
-691.397	-200.000	-0.012	-0.241
-690.383	442.537	-0.160	-0.357
-689.368	800.000	-0.125	0.353
-688.354	188.589	-0.056	-0.086
-687.339	-68.561	-0.276	0.109
-686.324	800.000	-0.024	0.099
-685.310	800.000	0.015	0.046
-684.295	87.624	-0.275	-0.310
-683.281	126.248	-0.020	0.026
-682.266	-119.492	-0.461	0.082
-681.251	-200.000	0.011	-0.151
-680.237	-85.966	-0.442	-0.139
-679.222	54.233	0.101	0.099
-678.208	261.237	-0.079	0.140
-677.193	800.000	-0.047	0.153
-676.178	-26.748	-0.273	-0.163
-675.164	-20.423	-0.366	-0.230
-674.149	385.036	-0.072	-0.151
-673.135	89.791	-0.321	-0.365
-672.120	-200.000	0.057	0.337
-671.105	108.976	-0.138	-0.169
-670.091	-200.000	0.013	-0.292
-669.076	800.000	0.131	-0.368
-668.062	-64.412	0.101	-0.042
-667.047	-200.000	0.097	-0.526
-666.032	-20.363	-0.242	0.152
-665.018	33.734	0.098	-0.087
-664.003	-76.142	0.101	0.036
-662.989	800.000	0.078	0.258
-661.974	300.491	0.125	0.235
-660.959	-45.889	-0.247	0.124
-659.945	335.855	-0.122	-0.241
-658.930	278.771	-0.198	-0.360
-657.916	173.525	-0.096	-0.141
-656.901	-124.684	-0.421	-0.066
-655.886	37.706	-0.110	0.100
-654.872	-94.487	0.208	0.058
-653.857	-72.886	-0.074	0.028
-652.843	-88.879	0.112	-0.034
-651.828	800.000	0.062	-0.230
-650.814	182.742	-0.104	0.156
-649.799	800.000	0.040	-0.118
-648.784	9.592	-0.095	0.073
-647.770	12.461	-0.092	-0.072
-646.755	183.545	0.209	-0.315
-645.741	11.140	-0.111	0.086
-644.726	-111.248	0.254	0.053
-643.711	82.654	0.133	-0.148
-642.697	617.511	-0.029	0.073
-641.682	299.417	-0.122	0.229
-640.668	-92.406	-0.166	-0.047
-639.653	-17.617	-0.281	-0.179
-638.638	800.000	-0.034	-0.109
-637.624	-132.922	-0.081	0.011
-636.609	18.403	-0.272	0.221
-635.595	-7.199	-0.047	-0.033
-634.580	-25.910	0.156	-0.094
-633.565	-200.000	-0.026	-0.354
-632.551	-48.270	-0.054	0.027
-631.536	-77.719	-0.270	0.095
-630.522	429.970	-0.074	0.163
-629.507	-200.000	0.002	-0.210
-628.492	-200.000	0.002	0.017
-627.478	-39.177	-0.315	0.168
-626.463	105.157	0.030	-0.035
-625.449	-99.756	0.322	0.082
-624.434	46.266	-0.139	0.131
-623.419	277.257	-0.131	0.238
-622.405	-0.632	0.138	-0.099
-621.390	800.000	-0.035	-0.116
-620.376	-9.757	0.256	-0.173
-619.361	-200.000	-0.024	0.134
-618.346	-4.917	-0.096	-0.067
-617.332	341.212	0.189	0.376
-616.317	-124.246	0.297	0.047
-615.303	192.183	0.104	-0.160
-614.288	-97.606	0.042	-0.011
-613.273	217.628	-0.161	-0.261
-612.259	100.083	-0.203	0.239
-611.244	-90.633	-0.236	-0.069
-610.230	102.779	-0.195	-0.232
-609.215	-31.977	-0.200	-0.114
-608.201	-95.442	0.135	-0.037
-607.186	-200.000	0.039	0.175
-606.171	-200.000	-0.059	0.306
-605.157	-83.387	-0.148	0.048
-604.142	-10.160	-0.257	-0.174
-603.128	459.312	0.142	-0.322
-602.113	-165.358	-0.159	-0.007
-601.098	165.208	0.065	-0.093
-600.084	160.345	0.257	-0.364
-599.069	380.075	0.192	-0.399
-598.055	139.695	0.142	0.190
-597.040	383.468	-0.016	0.033
-596.025	705.348	-0.070	0.188
-595.011	99.424	-0.310	0.364
-593.996	176.922	0.246	-0.364
-592.982	-200.000	-0.020	-0.333
-591.967	189.932	0.042	-0.064
-590.952	58.664	0.132	0.131
-589.938	-99.853	-0.585	0.149
-588.923	38.779	0.097	0.088
-587.909	6.143	0.270	-0.203
-586.894	-200.000	-0.034	0.362
-585.879	-145.341	-0.393	0.036
-584.865	-62.873	0.116	0.049
-583.850	95.977	-0.073	0.085
-582.836	-66.319	-0.184	-0.074
-581.821	-200.000	-0.061	-0.426
-580.806	574.500	0.025	-0.062
-579.792	-25.280	-0.143	0.086
-578.777	-67.641	-0.331	-0.132
-577.763	-46.220	-0.188	-0.094
-576.748	-81.603	-0.149	0.050
-575.733	-200.000	0.052	0.299
-574.719	800.000	-0.032	0.131
-573.704	215.405	0.090	-0.144
-572.690	-106.625	0.314	0.071
-571.675	-127.462	-0.307	0.045
-570.661	-200.000	-0.037	-0.179
-569.646	-30.127	0.220	0.127
-568.631	800.000	0.020	-0.072
-567.617	-117.424	-0.156	0.029
-566.602	-200.000	0.007	-0.087
-565.588	-87.937	-0.281	0.086
-564.573	259.973	0.084	0.147
-563.558	98.946	-0.022	-0.025
-562.544	800.000	-0.098	0.382
-561.529	276.615	-0.068	0.123
-560.515	413.769	-0.149	0.322
-559.500	-53.393	-0.129	-0.060
-558.485	3.098	-0.200	-0.148
-557.471	52.125	0.233	-0.225
-556.456	-157.019	0.038	0.002
-555.442	-200.000	0.026	0.122
-554.427	-200.000	-0.006	-0.324
-553.412	218.160	-0.066	0.106
-552.398	-27.209	-0.250	-0.148
-551.383	-95.898	0.269	-0.073
-550.369	-129.682	0.260	0.036
-549.354	-200.000	-0.030	-0.397
-548.339	135.403	0.249	-0.329
-547.325	58.740	-0.044	-0.044
-546.310	82.905	-0.132	-0.145
-545.296	-92.483	-0.313	-0.089
-544.281	-7.135	-0.367	0.252
-543.266	-35.117	-0.269	0.149
-542.252	74.623	-0.101	-0.107
-541.237	-134.853	0.062	0.008
-540.223	113.655	-0.242	-0.297
-539.208	800.000	0.094	-0.322
-538.193	-200.000	-0.013	-0.105
-537.179	-200.000	0.078	0.431
-536.164	-136.153	-0.194	-0.023
-535.150	-87.984	0.078	0.024
-534.135	-144.325	-0.262	0.025
-533.121	129.628	-0.091	0.118
-532.106	80.594	0.255	-0.278
-531.091	800.000	-0.082	-0.270
-530.077	583.202	-0.023	-0.056
-529.062	-119.717	0.262	-0.046
-528.048	-97.757	-0.062	-0.016
-527.033	-200.000	-0.020	0.280
-526.018	-107.060	0.401	0.090
-525.004	97.497	-0.213	0.248
-523.989	-92.174	-0.449	0.129
-522.975	800.000	-0.055	-0.186
-521.960	434.398	-0.024	0.053
-520.945	61.539	0.098	0.098
-519.931	37.731	-0.156	-0.141
-518.916	421.294	0.085	0.184
-517.902	-47.611	0.140	-0.069
-516.887	-13.299	0.212	0.139
-515.872	-82.018	-0.332	-0.110
-514.858	59.611	-0.147	-0.147
-513.843	-200.000	-0.004	0.118
-512.829	-49.124	0.176	-0.085
-511.814	17.430	-0.283	-0.227
-510.799	-200.000	-0.012	0.217
-509.785	-200.000	0.036	-0.186
-508.770	-31.529	0.076	-0.043
-507.756	305.910	-0.034	-0.064
-506.741	-68.671	-0.147	-0.058
-505.726	-200.000	-0.269	0.001
-504.712	-156.422	-0.401	0.025
-503.697	-55.820	0.107	-0.048
-502.683	-49.556	0.237	-0.114
-501.668	-200.000	0.021	-0.273
-500.653	-53.490	-0.181	0.084
-499.639	145.977	-0.183	-0.249
-498.624	-27.015	0.213	-0.126
-497.610	-107.597	-0.500	-0.111
-496.595	45.929	-0.231	-0.216
-495.581	-200.000	-0.013	-0.170
-494.566	-85.576	-0.158	0.050
-493.551	12.644	0.152	0.119
-492.537	-118.582	0.133	-0.024
-491.522	-107.617	0.238	0.053
-490.508	67.515	0.296	0.306
-489.493	240.955	0.166	-0.280
-488.478	759.789	-0.040	0.110
-487.464	-92.239	0.613	-0.175
-486.449	-91.985	0.201	-0.058
-485.435	-73.743	-0.038	0.014
-484.420	60.909	0.081	-0.081
-483.405	800.000	0.041	0.159
-482.391	150.974	0.064	0.088
-481.376	-200.000	-0.032	0.167
-480.362	179.873	-0.156	0.231
-479.347	-154.267	-0.315	0.021
-478.332	800.000	-0.087	-0.255
-477.318	21.803	0.264	-0.218
-476.303	-20.618	-0.228	-0.141
-475.289	127.448	-0.195	-0.251
-474.274	800.000	0.043	0.138
-473.259	155.001	-0.173	0.241
-472.245	-143.812	-0.253	-0.024
-471.230	317.564	0.105	0.201
-470.216	-149.482	0.405	-0.032
-469.201	-180.912	0.306	-0.006
-468.186	102.951	0.112	0.133
-467.172	199.460	0.134	0.208
-466.157	-76.551	-0.383	0.136
-465.143	-200.000	-0.029	-0.316
-464.128	-115.942	0.066	0.012
-463.113	-81.277	-0.453	0.151
-462.099	-200.000	-0.030	0.222
-461.084	-15.850	-0.089	0.057
-460.070	-128.717	-0.281	0.040
-459.055	-97.403	-0.144	0.038
-458.040	120.663	-0.060	-0.076
-457.026	-5.978	0.167	0.115
-456.011	-165.228	-0.250	0.011
-454.997	292.583	0.057	-0.105
-453.982	419.150	-0.049	0.105
-452.968	5.545	0.090	-0.067
-451.953	66.176	0.220	-0.225
-450.938	-200.000	0.023	0.177
-449.924	-31.149	-0.240	0.137
-448.909	-68.056	-0.288	-0.113
-447.895	-161.757	0.225	0.012
-446.880	443.686	0.029	0.064
-445.865	-61.451	-0.136	0.058
-444.851	800.000	-0.066	0.192
-443.836	345.253	-0.109	-0.217
-442.822	162.013	-0.294	-0.416
-441.807	-117.943	0.376	-0.068
-440.792	-200.000	0.015	0.266
-439.778	-63.347	0.337	0.140
-438.763	-130.020	0.307	-0.042
-437.749	367.841	0.015	-0.030
-436.734	98.081	0.219	-0.254
-435.719	84.627	0.201	-0.223
-434.705	-200.000	0.008	-0.181
-433.690	-200.000	-0.028	-0.264
-432.676	221.256	-0.162	0.262
-431.661	58.145	0.012	0.012
-430.646	-97.846	0.360	0.094
-429.632	58.888	0.331	-0.328
-428.617	209.691	0.260	-0.411
-427.603	14.504	0.050	0.040
-426.588	-169.300	0.322	0.012
-425.573	-52.636	-0.312	-0.145
-424.559	-78.934	0.100	0.034
-423.544	-75.180	0.075	0.027
-422.530	97.371	-0.031	0.036
-421.515	169.344	-0.170	-0.245
-420.500	-26.786	-0.228	-0.134
-419.486	6.611	-0.355	0.266
-418.471	-7.491	0.091	0.062
-417.457	-200.000	-0.005	0.093
-416.442	-74.809	-0.210	0.076
-415.428	160.918	0.185	0.261
-414.413	800.000	-0.066	0.261
-413.398	-114.077	0.248	0.049
-412.384	61.726	-0.142	-0.143
-411.369	171.367	-0.209	-0.302
-410.355	52.929	-0.265	-0.256
-409.340	-1.982	0.166	-0.117
-408.325	12.248	0.090	0.070
-407.311	286.015	0.071	-0.130
-406.296	800.000	-0.095	0.325
-405.282	-200.000	-0.025	-0.210
-404.267	-200.000	-0.033	0.189
-403.252	-200.000	-0.010	-0.193
-402.238	-115.234	0.231	0.044
-401.223	335.051	0.180	-0.352
-400.209	127.026	-0.157	0.201
-399.194	800.000	-0.052	-0.200
-398.179	108.400	-0.245	-0.294
-397.165	39.000	0.141	-0.127
-396.150	36.641	0.094	-0.084
-395.136	578.993	0.099	0.244
-394.121	37.740	0.345	-0.309
-393.106	35.251	-0.253	-0.223
-392.092	394.931	0.032	-0.068
-391.077	119.004	0.033	0.041
-390.063	-82.863	0.217	-0.071
-389.048	-99.907	-0.259	-0.065
-388.033	-46.757	-0.213	0.105
-387.019	82.209	0.145	-0.159
-386.004	800.000	-0.012	-0.038
-384.990	-200.000	-0.069	0.341
-383.975	1.213	0.126	-0.092
-382.960	65.788	-0.371	-0.379
-381.946	41.028	0.218	-0.199
-380.931	-22.344	-0.016	0.010
-379.917	-129.025	-0.061	0.009
-378.902	106.764	0.064	-0.076
-377.888	-59.045	0.065	0.028
-376.873	70.671	-0.154	-0.160
-375.858	512.085	-0.032	-0.076
-374.844	33.790	0.282	0.247
-373.829	19.818	0.178	0.144
-372.815	611.977	-0.128	0.323
-371.800	120.404	-0.206	-0.258
-370.785	181.402	0.158	-0.234
-369.771	-75.274	0.253	0.091
-368.756	-72.992	0.391	0.144
-367.742	340.046	0.137	0.270
-366.727	-18.904	-0.043	0.027
-365.712	718.772	0.086	0.230
-364.698	0.482	-0.202	0.146
-363.683	-9.727	-0.030	-0.020
-362.669	-104.825	0.242	0.056
-361.654	8.132	-0.112	0.085
-360.639	-86.447	0.238	-0.074
-359.625	168.472	-0.043	0.062
-358.610	29.937	0.153	0.132
-357.596	156.165	-0.045	0.063
-356.581	63.651	0.238	0.241
-355.566	-200.000	0.052	-0.260
-354.552	-139.177	0.190	-0.021
-353.537	50.846	-0.178	-0.169
-352.523	800.000	0.021	-0.065
-351.508	319.079	0.027	-0.051
-350.493	183.628	-0.154	-0.229
-349.479	-200.000	0.029	0.162
-348.464	117.214	0.257	-0.318
-347.450	53.126	-0.231	0.223
-346.435	800.000	0.052	0.148
-345.420	-120.833	-0.260	-0.044
-344.406	-53.108	0.159	-0.074
-343.391	-200.000	-0.031	-0.246
-342.377	106.981	-0.111	-0.133
-341.362	9.020	-0.168	-0.128
-340.348	207.036	0.120	-0.187
-339.333	-10.727	-0.155	-0.103
-338.318	-65.374	-0.121	-0.049
-337.304	518.136	0.069	-0.162
-336.289	223.531	0.091	-0.148
-335.275	-200.000	0.056	0.343
-334.260	42.082	0.197	0.180
-333.245	-87.681	0.337	0.102
-332.231	384.836	-0.192	-0.397
-331.216	-94.415	-0.129	-0.035
-330.202	117.940	-0.275	0.340
-329.187	77.419	-0.221	0.236
-328.172	-63.331	0.247	0.102
-327.158	170.211	0.115	0.165
-326.143	714.257	-0.050	0.133
-325.129	34.448	-0.160	0.141
-324.114	-30.667	-0.227	0.129
-323.099	-72.619	-0.023	0.009
-322.085	94.364	0.130	0.148
-321.070	-79.871	0.047	-0.016
-320.056	-135.972	0.189	-0.022
-319.041	-93.679	0.203	-0.056
-318.026	753.624	-0.068	-0.184
-317.012	221.660	-0.075	-0.121
-315.997	800.000	-0.118	0.365
-314.983	339.809	0.165	0.324
-313.968	-52.528	-0.078	-0.036
-312.953	54.750	-0.306	0.296
-311.939	-88.635	-0.218	-0.065
-310.924	-61.099	0.107	0.045
-309.910	2.555	-0.026	0.019
-308.895	-200.000	0.012	0.129
-307.880	-200.000	-0.008	-0.178
-306.866	-200.000	-0.016	0.104
-305.851	168.299	-0.041	-0.058
-304.837	-128.121	-0.401	0.058
-303.822	506.628	0.108	-0.252
-302.807	-200.000	0.010	-0.088
-301.793	-184.611	-0.340	0.006
-300.778	-200.000	0.019	0.227
-299.764	-156.586	0.343	0.021
-298.749	363.570	-0.119	0.241
-297.735	56.287	-0.066	0.065
-296.720	63.795	-0.047	0.048
-295.705	0.001	0.169	0.121
-294.691	-200.000	0.012	-0.064
-293.676	-60.717	0.085	0.036
-292.662	-51.545	0.195	0.091
-291.647	480.464	0.108	-0.245
-290.632	76.210	0.210	0.223
-289.618	-200.000	-0.013	0.142
-288.603	-109.746	0.231	0.049
-287.589	-200.000	0.007	0.291
-286.574	-143.542	0.153	0.015
-285.559	15.145	0.169	0.133
-284.545	126.546	0.341	0.433
-283.530	-93.626	-0.061	0.017
-282.516	-56.688	-0.066	-0.029
-281.501	800.000	-0.109	0.303
-280.486	-200.000	0.019	-0.224
-279.472	-200.000	-0.049	0.346
-278.457	-200.000	-0.012	-0.106
-277.443	-43.911	-0.139	-0.070
-276.428	357.222	0.198	-0.396
-275.413	71.972	-0.102	0.106
-274.399	-34.862	-0.417	-0.229
-273.384	-172.346	0.186	0.006
-272.370	-140.589	0.289	-0.030
-271.355	29.953	-0.152	-0.130
-270.340	-59.029	-0.123	0.053
-269.326	-159.902	0.286	-0.016
-268.311	347.247	0.126	0.248
-267.297	-200.000	0.013	-0.109
-266.282	3.813	0.071	0.052
-265.267	800.000	0.080	-0.297
-264.253	215.926	0.070	-0.111
-263.238	-0.728	0.076	0.054
-262.224	489.544	0.023	0.053
-261.209	87.235	0.071	0.079
-260.195	206.919	0.150	0.234
-259.180	93.295	-0.114	0.129
-258.165	557.763	0.108	0.260
-257.151	-200.000	0.045	-0.242
-256.136	-1.678	0.266	-0.188
-255.122	-200.000	-0.048	-0.303
-254.107	-175.033	-0.148	0.004
-253.092	74.667	0.090	0.095
-252.078	-71.075	0.333	0.126
-251.063	-200.000	-0.008	0.079
-250.049	-156.628	0.028	0.002
-249.034	406.842	-0.150	0.317
-248.019	-64.611	-0.329	-0.134
-247.005	-200.000	-0.008	0.195
-245.990	119.502	0.136	-0.168
-244.976	-105.568	0.260	-0.059
-243.961	-153.359	0.334	-0.023
-242.946	-132.003	0.323	-0.042
-241.932	605.107	0.161	0.403
-240.917	336.967	-0.130	0.253
-239.903	-159.109	0.298	0.017
-238.888	800.000	-0.024	-0.079
-237.873	-200.000	0.039	0.324
-236.859	138.516	0.036	-0.047
-235.844	-200.000	-0.076	0.367
-234.830	-105.758	-0.188	-0.043
-233.815	-27.582	0.037	0.021
-232.800	13.394	0.360	0.280
-231.786	-134.038	-0.280	0.035
-230.771	20.570	0.173	0.140
-229.757	-66.154	0.343	-0.137
-228.742	29.203	0.263	0.224
-227.727	-64.126	0.124	-0.051
-226.713	329.038	-0.146	-0.281
-225.698	-95.008	0.243	0.066
-224.684	800.000	-0.084	0.312
-223.669	522.698	-0.027	-0.065
-222.655	-27.706	-0.115	0.067
-221.640	-120.517	0.295	-0.050
-220.625	193.062	-0.226	0.342
-219.611	268.654	-0.044	-0.078
-218.596	231.325	-0.123	0.202
-217.582	-108.928	-0.220	-0.047
-216.567	71.583	-0.376	-0.391
-215.552	147.296	0.135	-0.182
-214.538	-25.570	0.203	-0.120
-213.523	-35.024	0.151	-0.082
-212.509	-62.846	0.319	-0.132
-211.494	-68.654	-0.097	-0.038
-210.479	156.842	0.030	0.042
-209.465	254.555	0.018	0.031
-208.450	28.950	-0.105	0.089
-207.436	35.489	-0.087	0.076
-206.421	361.588	-0.116	-0.233
-205.406	327.928	0.065	0.125
-204.392	191.203	0.100	-0.151
-203.377	-58.979	0.184	-0.080
-202.363	-200.000	0.217	0.000
-201.348	562.005	-0.032	-0.078
-200.333	-125.298	0.285	-0.044
-199.319	-200.000	-0.014	-0.125
-198.304	477.417	0.036	0.082
-197.290	-85.317	0.230	-0.072
-196.275	111.049	-0.214	-0.258
-195.260	-33.867	-0.519	0.286
-194.246	-21.976	0.202	0.123
-193.231	364.207	0.142	-0.286
-192.217	129.166	0.215	0.275
-191.202	800.000	0.023	0.097
-190.187	77.382	0.314	0.334
-189.173	-173.216	-0.130	0.004
-188.158	71.873	0.153	0.159
-187.144	800.000	0.082	0.233
-186.129	83.552	0.162	0.176
-185.114	-38.139	-0.312	0.166
-184.100	-41.573	0.196	-0.101
-183.085	-200.000	0.010	-0.152
-182.071	-103.715	-0.268	-0.063
-181.056	327.988	0.138	-0.265
-180.042	800.000	-0.063	0.237
-179.027	-200.000	-0.024	0.411
-178.012	79.177	0.274	-0.293
-176.998	-185.410	-0.173	0.003
-175.983	-56.783	-0.416	0.184
-174.969	-70.668	-0.263	-0.099
-173.954	-37.162	-0.423	0.226
-172.939	-22.886	0.335	0.202
-171.925	130.278	-0.347	0.444
-170.910	128.368	0.203	0.258
-169.896	-119.848	0.137	0.024
-168.881	78.207	0.060	0.064
-167.866	118.390	-0.061	0.075
-166.852	-1.580	0.180	-0.127
-165.837	-200.000	0.066	-0.311
-164.823	126.966	0.211	0.267
-163.808	-200.000	0.005	0.215
-162.793	-75.531	-0.071	0.025
-161.779	0.162	-0.281	-0.200
-160.764	-200.000	-0.044	-0.530
-159.750	-200.000	-0.040	0.213
-158.735	-41.970	0.075	0.039
-157.720	800.000	-0.103	-0.429
-156.706	46.626	0.289	-0.268
-155.691	-85.760	-0.315	-0.098
-154.677	590.108	0.079	0.196
-153.662	-52.747	-0.113	-0.052
-152.647	461.750	-0.089	0.198
-151.633	577.402	-0.081	-0.198
-150.618	283.389	-0.100	-0.179
-149.604	522.759	0.022	0.053
-148.589	-43.042	-0.204	-0.103
-147.574	-64.710	-0.236	-0.096
-146.560	147.226	-0.206	-0.277
-145.545	-200.000	0.030	0.263
-144.531	230.505	-0.168	-0.274
-143.516	-77.337	0.270	0.094
-142.502	-200.000	-0.002	-0.163
-141.487	-4.134	-0.089	-0.062
-140.472	-200.000	-0.042	-0.340
-139.458	800.000	-0.043	-0.176
-138.443	180.042	0.109	-0.160
-137.429	202.462	-0.098	0.151
-136.414	-140.841	0.114	-0.012
-135.399	-55.234	-0.118	-0.053
-134.385	80.686	-0.053	-0.057
-133.370	581.150	0.041	0.099
-132.356	-200.000	0.041	0.199
-131.341	-20.585	-0.216	0.132
-130.326	-200.000	-0.016	0.192
-129.312	277.532	-0.078	0.139
-128.297	-177.408	0.114	0.003
-127.283	-66.469	0.189	-0.075
-126.268	161.882	-0.147	-0.206
-125.253	-200.000	0.064	0.408
-124.239	-51.014	0.273	0.128
-123.224	-200.000	0.023	0.273
-122.210	-72.433	0.098	-0.036
-121.195	800.000	0.055	0.181
