DTS Sentinel unit serial number:	SN413079Multiplexer serial number:	ORYXHardware model number:	OX4-SRSoftware version number:	ORYX F/W v4.00 Oryx Data Collector v3.7.2.0data status	okinstallation	princeton_trtdifferential loss correction	single-endedforward channel	channel 4reverse channel	N/Adate	2019/09/13time	01:49:34forward acquisition time	60.00reverse acquisition time	0.00gamma	496.2192k internal	0.2319k external	0.2319temperature offset calibration	1.0180default loss term (dB/km)	0.3790temperature slope calibration	1.0000multiplexer offset coefficient	1.0000multiplexer slope coefficient	1.0000fibre end	0.00T internal ref (°C)	27.69T ext. ref 1 (°C)	3.80T ext. ref 2 (°C)	22.32length (m)	temperature (°C)	Stokes	anti-Stokes-747.200	-106.158	0.267	0.061
-746.185	324.844	0.010	0.019
-745.171	-109.189	-0.397	-0.085
-744.156	800.000	0.083	0.280
-743.142	-152.733	-0.145	-0.010
-742.127	37.115	-0.347	0.311
-741.112	87.842	0.069	-0.077
-740.098	-79.816	0.149	-0.051
-739.083	-3.050	-0.121	-0.086
-738.069	14.320	-0.127	0.100
-737.054	510.848	-0.130	-0.306
-736.039	-200.000	-0.031	0.267
-735.025	14.840	-0.110	-0.087
-734.010	-9.029	-0.242	-0.164
-732.996	65.249	0.044	0.045
-731.981	-31.800	-0.087	-0.049
-730.966	-152.018	0.132	0.010
-729.952	-185.341	-0.256	-0.004
-728.937	-118.575	-0.363	-0.065
-727.923	102.988	0.061	-0.073
-726.908	0.521	-0.216	0.156
-725.894	-5.968	-0.222	-0.154
-724.879	736.790	0.088	0.240
-723.864	230.762	-0.050	-0.083
-722.850	-200.000	0.009	-0.265
-721.835	-57.326	-0.136	-0.061
-720.821	72.861	0.149	0.157
-719.806	-171.128	-0.178	0.006
-718.791	214.787	-0.077	0.123
-717.777	74.312	-0.059	-0.063
-716.762	-22.561	-0.133	0.081
-715.748	-200.000	0.014	-0.120
-714.733	800.000	0.118	-0.409
-713.718	-170.179	-0.124	-0.004
-712.704	-102.739	-0.226	-0.054
-711.689	22.357	-0.168	0.138
-710.675	800.000	-0.086	-0.250
-709.660	347.883	-0.140	-0.278
-708.645	630.357	-0.066	-0.169
-707.631	-200.000	0.004	-0.104
-706.616	111.417	-0.119	-0.144
-705.602	447.563	-0.125	-0.278
-704.587	-70.653	-0.229	-0.087
-703.572	-172.800	0.146	-0.005
-702.558	-97.134	0.282	-0.074
-701.543	-200.000	0.025	0.210
-700.529	-13.433	0.146	0.096
-699.514	-38.304	-0.253	0.135
-698.499	-71.937	0.132	-0.050
-697.485	-62.140	-0.417	-0.176
-696.470	329.145	0.180	-0.349
-695.456	-12.735	0.147	-0.097
-694.441	93.395	-0.278	0.318
-693.426	399.767	0.150	0.318
-692.412	-14.204	0.182	0.118
-691.397	-31.596	-0.232	-0.131
-690.383	800.000	0.060	0.245
-689.368	33.923	-0.104	-0.092
-688.354	253.097	0.127	0.219
-687.339	-133.181	0.244	0.031
-686.324	-200.000	-0.057	-0.293
-685.310	400.586	0.117	-0.248
-684.295	276.987	0.117	0.210
-683.281	165.009	0.066	-0.095
-682.266	-95.185	-0.317	0.086
-681.251	180.683	-0.099	0.147
-680.237	-113.760	-0.179	0.035
-679.222	99.120	-0.194	0.226
-678.208	-97.024	-0.158	0.042
-677.193	-200.000	-0.020	-0.126
-676.178	-20.752	-0.193	0.119
-675.164	183.740	0.038	0.056
-674.149	-46.515	0.362	0.179
-673.135	-79.772	0.103	-0.035
-672.120	800.000	-0.090	-0.350
-671.105	-200.000	-0.004	-0.248
-670.091	-200.000	-0.046	0.236
-669.076	131.572	-0.057	-0.074
-668.062	98.063	-0.163	-0.190
-667.047	-114.388	-0.402	-0.078
-666.032	-144.564	0.143	0.013
-665.018	15.623	-0.188	-0.149
-664.003	-107.659	-0.323	0.071
-662.989	-43.237	0.202	0.103
-661.974	800.000	0.028	-0.100
-660.959	-110.128	0.169	-0.036
-659.945	279.135	-0.116	-0.209
-658.930	9.336	0.159	0.121
-657.916	-41.637	0.290	0.150
-656.901	7.153	-0.185	-0.139
-655.886	800.000	0.064	-0.186
-654.872	-67.001	-0.346	-0.138
-653.857	11.987	0.149	0.116
-652.843	-51.823	-0.116	0.054
-651.828	-142.099	-0.157	-0.016
-650.814	-59.850	0.281	0.121
-649.799	-82.468	0.250	-0.082
-648.784	215.377	-0.097	0.155
-647.770	-119.790	0.320	0.056
-646.755	800.000	-0.063	-0.273
-645.741	272.990	-0.031	-0.056
-644.726	61.674	-0.137	0.138
-643.711	-97.830	-0.182	-0.047
-642.697	-200.000	0.025	0.176
-641.682	-146.004	0.090	-0.008
-640.668	40.067	-0.115	-0.104
-639.653	-55.835	-0.325	-0.146
-638.638	800.000	-0.056	-0.158
-637.624	-156.002	0.407	-0.026
-636.609	800.000	0.091	0.365
-635.595	593.958	-0.103	-0.256
-634.580	85.421	-0.144	-0.159
-633.565	-93.530	0.046	-0.013
-632.551	-39.828	-0.107	0.056
-631.536	-24.294	0.287	-0.172
-630.522	-200.000	-0.032	-0.257
-629.507	-174.886	-0.185	-0.005
-628.492	345.948	0.062	-0.123
-627.478	800.000	0.040	-0.151
-626.463	180.674	-0.030	0.044
-625.449	800.000	0.077	-0.276
-624.434	394.532	-0.115	-0.242
-623.419	116.401	-0.233	-0.288
-622.405	1.469	-0.198	-0.143
-621.390	12.693	0.356	0.277
-620.376	152.258	-0.108	-0.149
-619.361	254.641	0.080	0.138
-618.346	17.840	0.068	0.054
-617.332	-97.809	-0.084	-0.022
-616.317	-54.523	-0.391	0.178
-615.303	800.000	0.012	0.034
-614.288	-47.389	-0.288	-0.141
-613.273	-82.215	0.289	-0.095
-612.259	-200.000	-0.047	0.336
-611.244	190.593	-0.153	-0.232
-610.230	-58.114	-0.139	0.061
-609.215	800.000	-0.104	-0.326
-608.201	-200.000	0.065	0.399
-607.186	-200.000	-0.030	-0.152
-606.171	-136.514	0.135	-0.016
-605.157	-6.050	-0.175	0.121
-604.142	19.573	0.040	0.032
-603.128	-200.000	0.002	0.012
-602.113	-139.453	-0.038	-0.004
-601.098	713.672	0.103	0.276
-600.084	-40.806	-0.081	-0.042
-599.069	-28.878	-0.146	-0.084
-598.055	-200.000	-0.018	-0.172
-597.040	277.601	0.106	-0.190
-596.025	362.864	-0.102	0.206
-595.011	-139.640	-0.173	-0.019
-593.996	362.385	-0.029	0.058
-592.982	800.000	0.102	-0.303
-591.967	0.464	-0.146	0.105
-590.952	-200.000	0.006	-0.142
-589.938	305.932	-0.044	-0.082
-588.923	-98.206	-0.225	0.058
-587.909	187.957	-0.206	-0.309
-586.894	627.258	-0.032	-0.081
-585.879	136.191	0.080	0.105
-584.865	-87.159	-0.302	0.092
-583.850	146.793	0.147	0.199
-582.836	-35.911	0.264	0.144
-581.821	-70.637	-0.096	0.037
-580.806	177.571	-0.141	-0.207
-579.792	-29.208	0.212	-0.122
-578.777	4.773	0.164	-0.121
-577.763	-8.788	0.093	0.063
-576.748	540.525	0.120	0.288
-575.733	-24.187	0.296	0.178
-574.719	-200.000	-0.028	-0.151
-573.704	-200.000	-0.012	-0.195
-572.690	-200.000	-0.036	-0.208
-571.675	52.621	0.154	-0.148
-570.661	373.335	-0.194	0.396
-569.646	213.771	0.078	0.125
-568.631	-137.884	-0.180	-0.020
-567.617	458.703	-0.043	0.097
-566.602	-121.990	-0.135	0.022
-565.588	800.000	-0.052	0.166
-564.573	-200.000	-0.025	0.182
-563.558	281.431	0.118	-0.213
-562.544	74.020	0.130	-0.137
-561.529	62.341	0.066	-0.066
-560.515	-200.000	-0.047	-0.249
-559.500	-174.734	0.397	0.011
-558.485	485.269	-0.106	0.241
-557.471	250.745	0.137	0.234
-556.456	406.729	0.110	-0.233
-555.442	-200.000	0.000	-0.244
-554.427	356.943	0.125	-0.251
-553.412	-3.525	-0.115	0.080
-552.398	-139.136	-0.276	0.030
-551.383	76.675	0.135	-0.144
-550.369	92.157	-0.236	0.267
-549.354	782.734	-0.070	-0.193
-548.339	411.111	0.100	0.213
-547.325	-35.589	-0.255	0.139
-546.310	-143.782	-0.154	-0.015
-545.296	-118.211	-0.155	0.028
-544.281	136.275	-0.162	0.211
-543.266	800.000	-0.110	-0.328
-542.252	-124.541	-0.060	0.009
-541.237	-57.755	-0.206	0.091
-540.223	-106.839	-0.261	0.058
-539.208	-200.000	-0.007	-0.191
-538.193	301.032	0.106	-0.197
-537.179	-151.802	-0.175	-0.013
-536.164	112.685	-0.200	-0.242
-535.150	-139.458	-0.222	0.024
-534.135	102.832	-0.081	-0.095
-533.121	778.202	-0.094	-0.258
-532.106	261.993	0.083	0.144
-531.091	-36.270	-0.053	-0.029
-530.077	274.200	0.169	-0.301
-529.062	1.492	-0.307	-0.221
-528.048	437.572	0.103	-0.225
-527.033	430.266	-0.101	-0.220
-526.018	-200.000	-0.023	-0.214
-525.004	104.053	0.135	-0.159
-523.989	-200.000	0.009	-0.270
-522.975	800.000	-0.006	0.020
-521.960	-106.644	-0.174	0.039
-520.945	-47.626	0.137	0.067
-519.931	800.000	-0.037	-0.139
-518.916	800.000	0.018	-0.072
-517.902	-69.106	-0.042	0.016
-516.887	478.034	0.115	0.261
-515.872	-18.913	-0.154	-0.096
-514.858	800.000	0.062	0.228
-513.843	18.761	0.401	0.322
-512.829	32.748	0.218	-0.189
-511.814	-50.848	0.066	0.031
-510.799	-116.018	-0.247	-0.046
-509.785	-13.052	0.176	0.115
-508.770	221.979	-0.234	0.377
-507.756	-7.378	-0.203	0.138
-506.741	-9.953	-0.230	-0.154
-505.726	-113.920	-0.067	-0.013
-504.712	153.429	0.205	0.281
-503.697	-200.000	0.048	-0.256
-502.683	305.183	-0.084	-0.157
-501.668	-115.336	0.326	0.062
-500.653	345.879	-0.124	0.244
-499.639	199.960	-0.061	0.093
-498.624	-200.000	0.013	-0.124
-497.610	-60.043	-0.118	-0.051
-496.595	800.000	-0.057	-0.233
-495.581	-200.000	-0.023	-0.117
-494.566	23.121	-0.127	0.104
-493.551	800.000	-0.047	-0.177
-492.537	150.807	-0.090	-0.123
-491.522	38.831	-0.201	0.180
-490.508	411.666	-0.067	0.143
-489.493	-98.002	-0.134	0.035
-488.478	-88.981	-0.249	-0.074
-487.464	-52.559	-0.301	-0.139
-486.449	-108.189	0.298	0.064
-485.435	-33.089	-0.123	-0.068
-484.420	-200.000	-0.002	0.230
-483.405	-200.000	-0.006	0.102
-482.391	142.538	-0.285	0.379
-481.376	281.744	-0.214	0.384
-480.362	-61.907	0.144	-0.060
-479.347	501.497	-0.129	0.297
-478.332	-23.058	-0.102	-0.062
-477.318	224.273	0.173	0.280
-476.303	177.840	-0.077	-0.112
-475.289	24.390	0.136	0.113
-474.274	800.000	-0.051	-0.181
-473.259	158.392	-0.155	-0.215
-472.245	-200.000	-0.048	-0.249
-471.230	127.073	0.163	0.207
-470.216	800.000	-0.063	0.175
-469.201	800.000	-0.102	-0.370
-468.186	299.390	-0.057	-0.106
-467.172	-55.012	-0.441	0.199
-466.157	-23.162	0.078	0.047
-465.143	312.767	-0.078	0.147
-464.128	-130.768	0.205	-0.028
-463.113	-117.989	0.024	-0.004
-462.099	73.527	-0.207	-0.217
-461.084	-45.976	0.025	-0.013
-460.070	504.929	0.088	0.204
-459.055	-200.000	-0.001	-0.205
-458.040	-200.000	0.009	0.193
-457.026	405.938	-0.110	-0.233
-456.011	-200.000	-0.015	-0.212
-454.997	-200.000	-0.014	0.098
-453.982	-13.538	0.117	0.076
-452.968	800.000	0.130	0.446
-451.953	-66.699	0.280	-0.111
-450.938	345.077	0.125	-0.245
-449.924	270.969	0.163	0.288
-448.909	285.097	-0.070	0.125
-447.895	52.279	0.146	0.139
-446.880	-200.000	-0.018	0.158
-445.865	131.866	-0.066	-0.085
-444.851	-98.934	0.141	0.036
-443.836	-36.107	0.111	-0.060
-442.822	724.493	0.067	0.178
-441.807	170.550	-0.070	-0.101
-440.792	-200.000	0.014	0.095
-439.778	-200.000	0.069	-0.325
-438.763	39.376	0.111	0.099
-437.749	-128.557	0.203	0.029
-436.734	-82.298	0.122	-0.040
-435.719	800.000	-0.124	0.484
-434.705	-143.893	0.175	-0.017
-433.690	42.473	-0.153	0.139
-432.676	-91.524	-0.217	0.062
-431.661	-107.476	0.271	-0.059
-430.646	25.663	0.073	0.060
-429.632	-30.828	-0.228	0.129
-428.617	513.576	-0.106	0.247
-427.603	800.000	0.117	0.342
-426.588	68.985	0.250	0.257
-425.573	-9.194	0.139	0.093
-424.559	-1.033	0.211	0.149
-423.544	-130.457	0.243	-0.033
-422.530	-115.103	0.221	-0.042
-421.515	-69.938	0.165	0.063
-420.500	-153.506	-0.488	0.034
-419.486	-77.595	-0.181	-0.063
-418.471	-200.000	-0.027	-0.246
-417.457	-85.076	-0.119	-0.037
-416.442	241.443	-0.058	-0.097
-415.428	78.365	-0.171	0.182
-414.413	261.538	-0.041	0.072
-413.398	44.826	0.226	-0.208
-412.384	-200.000	-0.043	-0.194
-411.369	-99.142	0.232	0.059
-410.355	2.422	0.014	-0.010
-409.340	235.533	-0.057	0.094
-408.325	-200.000	-0.029	0.225
-407.311	709.841	0.070	-0.184
-406.296	443.348	0.028	-0.061
-405.282	308.520	-0.026	0.048
-404.267	-200.000	0.013	0.080
-403.252	-92.153	0.299	0.084
-402.238	113.327	0.193	-0.234
-401.223	-200.000	-0.034	-0.220
-400.209	94.116	-0.206	-0.234
-399.194	59.455	0.107	-0.105
-398.179	-139.473	-0.241	-0.026
-397.165	-200.000	-0.067	0.300
-396.150	-200.000	0.222	0.000
-395.136	-200.000	-0.037	0.174
-394.121	158.373	-0.058	-0.080
-393.106	4.551	0.538	-0.394
-392.092	25.794	-0.174	0.145
-391.077	20.252	0.215	-0.173
-390.063	-52.698	-0.427	0.197
-389.048	-108.351	-0.158	-0.034
-388.033	114.749	-0.096	-0.117
-387.019	-162.737	0.230	-0.011
-386.004	-34.130	0.040	0.022
-384.990	66.400	0.155	-0.157
-383.975	-198.969	-0.345	0.002
-382.960	214.450	-0.156	-0.246
-381.946	-120.764	-0.393	-0.066
-380.931	16.132	-0.101	-0.080
-379.917	167.652	-0.044	0.062
-378.902	36.968	-0.030	0.027
-377.888	258.621	-0.091	0.157
-376.873	-118.369	0.521	0.092
-375.858	118.101	0.186	0.229
-374.844	-148.479	0.085	0.007
-373.829	-25.595	0.109	-0.064
-372.815	-53.705	-0.173	0.079
-371.800	-143.516	0.121	0.012
-370.785	-85.047	-0.298	-0.093
-369.771	-200.000	-0.011	-0.122
-368.756	-188.990	-0.124	0.001
-367.742	27.890	-0.086	0.072
-366.727	-200.000	-0.012	-0.328
-365.712	6.444	0.213	-0.157
-364.698	178.133	0.096	0.139
-363.683	0.833	0.115	0.082
-362.669	40.525	-0.218	-0.196
-361.654	193.216	-0.035	0.053
-360.639	365.084	0.168	-0.337
-359.625	-76.818	0.119	0.041
-358.610	-122.287	-0.297	-0.048
-357.596	-74.732	-0.196	-0.070
-356.581	-0.661	0.050	-0.035
-355.566	-80.917	-0.382	0.126
-354.552	303.100	0.039	-0.072
-353.537	-200.000	0.017	0.198
-352.523	315.787	-0.144	-0.270
-351.508	800.000	0.066	0.209
-350.493	-200.000	-0.034	-0.313
-349.479	-69.015	0.379	0.146
-348.464	-23.953	0.339	0.202
-347.450	261.044	-0.166	-0.286
-346.435	-200.000	-0.024	-0.158
-345.420	-95.401	0.138	0.037
-344.406	800.000	0.078	-0.334
-343.391	24.103	-0.079	0.065
-342.377	155.417	-0.085	0.116
-341.362	-92.861	0.232	0.064
-340.348	-116.552	-0.143	-0.026
-339.333	155.678	-0.081	0.111
-338.318	23.244	-0.256	-0.209
-337.304	-38.410	0.548	0.289
-336.289	6.054	-0.122	0.090
-335.275	790.861	0.119	-0.325
-334.260	-200.000	0.026	0.226
-333.245	218.483	0.078	-0.123
-332.231	800.000	0.060	-0.182
-331.216	800.000	-0.042	-0.153
-330.202	-200.000	0.011	0.366
-329.187	-107.361	-0.217	0.047
-328.172	-74.003	-0.186	0.067
-327.158	5.088	0.165	0.121
-326.143	-115.722	-0.232	0.043
-325.129	-45.481	0.147	0.073
-324.114	-31.166	0.223	0.125
-323.099	-113.132	-0.260	-0.051
-322.085	210.960	0.052	-0.081
-321.070	7.224	0.362	0.269
-320.056	-145.143	-0.072	-0.007
-319.041	-174.254	0.346	-0.010
-318.026	-200.000	0.045	-0.263
-317.012	-200.000	-0.023	0.272
-315.997	76.364	-0.349	0.368
-314.983	-47.669	0.261	-0.126
-313.968	10.657	0.080	-0.061
-312.953	200.495	0.204	-0.311
-311.939	-86.040	0.249	0.077
-310.924	-119.517	0.120	0.021
-309.910	25.682	-0.194	0.161
-308.895	-3.430	0.302	0.209
-307.880	-112.059	0.259	0.052
-306.866	800.000	0.076	-0.283
-305.851	27.131	-0.135	-0.112
-304.837	-74.659	0.236	0.084
-303.822	-200.000	-0.005	-0.154
-302.807	242.482	0.273	0.455
-301.793	143.128	-0.068	0.090
-300.778	650.374	-0.107	-0.273
-299.764	-153.077	-0.409	-0.029
-298.749	-168.115	0.133	0.005
-297.735	-200.000	0.030	0.169
-296.720	-200.000	0.013	0.072
-295.705	23.247	-0.107	0.087
-294.691	-200.000	0.028	0.453
-293.676	674.615	0.162	-0.417
-292.662	7.857	0.210	0.157
-291.647	-119.298	-0.013	-0.002
-290.632	-200.000	0.023	-0.104
-289.618	27.504	0.088	-0.074
-288.603	75.462	-0.069	0.072
-287.589	-62.982	-0.164	0.067
-286.574	800.000	0.055	-0.191
-285.559	-200.000	-0.038	0.252
-284.545	-110.993	0.154	0.031
-283.530	-73.777	-0.156	-0.056
-282.516	-41.505	0.132	-0.068
-281.501	93.543	-0.082	0.092
-280.486	-200.000	0.014	0.254
-279.472	-200.000	-0.013	0.140
-278.457	-200.000	0.096	0.000
-277.443	-200.000	0.051	0.276
-276.428	371.748	0.043	0.087
-275.413	-112.033	-0.350	-0.070
-274.399	-63.335	0.171	-0.070
-273.384	168.924	0.101	-0.143
-272.370	800.000	-0.113	-0.365
-271.355	83.932	-0.128	0.139
-270.340	35.122	0.098	0.086
-269.326	-169.338	0.126	-0.005
-268.311	8.742	0.071	0.053
-267.297	30.444	0.076	-0.065
-266.282	224.465	-0.028	-0.045
-265.267	800.000	-0.048	0.132
-264.253	-200.000	-0.033	0.293
-263.238	-14.513	-0.096	0.061
-262.224	800.000	-0.017	0.066
-261.209	434.557	-0.066	0.143
-260.195	-162.544	-0.195	-0.010
-259.180	-95.610	0.135	0.036
-258.165	-81.921	-0.365	0.119
-257.151	67.095	0.107	0.109
-256.136	50.072	-0.147	-0.137
-255.122	800.000	0.078	-0.333
-254.107	334.289	0.059	-0.114
-253.092	-59.220	-0.260	-0.111
-252.078	-73.186	0.402	0.146
-251.063	22.514	-0.331	0.269
-250.049	-105.916	0.158	0.035
-249.034	110.670	0.106	0.127
-248.019	-12.962	0.091	-0.059
-247.005	-200.000	0.030	0.160
-245.990	-86.900	0.255	0.077
-244.976	-200.000	-0.000	0.374
-243.961	324.348	-0.089	0.168
-242.946	800.000	0.083	-0.296
-241.932	182.511	0.161	-0.236
-240.917	-67.655	-0.176	0.068
-239.903	800.000	-0.123	-0.367
-238.888	-105.513	-0.140	0.032
-237.873	305.684	-0.119	0.219
-236.859	125.839	0.167	0.209
-235.844	104.056	0.295	-0.344
-234.830	297.114	0.053	0.097
-233.815	-46.433	-0.348	0.170
-232.800	31.260	0.222	0.189
-231.786	-200.000	-0.033	-0.272
-230.771	411.755	0.028	0.058
-229.757	-51.759	-0.259	-0.120
-228.742	-30.036	-0.333	-0.188
-227.727	-200.000	0.023	-0.208
-226.713	-102.254	0.176	0.042
-225.698	-78.017	-0.241	0.082
-224.684	-111.055	0.420	-0.086
-223.669	124.280	-0.165	0.206
-222.655	-83.441	0.214	0.068
-221.640	81.170	-0.133	-0.143
-220.625	-200.000	-0.005	-0.192
-219.611	800.000	0.153	-0.582
-218.596	-200.000	-0.049	0.248
-217.582	24.987	-0.024	0.020
-216.567	-50.946	-0.309	-0.144
-215.552	16.521	0.118	-0.092
-214.538	24.771	0.044	-0.036
-213.523	-1.878	0.277	0.193
-212.509	59.925	-0.196	-0.192
-211.494	-71.389	-0.058	-0.021
-210.479	-200.000	0.080	0.414
-209.465	124.231	-0.104	0.130
-208.450	800.000	-0.010	-0.031
-207.436	-54.649	-0.307	-0.137
-206.421	319.193	0.054	-0.102
-205.406	-200.000	0.011	-0.337
-204.392	257.086	-0.109	-0.185
-203.377	-200.000	-0.016	-0.116
-202.363	-20.508	0.085	0.052
-201.348	65.266	-0.279	0.279
-200.333	225.329	0.132	0.211
-199.319	499.121	-0.022	0.051
-198.304	-166.006	0.123	0.005
-197.290	9.339	0.161	-0.121
-196.275	-71.951	0.177	-0.065
-195.260	475.662	0.027	0.061
-194.246	-200.000	-0.019	-0.320
-193.231	-67.552	-0.032	0.013
-192.217	-200.000	0.023	0.291
-191.202	-180.010	-0.216	0.005
-190.187	-163.169	0.308	-0.015
-189.173	12.753	-0.113	0.086
-188.158	243.549	-0.038	0.063
-187.144	-4.879	0.125	0.085
-186.129	-51.493	0.412	-0.191
-185.114	-100.503	0.184	-0.045
-184.100	-48.590	-0.080	0.038
-183.085	178.584	-0.116	-0.168
-182.071	24.404	0.233	0.190
-181.056	192.928	0.254	0.380
-180.042	-25.629	0.188	0.110
-179.027	-110.717	-0.489	0.100
-178.012	-159.901	0.257	-0.014
-176.998	-3.906	0.320	0.220
-175.983	354.875	-0.183	-0.360
-174.969	-36.860	0.387	-0.205
-173.954	225.178	0.106	-0.169
-172.939	-106.195	0.231	-0.051
-171.925	133.475	0.197	-0.252
-170.910	-77.048	0.236	-0.081
-169.896	159.869	0.200	0.276
-168.881	-119.566	-0.364	0.062
-167.866	800.000	0.013	0.044
-166.852	-153.865	-0.360	-0.024
-165.837	-83.831	0.209	-0.066
-164.823	20.517	0.348	-0.278
-163.808	704.251	-0.053	-0.139
-162.793	-200.000	0.060	0.284
-161.779	-3.121	0.203	0.140
-160.764	-25.064	-0.151	-0.089
-159.750	-153.215	0.120	0.008
-158.735	-200.000	-0.046	0.289
-157.720	54.630	0.065	0.062
-156.706	-41.393	-0.120	-0.061
-155.691	-11.123	-0.081	0.053
-154.677	36.816	-0.371	0.324
-153.662	-200.000	0.014	0.070
-152.647	5.779	0.032	-0.024
-151.633	317.941	-0.082	0.153
-150.618	-20.293	-0.262	0.159
-149.604	537.824	-0.081	-0.190
-148.589	78.712	-0.200	0.211
-147.574	18.637	0.287	0.227
-146.560	346.663	-0.068	-0.133
-145.545	56.242	-0.078	0.075
-144.531	-145.598	0.356	0.032
-143.516	42.126	-0.088	0.079
-142.502	-19.879	-0.231	0.141
-141.487	-12.674	0.158	-0.102
-140.472	-200.000	0.051	-0.290
-139.458	800.000	0.058	-0.208
-138.443	322.805	-0.175	-0.329
-137.429	-74.192	0.262	0.094
-136.414	308.078	-0.076	-0.140
-135.399	-200.000	0.040	-0.392
-134.385	-200.000	0.039	0.174
-133.370	227.188	0.071	0.114
-132.356	-4.204	-0.201	0.138
-131.341	-200.000	0.047	-0.280
-130.326	71.016	-0.148	-0.151
-129.312	800.000	-0.026	0.091
-128.297	27.349	0.184	-0.152
-127.283	-27.874	-0.324	-0.185
-126.268	-200.000	-0.008	-0.109
-125.253	77.794	-0.272	-0.287
-124.239	800.000	0.027	0.090
-123.224	-118.211	-0.302	-0.053
-122.210	800.000	-0.101	0.280
-121.195	22.967	0.095	-0.077
