DTS Sentinel unit serial number:	SN413079Multiplexer serial number:	ORYXHardware model number:	OX4-SRSoftware version number:	ORYX F/W v4.00 Oryx Data Collector v3.7.2.0data status	okinstallation	princeton_trtdifferential loss correction	single-endedforward channel	channel 4reverse channel	N/Adate	2019/09/16time	07:37:34forward acquisition time	60.00reverse acquisition time	0.00gamma	496.2192k internal	0.2319k external	0.2319temperature offset calibration	0.9980default loss term (dB/km)	0.3790temperature slope calibration	1.0000multiplexer offset coefficient	1.0000multiplexer slope coefficient	1.0000fibre end	0.00T internal ref (°C)	27.80T ext. ref 1 (°C)	11.66T ext. ref 2 (°C)	24.45length (m)	temperature (°C)	Stokes	anti-Stokes-747.200	44.337	0.167	0.156
-746.185	4.561	-0.089	0.066
-745.171	105.232	0.137	-0.163
-744.156	-200.000	0.015	0.314
-743.142	162.807	-0.182	-0.258
-742.127	-200.000	-0.025	0.165
-741.112	800.000	0.084	0.250
-740.098	524.972	-0.200	0.476
-739.083	16.656	0.178	0.142
-738.069	27.146	-0.235	0.200
-737.054	-200.000	-0.012	-0.063
-736.039	365.937	-0.126	-0.258
-735.025	-200.000	-0.043	-0.251
-734.010	-200.000	-0.001	-0.213
-732.996	102.090	0.049	0.058
-731.981	656.290	-0.118	0.307
-730.966	-95.270	-0.189	-0.051
-729.952	-125.847	-0.037	-0.006
-728.937	-39.214	0.097	0.052
-727.923	-200.000	0.005	-0.125
-726.908	-85.067	0.244	-0.077
-725.894	-78.225	-0.148	-0.052
-724.879	-152.092	0.077	0.006
-723.864	103.261	-0.172	-0.204
-722.850	201.273	-0.127	-0.198
-721.835	800.000	-0.071	-0.256
-720.821	114.994	0.211	0.261
-719.806	43.486	-0.081	-0.075
-718.791	-36.084	0.119	-0.065
-717.777	-105.372	-0.282	0.065
-716.762	279.695	-0.037	0.067
-715.748	-187.822	0.235	-0.003
-714.733	151.063	0.163	0.224
-713.718	17.390	0.252	0.202
-712.704	63.786	-0.074	0.075
-711.689	258.593	-0.183	0.318
-710.675	-200.000	-0.028	-0.138
-709.660	-49.905	0.083	-0.040
-708.645	23.051	-0.198	-0.164
-707.631	-66.792	0.094	0.038
-706.616	-93.469	-0.189	0.053
-705.602	126.862	0.076	0.097
-704.587	441.437	-0.131	-0.291
-703.572	-200.000	-0.028	-0.161
-702.558	450.320	-0.068	0.152
-701.543	-28.604	0.123	0.071
-700.529	800.000	0.030	-0.088
-699.514	-200.000	0.046	0.299
-698.499	134.594	0.104	0.136
-697.485	-200.000	0.000	0.483
-696.470	104.296	-0.316	0.376
-695.456	800.000	-0.020	-0.073
-694.441	27.015	-0.225	0.191
-693.426	67.834	-0.030	-0.031
-692.412	-4.221	-0.214	0.150
-691.397	-200.000	-0.021	-0.232
-690.383	427.156	0.091	-0.199
-689.368	-45.985	0.383	-0.191
-688.354	-3.067	0.166	-0.117
-687.339	-95.831	0.204	-0.055
-686.324	564.005	0.157	0.384
-685.310	-200.000	0.025	-0.216
-684.295	-200.000	0.045	-0.248
-683.281	212.803	-0.070	0.112
-682.266	-139.667	-0.294	0.032
-681.251	-169.724	-0.074	0.003
-680.237	286.724	-0.067	-0.123
-679.222	46.040	0.358	0.334
-678.208	-200.000	0.009	0.204
-677.193	3.577	-0.165	0.122
-676.178	133.434	0.073	0.095
-675.164	170.045	0.135	0.195
-674.149	226.974	-0.107	-0.176
-673.135	308.818	0.081	-0.154
-672.120	159.456	-0.173	0.243
-671.105	-200.000	0.001	-0.229
-670.091	-57.142	0.043	-0.019
-669.076	-179.268	-0.119	-0.003
-668.062	673.119	-0.170	-0.446
-667.047	474.484	-0.032	-0.072
-666.032	-200.000	-0.008	-0.064
-665.018	743.672	-0.009	-0.025
-664.003	346.459	0.076	-0.151
-662.989	702.909	-0.015	0.039
-661.974	800.000	-0.023	0.066
-660.959	-75.764	-0.235	0.084
-659.945	123.152	-0.156	-0.197
-658.930	-18.175	-0.265	-0.168
-657.916	800.000	0.076	-0.229
-656.901	-42.020	0.279	-0.144
-655.886	-140.873	0.095	0.010
-654.872	-72.584	-0.080	0.030
-653.857	-124.725	-0.179	-0.028
-652.843	800.000	0.172	-0.535
-651.828	491.492	0.060	-0.137
-650.814	-200.000	-0.058	0.393
-649.799	-28.793	-0.194	-0.113
-648.784	-77.651	0.171	-0.060
-647.770	-70.408	-0.171	-0.065
-646.755	-200.000	-0.026	-0.173
-645.741	800.000	-0.064	0.199
-644.726	159.996	-0.224	0.315
-643.711	-200.000	-0.014	0.116
-642.697	-200.000	-0.013	-0.091
-641.682	800.000	-0.061	0.184
-640.668	-200.000	-0.064	0.310
-639.653	-200.000	0.041	0.182
-638.638	-200.000	-0.068	-0.523
-637.624	53.382	-0.217	-0.209
-636.609	294.428	-0.137	-0.252
-635.595	800.000	0.028	-0.086
-634.580	-62.977	0.163	-0.068
-633.565	-8.490	-0.070	0.047
-632.551	558.073	-0.075	0.181
-631.536	149.785	0.019	-0.026
-630.522	-84.139	0.299	-0.096
-629.507	-200.000	0.004	-0.230
-628.492	25.678	0.129	-0.109
-627.478	-178.729	0.137	0.003
-626.463	262.729	0.229	0.401
-625.449	-17.547	0.105	-0.066
-624.434	-7.106	0.158	-0.108
-623.419	343.425	-0.068	-0.135
-622.405	-200.000	-0.006	-0.182
-621.390	-167.526	0.346	-0.014
-620.376	63.737	-0.123	-0.125
-619.361	-84.256	-0.245	-0.078
-618.346	52.320	0.093	-0.089
-617.332	-83.873	0.108	0.035
-616.317	425.605	-0.023	-0.050
-615.303	800.000	-0.020	-0.063
-614.288	459.958	0.050	-0.112
-613.273	-200.000	-0.042	-0.224
-612.259	-109.381	-0.328	0.070
-611.244	33.244	-0.177	0.155
-610.230	274.861	-0.133	-0.236
-609.215	239.567	0.141	-0.236
-608.201	50.639	0.180	-0.172
-607.186	149.817	0.175	-0.238
-606.171	-200.000	-0.007	-0.122
-605.157	-27.720	0.091	-0.053
-604.142	-116.112	-0.154	-0.029
-603.128	-200.000	-0.024	-0.295
-602.113	116.853	0.080	-0.098
-601.098	800.000	0.035	-0.134
-600.084	27.518	-0.091	0.077
-599.069	-154.388	0.419	-0.028
-598.055	452.483	-0.079	-0.175
-597.040	17.558	-0.360	-0.288
-596.025	800.000	0.121	-0.411
-595.011	24.117	-0.118	-0.098
-593.996	-200.000	-0.023	0.231
-592.982	423.016	-0.210	-0.453
-591.967	119.011	0.067	0.083
-590.952	340.843	0.120	-0.236
-589.938	-200.000	-0.016	-0.115
-588.923	-131.683	0.117	0.015
-587.909	-78.449	-0.262	-0.090
-586.894	422.243	-0.039	-0.084
-585.879	281.998	-0.125	0.225
-584.865	-200.000	-0.004	-0.274
-583.850	420.424	-0.060	0.129
-582.836	71.325	-0.150	0.156
-581.821	-200.000	-0.013	-0.159
-580.806	-37.816	0.162	-0.087
-579.792	243.792	0.145	0.244
-578.777	-200.000	0.017	0.142
-577.763	-77.425	-0.132	0.046
-576.748	-163.100	-0.224	0.011
-575.733	-113.462	-0.144	-0.028
-574.719	-200.000	0.002	0.131
-573.704	514.465	0.033	-0.078
-572.690	-111.068	-0.219	0.045
-571.675	-200.000	0.037	0.199
-570.661	94.434	0.280	-0.319
-569.646	60.421	-0.149	0.148
-568.631	29.268	-0.125	-0.107
-567.617	-6.418	0.403	0.276
-566.602	-200.000	-0.038	-0.267
-565.588	88.309	-0.068	0.075
-564.573	-200.000	-0.054	-0.259
-563.558	800.000	0.045	-0.137
-562.544	18.188	0.056	-0.045
-561.529	-41.877	0.274	0.141
-560.515	-151.190	-0.281	-0.021
-559.500	-200.000	0.055	-0.400
-558.485	92.826	-0.048	-0.054
-557.471	-200.000	0.015	0.325
-556.456	33.914	0.301	-0.263
-555.442	800.000	-0.150	0.439
-554.427	-200.000	0.046	0.000
-553.412	800.000	0.107	-0.443
-552.398	-200.000	-0.001	0.009
-551.383	569.809	-0.095	-0.233
-550.369	197.730	0.149	-0.229
-549.354	-93.779	0.130	0.036
-548.339	222.907	0.145	-0.235
-547.325	-2.203	-0.114	-0.080
-546.310	-153.482	0.373	0.026
-545.296	11.466	-0.100	-0.077
-544.281	-75.356	-0.130	-0.047
-543.266	800.000	0.079	-0.279
-542.252	-200.000	-0.013	-0.169
-541.237	-5.971	0.028	-0.019
-540.223	128.817	0.085	-0.109
-539.208	-200.000	-0.050	0.263
-538.193	-10.943	-0.276	-0.183
-537.179	98.436	0.184	-0.212
-536.164	533.151	0.069	0.165
-535.150	-200.000	0.004	0.072
-534.135	-39.077	-0.168	-0.088
-533.121	89.007	-0.248	0.277
-532.106	-110.216	0.318	-0.067
-531.091	800.000	0.097	0.278
-530.077	-200.000	0.055	0.446
-529.062	182.455	-0.122	0.180
-528.048	-136.884	0.143	0.016
-527.033	800.000	-0.106	0.304
-526.018	617.270	-0.016	0.039
-525.004	-117.463	-0.214	0.039
-523.989	107.201	-0.125	0.149
-522.975	-200.000	0.001	-0.066
-521.960	649.403	0.097	-0.249
-520.945	-70.605	0.027	-0.010
-519.931	-122.474	0.198	0.032
-518.916	-151.116	0.122	-0.009
-517.902	-65.828	-0.238	0.096
-516.887	674.118	-0.095	-0.247
-515.872	800.000	0.035	-0.125
-514.858	33.803	0.069	-0.061
-513.843	-61.308	0.335	0.142
-512.829	81.996	0.083	0.090
-511.814	800.000	0.033	-0.103
-510.799	-157.853	0.315	0.019
-509.785	-172.527	-0.088	-0.003
-508.770	-200.000	-0.050	-0.222
-507.756	54.323	-0.087	0.084
-506.741	1.869	0.110	-0.080
-505.726	-108.705	0.397	-0.085
-504.712	-160.677	-0.103	0.006
-503.697	619.434	0.040	-0.101
-502.683	-48.294	0.213	-0.103
-501.668	65.067	-0.179	-0.181
-500.653	-110.725	-0.395	0.082
-499.639	186.046	-0.216	0.322
-498.624	-157.563	0.257	-0.015
-497.610	428.766	0.138	-0.299
-496.595	28.047	-0.192	-0.162
-495.581	308.041	-0.102	0.191
-494.566	-102.675	0.437	-0.104
-493.551	384.610	0.040	0.082
-492.537	-11.418	0.262	0.173
-491.522	-200.000	0.004	0.325
-490.508	43.032	-0.093	0.085
-489.493	800.000	-0.045	-0.138
-488.478	-78.410	-0.139	-0.048
-487.464	-200.000	0.002	-0.172
-486.449	-200.000	-0.011	-0.104
-485.435	68.478	-0.064	0.066
-484.420	-0.922	-0.193	-0.137
-483.405	52.361	0.027	0.026
-482.391	-163.148	-0.289	-0.014
-481.376	11.593	0.038	-0.029
-480.362	732.993	0.100	0.268
-479.347	101.689	-0.089	0.104
-478.332	144.267	0.092	0.123
-477.318	-148.248	-0.219	-0.018
-476.303	633.733	0.113	-0.287
-475.289	-150.053	-0.315	0.024
-474.274	236.457	0.103	-0.171
-473.259	-24.716	-0.351	0.209
-472.245	-72.414	-0.185	-0.068
-471.230	800.000	-0.038	-0.130
-470.216	-15.832	-0.122	0.078
-469.201	-138.198	0.292	-0.032
-468.186	-22.351	-0.186	-0.113
-467.172	-200.000	-0.030	0.284
-466.157	50.755	-0.291	-0.275
-465.143	196.322	-0.244	0.372
-464.128	513.296	-0.120	0.281
-463.113	192.283	0.136	0.205
-462.099	-200.000	-0.016	0.165
-461.084	198.519	-0.161	-0.247
-460.070	61.496	-0.070	0.070
-459.055	125.307	0.098	0.124
-458.040	-131.621	-0.351	-0.046
-457.026	-115.035	0.205	-0.039
-456.011	468.123	0.089	-0.201
-454.997	135.756	-0.243	0.317
-453.982	-74.993	0.201	0.072
-452.968	-97.482	0.176	0.046
-451.953	82.052	-0.107	0.116
-450.938	800.000	-0.127	-0.420
-449.924	20.782	-0.138	0.111
-448.909	-16.969	0.232	0.147
-447.895	-120.960	-0.055	0.009
-446.880	129.115	0.238	0.303
-445.865	392.944	-0.145	0.301
-444.851	545.382	0.153	0.365
-443.836	-84.011	0.144	-0.046
-442.822	-153.773	-0.090	-0.006
-441.807	-171.421	-0.102	-0.003
-440.792	73.149	0.192	0.201
-439.778	-37.746	0.196	-0.104
-438.763	-123.146	0.259	0.042
-437.749	139.630	0.057	0.075
-436.734	800.000	0.028	0.116
-435.719	63.333	0.152	0.153
-434.705	-51.628	-0.220	-0.103
-433.690	-200.000	0.000	-0.157
-432.676	-200.000	0.008	0.056
-431.661	-200.000	0.010	-0.334
-430.646	61.390	-0.101	0.100
-429.632	-87.400	0.115	-0.035
-428.617	47.953	0.168	0.157
-427.603	221.492	0.089	0.143
-426.588	-200.000	-0.059	-0.261
-425.573	-180.289	0.290	-0.006
-424.559	31.856	-0.254	0.219
-423.544	-200.000	0.063	0.317
-422.530	-78.533	-0.297	-0.102
-421.515	90.764	0.086	0.096
-420.500	-110.743	-0.075	0.015
-419.486	66.791	0.179	0.183
-418.471	-37.448	-0.140	0.075
-417.457	-200.000	-0.014	0.276
-416.442	-200.000	0.005	-0.329
-415.428	78.696	-0.076	0.081
-414.413	97.532	0.103	-0.118
-413.398	-200.000	0.017	-0.145
-412.384	42.064	-0.160	-0.145
-411.369	-200.000	-0.031	0.177
-410.355	-200.000	0.028	0.310
-409.340	800.000	0.028	0.098
-408.325	-136.347	-0.249	-0.029
-407.311	4.025	-0.071	-0.052
-406.296	-181.181	0.338	0.007
-405.282	-200.000	-0.051	0.287
-404.267	-58.943	0.304	-0.131
-403.252	27.761	-0.135	-0.113
-402.238	800.000	-0.099	0.286
-401.223	-200.000	0.018	-0.128
-400.209	-79.314	-0.074	0.025
-399.194	-4.868	0.046	0.032
-398.179	95.275	0.109	0.124
-397.165	-39.681	0.203	0.106
-396.150	-16.564	-0.185	-0.117
-395.136	-43.447	-0.226	0.114
-394.121	-200.000	0.054	-0.391
-393.106	-10.745	0.220	0.145
-392.092	20.435	0.236	0.191
-391.077	-49.812	0.048	-0.023
-390.063	-1.118	0.167	-0.118
-389.048	-152.035	0.263	-0.019
-388.033	-5.049	0.217	0.149
-387.019	-200.000	-0.067	-0.320
-386.004	-96.265	-0.040	-0.010
-384.990	538.947	0.156	-0.371
-383.975	-200.000	-0.018	-0.245
-382.960	-164.534	0.321	0.015
-381.946	119.671	0.124	-0.153
-380.931	-193.244	-0.474	0.004
-379.917	-6.066	-0.110	0.075
-378.902	-99.237	0.350	0.088
-377.888	167.577	-0.172	-0.244
-376.873	178.885	0.187	0.272
-375.858	-117.552	-0.131	-0.024
-374.844	262.337	0.162	-0.280
-373.829	-67.651	0.168	-0.066
-372.815	-200.000	-0.030	0.190
-371.800	800.000	-0.077	-0.225
-370.785	542.549	0.182	-0.432
-369.771	116.303	0.128	0.157
-368.756	-20.513	-0.100	0.062
-367.742	-145.577	0.118	0.011
-366.727	44.081	0.055	-0.050
-365.712	-132.486	0.334	-0.043
-364.698	-66.274	-0.095	-0.038
-363.683	106.848	-0.139	-0.165
-362.669	-200.000	0.026	0.149
-361.654	-200.000	-0.004	0.090
-360.639	575.435	0.038	-0.094
-359.625	-113.750	-0.262	0.051
-358.610	507.765	-0.077	0.178
-357.596	-149.223	-0.203	0.016
-356.581	351.801	0.053	-0.105
-355.566	44.253	-0.103	0.094
-354.552	-200.000	-0.019	-0.120
-353.537	-92.298	0.193	0.054
-352.523	-72.795	0.061	0.023
-351.508	414.088	0.120	-0.255
-350.493	260.477	-0.179	-0.308
-349.479	-200.000	-0.002	-0.327
-348.464	-18.452	-0.208	0.129
-347.450	800.000	0.130	0.376
-346.435	145.405	0.107	-0.142
-345.420	-200.000	0.003	-0.216
-344.406	153.846	0.253	0.345
-343.391	34.742	0.124	0.108
-342.377	-200.000	0.050	-0.242
-341.362	-180.649	0.132	0.003
-340.348	-200.000	-0.013	0.060
-339.333	387.848	0.083	0.170
-338.318	-127.617	-0.261	-0.038
-337.304	25.060	-0.263	0.218
-336.289	800.000	0.072	-0.216
-335.275	332.411	0.110	-0.211
-334.260	-73.422	-0.191	-0.069
-333.245	25.586	-0.218	-0.181
-332.231	800.000	-0.102	-0.308
-331.216	800.000	0.123	0.456
-330.202	-29.918	0.120	-0.068
-329.187	-200.000	-0.048	0.373
-328.172	-46.979	0.128	-0.062
-327.158	-101.689	-0.378	0.091
-326.143	-112.004	0.092	-0.018
-325.129	-5.842	0.123	0.084
-324.114	-111.271	0.191	-0.039
-323.099	46.517	-0.085	-0.078
-322.085	-147.452	0.189	0.016
-321.070	-41.182	0.209	-0.107
-320.056	-72.833	-0.128	-0.047
-319.041	451.731	-0.231	0.508
-318.026	-179.444	-0.203	-0.004
-317.012	214.714	-0.175	0.275
-315.997	-104.661	-0.372	0.085
-314.983	642.624	-0.090	-0.229
-313.968	800.000	0.074	-0.234
-312.953	-48.034	0.089	-0.043
-311.939	-17.908	0.146	-0.091
-310.924	800.000	-0.074	0.258
-309.910	-33.413	-0.072	-0.039
-308.895	-200.000	-0.052	0.234
-307.880	800.000	0.109	0.310
-306.866	14.586	0.168	-0.130
-305.851	-104.050	-0.054	0.013
-304.837	-147.549	0.013	0.001
-303.822	-177.646	-0.203	0.005
-302.807	-109.210	-0.293	0.062
-301.793	536.661	-0.123	-0.291
-300.778	158.389	-0.176	-0.244
-299.764	126.967	0.032	0.040
-298.749	-200.000	-0.021	-0.276
-297.735	-125.011	-0.028	0.004
-296.720	104.826	0.123	-0.145
-295.705	-200.000	0.020	-0.091
-294.691	477.890	-0.008	0.018
-293.676	800.000	0.156	-0.461
-292.662	800.000	-0.040	-0.121
-291.647	-83.991	-0.166	0.052
-290.632	37.849	0.101	0.089
-289.618	-200.000	-0.023	0.214
-288.603	-160.152	0.359	-0.019
-287.589	-118.218	-0.330	0.058
-286.574	12.511	-0.072	-0.055
-285.559	635.263	0.080	-0.202
-284.545	-72.677	0.117	0.043
-283.530	-54.290	-0.302	-0.136
-282.516	-200.000	-0.031	-0.322
-281.501	-200.000	0.013	0.302
-280.486	-200.000	-0.001	0.397
-279.472	70.988	0.041	-0.043
-278.457	-70.492	-0.081	-0.031
-277.443	-20.338	-0.138	-0.084
-276.428	-200.000	0.038	0.274
-275.413	-98.675	-0.170	0.043
-274.399	105.119	-0.121	-0.141
-273.384	-51.235	-0.255	-0.118
-272.370	37.739	0.117	-0.103
-271.355	28.886	0.104	0.087
-270.340	-200.000	-0.104	0.519
-269.326	46.209	0.122	-0.112
-268.311	-57.472	0.389	-0.170
-267.297	-81.754	0.121	-0.039
-266.282	-200.000	0.033	0.241
-265.267	-30.067	-0.096	-0.054
-264.253	-25.720	-0.168	0.098
-263.238	-28.722	0.213	0.121
-262.224	-147.959	-0.220	-0.018
-261.209	-141.811	-0.149	0.015
-260.195	27.080	0.095	0.079
-259.180	-107.115	0.397	-0.087
-258.165	151.879	0.066	0.090
-257.151	-98.770	0.218	-0.055
-256.136	800.000	-0.127	0.414
-255.122	800.000	0.067	-0.220
-254.107	254.107	0.085	-0.144
-253.092	-3.967	-0.172	0.119
-252.078	-154.578	0.132	-0.009
-251.063	-59.207	-0.286	-0.122
-250.049	536.403	0.050	0.117
-249.034	-128.320	0.169	0.024
-248.019	429.149	-0.217	0.465
-247.005	43.223	0.196	0.178
-245.990	-200.000	0.028	-0.275
-244.976	-56.055	0.105	-0.046
-243.961	325.876	-0.102	-0.193
-242.946	-87.046	-0.260	0.079
-241.932	629.690	0.092	-0.232
-240.917	-35.663	-0.347	0.187
-239.903	-102.122	0.184	-0.044
-238.888	-98.939	0.197	0.050
-237.873	-200.000	0.063	0.317
-236.859	-73.766	-0.396	0.143
-235.844	-200.000	-0.010	0.045
-234.830	-200.000	-0.020	0.381
-233.815	621.177	0.103	-0.258
-232.800	-200.000	-0.021	-0.403
-231.786	800.000	-0.106	0.361
-230.771	409.121	0.074	-0.155
-229.757	12.320	0.036	-0.028
-228.742	-112.725	0.194	0.038
-227.727	104.598	-0.099	-0.116
-226.713	-161.700	0.258	0.013
-225.698	-200.000	0.001	0.050
-224.684	9.869	-0.204	0.153
-223.669	-38.698	0.249	0.130
-222.655	-109.921	0.076	0.016
-221.640	-200.000	-0.041	-0.209
-220.625	246.684	0.112	-0.187
-219.611	-89.196	-0.053	-0.015
-218.596	-200.000	-0.071	0.387
-217.582	-200.000	0.026	0.159
-216.567	553.555	0.185	0.442
-215.552	800.000	-0.055	-0.193
-214.538	69.882	-0.213	0.217
-213.523	-200.000	-0.002	0.119
-212.509	7.908	-0.271	0.201
-211.494	413.329	-0.142	0.300
-210.479	-128.645	0.121	0.017
-209.465	-131.898	0.095	-0.012
-208.450	180.927	-0.173	0.252
-207.436	-200.000	0.047	0.205
-206.421	-36.602	-0.228	0.121
-205.406	14.382	0.124	-0.096
-204.392	236.376	0.109	0.179
-203.377	-200.000	0.029	0.167
-202.363	134.082	0.067	-0.086
-201.348	-69.838	0.199	-0.075
-200.333	36.545	-0.266	0.232
-199.319	-89.884	0.215	0.062
-198.304	-102.193	0.098	0.023
-197.290	-156.213	-0.121	-0.008
-196.275	-10.039	0.245	0.161
-195.260	27.589	0.275	0.229
-194.246	-200.000	-0.009	-0.380
-193.231	-97.250	0.051	0.013
-192.217	-55.131	-0.129	-0.057
-191.202	559.152	-0.250	0.599
-190.187	-200.000	0.006	0.080
-189.173	-200.000	-0.034	-0.323
-188.158	-200.000	-0.023	0.225
-187.144	182.104	-0.216	-0.316
-186.129	-159.988	0.652	-0.035
-185.114	-1.584	-0.237	0.165
-184.100	-107.605	0.219	-0.047
-183.085	-153.924	-0.252	-0.017
-182.071	-39.462	-0.153	0.079
-181.056	509.660	-0.125	-0.289
-180.042	-151.938	-0.205	-0.015
-179.027	-103.317	-0.290	0.068
-178.012	-64.349	-0.084	-0.034
-176.998	17.541	0.128	-0.101
-175.983	-17.410	0.170	0.106
-174.969	195.904	-0.068	-0.102
-173.954	8.381	-0.289	0.215
-172.939	-35.543	-0.358	0.192
-171.925	-200.000	0.013	0.294
-170.910	316.667	0.096	0.179
-169.896	800.000	0.140	-0.391
-168.881	-28.431	0.222	-0.126
-167.866	520.519	-0.072	-0.166
-166.852	157.749	-0.098	0.135
-165.837	605.451	0.118	-0.291
-164.823	-200.000	-0.009	0.220
-163.808	132.641	0.215	0.275
-162.793	36.772	0.113	-0.098
-161.779	188.527	0.072	-0.107
-160.764	-200.000	-0.002	-0.076
-159.750	-62.625	0.064	-0.026
-158.735	-124.208	0.320	-0.049
-157.720	757.269	-0.108	0.290
-156.706	-200.000	0.011	0.148
-155.691	403.991	-0.044	0.092
-154.677	12.585	-0.164	-0.125
-153.662	-200.000	0.042	-0.320
-152.647	30.556	0.070	-0.059
-151.633	-92.026	-0.355	0.099
-150.618	-46.173	0.199	0.097
-149.604	-118.686	0.282	0.049
-148.589	340.273	0.118	0.228
-147.574	463.476	-0.110	-0.242
-146.560	146.755	-0.205	-0.272
-145.545	-105.640	0.165	-0.037
-144.531	205.045	-0.143	0.219
-143.516	389.234	-0.152	0.310
-142.502	-3.870	0.399	0.274
-141.487	-94.808	0.088	-0.024
-140.472	-81.158	-0.310	-0.101
-139.458	101.669	-0.013	0.015
-138.443	61.741	0.121	0.119
-137.429	54.143	0.077	0.073
-136.414	479.709	0.028	-0.064
-135.399	57.121	0.161	0.155
-134.385	-30.062	-0.054	0.030
-133.370	114.598	0.189	0.228
-132.356	800.000	0.072	0.302
-131.341	6.706	-0.129	-0.095
-130.326	-200.000	-0.004	0.170
-129.312	800.000	-0.034	-0.137
-128.297	-122.309	-0.248	-0.040
-127.283	-200.000	-0.054	0.257
-126.268	-124.281	0.270	-0.042
-125.253	143.388	0.263	-0.346
-124.239	-97.896	-0.382	0.097
-123.224	-38.270	0.165	0.086
-122.210	800.000	0.077	-0.216
