DTS Sentinel unit serial number:	SN413079Multiplexer serial number:	ORYXHardware model number:	OX4-SRSoftware version number:	ORYX F/W v4.00 Oryx Data Collector v3.7.2.0data status	okinstallation	princeton_trtdifferential loss correction	single-endedforward channel	channel 4reverse channel	N/Adate	2019/09/12time	12:11:11forward acquisition time	60.00reverse acquisition time	0.00gamma	496.2192k internal	0.2288k external	0.2288temperature offset calibration	1.0077default loss term (dB/km)	0.3790temperature slope calibration	1.0000multiplexer offset coefficient	1.0000multiplexer slope coefficient	1.0000fibre end	0.00T internal ref (°C)	40.59T ext. ref 1 (°C)	2.03T ext. ref 2 (°C)	35.96length (m)	temperature (°C)	Stokes	anti-Stokes-747.200	-7.540	0.196	0.136
-746.185	-200.000	0.045	0.508
-745.171	-70.866	-0.133	0.051
-744.156	404.891	0.098	0.213
-743.142	244.798	-0.104	-0.180
-742.127	-88.734	0.152	-0.046
-741.112	-200.000	-0.039	0.249
-740.098	-200.000	-0.052	0.368
-739.083	800.000	-0.038	-0.166
-738.069	-161.521	-0.091	-0.005
-737.054	-88.612	0.046	-0.014
-736.039	-173.574	-0.172	0.005
-735.025	-91.025	0.304	0.090
-734.010	800.000	-0.080	0.250
-732.996	-200.000	-0.007	0.125
-731.981	-74.121	0.185	0.069
-730.966	-45.541	-0.432	-0.219
-729.952	-46.314	-0.347	0.175
-728.937	182.137	-0.115	-0.174
-727.923	-55.849	0.242	-0.111
-726.908	800.000	0.020	-0.078
-725.894	-200.000	0.055	0.391
-724.879	2.572	-0.139	0.103
-723.864	19.000	0.279	-0.229
-722.850	-200.000	-0.029	-0.151
-721.835	79.185	0.181	-0.198
-720.821	800.000	0.150	-0.478
-719.806	345.698	-0.037	0.075
-718.791	-88.528	0.020	-0.006
-717.777	-200.000	0.027	0.225
-716.762	-140.615	-0.249	-0.026
-715.748	0.348	0.082	-0.060
-714.733	487.898	-0.172	-0.403
-713.718	-41.585	0.152	-0.080
-712.704	16.168	0.112	-0.091
-711.689	-200.000	0.057	-0.281
-710.675	21.816	-0.050	-0.041
-709.660	-200.000	0.015	-0.248
-708.645	-200.000	-0.037	-0.371
-707.631	-200.000	-0.056	-0.417
-706.616	285.950	0.040	0.075
-705.602	121.389	-0.151	0.192
-704.587	-170.240	-0.514	-0.019
-703.572	-108.778	0.185	-0.041
-702.558	323.947	0.067	-0.132
-701.543	47.430	0.254	0.242
-700.529	-76.340	-0.113	0.041
-699.514	10.653	-0.149	0.116
-698.499	-200.000	-0.054	-0.356
-697.485	-16.484	-0.150	-0.097
-696.470	160.872	0.044	-0.063
-695.456	219.861	0.152	-0.250
-694.441	370.336	-0.058	-0.120
-693.426	-112.278	-0.015	0.003
-692.412	492.719	0.100	0.235
-691.397	800.000	0.056	0.218
-690.383	-68.269	-0.341	0.136
-689.368	-131.703	0.044	0.006
-688.354	-109.456	0.371	0.080
-687.339	-200.000	0.004	0.181
-686.324	-59.376	-0.343	-0.151
-685.310	-200.000	0.001	0.121
-684.295	-17.328	0.157	-0.101
-683.281	217.351	0.213	-0.348
-682.266	390.507	0.140	-0.297
-681.251	-143.931	-0.045	-0.004
-680.237	34.123	-0.069	-0.061
-679.222	-151.665	0.082	0.006
-678.208	-76.900	-0.174	0.062
-677.193	800.000	0.102	0.417
-676.178	-38.070	-0.020	0.011
-675.164	-123.534	-0.130	0.021
-674.149	800.000	-0.083	-0.318
-673.135	123.698	-0.159	0.204
-672.120	-110.032	-0.112	0.024
-671.105	-4.408	-0.141	-0.100
-670.091	165.633	-0.138	-0.199
-669.076	-138.441	-0.083	-0.009
-668.062	800.000	-0.001	-0.004
-667.047	800.000	-0.026	-0.100
-666.032	-135.101	-0.047	-0.006
-665.018	-39.828	0.147	-0.078
-664.003	-51.198	0.180	-0.086
-662.989	260.636	-0.068	-0.121
-661.974	-132.551	-0.212	0.028
-660.959	-55.656	0.167	0.076
-659.945	800.000	-0.067	0.194
-658.930	-38.521	0.119	-0.064
-657.916	-200.000	-0.003	-0.072
-656.901	-156.606	0.427	0.027
-655.886	-200.000	-0.028	-0.126
-654.872	-15.069	-0.018	0.012
-653.857	-45.417	0.051	-0.026
-652.843	-87.965	0.322	-0.099
-651.828	-200.000	-0.016	-0.217
-650.814	384.644	-0.132	-0.279
-649.799	800.000	0.059	0.205
-648.784	-135.789	-0.324	-0.039
-647.770	-200.000	-0.001	-0.066
-646.755	-4.810	0.091	0.064
-645.741	74.760	0.087	-0.094
-644.726	205.389	-0.142	-0.225
-643.711	-49.755	-0.155	0.075
-642.697	-200.000	0.055	-0.333
-641.682	-200.000	-0.039	-0.179
-640.668	-117.863	-0.027	0.005
-639.653	393.422	-0.243	-0.517
-638.638	-8.933	-0.252	0.172
-637.624	-47.036	0.165	-0.082
-636.609	-200.000	-0.003	-0.172
-635.595	110.956	0.137	0.169
-634.580	488.753	-0.091	-0.213
-633.565	-61.115	-0.200	-0.086
-632.551	188.406	-0.093	0.142
-631.536	110.354	0.139	0.171
-630.522	-200.000	0.012	0.060
-629.507	1.622	0.291	-0.214
-628.492	-200.000	0.045	0.253
-627.478	-99.134	-0.347	-0.090
-626.463	-99.974	-0.195	0.050
-625.449	501.503	-0.056	-0.131
-624.434	-77.221	0.065	0.023
-623.419	800.000	0.041	0.148
-622.405	800.000	-0.058	-0.192
-621.390	-200.000	-0.010	-0.071
-620.376	4.395	-0.128	-0.096
-619.361	-45.474	-0.077	-0.039
-618.346	-78.651	-0.427	0.149
-617.332	214.179	0.087	-0.140
-616.317	-51.344	0.264	0.126
-615.303	-7.767	-0.144	-0.099
-614.288	21.126	0.089	-0.073
-613.273	338.515	-0.063	0.126
-612.259	88.085	-0.145	-0.164
-611.244	289.150	-0.076	-0.141
-610.230	-200.000	0.039	0.362
-609.215	-133.343	0.107	0.014
-608.201	-200.000	-0.027	0.142
-607.186	-125.553	-0.235	-0.036
-606.171	800.000	0.039	-0.125
-605.157	-125.707	0.141	-0.022
-604.142	-99.777	-0.338	-0.086
-603.128	-5.673	0.197	-0.138
-602.113	800.000	-0.025	-0.096
-601.098	2.678	-0.175	0.130
-600.084	275.286	-0.058	0.105
-599.069	-86.510	0.331	-0.104
-598.055	800.000	0.054	0.175
-597.040	-33.987	-0.170	0.095
-596.025	289.636	-0.177	-0.328
-595.011	-162.917	-0.076	-0.004
-593.996	-100.108	0.213	-0.054
-592.982	-7.036	-0.246	0.170
-591.967	46.267	0.222	-0.210
-590.952	8.052	0.108	-0.082
-589.938	-67.458	-0.240	0.096
-588.923	-128.076	-0.300	-0.044
-587.909	800.000	-0.021	-0.069
-586.894	-69.373	0.117	0.046
-585.879	-124.200	-0.320	0.051
-584.865	313.240	0.028	-0.054
-583.850	230.669	0.158	0.264
-582.836	-119.167	0.170	0.030
-581.821	800.000	-0.076	0.264
-580.806	167.066	0.026	0.038
-579.792	-200.000	-0.004	-0.250
-578.777	-32.148	-0.207	0.118
-577.763	177.220	-0.190	-0.282
-576.748	389.083	0.056	0.118
-575.733	-109.543	0.241	0.052
-574.719	-200.000	0.019	0.223
-573.704	583.643	0.011	-0.027
-572.690	-31.899	0.153	0.088
-571.675	-148.838	-0.396	-0.033
-570.661	800.000	-0.076	-0.274
-569.646	277.308	0.120	0.217
-568.631	-153.641	0.539	-0.038
-567.617	-12.682	-0.315	-0.209
-566.602	-54.322	-0.349	0.161
-565.588	-86.135	0.135	-0.042
-564.573	314.876	-0.093	-0.179
-563.558	-12.430	0.173	-0.115
-562.544	-200.000	-0.339	-0.002
-561.529	32.885	0.160	0.141
-560.515	800.000	0.067	-0.290
-559.500	-18.479	0.119	0.075
-558.485	-55.304	0.067	0.031
-557.471	75.650	-0.419	-0.451
-556.456	-34.532	0.141	0.079
-555.442	-200.000	-0.055	-0.499
-554.427	41.135	-0.155	0.143
-553.412	800.000	-0.132	0.438
-552.398	-124.676	0.322	-0.051
-551.383	-126.030	-0.204	-0.031
-550.369	258.414	0.136	-0.238
-549.354	589.173	0.154	-0.386
-548.339	25.640	-0.388	-0.329
-547.325	674.773	-0.022	0.059
-546.310	-162.345	0.036	-0.002
-545.296	-60.326	-0.044	-0.019
-544.281	79.593	-0.029	0.031
-543.266	800.000	0.036	-0.156
-542.252	-121.896	0.289	-0.048
-541.237	181.617	-0.151	-0.225
-540.223	-200.000	0.061	0.365
-539.208	-104.555	-0.289	-0.068
-538.193	-200.000	0.032	-0.315
-537.179	-23.600	0.102	-0.062
-536.164	-165.871	-0.169	0.007
-535.150	-2.175	0.123	0.088
-534.135	-136.828	0.083	0.010
-533.121	-67.176	0.089	0.036
-532.106	-151.018	0.146	0.011
-531.091	-184.267	-0.068	0.001
-530.077	-154.044	-0.254	0.018
-529.062	56.276	-0.098	0.096
-528.048	229.556	0.059	-0.098
-527.033	800.000	-0.031	0.128
-526.018	-200.000	0.087	-0.394
-525.004	-200.000	0.052	0.264
-523.989	-71.958	0.271	0.103
-522.975	-11.909	0.219	-0.146
-521.960	-41.356	-0.197	-0.103
-520.945	800.000	-0.097	-0.284
-519.931	182.345	0.033	-0.049
-518.916	497.395	-0.029	-0.067
-517.902	247.155	-0.102	-0.176
-516.887	245.324	-0.028	0.048
-515.872	26.243	-0.057	-0.049
-514.858	57.776	-0.026	0.025
-513.843	79.073	0.219	-0.238
-512.829	243.025	0.219	0.372
-511.814	-14.597	-0.153	-0.100
-510.799	-200.000	-0.034	0.254
-509.785	800.000	-0.017	-0.066
-508.770	233.055	0.116	0.193
-507.756	-30.648	-0.186	-0.107
-506.741	-200.000	0.043	-0.327
-505.726	-195.391	0.170	0.001
-504.712	56.468	-0.145	0.144
-503.697	-63.649	0.305	-0.127
-502.683	93.129	0.227	0.261
-501.668	-115.913	-0.205	-0.039
-500.653	-119.594	0.433	0.076
-499.639	63.061	-0.128	0.130
-498.624	-53.976	0.365	0.169
-497.610	-36.961	-0.223	0.121
-496.595	-200.000	-0.054	-0.244
-495.581	99.148	0.139	0.163
-494.566	-200.000	-0.103	0.000
-493.551	-139.682	0.115	0.012
-492.537	800.000	0.026	0.084
-491.522	184.741	0.040	0.061
-490.508	-106.901	-0.148	-0.033
-489.493	-200.000	-0.028	0.130
-488.478	42.359	-0.181	0.167
-487.464	-96.054	0.041	-0.011
-486.449	15.188	0.048	0.038
-485.435	293.517	0.128	-0.237
-484.420	583.183	0.025	-0.061
-483.405	81.623	-0.182	-0.200
-482.391	-200.000	-0.006	-0.274
-481.376	-97.136	0.120	0.032
-480.362	-85.705	-0.188	0.059
-479.347	111.370	0.185	0.227
-478.332	74.730	-0.148	0.159
-477.318	78.681	-0.104	-0.113
-476.303	-135.487	0.041	0.005
-475.289	-4.932	0.070	0.049
-474.274	-74.742	0.186	-0.068
-473.259	-200.000	0.014	-0.152
-472.245	-66.232	-0.081	0.033
-471.230	140.097	0.081	0.108
-470.216	3.832	0.047	-0.035
-469.201	800.000	0.048	0.173
-468.186	-91.126	0.164	-0.048
-467.172	-200.000	0.008	-0.058
-466.157	713.426	0.051	0.137
-465.143	-98.639	0.146	0.038
-464.128	-119.643	-0.345	0.061
-463.113	-130.596	0.288	-0.039
-462.099	109.593	0.149	-0.182
-461.084	168.670	0.108	-0.156
-460.070	-88.448	0.285	0.086
-459.055	52.928	-0.313	-0.304
-458.040	800.000	0.122	-0.347
-457.026	58.645	0.062	-0.062
-456.011	-150.184	-0.197	-0.015
-454.997	226.970	-0.048	0.080
-453.982	75.525	0.157	0.168
-452.968	-146.704	-0.021	-0.002
-451.953	110.752	0.070	0.086
-450.938	-93.376	-0.223	0.063
-449.924	-60.423	0.367	0.158
-448.909	-99.265	-0.359	-0.092
-447.895	-61.063	-0.144	0.062
-446.880	-2.976	-0.285	-0.202
-445.865	306.024	0.191	-0.361
-444.851	-200.000	-0.073	-0.364
-443.836	-46.496	-0.282	0.140
-442.822	-7.120	0.141	-0.097
-441.807	98.912	-0.238	-0.278
-440.792	420.940	0.026	0.057
-439.778	444.908	0.042	0.094
-438.763	-112.538	-0.255	-0.051
-437.749	-109.250	0.161	-0.035
-436.734	-71.360	-0.058	-0.022
-435.719	115.645	0.122	-0.152
-434.705	71.703	-0.122	-0.129
-433.690	247.179	-0.235	0.402
-432.676	800.000	0.070	0.298
-431.661	-59.511	-0.379	0.165
-430.646	-34.267	0.119	0.066
-429.632	14.542	-0.128	0.101
-428.617	182.847	0.114	0.171
-427.603	-42.762	-0.353	-0.182
-426.588	-95.951	0.228	-0.061
-425.573	27.383	-0.159	-0.135
-424.559	14.420	-0.210	0.166
-423.544	-200.000	0.003	-0.098
-422.530	-157.510	-0.360	0.022
-421.515	68.878	0.298	-0.310
-420.500	-89.398	0.118	-0.035
-419.486	92.358	0.094	-0.108
-418.471	-61.332	-0.324	-0.138
-417.457	-6.948	0.182	0.125
-416.442	113.486	0.013	-0.016
-415.428	404.737	0.040	-0.085
-414.413	45.918	0.267	0.250
-413.398	-108.470	-0.070	-0.015
-412.384	-82.480	-0.246	-0.081
-411.369	603.293	-0.097	0.244
-410.355	-200.000	-0.073	0.332
-409.340	252.232	0.092	0.159
-408.325	-200.000	-0.005	-0.174
-407.311	0.256	0.330	0.239
-406.296	-10.775	-0.116	-0.078
-405.282	167.412	-0.047	-0.067
-404.267	800.000	-0.051	0.199
-403.252	238.702	0.169	-0.283
-402.238	-54.459	-0.521	-0.239
-401.223	277.885	0.055	0.099
-400.209	-79.685	-0.117	0.040
-399.194	-44.584	-0.154	0.078
-398.179	756.312	0.044	0.120
-397.165	-121.990	0.299	-0.050
-396.150	118.252	-0.109	-0.136
-395.136	13.900	0.060	0.047
-394.121	-10.376	0.109	0.073
-393.106	225.559	-0.076	-0.124
-392.092	-19.135	0.367	0.231
-391.077	-13.427	-0.319	-0.209
-390.063	-61.849	0.163	0.069
-389.048	596.151	0.043	-0.109
-388.033	-21.330	0.097	-0.060
-387.019	134.443	-0.087	-0.114
-386.004	-1.505	0.236	-0.169
-384.990	-200.000	-0.018	-0.324
-383.975	-45.959	0.025	-0.013
-382.960	154.739	0.133	0.184
-381.946	-112.696	-0.028	-0.006
-380.931	71.122	0.244	-0.256
-379.917	-101.460	-0.164	0.040
-378.902	800.000	0.073	0.315
-377.888	-156.898	-0.241	0.015
-376.873	-143.500	0.180	-0.017
-375.858	112.648	0.173	0.212
-374.844	263.406	0.186	0.327
-373.829	-21.607	-0.309	-0.190
-372.815	-137.172	0.295	-0.034
-371.800	40.236	0.192	-0.174
-370.785	697.486	-0.020	-0.052
-369.771	800.000	0.114	0.376
-368.756	-122.080	-0.420	-0.070
-367.742	-109.396	0.296	0.063
-366.727	-163.732	0.260	-0.012
-365.712	-117.384	0.184	0.034
-364.698	364.315	-0.061	0.124
-363.683	-200.000	-0.001	-0.151
-362.669	684.339	-0.117	0.309
-361.654	800.000	0.030	-0.099
-360.639	169.350	0.213	0.307
-359.625	122.527	0.118	0.149
-358.610	-148.362	0.157	0.013
-357.596	-66.312	0.121	-0.049
-356.581	-200.000	0.043	-0.369
-355.566	-39.700	0.333	-0.176
-354.552	800.000	0.080	0.238
-353.537	19.228	0.132	-0.107
-352.523	53.585	0.329	-0.319
-351.508	33.085	-0.114	0.100
-350.493	-200.000	-0.011	-0.331
-349.479	-69.636	-0.098	0.038
-348.464	-59.412	0.173	-0.075
-347.450	-94.207	-0.192	0.053
-346.435	5.925	-0.147	0.110
-345.420	-200.000	0.043	0.329
-344.406	-85.463	-0.112	0.035
-343.391	-200.000	-0.023	0.415
-342.377	23.806	-0.114	0.095
-341.362	-200.000	0.003	0.050
-340.348	800.000	-0.067	0.187
-339.333	653.734	0.140	0.361
-338.318	176.521	-0.164	0.241
-337.304	-71.904	0.110	0.041
-336.289	-100.152	-0.190	-0.048
-335.275	-200.000	-0.007	0.297
-334.260	-200.000	-0.000	0.484
-333.245	12.096	0.114	0.089
-332.231	11.887	0.244	0.190
-331.216	-184.138	0.209	0.004
-330.202	800.000	0.031	-0.104
-329.187	333.358	0.108	-0.210
-328.172	-3.519	-0.049	0.034
-327.158	-99.425	0.295	-0.075
-326.143	-47.101	-0.384	-0.189
-325.129	-63.570	-0.220	0.091
-324.114	-200.000	-0.001	0.215
-323.099	760.625	0.126	0.343
-322.085	-126.533	-0.112	-0.017
-321.070	145.286	0.040	0.053
-320.056	34.305	0.189	-0.166
-319.041	219.609	-0.121	0.195
-318.026	133.722	0.037	0.048
-317.012	-126.298	0.124	-0.019
-315.997	183.513	-0.122	0.182
-314.983	33.841	0.239	-0.210
-313.968	-100.405	-0.250	0.063
-312.953	355.009	0.129	0.258
-311.939	465.177	-0.144	-0.326
-310.924	-200.000	-0.022	0.119
-309.910	-200.000	-0.535	-0.002
-308.895	-66.175	-0.281	-0.113
-307.880	800.000	-0.052	0.200
-306.866	-78.473	-0.175	0.060
-305.851	170.201	-0.124	0.178
-304.837	364.621	-0.030	-0.060
-303.822	-34.279	0.333	0.184
-302.807	217.892	0.062	-0.099
-301.793	-187.827	-0.086	0.001
-300.778	88.130	-0.291	-0.325
-299.764	136.449	-0.111	0.146
-298.749	-131.339	-0.163	-0.022
-297.735	-14.688	-0.108	-0.070
-296.720	16.572	-0.236	-0.188
-295.705	-54.427	0.205	-0.093
-294.691	672.588	0.076	0.198
-293.676	50.575	-0.057	0.054
-292.662	349.362	-0.095	0.190
-291.647	800.000	0.065	0.278
-290.632	51.558	-0.248	0.237
-289.618	38.123	0.101	-0.091
-288.603	257.067	0.154	-0.267
-287.589	-126.735	0.214	-0.032
-286.574	-16.043	0.093	0.060
-285.559	-74.435	0.183	0.066
-284.545	-18.857	-0.028	0.018
-283.530	16.528	-0.058	0.046
-282.516	143.826	-0.125	0.168
-281.501	-66.335	0.233	-0.093
-280.486	800.000	-0.051	0.187
-279.472	800.000	-0.021	-0.083
-278.457	-19.896	0.155	0.096
-277.443	22.834	0.217	0.179
-276.428	-162.877	0.332	0.016
-275.413	-200.000	-0.018	0.485
-274.399	-177.183	-0.233	-0.006
-273.384	-200.000	-0.005	0.032
-272.370	-9.301	-0.088	-0.059
-271.355	-131.212	0.067	-0.009
-270.340	193.958	-0.229	-0.348
-269.326	-200.000	0.004	-0.203
-268.311	800.000	0.097	-0.281
-267.297	-55.683	-0.289	-0.130
-266.282	-200.000	-0.077	0.359
-265.267	-103.139	0.105	0.025
-264.253	47.632	0.220	-0.206
-263.238	-95.186	0.089	0.024
-262.224	-1.495	0.096	-0.068
-261.209	800.000	-0.036	-0.137
-260.195	-200.000	0.003	0.200
-259.180	-126.418	-0.087	-0.013
-258.165	-85.611	0.134	-0.042
-257.151	136.993	0.114	0.150
-256.136	690.678	-0.083	-0.218
-255.122	-128.465	0.319	-0.046
-254.107	-105.350	-0.195	-0.045
-253.092	-200.000	-0.058	0.283
-252.078	-56.042	0.223	-0.100
-251.063	92.278	0.086	-0.097
-250.049	-200.000	0.048	0.219
-249.034	-49.185	-0.155	0.075
-248.019	-4.896	-0.237	0.164
-247.005	-127.786	-0.248	-0.036
-245.990	-200.000	-0.023	0.110
-244.976	-29.386	0.146	0.084
-243.961	52.025	0.188	0.180
-242.946	96.422	-0.053	0.061
-241.932	800.000	0.053	0.187
-240.917	-37.489	-0.195	0.104
-239.903	96.973	-0.110	-0.127
-238.888	-18.099	-0.113	-0.071
-237.873	157.976	-0.093	-0.129
-236.859	515.846	0.102	0.239
-235.844	-200.000	-0.018	0.240
-234.830	-3.033	0.209	-0.147
-233.815	-200.000	-0.014	0.079
-232.800	-117.499	-0.141	-0.026
-231.786	-168.822	-0.260	-0.010
-230.771	244.217	-0.136	0.230
-229.757	-74.307	-0.145	0.053
-228.742	37.178	-0.221	-0.197
-227.727	-154.650	-0.293	-0.020
-226.713	45.379	-0.180	-0.167
-225.698	-98.785	0.358	-0.092
-224.684	0.019	0.086	0.061
-223.669	-128.911	0.519	-0.073
-222.655	7.279	-0.119	0.089
-221.640	388.443	-0.125	0.261
-220.625	-78.462	-0.112	-0.038
-219.611	800.000	-0.040	-0.133
-218.596	13.550	0.455	-0.355
-217.582	-200.000	-0.031	-0.220
-216.567	800.000	0.084	0.299
-215.552	-200.000	-0.012	0.576
-214.538	32.161	0.222	-0.192
-213.523	-27.073	0.122	-0.072
-212.509	97.294	0.032	0.037
-211.494	201.200	-0.080	-0.123
-210.479	-152.497	-0.329	0.024
-209.465	-66.623	0.185	0.074
-208.450	133.347	0.105	-0.136
-207.436	106.927	-0.072	0.086
-206.421	-108.117	-0.152	-0.033
-205.406	140.968	-0.051	-0.068
-204.392	471.840	-0.062	0.141
-203.377	317.430	-0.124	0.236
-202.363	-181.920	0.251	-0.005
-201.348	644.356	-0.041	0.106
-200.333	-122.347	0.088	0.014
-199.319	-200.000	-0.007	-0.234
-198.304	191.857	0.079	-0.120
-197.290	12.647	0.289	-0.224
-196.275	-50.258	-0.162	0.077
-195.260	-200.000	-0.042	-0.406
-194.246	652.173	0.185	-0.477
-193.231	-55.553	0.274	-0.123
-192.217	800.000	0.078	-0.280
-191.202	261.636	0.053	-0.093
-190.187	-200.000	-0.023	0.140
-189.173	28.052	0.224	0.190
-188.158	420.687	0.175	0.376
-187.144	113.905	0.086	0.105
-186.129	-50.981	0.184	0.087
-185.114	-68.973	-0.198	-0.077
-184.100	-200.000	-0.044	-0.254
-183.085	-60.692	0.311	0.132
-182.071	-200.000	-0.023	-0.231
-181.056	-107.753	-0.169	-0.037
-180.042	-93.467	0.032	-0.009
-179.027	-142.752	0.078	0.008
-178.012	113.346	0.030	0.037
-176.998	327.031	-0.043	-0.082
-175.983	-200.000	0.013	-0.141
-174.969	172.727	0.112	0.162
-173.954	-200.000	0.069	0.425
-172.939	98.929	-0.205	0.237
-171.925	-15.601	-0.124	0.079
-170.910	95.764	0.120	-0.138
-169.896	-102.963	0.147	-0.035
-168.881	-133.804	0.116	-0.014
-167.866	80.058	0.118	-0.127
-166.852	-200.000	0.010	0.130
-165.837	-64.229	-0.127	-0.052
-164.823	300.499	-0.057	0.105
-163.808	187.925	0.042	0.062
-162.793	450.229	-0.043	0.096
-161.779	50.543	-0.047	-0.044
-160.764	65.651	-0.123	-0.125
-159.750	46.871	0.102	-0.095
-158.735	800.000	0.022	0.062
-157.720	-72.552	0.202	-0.075
-156.706	-17.852	-0.306	0.192
-155.691	-17.905	0.034	-0.022
-154.677	-141.986	-0.050	0.005
-153.662	-106.281	0.269	-0.060
-152.647	130.517	-0.116	-0.148
-151.633	800.000	-0.064	-0.202
-150.618	-107.892	-0.212	0.046
-149.604	9.147	0.069	0.052
-148.589	56.495	-0.267	-0.260
-147.574	-36.026	-0.083	0.045
-146.560	-17.223	-0.313	0.198
-145.545	800.000	-0.057	-0.188
-144.531	-200.000	-0.005	0.054
-143.516	-142.648	-0.231	0.023
-142.502	-17.172	0.352	-0.222
-141.487	658.962	-0.028	-0.073
-140.472	800.000	-0.063	-0.274
-139.458	454.148	-0.077	-0.171
-138.443	-74.474	0.162	-0.059
-137.429	53.109	-0.093	0.089
-136.414	-200.000	-0.003	0.253
-135.399	-72.890	0.168	-0.062
-134.385	-38.929	0.323	0.171
-133.370	-95.896	-0.226	0.060
-132.356	-130.677	0.093	0.013
-131.341	-60.317	0.029	0.012
-130.326	459.840	0.185	-0.413
-129.312	800.000	0.127	-0.357
-128.297	92.900	0.110	-0.125
-127.283	38.174	-0.029	0.025
-126.268	-168.849	0.321	0.012
-125.253	-200.000	-0.003	-0.115
-124.239	-56.692	-0.185	0.082
-123.224	-200.000	-0.049	0.225
-122.210	-22.376	-0.182	0.110
-121.195	-200.000	0.039	0.184
