DTS Sentinel unit serial number:	SN413079Multiplexer serial number:	ORYXHardware model number:	OX4-SRSoftware version number:	ORYX F/W v4.00 Oryx Data Collector v3.7.2.0data status	okinstallation	princeton_trtdifferential loss correction	single-endedforward channel	channel 4reverse channel	N/Adate	2019/09/16time	12:17:35forward acquisition time	60.00reverse acquisition time	0.00gamma	496.2192k internal	0.2293k external	0.2293temperature offset calibration	0.9947default loss term (dB/km)	0.3790temperature slope calibration	1.0000multiplexer offset coefficient	1.0000multiplexer slope coefficient	1.0000fibre end	0.00T internal ref (°C)	39.19T ext. ref 1 (°C)	13.28T ext. ref 2 (°C)	36.65length (m)	temperature (°C)	Stokes	anti-Stokes-747.200	58.106	0.174	0.175
-746.185	-200.000	-0.002	0.306
-745.171	31.826	-0.052	0.045
-744.156	-200.000	-0.019	0.129
-743.142	-68.732	0.243	0.096
-742.127	800.000	-0.016	0.067
-741.112	-200.000	0.001	-0.029
-740.098	-30.326	-0.157	0.091
-739.083	-140.431	-0.319	0.034
-738.069	19.876	0.143	0.118
-737.054	87.367	-0.160	-0.181
-736.039	-91.076	-0.305	-0.089
-735.025	-178.992	0.458	0.011
-734.010	-18.920	-0.350	-0.223
-732.996	489.080	-0.056	-0.130
-731.981	86.091	-0.249	-0.280
-730.966	-29.477	-0.126	-0.074
-729.952	-140.779	0.246	-0.026
-728.937	800.000	0.044	-0.149
-727.923	232.715	0.140	0.235
-726.908	387.692	0.123	0.259
-725.894	800.000	-0.061	-0.203
-724.879	-17.442	-0.153	-0.098
-723.864	268.214	-0.188	0.337
-722.850	-135.971	-0.369	0.044
-721.835	-33.434	0.528	0.299
-720.821	81.466	-0.124	0.136
-719.806	37.649	0.055	-0.050
-718.791	7.257	-0.187	0.143
-717.777	-46.476	-0.258	-0.129
-716.762	32.743	0.186	0.165
-715.748	317.936	0.055	-0.106
-714.733	-84.042	-0.206	0.067
-713.718	-200.000	0.034	0.168
-712.704	-200.000	0.013	0.144
-711.689	-63.842	-0.168	-0.070
-710.675	65.031	-0.118	0.122
-709.660	-88.440	-0.200	0.061
-708.645	26.110	-0.011	-0.009
-707.631	800.000	-0.075	-0.318
-706.616	800.000	-0.037	0.127
-705.602	-200.000	-0.029	-0.192
-704.587	-200.000	0.047	0.287
-703.572	800.000	0.062	0.238
-702.558	-192.180	-0.292	0.003
-701.543	-158.753	0.257	0.015
-700.529	106.622	0.168	0.204
-699.514	-136.463	-0.242	-0.029
-698.499	-200.000	-0.072	-0.484
-697.485	175.549	-0.063	-0.093
-696.470	-200.000	-0.022	-0.100
-695.456	376.656	-0.138	0.289
-694.441	-110.906	0.284	0.060
-693.426	-98.491	-0.313	0.082
-692.412	378.214	-0.092	0.193
-691.397	-19.357	-0.147	-0.093
-690.383	423.542	0.072	-0.157
-689.368	800.000	-0.017	-0.071
-688.354	-109.502	0.110	0.024
-687.339	25.828	-0.093	-0.079
-686.324	290.421	-0.101	0.187
-685.310	734.968	0.032	-0.089
-684.295	604.795	-0.076	-0.193
-683.281	-55.073	0.208	-0.095
-682.266	-193.418	0.080	-0.001
-681.251	-29.708	-0.287	0.167
-680.237	800.000	0.036	-0.157
-679.222	-90.926	0.130	-0.038
-678.208	-71.232	0.110	-0.042
-677.193	-175.649	-0.220	-0.006
-676.178	-132.538	0.292	-0.038
-675.164	402.776	0.058	0.125
-674.149	172.454	-0.175	0.257
-673.135	-84.319	0.259	-0.084
-672.120	-200.000	0.032	-0.268
-671.105	-163.952	-0.299	-0.014
-670.091	-41.865	-0.228	0.119
-669.076	-23.553	-0.142	-0.087
-668.062	341.486	-0.080	-0.160
-667.047	-200.000	-0.004	0.302
-666.032	118.763	-0.208	0.262
-665.018	378.533	0.031	0.064
-664.003	-48.710	0.203	0.099
-662.989	-25.928	-0.194	0.117
-661.974	49.597	-0.264	0.253
-660.959	41.547	0.116	-0.108
-659.945	-62.338	0.181	-0.077
-658.930	-35.942	-0.196	0.108
-657.916	-106.711	0.031	-0.007
-656.901	-113.294	0.216	-0.043
-655.886	243.457	-0.087	-0.148
-654.872	177.655	-0.202	-0.300
-653.857	164.018	-0.117	0.168
-652.843	-185.476	0.208	-0.003
-651.828	-200.000	0.028	-0.320
-650.814	-150.440	0.076	0.006
-649.799	439.343	0.142	-0.316
-648.784	-200.000	0.050	0.254
-647.770	78.754	-0.100	0.109
-646.755	-200.000	-0.068	0.320
-645.741	-72.989	-0.459	0.172
-644.726	120.015	-0.033	-0.042
-643.711	244.959	0.103	-0.176
-642.697	27.505	0.094	0.081
-641.682	-88.467	0.199	0.060
-640.668	-36.165	0.162	-0.089
-639.653	6.267	0.303	-0.229
-638.638	21.087	0.097	0.081
-637.624	-200.000	0.011	0.115
-636.609	-200.000	-0.074	0.460
-635.595	47.411	0.168	0.159
-634.580	27.892	-0.150	-0.129
-633.565	-108.100	-0.015	-0.003
-632.551	-122.453	-0.286	0.047
-631.536	149.985	-0.236	-0.326
-630.522	767.259	0.168	0.466
-629.507	-142.952	0.147	-0.015
-628.492	152.247	0.273	0.379
-627.478	142.454	0.251	-0.339
-626.463	800.000	0.066	-0.225
-625.449	-200.000	-0.009	-0.068
-624.434	214.535	0.100	-0.162
-623.419	28.892	0.059	0.051
-622.405	10.632	0.106	-0.082
-621.390	800.000	-0.039	0.121
-620.376	-200.000	0.016	0.165
-619.361	-11.766	-0.227	0.152
-618.346	120.302	-0.101	0.128
-617.332	-73.924	-0.164	0.061
-616.317	302.121	0.136	-0.255
-615.303	-132.709	-0.110	0.014
-614.288	-105.681	-0.299	-0.069
-613.273	429.482	-0.126	0.278
-612.259	-130.394	0.256	-0.035
-611.244	-131.754	0.085	0.011
-610.230	-200.000	-0.001	0.183
-609.215	-148.362	-0.159	-0.013
-608.201	379.724	0.014	-0.028
-607.186	-151.373	0.193	-0.015
-606.171	-8.062	-0.243	0.167
-605.157	800.000	0.102	0.413
-604.142	161.124	0.150	-0.213
-603.128	154.811	-0.271	-0.379
-602.113	-200.000	0.072	-0.325
-601.098	-200.000	-0.072	0.429
-600.084	90.383	0.111	0.126
-599.069	-153.495	-0.265	-0.019
-598.055	15.279	0.059	0.047
-597.040	-163.215	-0.256	0.012
-596.025	612.536	-0.071	0.182
-595.011	-77.618	-0.376	0.132
-593.996	-45.777	0.104	-0.052
-592.982	33.513	0.028	0.025
-591.967	184.249	-0.117	0.176
-590.952	-127.053	0.084	0.012
-589.938	402.092	0.056	-0.120
-588.923	-146.063	-0.468	0.042
-587.909	661.032	0.101	-0.266
-586.894	549.273	-0.136	-0.331
-585.879	131.007	-0.281	0.367
-584.865	800.000	-0.046	0.189
-583.850	-132.159	-0.319	0.042
-582.836	-139.793	0.189	0.020
-581.821	632.918	0.051	-0.132
-580.806	146.551	0.144	-0.196
-579.792	-52.387	-0.120	0.056
-578.777	800.000	0.145	-0.452
-577.763	-41.756	0.258	0.134
-576.748	-114.511	-0.186	-0.036
-575.733	-149.319	0.179	-0.015
-574.719	-0.142	-0.241	0.175
-573.704	543.316	-0.034	-0.082
-572.690	-44.003	0.132	0.067
-571.675	300.928	0.106	0.200
-570.661	-200.000	-0.021	0.122
-569.646	119.430	0.162	0.203
-568.631	-192.549	0.216	-0.002
-567.617	289.620	-0.067	0.124
-566.602	175.787	0.159	0.235
-565.588	-200.000	-0.051	0.245
-564.573	453.159	-0.011	0.024
-563.558	12.523	-0.103	0.081
-562.544	-92.704	-0.271	0.077
-561.529	-200.000	0.049	-0.312
-560.515	-60.841	0.164	0.070
-559.500	445.547	0.178	0.398
-558.485	44.348	-0.084	0.079
-557.471	-85.515	0.283	0.089
-556.456	-200.000	0.028	0.212
-555.442	800.000	-0.046	0.182
-554.427	-41.604	-0.365	0.190
-553.412	-108.235	-0.022	-0.005
-552.398	11.294	-0.060	0.046
-551.383	800.000	0.062	-0.274
-550.369	-128.514	0.304	-0.044
-549.354	-195.513	-0.163	0.001
-548.339	800.000	0.044	-0.131
-547.325	-61.262	-0.027	-0.012
-546.310	-126.892	0.407	0.061
-545.296	-138.189	0.062	-0.007
-544.281	-200.000	0.027	0.197
-543.266	-200.000	-0.033	-0.354
-542.252	185.430	0.055	-0.083
-541.237	-21.497	-0.129	-0.080
-540.223	-200.000	0.060	0.300
-539.208	79.353	0.132	-0.144
-538.193	43.218	-0.175	-0.163
-537.179	800.000	-0.050	-0.221
-536.164	-200.000	0.031	-0.143
-535.150	-154.567	0.278	-0.019
-534.135	-200.000	0.031	0.201
-533.121	-32.479	0.085	-0.048
-532.106	0.309	0.203	0.147
-531.091	-191.113	-0.464	-0.005
-530.077	415.598	0.120	-0.260
-529.062	-169.483	-0.093	0.003
-528.048	287.565	0.172	0.315
-527.033	-200.000	0.014	-0.166
-526.018	148.601	0.072	0.099
-525.004	-124.791	-0.267	0.042
-523.989	22.326	0.262	0.217
-522.975	-82.167	0.233	0.077
-521.960	800.000	-0.046	-0.138
-520.945	67.209	-0.086	-0.089
-519.931	800.000	-0.093	-0.385
-518.916	8.890	0.226	-0.173
-517.902	357.370	-0.108	-0.219
-516.887	-110.571	0.223	0.047
-515.872	-83.069	-0.075	-0.024
-514.858	66.983	0.152	-0.157
-513.843	21.333	0.098	0.081
-512.829	-106.714	-0.199	-0.045
-511.814	-20.703	0.255	0.159
-510.799	-200.000	-0.006	-0.213
-509.785	-163.911	-0.485	-0.023
-508.770	-200.000	-0.062	-0.282
-507.756	-161.858	-0.370	0.019
-506.741	192.065	0.072	-0.109
-505.726	-1.187	0.121	0.087
-504.712	23.168	0.239	0.198
-503.697	-128.702	-0.177	-0.025
-502.683	-76.837	-0.104	-0.037
-501.668	235.145	-0.196	0.328
-500.653	-82.228	0.116	0.038
-499.639	800.000	0.067	-0.230
-498.624	-48.904	0.147	-0.071
-497.610	2.880	-0.064	0.047
-496.595	240.701	0.122	0.206
-495.581	75.516	-0.032	-0.035
-494.566	185.210	-0.110	0.165
-493.551	340.819	0.079	0.157
-492.537	-77.587	-0.153	0.054
-491.522	-124.452	-0.314	0.050
-490.508	27.994	-0.363	-0.310
-489.493	-23.232	0.081	-0.049
-488.478	208.824	0.074	-0.118
-487.464	659.334	0.062	0.162
-486.449	-200.000	0.007	0.158
-485.435	-200.000	0.005	0.282
-484.420	-26.498	0.137	-0.081
-483.405	-136.535	0.316	0.037
-482.391	-9.095	-0.391	-0.265
-481.376	3.543	0.191	0.141
-480.362	3.246	-0.106	-0.078
-479.347	-128.032	-0.222	-0.032
-478.332	268.435	-0.113	-0.201
-477.318	-200.000	0.044	-0.234
-476.303	-12.454	0.279	-0.184
-475.289	594.200	0.035	-0.087
-474.274	-160.623	-0.182	0.010
-473.259	655.773	-0.037	-0.097
-472.245	-200.000	-0.036	0.209
-471.230	-102.954	-0.101	-0.024
-470.216	162.363	-0.194	-0.276
-469.201	564.071	-0.044	0.108
-468.186	800.000	-0.084	-0.276
-467.172	437.776	0.129	-0.284
-466.157	26.399	0.159	0.134
-465.143	20.079	0.318	0.260
-464.128	-57.191	0.123	-0.055
-463.113	250.131	-0.112	-0.192
-462.099	-11.387	0.042	0.028
-461.084	-176.838	0.412	0.011
-460.070	-113.968	-0.273	0.054
-459.055	800.000	-0.054	-0.220
-458.040	19.427	0.401	0.326
-457.026	800.000	0.092	0.342
-456.011	-200.000	-0.020	-0.235
-454.997	-115.279	0.289	0.055
-453.982	-200.000	0.036	0.278
-452.968	-25.844	0.470	-0.280
-451.953	800.000	0.033	-0.116
-450.938	-162.205	0.298	-0.015
-449.924	137.359	0.013	-0.017
-448.909	79.766	-0.196	-0.213
-447.895	-107.474	0.238	0.053
-446.880	-115.423	0.330	0.063
-445.865	-98.185	0.054	-0.014
-444.851	-14.411	0.326	-0.212
-443.836	-14.189	-0.208	0.135
-442.822	-200.000	0.027	-0.147
-441.807	800.000	0.065	0.210
-440.792	-106.073	0.128	0.029
-439.778	60.545	0.089	-0.089
-438.763	77.283	-0.103	-0.111
-437.749	650.287	0.163	-0.422
-436.734	10.119	-0.170	0.131
-435.719	-13.409	-0.283	-0.186
-434.705	-200.000	0.061	0.323
-433.690	-200.000	0.010	0.309
-432.676	-115.638	0.270	-0.051
-431.661	151.344	-0.043	-0.059
-430.646	34.736	0.315	0.278
-429.632	-109.591	-0.057	-0.012
-428.617	-41.753	-0.218	-0.113
-427.603	-143.207	-0.248	-0.024
-426.588	449.435	-0.149	-0.333
-425.573	-99.976	-0.159	-0.040
-424.559	-5.585	0.294	-0.204
-423.544	385.314	0.078	-0.162
-422.530	-13.362	-0.529	-0.347
-421.515	170.019	-0.097	-0.140
-420.500	-65.509	0.211	0.085
-419.486	-30.563	0.282	-0.162
-418.471	-200.000	-0.051	-0.314
-417.457	-2.954	-0.286	-0.201
-416.442	-200.000	0.027	-0.332
-415.428	121.149	0.059	0.074
-414.413	800.000	-0.050	-0.169
-413.398	-59.358	0.284	-0.124
-412.384	50.689	0.204	-0.195
-411.369	98.388	0.190	0.221
-410.355	78.958	0.004	-0.005
-409.340	-200.000	0.031	-0.146
-408.325	-22.298	0.272	0.166
-407.311	-19.506	0.178	-0.112
-406.296	-200.000	-0.056	0.488
-405.282	-57.765	-0.317	-0.140
-404.267	800.000	-0.055	0.184
-403.252	-200.000	-0.005	-0.115
-402.238	-200.000	0.045	0.423
-401.223	-77.011	0.321	-0.113
-400.209	-200.000	-0.076	0.378
-399.194	38.573	0.118	-0.106
-398.179	-124.444	0.214	0.034
-397.165	-47.652	-0.222	0.109
-396.150	-200.000	0.031	-0.297
-395.136	59.449	-0.078	0.078
-394.121	-95.385	-0.475	-0.129
-393.106	-200.000	0.023	-0.186
-392.092	-37.164	-0.104	0.056
-391.077	311.509	-0.055	-0.104
-390.063	178.566	-0.166	0.244
-389.048	-200.000	-0.010	0.233
-388.033	-2.659	-0.139	0.098
-387.019	-67.616	0.267	-0.106
-386.004	-120.246	-0.061	0.011
-384.990	-137.759	0.171	-0.019
-383.975	55.470	-0.112	-0.110
-382.960	800.000	-0.016	0.059
-381.946	118.759	-0.057	0.071
-380.931	-155.327	-0.339	-0.022
-379.917	296.925	-0.051	0.094
-378.902	215.525	-0.208	0.334
-377.888	116.225	-0.247	-0.305
-376.873	-181.056	-0.251	0.005
-375.858	-33.105	-0.178	-0.099
-374.844	-133.609	-0.215	0.027
-373.829	57.528	-0.095	0.093
-372.815	451.931	0.123	-0.274
-371.800	-135.789	0.345	0.041
-370.785	513.412	0.049	0.114
-369.771	-9.854	-0.154	0.104
-368.756	2.378	-0.284	0.208
-367.742	-65.334	-0.270	-0.110
-366.727	-200.000	0.009	-0.143
-365.712	224.373	-0.022	0.035
-364.698	-200.000	-0.049	0.348
-363.683	-63.351	-0.265	-0.110
-362.669	-27.745	0.237	0.138
-361.654	-49.306	-0.257	0.124
-360.639	800.000	-0.088	-0.268
-359.625	800.000	0.066	0.191
-358.610	174.516	0.061	0.088
-357.596	772.540	-0.227	-0.624
-356.581	-200.000	0.005	-0.265
-355.566	-71.663	0.063	-0.024
-354.552	-84.077	-0.013	-0.004
-353.537	800.000	0.136	-0.452
-352.523	-16.106	0.271	-0.174
-351.508	70.336	0.129	0.135
-350.493	-115.895	-0.537	-0.101
-349.479	139.954	-0.167	-0.221
-348.464	-61.678	0.107	0.045
-347.450	-131.335	0.224	-0.030
-346.435	-0.032	0.210	-0.151
-345.420	-200.000	-0.035	0.316
-344.406	800.000	-0.056	-0.169
-343.391	-200.000	-0.032	0.174
-342.377	161.206	0.022	-0.031
-341.362	168.011	-0.167	-0.240
-340.348	-35.465	0.168	0.092
-339.333	126.761	-0.065	-0.082
-338.318	800.000	0.030	-0.119
-337.304	297.365	0.086	-0.160
-336.289	800.000	-0.102	-0.296
-335.275	-96.330	0.113	-0.030
-334.260	558.320	-0.047	0.115
-333.245	77.574	-0.236	-0.253
-332.231	-25.463	0.290	0.173
-331.216	-200.000	0.021	-0.110
-330.202	-68.825	0.184	-0.071
-329.187	-21.177	0.245	0.151
-328.172	-200.000	0.008	0.143
-327.158	-200.000	0.002	-0.183
-326.143	800.000	0.091	-0.297
-325.129	-200.000	-0.012	-0.084
-324.114	7.273	-0.069	0.052
-323.099	212.373	-0.086	-0.136
-322.085	-200.000	0.057	-0.292
-321.070	-75.388	0.186	0.067
-320.056	-62.615	-0.297	-0.124
-319.041	-200.000	-0.014	0.295
-318.026	-44.606	-0.278	0.140
-317.012	395.483	0.144	-0.302
-315.997	-156.861	-0.132	-0.008
-314.983	-200.000	0.020	-0.187
-313.968	29.577	0.299	0.256
-312.953	164.073	-0.048	-0.069
-311.939	76.073	0.102	0.108
-310.924	-178.193	0.089	0.002
-309.910	71.897	0.145	0.152
-308.895	-200.000	0.005	-0.124
-307.880	-59.285	0.210	-0.091
-306.866	413.147	0.051	-0.110
-305.851	-83.028	-0.018	0.006
-304.837	-200.000	0.022	-0.161
-303.822	-134.640	0.063	-0.008
-302.807	67.730	-0.148	0.152
-301.793	-130.279	-0.266	0.036
-300.778	93.315	-0.085	-0.097
-299.764	-130.715	-0.193	0.026
-298.749	-177.218	-0.245	0.006
-297.735	267.961	0.275	-0.484
-296.720	-158.144	0.056	0.003
-295.705	57.072	-0.196	-0.192
-294.691	-42.979	0.325	-0.166
-293.676	-62.990	-0.283	-0.118
-292.662	-193.405	0.132	-0.001
-291.647	36.197	0.094	-0.083
-290.632	-200.000	-0.036	0.208
-289.618	-96.552	0.222	0.059
-288.603	187.933	0.150	-0.225
-287.589	765.056	0.094	0.257
-286.574	2.917	0.101	0.074
-285.559	-200.000	0.006	0.189
-284.545	-129.921	0.365	0.050
-283.530	-200.000	-0.077	0.497
-282.516	284.463	-0.111	0.201
-281.501	127.377	-0.098	0.124
-280.486	246.043	-0.083	0.140
-279.472	-184.117	-0.185	-0.003
-278.457	-200.000	0.015	-0.155
-277.443	-128.765	-0.087	-0.012
-276.428	800.000	0.054	0.168
-275.413	23.452	-0.102	-0.084
-274.399	-200.000	0.016	0.197
-273.384	-58.691	0.119	0.052
-272.370	381.038	-0.053	0.110
-271.355	6.287	0.191	0.143
-270.340	15.092	0.163	-0.128
-269.326	-166.414	-0.222	0.009
-268.311	-200.000	-0.010	-0.267
-267.297	117.214	0.105	0.129
-266.282	-164.368	-0.112	-0.005
-265.267	367.513	-0.079	-0.161
-264.253	197.245	-0.150	0.229
-263.238	83.492	-0.138	-0.151
-262.224	446.495	0.104	-0.230
-261.209	-200.000	0.040	0.178
-260.195	-140.434	-0.163	0.017
-259.180	32.023	-0.078	-0.068
-258.165	-200.000	0.014	0.428
-257.151	372.097	0.062	0.127
-256.136	-200.000	-0.004	0.220
-255.122	-95.728	0.253	0.068
-254.107	-35.067	0.166	-0.091
-253.092	800.000	-0.027	0.111
-252.078	-200.000	-0.016	0.190
-251.063	213.242	-0.173	0.275
-250.049	73.766	-0.149	-0.157
-249.034	54.090	0.218	-0.210
-248.019	800.000	-0.155	-0.465
-247.005	-174.579	-0.149	-0.004
-245.990	-200.000	0.000	0.170
-244.976	428.567	0.102	0.221
-243.961	-155.472	0.113	0.007
-242.946	-200.000	-0.016	0.078
-241.932	-200.000	-0.043	0.254
-240.917	-62.026	-0.120	-0.050
-239.903	-120.950	-0.169	0.029
-238.888	-7.056	0.099	-0.067
-237.873	51.924	0.320	0.306
-236.859	-51.683	-0.322	0.150
-235.844	800.000	-0.048	0.161
-234.830	122.718	0.004	0.005
-233.815	225.552	0.166	0.270
-232.800	652.663	0.083	-0.214
-231.786	-62.671	0.083	0.034
-230.771	-83.941	0.206	0.066
-229.757	800.000	-0.031	-0.104
-228.742	323.703	0.082	0.156
-227.727	-19.419	0.300	-0.187
-226.713	-28.149	0.168	0.097
-225.698	32.099	0.206	0.178
-224.684	-114.331	-0.232	-0.045
-223.669	-200.000	-0.013	-0.291
-222.655	-200.000	0.032	-0.164
-221.640	800.000	0.016	0.049
-220.625	-102.232	0.176	0.042
-219.611	800.000	-0.040	0.171
-218.596	75.019	-0.084	-0.089
-217.582	19.985	0.141	-0.114
-216.567	145.874	-0.127	0.171
-215.552	-200.000	0.085	0.503
-214.538	161.963	0.264	-0.370
-213.523	-160.028	-0.229	0.012
-212.509	-37.913	-0.318	-0.169
-211.494	-200.000	0.012	-0.353
-210.479	154.463	0.054	0.074
-209.465	-43.026	0.210	0.107
-208.450	13.031	-0.207	0.161
-207.436	34.220	-0.240	-0.210
-206.421	-112.595	-0.137	-0.027
-205.406	-43.982	0.108	-0.055
-204.392	-84.501	0.248	-0.078
-203.377	164.208	-0.190	-0.268
-202.363	50.398	-0.056	-0.053
-201.348	120.110	-0.367	-0.456
-200.333	66.510	-0.124	0.126
-199.319	800.000	-0.069	0.201
-198.304	-106.431	0.240	0.054
-197.290	247.575	0.157	0.266
-196.275	-106.819	0.107	-0.024
-195.260	553.160	-0.064	-0.154
-194.246	117.084	-0.180	0.221
-193.231	299.695	0.073	-0.134
-192.217	-200.000	0.020	0.257
-191.202	370.299	0.074	0.151
-190.187	-200.000	0.014	0.124
-189.173	-47.540	-0.060	0.029
-188.158	-200.000	-0.014	0.156
-187.144	31.378	0.150	0.129
-186.129	23.982	0.171	0.141
-185.114	800.000	-0.017	-0.056
-184.100	-69.192	-0.254	-0.098
-183.085	225.454	-0.122	-0.198
-182.071	-200.000	-0.068	-0.443
-181.056	413.412	-0.099	0.211
-180.042	204.647	-0.112	0.173
-179.027	-128.690	-0.180	-0.025
-178.012	-1.569	-0.335	-0.237
-176.998	340.758	-0.021	-0.040
-175.983	-200.000	0.039	0.184
-174.969	-66.262	-0.231	0.092
-173.954	-1.831	-0.404	-0.285
-172.939	-200.000	0.030	-0.266
-171.925	27.226	0.276	0.232
-170.910	292.879	0.084	-0.152
-169.896	800.000	0.051	0.202
-168.881	8.086	-0.254	-0.191
-167.866	800.000	0.097	-0.341
-166.852	-200.000	0.030	0.535
-165.837	800.000	0.089	0.258
-164.823	-27.320	-0.142	-0.082
-163.808	-171.630	-0.144	0.005
-162.793	-121.925	-0.115	0.019
-161.779	156.770	0.078	0.108
-160.764	459.013	0.088	-0.195
-159.750	800.000	-0.032	-0.138
-158.735	-63.151	-0.254	0.105
-157.720	-115.113	0.152	-0.029
-156.706	-57.374	0.132	-0.058
-155.691	-200.000	0.021	0.222
-154.677	800.000	0.077	0.265
-153.662	276.055	0.184	0.326
-152.647	15.954	0.163	0.128
-151.633	233.240	-0.117	-0.192
-150.618	800.000	-0.088	0.292
-149.604	-12.621	0.117	-0.076
-148.589	67.911	-0.111	0.113
-147.574	-38.381	-0.400	-0.212
-146.560	12.923	-0.177	0.137
-145.545	-200.000	-0.002	-0.047
-144.531	-117.294	0.369	0.067
-143.516	-200.000	0.039	-0.250
-142.502	133.363	0.169	-0.219
-141.487	627.876	-0.090	0.227
-140.472	-200.000	0.014	-0.322
-139.458	-60.039	-0.160	0.068
-138.443	-87.457	-0.350	-0.106
-137.429	-129.989	-0.103	0.014
-136.414	-158.833	-0.266	0.015
-135.399	-200.000	0.007	0.088
-134.385	800.000	0.028	0.124
-133.370	800.000	0.016	-0.051
-132.356	617.914	-0.070	-0.176
-131.341	-110.126	0.132	-0.028
-130.326	-119.018	0.164	0.029
-129.312	-42.164	-0.107	0.055
-128.297	-104.902	-0.210	0.048
-127.283	-50.915	0.348	0.163
-126.268	222.542	0.177	0.284
-125.253	-200.000	-0.062	0.421
-124.239	-77.503	0.239	-0.083
-123.224	800.000	-0.081	-0.246
-122.210	-200.000	0.009	-0.059
