DTS Sentinel unit serial number:	SN413079Multiplexer serial number:	ORYXHardware model number:	OX4-SRSoftware version number:	ORYX F/W v4.00 Oryx Data Collector v3.7.2.0data status	okinstallation	princeton_trtdifferential loss correction	single-endedforward channel	channel 4reverse channel	N/Adate	2019/09/13time	07:45:35forward acquisition time	60.00reverse acquisition time	0.00gamma	496.2192k internal	0.2321k external	0.2321temperature offset calibration	1.0196default loss term (dB/km)	0.3790temperature slope calibration	1.0000multiplexer offset coefficient	1.0000multiplexer slope coefficient	1.0000fibre end	0.00T internal ref (°C)	26.50T ext. ref 1 (°C)	4.22T ext. ref 2 (°C)	22.75length (m)	temperature (°C)	Stokes	anti-Stokes-747.200	-93.336	-0.545	-0.153
-746.185	-200.000	0.030	-0.296
-745.171	-200.000	-0.035	0.172
-744.156	-91.501	-0.121	-0.035
-743.142	-158.977	0.010	0.001
-742.127	-107.060	0.091	0.020
-741.112	202.598	-0.349	0.545
-740.098	196.325	-0.092	-0.142
-739.083	-200.000	0.002	-0.017
-738.069	800.000	0.022	0.069
-737.054	248.768	0.101	-0.173
-736.039	284.624	-0.209	0.381
-735.025	-105.188	0.217	0.050
-734.010	-103.784	-0.085	0.020
-732.996	-200.000	-0.035	-0.196
-731.981	11.015	-0.264	-0.204
-730.966	-41.836	-0.372	0.193
-729.952	215.739	-0.295	-0.473
-728.937	-200.000	0.060	-0.450
-727.923	-101.412	-0.230	0.057
-726.908	-65.913	-0.246	-0.099
-725.894	-31.070	0.078	0.044
-724.879	-127.771	-0.423	0.062
-723.864	-73.114	0.171	-0.063
-722.850	-200.000	0.038	-0.223
-721.835	-200.000	0.029	0.153
-720.821	-145.336	-0.073	-0.007
-719.806	-200.000	0.047	0.287
-718.791	-115.295	-0.086	0.016
-717.777	21.829	-0.156	-0.129
-716.762	-40.845	-0.167	-0.087
-715.748	-25.699	-0.172	0.102
-714.733	686.286	-0.069	0.183
-713.718	-65.784	-0.423	0.171
-712.704	158.921	0.099	0.139
-711.689	413.839	0.088	0.188
-710.675	-200.000	0.022	-0.141
-709.660	800.000	0.050	-0.170
-708.645	800.000	-0.027	0.112
-707.631	230.831	0.020	-0.034
-706.616	-156.623	-0.323	0.020
-705.602	-200.000	0.015	-0.319
-704.587	22.918	0.097	-0.080
-703.572	-136.943	-0.228	0.026
-702.558	56.636	0.136	0.134
-701.543	800.000	0.076	0.302
-700.529	-40.844	-0.264	-0.138
-699.514	-126.861	-0.335	0.050
-698.499	280.694	-0.057	-0.104
-697.485	-105.046	-0.322	-0.074
-696.470	-74.295	0.518	0.189
-695.456	7.751	0.245	0.185
-694.441	-55.901	-0.343	-0.155
-693.426	-46.391	-0.136	-0.067
-692.412	-33.758	0.078	0.044
-691.397	124.547	0.183	0.232
-690.383	132.806	-0.186	-0.242
-689.368	485.714	-0.117	-0.268
-688.354	-66.200	-0.271	0.109
-687.339	163.506	0.176	0.250
-686.324	128.936	-0.146	-0.188
-685.310	191.767	-0.199	0.302
-684.295	83.268	0.251	0.275
-683.281	-148.361	0.110	0.009
-682.266	-22.259	0.099	-0.061
-681.251	-200.000	0.031	-0.193
-680.237	800.000	0.076	0.272
-679.222	82.972	0.035	0.039
-678.208	353.274	-0.067	0.133
-677.193	-200.000	0.041	-0.215
-676.178	248.010	0.117	0.199
-675.164	180.229	0.055	0.081
-674.149	510.244	-0.053	-0.124
-673.135	355.211	0.096	-0.193
-672.120	-200.000	0.003	-0.376
-671.105	561.665	0.027	-0.065
-670.091	-200.000	0.029	0.333
-669.076	800.000	-0.016	0.052
-668.062	0.048	0.123	-0.089
-667.047	293.077	-0.135	0.247
-666.032	-20.703	-0.211	0.130
-665.018	34.133	0.183	-0.161
-664.003	-168.548	-0.177	0.007
-662.989	-119.633	0.205	0.036
-661.974	-7.451	0.209	0.143
-660.959	-21.071	0.077	0.047
-659.945	-12.084	0.299	0.197
-658.930	44.770	-0.174	-0.161
-657.916	-59.617	-0.209	-0.090
-656.901	-142.406	-0.293	0.029
-655.886	652.988	0.088	0.228
-654.872	179.535	-0.116	0.171
-653.857	-200.000	-0.024	-0.184
-652.843	-6.573	0.134	-0.092
-651.828	4.992	0.125	0.092
-650.814	68.173	-0.269	0.277
-649.799	-67.077	0.368	0.146
-648.784	-40.765	-0.223	-0.116
-647.770	800.000	-0.114	-0.324
-646.755	-118.929	0.082	-0.014
-645.741	-172.583	0.108	-0.003
-644.726	-73.427	-0.359	0.132
-643.711	-200.000	-0.010	-0.116
-642.697	212.620	-0.055	-0.087
-641.682	-15.071	0.265	-0.171
-640.668	-93.866	0.337	-0.093
-639.653	-200.000	0.012	0.169
-638.638	8.684	0.222	0.168
-637.624	105.712	-0.138	0.164
-636.609	462.169	-0.131	0.293
-635.595	672.946	0.116	0.302
-634.580	717.271	0.109	0.292
-633.565	34.977	0.167	0.147
-632.551	-59.332	-0.481	-0.208
-631.536	800.000	0.138	-0.446
-630.522	-23.647	-0.324	-0.196
-629.507	-143.857	-0.053	0.005
-628.492	107.652	0.071	0.085
-627.478	-77.995	-0.347	-0.120
-626.463	131.625	-0.208	0.269
-625.449	-200.000	0.042	0.231
-624.434	-81.727	0.163	-0.054
-623.419	-200.000	-0.004	-0.113
-622.405	-35.295	-0.165	0.090
-621.390	-200.000	0.003	0.217
-620.376	800.000	-0.110	0.328
-619.361	-200.000	0.033	0.162
-618.346	-99.864	0.261	-0.066
-617.332	426.540	0.070	0.151
-616.317	800.000	0.037	-0.143
-615.303	800.000	0.032	-0.126
-614.288	80.866	-0.065	-0.071
-613.273	-200.000	-0.056	0.000
-612.259	-126.936	-0.275	-0.041
-611.244	-168.981	0.158	-0.006
-610.230	-47.333	-0.315	0.154
-609.215	-104.462	-0.263	-0.061
-608.201	10.861	0.179	-0.137
-607.186	435.260	-0.075	0.164
-606.171	150.565	-0.173	0.236
-605.157	-25.674	-0.185	0.110
-604.142	-64.982	-0.361	-0.146
-603.128	-47.067	-0.160	0.079
-602.113	11.646	-0.157	0.121
-601.098	-25.451	-0.088	-0.052
-600.084	-20.909	0.360	0.222
-599.069	-200.000	-0.011	0.053
-598.055	305.068	-0.204	-0.380
-597.040	96.794	-0.056	-0.064
-596.025	-15.675	-0.099	0.064
-595.011	422.598	0.211	-0.455
-593.996	-200.000	-0.028	-0.185
-592.982	-14.386	-0.184	-0.119
-591.967	242.962	-0.155	0.260
-590.952	-33.466	-0.084	-0.047
-589.938	-45.913	-0.247	0.123
-588.923	800.000	-0.053	0.152
-587.909	-183.631	0.220	0.004
-586.894	-200.000	0.002	-0.121
-585.879	90.863	0.089	-0.101
-584.865	-17.581	0.450	-0.284
-583.850	231.414	0.171	-0.282
-582.836	440.724	0.066	-0.145
-581.821	-161.963	0.192	0.010
-580.806	158.829	-0.187	-0.261
-579.792	71.979	0.268	-0.280
-578.777	254.745	-0.061	-0.105
-577.763	63.844	-0.134	-0.135
-576.748	-200.000	-0.027	-0.260
-575.733	200.060	0.014	0.022
-574.719	-72.066	0.137	-0.051
-573.704	78.573	-0.112	-0.120
-572.690	-200.000	-0.006	-0.323
-571.675	231.292	-0.056	-0.093
-570.661	-198.272	0.202	0.001
-569.646	-167.296	-0.284	-0.011
-568.631	-200.000	0.032	0.415
-567.617	-141.450	0.061	0.006
-566.602	-73.475	-0.148	-0.054
-565.588	485.056	-0.104	-0.238
-564.573	27.713	0.191	0.162
-563.558	72.382	0.229	-0.240
-562.544	-144.695	0.169	-0.016
-561.529	-200.000	-0.020	0.120
-560.515	-77.661	-0.286	-0.099
-559.500	-110.858	0.106	-0.022
-558.485	-155.476	-0.399	-0.026
-557.471	-18.073	-0.132	0.083
-556.456	-200.000	0.005	0.039
-555.442	108.478	-0.115	0.138
-554.427	-200.000	0.008	0.078
-553.412	-83.750	0.428	-0.137
-552.398	89.782	0.054	-0.060
-551.383	-61.144	-0.231	-0.098
-550.369	113.228	0.128	0.156
-549.354	-15.841	0.147	0.094
-548.339	55.461	-0.154	-0.149
-547.325	214.179	0.096	0.152
-546.310	-159.641	-0.035	-0.002
-545.296	-94.829	-0.179	-0.049
-544.281	-26.036	-0.242	0.142
-543.266	597.450	-0.051	0.126
-542.252	177.075	-0.126	-0.184
-541.237	800.000	-0.009	0.026
-540.223	-17.780	-0.303	-0.191
-539.208	181.221	-0.125	-0.184
-538.193	435.078	-0.058	-0.126
-537.179	-109.454	0.206	-0.044
-536.164	581.581	0.102	0.252
-535.150	-28.235	-0.329	-0.190
-534.135	-66.752	-0.216	-0.086
-533.121	-200.000	0.022	-0.262
-532.106	-89.769	-0.192	-0.056
-531.091	14.660	0.255	0.200
-530.077	-136.954	-0.275	0.032
-529.062	800.000	-0.043	-0.187
-528.048	42.436	0.095	-0.086
-527.033	-109.352	-0.274	0.058
-526.018	-60.065	-0.118	0.050
-525.004	-166.773	-0.199	0.008
-523.989	-41.359	0.196	-0.101
-522.975	-165.046	0.335	-0.015
-521.960	-87.170	-0.468	-0.143
-520.945	-138.020	-0.102	-0.011
-519.931	512.400	-0.081	0.190
-518.916	368.871	0.130	-0.262
-517.902	-108.378	0.260	0.056
-516.887	-154.794	-0.259	0.017
-515.872	-200.000	-0.007	0.038
-514.858	-35.483	0.159	0.087
-513.843	-97.601	-0.408	0.106
-512.829	194.368	0.171	0.259
-511.814	139.567	0.116	0.153
-510.799	-42.489	0.208	0.106
-509.785	37.650	-0.097	0.086
-508.770	96.594	-0.133	-0.152
-507.756	-200.000	-0.018	0.081
-506.741	358.417	-0.042	0.085
-505.726	-130.378	-0.295	-0.040
-504.712	-145.773	-0.082	0.007
-503.697	-17.436	-0.155	0.098
-502.683	-193.361	0.468	0.004
-501.668	352.687	-0.007	-0.015
-500.653	-200.000	-0.013	-0.104
-499.639	-200.000	0.057	-0.338
-498.624	-97.251	0.134	0.035
-497.610	-107.596	0.220	0.048
-496.595	-115.007	0.293	-0.056
-495.581	225.559	0.072	0.117
-494.566	-18.415	0.200	0.125
-493.551	-200.000	0.005	0.247
-492.537	800.000	-0.056	0.229
-491.522	112.318	0.058	-0.070
-490.508	469.649	0.059	0.132
-489.493	-200.000	-0.029	-0.190
-488.478	-30.276	0.165	-0.094
-487.464	800.000	-0.034	0.138
-486.449	614.662	-0.137	-0.343
-485.435	11.877	0.139	0.107
-484.420	105.089	-0.142	0.167
-483.405	-179.746	-0.371	0.008
-482.391	-175.577	0.287	-0.008
-481.376	83.642	-0.196	-0.213
-480.362	7.562	-0.290	0.217
-479.347	280.370	-0.013	0.022
-478.332	-111.650	-0.215	-0.044
-477.318	-200.000	-0.022	-0.159
-476.303	164.879	-0.114	-0.161
-475.289	61.646	-0.079	0.078
-474.274	-2.764	0.184	0.129
-473.259	19.154	0.278	-0.223
-472.245	147.943	0.244	-0.330
-471.230	-68.340	-0.177	-0.069
-470.216	219.159	-0.029	-0.046
-469.201	-123.460	0.317	0.050
-468.186	786.413	-0.076	-0.209
-467.172	-154.315	-0.569	0.038
-466.157	-103.253	0.181	-0.043
-465.143	-7.654	0.118	0.080
-464.128	-117.032	-0.116	0.021
-463.113	-73.846	0.117	-0.042
-462.099	800.000	-0.073	-0.253
-461.084	-75.260	0.376	0.134
-460.070	-147.656	-0.077	0.006
-459.055	800.000	0.061	-0.199
-458.040	-200.000	0.005	-0.209
-457.026	218.871	-0.125	-0.200
-456.011	166.771	-0.071	-0.100
-454.997	-94.136	0.154	0.042
-453.982	426.786	-0.094	-0.202
-452.968	-139.909	0.344	-0.036
-451.953	9.469	-0.122	-0.093
-450.938	-15.527	-0.142	-0.091
-449.924	-46.634	0.261	0.128
-448.909	141.682	-0.300	0.397
-447.895	-119.700	-0.042	0.007
-446.880	-57.902	-0.073	0.032
-445.865	-103.005	0.322	0.076
-444.851	107.018	0.181	-0.215
-443.836	800.000	-0.062	-0.210
-442.822	-200.000	-0.036	-0.222
-441.807	42.513	0.237	0.216
-440.792	-200.000	0.031	0.320
-439.778	135.972	0.105	-0.136
-438.763	307.773	0.149	-0.277
-437.749	51.310	0.226	0.214
-436.734	-98.334	-0.240	-0.061
-435.719	800.000	0.051	-0.156
-434.705	-136.621	-0.265	-0.031
-433.690	-200.000	0.106	0.000
-432.676	-200.000	0.021	0.158
-431.661	-97.570	0.318	-0.082
-430.646	-200.000	-0.014	-0.284
-429.632	219.711	0.181	0.289
-428.617	93.318	-0.176	0.199
-427.603	365.359	0.030	0.060
-426.588	72.806	-0.048	-0.050
-425.573	41.779	-0.135	-0.122
-424.559	-128.557	0.573	0.081
-423.544	-76.667	-0.239	0.084
-422.530	74.312	-0.223	-0.233
-421.515	94.034	-0.182	0.207
-420.500	-78.940	0.212	0.072
-419.486	-41.197	-0.240	0.123
-418.471	-97.904	-0.141	-0.036
-417.457	-200.000	-0.033	-0.204
-416.442	-109.568	-0.107	-0.023
-415.428	-37.477	0.152	0.081
-414.413	12.804	0.126	0.097
-413.398	-171.830	0.257	-0.008
-412.384	284.953	0.075	0.135
-411.369	800.000	-0.028	-0.119
-410.355	-40.116	-0.325	0.169
-409.340	-200.000	0.036	0.191
-408.325	800.000	-0.066	-0.203
-407.311	0.401	-0.185	0.132
-406.296	-110.246	0.271	0.056
-405.282	134.792	-0.215	0.279
-404.267	-5.838	0.223	0.153
-403.252	-30.725	-0.093	0.053
-402.238	-101.914	0.114	0.027
-401.223	-26.894	0.132	-0.077
-400.209	-200.000	0.002	0.032
-399.194	800.000	-0.057	-0.225
-398.179	38.503	-0.095	0.085
-397.165	800.000	-0.035	-0.124
-396.150	74.885	0.141	0.148
-395.136	147.016	-0.107	0.144
-394.121	-200.000	-0.066	-0.355
-393.106	800.000	0.082	0.284
-392.092	69.456	-0.230	-0.236
-391.077	-152.056	0.066	-0.005
-390.063	-128.895	0.122	-0.017
-389.048	-200.000	0.093	0.000
-388.033	62.247	0.401	0.399
-387.019	145.840	-0.059	-0.079
-386.004	6.021	-0.126	-0.093
-384.990	-145.135	0.132	0.012
-383.975	491.699	0.107	0.243
-382.960	-96.157	-0.285	-0.075
-381.946	247.713	-0.055	-0.092
-380.931	-200.000	-0.009	0.120
-379.917	146.585	-0.030	0.041
-378.902	312.041	-0.108	0.202
-377.888	267.243	0.035	-0.060
-376.873	-179.122	-0.156	-0.003
-375.858	-200.000	0.010	0.104
-374.844	800.000	0.065	0.274
-373.829	-81.943	0.250	-0.081
-372.815	94.500	-0.168	-0.190
-371.800	-200.000	-0.038	0.344
-370.785	-107.227	0.244	-0.054
-369.771	22.806	0.378	-0.308
-368.756	80.091	0.173	-0.185
-367.742	380.116	0.103	-0.211
-366.727	800.000	0.028	0.088
-365.712	-6.960	-0.234	0.158
-364.698	-37.671	0.191	0.101
-363.683	76.942	-0.258	-0.273
-362.669	-200.000	-0.022	-0.240
-361.654	520.001	-0.068	-0.158
-360.639	800.000	-0.069	0.280
-359.625	29.018	0.211	0.178
-358.610	-83.073	0.329	0.106
-357.596	-102.938	-0.177	-0.042
-356.581	-200.000	0.006	-0.046
-355.566	-200.000	0.020	-0.277
-354.552	-200.000	-0.006	-0.034
-353.537	-128.330	-0.187	0.027
-352.523	800.000	-0.065	0.218
-351.508	-136.963	0.446	0.051
-350.493	158.095	-0.204	-0.281
-349.479	-89.692	0.120	0.035
-348.464	-81.582	-0.343	-0.112
-347.450	800.000	-0.070	-0.300
-346.435	-200.000	-0.029	-0.180
-345.420	214.130	-0.150	-0.236
-344.406	-143.538	0.256	-0.024
-343.391	-8.838	-0.192	0.128
-342.377	-61.788	0.354	-0.148
-341.362	320.508	0.059	-0.112
-340.348	28.402	0.093	-0.079
-339.333	99.008	0.133	0.153
-338.318	800.000	-0.069	0.234
-337.304	-60.523	-0.173	-0.073
-336.289	87.287	0.083	-0.091
-335.275	-156.173	0.194	0.012
-334.260	-26.091	-0.149	0.087
-333.245	-200.000	0.003	-0.284
-332.231	301.194	-0.164	-0.302
-331.216	15.863	-0.071	-0.055
-330.202	550.500	-0.121	0.289
-329.187	173.019	-0.063	-0.090
-328.172	-81.092	-0.222	-0.073
-327.158	169.484	0.057	0.081
-326.143	92.355	0.204	-0.228
-325.129	800.000	0.042	0.123
-324.114	-200.000	0.077	0.356
-323.099	-60.664	-0.114	0.048
-322.085	-107.380	0.162	0.035
-321.070	-66.193	0.276	-0.109
-320.056	185.183	0.116	0.172
-319.041	224.634	-0.025	-0.040
-318.026	-19.242	-0.203	0.125
-317.012	55.234	0.155	0.149
-315.997	-200.000	0.036	-0.230
-314.983	-79.317	-0.208	-0.070
-313.968	316.775	-0.090	0.169
-312.953	177.567	-0.206	0.298
-311.939	206.714	-0.060	0.094
-310.924	-53.994	-0.080	0.036
-309.910	-143.681	-0.350	-0.033
-308.895	16.789	-0.251	-0.197
-307.880	3.051	-0.069	0.050
-306.866	96.131	-0.186	0.211
-305.851	-54.949	0.172	-0.077
-304.837	116.906	-0.080	0.098
-303.822	-200.000	-0.003	0.190
-302.807	487.665	-0.024	0.054
-301.793	201.748	0.113	-0.173
-300.778	-162.477	-0.214	0.011
-299.764	-136.975	-0.031	-0.003
-298.749	7.043	0.082	0.061
-297.735	5.081	0.159	0.116
-296.720	606.334	0.152	0.376
-295.705	-133.726	0.057	0.007
-294.691	-200.000	0.072	0.526
-293.676	-77.619	0.238	0.082
-292.662	800.000	-0.102	-0.421
-291.647	32.498	-0.023	0.020
-290.632	73.684	0.241	-0.251
-289.618	229.661	-0.194	-0.314
-288.603	120.047	0.115	-0.142
-287.589	-67.141	0.427	-0.167
-286.574	540.682	-0.147	-0.348
-285.559	55.252	0.075	0.072
-284.545	-124.787	-0.149	0.023
-283.530	152.476	-0.169	0.229
-282.516	-200.000	-0.025	0.188
-281.501	-101.728	-0.217	-0.052
-280.486	-89.211	-0.217	-0.064
-279.472	-163.081	0.153	0.007
-278.457	-149.149	-0.256	0.020
-277.443	314.107	0.102	-0.191
-276.428	-200.000	-0.025	-0.142
-275.413	259.733	0.199	0.341
-274.399	-200.000	0.002	-0.079
-273.384	43.685	-0.124	-0.112
-272.370	407.798	0.131	-0.274
-271.355	-200.000	-0.015	0.298
-270.340	106.296	0.228	0.268
-269.326	-200.000	-0.005	0.511
-268.311	-200.000	0.015	0.090
-267.297	-25.533	-0.122	0.072
-266.282	6.952	-0.502	-0.371
-265.267	268.053	0.118	-0.204
-264.253	213.180	-0.056	0.088
-263.238	-140.986	0.047	0.005
-262.224	63.942	0.084	0.084
-261.209	193.878	-0.178	-0.267
-260.195	-6.588	-0.284	0.192
-259.180	25.758	-0.158	0.130
-258.165	-200.000	-0.003	0.200
-257.151	167.457	0.174	-0.245
-256.136	347.734	0.071	0.139
-255.122	737.963	-0.020	-0.054
-254.107	84.133	-0.138	0.150
-253.092	-73.079	-0.131	0.048
-252.078	499.484	-0.056	-0.129
-251.063	-170.823	-0.225	0.008
-250.049	-16.284	0.232	-0.146
-249.034	180.596	-0.041	-0.060
-248.019	-15.347	-0.307	-0.194
-247.005	-1.756	0.054	-0.038
-245.990	-63.806	-0.196	-0.080
-244.976	439.933	-0.052	0.113
-243.961	-200.000	-0.020	0.159
-242.946	800.000	0.009	-0.039
-241.932	-100.764	0.203	-0.050
-240.917	-200.000	-0.009	-0.252
-239.903	80.538	-0.169	-0.180
-238.888	-192.640	0.186	-0.002
-237.873	-150.771	-0.302	-0.023
-236.859	-93.961	0.214	-0.058
-235.844	-101.341	0.281	0.068
-234.830	422.332	0.090	0.192
-233.815	-118.664	-0.049	0.009
-232.800	359.189	0.075	-0.148
-231.786	-89.857	0.139	0.040
-230.771	49.048	0.201	-0.187
-229.757	-173.255	0.167	-0.005
-228.742	91.360	-0.140	0.156
-227.727	-103.683	0.110	0.026
-226.713	448.401	0.100	0.218
-225.698	-60.296	0.252	-0.106
-224.684	-79.346	0.220	-0.074
-223.669	17.620	0.241	0.190
-222.655	-70.224	-0.126	-0.047
-221.640	-73.279	-0.088	0.032
-220.625	-147.632	-0.092	-0.008
-219.611	-200.000	-0.023	-0.128
-218.596	-20.931	0.110	-0.067
-217.582	-137.742	-0.231	0.026
-216.567	261.462	-0.127	-0.218
-215.552	-63.697	0.174	-0.071
-214.538	-200.000	-0.045	0.584
-213.523	-88.919	0.266	0.078
-212.509	221.563	-0.133	0.211
-211.494	800.000	0.044	-0.172
-210.479	-89.700	0.384	-0.111
-209.465	-66.840	-0.349	-0.136
-208.450	-126.050	0.241	-0.036
-207.436	-99.176	0.242	-0.061
-206.421	-70.191	0.364	0.137
-205.406	368.252	-0.072	0.144
-204.392	800.000	-0.073	0.288
-203.377	-200.000	-0.048	0.241
-202.363	43.974	0.105	-0.096
-201.348	50.959	0.116	0.109
-200.333	36.445	-0.185	-0.162
-199.319	375.526	0.094	-0.190
-198.304	-200.000	0.020	-0.254
-197.290	800.000	-0.067	0.266
-196.275	243.730	-0.063	-0.104
-195.260	800.000	0.060	-0.237
-194.246	-66.093	-0.217	0.086
-193.231	-200.000	0.071	0.498
-192.217	-200.000	0.014	-0.234
-191.202	-200.000	-0.007	0.220
-190.187	-200.000	0.006	-0.188
-189.173	-121.942	0.317	0.052
-188.158	154.411	0.088	0.119
-187.144	357.997	-0.045	0.088
-186.129	298.960	-0.242	0.441
-185.114	136.519	0.136	-0.175
-184.100	110.606	0.016	-0.018
-183.085	150.105	0.393	0.527
-182.071	-65.489	0.226	-0.090
-181.056	677.576	0.020	0.051
-180.042	-145.350	-0.182	-0.016
-179.027	-145.983	0.258	0.023
-178.012	-29.622	0.047	-0.027
-176.998	-200.000	-0.066	0.387
-175.983	102.824	0.135	-0.156
-174.969	-100.165	0.333	0.082
-173.954	800.000	-0.023	0.077
-172.939	-200.000	0.026	-0.281
-171.925	155.268	-0.195	-0.265
-170.910	-154.035	0.084	-0.006
-169.896	367.505	-0.107	-0.213
-168.881	-104.066	0.061	0.014
-167.866	-0.473	-0.171	-0.120
-166.852	-119.219	-0.013	-0.002
-165.837	-200.000	0.036	0.268
-164.823	-125.764	0.320	0.048
-163.808	-200.000	0.012	0.284
-162.793	189.957	0.160	-0.237
-161.779	-27.392	0.036	-0.021
-160.764	342.278	0.108	0.210
-159.750	-200.000	-0.016	0.294
-158.735	-200.000	-0.034	0.224
-157.720	230.271	0.144	-0.232
-156.706	800.000	-0.032	0.128
-155.691	118.364	-0.218	0.265
-154.677	-173.310	0.213	-0.006
-153.662	-132.100	-0.371	-0.048
-152.647	800.000	-0.040	0.167
-151.633	-80.521	-0.034	-0.011
-150.618	800.000	-0.063	-0.230
-149.604	583.781	0.044	0.106
-148.589	800.000	0.026	0.087
-147.574	624.385	-0.168	-0.419
-146.560	-56.593	0.224	0.098
-145.545	-110.047	0.240	0.050
-144.531	25.349	-0.109	0.089
-143.516	800.000	0.082	-0.229
-142.502	-101.576	0.215	0.052
-141.487	-149.363	0.443	-0.035
-140.472	-105.321	-0.124	-0.028
-139.458	-29.150	0.134	0.076
-138.443	-33.472	-0.294	0.161
-137.429	-200.000	-0.002	-0.126
-136.414	-146.300	0.220	-0.019
-135.399	286.197	0.120	0.213
-134.385	-64.500	-0.051	-0.020
-133.370	-85.286	0.298	0.092
-132.356	-76.891	0.048	0.016
-131.341	-81.742	0.268	0.087
-130.326	-110.875	0.143	0.029
-129.312	-23.363	-0.137	-0.081
-128.297	800.000	-0.063	0.262
-127.283	40.465	-0.183	-0.163
-126.268	-63.446	-0.261	0.106
-125.253	800.000	-0.073	-0.306
-124.239	-200.000	0.014	0.312
-123.224	800.000	0.042	-0.116
-122.210	518.924	-0.074	0.171
