DTS Sentinel unit serial number:	SN413079Multiplexer serial number:	ORYXHardware model number:	OX4-SRSoftware version number:	ORYX F/W v4.00 Oryx Data Collector v3.7.2.0data status	okinstallation	princeton_trtdifferential loss correction	single-endedforward channel	channel 4reverse channel	N/Adate	2019/09/15time	19:49:34forward acquisition time	60.00reverse acquisition time	0.00gamma	496.2192k internal	0.2306k external	0.2306temperature offset calibration	0.9928default loss term (dB/km)	0.3790temperature slope calibration	1.0000multiplexer offset coefficient	1.0000multiplexer slope coefficient	1.0000fibre end	0.00T internal ref (°C)	36.72T ext. ref 1 (°C)	7.46T ext. ref 2 (°C)	26.87length (m)	temperature (°C)	Stokes	anti-Stokes-747.200	-121.223	0.147	-0.025
-746.185	-151.332	0.358	-0.027
-745.171	27.665	0.221	0.189
-744.156	-35.872	-0.299	-0.165
-743.142	102.551	0.045	-0.054
-742.127	-200.000	-0.027	-0.207
-741.112	-200.000	0.039	-0.195
-740.098	-200.000	-0.016	-0.146
-739.083	800.000	-0.044	0.148
-738.069	129.340	-0.260	0.338
-737.054	-12.985	-0.195	-0.129
-736.039	-46.182	-0.219	0.109
-735.025	382.797	0.076	0.160
-734.010	-104.805	-0.293	-0.068
-732.996	260.347	-0.249	-0.437
-731.981	-157.945	0.110	0.007
-730.966	480.570	0.131	-0.302
-729.952	800.000	-0.045	-0.141
-728.937	225.603	0.127	-0.210
-727.923	380.695	-0.093	-0.194
-726.908	-200.000	-0.008	0.069
-725.894	316.498	0.158	-0.304
-724.879	-200.000	-0.017	-0.331
-723.864	57.222	0.168	0.167
-722.850	-200.000	0.010	-0.258
-721.835	127.902	-0.122	0.157
-720.821	19.868	0.255	-0.209
-719.806	-119.984	0.235	0.041
-718.791	167.040	-0.152	-0.219
-717.777	97.525	-0.150	-0.175
-716.762	-75.349	0.187	-0.068
-715.748	85.855	0.136	0.152
-714.733	-48.722	-0.128	0.062
-713.718	-166.196	-0.068	0.003
-712.704	-27.839	0.194	-0.114
-711.689	-200.000	-0.005	-0.113
-710.675	-64.988	0.199	-0.082
-709.660	-200.000	-0.053	-0.279
-708.645	800.000	-0.133	0.384
-707.631	-83.901	0.164	0.053
-706.616	-200.000	-0.044	-0.377
-705.602	800.000	-0.077	-0.223
-704.587	-93.900	-0.026	-0.007
-703.572	215.933	-0.122	-0.197
-702.558	126.770	0.136	-0.174
-701.543	-200.000	-0.013	0.180
-700.529	800.000	-0.074	-0.256
-699.514	800.000	-0.036	0.121
-698.499	-200.000	0.004	-0.307
-697.485	54.022	-0.114	0.111
-696.470	205.582	0.161	-0.253
-695.456	-97.204	0.183	0.049
-694.441	-200.000	0.001	-0.102
-693.426	800.000	-0.064	-0.240
-692.412	800.000	-0.047	-0.146
-691.397	-87.299	-0.213	0.065
-690.383	249.233	0.041	0.070
-689.368	-7.998	-0.184	-0.126
-688.354	-200.000	0.034	-0.182
-687.339	358.866	-0.082	-0.167
-686.324	213.295	0.060	-0.096
-685.310	-157.501	-0.182	0.011
-684.295	800.000	-0.103	-0.331
-683.281	800.000	0.047	-0.173
-682.266	-200.000	-0.035	-0.590
-681.251	97.957	0.135	-0.157
-680.237	263.132	0.091	0.160
-679.222	-157.908	0.068	0.004
-678.208	-94.739	0.396	-0.109
-677.193	53.485	-0.321	-0.313
-676.178	-200.000	0.011	-0.121
-675.164	147.880	0.222	-0.304
-674.149	-200.000	-0.057	-0.367
-673.135	-38.497	-0.157	-0.084
-672.120	66.392	-0.104	-0.107
-671.105	-183.560	0.257	-0.004
-670.091	-177.393	-0.266	-0.007
-669.076	226.391	0.063	0.103
-668.062	84.342	-0.150	-0.167
-667.047	234.305	-0.049	0.082
-666.032	497.475	0.104	-0.243
-665.018	664.962	0.089	0.233
-664.003	-200.000	-0.060	0.320
-662.989	38.209	0.122	0.111
-661.974	-75.862	0.149	0.054
-660.959	390.995	-0.102	-0.214
-659.945	-29.525	-0.095	0.055
-658.930	417.724	-0.046	-0.100
-657.916	366.475	-0.121	0.248
-656.901	321.548	-0.032	-0.061
-655.886	230.340	-0.084	-0.138
-654.872	-200.000	-0.009	0.280
-653.857	51.291	-0.208	0.200
-652.843	-95.661	-0.165	-0.045
-651.828	800.000	0.050	0.155
-650.814	-123.423	-0.137	-0.022
-649.799	800.000	0.083	0.258
-648.784	-79.822	-0.221	0.075
-647.770	-8.256	-0.141	0.096
-646.755	123.914	0.261	-0.333
-645.741	136.694	-0.009	-0.012
-644.726	-189.933	-0.056	-0.001
-643.711	-99.148	0.229	0.059
-642.697	-65.311	-0.288	0.117
-641.682	4.744	0.113	0.084
-640.668	85.653	-0.110	0.122
-639.653	-200.000	0.079	-0.403
-638.638	-36.679	-0.138	0.075
-637.624	-101.821	-0.376	0.092
-636.609	-17.378	-0.247	-0.157
-635.595	-132.192	0.428	0.056
-634.580	16.652	-0.044	-0.035
-633.565	-14.164	0.172	-0.112
-632.551	145.257	0.234	0.317
-631.536	-147.259	0.200	0.017
-630.522	64.296	0.062	-0.063
-629.507	367.219	0.172	-0.352
-628.492	-98.782	-0.166	-0.043
-627.478	86.518	-0.095	-0.106
-626.463	-40.340	-0.158	0.083
-625.449	61.311	0.133	0.134
-624.434	-200.000	-0.255	-0.001
-623.419	-110.151	0.251	0.053
-622.405	-86.742	0.188	-0.058
-621.390	405.784	-0.117	-0.250
-620.376	24.732	-0.115	-0.097
-619.361	193.759	-0.307	-0.470
-618.346	59.394	-0.123	0.123
-617.332	482.329	0.035	0.081
-616.317	537.829	0.095	0.227
-615.303	180.864	0.130	0.193
-614.288	-9.448	0.128	0.087
-613.273	-148.369	-0.238	0.020
-612.259	800.000	-0.041	0.127
-611.244	-102.958	0.043	-0.010
-610.230	206.574	-0.118	-0.186
-609.215	216.692	0.114	-0.183
-608.201	-200.000	-0.010	-0.081
-607.186	274.864	-0.203	-0.365
-606.171	43.017	0.053	-0.049
-605.157	169.163	-0.111	-0.160
-604.142	179.676	-0.058	0.086
-603.128	800.000	-0.071	0.203
-602.113	73.208	0.237	0.251
-601.098	219.516	-0.175	0.283
-600.084	-21.512	-0.082	0.051
-599.069	-74.909	-0.113	-0.041
-598.055	452.021	-0.105	0.235
-597.040	-64.188	-0.148	0.061
-596.025	-77.224	-0.326	-0.115
-595.011	440.856	0.174	0.384
-593.996	113.430	0.131	0.161
-592.982	800.000	-0.045	-0.158
-591.967	-79.871	-0.225	-0.076
-590.952	800.000	-0.024	-0.089
-589.938	392.939	-0.057	-0.120
-588.923	-155.840	0.228	0.015
-587.909	-13.914	0.070	-0.046
-586.894	-97.895	0.150	-0.039
-585.879	-184.898	-0.105	-0.002
-584.865	402.943	0.190	0.405
-583.850	54.301	-0.113	-0.110
-582.836	-30.254	0.270	-0.155
-581.821	425.269	-0.059	-0.127
-580.806	62.873	-0.137	-0.138
-579.792	-200.000	-0.031	0.173
-578.777	316.170	0.083	-0.158
-577.763	97.352	0.366	-0.424
-576.748	-185.103	0.205	-0.003
-575.733	-125.016	0.234	0.036
-574.719	296.505	0.025	-0.046
-573.704	800.000	-0.135	-0.386
-572.690	-119.087	-0.478	-0.084
-571.675	-69.982	0.076	-0.029
-570.661	800.000	0.107	-0.355
-569.646	671.286	0.089	-0.233
-568.631	-28.211	-0.191	0.112
-567.617	800.000	-0.099	-0.341
-566.602	4.027	0.167	-0.124
-565.588	763.069	-0.139	-0.381
-564.573	18.693	0.188	0.152
-563.558	370.349	-0.189	-0.387
-562.544	35.057	0.147	-0.130
-561.529	-111.629	-0.083	-0.017
-560.515	-37.143	0.289	-0.156
-559.500	-40.875	0.374	-0.196
-558.485	45.580	-0.055	0.052
-557.471	-39.145	-0.329	0.174
-556.456	370.940	0.135	-0.277
-555.442	576.550	-0.126	-0.310
-554.427	23.169	0.085	0.071
-553.412	-54.346	-0.417	-0.191
-552.398	-200.000	-0.011	-0.419
-551.383	-200.000	-0.008	0.134
-550.369	-200.000	-0.027	0.180
-549.354	-200.000	-0.005	-0.026
-548.339	-46.182	0.332	0.165
-547.325	-200.000	0.001	0.233
-546.310	-143.771	-0.232	0.022
-545.296	-6.939	-0.284	0.195
-544.281	314.537	0.105	0.199
-543.266	594.536	0.071	-0.177
-542.252	214.075	0.252	0.402
-541.237	-79.945	-0.246	0.084
-540.223	-68.509	0.232	0.091
-539.208	33.785	0.013	-0.011
-538.193	49.421	-0.226	0.214
-537.179	-136.370	0.108	0.013
-536.164	51.829	-0.388	0.372
-535.150	9.831	0.291	-0.222
-534.135	-7.760	0.158	-0.107
-533.121	-200.000	-0.080	-0.440
-532.106	-70.222	-0.179	-0.069
-531.091	800.000	0.029	0.096
-530.077	-113.378	0.184	0.036
-529.062	80.041	-0.072	0.078
-528.048	510.721	-0.015	-0.036
-527.033	25.987	0.080	-0.067
-526.018	-26.691	0.128	-0.076
-525.004	800.000	-0.098	-0.337
-523.989	-1.471	0.075	-0.054
-522.975	-100.221	0.247	-0.062
-521.960	-200.000	-0.005	0.032
-520.945	-200.000	-0.014	-0.215
-519.931	38.278	0.251	-0.225
-518.916	-120.946	0.480	-0.081
-517.902	-200.000	0.012	-0.228
-516.887	64.514	0.051	0.052
-515.872	-37.355	-0.331	0.178
-514.858	-157.374	0.115	-0.007
-513.843	-132.164	-0.459	-0.060
-512.829	-138.535	-0.042	0.005
-511.814	-76.520	0.045	-0.016
-510.799	-38.439	-0.058	-0.031
-509.785	-147.502	-0.256	-0.022
-508.770	15.278	-0.265	-0.209
-507.756	-56.666	-0.254	-0.114
-506.741	-200.000	0.027	-0.254
-505.726	-132.730	0.165	-0.021
-504.712	8.605	0.175	0.133
-503.697	395.319	0.083	0.174
-502.683	-200.000	-0.014	-0.152
-501.668	-200.000	0.013	-0.302
-500.653	14.873	-0.168	-0.133
-499.639	800.000	-0.055	-0.171
-498.624	-200.000	-0.008	-0.086
-497.610	800.000	0.011	-0.046
-496.595	800.000	-0.066	0.270
-495.581	659.315	0.064	0.167
-494.566	-127.512	-0.054	0.008
-493.551	7.942	0.182	0.137
-492.537	61.147	0.170	-0.170
-491.522	-30.243	0.084	-0.048
-490.508	800.000	-0.066	0.224
-489.493	-39.785	-0.235	-0.124
-488.478	57.151	0.104	0.102
-487.464	-58.437	-0.200	0.088
-486.449	-41.012	0.223	0.116
-485.435	-102.831	0.208	0.050
-484.420	-93.910	0.220	-0.061
-483.405	-16.038	0.201	-0.128
-482.391	-1.260	-0.383	-0.272
-481.376	-1.595	-0.089	-0.063
-480.362	800.000	-0.077	-0.289
-479.347	-114.483	-0.304	0.059
-478.332	208.390	0.036	-0.057
-477.318	-2.785	0.178	-0.125
-476.303	-164.102	-0.206	0.010
-475.289	800.000	0.072	-0.214
-474.274	-134.733	-0.243	-0.030
-473.259	-133.973	-0.196	0.024
-472.245	73.811	-0.166	0.175
-471.230	-200.000	0.008	0.365
-470.216	47.106	0.149	-0.139
-469.201	800.000	0.025	-0.102
-468.186	-119.900	0.205	0.036
-467.172	-141.420	0.300	0.031
-466.157	-120.039	0.321	0.055
-465.143	-200.000	-0.069	0.327
-464.128	472.350	0.015	-0.034
-463.113	-89.862	-0.208	-0.061
-462.099	-127.487	0.139	0.020
-461.084	800.000	-0.054	0.155
-460.070	33.887	-0.093	0.082
-459.055	-200.000	-0.022	-0.408
-458.040	-172.585	0.081	-0.003
-457.026	-64.290	-0.339	-0.139
-456.011	-200.000	0.022	0.220
-454.997	-12.505	-0.168	-0.110
-453.982	-200.000	-0.041	-0.275
-452.968	317.313	0.053	-0.102
-451.953	-146.189	0.082	0.007
-450.938	131.921	-0.137	0.178
-449.924	243.485	0.098	0.164
-448.909	-87.212	-0.195	-0.060
-447.895	-109.241	0.220	-0.047
-446.880	-200.000	0.004	0.028
-445.865	-56.760	-0.267	-0.119
-444.851	602.618	-0.040	0.101
-443.836	-34.834	-0.134	0.073
-442.822	-85.570	-0.102	0.032
-441.807	798.879	-0.035	0.096
-440.792	143.635	0.085	0.114
-439.778	-50.964	0.120	-0.057
-438.763	9.971	0.205	-0.157
-437.749	-200.000	0.018	-0.136
-436.734	-55.705	-0.183	-0.082
-435.719	-57.223	0.159	0.070
-434.705	-200.000	0.002	0.129
-433.690	800.000	0.046	0.181
-432.676	-8.354	-0.268	0.181
-431.661	72.132	0.239	-0.250
-430.646	800.000	-0.034	0.109
-429.632	27.522	0.256	0.216
-428.617	72.921	0.317	0.332
-427.603	190.131	0.018	0.027
-426.588	181.440	-0.054	-0.080
-425.573	-129.765	0.209	0.029
-424.559	-80.177	-0.231	0.078
-423.544	163.944	-0.150	0.212
-422.530	115.693	-0.018	-0.022
-421.515	800.000	-0.124	-0.503
-420.500	-106.969	-0.148	-0.033
-419.486	800.000	-0.039	0.131
-418.471	215.438	0.110	-0.175
-417.457	-49.088	-0.183	-0.088
-416.442	-40.539	0.111	0.058
-415.428	-91.662	0.158	0.045
-414.413	800.000	0.053	0.213
-413.398	326.672	-0.159	0.306
-412.384	-195.657	0.329	0.002
-411.369	161.266	0.143	-0.201
-410.355	-112.250	0.180	0.036
-409.340	-175.377	0.354	0.010
-408.325	-200.000	0.093	0.420
-407.311	-184.922	-0.212	0.003
-406.296	-200.000	-0.008	0.172
-405.282	8.963	0.215	0.163
-404.267	-160.095	-0.581	-0.032
-403.252	185.062	0.200	-0.298
-402.238	19.525	0.200	-0.162
-401.223	-10.786	-0.241	0.160
-400.209	104.035	0.106	0.125
-399.194	62.330	0.210	0.211
-398.179	-11.553	0.161	0.106
-397.165	51.577	-0.169	-0.161
-396.150	38.076	-0.078	-0.070
-395.136	119.313	0.119	0.147
-394.121	800.000	-0.083	-0.246
-393.106	-14.385	0.216	-0.139
-392.092	26.073	0.151	-0.126
-391.077	-100.074	-0.249	0.062
-390.063	370.460	0.116	0.235
-389.048	-134.490	-0.217	-0.027
-388.033	-104.676	0.085	-0.020
-387.019	-90.881	-0.183	-0.053
-386.004	800.000	-0.043	0.128
-384.990	-74.378	0.055	-0.020
-383.975	-158.758	-0.303	0.017
-382.960	-77.414	-0.030	-0.011
-381.946	3.097	-0.204	0.148
-380.931	-200.000	0.004	-0.033
-379.917	238.780	0.078	-0.129
-378.902	-200.000	-0.163	0.001
-377.888	-33.130	-0.358	-0.199
-376.873	-100.802	-0.389	-0.096
-375.858	-121.140	0.269	0.045
-374.844	-64.077	-0.294	0.120
-373.829	265.812	0.107	0.186
-372.815	-10.208	0.250	-0.167
-371.800	461.121	0.129	-0.289
-370.785	-171.247	0.120	-0.004
-369.771	-121.759	-0.443	-0.073
-368.756	800.000	0.121	0.391
-367.742	-63.592	-0.035	-0.014
-366.727	-123.110	-0.424	-0.068
-365.712	-200.000	-0.037	-0.309
-364.698	48.482	0.236	-0.222
-363.683	-154.217	0.184	0.012
-362.669	800.000	0.043	0.178
-361.654	-68.964	0.176	0.068
-360.639	-200.000	0.049	0.293
-359.625	1.618	0.140	0.101
-358.610	14.319	0.091	-0.071
-357.596	-110.420	0.119	0.025
-356.581	-61.984	-0.330	-0.138
-355.566	-200.000	-0.026	0.118
-354.552	178.358	0.183	-0.268
-353.537	260.364	0.160	-0.277
-352.523	-14.096	-0.231	0.149
-351.508	263.316	-0.125	0.217
-350.493	-23.389	0.111	0.067
-349.479	-53.023	-0.280	0.129
-348.464	585.761	0.132	-0.326
-347.450	0.993	-0.127	0.091
-346.435	260.535	-0.143	-0.247
-345.420	-80.581	0.192	-0.064
-344.406	-75.513	0.357	0.127
-343.391	4.120	-0.259	0.189
-342.377	-200.000	0.022	-0.108
-341.362	-150.401	0.404	-0.031
-340.348	-200.000	-0.019	0.085
-339.333	343.072	-0.033	-0.065
-338.318	-200.000	0.001	0.040
-337.304	22.955	-0.157	-0.129
-336.289	-200.000	0.017	0.495
-335.275	-200.000	-0.022	0.160
-334.260	-61.616	-0.439	0.184
-333.245	52.847	0.071	0.068
-332.231	-48.758	-0.305	0.147
-331.216	471.959	0.027	-0.060
-330.202	-100.928	0.334	0.082
-329.187	-142.790	0.155	-0.015
-328.172	315.401	-0.146	0.275
-327.158	-200.000	-0.013	-0.206
-326.143	224.917	0.077	0.125
-325.129	-57.238	0.318	-0.140
-324.114	-69.652	-0.185	-0.071
-323.099	112.142	-0.153	-0.185
-322.085	20.185	0.135	-0.109
-321.070	-120.222	-0.188	0.032
-320.056	260.572	-0.061	-0.105
-319.041	-200.000	0.016	0.086
-318.026	175.452	0.116	0.168
-317.012	-137.573	-0.227	-0.026
-315.997	299.144	-0.142	0.262
-314.983	-76.437	-0.293	-0.103
-313.968	220.595	-0.181	0.291
-312.953	-81.737	-0.275	-0.090
-311.939	400.940	-0.064	-0.134
-310.924	36.220	-0.094	0.083
-309.910	-118.227	0.145	-0.026
-308.895	166.364	-0.102	0.145
-307.880	250.677	-0.114	-0.194
-306.866	-200.000	-0.013	0.137
-305.851	-15.522	0.095	-0.060
-304.837	256.829	0.209	-0.358
-303.822	213.287	-0.094	-0.149
-302.807	70.920	0.163	-0.169
-301.793	33.959	0.126	0.110
-300.778	239.638	0.142	-0.236
-299.764	-54.704	0.237	-0.107
-298.749	-200.000	-0.046	0.213
-297.735	-178.072	0.446	-0.011
-296.720	800.000	0.040	0.144
-295.705	-126.368	0.270	0.040
-294.691	-106.218	-0.103	-0.023
-293.676	82.151	0.294	0.318
-292.662	-117.225	-0.385	-0.070
-291.647	22.624	0.200	0.163
-290.632	-61.589	-0.107	-0.045
-289.618	-118.336	-0.350	0.062
-288.603	-200.000	-0.027	0.277
-287.589	19.840	0.081	-0.065
-286.574	-200.000	0.011	-0.189
-285.559	68.963	0.164	-0.169
-284.545	-200.000	-0.005	-0.034
-283.530	189.669	-0.054	0.081
-282.516	271.162	0.087	0.154
-281.501	-54.385	0.308	0.140
-280.486	-38.821	-0.156	0.082
-279.472	50.300	-0.177	0.167
-278.457	-3.742	0.134	-0.093
-277.443	-181.580	-0.392	-0.008
-276.428	-111.967	-0.354	0.071
-275.413	-88.411	-0.183	0.054
-274.399	106.657	-0.105	0.124
-273.384	-64.458	0.074	-0.030
-272.370	-200.000	0.029	0.402
-271.355	32.609	-0.083	-0.072
-270.340	-114.452	-0.450	0.086
-269.326	319.061	0.049	0.093
-268.311	650.300	-0.026	-0.068
-267.297	38.535	-0.163	-0.145
-266.282	-174.306	0.322	-0.009
-265.267	800.000	-0.112	-0.364
-264.253	82.875	0.235	0.256
-263.238	-22.652	0.138	-0.083
-262.224	-29.119	0.042	-0.024
-261.209	-74.671	-0.097	-0.035
-260.195	-38.211	-0.182	-0.096
-259.180	47.458	0.123	-0.114
-258.165	34.252	0.305	0.265
-257.151	-45.243	0.126	-0.062
-256.136	-58.928	0.210	-0.091
-255.122	-200.000	0.045	-0.302
-254.107	-87.826	0.360	0.108
-253.092	268.867	-0.107	0.188
-252.078	21.842	-0.468	0.380
-251.063	-28.359	-0.072	-0.042
-250.049	29.100	0.110	-0.093
-249.034	-200.000	0.015	0.355
-248.019	196.486	-0.096	0.146
-247.005	768.154	0.046	0.125
-245.990	142.822	0.099	0.131
-244.976	-80.238	0.232	-0.077
-243.961	-80.336	0.133	0.044
-242.946	57.119	-0.030	-0.029
-241.932	800.000	0.042	-0.166
-240.917	3.363	0.104	0.076
-239.903	261.518	0.178	-0.307
-238.888	800.000	0.044	-0.171
-237.873	-200.000	-0.005	0.145
-236.859	73.335	0.114	-0.119
-235.844	800.000	0.056	0.239
-234.830	800.000	0.027	-0.108
-233.815	-200.000	-0.023	0.281
-232.800	-200.000	0.014	-0.453
-231.786	-11.302	0.166	0.109
-230.771	-200.000	-0.016	0.431
-229.757	192.854	-0.094	-0.142
-228.742	-200.000	0.065	0.462
-227.727	26.444	0.066	-0.055
-226.713	-200.000	0.016	0.217
-225.698	-97.040	0.173	0.045
-224.684	800.000	-0.025	-0.111
-223.669	-118.345	-0.304	-0.054
-222.655	800.000	0.045	-0.131
-221.640	-113.277	0.189	0.037
-220.625	250.626	0.046	-0.078
-219.611	12.442	-0.186	0.143
-218.596	120.650	-0.067	-0.083
-217.582	22.740	-0.162	-0.132
-216.567	470.638	-0.086	0.192
-215.552	-115.557	-0.192	-0.036
-214.538	-200.000	0.032	-0.489
-213.523	-122.304	0.129	-0.021
-212.509	-127.037	0.184	-0.027
-211.494	800.000	0.127	-0.428
-210.479	545.961	0.077	0.184
-209.465	301.990	0.045	-0.084
-208.450	-116.038	0.240	0.045
-207.436	-48.842	-0.212	-0.101
-206.421	380.163	-0.056	0.115
-205.406	-165.382	-0.251	-0.011
-204.392	-105.737	-0.056	0.013
-203.377	-72.693	0.205	-0.075
-202.363	12.678	-0.191	0.147
-201.348	-108.942	0.340	-0.072
-200.333	90.481	0.196	0.218
-199.319	-200.000	-0.011	-0.307
-198.304	455.514	0.037	0.083
-197.290	42.504	-0.145	0.131
-196.275	343.376	0.048	-0.093
-195.260	13.218	-0.143	0.110
-194.246	153.942	0.139	0.189
-193.231	31.888	0.124	0.106
-192.217	-200.000	-0.027	0.183
-191.202	13.128	-0.117	-0.090
-190.187	38.782	-0.221	0.197
-189.173	-134.626	0.236	0.029
-188.158	-91.641	-0.144	-0.041
-187.144	-36.001	-0.404	-0.217
-186.129	29.846	0.254	0.215
-185.114	125.875	0.081	-0.102
-184.100	-72.618	-0.393	-0.144
-183.085	-200.000	0.004	0.080
-182.071	-200.000	-0.028	0.424
-181.056	-62.131	0.234	0.097
-180.042	581.570	-0.075	0.183
-179.027	158.843	-0.039	-0.053
-178.012	271.881	-0.117	-0.205
-176.998	195.793	-0.130	-0.196
-175.983	-128.227	0.215	0.030
-174.969	-53.272	0.144	-0.066
-173.954	-67.276	0.219	0.086
-172.939	-12.648	0.258	-0.167
-171.925	261.346	0.043	0.074
-170.910	-200.000	0.018	0.220
-169.896	-169.309	0.035	0.001
-168.881	-112.526	-0.229	-0.045
-167.866	21.540	0.120	-0.097
-166.852	32.079	-0.037	0.031
-165.837	800.000	-0.116	0.335
-164.823	-81.596	-0.192	0.063
-163.808	-200.000	-0.021	0.324
-162.793	-19.838	-0.224	0.137
-161.779	123.997	-0.116	0.145
-160.764	230.885	0.200	-0.325
-159.750	246.371	-0.119	0.200
-158.735	-32.697	0.241	0.133
-157.720	-98.072	-0.142	0.036
-156.706	-200.000	-0.017	0.182
-155.691	53.361	0.216	-0.206
-154.677	72.613	-0.078	-0.081
-153.662	-138.876	0.155	-0.017
-152.647	1.844	0.245	0.175
-151.633	97.040	0.063	0.072
-150.618	104.730	-0.086	0.101
-149.604	-200.000	0.027	-0.194
-148.589	206.671	0.036	0.056
-147.574	-70.459	0.090	0.034
-146.560	-200.000	-0.006	0.215
-145.545	259.501	0.164	0.281
-144.531	800.000	0.029	-0.117
-143.516	-200.000	0.009	0.162
-142.502	-92.900	-0.057	0.016
-141.487	-151.371	0.224	0.017
-140.472	186.111	0.208	-0.308
-139.458	196.301	0.145	-0.219
-138.443	-185.209	0.113	-0.002
-137.429	-200.000	0.091	0.000
-136.414	173.143	-0.135	0.193
-135.399	-137.695	-0.528	0.059
-134.385	128.969	0.210	0.266
-133.370	320.160	-0.138	-0.260
-132.356	-78.389	-0.174	0.059
-131.341	800.000	0.050	-0.214
-130.326	457.451	-0.075	0.166
-129.312	-200.000	0.015	0.124
-128.297	97.131	-0.180	0.205
-127.283	83.166	-0.084	0.091
-126.268	361.724	-0.063	-0.126
-125.253	-39.521	-0.228	-0.119
-124.239	99.502	-0.110	-0.127
-123.224	-149.107	-0.213	-0.017
-122.210	70.546	0.175	0.180
-121.195	-21.069	0.145	-0.088
