DTS Sentinel unit serial number:	SN413079Multiplexer serial number:	ORYXHardware model number:	OX4-SRSoftware version number:	ORYX F/W v4.00 Oryx Data Collector v3.7.2.0data status	okinstallation	princeton_trtdifferential loss correction	single-endedforward channel	channel 4reverse channel	N/Adate	2019/09/14time	14:41:34forward acquisition time	60.00reverse acquisition time	0.00gamma	496.2192k internal	0.2289k external	0.2289temperature offset calibration	1.0138default loss term (dB/km)	0.3790temperature slope calibration	1.0000multiplexer offset coefficient	1.0000multiplexer slope coefficient	1.0000fibre end	0.00T internal ref (°C)	39.25T ext. ref 1 (°C)	4.96T ext. ref 2 (°C)	34.39length (m)	temperature (°C)	Stokes	anti-Stokes-747.200	-70.693	0.222	-0.086
-746.185	528.743	-0.107	0.258
-745.171	-200.000	-0.002	-0.030
-744.156	-10.396	0.192	0.130
-743.142	-200.000	-0.016	-0.080
-742.127	-2.000	-0.169	0.122
-741.112	-200.000	-0.014	-0.196
-740.098	-96.815	-0.148	-0.040
-739.083	-167.438	0.146	0.006
-738.069	-200.000	-0.058	0.280
-737.054	-200.000	0.000	0.039
-736.039	222.022	-0.321	0.529
-735.025	615.704	0.075	0.191
-734.010	-105.668	0.077	0.018
-732.996	-200.000	-0.002	0.276
-731.981	-4.640	-0.178	-0.126
-730.966	-200.000	-0.021	-0.256
-729.952	92.247	-0.053	0.061
-728.937	-56.220	-0.183	-0.083
-727.923	-145.524	-0.203	-0.019
-726.908	-200.000	-0.058	-0.433
-725.894	146.821	-0.046	-0.064
-724.879	-20.899	-0.189	0.119
-723.864	-200.000	0.003	0.237
-722.850	283.297	-0.047	-0.086
-721.835	-192.728	0.143	0.001
-720.821	106.748	-0.068	-0.082
-719.806	-126.083	-0.323	-0.050
-718.791	-200.000	-0.013	-0.119
-717.777	800.000	0.051	0.188
-716.762	88.745	0.103	0.117
-715.748	9.152	-0.127	0.098
-714.733	409.419	-0.017	-0.037
-713.718	128.279	0.230	0.300
-712.704	31.497	0.096	0.085
-711.689	92.114	-0.211	0.243
-710.675	23.451	0.034	-0.028
-709.660	17.488	-0.113	0.092
-708.645	55.772	0.016	-0.016
-707.631	750.356	-0.044	-0.122
-706.616	-113.801	-0.050	0.010
-705.602	218.425	-0.305	0.498
-704.587	800.000	-0.069	-0.257
-703.572	132.925	0.036	-0.048
-702.558	-60.243	0.228	0.100
-701.543	-87.669	-0.083	-0.026
-700.529	32.821	-0.038	0.033
-699.514	-88.555	0.180	0.055
-698.499	-62.148	0.200	-0.085
-697.485	245.510	-0.116	-0.200
-696.470	800.000	0.098	-0.290
-695.456	226.307	0.094	0.155
-694.441	800.000	-0.065	-0.275
-693.426	40.173	-0.052	0.047
-692.412	43.472	-0.200	-0.187
-691.397	346.372	0.131	0.263
-690.383	-83.449	-0.266	-0.087
-689.368	-132.166	0.161	-0.021
-688.354	-72.920	-0.251	0.094
-687.339	108.383	-0.145	0.177
-686.324	-200.000	-0.087	-0.434
-685.310	-84.117	-0.184	0.060
-684.295	800.000	0.115	-0.395
-683.281	-200.000	-0.008	0.158
-682.266	-28.177	-0.055	-0.033
-681.251	786.974	0.047	0.132
-680.237	-75.551	-0.175	-0.064
-679.222	52.713	-0.147	0.144
-678.208	-94.197	-0.501	0.140
-677.193	-138.715	-0.094	-0.011
-676.178	-200.000	-0.032	0.307
-675.164	-151.149	-0.367	-0.028
-674.149	-200.000	-0.012	0.221
-673.135	-28.096	-0.229	0.135
-672.120	-200.000	0.006	-0.211
-671.105	-200.000	-0.010	0.314
-670.091	-200.000	0.007	-0.254
-669.076	40.290	-0.186	0.171
-668.062	63.017	0.251	0.256
-667.047	-150.049	0.228	-0.018
-666.032	544.593	0.069	-0.169
-665.018	209.903	0.095	-0.152
-664.003	800.000	0.049	-0.164
-662.989	-164.023	0.200	-0.009
-661.974	-132.346	-0.174	-0.023
-660.959	-200.000	0.042	-0.220
-659.945	-200.000	0.015	0.135
-658.930	-152.986	0.344	0.025
-657.916	62.842	0.143	-0.146
-656.901	-20.059	-0.260	-0.164
-655.886	-80.195	0.313	-0.107
-654.872	699.116	-0.053	-0.141
-653.857	64.884	-0.091	-0.094
-652.843	-107.685	-0.202	0.045
-651.828	-71.985	0.318	0.121
-650.814	-53.138	0.251	-0.118
-649.799	148.720	-0.103	-0.143
-648.784	-66.148	0.282	0.115
-647.770	800.000	-0.092	-0.303
-646.755	-76.431	-0.229	0.082
-645.741	14.010	0.052	0.041
-644.726	-26.889	-0.143	0.085
-643.711	-34.770	-0.230	-0.128
-642.697	-113.133	-0.170	0.034
-641.682	-69.422	0.349	-0.137
-640.668	-200.000	0.040	0.258
-639.653	-200.000	-0.088	-0.399
-638.638	-22.568	0.369	-0.228
-637.624	-130.859	-0.241	0.033
-636.609	18.933	0.264	-0.216
-635.595	800.000	-0.032	-0.111
-634.580	326.673	0.158	0.308
-633.565	-25.498	-0.241	-0.145
-632.551	-82.666	-0.373	-0.123
-631.536	93.613	0.098	0.114
-630.522	800.000	-0.069	0.267
-629.507	-200.000	-0.031	-0.155
-628.492	-200.000	0.013	-0.272
-627.478	-135.951	-0.265	-0.032
-626.463	-164.132	-0.359	0.017
-625.449	-200.000	-0.018	0.160
-624.434	-13.543	0.211	0.140
-623.419	-25.511	-0.204	0.123
-622.405	715.081	0.106	-0.288
-621.390	-23.105	0.213	0.131
-620.376	-131.195	-0.201	0.027
-619.361	-139.361	-0.228	-0.025
-618.346	-84.619	0.125	-0.040
-617.332	148.018	-0.186	-0.256
-616.317	113.177	-0.155	-0.191
-615.303	715.936	0.040	0.107
-614.288	-200.000	-0.000	0.106
-613.273	503.785	-0.082	0.194
-612.259	47.501	0.129	-0.123
-611.244	-200.000	-0.029	-0.288
-610.230	187.837	-0.218	-0.332
-609.215	800.000	0.060	-0.257
-608.201	-116.170	-0.329	0.062
-607.186	-40.908	-0.374	0.197
-606.171	-200.000	-0.003	0.120
-605.157	386.257	-0.067	0.142
-604.142	49.852	-0.148	0.142
-603.128	-200.000	0.046	0.502
-602.113	800.000	0.026	0.105
-601.098	70.636	0.063	0.066
-600.084	-2.818	0.192	0.137
-599.069	-32.801	0.127	0.072
-598.055	117.790	0.189	-0.237
-597.040	59.057	0.069	-0.069
-596.025	15.467	0.151	-0.120
-595.011	224.322	0.084	-0.138
-593.996	-137.889	-0.056	-0.006
-592.982	-100.750	0.271	0.068
-591.967	39.356	0.155	-0.142
-590.952	-200.000	0.036	-0.315
-589.938	-200.000	0.011	-0.528
-588.923	153.723	-0.077	-0.108
-587.909	-93.246	0.134	-0.038
-586.894	-200.000	-0.032	0.430
-585.879	-82.149	-0.252	-0.084
-584.865	616.047	0.168	-0.429
-583.850	-31.697	-0.085	0.049
-582.836	-16.474	0.110	-0.071
-581.821	695.669	0.084	0.223
-580.806	-140.841	-0.131	-0.014
-579.792	-23.277	0.112	-0.069
-578.777	-63.531	0.062	-0.026
-577.763	69.795	0.311	0.326
-576.748	800.000	-0.110	0.399
-575.733	-6.558	-0.355	-0.246
-574.719	-121.168	-0.406	0.069
-573.704	-200.000	0.032	0.239
-572.690	-200.000	0.019	-0.112
-571.675	-200.000	-0.081	-0.434
-570.661	435.789	-0.115	-0.254
-569.646	11.515	0.194	-0.152
-568.631	-76.774	-0.133	-0.048
-567.617	249.846	-0.101	-0.174
-566.602	-145.434	0.173	-0.016
-565.588	196.108	0.117	-0.181
-564.573	75.251	-0.160	-0.172
-563.558	64.495	-0.035	0.036
-562.544	100.653	0.140	0.166
-561.529	-200.000	0.040	-0.185
-560.515	-93.223	-0.138	-0.039
-559.500	800.000	-0.118	-0.361
-558.485	399.587	0.086	-0.184
-557.471	42.503	0.211	-0.195
-556.456	-200.000	-0.041	0.231
-555.442	31.538	-0.106	0.093
-554.427	109.812	0.109	-0.133
-553.412	-175.213	-0.443	-0.012
-552.398	43.569	0.042	0.040
-551.383	-56.555	0.071	-0.032
-550.369	187.060	-0.028	0.043
-549.354	800.000	0.076	-0.318
-548.339	-68.860	-0.330	-0.130
-547.325	-200.000	0.017	0.327
-546.310	255.235	0.036	-0.062
-545.296	35.696	0.028	0.025
-544.281	-132.898	0.177	0.023
-543.266	11.451	-0.132	0.103
-542.252	122.820	-0.043	0.055
-541.237	65.547	-0.242	-0.249
-540.223	800.000	-0.066	-0.212
-539.208	166.872	-0.177	0.255
-538.193	-152.121	0.335	-0.025
-537.179	800.000	-0.054	-0.192
-536.164	95.426	-0.272	0.315
-535.150	-57.704	0.402	0.179
-534.135	9.550	0.446	0.343
-533.121	-200.000	0.033	0.148
-532.106	100.791	0.112	-0.133
-531.091	800.000	0.028	0.088
-530.077	367.541	-0.117	-0.240
-529.062	23.744	-0.262	-0.220
-528.048	-113.301	0.484	-0.097
-527.033	800.000	-0.070	0.233
-526.018	-70.489	0.204	0.078
-525.004	28.862	-0.229	-0.198
-523.989	426.716	-0.072	0.157
-522.975	390.135	-0.185	0.389
-521.960	34.062	0.094	0.083
-520.945	-98.056	-0.265	0.069
-519.931	177.108	-0.096	0.142
-518.916	-67.472	-0.249	0.099
-517.902	-57.840	-0.292	0.130
-516.887	-200.000	0.029	0.384
-515.872	-75.401	0.124	0.045
-514.858	644.105	0.067	-0.174
-513.843	175.445	0.006	-0.008
-512.829	34.005	-0.140	-0.124
-511.814	-52.411	0.093	0.044
-510.799	-99.238	-0.413	-0.106
-509.785	704.787	0.020	0.054
-508.770	37.232	-0.146	-0.131
-507.756	-123.064	0.157	0.026
-506.741	-200.000	-0.185	0.000
-505.726	-164.494	-0.368	-0.017
-504.712	15.165	-0.287	0.229
-503.697	-45.553	0.156	-0.079
-502.683	-82.099	-0.196	-0.065
-501.668	-11.327	0.220	-0.147
-500.653	91.286	0.258	0.294
-499.639	57.107	0.088	0.087
-498.624	124.067	0.010	-0.013
-497.610	800.000	0.035	-0.152
-496.595	203.878	-0.029	0.046
-495.581	37.307	0.133	0.119
-494.566	-200.000	-0.001	-0.108
-493.551	-4.338	-0.213	0.150
-492.537	-77.996	-0.185	0.065
-491.522	-200.000	0.025	0.175
-490.508	123.516	-0.202	0.258
-489.493	260.634	-0.232	0.407
-488.478	-47.278	-0.138	0.068
-487.464	40.245	0.146	0.133
-486.449	386.336	0.158	-0.332
-485.435	293.110	0.172	-0.318
-484.420	800.000	-0.159	-0.505
-483.405	-99.650	-0.599	0.153
-482.391	-79.725	0.155	0.053
-481.376	-117.506	-0.387	-0.071
-480.362	71.181	-0.261	0.274
-479.347	-80.352	-0.312	0.106
-478.332	-13.535	-0.084	-0.055
-477.318	585.243	0.044	0.108
-476.303	211.410	0.038	0.061
-475.289	18.187	-0.207	-0.168
-474.274	-25.723	-0.169	-0.101
-473.259	800.000	0.075	0.244
-472.245	-122.462	0.218	0.036
-471.230	-56.232	-0.368	-0.166
-470.216	-112.151	0.093	-0.019
-469.201	14.633	0.041	-0.032
-468.186	155.753	-0.051	-0.071
-467.172	-177.755	-0.215	0.005
-466.157	-171.204	0.117	0.004
-465.143	-85.217	0.386	-0.122
-464.128	-92.870	0.234	0.066
-463.113	800.000	-0.045	0.165
-462.099	-200.000	0.053	0.276
-461.084	800.000	-0.028	0.108
-460.070	-2.945	-0.259	0.183
-459.055	-120.905	0.474	-0.081
-458.040	-88.393	-0.030	0.009
-457.026	800.000	0.029	0.105
-456.011	497.270	-0.030	0.071
-454.997	-114.851	0.172	-0.033
-453.982	115.834	0.193	0.239
-452.968	-158.527	-0.027	-0.002
-451.953	800.000	0.049	-0.143
-450.938	415.109	0.169	-0.365
-449.924	263.905	-0.090	0.158
-448.909	-12.634	-0.107	0.071
-447.895	-200.000	0.016	-0.114
-446.880	-92.895	0.036	0.010
-445.865	105.165	0.056	0.067
-444.851	-55.339	0.073	-0.033
-443.836	667.895	0.044	-0.114
-442.822	-200.000	0.002	-0.117
-441.807	-145.001	0.156	0.014
-440.792	58.001	-0.283	-0.281
-439.778	84.421	0.211	0.234
-438.763	-200.000	-0.020	0.184
-437.749	664.628	0.097	0.253
-436.734	-200.000	-0.014	0.222
-435.719	103.003	-0.193	-0.229
-434.705	212.922	0.194	0.309
-433.690	346.230	0.082	-0.163
-432.676	800.000	-0.075	0.302
-431.661	118.577	0.226	0.283
-430.646	124.232	0.166	-0.211
-429.632	536.733	0.058	0.140
-428.617	-117.271	-0.357	-0.066
-427.603	-200.000	0.034	-0.171
-426.588	-42.636	0.090	0.046
-425.573	794.717	0.077	0.214
-424.559	-71.959	0.390	-0.147
-423.544	-8.477	0.140	0.096
-422.530	104.451	0.046	0.055
-421.515	252.118	0.075	0.129
-420.500	510.227	-0.064	-0.150
-419.486	800.000	-0.067	-0.199
-418.471	-111.192	0.174	-0.036
-417.457	38.253	0.228	-0.205
-416.442	-36.956	-0.088	-0.048
-415.428	-200.000	0.013	0.148
-414.413	-2.405	0.176	-0.125
-413.398	113.606	-0.128	-0.157
-412.384	113.833	0.136	-0.167
-411.369	-39.817	0.062	-0.033
-410.355	746.068	-0.104	0.283
-409.340	99.117	-0.167	-0.195
-408.325	66.676	-0.112	0.115
-407.311	77.881	-0.101	-0.108
-406.296	-57.225	-0.137	0.061
-405.282	139.923	-0.113	0.150
-404.267	-105.327	0.374	-0.086
-403.252	117.171	0.119	0.148
-402.238	16.631	-0.181	-0.145
-401.223	120.947	-0.079	-0.099
-400.209	-103.131	0.234	0.056
-399.194	-200.000	-0.009	0.268
-398.179	87.455	0.046	0.052
-397.165	719.724	-0.098	0.263
-396.150	-107.536	-0.197	0.044
-395.136	800.000	-0.047	0.192
-394.121	-70.948	-0.278	-0.106
-393.106	-137.240	-0.108	0.012
-392.092	192.354	-0.186	0.283
-391.077	-87.445	0.377	0.115
-390.063	151.939	-0.119	0.164
-389.048	-200.000	-0.114	0.628
-388.033	-9.067	0.207	0.140
-387.019	382.832	0.154	0.320
-386.004	-200.000	0.003	-0.065
-384.990	-68.283	0.082	0.032
-383.975	-143.549	0.121	-0.012
-382.960	-55.437	-0.074	0.034
-381.946	-135.033	0.234	-0.029
-380.931	-33.952	0.383	-0.213
-379.917	651.960	0.080	-0.207
-378.902	-61.126	0.229	-0.098
-377.888	-83.617	-0.269	-0.087
-376.873	-50.506	0.022	-0.011
-375.858	800.000	0.040	0.123
-374.844	82.260	0.131	0.143
-373.829	137.380	0.101	0.134
-372.815	501.032	-0.035	-0.081
-371.800	-200.000	-0.021	-0.127
-370.785	-46.791	0.087	0.043
-369.771	-130.505	0.108	-0.015
-368.756	-62.386	-0.233	0.098
-367.742	-200.000	0.001	0.147
-366.727	-140.627	0.350	-0.037
-365.712	-17.674	-0.434	0.275
-364.698	-115.259	0.376	0.072
-363.683	-41.486	0.384	-0.199
-362.669	40.965	0.249	0.227
-361.654	-200.000	0.010	-0.143
-360.639	-200.000	-0.000	0.195
-359.625	-73.224	0.211	-0.078
-358.610	4.087	0.103	0.076
-357.596	319.934	0.094	-0.180
-356.581	800.000	-0.100	0.294
-355.566	-105.161	0.156	0.036
-354.552	-78.661	0.271	-0.093
-353.537	800.000	-0.029	0.105
-352.523	-61.176	-0.251	0.107
-351.508	-100.846	-0.081	0.020
-350.493	486.282	0.049	0.113
-349.479	783.471	-0.018	-0.049
-348.464	800.000	0.022	0.097
-347.450	-81.510	-0.353	0.117
-346.435	800.000	0.087	-0.261
-345.420	22.902	-0.176	0.146
-344.406	-36.593	-0.155	-0.084
-343.391	131.270	-0.062	-0.080
-342.377	800.000	-0.049	-0.161
-341.362	-200.000	0.042	0.297
-340.348	249.816	-0.127	-0.217
-339.333	321.858	-0.025	0.049
-338.318	-134.862	0.042	-0.005
-337.304	401.798	0.028	-0.060
-336.289	142.671	-0.050	-0.067
-335.275	-200.000	-0.078	-0.526
-334.260	-200.000	0.019	0.097
-333.245	-200.000	0.014	0.292
-332.231	-144.645	0.260	-0.024
-331.216	61.137	-0.205	0.205
-330.202	210.949	-0.246	0.389
-329.187	-147.055	0.245	-0.021
-328.172	-200.000	-0.013	0.131
-327.158	-60.503	-0.286	0.123
-326.143	80.143	0.366	-0.396
-325.129	-200.000	-0.024	-0.265
-324.114	99.529	-0.079	-0.092
-323.099	415.799	0.090	0.193
-322.085	-12.548	-0.191	0.125
-321.070	-42.685	0.055	0.028
-320.056	-124.187	0.142	-0.022
-319.041	168.637	0.013	-0.019
-318.026	226.240	0.080	0.131
-317.012	-124.110	0.139	-0.022
-315.997	21.838	-0.132	0.108
-314.983	170.391	-0.095	-0.137
-313.968	-200.000	0.006	0.241
-312.953	-106.001	0.238	-0.054
-311.939	92.824	0.118	-0.135
-310.924	-200.000	-0.002	0.291
-309.910	-200.000	0.000	0.224
-308.895	-200.000	-0.022	0.359
-307.880	-144.223	-0.235	0.022
-306.866	-129.558	0.183	-0.025
-305.851	-200.000	-0.001	0.015
-304.837	-200.000	-0.020	0.161
-303.822	57.303	-0.079	0.078
-302.807	800.000	-0.075	0.238
-301.793	800.000	0.115	0.347
-300.778	16.473	-0.208	-0.166
-299.764	243.993	-0.089	-0.150
-298.749	-200.000	0.026	-0.232
-297.735	-200.000	-0.022	0.326
-296.720	-82.916	-0.273	0.089
-295.705	800.000	0.027	0.093
-294.691	25.435	-0.154	0.129
-293.676	-101.578	0.158	0.039
-292.662	448.040	0.011	0.025
-291.647	-101.120	-0.008	0.002
-290.632	170.648	-0.139	-0.200
-289.618	-102.224	0.314	-0.076
-288.603	-101.672	0.235	0.057
-287.589	-192.615	0.111	-0.001
-286.574	37.160	0.038	0.034
-285.559	-23.809	0.336	-0.203
-284.545	93.590	0.199	-0.226
-283.530	219.591	-0.169	-0.272
-282.516	128.315	0.103	-0.133
-281.501	800.000	-0.132	-0.371
-280.486	166.630	0.183	-0.260
-279.472	-200.000	0.014	0.314
-278.457	322.775	-0.123	0.237
-277.443	-186.239	-0.021	0.000
-276.428	-45.344	0.029	-0.014
-275.413	-200.000	-0.045	-0.328
-274.399	-131.820	-0.376	0.049
-273.384	75.569	-0.123	-0.131
-272.370	800.000	0.093	-0.305
-271.355	-196.433	0.131	0.001
-270.340	-113.572	-0.132	-0.026
-269.326	-122.243	-0.098	0.016
-268.311	413.735	-0.020	0.044
-267.297	294.547	-0.076	0.139
-266.282	-200.000	0.150	0.001
-265.267	-42.643	-0.074	-0.038
-264.253	25.769	-0.254	-0.213
-263.238	631.883	0.175	-0.445
-262.224	455.706	0.178	-0.397
-261.209	-70.497	-0.108	0.041
-260.195	-77.774	-0.108	-0.038
-259.180	-80.302	0.120	-0.040
-258.165	-75.189	-0.269	0.096
-257.151	395.165	0.031	-0.064
-256.136	206.417	-0.074	-0.116
-255.122	-49.883	0.120	0.057
-254.107	-24.774	0.144	-0.086
-253.092	217.978	0.183	-0.294
-252.078	119.806	-0.101	0.126
-251.063	-110.582	0.395	-0.082
-250.049	71.613	-0.097	0.101
-249.034	-200.000	-0.084	-0.556
-248.019	800.000	0.154	-0.478
-247.005	-153.176	-0.074	0.005
-245.990	511.685	0.047	0.110
-244.976	800.000	0.067	0.228
-243.961	-20.562	-0.172	-0.106
-242.946	-200.000	-0.043	0.216
-241.932	-90.907	0.213	0.062
-240.917	800.000	-0.064	0.279
-239.903	-49.034	-0.280	0.134
-238.888	-12.019	0.329	0.216
-237.873	800.000	-0.033	-0.109
-236.859	445.258	-0.076	-0.168
-235.844	-44.388	0.189	-0.095
-234.830	-154.963	-0.211	0.014
-233.815	28.981	0.140	-0.119
-232.800	-200.000	-0.035	0.166
-231.786	152.185	-0.028	-0.039
-230.771	204.866	0.061	-0.095
-229.757	-200.000	-0.014	-0.146
-228.742	272.061	-0.079	0.140
-227.727	-200.000	-0.014	-0.097
-226.713	-87.894	-0.037	-0.011
-225.698	-200.000	-0.061	-0.332
-224.684	800.000	-0.031	-0.092
-223.669	-134.997	0.313	0.038
-222.655	-31.417	-0.131	0.074
-221.640	-59.768	0.269	0.115
-220.625	-200.000	0.058	-0.323
-219.611	-200.000	0.020	-0.519
-218.596	123.790	0.102	-0.129
-217.582	-161.842	-0.342	0.017
-216.567	-92.345	0.032	0.009
-215.552	8.004	0.080	0.061
-214.538	76.705	-0.100	-0.107
-213.523	34.496	0.252	0.221
-212.509	459.237	-0.080	-0.179
-211.494	-200.000	-0.084	-0.471
-210.479	-68.386	0.252	-0.098
-209.465	-66.442	0.226	-0.090
-208.450	155.833	-0.208	-0.288
-207.436	433.725	0.092	0.200
-206.421	-10.612	-0.045	-0.030
-205.406	-77.581	0.275	0.096
-204.392	-200.000	0.009	0.468
-203.377	-9.011	0.199	0.134
-202.363	4.445	0.235	-0.173
-201.348	-151.747	-0.286	0.021
-200.333	-126.610	-0.239	0.036
-199.319	-200.000	-0.040	0.176
-198.304	-29.499	-0.387	0.222
-197.290	-9.132	-0.059	0.039
-196.275	-96.249	0.128	-0.034
-195.260	800.000	0.071	0.270
-194.246	-49.059	0.352	0.169
-193.231	620.579	0.049	0.124
-192.217	359.126	-0.122	-0.244
-191.202	87.829	-0.130	-0.145
-190.187	725.586	0.095	-0.254
-189.173	-200.000	-0.002	-0.110
-188.158	-67.577	-0.062	-0.024
-187.144	434.475	-0.032	-0.069
-186.129	-35.439	0.376	-0.205
-185.114	701.761	0.126	0.332
-184.100	49.792	-0.154	0.145
-183.085	-200.000	0.025	-0.156
-182.071	168.082	-0.191	-0.273
-181.056	26.343	0.101	-0.085
-180.042	-91.930	0.166	0.047
-179.027	1.247	-0.128	0.092
-178.012	-14.751	0.194	-0.125
-176.998	-158.834	0.323	-0.018
-175.983	24.327	-0.340	-0.281
-174.969	-200.000	0.014	0.146
-173.954	-200.000	0.015	-0.204
-172.939	468.935	-0.140	0.314
-171.925	-118.838	-0.290	-0.051
-170.910	47.245	0.224	0.209
-169.896	-130.389	0.176	-0.024
-168.881	-153.698	-0.070	0.005
-167.866	-180.551	0.179	-0.004
-166.852	394.354	0.038	0.080
-165.837	341.179	-0.167	0.326
-164.823	800.000	-0.049	-0.153
-163.808	45.247	-0.177	-0.164
-162.793	-49.355	0.170	-0.081
-161.779	-94.390	0.390	0.107
-160.764	-200.000	-0.020	0.152
-159.750	-10.756	-0.284	-0.188
-158.735	-117.648	0.163	0.029
-157.720	-65.167	-0.076	-0.031
-156.706	243.615	-0.107	0.180
-155.691	-145.670	0.060	0.005
-154.677	-63.588	0.312	0.128
-153.662	-162.531	-0.222	0.011
-152.647	-159.925	-0.285	0.016
-151.633	-200.000	0.016	0.079
-150.618	-57.485	-0.217	0.095
-149.604	744.626	-0.042	-0.114
-148.589	-200.000	-0.024	-0.220
-147.574	-110.606	0.155	0.032
-146.560	466.144	0.039	-0.088
-145.545	-113.928	0.172	0.033
-144.531	104.145	-0.029	0.034
-143.516	3.382	0.236	0.172
-142.502	-43.955	0.079	0.040
-141.487	800.000	-0.085	-0.259
-140.472	58.639	-0.216	-0.213
-139.458	800.000	-0.150	0.549
-138.443	-27.675	-0.343	0.199
-137.429	521.115	-0.058	0.137
-136.414	800.000	0.021	0.089
-135.399	313.363	0.104	0.195
-134.385	-200.000	0.006	0.261
-133.370	89.697	-0.146	-0.163
-132.356	27.906	-0.313	-0.264
-131.341	-94.480	0.125	0.034
-130.326	800.000	0.075	-0.213
-129.312	-140.560	0.121	0.013
-128.297	45.336	0.146	0.135
-127.283	39.559	0.165	0.148
-126.268	-54.432	-0.324	0.147
-125.253	176.072	0.096	0.139
-124.239	-30.705	0.082	-0.046
-123.224	212.676	-0.131	-0.206
-122.210	-123.209	-0.234	0.037
-121.195	-146.723	0.211	-0.018
