DTS Sentinel unit serial number:	SN413079Multiplexer serial number:	ORYXHardware model number:	OX4-SRSoftware version number:	ORYX F/W v4.00 Oryx Data Collector v3.7.2.0data status	okinstallation	princeton_trtdifferential loss correction	single-endedforward channel	channel 4reverse channel	N/Adate	2019/09/16time	13:09:34forward acquisition time	60.00reverse acquisition time	0.00gamma	496.2192k internal	0.2289k external	0.2289temperature offset calibration	0.9939default loss term (dB/km)	0.3790temperature slope calibration	1.0000multiplexer offset coefficient	1.0000multiplexer slope coefficient	1.0000fibre end	0.00T internal ref (°C)	40.94T ext. ref 1 (°C)	13.66T ext. ref 2 (°C)	38.85length (m)	temperature (°C)	Stokes	anti-Stokes-747.200	-84.851	0.156	-0.050
-746.185	29.414	-0.223	0.194
-745.171	319.070	0.145	-0.281
-744.156	-22.810	0.193	-0.119
-743.142	-55.135	0.074	-0.034
-742.127	392.820	-0.127	0.272
-741.112	194.627	0.215	0.335
-740.098	585.443	0.051	0.128
-739.083	27.197	0.120	0.103
-738.069	153.332	-0.155	0.217
-737.054	-34.089	-0.339	0.191
-736.039	-36.301	-0.323	-0.178
-735.025	-54.431	0.216	0.100
-734.010	-114.546	0.362	0.071
-732.996	262.471	0.134	-0.238
-731.981	48.029	-0.038	0.036
-730.966	-200.000	0.019	0.128
-729.952	-200.000	0.022	-0.276
-728.937	-1.481	-0.121	-0.087
-727.923	236.798	0.161	0.274
-726.908	131.626	0.059	0.077
-725.894	-80.284	-0.167	-0.057
-724.879	174.066	-0.139	0.206
-723.864	800.000	0.063	0.180
-722.850	-193.966	0.071	-0.001
-721.835	-36.317	-0.310	0.171
-720.821	800.000	0.126	-0.384
-719.806	-78.317	-0.205	-0.072
-718.791	-184.365	0.469	-0.008
-717.777	153.293	-0.144	0.201
-716.762	-200.000	0.189	-0.000
-715.748	9.306	-0.094	-0.072
-714.733	-188.293	-0.253	-0.003
-713.718	-166.799	0.247	0.010
-712.704	-43.463	-0.170	0.088
-711.689	-136.639	-0.176	0.021
-710.675	-173.283	0.476	-0.015
-709.660	401.031	0.021	0.045
-708.645	-200.000	0.002	0.078
-707.631	517.711	-0.023	-0.055
-706.616	-200.000	0.014	0.255
-705.602	148.755	0.030	-0.041
-704.587	320.154	-0.159	-0.309
-703.572	16.295	-0.193	-0.156
-702.558	137.893	0.180	-0.241
-701.543	-151.680	-0.178	0.013
-700.529	342.355	-0.182	0.364
-699.514	211.764	0.091	0.147
-698.499	52.109	0.083	0.081
-697.485	-200.000	0.006	0.109
-696.470	17.221	0.238	0.193
-695.456	-11.996	-0.230	0.154
-694.441	587.195	0.055	-0.139
-693.426	439.443	0.121	-0.271
-692.412	-175.259	-0.490	-0.014
-691.397	-13.687	0.295	-0.195
-690.383	-35.155	-0.384	-0.214
-689.368	467.042	0.109	-0.249
-688.354	-126.556	0.190	0.029
-687.339	-76.277	-0.342	0.123
-686.324	800.000	-0.028	-0.103
-685.310	-80.087	-0.270	-0.093
-684.295	179.459	0.312	0.467
-683.281	-67.390	-0.058	0.023
-682.266	-200.000	0.018	-0.085
-681.251	-200.000	0.004	-0.024
-680.237	-33.840	0.108	0.061
-679.222	197.143	0.116	-0.181
-678.208	-200.000	-0.017	0.115
-677.193	-200.000	-0.033	-0.237
-676.178	535.337	-0.059	0.144
-675.164	-68.342	0.260	0.103
-674.149	-22.580	0.152	0.094
-673.135	75.645	-0.146	-0.158
-672.120	142.785	-0.046	0.062
-671.105	-200.000	0.009	0.175
-670.091	-0.160	-0.233	0.169
-669.076	-200.000	-0.071	-0.388
-668.062	-200.000	-0.042	-0.220
-667.047	-44.581	0.195	0.099
-666.032	727.076	0.142	-0.387
-665.018	758.657	0.058	-0.161
-664.003	-200.000	0.031	-0.147
-662.989	-200.000	-0.026	-0.311
-661.974	-61.196	-0.163	-0.070
-660.959	800.000	0.071	-0.239
-659.945	47.874	-0.228	-0.217
-658.930	800.000	-0.037	0.157
-657.916	800.000	-0.173	-0.685
-656.901	5.600	-0.065	-0.049
-655.886	-121.927	0.257	0.043
-654.872	800.000	-0.089	-0.257
-653.857	-91.128	0.160	-0.047
-652.843	-142.480	0.076	0.008
-651.828	800.000	0.075	0.224
-650.814	-200.000	0.013	-0.158
-649.799	-74.788	-0.163	0.060
-648.784	61.315	0.222	-0.225
-647.770	178.437	-0.069	-0.103
-646.755	95.762	-0.118	0.138
-645.741	298.878	-0.072	0.135
-644.726	99.446	-0.226	-0.267
-643.711	-24.009	0.176	-0.107
-642.697	250.970	0.085	0.148
-641.682	238.713	0.028	-0.048
-640.668	85.026	-0.023	0.025
-639.653	-61.449	-0.329	0.141
-638.638	738.876	0.045	0.124
-637.624	-167.620	-0.322	-0.013
-636.609	-80.341	0.370	0.126
-635.595	-200.000	-0.004	0.221
-634.580	202.254	-0.073	0.115
-633.565	800.000	0.022	-0.095
-632.551	59.519	-0.211	-0.213
-631.536	76.952	-0.261	0.283
-630.522	67.483	0.142	-0.148
-629.507	41.834	-0.219	0.203
-628.492	-200.000	-0.013	-0.065
-627.478	-200.000	-0.036	-0.217
-626.463	-167.726	0.263	-0.011
-625.449	143.945	-0.076	0.103
-624.434	-127.020	0.149	-0.022
-623.419	-139.573	-0.291	0.032
-622.405	95.633	0.141	0.164
-621.390	599.120	0.026	0.066
-620.376	-21.064	-0.238	0.149
-619.361	800.000	-0.006	-0.019
-618.346	34.426	0.101	-0.090
-617.332	-153.274	0.202	-0.014
-616.317	-109.792	-0.261	-0.056
-615.303	-200.000	0.001	-0.220
-614.288	-200.000	0.012	-0.078
-613.273	800.000	0.035	-0.120
-612.259	-200.000	0.011	-0.141
-611.244	-120.027	0.258	0.045
-610.230	87.781	-0.180	-0.203
-609.215	-200.000	-0.017	-0.102
-608.201	-143.441	-0.191	-0.019
-607.186	-200.000	-0.003	0.018
-606.171	800.000	-0.015	0.062
-605.157	800.000	-0.039	-0.160
-604.142	22.678	-0.310	0.259
-603.128	-164.060	-0.379	0.018
-602.113	744.274	-0.032	0.089
-601.098	147.695	-0.069	-0.094
-600.084	-22.104	0.095	0.059
-599.069	77.001	-0.182	-0.197
-598.055	384.875	0.027	-0.056
-597.040	-200.000	-0.025	0.200
-596.025	-200.000	-0.009	-0.214
-595.011	-81.164	-0.011	0.004
-593.996	-200.000	-0.009	-0.153
-592.982	-200.000	0.080	-0.513
-591.967	800.000	0.097	0.305
-590.952	-76.193	-0.311	0.112
-589.938	37.754	-0.256	0.232
-588.923	184.029	0.086	0.129
-587.909	270.698	0.168	0.300
-586.894	-72.517	0.279	-0.105
-585.879	94.282	0.119	0.138
-584.865	-197.843	-0.263	0.002
-583.850	335.200	0.214	-0.422
-582.836	-137.282	-0.204	-0.024
-581.821	-97.751	0.119	0.031
-580.806	459.345	0.095	0.214
-579.792	240.708	-0.138	0.234
-578.777	12.199	-0.189	-0.148
-577.763	-70.362	-0.032	-0.013
-576.748	-200.000	0.000	0.012
-575.733	20.075	-0.151	0.124
-574.719	107.430	0.100	-0.122
-573.704	-164.879	0.405	-0.018
-572.690	-52.083	-0.381	-0.180
-571.675	-200.000	-0.036	0.404
-570.661	-166.050	0.158	-0.007
-569.646	22.843	-0.127	0.106
-568.631	49.918	-0.147	-0.141
-567.617	-6.969	-0.115	-0.080
-566.602	248.676	0.071	-0.123
-565.588	-120.119	-0.052	0.009
-564.573	-200.000	-0.035	0.306
-563.558	-133.575	-0.243	0.031
-562.544	-74.837	0.423	0.155
-561.529	-53.863	0.053	0.025
-560.515	-64.307	0.072	-0.030
-559.500	-200.000	0.027	-0.152
-558.485	-74.654	-0.323	-0.118
-557.471	-87.687	-0.119	-0.036
-556.456	-200.000	-0.017	0.103
-555.442	139.138	0.216	-0.289
-554.427	55.664	-0.355	-0.349
-553.412	43.909	0.070	-0.065
-552.398	214.183	0.147	0.237
-551.383	-125.366	0.053	0.008
-550.369	-200.000	0.002	-0.084
-549.354	-24.893	-0.142	0.086
-548.339	-38.607	0.067	0.036
-547.325	16.013	0.299	-0.239
-546.310	-33.816	-0.228	0.128
-545.296	-140.774	0.192	-0.020
-544.281	-200.000	-0.011	-0.085
-543.266	-154.163	0.080	0.006
-542.252	-147.869	0.145	0.012
-541.237	0.919	-0.162	0.118
-540.223	-139.591	0.051	-0.005
-539.208	16.542	0.061	0.049
-538.193	-89.180	-0.219	0.066
-537.179	800.000	-0.016	0.054
-536.164	800.000	0.034	-0.100
-535.150	-22.336	-0.134	-0.082
-534.135	87.950	-0.125	0.141
-533.121	-86.932	0.076	0.023
-532.106	547.880	0.079	0.193
-531.091	-114.973	-0.371	-0.072
-530.077	104.893	0.085	-0.102
-529.062	424.728	-0.110	-0.241
-528.048	-200.000	0.021	-0.116
-527.033	255.659	0.318	0.553
-526.018	102.283	-0.112	0.132
-525.004	800.000	-0.109	0.363
-523.989	410.140	-0.135	0.291
-522.975	-64.081	-0.192	0.080
-521.960	-12.425	0.299	0.198
-520.945	800.000	-0.074	0.278
-519.931	83.328	0.177	-0.196
-518.916	76.678	0.103	-0.111
-517.902	-129.807	-0.254	0.035
-516.887	47.345	-0.126	-0.119
-515.872	-164.753	0.217	-0.010
-514.858	800.000	0.119	0.339
-513.843	118.339	-0.093	0.117
-512.829	-1.082	0.233	0.167
-511.814	369.393	-0.097	-0.199
-510.799	110.486	-0.102	0.124
-509.785	-200.000	0.018	-0.347
-508.770	37.506	-0.150	-0.135
-507.756	38.009	0.124	0.112
-506.741	52.345	0.137	-0.133
-505.726	-8.223	-0.253	-0.173
-504.712	-200.000	-0.001	0.158
-503.697	435.756	0.103	0.227
-502.683	-77.563	-0.103	-0.036
-501.668	-200.000	-0.012	0.114
-500.653	40.689	-0.270	0.247
-499.639	139.577	-0.095	0.127
-498.624	-42.398	-0.150	-0.078
-497.610	154.749	0.114	-0.159
-496.595	160.886	0.054	-0.076
-495.581	-200.000	0.015	0.310
-494.566	57.003	-0.217	0.215
-493.551	90.420	0.188	-0.213
-492.537	-140.386	-0.299	0.032
-491.522	297.425	-0.171	0.319
-490.508	326.723	-0.156	-0.303
-489.493	-25.272	-0.152	-0.091
-488.478	132.921	0.176	0.231
-487.464	188.514	-0.176	-0.268
-486.449	49.279	-0.098	-0.094
-485.435	-62.540	0.046	0.020
-484.420	309.121	0.090	0.170
-483.405	-86.846	-0.100	-0.031
-482.391	61.340	-0.116	-0.117
-481.376	280.653	0.139	0.252
-480.362	188.584	-0.030	0.046
-479.347	73.358	0.034	-0.036
-478.332	-200.000	0.048	-0.219
-477.318	-7.138	0.202	-0.139
-476.303	-200.000	0.074	-0.423
-475.289	-200.000	0.043	0.209
-474.274	-186.907	0.217	-0.003
-473.259	70.137	0.123	0.129
-472.245	97.919	-0.063	0.074
-471.230	-123.404	0.291	-0.047
-470.216	39.698	0.111	-0.101
-469.201	-168.392	0.065	-0.003
-468.186	75.310	0.211	0.225
-467.172	36.239	0.245	0.219
-466.157	-109.443	-0.191	0.041
-465.143	458.739	0.057	0.128
-464.128	55.383	0.047	-0.046
-463.113	164.092	-0.109	0.156
-462.099	800.000	-0.021	-0.090
-461.084	-110.962	0.454	0.095
-460.070	-80.195	0.134	-0.046
-459.055	-33.609	0.330	0.185
-458.040	-109.382	-0.286	-0.061
-457.026	-0.619	0.219	0.158
-456.011	-200.000	0.002	-0.230
-454.997	792.355	0.023	0.064
-453.982	-94.920	0.155	-0.043
-452.968	43.689	-0.106	0.098
-451.953	289.836	-0.122	-0.224
-450.938	-121.114	0.333	-0.056
-449.924	69.206	-0.128	0.133
-448.909	-85.080	0.100	-0.032
-447.895	-200.000	0.073	0.715
-446.880	-78.865	0.658	-0.227
-445.865	-76.694	-0.130	0.046
-444.851	-136.970	-0.167	0.019
-443.836	-131.527	-0.438	-0.058
-442.822	-200.000	-0.012	-0.155
-441.807	619.880	-0.038	-0.096
-440.792	-170.849	-0.239	-0.008
-439.778	400.865	-0.094	0.199
-438.763	-95.964	-0.270	-0.073
-437.749	-54.837	-0.411	0.188
-436.734	-200.000	0.020	-0.158
-435.719	-168.543	-0.239	0.009
-434.705	-200.000	-0.016	-0.282
-433.690	-200.000	0.048	-0.252
-432.676	191.069	-0.200	-0.305
-431.661	61.951	0.132	-0.133
-430.646	247.534	-0.226	0.386
-429.632	300.861	-0.035	-0.065
-428.617	-200.000	0.022	0.147
-427.603	-28.531	0.231	-0.135
-426.588	-200.000	-0.035	0.232
-425.573	32.027	-0.204	-0.178
-424.559	49.263	0.349	0.332
-423.544	-165.018	-0.251	0.011
-422.530	-156.228	0.366	-0.023
-421.515	48.122	0.235	0.223
-420.500	771.954	-0.063	-0.173
-419.486	800.000	0.055	0.163
-418.471	-5.965	0.227	0.157
-417.457	-113.895	0.207	0.041
-416.442	226.107	0.130	-0.212
-415.428	-35.458	0.090	-0.050
-414.413	800.000	0.068	0.192
-413.398	-177.131	0.407	0.010
-412.384	260.248	-0.211	-0.368
-411.369	175.469	-0.095	-0.140
-410.355	60.644	0.190	0.190
-409.340	701.702	-0.118	0.314
-408.325	-20.986	-0.093	0.058
-407.311	-56.904	-0.157	-0.070
-406.296	800.000	-0.031	0.121
-405.282	-12.621	-0.087	0.058
-404.267	-115.774	-0.211	-0.040
-403.252	-110.464	0.231	-0.049
-402.238	663.303	0.102	0.266
-401.223	800.000	-0.062	-0.221
-400.209	73.604	-0.146	-0.155
-399.194	559.650	0.126	-0.307
-398.179	-200.000	0.032	-0.412
-397.165	49.111	0.092	-0.087
-396.150	-200.000	-0.054	0.450
-395.136	-89.314	-0.247	-0.074
-394.121	269.092	-0.133	-0.235
-393.106	-81.014	-0.170	-0.057
-392.092	-86.230	-0.447	0.139
-391.077	-72.316	0.262	-0.098
-390.063	-198.628	-0.076	0.000
-389.048	-93.929	0.089	0.025
-388.033	-2.462	-0.049	0.035
-387.019	-64.710	0.173	-0.071
-386.004	-67.334	0.029	-0.011
-384.990	800.000	0.131	-0.428
-383.975	-200.000	-0.195	0.000
-382.960	-83.140	-0.085	-0.028
-381.946	-81.434	0.206	-0.069
-380.931	-93.132	0.358	-0.101
-379.917	800.000	-0.096	0.360
-378.902	487.304	0.039	0.089
-377.888	-200.000	-0.042	0.316
-376.873	-21.635	0.282	-0.174
-375.858	-59.536	-0.169	0.073
-374.844	-139.359	-0.107	-0.012
-373.829	295.443	0.135	0.249
-372.815	-200.000	0.030	0.188
-371.800	79.783	-0.242	-0.262
-370.785	-200.000	-0.065	-0.322
-369.771	-200.000	-0.068	-0.315
-368.756	800.000	-0.144	-0.635
-367.742	-191.629	0.116	0.001
-366.727	37.886	-0.123	0.110
-365.712	403.342	-0.122	-0.258
-364.698	-200.000	-0.018	0.139
-363.683	133.279	0.087	-0.113
-362.669	313.372	0.058	-0.110
-361.654	800.000	0.079	-0.241
-360.639	111.448	0.179	-0.218
-359.625	-1.560	-0.094	-0.067
-358.610	200.575	0.120	0.186
-357.596	-64.462	0.146	-0.060
-356.581	800.000	-0.077	0.318
-355.566	541.318	0.144	0.347
-354.552	-165.212	0.172	-0.008
-353.537	150.870	-0.123	-0.169
-352.523	78.618	0.169	-0.182
-351.508	-200.000	0.005	-0.176
-350.493	-65.306	-0.350	-0.142
-349.479	-200.000	-0.001	-0.108
-348.464	196.431	0.012	-0.019
-347.450	-200.000	0.013	0.060
-346.435	79.882	-0.114	-0.123
-345.420	-122.313	-0.233	-0.038
-344.406	1.588	0.180	0.131
-343.391	96.121	0.125	-0.144
-342.377	758.262	-0.113	-0.310
-341.362	54.132	-0.324	-0.315
-340.348	-200.000	0.001	0.048
-339.333	800.000	-0.027	-0.099
-338.318	-63.064	0.267	0.111
-337.304	-121.322	-0.133	0.022
-336.289	-108.409	0.392	-0.085
-335.275	-92.234	0.097	-0.028
-334.260	-149.402	-0.214	-0.017
-333.245	218.121	0.145	-0.234
-332.231	800.000	0.150	-0.434
-331.216	-200.000	-0.034	0.152
-330.202	39.246	-0.305	0.275
-329.187	800.000	0.071	0.268
-328.172	5.682	-0.313	-0.233
-327.158	-85.781	0.180	0.056
-326.143	-30.378	0.048	-0.027
-325.129	-71.498	0.356	0.134
-324.114	44.094	0.134	0.124
-323.099	81.278	-0.075	-0.082
-322.085	93.125	-0.147	-0.168
-321.070	26.981	0.048	-0.040
-320.056	-200.000	-0.000	-0.055
-319.041	-57.784	0.043	0.019
-318.026	800.000	-0.020	0.061
-317.012	-109.977	-0.155	0.033
-315.997	-100.504	0.327	-0.082
-314.983	800.000	-0.113	0.357
-313.968	39.277	0.298	0.269
-312.953	178.852	0.042	0.062
-311.939	274.208	-0.062	0.111
-310.924	29.262	0.202	-0.173
-309.910	-200.000	-0.024	0.345
-308.895	318.835	0.214	0.408
-307.880	544.690	-0.181	0.434
-306.866	277.920	-0.184	0.330
-305.851	-200.000	0.004	-0.084
-304.837	-121.243	-0.070	-0.012
-303.822	-147.248	-0.372	0.032
-302.807	105.914	0.197	-0.235
-301.793	161.904	-0.183	0.258
-300.778	87.014	0.139	-0.155
-299.764	-5.319	0.171	-0.118
-298.749	87.150	-0.143	0.159
-297.735	-117.564	0.252	0.046
-296.720	552.523	0.094	-0.228
-295.705	519.289	0.064	0.150
-294.691	-200.000	0.046	0.284
-293.676	-164.960	-0.126	0.006
-292.662	-30.888	-0.087	0.049
-291.647	92.188	0.221	0.251
-290.632	37.494	0.190	-0.169
-289.618	458.341	0.112	0.252
-288.603	99.029	0.112	-0.130
-287.589	41.822	0.155	-0.141
-286.574	-101.493	-0.097	0.024
-285.559	159.989	-0.100	-0.140
-284.545	-200.000	0.010	0.134
-283.530	7.617	-0.141	-0.106
-282.516	-9.727	-0.318	0.213
-281.501	-113.293	0.334	-0.066
-280.486	800.000	-0.050	-0.214
-279.472	467.142	0.064	0.144
-278.457	800.000	0.099	0.371
-277.443	-200.000	0.013	-0.143
-276.428	-175.037	-0.243	0.007
-275.413	11.962	-0.322	-0.249
-274.399	-200.000	0.025	0.248
-273.384	-200.000	0.023	0.133
-272.370	-114.697	0.224	-0.043
-271.355	20.040	0.065	0.053
-270.340	18.760	0.153	-0.123
-269.326	-200.000	0.044	-0.335
-268.311	-81.775	0.213	-0.070
-267.297	-124.550	0.318	0.050
-266.282	5.994	0.311	0.232
-265.267	200.680	-0.059	0.091
-264.253	53.442	-0.394	-0.380
-263.238	800.000	-0.035	0.107
-262.224	517.457	0.062	-0.146
-261.209	53.416	-0.152	0.147
-260.195	800.000	0.022	-0.072
-259.180	-14.598	0.033	0.021
-258.165	-200.000	0.016	-0.374
-257.151	800.000	-0.162	-0.478
-256.136	440.793	0.191	-0.420
-255.122	34.276	0.165	-0.145
-254.107	-200.000	-0.017	-0.336
-253.092	331.356	-0.220	-0.427
-252.078	153.556	-0.042	0.058
-251.063	-55.800	0.066	-0.030
-250.049	-142.382	0.079	-0.008
-249.034	800.000	0.090	-0.260
-248.019	800.000	-0.089	-0.272
-247.005	-54.863	-0.138	-0.063
-245.990	137.896	-0.232	0.306
-244.976	-200.000	-0.039	0.286
-243.961	800.000	0.011	0.031
-242.946	24.280	-0.057	-0.048
-241.932	218.753	-0.156	0.250
-240.917	-134.342	0.018	-0.002
-239.903	103.014	-0.031	-0.037
-238.888	-184.615	0.052	-0.001
-237.873	86.619	0.286	0.317
-236.859	403.825	-0.115	0.242
-235.844	-47.977	0.301	0.146
-234.830	-200.000	-0.009	-0.457
-233.815	800.000	0.117	0.472
-232.800	-146.014	0.171	-0.015
-231.786	119.552	-0.151	0.188
-230.771	-66.075	-0.245	-0.098
-229.757	146.335	-0.172	0.232
-228.742	49.152	0.043	0.041
-227.727	-30.724	0.072	0.041
-226.713	-39.555	-0.075	-0.039
-225.698	629.189	-0.018	-0.046
-224.684	-200.000	0.012	-0.222
-223.669	-116.979	0.282	0.052
-222.655	5.416	0.288	-0.214
-221.640	-200.000	0.001	-0.520
-220.625	418.024	-0.075	-0.162
-219.611	-56.734	0.426	0.189
-218.596	204.365	0.110	-0.171
-217.582	-46.724	-0.111	-0.055
-216.567	-143.065	-0.175	0.017
-215.552	352.332	0.059	0.118
-214.538	-106.519	-0.129	0.029
-213.523	325.771	-0.160	-0.307
-212.509	117.634	-0.165	0.204
-211.494	76.995	0.236	-0.252
-210.479	-22.803	-0.168	0.102
-209.465	419.911	0.047	0.100
-208.450	51.020	-0.051	-0.048
-207.436	-136.562	-0.045	-0.005
-206.421	-200.000	0.012	0.209
-205.406	-156.388	0.182	0.011
-204.392	-66.436	0.113	-0.045
-203.377	372.533	-0.032	-0.065
-202.363	117.250	0.151	0.186
-201.348	-155.041	-0.194	-0.013
-200.333	-200.000	-0.003	0.184
-199.319	-30.686	0.151	0.085
-198.304	28.746	0.270	0.229
-197.290	119.329	-0.282	-0.350
-196.275	-41.754	0.291	0.150
-195.260	-73.380	-0.231	-0.085
-194.246	306.211	-0.024	0.046
-193.231	319.795	-0.075	0.142
-192.217	119.132	0.116	0.143
-191.202	-19.527	-0.352	0.219
-190.187	13.862	-0.482	-0.376
-189.173	-124.811	0.110	-0.017
-188.158	-200.000	-0.036	0.280
-187.144	-105.851	-0.146	-0.033
-186.129	252.365	0.072	-0.122
-185.114	57.504	-0.093	-0.091
-184.100	800.000	0.069	0.288
-183.085	64.600	0.097	-0.098
-182.071	-200.000	0.147	-0.001
-181.056	264.098	0.162	-0.283
-180.042	-1.682	0.247	-0.174
-179.027	259.665	0.093	0.161
-178.012	-53.706	-0.344	0.158
-176.998	92.901	0.214	-0.243
-175.983	21.946	0.186	0.152
-174.969	800.000	0.062	-0.192
-173.954	643.649	-0.072	-0.184
-172.939	-200.000	0.007	0.281
-171.925	-197.213	-0.357	0.002
-170.910	-155.970	-0.233	0.015
-169.896	152.378	-0.216	0.295
-168.881	-200.000	0.001	0.264
-167.866	-200.000	-0.014	-0.294
-166.852	-200.000	-0.013	-0.236
-165.837	52.157	0.031	0.030
-164.823	-200.000	0.014	-0.413
-163.808	68.414	0.269	0.277
-162.793	-200.000	-0.046	0.229
-161.779	418.598	0.122	-0.262
-160.764	-139.331	0.132	0.014
-159.750	240.636	0.065	0.109
-158.735	-98.254	0.257	-0.066
-157.720	35.791	0.261	0.230
-156.706	-138.717	0.138	0.015
-155.691	-13.176	0.127	0.083
-154.677	97.162	-0.225	-0.259
-153.662	800.000	0.047	0.177
-152.647	-47.389	-0.093	0.045
-151.633	-37.178	-0.202	0.108
-150.618	-104.944	0.028	-0.007
-149.604	69.447	-0.107	0.110
-148.589	3.276	-0.141	0.103
-147.574	-200.000	-0.007	0.091
-146.560	800.000	0.023	-0.071
-145.545	-108.602	0.131	0.028
-144.531	-140.409	0.217	0.023
-143.516	-200.000	-0.014	0.164
-142.502	-200.000	0.004	0.513
-141.487	-200.000	0.050	0.244
-140.472	-55.367	-0.164	0.073
-139.458	249.716	-0.099	0.168
-138.443	-27.432	0.227	0.132
-137.429	-50.673	0.138	-0.065
-136.414	774.482	0.070	-0.192
-135.399	-156.305	0.341	0.021
-134.385	-200.000	-0.017	-0.185
-133.370	40.559	0.229	0.206
-132.356	77.917	-0.060	0.064
-131.341	21.621	0.266	0.217
-130.326	-200.000	0.005	0.201
-129.312	-99.095	-0.359	0.091
-128.297	-14.187	0.263	-0.169
-127.283	-127.085	-0.106	0.016
-126.268	-200.000	-0.003	-0.078
-125.253	-200.000	0.026	-0.247
-124.239	23.567	-0.173	0.143
-123.224	-7.437	-0.073	-0.050
-122.210	17.044	0.079	-0.063
-121.195	800.000	0.058	-0.238
-120.180	-12.047	-0.045	-0.030
