DTS Sentinel unit serial number:	SN413079Multiplexer serial number:	ORYXHardware model number:	OX4-SRSoftware version number:	ORYX F/W v4.00 Oryx Data Collector v3.7.2.0data status	okinstallation	princeton_trtdifferential loss correction	single-endedforward channel	channel 4reverse channel	N/Adate	2019/09/12time	09:03:11forward acquisition time	60.00reverse acquisition time	0.00gamma	496.2192k internal	0.2299k external	0.2299temperature offset calibration	1.0066default loss term (dB/km)	0.3790temperature slope calibration	1.0000multiplexer offset coefficient	1.0000multiplexer slope coefficient	1.0000fibre end	0.00T internal ref (°C)	34.31T ext. ref 1 (°C)	1.76T ext. ref 2 (°C)	31.64length (m)	temperature (°C)	Stokes	anti-Stokes-747.200	800.000	-0.109	0.427
-746.185	-52.065	-0.238	0.113
-745.171	19.065	0.086	0.070
-744.156	-200.000	-0.035	0.285
-743.142	11.351	-0.161	0.126
-742.127	78.763	-0.236	0.258
-741.112	-200.000	-0.079	-0.368
-740.098	53.521	-0.138	-0.135
-739.083	-53.266	-0.351	-0.164
-738.069	64.299	0.231	0.237
-737.054	8.026	-0.173	0.133
-736.039	-200.000	0.003	-0.088
-735.025	800.000	0.061	0.259
-734.010	-200.000	-0.011	-0.088
-732.996	427.085	0.041	-0.091
-731.981	-134.307	-0.214	0.027
-730.966	101.564	0.130	-0.154
-729.952	26.702	0.147	-0.126
-728.937	42.120	-0.128	-0.119
-727.923	157.235	-0.097	0.136
-726.908	155.454	0.161	-0.226
-725.894	800.000	0.027	0.091
-724.879	45.111	0.256	0.240
-723.864	-51.652	0.050	-0.024
-722.850	133.673	0.165	-0.218
-721.835	30.558	-0.294	-0.256
-720.821	499.077	0.105	-0.246
-719.806	110.955	-0.162	0.199
-718.791	11.165	-0.176	0.137
-717.777	185.716	0.041	0.062
-716.762	197.167	-0.084	0.131
-715.748	171.501	-0.112	0.163
-714.733	-106.378	-0.118	0.027
-713.718	156.181	-0.167	0.236
-712.704	255.593	0.146	-0.255
-711.689	-200.000	0.005	-0.250
-710.675	-102.153	0.287	-0.070
-709.660	800.000	0.057	0.250
-708.645	-200.000	0.022	-0.181
-707.631	461.817	0.048	0.109
-706.616	-200.000	-0.014	-0.086
-705.602	-68.023	0.250	-0.100
-704.587	-200.000	0.021	-0.407
-703.572	-63.790	-0.188	-0.078
-702.558	115.760	-0.141	-0.176
-701.543	171.662	0.231	-0.337
-700.529	69.016	-0.136	-0.142
-699.514	675.745	-0.090	-0.239
-698.499	-200.000	-0.011	-0.274
-697.485	-200.000	-0.023	-0.254
-696.470	-47.784	-0.156	-0.077
-695.456	124.934	-0.025	0.032
-694.441	279.380	0.056	0.101
-693.426	-119.841	0.280	0.049
-692.412	-111.406	0.162	0.034
-691.397	-127.066	0.316	-0.047
-690.383	11.724	0.288	-0.225
-689.368	94.552	-0.145	-0.168
-688.354	-200.000	-0.016	0.112
-687.339	144.555	-0.099	0.134
-686.324	-69.342	-0.126	0.049
-685.310	-110.267	-0.161	-0.034
-684.295	800.000	-0.147	0.522
-683.281	11.131	-0.182	0.142
-682.266	6.247	0.136	0.103
-681.251	-200.000	-0.005	-0.122
-680.237	130.685	-0.146	0.191
-679.222	284.118	-0.177	-0.323
-678.208	-200.000	-0.018	0.097
-677.193	-71.443	0.101	0.038
-676.178	-200.000	-0.066	-0.363
-675.164	-185.714	0.356	0.005
-674.149	-200.000	-0.015	0.163
-673.135	-43.942	0.223	-0.114
-672.120	-115.586	0.375	-0.072
-671.105	-88.879	-0.120	0.036
-670.091	-128.381	-0.322	0.047
-669.076	-64.661	-0.447	-0.185
-668.062	-92.735	-0.281	-0.080
-667.047	-73.235	0.169	0.063
-666.032	85.907	0.020	0.022
-665.018	800.000	0.053	-0.221
-664.003	232.718	0.065	-0.109
-662.989	-35.116	0.345	-0.191
-661.974	-33.667	-0.225	0.126
-660.959	134.588	-0.060	0.079
-659.945	-73.548	-0.120	-0.044
-658.930	-200.000	0.034	-0.165
-657.916	99.034	-0.151	0.178
-656.901	-61.004	-0.216	0.093
-655.886	800.000	-0.064	-0.191
-654.872	-27.851	-0.342	0.202
-653.857	-144.505	-0.385	0.036
-652.843	-200.000	0.039	0.182
-651.828	12.697	0.101	0.080
-650.814	800.000	-0.053	-0.190
-649.799	-75.061	-0.114	0.041
-648.784	-14.562	0.231	0.151
-647.770	329.979	-0.009	-0.018
-646.755	-84.168	-0.203	0.065
-645.741	53.661	0.160	0.156
-644.726	-28.989	-0.328	0.192
-643.711	-64.260	0.201	-0.083
-642.697	176.013	0.136	-0.201
-641.682	-135.570	-0.058	0.007
-640.668	22.534	-0.180	-0.150
-639.653	167.393	-0.164	0.237
-638.638	-14.854	0.284	-0.185
-637.624	800.000	-0.082	-0.315
-636.609	-68.326	0.423	0.167
-635.595	244.412	-0.228	-0.389
-634.580	800.000	-0.043	0.133
-633.565	347.721	-0.135	0.269
-632.551	195.744	-0.116	0.179
-631.536	-61.111	0.374	0.160
-630.522	208.873	0.268	0.426
-629.507	296.109	0.041	0.077
-628.492	-157.890	-0.219	0.013
-627.478	34.908	-0.057	0.050
-626.463	800.000	0.063	-0.199
-625.449	-200.000	-0.002	-0.053
-624.434	-200.000	-0.007	-0.111
-623.419	83.109	-0.239	0.264
-622.405	294.394	0.204	0.379
-621.390	505.479	-0.113	-0.267
-620.376	-110.683	0.076	-0.016
-619.361	-200.000	0.018	0.167
-618.346	800.000	-0.026	0.082
-617.332	-88.864	0.233	-0.070
-616.317	-200.000	0.027	-0.223
-615.303	176.229	-0.045	0.067
-614.288	800.000	0.059	0.181
-613.273	-123.538	-0.134	0.022
-612.259	671.750	-0.062	0.162
-611.244	709.544	-0.102	0.274
-610.230	-200.000	-0.006	-0.060
-609.215	395.972	0.057	0.121
-608.201	201.000	0.137	-0.213
-607.186	30.621	0.180	-0.156
-606.171	-27.604	-0.059	0.035
-605.157	137.351	-0.123	0.163
-604.142	-200.000	-0.081	0.396
-603.128	48.513	0.035	-0.033
-602.113	-6.985	-0.094	-0.065
-601.098	-200.000	-0.068	0.471
-600.084	99.215	0.094	-0.110
-599.069	711.439	-0.042	0.113
-598.055	553.343	0.104	-0.253
-597.040	-200.000	0.030	0.162
-596.025	-88.929	-0.143	-0.043
-595.011	44.248	-0.163	-0.152
-593.996	39.905	-0.167	0.152
-592.982	346.397	-0.202	0.404
-591.967	-10.885	-0.189	0.127
-590.952	-50.624	-0.011	-0.005
-589.938	536.056	0.045	-0.108
-588.923	240.334	-0.157	0.266
-587.909	-144.276	-0.083	0.008
-586.894	52.807	0.304	0.295
-585.879	-14.130	0.248	0.162
-584.865	127.410	-0.097	-0.125
-583.850	240.492	0.066	0.112
-582.836	800.000	0.078	0.236
-581.821	-67.875	-0.466	0.185
-580.806	-200.000	-0.030	-0.137
-579.792	-200.000	-0.018	-0.216
-578.777	-54.029	-0.511	-0.236
-577.763	754.799	-0.066	-0.182
-576.748	756.460	-0.023	-0.063
-575.733	800.000	-0.056	0.230
-574.719	520.775	-0.033	0.077
-573.704	-3.040	-0.209	-0.148
-572.690	-200.000	0.001	-0.043
-571.675	800.000	-0.027	-0.114
-570.661	17.476	-0.195	-0.157
-569.646	124.012	-0.122	0.155
-568.631	77.455	0.142	-0.153
-567.617	-141.973	-0.300	-0.030
-566.602	-71.321	-0.268	-0.102
-565.588	208.087	-0.047	-0.074
-564.573	14.865	-0.014	-0.011
-563.558	549.896	-0.023	-0.057
-562.544	-14.060	-0.272	-0.178
-561.529	457.735	-0.101	0.227
-560.515	349.878	-0.147	0.295
-559.500	81.435	-0.143	-0.157
-558.485	-200.000	-0.018	-0.178
-557.471	-200.000	-0.027	-0.149
-556.456	-200.000	-0.001	-0.161
-555.442	800.000	-0.109	0.373
-554.427	-1.875	0.127	0.091
-553.412	800.000	0.070	0.258
-552.398	-200.000	0.035	-0.201
-551.383	632.941	-0.038	-0.097
-550.369	-116.306	-0.179	0.034
-549.354	-27.583	-0.430	0.253
-548.339	-200.000	-0.009	0.202
-547.325	-159.211	0.032	-0.002
-546.310	-129.502	0.145	0.020
-545.296	800.000	-0.069	0.245
-544.281	-127.152	-0.259	-0.038
-543.266	-200.000	-0.027	0.342
-542.252	427.885	-0.081	-0.176
-541.237	-59.623	0.434	0.188
-540.223	-157.620	-0.111	0.007
-539.208	-89.539	0.027	0.008
-538.193	-200.000	-0.051	-0.250
-537.179	-99.809	-0.322	0.081
-536.164	611.938	-0.053	-0.134
-535.150	-84.300	-0.156	0.050
-534.135	-115.322	0.483	0.092
-533.121	-45.699	0.060	-0.030
-532.106	40.923	0.222	-0.203
-531.091	61.296	-0.266	-0.268
-530.077	-133.057	-0.503	0.065
-529.062	-200.000	-0.000	-0.268
-528.048	-200.000	-0.023	-0.271
-527.033	260.803	-0.162	-0.284
-526.018	-49.386	0.148	0.072
-525.004	-118.928	-0.327	-0.058
-523.989	66.951	0.160	0.165
-522.975	8.965	-0.146	-0.111
-521.960	11.784	0.235	-0.183
-520.945	800.000	0.022	0.091
-519.931	65.705	-0.254	0.260
-518.916	-64.796	0.164	-0.067
-517.902	-72.613	0.177	-0.066
-516.887	-35.126	-0.114	0.063
-515.872	-200.000	0.010	-0.210
-514.858	64.138	-0.065	0.067
-513.843	-146.108	0.327	-0.029
-512.829	-20.835	-0.115	-0.071
-511.814	-200.000	0.039	0.358
-510.799	94.318	-0.280	0.321
-509.785	800.000	0.050	0.212
-508.770	633.966	0.089	0.229
-507.756	64.838	0.132	-0.135
-506.741	-186.474	-0.223	0.003
-505.726	-157.781	0.161	0.010
-504.712	732.151	0.032	-0.085
-503.697	-97.208	-0.235	0.062
-502.683	85.630	-0.227	0.252
-501.668	106.514	0.113	-0.135
-500.653	-38.135	-0.173	0.093
-499.639	-107.468	-0.178	-0.039
-498.624	-131.371	-0.055	0.007
-497.610	-84.884	-0.114	0.036
-496.595	-134.396	0.105	0.013
-495.581	230.204	0.026	-0.044
-494.566	-127.050	-0.205	-0.030
-493.551	-200.000	-0.016	0.211
-492.537	61.425	-0.118	0.118
-491.522	-200.000	0.004	-0.128
-490.508	23.472	-0.285	0.237
-489.493	665.144	-0.059	0.153
-488.478	-61.961	-0.092	-0.039
-487.464	-20.433	0.133	0.082
-486.449	-60.639	0.156	0.067
-485.435	-200.000	-0.012	-0.361
-484.420	-200.000	0.021	0.216
-483.405	-56.520	0.266	0.119
-482.391	-125.789	0.314	-0.048
-481.376	467.965	-0.061	0.139
-480.362	-54.685	0.204	-0.093
-479.347	-200.000	-0.043	0.193
-478.332	227.710	0.160	-0.262
-477.318	-64.135	0.321	0.132
-476.303	-55.353	0.203	-0.092
-475.289	-200.000	-0.039	0.328
-474.274	462.394	-0.136	-0.307
-473.259	11.070	0.147	0.113
-472.245	579.376	0.114	0.283
-471.230	-129.970	0.212	0.029
-470.216	-200.000	0.079	0.438
-469.201	-154.355	-0.156	-0.011
-468.186	270.556	0.038	-0.067
-467.172	-200.000	-0.020	-0.110
-466.157	-44.775	0.028	0.014
-465.143	26.399	-0.016	0.013
-464.128	-97.797	-0.148	-0.039
-463.113	-34.679	-0.264	-0.146
-462.099	725.613	0.124	-0.333
-461.084	341.074	-0.077	-0.151
-460.070	-96.303	0.066	-0.018
-459.055	64.825	0.120	0.122
-458.040	-15.489	0.300	-0.193
-457.026	483.413	-0.038	0.088
-456.011	374.111	0.047	-0.096
-454.997	-26.732	0.301	0.178
-453.982	-76.778	0.098	-0.035
-452.968	800.000	-0.038	-0.161
-451.953	-200.000	-0.005	0.042
-450.938	-101.559	-0.335	-0.082
-449.924	800.000	0.079	0.266
-448.909	-28.376	-0.049	0.028
-447.895	-200.000	-0.047	-0.501
-446.880	-199.368	0.121	0.001
-445.865	472.554	-0.037	-0.083
-444.851	800.000	-0.120	-0.338
-443.836	800.000	0.028	0.094
-442.822	197.248	-0.110	0.169
-441.807	-200.000	0.048	-0.430
-440.792	-122.825	-0.384	0.062
-439.778	800.000	0.041	-0.173
-438.763	-200.000	0.051	-0.246
-437.749	-109.375	0.243	0.052
-436.734	-46.577	0.173	-0.086
-435.719	30.173	-0.030	0.026
-434.705	16.450	0.068	0.054
-433.690	23.324	-0.170	-0.141
-432.676	-200.000	-0.050	-0.235
-431.661	30.877	-0.100	0.087
-430.646	800.000	0.058	0.183
-429.632	16.686	-0.068	-0.055
-428.617	102.020	0.048	-0.057
-427.603	-200.000	0.017	0.076
-426.588	-39.817	-0.231	0.122
-425.573	-34.383	0.354	-0.195
-424.559	-109.759	0.428	0.091
-423.544	29.810	-0.221	-0.189
-422.530	-159.184	0.242	-0.014
-421.515	46.601	-0.310	0.290
-420.500	-102.231	0.232	0.056
-419.486	535.794	-0.064	-0.153
-418.471	15.831	-0.308	0.244
-417.457	-200.000	0.003	-0.116
-416.442	743.703	-0.097	-0.264
-415.428	39.883	0.183	-0.166
-414.413	-97.269	0.105	-0.028
-413.398	114.628	-0.079	0.097
-412.384	30.311	0.175	-0.150
-411.369	175.095	-0.089	-0.130
-410.355	457.084	-0.094	0.211
-409.340	222.772	-0.030	-0.049
-408.325	111.516	0.226	-0.274
-407.311	8.358	-0.202	-0.153
-406.296	-20.061	0.188	-0.117
-405.282	-65.240	0.243	0.098
-404.267	-71.051	-0.136	0.052
-403.252	274.234	-0.100	-0.179
-402.238	-200.000	0.047	0.398
-401.223	41.120	0.250	0.228
-400.209	578.038	-0.110	-0.272
-399.194	126.653	0.115	-0.147
-398.179	433.242	0.090	-0.196
-397.165	135.585	-0.104	-0.137
-396.150	17.284	0.198	0.158
-395.136	631.936	-0.069	-0.176
-394.121	-117.090	-0.189	0.035
-393.106	-72.681	0.221	-0.082
-392.092	-200.000	-0.037	0.300
-391.077	-31.289	0.084	0.047
-390.063	-75.750	0.101	0.036
-389.048	-109.619	0.186	-0.039
-388.033	-15.623	0.164	-0.105
-387.019	90.072	0.116	0.130
-386.004	-34.272	-0.086	-0.047
-384.990	-40.751	-0.281	-0.146
-383.975	-200.000	-0.018	-0.291
-382.960	-55.891	-0.039	0.017
-381.946	-16.037	-0.402	-0.257
-380.931	-89.662	-0.448	0.132
-379.917	3.696	0.320	0.235
-378.902	-200.000	0.025	-0.171
-377.888	280.197	-0.119	-0.215
-376.873	-62.585	0.125	-0.052
-375.858	253.970	-0.149	-0.257
-374.844	-200.000	0.018	0.085
-373.829	-41.257	0.203	-0.105
-372.815	800.000	-0.016	-0.048
-371.800	-23.285	-0.259	0.157
-370.785	563.512	0.068	0.165
-369.771	186.104	-0.129	0.193
-368.756	800.000	-0.037	0.161
-367.742	-82.379	0.102	0.033
-366.727	-87.623	0.299	-0.091
-365.712	800.000	-0.074	0.251
-364.698	242.534	0.153	-0.258
-363.683	-75.095	0.256	0.092
-362.669	-58.800	0.330	0.143
-361.654	-73.573	0.283	-0.104
-360.639	-42.536	-0.233	0.120
-359.625	68.416	0.031	-0.032
-358.610	-182.677	0.391	-0.007
-357.596	-128.663	-0.388	-0.055
-356.581	-200.000	0.044	-0.260
-355.566	-145.351	-0.247	0.022
-354.552	684.182	-0.130	0.342
-353.537	-200.000	-0.033	0.155
-352.523	486.045	-0.150	-0.344
-351.508	-23.098	-0.247	-0.150
-350.493	464.661	-0.138	0.309
-349.479	-200.000	0.016	-0.072
-348.464	-34.741	0.119	-0.066
-347.450	800.000	-0.053	-0.163
-346.435	271.654	-0.014	0.024
-345.420	31.886	0.197	-0.170
-344.406	-200.000	-0.020	-0.282
-343.391	797.012	0.053	-0.148
-342.377	-96.624	0.399	0.106
-341.362	-87.040	-0.241	0.074
-340.348	121.465	0.120	-0.150
-339.333	-128.901	0.119	-0.017
-338.318	-40.428	0.228	-0.119
-337.304	800.000	0.045	-0.124
-336.289	119.370	0.073	-0.090
-335.275	200.899	-0.042	-0.064
-334.260	96.491	-0.115	0.132
-333.245	-200.000	0.005	-0.109
-332.231	207.744	-0.073	0.114
-331.216	-77.277	0.212	-0.074
-330.202	-137.244	0.160	-0.018
-329.187	-103.384	-0.083	-0.020
-328.172	-200.000	0.007	-0.071
-327.158	-200.000	0.044	0.370
-326.143	171.912	0.070	0.100
-325.129	-59.132	0.250	0.108
-324.114	-42.913	0.179	-0.091
-323.099	283.087	-0.203	0.365
-322.085	-2.905	-0.205	0.144
-321.070	48.084	0.271	-0.255
-320.056	-120.012	0.163	-0.028
-319.041	101.305	-0.119	0.139
-318.026	-51.004	0.256	-0.120
-317.012	230.871	0.211	-0.346
-315.997	10.718	0.158	-0.121
-314.983	49.517	0.042	-0.040
-313.968	284.851	0.040	-0.072
-312.953	60.587	-0.201	-0.200
-311.939	460.958	0.099	0.221
-310.924	-110.573	-0.271	0.056
-309.910	-200.000	0.009	-0.365
-308.895	-53.535	-0.226	0.104
-307.880	57.976	-0.165	-0.162
-306.866	-30.329	-0.070	-0.040
-305.851	88.378	0.215	-0.239
-304.837	45.693	0.215	0.200
-303.822	800.000	0.071	0.231
-302.807	-92.223	0.160	-0.045
-301.793	125.740	0.090	-0.113
-300.778	-200.000	0.002	-0.029
-299.764	102.845	0.237	-0.278
-298.749	60.703	0.215	-0.214
-297.735	206.244	0.202	-0.316
-296.720	160.486	0.081	-0.113
-295.705	310.960	-0.063	-0.119
-294.691	-74.441	0.179	-0.065
-293.676	-84.408	0.363	-0.115
-292.662	-81.554	-0.463	-0.152
-291.647	27.119	0.295	-0.248
-290.632	-139.947	0.329	0.035
-289.618	594.925	-0.109	-0.271
-288.603	-45.594	-0.197	0.098
-287.589	-138.794	0.355	0.039
-286.574	-75.512	0.209	0.074
-285.559	-122.605	0.432	0.070
-284.545	519.916	-0.022	0.053
-283.530	-200.000	0.000	-0.033
-282.516	745.977	0.153	-0.412
-281.501	-136.857	-0.370	0.043
-280.486	-7.536	0.067	-0.045
-279.472	273.731	-0.166	0.294
-278.457	251.246	0.040	-0.068
-277.443	106.823	0.224	0.267
-276.428	-10.822	0.131	-0.087
-275.413	5.089	-0.094	0.069
-274.399	67.343	-0.046	-0.047
-273.384	200.348	0.204	-0.314
-272.370	-96.913	0.140	-0.037
-271.355	540.237	-0.160	-0.381
-270.340	-17.798	0.142	-0.089
-269.326	172.196	0.074	-0.107
-268.311	116.168	0.232	0.285
-267.297	31.884	0.137	-0.118
-266.282	123.378	0.168	0.211
-265.267	265.373	-0.141	0.246
-264.253	-101.753	0.156	0.038
-263.238	-129.046	-0.038	0.005
-262.224	-200.000	-0.010	-0.326
-261.209	800.000	0.091	0.355
-260.195	800.000	-0.079	0.264
-259.180	-64.670	-0.118	0.048
-258.165	-95.841	-0.144	0.038
-257.151	-102.643	0.292	0.070
-256.136	126.249	-0.197	0.250
-255.122	500.990	-0.058	0.133
-254.107	351.455	0.116	-0.230
-253.092	-175.118	-0.161	-0.004
-252.078	-119.848	0.343	0.059
-251.063	567.937	0.009	-0.021
-250.049	289.457	-0.166	0.301
-249.034	285.914	-0.039	-0.070
-248.019	800.000	0.019	0.082
-247.005	166.958	-0.112	0.159
-245.990	321.097	0.081	-0.154
-244.976	154.758	-0.089	-0.122
-243.961	-200.000	0.023	-0.186
-242.946	314.345	-0.079	-0.149
-241.932	44.845	0.142	0.131
-240.917	-41.088	-0.277	0.143
-239.903	-200.000	0.039	-0.200
-238.888	-68.817	0.322	-0.124
-237.873	-28.343	-0.159	0.092
-236.859	-200.000	-0.001	-0.101
-235.844	291.269	0.070	0.128
-234.830	-18.359	-0.135	0.085
-233.815	-99.544	0.135	-0.034
-232.800	96.752	0.077	0.088
-231.786	-41.006	-0.214	0.111
-230.771	-49.930	0.086	-0.041
-229.757	403.002	-0.054	0.114
-228.742	256.196	0.308	0.529
-227.727	-96.900	0.146	0.038
-226.713	800.000	-0.121	0.433
-225.698	284.086	-0.177	0.318
-224.684	-92.800	-0.276	-0.077
-223.669	-19.506	0.183	0.113
-222.655	-42.360	-0.291	0.149
-221.640	-200.000	-0.005	-0.117
-220.625	800.000	-0.047	-0.147
-219.611	462.657	0.109	-0.244
-218.596	12.441	0.270	0.208
-217.582	-115.322	-0.149	0.028
-216.567	-47.777	-0.222	0.108
-215.552	-48.290	0.252	-0.121
-214.538	345.686	0.071	-0.139
-213.523	-129.506	-0.517	0.071
-212.509	-64.326	-0.356	-0.145
-211.494	223.217	0.113	0.182
-210.479	184.952	-0.094	-0.139
-209.465	31.205	0.060	0.052
-208.450	-38.062	-0.077	0.041
-207.436	-109.520	0.224	0.047
-206.421	-200.000	-0.003	-0.194
-205.406	-200.000	0.047	0.207
-204.392	-72.114	0.231	0.086
-203.377	-55.832	0.156	-0.070
-202.363	-146.911	0.189	0.016
-201.348	29.282	-0.152	-0.129
-200.333	-110.188	-0.147	-0.031
-199.319	447.722	-0.069	0.152
-198.304	-200.000	-0.001	0.175
-197.290	800.000	0.034	0.121
-196.275	25.822	0.246	-0.205
-195.260	769.074	-0.040	-0.109
-194.246	800.000	-0.054	-0.212
-193.231	22.660	-0.055	-0.045
-192.217	-200.000	0.012	0.148
-191.202	183.088	0.046	-0.068
-190.187	113.036	-0.062	0.075
-189.173	206.657	-0.174	0.271
-188.158	91.794	-0.216	0.243
-187.144	204.332	-0.217	-0.335
-186.129	-112.594	-0.216	-0.043
-185.114	163.707	0.185	-0.259
-184.100	-67.371	-0.476	-0.187
-183.085	-200.000	-0.007	0.193
-182.071	-200.000	0.032	0.191
-181.056	-170.524	-0.195	-0.007
-180.042	-48.011	0.174	0.084
-179.027	-181.053	-0.487	-0.010
-178.012	-200.000	0.021	0.095
-176.998	-12.923	-0.112	-0.073
-175.983	-200.000	0.031	0.209
-174.969	-200.000	0.030	-0.365
-173.954	-56.074	0.025	0.011
-172.939	-76.818	-0.414	0.145
-171.925	-73.061	-0.296	-0.108
-170.910	228.493	0.166	0.270
-169.896	-15.281	0.251	0.160
-168.881	-61.951	-0.018	0.007
-167.866	132.510	0.287	-0.369
-166.852	-96.319	0.175	-0.046
-165.837	-200.000	0.008	-0.140
-164.823	408.187	0.101	-0.213
-163.808	-200.000	0.000	0.390
-162.793	428.475	0.075	-0.161
-161.779	342.347	0.132	-0.258
-160.764	-200.000	-0.033	0.152
-159.750	-200.000	0.009	0.119
-158.735	47.646	0.094	0.087
-157.720	329.155	0.080	0.153
-156.706	616.377	0.121	-0.304
-155.691	-117.048	-0.252	0.046
-154.677	-55.101	0.262	-0.118
-153.662	554.219	0.078	0.186
-152.647	-34.920	-0.262	-0.143
-151.633	-73.082	-0.318	-0.116
-150.618	-55.718	0.065	0.029
-149.604	137.906	-0.237	-0.310
-148.589	-200.000	0.022	0.148
-147.574	448.951	-0.160	0.351
-146.560	99.095	-0.106	-0.123
-145.545	79.306	0.164	-0.176
-144.531	237.972	0.104	0.171
-143.516	389.057	-0.245	0.506
-142.502	-200.000	0.024	-0.156
-141.487	131.077	0.032	-0.041
-140.472	800.000	0.059	0.258
-139.458	800.000	0.133	-0.393
-138.443	-200.000	0.016	-0.257
-137.429	-200.000	0.061	0.324
-136.414	1.425	-0.164	0.117
-135.399	800.000	0.092	-0.336
-134.385	-48.759	-0.048	0.023
-133.370	-135.752	-0.233	-0.027
-132.356	35.261	-0.202	0.177
-131.341	-144.268	-0.118	0.011
-130.326	60.030	0.192	0.189
-129.312	-200.000	-0.039	0.238
-128.297	-60.065	0.189	0.080
-127.283	733.045	0.053	-0.141
-126.268	800.000	0.170	-0.533
-125.253	-56.719	-0.302	0.133
-124.239	38.709	-0.180	-0.160
-123.224	-125.167	0.290	-0.044
-122.210	229.651	-0.114	-0.186
-121.195	-84.572	-0.236	0.074
