DTS Sentinel unit serial number:	SN413079Multiplexer serial number:	ORYXHardware model number:	OX4-SRSoftware version number:	ORYX F/W v4.00 Oryx Data Collector v3.7.2.0data status	okinstallation	princeton_trtdifferential loss correction	single-endedforward channel	channel 4reverse channel	N/Adate	2019/09/13time	07:37:35forward acquisition time	60.00reverse acquisition time	0.00gamma	496.2192k internal	0.2322k external	0.2322temperature offset calibration	1.0200default loss term (dB/km)	0.3790temperature slope calibration	1.0000multiplexer offset coefficient	1.0000multiplexer slope coefficient	1.0000fibre end	0.00T internal ref (°C)	26.31T ext. ref 1 (°C)	4.20T ext. ref 2 (°C)	22.25length (m)	temperature (°C)	Stokes	anti-Stokes-747.200	-200.000	-0.054	0.292
-746.185	92.169	-0.182	0.207
-745.171	-96.153	0.115	-0.031
-744.156	-82.073	-0.400	0.132
-743.142	-149.767	0.157	-0.012
-742.127	-200.000	0.060	0.305
-741.112	-106.480	-0.277	-0.063
-740.098	19.820	-0.212	-0.172
-739.083	94.979	-0.112	0.129
-738.069	192.780	-0.138	0.211
-737.054	-88.432	0.163	0.049
-736.039	-91.138	-0.423	-0.123
-735.025	-62.198	0.132	0.056
-734.010	597.854	-0.106	-0.266
-732.996	-45.831	-0.385	-0.192
-731.981	-165.829	-0.137	0.006
-730.966	-67.974	-0.449	-0.177
-729.952	-200.000	-0.000	-0.177
-728.937	-13.952	-0.138	-0.090
-727.923	-66.557	-0.208	0.083
-726.908	4.811	-0.184	0.137
-725.894	-200.000	-0.013	0.163
-724.879	-200.000	0.002	-0.094
-723.864	-15.246	-0.360	0.233
-722.850	-77.658	0.153	-0.054
-721.835	800.000	0.200	-0.566
-720.821	66.942	-0.336	-0.346
-719.806	-22.327	-0.177	-0.108
-718.791	-200.000	-0.154	0.000
-717.777	-161.917	-0.265	0.014
-716.762	-126.816	0.105	0.016
-715.748	191.863	-0.040	-0.061
-714.733	98.207	-0.232	-0.270
-713.718	-200.000	-0.047	-0.368
-712.704	288.782	-0.137	-0.251
-711.689	82.509	0.312	-0.342
-710.675	-187.867	0.092	0.001
-709.660	127.410	0.100	-0.128
-708.645	185.224	0.069	-0.103
-707.631	-58.885	0.207	0.090
-706.616	47.698	-0.166	0.157
-705.602	383.705	-0.101	-0.210
-704.587	-180.202	-0.183	0.004
-703.572	-147.509	0.465	-0.040
-702.558	527.416	-0.121	0.289
-701.543	-10.335	0.185	0.124
-700.529	800.000	0.033	-0.099
-699.514	86.367	-0.193	-0.214
-698.499	800.000	0.097	-0.379
-697.485	21.618	-0.100	-0.082
-696.470	-200.000	0.058	-0.260
-695.456	149.377	0.025	-0.034
-694.441	-120.771	0.117	0.020
-693.426	-200.000	0.014	-0.470
-692.412	-200.000	-0.014	-0.352
-691.397	-200.000	0.023	0.354
-690.383	-149.636	0.238	-0.019
-689.368	800.000	0.080	-0.279
-688.354	138.865	-0.201	-0.266
-687.339	-134.219	0.105	-0.013
-686.324	800.000	0.069	0.219
-685.310	-146.101	-0.187	0.017
-684.295	800.000	0.047	-0.150
-683.281	26.573	0.192	-0.162
-682.266	341.795	0.116	-0.228
-681.251	-52.345	0.040	0.019
-680.237	158.689	-0.111	-0.155
-679.222	-21.799	-0.366	-0.224
-678.208	559.408	-0.216	-0.525
-677.193	-200.000	-0.021	-0.283
-676.178	800.000	0.018	-0.078
-675.164	137.565	-0.091	0.120
-674.149	-200.000	-0.024	-0.108
-673.135	56.550	0.323	0.317
-672.120	-37.833	-0.185	-0.099
-671.105	128.831	0.195	-0.251
-670.091	-26.864	0.348	-0.205
-669.076	261.260	-0.080	0.139
-668.062	17.610	0.183	0.147
-667.047	-11.870	0.202	0.133
-666.032	-31.499	0.327	-0.185
-665.018	-39.989	-0.332	-0.174
-664.003	-84.562	-0.121	0.038
-662.989	161.635	0.052	-0.073
-661.974	800.000	0.020	-0.056
-660.959	69.694	-0.100	0.103
-659.945	-200.000	-0.018	0.111
-658.930	-112.481	-0.335	-0.067
-657.916	-89.429	0.290	0.086
-656.901	-184.433	-0.272	0.004
-655.886	-36.423	-0.213	-0.116
-654.872	209.730	-0.276	0.436
-653.857	-133.417	-0.138	0.018
-652.843	-70.208	-0.126	-0.048
-651.828	-76.560	0.081	-0.029
-650.814	-72.574	0.290	-0.108
-649.799	244.294	0.025	0.042
-648.784	34.594	0.131	0.115
-647.770	-200.000	0.046	-0.402
-646.755	32.332	-0.114	0.099
-645.741	-76.850	0.117	0.041
-644.726	-200.000	0.064	0.345
-643.711	-200.000	-0.006	-0.108
-642.697	98.670	-0.153	-0.178
-641.682	117.576	-0.146	-0.180
-640.668	16.107	-0.133	-0.106
-639.653	-42.981	-0.244	-0.124
-638.638	40.585	0.035	0.032
-637.624	-58.772	-0.236	-0.103
-636.609	-46.450	0.144	-0.071
-635.595	-68.312	0.048	-0.019
-634.580	-1.727	0.132	0.094
-633.565	800.000	0.073	-0.259
-632.551	693.976	0.062	-0.165
-631.536	-122.795	-0.310	-0.050
-630.522	-200.000	-0.038	-0.470
-629.507	731.700	0.054	-0.144
-628.492	-99.948	0.108	0.027
-627.478	49.616	-0.138	-0.130
-626.463	-200.000	-0.031	-0.261
-625.449	-200.000	0.010	0.101
-624.434	-77.080	0.179	0.063
-623.419	329.560	-0.117	-0.226
-622.405	25.582	-0.161	0.135
-621.390	500.871	-0.118	-0.274
-620.376	292.479	0.077	0.140
-619.361	19.517	-0.039	-0.031
-618.346	-122.246	-0.095	-0.016
-617.332	68.505	-0.127	0.131
-616.317	7.495	0.111	-0.084
-615.303	0.813	-0.195	-0.141
-614.288	-25.300	0.216	0.129
-613.273	14.599	0.006	0.005
-612.259	42.529	0.228	-0.209
-611.244	-200.000	0.082	-0.377
-610.230	-7.375	-0.105	0.072
-609.215	600.689	0.112	0.279
-608.201	-7.134	-0.256	-0.175
-607.186	425.615	-0.050	-0.108
-606.171	-77.089	-0.155	-0.054
-605.157	148.875	0.106	0.144
-604.142	-25.944	-0.042	-0.025
-603.128	194.296	0.070	-0.106
-602.113	211.340	0.080	-0.127
-601.098	140.089	0.093	-0.124
-600.084	-19.949	-0.260	0.161
-599.069	468.952	-0.043	-0.096
-598.055	9.338	0.265	-0.202
-597.040	97.221	-0.266	0.307
-596.025	-73.401	-0.240	-0.088
-595.011	-200.000	-0.006	0.084
-593.996	-55.729	0.429	0.193
-592.982	258.363	-0.114	0.197
-591.967	-33.533	0.247	0.137
-590.952	-200.000	-0.014	0.067
-589.938	-200.000	-0.012	-0.240
-588.923	-116.307	0.215	0.040
-587.909	-80.565	-0.311	0.104
-586.894	190.131	0.113	-0.171
-585.879	135.957	0.029	-0.038
-584.865	-137.961	-0.313	-0.035
-583.850	87.002	-0.079	-0.087
-582.836	187.622	-0.162	0.243
-581.821	112.652	-0.083	-0.101
-580.806	272.531	-0.048	0.086
-579.792	643.352	0.065	0.167
-578.777	477.386	0.046	-0.103
-577.763	800.000	-0.129	0.441
-576.748	-34.580	0.388	0.213
-575.733	-99.806	0.161	0.040
-574.719	-102.034	-0.128	-0.031
-573.704	211.998	0.073	-0.115
-572.690	268.567	0.072	0.127
-571.675	235.130	0.094	-0.157
-570.661	139.498	0.141	-0.186
-569.646	-122.134	0.117	0.019
-568.631	-48.860	-0.029	0.014
-567.617	-14.057	0.110	0.071
-566.602	-200.000	-0.026	-0.136
-565.588	647.261	-0.062	-0.160
-564.573	-2.303	0.314	-0.221
-563.558	98.643	-0.179	0.208
-562.544	-66.926	0.053	-0.021
-561.529	-32.476	0.093	0.052
-560.515	-52.655	0.182	-0.084
-559.500	-200.000	-0.004	0.378
-558.485	-200.000	0.005	0.431
-557.471	285.901	0.153	0.278
-556.456	-200.000	0.045	0.205
-555.442	-141.083	-0.171	0.018
-554.427	16.147	0.067	0.053
-553.412	340.897	0.152	0.298
-552.398	366.660	-0.068	0.138
-551.383	174.883	-0.221	0.320
-550.369	37.740	-0.177	-0.158
-549.354	180.120	0.149	0.219
-548.339	-55.864	-0.298	0.134
-547.325	800.000	-0.037	0.136
-546.310	800.000	0.062	-0.263
-545.296	-126.009	0.191	0.029
-544.281	-200.000	-0.049	-0.348
-543.266	800.000	0.035	0.109
-542.252	14.122	0.226	0.176
-541.237	30.431	-0.197	0.169
-540.223	-68.896	-0.148	-0.057
-539.208	-60.173	-0.069	0.029
-538.193	220.630	0.030	-0.048
-537.179	-23.706	-0.069	0.041
-536.164	-28.161	0.302	-0.175
-535.150	800.000	-0.012	0.047
-534.135	343.491	0.052	-0.103
-533.121	-61.808	0.206	0.086
-532.106	202.785	-0.144	0.223
-531.091	42.656	0.129	0.117
-530.077	547.168	0.084	-0.201
-529.062	-65.787	0.224	0.090
-528.048	32.250	-0.121	0.105
-527.033	-200.000	-0.010	-0.335
-526.018	-48.195	0.212	0.102
-525.004	-106.600	-0.207	-0.046
-523.989	-47.648	0.357	0.174
-522.975	800.000	-0.127	0.365
-521.960	-200.000	0.020	-0.150
-520.945	-200.000	-0.001	-0.064
-519.931	8.510	-0.035	0.027
-518.916	97.646	-0.244	0.281
-517.902	-198.500	-0.265	0.002
-516.887	-200.000	-0.018	-0.101
-515.872	-123.763	0.237	-0.037
-514.858	-15.966	0.044	-0.028
-513.843	234.355	-0.071	0.116
-512.829	140.926	0.122	-0.161
-511.814	-73.672	-0.026	-0.010
-510.799	104.649	-0.216	-0.255
-509.785	132.717	0.010	0.013
-508.770	-152.343	-0.054	0.004
-507.756	-83.285	0.116	-0.037
-506.741	-35.531	0.115	-0.062
-505.726	220.377	-0.134	0.215
-504.712	-200.000	0.005	0.084
-503.697	-32.872	-0.231	0.128
-502.683	-100.551	0.096	0.024
-501.668	-122.453	0.280	-0.046
-500.653	228.512	-0.191	0.311
-499.639	455.258	-0.111	0.246
-498.624	-122.844	0.194	-0.031
-497.610	118.573	0.275	-0.340
-496.595	-153.736	0.229	0.016
-495.581	-200.000	0.033	-0.176
-494.566	179.304	0.108	-0.159
-493.551	429.133	-0.097	-0.209
-492.537	800.000	0.065	0.213
-491.522	-59.935	0.252	0.108
-490.508	131.746	-0.046	0.059
-489.493	54.387	0.240	0.232
-488.478	241.593	-0.060	0.100
-487.464	270.573	0.131	-0.230
-486.449	314.379	0.136	-0.256
-485.435	-40.791	-0.209	0.108
-484.420	8.471	-0.136	-0.102
-483.405	181.761	0.081	-0.119
-482.391	740.774	-0.050	0.134
-481.376	-71.014	-0.131	0.049
-480.362	-50.254	-0.220	0.104
-479.347	194.571	-0.116	0.176
-478.332	800.000	0.045	0.186
-477.318	-56.127	0.264	-0.117
-476.303	-38.482	0.121	0.064
-475.289	-3.934	-0.213	-0.148
-474.274	-200.000	-0.056	-0.254
-473.259	58.374	-0.298	-0.292
-472.245	116.461	0.084	0.103
-471.230	318.264	0.009	0.017
-470.216	800.000	-0.082	-0.267
-469.201	100.415	-0.039	0.046
-468.186	-99.605	0.147	-0.037
-467.172	-107.545	-0.186	-0.041
-466.157	37.834	-0.230	-0.205
-465.143	-44.587	0.136	0.068
-464.128	125.320	-0.025	0.032
-463.113	564.134	-0.014	0.035
-462.099	439.184	-0.044	0.096
-461.084	-7.479	-0.133	0.090
-460.070	-17.974	0.207	0.130
-459.055	800.000	-0.026	-0.112
-458.040	-144.228	-0.139	0.013
-457.026	-200.000	-0.001	0.087
-456.011	124.627	0.183	-0.230
-454.997	-137.882	0.401	0.045
-453.982	800.000	0.072	0.249
-452.968	-47.351	0.091	0.044
-451.953	123.152	0.201	-0.252
-450.938	-104.000	-0.212	0.049
-449.924	-200.000	-0.028	-0.277
-448.909	800.000	-0.047	-0.132
-447.895	176.415	0.176	0.255
-446.880	-189.920	-0.331	0.004
-445.865	32.207	-0.227	-0.196
-444.851	148.518	-0.135	0.182
-443.836	-71.265	0.360	-0.135
-442.822	-5.461	-0.218	0.150
-441.807	48.197	-0.074	-0.069
-440.792	-62.770	-0.203	0.084
-439.778	-20.264	0.219	0.134
-438.763	176.259	0.070	-0.102
-437.749	-50.377	-0.158	0.074
-436.734	744.111	-0.079	-0.211
-435.719	-200.000	0.120	-0.580
-434.705	112.718	-0.241	-0.291
-433.690	-200.000	0.007	-0.084
-432.676	-46.152	0.293	-0.144
-431.661	-37.017	-0.179	-0.096
-430.646	-200.000	0.011	-0.195
-429.632	-59.564	0.126	-0.054
-428.617	-45.538	0.216	-0.107
-427.603	650.242	0.019	0.047
-426.588	-200.000	-0.020	0.216
-425.573	800.000	0.033	0.110
-424.559	-72.006	0.066	-0.024
-423.544	50.589	-0.185	0.174
-422.530	-200.000	0.058	-0.381
-421.515	76.756	-0.225	-0.238
-420.500	800.000	-0.078	0.240
-419.486	-85.129	-0.127	0.040
-418.471	203.033	0.066	0.102
-417.457	-70.438	-0.151	-0.057
-416.442	-39.015	-0.278	0.146
-415.428	261.089	-0.099	-0.171
-414.413	-158.032	0.159	-0.009
-413.398	547.881	-0.075	-0.180
-412.384	-200.000	-0.081	0.000
-411.369	-96.695	0.393	-0.103
-410.355	-3.168	-0.108	0.075
-409.340	732.794	-0.058	-0.154
-408.325	495.296	-0.126	-0.288
-407.311	-78.453	0.120	0.041
-406.296	726.653	-0.055	-0.145
-405.282	-54.986	-0.388	-0.174
-404.267	236.747	-0.061	-0.100
-403.252	122.676	0.090	0.112
-402.238	-200.000	-0.054	0.453
-401.223	800.000	-0.037	0.157
-400.209	381.323	-0.138	-0.282
-399.194	-11.143	0.202	0.133
-398.179	-200.000	0.001	0.048
-397.165	800.000	0.031	0.095
-396.150	18.224	-0.117	-0.093
-395.136	-49.916	0.187	0.088
-394.121	174.198	0.209	0.302
-393.106	800.000	-0.192	0.554
-392.092	274.909	-0.087	-0.153
-391.077	22.236	0.034	-0.028
-390.063	42.266	-0.248	-0.224
-389.048	45.950	-0.365	-0.337
-388.033	63.802	0.065	-0.065
-387.019	184.462	0.104	-0.153
-386.004	728.370	0.051	-0.135
-384.990	-200.000	0.011	-0.065
-383.975	600.925	0.139	-0.343
-382.960	-91.426	0.312	0.089
-381.946	-21.822	0.370	0.224
-380.931	41.675	-0.193	-0.174
-379.917	-107.790	0.423	0.092
-378.902	800.000	0.052	0.191
-377.888	-200.000	0.034	0.264
-376.873	-151.222	-0.081	-0.006
-375.858	-153.330	0.238	0.016
-374.844	-19.754	0.111	0.068
-373.829	-200.000	-0.028	-0.176
-372.815	-200.000	-0.015	0.159
-371.800	-200.000	0.031	-0.171
-370.785	514.099	-0.113	-0.263
-369.771	12.728	0.152	-0.117
-368.756	-200.000	0.395	-0.001
-367.742	800.000	0.096	-0.319
-366.727	-55.482	-0.333	-0.149
-365.712	193.362	-0.078	0.118
-364.698	-27.273	0.252	0.146
-363.683	-200.000	0.033	0.196
-362.669	-162.713	0.262	0.013
-361.654	2.150	-0.291	0.209
-360.639	404.878	0.220	0.462
-359.625	259.011	-0.119	-0.204
-358.610	73.369	-0.094	0.098
-357.596	186.180	-0.106	0.157
-356.581	-36.813	0.044	-0.024
-355.566	-182.816	0.461	-0.008
-354.552	-119.526	0.352	0.061
-353.537	800.000	0.028	0.091
-352.523	-200.000	-0.002	-0.040
-351.508	-118.920	-0.298	0.052
-350.493	-101.671	-0.362	0.087
-349.479	-89.226	0.326	-0.096
-348.464	-92.436	-0.157	-0.044
-347.450	-57.209	-0.298	0.130
-346.435	523.834	-0.086	-0.202
-345.420	-44.789	-0.321	0.159
-344.406	13.647	0.072	0.055
-343.391	573.598	-0.088	-0.213
-342.377	-96.243	-0.169	-0.045
-341.362	800.000	-0.085	0.331
-340.348	-115.277	0.100	0.019
-339.333	-200.000	-0.026	0.223
-338.318	-195.196	0.274	-0.002
-337.304	-172.637	-0.262	0.008
-336.289	-144.078	-0.204	0.019
-335.275	-200.000	-0.034	0.312
-334.260	25.163	-0.197	-0.163
-333.245	-200.000	0.009	-0.184
-332.231	120.055	-0.060	-0.075
-331.216	-175.874	0.245	-0.006
-330.202	457.100	-0.094	-0.207
-329.187	183.361	0.260	0.382
-328.172	-75.625	0.125	-0.044
-327.158	-6.219	0.082	0.055
-326.143	441.704	0.209	-0.454
-325.129	63.365	-0.044	-0.044
-324.114	800.000	-0.073	0.316
-323.099	800.000	-0.060	0.203
-322.085	157.863	-0.221	-0.304
-321.070	-81.829	-0.153	0.050
-320.056	1.127	-0.126	0.090
-319.041	-1.099	0.305	-0.215
-318.026	42.675	-0.031	-0.028
-317.012	-69.499	0.331	-0.126
-315.997	359.987	-0.080	0.158
-314.983	-97.003	0.498	-0.130
-313.968	23.352	0.060	0.049
-312.953	73.947	-0.286	0.298
-311.939	800.000	-0.079	-0.340
-310.924	102.544	0.113	0.132
-309.910	-1.253	0.136	-0.096
-308.895	199.725	0.207	0.316
-307.880	800.000	-0.036	0.122
-306.866	148.708	-0.156	0.210
-305.851	-200.000	-0.002	-0.084
-304.837	99.697	0.070	-0.080
-303.822	20.016	0.118	0.094
-302.807	56.682	-0.149	0.144
-301.793	319.216	-0.170	0.320
-300.778	-65.472	0.045	0.018
-299.764	-58.744	-0.392	-0.169
-298.749	176.561	0.160	-0.231
-297.735	-127.291	-0.109	0.016
-296.720	-200.000	0.006	0.246
-295.705	180.527	-0.171	0.249
-294.691	148.181	0.209	-0.280
-293.676	-121.092	-0.397	-0.066
-292.662	-30.942	-0.214	0.120
-291.647	592.859	-0.157	0.384
-290.632	35.444	0.085	-0.074
-289.618	17.219	-0.380	0.299
-288.603	264.728	0.084	0.146
-287.589	-200.000	-0.047	0.613
-286.574	-29.181	0.049	0.028
-285.559	-79.972	-0.126	0.042
-284.545	486.566	-0.110	-0.249
-283.530	-69.700	-0.163	-0.062
-282.516	-87.574	-0.341	0.102
-281.501	-200.000	0.006	0.111
-280.486	15.533	-0.056	0.044
-279.472	-60.534	0.373	0.157
-278.457	-200.000	0.008	0.057
-277.443	-68.815	0.250	0.096
-276.428	105.329	0.375	0.439
-275.413	-200.000	-0.008	-0.060
-274.399	-200.000	-0.004	-0.121
-273.384	231.413	0.192	-0.312
-272.370	340.174	-0.060	0.117
-271.355	14.486	0.102	0.079
-270.340	-68.786	0.206	-0.079
-269.326	-45.958	0.122	-0.060
-268.311	197.502	-0.199	0.301
-267.297	71.217	0.067	0.069
-266.282	800.000	0.126	-0.410
-265.267	-98.669	-0.073	-0.018
-264.253	-119.298	-0.071	0.012
-263.238	-92.200	0.167	-0.047
-262.224	195.242	-0.101	-0.152
-261.209	88.308	-0.328	-0.361
-260.195	-124.398	0.107	0.016
-259.180	93.123	0.221	0.247
-258.165	-68.823	-0.346	-0.133
-257.151	-143.106	0.485	-0.046
-256.136	638.172	-0.047	0.119
-255.122	218.289	-0.073	-0.116
-254.107	-139.433	0.214	0.023
-253.092	-140.687	0.157	-0.016
-252.078	-200.000	0.082	0.461
-251.063	-118.914	0.053	0.009
-250.049	-86.096	0.063	-0.019
-249.034	177.109	-0.202	-0.291
-248.019	800.000	0.008	-0.030
-247.005	-49.163	-0.201	-0.095
-245.990	764.354	0.089	0.239
-244.976	800.000	-0.048	-0.150
-243.961	390.035	0.183	-0.376
-242.946	-111.895	0.282	-0.056
-241.932	182.718	0.268	-0.392
-240.917	316.603	0.081	0.152
-239.903	53.911	0.155	0.148
-238.888	12.440	-0.143	-0.109
-237.873	16.728	0.053	0.041
-236.859	121.441	0.125	-0.154
-235.844	-9.650	0.251	0.166
-234.830	-113.093	-0.130	0.025
-233.815	-200.000	0.045	0.322
-232.800	-147.559	-0.287	-0.024
-231.786	-165.035	0.178	-0.008
-230.771	27.113	-0.368	0.306
-229.757	800.000	0.086	0.251
-228.742	-15.792	0.133	-0.084
-227.727	388.257	-0.041	0.085
-226.713	95.749	-0.204	0.231
-225.698	-30.551	-0.359	-0.201
-224.684	595.515	-0.045	-0.109
-223.669	-101.284	0.216	-0.052
-222.655	800.000	0.025	0.073
-221.640	-137.757	0.194	0.022
-220.625	-92.576	0.265	0.074
-219.611	457.355	-0.131	0.288
-218.596	-71.485	0.124	-0.046
-217.582	-23.093	-0.376	0.224
-216.567	-200.000	0.006	-0.060
-215.552	-200.000	-0.004	0.054
-214.538	98.668	-0.257	-0.294
-213.523	561.976	-0.062	0.148
-212.509	-200.000	0.004	-0.429
-211.494	583.102	0.191	0.464
-210.479	326.809	-0.114	-0.216
-209.465	-200.000	0.015	0.117
-208.450	-164.605	-0.328	0.015
-207.436	73.260	0.159	-0.165
-206.421	-32.477	-0.392	0.216
-205.406	294.874	-0.221	0.399
-204.392	637.721	-0.032	-0.082
-203.377	-162.769	0.101	-0.005
-202.363	800.000	0.014	-0.057
-201.348	-77.255	-0.208	-0.071
-200.333	-159.424	0.427	0.024
-199.319	154.829	-0.151	0.205
-198.304	436.369	-0.130	-0.280
-197.290	-59.740	-0.147	0.062
-196.275	-105.518	-0.509	0.114
-195.260	-200.000	-0.016	-0.135
-194.246	-200.000	0.019	0.255
-193.231	193.013	0.073	0.110
-192.217	-200.000	-0.047	-0.276
-191.202	-200.000	0.035	-0.155
-190.187	-200.000	0.009	-0.158
-189.173	-200.000	-0.046	-0.252
-188.158	-200.000	-0.003	0.016
-187.144	-104.605	-0.303	-0.069
-186.129	-200.000	-0.055	-0.304
-185.114	-111.950	-0.144	0.029
-184.100	-80.156	0.377	0.125
-183.085	800.000	-0.043	-0.148
-182.071	2.732	-0.152	0.109
-181.056	-94.097	-0.254	0.069
-180.042	29.765	-0.067	0.056
-179.027	-151.480	0.244	-0.018
-178.012	800.000	0.088	0.267
-176.998	-200.000	-0.016	-0.127
-175.983	-3.503	0.239	-0.164
-174.969	145.171	0.249	-0.329
-173.954	646.970	0.062	0.156
-172.939	800.000	0.017	-0.063
-171.925	7.109	0.139	-0.102
-170.910	25.980	-0.076	0.063
-169.896	464.916	-0.112	0.248
-168.881	-61.270	0.267	-0.111
-167.866	-42.431	-0.287	-0.145
-166.852	-200.000	-0.001	0.213
-165.837	128.740	0.165	0.208
-164.823	-26.237	-0.057	0.033
-163.808	757.022	0.163	-0.435
-162.793	28.038	-0.122	0.102
-161.779	-183.755	-0.140	-0.002
-160.764	102.887	-0.242	-0.279
-159.750	513.924	0.121	-0.279
-158.735	800.000	0.047	-0.135
-157.720	-65.761	0.147	0.058
-156.706	800.000	0.075	-0.323
-155.691	408.693	0.094	-0.197
-154.677	-80.872	-0.209	-0.069
-153.662	-158.722	0.488	0.028
-152.647	-121.782	-0.323	-0.053
-151.633	-200.000	0.018	0.265
-150.618	73.058	0.156	-0.161
-149.604	-15.058	-0.223	-0.141
-148.589	34.083	-0.117	0.101
-147.574	307.695	0.121	0.224
-146.560	800.000	-0.048	0.151
-145.545	-8.624	0.175	-0.116
-144.531	203.682	0.112	0.170
-143.516	-106.144	-0.076	-0.017
-142.502	231.033	-0.070	-0.113
-141.487	26.588	-0.048	0.040
-140.472	366.564	-0.059	-0.117
-139.458	33.689	0.217	-0.186
-138.443	-160.097	0.198	-0.011
-137.429	800.000	0.049	-0.203
-136.414	-24.483	-0.460	-0.271
-135.399	-200.000	0.006	0.220
-134.385	347.156	0.110	-0.214
-133.370	800.000	-0.017	-0.065
-132.356	19.400	0.062	0.049
-131.341	-200.000	-0.032	-0.295
-130.326	-11.922	-0.104	-0.068
-129.312	31.269	0.144	-0.122
-128.297	211.390	-0.285	-0.442
-127.283	332.487	0.068	0.129
-126.268	82.227	-0.248	0.265
-125.253	-78.905	-0.248	-0.083
-124.239	-110.923	0.184	-0.037
-123.224	800.000	-0.006	0.021
-122.210	-193.544	0.224	-0.002
-121.195	3.733	0.210	-0.151
