DTS Sentinel unit serial number:	SN413079Multiplexer serial number:	ORYXHardware model number:	OX4-SRSoftware version number:	ORYX F/W v4.00 Oryx Data Collector v3.7.2.0data status	okinstallation	princeton_trtdifferential loss correction	single-endedforward channel	channel 4reverse channel	N/Adate	2019/09/15time	19:29:35forward acquisition time	60.00reverse acquisition time	0.00gamma	496.2192k internal	0.2300k external	0.2300temperature offset calibration	0.9923default loss term (dB/km)	0.3790temperature slope calibration	1.0000multiplexer offset coefficient	1.0000multiplexer slope coefficient	1.0000fibre end	0.00T internal ref (°C)	38.80T ext. ref 1 (°C)	7.29T ext. ref 2 (°C)	28.19length (m)	temperature (°C)	Stokes	anti-Stokes-747.200	-79.671	-0.101	0.035
-746.185	-200.000	-0.005	0.424
-745.171	-200.000	-0.070	0.429
-744.156	233.600	-0.084	-0.142
-743.142	64.013	0.101	-0.104
-742.127	-200.000	0.003	0.528
-741.112	-28.213	-0.215	-0.127
-740.098	-200.000	0.023	0.403
-739.083	-200.000	0.074	0.365
-738.069	26.943	-0.194	-0.166
-737.054	800.000	0.110	-0.343
-736.039	116.092	-0.206	-0.257
-735.025	228.604	0.178	0.297
-734.010	651.462	-0.029	-0.077
-732.996	-200.000	-0.007	-0.061
-731.981	-176.216	-0.299	0.008
-730.966	-88.939	-0.511	-0.155
-729.952	-39.393	-0.204	-0.109
-728.937	39.717	-0.099	-0.090
-727.923	708.261	0.166	0.447
-726.908	800.000	-0.055	0.206
-725.894	-100.044	-0.441	-0.112
-724.879	701.344	-0.026	0.069
-723.864	800.000	-0.064	-0.217
-722.850	549.078	-0.143	-0.350
-721.835	372.736	-0.102	0.211
-720.821	143.764	-0.157	0.213
-719.806	-200.000	0.024	-0.206
-718.791	132.921	-0.136	-0.179
-717.777	205.722	-0.090	-0.142
-716.762	-28.214	-0.199	-0.117
-715.748	-169.721	0.350	0.013
-714.733	-86.189	0.340	0.107
-713.718	270.502	-0.213	0.381
-712.704	513.050	-0.099	0.235
-711.689	-200.000	0.028	0.232
-710.675	603.718	0.042	0.106
-709.660	-61.821	0.161	-0.069
-708.645	-36.623	0.231	-0.127
-707.631	-187.011	-0.097	-0.001
-706.616	-200.000	0.021	-0.200
-705.602	800.000	-0.040	-0.176
-704.587	5.927	-0.248	-0.187
-703.572	13.864	0.291	0.231
-702.558	-60.846	0.164	0.071
-701.543	800.000	-0.074	-0.308
-700.529	-200.000	-0.020	0.340
-699.514	-118.513	-0.173	-0.031
-698.499	-200.000	0.001	-0.210
-697.485	-112.574	0.213	0.043
-696.470	-41.501	-0.266	-0.139
-695.456	-170.374	0.137	0.005
-694.441	-23.100	-0.078	-0.048
-693.426	297.183	-0.161	0.300
-692.412	389.480	0.116	0.245
-691.397	-150.897	-0.239	0.018
-690.383	321.447	0.018	-0.035
-689.368	171.730	0.094	0.138
-688.354	-87.329	0.240	-0.074
-687.339	-200.000	-0.010	-0.050
-686.324	-2.350	0.126	0.090
-685.310	-200.000	0.042	-0.418
-684.295	8.413	-0.071	0.054
-683.281	-80.966	0.032	-0.011
-682.266	487.074	0.072	-0.168
-681.251	34.703	0.171	0.152
-680.237	-61.159	0.215	0.092
-679.222	-48.865	-0.130	0.064
-678.208	-118.561	-0.017	0.003
-677.193	-151.711	-0.176	0.013
-676.178	-46.104	-0.170	0.085
-675.164	800.000	0.040	0.122
-674.149	187.737	0.112	0.170
-673.135	-149.898	-0.228	-0.018
-672.120	357.555	-0.135	-0.274
-671.105	-91.124	-0.010	0.003
-670.091	-200.000	-0.062	0.347
-669.076	-157.360	-0.174	0.011
-668.062	-35.320	-0.238	-0.132
-667.047	-38.977	-0.295	0.158
-666.032	-200.000	-0.005	0.158
-665.018	-50.278	-0.152	0.073
-664.003	-5.828	-0.154	0.107
-662.989	-189.155	-0.272	-0.003
-661.974	-200.000	0.017	-0.196
-660.959	162.030	-0.086	0.122
-659.945	33.614	-0.186	0.164
-658.930	-70.597	0.162	0.062
-657.916	800.000	0.055	-0.169
-656.901	-200.000	0.043	-0.259
-655.886	-114.971	0.276	-0.053
-654.872	-72.757	0.113	-0.042
-653.857	-108.249	0.213	-0.047
-652.843	-200.000	-0.040	0.194
-651.828	-12.317	-0.179	0.119
-650.814	87.366	0.094	0.106
-649.799	73.900	-0.206	-0.219
-648.784	78.577	0.226	-0.245
-647.770	462.519	0.155	-0.351
-646.755	279.369	0.132	-0.240
-645.741	556.597	-0.098	0.239
-644.726	-200.000	0.009	0.342
-643.711	-35.431	-0.090	-0.050
-642.697	-106.507	-0.316	-0.072
-641.682	-14.556	-0.175	0.114
-640.668	-191.960	-0.103	0.001
-639.653	-200.000	-0.067	0.354
-638.638	-114.548	-0.160	0.031
-637.624	123.680	0.132	0.169
-636.609	220.431	-0.097	-0.157
-635.595	-88.325	-0.424	0.129
-634.580	-143.792	0.201	0.019
-633.565	25.129	0.070	-0.059
-632.551	-181.876	-0.343	0.007
-631.536	-200.000	0.021	-0.310
-630.522	800.000	-0.054	-0.210
-629.507	35.799	0.192	-0.171
-628.492	800.000	-0.048	0.152
-627.478	-50.232	-0.085	0.041
-626.463	-125.307	-0.348	0.054
-625.449	56.647	0.276	0.273
-624.434	-92.045	0.398	0.114
-623.419	91.402	0.171	0.195
-622.405	-200.000	-0.016	-0.251
-621.390	-200.000	0.011	-0.186
-620.376	-150.059	0.130	-0.010
-619.361	-200.000	0.049	0.345
-618.346	283.552	0.056	-0.101
-617.332	-24.885	0.493	-0.297
-616.317	-3.478	0.240	0.169
-615.303	-6.003	-0.120	-0.083
-614.288	-200.000	0.037	-0.319
-613.273	-200.000	0.001	-0.104
-612.259	529.432	-0.097	-0.232
-611.244	36.594	0.250	-0.224
-610.230	-200.000	-0.001	-0.063
-609.215	-89.258	-0.181	0.054
-608.201	-200.000	0.029	0.148
-607.186	-52.720	-0.308	-0.144
-606.171	800.000	-0.057	-0.205
-605.157	196.860	-0.082	0.126
-604.142	-200.000	0.017	-0.095
-603.128	49.453	0.368	-0.351
-602.113	800.000	0.055	-0.198
-601.098	-56.872	-0.158	0.071
-600.084	-84.674	0.308	-0.098
-599.069	325.081	0.145	-0.281
-598.055	800.000	-0.049	-0.195
-597.040	117.599	-0.107	-0.133
-596.025	23.320	-0.240	0.200
-595.011	-77.973	0.192	0.067
-593.996	119.787	-0.074	0.093
-592.982	-200.000	0.012	0.392
-591.967	-110.427	0.130	0.027
-590.952	75.026	0.129	-0.138
-589.938	247.816	-0.129	0.221
-588.923	-200.000	-0.050	-0.297
-587.909	466.256	-0.186	-0.421
-586.894	800.000	-0.075	0.331
-585.879	-126.372	-0.108	-0.016
-584.865	-13.533	-0.121	0.079
-583.850	-188.371	0.037	-0.000
-582.836	-200.000	0.035	-0.209
-581.821	37.036	0.054	-0.049
-580.806	-81.313	0.339	-0.113
-579.792	48.919	0.065	0.061
-578.777	18.372	-0.235	0.190
-577.763	-200.000	0.029	-0.215
-576.748	-135.624	0.120	-0.014
-575.733	385.812	0.110	-0.229
-574.719	-97.216	-0.340	-0.090
-573.704	70.079	-0.165	0.172
-572.690	48.013	0.245	-0.232
-571.675	-107.216	0.135	0.030
-570.661	-106.183	-0.227	-0.052
-569.646	-143.869	0.135	-0.013
-568.631	-107.811	-0.145	-0.032
-567.617	-8.732	-0.159	0.108
-566.602	-95.537	-0.129	0.035
-565.588	347.919	0.167	0.334
-564.573	800.000	0.056	0.180
-563.558	-91.928	0.266	-0.076
-562.544	-200.000	-0.042	0.317
-561.529	-8.475	-0.161	-0.110
-560.515	307.435	-0.028	-0.053
-559.500	-69.716	0.234	0.090
-558.485	-167.365	-0.372	0.015
-557.471	-200.000	0.015	0.192
-556.456	298.575	-0.168	0.312
-555.442	800.000	-0.041	-0.159
-554.427	455.751	0.021	-0.048
-553.412	-91.879	-0.187	0.054
-552.398	189.982	-0.112	0.170
-551.383	313.544	-0.125	-0.238
-550.369	800.000	0.131	0.389
-549.354	-74.791	0.211	-0.077
-548.339	155.617	-0.016	0.022
-547.325	-165.107	-0.348	-0.016
-546.310	-2.122	-0.449	-0.319
-545.296	35.040	0.186	0.165
-544.281	-200.000	-0.013	0.130
-543.266	146.211	-0.274	-0.373
-542.252	-137.341	0.173	-0.020
-541.237	-137.513	-0.122	-0.014
-540.223	93.535	0.164	0.188
-539.208	-144.819	-0.287	-0.027
-538.193	-105.941	0.230	-0.053
-537.179	-98.511	0.242	0.062
-536.164	11.855	-0.172	-0.134
-535.150	-42.011	-0.320	0.166
-534.135	800.000	0.013	0.038
-533.121	333.440	0.101	-0.197
-532.106	-15.421	0.264	0.171
-531.091	-101.244	-0.280	-0.069
-530.077	-131.747	-0.176	0.023
-529.062	-200.000	-0.006	-0.064
-528.048	-0.172	-0.156	0.112
-527.033	800.000	-0.032	0.141
-526.018	67.670	0.306	-0.316
-525.004	94.540	0.135	0.155
-523.989	15.633	0.221	-0.176
-522.975	250.716	-0.080	-0.137
-521.960	99.133	0.157	-0.184
-520.945	-1.336	-0.186	-0.133
-519.931	530.148	0.125	0.299
-518.916	-61.202	0.162	-0.069
-517.902	12.231	0.172	0.134
-516.887	-152.714	-0.190	-0.014
-515.872	-200.000	-0.000	0.316
-514.858	-200.000	0.011	-0.094
-513.843	800.000	-0.080	0.275
-512.829	260.387	-0.108	0.189
-511.814	69.558	-0.124	-0.129
-510.799	28.883	-0.150	0.129
-509.785	44.454	-0.271	-0.252
-508.770	-200.000	0.019	-0.146
-507.756	541.363	0.054	0.129
-506.741	-140.360	-0.255	-0.027
-505.726	12.413	0.162	-0.126
-504.712	-154.314	-0.091	0.006
-503.697	65.793	0.109	0.112
-502.683	-200.000	-0.013	-0.196
-501.668	-39.598	-0.152	-0.080
-500.653	-73.595	-0.053	0.020
-499.639	-50.311	0.404	0.193
-498.624	-155.629	-0.109	0.007
-497.610	32.859	-0.247	-0.216
-496.595	83.212	0.100	-0.110
-495.581	68.381	-0.149	0.155
-494.566	-19.466	0.344	0.215
-493.551	175.093	0.156	-0.229
-492.537	-110.232	0.156	0.033
-491.522	-200.000	-0.061	0.443
-490.508	65.301	0.050	-0.051
-489.493	-109.027	0.188	0.040
-488.478	127.556	-0.075	0.096
-487.464	92.526	-0.251	-0.286
-486.449	-105.257	0.363	0.084
-485.435	196.208	-0.116	0.179
-484.420	185.905	0.096	-0.144
-483.405	-94.103	-0.410	-0.113
-482.391	261.019	0.236	-0.412
-481.376	-139.129	-0.154	0.017
-480.362	-42.941	-0.583	0.299
-479.347	389.395	0.062	0.130
-478.332	73.984	-0.060	0.064
-477.318	800.000	-0.048	-0.162
-476.303	-146.167	0.083	0.007
-475.289	-66.896	0.420	-0.168
-474.274	-127.990	-0.259	0.038
-473.259	36.178	-0.041	0.036
-472.245	92.658	0.105	0.119
-471.230	15.678	0.174	0.138
-470.216	-5.527	0.215	-0.149
-469.201	-200.000	0.042	0.339
-468.186	-45.637	-0.371	-0.185
-467.172	-55.639	-0.222	0.100
-466.157	172.835	0.101	-0.147
-465.143	-200.000	0.064	0.352
-464.128	139.350	0.107	0.142
-463.113	220.827	0.225	0.364
-462.099	221.534	-0.214	0.347
-461.084	76.154	0.116	0.123
-460.070	165.365	-0.074	-0.106
-459.055	-126.699	0.061	0.009
-458.040	-154.056	-0.355	0.024
-457.026	44.931	-0.105	0.098
-456.011	-104.631	0.218	-0.051
-454.997	-88.142	0.223	-0.067
-453.982	-19.929	0.301	-0.187
-452.968	79.225	0.106	0.115
-451.953	-108.352	-0.239	0.052
-450.938	-200.000	0.054	-0.247
-449.924	-6.990	0.105	-0.072
-448.909	-116.359	-0.177	-0.033
-447.895	-131.871	-0.281	0.037
-446.880	119.125	-0.067	-0.083
-445.865	101.231	-0.114	0.133
-444.851	-200.000	-0.006	-0.080
-443.836	800.000	-0.133	-0.530
-442.822	-60.093	-0.115	0.050
-441.807	-147.515	0.150	0.013
-440.792	-128.051	-0.074	-0.011
-439.778	-200.000	0.014	0.160
-438.763	-6.113	0.237	0.163
-437.749	-99.335	-0.339	0.086
-436.734	68.812	-0.361	0.374
-435.719	87.842	0.205	0.229
-434.705	52.450	0.142	-0.136
-433.690	94.890	0.180	-0.207
-432.676	-1.729	-0.110	0.078
-431.661	202.821	0.203	0.316
-430.646	-200.000	-0.011	0.097
-429.632	-99.370	-0.109	-0.028
-428.617	-200.000	0.006	0.121
-427.603	-27.617	0.162	0.095
-426.588	-44.446	0.140	0.071
-425.573	-56.578	-0.204	0.091
-424.559	-200.000	0.008	-0.355
-423.544	-200.000	0.014	-0.156
-422.530	-99.803	-0.330	0.083
-421.515	-16.405	0.236	0.150
-420.500	-65.933	-0.025	0.010
-419.486	194.247	-0.118	0.179
-418.471	-144.809	0.144	-0.013
-417.457	-112.324	0.066	-0.013
-416.442	139.701	0.137	0.181
-415.428	800.000	-0.088	0.280
-414.413	582.441	0.115	-0.284
-413.398	-53.865	-0.193	0.088
-412.384	-83.900	-0.139	-0.045
-411.369	-168.519	0.502	-0.019
-410.355	-37.317	0.172	0.092
-409.340	96.693	-0.189	-0.218
-408.325	-200.000	0.005	-0.214
-407.311	263.236	0.088	0.153
-406.296	-200.000	0.005	-0.196
-405.282	247.700	0.072	-0.123
-404.267	800.000	0.044	-0.130
-403.252	-30.442	0.157	0.089
-402.238	128.683	0.095	0.122
-401.223	-22.029	0.084	-0.051
-400.209	-67.609	0.228	-0.090
-399.194	655.946	0.096	0.248
-398.179	1.013	-0.072	-0.052
-397.165	-3.829	0.215	0.150
-396.150	-92.428	-0.363	0.103
-395.136	-200.000	-0.048	-0.315
-394.121	99.644	0.163	-0.190
-393.106	-51.232	0.221	-0.104
-392.092	299.515	-0.033	0.060
-391.077	-200.000	-0.085	0.385
-390.063	357.927	-0.068	-0.136
-389.048	800.000	0.057	0.183
-388.033	-36.385	-0.089	0.048
-387.019	-113.398	0.124	-0.025
-386.004	-122.118	0.096	0.016
-384.990	-123.990	-0.197	0.031
-383.975	-33.311	0.128	-0.071
-382.960	217.915	-0.095	0.152
-381.946	-77.823	0.206	-0.072
-380.931	-40.594	-0.094	-0.049
-379.917	10.598	-0.028	0.021
-378.902	-116.797	-0.138	0.026
-377.888	-36.315	0.366	0.199
-376.873	-85.672	-0.398	0.124
-375.858	8.806	-0.147	-0.111
-374.844	-79.848	0.159	-0.054
-373.829	-134.072	-0.400	-0.050
-372.815	703.795	0.168	-0.446
-371.800	-125.232	-0.054	0.008
-370.785	582.958	0.055	0.136
-369.771	-61.223	0.080	-0.034
-368.756	28.701	-0.182	0.155
-367.742	-200.000	0.063	0.323
-366.727	-181.806	0.176	0.003
-365.712	184.098	0.282	0.419
-364.698	-200.000	-0.026	0.258
-363.683	587.107	0.024	0.058
-362.669	-113.151	0.050	-0.010
-361.654	-200.000	0.072	0.371
-360.639	-24.782	0.377	0.225
-359.625	284.596	-0.078	0.142
-358.610	69.159	0.216	-0.223
-357.596	-95.226	-0.105	0.029
-356.581	-200.000	-0.014	-0.140
-355.566	37.356	0.048	-0.043
-354.552	440.838	0.093	0.203
-353.537	178.476	-0.214	-0.314
-352.523	-200.000	-0.055	-0.269
-351.508	40.828	0.268	-0.243
-350.493	800.000	0.035	-0.139
-349.479	-22.359	0.051	-0.031
-348.464	160.975	-0.134	0.188
-347.450	800.000	-0.043	-0.189
-346.435	800.000	0.049	0.142
-345.420	-105.893	0.090	0.020
-344.406	-200.000	-0.021	0.145
-343.391	80.683	0.237	-0.257
-342.377	-107.627	-0.125	-0.027
-341.362	800.000	0.094	-0.293
-340.348	800.000	0.056	0.188
-339.333	167.283	0.215	-0.307
-338.318	-200.000	-0.028	-0.127
-337.304	-179.694	0.266	-0.006
-336.289	-200.000	-0.010	0.085
-335.275	-59.867	0.185	-0.079
-334.260	-72.574	0.249	-0.092
-333.245	-130.043	-0.056	0.008
-332.231	156.204	-0.143	-0.197
-331.216	61.066	0.263	-0.262
-330.202	-109.061	0.083	0.018
-329.187	105.817	-0.094	-0.111
-328.172	40.236	-0.044	-0.040
-327.158	280.623	-0.070	-0.125
-326.143	800.000	-0.096	0.344
-325.129	535.782	-0.113	0.270
-324.114	800.000	-0.010	0.028
-323.099	-137.159	-0.061	0.007
-322.085	-200.000	0.008	0.232
-321.070	67.361	0.055	0.056
-320.056	800.000	-0.135	-0.376
-319.041	-88.940	-0.092	0.027
-318.026	-17.032	-0.212	-0.135
-317.012	-4.191	0.119	-0.083
-315.997	800.000	-0.035	0.106
-314.983	-200.000	0.052	0.391
-313.968	450.841	-0.126	0.279
-312.953	-177.249	-0.214	-0.005
-311.939	329.961	0.055	-0.106
-310.924	-200.000	0.014	-0.274
-309.910	-32.804	0.324	0.180
-308.895	-118.729	0.301	-0.053
-307.880	-110.445	0.208	-0.043
-306.866	152.980	-0.149	-0.205
-305.851	-200.000	-0.066	0.309
-304.837	-131.684	-0.123	0.016
-303.822	2.617	-0.091	0.066
-302.807	-50.205	0.094	-0.045
-301.793	-92.326	0.306	0.086
-300.778	63.707	-0.335	0.338
-299.764	40.375	0.194	-0.175
-298.749	-200.000	0.002	0.107
-297.735	26.275	-0.318	-0.266
-296.720	-200.000	0.007	0.054
-295.705	-52.484	0.440	-0.204
-294.691	269.445	0.104	0.182
-293.676	539.747	0.113	0.268
-292.662	-200.000	-0.022	-0.183
-291.647	-200.000	0.028	0.261
-290.632	-200.000	-0.024	0.167
-289.618	655.543	-0.054	-0.139
-288.603	300.876	-0.057	-0.105
-287.589	250.332	0.149	0.253
-286.574	-145.927	-0.354	-0.031
-285.559	-104.627	0.081	0.019
-284.545	186.079	-0.016	-0.024
-283.530	125.596	-0.228	-0.288
-282.516	330.575	0.065	-0.125
-281.501	-200.000	0.004	-0.098
-280.486	104.661	-0.223	-0.263
-279.472	-200.000	-0.008	0.525
-278.457	-200.000	-0.012	0.199
-277.443	50.418	-0.196	0.186
-276.428	-12.134	0.114	0.075
-275.413	306.841	-0.104	-0.195
-274.399	-200.000	-0.007	-0.243
-273.384	554.094	-0.160	0.385
-272.370	-83.798	-0.073	-0.023
-271.355	-175.119	-0.410	0.011
-270.340	-125.943	0.062	-0.009
-269.326	-180.193	-0.149	-0.003
-268.311	-57.567	-0.191	-0.084
-267.297	-119.513	0.327	0.057
-266.282	283.748	0.094	0.169
-265.267	703.633	0.147	-0.389
-264.253	-31.443	0.261	-0.147
-263.238	159.413	-0.074	-0.103
-262.224	-77.815	-0.155	-0.054
-261.209	231.352	0.132	-0.216
-260.195	221.304	-0.154	-0.247
-259.180	-200.000	-0.012	0.316
-258.165	-200.000	-0.002	-0.054
-257.151	-23.941	0.257	-0.154
-256.136	36.742	-0.206	-0.182
-255.122	-127.171	0.356	-0.052
-254.107	-85.636	0.147	-0.046
-253.092	313.029	-0.111	-0.210
-252.078	112.701	-0.249	0.302
-251.063	-114.551	0.067	-0.013
-250.049	107.564	-0.205	-0.244
-249.034	-172.523	-0.070	0.002
-248.019	153.254	-0.151	0.206
-247.005	18.767	0.248	0.198
-245.990	353.382	0.199	-0.395
-244.976	800.000	-0.167	-0.632
-243.961	-71.701	0.112	-0.042
-242.946	800.000	0.021	-0.085
-241.932	-79.363	-0.360	-0.122
-240.917	10.781	0.181	-0.138
-239.903	-200.000	0.062	0.272
-238.888	-75.818	-0.346	-0.122
-237.873	525.050	-0.128	-0.300
-236.859	-200.000	0.007	0.058
-235.844	800.000	-0.066	-0.215
-234.830	176.830	-0.035	0.050
-233.815	-110.220	0.117	-0.024
-232.800	460.329	-0.148	-0.329
-231.786	-200.000	0.013	0.077
-230.771	229.391	-0.194	0.317
-229.757	800.000	0.042	-0.144
-228.742	-12.199	-0.210	0.138
-227.727	800.000	0.054	-0.159
-226.713	-200.000	0.064	0.453
-225.698	800.000	-0.090	0.262
-224.684	-100.093	0.202	0.050
-223.669	-46.032	-0.116	0.057
-222.655	98.842	0.006	-0.007
-221.640	-67.277	-0.039	0.015
-220.625	207.421	-0.026	-0.040
-219.611	-200.000	-0.047	0.375
-218.596	-200.000	-0.024	-0.157
-217.582	105.017	0.117	-0.138
-216.567	-200.000	0.036	-0.368
-215.552	-200.000	0.006	-0.174
-214.538	-91.190	0.364	0.104
-213.523	-57.380	-0.205	0.090
-212.509	-107.097	0.215	0.047
-211.494	-194.514	-0.129	-0.001
-210.479	239.019	0.130	-0.217
-209.465	46.507	-0.121	0.112
-208.450	-131.572	0.237	-0.031
-207.436	800.000	0.055	-0.195
-206.421	578.985	-0.099	-0.241
-205.406	31.912	0.064	0.055
-204.392	-200.000	0.017	-0.161
-203.377	-17.385	-0.468	-0.294
-202.363	-52.085	-0.119	0.055
-201.348	-72.717	0.223	0.082
-200.333	-31.314	0.076	-0.042
-199.319	19.872	-0.177	-0.143
-198.304	-200.000	-0.029	0.130
-197.290	800.000	0.031	0.106
-196.275	-200.000	0.004	0.360
-195.260	-120.826	0.363	0.061
-194.246	372.348	-0.063	0.128
-193.231	76.681	0.045	0.047
-192.217	800.000	0.046	0.133
-191.202	31.954	-0.130	0.112
-190.187	-144.522	-0.102	-0.009
-189.173	-200.000	0.007	-0.462
-188.158	-200.000	-0.029	-0.152
-187.144	-35.527	0.253	-0.137
-186.129	118.805	-0.175	0.216
-185.114	57.813	-0.173	0.169
-184.100	167.797	-0.064	0.091
-183.085	800.000	0.020	0.061
-182.071	-200.000	-0.004	-0.101
-181.056	30.822	-0.339	0.290
-180.042	59.018	-0.353	0.347
-179.027	-82.732	-0.030	0.010
-178.012	-42.263	0.141	-0.072
-176.998	-200.000	0.001	-0.005
-175.983	-97.194	0.192	0.050
-174.969	-45.289	0.132	-0.065
-173.954	232.525	0.104	-0.170
-172.939	800.000	0.021	0.084
-171.925	-78.060	0.086	0.029
-170.910	800.000	-0.060	0.195
-169.896	-111.554	-0.046	0.009
-168.881	122.270	0.021	0.026
-167.866	107.283	0.179	-0.212
-166.852	-64.413	0.079	0.032
-165.837	726.841	-0.079	-0.210
-164.823	11.143	0.083	0.063
-163.808	-34.188	0.113	-0.062
-162.793	19.879	0.203	-0.163
-161.779	22.710	0.150	0.122
-160.764	-23.440	0.190	-0.114
-159.750	-200.000	-0.039	0.214
-158.735	51.446	0.161	0.152
-157.720	1.239	-0.153	0.110
-156.706	800.000	0.116	0.363
-155.691	-33.276	-0.314	0.174
-154.677	78.696	0.037	-0.040
-153.662	-52.519	0.098	-0.045
-152.647	-46.412	-0.295	-0.144
-151.633	-87.727	-0.090	0.027
-150.618	-193.061	0.368	0.003
-149.604	-63.645	0.124	-0.051
-148.589	-200.000	0.012	-0.100
-147.574	-152.702	-0.059	-0.004
-146.560	330.341	-0.101	0.193
-145.545	466.369	0.081	0.181
-144.531	83.458	0.110	0.120
-143.516	6.456	-0.114	-0.084
-142.502	-200.000	-0.034	0.170
-141.487	199.757	0.199	0.304
-140.472	-76.527	-0.145	0.051
-139.458	800.000	-0.112	-0.335
-138.443	153.433	-0.149	-0.204
-137.429	678.408	-0.103	0.268
-136.414	168.655	-0.140	0.199
-135.399	79.449	0.221	0.236
-134.385	-51.548	0.303	0.141
-133.370	107.375	-0.086	-0.102
-132.356	-85.346	0.249	0.078
-131.341	-39.415	-0.270	0.141
-130.326	-200.000	-0.033	-0.224
-129.312	-84.796	-0.284	0.089
-128.297	170.337	0.116	-0.165
-127.283	-200.000	-0.009	-0.073
-126.268	121.335	0.132	0.164
-125.253	800.000	-0.129	0.364
-124.239	-126.051	0.186	0.028
-123.224	31.405	-0.263	-0.225
-122.210	38.206	-0.070	0.062
-121.195	800.000	0.010	0.032
