DTS Sentinel unit serial number:	SN413079Multiplexer serial number:	ORYXHardware model number:	OX4-SRSoftware version number:	ORYX F/W v4.00 Oryx Data Collector v3.7.2.0data status	okinstallation	princeton_trtdifferential loss correction	single-endedforward channel	channel 4reverse channel	N/Adate	2019/09/16time	19:17:35forward acquisition time	60.00reverse acquisition time	0.00gamma	496.2192k internal	0.2306k external	0.2306temperature offset calibration	0.9962default loss term (dB/km)	0.3790temperature slope calibration	1.0000multiplexer offset coefficient	1.0000multiplexer slope coefficient	1.0000fibre end	0.00T internal ref (°C)	34.95T ext. ref 1 (°C)	0.05T ext. ref 2 (°C)	28.15length (m)	temperature (°C)	Stokes	anti-Stokes-747.200	304.424	0.070	0.132
-746.185	800.000	-0.039	0.127
-745.171	40.170	0.238	0.218
-744.156	110.139	0.223	0.273
-743.142	-200.000	0.037	-0.192
-742.127	800.000	0.111	0.410
-741.112	-45.629	-0.239	-0.120
-740.098	85.832	0.090	0.100
-739.083	24.702	0.090	0.076
-738.069	-23.092	-0.258	0.158
-737.054	-200.000	0.049	-0.232
-736.039	-59.953	-0.537	0.234
-735.025	667.495	0.040	-0.106
-734.010	4.164	0.310	-0.231
-732.996	-200.000	-0.011	-0.280
-731.981	-23.621	0.068	-0.042
-730.966	120.583	0.212	0.268
-729.952	113.582	-0.124	0.153
-728.937	67.319	-0.205	0.213
-727.923	-200.000	0.032	-0.165
-726.908	-59.435	-0.173	-0.076
-725.894	-12.640	-0.114	-0.076
-724.879	44.706	-0.258	-0.241
-723.864	-28.849	-0.049	0.029
-722.850	-17.497	0.209	-0.134
-721.835	-92.051	-0.403	-0.116
-720.821	-200.000	-0.022	0.191
-719.806	89.281	-0.058	-0.066
-718.791	-34.939	-0.050	-0.028
-717.777	69.290	-0.206	-0.215
-716.762	181.997	-0.135	-0.201
-715.748	25.347	0.056	0.047
-714.733	-200.000	-0.048	-0.229
-713.718	-200.000	-0.019	0.274
-712.704	-112.186	0.109	0.022
-711.689	204.437	0.083	-0.131
-710.675	-49.138	-0.116	-0.057
-709.660	-81.306	-0.101	-0.034
-708.645	592.268	0.145	-0.363
-707.631	-200.000	-0.048	-0.538
-706.616	-83.456	-0.066	0.021
-705.602	-12.262	0.016	0.011
-704.587	49.232	0.167	-0.159
-703.572	95.785	-0.183	-0.213
-702.558	-200.000	-0.077	-0.401
-701.543	226.717	0.121	-0.199
-700.529	-126.902	0.315	-0.047
-699.514	-200.000	0.012	-0.156
-698.499	162.079	0.241	-0.342
-697.485	9.051	0.242	-0.186
-696.470	-17.037	-0.159	-0.102
-695.456	-200.000	-0.024	-0.284
-694.441	354.579	-0.141	0.284
-693.426	800.000	0.056	0.164
-692.412	-42.241	-0.283	0.147
-691.397	31.975	-0.140	-0.122
-690.383	-9.707	-0.044	-0.030
-689.368	-146.545	-0.302	0.027
-688.354	800.000	-0.106	-0.354
-687.339	-200.000	-0.005	-0.140
-686.324	-200.000	0.044	-0.294
-685.310	538.420	-0.049	0.118
-684.295	-73.601	-0.053	0.020
-683.281	-200.000	0.019	0.100
-682.266	422.879	-0.016	-0.035
-681.251	-200.000	0.005	-0.180
-680.237	235.801	-0.073	-0.123
-679.222	-200.000	-0.051	-0.268
-678.208	12.479	-0.171	-0.134
-677.193	-79.509	0.216	-0.074
-676.178	22.274	-0.178	-0.147
-675.164	-200.000	-0.004	0.167
-674.149	-131.803	-0.171	0.023
-673.135	139.133	-0.229	-0.306
-672.120	44.156	0.080	-0.075
-671.105	-139.919	0.221	0.024
-670.091	-134.892	-0.207	-0.025
-669.076	-120.610	-0.256	-0.044
-668.062	-45.362	-0.204	-0.103
-667.047	102.605	0.182	0.216
-666.032	-1.138	-0.170	-0.122
-665.018	213.223	0.049	0.078
-664.003	92.971	-0.182	0.208
-662.989	-122.245	-0.448	0.074
-661.974	-200.000	0.006	0.196
-660.959	306.609	0.111	-0.210
-659.945	800.000	0.105	0.347
-658.930	-127.264	0.197	0.029
-657.916	188.718	-0.160	-0.243
-656.901	-73.091	0.093	-0.035
-655.886	168.144	0.093	0.134
-654.872	-47.285	-0.252	0.124
-653.857	-125.720	-0.197	-0.030
-652.843	800.000	0.095	-0.323
-651.828	454.868	-0.044	0.099
-650.814	237.605	-0.024	-0.040
-649.799	-200.000	-0.025	-0.374
-648.784	-41.170	-0.027	-0.014
-647.770	800.000	-0.026	-0.096
-646.755	-101.841	-0.085	-0.021
-645.741	187.959	-0.124	-0.188
-644.726	-14.115	0.273	0.178
-643.711	32.196	0.289	-0.252
-642.697	800.000	-0.019	0.063
-641.682	85.922	-0.131	-0.147
-640.668	41.232	0.126	0.115
-639.653	245.884	0.081	0.138
-638.638	-11.162	-0.217	-0.145
-637.624	-141.931	-0.192	0.019
-636.609	-200.000	0.033	0.208
-635.595	-151.065	0.288	0.022
-634.580	-136.849	0.070	-0.008
-633.565	-86.674	-0.236	0.073
-632.551	-47.611	-0.236	0.116
-631.536	-200.000	-0.029	0.355
-630.522	306.915	-0.073	-0.137
-629.507	-59.083	-0.201	0.088
-628.492	-105.205	0.231	-0.053
-627.478	9.938	0.218	-0.168
-626.463	-25.942	-0.277	-0.165
-625.449	-66.219	-0.080	0.032
-624.434	53.637	-0.032	0.032
-623.419	-39.841	0.317	-0.167
-622.405	201.975	-0.025	-0.039
-621.390	406.399	0.171	-0.366
-620.376	-200.000	0.032	0.276
-619.361	-25.067	0.184	0.111
-618.346	-200.000	-0.013	-0.234
-617.332	-152.559	-0.155	0.011
-616.317	-10.748	0.059	0.040
-615.303	-200.000	-0.035	-0.217
-614.288	113.382	-0.027	-0.034
-613.273	-39.202	0.126	0.067
-612.259	160.127	-0.156	0.220
-611.244	50.874	-0.240	0.230
-610.230	-57.036	0.095	0.042
-609.215	-200.000	-0.013	-0.500
-608.201	639.365	0.146	-0.376
-607.186	20.894	-0.315	-0.258
-606.171	-130.989	-0.086	0.012
-605.157	127.561	0.073	0.094
-604.142	-1.707	0.219	-0.156
-603.128	-34.221	0.260	0.145
-602.113	623.647	-0.085	-0.218
-601.098	252.548	0.182	-0.315
-600.084	-200.000	-0.283	0.001
-599.069	-69.458	-0.305	0.118
-598.055	24.072	-0.204	0.170
-597.040	360.866	0.026	-0.053
-596.025	-141.420	-0.227	0.023
-595.011	409.682	0.112	0.239
-593.996	-200.000	0.071	-0.357
-592.982	800.000	0.079	-0.307
-591.967	60.252	0.061	-0.061
-590.952	-135.084	-0.133	0.016
-589.938	-64.251	0.160	0.066
-588.923	-143.851	-0.160	0.015
-587.909	-151.270	-0.195	-0.015
-586.894	800.000	0.036	-0.101
-585.879	800.000	0.034	-0.134
-584.865	-12.617	0.074	0.049
-583.850	-180.652	0.209	-0.004
-582.836	374.396	-0.097	-0.200
-581.821	50.162	0.071	-0.068
-580.806	-178.142	-0.143	-0.003
-579.792	419.212	-0.052	0.112
-578.777	102.892	0.078	-0.092
-577.763	800.000	-0.017	-0.065
-576.748	-32.650	-0.299	-0.168
-575.733	800.000	-0.110	0.320
-574.719	168.228	0.113	0.163
-573.704	25.092	0.068	-0.057
-572.690	-161.813	0.387	0.020
-571.675	495.510	-0.125	-0.289
-570.661	-141.964	0.178	0.018
-569.646	-105.647	-0.181	-0.041
-568.631	22.752	-0.104	-0.086
-567.617	-63.471	-0.153	0.064
-566.602	21.145	-0.234	-0.192
-565.588	-1.971	-0.137	-0.097
-564.573	41.684	0.254	0.232
-563.558	-200.000	0.004	0.221
-562.544	-67.353	0.203	-0.081
-561.529	-49.268	0.281	-0.136
-560.515	37.952	0.257	0.231
-559.500	225.028	-0.107	0.174
-558.485	-45.244	-0.298	0.149
-557.471	800.000	0.039	0.111
-556.456	417.276	-0.128	0.276
-555.442	-31.333	-0.088	0.050
-554.427	284.455	0.093	-0.169
-553.412	27.365	0.256	0.217
-552.398	-200.000	0.122	-0.658
-551.383	-6.661	0.185	-0.127
-550.369	-179.184	-0.139	-0.003
-549.354	-27.708	0.457	-0.268
-548.339	800.000	-0.033	-0.144
-547.325	-116.699	-0.251	-0.047
-546.310	21.497	-0.157	-0.129
-545.296	171.729	0.053	0.076
-544.281	5.747	-0.302	-0.225
-543.266	-69.870	0.235	0.091
-542.252	297.576	-0.108	0.201
-541.237	-184.565	-0.243	0.004
-540.223	318.038	0.123	0.236
-539.208	-200.000	0.023	-0.127
-538.193	235.502	-0.170	0.283
-537.179	758.605	-0.043	0.119
-536.164	153.741	0.158	0.218
-535.150	800.000	-0.080	-0.344
-534.135	-31.767	-0.103	0.058
-533.121	41.875	0.194	-0.177
-532.106	528.234	0.072	0.170
-531.091	-88.577	-0.057	0.017
-530.077	337.506	0.087	0.170
-529.062	-157.329	0.222	-0.014
-528.048	52.770	-0.081	0.078
-527.033	-14.334	-0.223	-0.145
-526.018	800.000	-0.166	-0.462
-525.004	40.864	-0.165	-0.150
-523.989	118.994	-0.109	-0.136
-522.975	-111.741	-0.167	-0.034
-521.960	-200.000	0.008	-0.395
-520.945	-36.336	0.276	-0.150
-519.931	91.455	0.139	-0.157
-518.916	-100.391	0.204	-0.051
-517.902	-200.000	-0.012	-0.150
-516.887	800.000	-0.041	-0.155
-515.872	197.942	-0.129	-0.199
-514.858	-122.036	0.185	-0.031
-513.843	-181.858	-0.185	-0.004
-512.829	23.154	-0.354	-0.293
-511.814	800.000	-0.031	-0.132
-510.799	-200.000	-0.003	0.084
-509.785	-86.872	0.273	0.084
-508.770	-123.252	0.056	0.009
-507.756	-34.654	-0.226	0.124
-506.741	-110.293	-0.245	0.051
-505.726	391.663	0.192	0.403
-504.712	164.432	0.080	0.114
-503.697	-51.748	0.275	0.129
-502.683	80.716	-0.072	0.078
-501.668	107.878	-0.176	0.211
-500.653	800.000	0.174	-0.500
-499.639	-140.196	0.216	-0.023
-498.624	11.533	-0.291	0.225
-497.610	-95.547	0.217	-0.059
-496.595	-14.101	-0.046	-0.030
-495.581	-126.191	0.111	0.017
-494.566	800.000	0.086	-0.295
-493.551	-35.968	-0.106	-0.058
-492.537	-145.396	-0.170	-0.015
-491.522	297.975	-0.104	0.193
-490.508	-48.113	0.092	-0.045
-489.493	-35.101	-0.134	0.074
-488.478	-146.559	0.473	-0.041
-487.464	561.778	-0.077	0.188
-486.449	-200.000	-0.009	-0.073
-485.435	-77.035	-0.172	-0.060
-484.420	18.233	-0.184	0.148
-483.405	-26.191	-0.051	0.030
-482.391	-7.172	0.032	-0.022
-481.376	-114.139	-0.177	0.035
-480.362	800.000	-0.046	0.178
-479.347	438.946	0.073	-0.161
-478.332	54.328	-0.078	0.076
-477.318	101.054	0.129	-0.151
-476.303	-5.683	-0.122	-0.084
-475.289	-200.000	0.008	0.376
-474.274	-200.000	-0.043	0.240
-473.259	-13.995	-0.090	-0.059
-472.245	-147.379	-0.415	0.035
-471.230	-55.827	0.176	0.079
-470.216	255.338	0.065	-0.112
-469.201	-200.000	-0.061	0.294
-468.186	-6.355	-0.188	-0.129
-467.172	-200.000	0.014	-0.200
-466.157	217.994	0.067	0.108
-465.143	74.279	-0.334	0.353
-464.128	-71.381	0.194	-0.073
-463.113	-58.429	0.302	0.132
-462.099	192.660	0.108	-0.164
-461.084	-101.259	-0.159	-0.039
-460.070	-67.530	0.284	0.112
-459.055	-74.720	-0.227	-0.082
-458.040	79.957	-0.250	0.270
-457.026	-132.802	-0.179	-0.023
-456.011	-124.808	-0.050	-0.008
-454.997	124.155	-0.115	-0.145
-453.982	-191.252	0.184	0.002
-452.968	-71.330	-0.225	0.085
-451.953	259.577	-0.193	0.336
-450.938	-93.654	0.308	0.086
-449.924	-84.304	-0.064	-0.020
-448.909	-159.204	0.181	0.010
-447.895	134.057	0.125	-0.163
-446.880	-54.803	-0.149	-0.067
-445.865	418.219	-0.175	-0.376
-444.851	177.179	0.147	-0.216
-443.836	800.000	-0.054	0.160
-442.822	-78.433	-0.253	0.087
-441.807	-75.811	0.147	-0.052
-440.792	98.657	-0.055	-0.064
-439.778	800.000	-0.043	-0.177
-438.763	-44.006	-0.222	0.112
-437.749	-200.000	-0.025	-0.306
-436.734	-200.000	0.032	-0.268
-435.719	-60.506	-0.220	0.094
-434.705	-163.715	-0.263	0.012
-433.690	28.885	0.079	-0.067
-432.676	11.244	-0.101	-0.078
-431.661	-92.038	0.139	-0.039
-430.646	800.000	0.019	0.079
-429.632	44.898	-0.163	0.150
-428.617	30.489	0.058	0.050
-427.603	202.070	-0.159	0.247
-426.588	345.777	-0.056	-0.111
-425.573	-99.830	-0.411	0.103
-424.559	-27.788	-0.071	-0.041
-423.544	570.381	-0.064	0.157
-422.530	11.608	0.112	-0.086
-421.515	394.868	-0.119	0.250
-420.500	-35.066	-0.172	0.094
-419.486	-170.631	-0.214	-0.007
-418.471	800.000	-0.038	0.161
-417.457	800.000	-0.040	0.172
-416.442	800.000	0.018	-0.067
-415.428	-200.000	0.006	0.154
-414.413	149.390	0.095	0.129
-413.398	-65.332	0.222	-0.090
-412.384	-23.571	-0.282	-0.170
-411.369	800.000	-0.039	0.147
-410.355	-62.026	0.311	0.130
-409.340	-37.604	-0.340	0.182
-408.325	800.000	-0.012	0.043
-407.311	-200.000	-0.024	0.114
-406.296	316.273	-0.183	0.347
-405.282	147.928	0.088	-0.119
-404.267	-85.211	0.252	-0.079
-403.252	-200.000	0.024	-0.109
-402.238	-20.931	-0.280	0.172
-401.223	-103.471	-0.247	-0.058
-400.209	-200.000	-0.035	0.397
-399.194	7.474	-0.085	-0.064
-398.179	800.000	-0.054	-0.209
-397.165	85.326	0.197	-0.217
-396.150	513.640	0.026	0.062
-395.136	-86.410	0.341	0.105
-394.121	-200.000	0.069	0.398
-393.106	-200.000	0.017	0.118
-392.092	800.000	0.084	0.264
-391.077	-3.202	-0.147	0.103
-390.063	539.994	0.063	0.150
-389.048	-36.067	-0.182	0.099
-388.033	-71.916	0.155	-0.058
-387.019	800.000	0.097	-0.298
-386.004	670.993	0.068	0.176
-384.990	-200.000	-0.024	-0.390
-383.975	95.530	-0.303	0.347
-382.960	183.022	0.135	0.200
-381.946	195.217	-0.168	-0.256
-380.931	198.129	0.114	0.175
-379.917	70.542	0.089	-0.092
-378.902	361.869	0.129	-0.259
-377.888	-200.000	-0.132	-0.000
-376.873	247.367	0.115	0.195
-375.858	-107.165	-0.141	-0.031
-374.844	-184.327	0.142	0.002
-373.829	-160.218	-0.177	0.010
-372.815	289.628	-0.123	-0.223
-371.800	-123.376	0.507	-0.081
-370.785	-33.136	-0.090	-0.050
-369.771	-168.813	0.283	-0.011
-368.756	-165.609	-0.156	0.007
-367.742	385.870	-0.124	0.256
-366.727	107.790	-0.234	-0.280
-365.712	424.195	0.053	-0.114
-364.698	800.000	-0.141	-0.423
-363.683	-87.227	0.216	0.066
-362.669	-83.982	0.273	0.087
-361.654	-177.352	-0.137	0.003
-360.639	722.675	-0.029	0.078
-359.625	-187.795	-0.250	-0.003
-358.610	11.722	0.042	-0.032
-357.596	-200.000	0.038	-0.303
-356.581	-200.000	-0.024	0.290
-355.566	13.355	0.129	-0.100
-354.552	800.000	-0.052	0.151
-353.537	-200.000	0.027	0.298
-352.523	252.713	-0.173	0.295
-351.508	800.000	0.022	-0.060
-350.493	40.306	-0.395	-0.356
-349.479	282.093	-0.177	-0.318
-348.464	-63.012	0.370	0.153
-347.450	218.335	-0.253	0.405
-346.435	-200.000	0.073	0.347
-345.420	559.472	-0.128	0.309
-344.406	78.953	0.163	-0.174
-343.391	-200.000	0.040	-0.398
-342.377	119.773	0.147	0.183
-341.362	9.357	0.295	0.223
-340.348	-96.256	0.417	-0.111
-339.333	-142.663	0.045	0.004
-338.318	-200.000	-0.051	0.313
-337.304	-110.292	-0.191	0.040
-336.289	800.000	0.047	0.192
-335.275	-15.891	0.335	0.214
-334.260	30.047	0.121	0.103
-333.245	-200.000	0.008	0.074
-332.231	-70.009	0.143	-0.054
-331.216	117.905	-0.163	-0.201
-330.202	-200.000	0.046	-0.248
-329.187	800.000	-0.073	0.230
-328.172	-94.803	0.271	0.074
-327.158	-126.025	0.154	-0.023
-326.143	-37.791	0.163	0.087
-325.129	101.629	0.121	-0.141
-324.114	125.355	-0.081	-0.102
-323.099	800.000	-0.109	0.324
-322.085	800.000	0.034	0.130
-321.070	-53.383	0.244	-0.112
-320.056	800.000	-0.048	0.199
-319.041	-200.000	0.024	0.133
-318.026	-71.538	0.139	0.052
-317.012	-200.000	-0.017	-0.248
-315.997	20.878	0.076	0.062
-314.983	-123.037	0.324	-0.052
-313.968	-200.000	-0.011	0.088
-312.953	224.983	-0.071	-0.116
-311.939	-169.545	-0.174	0.006
-310.924	209.523	0.140	-0.220
-309.910	132.065	-0.064	-0.083
-308.895	42.125	-0.214	-0.194
-307.880	-200.000	-0.024	-0.261
-306.866	-200.000	-0.049	-0.436
-305.851	-54.532	-0.361	-0.163
-304.837	-113.726	-0.444	-0.087
-303.822	-52.476	0.055	-0.025
-302.807	-60.903	0.273	0.115
-301.793	12.133	0.140	-0.108
-300.778	-200.000	-0.010	-0.107
-299.764	800.000	-0.041	-0.156
-298.749	-80.296	0.161	0.054
-297.735	28.710	0.109	-0.092
-296.720	-36.875	-0.203	0.109
-295.705	751.748	0.085	0.229
-294.691	-45.525	0.105	0.052
-293.676	-200.000	-0.052	0.255
-292.662	-200.000	0.035	-0.239
-291.647	229.353	0.097	0.158
-290.632	-76.946	-0.023	0.008
-289.618	8.619	-0.047	0.036
-288.603	-69.272	0.393	0.151
-287.589	-153.313	-0.277	-0.019
-286.574	-104.138	0.235	-0.055
-285.559	397.451	0.062	-0.129
-284.545	-100.254	-0.168	-0.042
-283.530	800.000	0.104	-0.352
-282.516	244.311	-0.010	0.017
-281.501	-93.502	0.162	-0.045
-280.486	292.924	0.103	0.187
-279.472	-105.126	0.431	-0.098
-278.457	26.375	0.243	0.203
-277.443	-115.159	-0.097	0.018
-276.428	-200.000	-0.008	-0.222
-275.413	-161.869	0.126	-0.006
-274.399	-67.992	-0.285	-0.111
-273.384	-129.367	0.169	0.023
-272.370	-200.000	0.034	0.201
-271.355	325.657	-0.073	0.140
-270.340	-116.083	-0.490	-0.091
-269.326	555.379	-0.034	-0.082
-268.311	381.699	0.109	0.224
-267.297	-200.000	-0.002	-0.038
-266.282	-42.045	0.183	-0.094
-265.267	-200.000	-0.027	0.128
-264.253	-200.000	0.002	-0.180
-263.238	-88.883	0.023	-0.007
-262.224	-200.000	-0.016	-0.123
-261.209	-200.000	-0.010	-0.111
-260.195	800.000	0.061	0.263
-259.180	-71.907	-0.108	-0.040
-258.165	800.000	0.054	-0.220
-257.151	-84.843	0.102	0.032
-256.136	255.764	0.184	-0.314
-255.122	800.000	-0.046	0.142
-254.107	-200.000	0.020	0.320
-253.092	-200.000	0.022	0.400
-252.078	800.000	0.139	0.409
-251.063	-129.033	0.147	0.021
-250.049	28.280	-0.343	-0.289
-249.034	751.634	-0.102	0.276
-248.019	148.166	0.162	0.218
-247.005	-74.839	0.269	-0.096
-245.990	16.563	0.145	0.114
-244.976	800.000	0.045	0.152
-243.961	18.585	0.227	-0.181
-242.946	-80.652	-0.309	0.103
-241.932	-94.852	0.165	-0.045
-240.917	-138.139	0.055	-0.006
-239.903	217.599	-0.188	0.298
-238.888	728.730	0.058	-0.155
-237.873	37.253	-0.251	0.222
-236.859	429.839	0.104	-0.224
-235.844	53.982	-0.058	-0.056
-234.830	-49.918	-0.062	-0.030
-233.815	332.582	0.141	0.272
-232.800	-138.310	-0.179	0.020
-231.786	6.778	0.119	-0.088
-230.771	236.269	0.063	0.104
-229.757	-16.869	0.281	-0.177
-228.742	21.434	0.369	-0.299
-227.727	581.061	0.081	0.199
-226.713	-45.590	0.225	-0.111
-225.698	-200.000	0.042	-0.243
-224.684	136.854	0.176	0.229
-223.669	-18.125	0.044	0.027
-222.655	-200.000	-0.001	-0.331
-221.640	-187.621	0.067	0.001
-220.625	-85.494	-0.534	0.166
-219.611	139.996	-0.237	-0.312
-218.596	-200.000	-0.043	-0.321
-217.582	-5.771	0.072	0.049
-216.567	-80.658	0.274	0.091
-215.552	-129.498	0.246	-0.034
-214.538	-200.000	0.001	0.182
-213.523	-83.923	0.171	0.054
-212.509	171.099	0.138	-0.198
-211.494	495.192	-0.070	-0.159
-210.479	233.395	-0.031	-0.050
-209.465	-200.000	0.031	0.329
-208.450	-23.062	0.122	-0.073
-207.436	-27.116	-0.232	0.134
-206.421	13.811	-0.255	0.198
-205.406	568.396	-0.227	-0.548
-204.392	800.000	-0.072	-0.276
-203.377	-200.000	-0.046	-0.326
-202.363	58.679	-0.094	-0.092
-201.348	800.000	0.110	-0.406
-200.333	278.190	0.254	0.450
-199.319	-200.000	0.009	0.183
-198.304	-65.261	-0.197	0.079
-197.290	530.123	-0.076	0.179
-196.275	-130.291	-0.338	-0.046
-195.260	251.055	0.090	0.153
-194.246	-137.943	-0.094	0.010
-193.231	-94.482	0.040	0.011
-192.217	-142.646	0.164	0.016
-191.202	172.524	-0.074	-0.105
-190.187	16.724	-0.068	0.054
-189.173	12.249	0.194	-0.149
-188.158	-6.265	-0.118	-0.080
-187.144	-19.095	0.269	0.166
-186.129	-40.783	-0.238	0.123
-185.114	-107.706	-0.265	0.058
-184.100	192.467	0.045	0.067
-183.085	800.000	0.069	0.206
-182.071	96.407	0.232	-0.264
-181.056	-102.307	0.084	-0.020
-180.042	-132.065	0.074	-0.010
-179.027	-197.420	-0.312	-0.002
-178.012	-200.000	-0.055	0.491
-176.998	-200.000	0.005	-0.206
-175.983	-126.404	-0.061	-0.009
-174.969	-36.993	0.124	-0.066
-173.954	-200.000	-0.037	0.181
-172.939	800.000	-0.040	-0.161
-171.925	-200.000	0.041	0.322
-170.910	265.763	-0.118	0.205
-169.896	-61.410	0.195	0.082
-168.881	461.317	0.173	0.383
-167.866	92.540	0.090	0.101
-166.852	63.787	-0.083	0.083
-165.837	176.024	0.043	0.062
-164.823	-123.898	0.033	0.005
-163.808	-200.000	0.020	0.126
-162.793	269.321	-0.163	-0.285
-161.779	-121.762	-0.039	-0.006
-160.764	197.466	0.073	0.110
-159.750	100.469	0.140	-0.162
-158.735	-28.266	-0.106	-0.061
-157.720	-60.632	0.331	-0.139
-156.706	-200.000	0.052	0.239
-155.691	-200.000	-0.011	0.060
-154.677	-187.832	-0.275	-0.004
-153.662	-59.586	-0.259	-0.110
-152.647	-138.723	0.451	-0.049
-151.633	-62.114	-0.116	0.048
-150.618	800.000	-0.053	-0.156
-149.604	-200.000	-0.077	0.350
-148.589	162.771	0.200	0.279
-147.574	-98.722	-0.287	-0.073
-146.560	423.779	-0.086	0.184
-145.545	-138.791	-0.407	-0.044
-144.531	-200.000	0.023	0.191
-143.516	-139.701	0.180	-0.019
-142.502	207.586	0.063	-0.097
-141.487	184.031	-0.170	0.250
-140.472	2.666	0.115	0.083
-139.458	800.000	0.018	0.075
-138.443	-96.125	0.269	0.071
-137.429	-110.552	0.450	0.093
-136.414	800.000	-0.098	-0.363
-135.399	-100.676	0.385	-0.094
-134.385	-65.266	0.156	0.062
-133.370	-188.082	0.282	-0.004
-132.356	-200.000	0.061	0.417
-131.341	-188.580	-0.166	0.002
-130.326	-96.904	-0.324	0.084
-129.312	-22.048	0.073	0.044
-128.297	-200.000	-0.000	0.039
-127.283	116.452	0.122	0.149
-126.268	371.180	0.128	0.258
-125.253	-200.000	0.080	-0.354
-124.239	372.475	-0.089	-0.180
-123.224	-1.912	-0.102	0.071
-122.210	325.740	0.103	0.195
