DTS Sentinel unit serial number:	SN413079Multiplexer serial number:	ORYXHardware model number:	OX4-SRSoftware version number:	ORYX F/W v4.00 Oryx Data Collector v3.7.2.0data status	okinstallation	princeton_trtdifferential loss correction	single-endedforward channel	channel 4reverse channel	N/Adate	2019/09/13time	11:21:35forward acquisition time	60.00reverse acquisition time	0.00gamma	496.2192k internal	0.2302k external	0.2302temperature offset calibration	1.0196default loss term (dB/km)	0.3790temperature slope calibration	1.0000multiplexer offset coefficient	1.0000multiplexer slope coefficient	1.0000fibre end	0.00T internal ref (°C)	32.44T ext. ref 1 (°C)	4.52T ext. ref 2 (°C)	29.68length (m)	temperature (°C)	Stokes	anti-Stokes-747.200	-83.888	0.103	-0.033
-746.185	-200.000	-0.035	0.300
-745.171	36.862	0.334	0.301
-744.156	-200.000	0.025	0.422
-743.142	219.025	-0.176	-0.287
-742.127	-183.877	0.263	-0.005
-741.112	800.000	-0.016	-0.047
-740.098	-125.242	0.030	-0.005
-739.083	-67.015	-0.218	-0.088
-738.069	164.746	-0.181	0.260
-737.054	-14.498	-0.032	0.021
-736.039	-50.138	0.192	-0.092
-735.025	-200.000	0.040	0.204
-734.010	34.390	-0.173	-0.154
-732.996	338.384	-0.155	-0.307
-731.981	800.000	-0.071	-0.260
-730.966	-52.732	-0.346	0.163
-729.952	800.000	0.066	-0.218
-728.937	-23.849	-0.287	-0.175
-727.923	-47.380	-0.078	0.039
-726.908	-200.000	-0.010	-0.084
-725.894	-163.301	-0.206	-0.010
-724.879	-20.620	-0.078	-0.049
-723.864	14.046	-0.143	-0.113
-722.850	800.000	-0.018	0.066
-721.835	-128.219	-0.360	0.052
-720.821	-130.306	0.156	0.022
-719.806	184.922	-0.205	-0.310
-718.791	-72.554	0.058	0.022
-717.777	524.987	-0.090	0.215
-716.762	-200.000	0.005	-0.045
-715.748	-18.708	0.347	-0.220
-714.733	-200.000	0.039	-0.252
-713.718	800.000	0.106	0.328
-712.704	475.345	0.061	0.140
-711.689	71.948	0.367	0.388
-710.675	800.000	-0.031	-0.102
-709.660	182.443	0.155	-0.232
-708.645	12.355	0.207	0.162
-707.631	38.099	-0.239	-0.216
-706.616	800.000	-0.047	-0.157
-705.602	-89.067	-0.289	0.087
-704.587	118.692	0.073	-0.092
-703.572	116.709	0.223	0.278
-702.558	800.000	0.025	0.103
-701.543	-200.000	-0.022	0.138
-700.529	414.848	0.057	-0.123
-699.514	-85.593	-0.203	-0.064
-698.499	-19.354	-0.275	-0.173
-697.485	-19.782	-0.014	-0.009
-696.470	-112.753	0.043	-0.009
-695.456	230.857	-0.199	-0.331
-694.441	-38.368	-0.210	-0.113
-693.426	83.998	-0.091	-0.101
-692.412	-200.000	0.016	-0.425
-691.397	-126.616	0.188	-0.028
-690.383	-41.025	0.057	-0.030
-689.368	435.904	0.098	-0.218
-688.354	-16.580	-0.272	-0.175
-687.339	800.000	0.109	-0.377
-686.324	-91.216	-0.222	0.065
-685.310	-51.068	0.185	-0.088
-684.295	305.208	0.035	-0.066
-683.281	-200.000	-0.030	0.384
-682.266	-153.184	-0.060	0.004
-681.251	-200.000	0.037	-0.499
-680.237	-33.270	0.176	0.099
-679.222	373.119	-0.160	-0.331
-678.208	-51.957	0.299	-0.141
-677.193	89.090	0.121	0.137
-676.178	-200.000	-0.005	-0.524
-675.164	-102.833	-0.119	-0.029
-674.149	-142.718	0.128	0.013
-673.135	-101.971	0.328	-0.081
-672.120	522.768	0.076	0.181
-671.105	-25.169	0.139	0.084
-670.091	-144.405	-0.305	-0.029
-669.076	-200.000	-0.012	-0.086
-668.062	-77.696	-0.109	0.038
-667.047	-64.773	-0.446	-0.184
-666.032	800.000	-0.035	-0.156
-665.018	-176.624	0.168	-0.004
-664.003	-200.000	0.003	-0.101
-662.989	-3.568	-0.166	0.117
-661.974	-8.562	-0.306	-0.209
-660.959	-83.028	-0.398	0.130
-659.945	-121.173	-0.153	0.026
-658.930	-200.000	-0.053	0.294
-657.916	377.230	0.064	0.133
-656.901	-80.768	0.176	0.060
-655.886	-200.000	0.060	0.555
-654.872	59.540	0.095	0.095
-653.857	39.605	-0.135	-0.123
-652.843	-52.121	0.042	-0.020
-651.828	158.940	0.172	-0.242
-650.814	-115.192	-0.272	0.052
-649.799	74.008	0.275	-0.293
-648.784	-87.138	0.151	-0.047
-647.770	-63.187	-0.288	0.121
-646.755	-88.867	-0.198	-0.060
-645.741	-73.411	-0.349	-0.130
-644.726	-74.642	-0.145	0.053
-643.711	-115.502	-0.053	0.010
-642.697	42.057	-0.172	-0.158
-641.682	-149.494	0.226	0.018
-640.668	-116.638	-0.389	-0.073
-639.653	92.712	0.044	0.050
-638.638	800.000	0.067	0.298
-637.624	-91.048	-0.266	-0.078
-636.609	800.000	0.034	-0.129
-635.595	11.933	-0.410	0.320
-634.580	-200.000	0.007	-0.190
-633.565	-61.239	0.296	0.127
-632.551	214.893	0.174	-0.281
-631.536	800.000	0.099	0.282
-630.522	143.808	-0.065	0.088
-629.507	-105.338	0.122	0.028
-628.492	446.111	-0.017	0.038
-627.478	-65.030	0.203	-0.083
-626.463	193.273	0.114	-0.175
-625.449	25.403	0.189	-0.159
-624.434	38.604	0.075	0.068
-623.419	54.724	-0.239	0.234
-622.405	262.568	0.059	0.104
-621.390	-200.000	-0.003	-0.113
-620.376	479.126	-0.097	-0.222
-619.361	84.953	-0.242	0.269
-618.346	800.000	-0.184	0.552
-617.332	-53.978	-0.102	0.047
-616.317	83.579	-0.093	-0.102
-615.303	86.845	-0.185	0.207
-614.288	250.229	0.077	-0.133
-613.273	800.000	0.033	-0.108
-612.259	51.449	0.044	-0.042
-611.244	-200.000	-0.003	-0.126
-610.230	-61.728	-0.133	-0.056
-609.215	67.515	-0.277	-0.286
-608.201	238.975	-0.070	-0.117
-607.186	-67.205	-0.301	-0.120
-606.171	297.954	0.088	0.164
-605.157	-5.304	-0.120	-0.083
-604.142	174.483	0.266	-0.390
-603.128	-36.316	0.151	-0.082
-602.113	5.286	0.249	0.186
-601.098	25.572	0.364	-0.307
-600.084	-200.000	0.054	0.331
-599.069	1.696	0.084	-0.062
-598.055	-117.450	0.050	0.009
-597.040	186.728	0.125	0.188
-596.025	-51.233	-0.212	0.101
-595.011	-178.775	-0.127	0.003
-593.996	-49.508	-0.114	-0.055
-592.982	23.028	-0.322	0.268
-591.967	-88.686	0.054	0.016
-590.952	18.896	-0.126	0.102
-589.938	-151.106	0.425	0.032
-588.923	502.595	0.202	0.472
-587.909	633.279	-0.042	0.108
-586.894	284.070	-0.182	-0.331
-585.879	-6.703	-0.247	0.170
-584.865	-200.000	0.004	-0.271
-583.850	112.486	0.265	-0.325
-582.836	-107.865	-0.184	-0.041
-581.821	45.823	0.332	0.311
-580.806	46.298	0.023	-0.022
-579.792	-200.000	0.008	0.078
-578.777	-8.197	-0.151	-0.103
-577.763	-10.188	-0.194	0.131
-576.748	77.791	-0.229	-0.247
-575.733	-200.000	-0.029	-0.136
-574.719	-162.128	0.326	0.017
-573.704	738.891	-0.045	-0.121
-572.690	800.000	0.054	0.160
-571.675	-15.315	-0.187	0.121
-570.661	800.000	0.114	0.363
-569.646	-27.268	-0.081	0.048
-568.631	-146.983	0.094	0.008
-567.617	330.039	0.053	-0.103
-566.602	54.655	-0.070	-0.068
-565.588	-200.000	-0.079	-0.409
-564.573	-200.000	0.003	-0.243
-563.558	-145.443	-0.227	-0.021
-562.544	20.773	-0.223	-0.183
-561.529	-158.868	-0.192	-0.011
-560.515	22.489	0.122	0.101
-559.500	-200.000	-0.007	0.280
-558.485	-164.902	-0.248	0.011
-557.471	26.154	-0.071	-0.060
-556.456	456.782	0.116	0.262
-555.442	800.000	-0.060	-0.189
-554.427	-146.360	0.277	-0.024
-553.412	339.537	0.087	-0.172
-552.398	-57.225	0.207	0.092
-551.383	-200.000	0.011	0.253
-550.369	-140.786	0.333	-0.035
-549.354	-5.417	0.247	0.172
-548.339	566.148	0.052	0.127
-547.325	144.640	-0.264	0.356
-546.310	69.974	-0.162	0.169
-545.296	695.257	0.137	-0.363
-544.281	-44.253	-0.182	0.092
-543.266	-200.000	-0.039	0.296
-542.252	-101.676	0.436	-0.107
-541.237	7.804	0.180	-0.136
-540.223	48.743	-0.190	-0.180
-539.208	-181.315	-0.331	-0.007
-538.193	-137.358	0.444	-0.051
-537.179	97.122	-0.364	-0.422
-536.164	274.721	-0.180	-0.323
-535.150	57.150	-0.193	0.191
-534.135	-0.969	-0.249	-0.178
-533.121	-200.000	-0.014	-0.291
-532.106	159.876	-0.143	0.202
-531.091	-15.347	0.113	0.073
-530.077	15.555	-0.293	-0.233
-529.062	318.068	-0.114	-0.217
-528.048	258.509	0.112	-0.195
-527.033	80.124	0.280	-0.304
-526.018	73.763	-0.129	-0.137
-525.004	-30.616	0.166	0.095
-523.989	-56.444	0.052	-0.023
-522.975	297.840	0.170	-0.316
-521.960	659.247	-0.104	0.270
-520.945	143.118	-0.180	0.241
-519.931	298.133	0.006	-0.012
-518.916	-101.326	-0.260	-0.064
-517.902	101.541	-0.085	-0.100
-516.887	309.463	0.270	-0.509
-515.872	23.846	-0.278	-0.232
-514.858	-57.107	-0.289	0.129
-513.843	-200.000	-0.014	-0.132
-512.829	-20.819	0.259	-0.161
-511.814	-200.000	0.007	0.138
-510.799	-169.073	-0.207	-0.008
-509.785	-200.000	-0.027	0.158
-508.770	46.770	0.175	-0.164
-507.756	170.878	0.211	-0.305
-506.741	463.675	0.101	0.228
-505.726	131.795	-0.057	-0.074
-504.712	-64.051	-0.235	-0.097
-503.697	-167.805	0.167	0.007
-502.683	-200.000	-0.003	0.130
-501.668	800.000	-0.018	0.076
-500.653	75.960	0.171	-0.182
-499.639	-41.758	0.058	0.030
-498.624	-200.000	0.061	-0.505
-497.610	800.000	0.060	0.217
-496.595	197.436	-0.092	-0.141
-495.581	800.000	-0.056	-0.203
-494.566	-200.000	0.053	-0.255
-493.551	-50.469	0.092	-0.044
-492.537	-62.319	-0.167	-0.070
-491.522	-200.000	0.004	-0.194
-490.508	800.000	-0.151	-0.427
-489.493	234.158	-0.057	-0.094
-488.478	210.369	-0.039	-0.062
-487.464	283.034	0.073	0.132
-486.449	-41.638	-0.315	0.163
-485.435	-49.084	0.172	0.083
-484.420	-2.830	0.050	-0.035
-483.405	31.555	0.165	-0.143
-482.391	-134.779	-0.396	0.049
-481.376	105.120	0.249	-0.296
-480.362	-47.847	0.152	-0.074
-479.347	81.510	-0.443	-0.483
-478.332	-60.562	0.226	-0.097
-477.318	-79.916	0.097	0.033
-476.303	-99.514	0.306	0.078
-475.289	-83.806	-0.330	-0.106
-474.274	-14.179	0.220	-0.143
-473.259	-200.000	-0.009	-0.058
-472.245	16.062	0.170	0.135
-471.230	-200.000	-0.004	-0.260
-470.216	-200.000	-0.037	-0.211
-469.201	-157.403	0.044	-0.003
-468.186	-200.000	0.005	0.154
-467.172	760.779	-0.104	-0.283
-466.157	-104.210	0.216	-0.051
-465.143	-70.879	0.176	-0.067
-464.128	-200.000	-0.021	-0.129
-463.113	-200.000	0.020	0.112
-462.099	49.451	-0.171	0.162
-461.084	30.225	0.071	-0.061
-460.070	149.995	-0.105	-0.143
-459.055	-193.517	-0.139	-0.001
-458.040	800.000	-0.074	0.208
-457.026	-89.739	0.163	0.048
-456.011	189.390	-0.152	-0.229
-454.997	84.669	0.257	-0.284
-453.982	161.130	-0.136	-0.191
-452.968	-200.000	0.007	0.160
-451.953	-13.718	0.286	0.187
-450.938	-142.365	-0.434	-0.043
-449.924	-156.896	-0.131	-0.008
-448.909	462.978	-0.033	0.074
-447.895	-200.000	-0.019	0.387
-446.880	-76.850	0.130	0.046
-445.865	337.472	-0.088	0.173
-444.851	148.313	-0.126	-0.171
-443.836	-34.097	0.125	0.069
-442.822	27.157	0.056	0.048
-441.807	-200.000	0.006	-0.146
-440.792	18.224	-0.419	-0.337
-439.778	7.444	0.229	-0.172
-438.763	132.035	-0.123	0.160
-437.749	-200.000	-0.061	-0.339
-436.734	14.529	-0.208	0.164
-435.719	-98.461	-0.151	0.039
-434.705	800.000	-0.061	-0.170
-433.690	-1.788	-0.136	0.097
-432.676	355.039	0.096	0.192
-431.661	40.170	-0.304	0.275
-430.646	-56.783	0.174	0.078
-429.632	31.654	-0.075	0.065
-428.617	593.984	-0.159	0.395
-427.603	344.112	0.078	0.154
-426.588	-89.761	-0.184	0.054
-425.573	-44.719	-0.138	-0.069
-424.559	104.266	-0.064	-0.076
-423.544	-200.000	-0.069	-0.362
-422.530	149.253	0.212	0.288
-421.515	178.996	0.067	0.098
-420.500	800.000	0.011	0.046
-419.486	-200.000	0.030	0.258
-418.471	762.375	-0.102	0.279
-417.457	45.859	0.192	-0.179
-416.442	800.000	0.014	-0.042
-415.428	-56.006	0.248	0.111
-414.413	-81.225	0.284	-0.094
-413.398	-19.619	0.080	-0.050
-412.384	13.260	-0.104	-0.081
-411.369	-10.379	-0.031	0.021
-410.355	-200.000	0.023	0.135
-409.340	-200.000	-0.018	-0.364
-408.325	-37.989	0.120	-0.064
-407.311	267.570	0.093	0.163
-406.296	-96.436	-0.320	-0.085
-405.282	800.000	-0.148	0.448
-404.267	-37.794	-0.266	0.142
-403.252	-200.000	-0.024	0.303
-402.238	-75.433	-0.292	-0.105
-401.223	-157.062	-0.386	-0.024
-400.209	800.000	0.029	-0.128
-399.194	309.267	-0.039	-0.073
-398.179	-134.925	-0.100	-0.012
-397.165	800.000	-0.084	0.285
-396.150	74.503	0.217	-0.229
-395.136	-134.663	0.014	-0.002
-394.121	-81.527	-0.147	-0.048
-393.106	41.910	-0.064	0.058
-392.092	-42.290	-0.060	-0.031
-391.077	-200.000	-0.022	-0.258
-390.063	-200.000	-0.043	0.225
-389.048	-200.000	0.007	-0.048
-388.033	-68.670	-0.120	0.047
-387.019	249.969	-0.092	-0.158
-386.004	-42.333	-0.042	0.021
-384.990	-77.984	0.133	-0.046
-383.975	29.150	-0.189	0.161
-382.960	-200.000	-0.042	-0.283
-381.946	-136.852	0.372	-0.043
-380.931	15.975	0.395	0.313
-379.917	254.222	-0.148	-0.254
-378.902	60.029	0.210	0.208
-377.888	-80.085	0.111	0.037
-376.873	-8.783	-0.036	0.025
-375.858	-152.246	-0.067	0.005
-374.844	44.109	-0.087	0.080
-373.829	396.201	-0.009	0.019
-372.815	305.034	-0.195	0.364
-371.800	-200.000	0.030	-0.217
-370.785	-16.897	-0.368	0.234
-369.771	-22.610	0.202	-0.123
-368.756	800.000	0.132	-0.414
-367.742	800.000	-0.065	0.246
-366.727	-147.964	-0.118	-0.010
-365.712	-113.438	-0.092	-0.018
-364.698	16.081	0.231	-0.183
-363.683	-189.580	-0.330	0.004
-362.669	-36.747	0.202	0.109
-361.654	-200.000	-0.015	-0.149
-360.639	50.720	0.162	0.154
-359.625	-168.152	-0.229	-0.009
-358.610	23.098	0.087	0.072
-357.596	-200.000	0.003	0.070
-356.581	-114.231	0.277	0.054
-355.566	102.962	0.342	0.402
-354.552	26.124	0.188	0.158
-353.537	-44.331	0.196	-0.098
-352.523	-200.000	-0.019	-0.098
-351.508	-169.888	-0.090	0.003
-350.493	440.362	0.040	-0.088
-349.479	-38.850	-0.294	-0.155
-348.464	-200.000	0.082	0.522
-347.450	215.070	0.157	0.250
-346.435	-107.621	0.292	-0.064
-345.420	-29.080	-0.141	0.081
-344.406	-200.000	-0.009	-0.102
-343.391	-200.000	-0.039	-0.177
-342.377	800.000	0.125	0.465
-341.362	-2.257	-0.100	0.071
-340.348	800.000	0.074	0.231
-339.333	235.109	-0.099	0.163
-338.318	265.908	-0.022	-0.039
-337.304	243.960	0.080	0.134
-336.289	-48.624	-0.143	-0.069
-335.275	383.246	0.107	-0.220
-334.260	654.523	-0.083	-0.214
-333.245	-36.374	0.236	0.128
-332.231	-20.797	-0.066	0.041
-331.216	-27.381	0.090	-0.053
-330.202	37.576	-0.284	0.253
-329.187	71.549	0.112	-0.117
-328.172	-93.309	0.192	-0.053
-327.158	-92.936	0.322	-0.090
-326.143	320.582	0.078	-0.150
-325.129	-55.865	0.319	0.143
-324.114	379.440	-0.139	0.285
-323.099	-125.099	-0.182	0.028
-322.085	-200.000	0.114	-0.000
-321.070	-83.031	0.086	0.028
-320.056	300.551	-0.166	0.308
-319.041	-60.198	0.113	-0.048
-318.026	-200.000	0.029	0.129
-317.012	57.113	-0.121	-0.118
-315.997	-200.000	-0.001	0.082
-314.983	800.000	-0.029	-0.083
-313.968	133.542	0.071	-0.092
-312.953	24.388	-0.233	-0.193
-311.939	-4.841	-0.190	0.132
-310.924	-79.677	-0.134	0.045
-309.910	246.460	-0.049	0.082
-308.895	800.000	-0.100	0.298
-307.880	278.790	0.173	0.309
-306.866	-102.322	-0.243	0.059
-305.851	-98.102	0.273	-0.070
-304.837	-0.475	0.193	-0.138
-303.822	-200.000	-0.007	-0.179
-302.807	-138.407	0.249	-0.027
-301.793	45.434	0.161	0.149
-300.778	302.227	0.109	0.202
-299.764	-200.000	0.023	0.179
-298.749	-22.520	-0.221	0.134
-297.735	267.005	0.120	0.210
-296.720	-73.441	0.388	0.142
-295.705	-200.000	-0.105	-0.614
-294.691	-200.000	-0.020	0.515
-293.676	-115.519	0.378	-0.071
-292.662	99.779	0.139	-0.161
-291.647	800.000	-0.050	0.139
-290.632	541.480	-0.086	0.205
-289.618	646.103	0.030	0.078
-288.603	-33.732	0.303	0.167
-287.589	800.000	-0.083	-0.284
-286.574	74.392	-0.087	0.091
-285.559	-118.949	0.113	0.020
-284.545	-19.843	-0.274	-0.170
-283.530	-144.054	0.310	0.029
-282.516	193.082	0.175	0.265
-281.501	800.000	0.008	0.031
-280.486	175.216	-0.119	-0.172
-279.472	-200.000	0.048	0.363
-278.457	-41.834	0.254	-0.131
-277.443	-51.246	-0.164	-0.077
-276.428	-200.000	-0.001	-0.080
-275.413	-117.314	-0.333	-0.060
-274.399	800.000	0.098	-0.297
-273.384	34.241	0.214	0.187
-272.370	-68.803	0.377	0.146
-271.355	-68.467	-0.249	-0.097
-270.340	161.327	-0.267	0.374
-269.326	-33.970	-0.185	-0.102
-268.311	312.884	0.150	0.281
-267.297	4.499	0.255	0.187
-266.282	274.850	-0.086	-0.152
-265.267	420.316	-0.119	0.254
-264.253	97.563	0.382	-0.439
-263.238	-37.659	0.202	-0.108
-262.224	-139.620	0.537	-0.057
-261.209	-120.487	-0.192	-0.033
-260.195	353.447	-0.056	-0.112
-259.180	-15.521	0.215	-0.137
-258.165	-39.519	-0.368	-0.193
-257.151	-200.000	0.047	-0.398
-256.136	800.000	0.101	0.284
-255.122	800.000	0.021	-0.067
-254.107	-124.372	-0.265	-0.041
-253.092	121.436	0.263	-0.328
-252.078	205.212	-0.080	-0.125
-251.063	-140.687	0.269	-0.028
-250.049	-153.074	0.374	-0.026
-249.034	-121.743	-0.262	0.043
-248.019	-140.874	0.104	0.011
-247.005	98.766	0.054	0.062
-245.990	-111.665	0.191	0.039
-244.976	152.957	-0.005	-0.007
-243.961	-112.023	0.126	0.025
-242.946	97.177	-0.009	-0.010
-241.932	2.887	-0.069	-0.050
-240.917	240.563	0.156	-0.261
-239.903	-10.925	-0.225	-0.148
-238.888	-18.365	-0.184	0.115
-237.873	79.027	0.295	-0.316
-236.859	-108.672	-0.378	0.081
-235.844	-77.317	0.182	-0.063
-234.830	695.613	-0.037	-0.097
-233.815	-200.000	0.080	-0.443
-232.800	261.889	0.227	0.394
-231.786	800.000	-0.099	0.309
-230.771	710.546	0.076	-0.201
-229.757	49.978	0.301	0.283
-228.742	-118.027	0.219	0.039
-227.727	-200.000	-0.005	-0.084
-226.713	-142.937	-0.350	0.034
-225.698	-200.000	-0.009	0.139
-224.684	38.195	-0.158	0.140
-223.669	800.000	0.051	0.175
-222.655	-170.342	-0.218	-0.008
-221.640	-110.891	-0.144	0.030
-220.625	18.590	0.066	-0.053
-219.611	117.522	-0.065	-0.079
-218.596	-200.000	0.039	0.221
-217.582	800.000	0.126	0.514
-216.567	406.665	-0.074	-0.157
-215.552	225.837	-0.120	0.194
-214.538	-53.572	0.175	-0.080
-213.523	631.595	-0.031	0.080
-212.509	89.301	-0.178	0.198
-211.494	518.244	0.080	-0.186
-210.479	-23.363	-0.215	0.129
-209.465	-116.146	-0.314	0.058
-208.450	4.879	0.247	0.182
-207.436	-48.654	0.235	0.113
-206.421	-96.118	-0.095	-0.025
-205.406	-71.592	-0.054	-0.020
-204.392	800.000	0.103	0.332
-203.377	85.887	-0.247	-0.271
-202.363	-91.284	0.184	-0.053
-201.348	-23.214	-0.145	0.087
-200.333	-200.000	-0.009	-0.162
-199.319	125.664	0.126	-0.159
-198.304	494.236	0.102	-0.234
-197.290	49.649	-0.085	0.080
-196.275	-200.000	-0.022	-0.173
-195.260	-147.045	-0.123	0.011
-194.246	-121.989	-0.254	-0.042
-193.231	-79.291	-0.203	0.069
-192.217	-64.424	0.393	-0.159
-191.202	-200.000	-0.014	0.213
-190.187	754.066	-0.067	0.182
-189.173	724.434	0.094	-0.250
-188.158	-154.959	-0.057	0.004
-187.144	93.220	0.069	-0.078
-186.129	-99.122	0.335	-0.084
-185.114	91.766	-0.316	-0.355
-184.100	-25.095	0.236	0.140
-183.085	-133.808	0.344	-0.043
-182.071	-130.530	0.273	0.037
-181.056	-17.490	0.082	0.052
-180.042	339.059	0.050	0.097
-179.027	115.594	0.282	0.344
-178.012	235.469	0.056	-0.092
-176.998	118.211	0.101	0.124
-175.983	49.393	-0.208	0.195
-174.969	-200.000	-0.000	0.053
-173.954	-132.212	-0.151	-0.020
-172.939	800.000	0.080	-0.248
-171.925	-120.706	-0.257	-0.043
-170.910	-154.738	-0.271	0.018
-169.896	140.074	-0.170	0.223
-168.881	-127.735	0.324	0.047
-167.866	148.106	-0.246	-0.330
-166.852	-200.000	-0.002	0.130
-165.837	800.000	-0.080	0.239
-164.823	-197.380	-0.264	-0.002
-163.808	-200.000	0.047	0.246
-162.793	-75.350	-0.124	-0.044
-161.779	-200.000	0.003	0.110
-160.764	215.041	0.151	0.239
-159.750	31.235	-0.247	-0.212
-158.735	180.944	0.153	0.223
-157.720	-22.011	0.103	0.062
-156.706	-149.475	0.280	-0.022
-155.691	-117.355	0.100	0.018
-154.677	-200.000	-0.022	0.325
-153.662	170.675	-0.198	-0.282
-152.647	-200.000	-0.015	0.151
-151.633	-200.000	-0.003	-0.170
-150.618	77.267	-0.153	-0.162
-149.604	-200.000	0.020	0.199
-148.589	363.903	0.171	0.343
-147.574	-133.597	0.186	-0.023
-146.560	800.000	-0.101	0.329
-145.545	-200.000	-0.013	-0.100
-144.531	-80.975	0.146	-0.048
-143.516	336.083	0.114	0.221
-142.502	-97.433	0.098	0.025
-141.487	800.000	-0.058	-0.248
-140.472	-200.000	-0.040	-0.382
-139.458	-200.000	0.001	0.082
-138.443	-174.090	0.413	-0.012
-137.429	125.295	-0.007	0.009
-136.414	-129.321	-0.145	0.020
-135.399	-90.751	0.209	-0.060
-134.385	-91.153	0.492	-0.140
-133.370	-123.862	0.152	-0.024
-132.356	60.904	-0.296	0.292
-131.341	293.674	-0.101	0.183
-130.326	-26.107	-0.050	-0.030
-129.312	-200.000	-0.158	-0.001
-128.297	58.493	-0.121	-0.118
-127.283	23.256	-0.156	0.127
-126.268	222.249	0.227	0.364
-125.253	-126.206	0.603	-0.090
-124.239	-145.992	-0.458	0.040
-123.224	287.378	0.081	0.145
-122.210	8.833	0.259	0.194
