DTS Sentinel unit serial number:	SN413079Multiplexer serial number:	ORYXHardware model number:	OX4-SRSoftware version number:	ORYX F/W v4.00 Oryx Data Collector v3.7.2.0data status	okinstallation	princeton_trtdifferential loss correction	single-endedforward channel	channel 4reverse channel	N/Adate	2019/09/12time	23:21:35forward acquisition time	60.00reverse acquisition time	0.00gamma	496.2192k internal	0.2316k external	0.2316temperature offset calibration	1.0178default loss term (dB/km)	0.3790temperature slope calibration	1.0000multiplexer offset coefficient	1.0000multiplexer slope coefficient	1.0000fibre end	0.00T internal ref (°C)	29.06T ext. ref 1 (°C)	3.76T ext. ref 2 (°C)	23.71length (m)	temperature (°C)	Stokes	anti-Stokes-747.200	-30.340	0.294	-0.169
-746.185	-200.000	-0.031	0.297
-745.171	-158.520	0.024	-0.001
-744.156	-55.936	-0.058	-0.026
-743.142	669.502	-0.031	-0.081
-742.127	-39.793	-0.424	0.224
-741.112	784.246	-0.049	0.137
-740.098	672.174	0.168	0.441
-739.083	19.570	-0.143	0.116
-738.069	-7.587	-0.082	0.056
-737.054	29.439	-0.149	-0.128
-736.039	-21.789	-0.370	0.228
-735.025	-57.162	0.302	0.135
-734.010	-96.224	0.105	0.028
-732.996	53.556	-0.054	0.052
-731.981	-139.907	0.395	-0.042
-730.966	-200.000	-0.048	-0.248
-729.952	-159.480	0.175	-0.010
-728.937	-50.367	0.237	-0.113
-727.923	-12.446	0.330	-0.218
-726.908	186.353	-0.036	-0.054
-725.894	84.383	-0.050	-0.055
-724.879	15.883	-0.251	-0.200
-723.864	-128.054	-0.068	-0.010
-722.850	237.409	0.107	0.179
-721.835	-24.179	0.009	0.005
-720.821	467.420	-0.143	0.325
-719.806	-92.227	-0.313	0.089
-718.791	-101.550	0.042	-0.010
-717.777	-200.000	0.038	-0.333
-716.762	800.000	0.023	-0.091
-715.748	121.963	0.198	-0.250
-714.733	-82.027	0.192	0.063
-713.718	-200.000	0.012	0.165
-712.704	368.646	-0.062	-0.127
-711.689	527.912	-0.100	0.239
-710.675	-121.714	-0.124	-0.021
-709.660	593.447	-0.085	-0.213
-708.645	-28.555	0.214	-0.125
-707.631	800.000	0.039	0.136
-706.616	-135.106	-0.456	-0.056
-705.602	119.512	0.073	-0.091
-704.587	-122.791	0.205	0.034
-703.572	-200.000	0.001	0.110
-702.558	-112.157	-0.251	0.051
-701.543	-129.129	-0.295	-0.042
-700.529	33.435	0.171	0.150
-699.514	204.935	0.105	0.165
-698.499	-138.872	0.291	-0.032
-697.485	-200.000	0.016	0.236
-696.470	90.815	0.153	0.173
-695.456	-200.000	0.002	-0.192
-694.441	-26.739	0.163	-0.097
-693.426	54.278	-0.061	-0.060
-692.412	-121.900	-0.299	-0.050
-691.397	-101.602	0.199	-0.049
-690.383	32.096	0.117	-0.102
-689.368	-74.399	-0.069	0.025
-688.354	-26.098	0.153	0.091
-687.339	-101.819	0.308	-0.075
-686.324	626.503	0.058	0.148
-685.310	800.000	0.083	-0.320
-684.295	-200.000	-0.002	-0.093
-683.281	-200.000	-0.004	-0.133
-682.266	-82.048	0.309	-0.102
-681.251	800.000	0.052	0.210
-680.237	-81.673	0.063	0.021
-679.222	25.765	0.251	0.211
-678.208	-188.055	0.247	-0.003
-677.193	-200.000	0.015	0.200
-676.178	121.285	0.115	-0.144
-675.164	80.934	-0.077	-0.084
-674.149	393.587	-0.040	0.084
-673.135	27.432	-0.100	0.085
-672.120	429.321	0.169	0.370
-671.105	102.237	-0.208	-0.246
-670.091	-109.485	-0.353	-0.075
-669.076	-95.606	-0.147	0.040
-668.062	-150.665	0.240	-0.018
-667.047	-52.062	0.294	-0.138
-666.032	6.064	0.227	-0.170
-665.018	-200.000	-0.004	-0.137
-664.003	432.889	-0.079	0.173
-662.989	-112.122	0.201	-0.041
-661.974	-92.938	0.157	0.044
-660.959	14.570	0.230	0.182
-659.945	40.400	-0.128	-0.117
-658.930	800.000	-0.031	-0.100
-657.916	39.193	0.079	-0.071
-656.901	-200.000	0.042	-0.364
-655.886	66.520	-0.230	0.236
-654.872	-80.051	-0.253	0.086
-653.857	148.052	0.074	-0.101
-652.843	104.379	0.167	0.198
-651.828	-19.224	-0.217	-0.136
-650.814	60.084	0.219	-0.219
-649.799	800.000	-0.052	-0.186
-648.784	-143.385	-0.053	-0.005
-647.770	53.963	-0.202	-0.196
-646.755	339.156	0.140	0.275
-645.741	-99.223	-0.202	-0.051
-644.726	-141.263	-0.183	0.019
-643.711	-200.000	0.012	-0.067
-642.697	17.750	0.323	0.259
-641.682	-48.952	-0.246	-0.119
-640.668	-56.345	-0.291	-0.130
-639.653	-200.000	0.017	0.000
-638.638	-144.399	-0.330	0.031
-637.624	354.396	-0.132	0.264
-636.609	800.000	0.103	-0.344
-635.595	-134.080	-0.329	0.041
-634.580	-41.056	-0.157	-0.082
-633.565	800.000	-0.092	-0.362
-632.551	-179.804	-0.235	0.005
-631.536	-200.000	-0.010	-0.126
-630.522	-200.000	0.011	0.310
-629.507	-14.373	-0.260	-0.169
-628.492	800.000	0.078	0.234
-627.478	47.372	0.337	0.317
-626.463	-73.108	-0.085	0.031
-625.449	800.000	-0.013	0.040
-624.434	-200.000	0.001	-0.374
-623.419	-200.000	0.022	-0.104
-622.405	573.860	0.023	0.056
-621.390	-140.290	0.498	0.053
-620.376	190.074	-0.165	0.250
-619.361	392.355	0.032	0.068
-618.346	-140.584	-0.181	-0.019
-617.332	800.000	0.087	-0.246
-616.317	-102.419	-0.159	0.038
-615.303	153.928	-0.148	-0.205
-614.288	109.582	0.092	0.111
-613.273	-143.299	0.312	0.030
-612.259	-122.451	0.108	0.018
-611.244	172.950	-0.165	0.239
-610.230	759.554	0.077	-0.209
-609.215	-134.802	-0.371	-0.045
-608.201	23.924	0.051	-0.043
-607.186	-50.897	-0.110	-0.052
-606.171	-200.000	0.024	-0.403
-605.157	-75.109	-0.230	0.083
-604.142	800.000	0.108	-0.450
-603.128	-81.729	-0.392	-0.130
-602.113	-72.008	0.276	-0.103
-601.098	153.352	-0.060	-0.083
-600.084	-200.000	-0.014	-0.135
-599.069	226.257	0.138	-0.226
-598.055	-106.780	0.144	0.032
-597.040	578.363	-0.166	0.409
-596.025	-78.566	-0.141	0.049
-595.011	-19.230	0.148	0.092
-593.996	-4.700	-0.176	0.122
-592.982	-184.813	0.114	0.002
-591.967	-200.000	0.023	0.184
-590.952	-29.728	0.136	0.078
-589.938	-62.834	0.251	0.104
-588.923	-101.778	0.208	0.051
-587.909	-77.537	0.294	-0.103
-586.894	-79.032	-0.312	0.107
-585.879	-37.947	0.210	0.112
-584.865	-200.000	0.020	0.211
-583.850	75.965	0.262	-0.279
-582.836	-120.689	0.279	-0.048
-581.821	-200.000	0.004	0.071
-580.806	-121.638	-0.079	0.013
-579.792	222.939	0.142	-0.230
-578.777	-20.238	-0.335	-0.208
-577.763	-200.000	-0.012	0.282
-576.748	-158.572	-0.122	-0.007
-575.733	-106.236	-0.209	0.047
-574.719	78.234	0.137	-0.147
-573.704	143.279	-0.059	0.080
-572.690	318.258	-0.066	0.125
-571.675	-9.737	-0.019	-0.013
-570.661	263.489	0.123	0.214
-569.646	-137.294	-0.102	0.012
-568.631	-97.265	-0.397	0.104
-567.617	229.042	0.118	-0.194
-566.602	144.233	-0.116	0.156
-565.588	552.922	0.077	0.187
-564.573	26.322	-0.087	-0.073
-563.558	-92.150	0.570	0.162
-562.544	2.355	0.210	-0.153
-561.529	140.551	-0.063	-0.084
-560.515	-104.370	0.152	0.035
-559.500	-73.206	-0.226	-0.083
-558.485	-72.107	0.081	-0.030
-557.471	-155.850	-0.156	0.010
-556.456	141.357	0.223	-0.297
-555.442	-108.081	-0.099	-0.022
-554.427	800.000	-0.102	0.406
-553.412	800.000	0.005	0.019
-552.398	173.415	-0.067	-0.096
-551.383	138.684	-0.180	0.238
-550.369	-4.660	-0.227	0.157
-549.354	-149.571	-0.102	0.008
-548.339	218.863	-0.110	0.176
-547.325	-80.395	0.133	0.045
-546.310	-65.427	0.044	-0.018
-545.296	-200.000	0.150	-0.001
-544.281	-6.258	-0.173	0.118
-543.266	73.593	-0.149	0.157
-542.252	36.803	-0.191	-0.170
-541.237	349.079	0.081	-0.161
-540.223	-93.563	-0.284	0.079
-539.208	-200.000	0.014	0.351
-538.193	384.218	0.090	-0.187
-537.179	-200.000	-0.038	0.167
-536.164	49.163	0.021	0.020
-535.150	222.892	-0.056	0.090
-534.135	800.000	-0.020	0.071
-533.121	-137.196	-0.111	-0.013
-532.106	289.949	-0.100	-0.182
-531.091	-28.233	-0.309	-0.179
-530.077	-96.668	-0.096	0.025
-529.062	800.000	-0.026	0.090
-528.048	118.211	0.056	-0.069
-527.033	80.718	-0.199	-0.215
-526.018	-78.973	-0.226	0.077
-525.004	36.536	-0.110	-0.097
-523.989	-200.000	0.020	-0.129
-522.975	-44.530	0.198	0.099
-521.960	-200.000	0.068	0.358
-520.945	-14.920	-0.175	-0.113
-519.931	-163.533	-0.289	-0.014
-518.916	-6.953	-0.132	0.090
-517.902	-136.910	-0.057	0.007
-516.887	-139.521	-0.306	-0.033
-515.872	-107.105	-0.060	-0.013
-514.858	-49.975	-0.491	-0.234
-513.843	-56.537	0.291	-0.130
-512.829	724.150	0.013	-0.033
-511.814	-125.801	0.348	-0.053
-510.799	36.429	-0.075	-0.066
-509.785	800.000	-0.057	0.184
-508.770	-197.361	0.199	0.001
-507.756	-125.368	-0.249	-0.038
-506.741	38.034	0.215	-0.192
-505.726	-92.897	0.143	-0.040
-504.712	-200.000	-0.021	0.381
-503.697	-200.000	0.026	0.169
-502.683	-131.095	0.364	0.049
-501.668	-99.453	0.064	-0.016
-500.653	800.000	-0.058	-0.186
-499.639	100.958	0.171	-0.200
-498.624	-75.483	-0.274	0.098
-497.610	201.162	-0.221	-0.341
-496.595	-200.000	0.007	0.052
-495.581	-200.000	-0.013	0.087
-494.566	-141.411	-0.268	-0.027
-493.551	-81.855	0.201	-0.066
-492.537	786.359	-0.034	-0.092
-491.522	800.000	-0.086	0.243
-490.508	225.080	-0.129	0.209
-489.493	-200.000	0.088	0.433
-488.478	-42.851	-0.136	0.069
-487.464	-82.102	-0.392	0.128
-486.449	-200.000	-0.054	0.329
-485.435	-132.585	-0.209	0.027
-484.420	-51.781	-0.353	0.165
-483.405	-61.217	-0.197	0.083
-482.391	481.566	0.128	0.291
-481.376	-110.650	0.572	-0.119
-480.362	-111.505	-0.306	0.062
-479.347	-9.074	-0.148	0.100
-478.332	-200.000	0.039	-0.222
-477.318	-83.552	0.312	-0.100
-476.303	-200.000	0.032	-0.155
-475.289	155.910	-0.067	0.092
-474.274	800.000	0.110	-0.339
-473.259	399.923	-0.062	-0.130
-472.245	130.346	0.155	0.199
-471.230	32.123	0.090	0.078
-470.216	301.524	-0.074	-0.136
-469.201	128.530	0.104	0.133
-468.186	170.733	0.186	-0.267
-467.172	-160.099	-0.296	-0.016
-466.157	-55.151	-0.288	0.130
-465.143	-200.000	-0.043	0.246
-464.128	-9.876	0.051	-0.034
-463.113	-200.000	-0.002	-0.157
-462.099	-41.572	-0.021	0.011
-461.084	35.979	-0.199	-0.175
-460.070	123.852	0.168	0.211
-459.055	156.018	0.211	-0.291
-458.040	800.000	0.037	-0.155
-457.026	-92.998	-0.273	-0.076
-456.011	615.275	-0.093	-0.234
-454.997	800.000	0.114	-0.319
-453.982	68.789	-0.142	-0.146
-452.968	-107.548	0.227	0.050
-451.953	-65.436	0.328	-0.132
-450.938	120.272	-0.411	-0.510
-449.924	-200.000	-0.046	-0.251
-448.909	121.386	-0.099	0.124
-447.895	-200.000	0.018	0.083
-446.880	98.108	-0.025	-0.029
-445.865	-200.000	-0.027	-0.499
-444.851	278.599	-0.130	0.232
-443.836	-157.679	-0.190	-0.011
-442.822	-6.899	0.188	-0.128
-441.807	116.954	0.032	0.039
-440.792	90.159	-0.185	-0.207
-439.778	-125.796	0.311	-0.047
-438.763	81.715	-0.154	0.167
-437.749	147.650	-0.114	-0.154
-436.734	800.000	0.108	-0.322
-435.719	523.777	-0.148	-0.348
-434.705	-200.000	0.047	0.218
-433.690	75.367	0.237	0.250
-432.676	-92.762	-0.187	0.052
-431.661	-77.872	0.066	0.023
-430.646	194.940	-0.156	0.238
-429.632	32.250	0.084	-0.073
-428.617	357.379	0.036	0.072
-427.603	-162.201	-0.523	0.026
-426.588	-126.618	-0.082	-0.012
-425.573	224.711	-0.021	-0.034
-424.559	125.622	-0.083	0.104
-423.544	800.000	0.007	-0.022
-422.530	355.681	0.108	-0.215
-421.515	-108.857	0.075	0.016
-420.500	800.000	-0.056	-0.224
-419.486	81.470	-0.372	0.402
-418.471	-200.000	-0.018	0.178
-417.457	-135.508	-0.262	-0.031
-416.442	-90.871	0.510	0.147
-415.428	-58.957	-0.126	0.054
-414.413	-200.000	0.012	-0.155
-413.398	476.067	0.110	0.249
-412.384	-119.972	0.425	0.073
-411.369	-111.987	0.058	0.012
-410.355	220.004	0.073	-0.117
-409.340	-140.512	0.102	-0.011
-408.325	-98.899	0.491	0.125
-407.311	104.685	0.059	-0.070
-406.296	62.889	0.232	-0.232
-405.282	167.296	-0.076	-0.108
-404.267	246.097	-0.066	-0.111
-403.252	209.346	-0.169	0.265
-402.238	442.149	0.100	0.219
-401.223	-41.609	0.101	0.052
-400.209	-33.279	0.334	-0.185
-399.194	223.079	0.059	0.096
-398.179	-151.764	-0.100	0.007
-397.165	35.390	-0.105	0.092
-396.150	-87.154	-0.105	0.032
-395.136	-136.541	0.357	-0.041
-394.121	140.926	0.066	0.087
-393.106	-29.561	-0.239	-0.136
-392.092	33.141	-0.193	-0.167
-391.077	-51.505	0.103	0.048
-390.063	24.217	0.181	-0.149
-389.048	-47.854	0.125	0.060
-388.033	-200.000	-0.035	-0.201
-387.019	-50.802	0.229	-0.107
-386.004	-39.029	-0.370	-0.195
-384.990	-200.000	0.019	-0.096
-383.975	158.997	0.015	0.020
-382.960	-15.695	0.194	0.123
-381.946	462.094	0.262	-0.583
-380.931	-121.931	0.201	0.033
-379.917	-200.000	-0.029	-0.211
-378.902	53.836	-0.066	0.063
-377.888	-172.218	-0.230	-0.007
-376.873	-140.134	-0.336	0.035
-375.858	-52.145	-0.067	-0.031
-374.844	-26.705	-0.402	0.235
-373.829	280.929	0.225	0.401
-372.815	-200.000	0.042	0.363
-371.800	94.479	-0.277	0.314
-370.785	-109.972	0.188	0.039
-369.771	-200.000	0.036	0.188
-368.756	224.492	0.197	-0.317
-367.742	-200.000	0.052	0.259
-366.727	51.585	0.104	0.098
-365.712	800.000	-0.066	0.273
-364.698	338.991	0.072	0.140
-363.683	86.097	0.105	0.116
-362.669	253.147	-0.131	0.223
-361.654	800.000	0.113	0.397
-360.639	-200.000	-0.062	0.443
-359.625	-121.474	0.260	0.043
-358.610	-200.000	-0.006	0.149
-357.596	-17.087	0.163	0.102
-356.581	-22.483	0.100	-0.060
-355.566	119.359	-0.111	-0.137
-354.552	-45.785	-0.173	0.085
-353.537	1.312	0.176	0.126
-352.523	48.656	0.297	0.277
-351.508	-130.202	-0.266	0.036
-350.493	-99.794	0.163	0.041
-349.479	90.353	-0.195	0.218
-348.464	552.268	-0.039	-0.094
-347.450	-100.336	0.297	0.074
-346.435	-103.278	0.165	-0.039
-345.420	-42.601	0.116	-0.059
-344.406	-51.289	-0.162	0.076
-343.391	-200.000	-0.210	0.001
-342.377	-200.000	-0.045	-0.284
-341.362	64.572	0.071	-0.071
-340.348	142.167	-0.171	0.226
-339.333	-89.438	-0.186	-0.055
-338.318	159.824	-0.056	-0.078
-337.304	-4.880	-0.288	0.198
-336.289	-200.000	0.022	-0.118
-335.275	800.000	0.115	-0.393
-334.260	-55.487	-0.310	0.139
-333.245	-125.563	0.060	0.009
-332.231	463.916	0.141	-0.313
-331.216	25.184	-0.128	0.106
-330.202	-31.369	0.218	0.122
-329.187	101.421	-0.206	-0.239
-328.172	669.485	0.027	0.070
-327.158	77.433	0.181	-0.192
-326.143	-98.361	-0.126	0.032
-325.129	38.003	0.057	-0.050
-324.114	-200.000	0.077	0.373
-323.099	-200.000	0.065	0.313
-322.085	-51.027	-0.296	0.138
-321.070	-200.000	-0.039	-0.239
-320.056	63.148	-0.166	0.166
-319.041	341.688	-0.071	0.138
-318.026	11.403	-0.101	0.077
-317.012	-117.540	-0.223	0.040
-315.997	-87.081	0.221	-0.067
-314.983	-144.890	-0.403	-0.037
-313.968	250.112	-0.235	-0.397
-312.953	-101.474	0.190	0.046
-311.939	800.000	0.052	-0.160
-310.924	-200.000	0.001	0.148
-309.910	117.653	0.156	-0.191
-308.895	800.000	0.034	-0.097
-307.880	108.732	0.085	-0.101
-306.866	323.845	0.212	-0.402
-305.851	18.467	-0.145	0.116
-304.837	-38.018	0.287	-0.152
-303.822	-0.087	-0.044	-0.031
-302.807	800.000	0.025	0.103
-301.793	118.019	0.107	-0.132
-300.778	-3.853	-0.209	0.145
-299.764	-104.261	0.197	-0.046
-298.749	-73.319	-0.438	0.159
-297.735	466.432	0.035	0.077
-296.720	-200.000	-0.041	-0.193
-295.705	-105.397	0.230	0.052
-294.691	-12.565	-0.202	-0.131
-293.676	-200.000	0.014	0.262
-292.662	-132.553	0.196	-0.025
-291.647	-200.000	0.005	0.048
-290.632	167.179	0.093	-0.131
-289.618	34.948	-0.110	-0.096
-288.603	-28.345	0.125	-0.072
-287.589	-22.402	-0.256	-0.154
-286.574	-200.000	-0.017	-0.134
-285.559	-200.000	-0.018	-0.272
-284.545	40.207	0.274	0.245
-283.530	-100.707	-0.382	0.094
-282.516	800.000	0.017	-0.049
-281.501	-46.641	-0.109	-0.053
-280.486	32.532	0.166	-0.143
-279.472	372.516	-0.045	-0.090
-278.457	-200.000	0.002	0.175
-277.443	-120.685	-0.067	0.011
-276.428	165.977	-0.168	-0.237
-275.413	-200.000	-0.027	-0.235
-274.399	800.000	0.083	-0.291
-273.384	-179.644	-0.162	-0.003
-272.370	-2.298	0.145	0.101
-271.355	-64.302	0.393	-0.159
-270.340	-200.000	-0.027	-0.228
-269.326	85.350	-0.146	-0.159
-268.311	-200.000	-0.021	-0.254
-267.297	276.862	0.162	-0.287
-266.282	50.521	0.160	-0.151
-265.267	-102.049	0.179	-0.043
-264.253	-4.612	0.238	0.163
-263.238	401.464	0.146	0.305
-262.224	-84.199	0.261	0.082
-261.209	-10.290	0.211	0.139
-260.195	403.859	0.172	-0.360
-259.180	-11.581	0.206	0.135
-258.165	274.751	0.147	0.258
-257.151	-200.000	-0.019	0.186
-256.136	800.000	0.059	-0.173
-255.122	-157.114	0.109	-0.007
-254.107	531.855	-0.123	0.290
-253.092	-12.384	0.366	0.238
-252.078	-200.000	0.006	0.278
-251.063	84.101	-0.154	-0.168
-250.049	-200.000	0.020	-0.301
-249.034	73.566	-0.219	0.228
-248.019	-200.000	0.015	0.122
-247.005	-192.295	-0.087	-0.001
-245.990	-7.278	-0.162	0.109
-244.976	800.000	-0.006	0.024
-243.961	-200.000	0.020	-0.174
-242.946	-53.582	0.112	0.051
-241.932	402.445	-0.025	0.052
-240.917	200.063	0.083	0.127
-239.903	-27.429	0.208	-0.120
-238.888	247.797	0.092	-0.154
-237.873	-105.130	-0.113	-0.026
-236.859	479.724	-0.071	-0.160
-235.844	-140.477	0.246	0.025
-234.830	-125.616	-0.316	0.048
-233.815	800.000	-0.028	-0.121
-232.800	-101.746	0.322	-0.077
-231.786	-20.778	-0.207	-0.126
-230.771	277.728	0.171	-0.303
-229.757	11.602	-0.159	0.121
-228.742	800.000	-0.083	0.323
-227.727	165.347	0.298	0.417
-226.713	-37.757	-0.239	0.126
-225.698	-92.679	-0.170	-0.047
-224.684	291.009	0.050	-0.091
-223.669	432.896	0.061	0.131
-222.655	56.175	0.216	0.208
-221.640	800.000	0.093	0.312
-220.625	269.966	0.116	0.202
-219.611	242.760	-0.018	-0.030
-218.596	-21.067	0.011	-0.007
-217.582	43.335	0.142	-0.128
-216.567	166.740	0.179	-0.251
-215.552	7.724	0.057	-0.043
-214.538	-138.987	0.100	0.011
-213.523	-169.831	-0.309	0.011
-212.509	-186.088	0.179	-0.003
-211.494	7.521	0.038	0.028
-210.479	48.091	0.308	-0.285
-209.465	9.561	0.028	-0.021
-208.450	-200.000	-0.032	-0.293
-207.436	-0.703	-0.320	-0.225
-206.421	-51.705	-0.282	-0.130
-205.406	54.030	0.172	0.164
-204.392	230.899	-0.040	-0.064
-203.377	85.308	-0.181	-0.197
-202.363	-102.129	0.332	-0.079
-201.348	-80.532	0.228	0.075
-200.333	184.371	0.073	0.108
-199.319	-109.384	0.286	0.060
-198.304	87.666	0.331	-0.364
-197.290	144.372	0.115	-0.152
-196.275	-26.220	-0.081	0.047
-195.260	-37.545	0.233	-0.123
-194.246	800.000	-0.030	-0.109
-193.231	473.395	0.148	0.331
-192.217	125.691	0.142	0.178
-191.202	-200.000	0.008	0.288
-190.187	800.000	-0.011	0.045
-189.173	124.190	-0.147	0.183
-188.158	-200.000	-0.034	-0.283
-187.144	-200.000	-0.079	-0.463
-186.129	-88.953	-0.183	0.054
-185.114	88.993	-0.087	0.096
-184.100	-200.000	-0.051	-0.321
-183.085	-54.481	0.288	0.129
-182.071	-200.000	0.030	-0.182
-181.056	-89.034	-0.085	0.025
-180.042	-48.443	0.266	0.127
-179.027	-200.000	-0.015	0.191
-178.012	-200.000	0.037	-0.210
-176.998	-159.486	0.147	-0.008
-175.983	531.693	-0.040	0.094
-174.969	282.968	0.205	0.364
-173.954	-200.000	0.014	0.209
-172.939	59.508	0.087	0.085
-171.925	-100.365	0.239	0.059
-170.910	-25.513	0.112	-0.065
-169.896	25.064	0.030	0.025
-168.881	800.000	-0.047	0.158
-167.866	145.661	0.084	0.111
-166.852	52.128	0.176	0.166
-165.837	318.696	0.022	-0.041
-164.823	135.737	-0.137	-0.177
-163.808	93.792	0.084	0.094
-162.793	-6.555	0.144	-0.097
-161.779	800.000	-0.062	-0.227
-160.764	228.569	0.242	0.390
-159.750	-50.819	0.220	0.102
-158.735	-44.655	-0.323	-0.160
-157.720	124.387	-0.172	-0.215
-156.706	800.000	0.097	-0.292
-155.691	-30.184	-0.348	0.196
-154.677	594.828	-0.072	0.176
-153.662	-124.092	-0.186	0.029
-152.647	680.068	-0.047	0.122
-151.633	-55.086	0.185	0.083
-150.618	116.233	0.091	-0.110
-149.604	800.000	0.074	-0.227
-148.589	-74.718	-0.304	0.108
-147.574	-75.070	0.055	-0.020
-146.560	-200.000	-0.000	0.055
-145.545	65.670	0.143	0.143
-144.531	-43.289	0.198	0.099
-143.516	800.000	-0.059	0.249
-142.502	-86.778	0.168	0.051
-141.487	-158.962	-0.204	0.011
-140.472	27.199	0.110	0.092
-139.458	-143.153	0.060	-0.006
-138.443	497.614	0.002	-0.005
-137.429	355.005	0.054	-0.107
-136.414	31.233	-0.123	-0.104
-135.399	157.725	-0.257	0.352
-134.385	-151.122	-0.129	-0.010
-133.370	58.128	0.118	0.115
-132.356	-41.735	0.401	-0.203
-131.341	-82.460	0.314	-0.101
-130.326	-10.938	-0.290	0.189
-129.312	36.185	-0.190	-0.165
-128.297	-200.000	-0.016	-0.073
-127.283	324.338	0.200	0.378
-126.268	-200.000	0.027	0.174
-125.253	4.193	-0.020	0.014
-124.239	-200.000	-0.012	-0.124
-123.224	344.289	0.129	0.251
-122.210	227.639	0.093	0.149
-121.195	228.421	0.226	-0.363
