DTS Sentinel unit serial number:	SN413079Multiplexer serial number:	ORYXHardware model number:	OX4-SRSoftware version number:	ORYX F/W v4.00 Oryx Data Collector v3.7.2.0data status	okinstallation	princeton_trtdifferential loss correction	single-endedforward channel	channel 4reverse channel	N/Adate	2019/09/17time	07:13:35forward acquisition time	60.00reverse acquisition time	0.00gamma	496.2192k internal	0.2320k external	0.2320temperature offset calibration	0.9982default loss term (dB/km)	0.3790temperature slope calibration	1.0000multiplexer offset coefficient	1.0000multiplexer slope coefficient	1.0000fibre end	0.00T internal ref (°C)	27.31T ext. ref 1 (°C)	0.10T ext. ref 2 (°C)	21.25length (m)	temperature (°C)	Stokes	anti-Stokes-747.200	61.564	0.065	0.065
-746.185	-8.100	0.069	-0.047
-745.171	-140.028	0.098	-0.010
-744.156	-200.000	0.064	0.518
-743.142	-116.473	-0.150	-0.028
-742.127	-20.225	-0.166	-0.104
-741.112	-200.000	0.011	0.059
-740.098	278.813	-0.202	0.365
-739.083	-30.845	-0.280	0.160
-738.069	-80.316	-0.093	0.031
-737.054	-200.000	-0.010	0.197
-736.039	-60.653	-0.493	0.211
-735.025	-32.515	0.146	0.082
-734.010	800.000	-0.080	-0.251
-732.996	-200.000	0.010	0.125
-731.981	-200.000	-0.004	0.219
-730.966	231.307	-0.141	0.233
-729.952	-86.519	0.217	0.067
-728.937	-200.000	-0.009	-0.199
-727.923	-108.897	-0.321	-0.069
-726.908	210.093	0.067	-0.106
-725.894	157.834	-0.185	-0.259
-724.879	-123.743	-0.213	-0.034
-723.864	-7.723	0.144	-0.098
-722.850	281.312	-0.124	-0.224
-721.835	-200.000	-0.031	0.216
-720.821	11.618	0.050	0.039
-719.806	-200.000	-0.033	-0.154
-718.791	-85.607	-0.352	0.111
-717.777	-5.694	0.142	0.098
-716.762	-28.056	-0.006	0.003
-715.748	145.860	0.138	-0.187
-714.733	529.665	-0.112	0.267
-713.718	-56.957	-0.261	-0.116
-712.704	210.859	0.195	0.309
-711.689	484.642	0.078	-0.179
-710.675	-135.996	-0.403	0.048
-709.660	-122.027	0.099	0.016
-708.645	287.276	-0.052	0.095
-707.631	-200.000	0.009	0.093
-706.616	-200.000	0.042	0.217
-705.602	800.000	0.050	-0.151
-704.587	141.582	0.033	-0.044
-703.572	-32.435	0.278	0.157
-702.558	332.005	0.057	-0.111
-701.543	17.286	-0.169	-0.136
-700.529	-200.000	0.025	-0.416
-699.514	0.767	-0.098	0.071
-698.499	-200.000	-0.047	-0.296
-697.485	90.225	0.099	0.112
-696.470	-21.570	0.312	0.192
-695.456	333.468	0.049	-0.096
-694.441	257.717	0.125	-0.217
-693.426	-85.692	-0.265	0.083
-692.412	-100.280	0.369	-0.093
-691.397	-81.932	0.118	0.039
-690.383	695.028	0.026	-0.069
-689.368	126.968	0.143	-0.183
-688.354	800.000	-0.032	0.102
-687.339	-30.851	-0.142	0.081
-686.324	-11.227	0.237	0.158
-685.310	253.949	-0.078	0.135
-684.295	-148.952	-0.155	-0.013
-683.281	-148.255	-0.124	-0.010
-682.266	-70.459	-0.310	-0.118
-681.251	77.245	0.128	-0.137
-680.237	202.167	0.060	-0.093
-679.222	126.868	0.091	-0.117
-678.208	-30.124	-0.244	-0.140
-677.193	266.741	0.188	-0.332
-676.178	-200.000	0.034	0.203
-675.164	632.834	0.036	-0.093
-674.149	-80.040	-0.093	0.031
-673.135	-148.242	0.326	0.027
-672.120	-200.000	0.037	0.225
-671.105	-106.971	-0.078	-0.017
-670.091	-43.369	0.270	0.138
-669.076	-200.000	-0.026	-0.224
-668.062	100.816	0.118	0.138
-667.047	-200.000	-0.049	-0.351
-666.032	-47.066	-0.235	0.115
-665.018	-84.118	0.047	-0.015
-664.003	-200.000	-0.004	0.407
-662.989	-113.936	0.217	0.042
-661.974	-144.512	-0.339	-0.032
-660.959	684.310	0.041	0.107
-659.945	184.000	-0.073	-0.109
-658.930	203.166	0.151	-0.236
-657.916	20.319	-0.148	-0.121
-656.901	-200.000	0.013	-0.237
-655.886	-116.556	-0.128	-0.024
-654.872	-46.896	-0.220	0.108
-653.857	-160.180	-0.203	0.011
-652.843	-157.877	0.697	-0.042
-651.828	-200.000	-0.019	-0.348
-650.814	-81.807	-0.153	-0.051
-649.799	43.242	0.124	-0.114
-648.784	800.000	0.036	-0.119
-647.770	-97.348	-0.427	-0.112
-646.755	-118.471	0.023	0.004
-645.741	-200.000	0.062	-0.286
-644.726	200.437	0.146	0.225
-643.711	-110.548	-0.188	0.039
-642.697	179.447	0.035	0.051
-641.682	177.028	0.109	-0.160
-640.668	-154.149	0.388	-0.026
-639.653	-35.877	-0.241	-0.131
-638.638	-14.398	-0.172	0.111
-637.624	-40.656	0.206	-0.108
-636.609	144.466	0.027	-0.036
-635.595	-2.774	0.346	0.243
-634.580	135.807	-0.118	-0.154
-633.565	-93.045	-0.055	-0.015
-632.551	-85.039	-0.199	-0.063
-631.536	-87.974	0.120	0.036
-630.522	50.385	-0.116	-0.110
-629.507	-200.000	0.030	-0.241
-628.492	2.948	-0.183	0.134
-627.478	-97.787	0.139	-0.036
-626.463	61.727	-0.025	0.025
-625.449	-200.000	-0.002	-0.010
-624.434	503.295	-0.042	0.097
-623.419	743.637	0.074	0.199
-622.405	305.535	0.022	-0.041
-621.390	327.480	0.074	-0.143
-620.376	800.000	0.033	-0.101
-619.361	-119.492	-0.134	-0.023
-618.346	-141.611	0.537	0.054
-617.332	289.344	-0.026	-0.047
-616.317	-200.000	0.007	-0.156
-615.303	-200.000	0.004	-0.284
-614.288	-143.025	0.135	0.013
-613.273	191.504	-0.150	0.228
-612.259	-200.000	0.002	-0.179
-611.244	-108.313	0.275	-0.060
-610.230	35.742	-0.047	0.041
-609.215	-200.000	0.001	-0.091
-608.201	33.370	-0.148	-0.129
-607.186	-84.787	0.250	-0.079
-606.171	-46.173	0.309	0.153
-605.157	414.613	-0.114	0.244
-604.142	132.767	0.077	-0.101
-603.128	50.036	-0.050	0.047
-602.113	53.471	0.256	-0.246
-601.098	256.679	-0.080	-0.138
-600.084	677.126	-0.147	0.385
-599.069	-144.811	-0.295	-0.027
-598.055	-200.000	0.002	-0.194
-597.040	116.337	0.100	-0.124
-596.025	680.410	-0.019	0.051
-595.011	140.012	-0.187	-0.248
-593.996	-200.000	-0.016	0.076
-592.982	156.987	-0.173	0.241
-591.967	-58.575	0.388	-0.169
-590.952	-109.790	-0.079	0.017
-589.938	-200.000	-0.024	-0.116
-588.923	228.607	0.053	-0.086
-587.909	-108.196	-0.163	-0.035
-586.894	-2.650	0.055	-0.039
-585.879	-106.470	0.181	-0.041
-584.865	800.000	0.043	0.142
-583.850	-26.275	-0.371	0.219
-582.836	-6.645	0.485	-0.332
-581.821	800.000	-0.029	0.082
-580.806	800.000	0.026	0.075
-579.792	76.363	-0.053	-0.057
-578.777	-90.925	0.391	0.113
-577.763	309.457	0.142	0.267
-576.748	502.659	0.173	0.403
-575.733	117.814	0.058	0.072
-574.719	-73.347	-0.475	0.174
-573.704	-200.000	0.008	-0.188
-572.690	235.491	-0.094	0.157
-571.675	231.715	0.032	0.053
-570.661	-96.242	-0.266	-0.071
-569.646	-50.651	0.229	-0.108
-568.631	800.000	-0.042	-0.117
-567.617	-3.386	-0.262	-0.183
-566.602	-63.802	-0.347	0.143
-565.588	-74.121	0.216	0.078
-564.573	-29.083	-0.257	-0.148
-563.558	96.863	-0.187	-0.215
-562.544	157.669	-0.188	-0.262
-561.529	-111.684	0.126	-0.026
-560.515	-200.000	-0.003	-0.118
-559.500	-200.000	-0.014	-0.165
-558.485	-28.676	-0.177	0.102
-557.471	84.166	0.150	0.164
-556.456	341.516	-0.098	0.192
-555.442	800.000	-0.138	-0.468
-554.427	97.480	-0.099	-0.114
-553.412	-152.048	0.265	0.019
-552.398	33.076	-0.105	-0.091
-551.383	-200.000	-0.026	-0.130
-550.369	800.000	0.062	0.186
-549.354	-154.849	0.361	0.024
-548.339	800.000	0.112	0.426
-547.325	-20.844	0.099	-0.061
-546.310	81.989	0.011	0.012
-545.296	-125.088	0.095	-0.015
-544.281	-97.246	-0.195	-0.051
-543.266	-91.244	0.308	-0.088
-542.252	338.414	-0.167	0.326
-541.237	190.509	0.025	-0.038
-540.223	11.344	-0.250	-0.192
-539.208	-17.279	0.206	-0.130
-538.193	114.474	-0.107	0.131
-537.179	-200.000	-0.002	-0.157
-536.164	-99.250	-0.345	-0.087
-535.150	-169.833	-0.462	-0.017
-534.135	240.238	0.165	-0.275
-533.121	-145.090	-0.311	-0.028
-532.106	735.177	0.058	0.155
-531.091	-76.539	-0.238	-0.084
-530.077	61.214	0.260	-0.259
-529.062	-163.155	0.112	0.005
-528.048	800.000	-0.085	0.241
-527.033	800.000	-0.076	-0.296
-526.018	-200.000	0.009	-0.092
-525.004	94.222	-0.445	-0.506
-523.989	-17.237	0.264	0.167
-522.975	14.176	0.031	-0.025
-521.960	800.000	0.092	0.302
-520.945	-128.191	0.111	-0.016
-519.931	-200.000	0.024	0.154
-518.916	800.000	0.029	-0.110
-517.902	44.012	-0.083	-0.077
-516.887	111.614	0.069	0.084
-515.872	800.000	0.069	-0.285
-514.858	503.091	0.105	0.243
-513.843	170.270	-0.067	-0.096
-512.829	-100.131	0.086	0.021
-511.814	-5.988	-0.224	0.153
-510.799	-62.435	0.270	0.112
-509.785	657.354	0.047	0.122
-508.770	-142.530	-0.290	0.029
-507.756	-200.000	0.026	-0.162
-506.741	-28.534	-0.106	-0.061
-505.726	281.121	-0.058	-0.104
-504.712	286.454	-0.108	-0.195
-503.697	-25.451	-0.127	0.075
-502.683	7.516	-0.053	0.040
-501.668	109.555	0.157	-0.189
-500.653	98.107	-0.252	-0.290
-499.639	-30.873	0.400	-0.227
-498.624	800.000	0.112	-0.413
-497.610	800.000	0.095	-0.336
-496.595	115.292	0.095	-0.117
-495.581	379.842	-0.122	0.250
-494.566	800.000	-0.145	-0.478
-493.551	2.877	0.137	-0.099
-492.537	71.336	0.182	0.189
-491.522	-173.925	0.034	0.001
-490.508	-200.000	0.010	0.084
-489.493	-112.515	-0.156	0.031
-488.478	800.000	-0.067	-0.220
-487.464	-200.000	0.015	-0.097
-486.449	-126.875	-0.251	0.037
-485.435	-20.757	0.135	-0.083
-484.420	80.725	-0.214	0.231
-483.405	231.281	-0.054	0.089
-482.391	800.000	-0.034	0.120
-481.376	22.318	0.273	0.223
-480.362	79.523	-0.181	0.195
-479.347	-51.208	-0.265	0.124
-478.332	-105.597	-0.210	0.048
-477.318	62.295	0.103	-0.103
-476.303	83.489	-0.051	0.056
-475.289	-112.129	0.122	0.025
-474.274	-69.169	-0.026	0.010
-473.259	-200.000	0.010	0.055
-472.245	-71.789	-0.132	0.049
-471.230	310.378	0.256	0.479
-470.216	800.000	-0.020	-0.062
-469.201	-37.014	-0.225	-0.121
-468.186	-10.572	0.075	0.050
-467.172	-111.606	-0.193	-0.039
-466.157	154.725	-0.158	0.217
-465.143	-200.000	-0.007	0.326
-464.128	-34.072	0.183	-0.100
-463.113	427.482	-0.186	-0.401
-462.099	-200.000	-0.037	0.177
-461.084	367.355	-0.191	0.386
-460.070	494.584	-0.063	0.145
-459.055	800.000	0.011	-0.032
-458.040	274.282	-0.072	0.128
-457.026	-200.000	-0.004	0.155
-456.011	-110.398	0.143	-0.030
-454.997	22.764	-0.128	0.105
-453.982	111.269	0.192	0.232
-452.968	314.202	-0.175	0.329
-451.953	-87.430	-0.107	-0.032
-450.938	44.493	-0.231	0.212
-449.924	800.000	0.052	0.209
-448.909	121.865	0.066	0.082
-447.895	113.708	-0.073	-0.088
-446.880	-2.982	0.053	0.037
-445.865	800.000	0.033	-0.139
-444.851	-200.000	0.010	-0.140
-443.836	800.000	-0.043	-0.160
-442.822	-170.393	0.079	0.003
-441.807	88.248	-0.281	0.312
-440.792	42.278	-0.091	0.082
-439.778	-173.269	0.172	-0.005
-438.763	800.000	-0.028	-0.105
-437.749	168.073	0.069	0.098
-436.734	-56.240	0.185	-0.082
-435.719	-6.689	0.184	0.125
-434.705	62.452	-0.082	0.082
-433.690	-200.000	-0.047	-0.460
-432.676	210.478	-0.025	0.040
-431.661	-200.000	0.090	0.443
-430.646	584.183	0.086	0.210
-429.632	-200.000	0.065	0.293
-428.617	97.979	-0.081	0.093
-427.603	-200.000	0.020	0.230
-426.588	-24.117	-0.238	0.142
-425.573	-178.948	0.121	-0.003
-424.559	91.900	-0.247	-0.278
-423.544	268.739	0.104	-0.182
-422.530	800.000	-0.021	-0.074
-421.515	-40.549	0.230	0.119
-420.500	38.915	0.039	0.035
-419.486	463.111	-0.137	0.305
-418.471	800.000	-0.045	0.187
-417.457	800.000	0.041	0.167
-416.442	5.807	-0.145	0.107
-415.428	-200.000	0.003	0.014
-414.413	-46.487	0.209	-0.103
-413.398	24.360	0.210	-0.174
-412.384	-12.120	0.127	0.083
-411.369	234.104	-0.086	-0.142
-410.355	800.000	0.028	-0.087
-409.340	167.172	0.040	-0.056
-408.325	-200.000	-0.047	-0.484
-407.311	26.290	0.086	-0.072
-406.296	-16.694	-0.278	0.176
-405.282	-200.000	-0.015	-0.244
-404.267	60.621	0.108	0.107
-403.252	112.974	0.046	-0.055
-402.238	392.750	0.075	-0.156
-401.223	59.762	-0.076	-0.075
-400.209	800.000	0.091	-0.327
-399.194	800.000	-0.045	-0.192
-398.179	40.974	-0.314	0.282
-397.165	-148.300	0.165	-0.014
-396.150	-30.687	0.294	0.166
-395.136	69.949	-0.057	-0.058
-394.121	135.857	-0.136	0.177
-393.106	106.251	0.075	0.089
-392.092	753.965	0.145	-0.391
-391.077	-109.659	0.202	0.042
-390.063	-74.504	0.283	0.102
-389.048	533.927	-0.038	-0.089
-388.033	-60.743	0.124	-0.052
-387.019	-16.989	-0.169	0.107
-386.004	131.435	-0.057	0.073
-384.990	-21.708	0.107	-0.065
-383.975	640.040	-0.041	0.105
-382.960	160.266	-0.161	0.224
-381.946	116.289	-0.159	0.194
-380.931	800.000	0.077	0.262
-379.917	27.692	-0.192	-0.161
-378.902	800.000	-0.087	0.264
-377.888	390.066	0.056	-0.115
-376.873	-54.038	-0.205	-0.093
-375.858	-47.976	-0.164	-0.079
-374.844	-81.918	-0.143	-0.047
-373.829	134.041	-0.191	0.246
-372.815	283.363	-0.093	-0.166
-371.800	-101.287	-0.261	-0.064
-370.785	800.000	-0.049	0.139
-369.771	-200.000	0.127	-0.000
-368.756	22.974	-0.091	0.075
-367.742	485.195	0.170	0.386
-366.727	-200.000	-0.041	-0.328
-365.712	-132.224	0.291	0.038
-364.698	303.083	-0.128	-0.237
-363.683	362.811	-0.096	-0.193
-362.669	373.109	-0.024	0.048
-361.654	-88.655	0.193	-0.057
-360.639	4.088	-0.226	-0.165
-359.625	-200.000	0.085	-0.420
-358.610	18.144	-0.156	0.124
-357.596	108.655	-0.119	0.141
-356.581	-74.559	0.137	0.049
-355.566	200.539	-0.052	-0.080
-354.552	-200.000	-0.020	-0.099
-353.537	132.972	-0.159	-0.205
-352.523	99.212	0.124	0.142
-351.508	247.118	-0.266	0.448
-350.493	800.000	-0.015	0.044
-349.479	-164.937	0.251	-0.011
-348.464	-74.931	0.258	0.092
-347.450	231.492	-0.134	-0.218
-346.435	800.000	-0.056	0.199
-345.420	-105.778	0.210	-0.047
-344.406	-123.138	-0.102	-0.016
-343.391	258.675	0.090	-0.155
-342.377	47.301	0.017	-0.016
-341.362	-24.381	-0.227	-0.135
-340.348	-90.245	-0.258	0.075
-339.333	476.578	-0.106	0.239
-338.318	-135.458	-0.207	0.025
-337.304	-119.314	-0.051	0.009
-336.289	-106.976	0.133	0.029
-335.275	-112.301	-0.137	-0.027
-334.260	-200.000	0.008	-0.260
-333.245	-66.326	-0.205	-0.081
-332.231	-200.000	0.004	-0.287
-331.216	799.427	-0.040	0.109
-330.202	-200.000	0.010	-0.084
-329.187	47.292	-0.286	-0.265
-328.172	-111.637	0.147	0.030
-327.158	-137.495	-0.153	0.017
-326.143	-194.378	0.345	0.003
-325.129	-36.528	0.182	0.097
-324.114	-0.989	-0.309	-0.217
-323.099	-129.615	0.141	-0.019
-322.085	-187.579	0.319	-0.004
-321.070	-182.912	0.206	0.004
-320.056	-90.295	0.193	0.056
-319.041	646.405	-0.022	0.055
-318.026	800.000	-0.045	-0.138
-317.012	800.000	-0.040	0.142
-315.997	800.000	0.079	0.237
-314.983	83.040	0.241	-0.261
-313.968	-180.661	-0.410	-0.008
-312.953	-200.000	0.018	0.232
-311.939	404.398	0.049	0.102
-310.924	-35.239	-0.019	-0.010
-309.910	-6.798	-0.186	0.126
-308.895	-76.907	-0.076	-0.026
-307.880	28.772	0.122	-0.103
-306.866	119.057	0.006	0.007
-305.851	-105.078	-0.206	-0.047
-304.837	104.557	0.270	-0.316
-303.822	-200.000	0.090	-0.409
-302.807	-125.601	0.311	-0.047
-301.793	57.834	0.126	-0.122
-300.778	124.044	0.150	-0.187
-299.764	-56.404	-0.150	0.066
-298.749	224.766	-0.076	-0.122
-297.735	800.000	-0.016	-0.058
-296.720	800.000	0.101	-0.289
-295.705	53.203	0.041	-0.039
-294.691	325.223	0.203	0.386
-293.676	720.489	-0.022	0.059
-292.662	-92.978	-0.302	-0.084
-291.647	655.300	0.026	-0.067
-290.632	-200.000	-0.016	-0.224
-289.618	18.855	-0.232	0.185
-288.603	800.000	0.021	-0.090
-287.589	-118.267	-0.160	-0.028
-286.574	68.121	-0.131	0.133
-285.559	93.866	0.088	0.099
-284.545	-200.000	-0.024	-0.110
-283.530	45.756	-0.208	-0.191
-282.516	-200.000	-0.011	-0.341
-281.501	-200.000	0.062	-0.423
-280.486	-186.883	-0.206	-0.003
-279.472	185.385	0.030	-0.045
-278.457	800.000	-0.056	-0.205
-277.443	-200.000	0.024	-0.263
-276.428	612.654	-0.040	-0.098
-275.413	34.673	0.178	-0.154
-274.399	127.171	0.043	0.054
-273.384	333.814	0.158	0.304
-272.370	189.772	0.086	-0.128
-271.355	-167.549	-0.175	0.007
-270.340	89.923	0.227	0.252
-269.326	34.427	-0.125	-0.109
-268.311	-200.000	0.020	0.245
-267.297	488.386	-0.123	0.279
-266.282	32.900	0.085	0.073
-265.267	-200.000	-0.011	0.230
-264.253	2.192	-0.099	0.071
-263.238	10.321	0.273	0.206
-262.224	-200.000	-0.002	-0.103
-261.209	656.041	-0.052	-0.133
-260.195	12.857	0.131	0.101
-259.180	546.730	-0.095	0.225
-258.165	800.000	-0.061	0.242
-257.151	800.000	0.119	0.380
-256.136	-100.807	-0.089	-0.022
-255.122	404.075	-0.076	-0.160
-254.107	-64.662	0.279	-0.112
-253.092	-168.488	0.323	0.012
-252.078	-200.000	-0.092	-0.484
-251.063	-48.412	-0.288	-0.137
-250.049	3.953	0.242	0.176
-249.034	-200.000	0.057	0.267
-248.019	66.839	-0.166	0.167
-247.005	420.593	0.066	-0.141
-245.990	2.839	0.160	0.115
-244.976	108.595	0.133	-0.158
-243.961	410.151	0.222	-0.466
-242.946	80.617	0.184	0.196
-241.932	61.161	-0.162	-0.160
-240.917	-200.000	-0.020	-0.118
-239.903	-81.144	0.479	-0.157
-238.888	394.459	-0.230	0.475
-237.873	379.735	-0.030	-0.061
-236.859	307.229	-0.191	0.353
-235.844	-200.000	-0.008	0.085
-234.830	800.000	-0.177	0.544
-233.815	-0.163	-0.210	0.148
-232.800	-111.201	0.321	0.065
-231.786	-4.934	0.160	0.109
-230.771	-200.000	0.022	0.344
-229.757	-200.000	0.009	-0.168
-228.742	332.049	0.129	-0.247
-227.727	-42.874	-0.080	0.040
-226.713	178.857	0.081	-0.118
-225.698	-200.000	0.001	0.067
-224.684	-141.406	-0.159	-0.016
-223.669	-200.000	-0.012	-0.146
-222.655	397.409	0.102	0.212
-221.640	150.372	0.160	0.215
-220.625	800.000	-0.107	-0.300
-219.611	12.844	0.227	-0.174
-218.596	365.799	-0.089	-0.178
-217.582	800.000	-0.069	-0.227
-216.567	-200.000	-0.009	-0.406
-215.552	-11.956	0.181	0.118
-214.538	-38.690	-0.163	0.085
-213.523	-29.934	0.157	0.088
-212.509	800.000	0.065	0.226
-211.494	-155.315	-0.189	-0.012
-210.479	-200.000	0.036	0.215
-209.465	-200.000	0.038	-0.282
-208.450	-135.494	0.282	-0.033
-207.436	190.029	0.111	-0.165
-206.421	479.228	-0.049	0.111
-205.406	-107.133	0.164	0.036
-204.392	800.000	0.069	0.287
-203.377	800.000	0.017	-0.053
-202.363	95.913	-0.093	0.106
-201.348	285.615	-0.137	0.245
-200.333	19.296	-0.152	-0.121
-199.319	-153.771	0.366	0.025
-198.304	-74.176	-0.061	-0.022
-197.290	81.747	0.102	-0.109
-196.275	-16.856	-0.173	-0.108
-195.260	-58.065	-0.113	-0.049
-194.246	-44.377	-0.092	-0.046
-193.231	-200.000	-0.015	0.320
-192.217	36.350	-0.188	0.164
-191.202	-17.534	0.249	-0.155
-190.187	344.655	-0.128	-0.249
-189.173	75.576	-0.193	-0.201
-188.158	-200.000	0.001	0.508
-187.144	-141.032	-0.310	-0.031
-186.129	-84.939	0.349	0.108
-185.114	800.000	0.034	-0.100
-184.100	218.968	-0.066	-0.104
-183.085	720.792	0.078	0.204
-182.071	-159.811	0.124	0.007
-181.056	800.000	0.059	0.171
-180.042	520.015	0.053	-0.123
-179.027	170.260	0.251	0.355
-178.012	-57.743	-0.346	-0.150
-176.998	98.962	0.217	0.248
-175.983	39.106	0.237	0.210
-174.969	-9.873	-0.118	0.078
-173.954	800.000	-0.072	0.299
-172.939	65.496	-0.298	0.299
-171.925	47.101	-0.057	-0.053
-170.910	-72.395	-0.389	-0.142
-169.896	-169.396	0.140	-0.005
-168.881	-48.838	-0.243	-0.115
-167.866	-14.960	0.049	-0.031
-166.852	-144.015	0.128	-0.012
-165.837	354.541	0.030	-0.059
-164.823	214.515	0.049	0.077
-163.808	-67.569	0.242	0.094
-162.793	22.914	0.247	0.200
-161.779	359.597	0.065	-0.128
-160.764	97.161	0.198	0.224
-159.750	80.681	-0.134	-0.143
-158.735	265.607	0.224	0.385
-157.720	128.026	-0.038	0.048
-156.706	117.933	0.214	-0.261
-155.691	574.719	0.129	0.310
-154.677	468.795	0.166	-0.368
-153.662	47.388	0.167	0.153
-152.647	78.840	-0.215	0.227
-151.633	100.636	-0.110	-0.127
-150.618	800.000	0.096	-0.299
-149.604	302.525	-0.091	0.167
-148.589	800.000	-0.019	0.070
-147.574	-43.862	0.192	0.095
-146.560	0.876	0.246	0.174
-145.545	-130.697	-0.260	-0.035
-144.531	-51.345	-0.186	0.086
-143.516	-38.283	0.238	0.124
-142.502	553.123	-0.130	0.310
-141.487	-126.741	0.088	-0.013
-140.472	-49.688	-0.114	-0.053
-139.458	-123.104	-0.300	0.048
-138.443	-200.000	-0.049	-0.240
-137.429	-100.152	-0.145	-0.036
-136.414	-154.681	0.355	-0.023
-135.399	50.381	-0.266	-0.249
-134.385	-200.000	0.033	0.195
-133.370	-158.287	0.635	0.037
-132.356	44.368	0.042	0.038
-131.341	77.227	0.185	-0.194
-130.326	800.000	-0.062	-0.215
-129.312	-60.618	-0.155	0.065
-128.297	270.832	0.186	0.323
-127.283	800.000	-0.045	0.188
-126.268	-21.842	0.051	0.030
-125.253	-200.000	0.026	-0.293
-124.239	-78.759	0.306	0.103
-123.224	302.456	-0.108	-0.196
-122.210	-4.158	-0.143	-0.098
-121.195	-200.000	-0.009	-0.080
