DTS Sentinel unit serial number:	SN413079Multiplexer serial number:	ORYXHardware model number:	OX4-SRSoftware version number:	ORYX F/W v4.00 Oryx Data Collector v3.7.2.0data status	okinstallation	princeton_trtdifferential loss correction	single-endedforward channel	channel 4reverse channel	N/Adate	2019/09/17time	13:33:35forward acquisition time	60.00reverse acquisition time	0.00gamma	496.2192k internal	0.2298k external	0.2298temperature offset calibration	0.9983default loss term (dB/km)	0.3790temperature slope calibration	1.0000multiplexer offset coefficient	1.0000multiplexer slope coefficient	1.0000fibre end	0.00T internal ref (°C)	34.67T ext. ref 1 (°C)	0.41T ext. ref 2 (°C)	31.70length (m)	temperature (°C)	Stokes	anti-Stokes-747.200	784.460	0.020	0.057
-746.185	800.000	-0.047	0.177
-745.171	196.987	-0.198	-0.308
-744.156	253.817	-0.152	0.264
-743.142	-49.654	-0.286	-0.139
-742.127	-105.901	-0.065	0.015
-741.112	-176.348	-0.371	0.010
-740.098	-58.041	-0.272	0.121
-739.083	197.535	0.096	0.150
-738.069	-52.455	-0.200	0.095
-737.054	291.479	0.260	0.482
-736.039	-55.917	-0.270	-0.123
-735.025	-200.000	-0.019	0.183
-734.010	287.449	-0.226	0.417
-732.996	43.135	-0.276	-0.257
-731.981	-126.998	-0.246	-0.037
-730.966	800.000	0.044	0.158
-729.952	-200.000	-0.062	0.404
-728.937	-87.698	0.012	0.004
-727.923	-183.670	-0.201	-0.004
-726.908	-45.286	-0.138	0.070
-725.894	622.442	0.014	-0.037
-724.879	14.848	-0.071	0.056
-723.864	83.955	-0.129	0.144
-722.850	-200.000	-0.013	0.085
-721.835	800.000	-0.030	-0.086
-720.821	-141.319	-0.089	0.009
-719.806	-127.539	-0.390	-0.058
-718.791	800.000	0.040	-0.122
-717.777	-69.296	-0.073	-0.029
-716.762	-153.470	-0.169	-0.012
-715.748	238.259	0.065	-0.110
-714.733	800.000	0.087	0.252
-713.718	152.909	-0.161	-0.225
-712.704	607.967	-0.032	-0.082
-711.689	-83.115	0.189	-0.062
-710.675	38.665	-0.119	0.108
-709.660	271.276	-0.182	0.327
-708.645	-200.000	0.012	0.218
-707.631	-200.000	0.003	0.165
-706.616	-200.000	0.072	0.369
-705.602	-109.896	-0.213	0.046
-704.587	-200.000	0.028	-0.212
-703.572	269.632	-0.056	-0.101
-702.558	-67.548	0.044	-0.017
-701.543	-200.000	0.018	0.171
-700.529	800.000	0.056	-0.241
-699.514	-200.000	-0.006	-0.062
-698.499	1.606	-0.159	-0.117
-697.485	800.000	-0.111	-0.378
-696.470	82.143	0.037	0.041
-695.456	-84.699	-0.162	0.052
-694.441	800.000	-0.046	0.143
-693.426	-200.000	0.018	0.118
-692.412	-163.934	0.086	-0.004
-691.397	114.038	0.138	-0.171
-690.383	-116.542	0.125	0.023
-689.368	32.127	-0.183	-0.160
-688.354	800.000	-0.045	-0.137
-687.339	599.608	-0.105	-0.266
-686.324	-200.000	0.036	-0.260
-685.310	-160.193	-0.203	-0.011
-684.295	-107.487	-0.014	0.003
-683.281	233.110	0.046	0.076
-682.266	112.258	0.092	-0.113
-681.251	-164.980	0.302	-0.014
-680.237	800.000	-0.095	-0.359
-679.222	355.080	0.106	-0.215
-678.208	70.861	-0.313	-0.330
-677.193	-199.759	0.218	-0.001
-676.178	-78.509	0.291	-0.102
-675.164	-200.000	-0.010	-0.175
-674.149	-121.902	-0.219	-0.037
-673.135	-66.699	-0.172	-0.069
-672.120	180.806	-0.018	0.028
-671.105	-200.000	-0.007	-0.060
-670.091	403.673	0.055	-0.118
-669.076	-105.643	-0.261	-0.060
-668.062	-200.000	-0.023	0.234
-667.047	-60.288	-0.129	0.056
-666.032	-200.000	0.008	-0.388
-665.018	12.898	-0.225	-0.177
-664.003	-36.878	0.375	-0.205
-662.989	800.000	0.034	0.096
-661.974	-142.930	0.225	-0.022
-660.959	225.341	0.122	0.201
-659.945	-200.000	-0.040	-0.217
-658.930	800.000	0.003	0.011
-657.916	-149.576	-0.098	0.008
-656.901	-59.980	0.220	0.096
-655.886	-200.000	0.017	-0.111
-654.872	-150.100	-0.292	-0.023
-653.857	-200.000	0.023	0.221
-652.843	800.000	-0.077	-0.223
-651.828	25.145	-0.326	-0.275
-650.814	-9.112	-0.248	-0.169
-649.799	-41.503	-0.171	-0.090
-648.784	800.000	-0.030	-0.110
-647.770	-89.445	-0.059	0.018
-646.755	-113.776	-0.290	0.057
-645.741	51.998	-0.170	-0.165
-644.726	17.202	0.276	-0.222
-643.711	-118.566	0.372	-0.067
-642.697	246.760	-0.174	0.298
-641.682	103.830	0.067	0.080
-640.668	160.293	-0.003	0.004
-639.653	124.948	-0.157	-0.201
-638.638	800.000	-0.011	0.044
-637.624	-200.000	-0.026	0.155
-636.609	-179.601	-0.050	0.001
-635.595	-8.715	-0.163	-0.111
-634.580	-9.767	-0.207	0.140
-633.565	13.295	0.137	0.108
-632.551	800.000	-0.032	0.103
-631.536	-198.277	-0.218	-0.001
-630.522	-189.784	-0.085	-0.001
-629.507	-76.589	0.201	0.072
-628.492	-200.000	-0.002	-0.179
-627.478	-37.264	-0.035	-0.019
-626.463	800.000	0.034	-0.108
-625.449	-2.418	0.231	-0.164
-624.434	-200.000	0.003	0.108
-623.419	-200.000	0.018	-0.122
-622.405	-16.484	0.186	0.120
-621.390	-135.830	-0.387	-0.046
-620.376	-200.000	-0.038	-0.371
-619.361	101.765	0.184	-0.218
-618.346	-119.129	-0.392	-0.070
-617.332	220.748	0.144	-0.235
-616.317	-200.000	0.006	0.048
-615.303	-153.024	-0.146	0.010
-614.288	800.000	0.110	-0.315
-613.273	-200.000	-0.047	-0.300
-612.259	-200.000	0.006	0.069
-611.244	-16.157	0.231	0.149
-610.230	27.879	-0.129	0.110
-609.215	729.603	0.067	-0.181
-608.201	-40.987	-0.163	0.086
-607.186	-200.000	0.013	-0.109
-606.171	-140.155	0.435	-0.046
-605.157	-76.025	-0.314	0.113
-604.142	-200.000	-0.060	0.311
-603.128	-200.000	-0.005	0.041
-602.113	450.505	-0.129	0.289
-601.098	-200.000	0.035	0.240
-600.084	122.622	-0.206	-0.262
-599.069	440.780	0.203	-0.451
-598.055	57.598	0.007	0.007
-597.040	-143.020	-0.279	0.027
-596.025	-49.263	-0.056	0.027
-595.011	227.197	-0.050	-0.082
-593.996	-106.671	0.274	0.062
-592.982	-52.312	-0.335	0.157
-591.967	-200.000	-0.026	-0.181
-590.952	800.000	-0.063	0.189
-589.938	682.362	-0.023	-0.060
-588.923	-146.162	0.080	0.007
-587.909	792.899	0.021	0.057
-586.894	239.435	0.150	0.254
-585.879	607.247	-0.156	-0.395
-584.865	26.741	0.276	-0.235
-583.850	-108.689	0.060	0.013
-582.836	15.790	-0.431	0.344
-581.821	352.130	-0.018	-0.036
-580.806	16.323	0.238	-0.190
-579.792	161.259	0.217	-0.307
-578.777	800.000	-0.102	-0.440
-577.763	-199.223	0.181	-0.001
-576.748	800.000	-0.123	0.345
-575.733	84.245	-0.163	0.181
-574.719	-18.721	0.195	-0.123
-573.704	-139.200	-0.128	0.014
-572.690	800.000	0.026	-0.115
-571.675	117.171	-0.138	-0.172
-570.661	-3.460	0.140	0.099
-569.646	800.000	-0.039	0.127
-568.631	259.548	0.048	-0.084
-567.617	-106.892	-0.217	0.049
-566.602	504.396	0.025	0.058
-565.588	549.212	-0.161	-0.390
-564.573	169.099	-0.165	-0.239
-563.558	7.369	-0.313	0.237
-562.544	-45.719	0.088	0.044
-561.529	40.384	-0.093	0.085
-560.515	800.000	-0.078	-0.246
-559.500	86.010	-0.071	0.079
-558.485	1.896	-0.165	0.121
-557.471	-200.000	0.020	0.152
-556.456	-178.776	0.107	-0.002
-555.442	-200.000	0.003	-0.105
-554.427	-84.799	-0.170	-0.054
-553.412	-65.635	0.209	0.085
-552.398	-200.000	0.022	0.102
-551.383	800.000	-0.120	0.369
-550.369	68.761	0.152	0.158
-549.354	-114.509	-0.430	-0.084
-548.339	31.804	-0.165	-0.144
-547.325	145.487	0.193	0.262
-546.310	800.000	-0.083	0.267
-545.296	-200.000	-0.002	-0.233
-544.281	-200.000	0.011	-0.202
-543.266	419.294	-0.027	-0.058
-542.252	800.000	0.014	-0.055
-541.237	64.501	0.377	0.385
-540.223	-160.844	0.259	0.014
-539.208	800.000	0.042	-0.143
-538.193	326.268	0.046	-0.090
-537.179	-128.939	-0.352	-0.050
-536.164	-200.000	-0.047	-0.331
-535.150	800.000	-0.039	0.137
-534.135	186.027	0.163	-0.245
-533.121	-126.130	0.195	0.030
-532.106	13.289	-0.132	0.104
-531.091	36.653	0.033	0.029
-530.077	-177.798	-0.181	-0.004
-529.062	-65.081	0.336	-0.137
-528.048	644.947	0.030	0.078
-527.033	800.000	-0.133	0.458
-526.018	50.721	0.152	-0.145
-525.004	82.710	0.258	0.284
-523.989	121.334	0.087	-0.110
-522.975	-113.398	-0.207	-0.041
-521.960	-130.182	-0.188	0.026
-520.945	-200.000	-0.058	-0.324
-519.931	-200.000	0.003	-0.298
-518.916	165.125	0.175	-0.250
-517.902	-61.635	0.159	-0.068
-516.887	800.000	-0.066	0.206
-515.872	-200.000	-0.044	0.412
-514.858	-116.003	-0.037	-0.007
-513.843	598.193	-0.055	-0.138
-512.829	464.473	-0.118	-0.268
-511.814	4.923	0.099	0.074
-510.799	-134.571	0.248	0.031
-509.785	166.975	0.236	0.338
-508.770	-97.025	0.514	0.136
-507.756	180.749	-0.056	0.084
-506.741	-24.582	-0.096	-0.058
-505.726	221.304	-0.053	0.086
-504.712	177.167	0.257	-0.378
-503.697	800.000	0.052	-0.229
-502.683	-111.593	-0.175	-0.036
-501.668	738.869	-0.051	0.137
-500.653	89.940	-0.025	0.029
-499.639	11.352	0.135	-0.104
-498.624	-200.000	-0.058	-0.285
-497.610	-85.715	-0.260	0.082
-496.595	159.297	-0.012	-0.017
-495.581	-138.753	0.303	-0.033
-494.566	392.841	0.224	-0.471
-493.551	-13.461	0.270	-0.177
-492.537	-11.091	0.119	-0.080
-491.522	-114.547	0.015	-0.003
-490.508	87.068	0.393	0.439
-489.493	-6.991	0.156	0.107
-488.478	-28.626	0.236	-0.138
-487.464	-9.626	-0.224	0.151
-486.449	32.736	-0.124	0.108
-485.435	-7.280	-0.099	-0.068
-484.420	-69.446	0.196	0.076
-483.405	-98.118	0.131	-0.034
-482.391	-167.525	-0.149	-0.006
-481.376	265.884	-0.022	0.039
-480.362	394.267	0.041	0.086
-479.347	-120.529	-0.131	-0.022
-478.332	-167.311	-0.242	0.010
-477.318	54.701	-0.094	0.092
-476.303	-129.259	-0.168	-0.024
-475.289	-13.558	0.079	0.052
-474.274	-43.561	0.388	0.198
-473.259	-104.671	-0.218	0.051
-472.245	-200.000	-0.028	0.266
-471.230	800.000	0.043	0.145
-470.216	-200.000	0.021	0.152
-469.201	-29.219	0.082	-0.047
-468.186	-61.132	-0.125	0.053
-467.172	-88.995	0.330	0.099
-466.157	253.204	-0.131	-0.226
-465.143	120.361	0.105	0.132
-464.128	800.000	0.055	-0.237
-463.113	-82.292	-0.383	0.126
-462.099	607.591	0.098	-0.247
-461.084	770.048	0.070	0.191
-460.070	-53.587	0.246	-0.114
-459.055	800.000	-0.057	0.215
-458.040	132.496	-0.078	-0.101
-457.026	-99.010	-0.292	-0.075
-456.011	-109.302	-0.459	0.098
-454.997	212.469	0.037	0.059
-453.982	64.832	-0.186	-0.189
-452.968	722.832	0.013	0.034
-451.953	-168.861	0.361	0.014
-450.938	-200.000	0.015	-0.275
-449.924	135.968	0.033	-0.043
-448.909	249.046	0.084	-0.144
-447.895	-200.000	0.018	0.254
-446.880	-137.623	-0.109	0.012
-445.865	-168.976	0.218	0.008
-444.851	-24.468	-0.106	0.064
-443.836	-63.074	0.162	-0.068
-442.822	-37.968	0.151	0.081
-441.807	-136.869	-0.368	-0.043
-440.792	-200.000	0.028	0.165
-439.778	243.173	-0.056	0.095
-438.763	541.137	-0.049	0.119
-437.749	220.134	0.149	0.241
-436.734	-63.311	-0.469	-0.195
-435.719	-186.836	0.236	0.003
-434.705	-59.726	0.254	0.110
-433.690	-53.505	-0.585	0.270
-432.676	3.646	-0.082	0.060
-431.661	457.839	-0.149	-0.334
-430.646	-92.702	-0.163	0.046
-429.632	138.341	0.182	-0.241
-428.617	-31.994	0.127	-0.071
-427.603	-200.000	-0.007	-0.053
-426.588	83.806	0.267	0.293
-425.573	-65.617	-0.126	-0.051
-424.559	57.233	0.173	0.171
-423.544	-35.226	0.183	0.100
-422.530	800.000	0.033	0.145
-421.515	800.000	-0.031	0.115
-420.500	423.227	-0.016	-0.034
-419.486	-200.000	0.031	-0.553
-418.471	-200.000	0.019	-0.112
-417.457	35.059	-0.164	-0.145
-416.442	-113.756	-0.129	0.025
-415.428	-116.818	0.196	-0.036
-414.413	800.000	-0.053	0.226
-413.398	-200.000	-0.012	0.267
-412.384	-139.811	-0.160	0.017
-411.369	-155.079	-0.096	-0.006
-410.355	-49.818	-0.152	0.073
-409.340	121.616	-0.169	0.213
-408.325	-118.026	0.218	0.039
-407.311	-200.000	0.037	0.180
-406.296	105.212	0.109	0.130
-405.282	-20.445	-0.369	-0.228
-404.267	-19.287	0.148	-0.093
-403.252	1.065	-0.073	0.053
-402.238	-68.890	-0.221	0.086
-401.223	800.000	-0.055	0.188
-400.209	41.831	0.343	-0.313
-399.194	123.735	0.248	0.314
-398.179	89.908	0.158	0.178
-397.165	522.977	-0.098	0.232
-396.150	-80.818	0.131	0.044
-395.136	-0.300	-0.184	0.132
-394.121	-158.294	-0.244	-0.014
-393.106	146.259	0.079	0.107
-392.092	-200.000	-0.008	-0.097
-391.077	184.849	0.161	-0.240
-390.063	800.000	0.038	-0.117
-389.048	-91.071	-0.164	-0.047
-388.033	319.408	-0.053	-0.102
-387.019	-120.752	-0.122	-0.021
-386.004	-200.000	0.011	-0.118
-384.990	-5.289	0.041	0.028
-383.975	-200.000	-0.084	-0.388
-382.960	105.954	-0.133	-0.158
-381.946	-7.531	-0.193	0.132
-380.931	-89.042	-0.084	-0.025
-379.917	146.413	-0.136	-0.183
-378.902	-120.129	0.110	0.019
-377.888	529.611	0.160	0.381
-376.873	-163.363	0.261	-0.013
-375.858	-27.327	-0.108	0.063
-374.844	-109.315	-0.189	0.040
-373.829	-56.430	-0.087	-0.039
-372.815	-200.000	0.022	-0.184
-371.800	-68.309	-0.323	0.126
-370.785	-190.781	0.353	0.004
-369.771	-69.097	0.090	-0.035
-368.756	-61.600	0.218	0.092
-367.742	-159.959	-0.350	-0.019
-366.727	46.848	-0.041	0.038
-365.712	247.265	-0.025	0.042
-364.698	87.227	0.158	0.176
-363.683	800.000	0.059	0.259
-362.669	800.000	-0.068	0.290
-361.654	-200.000	0.027	-0.216
-360.639	-14.030	0.283	-0.184
-359.625	-158.257	-0.194	-0.011
-358.610	44.829	0.128	0.118
-357.596	-128.130	0.168	0.024
-356.581	271.201	-0.171	0.303
-355.566	-200.000	-0.005	0.074
-354.552	-200.000	0.004	0.066
-353.537	20.871	-0.144	0.117
-352.523	-154.353	0.398	0.027
-351.508	-200.000	-0.001	-0.150
-350.493	381.153	0.124	-0.257
-349.479	-200.000	0.008	-0.239
-348.464	-161.087	0.199	-0.010
-347.450	-36.960	0.134	0.072
-346.435	90.209	0.229	0.258
-345.420	-55.188	0.227	-0.103
-344.406	800.000	-0.096	-0.353
-343.391	-10.621	-0.204	-0.136
-342.377	-120.297	-0.118	-0.020
-341.362	23.890	-0.116	0.096
-340.348	113.135	0.122	0.149
-339.333	-13.441	0.159	0.103
-338.318	-200.000	0.046	-0.321
-337.304	-200.000	0.053	-0.264
-336.289	-48.023	-0.065	0.031
-335.275	-185.853	0.182	0.003
-334.260	800.000	0.105	0.314
-333.245	-160.660	0.129	0.007
-332.231	-176.766	0.171	0.004
-331.216	70.537	0.211	-0.220
-330.202	-38.721	0.278	-0.147
-329.187	124.452	0.077	0.097
-328.172	-74.697	-0.166	0.060
-327.158	-171.170	-0.283	-0.010
-326.143	-93.461	-0.375	-0.104
-325.129	0.839	0.104	0.075
-324.114	-200.000	-0.000	0.290
-323.099	-75.535	-0.160	-0.057
-322.085	-200.000	0.000	-0.385
-321.070	800.000	-0.048	0.172
-320.056	-106.087	0.246	0.055
-319.041	-109.763	0.345	0.073
-318.026	40.543	-0.203	-0.183
-317.012	46.620	0.201	0.187
-315.997	800.000	0.096	-0.338
-314.983	-200.000	-0.023	-0.160
-313.968	-20.346	0.066	0.041
-312.953	-160.439	0.199	0.011
-311.939	-0.137	-0.101	-0.072
-310.924	204.184	-0.044	-0.068
-309.910	543.146	-0.132	-0.316
-308.895	-105.697	0.045	0.010
-307.880	-200.000	-0.007	-0.092
-306.866	78.036	-0.304	-0.325
-305.851	668.073	0.084	0.218
-304.837	-27.134	0.050	0.029
-303.822	-24.862	-0.177	0.105
-302.807	27.687	0.245	0.207
-301.793	-12.655	0.243	-0.159
-300.778	72.936	-0.107	0.112
-299.764	-161.197	-0.547	-0.029
-298.749	433.402	-0.046	0.100
-297.735	800.000	0.055	0.192
-296.720	-107.226	-0.361	0.080
-295.705	636.222	-0.189	-0.481
-294.691	-123.381	0.031	-0.005
-293.676	-200.000	-0.005	0.151
-292.662	-120.514	-0.052	0.009
-291.647	-200.000	-0.063	-0.420
-290.632	347.435	0.066	-0.131
-289.618	514.493	-0.031	-0.073
-288.603	95.754	0.171	0.196
-287.589	28.728	-0.242	-0.206
-286.574	3.177	0.087	-0.063
-285.559	64.736	0.162	0.163
-284.545	-47.238	-0.193	0.094
-283.530	142.100	-0.122	0.162
-282.516	-20.972	0.177	0.109
-281.501	97.298	-0.116	-0.134
-280.486	-76.033	-0.081	0.029
-279.472	211.790	0.317	0.500
-278.457	260.872	-0.133	0.230
-277.443	-172.523	-0.125	-0.004
-276.428	791.666	-0.065	0.179
-275.413	280.983	0.024	0.043
-274.399	469.125	0.015	0.034
-273.384	-200.000	-0.012	-0.061
-272.370	532.945	0.158	0.375
-271.355	-95.169	0.211	0.057
-270.340	-200.000	-0.017	-0.234
-269.326	800.000	-0.042	0.168
-268.311	800.000	0.039	0.142
-267.297	94.463	0.188	-0.213
-266.282	-12.037	0.114	0.075
-265.267	-200.000	0.045	-0.224
-264.253	-130.961	0.095	0.013
-263.238	115.038	0.085	-0.103
-262.224	-95.948	-0.123	-0.033
-261.209	-51.763	-0.288	0.134
-260.195	-200.000	-0.058	-0.394
-259.180	38.188	0.191	0.170
-258.165	-167.611	0.255	0.010
-257.151	-34.885	-0.031	0.017
-256.136	3.022	-0.194	0.141
-255.122	-200.000	0.111	0.632
-254.107	-200.000	0.011	-0.087
-253.092	420.109	-0.029	0.061
-252.078	312.875	-0.113	-0.213
-251.063	274.411	0.151	-0.268
-250.049	401.414	-0.132	-0.278
-249.034	580.010	-0.075	-0.183
-248.019	-30.463	-0.214	-0.122
-247.005	-121.660	0.375	-0.062
-245.990	81.664	-0.220	0.239
-244.976	-7.779	-0.190	-0.129
-243.961	376.828	0.036	0.073
-242.946	345.872	0.120	0.236
-241.932	42.154	0.314	-0.286
-240.917	95.370	-0.192	-0.219
-239.903	-200.000	0.001	0.070
-238.888	87.386	-0.255	0.282
-237.873	509.990	-0.154	0.359
-236.859	96.719	0.054	-0.061
-235.844	-100.816	0.158	-0.039
-234.830	-200.000	-0.007	0.273
-233.815	92.209	-0.085	0.095
-232.800	-200.000	-0.035	0.256
-231.786	-200.000	0.100	-0.000
-230.771	74.881	-0.145	-0.153
-229.757	-149.022	0.209	0.017
-228.742	-119.079	-0.211	0.037
-227.727	-200.000	0.029	-0.316
-226.713	7.644	-0.290	0.217
-225.698	155.362	-0.069	0.095
-224.684	653.915	0.043	0.111
-223.669	301.611	-0.095	-0.175
-222.655	-102.373	-0.286	-0.069
-221.640	159.853	0.123	-0.172
-220.625	800.000	0.031	0.126
-219.611	78.951	-0.059	-0.063
-218.596	23.979	0.249	0.206
-217.582	72.537	0.180	0.188
-216.567	54.668	0.242	-0.234
-215.552	-48.148	-0.144	-0.070
-214.538	-200.000	0.073	-0.321
-213.523	-200.000	-0.007	-0.124
-212.509	-81.659	0.228	0.075
-211.494	-150.452	-0.151	0.012
-210.479	-145.556	0.291	-0.026
-209.465	11.961	-0.093	0.072
-208.450	192.090	-0.045	-0.068
-207.436	14.503	0.164	0.128
-206.421	45.319	-0.106	0.098
-205.406	224.886	0.141	-0.229
-204.392	9.952	-0.461	0.350
-203.377	-200.000	0.036	0.166
-202.363	11.484	0.139	0.107
-201.348	129.246	-0.267	0.340
-200.333	29.827	0.168	-0.143
-199.319	94.314	0.190	-0.215
-198.304	800.000	0.060	0.179
-197.290	-0.661	0.211	-0.150
-196.275	226.986	-0.221	0.359
-195.260	-70.303	0.182	-0.069
-194.246	-1.302	-0.066	0.046
-193.231	8.867	-0.220	-0.166
-192.217	176.661	-0.092	0.133
-191.202	561.714	0.136	0.328
-190.187	-62.015	0.413	-0.172
-189.173	-200.000	0.007	-0.058
-188.158	-200.000	-0.013	-0.171
-187.144	77.112	-0.118	-0.126
-186.129	800.000	-0.066	-0.251
-185.114	-77.249	-0.147	-0.051
-184.100	-200.000	0.011	-0.115
-183.085	-179.909	-0.232	0.005
-182.071	-162.299	-0.133	-0.007
-181.056	-200.000	0.014	-0.125
-180.042	145.127	-0.056	-0.075
-179.027	75.849	0.115	0.121
-178.012	800.000	-0.040	0.157
-176.998	800.000	-0.066	0.184
-175.983	-200.000	0.026	-0.157
-174.969	254.042	-0.070	0.120
-173.954	-200.000	0.073	-0.436
-172.939	2.448	-0.100	-0.072
-171.925	291.057	0.023	-0.042
-170.910	-200.000	-0.045	-0.282
-169.896	709.772	0.018	-0.047
-168.881	-200.000	0.024	0.137
-167.866	-41.936	0.228	0.117
-166.852	185.988	0.242	0.359
-165.837	-113.708	0.081	-0.016
-164.823	124.446	0.112	-0.140
-163.808	-200.000	-0.041	0.216
-162.793	800.000	0.064	0.268
-161.779	-200.000	0.021	-0.408
-160.764	107.398	0.095	0.113
-159.750	495.864	-0.118	0.272
-158.735	272.888	-0.091	-0.160
-157.720	-130.945	-0.214	0.029
-156.706	-44.985	0.091	-0.045
-155.691	-124.993	0.134	0.021
-154.677	60.404	0.212	0.209
-153.662	308.751	-0.062	0.115
-152.647	37.979	-0.264	-0.234
-151.633	-96.571	-0.154	-0.040
-150.618	70.485	-0.131	0.136
-149.604	-176.395	-0.399	-0.010
-148.589	-4.451	0.227	-0.157
-147.574	51.917	0.153	-0.146
-146.560	-27.542	0.246	-0.143
-145.545	-68.110	-0.215	0.084
-144.531	-133.731	0.132	0.016
-143.516	-200.000	-0.010	-0.165
-142.502	21.565	-0.152	-0.124
-141.487	-19.549	0.095	0.059
-140.472	-3.163	0.212	-0.147
-139.458	800.000	0.070	-0.241
-138.443	70.198	0.258	-0.265
-137.429	70.466	0.027	0.028
-136.414	-65.635	-0.113	-0.045
-135.399	-29.479	-0.225	-0.128
-134.385	91.252	-0.011	-0.013
-133.370	-57.778	0.108	0.047
-132.356	191.874	0.146	0.220
-131.341	-200.000	-0.011	-0.148
-130.326	-107.232	0.039	0.009
-129.312	587.608	0.126	0.310
-128.297	-5.460	-0.033	0.023
-127.283	311.625	0.110	-0.205
-126.268	-200.000	0.027	-0.459
-125.253	-200.000	-0.057	-0.263
-124.239	800.000	-0.042	-0.157
-123.224	37.844	-0.125	-0.111
-122.210	102.819	0.029	0.034
-121.195	534.075	0.070	0.165
