DTS Sentinel unit serial number:	SN413079Multiplexer serial number:	ORYXHardware model number:	OX4-SRSoftware version number:	ORYX F/W v4.00 Oryx Data Collector v3.7.2.0data status	okinstallation	princeton_trtdifferential loss correction	single-endedforward channel	channel 4reverse channel	N/Adate	2019/09/19time	12:57:35forward acquisition time	60.00reverse acquisition time	0.00gamma	496.2192k internal	0.2315k external	0.2315temperature offset calibration	1.0017default loss term (dB/km)	0.3790temperature slope calibration	1.0000multiplexer offset coefficient	1.0000multiplexer slope coefficient	1.0000fibre end	0.00T internal ref (°C)	28.47T ext. ref 1 (°C)	0.92T ext. ref 2 (°C)	26.72length (m)	temperature (°C)	Stokes	anti-Stokes-747.200	-136.422	-0.222	0.026
-746.185	578.937	-0.131	0.324
-745.171	-200.000	-0.008	0.279
-744.156	207.963	0.026	-0.041
-743.142	-200.000	0.004	0.285
-742.127	-150.761	-0.164	0.013
-741.112	-35.713	-0.173	-0.095
-740.098	159.991	-0.092	-0.130
-739.083	-47.236	-0.316	-0.156
-738.069	508.220	0.026	-0.060
-737.054	445.283	-0.094	0.208
-736.039	0.136	-0.086	0.062
-735.025	800.000	-0.129	0.395
-734.010	-85.318	-0.552	-0.174
-732.996	-42.995	-0.217	-0.112
-731.981	-166.988	-0.378	-0.016
-730.966	111.185	0.141	0.171
-729.952	-38.961	-0.270	0.144
-728.937	26.638	-0.155	0.132
-727.923	-111.535	-0.353	-0.073
-726.908	543.733	-0.068	0.163
-725.894	800.000	-0.056	-0.179
-724.879	-200.000	-0.039	-0.226
-723.864	-4.313	0.187	0.131
-722.850	208.534	-0.063	0.100
-721.835	-200.000	-0.044	0.240
-720.821	-19.559	-0.422	0.264
-719.806	-200.000	0.035	0.181
-718.791	138.623	-0.200	-0.266
-717.777	521.072	0.083	-0.196
-716.762	209.744	0.118	-0.187
-715.748	499.820	-0.115	-0.267
-714.733	-67.474	-0.065	-0.026
-713.718	-55.531	-0.255	0.116
-712.704	108.964	-0.275	-0.333
-711.689	556.504	-0.120	-0.294
-710.675	96.802	0.144	-0.167
-709.660	800.000	0.102	-0.311
-708.645	-46.133	0.314	-0.156
-707.631	29.796	0.293	-0.253
-706.616	209.299	0.113	-0.179
-705.602	11.687	-0.174	0.135
-704.587	-200.000	-0.012	0.078
-703.572	-186.307	0.179	-0.003
-702.558	17.036	0.202	-0.162
-701.543	-200.000	-0.019	-0.193
-700.529	406.483	0.078	0.166
-699.514	41.489	-0.257	-0.235
-698.499	219.918	-0.053	0.085
-697.485	-50.508	-0.203	-0.097
-696.470	-14.982	-0.205	0.133
-695.456	69.076	-0.085	-0.088
-694.441	-200.000	0.016	-0.389
-693.426	-127.316	0.409	-0.060
-692.412	14.465	-0.212	0.167
-691.397	-116.092	-0.283	0.053
-690.383	800.000	-0.020	-0.084
-689.368	237.847	-0.082	-0.137
-688.354	800.000	0.073	-0.251
-687.339	35.676	0.048	-0.043
-686.324	-200.000	-0.085	-0.407
-685.310	18.178	-0.069	0.055
-684.295	529.214	0.114	-0.271
-683.281	16.845	0.178	-0.143
-682.266	-65.922	0.269	0.109
-681.251	14.768	-0.360	-0.284
-680.237	68.445	0.187	0.194
-679.222	-70.814	0.298	-0.114
-678.208	-53.075	0.262	0.122
-677.193	217.488	0.098	0.157
-676.178	-132.292	-0.301	0.039
-675.164	-133.567	-0.383	-0.048
-674.149	-68.603	-0.166	0.065
-673.135	-139.004	0.302	0.033
-672.120	-103.216	-0.256	0.061
-671.105	-200.000	-0.046	0.299
-670.091	800.000	0.016	-0.057
-669.076	-58.101	0.195	0.086
-668.062	257.173	-0.077	-0.133
-667.047	800.000	-0.039	0.153
-666.032	-200.000	-0.010	0.269
-665.018	-124.418	-0.106	0.017
-664.003	-115.377	0.048	-0.009
-662.989	48.130	0.111	-0.105
-661.974	30.632	-0.242	-0.209
-660.959	-76.485	-0.264	0.094
-659.945	-200.000	-0.020	0.137
-658.930	-149.304	0.169	-0.014
-657.916	1.648	-0.037	-0.027
-656.901	-6.051	0.367	0.253
-655.886	-15.244	-0.242	-0.156
-654.872	54.725	-0.283	0.275
-653.857	-27.808	-0.204	-0.119
-652.843	355.931	-0.142	-0.285
-651.828	0.784	-0.266	0.193
-650.814	50.854	0.025	-0.024
-649.799	214.198	0.162	0.259
-648.784	-58.315	0.201	-0.088
-647.770	194.896	0.053	-0.081
-646.755	-110.800	0.308	-0.064
-645.741	394.130	-0.178	-0.374
-644.726	-200.000	0.012	0.146
-643.711	255.742	-0.181	0.313
-642.697	29.858	-0.234	-0.201
-641.682	-68.232	0.123	-0.048
-640.668	800.000	0.043	0.134
-639.653	-6.768	-0.225	0.155
-638.638	-200.000	0.092	0.442
-637.624	-180.078	0.166	0.004
-636.609	-139.701	0.189	0.020
-635.595	160.067	0.047	0.066
-634.580	124.642	-0.157	0.199
-633.565	532.409	-0.115	-0.275
-632.551	-200.000	0.068	-0.352
-631.536	-5.383	0.134	0.093
-630.522	-62.444	-0.115	-0.048
-629.507	5.686	-0.132	-0.098
-628.492	-95.120	0.236	-0.064
-627.478	-200.000	0.029	-0.175
-626.463	-48.408	-0.416	-0.202
-625.449	-109.833	0.077	0.016
-624.434	-200.000	0.004	0.361
-623.419	-59.178	-0.309	-0.134
-622.405	-200.000	-0.004	-0.052
-621.390	-23.374	-0.205	-0.124
-620.376	-97.604	0.043	0.011
-619.361	236.812	0.127	0.212
-618.346	-40.876	0.139	0.073
-617.332	36.099	-0.255	0.226
-616.317	-200.000	0.012	0.147
-615.303	-85.759	0.164	0.051
-614.288	-24.882	0.249	0.149
-613.273	-200.000	-0.005	0.090
-612.259	74.484	0.158	-0.167
-611.244	632.446	-0.125	-0.320
-610.230	-44.440	0.063	0.032
-609.215	49.079	-0.155	0.147
-608.201	206.933	0.116	-0.183
-607.186	-167.400	-0.062	0.003
-606.171	800.000	-0.033	0.103
-605.157	-200.000	-0.002	-0.043
-604.142	128.819	-0.105	-0.135
-603.128	68.274	0.136	-0.141
-602.113	-30.877	0.223	0.127
-601.098	-36.225	-0.285	-0.155
-600.084	-77.580	-0.122	-0.043
-599.069	-200.000	-0.015	0.404
-598.055	-129.811	-0.212	-0.029
-597.040	167.208	-0.181	-0.259
-596.025	-108.401	-0.099	-0.021
-595.011	-200.000	-0.015	0.116
-593.996	-200.000	-0.005	-0.173
-592.982	-106.286	0.192	0.043
-591.967	328.207	0.035	-0.067
-590.952	-70.858	0.051	-0.019
-589.938	131.362	0.142	-0.183
-588.923	-200.000	0.038	-0.320
-587.909	-200.000	-0.042	0.244
-586.894	800.000	0.035	0.115
-585.879	604.590	-0.107	0.269
-584.865	37.228	-0.175	-0.156
-583.850	439.494	0.150	-0.329
-582.836	171.850	0.104	0.151
-581.821	274.131	-0.095	0.169
-580.806	134.170	-0.064	-0.084
-579.792	-200.000	-0.046	-0.344
-578.777	-200.000	-0.015	-0.169
-577.763	-91.395	0.135	-0.039
-576.748	-4.447	0.160	0.111
-575.733	653.351	0.025	-0.064
-574.719	800.000	-0.169	-0.500
-573.704	-78.752	0.185	-0.063
-572.690	130.544	0.065	-0.084
-571.675	209.431	0.186	0.294
-570.661	800.000	-0.114	0.467
-569.646	12.333	-0.192	-0.149
-568.631	129.692	-0.165	0.212
-567.617	72.449	-0.090	-0.094
-566.602	-12.531	-0.025	-0.017
-565.588	-0.915	0.388	0.276
-564.573	81.520	-0.223	-0.243
-563.558	-109.070	-0.213	-0.046
-562.544	-0.572	0.114	-0.082
-561.529	72.484	-0.132	0.138
-560.515	-167.736	0.291	-0.012
-559.500	193.628	-0.082	0.126
-558.485	294.452	-0.206	0.379
-557.471	-200.000	0.022	-0.255
-556.456	800.000	0.036	0.110
-555.442	-100.237	0.239	0.060
-554.427	43.513	-0.080	0.074
-553.412	312.927	0.082	0.154
-552.398	-98.906	-0.091	0.023
-551.383	125.050	0.224	-0.284
-550.369	401.198	0.022	-0.046
-549.354	101.380	-0.119	-0.140
-548.339	-89.712	-0.275	-0.081
-547.325	14.469	-0.186	0.146
-546.310	-121.209	-0.209	0.035
-545.296	800.000	0.035	-0.139
-544.281	537.082	0.044	-0.104
-543.266	228.860	-0.170	-0.278
-542.252	35.873	0.085	-0.075
-541.237	-135.181	0.594	0.072
-540.223	-200.000	-0.049	-0.318
-539.208	-71.354	0.159	0.060
-538.193	-98.147	-0.177	0.046
-537.179	11.284	0.352	0.271
-536.164	48.743	-0.128	-0.121
-535.150	-200.000	-0.036	0.533
-534.135	800.000	0.065	0.219
-533.121	84.107	0.037	0.041
-532.106	-72.316	-0.210	-0.078
-531.091	-200.000	-0.027	0.270
-530.077	215.812	-0.185	0.296
-529.062	137.969	0.141	-0.185
-528.048	-146.908	0.184	-0.016
-527.033	624.835	0.077	0.196
-526.018	-148.971	0.167	-0.014
-525.004	-107.767	-0.132	0.029
-523.989	800.000	0.024	-0.089
-522.975	346.710	-0.053	-0.104
-521.960	800.000	0.069	-0.247
-520.945	-48.427	0.115	0.056
-519.931	757.740	-0.038	0.103
-518.916	-200.000	-0.015	-0.186
-517.902	800.000	0.027	0.082
-516.887	72.315	-0.133	0.139
-515.872	-200.000	0.065	0.315
-514.858	532.002	-0.120	-0.286
-513.843	124.574	-0.108	-0.136
-512.829	192.980	0.073	-0.111
-511.814	24.716	-0.135	-0.112
-510.799	-15.712	-0.276	-0.177
-509.785	-200.000	0.044	0.215
-508.770	147.386	-0.106	0.143
-507.756	750.647	-0.088	-0.239
-506.741	34.651	-0.106	0.093
-505.726	-65.889	0.115	-0.046
-504.712	-200.000	0.030	0.273
-503.697	-200.000	-0.062	0.285
-502.683	800.000	0.088	-0.266
-501.668	-200.000	-0.022	-0.204
-500.653	-58.053	0.338	0.148
-499.639	33.248	-0.111	0.096
-498.624	303.140	0.045	0.083
-497.610	148.320	0.123	0.167
-496.595	-130.471	-0.447	0.061
-495.581	158.571	0.246	0.342
-494.566	309.871	-0.086	-0.161
-493.551	-70.457	-0.130	-0.049
-492.537	-175.461	-0.360	0.010
-491.522	-72.840	0.343	0.127
-490.508	66.691	0.047	-0.048
-489.493	609.751	0.024	-0.060
-488.478	198.569	0.067	0.103
-487.464	122.738	-0.121	0.152
-486.449	615.928	0.057	0.143
-485.435	-93.167	-0.113	-0.032
-484.420	58.470	-0.200	-0.197
-483.405	-200.000	0.008	0.127
-482.391	-140.034	-0.047	0.005
-481.376	800.000	0.055	0.217
-480.362	-200.000	0.006	0.360
-479.347	-151.895	-0.162	-0.012
-478.332	-200.000	-0.044	-0.350
-477.318	2.140	-0.289	0.210
-476.303	-47.289	-0.314	-0.153
-475.289	-42.353	-0.313	0.160
-474.274	218.937	0.136	0.218
-473.259	800.000	-0.108	0.449
-472.245	800.000	0.049	0.207
-471.230	142.361	0.104	-0.138
-470.216	-91.928	0.050	-0.014
-469.201	115.217	-0.025	0.031
-468.186	397.365	0.138	-0.289
-467.172	236.670	-0.112	-0.186
-466.157	-118.948	-0.021	-0.004
-465.143	800.000	0.043	0.161
-464.128	57.512	0.076	0.074
-463.113	-16.767	-0.118	-0.075
-462.099	-17.707	0.263	-0.165
-461.084	-200.000	0.014	0.165
-460.070	73.911	-0.284	0.298
-459.055	-44.926	0.216	0.108
-458.040	-21.959	0.113	0.069
-457.026	74.568	-0.150	0.159
-456.011	444.989	0.032	0.071
-454.997	34.247	-0.225	-0.197
-453.982	-200.000	0.047	-0.294
-452.968	-61.394	-0.165	0.069
-451.953	93.179	0.138	0.156
-450.938	-139.207	-0.184	0.020
-449.924	126.186	-0.066	0.083
-448.909	-73.411	0.236	0.086
-447.895	-200.000	-0.044	0.373
-446.880	-130.020	0.135	0.019
-445.865	-102.119	-0.169	0.041
-444.851	14.023	0.163	-0.127
-443.836	158.653	-0.114	-0.159
-442.822	-19.796	-0.260	-0.161
-441.807	-139.951	0.232	-0.025
-440.792	-86.327	-0.179	-0.055
-439.778	-74.849	0.507	-0.182
-438.763	25.602	0.257	0.214
-437.749	-200.000	-0.037	0.191
-436.734	493.751	-0.089	-0.204
-435.719	144.051	0.019	-0.025
-434.705	268.903	0.193	-0.339
-433.690	-200.000	-0.055	0.304
-432.676	-77.522	0.272	-0.094
-431.661	-104.156	0.130	0.030
-430.646	18.897	0.149	-0.119
-429.632	299.665	-0.062	-0.115
-428.617	-200.000	0.060	-0.305
-427.603	-77.092	0.152	0.053
-426.588	119.486	0.177	0.219
-425.573	-25.691	-0.302	-0.178
-424.559	226.513	-0.246	-0.399
-423.544	800.000	-0.152	-0.433
-422.530	39.000	0.093	-0.083
-421.515	-200.000	0.052	-0.290
-420.500	-131.256	0.148	-0.020
-419.486	-157.332	0.365	-0.022
-418.471	68.002	-0.160	0.164
-417.457	185.796	-0.149	-0.221
-416.442	800.000	0.041	-0.130
-415.428	800.000	-0.056	-0.167
-414.413	199.250	-0.034	0.053
-413.398	6.141	-0.264	-0.195
-412.384	-200.000	0.002	-0.009
-411.369	-200.000	0.028	-0.156
-410.355	342.919	0.074	0.145
-409.340	-68.504	0.039	-0.015
-408.325	113.785	0.181	0.220
-407.311	800.000	-0.039	0.169
-406.296	-17.274	0.259	0.163
-405.282	-131.912	-0.241	0.032
-404.267	-56.872	-0.133	-0.059
-403.252	201.762	0.058	-0.090
-402.238	-1.630	-0.221	0.156
-401.223	96.020	-0.105	0.120
-400.209	-200.000	0.015	-0.235
-399.194	288.945	0.081	-0.146
-398.179	136.653	-0.131	0.171
-397.165	473.043	-0.028	0.064
-396.150	-77.453	0.141	-0.049
-395.136	101.081	0.076	-0.088
-394.121	-101.233	-0.321	0.078
-393.106	-24.250	-0.058	0.034
-392.092	203.055	0.089	0.138
-391.077	253.981	-0.202	0.345
-390.063	-117.445	-0.168	0.030
-389.048	658.467	0.098	-0.252
-388.033	544.356	-0.004	0.009
-387.019	592.789	-0.114	-0.281
-386.004	-200.000	-0.005	-0.199
-384.990	-200.000	0.009	-0.152
-383.975	-200.000	0.011	0.248
-382.960	800.000	0.024	0.101
-381.946	-43.613	0.146	-0.073
-380.931	-81.456	0.239	0.079
-379.917	-23.780	0.313	0.187
-378.902	179.589	0.153	0.224
-377.888	800.000	0.019	0.061
-376.873	51.872	-0.266	-0.253
-375.858	-98.113	0.472	-0.121
-374.844	23.843	0.078	-0.064
-373.829	208.014	-0.152	-0.237
-372.815	108.363	0.126	0.150
-371.800	139.507	0.168	-0.220
-370.785	800.000	0.115	0.461
-369.771	159.741	0.221	0.307
-368.756	-149.230	-0.220	0.018
-367.742	-127.064	0.184	0.027
-366.727	491.502	-0.041	-0.093
-365.712	708.172	0.025	-0.066
-364.698	-84.858	0.073	-0.023
-363.683	-200.000	0.004	-0.169
-362.669	192.649	-0.145	-0.219
-361.654	-35.935	0.207	-0.112
-360.639	-116.654	0.305	0.056
-359.625	43.469	-0.234	-0.214
-358.610	-119.453	0.096	-0.017
-357.596	304.121	0.031	-0.057
-356.581	-23.070	-0.253	-0.152
-355.566	-80.433	-0.269	0.090
-354.552	-200.000	0.005	-0.035
-353.537	239.954	-0.019	-0.032
-352.523	-200.000	0.111	-0.512
-351.508	-151.724	-0.321	-0.024
-350.493	-167.117	-0.257	0.010
-349.479	-164.823	-0.215	0.010
-348.464	-138.457	0.058	-0.006
-347.450	-87.733	0.258	0.078
-346.435	-200.000	0.022	0.182
-345.420	-116.370	-0.275	0.051
-344.406	-9.330	0.174	-0.116
-343.391	24.834	0.186	0.154
-342.377	-19.073	-0.145	0.090
-341.362	-200.000	0.014	-0.133
-340.348	800.000	-0.058	0.236
-339.333	41.662	0.065	-0.059
-338.318	78.701	0.197	0.210
-337.304	-200.000	0.028	-0.230
-336.289	-112.397	0.052	-0.010
-335.275	172.969	0.148	-0.212
-334.260	1.774	0.081	0.058
-333.245	-18.438	-0.159	-0.099
-332.231	481.190	-0.054	-0.122
-331.216	-35.103	0.256	-0.139
-330.202	56.892	-0.131	-0.127
-329.187	280.803	0.081	0.144
-328.172	-121.671	0.219	-0.036
-327.158	800.000	-0.028	-0.108
-326.143	86.484	0.154	-0.169
-325.129	-66.130	0.206	0.082
-324.114	332.428	0.041	0.078
-323.099	43.992	-0.174	-0.159
-322.085	652.251	-0.113	0.289
-321.070	800.000	0.057	0.192
-320.056	347.206	0.109	0.213
-319.041	91.866	0.056	0.062
-318.026	-186.838	0.217	0.003
-317.012	-30.330	0.206	0.117
-315.997	-142.020	-0.150	-0.015
-314.983	-137.659	0.281	0.031
-313.968	333.911	-0.173	-0.333
-312.953	201.492	0.169	0.259
-311.939	-47.625	-0.220	-0.106
-310.924	274.429	-0.127	0.225
-309.910	173.481	0.139	-0.199
-308.895	-200.000	-0.016	-0.078
-307.880	5.485	-0.290	0.213
-306.866	-200.000	0.053	0.375
-305.851	11.587	-0.100	-0.076
-304.837	-98.963	0.413	0.104
-303.822	-42.381	-0.480	0.244
-302.807	-38.621	0.133	-0.070
-301.793	-170.443	0.134	0.005
-300.778	280.693	0.161	0.286
-299.764	-200.000	-0.031	0.166
-298.749	-62.421	0.221	-0.092
-297.735	800.000	0.129	-0.372
-296.720	0.474	-0.171	0.122
-295.705	436.292	-0.053	0.114
-294.691	800.000	0.127	0.485
-293.676	-161.720	0.378	0.019
-292.662	-25.367	0.104	0.061
-291.647	800.000	-0.098	0.354
-290.632	800.000	0.075	-0.299
-289.618	-198.806	-0.280	0.002
-288.603	-145.079	-0.202	-0.018
-287.589	-147.961	-0.176	0.015
-286.574	-200.000	0.054	-0.351
-285.559	20.692	0.057	0.046
-284.545	631.087	0.090	-0.226
-283.530	800.000	0.044	-0.125
-282.516	-157.205	0.175	-0.011
-281.501	-190.027	0.221	-0.002
-280.486	388.663	0.139	0.286
-279.472	-134.509	0.214	0.026
-278.457	61.480	-0.093	0.092
-277.443	40.398	0.215	0.193
-276.428	800.000	-0.048	-0.134
-275.413	-200.000	-0.005	0.381
-274.399	-107.430	-0.188	0.041
-273.384	377.835	0.055	-0.112
-272.370	111.881	0.135	-0.162
-271.355	49.322	0.176	0.165
-270.340	101.129	0.228	0.264
-269.326	-105.533	-0.158	-0.036
-268.311	-200.000	0.034	-0.214
-267.297	-200.000	0.015	0.143
-266.282	-74.500	0.202	-0.073
-265.267	-200.000	0.042	-0.198
-264.253	120.084	-0.146	-0.180
-263.238	800.000	0.127	-0.403
-262.224	-138.399	-0.085	0.009
-261.209	291.816	0.141	0.255
-260.195	360.119	-0.060	-0.119
-259.180	121.931	-0.222	-0.276
-258.165	-27.967	-0.155	0.089
-257.151	-200.000	-0.004	-0.142
-256.136	113.599	-0.035	0.042
-255.122	-22.887	-0.179	0.107
-254.107	-70.703	0.157	0.059
-253.092	11.708	0.038	-0.029
-252.078	-49.068	0.084	0.040
-251.063	-78.297	-0.418	0.142
-250.049	-78.050	-0.114	-0.039
-249.034	64.791	0.188	-0.188
-248.019	-45.932	0.087	-0.043
-247.005	12.081	-0.109	-0.083
-245.990	-131.431	0.107	0.014
-244.976	800.000	-0.082	-0.249
-243.961	329.297	0.061	-0.117
-242.946	-200.000	0.085	0.000
-241.932	-65.644	-0.219	0.087
-240.917	-159.248	0.188	-0.010
-239.903	129.556	0.085	0.108
-238.888	-75.465	-0.069	0.024
-237.873	800.000	0.068	0.296
-236.859	-132.777	-0.225	0.029
-235.844	800.000	-0.022	0.063
-234.830	137.157	0.107	0.138
-233.815	155.017	0.074	0.101
-232.800	800.000	-0.128	-0.366
-231.786	252.874	0.075	0.127
-230.771	-200.000	-0.042	0.395
-229.757	311.340	-0.135	0.252
-228.742	74.765	0.021	0.022
-227.727	-109.588	-0.102	0.021
-226.713	-33.922	0.220	-0.120
-225.698	800.000	0.041	0.126
-224.684	108.753	0.253	-0.300
-223.669	-74.315	-0.316	-0.113
-222.655	278.467	0.050	-0.089
-221.640	330.071	-0.098	0.188
-220.625	-116.293	-0.442	-0.081
-219.611	45.275	0.232	-0.213
-218.596	29.349	0.218	0.184
-217.582	-91.441	-0.210	-0.060
-216.567	-54.863	-0.139	-0.062
-215.552	284.471	-0.119	-0.212
-214.538	-79.306	-0.153	-0.051
-213.523	639.365	-0.037	0.093
-212.509	316.593	-0.126	0.236
-211.494	-83.278	-0.324	-0.103
-210.479	-111.495	0.016	-0.003
-209.465	800.000	0.138	-0.493
-208.450	-53.954	-0.142	0.064
-207.436	150.223	-0.123	-0.166
-206.421	-63.431	-0.358	-0.146
-205.406	195.487	0.112	-0.169
-204.392	49.280	-0.162	0.152
-203.377	-200.000	0.002	0.011
-202.363	-21.636	0.224	-0.135
-201.348	-116.373	0.243	-0.045
-200.333	-96.715	-0.055	-0.014
-199.319	34.582	-0.105	0.091
-198.304	-200.000	0.027	0.224
-197.290	-69.417	-0.067	-0.025
-196.275	800.000	-0.080	-0.238
-195.260	-86.648	-0.058	-0.018
-194.246	99.145	-0.280	0.321
-193.231	-200.000	-0.068	0.326
-192.217	-121.788	-0.317	-0.052
-191.202	43.784	-0.014	-0.012
-190.187	17.375	0.134	0.105
-189.173	-92.283	-0.247	0.069
-188.158	-100.011	0.075	0.018
-187.144	118.030	-0.093	-0.113
-186.129	-130.028	-0.111	0.015
-185.114	-144.696	0.263	0.024
-184.100	3.448	-0.303	0.219
-183.085	-153.992	0.171	0.012
-182.071	-93.389	0.254	0.070
-181.056	28.990	-0.265	-0.223
-180.042	425.801	0.116	-0.247
-179.027	-200.000	-0.006	-0.307
-178.012	134.262	-0.111	0.143
-176.998	-146.057	0.124	-0.011
-175.983	168.020	-0.090	-0.127
-174.969	-75.501	0.178	-0.063
-173.954	157.970	-0.084	0.116
-172.939	33.160	0.151	-0.130
-171.925	727.099	0.067	-0.176
-170.910	-40.238	-0.088	-0.045
-169.896	90.778	0.147	0.163
-168.881	-109.509	0.147	-0.031
-167.866	-84.212	0.130	0.041
-166.852	-109.995	-0.410	0.085
-165.837	-94.702	0.079	-0.021
-164.823	102.968	0.194	-0.225
-163.808	156.697	0.082	-0.112
-162.793	-136.474	-0.255	0.029
-161.779	50.541	0.159	0.149
-160.764	-200.000	0.033	0.217
-159.750	10.752	-0.075	-0.057
-158.735	79.000	0.100	0.106
-157.720	107.496	-0.087	0.102
-156.706	-0.355	0.304	-0.214
-155.691	800.000	-0.107	-0.343
-154.677	800.000	-0.118	-0.340
-153.662	-200.000	-0.066	0.315
-152.647	-172.615	0.062	0.002
-151.633	-49.375	-0.025	0.012
-150.618	-17.222	-0.315	-0.197
-149.604	-149.150	0.067	-0.005
-148.589	-47.985	0.239	0.115
-147.574	-200.000	-0.001	-0.204
-146.560	800.000	0.116	-0.332
-145.545	800.000	-0.042	-0.162
-144.531	-47.633	0.232	0.111
-143.516	-71.966	-0.075	-0.028
-142.502	-52.003	-0.127	0.058
-141.487	-120.776	0.297	0.050
-140.472	-200.000	0.025	0.178
-139.458	66.675	-0.253	0.255
-138.443	-129.275	-0.128	0.018
-137.429	-158.332	0.156	-0.009
-136.414	732.015	-0.071	0.188
-135.399	-9.951	-0.198	0.130
-134.385	-122.443	0.165	-0.027
-133.370	-200.000	-0.027	0.427
-132.356	800.000	0.139	0.423
-131.341	42.716	-0.161	-0.145
-130.326	-49.163	0.357	-0.169
-129.312	339.015	0.058	-0.111
-128.297	-125.006	0.390	0.059
-127.283	51.898	0.342	0.322
-126.268	-137.730	0.055	-0.006
-125.253	-72.006	0.127	-0.047
-124.239	-29.093	0.193	0.110
-123.224	-26.952	0.237	0.137
-122.210	5.779	-0.299	0.218
-121.195	-99.709	0.165	0.041
