DTS Sentinel unit serial number:	SN413079Multiplexer serial number:	ORYXHardware model number:	OX4-SRSoftware version number:	ORYX F/W v4.00 Oryx Data Collector v3.7.2.0data status	okinstallation	princeton_trtdifferential loss correction	single-endedforward channel	channel 4reverse channel	N/Adate	2019/09/15time	15:05:35forward acquisition time	60.00reverse acquisition time	0.00gamma	496.2192k internal	0.2288k external	0.2288temperature offset calibration	0.9968default loss term (dB/km)	0.3790temperature slope calibration	1.0000multiplexer offset coefficient	1.0000multiplexer slope coefficient	1.0000fibre end	0.00T internal ref (°C)	40.34T ext. ref 1 (°C)	4.95T ext. ref 2 (°C)	37.43length (m)	temperature (°C)	Stokes	anti-Stokes-747.200	-133.781	-0.024	0.003
-746.185	-57.090	0.080	0.036
-745.171	-15.292	0.194	0.127
-744.156	800.000	-0.135	0.419
-743.142	274.985	-0.027	-0.050
-742.127	-200.000	0.063	0.411
-741.112	59.338	0.146	0.147
-740.098	133.365	-0.235	0.311
-739.083	776.988	0.076	0.214
-738.069	80.873	0.121	0.134
-737.054	99.762	-0.154	0.183
-736.039	-34.101	-0.141	-0.079
-735.025	371.337	0.089	0.185
-734.010	-122.673	0.195	-0.032
-732.996	16.701	-0.165	-0.134
-731.981	15.775	-0.267	-0.215
-730.966	-83.629	0.336	0.110
-729.952	-34.761	-0.257	0.144
-728.937	-33.809	0.302	-0.170
-727.923	5.692	-0.317	-0.240
-726.908	-22.094	-0.225	0.140
-725.894	-187.410	0.083	0.001
-724.879	609.345	-0.115	-0.295
-723.864	52.108	-0.167	-0.163
-722.850	-135.692	-0.264	-0.032
-721.835	55.637	-0.131	-0.130
-720.821	-200.000	0.009	0.260
-719.806	-91.313	0.262	0.077
-718.791	-5.428	-0.224	0.157
-717.777	-117.084	-0.243	0.045
-716.762	487.593	0.161	0.376
-715.748	135.686	-0.117	0.156
-714.733	-65.087	-0.244	0.101
-713.718	-200.000	-0.050	-0.268
-712.704	-58.564	-0.088	-0.039
-711.689	-85.814	0.251	0.080
-710.675	260.073	0.069	-0.122
-709.660	-144.877	-0.189	-0.018
-708.645	19.841	0.088	0.073
-707.631	290.605	0.083	-0.155
-706.616	58.065	-0.379	-0.380
-705.602	99.178	0.073	0.086
-704.587	103.316	-0.148	0.178
-703.572	-7.939	-0.138	-0.095
-702.558	-59.913	-0.029	0.013
-701.543	374.065	0.120	-0.249
-700.529	91.106	-0.106	-0.122
-699.514	-30.011	-0.095	0.056
-698.499	70.800	-0.136	0.144
-697.485	131.441	-0.183	-0.241
-696.470	251.269	0.138	-0.240
-695.456	-129.219	0.088	-0.012
-694.441	-22.598	-0.175	0.109
-693.426	123.018	0.256	0.328
-692.412	115.708	-0.117	-0.146
-691.397	-102.234	0.074	0.018
-690.383	-200.000	-0.012	-0.090
-689.368	-48.548	-0.270	0.133
-688.354	-71.785	0.299	0.114
-687.339	-148.779	0.246	0.020
-686.324	-54.503	-0.181	0.084
-685.310	-82.727	0.249	0.082
-684.295	800.000	-0.032	0.108
-683.281	-132.862	-0.221	-0.029
-682.266	-33.502	-0.127	-0.072
-681.251	-110.186	0.146	0.031
-680.237	-145.497	-0.363	-0.033
-679.222	347.905	0.204	-0.410
-678.208	800.000	-0.057	-0.194
-677.193	125.918	-0.122	-0.157
-676.178	-127.868	0.243	-0.036
-675.164	676.231	0.092	-0.244
-674.149	690.778	-0.172	-0.460
-673.135	-139.394	-0.114	0.013
-672.120	800.000	0.065	0.278
-671.105	-166.133	0.197	0.009
-670.091	104.264	0.061	0.074
-669.076	659.506	-0.057	-0.149
-668.062	-200.000	0.027	-0.245
-667.047	-200.000	-0.005	0.286
-666.032	800.000	0.074	0.260
-665.018	-176.550	-0.216	-0.006
-664.003	-200.000	0.050	-0.311
-662.989	437.483	-0.103	0.230
-661.974	-126.974	-0.195	-0.029
-660.959	-200.000	-0.044	0.270
-659.945	-200.000	0.029	0.284
-658.930	-110.555	0.256	-0.054
-657.916	-200.000	-0.035	-0.236
-656.901	800.000	-0.090	-0.381
-655.886	65.181	-0.124	0.129
-654.872	54.885	0.115	-0.114
-653.857	-25.796	-0.287	0.173
-652.843	80.656	-0.096	-0.105
-651.828	800.000	0.052	-0.166
-650.814	-200.000	-0.012	-0.064
-649.799	-47.028	-0.213	0.106
-648.784	-200.000	0.030	0.205
-647.770	52.240	0.232	-0.226
-646.755	-147.028	0.313	0.027
-645.741	-200.000	0.032	0.146
-644.726	800.000	-0.037	-0.119
-643.711	29.656	-0.045	0.039
-642.697	800.000	-0.056	0.231
-641.682	223.250	0.128	-0.211
-640.668	-72.991	-0.104	0.039
-639.653	528.814	0.103	0.248
-638.638	414.135	0.155	-0.337
-637.624	800.000	-0.088	-0.305
-636.609	258.440	0.007	-0.012
-635.595	-132.892	0.273	0.036
-634.580	46.098	0.188	0.178
-633.565	-140.803	-0.270	0.028
-632.551	62.709	0.180	-0.184
-631.536	-69.296	0.231	0.091
-630.522	148.660	0.048	0.066
-629.507	-92.910	-0.165	0.047
-628.492	800.000	0.056	-0.196
-627.478	800.000	0.153	0.578
-626.463	61.222	-0.092	0.093
-625.449	6.916	0.037	-0.028
-624.434	-116.711	-0.080	0.015
-623.419	-163.384	-0.117	-0.006
-622.405	-58.560	-0.151	-0.067
-621.390	-89.300	-0.185	-0.056
-620.376	3.925	0.239	0.178
-619.361	71.768	0.233	-0.247
-618.346	375.188	0.120	-0.250
-617.332	-134.515	-0.341	0.042
-616.317	190.247	0.147	-0.226
-615.303	232.949	-0.259	0.435
-614.288	-200.000	0.020	0.209
-613.273	28.513	-0.103	0.089
-612.259	-98.557	-0.400	-0.104
-611.244	-200.000	0.044	-0.199
-610.230	-200.000	0.010	0.092
-609.215	-200.000	0.014	0.198
-608.201	26.182	0.067	-0.057
-607.186	162.247	-0.064	-0.091
-606.171	-58.352	-0.292	0.129
-605.157	156.063	0.187	0.263
-604.142	-41.819	0.435	0.228
-603.128	108.418	0.069	0.085
-602.113	-61.167	0.271	-0.117
-601.098	-200.000	0.007	-0.134
-600.084	-200.000	0.034	0.241
-599.069	153.183	0.105	0.146
-598.055	1.283	0.037	-0.027
-597.040	68.764	-0.213	0.222
-596.025	-34.982	0.228	0.127
-595.011	800.000	-0.083	0.308
-593.996	-3.038	-0.137	0.097
-592.982	28.568	-0.136	-0.118
-591.967	-6.829	-0.338	0.234
-590.952	-67.338	0.244	-0.098
-589.938	-200.000	-0.036	-0.267
-588.923	-47.156	-0.180	-0.090
-587.909	-148.822	0.166	-0.014
-586.894	-200.000	-0.042	-0.274
-585.879	-64.760	0.250	0.103
-584.865	-48.513	0.407	-0.199
-583.850	111.452	0.176	-0.217
-582.836	252.408	0.103	-0.179
-581.821	-2.660	-0.238	0.170
-580.806	800.000	-0.035	0.144
-579.792	-200.000	0.006	-0.098
-578.777	800.000	-0.101	-0.319
-577.763	753.917	0.045	-0.123
-576.748	-117.154	-0.146	-0.027
-575.733	300.554	0.027	0.051
-574.719	-92.425	-0.199	0.057
-573.704	311.760	-0.144	-0.275
-572.690	737.203	-0.045	0.123
-571.675	716.583	-0.010	0.028
-570.661	-126.952	-0.152	0.023
-569.646	5.727	-0.168	0.127
-568.631	507.423	0.015	0.035
-567.617	-200.000	0.020	0.170
-566.602	40.338	0.265	-0.243
-565.588	-89.811	-0.421	0.125
-564.573	137.764	-0.128	-0.171
-563.558	-88.172	0.229	-0.070
-562.544	4.710	-0.142	-0.106
-561.529	37.562	-0.119	0.107
-560.515	-163.606	0.206	0.010
-559.500	-28.446	-0.242	-0.142
-558.485	-108.796	-0.112	0.024
-557.471	191.459	-0.112	-0.171
-556.456	539.967	0.059	0.142
-555.442	179.487	0.055	0.082
-554.427	175.129	-0.077	0.114
-553.412	-200.000	-0.039	-0.311
-552.398	800.000	0.048	0.184
-551.383	-143.953	0.226	-0.022
-550.369	37.761	-0.125	0.113
-549.354	-41.229	-0.207	0.109
-548.339	-49.453	-0.131	-0.064
-547.325	-196.130	-0.236	-0.002
-546.310	156.307	-0.226	-0.318
-545.296	81.483	-0.008	0.009
-544.281	-200.000	-0.020	0.403
-543.266	577.582	-0.040	-0.099
-542.252	84.512	0.035	0.039
-541.237	-51.748	-0.431	0.204
-540.223	87.710	-0.036	-0.041
-539.208	348.155	-0.062	-0.124
-538.193	-83.201	0.170	-0.056
-537.179	-200.000	-0.018	0.083
-536.164	-200.000	0.036	-0.380
-535.150	-200.000	-0.053	-0.278
-534.135	-200.000	-0.033	-0.236
-533.121	800.000	0.021	0.089
-532.106	-73.409	-0.291	0.108
-531.091	183.218	0.179	-0.269
-530.077	-125.419	-0.167	-0.026
-529.062	-200.000	0.001	0.157
-528.048	180.061	0.172	-0.257
-527.033	-111.744	0.159	-0.033
-526.018	-35.916	-0.203	0.112
-525.004	-118.105	-0.067	0.012
-523.989	-200.000	0.007	-0.063
-522.975	-99.218	0.220	0.056
-521.960	800.000	-0.074	0.251
-520.945	-27.371	0.159	-0.094
-519.931	214.552	-0.044	0.071
-518.916	85.253	-0.032	-0.036
-517.902	-184.681	-0.106	0.002
-516.887	515.363	0.086	-0.204
-515.872	223.290	-0.141	-0.231
-514.858	-101.686	-0.067	0.016
-513.843	-117.586	-0.124	-0.023
-512.829	-200.000	-0.005	-0.285
-511.814	62.874	-0.138	0.140
-510.799	207.319	0.139	-0.221
-509.785	800.000	-0.110	-0.309
-508.770	72.180	-0.065	-0.068
-507.756	-35.202	-0.014	0.008
-506.741	223.497	0.120	-0.197
-505.726	-200.000	0.058	0.420
-504.712	285.591	0.190	0.348
-503.697	210.563	-0.081	-0.129
-502.683	-108.235	-0.335	-0.074
-501.668	293.556	-0.116	-0.214
-500.653	618.065	0.122	0.312
-499.639	24.767	-0.199	0.168
-498.624	32.107	-0.399	-0.349
-497.610	-156.671	-0.174	0.011
-496.595	800.000	0.152	0.481
-495.581	-200.000	0.048	0.268
-494.566	37.357	0.245	0.220
-493.551	-115.891	0.395	-0.075
-492.537	800.000	0.012	-0.049
-491.522	1.095	0.080	-0.058
-490.508	800.000	-0.062	0.271
-489.493	-150.688	-0.329	0.025
-488.478	99.897	0.095	0.112
-487.464	101.915	0.036	-0.043
-486.449	8.670	0.411	0.314
-485.435	-200.000	-0.019	-0.130
-484.420	-26.925	-0.308	-0.183
-483.405	8.119	-0.087	-0.066
-482.391	18.199	0.162	0.131
-481.376	-200.000	-0.033	0.218
-480.362	-100.365	0.063	0.016
-479.347	71.356	0.079	-0.083
-478.332	43.253	-0.119	-0.110
-477.318	426.296	0.088	-0.193
-476.303	-42.500	-0.191	0.099
-475.289	82.855	-0.082	-0.091
-474.274	-200.000	0.003	-0.240
-473.259	-95.479	0.235	-0.064
-472.245	-133.854	-0.138	0.017
-471.230	20.431	0.034	0.028
-470.216	96.419	0.164	-0.191
-469.201	169.649	-0.147	0.213
-468.186	-200.000	-0.002	-0.139
-467.172	-60.124	0.058	0.025
-466.157	40.781	0.157	0.144
-465.143	13.103	0.104	0.081
-464.128	34.648	-0.049	-0.044
-463.113	27.666	0.183	-0.156
-462.099	-200.000	0.005	0.226
-461.084	382.418	0.170	0.355
-460.070	-127.784	-0.091	0.013
-459.055	-200.000	-0.007	-0.048
-458.040	559.389	-0.112	-0.274
-457.026	-0.621	0.237	0.171
-456.011	333.831	-0.126	-0.247
-454.997	-65.301	0.193	-0.079
-453.982	-200.000	-0.010	0.154
-452.968	-200.000	0.006	0.078
-451.953	438.228	0.110	0.243
-450.938	-163.678	-0.175	-0.008
-449.924	64.596	0.045	0.046
-448.909	34.983	-0.285	0.253
-447.895	800.000	0.043	-0.183
-446.880	96.202	-0.143	-0.166
-445.865	22.942	0.155	0.129
-444.851	-200.000	-0.008	0.066
-443.836	-93.996	-0.265	-0.074
-442.822	-200.000	0.045	0.272
-441.807	800.000	-0.098	-0.329
-440.792	355.379	0.064	0.129
-439.778	-200.000	0.011	0.221
-438.763	-97.109	-0.227	0.060
-437.749	54.712	0.177	0.173
-436.734	800.000	0.100	-0.338
-435.719	-36.621	-0.210	-0.114
-434.705	-13.181	-0.140	-0.092
-433.690	746.278	-0.073	-0.199
-432.676	-135.376	0.044	0.005
-431.661	-0.253	-0.144	-0.104
-430.646	13.769	-0.102	-0.080
-429.632	-29.936	-0.419	-0.242
-428.617	800.000	-0.075	0.256
-427.603	61.451	-0.180	0.182
-426.588	800.000	-0.060	0.176
-425.573	-23.089	-0.112	-0.068
-424.559	86.433	-0.110	0.123
-423.544	-33.556	0.180	-0.101
-422.530	800.000	-0.106	-0.418
-421.515	-6.145	-0.333	-0.231
-420.500	-200.000	0.066	-0.332
-419.486	-200.000	-0.081	0.402
-418.471	-82.460	0.180	0.059
-417.457	-104.569	-0.235	-0.055
-416.442	-77.522	0.216	0.076
-415.428	209.712	-0.074	-0.117
-414.413	228.022	-0.147	0.243
-413.398	-167.004	0.318	0.013
-412.384	-17.447	-0.301	0.191
-411.369	-20.059	0.204	0.127
-410.355	202.689	-0.127	0.199
-409.340	-138.383	0.170	0.019
-408.325	-44.500	0.020	-0.010
-407.311	105.024	-0.132	-0.158
-406.296	800.000	-0.061	-0.235
-405.282	-184.162	-0.268	-0.004
-404.267	427.403	0.097	-0.211
-403.252	-94.817	-0.053	0.014
-402.238	68.646	0.062	0.064
-401.223	236.733	-0.051	-0.085
-400.209	-42.175	0.097	0.050
-399.194	-139.121	-0.258	0.028
-398.179	98.317	0.220	0.257
-397.165	-24.875	0.181	-0.109
-396.150	310.877	0.106	0.201
-395.136	-200.000	-0.004	-0.083
-394.121	-128.542	-0.139	-0.020
-393.106	173.420	-0.018	0.026
-392.092	-200.000	-0.022	0.132
-391.077	53.332	-0.119	-0.115
-390.063	-31.095	0.322	0.183
-389.048	-121.815	0.214	-0.036
-388.033	800.000	-0.037	0.105
-387.019	216.827	-0.152	-0.244
-386.004	-200.000	-0.009	-0.356
-384.990	110.536	-0.040	0.049
-383.975	-29.575	-0.205	-0.118
-382.960	28.274	-0.037	0.032
-381.946	800.000	0.016	0.070
-380.931	-200.000	-0.058	-0.267
-379.917	337.450	0.026	0.051
-378.902	17.921	-0.246	-0.198
-377.888	221.376	-0.139	-0.225
-376.873	49.326	0.076	0.072
-375.858	59.383	0.092	-0.092
-374.844	-88.776	0.115	-0.034
-373.829	340.648	0.134	-0.265
-372.815	-97.739	0.257	-0.067
-371.800	-200.000	0.016	0.090
-370.785	-144.953	0.153	-0.014
-369.771	-27.942	-0.127	-0.075
-368.756	800.000	0.065	0.218
-367.742	-200.000	-0.020	0.171
-366.727	233.349	0.007	0.011
-365.712	74.003	-0.176	-0.186
-364.698	-49.033	-0.175	0.085
-363.683	29.327	0.013	-0.011
-362.669	172.779	0.255	-0.371
-361.654	-113.642	0.154	-0.030
-360.639	298.297	0.020	-0.038
-359.625	-148.590	0.394	-0.032
-358.610	-200.000	0.015	-0.123
-357.596	-125.621	-0.186	0.029
-356.581	-200.000	-0.020	0.101
-355.566	800.000	-0.030	0.109
-354.552	175.987	0.163	-0.238
-353.537	-64.222	-0.096	0.040
-352.523	53.623	-0.277	-0.268
-351.508	194.158	0.193	-0.295
-350.493	-200.000	-0.029	0.143
-349.479	-99.178	-0.357	-0.091
-348.464	-200.000	0.021	0.183
-347.450	111.849	-0.101	0.123
-346.435	220.958	-0.073	0.118
-345.420	-137.796	0.341	-0.039
-344.406	-186.253	0.256	-0.004
-343.391	276.845	0.044	0.079
-342.377	800.000	0.086	-0.274
-341.362	-163.900	0.243	-0.011
-340.348	80.845	0.179	0.194
-339.333	-140.370	0.444	0.047
-338.318	530.420	-0.043	-0.102
-337.304	-176.560	0.344	-0.009
-336.289	-90.071	0.233	0.068
-335.275	-200.000	-0.008	0.070
-334.260	-48.091	-0.204	-0.100
-333.245	-200.000	-0.031	-0.195
-332.231	226.760	-0.128	-0.210
-331.216	338.039	-0.051	-0.101
-330.202	-200.000	-0.033	0.174
-329.187	174.372	0.124	0.180
-328.172	228.395	-0.090	0.148
-327.158	18.883	-0.252	-0.204
-326.143	-55.887	-0.101	0.045
-325.129	-182.144	-0.182	-0.003
-324.114	196.850	0.155	-0.239
-323.099	800.000	-0.029	-0.094
-322.085	-195.575	0.429	-0.003
-321.070	277.883	-0.009	0.016
-320.056	539.764	-0.072	-0.172
-319.041	-36.203	0.035	-0.019
-318.026	274.944	0.070	0.124
-317.012	-137.622	0.385	-0.044
-315.997	295.950	-0.087	0.160
-314.983	-200.000	0.077	-0.402
-313.968	-200.000	-0.035	-0.322
-312.953	278.405	0.111	-0.200
-311.939	-139.147	-0.258	0.028
-310.924	-25.889	-0.404	-0.240
-309.910	800.000	-0.040	0.124
-308.895	-4.310	-0.183	-0.127
-307.880	85.955	0.307	0.340
-306.866	-200.000	-0.005	0.055
-305.851	-155.275	-0.066	-0.004
-304.837	-48.108	-0.433	0.211
-303.822	354.332	-0.070	-0.139
-302.807	-200.000	-0.024	-0.169
-301.793	-123.934	0.262	0.042
-300.778	0.261	-0.233	0.167
-299.764	-12.631	-0.095	-0.063
-298.749	191.362	0.086	-0.131
-297.735	800.000	-0.041	0.171
-296.720	47.273	0.189	-0.177
-295.705	-200.000	0.023	0.204
-294.691	-113.306	0.228	-0.045
-293.676	-90.397	0.418	-0.122
-292.662	-93.188	-0.310	-0.087
-291.647	-160.068	-0.159	0.009
-290.632	800.000	0.051	0.177
-289.618	-200.000	-0.051	0.279
-288.603	186.533	0.049	0.073
-287.589	267.614	-0.070	0.123
-286.574	800.000	0.073	0.212
-285.559	-50.174	-0.208	-0.099
-284.545	416.133	-0.084	0.180
-283.530	-200.000	-0.030	0.166
-282.516	-200.000	0.016	0.379
-281.501	150.132	0.039	-0.054
-280.486	361.115	0.146	-0.295
-279.472	205.930	-0.114	-0.178
-278.457	-13.226	0.146	-0.096
-277.443	800.000	-0.067	0.190
-276.428	-200.000	0.004	0.192
-275.413	-200.000	-0.004	-0.044
-274.399	-200.000	-0.036	0.371
-273.384	-71.152	0.223	0.084
-272.370	-8.289	0.176	0.120
-271.355	800.000	0.035	-0.101
-270.340	8.500	0.051	0.038
-269.326	177.980	0.170	0.250
-268.311	800.000	0.062	0.192
-267.297	-58.015	0.056	0.024
-266.282	72.832	0.233	0.245
-265.267	-19.713	0.260	-0.162
-264.253	-21.016	-0.052	-0.032
-263.238	-103.778	-0.340	0.080
-262.224	6.536	0.303	0.226
-261.209	32.250	0.239	-0.208
-260.195	198.362	0.150	-0.231
-259.180	-63.953	0.204	0.084
-258.165	-27.569	0.187	-0.109
-257.151	146.386	-0.147	-0.199
-256.136	290.495	-0.065	-0.119
-255.122	-80.844	-0.374	0.125
-254.107	295.132	-0.173	-0.318
-253.092	-169.295	-0.175	0.006
-252.078	216.146	0.131	0.209
-251.063	17.308	-0.280	0.224
-250.049	-120.045	0.057	0.010
-249.034	800.000	-0.148	0.478
-248.019	78.872	0.237	0.255
-247.005	-200.000	-0.007	-0.067
-245.990	130.005	-0.144	0.186
-244.976	58.804	0.083	-0.082
-243.961	800.000	0.133	-0.445
-242.946	800.000	-0.038	-0.131
-241.932	175.279	-0.013	0.020
-240.917	-200.000	-0.002	0.150
-239.903	47.984	0.102	-0.096
-238.888	-92.806	0.186	0.052
-237.873	81.347	0.100	-0.109
-236.859	15.793	-0.054	0.043
-235.844	62.985	-0.005	-0.005
-234.830	0.895	0.004	0.003
-233.815	244.504	-0.092	0.155
-232.800	-200.000	0.011	0.114
-231.786	-14.871	0.248	-0.160
-230.771	-183.503	0.131	-0.002
-229.757	-72.730	0.192	0.071
-228.742	43.827	0.284	0.262
-227.727	-170.355	-0.179	0.006
-226.713	-27.237	-0.319	-0.187
-225.698	315.862	-0.061	-0.116
-224.684	-64.787	0.167	0.068
-223.669	-22.957	-0.063	-0.038
-222.655	-28.831	0.217	-0.125
-221.640	-52.870	-0.172	0.080
-220.625	-101.316	-0.305	-0.075
-219.611	183.890	0.188	-0.280
-218.596	-48.864	0.017	-0.008
-217.582	302.115	-0.151	-0.280
-216.567	-94.245	0.255	0.070
-215.552	444.521	0.032	-0.071
-214.538	167.531	0.115	0.165
-213.523	-200.000	-0.021	0.331
-212.509	46.350	-0.179	0.167
-211.494	-55.472	-0.035	-0.016
-210.479	800.000	0.069	0.286
-209.465	-135.880	0.334	0.040
-208.450	-121.435	0.303	0.051
-207.436	-125.319	0.130	-0.020
-206.421	-200.000	0.002	0.165
-205.406	201.244	-0.028	0.043
-204.392	800.000	0.053	-0.190
-203.377	131.812	-0.104	-0.134
-202.363	-105.717	0.133	0.030
-201.348	-46.846	-0.446	0.219
-200.333	-78.190	0.114	-0.039
-199.319	54.386	-0.242	0.234
-198.304	30.467	0.074	-0.063
-197.290	-135.432	-0.154	0.018
-196.275	399.907	0.051	0.108
-195.260	800.000	-0.013	-0.047
-194.246	-100.491	0.102	-0.025
-193.231	-61.855	-0.190	0.080
-192.217	-41.989	0.282	-0.145
-191.202	-6.977	-0.146	0.100
-190.187	-141.644	0.057	0.006
-189.173	-58.995	-0.031	-0.013
-188.158	577.453	-0.108	-0.266
-187.144	39.763	0.142	-0.128
-186.129	-14.804	0.137	-0.088
-185.114	-132.541	-0.026	0.003
-184.100	178.250	0.130	-0.191
-183.085	-200.000	-0.041	-0.242
-182.071	47.286	0.025	0.024
-181.056	-200.000	0.043	0.306
-180.042	27.409	-0.112	-0.095
-179.027	-110.827	0.220	-0.046
-178.012	-78.670	-0.304	0.104
-176.998	-86.998	0.109	-0.033
-175.983	800.000	0.032	-0.125
-174.969	-40.383	0.384	-0.200
-173.954	-152.616	0.161	0.012
-172.939	164.996	-0.188	0.266
-171.925	34.320	0.072	-0.063
-170.910	120.826	-0.082	-0.102
-169.896	569.818	-0.133	0.325
-168.881	-200.000	0.002	-0.110
-167.866	-37.411	-0.154	0.082
-166.852	-58.044	-0.125	-0.055
-165.837	-40.162	-0.367	0.192
-164.823	143.487	0.119	0.158
-163.808	-99.487	-0.181	0.046
-162.793	-109.076	-0.413	-0.088
-161.779	160.586	0.145	-0.203
-160.764	-84.030	0.233	-0.074
-159.750	-46.275	0.316	0.156
-158.735	-169.449	0.213	0.008
-157.720	-32.822	-0.348	0.194
-156.706	24.768	0.130	-0.108
-155.691	-55.969	-0.079	0.035
-154.677	-164.351	0.148	0.007
-153.662	-200.000	-0.039	0.189
-152.647	74.643	0.122	-0.129
-151.633	-200.000	-0.036	-0.172
-150.618	0.752	-0.245	0.176
-149.604	92.990	-0.233	-0.264
-148.589	14.877	0.130	0.102
-147.574	2.479	-0.168	0.122
-146.560	-3.380	0.071	0.050
-145.545	-138.219	0.319	0.035
-144.531	-79.171	-0.068	0.023
-143.516	-121.209	0.218	0.037
-142.502	800.000	0.024	0.085
-141.487	269.973	0.046	0.081
-140.472	-75.842	0.085	0.030
-139.458	-35.238	0.312	-0.170
-138.443	22.313	-0.226	-0.185
-137.429	267.201	0.115	0.202
-136.414	-26.938	0.199	-0.117
-135.399	800.000	0.050	0.174
-134.385	-200.000	0.038	0.177
-133.370	800.000	0.038	-0.116
-132.356	-200.000	0.044	0.231
-131.341	93.505	-0.139	0.157
-130.326	-56.633	-0.091	0.040
-129.312	-88.215	0.117	0.035
-128.297	32.061	0.105	-0.091
-127.283	-200.000	-0.022	-0.148
-126.268	258.376	-0.136	0.234
-125.253	-74.025	-0.201	-0.073
-124.239	-200.000	0.010	-0.045
-123.224	-129.409	-0.122	-0.017
-122.210	-12.458	-0.257	-0.168
-121.195	-130.373	0.207	0.028
-120.180	-93.533	0.184	0.051
