DTS Sentinel unit serial number:	SN413079Multiplexer serial number:	ORYXHardware model number:	OX4-SRSoftware version number:	ORYX F/W v4.00 Oryx Data Collector v3.7.2.0data status	okinstallation	princeton_trtdifferential loss correction	single-endedforward channel	channel 4reverse channel	N/Adate	2019/09/15time	13:13:35forward acquisition time	60.00reverse acquisition time	0.00gamma	496.2192k internal	0.2293k external	0.2293temperature offset calibration	1.0003default loss term (dB/km)	0.3790temperature slope calibration	1.0000multiplexer offset coefficient	1.0000multiplexer slope coefficient	1.0000fibre end	0.00T internal ref (°C)	37.03T ext. ref 1 (°C)	4.95T ext. ref 2 (°C)	34.54length (m)	temperature (°C)	Stokes	anti-Stokes-747.200	-200.000	-0.019	-0.238
-746.185	-95.232	-0.236	0.065
-745.171	-87.500	0.375	-0.116
-744.156	-200.000	0.001	-0.124
-743.142	372.095	0.128	-0.266
-742.127	-86.864	-0.225	-0.070
-741.112	-80.450	-0.172	-0.059
-740.098	-52.966	0.146	0.069
-739.083	-160.811	-0.298	0.016
-738.069	-200.000	-0.023	0.226
-737.054	-116.967	0.130	-0.024
-736.039	185.254	0.161	-0.245
-735.025	175.306	0.134	-0.199
-734.010	-200.000	-0.031	-0.163
-732.996	-22.819	-0.368	0.227
-731.981	72.229	0.204	0.217
-730.966	69.319	-0.209	-0.220
-729.952	80.271	0.168	0.184
-728.937	-90.238	-0.269	0.080
-727.923	800.000	-0.117	0.450
-726.908	-200.000	-0.031	-0.223
-725.894	104.706	0.138	-0.166
-724.879	-170.162	-0.169	-0.006
-723.864	9.977	-0.299	0.233
-722.850	572.051	-0.105	-0.262
-721.835	-2.031	-0.206	-0.148
-720.821	-10.467	0.132	-0.089
-719.806	-180.817	-0.255	0.005
-718.791	318.239	-0.177	-0.342
-717.777	-111.203	-0.389	0.081
-716.762	-85.000	0.284	-0.091
-715.748	244.202	0.090	-0.155
-714.733	39.553	0.229	0.210
-713.718	87.519	0.132	-0.150
-712.704	-142.456	-0.183	0.018
-711.689	-0.350	-0.149	-0.108
-710.675	89.856	0.298	-0.340
-709.660	-95.587	-0.119	-0.033
-708.645	196.703	0.105	0.163
-707.631	-4.372	0.139	0.098
-706.616	-37.987	0.487	0.264
-705.602	-118.227	0.168	0.031
-704.587	48.323	0.116	-0.111
-703.572	325.998	-0.049	0.095
-702.558	-6.497	0.350	0.244
-701.543	678.265	0.072	0.192
-700.529	270.765	-0.097	-0.174
-699.514	-200.000	0.038	0.428
-698.499	800.000	-0.041	-0.176
-697.485	-200.000	0.012	-0.081
-696.470	121.186	-0.081	0.104
-695.456	-200.000	0.011	-0.130
-694.441	53.965	0.091	-0.090
-693.426	47.275	-0.212	-0.201
-692.412	-200.000	-0.070	-0.329
-691.397	-146.843	-0.482	-0.042
-690.383	524.538	-0.051	0.122
-689.368	751.222	0.082	0.226
-688.354	-124.844	0.088	-0.014
-687.339	-141.728	0.349	0.036
-686.324	95.569	-0.137	0.160
-685.310	128.845	-0.345	-0.449
-684.295	-172.467	-0.022	0.001
-683.281	-73.452	-0.369	0.138
-682.266	-9.260	0.132	-0.090
-681.251	-44.454	0.264	0.135
-680.237	-80.090	-0.216	0.074
-679.222	623.971	-0.106	-0.274
-678.208	136.543	0.136	0.181
-677.193	800.000	-0.055	-0.165
-676.178	55.516	0.302	-0.299
-675.164	800.000	0.026	0.098
-674.149	-188.761	-0.252	-0.003
-673.135	-118.290	-0.036	0.007
-672.120	412.321	-0.088	-0.190
-671.105	-200.000	0.001	0.130
-670.091	197.919	0.029	-0.045
-669.076	71.350	-0.170	0.180
-668.062	120.224	0.104	0.132
-667.047	-77.284	0.349	-0.124
-666.032	256.111	0.070	0.123
-665.018	-187.023	0.372	-0.005
-664.003	-23.812	-0.121	-0.074
-662.989	-91.459	0.050	0.015
-661.974	-176.718	-0.164	0.004
-660.959	-162.117	0.231	0.012
-659.945	-23.613	0.361	0.221
-658.930	-121.970	0.159	-0.027
-657.916	57.645	-0.216	-0.215
-656.901	-196.234	-0.259	-0.002
-655.886	800.000	-0.018	0.054
-654.872	-84.385	0.154	0.050
-653.857	213.276	0.028	-0.045
-652.843	-89.542	0.212	-0.063
-651.828	70.571	-0.466	-0.491
-650.814	-59.732	0.130	-0.057
-649.799	17.806	-0.432	-0.351
-648.784	800.000	0.032	0.090
-647.770	279.126	-0.190	0.346
-646.755	-106.347	-0.070	0.016
-645.741	-99.859	-0.229	-0.058
-644.726	-110.907	0.170	-0.036
-643.711	-200.000	0.011	-0.410
-642.697	24.990	-0.131	0.111
-641.682	44.596	-0.081	-0.075
-640.668	221.084	0.135	-0.222
-639.653	-200.000	0.011	-0.191
-638.638	800.000	-0.050	-0.166
-637.624	62.700	-0.158	0.161
-636.609	-63.020	-0.127	0.054
-635.595	349.833	0.077	0.155
-634.580	-54.629	0.103	-0.047
-633.565	360.279	0.158	-0.322
-632.551	-200.000	-0.033	-0.238
-631.536	163.990	-0.199	-0.285
-630.522	720.096	0.060	-0.163
-629.507	239.179	0.113	0.192
-628.492	-21.075	-0.085	0.053
-627.478	277.767	0.110	0.199
-626.463	-130.901	-0.156	-0.021
-625.449	40.431	0.235	-0.215
-624.434	-123.660	-0.204	-0.033
-623.419	-200.000	-0.000	-0.348
-622.405	-116.731	-0.282	-0.053
-621.390	57.076	-0.059	0.058
-620.376	800.000	0.026	-0.115
-619.361	665.923	-0.049	-0.128
-618.346	-133.067	0.070	-0.009
-617.332	-66.676	-0.191	-0.077
-616.317	-36.438	-0.141	0.077
-615.303	800.000	-0.071	-0.245
-614.288	-79.904	0.017	-0.006
-613.273	185.295	-0.183	-0.276
-612.259	173.279	0.160	0.234
-611.244	15.110	-0.090	0.072
-610.230	88.141	0.027	0.031
-609.215	800.000	-0.087	-0.249
-608.201	-79.836	-0.211	-0.072
-607.186	800.000	-0.104	0.455
-606.171	25.357	-0.131	0.111
-605.157	-89.242	0.049	-0.015
-604.142	6.720	0.039	-0.030
-603.128	-76.556	-0.187	0.067
-602.113	57.071	-0.054	-0.054
-601.098	-42.342	0.336	-0.174
-600.084	-115.416	0.096	0.018
-599.069	-200.000	-0.009	0.329
-598.055	272.568	-0.121	0.217
-597.040	800.000	-0.018	0.052
-596.025	-117.772	0.072	0.013
-595.011	156.501	0.207	-0.291
-593.996	-75.543	0.234	0.085
-592.982	800.000	0.088	0.300
-591.967	-200.000	0.037	-0.299
-590.952	-102.291	0.055	-0.013
-589.938	22.075	-0.050	-0.041
-588.923	800.000	0.025	0.098
-587.909	-77.117	0.166	-0.059
-586.894	130.373	-0.110	0.144
-585.879	-0.233	0.135	0.097
-584.865	-200.000	0.041	-0.279
-583.850	118.159	-0.265	-0.332
-582.836	-2.580	0.160	0.114
-581.821	-200.000	0.010	-0.237
-580.806	585.191	-0.118	-0.295
-579.792	-116.245	0.154	0.029
-578.777	9.465	-0.247	-0.190
-577.763	455.144	0.029	0.064
-576.748	-91.212	-0.226	0.066
-575.733	-173.606	0.216	-0.007
-574.719	540.488	-0.122	-0.296
-573.704	273.683	0.118	-0.212
-572.690	386.401	0.090	-0.190
-571.675	-16.151	-0.308	0.199
-570.661	98.654	-0.137	0.160
-569.646	800.000	-0.038	-0.152
-568.631	-125.784	0.243	-0.037
-567.617	-6.081	-0.210	-0.146
-566.602	-200.000	0.003	-0.066
-565.588	-200.000	0.023	-0.160
-564.573	800.000	0.060	-0.238
-563.558	320.800	0.139	0.269
-562.544	-135.570	0.236	0.029
-561.529	-75.834	-0.414	-0.149
-560.515	-18.559	0.262	-0.166
-559.500	221.252	0.017	0.028
-558.485	382.614	-0.029	-0.060
-557.471	113.526	-0.271	-0.334
-556.456	-157.324	0.373	-0.023
-555.442	48.014	-0.201	-0.191
-554.427	348.932	-0.104	-0.209
-553.412	207.656	-0.077	-0.122
-552.398	-152.009	-0.152	0.011
-551.383	-104.720	0.042	0.010
-550.369	182.937	-0.104	-0.155
-549.354	-97.985	-0.208	0.054
-548.339	-161.262	-0.207	0.011
-547.325	215.937	-0.071	-0.114
-546.310	-42.487	-0.530	0.274
-545.296	261.449	0.122	-0.215
-544.281	-89.982	-0.181	-0.054
-543.266	800.000	0.032	-0.129
-542.252	279.698	0.179	-0.325
-541.237	204.565	0.098	0.154
-540.223	18.588	0.417	0.338
-539.208	-47.294	0.306	0.151
-538.193	-200.000	0.009	-0.153
-537.179	-200.000	-0.027	-0.189
-536.164	-62.634	0.236	-0.099
-535.150	271.556	0.036	-0.064
-534.135	-200.000	-0.003	0.111
-533.121	27.666	-0.051	-0.043
-532.106	12.924	-0.435	-0.342
-531.091	61.293	0.113	-0.114
-530.077	800.000	0.017	-0.065
-529.062	-32.995	-0.200	0.112
-528.048	-44.980	0.157	0.079
-527.033	54.304	-0.281	-0.274
-526.018	-200.000	0.017	-0.162
-525.004	342.384	0.135	-0.267
-523.989	186.964	-0.104	-0.158
-522.975	800.000	0.048	-0.195
-521.960	140.249	-0.152	-0.204
-520.945	326.648	0.017	-0.033
-519.931	-22.276	-0.406	0.249
-518.916	44.671	0.149	-0.139
-517.902	-63.450	0.241	-0.101
-516.887	-148.500	-0.173	0.014
-515.872	-77.771	0.083	0.029
-514.858	-37.268	0.142	-0.077
-513.843	115.947	0.181	-0.225
-512.829	8.348	0.303	0.231
-511.814	-56.316	-0.329	-0.148
-510.799	770.568	0.080	-0.222
-509.785	-200.000	-0.001	-0.289
-508.770	438.456	0.088	-0.196
-507.756	-200.000	0.008	-0.118
-506.741	347.497	0.020	-0.039
-505.726	-200.000	0.165	0.000
-504.712	22.934	-0.056	0.046
-503.697	12.860	0.170	0.133
-502.683	-93.698	0.355	-0.099
-501.668	-83.384	0.290	-0.094
-500.653	-189.101	0.020	0.000
-499.639	220.639	0.039	-0.064
-498.624	-111.154	-0.208	0.043
-497.610	148.664	-0.100	0.137
-496.595	-69.176	0.279	0.109
-495.581	800.000	0.058	-0.222
-494.566	-200.000	-0.039	-0.197
-493.551	223.391	-0.137	0.224
-492.537	-200.000	-0.011	-0.133
-491.522	-6.956	-0.144	0.099
-490.508	800.000	-0.062	-0.174
-489.493	800.000	0.037	0.106
-488.478	-200.000	-0.008	-0.165
-487.464	-200.000	-0.022	0.183
-486.449	800.000	-0.122	0.406
-485.435	800.000	-0.005	0.020
-484.420	-43.591	-0.024	-0.012
-483.405	-122.775	0.141	0.023
-482.391	-94.096	0.067	-0.019
-481.376	-152.463	-0.080	-0.006
-480.362	222.850	0.125	-0.205
-479.347	97.538	-0.223	0.260
-478.332	-61.017	-0.130	0.056
-477.318	-103.174	0.160	-0.038
-476.303	-200.000	0.017	0.143
-475.289	-58.834	-0.277	-0.121
-474.274	93.338	-0.116	-0.133
-473.259	217.001	-0.048	0.078
-472.245	-126.093	-0.276	-0.042
-471.230	-35.781	0.202	0.111
-470.216	185.895	0.145	0.218
-469.201	-161.452	0.210	0.011
-468.186	800.000	-0.060	0.213
-467.172	49.759	-0.120	-0.115
-466.157	-200.000	0.016	-0.083
-465.143	-49.621	-0.175	-0.084
-464.128	159.148	0.181	-0.255
-463.113	100.324	-0.095	0.111
-462.099	-200.000	0.029	0.187
-461.084	-2.537	0.118	0.084
-460.070	-151.488	0.217	0.016
-459.055	800.000	-0.054	0.172
-458.040	-133.830	-0.194	0.024
-457.026	69.568	-0.122	-0.127
-456.011	-146.283	0.522	-0.046
-454.997	-200.000	0.015	-0.211
-453.982	-71.714	-0.197	-0.074
-452.968	-200.000	0.008	0.149
-451.953	142.696	0.039	0.053
-450.938	151.421	-0.171	-0.235
-449.924	-53.501	-0.228	0.105
-448.909	-35.321	0.142	-0.078
-447.895	-167.362	0.068	0.003
-446.880	222.246	-0.121	-0.196
-445.865	-120.351	-0.357	-0.061
-444.851	-60.716	-0.204	0.087
-443.836	-200.000	0.024	-0.228
-442.822	-167.871	0.282	0.011
-441.807	-128.274	-0.143	-0.021
-440.792	-75.953	0.186	-0.067
-439.778	-200.000	-0.031	-0.305
-438.763	598.558	0.022	0.055
-437.749	-77.282	0.266	-0.094
-436.734	338.585	0.081	0.159
-435.719	40.935	-0.065	0.060
-434.705	96.358	-0.230	0.266
-433.690	-43.815	0.310	0.158
-432.676	-106.951	-0.066	-0.015
-431.661	-130.578	0.269	0.037
-430.646	116.059	0.209	0.259
-429.632	-200.000	-0.003	0.230
-428.617	518.224	0.172	0.407
-427.603	-25.861	-0.121	-0.072
-426.588	-200.000	-0.028	0.145
-425.573	129.067	0.055	0.071
-424.559	37.696	0.140	0.125
-423.544	-102.347	-0.182	0.044
-422.530	59.730	-0.201	0.200
-421.515	-27.782	-0.192	-0.112
-420.500	800.000	-0.085	0.238
-419.486	800.000	0.073	0.218
-418.471	-76.240	-0.350	-0.125
-417.457	-58.266	-0.163	0.072
-416.442	-200.000	-0.007	0.155
-415.428	-1.701	0.133	0.094
-414.413	-55.597	-0.208	0.094
-413.398	800.000	0.084	0.297
-412.384	-58.737	0.289	-0.126
-411.369	800.000	-0.078	0.294
-410.355	-22.618	-0.121	-0.074
-409.340	23.969	0.249	-0.207
-408.325	-173.668	0.387	0.012
-407.311	17.911	-0.139	-0.112
-406.296	418.834	-0.078	-0.168
-405.282	-43.443	0.171	0.087
-404.267	252.931	-0.135	-0.232
-403.252	-200.000	-0.011	0.176
-402.238	-200.000	0.037	0.218
-401.223	259.559	-0.103	-0.180
-400.209	385.244	-0.064	-0.132
-399.194	48.369	0.171	0.162
-398.179	800.000	-0.035	0.107
-397.165	-200.000	-0.006	-0.180
-396.150	72.347	0.106	0.112
-395.136	-5.625	-0.168	-0.117
-394.121	-94.100	0.124	-0.034
-393.106	142.830	-0.098	0.132
-392.092	-104.325	-0.204	0.048
-391.077	-40.785	-0.034	-0.018
-390.063	700.286	-0.129	-0.344
-389.048	800.000	-0.070	0.246
-388.033	613.955	0.152	-0.384
-387.019	-73.932	-0.168	-0.061
-386.004	-98.993	0.090	-0.023
-384.990	-23.237	-0.194	-0.118
-383.975	204.993	-0.216	0.339
-382.960	-96.085	-0.127	-0.034
-381.946	67.979	0.271	-0.279
-380.931	50.466	-0.148	-0.141
-379.917	20.733	0.164	-0.134
-378.902	-49.462	0.245	-0.118
-377.888	-70.814	0.244	-0.093
-376.873	-200.000	-0.043	0.298
-375.858	-90.974	-0.193	0.056
-374.844	-28.526	-0.276	-0.160
-373.829	-104.915	-0.041	-0.010
-372.815	-200.000	0.001	-0.408
-371.800	170.934	-0.145	-0.209
-370.785	-10.932	-0.443	0.295
-369.771	-200.000	-0.007	-0.145
-368.756	800.000	-0.011	0.046
-367.742	-88.151	0.194	0.059
-366.727	178.529	-0.160	-0.235
-365.712	450.957	-0.119	0.265
-364.698	-104.971	0.108	0.025
-363.683	800.000	-0.085	0.312
-362.669	-200.000	0.000	0.065
-361.654	-200.000	0.017	-0.243
-360.639	-200.000	0.028	0.195
-359.625	-200.000	0.078	0.400
-358.610	-92.505	-0.170	-0.048
-357.596	800.000	0.019	-0.070
-356.581	-169.707	-0.198	0.007
-355.566	-200.000	-0.007	-0.253
-354.552	-200.000	0.441	0.000
-353.537	8.052	-0.164	0.124
-352.523	-24.817	-0.271	0.162
-351.508	-200.000	0.000	0.122
-350.493	127.000	-0.018	-0.023
-349.479	118.955	0.452	0.564
-348.464	-200.000	0.022	0.107
-347.450	184.520	0.218	0.326
-346.435	514.569	-0.110	0.258
-345.420	-96.222	0.256	0.068
-344.406	-200.000	-0.007	-0.202
-343.391	198.624	-0.115	-0.177
-342.377	-200.000	0.028	0.279
-341.362	139.176	-0.155	0.206
-340.348	-3.399	-0.027	-0.019
-339.333	153.599	-0.246	0.340
-338.318	181.420	0.140	0.208
-337.304	800.000	-0.016	-0.047
-336.289	-161.600	0.351	-0.018
-335.275	792.521	-0.043	0.119
-334.260	800.000	-0.012	0.052
-333.245	800.000	0.048	-0.179
-332.231	-200.000	0.004	-0.056
-331.216	-200.000	0.067	-0.304
-330.202	-200.000	-0.055	-0.265
-329.187	-83.827	0.055	-0.018
-328.172	69.972	0.105	-0.109
-327.158	3.290	0.148	-0.108
-326.143	-200.000	0.010	-0.362
-325.129	800.000	0.069	0.241
-324.114	225.477	0.142	0.232
-323.099	-146.968	0.321	-0.028
-322.085	124.188	0.155	-0.196
-321.070	800.000	0.082	-0.350
-320.056	-126.625	-0.185	-0.028
-319.041	223.710	0.058	0.095
-318.026	-128.582	-0.190	0.027
-317.012	28.557	0.020	0.017
-315.997	-3.934	0.142	-0.099
-314.983	-200.000	-0.023	-0.126
-313.968	57.445	-0.180	-0.176
-312.953	-36.080	-0.313	-0.170
-311.939	-200.000	-0.043	0.313
-310.924	164.676	-0.128	0.181
-309.910	239.390	0.064	0.107
-308.895	240.554	0.142	0.238
-307.880	-200.000	-0.037	0.165
-306.866	256.380	0.073	-0.125
-305.851	122.712	-0.087	-0.109
-304.837	-200.000	-0.028	-0.185
-303.822	71.279	0.080	-0.084
-302.807	-194.135	-0.355	0.003
-301.793	800.000	-0.072	0.271
-300.778	-103.391	-0.186	0.044
-299.764	-40.474	0.002	0.001
-298.749	-200.000	0.002	0.260
-297.735	-118.552	-0.075	0.013
-296.720	-97.865	0.253	0.066
-295.705	-200.000	-0.008	0.061
-294.691	800.000	-0.037	-0.121
-293.676	172.925	0.166	-0.241
-292.662	44.547	-0.167	0.154
-291.647	-148.668	0.353	0.029
-290.632	-151.531	-0.361	-0.027
-289.618	-90.445	0.113	0.033
-288.603	-200.000	-0.025	0.116
-287.589	64.156	-0.272	-0.275
-286.574	-5.286	0.294	0.203
-285.559	371.754	0.140	0.285
-284.545	-1.437	-0.230	0.163
-283.530	144.407	-0.193	0.259
-282.516	486.005	-0.105	0.242
-281.501	52.700	-0.091	0.088
-280.486	-10.959	-0.131	-0.087
-279.472	183.219	0.238	0.353
-278.457	-200.000	0.023	-0.179
-277.443	118.692	0.137	0.170
-276.428	-200.000	-0.021	-0.200
-275.413	-158.049	0.272	-0.016
-274.399	-200.000	-0.051	0.000
-273.384	-2.452	0.275	-0.193
-272.370	-47.418	0.240	-0.117
-271.355	-200.000	0.001	0.004
-270.340	-11.022	-0.269	-0.179
-269.326	245.824	-0.087	0.148
-268.311	213.355	-0.035	-0.055
-267.297	-82.733	0.346	-0.113
-266.282	258.035	0.077	-0.133
-265.267	57.240	-0.140	-0.137
-264.253	33.997	0.131	0.115
-263.238	172.555	0.017	0.024
-262.224	-200.000	-0.448	0.002
-261.209	-29.547	0.486	0.279
-260.195	4.080	-0.072	-0.053
-259.180	732.227	0.102	-0.273
-258.165	101.486	0.056	0.066
-257.151	800.000	0.113	0.464
-256.136	484.997	0.045	0.103
-255.122	-89.621	-0.171	-0.050
-254.107	-41.822	0.204	0.105
-253.092	-88.728	0.172	0.051
-252.078	314.081	0.078	0.147
-251.063	18.847	0.074	0.060
-250.049	553.887	-0.038	0.091
-249.034	-1.531	-0.096	0.068
-248.019	102.364	0.135	-0.158
-247.005	-24.222	0.124	-0.074
-245.990	-55.294	0.236	-0.107
-244.976	-15.429	-0.119	0.076
-243.961	800.000	0.096	0.269
-242.946	-200.000	-0.049	0.228
-241.932	143.917	-0.072	-0.096
-240.917	448.671	-0.105	-0.232
-239.903	122.242	-0.050	0.063
-238.888	-200.000	0.041	0.312
-237.873	93.589	0.208	0.237
-236.859	-200.000	-0.054	0.272
-235.844	-64.179	-0.178	-0.073
-234.830	800.000	0.029	-0.116
-233.815	800.000	0.123	0.352
-232.800	-27.591	0.179	0.104
-231.786	35.646	0.285	0.251
-230.771	-200.000	-0.007	0.103
-229.757	260.989	0.142	0.246
-228.742	-11.168	-0.190	0.126
-227.727	21.586	-0.157	-0.128
-226.713	-165.185	-0.256	0.011
-225.698	-24.355	0.190	-0.114
-224.684	98.029	0.045	0.052
-223.669	2.106	0.188	-0.136
-222.655	-200.000	-0.018	0.087
-221.640	218.481	0.115	-0.184
-220.625	-45.799	0.396	-0.196
-219.611	-22.621	-0.143	0.086
-218.596	112.567	-0.095	-0.115
-217.582	201.709	0.073	-0.113
-216.567	453.707	-0.125	0.277
-215.552	-200.000	0.068	-0.364
-214.538	-130.435	-0.198	-0.027
-213.523	128.005	0.173	0.221
-212.509	288.747	0.057	0.104
-211.494	-98.102	0.348	-0.090
-210.479	800.000	-0.071	-0.247
-209.465	-200.000	-0.075	0.415
-208.450	33.278	0.157	0.136
-207.436	159.827	-0.075	0.105
-206.421	-115.229	0.167	0.032
-205.406	108.107	-0.202	0.241
-204.392	15.684	0.352	0.277
-203.377	-45.537	-0.099	-0.049
-202.363	800.000	-0.078	-0.233
-201.348	67.272	-0.168	-0.171
-200.333	5.809	0.258	0.191
-199.319	580.852	0.092	0.225
-198.304	628.134	0.166	0.420
-197.290	-24.883	-0.088	0.053
-196.275	162.894	0.080	0.113
-195.260	800.000	0.109	0.315
-194.246	-10.420	0.221	0.147
-193.231	308.462	-0.152	0.283
-192.217	14.451	0.017	-0.014
-191.202	-42.833	0.345	0.176
-190.187	-200.000	-0.005	-0.135
-189.173	-124.648	-0.039	-0.006
-188.158	800.000	0.053	0.195
-187.144	-41.636	0.308	-0.158
-186.129	57.374	-0.171	-0.167
-185.114	800.000	-0.017	0.058
-184.100	-200.000	0.029	-0.129
-183.085	24.426	-0.308	-0.255
-182.071	-200.000	-0.368	0.001
-181.056	-27.472	0.114	-0.066
-180.042	55.090	-0.147	0.142
-179.027	800.000	0.098	0.345
-178.012	292.786	-0.008	-0.014
-176.998	284.518	0.116	-0.209
-175.983	145.016	-0.089	-0.119
-174.969	359.174	0.068	-0.137
-173.954	16.698	0.119	0.094
-172.939	336.210	-0.107	-0.208
-171.925	-76.779	-0.226	0.079
-170.910	-106.582	-0.095	0.021
-169.896	520.557	0.065	-0.152
-168.881	13.985	-0.232	0.181
-167.866	145.793	0.169	-0.227
-166.852	-134.830	0.331	0.040
-165.837	-100.738	-0.084	-0.021
-164.823	196.255	0.029	-0.044
-163.808	800.000	0.031	0.097
-162.793	-109.181	0.211	0.045
-161.779	-60.671	-0.096	-0.041
-160.764	227.932	0.060	-0.097
-159.750	480.247	-0.054	0.122
-158.735	800.000	0.060	0.216
-157.720	182.256	0.042	-0.062
-156.706	-94.377	-0.358	0.098
-155.691	37.080	-0.265	-0.235
-154.677	602.346	-0.043	0.106
-153.662	161.088	-0.205	0.286
-152.647	800.000	0.069	-0.241
-151.633	-200.000	0.006	0.172
-150.618	27.778	-0.139	0.117
-149.604	294.406	0.098	-0.180
-148.589	-136.070	-0.052	0.006
-147.574	353.276	0.137	0.273
-146.560	119.046	0.093	0.115
-145.545	800.000	-0.070	0.215
-144.531	37.275	0.084	0.074
-143.516	-200.000	-0.068	0.506
-142.502	-151.341	0.214	0.016
-141.487	305.461	-0.125	0.231
-140.472	-200.000	0.016	0.250
-139.458	-200.000	0.028	0.200
-138.443	613.251	-0.078	-0.195
-137.429	-200.000	0.010	0.110
-136.414	-42.446	-0.193	-0.098
-135.399	-66.481	-0.119	0.047
-134.385	-57.643	-0.110	-0.048
-133.370	800.000	-0.036	0.147
-132.356	800.000	0.092	0.307
-131.341	-11.642	-0.054	0.036
-130.326	89.497	0.263	0.293
-129.312	-44.130	0.196	-0.098
-128.297	-122.578	0.350	0.057
-127.283	800.000	0.060	0.231
-126.268	-99.313	-0.225	-0.057
-125.253	17.052	-0.189	0.150
-124.239	-200.000	0.001	-0.136
-123.224	800.000	0.048	-0.175
-122.210	-13.216	-0.057	0.037
-121.195	-200.000	0.010	0.103
