DTS Sentinel unit serial number:	SN413079Multiplexer serial number:	ORYXHardware model number:	OX4-SRSoftware version number:	ORYX F/W v4.00 Oryx Data Collector v3.7.2.0data status	okinstallation	princeton_trtdifferential loss correction	single-endedforward channel	channel 4reverse channel	N/Adate	2019/09/19time	00:29:35forward acquisition time	60.00reverse acquisition time	0.00gamma	496.2192k internal	0.2338k external	0.2338temperature offset calibration	1.0029default loss term (dB/km)	0.3790temperature slope calibration	1.0000multiplexer offset coefficient	1.0000multiplexer slope coefficient	1.0000fibre end	0.00T internal ref (°C)	22.50T ext. ref 1 (°C)	0.74T ext. ref 2 (°C)	15.40length (m)	temperature (°C)	Stokes	anti-Stokes-747.200	189.587	-0.027	-0.040
-746.185	133.492	0.203	-0.264
-745.171	-181.153	-0.117	-0.002
-744.156	800.000	-0.164	0.501
-743.142	175.377	-0.090	-0.131
-742.127	-200.000	0.001	-0.358
-741.112	-15.648	-0.046	0.030
-740.098	445.671	-0.122	0.268
-739.083	63.161	-0.070	-0.070
-738.069	-200.000	-0.004	0.023
-737.054	-200.000	0.014	0.143
-736.039	-32.067	-0.129	-0.073
-735.025	-200.000	0.004	0.081
-734.010	92.669	-0.179	-0.203
-732.996	-200.000	0.045	-0.238
-731.981	-53.592	-0.385	0.176
-730.966	-107.218	0.118	0.026
-729.952	302.984	-0.014	-0.027
-728.937	141.877	0.021	-0.028
-727.923	444.706	-0.136	0.299
-726.908	292.521	0.030	0.055
-725.894	162.270	-0.115	0.161
-724.879	6.057	-0.186	0.138
-723.864	62.587	-0.108	-0.108
-722.850	-200.000	-0.042	-0.405
-721.835	800.000	0.018	-0.063
-720.821	-87.859	-0.213	-0.064
-719.806	16.845	-0.518	-0.411
-718.791	44.591	0.342	-0.315
-717.777	-200.000	0.049	-0.226
-716.762	174.753	0.206	-0.298
-715.748	-200.000	-0.046	0.218
-714.733	329.316	-0.192	-0.369
-713.718	92.846	-0.172	-0.195
-712.704	-200.000	0.005	0.093
-711.689	-178.492	-0.127	0.003
-710.675	-200.000	-0.008	-0.192
-709.660	453.114	0.147	0.326
-708.645	-200.000	-0.004	-0.202
-707.631	349.141	-0.101	-0.200
-706.616	-75.851	-0.101	0.036
-705.602	-92.317	0.132	0.037
-704.587	-200.000	0.037	-0.209
-703.572	-131.873	-0.207	-0.027
-702.558	11.652	-0.241	0.185
-701.543	-96.963	0.238	0.063
-700.529	-11.263	-0.192	0.127
-699.514	93.839	0.164	0.187
-698.499	-200.000	-0.069	-0.439
-697.485	353.547	0.194	0.386
-696.470	-140.911	-0.272	-0.028
-695.456	-60.354	0.075	0.032
-694.441	-133.411	-0.414	-0.052
-693.426	-117.944	0.387	-0.069
-692.412	614.528	-0.050	0.125
-691.397	-200.000	0.005	0.183
-690.383	-200.000	0.004	-0.238
-689.368	-98.997	0.205	-0.052
-688.354	-20.023	-0.223	0.138
-687.339	468.098	0.164	0.369
-686.324	156.455	-0.225	-0.311
-685.310	-164.657	-0.393	-0.018
-684.295	12.038	0.162	0.125
-683.281	-131.310	0.091	-0.012
-682.266	267.294	0.045	0.080
-681.251	74.649	-0.207	0.218
-680.237	536.454	0.080	-0.191
-679.222	-173.565	0.128	0.004
-678.208	-73.743	0.084	-0.031
-677.193	271.774	0.233	0.412
-676.178	-32.217	-0.107	-0.060
-675.164	25.659	0.145	0.121
-674.149	552.594	-0.052	-0.124
-673.135	146.264	0.073	0.098
-672.120	-73.463	-0.104	0.038
-671.105	-21.857	-0.155	-0.094
-670.091	-200.000	0.002	0.117
-669.076	800.000	-0.081	0.225
-668.062	28.206	0.098	0.083
-667.047	-44.121	-0.106	0.053
-666.032	-11.741	0.102	-0.067
-665.018	800.000	-0.044	0.166
-664.003	-12.871	-0.286	-0.186
-662.989	68.104	-0.095	0.097
-661.974	-117.030	-0.289	0.053
-660.959	36.927	0.101	0.089
-659.945	800.000	-0.031	-0.136
-658.930	-92.741	0.279	0.078
-657.916	129.929	0.053	-0.068
-656.901	-61.536	0.328	-0.138
-655.886	800.000	-0.068	-0.189
-654.872	-200.000	-0.017	-0.185
-653.857	-40.235	0.256	-0.133
-652.843	200.469	-0.159	0.245
-651.828	-92.462	-0.246	-0.069
-650.814	800.000	0.049	-0.205
-649.799	100.911	-0.088	-0.102
-648.784	44.024	-0.070	-0.064
-647.770	-115.101	0.240	0.046
-646.755	-200.000	0.013	-0.223
-645.741	-200.000	0.003	-0.216
-644.726	-47.861	0.062	-0.030
-643.711	800.000	0.101	0.373
-642.697	-4.098	-0.176	0.122
-641.682	90.459	0.074	-0.082
-640.668	-200.000	0.002	-0.443
-639.653	104.336	-0.202	-0.238
-638.638	109.832	0.049	-0.059
-637.624	37.207	0.179	0.158
-636.609	-13.438	0.147	-0.095
-635.595	93.183	-0.062	0.070
-634.580	-129.978	-0.111	-0.015
-633.565	-199.271	-0.230	0.001
-632.551	-200.000	0.030	0.396
-631.536	-200.000	-0.045	-0.298
-630.522	42.368	-0.101	-0.092
-629.507	-44.677	0.280	-0.139
-628.492	800.000	-0.044	0.191
-627.478	-37.195	0.226	-0.121
-626.463	-159.532	0.184	0.010
-625.449	-200.000	-0.063	-0.278
-624.434	167.646	0.124	0.176
-623.419	591.672	0.055	0.135
-622.405	-200.000	-0.028	-0.154
-621.390	3.765	-0.181	-0.132
-620.376	-200.000	-0.007	-0.221
-619.361	-162.013	0.164	-0.008
-618.346	-200.000	0.029	-0.294
-617.332	218.659	0.081	0.129
-616.317	659.497	0.091	-0.233
-615.303	-9.287	0.343	-0.229
-614.288	-75.885	-0.239	-0.084
-613.273	-67.360	0.193	0.076
-612.259	-132.797	-0.330	-0.042
-611.244	-200.000	0.038	-0.170
-610.230	-70.449	-0.089	-0.034
-609.215	102.748	0.103	0.120
-608.201	33.036	-0.206	0.178
-607.186	83.173	0.241	0.261
-606.171	244.967	0.076	-0.127
-605.157	72.530	-0.134	0.140
-604.142	-102.420	0.166	-0.040
-603.128	-132.237	0.388	0.050
-602.113	-200.000	0.003	0.052
-601.098	-96.957	0.135	-0.035
-600.084	296.323	-0.107	-0.195
-599.069	-54.951	0.156	0.070
-598.055	-123.198	-0.428	0.068
-597.040	-200.000	0.008	-0.047
-596.025	214.652	-0.041	-0.065
-595.011	-95.160	0.088	0.024
-593.996	-10.414	-0.087	0.057
-592.982	-110.390	0.335	-0.069
-591.967	-200.000	0.012	0.208
-590.952	-48.329	-0.162	0.078
-589.938	-200.000	0.037	0.328
-588.923	138.584	0.026	0.034
-587.909	158.672	-0.058	-0.080
-586.894	-150.034	-0.233	0.018
-585.879	232.872	0.101	-0.165
-584.865	800.000	-0.008	-0.034
-583.850	521.160	-0.084	-0.196
-582.836	-83.864	0.360	-0.114
-581.821	-200.000	-0.052	-0.312
-580.806	753.543	0.105	-0.282
-579.792	-200.000	0.050	-0.364
-578.777	-200.000	-0.025	-0.299
-577.763	148.840	-0.096	0.130
-576.748	800.000	-0.111	0.413
-575.733	-28.801	-0.206	0.118
-574.719	-95.530	-0.389	0.104
-573.704	800.000	-0.019	0.066
-572.690	-75.496	-0.224	0.080
-571.675	504.778	-0.041	-0.096
-570.661	-200.000	0.099	-0.442
-569.646	-200.000	0.001	-0.064
-568.631	-97.453	0.126	-0.033
-567.617	800.000	0.087	-0.278
-566.602	16.397	-0.248	0.195
-565.588	86.388	-0.195	0.214
-564.573	800.000	0.070	0.211
-563.558	-111.362	0.164	-0.033
-562.544	-200.000	-0.086	-0.520
-561.529	144.233	-0.092	-0.122
-560.515	-128.225	-0.233	0.033
-559.500	-200.000	0.011	0.208
-558.485	800.000	0.072	0.307
-557.471	800.000	-0.152	0.474
-556.456	118.470	0.025	-0.030
-555.442	800.000	-0.109	-0.447
-554.427	234.850	0.152	-0.249
-553.412	309.466	0.097	-0.180
-552.398	390.330	-0.049	0.101
-551.383	-122.174	-0.155	0.025
-550.369	108.856	0.275	-0.328
-549.354	800.000	-0.076	-0.266
-548.339	-75.553	0.388	0.138
-547.325	423.116	0.034	-0.073
-546.310	800.000	-0.066	-0.252
-545.296	-200.000	0.002	-0.324
-544.281	-200.000	0.064	-0.289
-543.266	800.000	-0.081	-0.288
-542.252	705.413	-0.173	-0.456
-541.237	-38.415	-0.144	0.076
-540.223	-186.292	-0.101	-0.001
-539.208	27.736	-0.132	-0.110
-538.193	800.000	0.084	0.347
-537.179	800.000	0.021	0.078
-536.164	-112.810	-0.446	-0.088
-535.150	-200.000	-0.018	-0.158
-534.135	459.888	-0.059	0.130
-533.121	86.998	-0.153	-0.168
-532.106	-136.852	-0.279	0.032
-531.091	800.000	-0.066	0.242
-530.077	64.272	0.150	-0.150
-529.062	800.000	-0.072	-0.257
-528.048	84.065	0.132	0.144
-527.033	-82.287	0.297	0.096
-526.018	45.710	-0.126	-0.116
-525.004	-101.906	-0.070	-0.017
-523.989	800.000	0.048	-0.189
-522.975	-200.000	0.039	0.233
-521.960	-40.201	-0.154	-0.080
-520.945	720.850	0.089	0.236
-519.931	-71.400	-0.144	0.054
-518.916	395.162	-0.127	0.264
-517.902	-200.000	-0.004	0.111
-516.887	131.331	0.119	-0.152
-515.872	-123.645	0.229	-0.036
-514.858	391.250	0.092	-0.189
-513.843	-84.901	-0.103	-0.032
-512.829	-170.997	-0.316	-0.011
-511.814	-89.995	-0.248	-0.072
-510.799	-60.556	0.334	0.141
-509.785	-13.651	0.051	0.033
-508.770	-200.000	0.042	0.248
-507.756	9.306	-0.156	-0.118
-506.741	-99.970	0.506	-0.126
-505.726	12.069	-0.425	0.325
-504.712	-200.000	-0.032	0.180
-503.697	-200.000	0.016	0.172
-502.683	-200.000	-0.004	0.319
-501.668	800.000	-0.072	0.217
-500.653	-200.000	-0.061	-0.281
-499.639	-200.000	-0.000	0.130
-498.624	-30.049	-0.223	-0.126
-497.610	190.464	-0.048	0.072
-496.595	-102.464	-0.178	-0.042
-495.581	-200.000	0.017	0.205
-494.566	-184.055	-0.124	0.002
-493.551	-39.990	-0.057	0.030
-492.537	-97.203	0.321	-0.083
-491.522	134.012	-0.051	0.065
-490.508	-92.986	-0.161	-0.045
-489.493	-112.710	-0.122	0.024
-488.478	-74.864	0.265	0.095
-487.464	99.734	-0.098	-0.113
-486.449	470.178	-0.136	-0.303
-485.435	-200.000	-0.036	0.355
-484.420	86.454	0.194	-0.213
-483.405	-90.460	-0.129	-0.037
-482.391	220.639	0.234	0.372
-481.376	-107.547	-0.220	-0.048
-480.362	-47.053	-0.199	0.096
-479.347	459.794	0.047	0.103
-478.332	-49.989	0.057	-0.027
-477.318	-200.000	0.306	-0.000
-476.303	555.482	0.204	0.487
-475.289	800.000	0.108	-0.300
-474.274	120.300	-0.292	-0.360
-473.259	-101.397	0.049	-0.012
-472.245	39.483	-0.081	-0.072
-471.230	-158.390	-0.177	-0.010
-470.216	-200.000	0.038	-0.532
-469.201	-47.069	0.135	0.066
-468.186	340.048	-0.100	-0.194
-467.172	-15.203	-0.205	0.130
-466.157	-29.515	-0.154	0.087
-465.143	-66.891	-0.356	0.140
-464.128	-200.000	-0.044	-0.225
-463.113	-97.199	-0.374	-0.097
-462.099	-43.546	-0.249	0.125
-461.084	-200.000	-0.004	0.029
-460.070	69.339	0.270	-0.275
-459.055	800.000	-0.038	0.116
-458.040	156.186	-0.157	-0.215
-457.026	34.684	0.267	-0.232
-456.011	-50.627	-0.139	0.065
-454.997	-9.634	0.055	0.036
-453.982	13.121	-0.192	0.147
-452.968	-159.335	0.465	0.026
-451.953	41.386	-0.051	-0.046
-450.938	-54.500	-0.147	-0.066
-449.924	36.527	0.152	0.133
-448.909	-200.000	-0.024	-0.220
-447.895	426.839	0.055	0.118
-446.880	149.564	0.093	0.125
-445.865	-200.000	-0.021	-0.099
-444.851	141.761	-0.030	-0.040
-443.836	72.078	-0.299	0.309
-442.822	-99.575	0.209	-0.052
-441.807	-59.058	0.282	-0.121
-440.792	800.000	0.048	0.156
-439.778	-108.676	0.161	0.034
-438.763	-60.695	0.426	0.179
-437.749	-65.075	-0.047	0.019
-436.734	-200.000	-0.031	0.263
-435.719	-73.100	-0.264	-0.096
-434.705	800.000	0.098	0.354
-433.690	-39.972	-0.168	0.087
-432.676	-42.612	0.244	0.123
-431.661	-165.074	-0.154	0.007
-430.646	-170.870	-0.536	-0.018
-429.632	800.000	0.078	0.290
-428.617	-200.000	-0.010	0.095
-427.603	-200.000	0.031	-0.145
-426.588	-55.546	-0.168	0.075
-425.573	8.286	-0.122	0.091
-424.559	-35.374	0.133	-0.072
-423.544	-200.000	-0.020	0.149
-422.530	244.229	0.040	0.066
-421.515	800.000	-0.060	-0.183
-420.500	97.528	0.174	0.198
-419.486	-98.721	0.060	0.015
-418.471	-200.000	0.016	0.165
-417.457	-152.662	0.285	0.020
-416.442	-200.000	-0.001	0.069
-415.428	195.126	-0.110	-0.166
-414.413	168.361	0.131	0.185
-413.398	268.047	0.120	0.209
-412.384	-39.205	-0.367	0.191
-411.369	-155.709	-0.023	0.001
-410.355	98.191	-0.142	0.162
-409.340	-102.346	-0.265	-0.063
-408.325	-26.194	-0.055	-0.032
-407.311	-123.284	0.060	0.009
-406.296	-29.274	-0.191	-0.108
-405.282	-200.000	-0.001	0.089
-404.267	231.478	0.084	-0.137
-403.252	10.074	-0.149	-0.112
-402.238	71.289	-0.160	-0.165
-401.223	-79.213	0.136	-0.046
-400.209	275.538	0.141	0.248
-399.194	-200.000	-0.012	0.303
-398.179	-112.638	-0.127	-0.025
-397.165	-98.857	0.311	-0.078
-396.150	52.348	0.274	0.259
-395.136	800.000	0.030	-0.128
-394.121	-110.986	-0.333	0.068
-393.106	800.000	0.107	0.370
-392.092	-200.000	0.024	0.262
-391.077	800.000	0.087	-0.329
-390.063	28.713	-0.301	0.252
-389.048	-200.000	-0.036	-0.211
-388.033	-94.318	0.099	-0.027
-387.019	193.266	0.120	0.180
-386.004	-108.953	-0.175	0.037
-384.990	-78.395	0.099	-0.034
-383.975	71.221	0.093	0.095
-382.960	-200.000	0.013	-0.112
-381.946	-200.000	-0.031	-0.188
-380.931	-200.000	-0.030	0.268
-379.917	800.000	-0.027	-0.081
-378.902	-1.490	0.227	0.158
-377.888	-37.595	0.094	-0.050
-376.873	193.002	-0.153	-0.228
-375.858	417.497	-0.133	-0.281
-374.844	64.617	-0.268	0.268
-373.829	-200.000	-0.341	-0.002
-372.815	-54.804	-0.014	0.006
-371.800	29.035	0.127	0.107
-370.785	191.480	-0.020	0.029
-369.771	157.010	0.069	-0.094
-368.756	-42.528	0.213	0.107
-367.742	375.153	-0.083	0.168
-366.727	148.125	0.313	-0.418
-365.712	-200.000	-0.038	-0.198
-364.698	-4.991	0.373	0.254
-363.683	212.750	0.096	0.150
-362.669	149.331	-0.032	-0.043
-361.654	-200.000	-0.128	0.000
-360.639	144.371	0.173	0.228
-359.625	-200.000	0.067	0.310
-358.610	-200.000	0.005	0.307
-357.596	-99.308	0.175	-0.044
-356.581	-118.658	-0.323	0.056
-355.566	-82.131	-0.149	-0.048
-354.552	-6.567	0.291	0.196
-353.537	-3.072	0.211	0.146
-352.523	-112.558	-0.042	0.008
-351.508	-62.954	-0.296	0.121
-350.493	-82.452	-0.064	-0.021
-349.479	-61.678	-0.450	-0.186
-348.464	712.350	0.030	0.079
-347.450	279.850	0.165	0.291
-346.435	79.891	-0.092	0.098
-345.420	329.189	0.206	-0.391
-344.406	800.000	0.059	-0.160
-343.391	9.129	0.213	-0.159
-342.377	650.927	0.041	-0.105
-341.362	-15.654	-0.098	-0.061
-340.348	-30.520	0.237	-0.133
-339.333	12.115	-0.296	-0.225
-338.318	10.640	0.267	0.201
-337.304	-140.428	-0.230	-0.024
-336.289	-38.815	-0.155	0.080
-335.275	800.000	0.056	-0.199
-334.260	-51.797	-0.270	-0.124
-333.245	-200.000	0.031	0.240
-332.231	37.967	0.077	0.068
-331.216	800.000	-0.035	0.134
-330.202	345.821	0.298	0.579
-329.187	800.000	0.065	0.227
-328.172	262.464	-0.139	0.237
-327.158	59.171	-0.076	-0.074
-326.143	-200.000	0.011	-0.074
-325.129	-80.123	0.226	-0.075
-324.114	-200.000	-0.032	-0.139
-323.099	162.166	-0.108	-0.149
-322.085	800.000	0.060	-0.193
-321.070	-200.000	-0.011	0.193
-320.056	-200.000	-0.010	0.065
-319.041	800.000	0.054	-0.159
-318.026	800.000	0.035	-0.125
-317.012	-200.000	-0.033	-0.357
-315.997	-200.000	0.076	-0.410
-314.983	-200.000	0.035	0.299
-313.968	-57.228	-0.072	0.031
-312.953	800.000	-0.091	-0.260
-311.939	-88.611	0.165	-0.048
-310.924	524.941	0.139	-0.323
-309.910	695.027	-0.043	-0.111
-308.895	85.964	0.267	0.290
-307.880	-200.000	-0.002	-0.010
-306.866	-10.639	0.194	-0.127
-305.851	-36.668	-0.332	0.176
-304.837	800.000	-0.103	0.393
-303.822	125.493	-0.223	-0.277
-302.807	36.469	-0.157	0.136
-301.793	-200.000	0.023	-0.146
-300.778	-200.000	-0.028	-0.233
-299.764	-36.722	0.188	-0.100
-298.749	-130.302	-0.061	0.008
-297.735	800.000	0.122	-0.357
-296.720	-129.794	-0.070	-0.009
-295.705	800.000	-0.016	-0.067
-294.691	-90.880	0.404	-0.115
-293.676	48.507	0.242	-0.223
-292.662	90.507	-0.181	-0.199
-291.647	-22.552	0.187	-0.112
-290.632	800.000	0.076	-0.246
-289.618	800.000	-0.028	0.081
-288.603	286.452	0.174	0.310
-287.589	344.840	0.078	0.151
-286.574	800.000	-0.073	-0.255
-285.559	87.514	-0.143	-0.156
-284.545	-68.733	0.162	-0.062
-283.530	212.895	-0.235	0.366
-282.516	-120.739	0.148	-0.025
-281.501	673.963	-0.054	0.139
-280.486	201.370	-0.163	-0.248
-279.472	-200.000	0.031	-0.352
-278.457	691.324	0.091	0.235
-277.443	105.588	0.179	-0.208
-276.428	90.618	0.052	-0.057
-275.413	350.754	0.265	0.516
-274.399	363.451	0.043	-0.084
-273.384	-200.000	0.001	-0.271
-272.370	416.174	-0.182	0.383
-271.355	-56.558	0.140	-0.061
-270.340	-173.715	-0.329	0.010
-269.326	22.147	0.041	-0.033
-268.311	121.916	-0.271	0.333
-267.297	-88.113	-0.251	0.074
-266.282	-101.024	0.192	-0.046
-265.267	800.000	0.041	0.151
-264.253	-36.071	0.138	0.073
-263.238	-141.034	-0.247	-0.025
-262.224	-174.878	0.296	0.008
-261.209	-200.000	-0.017	-0.218
-260.195	35.386	0.040	-0.035
-259.180	-200.000	-0.036	0.405
-258.165	-35.264	-0.029	0.016
-257.151	634.815	0.039	-0.097
-256.136	-150.015	-0.305	-0.023
-255.122	-80.522	-0.097	-0.032
-254.107	800.000	0.039	0.156
-253.092	-200.000	0.010	-0.120
-252.078	-200.000	-0.020	-0.311
-251.063	-93.905	-0.207	0.056
-250.049	-200.000	0.190	-0.000
-249.034	-135.912	0.149	0.017
-248.019	-200.000	0.057	-0.284
-247.005	-98.757	0.369	-0.093
-245.990	102.481	0.230	0.265
-244.976	106.632	-0.164	0.191
-243.961	-50.399	-0.130	-0.060
-242.946	59.934	0.214	-0.208
-241.932	-200.000	0.014	-0.228
-240.917	-26.093	-0.124	-0.072
-239.903	125.942	0.139	-0.173
-238.888	-162.760	0.289	0.014
-237.873	161.473	-0.232	-0.320
-236.859	20.938	-0.132	0.105
-235.844	264.327	0.137	-0.234
-234.830	-200.000	-0.014	-0.217
-233.815	95.747	-0.174	-0.196
-232.800	-124.045	0.113	0.017
-231.786	137.916	-0.088	0.114
-230.771	437.311	0.090	0.192
-229.757	32.520	-0.208	-0.177
-228.742	232.443	0.183	-0.295
-227.727	83.354	0.086	0.092
-226.713	154.826	0.109	-0.148
-225.698	33.017	0.227	-0.194
-224.684	-77.879	-0.380	-0.129
-223.669	146.644	0.291	0.385
-222.655	72.725	-0.245	0.251
-221.640	26.080	0.095	0.078
-220.625	270.845	-0.142	-0.245
-219.611	-121.453	0.223	-0.036
-218.596	800.000	0.040	0.127
-217.582	-48.192	-0.037	0.018
-216.567	-74.994	0.208	0.073
-215.552	85.379	-0.144	0.155
-214.538	800.000	-0.037	-0.150
-213.523	-200.000	0.035	0.432
-212.509	800.000	-0.038	0.147
-211.494	-133.903	-0.357	-0.044
-210.479	-200.000	-0.005	-0.270
-209.465	61.280	-0.073	-0.071
-208.450	-200.000	0.002	0.057
-207.436	-200.000	0.045	-0.194
-206.421	-3.367	0.336	0.230
-205.406	70.035	0.190	-0.192
-204.392	-55.140	0.266	0.118
-203.377	-95.530	-0.211	0.056
-202.363	204.073	0.133	0.202
-201.348	295.042	0.128	0.229
-200.333	122.111	0.195	0.239
-199.319	-101.885	-0.176	0.042
-198.304	-200.000	0.020	-0.167
-197.290	800.000	-0.026	-0.070
-196.275	717.979	-0.043	-0.113
-195.260	-200.000	0.003	0.465
-194.246	-200.000	0.027	0.352
-193.231	155.757	0.180	-0.243
-192.217	376.800	0.078	0.156
-191.202	9.213	0.298	-0.222
-190.187	335.851	0.148	0.283
-189.173	-52.736	-0.081	-0.037
-188.158	296.576	-0.093	0.168
-187.144	-100.018	-0.132	-0.032
-186.129	15.130	0.107	0.082
-185.114	167.972	-0.109	0.153
-184.100	-174.195	-0.067	0.002
-183.085	800.000	-0.103	-0.282
-182.071	-83.699	0.260	0.082
-181.056	119.141	0.033	0.040
-180.042	-69.974	-0.358	0.134
-179.027	155.822	0.077	-0.105
-178.012	-163.346	0.234	-0.011
-176.998	-200.000	0.006	0.280
-175.983	-2.696	0.115	-0.079
-174.969	-62.680	0.112	-0.045
-173.954	-88.256	-0.238	0.070
-172.939	-106.457	0.261	0.057
-171.925	-52.495	-0.250	0.113
-170.910	176.001	0.061	-0.088
-169.896	9.644	0.122	0.091
-168.881	-151.726	-0.325	0.023
-167.866	-46.340	-0.187	0.090
-166.852	358.104	0.078	-0.153
-165.837	-200.000	-0.061	0.350
-164.823	153.761	0.126	-0.170
-163.808	-200.000	-0.061	0.439
-162.793	-22.808	-0.287	0.170
-161.779	-84.754	0.243	0.075
-160.764	-45.016	0.266	-0.130
-159.750	800.000	-0.103	-0.295
-158.735	-154.762	0.233	0.015
-157.720	199.123	0.061	0.091
-156.706	-115.910	-0.244	-0.045
-155.691	-54.419	-0.293	-0.130
-154.677	455.061	-0.069	0.150
-153.662	-200.000	0.015	0.465
-152.647	800.000	0.032	-0.127
-151.633	-200.000	0.039	0.256
-150.618	-200.000	0.033	-0.279
-149.604	-2.391	0.204	-0.141
-148.589	295.667	-0.150	-0.269
-147.574	28.392	0.146	-0.121
-146.560	595.649	0.042	0.101
-145.545	283.819	-0.066	0.116
-144.531	221.920	-0.073	-0.116
-143.516	30.397	0.191	0.160
-142.502	800.000	0.035	0.112
-141.487	-155.383	0.122	-0.008
-140.472	-118.613	0.152	-0.026
-139.458	800.000	0.048	0.196
-138.443	89.582	-0.160	-0.174
-137.429	-110.529	-0.344	0.070
-136.414	-131.799	0.053	-0.007
-135.399	-55.243	0.250	0.110
-134.385	-141.842	0.225	-0.022
-133.370	-174.154	-0.196	0.006
-132.356	-200.000	0.048	-0.253
-131.341	8.706	0.204	0.151
-130.326	-151.868	-0.126	0.009
-129.312	-33.286	-0.286	-0.155
-128.297	64.381	-0.264	-0.261
-127.283	-133.647	-0.098	0.012
-126.268	509.945	0.043	-0.099
-125.253	-200.000	0.001	0.088
-124.239	-143.259	-0.378	0.036
-123.224	-110.679	-0.109	0.022
-122.210	-200.000	-0.014	-0.166
