DTS Sentinel unit serial number:	SN413079Multiplexer serial number:	ORYXHardware model number:	OX4-SRSoftware version number:	ORYX F/W v4.00 Oryx Data Collector v3.7.2.0data status	okinstallation	princeton_trtdifferential loss correction	single-endedforward channel	channel 4reverse channel	N/Adate	2019/09/14time	19:49:35forward acquisition time	60.00reverse acquisition time	0.00gamma	496.2192k internal	0.2304k external	0.2304temperature offset calibration	1.0097default loss term (dB/km)	0.3790temperature slope calibration	1.0000multiplexer offset coefficient	1.0000multiplexer slope coefficient	1.0000fibre end	0.00T internal ref (°C)	34.31T ext. ref 1 (°C)	4.89T ext. ref 2 (°C)	28.50length (m)	temperature (°C)	Stokes	anti-Stokes-747.200	-180.447	-0.062	-0.001
-746.185	800.000	-0.064	0.271
-745.171	-1.077	-0.060	0.043
-744.156	-126.351	0.072	0.011
-743.142	-8.682	0.192	-0.131
-742.127	-85.242	-0.244	-0.078
-741.112	-200.000	-0.006	0.067
-740.098	197.859	-0.188	0.293
-739.083	121.596	0.176	-0.223
-738.069	67.820	-0.216	0.225
-737.054	18.092	0.125	-0.101
-736.039	95.252	-0.157	-0.182
-735.025	38.486	-0.264	0.239
-734.010	-200.000	0.043	-0.341
-732.996	25.287	0.185	0.156
-731.981	22.637	-0.088	0.074
-730.966	-200.000	-0.001	-0.019
-729.952	277.635	0.018	-0.033
-728.937	-200.000	0.047	-0.258
-727.923	-154.968	0.413	-0.028
-726.908	-120.692	-0.428	0.074
-725.894	31.521	0.192	0.168
-724.879	81.521	-0.099	-0.109
-723.864	260.673	0.141	-0.249
-722.850	82.076	0.114	0.126
-721.835	-200.000	-0.016	-0.183
-720.821	543.690	0.076	0.184
-719.806	438.562	-0.055	0.121
-718.791	800.000	-0.040	-0.124
-717.777	-12.781	-0.125	-0.083
-716.762	565.221	-0.037	0.092
-715.748	-179.990	0.278	-0.006
-714.733	-200.000	-0.060	-0.303
-713.718	270.945	-0.074	0.132
-712.704	-111.271	0.086	0.018
-711.689	-200.000	0.203	-0.001
-710.675	-200.000	0.003	-0.071
-709.660	67.331	-0.063	-0.065
-708.645	800.000	-0.062	-0.218
-707.631	188.139	-0.223	-0.338
-706.616	-5.159	0.216	0.151
-705.602	120.697	0.295	-0.373
-704.587	-200.000	0.010	0.179
-703.572	-200.000	0.001	-0.071
-702.558	64.298	-0.019	-0.020
-701.543	-200.000	-0.069	-0.522
-700.529	39.120	0.115	0.104
-699.514	142.176	-0.223	0.301
-698.499	15.441	-0.206	-0.165
-697.485	65.259	0.166	0.171
-696.470	135.311	-0.014	-0.019
-695.456	-200.000	0.023	-0.234
-694.441	-166.173	0.123	-0.005
-693.426	-143.324	-0.144	0.014
-692.412	712.004	-0.016	0.044
-691.397	40.648	0.102	0.093
-690.383	-13.304	-0.139	-0.092
-689.368	800.000	0.049	0.172
-688.354	22.397	-0.300	-0.249
-687.339	-200.000	-0.007	-0.279
-686.324	-200.000	0.074	0.429
-685.310	-200.000	-0.003	0.196
-684.295	345.810	-0.104	0.208
-683.281	800.000	0.045	0.145
-682.266	-56.167	-0.304	-0.137
-681.251	-200.000	0.010	-0.082
-680.237	393.340	0.111	-0.234
-679.222	245.069	-0.014	-0.024
-678.208	-141.361	0.157	0.016
-677.193	-156.285	0.327	-0.021
-676.178	-41.824	-0.110	-0.057
-675.164	-200.000	-0.038	-0.245
-674.149	91.501	-0.219	0.250
-673.135	-15.995	-0.417	-0.270
-672.120	177.346	0.153	0.226
-671.105	559.197	0.023	-0.056
-670.091	800.000	0.052	-0.164
-669.076	111.261	-0.130	0.159
-668.062	800.000	0.064	-0.186
-667.047	-94.593	-0.032	-0.009
-666.032	-176.662	0.258	0.007
-665.018	-16.805	0.255	-0.164
-664.003	-66.577	-0.141	-0.057
-662.989	-141.553	0.161	0.017
-661.974	570.991	-0.099	0.246
-660.959	458.158	-0.139	-0.315
-659.945	-200.000	0.020	-0.335
-658.930	800.000	-0.023	-0.091
-657.916	401.885	-0.079	-0.168
-656.901	38.246	-0.008	0.007
-655.886	-54.579	0.227	0.104
-654.872	-200.000	-0.031	-0.168
-653.857	-200.000	0.017	-0.351
-652.843	800.000	0.032	-0.101
-651.828	-165.982	-0.331	-0.014
-650.814	-14.573	-0.197	-0.128
-649.799	-200.000	0.005	-0.109
-648.784	70.292	0.060	-0.063
-647.770	-136.423	-0.148	-0.017
-646.755	187.652	-0.137	0.208
-645.741	-200.000	0.002	-0.074
-644.726	-200.000	-0.021	0.192
-643.711	51.864	-0.028	0.027
-642.697	166.756	-0.138	0.199
-641.682	404.545	-0.043	-0.091
-640.668	82.605	0.279	-0.308
-639.653	-86.813	-0.355	0.110
-638.638	800.000	-0.087	0.296
-637.624	-95.167	0.205	0.056
-636.609	736.484	-0.029	0.079
-635.595	-87.347	0.212	-0.065
-634.580	12.804	-0.153	-0.120
-633.565	74.245	0.111	-0.118
-632.551	-200.000	0.035	0.225
-631.536	-200.000	-0.024	-0.137
-630.522	-130.469	-0.325	-0.045
-629.507	52.571	-0.293	-0.284
-628.492	-128.075	-0.249	0.036
-627.478	-20.253	0.111	-0.069
-626.463	-162.257	0.257	-0.013
-625.449	-200.000	0.043	-0.308
-624.434	-35.389	-0.202	-0.111
-623.419	-200.000	0.019	-0.142
-622.405	-190.635	-0.347	0.004
-621.390	-98.913	0.025	-0.006
-620.376	-52.867	-0.133	-0.062
-619.361	171.227	-0.183	-0.266
-618.346	-200.000	0.003	0.076
-617.332	-143.550	-0.143	-0.014
-616.317	106.251	0.228	0.274
-615.303	378.328	-0.051	0.105
-614.288	-200.000	0.042	0.269
-613.273	-200.000	0.013	0.317
-612.259	7.773	-0.185	-0.140
-611.244	-55.566	-0.352	0.160
-610.230	-200.000	0.048	-0.419
-609.215	-93.182	-0.057	-0.016
-608.201	88.553	0.234	-0.263
-607.186	69.918	-0.119	-0.125
-606.171	-200.000	-0.002	-0.129
-605.157	106.142	-0.071	0.085
-604.142	215.399	0.072	-0.115
-603.128	39.452	-0.294	-0.267
-602.113	-200.000	-0.046	0.275
-601.098	-80.978	-0.108	-0.036
-600.084	-97.040	-0.289	0.077
-599.069	-200.000	0.003	-0.058
-598.055	-99.335	-0.011	-0.003
-597.040	8.699	-0.115	0.088
-596.025	140.907	-0.057	-0.077
-595.011	800.000	-0.048	0.164
-593.996	179.664	-0.073	-0.109
-592.982	-103.436	-0.435	0.104
-591.967	247.815	-0.128	-0.219
-590.952	800.000	-0.058	-0.220
-589.938	-20.801	0.100	0.062
-588.923	93.760	-0.159	0.182
-587.909	800.000	-0.032	0.142
-586.894	658.712	0.056	0.145
-585.879	-76.981	0.433	0.153
-584.865	-125.734	-0.134	-0.021
-583.850	-6.286	0.208	0.143
-582.836	-88.501	-0.224	0.068
-581.821	-19.963	-0.174	0.109
-580.806	-98.181	0.107	-0.028
-579.792	800.000	-0.026	0.074
-578.777	129.051	0.249	0.322
-577.763	-72.764	0.424	0.158
-576.748	53.667	0.152	-0.147
-575.733	242.009	0.161	-0.272
-574.719	-53.697	-0.057	0.026
-573.704	160.676	-0.019	-0.026
-572.690	800.000	0.062	0.250
-571.675	800.000	-0.047	-0.146
-570.661	-200.000	-0.005	-0.080
-569.646	-45.557	0.141	0.071
-568.631	-96.402	0.169	0.045
-567.617	37.133	0.058	0.052
-566.602	-46.955	-0.116	0.057
-565.588	800.000	0.026	-0.074
-564.573	10.615	0.168	0.129
-563.558	-117.500	0.181	0.033
-562.544	-6.681	-0.154	0.106
-561.529	77.781	-0.153	-0.165
-560.515	237.359	-0.069	0.116
-559.500	107.071	-0.211	-0.253
-558.485	63.387	-0.313	0.318
-557.471	-200.000	-0.016	-0.180
-556.456	-41.607	0.111	-0.058
-555.442	-98.100	-0.247	-0.064
-554.427	-200.000	0.009	0.322
-553.412	442.631	-0.176	0.391
-552.398	37.561	-0.154	-0.138
-551.383	-175.330	-0.318	0.009
-550.369	-81.969	-0.119	0.039
-549.354	-200.000	-0.020	-0.114
-548.339	-200.000	0.027	0.138
-547.325	186.782	0.118	-0.178
-546.310	-165.696	0.362	-0.016
-545.296	281.868	-0.146	-0.264
-544.281	-200.000	0.033	0.206
-543.266	-200.000	-0.041	0.273
-542.252	800.000	-0.016	0.060
-541.237	65.157	0.156	0.159
-540.223	91.957	0.212	0.241
-539.208	-71.601	-0.043	-0.016
-538.193	-49.964	0.397	-0.190
-537.179	-140.631	-0.262	-0.027
-536.164	158.910	0.033	0.046
-535.150	5.160	-0.100	-0.075
-534.135	-9.015	-0.109	-0.074
-533.121	-83.658	0.486	-0.157
-532.106	800.000	0.062	-0.257
-531.091	346.928	-0.072	-0.143
-530.077	-4.131	0.333	-0.233
-529.062	-122.592	-0.187	-0.031
-528.048	132.555	0.068	0.088
-527.033	-77.756	-0.325	0.113
-526.018	-118.944	0.189	0.033
-525.004	4.475	0.107	-0.079
-523.989	-22.113	-0.076	0.047
-522.975	437.644	0.123	-0.270
-521.960	800.000	0.034	-0.148
-520.945	-18.379	0.031	-0.020
-519.931	-95.814	-0.153	-0.041
-518.916	800.000	-0.041	-0.137
-517.902	-90.234	0.192	-0.056
-516.887	-86.713	0.295	0.091
-515.872	-41.659	0.274	0.142
-514.858	15.076	-0.120	-0.095
-513.843	-14.844	-0.078	-0.050
-512.829	33.303	-0.135	-0.118
-511.814	-200.000	0.014	-0.214
-510.799	38.772	0.082	-0.074
-509.785	800.000	-0.071	0.199
-508.770	106.375	-0.121	-0.145
-507.756	-101.028	0.262	-0.065
-506.741	-93.385	-0.005	-0.001
-505.726	-90.314	-0.179	-0.052
-504.712	45.128	0.379	-0.353
-503.697	-200.000	0.102	-0.482
-502.683	609.398	0.070	-0.176
-501.668	15.123	-0.339	-0.268
-500.653	-200.000	-0.009	0.197
-499.639	-154.512	-0.106	0.007
-498.624	122.957	0.001	0.002
-497.610	-140.750	-0.222	0.023
-496.595	31.614	-0.110	0.095
-495.581	47.109	-0.113	-0.106
-494.566	800.000	0.064	-0.274
-493.551	-119.424	0.070	0.012
-492.537	800.000	0.050	0.148
-491.522	-92.167	-0.315	0.090
-490.508	800.000	-0.042	-0.138
-489.493	-23.156	0.473	-0.287
-488.478	-192.608	0.118	0.001
-487.464	-200.000	-0.011	0.230
-486.449	-45.095	0.158	-0.079
-485.435	-43.131	-0.204	0.104
-484.420	194.364	-0.091	0.139
-483.405	-200.000	-0.010	-0.237
-482.391	800.000	0.074	-0.230
-481.376	-134.955	0.155	0.019
-480.362	-111.164	-0.071	0.015
-479.347	14.828	0.193	0.152
-478.332	84.623	-0.264	-0.291
-477.318	722.692	-0.094	-0.253
-476.303	43.028	0.264	0.243
-475.289	273.273	0.026	-0.046
-474.274	-15.656	-0.181	-0.116
-473.259	-63.700	0.037	-0.015
-472.245	194.955	0.052	-0.079
-471.230	-200.000	-0.021	0.223
-470.216	-200.000	0.015	-0.107
-469.201	261.372	-0.107	-0.187
-468.186	2.988	0.176	-0.129
-467.172	-200.000	-0.018	0.303
-466.157	28.056	0.141	0.120
-465.143	-134.209	-0.434	-0.054
-464.128	800.000	-0.043	0.126
-463.113	-78.216	0.147	-0.051
-462.099	85.836	-0.161	0.178
-461.084	-144.064	-0.050	-0.005
-460.070	-105.059	0.469	-0.108
-459.055	-149.732	-0.182	0.014
-458.040	-200.000	-0.054	-0.299
-457.026	14.575	-0.260	-0.204
-456.011	-200.000	-0.008	-0.248
-454.997	-131.386	0.168	-0.022
-453.982	218.981	-0.111	0.179
-452.968	-106.699	-0.045	0.010
-451.953	19.725	0.127	0.103
-450.938	106.213	0.258	-0.308
-449.924	800.000	-0.045	-0.130
-448.909	-86.467	0.155	0.048
-447.895	-200.000	0.033	0.193
-446.880	-106.756	-0.313	-0.070
-445.865	230.660	0.071	0.116
-444.851	-200.000	0.020	0.276
-443.836	170.800	0.247	-0.356
-442.822	501.287	0.018	0.041
-441.807	28.024	-0.187	0.159
-440.792	46.004	-0.545	-0.507
-439.778	340.323	0.089	-0.175
-438.763	-4.816	-0.458	-0.318
-437.749	-106.791	0.244	0.054
-436.734	-86.626	-0.111	-0.034
-435.719	-21.461	-0.113	-0.069
-434.705	-176.609	0.252	-0.006
-433.690	-82.107	-0.161	0.053
-432.676	-200.000	0.087	0.544
-431.661	-78.267	0.232	0.080
-430.646	-127.760	0.028	0.004
-429.632	58.264	0.210	-0.207
-428.617	800.000	-0.126	-0.422
-427.603	-200.000	0.007	-0.276
-426.588	-31.092	0.035	0.020
-425.573	87.632	-0.104	-0.116
-424.559	408.818	0.129	-0.275
-423.544	446.251	-0.063	0.138
-422.530	-25.833	0.249	0.148
-421.515	182.360	-0.198	-0.293
-420.500	135.946	-0.150	0.197
-419.486	800.000	-0.111	0.481
-418.471	-86.715	0.252	0.077
-417.457	800.000	-0.046	0.173
-416.442	48.296	-0.110	-0.104
-415.428	-200.000	0.037	0.161
-414.413	-181.786	0.155	0.003
-413.398	800.000	0.077	0.292
-412.384	-83.416	-0.124	0.040
-411.369	73.346	0.212	0.223
-410.355	-76.366	0.204	0.072
-409.340	320.395	0.060	-0.114
-408.325	800.000	-0.105	-0.373
-407.311	-36.035	-0.132	0.072
-406.296	169.833	-0.028	0.040
-405.282	293.431	-0.098	0.179
-404.267	128.855	-0.049	0.062
-403.252	325.860	-0.122	0.234
-402.238	-28.651	-0.304	0.176
-401.223	227.428	0.125	0.204
-400.209	-159.646	0.250	-0.014
-399.194	394.349	-0.172	0.359
-398.179	-200.000	0.004	0.069
-397.165	14.264	0.209	-0.164
-396.150	78.550	-0.155	-0.167
-395.136	33.027	0.336	0.293
-394.121	487.287	-0.066	0.151
-393.106	152.951	0.139	-0.191
-392.092	-42.820	-0.341	-0.174
-391.077	468.764	0.060	-0.134
-390.063	51.707	0.095	-0.090
-389.048	41.706	-0.132	-0.120
-388.033	-158.191	-0.036	0.002
-387.019	-200.000	-0.039	0.217
-386.004	-15.443	-0.179	0.115
-384.990	192.446	0.026	-0.040
-383.975	-200.000	0.117	0.531
-382.960	-200.000	-0.018	0.246
-381.946	40.102	-0.138	0.124
-380.931	-24.876	0.405	0.242
-379.917	-85.133	0.378	0.119
-378.902	42.828	-0.437	0.400
-377.888	-8.670	0.111	-0.075
-376.873	-153.325	0.249	0.017
-375.858	-82.436	0.046	0.015
-374.844	-26.757	0.150	0.088
-373.829	-20.041	0.057	-0.036
-372.815	455.618	-0.098	-0.218
-371.800	-56.385	0.174	-0.078
-370.785	-99.880	-0.121	0.030
-369.771	97.797	0.131	0.151
-368.756	185.471	-0.331	0.493
-367.742	-200.000	0.027	0.299
-366.727	800.000	-0.043	0.184
-365.712	-200.000	-0.032	0.213
-364.698	800.000	-0.079	-0.310
-363.683	-67.733	-0.046	-0.018
-362.669	800.000	-0.091	-0.319
-361.654	-134.006	-0.197	0.025
-360.639	-54.971	-0.091	-0.041
-359.625	207.009	-0.053	-0.083
-358.610	800.000	-0.035	0.134
-357.596	-200.000	0.380	-0.001
-356.581	80.534	0.041	0.044
-355.566	-69.531	0.300	0.115
-354.552	-200.000	-0.001	-0.152
-353.537	-106.704	-0.220	0.049
-352.523	800.000	0.069	0.291
-351.508	-17.773	0.222	-0.140
-350.493	-114.957	-0.083	-0.016
-349.479	-200.000	-0.042	-0.225
-348.464	-67.347	0.353	0.139
-347.450	41.898	-0.168	-0.153
-346.435	-149.821	-0.069	-0.005
-345.420	-200.000	-0.022	-0.175
-344.406	39.232	0.063	0.057
-343.391	-200.000	-0.018	-0.248
-342.377	-112.535	0.244	0.049
-341.362	57.430	0.173	-0.169
-340.348	449.967	-0.101	0.223
-339.333	269.909	0.099	-0.175
-338.318	93.134	-0.100	-0.113
-337.304	46.244	0.155	-0.144
-336.289	800.000	0.040	0.151
-335.275	-44.838	-0.241	-0.121
-334.260	22.645	-0.237	0.195
-333.245	-35.643	0.183	0.099
-332.231	7.113	0.151	-0.113
-331.216	-200.000	-0.029	-0.160
-330.202	263.731	0.201	-0.350
-329.187	291.021	-0.012	0.022
-328.172	-18.785	-0.114	0.071
-327.158	528.276	-0.098	-0.231
-326.143	-19.169	-0.119	-0.074
-325.129	-79.483	0.267	0.090
-324.114	-152.056	-0.235	-0.017
-323.099	-92.122	0.107	0.030
-322.085	130.576	0.154	0.198
-321.070	45.168	0.052	0.048
-320.056	541.907	-0.104	0.248
-319.041	-189.187	-0.085	-0.001
-318.026	43.893	-0.216	-0.198
-317.012	-200.000	0.029	-0.153
-315.997	-95.187	0.376	-0.101
-314.983	-108.307	0.392	0.085
-313.968	800.000	0.053	-0.202
-312.953	-200.000	0.008	0.214
-311.939	41.694	0.234	-0.213
-310.924	-80.099	0.264	0.089
-309.910	490.320	-0.140	-0.320
-308.895	-95.999	-0.326	-0.087
-307.880	800.000	0.062	-0.270
-306.866	674.032	0.188	-0.489
-305.851	26.561	-0.149	-0.125
-304.837	181.434	0.100	0.148
-303.822	-80.595	0.200	0.067
-302.807	-25.568	0.092	0.054
-301.793	-107.667	0.133	0.029
-300.778	-34.746	0.169	0.092
-299.764	-105.064	-0.257	-0.059
-298.749	542.095	0.043	0.102
-297.735	27.240	-0.182	-0.153
-296.720	-76.240	0.181	0.064
-295.705	205.466	0.112	-0.174
-294.691	-200.000	-0.028	-0.304
-293.676	800.000	0.027	-0.091
-292.662	-200.000	0.029	-0.177
-291.647	154.163	0.140	-0.192
-290.632	172.194	0.035	-0.051
-289.618	79.579	-0.175	-0.188
-288.603	-33.703	-0.146	-0.081
-287.589	-200.000	0.049	0.313
-286.574	800.000	-0.055	0.179
-285.559	-200.000	0.003	0.117
-284.545	800.000	0.100	0.322
-283.530	-150.052	-0.224	0.017
-282.516	800.000	0.103	0.417
-281.501	-35.815	0.155	-0.084
-280.486	-49.084	-0.142	0.068
-279.472	-200.000	-0.052	0.267
-278.457	-200.000	0.004	0.157
-277.443	-200.000	-0.011	-0.143
-276.428	-198.865	-0.086	0.000
-275.413	101.906	-0.084	-0.098
-274.399	-60.096	-0.092	-0.039
-273.384	2.964	0.273	-0.198
-272.370	-54.922	0.049	-0.022
-271.355	-24.026	0.084	-0.050
-270.340	-127.885	-0.167	-0.024
-269.326	443.881	0.096	0.209
-268.311	-200.000	-0.025	-0.244
-267.297	282.546	-0.126	0.225
-266.282	800.000	0.091	0.264
-265.267	240.221	0.217	0.362
-264.253	501.822	0.169	0.390
-263.238	185.738	0.039	0.058
-262.224	-56.070	0.259	0.115
-261.209	125.799	0.044	0.055
-260.195	21.383	-0.081	-0.066
-259.180	128.959	-0.073	-0.094
-258.165	-126.900	0.421	0.062
-257.151	-200.000	-0.008	0.065
-256.136	-57.005	0.114	0.050
-255.122	-81.554	0.142	0.046
-254.107	-200.000	-0.005	0.060
-253.092	16.540	-0.067	-0.053
-252.078	800.000	0.059	0.180
-251.063	-200.000	-0.004	-0.042
-250.049	17.100	0.107	-0.084
-249.034	312.695	-0.199	-0.373
-248.019	157.181	-0.046	0.064
-247.005	-5.395	0.136	0.093
-245.990	-149.319	-0.215	0.017
-244.976	800.000	0.074	-0.228
-243.961	138.354	-0.191	0.250
-242.946	258.415	-0.161	0.277
-241.932	-200.000	-0.018	-0.436
-240.917	44.523	-0.241	-0.221
-239.903	-72.246	0.107	0.039
-238.888	-4.322	0.100	0.069
-237.873	209.862	0.121	-0.190
-236.859	-200.000	0.033	-0.181
-235.844	-60.035	-0.059	-0.025
-234.830	519.183	0.042	-0.099
-233.815	59.421	-0.196	0.193
-232.800	106.977	-0.063	0.075
-231.786	800.000	0.060	-0.179
-230.771	-84.840	0.071	-0.022
-229.757	-7.551	-0.082	-0.055
-228.742	-200.000	-0.024	0.237
-227.727	-200.000	-0.006	-0.097
-226.713	162.506	-0.068	0.095
-225.698	800.000	-0.074	0.242
-224.684	58.086	0.025	0.025
-223.669	-200.000	0.009	-0.100
-222.655	107.605	0.219	0.260
-221.640	800.000	-0.066	0.282
-220.625	1.255	-0.395	-0.283
-219.611	12.623	0.178	-0.137
-218.596	800.000	0.033	-0.112
-217.582	-200.000	-0.021	-0.273
-216.567	64.835	-0.144	0.145
-215.552	-200.000	-0.011	0.102
-214.538	-55.193	0.301	-0.135
-213.523	-82.477	0.285	-0.092
-212.509	-77.244	-0.331	-0.115
-211.494	-200.000	-0.044	0.385
-210.479	-23.027	-0.022	-0.013
-209.465	297.271	-0.094	0.172
-208.450	-200.000	-0.000	-0.459
-207.436	464.891	-0.104	0.232
-206.421	-200.000	0.018	-0.165
-205.406	-200.000	-0.086	0.470
-204.392	46.709	-0.225	-0.208
-203.377	-200.000	-0.039	-0.176
-202.363	36.344	-0.081	0.072
-201.348	-47.019	0.116	-0.056
-200.333	-49.811	0.097	0.046
-199.319	277.341	-0.043	0.076
-198.304	0.082	0.013	0.009
-197.290	-125.769	0.190	0.029
-196.275	-43.365	-0.151	0.076
-195.260	-122.568	-0.217	0.035
-194.246	-193.020	0.090	0.001
-193.231	-200.000	-0.290	-0.001
-192.217	72.747	0.414	0.430
-191.202	-155.328	-0.105	-0.007
-190.187	-77.366	-0.136	0.047
-189.173	800.000	-0.036	-0.142
-188.158	286.865	0.120	0.216
-187.144	455.035	0.081	0.180
-186.129	800.000	-0.081	0.243
-185.114	800.000	-0.036	0.127
-184.100	-141.376	-0.380	-0.038
-183.085	244.342	0.082	-0.137
-182.071	-62.341	0.080	-0.033
-181.056	-200.000	-0.018	-0.133
-180.042	800.000	-0.033	0.139
-179.027	800.000	-0.047	-0.135
-178.012	574.693	0.077	0.188
-176.998	-83.989	0.083	-0.026
-175.983	-198.473	0.428	0.002
-174.969	800.000	0.078	-0.256
-173.954	180.993	-0.078	0.114
-172.939	-103.573	-0.111	-0.026
-171.925	-149.799	0.162	0.013
-170.910	194.112	0.135	-0.203
-169.896	-88.479	-0.332	0.099
-168.881	311.230	-0.072	0.135
-167.866	-79.116	-0.196	-0.066
-166.852	-125.533	0.063	0.010
-165.837	356.461	-0.082	0.163
-164.823	-200.000	-0.034	0.164
-163.808	84.044	0.162	0.176
-162.793	800.000	0.126	0.481
-161.779	-40.932	0.115	-0.059
-160.764	436.646	-0.048	0.105
-159.750	45.250	0.124	-0.114
-158.735	-27.877	0.118	-0.068
-157.720	-179.855	-0.176	0.004
-156.706	-200.000	-0.000	-0.103
-155.691	404.418	-0.063	0.132
-154.677	-70.060	-0.070	-0.027
-153.662	-200.000	0.058	0.353
-152.647	23.651	0.174	-0.143
-151.633	-200.000	-0.061	-0.567
-150.618	377.482	-0.083	0.170
-149.604	230.029	0.173	0.281
-148.589	800.000	-0.083	0.244
-147.574	224.033	-0.149	0.239
-146.560	800.000	-0.059	0.170
-145.545	358.824	-0.050	0.100
-144.531	-140.772	0.138	0.014
-143.516	-73.863	0.304	-0.110
-142.502	-135.960	0.247	0.029
-141.487	-26.119	-0.188	0.110
-140.472	246.839	-0.224	0.376
-139.458	262.007	-0.119	-0.205
-138.443	-66.953	-0.267	-0.105
-137.429	-41.510	0.154	-0.079
-136.414	800.000	0.078	0.287
-135.399	197.381	-0.086	0.130
-134.385	78.377	0.143	0.152
-133.370	-69.885	-0.198	-0.075
-132.356	616.197	0.128	0.319
-131.341	-200.000	-0.022	-0.149
-130.326	-200.000	0.004	-0.097
-129.312	-145.280	-0.135	-0.012
-128.297	84.637	-0.176	0.191
-127.283	800.000	-0.074	-0.251
-126.268	-104.274	0.287	-0.066
-125.253	-200.000	0.056	-0.288
-124.239	563.333	0.178	-0.429
-123.224	-115.279	-0.237	0.045
-122.210	-186.536	0.138	0.002
