DTS Sentinel unit serial number:	SN413079Multiplexer serial number:	ORYXHardware model number:	OX4-SRSoftware version number:	ORYX F/W v4.00 Oryx Data Collector v3.7.2.0data status	okinstallation	princeton_trtdifferential loss correction	single-endedforward channel	channel 4reverse channel	N/Adate	2019/09/11time	18:15:11forward acquisition time	60.00reverse acquisition time	0.00gamma	496.2192k internal	0.2275k external	0.2275temperature offset calibration	1.0022default loss term (dB/km)	0.3790temperature slope calibration	1.0000multiplexer offset coefficient	1.0000multiplexer slope coefficient	1.0000fibre end	0.00T internal ref (°C)	44.00T ext. ref 1 (°C)	1.14T ext. ref 2 (°C)	39.03length (m)	temperature (°C)	Stokes	anti-Stokes-747.200	-169.601	-0.241	0.009
-746.185	-162.417	0.188	0.010
-745.171	512.898	0.027	-0.064
-744.156	-62.530	-0.401	0.172
-743.142	-125.872	0.207	0.032
-742.127	-133.866	-0.261	0.033
-741.112	-111.886	0.347	-0.072
-740.098	-76.149	-0.115	-0.042
-739.083	-163.154	0.197	0.010
-738.069	-86.155	0.088	0.028
-737.054	-200.000	-0.006	-0.059
-736.039	174.192	-0.242	-0.360
-735.025	-40.918	0.313	-0.167
-734.010	-5.538	0.241	0.170
-732.996	-123.274	-0.282	-0.046
-731.981	-30.658	0.086	-0.050
-730.966	-163.903	0.182	-0.009
-729.952	-7.785	-0.124	0.087
-728.937	-200.000	-0.007	-0.195
-727.923	-19.760	-0.100	-0.063
-726.908	111.684	-0.159	-0.198
-725.894	-200.000	0.014	-0.258
-724.879	400.103	0.121	-0.262
-723.864	277.520	-0.059	0.108
-722.850	208.544	0.097	-0.157
-721.835	-106.533	-0.169	-0.039
-720.821	35.372	-0.232	0.210
-719.806	436.269	-0.051	-0.114
-718.791	342.474	-0.089	0.180
-717.777	800.000	0.095	-0.420
-716.762	39.725	-0.158	0.146
-715.748	598.799	0.108	-0.276
-714.733	-16.327	-0.064	0.042
-713.718	645.438	-0.055	0.145
-712.704	132.875	0.206	-0.274
-711.689	3.680	-0.309	0.232
-710.675	-71.544	-0.125	-0.048
-709.660	-200.000	-0.009	-0.125
-708.645	-200.000	0.016	-0.312
-707.631	-88.869	0.315	-0.096
-706.616	-167.121	0.325	0.014
-705.602	-200.000	0.036	0.243
-704.587	428.639	0.106	-0.236
-703.572	-24.780	-0.170	0.104
-702.558	-200.000	0.047	-0.450
-701.543	-44.067	-0.343	0.177
-700.529	-42.325	0.207	0.109
-699.514	23.055	-0.295	0.249
-698.499	-152.825	-0.417	-0.030
-697.485	-200.000	0.003	0.047
-696.470	-200.000	0.005	0.090
-695.456	-158.238	0.328	0.020
-694.441	-65.111	0.270	0.112
-693.426	-113.155	0.224	0.045
-692.412	-152.965	-0.421	-0.031
-691.397	-67.545	-0.204	-0.082
-690.383	31.982	0.083	0.074
-689.368	42.467	0.053	-0.050
-688.354	31.497	-0.111	0.098
-687.339	-126.741	0.228	0.035
-686.324	23.275	-0.164	0.138
-685.310	338.962	0.063	0.126
-684.295	-200.000	0.007	0.042
-683.281	-60.913	0.027	0.012
-682.266	-8.879	0.097	0.067
-681.251	-89.883	-0.317	-0.095
-680.237	-17.616	-0.185	-0.120
-679.222	15.815	-0.105	-0.085
-678.208	49.903	-0.111	-0.108
-677.193	136.396	0.068	0.091
-676.178	-200.000	-0.030	0.343
-675.164	800.000	-0.064	-0.190
-674.149	160.470	-0.139	-0.200
-673.135	56.621	-0.233	0.233
-672.120	60.175	0.083	0.085
-671.105	-109.583	0.118	-0.026
-670.091	52.808	-0.138	0.136
-669.076	223.833	-0.068	-0.113
-668.062	-161.140	0.302	-0.016
-667.047	-200.000	-0.003	0.077
-666.032	773.494	0.079	-0.223
-665.018	-26.734	0.099	0.060
-664.003	-139.100	0.293	0.033
-662.989	-167.596	0.116	-0.005
-661.974	200.395	0.110	0.173
-660.959	800.000	-0.074	0.323
-659.945	800.000	0.036	-0.163
-658.930	-109.139	-0.174	0.038
-657.916	1.279	-0.171	-0.126
-656.901	-200.000	-0.318	-0.001
-655.886	248.961	-0.082	-0.142
-654.872	106.228	-0.106	-0.129
-653.857	221.763	-0.136	-0.225
-652.843	-200.000	-0.028	0.247
-651.828	758.699	-0.022	0.061
-650.814	-181.344	-0.352	-0.007
-649.799	561.417	-0.034	0.085
-648.784	-200.000	0.011	-0.100
-647.770	-101.237	-0.074	-0.019
-646.755	68.194	0.157	-0.165
-645.741	252.557	-0.192	0.336
-644.726	-68.131	-0.222	-0.089
-643.711	-94.245	0.141	-0.040
-642.697	-33.040	-0.105	-0.060
-641.682	26.276	-0.166	0.142
-640.668	800.000	-0.060	-0.208
-639.653	-200.000	-0.018	-0.288
-638.638	800.000	-0.057	-0.216
-637.624	-200.000	-0.006	-0.324
-636.609	-83.406	-0.285	0.094
-635.595	-103.120	-0.117	-0.028
-634.580	129.876	-0.073	-0.096
-633.565	80.454	-0.262	-0.289
-632.551	-104.906	-0.111	0.026
-631.536	-200.000	-0.049	0.309
-630.522	800.000	0.066	0.225
-629.507	-59.651	0.097	-0.043
-628.492	-168.680	-0.576	-0.022
-627.478	-200.000	0.018	-0.305
-626.463	-200.000	0.022	-0.224
-625.449	-200.000	-0.034	0.189
-624.434	-89.950	-0.162	-0.049
-623.419	-99.012	-0.087	-0.023
-622.405	-2.634	-0.106	0.076
-621.390	-200.000	0.078	-0.424
-620.376	-200.000	-0.020	0.132
-619.361	61.053	-0.163	-0.167
-618.346	56.254	0.233	-0.233
-617.332	509.922	0.070	-0.168
-616.317	-100.879	0.168	-0.042
-615.303	800.000	0.078	0.281
-614.288	153.708	-0.098	-0.138
-613.273	-200.000	0.019	-0.224
-612.259	671.020	0.085	-0.225
-611.244	-200.000	0.003	-0.057
-610.230	294.851	0.101	0.189
-609.215	-200.000	-0.026	-0.291
-608.201	-132.166	0.209	0.028
-607.186	-114.061	0.270	-0.054
-606.171	-93.966	-0.170	0.048
-605.157	-112.153	0.299	-0.062
-604.142	137.199	-0.114	-0.152
-603.128	-200.000	0.046	-0.292
-602.113	-200.000	0.010	0.148
-601.098	-71.642	-0.144	-0.055
-600.084	-43.445	0.118	0.061
-599.069	-88.285	-0.169	-0.052
-598.055	48.755	-0.057	-0.055
-597.040	30.602	-0.306	-0.268
-596.025	-93.050	0.342	-0.098
-595.011	-83.679	0.190	0.062
-593.996	800.000	-0.061	0.180
-592.982	-39.293	0.085	-0.046
-591.967	187.108	0.097	-0.148
-590.952	45.073	0.185	-0.174
-589.938	-200.000	-0.088	0.488
-588.923	-200.000	0.008	0.171
-587.909	-200.000	-0.023	0.188
-586.894	88.654	-0.074	0.084
-585.879	-146.730	0.256	-0.023
-584.865	-116.998	-0.103	-0.019
-583.850	800.000	0.042	-0.125
-582.836	27.857	-0.215	0.186
-581.821	800.000	-0.118	0.382
-580.806	317.722	0.118	0.229
-579.792	20.556	-0.261	-0.217
-578.777	-26.446	0.306	0.184
-577.763	-187.254	-0.139	-0.002
-576.748	-125.689	-0.368	0.057
-575.733	201.268	-0.076	-0.120
-574.719	114.336	-0.270	-0.337
-573.704	-200.000	-0.013	0.508
-572.690	-200.000	-0.024	-0.159
-571.675	-52.341	0.399	0.189
-570.661	-5.625	0.129	0.090
-569.646	-95.090	0.404	-0.112
-568.631	-95.456	-0.480	0.132
-567.617	-200.000	0.033	-0.623
-566.602	-154.916	0.142	0.010
-565.588	800.000	0.056	-0.240
-564.573	204.763	-0.049	-0.078
-563.558	350.514	0.011	-0.023
-562.544	233.496	-0.089	0.149
-561.529	107.840	0.027	-0.033
-560.515	800.000	0.097	0.326
-559.500	-61.490	-0.151	0.065
-558.485	85.671	0.332	-0.374
-557.471	-117.648	0.475	-0.088
-556.456	800.000	-0.071	-0.223
-555.442	-129.494	0.171	0.024
-554.427	288.336	-0.014	-0.026
-553.412	-200.000	-0.018	-0.347
-552.398	617.976	0.049	-0.127
-551.383	-200.000	-0.037	0.256
-550.369	800.000	0.060	0.221
-549.354	-61.653	0.103	-0.044
-548.339	-192.652	-0.223	-0.002
-547.325	187.755	-0.115	0.176
-546.310	88.381	-0.190	0.216
-545.296	1.287	0.199	-0.146
-544.281	225.969	0.080	0.132
-543.266	-180.014	0.142	0.003
-542.252	-106.416	0.242	0.055
-541.237	-200.000	0.042	0.283
-540.223	-80.972	0.115	0.039
-539.208	83.674	-0.410	0.458
-538.193	57.731	0.154	0.154
-537.179	-200.000	-0.017	-0.384
-536.164	292.308	-0.033	0.062
-535.150	-129.082	-0.143	0.020
-534.135	35.377	-0.193	-0.173
-533.121	370.081	-0.019	-0.040
-532.106	-107.176	-0.338	0.076
-531.091	156.841	-0.224	0.317
-530.077	398.521	-0.020	0.042
-529.062	5.493	-0.097	0.073
-528.048	-71.814	-0.366	-0.139
-527.033	182.139	0.091	-0.137
-526.018	-121.433	-0.230	-0.039
-525.004	-161.262	-0.089	0.005
-523.989	6.107	0.220	0.167
-522.975	2.042	-0.153	0.113
-521.960	152.752	0.109	-0.153
-520.945	61.380	0.155	-0.158
-519.931	-9.485	0.111	0.076
-518.916	-200.000	-0.026	0.181
-517.902	-127.096	-0.102	-0.015
-516.887	-127.372	0.174	-0.026
-515.872	-7.176	0.143	0.099
-514.858	-106.769	-0.067	-0.015
-513.843	-200.000	-0.047	-0.211
-512.829	370.717	0.063	0.131
-511.814	112.963	-0.099	0.123
-510.799	176.814	-0.118	0.175
-509.785	354.239	0.148	0.301
-508.770	-27.012	0.070	-0.042
-507.756	90.961	0.117	-0.134
-506.741	-200.000	-0.019	0.294
-505.726	166.920	-0.106	-0.154
-504.712	-79.712	0.214	-0.074
-503.697	426.742	0.039	0.085
-502.683	17.862	0.317	-0.258
-501.668	15.649	0.137	-0.110
-500.653	-129.503	-0.366	-0.052
-499.639	800.000	0.061	0.250
-498.624	617.388	-0.024	0.061
-497.610	-200.000	-0.068	0.515
-496.595	136.865	0.164	0.219
-495.581	254.551	0.112	-0.195
-494.566	-200.000	0.009	0.280
-493.551	-110.710	-0.048	0.010
-492.537	-3.971	0.045	0.032
-491.522	683.879	0.083	0.220
-490.508	-47.382	0.211	0.105
-489.493	-191.298	-0.239	0.002
-488.478	800.000	-0.086	0.320
-487.464	-57.157	0.108	-0.048
-486.449	130.515	-0.211	-0.276
-485.435	-88.078	-0.055	0.017
-484.420	35.821	-0.276	0.248
-483.405	-133.607	0.083	-0.011
-482.391	-200.000	-0.038	0.213
-481.376	0.864	0.140	0.102
-480.362	340.338	-0.123	0.245
-479.347	-200.000	-0.062	0.286
-478.332	-200.000	0.000	0.028
-477.318	489.886	-0.058	0.134
-476.303	800.000	0.022	-0.073
-475.289	173.092	-0.238	-0.350
-474.274	61.029	-0.081	0.082
-473.259	-48.802	-0.149	0.073
-472.245	-67.082	0.144	-0.058
-471.230	-37.864	-0.310	0.168
-470.216	-144.145	0.213	-0.020
-469.201	800.000	-0.087	0.281
-468.186	800.000	-0.031	-0.115
-467.172	106.150	0.054	0.065
-466.157	-200.000	-0.010	0.074
-465.143	-87.606	-0.173	-0.053
-464.128	244.470	-0.090	-0.155
-463.113	119.292	0.070	-0.088
-462.099	-14.907	0.168	0.110
-461.084	340.676	0.083	0.165
-460.070	-0.416	0.249	-0.180
-459.055	-136.762	0.294	0.035
-458.040	-2.839	0.088	-0.063
-457.026	68.057	0.176	-0.184
-456.011	93.241	-0.062	-0.072
-454.997	-52.889	0.256	-0.120
-453.982	800.000	-0.045	-0.183
-452.968	-78.452	0.053	-0.019
-451.953	-41.783	0.148	-0.077
-450.938	28.246	-0.081	-0.070
-449.924	51.618	-0.158	-0.153
-448.909	-200.000	0.035	0.303
-447.895	16.465	0.152	-0.122
-446.880	-200.000	-0.010	-0.119
-445.865	217.457	-0.028	-0.046
-444.851	3.826	0.310	-0.231
-443.836	120.719	0.231	-0.292
-442.822	214.238	0.037	-0.060
-441.807	-20.386	0.284	-0.178
-440.792	263.496	-0.119	0.212
-439.778	-124.239	0.193	-0.031
-438.763	611.862	0.109	0.279
-437.749	800.000	-0.068	-0.226
-436.734	-70.708	-0.297	0.114
-435.719	90.227	0.019	-0.022
-434.705	48.980	0.349	-0.334
-433.690	-44.441	-0.318	-0.162
-432.676	-50.892	0.267	0.128
-431.661	17.446	0.286	-0.231
-430.646	-36.752	0.131	-0.071
-429.632	-0.258	-0.243	0.176
-428.617	630.135	-0.111	0.286
-427.603	44.174	-0.133	-0.124
-426.588	265.560	-0.076	0.135
-425.573	-200.000	0.027	-0.170
-424.559	581.997	-0.086	-0.214
-423.544	642.250	0.056	-0.145
-422.530	800.000	-0.083	-0.247
-421.515	730.833	0.122	-0.331
-420.500	-70.296	-0.500	-0.193
-419.486	-114.655	0.362	0.071
-418.471	-200.000	0.015	-0.091
-417.457	-200.000	-0.070	-0.333
-416.442	-200.000	-0.004	0.212
-415.428	23.673	-0.126	-0.106
-414.413	-200.000	-0.029	-0.207
-413.398	800.000	0.022	-0.063
-412.384	156.573	0.157	0.220
-411.369	-200.000	0.013	-0.138
-410.355	-186.809	-0.127	-0.002
-409.340	-75.655	-0.187	-0.067
-408.325	-21.398	0.214	0.133
-407.311	-57.489	0.062	-0.028
-406.296	307.297	-0.076	-0.144
-405.282	800.000	-0.033	-0.102
-404.267	69.870	-0.128	-0.134
-403.252	-53.441	0.133	0.062
-402.238	-88.743	-0.284	0.086
-401.223	-82.015	0.149	-0.050
-400.209	-165.657	-0.279	0.012
-399.194	110.057	-0.099	0.120
-398.179	800.000	-0.060	-0.206
-397.165	800.000	-0.081	-0.304
-396.150	-102.088	0.327	-0.080
-395.136	-200.000	-0.048	0.374
-394.121	-14.824	0.219	-0.143
-393.106	-91.721	-0.089	0.026
-392.092	62.163	-0.063	0.064
-391.077	-200.000	0.018	0.172
-390.063	-200.000	-0.017	0.262
-389.048	-80.263	-0.126	-0.043
-388.033	-76.170	-0.167	-0.060
-387.019	198.754	-0.104	-0.161
-386.004	-82.019	0.165	-0.055
-384.990	800.000	0.091	-0.275
-383.975	800.000	0.038	-0.166
-382.960	18.779	0.136	-0.110
-381.946	-5.543	-0.193	0.135
-380.931	633.116	0.025	0.063
-379.917	726.693	-0.023	0.061
-378.902	-200.000	-0.039	0.246
-377.888	800.000	0.051	-0.206
-376.873	176.439	-0.196	-0.289
-375.858	-200.000	0.024	0.186
-374.844	-200.000	0.058	0.305
-373.829	266.062	-0.241	0.428
-372.815	333.586	-0.099	0.194
-371.800	-83.937	-0.204	-0.066
-370.785	-87.925	0.330	0.101
-369.771	-64.900	0.325	-0.134
-368.756	-131.901	-0.403	-0.054
-367.742	-49.157	-0.172	0.084
-366.727	36.593	-0.237	-0.213
-365.712	239.887	-0.095	0.161
-364.698	8.081	-0.192	-0.146
-363.683	-188.557	0.115	0.001
-362.669	-52.842	0.111	-0.052
-361.654	15.411	-0.262	0.209
-360.639	190.335	0.120	-0.184
-359.625	-200.000	0.013	0.075
-358.610	14.505	0.054	0.043
-357.596	100.180	-0.271	0.319
-356.581	-18.957	-0.218	-0.138
-355.566	660.078	0.145	-0.379
-354.552	-51.389	0.228	0.108
-353.537	-200.000	-0.025	0.434
-352.523	800.000	0.044	0.151
-351.508	32.083	0.027	0.024
-350.493	580.265	0.079	-0.197
-349.479	-200.000	-0.011	0.163
-348.464	-200.000	-0.018	0.229
-347.450	243.066	0.107	-0.181
-346.435	360.823	-0.084	0.171
-345.420	388.931	-0.085	0.178
-344.406	-200.000	0.000	-0.131
-343.391	-200.000	-0.049	-0.412
-342.377	-200.000	0.007	0.213
-341.362	479.519	0.065	0.150
-340.348	-15.402	0.030	-0.019
-339.333	51.453	-0.089	-0.086
-338.318	-126.537	-0.101	-0.015
-337.304	-140.520	-0.354	-0.037
-336.289	133.241	0.195	-0.255
-335.275	-200.000	-0.017	-0.105
-334.260	-200.000	-0.021	0.119
-333.245	59.538	0.218	-0.219
-332.231	140.447	-0.037	-0.050
-331.216	-113.170	0.133	0.027
-330.202	-200.000	-0.003	-0.017
-329.187	-102.675	0.267	-0.065
-328.172	-200.000	0.052	0.584
-327.158	-161.355	-0.201	-0.011
-326.143	-200.000	0.039	0.184
-325.129	759.429	0.069	0.190
-324.114	-200.000	0.003	0.167
-323.099	-200.000	0.079	0.539
-322.085	800.000	-0.086	0.352
-321.070	-177.624	0.143	0.004
-320.056	129.515	0.041	-0.053
-319.041	-0.997	0.172	-0.124
-318.026	-27.815	-0.192	-0.113
-317.012	38.902	0.350	-0.317
-315.997	12.917	0.175	-0.137
-314.983	93.481	-0.188	-0.216
-313.968	161.628	0.177	0.251
-312.953	-165.967	-0.233	-0.010
-311.939	-104.273	-0.395	0.093
-310.924	-134.686	-0.207	-0.026
-309.910	800.000	-0.045	-0.179
-308.895	-80.571	-0.213	0.072
-307.880	-200.000	-0.081	0.425
-306.866	155.196	-0.110	0.153
-305.851	-200.000	-0.019	0.228
-304.837	43.009	0.389	-0.360
-303.822	59.344	-0.181	-0.181
-302.807	166.320	0.158	-0.227
-301.793	-200.000	-0.070	-0.330
-300.778	800.000	0.027	-0.109
-299.764	800.000	-0.025	0.106
-298.749	19.702	-0.143	0.117
-297.735	129.154	-0.109	0.141
-296.720	-200.000	-0.002	-0.137
-295.705	-17.744	0.131	-0.083
-294.691	107.649	0.310	0.374
-293.676	-131.420	-0.224	0.030
-292.662	80.763	0.065	0.071
-291.647	290.756	-0.160	-0.294
-290.632	364.126	0.084	-0.172
-289.618	-86.390	-0.283	-0.088
-288.603	55.951	0.105	-0.103
-287.589	-90.212	0.115	0.034
-286.574	-200.000	0.010	-0.286
-285.559	-200.000	0.017	-0.112
-284.545	647.923	-0.087	-0.224
-283.530	42.362	-0.125	0.115
-282.516	69.051	-0.136	-0.142
-281.501	-200.000	-0.056	0.334
-280.486	226.208	0.075	0.123
-279.472	-200.000	0.003	-0.341
-278.457	186.343	0.187	-0.281
-277.443	-200.000	-0.048	-0.316
-276.428	-200.000	-0.044	-0.302
-275.413	186.489	0.172	0.259
-274.399	616.130	0.075	0.191
-273.384	-200.000	-0.020	0.340
-272.370	184.933	0.175	0.263
-271.355	-200.000	0.000	-0.182
-270.340	311.765	-0.106	0.201
-269.326	-200.000	-0.003	-0.177
-268.311	243.668	-0.123	-0.208
-267.297	-3.275	0.267	0.188
-266.282	-126.439	0.278	0.042
-265.267	800.000	-0.066	0.235
-264.253	-44.517	0.169	-0.086
-263.238	-134.646	-0.238	-0.029
-262.224	140.485	-0.247	0.330
-261.209	-97.798	0.223	-0.058
-260.195	661.416	0.058	0.151
-259.180	398.274	0.015	0.031
-258.165	800.000	-0.019	0.058
-257.151	-67.311	0.164	-0.065
-256.136	-147.246	0.217	-0.019
-255.122	370.797	-0.191	0.393
-254.107	-77.571	0.178	0.062
-253.092	-5.507	-0.142	0.099
-252.078	44.536	0.171	-0.159
-251.063	-29.474	-0.063	0.037
-250.049	-189.019	-0.071	0.001
-249.034	-200.000	0.008	-0.081
-248.019	142.255	0.096	-0.129
-247.005	598.002	0.082	-0.205
-245.990	310.244	0.132	-0.250
-244.976	800.000	-0.075	-0.238
-243.961	39.851	-0.081	-0.074
-242.946	800.000	-0.074	-0.281
-241.932	51.339	-0.222	0.213
-240.917	-200.000	-0.014	-0.255
-239.903	-200.000	-0.016	-0.164
-238.888	205.550	0.226	-0.355
-237.873	54.809	0.046	0.045
-236.859	18.680	-0.130	0.105
-235.844	170.779	0.089	-0.129
-234.830	134.169	-0.193	-0.253
-233.815	-95.789	-0.100	0.027
-232.800	-200.000	0.003	0.158
-231.786	266.647	0.058	0.103
-230.771	138.297	0.136	0.180
-229.757	800.000	-0.048	-0.139
-228.742	125.403	-0.146	0.186
-227.727	-107.615	-0.245	-0.054
-226.713	130.168	-0.267	-0.345
-225.698	19.665	0.410	-0.333
-224.684	639.953	-0.101	0.260
-223.669	56.784	0.039	-0.038
-222.655	163.161	-0.018	0.026
-221.640	-200.000	-0.036	0.191
-220.625	623.164	-0.207	0.528
-219.611	-110.872	-0.191	0.040
-218.596	-132.846	0.329	0.042
-217.582	800.000	-0.033	0.095
-216.567	-56.793	-0.129	-0.058
-215.552	-200.000	0.001	-0.050
-214.538	-200.000	0.005	-0.231
-213.523	21.492	-0.116	-0.095
-212.509	139.059	-0.053	0.070
-211.494	784.210	-0.076	-0.210
-210.479	-112.184	-0.113	0.023
-209.465	61.099	0.247	0.248
-208.450	142.889	0.106	0.142
-207.436	-55.261	-0.149	0.068
-206.421	21.798	0.232	-0.191
-205.406	-0.592	-0.229	0.164
-204.392	-166.214	0.177	-0.008
-203.377	11.700	-0.118	0.092
-202.363	800.000	0.101	0.306
-201.348	17.511	-0.139	0.112
-200.333	-81.582	0.103	0.034
-199.319	-7.853	-0.309	0.211
-198.304	161.370	-0.185	0.262
-197.290	-29.109	-0.062	-0.036
-196.275	-23.280	0.246	0.150
-195.260	186.927	-0.090	0.135
-194.246	-134.032	-0.042	-0.005
-193.231	-200.000	0.035	0.168
-192.217	143.286	0.091	-0.122
-191.202	-52.826	0.080	0.037
-190.187	83.837	0.281	-0.310
-189.173	-81.412	0.294	-0.098
-188.158	68.790	0.227	0.235
-187.144	-150.748	0.168	-0.013
-186.129	-200.000	0.005	-0.107
-185.114	-147.007	0.442	-0.038
-184.100	-168.039	0.520	-0.020
-183.085	73.610	0.229	-0.242
-182.071	-108.444	0.186	0.040
-181.056	-91.064	-0.092	-0.027
-180.042	80.919	-0.312	0.340
-179.027	-80.559	0.183	0.062
-178.012	-200.000	-0.028	0.338
-176.998	-10.668	0.133	0.088
-175.983	-200.000	-0.019	-0.199
-174.969	-129.276	-0.260	0.036
-173.954	-200.000	0.030	0.482
-172.939	800.000	0.130	0.363
-171.925	158.513	-0.156	-0.218
-170.910	-8.258	0.257	0.175
-169.896	-200.000	-0.011	-0.102
-168.881	-129.976	-0.065	0.009
-167.866	165.954	-0.255	0.363
-166.852	536.500	0.062	-0.147
-165.837	-38.921	0.416	-0.221
-164.823	-25.009	0.120	-0.071
-163.808	-101.046	0.230	-0.057
-162.793	800.000	0.019	-0.071
-161.779	800.000	-0.044	-0.151
-160.764	-1.614	-0.275	0.195
-159.750	-24.502	-0.192	-0.115
-158.735	800.000	-0.072	-0.243
-157.720	-22.151	-0.164	-0.100
-156.706	-83.067	0.089	0.029
-155.691	-140.701	-0.099	0.010
-154.677	-200.000	0.027	0.264
-153.662	-12.895	0.157	-0.103
-152.647	800.000	0.072	-0.272
-151.633	800.000	-0.102	0.362
-150.618	287.053	-0.125	0.228
-149.604	118.762	0.109	-0.135
-148.589	139.509	-0.062	0.083
-147.574	125.119	0.038	0.048
-146.560	-77.582	0.265	-0.092
-145.545	-18.546	0.159	0.100
-144.531	-200.000	-0.029	-0.136
-143.516	-104.354	0.095	0.022
-142.502	342.534	-0.098	-0.193
-141.487	-200.000	-0.044	0.217
-140.472	-200.000	0.051	0.274
-139.458	-80.291	0.250	-0.084
-138.443	130.955	-0.123	-0.159
-137.429	-169.577	-0.271	-0.010
-136.414	291.774	-0.049	-0.090
-135.399	800.000	-0.079	0.323
-134.385	38.184	0.167	0.149
-133.370	-99.655	0.273	-0.069
-132.356	51.982	-0.068	0.065
-131.341	-108.403	-0.258	0.056
-130.326	105.423	0.209	0.248
-129.312	231.324	0.261	0.430
-128.297	-151.810	-0.091	-0.007
-127.283	-98.753	-0.073	-0.019
-126.268	-200.000	-0.043	-0.293
-125.253	798.883	0.064	-0.179
-124.239	-200.000	0.009	0.089
-123.224	137.460	-0.139	0.183
-122.210	-24.702	0.081	-0.048
