DTS Sentinel unit serial number:	SN413079Multiplexer serial number:	ORYXHardware model number:	OX4-SRSoftware version number:	ORYX F/W v4.00 Oryx Data Collector v3.7.2.0data status	okinstallation	princeton_trtdifferential loss correction	single-endedforward channel	channel 4reverse channel	N/Adate	2019/09/18time	09:21:34forward acquisition time	60.00reverse acquisition time	0.00gamma	496.2192k internal	0.2324k external	0.2324temperature offset calibration	0.9979default loss term (dB/km)	0.3790temperature slope calibration	1.0000multiplexer offset coefficient	1.0000multiplexer slope coefficient	1.0000fibre end	0.00T internal ref (°C)	26.00T ext. ref 1 (°C)	0.25T ext. ref 2 (°C)	23.42length (m)	temperature (°C)	Stokes	anti-Stokes-747.200	800.000	-0.028	-0.118
-746.185	94.098	-0.261	0.299
-745.171	747.613	-0.053	0.143
-744.156	-22.125	-0.484	0.297
-743.142	315.618	-0.091	0.172
-742.127	-108.544	-0.321	0.070
-741.112	104.842	-0.176	0.210
-740.098	800.000	-0.043	-0.154
-739.083	79.427	0.087	0.094
-738.069	-149.397	-0.349	0.028
-737.054	800.000	-0.022	-0.073
-736.039	-125.310	-0.210	-0.032
-735.025	-200.000	-0.006	-0.255
-734.010	-123.709	-0.167	0.027
-732.996	-200.000	0.029	0.214
-731.981	-70.505	0.209	0.080
-730.966	800.000	0.053	-0.159
-729.952	-120.073	-0.262	-0.045
-728.937	-184.996	-0.240	0.004
-727.923	95.257	-0.112	-0.129
-726.908	33.229	0.266	-0.233
-725.894	-97.199	-0.343	0.090
-724.879	24.425	-0.070	0.059
-723.864	-135.820	-0.046	0.005
-722.850	800.000	-0.029	0.090
-721.835	-141.911	0.397	-0.040
-720.821	-16.482	0.159	0.101
-719.806	285.214	0.110	0.200
-718.791	42.639	-0.154	0.141
-717.777	148.769	-0.319	-0.435
-716.762	490.347	0.123	0.283
-715.748	160.772	-0.126	-0.177
-714.733	-97.888	-0.318	0.083
-713.718	800.000	0.205	0.574
-712.704	-200.000	-0.009	-0.094
-711.689	601.288	-0.083	-0.208
-710.675	-200.000	0.019	-0.207
-709.660	-148.297	-0.273	0.023
-708.645	-14.903	-0.196	-0.126
-707.631	451.401	-0.120	-0.266
-706.616	-200.000	-0.017	-0.178
-705.602	-115.863	0.302	0.057
-704.587	147.653	0.035	0.047
-703.572	-113.654	0.298	0.059
-702.558	-87.428	-0.200	-0.061
-701.543	-200.000	0.013	-0.268
-700.529	-9.247	0.123	0.083
-699.514	-125.301	-0.261	-0.040
-698.499	793.272	-0.038	0.105
-697.485	800.000	0.023	0.095
-696.470	-74.594	-0.298	-0.108
-695.456	80.292	0.189	-0.205
-694.441	298.962	-0.095	0.177
-693.426	215.651	-0.153	0.244
-692.412	-9.131	-0.188	-0.127
-691.397	-49.842	-0.378	-0.181
-690.383	800.000	-0.058	-0.207
-689.368	-81.263	-0.118	-0.039
-688.354	61.144	0.136	0.136
-687.339	800.000	0.109	-0.319
-686.324	-200.000	0.003	0.175
-685.310	126.657	-0.021	0.027
-684.295	190.172	0.094	-0.142
-683.281	442.031	0.163	-0.360
-682.266	8.622	-0.095	-0.072
-681.251	800.000	0.113	-0.484
-680.237	-106.069	0.079	-0.018
-679.222	-183.183	-0.101	0.002
-678.208	-200.000	0.035	0.199
-677.193	136.678	-0.144	-0.190
-676.178	-105.511	-0.309	-0.071
-675.164	-153.076	0.180	0.013
-674.149	800.000	-0.153	-0.630
-673.135	377.652	-0.082	-0.169
-672.120	296.946	0.147	-0.271
-671.105	800.000	-0.095	-0.359
-670.091	46.338	-0.237	0.221
-669.076	-113.356	-0.370	0.073
-668.062	168.890	0.155	-0.223
-667.047	124.660	-0.170	-0.215
-666.032	-200.000	0.010	0.072
-665.018	-200.000	0.031	-0.208
-664.003	800.000	0.030	0.087
-662.989	228.741	-0.083	-0.136
-661.974	800.000	-0.051	-0.171
-660.959	643.094	-0.036	0.092
-659.945	-106.293	-0.190	-0.043
-658.930	-200.000	0.017	-0.413
-657.916	-200.000	0.020	-0.270
-656.901	-200.000	-0.001	0.090
-655.886	102.430	0.155	0.182
-654.872	-95.829	0.104	-0.028
-653.857	-97.358	-0.248	0.065
-652.843	131.102	0.039	0.051
-651.828	4.641	-0.084	0.062
-650.814	-113.713	0.407	-0.080
-649.799	-200.000	0.003	-0.128
-648.784	39.424	-0.150	-0.135
-647.770	-200.000	-0.003	0.281
-646.755	394.964	-0.068	0.142
-645.741	-21.217	-0.152	-0.094
-644.726	546.251	-0.039	0.093
-643.711	-44.844	-0.326	0.164
-642.697	310.021	-0.091	-0.171
-641.682	-133.048	-0.120	-0.015
-640.668	-74.269	0.236	-0.086
-639.653	-85.582	-0.304	0.095
-638.638	235.366	0.196	-0.325
-637.624	-94.034	0.410	-0.113
-636.609	150.922	-0.121	-0.165
-635.595	-64.032	0.185	0.076
-634.580	692.019	-0.031	-0.082
-633.565	89.893	0.082	-0.092
-632.551	-66.178	0.291	0.116
-631.536	-200.000	-0.025	0.240
-630.522	57.315	0.102	0.100
-629.507	137.366	-0.081	0.106
-628.492	16.895	0.077	0.061
-627.478	74.908	-0.097	0.103
-626.463	-200.000	0.148	-0.001
-625.449	-5.093	-0.175	-0.121
-624.434	241.917	-0.167	-0.281
-623.419	447.754	0.190	-0.420
-622.405	-182.291	-0.151	0.003
-621.390	-83.544	-0.090	-0.029
-620.376	80.732	-0.096	-0.104
-619.361	-152.413	-0.215	0.016
-618.346	48.454	-0.416	-0.391
-617.332	34.076	0.388	-0.339
-616.317	-135.729	0.152	0.018
-615.303	800.000	0.027	0.114
-614.288	5.791	-0.119	0.088
-613.273	104.226	-0.124	0.147
-612.259	-126.190	0.361	-0.054
-611.244	72.037	0.080	0.083
-610.230	-200.000	0.013	0.312
-609.215	35.115	0.107	-0.094
-608.201	-94.599	0.121	-0.033
-607.186	-79.675	-0.242	-0.082
-606.171	800.000	-0.048	-0.161
-605.157	-92.908	-0.112	-0.031
-604.142	-89.847	-0.309	0.091
-603.128	135.294	0.102	-0.133
-602.113	-42.214	-0.108	-0.055
-601.098	80.002	0.093	-0.101
-600.084	59.736	-0.204	0.202
-599.069	800.000	-0.044	-0.172
-598.055	72.080	-0.136	0.142
-597.040	400.008	0.050	-0.106
-596.025	-59.523	0.066	-0.028
-595.011	-200.000	-0.023	0.150
-593.996	-82.961	0.204	0.066
-592.982	800.000	-0.060	-0.259
-591.967	145.189	-0.132	0.178
-590.952	676.114	-0.020	-0.052
-589.938	-19.005	-0.149	0.093
-588.923	-96.124	0.300	-0.080
-587.909	-61.450	-0.292	-0.123
-586.894	-200.000	0.014	0.067
-585.879	-200.000	-0.069	0.373
-584.865	267.171	-0.118	-0.208
-583.850	-51.748	0.150	-0.070
-582.836	-16.459	0.149	0.095
-581.821	-200.000	0.027	0.212
-580.806	124.688	-0.049	0.062
-579.792	151.436	0.107	-0.147
-578.777	-200.000	-0.028	0.430
-577.763	600.910	-0.119	0.297
-576.748	63.437	0.178	0.179
-575.733	95.095	-0.119	-0.136
-574.719	-64.633	0.222	0.090
-573.704	-138.972	-0.364	-0.040
-572.690	-40.086	0.224	-0.117
-571.675	104.879	-0.115	0.136
-570.661	-76.369	-0.145	0.051
-569.646	-35.127	0.207	0.113
-568.631	-54.285	0.196	-0.089
-567.617	-104.852	0.322	-0.074
-566.602	-164.912	-0.199	-0.009
-565.588	-75.139	-0.165	-0.059
-564.573	-200.000	-0.015	-0.266
-563.558	-62.605	-0.175	0.073
-562.544	218.881	0.107	0.171
-561.529	445.287	-0.011	-0.024
-560.515	-134.468	0.284	-0.035
-559.500	164.836	-0.209	0.296
-558.485	167.384	0.125	0.178
-557.471	707.889	0.107	0.282
-556.456	148.594	0.066	-0.089
-555.442	69.882	0.345	-0.356
-554.427	178.700	-0.129	0.189
-553.412	-200.000	-0.017	0.288
-552.398	-28.906	-0.154	-0.089
-551.383	800.000	0.035	-0.102
-550.369	217.304	0.202	0.323
-549.354	681.154	0.028	0.074
-548.339	-2.177	-0.248	0.175
-547.325	-200.000	0.055	0.266
-546.310	-200.000	-0.005	-0.262
-545.296	-77.417	-0.400	0.139
-544.281	800.000	0.077	-0.328
-543.266	800.000	-0.118	-0.434
-542.252	800.000	-0.061	0.177
-541.237	113.715	0.090	-0.110
-540.223	407.461	-0.033	-0.070
-539.208	405.141	-0.072	-0.152
-538.193	-38.496	-0.175	0.093
-537.179	511.095	-0.040	0.094
-536.164	69.015	0.199	-0.205
-535.150	-200.000	0.056	-0.250
-534.135	242.452	0.152	-0.254
-533.121	800.000	-0.146	-0.506
-532.106	-39.356	0.268	-0.141
-531.091	-43.934	-0.241	0.121
-530.077	173.555	-0.281	-0.406
-529.062	-66.110	-0.232	-0.092
-528.048	58.772	0.209	-0.205
-527.033	317.623	-0.016	0.031
-526.018	19.170	0.259	-0.208
-525.004	753.457	0.105	-0.283
-523.989	-99.826	-0.202	0.051
-522.975	94.418	-0.102	0.116
-521.960	44.135	0.217	-0.199
-520.945	-116.443	0.042	-0.008
-519.931	-133.772	-0.179	-0.022
-518.916	-200.000	0.011	-0.168
-517.902	59.006	0.505	0.497
-516.887	-87.833	-0.501	0.151
-515.872	7.712	0.131	-0.098
-514.858	-127.163	0.269	-0.039
-513.843	-119.068	-0.271	-0.047
-512.829	-200.000	0.033	0.329
-511.814	-141.547	0.220	0.022
-510.799	480.048	-0.090	0.203
-509.785	800.000	-0.038	0.119
-508.770	-51.942	-0.096	-0.044
-507.756	-200.000	-0.016	0.239
-506.741	-114.696	0.183	0.035
-505.726	256.445	0.110	0.189
-504.712	-108.172	0.160	-0.035
-503.697	58.184	-0.136	-0.133
-502.683	800.000	0.097	-0.352
-501.668	536.121	-0.084	-0.199
-500.653	32.791	0.090	-0.078
-499.639	467.756	-0.112	0.250
-498.624	29.908	0.221	0.189
-497.610	-200.000	-0.016	-0.256
-496.595	-41.218	0.184	-0.095
-495.581	4.503	0.327	0.240
-494.566	327.975	-0.056	0.108
-493.551	-200.000	-0.047	0.253
-492.537	-112.674	0.152	0.030
-491.522	154.925	-0.049	-0.067
-490.508	-69.636	-0.340	0.130
-489.493	-39.337	0.100	0.052
-488.478	-64.273	-0.144	0.059
-487.464	34.325	-0.303	0.264
-486.449	-124.927	-0.220	-0.034
-485.435	-200.000	-0.022	-0.249
-484.420	-73.675	0.375	-0.136
-483.405	-116.811	-0.249	-0.046
-482.391	142.905	0.165	-0.219
-481.376	228.006	0.077	0.126
-480.362	-6.706	0.279	-0.190
-479.347	-200.000	0.043	-0.229
-478.332	-118.748	-0.308	0.054
-477.318	800.000	-0.106	-0.389
-476.303	-57.794	0.091	0.040
-475.289	39.864	0.146	0.131
-474.274	516.693	0.117	-0.273
-473.259	-152.663	-0.311	-0.022
-472.245	43.085	-0.093	0.085
-471.230	238.394	-0.070	0.116
-470.216	293.330	-0.084	0.153
-469.201	-200.000	-0.034	-0.498
-468.186	-27.334	-0.415	0.241
-467.172	800.000	0.034	-0.122
-466.157	800.000	0.055	-0.171
-465.143	218.901	-0.077	-0.123
-464.128	-200.000	-0.003	-0.013
-463.113	309.459	0.084	-0.157
-462.099	169.617	0.145	-0.207
-461.084	-56.455	-0.094	0.042
-460.070	-200.000	0.008	0.130
-459.055	-200.000	0.012	0.270
-458.040	-98.351	-0.410	-0.105
-457.026	57.617	-0.116	0.113
-456.011	-87.304	0.099	-0.030
-454.997	-96.239	-0.137	0.036
-453.982	-200.000	0.018	0.163
-452.968	-35.017	-0.050	-0.027
-451.953	-33.007	-0.203	0.112
-450.938	-22.446	-0.168	-0.101
-449.924	-105.311	-0.139	-0.032
-448.909	-34.531	-0.186	-0.102
-447.895	462.261	-0.181	0.402
-446.880	-115.369	0.192	-0.036
-445.865	-74.180	-0.257	0.093
-444.851	-200.000	0.044	-0.370
-443.836	-154.117	0.252	0.017
-442.822	691.470	0.122	0.318
-441.807	10.348	-0.083	-0.063
-440.792	-127.269	-0.494	0.072
-439.778	-136.558	-0.238	-0.028
-438.763	-57.771	-0.046	0.020
-437.749	52.232	0.152	-0.145
-436.734	-145.541	0.077	-0.007
-435.719	65.070	-0.214	0.216
-434.705	-200.000	-0.043	0.280
-433.690	-9.426	0.107	0.071
-432.676	17.501	-0.106	0.084
-431.661	-71.052	-0.196	0.073
-430.646	-200.000	0.040	-0.211
-429.632	265.309	0.143	0.248
-428.617	428.921	0.128	0.276
-427.603	173.699	-0.095	0.136
-426.588	-30.952	-0.345	-0.195
-425.573	-200.000	0.012	0.096
-424.559	800.000	-0.080	0.321
-423.544	-62.165	0.449	0.187
-422.530	4.478	0.168	-0.123
-421.515	-193.417	0.206	0.002
-420.500	-20.006	0.077	0.048
-419.486	-200.000	-0.025	-0.153
-418.471	-109.387	0.300	0.063
-417.457	-118.770	0.163	0.029
-416.442	43.637	0.271	-0.247
-415.428	-47.289	0.031	-0.015
-414.413	-13.325	0.036	0.024
-413.398	-139.141	0.140	-0.015
-412.384	800.000	0.062	0.232
-411.369	-200.000	-0.006	-0.244
-410.355	-200.000	-0.008	-0.138
-409.340	43.031	0.245	0.223
-408.325	-177.151	-0.157	-0.004
-407.311	378.508	0.100	0.203
-406.296	-200.000	0.045	0.299
-405.282	337.110	-0.161	0.312
-404.267	-33.519	0.172	-0.095
-403.252	-38.801	-0.156	0.082
-402.238	-42.578	0.073	-0.037
-401.223	-175.852	-0.267	-0.007
-400.209	-200.000	-0.035	-0.199
-399.194	51.569	-0.069	0.066
-398.179	98.224	0.130	0.150
-397.165	-48.846	0.096	0.046
-396.150	340.454	-0.188	0.366
-395.136	79.407	0.100	-0.107
-394.121	40.043	-0.078	-0.070
-393.106	52.091	-0.168	-0.159
-392.092	-200.000	0.009	-0.374
-391.077	654.021	-0.016	0.040
-390.063	539.567	0.061	0.146
-389.048	-1.195	-0.134	-0.094
-388.033	477.858	-0.068	0.154
-387.019	315.623	-0.042	0.079
-386.004	-200.000	-0.010	-0.075
-384.990	52.076	0.294	-0.279
-383.975	192.940	-0.033	-0.049
-382.960	-200.000	0.012	-0.221
-381.946	89.538	-0.246	-0.273
-380.931	-35.764	-0.181	-0.098
-379.917	-96.067	-0.061	0.016
-378.902	-148.054	0.217	0.018
-377.888	-200.000	-0.038	0.174
-376.873	-48.422	0.135	0.065
-375.858	-200.000	-0.016	-0.089
-374.844	-127.034	0.378	-0.055
-373.829	735.783	-0.128	0.342
-372.815	710.874	0.103	0.271
-371.800	-200.000	0.159	0.000
-370.785	207.226	0.190	-0.296
-369.771	397.737	0.036	-0.075
-368.756	129.545	0.180	0.229
-367.742	514.513	-0.022	-0.051
-366.727	100.598	0.061	-0.070
-365.712	30.881	-0.175	0.149
-364.698	-176.994	-0.077	0.002
-363.683	-200.000	-0.023	-0.216
-362.669	-200.000	0.054	-0.251
-361.654	39.336	-0.105	-0.093
-360.639	-42.641	0.345	-0.174
-359.625	-111.692	-0.148	0.030
-358.610	-111.323	0.140	0.028
-357.596	800.000	0.060	-0.187
-356.581	800.000	-0.045	-0.175
-355.566	18.518	0.064	-0.051
-354.552	-81.338	0.106	0.035
-353.537	-41.934	0.175	-0.089
-352.523	-88.589	-0.248	0.073
-351.508	-29.236	0.304	0.173
-350.493	-83.405	0.226	-0.072
-349.479	-193.328	0.421	0.004
-348.464	90.626	-0.114	0.127
-347.450	-200.000	0.006	0.517
-346.435	-187.065	0.369	0.005
-345.420	270.381	-0.117	-0.204
-344.406	-135.403	-0.060	-0.007
-343.391	297.349	-0.136	0.248
-342.377	43.087	0.164	-0.149
-341.362	672.015	0.029	0.074
-340.348	-200.000	-0.009	-0.207
-339.333	-103.776	0.056	-0.013
-338.318	-200.000	0.061	0.352
-337.304	130.193	0.112	0.142
-336.289	-95.535	0.103	-0.028
-335.275	-143.464	0.341	-0.032
-334.260	35.449	0.189	-0.165
-333.245	168.318	-0.270	-0.382
-332.231	84.055	-0.038	-0.042
-331.216	46.664	0.330	0.304
-330.202	48.007	0.198	0.184
-329.187	70.467	-0.067	0.068
-328.172	-200.000	-0.014	0.133
-327.158	462.936	0.027	0.060
-326.143	-27.341	-0.092	0.053
-325.129	-112.614	0.281	-0.056
-324.114	342.914	0.152	0.296
-323.099	-43.166	-0.273	-0.137
-322.085	-200.000	-0.010	0.186
-321.070	-200.000	-0.026	0.256
-320.056	-69.638	-0.041	0.015
-319.041	-19.358	0.302	0.186
-318.026	-58.873	-0.216	0.093
-317.012	-66.458	0.571	-0.225
-315.997	53.800	0.144	-0.137
-314.983	57.224	0.189	-0.183
-313.968	-31.303	-0.180	-0.100
-312.953	-200.000	-0.044	0.283
-311.939	-80.373	-0.139	-0.046
-310.924	-41.797	0.300	-0.153
-309.910	60.252	0.269	-0.264
-308.895	-200.000	-0.084	-0.642
-307.880	-122.553	0.322	-0.052
-306.866	385.126	0.064	0.131
-305.851	37.122	0.207	0.182
-304.837	-125.189	0.157	0.024
-303.822	800.000	-0.081	0.316
-302.807	800.000	-0.025	0.096
-301.793	660.460	-0.064	-0.162
-300.778	269.188	-0.215	-0.375
-299.764	-164.859	-0.270	-0.012
-298.749	800.000	-0.037	0.117
-297.735	18.791	0.192	0.153
-296.720	-200.000	0.018	0.087
-295.705	-49.143	0.125	-0.059
-294.691	800.000	-0.114	-0.398
-293.676	-57.290	-0.151	-0.066
-292.662	39.214	-0.236	-0.210
-291.647	-200.000	-0.007	0.306
-290.632	142.972	-0.136	0.180
-289.618	-81.558	-0.301	0.098
-288.603	-120.176	0.111	0.019
-287.589	524.564	-0.111	-0.258
-286.574	7.686	-0.168	-0.124
-285.559	-200.000	-0.043	-0.248
-284.545	-69.215	-0.203	-0.078
-283.530	800.000	-0.060	0.191
-282.516	-148.190	0.310	-0.025
-281.501	90.238	0.163	-0.181
-280.486	52.587	0.332	-0.314
-279.472	-130.115	0.264	0.036
-278.457	-67.656	-0.163	0.063
-277.443	-56.455	-0.187	-0.082
-276.428	-21.113	-0.380	0.230
-275.413	-76.568	-0.139	0.048
-274.399	800.000	0.087	-0.284
-273.384	-111.235	-0.104	0.021
-272.370	-174.835	-0.379	-0.011
-271.355	330.171	-0.199	-0.380
-270.340	27.281	0.268	-0.223
-269.326	-7.374	0.044	0.030
-268.311	45.888	-0.196	-0.180
-267.297	800.000	0.026	-0.102
-266.282	-74.785	0.248	0.088
-265.267	-41.499	0.121	-0.062
-264.253	-148.870	0.178	-0.014
-263.238	-200.000	-0.013	-0.148
-262.224	-106.358	0.153	-0.034
-261.209	-41.265	-0.375	0.191
-260.195	-29.012	0.259	0.147
-259.180	-12.177	0.121	-0.079
-258.165	71.181	-0.080	-0.082
-257.151	-60.870	-0.288	0.121
-256.136	-122.685	0.194	0.031
-255.122	292.493	-0.093	-0.169
-254.107	800.000	0.078	0.329
-253.092	-200.000	0.023	0.268
-252.078	211.278	-0.208	0.325
-251.063	357.099	-0.167	0.329
-250.049	-200.000	-0.037	-0.197
-249.034	-26.258	-0.140	-0.082
-248.019	17.680	-0.242	-0.190
-247.005	-84.243	-0.095	0.030
-245.990	-44.153	0.093	0.046
-244.976	430.957	0.054	-0.117
-243.961	126.576	0.141	-0.177
-242.946	3.767	0.210	0.152
-241.932	-200.000	-0.053	0.312
-240.917	-56.754	0.264	-0.115
-239.903	56.764	-0.247	-0.238
-238.888	-82.304	-0.091	0.029
-237.873	-200.000	0.033	-0.232
-236.859	214.898	-0.109	-0.171
-235.844	-23.401	-0.490	-0.292
-234.830	-55.939	0.325	-0.143
-233.815	2.075	0.345	-0.247
-232.800	800.000	0.086	-0.243
-231.786	-6.611	0.065	0.044
-230.771	-15.427	0.055	-0.035
-229.757	122.597	-0.149	0.184
-228.742	-200.000	0.046	-0.300
-227.727	86.801	-0.151	0.165
-226.713	8.476	0.158	-0.118
-225.698	-200.000	-0.027	0.246
-224.684	-2.735	-0.172	0.119
-223.669	-36.410	-0.268	0.143
-222.655	800.000	-0.085	-0.263
-221.640	-34.869	0.085	-0.046
-220.625	130.585	0.040	-0.051
-219.611	-76.657	-0.082	-0.028
-218.596	21.772	0.072	-0.058
-217.582	-9.766	-0.268	0.177
-216.567	27.811	-0.186	0.155
-215.552	-200.000	0.051	0.235
-214.538	800.000	-0.030	0.086
-213.523	6.119	-0.217	0.159
-212.509	-174.346	-0.322	-0.009
-211.494	-200.000	-0.025	0.118
-210.479	634.345	-0.167	0.418
-209.465	24.930	0.318	0.261
-208.450	800.000	-0.092	0.368
-207.436	-200.000	0.024	0.288
-206.421	277.458	0.058	0.102
-205.406	142.685	-0.137	-0.179
-204.392	-71.624	0.154	-0.057
-203.377	-195.578	0.170	-0.001
-202.363	-38.419	0.175	0.091
-201.348	65.208	-0.051	-0.051
-200.333	453.083	0.152	-0.333
-199.319	553.865	0.137	-0.325
-198.304	-200.000	0.108	-0.000
-197.290	168.893	-0.131	-0.185
-196.275	-15.033	0.220	-0.139
-195.260	678.481	-0.219	0.563
-194.246	-34.150	0.245	0.133
-193.231	-200.000	-0.041	0.489
-192.217	-15.519	-0.208	0.131
-191.202	-90.184	-0.146	0.042
-190.187	-41.561	0.075	0.038
-189.173	44.994	-0.221	-0.201
-188.158	80.840	-0.086	0.092
-187.144	800.000	-0.098	0.408
-186.129	396.113	-0.142	-0.292
-185.114	-19.962	-0.346	-0.211
-184.100	-71.822	-0.095	-0.035
-183.085	-200.000	-0.008	0.457
-182.071	-124.312	0.123	0.019
-181.056	44.870	-0.028	0.025
-180.042	-116.650	0.046	-0.008
-179.027	-11.635	0.060	0.039
-178.012	7.373	-0.139	-0.103
-176.998	-91.892	-0.383	0.107
-175.983	-63.024	-0.192	-0.078
-174.969	-0.306	0.229	-0.161
-173.954	-119.347	0.519	-0.089
-172.939	-114.432	-0.276	-0.052
-171.925	-164.102	0.110	-0.005
-170.910	-32.346	0.147	0.081
-169.896	106.203	-0.181	0.211
-168.881	-200.000	-0.006	0.057
-167.866	639.427	0.086	-0.217
-166.852	-111.779	-0.127	0.025
-165.837	-178.544	-0.195	0.004
-164.823	91.293	0.274	-0.304
-163.808	-158.277	0.196	0.011
-162.793	-133.942	0.127	0.016
-161.779	10.994	-0.118	-0.089
-160.764	16.355	0.072	0.056
-159.750	119.813	0.062	0.076
-158.735	-134.985	-0.427	-0.051
-157.720	800.000	-0.077	-0.271
-156.706	-143.469	0.393	0.037
-155.691	-200.000	0.019	0.137
-154.677	59.897	0.159	0.155
-153.662	-200.000	-0.055	0.239
-152.647	158.952	-0.066	0.090
-151.633	-45.744	0.113	0.055
-150.618	-169.420	-0.171	0.006
-149.604	-150.459	0.370	0.028
-148.589	-164.964	-0.169	-0.007
-147.574	800.000	0.078	-0.236
-146.560	86.302	-0.136	-0.148
-145.545	3.679	0.183	0.132
-144.531	-134.606	0.152	-0.018
-143.516	100.771	0.125	0.143
-142.502	-103.066	0.173	0.040
-141.487	-174.984	-0.274	-0.008
-140.472	-102.633	-0.209	0.049
-139.458	-169.396	0.074	0.003
-138.443	800.000	0.083	-0.283
-137.429	-115.420	-0.216	-0.040
-136.414	102.450	-0.151	-0.174
-135.399	-10.867	0.308	0.200
-134.385	800.000	0.018	0.069
-133.370	437.995	0.177	0.381
-132.356	-32.609	-0.136	0.075
-131.341	112.445	0.129	-0.153
-130.326	800.000	0.123	-0.414
-129.312	21.628	-0.198	-0.159
-128.297	163.589	0.182	0.252
-127.283	341.832	0.079	0.153
-126.268	-73.926	0.060	-0.021
-125.253	800.000	0.057	0.197
-124.239	-145.577	-0.162	-0.014
-123.224	800.000	-0.007	-0.028
-122.210	-23.639	0.151	-0.089
-121.195	-87.632	-0.050	-0.015
