DTS Sentinel unit serial number:	SN413079Multiplexer serial number:	ORYXHardware model number:	OX4-SRSoftware version number:	ORYX F/W v4.00 Oryx Data Collector v3.7.2.0data status	okinstallation	princeton_trtdifferential loss correction	single-endedforward channel	channel 4reverse channel	N/Adate	2019/09/15time	17:21:34forward acquisition time	60.00reverse acquisition time	0.00gamma	496.2192k internal	0.2275k external	0.2275temperature offset calibration	0.9927default loss term (dB/km)	0.3790temperature slope calibration	1.0000multiplexer offset coefficient	1.0000multiplexer slope coefficient	1.0000fibre end	0.00T internal ref (°C)	44.75T ext. ref 1 (°C)	6.07T ext. ref 2 (°C)	40.26length (m)	temperature (°C)	Stokes	anti-Stokes-747.200	-9.004	0.111	-0.076
-746.185	30.954	0.205	0.181
-745.171	103.355	-0.126	0.152
-744.156	-15.755	0.287	0.188
-743.142	-45.300	0.149	0.076
-742.127	457.469	-0.110	0.251
-741.112	524.212	-0.051	0.125
-740.098	-158.006	-0.253	0.015
-739.083	-110.576	-0.250	-0.053
-738.069	-200.000	0.010	0.388
-737.054	53.931	-0.047	-0.047
-736.039	-34.556	-0.309	0.175
-735.025	338.186	-0.144	0.289
-734.010	36.126	-0.162	-0.147
-732.996	11.490	0.253	-0.200
-731.981	321.826	-0.053	-0.104
-730.966	619.417	0.034	0.088
-729.952	234.992	-0.043	-0.074
-728.937	760.612	0.140	-0.393
-727.923	800.000	-0.069	-0.224
-726.908	299.861	-0.016	-0.030
-725.894	23.187	-0.183	-0.155
-724.879	-200.000	0.032	-0.228
-723.864	44.122	-0.235	0.222
-722.850	9.988	-0.123	0.096
-721.835	-127.205	-0.173	-0.026
-720.821	-76.319	0.114	-0.041
-719.806	-182.414	-0.044	-0.001
-718.791	255.720	0.065	-0.115
-717.777	351.638	-0.097	-0.198
-716.762	14.035	-0.144	0.115
-715.748	701.397	0.090	0.244
-714.733	44.883	0.262	-0.249
-713.718	79.260	0.196	-0.217
-712.704	115.456	-0.186	-0.234
-711.689	-200.000	0.002	0.150
-710.675	27.652	-0.123	0.107
-709.660	523.684	-0.045	-0.109
-708.645	800.000	-0.086	-0.289
-707.631	-120.957	0.200	-0.035
-706.616	-200.000	-0.016	-0.119
-705.602	22.158	0.304	-0.255
-704.587	-100.241	-0.304	-0.078
-703.572	-200.000	0.021	0.179
-702.558	274.335	0.131	0.239
-701.543	800.000	-0.052	0.175
-700.529	-200.000	-0.048	-0.216
-699.514	-83.744	0.153	0.050
-698.499	78.095	0.182	-0.200
-697.485	174.362	-0.099	-0.147
-696.470	433.868	0.032	-0.072
-695.456	-148.375	0.300	0.025
-694.441	211.804	-0.200	-0.324
-693.426	-1.452	-0.156	-0.113
-692.412	-144.982	0.293	-0.028
-691.397	168.423	0.207	-0.303
-690.383	163.368	0.074	0.107
-689.368	-38.621	-0.255	-0.138
-688.354	-70.313	-0.067	0.026
-687.339	-38.070	-0.037	0.020
-686.324	106.702	-0.341	-0.416
-685.310	-200.000	0.345	-0.000
-684.295	490.480	-0.095	-0.224
-683.281	-59.590	0.089	0.039
-682.266	800.000	0.046	-0.203
-681.251	380.424	-0.054	0.114
-680.237	47.845	-0.090	-0.086
-679.222	104.570	-0.207	0.251
-678.208	66.921	0.203	-0.213
-677.193	182.579	0.178	0.270
-676.178	23.963	0.128	0.109
-675.164	800.000	0.107	-0.387
-674.149	35.988	0.056	0.050
-673.135	53.691	0.116	0.114
-672.120	279.238	0.087	-0.160
-671.105	-11.431	0.200	-0.135
-670.091	800.000	-0.127	0.390
-669.076	254.248	-0.096	0.168
-668.062	-111.054	-0.135	-0.028
-667.047	-98.577	0.222	-0.058
-666.032	-64.575	-0.201	0.084
-665.018	48.073	0.167	0.161
-664.003	-28.483	-0.064	0.038
-662.989	222.546	-0.153	0.254
-661.974	-8.197	0.136	0.094
-660.959	-170.992	-0.208	-0.007
-659.945	37.457	0.118	-0.107
-658.930	-49.003	0.280	0.138
-657.916	-96.232	-0.144	0.039
-656.901	-134.232	0.130	-0.016
-655.886	121.021	0.235	-0.300
-654.872	-0.458	-0.091	0.066
-653.857	42.086	0.241	0.225
-652.843	800.000	-0.161	0.551
-651.828	211.743	0.094	-0.153
-650.814	-9.069	0.377	-0.260
-649.799	70.095	0.219	0.232
-648.784	-49.643	0.270	0.132
-647.770	562.977	-0.040	0.099
-646.755	-109.549	0.520	0.113
-645.741	-200.000	0.035	0.361
-644.726	800.000	0.042	-0.155
-643.711	-200.000	0.009	-0.065
-642.697	800.000	-0.189	0.670
-641.682	131.226	-0.047	0.061
-640.668	78.225	-0.283	0.311
-639.653	547.914	-0.047	0.116
-638.638	-137.820	-0.365	0.042
-637.624	160.897	-0.126	-0.181
-636.609	-37.801	-0.189	0.103
-635.595	-50.600	-0.342	-0.165
-634.580	-41.908	-0.069	-0.036
-633.565	74.302	-0.152	-0.164
-632.551	226.983	0.199	0.332
-631.536	-69.102	-0.275	-0.109
-630.522	110.407	-0.209	-0.258
-629.507	800.000	0.098	-0.339
-628.492	13.998	-0.034	-0.027
-627.478	800.000	-0.034	-0.146
-626.463	37.445	-0.081	-0.074
-625.449	-200.000	0.015	-0.111
-624.434	-87.273	0.228	0.071
-623.419	781.722	-0.041	0.115
-622.405	-12.716	0.011	0.007
-621.390	-58.147	0.154	-0.069
-620.376	-185.384	-0.126	0.002
-619.361	800.000	0.048	-0.168
-618.346	-49.877	-0.031	-0.015
-617.332	-114.835	0.051	0.010
-616.317	-200.000	0.002	-0.036
-615.303	800.000	-0.078	-0.343
-614.288	-200.000	0.033	0.273
-613.273	23.867	0.435	0.368
-612.259	49.715	-0.183	-0.177
-611.244	800.000	0.071	-0.228
-610.230	284.088	-0.192	0.355
-609.215	-24.423	0.167	-0.102
-608.201	418.303	0.061	0.133
-607.186	291.881	0.074	-0.138
-606.171	800.000	-0.055	0.162
-605.157	368.788	0.112	0.232
-604.142	300.831	-0.207	0.391
-603.128	33.683	0.236	0.210
-602.113	-177.708	0.202	0.005
-601.098	-200.000	-0.006	-0.178
-600.084	257.850	-0.104	-0.183
-599.069	178.415	0.015	-0.022
-598.055	-87.594	0.310	0.096
-597.040	-128.652	0.363	0.053
-596.025	50.021	0.153	-0.148
-595.011	89.429	-0.223	0.255
-593.996	52.197	0.134	0.131
-592.982	419.784	0.203	-0.446
-591.967	-24.014	-0.059	0.036
-590.952	-22.725	-0.041	0.025
-589.938	121.435	-0.119	-0.152
-588.923	800.000	-0.047	0.150
-587.909	88.265	-0.170	-0.194
-586.894	-94.022	-0.260	-0.073
-585.879	-86.011	0.201	-0.064
-584.865	125.165	-0.130	-0.168
-583.850	293.137	0.066	0.123
-582.836	-1.032	0.096	0.070
-581.821	-200.000	0.010	0.198
-580.806	800.000	-0.092	0.284
-579.792	-116.852	-0.153	0.029
-578.777	178.967	0.098	-0.147
-577.763	52.172	0.041	0.040
-576.748	284.529	0.026	-0.048
-575.733	-151.655	0.084	0.006
-574.719	800.000	-0.093	-0.273
-573.704	25.488	-0.202	-0.172
-572.690	-60.509	0.324	-0.141
-571.675	-158.162	0.301	0.018
-570.661	-50.149	0.198	-0.096
-569.646	599.270	0.067	0.171
-568.631	800.000	0.035	0.139
-567.617	245.307	-0.072	-0.125
-566.602	800.000	-0.074	0.222
-565.588	395.076	0.061	-0.130
-564.573	378.911	0.043	0.090
-563.558	-39.745	0.307	0.164
-562.544	285.529	0.109	-0.202
-561.529	209.350	0.118	-0.190
-560.515	-200.000	-0.007	-0.064
-559.500	800.000	0.102	-0.294
-558.485	255.732	-0.260	-0.456
-557.471	-200.000	-0.026	-0.237
-556.456	-200.000	-0.006	0.110
-555.442	34.964	0.088	0.079
-554.427	-115.697	-0.169	0.032
-553.412	-198.039	-0.394	-0.002
-552.398	-200.000	0.029	-0.232
-551.383	-200.000	0.006	0.110
-550.369	50.719	-0.075	0.073
-549.354	29.409	-0.224	-0.195
-548.339	658.220	-0.063	-0.165
-547.325	-50.419	-0.075	0.036
-546.310	-200.000	-0.022	0.141
-545.296	234.601	0.195	0.330
-544.281	-151.056	-0.139	-0.011
-543.266	-89.826	0.172	-0.052
-542.252	-110.138	0.368	0.079
-541.237	-135.960	-0.128	-0.015
-540.223	-59.360	0.207	-0.091
-539.208	-43.774	-0.256	-0.132
-538.193	-200.000	0.001	0.231
-537.179	107.906	0.147	0.180
-536.164	-156.222	-0.146	0.009
-535.150	-100.435	-0.209	-0.053
-534.135	183.151	-0.102	0.154
-533.121	-200.000	0.038	-0.214
-532.106	-82.311	-0.220	-0.073
-531.091	-200.000	-0.004	-0.049
-530.077	-20.964	0.341	-0.214
-529.062	800.000	0.030	-0.126
-528.048	-200.000	0.027	0.269
-527.033	46.864	-0.044	0.042
-526.018	144.683	-0.236	-0.323
-525.004	-9.922	0.210	0.143
-523.989	-177.676	-0.362	-0.009
-522.975	262.745	-0.132	0.234
-521.960	-200.000	-0.040	0.528
-520.945	115.998	-0.226	0.283
-519.931	58.977	0.146	-0.147
-518.916	-23.808	-0.190	-0.116
-517.902	-49.601	-0.500	0.243
-516.887	48.832	-0.159	-0.153
-515.872	37.359	0.176	-0.159
-514.858	-200.000	-0.040	-0.517
-513.843	266.517	0.022	-0.039
-512.829	363.997	-0.117	0.240
-511.814	-200.000	-0.053	0.301
-510.799	516.458	0.046	-0.110
-509.785	-98.140	-0.335	-0.088
-508.770	-185.308	0.224	0.004
-507.756	243.918	-0.096	0.165
-506.741	-116.523	-0.228	0.043
-505.726	-114.565	-0.329	-0.065
-504.712	-200.000	-0.030	-0.144
-503.697	354.398	0.036	0.073
-502.683	-190.938	-0.483	0.005
-501.668	-77.275	-0.293	0.104
-500.653	-86.232	-0.140	0.044
-499.639	-167.973	0.147	0.006
-498.624	43.449	-0.187	0.175
-497.610	156.279	0.146	-0.205
-496.595	398.386	-0.121	0.259
-495.581	800.000	-0.027	0.078
-494.566	551.012	-0.098	-0.240
-493.551	-111.804	-0.042	0.009
-492.537	-200.000	0.027	-0.183
-491.522	800.000	-0.061	-0.220
-490.508	-5.320	0.217	0.152
-489.493	76.190	0.058	0.062
-488.478	-78.982	0.189	-0.066
-487.464	-37.842	-0.231	-0.125
-486.449	-200.000	0.056	-0.346
-485.435	335.201	0.037	-0.073
-484.420	16.308	-0.198	-0.159
-483.405	1.584	0.239	0.176
-482.391	-58.697	-0.364	0.161
-481.376	108.373	-0.197	-0.240
-480.362	-92.175	-0.260	0.075
-479.347	2.427	-0.292	-0.216
-478.332	-200.000	-0.059	-0.279
-477.318	127.483	-0.259	0.336
-476.303	541.456	0.030	-0.072
-475.289	432.487	-0.132	-0.292
-474.274	800.000	-0.057	-0.244
-473.259	-200.000	0.021	-0.167
-472.245	20.807	-0.308	-0.255
-471.230	-200.000	0.001	-0.509
-470.216	-82.780	-0.270	0.089
-469.201	-200.000	0.005	0.189
-468.186	-65.486	-0.165	0.068
-467.172	205.782	0.236	-0.375
-466.157	640.937	0.093	0.242
-465.143	-68.135	0.131	0.052
-464.128	-67.923	0.356	-0.142
-463.113	149.889	-0.047	-0.065
-462.099	90.711	0.073	-0.083
-461.084	431.569	0.034	0.076
-460.070	-44.320	0.054	-0.027
-459.055	155.570	0.140	-0.196
-458.040	78.977	0.266	0.290
-457.026	28.764	-0.047	0.040
-456.011	233.978	0.073	-0.123
-454.997	6.725	0.177	0.134
-453.982	-82.330	0.176	-0.058
-452.968	-131.977	0.285	-0.038
-451.953	-86.428	0.081	-0.025
-450.938	-167.669	-0.117	-0.005
-449.924	-130.881	0.322	-0.044
-448.909	422.846	0.018	-0.040
-447.895	-68.108	0.147	0.059
-446.880	245.579	-0.053	0.091
-445.865	800.000	-0.156	0.464
-444.851	41.612	0.019	-0.017
-443.836	-200.000	0.051	0.249
-442.822	-32.686	-0.273	0.155
-441.807	23.033	0.190	-0.159
-440.792	68.898	-0.166	0.174
-439.778	-147.179	0.077	0.007
-438.763	-94.665	0.227	0.063
-437.749	109.287	-0.196	0.239
-436.734	-126.374	-0.226	-0.034
-435.719	-26.375	-0.288	-0.172
-434.705	-164.472	0.235	0.011
-433.690	-157.785	0.172	-0.010
-432.676	-71.514	0.112	-0.043
-431.661	51.385	-0.125	0.121
-430.646	-200.000	-0.006	0.052
-429.632	-200.000	0.021	-0.134
-428.617	800.000	-0.039	-0.140
-427.603	800.000	-0.049	0.206
-426.588	-163.421	0.393	-0.019
-425.573	104.529	0.024	0.029
-424.559	-91.285	-0.339	0.099
-423.544	-65.213	0.241	-0.099
-422.530	407.769	0.093	-0.199
-421.515	318.519	0.078	-0.150
-420.500	198.981	0.147	0.230
-419.486	-200.000	0.085	-0.397
-418.471	-19.683	-0.307	-0.193
-417.457	239.127	0.143	0.242
-416.442	-139.028	-0.133	0.015
-415.428	-34.926	-0.267	-0.148
-414.413	73.740	0.044	0.047
-413.398	-171.157	-0.273	0.009
-412.384	800.000	0.067	0.194
-411.369	64.151	0.237	-0.242
-410.355	-200.000	-0.016	0.168
-409.340	509.925	0.080	-0.189
-408.325	225.307	0.044	0.072
-407.311	-200.000	-0.002	-0.150
-406.296	165.703	0.040	0.057
-405.282	-57.901	0.340	-0.151
-404.267	-200.000	0.009	0.098
-403.252	-200.000	0.032	0.325
-402.238	-200.000	-0.017	0.230
-401.223	-200.000	-0.017	0.140
-400.209	224.838	-0.065	-0.107
-399.194	-71.484	0.526	0.200
-398.179	-149.438	-0.155	-0.013
-397.165	-200.000	-0.017	0.126
-396.150	59.195	-0.317	0.317
-395.136	-200.000	-0.111	-0.777
-394.121	-200.000	-0.031	-0.143
-393.106	-108.146	0.248	0.055
-392.092	594.476	0.073	0.184
-391.077	14.104	0.277	0.219
-390.063	575.666	-0.061	-0.150
-389.048	-200.000	-0.048	-0.246
-388.033	-174.541	0.204	-0.006
-387.019	-200.000	0.008	-0.138
-386.004	520.742	-0.038	0.091
-384.990	-74.016	-0.348	-0.128
-383.975	-127.089	0.569	-0.085
-382.960	-125.274	0.177	-0.028
-381.946	135.725	0.114	-0.150
-380.931	245.225	-0.139	-0.237
-379.917	78.901	0.107	-0.117
-378.902	55.086	0.315	-0.310
-377.888	13.985	-0.139	-0.110
-376.873	-14.172	0.241	-0.158
-375.858	-11.026	0.126	-0.085
-374.844	-147.209	-0.297	-0.026
-373.829	144.446	-0.028	-0.038
-372.815	13.542	-0.137	0.108
-371.800	-48.866	0.440	-0.214
-370.785	-200.000	0.011	0.125
-369.771	-200.000	-0.047	-0.248
-368.756	-88.208	0.061	0.019
-367.742	147.341	-0.165	0.225
-366.727	720.130	0.120	-0.324
-365.712	-176.036	0.289	-0.008
-364.698	800.000	-0.135	-0.384
-363.683	517.528	0.062	-0.147
-362.669	-200.000	0.001	-0.303
-361.654	-150.414	-0.114	0.009
-360.639	-35.484	0.321	0.177
-359.625	-6.761	0.192	-0.133
-358.610	-5.964	-0.075	0.052
-357.596	75.648	-0.166	0.178
-356.581	-149.568	0.088	-0.007
-355.566	732.649	-0.138	-0.374
-354.552	-62.506	-0.438	-0.185
-353.537	-82.861	0.448	0.147
-352.523	800.000	0.182	0.702
-351.508	-39.703	0.333	0.177
-350.493	-81.993	-0.143	-0.048
-349.479	-90.881	0.165	0.048
-348.464	-129.190	-0.167	-0.024
-347.450	26.309	0.115	0.098
-346.435	-120.324	-0.212	0.037
-345.420	800.000	0.074	-0.273
-344.406	69.091	0.024	0.025
-343.391	-109.280	0.298	0.064
-342.377	-200.000	-0.035	0.236
-341.362	-200.000	-0.042	-0.282
-340.348	414.903	-0.183	0.396
-339.333	325.437	0.069	-0.134
-338.318	-41.880	0.100	0.052
-337.304	-119.450	-0.437	0.077
-336.289	716.387	-0.078	0.210
-335.275	176.972	0.020	0.030
-334.260	158.469	-0.110	0.155
-333.245	34.189	0.052	-0.046
-332.231	664.915	0.030	-0.077
-331.216	192.637	0.094	0.143
-330.202	-159.817	0.075	-0.004
-329.187	-168.638	-0.132	-0.005
-328.172	-143.181	-0.045	0.004
-327.158	-200.000	-0.018	0.160
-326.143	-133.501	0.178	-0.023
-325.129	-200.000	-0.003	-0.211
-324.114	-200.000	-0.037	0.214
-323.099	-57.501	0.054	0.024
-322.085	-22.477	-0.145	-0.089
-321.070	-200.000	0.013	0.138
-320.056	21.197	-0.017	-0.014
-319.041	-200.000	-0.023	0.292
-318.026	-3.022	-0.153	-0.108
-317.012	-200.000	-0.043	0.417
-315.997	-200.000	0.002	-0.079
-314.983	237.014	0.034	-0.057
-313.968	-89.489	0.269	0.080
-312.953	748.602	0.124	0.339
-311.939	-200.000	0.041	-0.201
-310.924	800.000	0.032	-0.120
-309.910	-94.748	-0.045	-0.012
-308.895	-68.664	0.170	-0.067
-307.880	155.612	0.085	0.119
-306.866	-62.104	-0.407	-0.172
-305.851	-59.009	-0.275	-0.120
-304.837	19.982	0.172	-0.141
-303.822	-200.000	0.014	-0.070
-302.807	-56.505	-0.250	-0.112
-301.793	-171.536	0.111	-0.004
-300.778	-200.000	0.001	-0.148
-299.764	800.000	0.055	-0.161
-298.749	-186.931	-0.301	0.004
-297.735	-78.827	-0.275	-0.095
-296.720	800.000	0.040	0.127
-295.705	-27.068	-0.202	-0.120
-294.691	281.190	0.023	0.042
-293.676	52.416	0.316	0.305
-292.662	37.900	-0.248	-0.223
-291.647	-174.985	0.332	0.009
-290.632	-19.160	-0.312	-0.196
-289.618	159.785	0.014	0.020
-288.603	-135.538	0.170	0.021
-287.589	8.071	0.126	0.096
-286.574	-4.125	0.262	0.184
-285.559	-86.189	-0.264	0.082
-284.545	186.350	-0.128	0.193
-283.530	734.577	-0.009	-0.024
-282.516	83.259	-0.048	-0.053
-281.501	-63.958	0.096	0.040
-280.486	-200.000	-0.005	0.176
-279.472	32.326	-0.070	-0.061
-278.457	67.780	-0.180	0.187
-277.443	-26.535	-0.098	-0.058
-276.428	800.000	-0.069	0.234
-275.413	3.254	-0.075	0.055
-274.399	-97.727	-0.087	0.023
-273.384	174.830	0.155	-0.228
-272.370	16.890	-0.236	-0.189
-271.355	-53.719	0.140	0.065
-270.340	-66.291	0.310	0.125
-269.326	16.696	-0.190	-0.152
-268.311	-86.195	-0.201	-0.063
-267.297	-1.239	-0.044	0.032
-266.282	330.246	0.144	-0.280
-265.267	-200.000	0.013	-0.146
-264.253	141.261	-0.149	-0.200
-263.238	800.000	-0.013	-0.057
-262.224	140.622	-0.130	-0.174
-261.209	800.000	-0.058	-0.251
-260.195	-93.154	0.232	0.065
-259.180	38.396	0.209	0.188
-258.165	-95.005	0.208	0.057
-257.151	95.820	0.066	0.077
-256.136	107.886	0.293	0.353
-255.122	-10.582	-0.218	0.146
-254.107	84.317	0.200	0.221
-253.092	-41.615	0.401	0.208
-252.078	153.462	0.084	-0.117
-251.063	-69.590	-0.226	0.087
-250.049	197.912	-0.158	-0.244
-249.034	-200.000	0.032	-0.248
-248.019	248.387	0.153	-0.262
-247.005	800.000	0.053	0.215
-245.990	-118.730	0.198	-0.035
-244.976	800.000	-0.084	-0.359
-243.961	62.275	-0.257	-0.259
-242.946	-200.000	-0.002	0.285
-241.932	8.750	0.069	-0.052
-240.917	-103.446	0.215	0.051
-239.903	800.000	0.121	0.401
-238.888	800.000	-0.073	0.298
-237.873	-84.565	0.265	0.085
-236.859	-72.705	0.208	0.077
-235.844	7.117	-0.186	0.140
-234.830	-87.538	-0.340	0.104
-233.815	15.051	0.042	0.034
-232.800	-16.702	-0.054	0.034
-231.786	130.410	0.079	-0.102
-230.771	-4.967	0.121	0.084
-229.757	-117.581	-0.232	-0.042
-228.742	-148.988	-0.242	-0.020
-227.727	-166.552	-0.192	0.008
-226.713	28.519	0.177	0.152
-225.698	174.040	0.056	0.082
-224.684	-3.789	0.147	-0.103
-223.669	-73.185	-0.178	-0.066
-222.655	282.004	0.052	-0.094
-221.640	153.948	0.041	0.057
-220.625	130.908	0.097	0.125
-219.611	-200.000	0.033	-0.195
-218.596	89.959	-0.054	-0.061
-217.582	20.141	-0.048	-0.039
-216.567	-31.347	0.304	-0.173
-215.552	11.805	0.125	0.097
-214.538	9.272	-0.490	-0.374
-213.523	128.163	-0.258	0.331
-212.509	800.000	-0.024	-0.085
-211.494	248.101	0.187	-0.319
-210.479	-200.000	0.070	-0.371
-209.465	-75.526	0.484	0.174
-208.450	-15.653	0.146	0.094
-207.436	-157.446	0.012	0.001
-206.421	800.000	-0.081	0.247
-205.406	800.000	-0.023	-0.082
-204.392	722.224	-0.062	0.167
-203.377	-200.000	-0.071	-0.320
-202.363	251.061	0.109	-0.186
-201.348	37.659	-0.196	0.176
-200.333	303.141	0.124	-0.232
-199.319	300.089	0.132	0.245
-198.304	-76.363	-0.379	-0.135
-197.290	237.827	0.085	0.142
-196.275	-154.897	0.141	-0.009
-195.260	10.799	0.199	-0.153
-194.246	800.000	-0.028	-0.123
-193.231	-200.000	-0.019	0.112
-192.217	133.438	-0.188	0.246
-191.202	-200.000	0.017	0.153
-190.187	-200.000	-0.030	0.343
-189.173	218.346	-0.164	0.264
-188.158	-200.000	-0.013	0.144
-187.144	78.029	-0.060	-0.064
-186.129	-200.000	0.063	-0.284
-185.114	-64.865	-0.238	-0.097
-184.100	-126.685	0.264	-0.039
-183.085	90.102	-0.150	-0.169
-182.071	458.218	0.068	0.152
-181.056	-200.000	0.018	0.214
-180.042	127.593	0.053	0.068
-179.027	592.311	-0.068	0.169
-178.012	-200.000	0.036	0.318
-176.998	-140.900	0.173	0.018
-175.983	-25.348	-0.024	0.014
-174.969	800.000	0.072	0.278
-173.954	-129.893	0.122	-0.017
-172.939	800.000	-0.043	0.168
-171.925	-136.942	0.446	0.052
-170.910	210.812	-0.159	0.251
-169.896	800.000	0.114	-0.381
-168.881	264.926	0.196	-0.344
-167.866	3.552	-0.119	-0.087
-166.852	-200.000	0.051	0.366
-165.837	-7.263	-0.179	-0.122
-164.823	-36.947	-0.236	-0.128
-163.808	-96.780	-0.363	0.096
-162.793	371.376	0.078	0.159
-161.779	216.149	0.106	-0.170
-160.764	3.623	0.097	-0.071
-159.750	-72.801	0.201	0.075
-158.735	-200.000	-0.081	0.464
-157.720	101.585	0.156	0.183
-156.706	209.859	-0.157	-0.249
-155.691	-44.465	-0.062	-0.031
-154.677	-0.778	-0.112	0.080
-153.662	87.383	-0.118	0.131
-152.647	-196.618	-0.254	0.002
-151.633	21.978	0.137	0.112
-150.618	450.264	-0.070	0.156
-149.604	438.200	0.214	0.469
-148.589	684.362	0.186	-0.489
-147.574	-10.905	-0.287	0.191
-146.560	-91.930	-0.276	0.079
-145.545	-54.677	0.391	-0.178
-144.531	-200.000	0.008	-0.361
-143.516	-143.714	-0.091	0.009
-142.502	89.880	-0.052	-0.059
-141.487	-194.697	0.194	0.002
-140.472	182.016	-0.141	0.209
-139.458	599.763	-0.101	0.252
-138.443	-42.079	-0.132	0.068
-137.429	-8.359	0.023	0.016
-136.414	-200.000	-0.002	-0.050
-135.399	-99.474	-0.150	0.038
-134.385	-41.586	-0.093	-0.048
-133.370	275.037	-0.243	-0.433
-132.356	23.926	0.122	0.101
-131.341	12.645	-0.163	-0.126
-130.326	168.244	-0.093	-0.133
-129.312	62.151	-0.094	0.094
-128.297	-156.231	-0.133	-0.008
-127.283	-200.000	-0.046	0.242
-126.268	491.728	-0.139	0.321
-125.253	285.848	0.069	0.125
-124.239	461.577	-0.100	0.225
-123.224	-200.000	0.014	-0.123
-122.210	-19.885	0.264	-0.164
-121.195	-200.000	-0.021	-0.145
-120.180	116.440	0.120	0.148
