DTS Sentinel unit serial number:	SN413079Multiplexer serial number:	ORYXHardware model number:	OX4-SRSoftware version number:	ORYX F/W v4.00 Oryx Data Collector v3.7.2.0data status	okinstallation	princeton_trtdifferential loss correction	single-endedforward channel	channel 4reverse channel	N/Adate	2019/09/10time	19:19:11forward acquisition time	60.00reverse acquisition time	0.00gamma	496.2192k internal	0.2308k external	0.2308temperature offset calibration	0.9945default loss term (dB/km)	0.3790temperature slope calibration	1.0000multiplexer offset coefficient	1.0000multiplexer slope coefficient	1.0000fibre end	0.00T internal ref (°C)	33.86T ext. ref 1 (°C)	-0.31T ext. ref 2 (°C)	26.39length (m)	temperature (°C)	Stokes	anti-Stokes-747.200	-72.445	-0.519	-0.195
-746.185	-103.218	0.169	0.041
-745.171	-65.685	-0.118	0.048
-744.156	-29.657	-0.488	0.283
-743.142	181.734	-0.119	-0.179
-742.127	-200.000	-0.003	0.291
-741.112	-77.043	0.201	-0.071
-740.098	-134.489	-0.299	0.037
-739.083	-140.415	0.287	0.030
-738.069	19.363	-0.308	0.251
-737.054	260.544	-0.177	-0.310
-736.039	-88.815	-0.143	0.043
-735.025	-200.000	-0.031	0.233
-734.010	-35.632	-0.080	-0.044
-732.996	-55.652	-0.312	-0.142
-731.981	-43.165	0.186	-0.096
-730.966	-97.007	-0.128	0.034
-729.952	-95.246	0.175	-0.048
-728.937	-136.235	0.246	0.029
-727.923	556.695	-0.161	0.393
-726.908	-200.000	-0.002	-0.139
-725.894	-149.414	0.163	-0.013
-724.879	-77.474	-0.103	-0.036
-723.864	-67.277	0.302	-0.121
-722.850	345.545	-0.131	-0.261
-721.835	-115.981	-0.292	0.055
-720.821	-200.000	0.016	-0.183
-719.806	-200.000	-0.020	0.133
-718.791	48.145	-0.319	-0.303
-717.777	-4.642	0.056	-0.039
-716.762	-200.000	0.007	-0.145
-715.748	3.802	0.206	-0.152
-714.733	-200.000	0.017	-0.127
-713.718	136.009	0.099	-0.131
-712.704	-10.140	-0.084	-0.056
-711.689	550.429	-0.085	-0.206
-710.675	144.522	-0.178	-0.241
-709.660	-16.518	0.155	-0.100
-708.645	-200.000	0.029	0.145
-707.631	800.000	-0.097	0.276
-706.616	-200.000	0.050	0.458
-705.602	-200.000	-0.018	0.308
-704.587	653.355	-0.132	-0.344
-703.572	251.078	-0.168	-0.289
-702.558	-87.253	0.244	0.075
-701.543	800.000	0.081	-0.229
-700.529	-76.409	0.129	0.046
-699.514	224.632	-0.239	-0.392
-698.499	-73.092	-0.187	-0.070
-697.485	-19.452	0.250	0.157
-696.470	95.651	0.220	-0.255
-695.456	-79.731	0.117	-0.040
-694.441	0.669	-0.079	-0.058
-693.426	-100.838	0.144	0.036
-692.412	800.000	0.007	-0.025
-691.397	-200.000	0.045	-0.230
-690.383	101.494	-0.148	0.175
-689.368	44.381	0.231	-0.215
-688.354	-200.000	0.001	-0.140
-687.339	87.817	0.172	-0.193
-686.324	-200.000	0.018	0.126
-685.310	91.157	-0.072	-0.082
-684.295	-200.000	0.083	-0.449
-683.281	-200.000	0.042	-0.239
-682.266	-83.533	-0.333	0.108
-681.251	-46.849	0.100	-0.049
-680.237	800.000	0.014	-0.060
-679.222	7.397	-0.027	-0.021
-678.208	-157.668	0.087	-0.005
-677.193	-5.914	0.258	0.179
-676.178	-200.000	-0.006	-0.089
-675.164	-200.000	0.093	0.519
-674.149	-79.731	-0.048	0.016
-673.135	162.642	-0.364	-0.517
-672.120	-151.686	-0.186	0.014
-671.105	97.820	0.055	0.064
-670.091	-40.414	0.134	0.071
-669.076	-200.000	0.008	-0.141
-668.062	-119.770	0.075	-0.013
-667.047	-94.292	-0.352	-0.097
-666.032	800.000	0.097	-0.327
-665.018	300.660	0.012	-0.022
-664.003	-200.000	0.065	-0.362
-662.989	-200.000	0.020	-0.091
-661.974	-85.232	0.108	0.034
-660.959	-119.913	-0.277	-0.048
-659.945	290.536	0.207	0.381
-658.930	-200.000	-0.003	-0.123
-657.916	-37.583	0.391	-0.211
-656.901	-2.949	0.193	0.136
-655.886	-94.232	0.317	-0.088
-654.872	134.149	-0.152	-0.199
-653.857	101.745	0.268	0.316
-652.843	-11.276	0.143	0.095
-651.828	-77.335	0.080	-0.028
-650.814	35.901	0.191	0.170
-649.799	45.884	-0.266	-0.249
-648.784	91.377	0.084	-0.096
-647.770	-85.776	0.259	0.081
-646.755	-25.992	-0.321	0.191
-645.741	78.683	-0.236	-0.256
-644.726	-200.000	-0.005	0.143
-643.711	170.661	0.085	0.124
-642.697	-183.981	0.195	-0.003
-641.682	-200.000	0.002	-0.117
-640.668	-69.928	0.300	0.116
-639.653	252.414	0.180	-0.311
-638.638	-24.488	0.136	0.082
-637.624	-81.472	0.167	-0.056
-636.609	46.383	-0.234	0.220
-635.595	-163.680	-0.045	-0.002
-634.580	-200.000	-0.021	0.236
-633.565	-56.028	0.163	-0.073
-632.551	-28.161	0.259	-0.151
-631.536	-200.000	-0.037	0.260
-630.522	-200.000	0.031	-0.297
-629.507	-131.955	0.257	-0.034
-628.492	-91.166	-0.230	0.067
-627.478	83.286	-0.164	-0.181
-626.463	84.531	-0.244	-0.270
-625.449	-200.000	-0.006	0.047
-624.434	143.596	0.139	-0.187
-623.419	111.421	-0.124	-0.151
-622.405	-79.050	0.192	0.066
-621.390	-12.092	0.229	-0.151
-620.376	-167.189	-0.360	-0.015
-619.361	-134.279	-0.333	0.041
-618.346	-132.496	0.133	0.017
-617.332	800.000	0.118	-0.386
-616.317	-105.991	0.252	0.057
-615.303	211.639	0.054	0.086
-614.288	-101.695	-0.226	0.055
-613.273	561.424	-0.034	-0.083
-612.259	800.000	0.031	-0.105
-611.244	20.081	-0.171	-0.139
-610.230	602.394	0.089	-0.223
-609.215	-102.886	0.093	-0.022
-608.201	-200.000	0.055	0.406
-607.186	49.693	-0.173	-0.165
-606.171	44.677	-0.017	0.016
-605.157	55.460	0.121	0.118
-604.142	-61.853	-0.063	0.027
-603.128	800.000	0.082	-0.301
-602.113	-200.000	0.016	0.146
-601.098	-78.613	0.371	-0.128
-600.084	189.024	0.009	-0.014
-599.069	-200.000	-0.023	0.287
-598.055	355.254	-0.150	0.302
-597.040	-200.000	0.027	-0.222
-596.025	112.549	0.041	0.051
-595.011	-137.598	-0.225	0.026
-593.996	22.237	-0.106	-0.088
-592.982	-11.914	-0.216	-0.143
-591.967	269.209	-0.104	0.185
-590.952	-57.397	-0.247	0.110
-589.938	-36.611	-0.084	0.045
-588.923	-117.063	0.288	-0.053
-587.909	800.000	0.069	0.211
-586.894	-78.529	-0.226	-0.078
-585.879	-137.435	-0.262	-0.030
-584.865	66.093	-0.076	0.078
-583.850	-87.050	-0.349	-0.107
-582.836	-200.000	-0.023	-0.355
-581.821	-107.876	-0.331	-0.073
-580.806	-121.002	0.555	0.094
-579.792	-0.806	0.289	-0.206
-578.777	-200.000	0.006	-0.064
-577.763	68.641	-0.144	-0.149
-576.748	-178.007	0.275	-0.007
-575.733	433.558	-0.073	-0.159
-574.719	-18.284	-0.234	-0.148
-573.704	21.785	0.287	0.236
-572.690	-141.109	-0.356	-0.037
-571.675	800.000	-0.056	0.215
-570.661	149.767	0.107	-0.147
-569.646	-200.000	-0.002	-0.034
-568.631	-108.547	-0.230	-0.050
-567.617	-74.310	0.089	0.033
-566.602	-125.320	0.250	0.039
-565.588	-200.000	0.025	-0.285
-564.573	150.725	-0.105	-0.144
-563.558	67.590	0.087	-0.090
-562.544	800.000	-0.099	0.354
-561.529	-200.000	0.009	-0.201
-560.515	1.103	-0.198	0.143
-559.500	-86.169	0.255	-0.079
-558.485	-200.000	-0.019	0.297
-557.471	-200.000	0.050	-0.255
-556.456	-89.228	-0.256	0.076
-555.442	-87.580	0.441	0.134
-554.427	-83.993	-0.197	0.063
-553.412	94.989	0.124	0.143
-552.398	-128.745	0.282	-0.040
-551.383	149.411	-0.113	0.155
-550.369	384.368	0.060	0.124
-549.354	-143.476	-0.354	-0.034
-548.339	-200.000	-0.027	0.479
-547.325	800.000	-0.083	-0.325
-546.310	-129.343	0.185	0.026
-545.296	-200.000	-0.006	0.042
-544.281	-200.000	0.010	0.276
-543.266	-128.596	0.255	0.036
-542.252	115.706	-0.075	0.092
-541.237	127.464	-0.121	-0.154
-540.223	-200.000	-0.006	-0.069
-539.208	-41.231	-0.253	-0.132
-538.193	-200.000	0.017	-0.275
-537.179	-81.713	-0.423	-0.140
-536.164	162.076	0.119	-0.168
-535.150	800.000	0.112	0.342
-534.135	58.675	0.189	-0.187
-533.121	22.103	-0.240	-0.197
-532.106	-137.794	0.365	0.041
-531.091	39.676	0.320	0.289
-530.077	800.000	-0.077	0.222
-529.062	43.833	0.033	-0.030
-528.048	3.506	-0.043	-0.031
-527.033	-200.000	-0.008	0.128
-526.018	173.816	0.079	0.116
-525.004	-12.055	-0.300	0.198
-523.989	-101.430	0.121	0.030
-522.975	-133.053	-0.074	-0.009
-521.960	-23.452	-0.237	-0.143
-520.945	178.129	-0.097	-0.143
-519.931	800.000	0.043	0.166
-518.916	-58.260	-0.080	0.035
-517.902	-25.164	-0.242	-0.144
-516.887	-42.516	0.183	0.094
-515.872	-5.627	-0.220	-0.152
-514.858	168.368	-0.113	0.162
-513.843	45.224	0.216	-0.200
-512.829	-64.056	0.037	-0.015
-511.814	-200.000	-0.058	0.360
-510.799	-200.000	0.006	0.153
-509.785	-98.928	-0.429	-0.110
-508.770	-116.082	0.104	0.019
-507.756	-44.431	0.111	0.056
-506.741	-171.009	0.292	-0.010
-505.726	25.956	0.202	-0.169
-504.712	-49.272	-0.044	0.021
-503.697	46.446	0.100	0.093
-502.683	-54.094	-0.240	0.110
-501.668	31.322	-0.087	-0.075
-500.653	117.936	0.194	0.240
-499.639	350.087	0.292	0.580
-498.624	-133.764	0.251	0.031
-497.610	21.825	-0.091	-0.075
-496.595	465.664	-0.058	0.130
-495.581	-200.000	0.002	0.319
-494.566	-200.000	-0.030	-0.188
-493.551	-200.000	0.001	0.143
-492.537	-102.150	-0.200	-0.048
-491.522	-200.000	-0.018	0.206
-490.508	10.047	0.157	-0.120
-489.493	-96.151	0.115	0.031
-488.478	615.654	-0.034	-0.087
-487.464	21.602	-0.061	0.050
-486.449	800.000	-0.019	0.066
-485.435	-80.357	0.171	0.057
-484.420	-36.192	-0.103	0.056
-483.405	245.230	0.110	-0.187
-482.391	-72.288	0.047	0.018
-481.376	172.540	0.199	0.288
-480.362	-9.687	-0.192	-0.129
-479.347	-200.000	-0.022	-0.291
-478.332	-200.000	-0.008	0.105
-477.318	149.712	-0.017	-0.023
-476.303	183.466	-0.210	-0.312
-475.289	768.906	-0.082	-0.224
-474.274	-122.792	0.344	-0.056
-473.259	131.742	-0.234	-0.303
-472.245	-63.697	0.325	-0.134
-471.230	659.553	0.028	0.073
-470.216	-37.043	0.101	-0.054
-469.201	-200.000	0.034	-0.291
-468.186	-200.000	0.048	-0.325
-467.172	-5.888	0.294	-0.202
-466.157	33.595	-0.084	-0.073
-465.143	-127.630	-0.191	-0.028
-464.128	-44.377	0.217	0.109
-463.113	-163.303	-0.227	0.011
-462.099	-141.495	-0.256	-0.026
-461.084	-200.000	0.027	0.493
-460.070	-200.000	0.028	0.320
-459.055	800.000	-0.060	0.206
-458.040	439.987	-0.031	-0.068
-457.026	15.495	-0.076	0.060
-456.011	-200.000	0.001	0.235
-454.997	58.859	0.056	0.055
-453.982	392.196	-0.118	-0.245
-452.968	-83.239	0.101	0.033
-451.953	126.417	-0.170	-0.217
-450.938	-135.134	0.164	-0.020
-449.924	-13.476	0.086	-0.056
-448.909	90.415	0.109	0.123
-447.895	102.029	-0.332	0.389
-446.880	10.348	-0.141	0.108
-445.865	800.000	0.098	-0.341
-444.851	607.952	0.065	0.163
-443.836	-24.581	-0.125	-0.075
-442.822	201.994	0.193	0.298
-441.807	-74.392	-0.318	-0.115
-440.792	-124.253	0.144	0.023
-439.778	-200.000	-0.008	0.053
-438.763	-153.269	0.196	0.014
-437.749	-116.746	0.233	0.043
-436.734	-79.425	-0.195	0.066
-435.719	79.796	0.132	-0.143
-434.705	-31.788	0.249	-0.140
-433.690	-130.614	-0.133	-0.018
-432.676	-135.886	-0.319	-0.038
-431.661	-200.000	0.049	0.627
-430.646	-200.000	-0.002	0.157
-429.632	-76.405	0.271	0.096
-428.617	-191.693	-0.232	0.002
-427.603	42.396	-0.099	-0.090
-426.588	25.019	0.267	0.222
-425.573	-110.833	0.037	-0.008
-424.559	-43.710	0.333	0.168
-423.544	800.000	-0.093	0.402
-422.530	-91.302	0.070	-0.020
-421.515	-200.000	0.007	0.261
-420.500	245.220	-0.210	0.355
-419.486	800.000	0.097	-0.352
-418.471	-79.737	-0.079	-0.027
-417.457	-47.188	-0.186	0.091
-416.442	20.897	-0.040	-0.033
-415.428	-93.265	-0.191	-0.053
-414.413	160.516	-0.152	0.213
-413.398	800.000	0.079	0.249
-412.384	20.410	-0.076	-0.062
-411.369	-200.000	0.021	0.420
-410.355	-80.363	-0.053	0.018
-409.340	228.049	-0.112	0.183
-408.325	356.320	-0.083	0.166
-407.311	800.000	-0.010	-0.043
-406.296	247.373	0.148	0.251
-405.282	60.550	0.089	-0.089
-404.267	144.651	-0.123	0.164
-403.252	-200.000	-0.006	0.112
-402.238	272.530	-0.021	0.038
-401.223	-200.000	-0.043	-0.313
-400.209	-200.000	0.074	0.379
-399.194	330.014	-0.065	-0.126
-398.179	-98.660	0.163	0.042
-397.165	-156.904	0.122	0.008
-396.150	225.164	0.049	-0.080
-395.136	800.000	-0.068	-0.296
-394.121	20.383	0.198	-0.161
-393.106	-67.260	0.203	-0.080
-392.092	-89.595	-0.159	-0.047
-391.077	68.742	-0.148	-0.152
-390.063	-200.000	0.039	-0.364
-389.048	-200.000	0.004	0.412
-388.033	95.515	0.090	-0.102
-387.019	-63.341	-0.142	0.059
-386.004	-77.642	-0.279	0.097
-384.990	-58.593	-0.194	0.084
-383.975	219.019	-0.190	0.304
-382.960	800.000	-0.047	-0.151
-381.946	-200.000	-0.017	-0.091
-380.931	800.000	0.076	0.265
-379.917	-102.681	-0.207	0.049
-378.902	43.936	-0.150	0.138
-377.888	-107.260	-0.289	0.064
-376.873	48.417	-0.084	0.079
-375.858	-71.495	0.138	0.052
-374.844	21.893	-0.096	0.079
-373.829	-31.744	-0.228	-0.128
-372.815	-200.000	0.001	-0.009
-371.800	674.322	-0.098	-0.253
-370.785	800.000	-0.044	0.163
-369.771	618.723	0.030	0.075
-368.756	800.000	-0.132	0.444
-367.742	-200.000	0.051	-0.328
-366.727	800.000	0.061	-0.181
-365.712	-62.949	0.427	0.177
-364.698	-104.754	-0.080	0.018
-363.683	190.681	-0.063	-0.094
-362.669	-90.748	0.342	-0.099
-361.654	800.000	0.030	-0.128
-360.639	-110.066	-0.154	-0.032
-359.625	-200.000	-0.007	0.148
-358.610	-200.000	-0.003	0.027
-357.596	-71.263	0.281	0.105
-356.581	223.060	0.072	-0.117
-355.566	-29.936	-0.156	0.089
-354.552	-159.381	0.357	0.020
-353.537	-200.000	0.004	0.407
-352.523	-143.131	-0.187	-0.018
-351.508	85.547	0.063	0.070
-350.493	-200.000	-0.014	0.157
-349.479	37.750	0.208	-0.185
-348.464	136.218	0.070	-0.091
-347.450	465.837	0.037	-0.083
-346.435	-2.533	-0.241	-0.169
-345.420	-19.714	0.415	-0.257
-344.406	-2.012	0.117	0.082
-343.391	372.535	0.091	-0.185
-342.377	509.889	0.037	-0.085
-341.362	482.042	-0.106	0.241
-340.348	-130.199	0.300	-0.041
-339.333	215.070	-0.151	0.240
-338.318	107.360	0.229	0.272
-337.304	-200.000	0.095	-0.589
-336.289	-200.000	-0.023	-0.245
-335.275	492.832	-0.050	-0.114
-334.260	-68.185	0.205	-0.080
-333.245	-200.000	0.077	0.403
-332.231	162.594	-0.069	-0.097
-331.216	-199.004	0.289	0.002
-330.202	16.381	-0.252	-0.199
-329.187	-200.000	0.000	-0.113
-328.172	498.317	0.125	-0.289
-327.158	-121.926	0.238	-0.039
-326.143	-102.369	-0.383	0.092
-325.129	-121.011	0.472	-0.079
-324.114	300.813	-0.127	-0.234
-323.099	-200.000	-0.022	0.143
-322.085	800.000	-0.048	0.167
-321.070	-163.522	-0.215	0.010
-320.056	-21.150	0.460	-0.281
-319.041	-200.000	0.030	-0.442
-318.026	17.405	0.238	-0.189
-317.012	-86.162	0.227	-0.070
-315.997	-70.508	-0.155	0.059
-314.983	503.689	0.100	0.231
-313.968	-200.000	0.007	0.127
-312.953	-60.689	0.114	-0.048
-311.939	-200.000	-0.041	0.264
-310.924	-87.180	-0.208	0.063
-309.910	-26.330	-0.123	0.072
-308.895	46.259	0.112	-0.103
-307.880	-200.000	0.039	-0.176
-306.866	-103.727	0.036	-0.008
-305.851	420.090	-0.068	-0.146
-304.837	133.500	0.032	0.042
-303.822	800.000	-0.077	-0.253
-302.807	138.296	0.058	0.076
-301.793	-106.058	0.486	0.109
-300.778	-58.278	0.119	0.052
-299.764	-200.000	0.015	0.244
-298.749	199.827	-0.029	0.044
-297.735	-96.567	-0.229	0.060
-296.720	-121.846	-0.181	-0.030
-295.705	82.794	0.089	0.097
-294.691	-0.273	-0.275	-0.195
-293.676	61.276	-0.120	-0.119
-292.662	258.238	-0.020	-0.034
-291.647	51.605	0.395	-0.375
-290.632	116.375	-0.239	-0.292
-289.618	91.356	0.051	-0.058
-288.603	-65.179	-0.160	0.065
-287.589	-69.791	-0.116	-0.044
-286.574	16.389	-0.150	-0.118
-285.559	-200.000	0.022	-0.226
-284.545	-115.003	0.527	-0.100
-283.530	800.000	0.072	-0.249
-282.516	320.117	0.123	-0.232
-281.501	800.000	0.104	-0.403
-280.486	-163.512	-0.074	0.003
-279.472	-17.965	0.274	-0.171
-278.457	90.362	0.219	0.245
-277.443	-123.561	-0.239	0.038
-276.428	-88.359	0.139	0.041
-275.413	573.738	0.148	0.360
-274.399	-42.959	0.197	0.100
-273.384	42.056	0.069	-0.063
-272.370	105.898	-0.168	-0.199
-271.355	-115.972	0.413	-0.077
-270.340	153.264	-0.173	-0.237
-269.326	-200.000	-0.013	-0.255
-268.311	800.000	-0.104	-0.318
-267.297	-200.000	-0.034	-0.376
-266.282	-26.493	0.255	0.149
-265.267	-200.000	0.025	-0.134
-264.253	65.005	-0.232	-0.234
-263.238	-53.932	-0.195	-0.089
-262.224	270.968	-0.253	-0.445
-261.209	-200.000	0.058	-0.257
-260.195	-26.089	-0.369	-0.216
-259.180	-81.152	0.085	0.028
-258.165	267.600	0.210	-0.366
-257.151	251.621	-0.107	-0.181
-256.136	-69.350	0.143	-0.055
-255.122	194.553	0.084	-0.127
-254.107	-127.462	0.112	-0.016
-253.092	-200.000	-0.024	0.141
-252.078	-163.320	-0.186	0.009
-251.063	-158.539	0.117	-0.007
-250.049	-82.610	-0.310	-0.100
-249.034	-110.772	0.171	-0.035
-248.019	11.515	-0.117	0.090
-247.005	529.158	-0.099	0.234
-245.990	144.055	-0.071	0.095
-244.976	-51.481	0.252	0.118
-243.961	-200.000	-0.061	-0.411
-242.946	-131.223	-0.180	-0.024
-241.932	-200.000	0.032	0.246
-240.917	-3.323	-0.268	0.186
-239.903	-200.000	0.021	-0.321
-238.888	159.705	-0.043	0.060
-237.873	238.182	0.092	0.153
-236.859	-200.000	-0.008	0.164
-235.844	7.083	0.113	0.084
-234.830	-200.000	0.021	0.104
-233.815	800.000	-0.019	-0.077
-232.800	-8.717	-0.194	0.130
-231.786	12.309	-0.149	0.114
-230.771	-113.406	-0.365	-0.071
-229.757	-175.407	0.150	0.004
-228.742	-91.496	0.166	0.047
-227.727	-0.276	-0.163	0.116
-226.713	-78.565	-0.319	-0.109
-225.698	-200.000	-0.036	-0.202
-224.684	-200.000	-0.108	0.537
-223.669	333.480	-0.096	0.185
-222.655	302.531	0.046	-0.084
-221.640	-200.000	-0.054	0.274
-220.625	800.000	-0.085	-0.368
-219.611	172.095	-0.113	-0.162
-218.596	-199.303	0.123	-0.001
-217.582	-200.000	0.025	-0.111
-216.567	-104.276	-0.316	-0.073
-215.552	-131.253	-0.098	-0.013
-214.538	-40.367	0.375	-0.194
-213.523	-200.000	0.062	-0.319
-212.509	152.493	-0.062	-0.084
-211.494	-48.367	-0.382	-0.183
-210.479	181.141	0.154	0.225
-209.465	127.231	0.234	0.295
-208.450	54.761	-0.298	0.286
-207.436	-60.569	0.088	-0.037
-206.421	729.154	-0.163	0.433
-205.406	-105.347	-0.096	0.022
-204.392	800.000	-0.091	-0.285
-203.377	139.542	-0.085	-0.111
-202.363	-153.553	-0.111	0.008
-201.348	-163.313	-0.288	-0.014
-200.333	-127.341	0.178	0.026
-199.319	106.943	-0.146	0.173
-198.304	310.097	0.202	0.376
-197.290	44.679	0.184	0.168
-196.275	2.349	-0.096	0.069
-195.260	-200.000	-0.005	-0.296
-194.246	-62.315	-0.108	-0.045
-193.231	-200.000	-0.005	0.308
-192.217	800.000	0.041	-0.157
-191.202	-22.366	-0.259	-0.156
-190.187	-20.307	-0.090	0.055
-189.173	471.733	0.105	0.236
-188.158	103.857	0.152	-0.177
-187.144	222.798	0.081	0.130
-186.129	800.000	-0.025	0.085
-185.114	166.640	0.054	0.076
-184.100	-90.792	0.330	-0.095
-183.085	5.075	0.177	0.129
-182.071	-47.339	0.083	0.040
-181.056	3.236	-0.198	-0.143
-180.042	29.826	0.077	0.065
-179.027	-200.000	-0.052	0.320
-178.012	-194.807	-0.276	-0.002
-176.998	-200.000	0.064	0.331
-175.983	197.441	0.280	0.425
-174.969	-16.660	-0.050	0.032
-173.954	800.000	0.024	-0.073
-172.939	-19.870	-0.319	0.196
-171.925	-153.217	0.157	0.011
-170.910	720.864	-0.107	0.284
-169.896	416.440	0.067	0.141
-168.881	240.113	-0.126	0.208
-167.866	-47.303	-0.229	-0.111
-166.852	800.000	0.023	-0.079
-165.837	-100.586	0.384	-0.094
-164.823	55.944	-0.182	-0.175
-163.808	608.977	-0.060	0.149
-162.793	17.792	0.263	-0.208
-161.779	-13.698	-0.048	-0.031
-160.764	-40.774	0.092	0.047
-159.750	-16.224	0.139	-0.088
-158.735	800.000	-0.023	-0.076
-157.720	47.700	0.079	-0.073
-156.706	325.699	-0.201	0.382
-155.691	142.230	0.075	0.099
-154.677	-200.000	0.056	-0.267
-153.662	800.000	0.081	-0.253
-152.647	160.198	0.110	0.153
-151.633	-197.500	-0.136	0.001
-150.618	-49.377	0.254	0.120
-149.604	-105.522	0.237	-0.053
-148.589	-110.308	0.148	-0.031
-147.574	5.033	0.166	0.121
-146.560	-94.029	0.293	-0.080
-145.545	93.684	-0.050	-0.056
-144.531	203.324	0.081	-0.124
-143.516	-200.000	0.028	-0.147
-142.502	43.915	-0.150	-0.136
-141.487	479.313	-0.062	-0.139
-140.472	-108.285	0.394	-0.084
-139.458	223.751	0.070	-0.113
-138.443	456.369	-0.075	-0.166
-137.429	18.584	-0.119	0.095
-136.414	79.476	0.102	-0.108
-135.399	56.706	-0.185	-0.179
-134.385	25.257	-0.041	0.034
-133.370	-103.585	-0.040	-0.009
-132.356	-200.000	0.046	-0.432
-131.341	-119.745	-0.358	0.061
-130.326	518.356	0.022	-0.051
-129.312	174.746	-0.190	0.273
-128.297	234.283	-0.132	0.216
-127.283	-200.000	0.047	0.432
-126.268	-75.000	-0.121	-0.043
-125.253	-164.952	0.055	-0.002
-124.239	-70.628	0.026	-0.010
-123.224	800.000	0.016	-0.066
