DTS Sentinel unit serial number:	SN413079Multiplexer serial number:	ORYXHardware model number:	OX4-SRSoftware version number:	ORYX F/W v4.00 Oryx Data Collector v3.7.2.0data status	okinstallation	princeton_trtdifferential loss correction	single-endedforward channel	channel 4reverse channel	N/Adate	2019/09/17time	15:21:35forward acquisition time	60.00reverse acquisition time	0.00gamma	496.2192k internal	0.2292k external	0.2292temperature offset calibration	0.9988default loss term (dB/km)	0.3790temperature slope calibration	1.0000multiplexer offset coefficient	1.0000multiplexer slope coefficient	1.0000fibre end	0.00T internal ref (°C)	37.94T ext. ref 1 (°C)	0.38T ext. ref 2 (°C)	35.12length (m)	temperature (°C)	Stokes	anti-Stokes-747.200	800.000	-0.103	0.387
-746.185	560.668	-0.226	0.558
-745.171	-200.000	-0.034	0.250
-744.156	-200.000	0.051	0.338
-743.142	-140.312	0.343	-0.037
-742.127	-174.746	0.142	0.004
-741.112	800.000	-0.034	-0.152
-740.098	-142.430	-0.197	0.020
-739.083	97.698	-0.050	-0.059
-738.069	800.000	0.092	0.287
-737.054	338.791	-0.095	-0.190
-736.039	-58.745	0.187	-0.083
-735.025	355.850	-0.082	-0.167
-734.010	184.241	0.065	0.098
-732.996	-200.000	-0.016	0.266
-731.981	132.478	0.171	-0.226
-730.966	26.422	0.122	-0.105
-729.952	-170.964	0.257	-0.009
-728.937	-127.142	-0.366	-0.055
-727.923	-1.052	-0.261	-0.189
-726.908	565.333	-0.074	0.182
-725.894	92.800	0.196	0.226
-724.879	800.000	-0.035	-0.134
-723.864	140.958	-0.074	-0.100
-722.850	-95.768	0.196	-0.054
-721.835	613.497	-0.077	-0.197
-720.821	15.085	-0.067	-0.053
-719.806	8.905	0.199	-0.154
-718.791	67.920	-0.096	-0.100
-717.777	-200.000	-0.001	-0.111
-716.762	10.043	-0.109	0.085
-715.748	53.543	-0.208	-0.204
-714.733	800.000	-0.039	-0.157
-713.718	-19.494	0.289	-0.183
-712.704	-29.944	0.099	0.058
-711.689	278.135	0.071	-0.130
-710.675	194.883	-0.202	-0.313
-709.660	-200.000	0.031	-0.319
-708.645	-57.471	0.029	-0.013
-707.631	-0.689	-0.068	0.049
-706.616	-200.000	-0.004	-0.106
-705.602	800.000	-0.069	-0.217
-704.587	-200.000	-0.020	-0.189
-703.572	-73.686	0.250	0.093
-702.558	-70.234	0.189	-0.074
-701.543	-182.435	-0.060	0.001
-700.529	-200.000	-0.029	0.220
-699.514	800.000	0.025	-0.080
-698.499	218.175	-0.108	0.177
-697.485	11.196	0.246	-0.192
-696.470	-95.060	-0.158	-0.044
-695.456	-77.203	-0.084	-0.030
-694.441	21.681	-0.160	0.133
-693.426	-200.000	-0.027	-0.159
-692.412	800.000	0.042	0.181
-691.397	68.636	-0.162	-0.170
-690.383	247.146	-0.134	-0.231
-689.368	74.606	-0.265	0.285
-688.354	51.567	-0.107	0.104
-687.339	-167.339	0.330	-0.014
-686.324	-124.057	-0.265	0.042
-685.310	-10.536	0.352	0.238
-684.295	155.182	-0.069	0.097
-683.281	186.838	0.089	-0.135
-682.266	-200.000	-0.066	0.321
-681.251	-75.853	-0.131	-0.047
-680.237	16.209	-0.195	-0.157
-679.222	22.692	-0.147	-0.123
-678.208	-44.350	-0.010	-0.005
-677.193	-15.490	-0.301	0.196
-676.178	800.000	-0.027	0.108
-675.164	-200.000	-0.003	0.066
-674.149	627.826	0.061	0.159
-673.135	-186.474	0.190	0.003
-672.120	800.000	0.066	-0.232
-671.105	407.427	-0.096	-0.207
-670.091	204.307	-0.102	-0.161
-669.076	129.130	-0.132	-0.172
-668.062	78.481	-0.150	-0.164
-667.047	-84.926	0.107	0.034
-666.032	-200.000	-0.092	0.464
-665.018	-200.000	0.005	0.158
-664.003	20.673	-0.161	-0.133
-662.989	148.472	-0.208	0.287
-661.974	74.367	-0.078	-0.083
-660.959	-95.263	-0.188	-0.052
-659.945	-85.772	0.045	0.014
-658.930	-200.000	0.069	-0.515
-657.916	-40.767	0.224	0.118
-656.901	127.762	-0.195	0.252
-655.886	-32.399	-0.105	0.060
-654.872	-74.492	-0.298	0.110
-653.857	-52.334	-0.146	-0.069
-652.843	-113.341	-0.122	0.024
-651.828	-200.000	-0.014	-0.120
-650.814	-49.109	0.127	0.062
-649.799	-200.000	-0.016	0.194
-648.784	67.075	0.161	0.167
-647.770	800.000	-0.035	0.136
-646.755	17.786	0.141	-0.114
-645.741	800.000	-0.063	0.193
-644.726	-28.395	0.181	-0.107
-643.711	63.967	0.314	0.322
-642.697	160.804	-0.055	-0.078
-641.682	52.887	0.221	-0.215
-640.668	-81.168	-0.334	-0.112
-639.653	800.000	-0.035	0.109
-638.638	195.063	-0.157	0.244
-637.624	58.610	0.375	0.375
-636.609	-89.186	0.084	0.025
-635.595	800.000	-0.058	-0.170
-634.580	3.677	-0.211	0.157
-633.565	-38.273	-0.167	0.090
-632.551	-140.345	-0.280	-0.030
-631.536	430.577	0.104	0.230
-630.522	-135.877	-0.263	0.032
-629.507	-86.989	-0.167	-0.052
-628.492	-200.000	0.012	-0.343
-627.478	-200.000	-0.045	-0.236
-626.463	-113.220	0.137	-0.028
-625.449	59.149	-0.191	-0.191
-624.434	-80.646	0.303	-0.103
-623.419	332.709	-0.044	-0.087
-622.405	75.405	-0.167	-0.179
-621.390	31.023	0.113	-0.098
-620.376	298.790	-0.067	-0.126
-619.361	-83.910	-0.173	0.056
-618.346	-23.341	0.415	0.254
-617.332	78.806	0.177	-0.193
-616.317	800.000	0.091	-0.325
-615.303	-101.700	0.273	0.067
-614.288	800.000	-0.106	0.364
-613.273	-105.470	-0.087	-0.020
-612.259	800.000	0.034	0.120
-611.244	-102.170	-0.293	0.072
-610.230	800.000	0.102	0.369
-609.215	-139.043	0.134	0.015
-608.201	70.106	-0.170	-0.178
-607.186	-125.118	-0.138	0.022
-606.171	-150.539	0.161	0.013
-605.157	59.176	0.157	0.157
-604.142	-200.000	-0.040	0.192
-603.128	198.615	0.195	0.305
-602.113	-200.000	-0.047	0.336
-601.098	446.379	-0.062	-0.139
-600.084	-200.000	-0.004	0.021
-599.069	800.000	-0.025	-0.110
-598.055	-86.422	0.385	0.120
-597.040	61.835	0.183	-0.186
-596.025	44.731	0.067	-0.062
-595.011	-79.964	-0.185	-0.063
-593.996	-73.571	0.390	0.145
-592.982	800.000	0.093	0.379
-591.967	-78.674	0.309	0.107
-590.952	-61.079	-0.322	-0.138
-589.938	437.687	-0.103	-0.229
-588.923	800.000	-0.078	-0.293
-587.909	-149.757	-0.094	-0.007
-586.894	-200.000	-0.013	-0.102
-585.879	-49.240	0.094	0.046
-584.865	-141.473	0.370	0.038
-583.850	33.522	-0.199	-0.176
-582.836	92.247	0.085	0.097
-581.821	-174.589	-0.273	-0.008
-580.806	-150.862	0.329	-0.025
-579.792	800.000	-0.035	-0.119
-578.777	800.000	0.081	-0.229
-577.763	376.872	-0.155	-0.322
-576.748	-200.000	0.010	-0.148
-575.733	755.197	0.052	0.143
-574.719	412.595	0.110	-0.238
-573.704	-69.167	0.153	-0.060
-572.690	368.027	-0.205	-0.421
-571.675	-31.588	0.106	0.060
-570.661	-73.972	0.138	-0.051
-569.646	-48.645	-0.164	-0.080
-568.631	-62.665	-0.143	0.060
-567.617	-72.413	0.256	0.096
-566.602	-200.000	0.007	-0.067
-565.588	15.206	-0.101	0.081
-564.573	-200.000	0.018	0.150
-563.558	50.725	0.175	0.168
-562.544	113.328	0.135	0.167
-561.529	-136.501	-0.257	0.030
-560.515	-93.047	0.175	0.050
-559.500	23.586	-0.213	0.178
-558.485	-54.615	-0.192	0.088
-557.471	210.316	-0.232	-0.370
-556.456	226.547	0.117	0.193
-555.442	6.664	0.072	-0.055
-554.427	-75.825	0.378	0.136
-553.412	-14.956	0.300	0.195
-552.398	22.274	-0.250	0.207
-551.383	-200.000	0.017	0.282
-550.369	18.708	0.094	-0.076
-549.354	-200.000	0.040	-0.206
-548.339	12.009	-0.324	0.253
-547.325	-95.982	0.123	0.033
-546.310	25.551	-0.268	-0.226
-545.296	177.584	0.137	0.203
-544.281	-66.492	0.219	0.088
-543.266	-200.000	-0.383	-0.002
-542.252	-108.109	0.158	0.035
-541.237	85.296	-0.190	0.212
-540.223	-152.054	0.339	-0.025
-539.208	41.087	-0.207	0.190
-538.193	393.703	0.059	0.125
-537.179	37.092	0.176	-0.158
-536.164	-161.009	-0.101	0.005
-535.150	70.020	-0.057	-0.060
-534.135	30.571	0.287	0.249
-533.121	800.000	-0.057	-0.218
-532.106	136.434	-0.146	0.194
-531.091	-106.839	0.098	-0.022
-530.077	-72.983	0.348	-0.130
-529.062	47.814	-0.117	0.111
-528.048	105.426	0.120	-0.144
-527.033	224.106	-0.071	-0.116
-526.018	-164.266	0.143	-0.007
-525.004	-149.667	-0.202	0.016
-523.989	228.978	-0.067	0.111
-522.975	505.509	0.086	-0.202
-521.960	64.262	0.071	0.072
-520.945	-137.408	-0.304	-0.035
-519.931	-200.000	-0.026	-0.310
-518.916	-200.000	0.005	-0.043
-517.902	504.843	-0.057	-0.133
-516.887	-200.000	0.022	0.287
-515.872	-108.541	0.191	0.042
-514.858	-64.581	0.239	-0.099
-513.843	-200.000	0.055	-0.300
-512.829	-200.000	0.029	0.197
-511.814	-23.810	-0.436	-0.265
-510.799	-48.333	0.072	0.035
-509.785	-22.455	0.123	0.076
-508.770	3.006	0.118	0.087
-507.756	-171.257	-0.166	0.006
-506.741	-200.000	-0.070	-0.402
-505.726	-200.000	0.009	-0.301
-504.712	236.331	0.093	0.156
-503.697	-200.000	-0.023	-0.302
-502.683	-45.444	-0.076	-0.038
-501.668	800.000	-0.027	-0.106
-500.653	-26.817	-0.086	-0.051
-499.639	-52.349	0.061	-0.029
-498.624	13.818	0.037	0.030
-497.610	-200.000	0.021	0.151
-496.595	-200.000	-0.036	0.264
-495.581	-200.000	-0.019	0.103
-494.566	-200.000	0.022	-0.106
-493.551	66.926	0.180	0.186
-492.537	-200.000	0.036	-0.183
-491.522	-200.000	0.001	-0.087
-490.508	110.921	-0.027	-0.032
-489.493	271.325	-0.140	-0.250
-488.478	-200.000	-0.027	0.130
-487.464	73.388	-0.166	-0.176
-486.449	-200.000	0.001	-0.086
-485.435	-200.000	0.020	-0.095
-484.420	-44.951	0.536	-0.271
-483.405	409.857	0.101	0.216
-482.391	-200.000	-0.001	-0.151
-481.376	-36.774	0.324	-0.176
-480.362	-75.759	-0.038	-0.014
-479.347	226.221	0.146	0.240
-478.332	382.187	-0.196	0.408
-477.318	-60.332	-0.266	0.115
-476.303	-200.000	0.022	-0.207
-475.289	-116.691	0.159	0.030
-474.274	-29.448	-0.239	0.139
-473.259	-200.000	0.005	0.056
-472.245	800.000	0.025	-0.083
-471.230	482.974	-0.147	-0.339
-470.216	575.205	-0.058	0.143
-469.201	749.701	-0.197	0.539
-468.186	-69.103	-0.086	-0.033
-467.172	111.734	-0.120	0.146
-466.157	800.000	-0.126	-0.380
-465.143	235.294	-0.263	0.440
-464.128	800.000	0.059	-0.247
-463.113	104.899	0.162	0.193
-462.099	-130.595	0.096	-0.013
-461.084	-129.824	0.242	-0.034
-460.070	-61.131	0.296	-0.126
-459.055	44.382	-0.043	-0.040
-458.040	293.361	0.072	0.134
-457.026	-200.000	-0.018	0.181
-456.011	-200.000	0.019	-0.214
-454.997	56.808	-0.128	-0.126
-453.982	131.653	-0.026	-0.034
-452.968	800.000	-0.105	0.464
-451.953	-165.642	0.079	-0.003
-450.938	-200.000	0.036	-0.379
-449.924	65.739	-0.119	-0.122
-448.909	80.599	0.151	-0.165
-447.895	-117.757	-0.219	-0.040
-446.880	27.981	-0.071	-0.061
-445.865	109.649	-0.088	0.106
-444.851	-27.971	-0.204	0.120
-443.836	678.512	0.063	0.165
-442.822	22.738	-0.092	-0.076
-441.807	-80.329	0.136	-0.046
-440.792	22.754	0.177	-0.146
-439.778	800.000	0.060	-0.195
-438.763	-63.505	0.424	0.176
-437.749	-200.000	-0.011	0.249
-436.734	262.130	0.088	0.154
-435.719	23.842	0.097	0.081
-434.705	-40.408	0.134	-0.070
-433.690	-5.156	-0.103	-0.071
-432.676	-131.015	0.326	-0.044
-431.661	-126.544	-0.202	-0.030
-430.646	43.877	0.070	0.065
-429.632	800.000	0.044	-0.191
-428.617	-26.366	0.082	0.048
-427.603	217.722	-0.006	0.010
-426.588	277.542	0.023	0.042
-425.573	800.000	0.050	0.201
-424.559	-98.541	0.361	0.093
-423.544	564.803	-0.059	0.144
-422.530	309.231	0.048	-0.091
-421.515	-74.693	0.239	0.087
-420.500	22.639	0.205	0.170
-419.486	-200.000	0.001	-0.099
-418.471	-200.000	0.069	-0.321
-417.457	800.000	0.056	-0.213
-416.442	800.000	-0.022	0.063
-415.428	800.000	0.174	-0.493
-414.413	-200.000	0.038	0.178
-413.398	43.206	0.284	0.262
-412.384	-200.000	0.010	0.160
-411.369	-200.000	-0.038	0.224
-410.355	-81.224	-0.072	-0.024
-409.340	-48.658	0.022	-0.011
-408.325	557.627	0.217	-0.530
-407.311	800.000	0.058	-0.212
-406.296	-45.371	-0.238	-0.119
-405.282	800.000	-0.055	-0.192
-404.267	55.120	-0.158	-0.154
-403.252	54.180	-0.171	0.166
-402.238	5.862	-0.162	-0.121
-401.223	-16.206	0.134	-0.086
-400.209	-102.885	0.135	0.032
-399.194	-200.000	0.003	0.151
-398.179	-200.000	0.003	0.055
-397.165	331.049	0.160	-0.311
-396.150	-45.788	0.073	-0.037
-395.136	-200.000	0.018	-0.114
-394.121	-129.960	0.344	0.048
-393.106	188.680	0.225	-0.341
-392.092	621.371	0.119	-0.303
-391.077	-200.000	0.002	-0.169
-390.063	143.005	-0.090	0.120
-389.048	-50.030	0.369	0.176
-388.033	-200.000	0.000	0.024
-387.019	-119.921	0.127	-0.022
-386.004	-200.000	0.033	0.147
-384.990	30.367	-0.086	0.074
-383.975	-43.718	-0.070	0.036
-382.960	613.634	0.141	-0.356
-381.946	-200.000	-0.009	-0.075
-380.931	10.218	-0.170	-0.131
-379.917	107.332	0.314	-0.377
-378.902	355.530	0.115	-0.231
-377.888	-200.000	-0.040	-0.234
-376.873	-189.614	-0.183	-0.002
-375.858	-10.568	-0.286	0.191
-374.844	180.265	0.154	0.228
-373.829	-96.413	-0.213	0.057
-372.815	-180.648	0.313	0.006
-371.800	-97.327	0.305	0.080
-370.785	-112.317	-0.312	-0.063
-369.771	98.388	0.130	0.151
-368.756	-83.143	-0.302	-0.098
-367.742	-146.224	-0.540	0.048
-366.727	800.000	0.041	0.159
-365.712	624.694	0.146	0.370
-364.698	218.078	-0.069	0.111
-363.683	75.400	-0.048	0.052
-362.669	286.864	-0.159	0.290
-361.654	-200.000	0.044	0.234
-360.639	172.392	-0.083	-0.121
-359.625	-200.000	-0.002	0.198
-358.610	-129.835	-0.105	-0.015
-357.596	-18.173	0.270	0.170
-356.581	-160.309	-0.187	-0.010
-355.566	800.000	0.067	-0.195
-354.552	-200.000	0.019	-0.166
-353.537	-163.710	-0.213	-0.010
-352.523	165.911	-0.173	0.246
-351.508	-200.000	-0.004	0.216
-350.493	-48.950	0.080	-0.039
-349.479	243.476	-0.127	0.215
-348.464	-42.985	-0.211	0.108
-347.450	-17.440	-0.399	0.253
-346.435	-200.000	-0.002	0.349
-345.420	-200.000	-0.039	-0.318
-344.406	77.605	-0.214	-0.230
-343.391	-34.866	-0.214	0.118
-342.377	-200.000	-0.011	-0.263
-341.362	32.499	0.271	-0.236
-340.348	-200.000	-0.013	0.177
-339.333	-3.072	-0.154	-0.108
-338.318	-102.506	0.187	0.045
-337.304	-14.881	-0.343	0.222
-336.289	-200.000	-0.055	-0.323
-335.275	-39.594	-0.240	-0.127
-334.260	-17.797	-0.155	0.098
-333.245	-88.060	-0.215	0.065
-332.231	122.987	0.025	0.031
-331.216	-105.297	-0.256	-0.059
-330.202	373.924	0.109	0.224
-329.187	658.313	0.035	-0.091
-328.172	800.000	0.058	0.243
-327.158	5.949	-0.043	0.032
-326.143	666.270	-0.099	-0.258
-325.129	604.178	-0.116	-0.292
-324.114	-127.360	-0.108	0.016
-323.099	-31.846	0.279	-0.158
-322.085	-165.250	-0.296	-0.013
-321.070	-30.929	0.056	-0.032
-320.056	13.899	-0.100	0.078
-319.041	-200.000	-0.014	0.197
-318.026	25.777	-0.074	0.062
-317.012	-102.989	-0.191	-0.046
-315.997	394.324	0.081	-0.171
-314.983	326.382	-0.118	-0.228
-313.968	26.579	0.107	0.090
-312.953	254.936	0.120	-0.207
-311.939	105.539	0.140	-0.166
-310.924	-100.124	-0.088	0.022
-309.910	109.736	0.261	0.315
-308.895	240.657	0.138	0.231
-307.880	-77.529	0.235	0.082
-306.866	-48.614	-0.300	0.145
-305.851	-200.000	-0.040	0.288
-304.837	-72.260	0.257	0.096
-303.822	-75.403	0.090	-0.032
-302.807	601.909	-0.062	0.155
-301.793	-33.489	0.067	0.037
-300.778	-38.450	-0.180	0.096
-299.764	-119.036	-0.248	-0.044
-298.749	-200.000	-0.002	-0.182
-297.735	-90.023	0.198	-0.058
-296.720	-82.705	-0.308	-0.100
-295.705	-200.000	-0.080	0.411
-294.691	567.563	-0.041	-0.101
-293.676	-200.000	-0.024	0.240
-292.662	108.267	0.171	0.205
-291.647	-7.152	-0.134	0.091
-290.632	-200.000	0.013	0.282
-289.618	-59.668	-0.272	-0.117
-288.603	-18.636	0.134	-0.084
-287.589	-200.000	0.073	-0.444
-286.574	107.888	0.192	0.230
-285.559	147.160	0.308	0.417
-284.545	14.572	-0.137	-0.108
-283.530	-23.925	0.062	0.037
-282.516	-66.067	-0.194	0.078
-281.501	446.759	-0.155	-0.343
-280.486	167.398	-0.111	0.158
-279.472	578.415	0.066	0.161
-278.457	-200.000	-0.024	0.166
-277.443	-200.000	-0.025	-0.641
-276.428	-200.000	0.039	0.371
-275.413	127.892	0.034	0.043
-274.399	-200.000	-0.028	-0.295
-273.384	-20.569	-0.196	-0.121
-272.370	643.807	0.067	0.173
-271.355	105.570	0.116	0.138
-270.340	129.365	-0.283	0.363
-269.326	-84.608	0.266	-0.084
-268.311	1.791	-0.164	0.119
-267.297	-200.000	-0.014	0.314
-266.282	-35.370	0.067	-0.037
-265.267	-74.913	-0.081	0.029
-264.253	-101.349	-0.050	-0.012
-263.238	-200.000	-0.068	-0.359
-262.224	-47.666	0.033	0.016
-261.209	-49.413	-0.311	0.149
-260.195	128.707	-0.149	-0.191
-259.180	-79.830	0.021	0.007
-258.165	-200.000	-0.019	-0.184
-257.151	-59.525	0.028	0.012
-256.136	141.153	0.077	-0.102
-255.122	-200.000	0.009	-0.104
-254.107	-24.588	0.179	-0.107
-253.092	423.359	0.041	0.088
-252.078	318.790	-0.198	-0.376
-251.063	-101.830	0.272	-0.066
-250.049	-68.446	0.310	-0.121
-249.034	-30.157	-0.222	-0.127
-248.019	515.332	0.031	-0.072
-247.005	29.057	0.202	-0.172
-245.990	128.719	0.150	0.192
-244.976	104.889	0.220	0.261
-243.961	768.529	0.073	-0.200
-242.946	287.566	0.104	-0.189
-241.932	520.632	0.131	-0.308
-240.917	-34.915	-0.290	-0.159
-239.903	348.374	0.175	0.346
-238.888	-200.000	0.014	-0.126
-237.873	32.654	0.140	-0.122
-236.859	-16.491	0.162	-0.103
-235.844	325.361	-0.191	0.367
-234.830	34.470	0.171	-0.150
-233.815	-171.433	-0.492	-0.016
-232.800	-36.712	0.102	-0.055
-231.786	177.619	0.150	0.219
-230.771	-200.000	-0.043	0.202
-229.757	-38.836	0.324	-0.172
-228.742	-32.912	-0.198	-0.111
-227.727	106.709	0.109	0.129
-226.713	-91.805	0.337	-0.096
-225.698	579.579	-0.081	0.198
-224.684	-200.000	0.008	0.103
-223.669	-140.810	0.345	-0.036
-222.655	-35.505	0.054	-0.030
-221.640	800.000	0.061	-0.209
-220.625	-200.000	0.011	-0.065
-219.611	-3.101	-0.133	-0.093
-218.596	-80.635	0.108	0.036
-217.582	54.690	-0.291	-0.281
-216.567	-41.802	0.012	0.006
-215.552	-122.102	0.068	0.011
-214.538	-180.461	-0.217	-0.005
-213.523	48.806	0.035	-0.033
-212.509	-83.779	-0.087	0.028
-211.494	800.000	0.044	0.179
-210.479	800.000	0.018	0.074
-209.465	94.169	-0.108	0.123
-208.450	-51.414	0.122	0.057
-207.436	520.195	-0.164	-0.385
-206.421	-139.009	0.242	-0.026
-205.406	-60.047	0.115	0.049
-204.392	-73.766	-0.049	0.018
-203.377	-200.000	0.004	0.191
-202.363	-31.720	-0.360	0.203
-201.348	50.282	-0.215	0.204
-200.333	630.568	-0.105	0.267
-199.319	-26.145	-0.089	-0.052
-198.304	-58.586	-0.250	-0.109
-197.290	-200.000	-0.001	-0.024
-196.275	800.000	0.062	0.263
-195.260	-87.088	-0.280	-0.085
-194.246	277.856	0.027	-0.047
-193.231	197.259	-0.062	0.094
-192.217	151.330	0.081	-0.111
-191.202	-105.122	-0.199	0.046
-190.187	12.689	0.120	0.092
-189.173	161.233	0.138	-0.193
-188.158	-200.000	0.024	0.298
-187.144	47.167	-0.134	0.125
-186.129	-200.000	-0.010	-0.160
-185.114	-101.151	-0.096	-0.024
-184.100	-63.531	-0.274	0.113
-183.085	194.222	-0.147	0.223
-182.071	113.866	0.126	0.153
-181.056	-111.254	0.022	-0.005
-180.042	-56.317	-0.191	0.085
-179.027	103.303	0.083	0.097
-178.012	800.000	0.019	0.062
-176.998	57.983	0.112	-0.110
-175.983	110.137	0.086	-0.103
-174.969	767.840	-0.065	0.176
-173.954	345.895	0.108	0.212
-172.939	795.510	0.083	-0.230
-171.925	173.321	-0.117	0.170
-170.910	53.011	0.119	0.114
-169.896	113.222	-0.081	0.098
-168.881	-200.000	-0.013	0.156
-167.866	-67.316	0.246	-0.097
-166.852	5.367	-0.159	-0.117
-165.837	-73.619	-0.182	-0.066
-164.823	328.793	0.221	-0.424
-163.808	-119.498	0.339	-0.059
-162.793	-118.383	-0.205	0.036
-161.779	-58.910	-0.203	-0.088
-160.764	-111.886	-0.259	-0.052
-159.750	-200.000	0.016	0.118
-158.735	62.825	0.326	-0.327
-157.720	-151.215	-0.408	0.031
-156.706	60.486	-0.382	-0.378
-155.691	279.840	-0.107	0.191
-154.677	157.888	-0.205	-0.285
-153.662	394.162	-0.052	-0.109
-152.647	-20.247	-0.311	-0.191
-151.633	-83.339	-0.179	0.057
-150.618	800.000	0.045	0.184
-149.604	-23.500	-0.240	0.144
-148.589	-97.591	-0.193	0.050
-147.574	800.000	0.059	0.212
-146.560	-200.000	-0.024	-0.111
-145.545	800.000	0.002	-0.007
-144.531	-156.948	-0.199	0.012
-143.516	-162.731	0.193	0.009
-142.502	800.000	0.043	0.150
-141.487	798.255	-0.098	0.271
-140.472	-94.092	0.135	-0.037
-139.458	800.000	0.104	0.369
-138.443	-200.000	-0.045	0.253
-137.429	93.087	0.170	0.192
-136.414	-16.537	-0.111	-0.070
-135.399	579.271	-0.076	0.187
-134.385	800.000	-0.070	-0.198
-133.370	314.917	0.059	0.111
-132.356	-82.643	0.265	0.086
-131.341	-49.903	-0.213	0.101
-130.326	-83.129	-0.360	0.116
-129.312	-200.000	0.032	0.272
-128.297	495.871	0.155	0.357
-127.283	-1.501	-0.111	0.078
-126.268	81.487	0.198	0.214
-125.253	-133.024	-0.058	-0.007
-124.239	-79.444	0.138	0.047
-123.224	565.896	0.095	0.229
-122.210	800.000	-0.100	0.427
-121.195	490.447	0.082	0.187
