DTS Sentinel unit serial number:	SN413079Multiplexer serial number:	ORYXHardware model number:	OX4-SRSoftware version number:	ORYX F/W v4.00 Oryx Data Collector v3.7.2.0data status	okinstallation	princeton_trtdifferential loss correction	single-endedforward channel	channel 4reverse channel	N/Adate	2019/09/12time	08:19:10forward acquisition time	60.00reverse acquisition time	0.00gamma	496.2192k internal	0.2302k external	0.2302temperature offset calibration	1.0064default loss term (dB/km)	0.3790temperature slope calibration	1.0000multiplexer offset coefficient	1.0000multiplexer slope coefficient	1.0000fibre end	0.00T internal ref (°C)	33.44T ext. ref 1 (°C)	1.69T ext. ref 2 (°C)	30.11length (m)	temperature (°C)	Stokes	anti-Stokes-747.200	-200.000	0.079	0.380
-746.185	267.028	0.061	0.109
-745.171	372.062	0.051	0.106
-744.156	-200.000	0.021	0.361
-743.142	-154.827	0.183	-0.012
-742.127	-22.401	0.472	-0.291
-741.112	447.083	0.091	0.205
-740.098	-200.000	0.000	0.562
-739.083	495.463	-0.061	-0.142
-738.069	118.970	-0.125	0.158
-737.054	293.035	-0.059	0.110
-736.039	135.708	0.085	-0.113
-735.025	-78.506	0.206	0.072
-734.010	-200.000	0.009	0.258
-732.996	-59.533	-0.238	-0.104
-731.981	-200.000	-0.022	0.250
-730.966	-84.893	0.257	-0.082
-729.952	311.514	-0.090	0.173
-728.937	-200.000	-0.063	-0.308
-727.923	54.089	-0.180	0.176
-726.908	101.307	0.128	-0.152
-725.894	-75.163	-0.122	0.044
-724.879	28.734	0.037	-0.032
-723.864	-100.727	-0.147	0.037
-722.850	800.000	0.039	0.111
-721.835	-96.927	-0.197	-0.053
-720.821	3.096	-0.146	0.108
-719.806	-88.458	-0.157	-0.048
-718.791	262.180	0.148	-0.262
-717.777	-20.284	-0.286	-0.179
-716.762	-34.640	-0.181	0.101
-715.748	-117.689	0.165	-0.030
-714.733	-38.987	-0.277	-0.149
-713.718	126.285	0.166	-0.214
-712.704	304.465	-0.094	0.178
-711.689	-15.558	-0.239	0.155
-710.675	-200.000	-0.033	-0.412
-709.660	108.700	0.147	-0.178
-708.645	-14.376	0.360	-0.236
-707.631	-48.069	0.354	-0.174
-706.616	-200.000	-0.042	-0.284
-705.602	-200.000	0.038	-0.280
-704.587	1.406	0.057	0.042
-703.572	77.241	-0.196	-0.212
-702.558	-80.915	0.310	0.104
-701.543	-200.000	-0.021	0.297
-700.529	800.000	0.072	0.228
-699.514	-86.608	-0.054	0.017
-698.499	-102.795	0.150	0.036
-697.485	800.000	-0.049	-0.153
-696.470	588.209	-0.103	-0.259
-695.456	149.696	0.149	-0.205
-694.441	-56.695	-0.359	-0.161
-693.426	750.198	0.075	-0.205
-692.412	-144.242	-0.428	0.041
-691.397	-61.138	-0.181	0.078
-690.383	371.765	-0.062	-0.128
-689.368	-200.000	-0.026	-0.279
-688.354	15.172	0.096	-0.077
-687.339	332.186	0.109	0.213
-686.324	-77.340	0.340	0.120
-685.310	-96.874	-0.117	-0.031
-684.295	-41.563	0.356	-0.186
-683.281	787.596	-0.108	0.300
-682.266	10.378	-0.159	-0.123
-681.251	-51.433	-0.192	-0.091
-680.237	-98.765	0.197	-0.051
-679.222	120.415	0.285	0.360
-678.208	708.684	-0.095	-0.256
-677.193	16.269	0.150	-0.120
-676.178	129.877	-0.114	0.148
-675.164	-24.327	-0.334	0.203
-674.149	98.059	0.080	0.094
-673.135	-28.155	-0.340	-0.200
-672.120	-200.000	0.025	0.277
-671.105	-69.764	-0.066	-0.026
-670.091	-91.408	0.187	-0.054
-669.076	0.795	0.134	-0.098
-668.062	84.231	-0.093	0.104
-667.047	-169.843	-0.246	0.009
-666.032	35.344	0.166	-0.148
-665.018	-150.897	-0.334	-0.026
-664.003	-148.135	-0.088	0.007
-662.989	800.000	0.112	-0.429
-661.974	16.050	0.104	-0.084
-660.959	30.499	0.229	0.199
-659.945	98.583	-0.111	0.130
-658.930	117.920	-0.087	0.109
-657.916	800.000	0.072	0.233
-656.901	-143.339	0.152	0.015
-655.886	18.076	0.179	-0.145
-654.872	6.589	-0.197	-0.149
-653.857	-76.634	0.109	0.039
-652.843	32.655	0.212	0.186
-651.828	-146.901	0.069	0.006
-650.814	-141.295	-0.302	0.031
-649.799	800.000	0.025	0.093
-648.784	-200.000	-0.027	0.206
-647.770	-138.117	-0.241	-0.027
-646.755	-200.000	0.013	0.179
-645.741	-83.427	0.088	-0.029
-644.726	149.250	-0.222	-0.306
-643.711	207.497	-0.230	-0.365
-642.697	429.147	-0.079	-0.174
-641.682	210.440	-0.016	0.025
-640.668	391.490	0.137	0.289
-639.653	127.999	-0.046	0.059
-638.638	-80.941	0.141	0.047
-637.624	514.110	0.042	0.099
-636.609	-200.000	0.023	-0.170
-635.595	91.461	0.044	0.051
-634.580	-118.172	-0.049	0.009
-633.565	41.479	0.107	0.099
-632.551	45.290	-0.258	0.242
-631.536	-28.877	0.217	0.127
-630.522	-70.140	0.268	0.103
-629.507	-200.000	-0.078	-0.486
-628.492	-200.000	0.010	-0.469
-627.478	800.000	-0.101	-0.407
-626.463	-36.224	0.413	0.226
-625.449	-46.846	-0.148	-0.074
-624.434	148.923	-0.101	0.139
-623.419	-200.000	-0.018	0.082
-622.405	-155.248	-0.163	0.011
-621.390	175.611	-0.191	0.281
-620.376	627.377	-0.052	-0.133
-619.361	-82.278	0.101	0.033
-618.346	-69.198	-0.111	-0.043
-617.332	285.228	0.111	-0.203
-616.317	-53.317	-0.312	-0.145
-615.303	-54.348	0.177	-0.081
-614.288	-6.695	0.181	0.125
-613.273	-15.681	-0.195	0.126
-612.259	250.874	0.120	0.206
-611.244	64.281	0.158	-0.162
-610.230	-47.206	0.516	-0.255
-609.215	-112.427	0.236	-0.048
-608.201	-56.462	0.112	-0.050
-607.186	800.000	-0.070	-0.300
-606.171	255.326	-0.149	-0.258
-605.157	800.000	-0.023	0.092
-604.142	800.000	-0.027	0.111
-603.128	212.818	-0.127	-0.203
-602.113	674.057	-0.139	0.366
-601.098	455.879	-0.100	-0.225
-600.084	447.958	0.083	0.184
-599.069	454.881	0.063	0.142
-598.055	-200.000	-0.038	-0.188
-597.040	55.880	0.126	-0.124
-596.025	-109.917	0.063	-0.013
-595.011	-76.572	-0.182	-0.065
-593.996	65.873	-0.268	-0.275
-592.982	266.230	0.081	0.143
-591.967	86.322	-0.181	0.202
-590.952	-112.202	-0.261	0.053
-589.938	-37.326	-0.212	0.115
-588.923	-49.173	-0.112	-0.054
-587.909	730.789	-0.123	-0.332
-586.894	-200.000	-0.018	-0.170
-585.879	-180.206	-0.289	0.006
-584.865	-200.000	0.003	-0.128
-583.850	284.118	-0.090	-0.163
-582.836	-115.038	0.303	-0.058
-581.821	-17.975	0.141	-0.090
-580.806	-114.085	0.207	-0.041
-579.792	713.233	0.055	0.147
-578.777	-157.154	0.149	0.009
-577.763	-45.450	0.080	-0.040
-576.748	102.907	0.219	-0.260
-575.733	800.000	0.054	-0.177
-574.719	178.667	-0.064	-0.095
-573.704	-200.000	0.045	0.240
-572.690	-34.181	0.248	0.138
-571.675	468.673	0.114	-0.258
-570.661	100.544	0.040	0.048
-569.646	13.815	-0.110	-0.087
-568.631	718.145	0.085	-0.228
-567.617	-139.270	-0.237	0.026
-566.602	-198.356	-0.376	0.002
-565.588	104.530	0.136	-0.162
-564.573	-39.029	-0.067	0.036
-563.558	297.122	0.132	-0.246
-562.544	266.214	-0.189	0.333
-561.529	405.870	0.063	-0.135
-560.515	-200.000	0.022	-0.366
-559.500	-11.247	0.089	0.059
-558.485	130.655	-0.090	0.116
-557.471	-200.000	-0.022	0.294
-556.456	-200.000	0.022	-0.178
-555.442	222.040	0.160	-0.260
-554.427	119.280	-0.093	0.117
-553.412	-181.287	-0.211	-0.004
-552.398	-20.282	-0.184	-0.114
-551.383	-200.000	0.006	-0.141
-550.369	800.000	0.027	0.100
-549.354	-140.858	-0.199	0.021
-548.339	116.701	0.064	-0.080
-547.325	-15.255	0.201	0.130
-546.310	138.548	0.199	-0.264
-545.296	-130.433	-0.126	0.017
-544.281	-126.740	0.133	-0.020
-543.266	8.337	-0.134	0.102
-542.252	-122.606	-0.055	-0.009
-541.237	-10.405	0.083	0.056
-540.223	-172.650	0.202	-0.006
-539.208	21.651	0.166	-0.137
-538.193	14.072	-0.340	-0.268
-537.179	-9.099	0.210	-0.142
-536.164	-200.000	0.035	0.190
-535.150	-133.747	0.104	-0.013
-534.135	226.673	-0.053	0.087
-533.121	-82.728	0.278	-0.091
-532.106	-98.071	-0.217	0.056
-531.091	26.682	-0.223	0.189
-530.077	-98.492	0.522	0.135
-529.062	-40.752	0.092	-0.048
-528.048	232.083	0.119	0.198
-527.033	-69.175	-0.227	-0.088
-526.018	-15.232	0.077	-0.050
-525.004	-58.871	0.118	-0.051
-523.989	-200.000	-0.064	0.334
-522.975	-158.590	-0.294	0.017
-521.960	-115.713	-0.134	-0.025
-520.945	-200.000	-0.014	-0.142
-519.931	800.000	0.036	0.105
-518.916	-108.255	0.313	0.068
-517.902	-10.454	-0.221	-0.148
-516.887	-50.816	-0.387	0.184
-515.872	-87.809	-0.207	-0.063
-514.858	-97.180	0.268	-0.071
-513.843	-94.359	-0.169	-0.047
-512.829	-68.979	-0.299	-0.116
-511.814	-30.652	0.053	-0.030
-510.799	800.000	0.036	-0.103
-509.785	-200.000	0.045	-0.318
-508.770	-185.718	-0.112	-0.002
-507.756	195.878	0.065	-0.100
-506.741	800.000	-0.087	-0.269
-505.726	-182.268	-0.306	0.006
-504.712	-57.854	-0.070	0.031
-503.697	22.131	-0.185	0.152
-502.683	21.494	-0.301	-0.247
-501.668	-28.784	0.189	-0.110
-500.653	-200.000	0.012	-0.285
-499.639	-74.235	-0.275	-0.100
-498.624	-137.386	0.458	0.052
-497.610	-172.200	-0.234	-0.008
-496.595	514.876	-0.065	0.154
-495.581	262.232	-0.171	0.299
-494.566	112.462	0.183	-0.224
-493.551	-95.083	0.346	-0.094
-492.537	-135.821	-0.387	-0.046
-491.522	29.703	0.047	0.041
-490.508	214.447	-0.060	0.096
-489.493	-50.176	0.223	0.106
-488.478	257.361	0.136	0.236
-487.464	52.702	-0.188	0.181
-486.449	800.000	0.057	-0.246
-485.435	-60.769	0.300	-0.128
-484.420	102.052	0.144	0.170
-483.405	30.179	-0.245	0.211
-482.391	630.097	0.090	-0.229
-481.376	-86.625	0.121	0.037
-480.362	239.089	-0.097	0.163
-479.347	8.923	0.140	0.106
-478.332	-200.000	-0.019	0.333
-477.318	-200.000	-0.032	-0.163
-476.303	800.000	-0.054	0.164
-475.289	-127.927	0.223	-0.032
-474.274	26.526	0.246	0.207
-473.259	-108.868	0.310	-0.067
-472.245	617.578	-0.095	-0.239
-471.230	-200.000	0.033	-0.149
-470.216	318.965	0.097	-0.186
-469.201	-200.000	-0.039	0.476
-468.186	79.411	-0.128	0.139
-467.172	-200.000	0.011	0.317
-466.157	587.794	-0.172	0.427
-465.143	-200.000	0.040	-0.319
-464.128	48.351	0.088	-0.083
-463.113	81.088	0.183	0.199
-462.099	-95.243	-0.148	0.040
-461.084	-75.724	0.068	-0.024
-460.070	-154.746	-0.385	-0.026
-459.055	33.512	0.048	-0.042
-458.040	49.074	-0.127	-0.121
-457.026	-68.384	0.037	0.014
-456.011	163.703	0.043	0.061
-454.997	-81.546	0.307	0.102
-453.982	-200.000	0.036	-0.230
-452.968	101.019	-0.010	-0.012
-451.953	-141.361	-0.114	0.012
-450.938	43.358	0.093	-0.085
-449.924	-24.420	0.179	-0.108
-448.909	-200.000	-0.026	-0.138
-447.895	284.557	0.165	-0.300
-446.880	176.664	-0.164	0.240
-445.865	5.392	0.268	-0.199
-444.851	-15.295	0.221	-0.142
-443.836	-118.885	0.320	-0.057
-442.822	52.784	-0.337	0.325
-441.807	387.866	-0.084	-0.175
-440.792	-200.000	-0.002	0.034
-439.778	-95.540	-0.053	-0.014
-438.763	-200.000	-0.057	0.345
-437.749	239.685	-0.116	0.194
-436.734	-56.099	0.240	0.107
-435.719	254.526	0.143	0.246
-434.705	-67.232	-0.091	-0.036
-433.690	800.000	-0.028	-0.096
-432.676	538.346	0.043	-0.103
-431.661	-48.864	0.197	0.095
-430.646	84.311	-0.031	-0.034
-429.632	135.106	0.129	0.169
-428.617	132.121	0.031	-0.040
-427.603	-161.405	-0.329	-0.017
-426.588	332.799	-0.154	0.300
-425.573	118.339	0.124	0.154
-424.559	-33.557	0.208	-0.115
-423.544	-200.000	0.008	-0.206
-422.530	80.213	-0.033	0.036
-421.515	156.222	-0.096	0.133
-420.500	352.107	0.063	-0.126
-419.486	-24.169	0.135	0.081
-418.471	-95.233	0.084	-0.023
-417.457	-28.151	0.180	0.105
-416.442	124.463	-0.197	0.249
-415.428	-59.940	0.107	-0.046
-414.413	1.070	0.079	0.057
-413.398	-200.000	-0.040	-0.189
-412.384	-5.833	-0.201	0.139
-411.369	-104.624	0.253	-0.059
-410.355	800.000	0.071	-0.284
-409.340	-200.000	0.043	-0.215
-408.325	776.657	-0.104	0.285
-407.311	-159.271	-0.161	-0.009
-406.296	800.000	-0.141	-0.527
-405.282	800.000	0.107	-0.310
-404.267	659.914	0.138	0.358
-403.252	278.301	0.061	0.109
-402.238	336.368	-0.093	-0.182
-401.223	63.318	-0.185	0.187
-400.209	213.939	0.097	0.154
-399.194	174.801	0.122	-0.177
-398.179	800.000	0.119	-0.333
-397.165	-91.887	0.253	-0.072
-396.150	561.281	0.109	0.264
-395.136	474.521	-0.130	-0.296
-394.121	135.227	-0.161	0.211
-393.106	-200.000	0.038	0.174
-392.092	-48.202	0.272	-0.132
-391.077	-200.000	0.041	0.203
-390.063	800.000	0.045	0.159
-389.048	264.770	0.024	0.042
-388.033	-91.793	-0.065	0.018
-387.019	-113.879	0.267	0.052
-386.004	-200.000	-0.025	-0.135
-384.990	122.955	-0.185	-0.233
-383.975	-83.454	0.421	-0.135
-382.960	-100.336	-0.371	0.092
-381.946	-61.238	-0.078	-0.033
-380.931	-140.621	-0.369	-0.038
-379.917	-164.087	-0.316	-0.015
-378.902	58.553	-0.180	0.177
-377.888	276.017	-0.128	0.228
-376.873	129.429	-0.186	-0.239
-375.858	22.324	0.049	0.040
-374.844	288.830	0.024	0.044
-373.829	-88.458	0.281	-0.084
-372.815	-136.031	-0.050	0.006
-371.800	418.117	-0.167	-0.359
-370.785	70.326	-0.052	0.054
-369.771	-200.000	0.024	-0.132
-368.756	-129.457	0.128	0.018
-367.742	57.796	0.099	-0.097
-366.727	-70.288	-0.212	-0.081
-365.712	33.567	-0.050	-0.044
-364.698	-18.872	0.521	-0.326
-363.683	-74.108	0.058	0.021
-362.669	-200.000	-0.010	0.484
-361.654	284.904	-0.065	-0.117
-360.639	-112.338	0.126	-0.025
-359.625	293.127	0.172	0.316
-358.610	481.368	-0.037	-0.085
-357.596	-200.000	0.017	-0.104
-356.581	-91.253	-0.092	0.026
-355.566	-45.318	-0.153	-0.076
-354.552	-11.281	0.166	-0.109
-353.537	528.058	0.034	-0.081
-352.523	-133.962	0.045	0.006
-351.508	-194.529	0.089	0.001
-350.493	-94.199	0.169	-0.046
-349.479	-200.000	-0.004	-0.075
-348.464	66.758	-0.058	0.059
-347.450	23.715	-0.093	0.077
-346.435	6.610	-0.142	-0.106
-345.420	-151.776	0.130	0.010
-344.406	-21.146	0.304	0.187
-343.391	-176.512	0.262	0.007
-342.377	0.707	-0.338	0.243
-341.362	800.000	-0.008	-0.033
-340.348	-71.573	-0.263	-0.098
-339.333	-84.909	-0.353	0.111
-338.318	205.186	-0.057	0.089
-337.304	7.515	-0.174	0.131
-336.289	-21.699	-0.247	0.151
-335.275	-3.089	-0.219	0.154
-334.260	727.031	-0.049	0.131
-333.245	14.423	0.110	0.086
-332.231	796.577	0.093	-0.258
-331.216	-60.520	0.236	0.100
-330.202	-200.000	0.119	0.584
-329.187	-37.111	-0.089	0.048
-328.172	669.631	-0.057	-0.147
-327.158	-128.105	0.198	-0.028
-326.143	-45.890	0.159	-0.079
-325.129	800.000	0.119	-0.346
-324.114	-156.822	0.136	0.008
-323.099	-32.561	-0.119	-0.067
-322.085	-165.768	-0.238	-0.010
-321.070	-200.000	-0.027	0.226
-320.056	-123.711	-0.371	-0.059
-319.041	107.156	-0.088	0.105
-318.026	152.980	-0.122	-0.168
-317.012	-200.000	0.019	0.123
-315.997	-94.200	0.264	-0.073
-314.983	-90.047	0.120	-0.035
-313.968	800.000	-0.141	0.532
-312.953	223.264	0.087	0.140
-311.939	357.682	0.066	-0.132
-310.924	-37.555	-0.247	-0.132
-309.910	800.000	-0.066	0.240
-308.895	47.200	0.099	0.093
-307.880	65.942	-0.114	0.115
-306.866	-200.000	-0.065	0.325
-305.851	-40.171	0.042	0.022
-304.837	87.474	0.311	-0.345
-303.822	174.610	0.189	0.273
-302.807	-144.005	-0.252	-0.024
-301.793	56.372	-0.206	0.200
-300.778	171.344	-0.100	0.144
-299.764	79.875	-0.273	-0.294
-298.749	21.861	0.017	-0.014
-297.735	-200.000	-0.016	0.072
-296.720	-144.151	-0.424	0.040
-295.705	800.000	0.049	0.184
-294.691	462.258	0.023	0.052
-293.676	-2.570	0.077	0.054
-292.662	-27.797	0.143	-0.083
-291.647	800.000	-0.101	-0.335
-290.632	19.043	0.108	0.086
-289.618	-185.675	0.122	-0.002
-288.603	208.279	0.116	0.182
-287.589	292.109	0.097	0.176
-286.574	-200.000	-0.012	-0.199
-285.559	-107.049	-0.205	-0.045
-284.545	-42.280	0.162	-0.083
-283.530	-200.000	0.038	-0.337
-282.516	5.404	0.178	-0.131
-281.501	7.920	0.285	-0.214
-280.486	-200.000	0.005	-0.294
-279.472	-174.052	0.048	0.001
-278.457	-100.081	0.170	-0.042
-277.443	-69.570	-0.220	0.084
-276.428	800.000	-0.098	0.308
-275.413	-93.624	0.333	0.092
-274.399	629.288	0.062	0.158
-273.384	800.000	-0.145	-0.601
-272.370	207.315	0.122	0.190
-271.355	158.607	0.250	0.348
-270.340	800.000	0.038	0.140
-269.326	-88.532	0.141	-0.042
-268.311	800.000	0.078	0.222
-267.297	26.404	0.175	0.146
-266.282	264.535	-0.214	0.373
-265.267	-200.000	-0.057	-0.286
-264.253	-200.000	-0.115	-0.518
-263.238	127.786	0.220	0.280
-262.224	188.060	-0.079	-0.117
-261.209	-31.067	-0.127	0.072
-260.195	-1.017	0.233	0.165
-259.180	12.889	0.392	0.303
-258.165	27.651	-0.234	0.197
-257.151	-200.000	-0.012	0.237
-256.136	-47.868	-0.251	0.122
-255.122	-60.933	-0.323	0.137
-254.107	-30.767	-0.256	-0.145
-253.092	-200.000	0.029	-0.154
-252.078	-200.000	-0.022	-0.139
-251.063	-95.429	0.154	-0.041
-250.049	216.010	0.089	-0.141
-249.034	-200.000	0.021	-0.097
-248.019	613.863	-0.150	-0.376
-247.005	-6.403	-0.291	0.199
-245.990	201.275	0.057	0.088
-244.976	800.000	-0.116	0.367
-243.961	42.225	0.193	0.176
-242.946	535.281	0.068	0.161
-241.932	115.199	0.072	-0.087
-240.917	117.624	-0.141	0.174
-239.903	58.529	0.302	0.296
-238.888	-200.000	-0.020	-0.221
-237.873	38.792	0.106	0.095
-236.859	-88.956	0.122	-0.036
-235.844	-200.000	-0.067	-0.304
-234.830	-116.733	-0.129	-0.024
-233.815	-200.000	-0.027	0.620
-232.800	376.858	-0.074	-0.151
-231.786	-112.176	-0.219	0.044
-230.771	631.618	0.028	0.071
-229.757	29.422	0.064	-0.055
-228.742	-200.000	0.033	0.155
-227.727	800.000	0.017	0.071
-226.713	-200.000	-0.016	0.200
-225.698	33.189	-0.154	-0.133
-224.684	197.071	0.174	-0.264
-223.669	-115.906	0.017	0.003
-222.655	-140.163	-0.353	-0.037
-221.640	-200.000	0.015	-0.113
-220.625	-200.000	-0.009	-0.043
-219.611	418.404	0.120	-0.257
-218.596	51.398	0.144	-0.137
-217.582	17.504	0.394	-0.313
-216.567	-25.325	-0.422	0.250
-215.552	-200.000	-0.032	0.234
-214.538	-104.447	0.271	0.063
-213.523	609.979	0.095	-0.236
-212.509	120.818	0.293	-0.364
-211.494	94.168	-0.039	-0.044
-210.479	-200.000	0.081	-0.418
-209.465	-89.646	-0.322	-0.094
-208.450	344.469	-0.113	-0.222
-207.436	-39.362	0.031	0.016
-206.421	-135.434	0.035	-0.004
-205.406	-200.000	0.007	-0.467
-204.392	-200.000	0.031	-0.276
-203.377	-154.620	0.098	0.006
-202.363	168.566	-0.179	0.255
-201.348	79.018	-0.028	-0.030
-200.333	-125.567	-0.391	0.059
-199.319	-200.000	0.007	0.168
-198.304	216.409	0.100	0.159
-197.290	-41.827	-0.314	0.161
-196.275	-200.000	0.031	-0.207
-195.260	3.731	-0.199	0.145
-194.246	-0.324	0.052	-0.037
-193.231	800.000	0.076	0.245
-192.217	-128.145	-0.235	-0.034
-191.202	-124.535	0.260	-0.040
-190.187	404.459	0.057	-0.120
-189.173	394.731	-0.199	-0.414
-188.158	800.000	0.022	0.083
-187.144	56.521	-0.090	0.088
-186.129	-200.000	0.031	0.158
-185.114	-85.468	-0.112	-0.035
-184.100	183.198	-0.105	0.154
-183.085	293.971	-0.029	-0.053
-182.071	261.022	0.223	0.385
-181.056	800.000	0.057	0.181
-180.042	121.772	0.140	0.175
-179.027	701.760	0.079	0.208
-178.012	8.561	-0.060	0.045
-176.998	-154.423	-0.195	0.013
-175.983	800.000	-0.007	-0.019
-174.969	31.446	-0.204	-0.175
-173.954	-130.268	-0.092	-0.013
-172.939	-31.794	0.088	-0.049
-171.925	124.926	-0.087	-0.109
-170.910	-61.710	-0.266	0.111
-169.896	-200.000	-0.027	0.232
-168.881	197.933	-0.081	-0.124
-167.866	43.485	0.187	0.170
-166.852	800.000	0.075	0.243
-165.837	-200.000	-0.034	0.169
-164.823	800.000	-0.038	0.157
-163.808	800.000	0.027	0.111
-162.793	182.865	-0.155	0.228
-161.779	-200.000	-0.010	-0.211
-160.764	-104.061	-0.383	-0.089
-159.750	-165.679	0.146	0.006
-158.735	-100.569	0.191	0.047
-157.720	-59.750	0.205	0.087
-156.706	-70.687	0.132	-0.050
-155.691	-200.000	-0.003	0.302
-154.677	-25.593	-0.100	0.059
-153.662	-30.203	0.290	-0.164
-152.647	-72.815	0.129	-0.047
-151.633	800.000	0.074	-0.237
-150.618	-155.360	0.316	0.020
-149.604	61.453	0.247	0.244
-148.589	-200.000	0.037	0.259
-147.574	-84.710	-0.250	0.078
-146.560	-51.100	-0.304	-0.142
-145.545	66.563	0.092	0.094
-144.531	-153.002	-0.060	-0.004
-143.516	-164.996	0.125	-0.006
-142.502	-200.000	-0.017	-0.112
-141.487	-164.529	0.254	0.011
-140.472	147.268	0.266	0.356
-139.458	800.000	-0.083	-0.286
-138.443	8.447	0.223	-0.167
-137.429	255.260	0.233	0.398
-136.414	-156.906	-0.252	0.015
-135.399	62.293	0.207	0.206
-134.385	800.000	-0.073	0.309
-133.370	-36.979	-0.237	0.127
-132.356	-31.640	0.401	0.224
-131.341	225.993	0.142	0.230
-130.326	-66.634	-0.118	-0.046
-129.312	464.978	0.081	-0.179
-128.297	196.293	0.145	0.219
-127.283	0.489	-0.263	-0.187
-126.268	-200.000	0.040	-0.182
-125.253	-86.351	-0.121	-0.037
-124.239	54.641	-0.089	0.085
-123.224	-146.512	0.187	0.016
-122.210	619.011	0.143	0.356
-121.195	-200.000	-0.029	-0.322
-120.180	266.980	-0.108	0.187
