DTS Sentinel unit serial number:	SN413079Multiplexer serial number:	ORYXHardware model number:	OX4-SRSoftware version number:	ORYX F/W v4.00 Oryx Data Collector v3.7.2.0data status	okinstallation	princeton_trtdifferential loss correction	single-endedforward channel	channel 4reverse channel	N/Adate	2019/09/17time	04:57:35forward acquisition time	60.00reverse acquisition time	0.00gamma	496.2192k internal	0.2312k external	0.2312temperature offset calibration	0.9976default loss term (dB/km)	0.3790temperature slope calibration	1.0000multiplexer offset coefficient	1.0000multiplexer slope coefficient	1.0000fibre end	0.00T internal ref (°C)	29.50T ext. ref 1 (°C)	0.13T ext. ref 2 (°C)	23.92length (m)	temperature (°C)	Stokes	anti-Stokes-747.200	108.956	0.064	-0.077
-746.185	-89.385	-0.610	0.182
-745.171	800.000	0.043	0.173
-744.156	-63.670	-0.381	-0.158
-743.142	-64.781	0.356	0.146
-742.127	256.746	0.069	0.121
-741.112	-42.319	-0.042	-0.022
-740.098	-200.000	0.036	0.346
-739.083	559.952	0.158	0.388
-738.069	-64.500	-0.215	0.089
-737.054	-74.543	-0.045	0.016
-736.039	2.180	-0.145	-0.106
-735.025	-105.777	0.281	0.064
-734.010	-200.000	0.029	-0.457
-732.996	-61.271	-0.338	0.144
-731.981	175.797	-0.152	0.224
-730.966	-51.234	-0.041	-0.020
-729.952	-16.675	0.136	-0.087
-728.937	752.752	0.087	-0.237
-727.923	433.492	-0.082	0.181
-726.908	97.194	-0.227	0.264
-725.894	-100.931	0.284	-0.071
-724.879	-50.368	-0.431	0.207
-723.864	-29.750	-0.138	-0.080
-722.850	11.139	0.067	0.052
-721.835	800.000	0.068	0.196
-720.821	1.339	-0.171	-0.124
-719.806	-63.739	0.229	0.095
-718.791	341.066	-0.110	0.218
-717.777	-120.825	0.288	-0.049
-716.762	-200.000	-0.019	-0.271
-715.748	-142.793	-0.376	0.037
-714.733	-86.048	0.112	0.035
-713.718	287.231	-0.028	0.052
-712.704	182.259	-0.116	-0.173
-711.689	-8.469	-0.205	-0.140
-710.675	800.000	0.013	-0.047
-709.660	-200.000	0.023	-0.176
-708.645	46.516	-0.254	-0.239
-707.631	652.910	0.102	-0.265
-706.616	286.107	0.073	-0.134
-705.602	19.444	0.079	-0.064
-704.587	-74.521	0.203	0.074
-703.572	503.889	-0.012	0.027
-702.558	-117.681	0.290	-0.053
-701.543	-168.844	-0.155	-0.006
-700.529	328.943	0.112	0.218
-699.514	82.284	0.261	-0.287
-698.499	-87.658	0.073	0.022
-697.485	17.899	0.101	-0.081
-696.470	-200.000	0.016	-0.210
-695.456	800.000	0.063	0.203
-694.441	142.642	0.192	-0.259
-693.426	-45.376	-0.349	-0.175
-692.412	-35.532	0.233	-0.128
-691.397	75.961	-0.306	-0.327
-690.383	-118.184	-0.372	-0.067
-689.368	800.000	0.043	-0.177
-688.354	1.763	0.246	-0.180
-687.339	-47.595	0.225	0.111
-686.324	-79.761	0.113	0.039
-685.310	179.838	-0.118	0.176
-684.295	-123.557	0.133	0.021
-683.281	136.989	-0.139	-0.184
-682.266	7.161	0.183	-0.138
-681.251	702.016	-0.175	-0.466
-680.237	-157.589	0.055	0.003
-679.222	-104.413	-0.223	0.052
-678.208	5.069	0.184	0.137
-677.193	-132.588	0.105	-0.014
-676.178	211.660	-0.298	-0.474
-675.164	-92.488	0.068	-0.019
-674.149	53.889	-0.036	0.035
-673.135	130.740	-0.073	0.094
-672.120	-113.521	-0.120	-0.024
-671.105	-162.604	0.120	0.006
-670.091	-135.287	0.132	-0.016
-669.076	-111.402	-0.174	0.036
-668.062	800.000	-0.149	-0.446
-667.047	-200.000	-0.006	-0.116
-666.032	-200.000	0.025	-0.165
-665.018	800.000	-0.082	-0.303
-664.003	148.329	-0.055	0.075
-662.989	-200.000	-0.002	-0.126
-661.974	-162.468	-0.387	-0.019
-660.959	188.737	-0.151	-0.228
-659.945	77.500	0.184	-0.198
-658.930	166.262	-0.151	0.217
-657.916	58.731	-0.170	-0.169
-656.901	-53.230	0.222	-0.103
-655.886	-61.760	-0.266	-0.113
-654.872	-57.734	0.217	-0.096
-653.857	-58.803	-0.107	0.047
-652.843	-41.051	0.041	-0.021
-651.828	93.395	0.085	0.097
-650.814	11.641	-0.160	0.124
-649.799	211.070	-0.103	-0.163
-648.784	58.696	0.230	0.229
-647.770	-88.037	-0.229	-0.070
-646.755	334.890	-0.113	-0.221
-645.741	187.835	0.100	-0.151
-644.726	-49.283	0.217	-0.105
-643.711	-96.550	-0.190	-0.051
-642.697	-107.594	-0.160	0.035
-641.682	-200.000	0.015	0.141
-640.668	-119.615	0.074	-0.013
-639.653	-78.475	0.357	-0.124
-638.638	-18.915	0.299	-0.188
-637.624	800.000	0.052	0.145
-636.609	-189.668	-0.112	-0.001
-635.595	108.812	0.074	-0.090
-634.580	800.000	0.037	-0.109
-633.565	-200.000	-0.011	-0.194
-632.551	148.791	-0.138	0.188
-631.536	-151.061	0.263	-0.020
-630.522	-126.920	-0.120	0.018
-629.507	-78.364	-0.214	-0.074
-628.492	-129.510	-0.279	-0.039
-627.478	-200.000	0.001	0.044
-626.463	-147.802	-0.308	0.026
-625.449	-200.000	-0.043	0.202
-624.434	209.876	-0.010	-0.016
-623.419	26.333	-0.325	-0.274
-622.405	-13.873	0.110	-0.072
-621.390	161.288	-0.150	-0.212
-620.376	800.000	0.087	-0.346
-619.361	-16.607	0.214	-0.137
-618.346	-129.276	-0.093	0.013
-617.332	-200.000	-0.027	0.167
-616.317	800.000	0.114	0.480
-615.303	49.577	0.266	0.253
-614.288	800.000	0.069	0.255
-613.273	-14.129	0.021	0.014
-612.259	59.736	-0.058	0.058
-611.244	-78.782	-0.220	-0.076
-610.230	-90.345	0.268	0.078
-609.215	181.112	0.187	0.277
-608.201	-78.804	0.286	0.098
-607.186	183.786	-0.088	0.131
-606.171	70.229	-0.028	-0.029
-605.157	189.315	-0.113	0.170
-604.142	9.298	-0.084	0.064
-603.128	-200.000	-0.063	-0.348
-602.113	-72.767	-0.268	-0.100
-601.098	782.361	0.026	-0.071
-600.084	26.565	0.148	-0.125
-599.069	800.000	-0.112	-0.377
-598.055	-143.888	-0.131	0.013
-597.040	800.000	-0.111	-0.468
-596.025	-75.632	-0.328	0.117
-595.011	621.850	0.119	0.303
-593.996	121.601	0.205	-0.258
-592.982	205.020	-0.070	-0.109
-591.967	-131.684	0.369	0.049
-590.952	78.746	-0.212	0.228
-589.938	486.135	0.184	-0.423
-588.923	190.670	0.166	-0.252
-587.909	800.000	-0.104	0.320
-586.894	386.542	-0.184	0.382
-585.879	736.485	0.048	-0.131
-584.865	253.881	0.092	-0.159
-583.850	43.613	0.285	0.263
-582.836	-131.123	-0.360	0.048
-581.821	132.458	-0.167	0.217
-580.806	-200.000	0.020	0.110
-579.792	371.701	-0.054	0.110
-578.777	-200.000	0.006	0.068
-577.763	-46.990	-0.205	-0.101
-576.748	-113.984	0.204	0.040
-575.733	30.268	-0.210	-0.181
-574.719	-64.489	-0.311	0.127
-573.704	6.870	0.185	-0.139
-572.690	52.307	0.185	-0.178
-571.675	11.463	0.258	0.199
-570.661	-109.073	0.184	0.039
-569.646	-200.000	-0.034	0.256
-568.631	60.895	-0.190	-0.190
-567.617	2.172	-0.207	-0.151
-566.602	-200.000	-0.028	-0.141
-565.588	-54.064	0.187	0.086
-564.573	-200.000	-0.059	0.295
-563.558	43.596	0.195	0.179
-562.544	-58.772	-0.168	-0.073
-561.529	-92.232	-0.047	-0.013
-560.515	546.029	-0.096	0.230
-559.500	-42.005	0.246	-0.127
-558.485	624.521	0.108	0.275
-557.471	571.204	0.043	0.105
-556.456	-189.241	-0.328	0.004
-555.442	-200.000	-0.002	0.113
-554.427	623.296	-0.128	-0.324
-553.412	-24.531	-0.129	-0.078
-552.398	-72.177	-0.277	0.103
-551.383	-129.695	0.121	-0.017
-550.369	-65.486	-0.217	-0.088
-549.354	-200.000	-0.019	0.123
-548.339	-43.160	0.321	-0.164
-547.325	449.474	-0.027	-0.060
-546.310	-83.941	-0.165	-0.053
-545.296	-177.149	-0.191	0.005
-544.281	324.998	0.079	-0.151
-543.266	173.809	0.144	-0.209
-542.252	95.059	-0.364	-0.417
-541.237	-200.000	0.027	0.334
-540.223	800.000	0.055	0.228
-539.208	-128.109	-0.361	0.052
-538.193	177.400	0.122	0.179
-537.179	-63.711	-0.128	-0.053
-536.164	454.107	-0.149	-0.332
-535.150	-54.701	-0.265	0.121
-534.135	800.000	0.057	0.171
-533.121	129.230	-0.052	-0.066
-532.106	-100.533	-0.304	-0.076
-531.091	-92.604	0.035	0.010
-530.077	-161.094	-0.261	-0.014
-529.062	-9.339	0.315	0.212
-528.048	714.198	-0.035	0.093
-527.033	168.986	0.071	0.102
-526.018	202.403	0.140	0.217
-525.004	122.692	-0.388	-0.488
-523.989	-200.000	-0.019	0.287
-522.975	-168.366	0.316	0.012
-521.960	123.555	-0.181	-0.229
-520.945	-200.000	0.076	0.428
-519.931	-97.400	-0.335	0.088
-518.916	367.584	-0.039	-0.079
-517.902	186.746	0.068	0.101
-516.887	794.326	0.101	-0.278
-515.872	-111.989	-0.042	0.009
-514.858	161.500	0.077	0.108
-513.843	142.278	0.159	-0.212
-512.829	221.196	-0.041	0.066
-511.814	7.541	-0.205	0.154
-510.799	163.191	-0.103	-0.145
-509.785	-200.000	-0.002	-0.024
-508.770	297.458	-0.079	0.147
-507.756	-147.805	-0.380	0.032
-506.741	-118.426	0.126	-0.023
-505.726	20.120	-0.012	-0.010
-504.712	140.330	-0.191	-0.254
-503.697	96.930	0.044	-0.050
-502.683	800.000	0.178	-0.507
-501.668	800.000	-0.052	-0.164
-500.653	-33.426	0.186	-0.103
-499.639	17.042	0.222	0.177
-498.624	211.386	-0.279	0.441
-497.610	148.809	-0.194	-0.264
-496.595	800.000	-0.059	-0.228
-495.581	235.683	0.082	-0.136
-494.566	-58.132	-0.194	-0.085
-493.551	-152.138	0.424	0.031
-492.537	-69.216	-0.466	-0.180
-491.522	246.466	-0.043	0.072
-490.508	-113.356	0.204	0.040
-489.493	-152.976	0.099	0.007
-488.478	83.113	-0.128	0.140
-487.464	-63.098	0.255	0.106
-486.449	800.000	0.188	-0.522
-485.435	-200.000	0.069	-0.360
-484.420	71.973	-0.137	0.143
-483.405	47.255	0.078	-0.073
-482.391	482.213	-0.095	0.216
-481.376	-200.000	0.008	-0.169
-480.362	-82.069	0.171	-0.056
-479.347	-132.680	-0.231	0.030
-478.332	33.449	0.061	-0.053
-477.318	93.765	-0.232	0.264
-476.303	51.302	0.078	-0.074
-475.289	754.052	-0.049	-0.133
-474.274	356.174	-0.226	-0.452
-473.259	465.912	0.123	-0.276
-472.245	-200.000	0.007	-0.067
-471.230	-200.000	-0.012	0.331
-470.216	491.629	-0.075	-0.172
-469.201	-200.000	-0.011	0.078
-468.186	-113.903	0.080	-0.016
-467.172	122.571	-0.199	0.250
-466.157	-200.000	0.041	0.358
-465.143	-157.022	0.020	0.001
-464.128	-30.922	0.280	-0.159
-463.113	-112.078	-0.228	-0.046
-462.099	-9.133	-0.228	0.153
-461.084	-200.000	0.004	0.127
-460.070	-81.934	-0.239	0.079
-459.055	156.463	-0.115	-0.159
-458.040	-200.000	-0.028	0.339
-457.026	-0.444	0.289	0.206
-456.011	-0.783	0.242	0.172
-454.997	-200.000	-0.042	-0.317
-453.982	65.725	-0.032	0.032
-452.968	144.434	0.084	-0.112
-451.953	800.000	-0.084	-0.242
-450.938	65.579	0.272	-0.277
-449.924	-156.132	-0.252	0.016
-448.909	-133.334	0.453	-0.057
-447.895	-200.000	-0.028	-0.268
-446.880	-200.000	0.006	-0.078
-445.865	415.426	-0.125	0.267
-444.851	-200.000	-0.022	0.154
-443.836	-155.474	-0.374	0.024
-442.822	800.000	0.051	-0.196
-441.807	403.500	0.120	-0.254
-440.792	739.598	-0.079	-0.213
-439.778	0.903	0.142	-0.102
-438.763	-130.779	0.120	-0.016
-437.749	-34.197	0.179	-0.099
-436.734	-200.000	-0.050	0.309
-435.719	464.364	-0.242	0.543
-434.705	185.020	-0.032	0.048
-433.690	-115.133	0.242	0.046
-432.676	646.599	0.057	0.146
-431.661	250.869	0.120	0.204
-430.646	297.680	-0.130	0.239
-429.632	-200.000	0.022	-0.107
-428.617	-59.639	0.223	-0.096
-427.603	799.312	0.098	0.271
-426.588	50.785	-0.191	-0.181
-425.573	-200.000	0.003	0.539
-424.559	800.000	-0.085	-0.321
-423.544	-17.300	-0.132	-0.083
-422.530	-49.514	0.253	0.121
-421.515	800.000	0.045	-0.131
-420.500	-200.000	0.014	-0.262
-419.486	-68.726	-0.143	0.055
-418.471	-92.971	-0.138	0.038
-417.457	525.298	0.069	0.163
-416.442	-74.258	-0.162	0.059
-415.428	173.034	0.079	-0.114
-414.413	-200.000	0.005	0.094
-413.398	800.000	-0.132	-0.385
-412.384	-200.000	-0.026	0.188
-411.369	-200.000	-0.100	-0.480
-410.355	388.895	-0.132	-0.273
-409.340	-13.929	0.375	-0.243
-408.325	-200.000	0.032	0.340
-407.311	88.990	-0.087	0.097
-406.296	-161.385	-0.231	0.012
-405.282	-110.556	0.189	0.039
-404.267	11.995	-0.111	0.085
-403.252	-19.475	0.084	0.052
-402.238	-118.558	-0.149	-0.026
-401.223	-103.880	0.155	-0.036
-400.209	28.559	-0.122	0.103
-399.194	63.163	-0.049	-0.049
-398.179	-200.000	0.023	0.154
-397.165	18.920	0.223	0.179
-396.150	-115.656	-0.151	0.028
-395.136	4.613	-0.274	-0.201
-394.121	-200.000	0.008	-0.158
-393.106	8.432	0.058	0.044
-392.092	-174.674	0.169	0.005
-391.077	-200.000	-0.012	0.108
-390.063	800.000	0.050	-0.146
-389.048	-58.182	0.146	-0.063
-388.033	-98.549	0.340	0.087
-387.019	-63.835	0.155	0.063
-386.004	-139.561	-0.548	-0.059
-384.990	400.745	0.064	0.134
-383.975	-200.000	0.079	0.376
-382.960	-58.899	-0.288	-0.125
-381.946	-200.000	-0.039	0.184
-380.931	-82.620	0.354	-0.115
-379.917	-200.000	0.020	-0.129
-378.902	800.000	-0.087	0.303
-377.888	576.690	0.119	-0.290
-376.873	-55.148	-0.220	0.099
-375.858	49.554	-0.231	0.217
-374.844	-78.807	-0.206	0.070
-373.829	507.206	0.089	0.206
-372.815	-77.134	0.241	-0.084
-371.800	-74.679	0.023	-0.008
-370.785	-149.278	-0.360	-0.029
-369.771	-45.049	-0.176	-0.088
-368.756	-200.000	0.019	0.087
-367.742	466.164	-0.026	0.057
-366.727	-145.541	0.387	-0.035
-365.712	-118.056	0.385	0.069
-364.698	-132.008	0.099	-0.013
-363.683	-44.649	0.114	0.057
-362.669	110.397	-0.084	-0.101
-361.654	-104.972	0.141	0.032
-360.639	-2.164	-0.149	0.104
-359.625	-66.822	0.157	0.062
-358.610	-39.795	0.228	-0.119
-357.596	227.270	0.058	-0.094
-356.581	-24.937	0.054	0.032
-355.566	-41.512	-0.257	0.132
-354.552	47.794	0.188	0.175
-353.537	-64.114	-0.199	0.081
-352.523	-110.830	-0.060	-0.012
-351.508	-200.000	-0.031	0.143
-350.493	561.295	-0.140	-0.338
-349.479	36.102	-0.028	0.025
-348.464	-200.000	0.030	0.203
-347.450	-59.879	0.172	-0.074
-346.435	44.015	0.043	-0.039
-345.420	-200.000	0.069	0.370
-344.406	800.000	0.119	0.352
-343.391	7.445	0.034	0.025
-342.377	800.000	-0.062	-0.206
-341.362	-172.520	-0.252	-0.008
-340.348	-2.302	0.198	-0.139
-339.333	13.054	0.035	-0.027
-338.318	73.848	0.285	-0.299
-337.304	-200.000	-0.012	0.056
-336.289	-125.457	-0.169	0.026
-335.275	2.854	0.191	0.139
-334.260	87.154	-0.064	-0.071
-333.245	20.506	0.343	0.277
-332.231	596.899	-0.073	0.180
-331.216	800.000	0.051	-0.177
-330.202	-19.091	-0.100	-0.062
-329.187	-200.000	0.041	0.290
-328.172	-200.000	0.003	-0.081
-327.158	320.803	-0.053	-0.100
-326.143	-126.854	0.197	-0.029
-325.129	183.635	0.084	-0.124
-324.114	-83.528	-0.170	0.054
-323.099	-119.344	-0.197	-0.034
-322.085	-200.000	-0.050	-0.253
-321.070	73.181	0.278	0.290
-320.056	800.000	-0.066	0.205
-319.041	-200.000	-0.029	0.303
-318.026	-138.841	-0.306	-0.033
-317.012	-123.837	0.109	-0.017
-315.997	-46.217	0.039	0.019
-314.983	-200.000	0.007	0.279
-313.968	-66.232	0.246	0.098
-312.953	-200.000	-0.033	0.172
-311.939	38.754	-0.056	-0.050
-310.924	-86.311	-0.177	-0.054
-309.910	52.902	-0.058	-0.056
-308.895	800.000	-0.094	0.292
-307.880	-88.627	0.270	-0.080
-306.866	0.203	0.127	-0.090
-305.851	311.990	0.100	0.186
-304.837	32.284	0.179	-0.154
-303.822	-200.000	-0.038	-0.221
-302.807	-200.000	-0.034	-0.173
-301.793	342.272	-0.216	0.421
-300.778	392.970	-0.101	-0.208
-299.764	12.326	-0.073	0.056
-298.749	-143.353	-0.338	0.032
-297.735	35.509	0.141	-0.123
-296.720	-7.376	0.133	-0.090
-295.705	-200.000	-0.018	0.131
-294.691	-57.605	0.206	0.090
-293.676	-200.000	-0.003	0.204
-292.662	449.546	-0.090	-0.198
-291.647	-59.612	-0.088	-0.038
-290.632	-127.279	0.316	-0.046
-289.618	-100.375	0.286	0.071
-288.603	134.513	0.157	-0.204
-287.589	427.942	-0.159	-0.341
-286.574	-130.878	0.026	-0.004
-285.559	548.350	-0.128	0.306
-284.545	-200.000	-0.022	-0.109
-283.530	27.284	-0.031	0.026
-282.516	-19.336	0.273	0.169
-281.501	-22.905	0.101	0.061
-280.486	-94.909	0.285	0.077
-279.472	445.019	-0.034	0.074
-278.457	-200.000	0.013	0.171
-277.443	-30.487	0.126	0.071
-276.428	-82.495	0.211	0.068
-275.413	193.478	-0.055	0.082
-274.399	60.580	-0.176	0.174
-273.384	800.000	-0.017	-0.050
-272.370	800.000	0.051	0.149
-271.355	-200.000	-0.013	-0.267
-270.340	-143.536	0.203	-0.019
-269.326	-40.121	0.221	-0.115
-268.311	174.147	-0.101	0.145
-267.297	149.825	-0.165	0.223
-266.282	17.719	0.060	0.048
-265.267	-14.455	-0.070	0.045
-264.253	-66.513	-0.407	-0.161
-263.238	115.348	-0.229	-0.279
-262.224	-39.277	0.138	-0.072
-261.209	219.547	-0.149	0.237
-260.195	800.000	0.030	0.096
-259.180	-81.445	0.328	-0.108
-258.165	-139.126	-0.250	0.027
-257.151	-86.014	0.083	-0.025
-256.136	438.888	0.034	-0.074
-255.122	167.211	-0.157	-0.221
-254.107	117.439	0.226	-0.277
-253.092	20.800	-0.108	-0.087
-252.078	44.098	-0.278	-0.253
-251.063	131.551	-0.227	0.291
-250.049	154.079	0.012	0.016
-249.034	-24.643	-0.409	0.242
-248.019	-98.577	0.177	0.045
-247.005	404.835	0.055	-0.116
-245.990	-115.457	0.619	-0.116
-244.976	90.500	-0.285	-0.318
-243.961	-200.000	-0.014	0.095
-242.946	-200.000	-0.003	-0.220
-241.932	800.000	-0.081	-0.271
-240.917	-52.570	0.189	-0.087
-239.903	6.535	0.189	-0.139
-238.888	-160.893	-0.156	0.008
-237.873	8.620	0.120	0.090
-236.859	-200.000	0.016	-0.119
-235.844	15.245	-0.051	0.040
-234.830	-103.596	0.360	-0.084
-233.815	195.518	-0.031	-0.047
-232.800	-147.589	0.207	-0.017
-231.786	-200.000	-0.007	0.189
-230.771	-107.942	-0.171	-0.037
-229.757	303.839	-0.181	-0.334
-228.742	-87.265	-0.262	-0.079
-227.727	9.917	0.383	-0.289
-226.713	-169.230	-0.179	0.007
-225.698	-85.086	0.124	-0.039
-224.684	35.568	0.151	0.132
-223.669	259.604	-0.104	-0.178
-222.655	800.000	0.061	-0.253
-221.640	-110.084	-0.276	0.057
-220.625	34.057	0.120	0.104
-219.611	101.063	-0.135	0.156
-218.596	-157.782	-0.544	0.032
-217.582	178.550	-0.069	-0.101
-216.567	-71.664	-0.053	0.019
-215.552	68.711	0.227	0.232
-214.538	79.157	0.124	0.132
-213.523	-24.829	0.076	0.045
-212.509	-200.000	0.098	0.699
-211.494	33.894	-0.015	-0.013
-210.479	122.824	0.030	-0.037
-209.465	-16.780	-0.149	0.094
-208.450	-93.552	-0.212	0.058
-207.436	-75.499	0.178	-0.063
-206.421	-200.000	0.001	-0.279
-205.406	-6.643	-0.131	-0.089
-204.392	-17.555	-0.139	-0.087
-203.377	-109.279	0.405	0.085
-202.363	-200.000	0.017	0.224
-201.348	38.394	0.093	-0.083
-200.333	-200.000	-0.016	-0.200
-199.319	32.399	0.082	0.070
-198.304	-200.000	-0.016	-0.319
-197.290	800.000	0.014	-0.049
-196.275	-200.000	-0.039	-0.414
-195.260	41.745	0.108	0.097
-194.246	111.643	-0.123	0.148
-193.231	800.000	0.044	-0.132
-192.217	-140.449	0.423	-0.044
-191.202	-200.000	-0.005	0.159
-190.187	-77.056	-0.205	0.071
-189.173	-150.515	0.495	-0.038
-188.158	330.118	0.047	0.090
-187.144	276.249	-0.091	0.161
-186.129	-200.000	0.009	0.126
-185.114	-69.559	-0.027	-0.010
-184.100	-114.426	0.253	0.048
-183.085	-120.273	-0.404	-0.068
-182.071	800.000	-0.019	-0.083
-181.056	-76.308	0.205	0.072
-180.042	-4.337	0.151	-0.104
-179.027	47.408	-0.153	-0.142
-178.012	6.095	0.229	0.169
-176.998	80.281	0.344	0.367
-175.983	91.930	0.155	0.173
-174.969	800.000	0.132	0.384
-173.954	192.967	0.147	-0.220
-172.939	800.000	-0.095	-0.326
-171.925	42.554	0.128	0.116
-170.910	652.762	0.060	0.153
-169.896	-88.938	-0.187	-0.055
-168.881	-149.901	-0.179	0.014
-167.866	800.000	-0.073	0.261
-166.852	-200.000	0.030	-0.246
-165.837	-2.853	-0.162	-0.112
-164.823	-157.839	0.226	0.013
-163.808	597.440	-0.097	0.239
-162.793	-10.121	-0.038	0.025
-161.779	-200.000	-0.065	-0.380
-160.764	-200.000	-0.016	-0.172
-159.750	-120.579	0.372	0.063
-158.735	67.524	-0.136	-0.138
-157.720	88.258	0.078	0.086
-156.706	-200.000	0.009	-0.044
-155.691	45.554	-0.018	-0.016
-154.677	-44.793	-0.168	0.083
-153.662	-126.214	0.182	-0.027
-152.647	175.529	-0.120	-0.172
-151.633	37.429	-0.152	0.133
-150.618	-200.000	-0.062	-0.468
-149.604	128.173	-0.180	0.227
-148.589	800.000	-0.034	0.101
-147.574	217.353	0.053	-0.084
-146.560	-200.000	-0.011	-0.286
-145.545	800.000	-0.036	0.140
-144.531	190.865	-0.063	-0.094
-143.516	321.704	0.044	0.084
-142.502	-130.333	0.404	0.054
-141.487	42.151	-0.085	-0.076
-140.472	88.664	-0.075	0.082
-139.458	154.659	-0.112	-0.153
-138.443	409.235	0.133	0.278
-137.429	-115.733	0.299	0.056
-136.414	37.271	0.032	-0.028
-135.399	624.827	-0.012	0.029
-134.385	43.772	-0.177	0.160
-133.370	166.207	0.173	0.243
-132.356	-63.318	-0.014	0.006
-131.341	780.521	0.111	-0.300
-130.326	-64.498	0.176	-0.071
-129.312	-103.043	-0.369	0.087
-128.297	-102.037	-0.291	-0.069
-127.283	-73.829	0.256	-0.092
-126.268	222.325	-0.035	-0.055
-125.253	-200.000	-0.008	-0.368
-124.239	468.474	-0.180	-0.399
-123.224	-200.000	-0.023	0.311
-122.210	285.117	-0.037	-0.066
-121.195	-54.147	-0.194	-0.087
