DTS Sentinel unit serial number:	SN413079Multiplexer serial number:	ORYXHardware model number:	OX4-SRSoftware version number:	ORYX F/W v4.00 Oryx Data Collector v3.7.2.0data status	okinstallation	princeton_trtdifferential loss correction	single-endedforward channel	channel 4reverse channel	N/Adate	2019/09/17time	12:09:34forward acquisition time	60.00reverse acquisition time	0.00gamma	496.2192k internal	0.2306k external	0.2306temperature offset calibration	0.9989default loss term (dB/km)	0.3790temperature slope calibration	1.0000multiplexer offset coefficient	1.0000multiplexer slope coefficient	1.0000fibre end	0.00T internal ref (°C)	31.30T ext. ref 1 (°C)	0.42T ext. ref 2 (°C)	27.76length (m)	temperature (°C)	Stokes	anti-Stokes-747.200	61.294	0.198	0.200
-746.185	800.000	-0.132	0.514
-745.171	800.000	-0.065	0.243
-744.156	-65.968	0.396	0.161
-743.142	-133.653	-0.234	0.030
-742.127	-73.637	-0.547	0.203
-741.112	800.000	0.070	0.247
-740.098	457.916	-0.031	0.071
-739.083	73.894	-0.185	-0.197
-738.069	-57.311	-0.270	-0.121
-737.054	396.097	0.045	-0.097
-736.039	36.043	-0.278	0.249
-735.025	-200.000	-0.002	0.095
-734.010	-90.808	-0.183	-0.054
-732.996	293.077	-0.154	-0.286
-731.981	532.848	-0.171	-0.411
-730.966	-200.000	-0.017	-0.294
-729.952	-200.000	0.022	-0.290
-728.937	39.826	-0.180	-0.164
-727.923	-200.000	-0.043	0.267
-726.908	93.799	-0.343	0.395
-725.894	-132.527	0.249	0.033
-724.879	-200.000	0.010	0.065
-723.864	-77.507	-0.137	0.048
-722.850	8.428	-0.175	0.134
-721.835	349.313	-0.123	-0.247
-720.821	10.301	0.106	0.082
-719.806	-163.846	-0.183	0.009
-718.791	254.405	-0.220	-0.382
-717.777	-112.259	0.202	-0.041
-716.762	-86.137	0.231	-0.073
-715.748	-36.320	-0.171	0.094
-714.733	-88.702	-0.159	-0.048
-713.718	38.616	-0.098	-0.088
-712.704	191.517	0.100	0.153
-711.689	-200.000	-0.047	-0.358
-710.675	-158.003	-0.164	-0.010
-709.660	-178.040	-0.170	0.004
-708.645	-200.000	-0.029	0.167
-707.631	-200.000	-0.034	-0.167
-706.616	66.054	-0.276	-0.284
-705.602	59.553	0.090	-0.090
-704.587	534.666	-0.127	0.306
-703.572	-113.011	0.059	0.012
-702.558	-37.311	-0.112	-0.061
-701.543	-200.000	-0.396	0.001
-700.529	-145.581	-0.384	0.035
-699.514	-56.532	0.123	0.056
-698.499	62.432	0.058	-0.059
-697.485	178.783	-0.153	0.227
-696.470	-131.624	-0.299	0.040
-695.456	46.584	-0.267	-0.251
-694.441	-200.000	0.082	-0.374
-693.426	800.000	-0.046	-0.182
-692.412	25.099	-0.183	-0.154
-691.397	-200.000	0.001	-0.337
-690.383	159.371	-0.153	0.215
-689.368	305.118	0.103	-0.194
-688.354	184.135	-0.123	0.185
-687.339	259.589	-0.197	-0.345
-686.324	39.197	-0.214	0.194
-685.310	501.822	0.145	0.340
-684.295	195.858	-0.173	-0.266
-683.281	275.479	0.192	-0.346
-682.266	-88.185	-0.063	-0.019
-681.251	-143.138	-0.254	0.025
-680.237	16.660	-0.353	0.283
-679.222	-12.601	0.158	-0.105
-678.208	-167.152	-0.333	0.014
-677.193	-200.000	-0.051	-0.248
-676.178	-143.069	-0.104	0.010
-675.164	-77.798	-0.329	-0.116
-674.149	-127.735	0.418	0.061
-673.135	15.159	0.174	-0.139
-672.120	-149.871	0.039	0.003
-671.105	522.913	0.103	0.245
-670.091	-59.596	0.125	-0.054
-669.076	-96.658	-0.141	0.038
-668.062	74.023	0.098	-0.104
-667.047	-130.071	-0.204	0.028
-666.032	138.196	-0.137	0.182
-665.018	38.134	0.325	0.293
-664.003	-200.000	0.036	-0.164
-662.989	83.937	-0.214	0.237
-661.974	-65.185	0.147	0.060
-660.959	30.525	0.081	0.070
-659.945	-193.027	0.071	-0.001
-658.930	219.912	-0.151	-0.245
-657.916	-98.429	0.360	0.093
-656.901	-200.000	0.011	-0.059
-655.886	-104.284	0.241	-0.057
-654.872	320.356	-0.138	0.266
-653.857	238.458	0.065	0.110
-652.843	-165.643	-0.306	0.013
-651.828	482.819	0.112	0.258
-650.814	800.000	-0.076	0.245
-649.799	-29.034	0.330	0.192
-648.784	25.521	-0.166	0.140
-647.770	-200.000	-0.004	-0.101
-646.755	-172.753	-0.464	-0.015
-645.741	177.235	0.184	-0.271
-644.726	-200.000	0.061	0.436
-643.711	555.593	0.097	0.237
-642.697	-200.000	-0.076	0.352
-641.682	140.564	0.123	0.164
-640.668	-135.348	0.211	-0.026
-639.653	190.777	0.199	0.303
-638.638	220.191	-0.068	-0.110
-637.624	-200.000	0.010	0.174
-636.609	800.000	-0.054	0.225
-635.595	-200.000	0.029	-0.401
-634.580	33.846	0.063	-0.055
-633.565	20.013	0.140	-0.115
-632.551	-200.000	-0.009	-0.049
-631.536	155.047	0.082	-0.114
-630.522	-108.761	-0.168	-0.036
-629.507	589.080	-0.032	0.081
-628.492	-11.938	-0.123	-0.082
-627.478	106.233	-0.135	0.162
-626.463	-175.656	0.197	-0.005
-625.449	10.166	-0.361	-0.278
-624.434	-200.000	0.034	-0.205
-623.419	-101.168	0.218	-0.054
-622.405	-102.975	0.286	0.069
-621.390	-110.340	-0.069	-0.015
-620.376	-99.286	-0.514	-0.131
-619.361	101.773	0.230	0.272
-618.346	-156.081	-0.213	0.014
-617.332	-134.756	-0.148	-0.018
-616.317	-126.474	-0.172	0.026
-615.303	800.000	-0.064	0.257
-614.288	-41.061	0.105	-0.055
-613.273	-72.901	-0.043	0.016
-612.259	-39.169	-0.204	-0.108
-611.244	-169.681	0.151	-0.006
-610.230	-58.229	0.228	0.101
-609.215	-62.245	0.018	0.008
-608.201	-20.620	0.248	-0.154
-607.186	67.144	0.144	-0.148
-606.171	444.097	-0.094	-0.209
-605.157	-200.000	-0.049	-0.262
-604.142	407.918	0.062	-0.134
-603.128	0.812	0.203	-0.147
-602.113	-46.527	0.075	0.037
-601.098	51.029	0.168	0.161
-600.084	-200.000	-0.031	-0.307
-599.069	81.357	0.019	0.021
-598.055	-200.000	0.028	-0.290
-597.040	73.841	0.114	-0.121
-596.025	216.631	0.077	0.124
-595.011	-3.545	0.069	-0.049
-593.996	-66.643	0.303	-0.121
-592.982	613.361	-0.101	-0.257
-591.967	37.857	0.052	0.047
-590.952	-200.000	0.018	0.278
-589.938	-112.748	0.217	0.044
-588.923	330.776	0.106	0.206
-587.909	-144.044	-0.471	0.045
-586.894	422.405	-0.106	-0.230
-585.879	60.773	0.092	0.093
-584.865	150.633	-0.185	0.254
-583.850	800.000	-0.040	0.135
-582.836	-200.000	0.001	-0.041
-581.821	25.697	-0.118	0.099
-580.806	-27.440	-0.101	0.060
-579.792	-200.000	0.010	0.175
-578.777	79.318	0.087	0.094
-577.763	-159.698	0.229	-0.013
-576.748	-200.000	0.258	-0.000
-575.733	-148.517	-0.295	-0.024
-574.719	107.272	0.064	0.077
-573.704	56.753	-0.097	-0.096
-572.690	800.000	-0.072	-0.289
-571.675	-38.609	-0.107	-0.057
-570.661	-14.850	0.166	-0.108
-569.646	-103.402	-0.654	0.156
-568.631	81.306	0.159	-0.174
-567.617	-13.348	0.368	-0.242
-566.602	416.806	-0.098	-0.212
-565.588	-40.698	0.262	-0.137
-564.573	-200.000	0.011	-0.118
-563.558	-200.000	-0.088	0.507
-562.544	105.186	0.123	0.147
-561.529	-21.026	0.224	0.139
-560.515	-200.000	0.091	0.489
-559.500	260.096	0.082	-0.143
-558.485	32.616	-0.167	0.146
-557.471	-39.437	0.081	0.043
-556.456	-117.281	-0.483	0.089
-555.442	-67.022	0.162	-0.065
-554.427	-137.744	0.301	-0.034
-553.412	41.543	-0.175	-0.160
-552.398	45.658	-0.107	0.100
-551.383	24.290	0.272	-0.227
-550.369	-77.887	0.092	0.032
-549.354	-9.294	0.098	0.066
-548.339	306.773	0.026	0.049
-547.325	-200.000	-0.019	0.403
-546.310	-21.153	0.190	-0.117
-545.296	-77.986	0.154	-0.054
-544.281	89.438	0.062	-0.070
-543.266	-35.325	0.128	-0.070
-542.252	312.818	-0.047	0.089
-541.237	168.759	0.068	0.098
-540.223	581.291	0.103	0.254
-539.208	92.777	-0.202	-0.231
-538.193	-200.000	-0.019	-0.193
-537.179	-108.161	0.221	-0.048
-536.164	-5.606	0.347	-0.240
-535.150	-200.000	0.016	0.404
-534.135	-108.530	0.183	-0.040
-533.121	26.214	0.091	0.077
-532.106	-200.000	-0.004	-0.156
-531.091	9.110	-0.211	-0.161
-530.077	207.954	0.111	0.175
-529.062	-22.247	0.011	-0.007
-528.048	800.000	0.039	0.156
-527.033	31.181	-0.171	-0.148
-526.018	-37.686	-0.174	-0.094
-525.004	-45.523	-0.249	0.124
-523.989	118.625	-0.044	0.055
-522.975	213.560	-0.161	-0.257
-521.960	-200.000	0.026	-0.274
-520.945	221.196	0.169	-0.274
-519.931	28.292	-0.140	-0.119
-518.916	15.530	-0.368	0.291
-517.902	-138.469	0.046	-0.005
-516.887	-156.012	-0.048	0.003
-515.872	-137.424	-0.258	0.029
-514.858	-200.000	-0.029	-0.255
-513.843	-46.028	0.100	-0.050
-512.829	8.989	-0.077	0.059
-511.814	-91.253	0.129	-0.037
-510.799	56.241	0.168	0.164
-509.785	-165.272	0.309	0.014
-508.770	-54.609	0.113	-0.051
-507.756	92.605	-0.131	-0.149
-506.741	237.794	0.124	0.208
-505.726	-200.000	0.013	0.076
-504.712	-19.688	0.145	0.091
-503.697	-182.803	-0.193	0.004
-502.683	-25.957	-0.122	-0.073
-501.668	25.832	-0.077	-0.064
-500.653	12.035	0.184	0.143
-499.639	21.620	-0.494	-0.405
-498.624	-200.000	0.004	-0.062
-497.610	-31.130	-0.289	0.164
-496.595	800.000	-0.146	-0.421
-495.581	800.000	0.025	-0.088
-494.566	425.840	0.079	0.172
-493.551	-45.839	-0.221	-0.110
-492.537	-127.047	0.299	-0.044
-491.522	-100.166	-0.137	-0.034
-490.508	146.585	-0.068	0.091
-489.493	381.705	0.135	-0.280
-488.478	-124.026	-0.194	-0.031
-487.464	-117.022	0.262	0.048
-486.449	-145.662	0.114	-0.010
-485.435	679.686	-0.065	-0.171
-484.420	800.000	0.072	-0.311
-483.405	-200.000	-0.006	0.224
-482.391	-62.638	-0.391	0.163
-481.376	800.000	-0.082	0.237
-480.362	277.406	-0.099	-0.177
-479.347	-80.649	0.096	-0.032
-478.332	144.686	0.077	-0.104
-477.318	65.126	0.118	0.120
-476.303	237.709	-0.059	-0.098
-475.289	-63.584	0.258	-0.107
-474.274	143.523	-0.233	-0.313
-473.259	-39.246	-0.190	-0.101
-472.245	395.335	0.075	0.157
-471.230	-43.369	0.179	0.091
-470.216	800.000	-0.063	0.236
-469.201	800.000	0.041	-0.177
-468.186	-167.751	0.405	0.016
-467.172	-91.264	-0.063	-0.018
-466.157	145.349	-0.152	-0.204
-465.143	-165.921	0.180	-0.008
-464.128	167.795	0.208	-0.298
-463.113	60.183	-0.047	0.047
-462.099	165.523	-0.036	0.051
-461.084	800.000	-0.110	0.315
-460.070	-200.000	-0.034	0.480
-459.055	92.467	-0.272	0.309
-458.040	74.927	0.095	-0.100
-457.026	-67.639	0.374	0.147
-456.011	-135.560	-0.467	-0.056
-454.997	107.795	-0.239	-0.286
-453.982	239.210	-0.037	-0.062
-452.968	53.818	0.050	-0.048
-451.953	-38.618	-0.144	0.077
-450.938	-115.905	0.363	-0.068
-449.924	-101.101	0.296	0.073
-448.909	-70.145	0.212	-0.081
-447.895	-44.993	-0.199	-0.100
-446.880	800.000	0.058	-0.201
-445.865	-121.311	-0.260	-0.044
-444.851	800.000	0.061	-0.264
-443.836	32.801	0.073	0.063
-442.822	-163.801	-0.099	0.005
-441.807	-98.329	-0.230	-0.059
-440.792	109.527	-0.281	-0.338
-439.778	53.151	0.213	0.205
-438.763	163.220	-0.041	0.058
-437.749	-200.000	-0.003	-0.565
-436.734	-50.572	-0.248	-0.118
-435.719	-36.143	-0.424	0.230
-434.705	-58.974	0.315	-0.137
-433.690	-37.895	0.055	0.029
-432.676	541.070	0.170	-0.406
-431.661	-200.000	-0.040	-0.305
-430.646	800.000	-0.084	0.248
-429.632	290.282	0.192	0.351
-428.617	-8.015	-0.188	0.128
-427.603	-76.980	0.186	0.065
-426.588	515.213	0.083	-0.195
-425.573	-40.291	0.207	-0.108
-424.559	-10.563	0.059	0.040
-423.544	141.536	-0.165	0.220
-422.530	70.209	0.168	-0.174
-421.515	-60.732	-0.022	0.009
-420.500	-42.461	-0.477	-0.244
-419.486	500.970	0.203	-0.471
-418.471	-65.459	-0.080	0.032
-417.457	-200.000	-0.007	0.154
-416.442	212.564	-0.054	0.086
-415.428	-42.768	-0.152	-0.077
-414.413	-7.739	0.168	0.114
-413.398	124.961	0.211	0.267
-412.384	161.493	0.154	0.216
-411.369	780.988	0.126	-0.345
-410.355	731.542	-0.152	0.407
-409.340	-87.034	0.280	0.086
-408.325	-54.381	0.376	0.171
-407.311	-42.950	-0.253	-0.129
-406.296	318.286	-0.102	0.193
-405.282	131.561	0.171	0.220
-404.267	-200.000	-0.034	0.238
-403.252	-44.638	-0.189	-0.095
-402.238	633.635	0.083	0.212
-401.223	479.866	0.062	0.141
-400.209	113.495	-0.106	0.129
-399.194	-28.959	-0.107	0.062
-398.179	-32.049	-0.127	-0.071
-397.165	-83.362	0.307	0.099
-396.150	-75.347	0.101	0.036
-395.136	289.124	-0.024	0.044
-394.121	478.301	0.092	0.209
-393.106	-67.537	-0.325	-0.128
-392.092	-46.901	-0.132	0.065
-391.077	-28.169	0.192	-0.111
-390.063	-94.453	-0.374	0.102
-389.048	-50.866	0.153	0.072
-388.033	25.346	-0.127	0.106
-387.019	-71.855	-0.113	-0.042
-386.004	320.710	-0.123	0.234
-384.990	800.000	-0.020	0.055
-383.975	8.285	0.274	-0.207
-382.960	-200.000	0.045	0.263
-381.946	800.000	-0.108	-0.453
-380.931	71.501	-0.037	-0.039
-379.917	199.927	-0.172	0.265
-378.902	-200.000	-0.026	-0.141
-377.888	-19.135	-0.121	-0.076
-376.873	339.883	0.043	0.084
-375.858	-111.273	-0.143	-0.029
-374.844	-100.542	-0.085	-0.021
-373.829	-80.391	0.143	-0.048
-372.815	800.000	0.078	0.216
-371.800	-183.401	-0.243	0.004
-370.785	348.204	-0.081	0.160
-369.771	-67.639	-0.247	0.097
-368.756	-115.030	0.104	0.020
-367.742	-108.180	0.126	-0.027
-366.727	-2.107	-0.092	0.065
-365.712	-87.095	-0.286	0.087
-364.698	-200.000	-0.054	0.316
-363.683	800.000	-0.094	-0.333
-362.669	-39.486	0.212	-0.112
-361.654	26.418	0.169	0.142
-360.639	191.631	-0.258	-0.390
-359.625	61.053	-0.103	0.102
-358.610	109.916	-0.370	-0.445
-357.596	301.458	0.102	-0.189
-356.581	-1.804	-0.194	-0.137
-355.566	134.973	0.163	-0.213
-354.552	340.596	-0.088	-0.173
-353.537	532.957	-0.102	0.243
-352.523	17.254	0.108	0.086
-351.508	138.589	0.034	0.044
-350.493	-200.000	0.031	0.249
-349.479	43.668	-0.217	-0.199
-348.464	-2.065	0.094	0.066
-347.450	-200.000	0.014	0.062
-346.435	-200.000	0.029	-0.270
-345.420	634.441	-0.105	0.267
-344.406	800.000	0.024	0.079
-343.391	-200.000	0.008	-0.114
-342.377	-15.885	-0.091	0.058
-341.362	-44.817	0.129	-0.065
-340.348	-200.000	0.197	-0.000
-339.333	-125.800	-0.284	-0.043
-338.318	627.953	0.068	-0.173
-337.304	-200.000	-0.001	0.101
-336.289	-200.000	0.010	-0.072
-335.275	33.024	-0.176	-0.152
-334.260	800.000	0.034	0.136
-333.245	-141.679	-0.284	0.029
-332.231	-200.000	0.007	0.162
-331.216	-200.000	0.012	0.398
-330.202	503.434	0.134	0.311
-329.187	-115.458	-0.345	-0.065
-328.172	-129.164	0.119	-0.017
-327.158	95.205	-0.351	-0.400
-326.143	69.559	-0.142	-0.146
-325.129	-121.778	-0.246	0.041
-324.114	-200.000	-0.002	-0.113
-323.099	-200.000	0.009	-0.073
-322.085	51.872	0.077	0.073
-321.070	117.579	-0.110	-0.136
-320.056	60.510	-0.041	-0.041
-319.041	-86.756	0.036	-0.011
-318.026	-164.774	-0.203	0.009
-317.012	-140.894	0.473	0.049
-315.997	9.823	0.141	0.107
-314.983	-200.000	-0.011	0.263
-313.968	-200.000	-0.004	0.231
-312.953	136.531	-0.143	0.187
-311.939	560.295	0.117	-0.283
-310.924	-129.304	0.203	-0.028
-309.910	13.550	-0.047	-0.037
-308.895	-200.000	-0.000	0.228
-307.880	269.936	0.156	0.274
-306.866	-40.755	0.238	-0.123
-305.851	539.457	-0.053	-0.126
-304.837	-33.391	0.038	-0.021
-303.822	209.803	-0.053	0.084
-302.807	800.000	-0.086	-0.319
-301.793	-51.098	-0.177	0.083
-300.778	800.000	-0.073	0.252
-299.764	435.467	-0.140	-0.304
-298.749	46.219	-0.094	0.087
-297.735	-200.000	0.028	0.188
-296.720	-27.298	0.380	0.221
-295.705	-37.346	0.214	0.114
-294.691	-200.000	0.034	-0.152
-293.676	-51.621	0.153	-0.071
-292.662	-5.853	0.237	0.162
-291.647	800.000	0.026	0.092
-290.632	-98.973	-0.209	-0.053
-289.618	20.361	0.056	-0.045
-288.603	233.521	0.102	-0.168
-287.589	20.942	-0.178	-0.145
-286.574	122.795	0.047	-0.058
-285.559	-163.944	0.443	-0.021
-284.545	21.199	-0.155	-0.126
-283.530	800.000	0.068	-0.223
-282.516	241.416	0.082	0.138
-281.501	-128.588	0.044	0.006
-280.486	398.028	-0.086	-0.179
-279.472	-18.019	0.173	-0.108
-278.457	-77.404	-0.199	0.069
-277.443	123.819	0.099	0.125
-276.428	-200.000	-0.030	-0.275
-275.413	231.860	0.073	0.120
-274.399	-59.262	0.332	0.143
-273.384	-101.740	0.308	0.075
-272.370	479.150	-0.109	-0.248
-271.355	75.889	-0.138	0.145
-270.340	48.378	0.210	0.197
-269.326	-200.000	-0.025	-0.271
-268.311	800.000	0.169	0.470
-267.297	-144.719	0.123	-0.011
-266.282	125.476	0.117	0.147
-265.267	-11.021	0.193	0.127
-264.253	800.000	0.037	0.104
-263.238	267.104	0.155	-0.270
-262.224	-71.732	0.356	0.132
-261.209	328.087	0.094	-0.181
-260.195	361.943	0.123	0.247
-259.180	-93.158	-0.229	-0.064
-258.165	505.849	-0.085	0.196
-257.151	-59.007	0.270	-0.117
-256.136	-200.000	0.012	-0.218
-255.122	72.057	-0.248	0.258
-254.107	-200.000	0.004	-0.052
-253.092	127.832	-0.050	0.064
-252.078	150.388	0.182	0.247
-251.063	-1.671	0.135	-0.095
-250.049	-58.545	0.200	-0.087
-249.034	37.230	-0.257	-0.227
-248.019	150.109	-0.044	0.059
-247.005	-21.384	-0.127	-0.077
-245.990	-56.050	0.224	0.100
-244.976	14.310	-0.046	0.036
-243.961	116.305	-0.122	0.149
-242.946	354.458	-0.125	0.249
-241.932	-200.000	-0.018	-0.082
-240.917	29.904	-0.135	0.115
-239.903	665.993	0.124	-0.320
-238.888	-91.583	0.086	0.025
-237.873	800.000	-0.051	-0.221
-236.859	-98.395	-0.314	0.080
-235.844	-160.938	-0.357	-0.019
-234.830	-200.000	-0.001	0.239
-233.815	-200.000	-0.019	0.361
-232.800	213.948	-0.053	-0.083
-231.786	-148.275	-0.196	0.016
-230.771	-73.532	0.037	0.014
-229.757	-23.578	-0.248	-0.148
-228.742	23.658	0.188	-0.154
-227.727	-200.000	0.009	0.074
-226.713	120.609	0.024	0.030
-225.698	-91.481	-0.202	-0.058
-224.684	258.333	-0.101	-0.173
-223.669	99.208	0.149	-0.171
-222.655	190.468	-0.089	-0.133
-221.640	-45.063	-0.280	-0.139
-220.625	250.415	0.127	0.215
-219.611	440.648	-0.090	-0.196
-218.596	-200.000	-0.020	0.246
-217.582	63.568	0.250	-0.251
-216.567	-173.483	-0.107	0.003
-215.552	134.822	-0.110	0.143
-214.538	56.284	-0.091	-0.088
-213.523	-13.382	0.069	-0.045
-212.509	800.000	-0.045	0.138
-211.494	189.188	-0.089	-0.133
-210.479	-152.229	0.278	-0.020
-209.465	-27.120	-0.147	0.085
-208.450	-22.422	0.110	0.066
-207.436	800.000	-0.026	0.084
-206.421	-200.000	0.041	-0.270
-205.406	800.000	0.103	-0.332
-204.392	196.863	-0.189	-0.286
-203.377	82.707	0.215	-0.233
-202.363	468.124	-0.103	0.229
-201.348	-13.581	-0.116	0.075
-200.333	-110.170	-0.031	0.006
-199.319	-200.000	-0.023	-0.119
-198.304	4.080	-0.084	0.061
-197.290	4.305	0.176	-0.129
-196.275	-200.000	0.029	-0.230
-195.260	529.337	-0.142	0.333
-194.246	-141.138	0.282	-0.029
-193.231	796.388	0.012	-0.033
-192.217	-131.724	-0.136	-0.018
-191.202	800.000	0.059	-0.173
-190.187	-200.000	0.020	0.199
-189.173	112.203	-0.161	0.193
-188.158	168.904	-0.064	0.091
-187.144	-66.957	-0.263	0.103
-186.129	-53.699	-0.177	0.080
-185.114	10.567	0.206	0.157
-184.100	-36.656	-0.061	0.033
-183.085	73.279	0.100	0.104
-182.071	-200.000	0.012	0.070
-181.056	1.904	0.079	0.057
-180.042	-200.000	-0.075	0.373
-179.027	-200.000	0.029	-0.199
-178.012	-11.229	0.314	-0.206
-176.998	68.386	-0.138	0.141
-175.983	319.248	0.066	0.125
-174.969	-134.098	-0.144	0.018
-173.954	-38.876	0.178	0.093
-172.939	-200.000	-0.014	0.088
-171.925	800.000	0.050	0.172
-170.910	-167.679	-0.238	-0.009
-169.896	513.284	-0.068	-0.158
-168.881	512.418	-0.066	-0.154
-167.866	-200.000	0.001	0.036
-166.852	16.697	-0.100	-0.079
-165.837	-45.586	-0.177	0.087
-164.823	-47.315	0.176	0.085
-163.808	-24.969	0.347	0.205
-162.793	-200.000	0.024	0.147
-161.779	-65.598	-0.104	0.042
-160.764	800.000	0.024	0.075
-159.750	-0.195	-0.059	-0.041
-158.735	-117.327	0.208	-0.038
-157.720	400.132	0.083	-0.174
-156.706	235.132	0.031	-0.050
-155.691	-160.968	-0.307	-0.016
-154.677	-200.000	0.013	-0.164
-153.662	-34.152	-0.117	0.064
-152.647	5.216	-0.069	0.050
-151.633	-72.910	0.253	-0.093
-150.618	-131.941	0.238	-0.031
-149.604	-146.143	-0.174	0.015
-148.589	-44.145	-0.280	-0.140
-147.574	800.000	-0.095	-0.341
-146.560	-98.829	-0.192	-0.049
-145.545	-123.747	0.316	0.050
-144.531	-65.131	-0.053	-0.021
-143.516	122.871	0.114	-0.141
-142.502	-146.021	0.202	0.018
-141.487	-200.000	0.033	-0.234
-140.472	117.095	0.123	0.151
-139.458	-106.032	-0.201	-0.045
-138.443	13.292	-0.091	-0.070
-137.429	-200.000	-0.014	0.074
-136.414	-72.877	-0.195	0.071
-135.399	91.995	0.157	-0.175
-134.385	3.290	0.228	-0.165
-133.370	12.500	0.155	-0.118
-132.356	160.996	-0.037	0.052
-131.341	-28.388	0.143	0.082
-130.326	-174.418	0.247	0.007
-129.312	-200.000	0.043	0.427
-128.297	-168.513	-0.169	-0.006
-127.283	134.397	0.200	-0.257
-126.268	-120.292	0.156	0.026
-125.253	12.042	-0.037	0.028
-124.239	42.550	-0.100	-0.090
-123.224	-83.691	-0.659	0.209
-122.210	800.000	-0.112	-0.335
-121.195	-188.729	-0.222	-0.003
