DTS Sentinel unit serial number:	SN413079Multiplexer serial number:	ORYXHardware model number:	OX4-SRSoftware version number:	ORYX F/W v4.00 Oryx Data Collector v3.7.2.0data status	okinstallation	princeton_trtdifferential loss correction	single-endedforward channel	channel 4reverse channel	N/Adate	2019/09/18time	02:37:35forward acquisition time	60.00reverse acquisition time	0.00gamma	496.2192k internal	0.2335k external	0.2335temperature offset calibration	0.9996default loss term (dB/km)	0.3790temperature slope calibration	1.0000multiplexer offset coefficient	1.0000multiplexer slope coefficient	1.0000fibre end	0.00T internal ref (°C)	22.80T ext. ref 1 (°C)	0.17T ext. ref 2 (°C)	16.75length (m)	temperature (°C)	Stokes	anti-Stokes-747.200	-162.314	0.300	0.015
-746.185	-163.800	-0.259	-0.012
-745.171	-136.733	-0.176	-0.020
-744.156	-200.000	0.009	0.130
-743.142	-55.146	0.125	-0.056
-742.127	-200.000	-0.004	-0.059
-741.112	-200.000	-0.000	-0.080
-740.098	-16.946	-0.430	-0.273
-739.083	-200.000	-0.028	-0.254
-738.069	-66.021	-0.481	0.193
-737.054	321.462	-0.124	0.237
-736.039	-31.599	-0.205	-0.116
-735.025	-118.289	-0.014	-0.002
-734.010	562.976	-0.056	-0.135
-732.996	314.093	-0.060	-0.113
-731.981	11.596	0.087	-0.067
-730.966	642.584	-0.064	0.164
-729.952	-200.000	0.002	-0.087
-728.937	-135.432	-0.185	0.022
-727.923	800.000	0.060	-0.172
-726.908	-12.413	-0.306	-0.201
-725.894	14.481	0.342	0.268
-724.879	-25.427	0.270	0.160
-723.864	46.018	0.033	0.030
-722.850	-36.537	-0.193	-0.104
-721.835	41.263	-0.126	0.114
-720.821	-200.000	0.014	-0.151
-719.806	433.319	-0.079	-0.172
-718.791	237.153	0.048	-0.079
-717.777	-17.020	0.053	0.034
-716.762	100.913	0.108	0.126
-715.748	-6.394	0.106	0.073
-714.733	85.232	0.106	-0.117
-713.718	-67.318	-0.143	0.056
-712.704	-14.104	0.038	-0.025
-711.689	13.292	0.128	-0.100
-710.675	83.703	0.350	-0.383
-709.660	-62.519	0.031	-0.013
-708.645	-17.021	-0.120	0.076
-707.631	119.077	0.058	-0.072
-706.616	-115.720	0.178	0.034
-705.602	800.000	0.055	-0.196
-704.587	-200.000	-0.022	0.290
-703.572	-103.091	0.420	0.100
-702.558	412.076	0.047	-0.100
-701.543	54.487	-0.145	-0.140
-700.529	-200.000	-0.032	-0.186
-699.514	-200.000	0.001	-0.311
-698.499	-110.079	-0.379	0.079
-697.485	-85.642	-0.024	-0.008
-696.470	-149.573	-0.156	0.012
-695.456	71.922	0.234	0.244
-694.441	-170.270	-0.196	-0.007
-693.426	-38.258	0.217	0.115
-692.412	93.971	0.107	0.122
-691.397	-116.301	-0.304	-0.056
-690.383	-168.006	-0.306	-0.012
-689.368	-45.024	0.114	-0.057
-688.354	-10.084	-0.277	-0.184
-687.339	298.288	-0.090	0.166
-686.324	800.000	-0.038	-0.143
-685.310	-109.509	-0.087	0.018
-684.295	201.845	-0.236	-0.365
-683.281	-200.000	0.057	0.293
-682.266	128.410	0.019	0.024
-681.251	201.807	0.080	0.124
-680.237	298.755	-0.056	0.103
-679.222	-138.728	0.036	0.004
-678.208	-200.000	-0.082	-0.491
-677.193	-88.357	-0.087	-0.026
-676.178	220.859	-0.059	0.095
-675.164	332.451	-0.037	-0.072
-674.149	800.000	0.025	-0.094
-673.135	77.752	-0.126	-0.135
-672.120	-123.600	0.359	0.057
-671.105	236.248	0.244	0.405
-670.091	296.020	-0.105	-0.193
-669.076	-157.812	0.251	0.015
-668.062	16.322	0.167	-0.132
-667.047	-40.230	-0.107	-0.056
-666.032	-171.366	0.098	0.003
-665.018	12.000	0.203	-0.156
-664.003	-46.182	0.328	0.162
-662.989	155.742	-0.176	-0.243
-661.974	-18.751	-0.122	0.076
-660.959	387.975	0.117	-0.243
-659.945	70.285	0.094	0.098
-658.930	-127.291	-0.305	0.045
-657.916	800.000	0.060	0.171
-656.901	242.482	0.130	-0.218
-655.886	-127.723	0.109	-0.016
-654.872	-21.278	0.156	-0.096
-653.857	53.166	-0.087	-0.084
-652.843	-81.660	0.193	-0.063
-651.828	-132.438	-0.246	-0.032
-650.814	32.313	0.290	-0.251
-649.799	394.360	-0.107	-0.223
-648.784	20.602	0.142	-0.115
-647.770	44.393	-0.103	-0.095
-646.755	3.163	-0.169	0.123
-645.741	73.175	0.080	0.083
-644.726	800.000	-0.070	0.195
-643.711	8.709	0.035	-0.026
-642.697	-18.409	-0.192	-0.120
-641.682	70.235	0.150	0.155
-640.668	327.841	-0.118	-0.227
-639.653	113.259	-0.068	0.083
-638.638	800.000	0.020	-0.067
-637.624	800.000	-0.060	-0.215
-636.609	232.892	0.146	0.240
-635.595	-200.000	0.001	0.350
-634.580	-200.000	0.007	-0.077
-633.565	-91.696	-0.197	-0.056
-632.551	-81.725	-0.093	-0.030
-631.536	-109.053	0.172	-0.037
-630.522	-37.084	0.179	0.096
-629.507	-85.912	-0.159	0.049
-628.492	-56.462	0.155	-0.069
-627.478	-41.209	0.225	-0.116
-626.463	28.293	-0.357	0.302
-625.449	223.418	0.062	-0.100
-624.434	-147.798	0.235	-0.020
-623.419	330.552	-0.010	-0.020
-622.405	504.736	-0.105	-0.243
-621.390	-150.064	0.305	0.024
-620.376	-200.000	-0.022	0.145
-619.361	43.922	-0.345	-0.316
-618.346	134.242	-0.163	0.211
-617.332	19.532	0.281	0.226
-616.317	1.115	0.011	-0.008
-615.303	-77.857	-0.028	0.010
-614.288	-0.614	-0.134	-0.095
-613.273	429.650	0.041	-0.088
-612.259	-54.529	0.344	0.156
-611.244	-134.454	-0.146	-0.018
-610.230	-15.750	0.096	0.061
-609.215	184.127	-0.103	-0.153
-608.201	61.753	0.113	0.112
-607.186	-65.564	-0.340	-0.136
-606.171	-86.798	0.190	-0.058
-605.157	-131.502	-0.080	-0.010
-604.142	586.164	0.051	0.124
-603.128	800.000	-0.094	0.284
-602.113	800.000	0.060	0.218
-601.098	-117.713	-0.214	0.039
-600.084	144.872	0.137	0.183
-599.069	-200.000	0.000	-0.031
-598.055	618.056	0.041	-0.103
-597.040	-104.856	-0.271	-0.062
-596.025	-108.457	0.411	0.088
-595.011	-152.623	0.098	0.007
-593.996	183.009	0.147	-0.217
-592.982	-22.552	0.401	0.242
-591.967	800.000	0.094	0.366
-590.952	-200.000	0.019	-0.367
-589.938	29.658	-0.292	-0.248
-588.923	109.862	0.114	-0.137
-587.909	-121.000	-0.133	0.022
-586.894	38.440	0.239	-0.213
-585.879	584.860	0.139	-0.342
-584.865	-191.707	-0.102	-0.001
-583.850	-20.110	-0.256	0.158
-582.836	270.976	0.116	0.203
-581.821	800.000	0.084	0.250
-580.806	42.940	-0.099	-0.091
-579.792	-86.773	0.183	-0.056
-578.777	120.701	0.184	0.228
-577.763	178.824	-0.131	-0.191
-576.748	123.372	-0.280	-0.351
-575.733	-69.260	0.095	-0.037
-574.719	-62.820	0.243	0.100
-573.704	94.554	-0.073	-0.083
-572.690	65.654	-0.058	0.058
-571.675	-200.000	0.048	0.522
-570.661	-200.000	0.029	0.146
-569.646	743.617	0.052	-0.140
-568.631	-158.975	-0.186	0.011
-567.617	-98.287	0.363	-0.093
-566.602	51.913	-0.105	-0.099
-565.588	167.948	0.133	0.189
-564.573	-200.000	0.025	-0.139
-563.558	752.246	0.118	0.319
-562.544	799.004	0.102	0.280
-561.529	-83.727	-0.224	-0.071
-560.515	206.984	-0.174	0.270
-559.500	-4.926	0.111	0.076
-558.485	-47.007	0.084	0.041
-557.471	140.444	0.122	-0.160
-556.456	-55.785	0.155	-0.069
-555.442	-13.781	0.353	0.228
-554.427	-75.331	-0.180	-0.064
-553.412	-200.000	0.008	-0.344
-552.398	-111.195	-0.268	0.055
-551.383	-149.887	-0.140	0.011
-550.369	122.757	0.059	0.073
-549.354	800.000	-0.042	0.146
-548.339	-101.699	-0.404	0.098
-547.325	486.294	-0.025	0.058
-546.310	-200.000	0.026	-0.185
-545.296	25.293	0.223	-0.185
-544.281	-157.447	-0.231	0.014
-543.266	140.690	-0.122	-0.161
-542.252	32.317	-0.113	-0.097
-541.237	-200.000	0.017	-0.217
-540.223	-153.923	0.191	-0.013
-539.208	19.644	-0.094	0.075
-538.193	-9.221	-0.295	-0.196
-537.179	155.988	-0.130	0.178
-536.164	535.758	0.139	0.330
-535.150	-200.000	-0.193	0.000
-534.135	341.583	-0.155	-0.301
-533.121	-8.485	0.073	0.049
-532.106	-73.718	-0.223	-0.081
-531.091	800.000	-0.126	-0.442
-530.077	415.206	0.095	0.201
-529.062	186.763	-0.141	-0.209
-528.048	-63.699	-0.245	0.100
-527.033	15.245	-0.181	0.142
-526.018	-200.000	-0.005	0.303
-525.004	313.343	-0.080	0.149
-523.989	-80.518	-0.511	-0.170
-522.975	61.022	0.342	-0.338
-521.960	-172.358	-0.419	-0.013
-520.945	224.277	-0.077	-0.124
-519.931	800.000	0.011	-0.034
-518.916	-15.248	-0.324	0.207
-517.902	800.000	0.048	-0.186
-516.887	50.705	0.046	0.043
-515.872	-95.588	-0.276	-0.074
-514.858	-200.000	0.025	0.198
-513.843	-200.000	0.007	0.157
-512.829	89.436	-0.071	-0.078
-511.814	180.978	0.120	0.176
-510.799	248.257	0.144	-0.243
-509.785	158.615	0.099	0.137
-508.770	5.390	-0.063	0.046
-507.756	27.620	-0.269	0.225
-506.741	-200.000	-0.044	0.287
-505.726	-200.000	-0.031	0.180
-504.712	281.206	0.111	-0.198
-503.697	-99.805	0.173	-0.043
-502.683	-110.723	-0.055	0.011
-501.668	126.239	0.197	0.249
-500.653	247.467	-0.190	-0.320
-499.639	-200.000	0.025	0.182
-498.624	-77.663	-0.121	-0.042
-497.610	102.105	0.233	-0.271
-496.595	111.229	0.072	0.086
-495.581	303.596	0.167	-0.308
-494.566	-108.099	-0.283	-0.061
-493.551	335.910	-0.129	0.250
-492.537	-75.565	0.130	-0.046
-491.522	82.870	0.219	-0.237
-490.508	-45.719	0.339	0.167
-489.493	341.462	0.069	0.135
-488.478	-200.000	-0.015	0.269
-487.464	-145.758	-0.212	-0.019
-486.449	-69.938	0.323	0.122
-485.435	431.277	0.132	-0.284
-484.420	800.000	0.026	0.079
-483.405	13.851	-0.075	-0.058
-482.391	660.202	0.046	-0.118
-481.376	483.400	-0.068	-0.155
-480.362	-13.091	0.431	-0.278
-479.347	-200.000	-0.009	-0.042
-478.332	800.000	0.043	0.131
-477.318	651.368	-0.034	0.086
-476.303	109.106	0.182	-0.217
-475.289	91.805	0.105	0.118
-474.274	-200.000	0.000	-0.296
-473.259	-64.109	-0.253	-0.103
-472.245	2.038	-0.311	0.223
-471.230	800.000	0.044	-0.132
-470.216	800.000	-0.079	0.223
-469.201	-169.047	0.161	0.006
-468.186	546.593	-0.098	-0.233
-467.172	-186.126	0.257	0.004
-466.157	800.000	-0.057	0.185
-465.143	800.000	0.023	-0.065
-464.128	203.655	-0.173	-0.266
-463.113	109.710	-0.206	-0.245
-462.099	-145.377	-0.206	0.018
-461.084	2.760	-0.076	-0.055
-460.070	-23.259	-0.299	0.179
-459.055	341.699	0.181	0.352
-458.040	50.798	-0.232	0.219
-457.026	-80.380	-0.321	-0.106
-456.011	-158.603	0.276	-0.016
-454.997	800.000	0.036	-0.126
-453.982	683.662	0.091	0.235
-452.968	39.988	0.129	0.116
-451.953	-96.632	-0.188	-0.049
-450.938	-190.288	0.309	-0.003
-449.924	-73.651	-0.025	-0.009
-448.909	217.893	-0.196	-0.310
-447.895	-28.337	-0.152	0.087
-446.880	-177.254	-0.077	-0.002
-445.865	800.000	0.056	-0.165
-444.851	135.071	-0.106	0.137
-443.836	800.000	0.031	-0.123
-442.822	-200.000	-0.025	0.180
-441.807	-32.506	0.146	-0.081
-440.792	103.882	0.129	-0.150
-439.778	-49.513	-0.371	0.175
-438.763	46.952	0.014	-0.013
-437.749	11.322	-0.126	0.096
-436.734	-200.000	0.015	0.245
-435.719	7.084	-0.136	0.101
-434.705	-200.000	-0.013	-0.061
-433.690	-200.000	0.001	0.077
-432.676	270.576	0.107	0.188
-431.661	-51.314	0.264	-0.123
-430.646	67.904	-0.285	0.290
-429.632	-164.220	0.070	0.003
-428.617	-200.000	0.036	0.278
-427.603	-99.627	0.116	-0.029
-426.588	400.675	-0.121	-0.251
-425.573	270.959	-0.114	-0.200
-424.559	543.154	0.123	-0.292
-423.544	800.000	0.053	0.151
-422.530	133.952	-0.101	-0.130
-421.515	-110.573	0.275	-0.057
-420.500	-200.000	-0.001	-0.011
-419.486	-24.342	-0.113	-0.067
-418.471	26.672	-0.066	-0.055
-417.457	-200.000	-0.034	-0.190
-416.442	-18.447	0.115	0.071
-415.428	-114.098	0.111	0.021
-414.413	-200.000	-0.006	0.238
-413.398	-93.164	0.238	-0.066
-412.384	5.247	-0.258	-0.188
-411.369	-28.505	-0.249	0.143
-410.355	-67.297	0.069	0.027
-409.340	239.666	-0.191	-0.315
-408.325	-90.107	-0.346	0.100
-407.311	-138.681	-0.419	-0.045
-406.296	-75.416	0.222	0.078
-405.282	-200.000	0.002	0.298
-404.267	-78.764	-0.165	0.056
-403.252	800.000	-0.077	0.221
-402.238	266.665	-0.203	0.352
-401.223	-92.865	-0.238	-0.066
-400.209	-142.295	0.456	0.045
-399.194	-34.234	0.100	0.055
-398.179	55.099	-0.161	0.155
-397.165	229.471	0.075	-0.121
-396.150	-55.516	0.289	-0.128
-395.136	800.000	-0.100	-0.320
-394.121	348.902	0.032	-0.062
-393.106	-64.215	-0.242	0.098
-392.092	800.000	-0.053	-0.200
-391.077	14.970	-0.193	0.150
-390.063	76.520	0.280	-0.295
-389.048	800.000	-0.023	0.086
-388.033	-60.924	0.249	-0.104
-387.019	445.763	-0.167	-0.363
-386.004	318.291	-0.123	0.231
-384.990	188.821	0.102	0.151
-383.975	-200.000	-0.001	0.043
-382.960	18.561	0.153	-0.121
-381.946	-70.608	0.177	0.066
-380.931	-30.386	0.278	0.156
-379.917	-42.083	-0.200	-0.101
-378.902	-145.796	0.159	-0.014
-377.888	417.755	0.050	-0.107
-376.873	51.633	-0.268	0.253
-375.858	-119.449	0.132	0.023
-374.844	-200.000	0.001	0.242
-373.829	434.145	-0.128	-0.275
-372.815	-200.000	-0.019	0.275
-371.800	-31.602	0.306	0.170
-370.785	37.949	-0.099	0.088
-369.771	-115.184	0.040	0.008
-368.756	-200.000	0.051	0.252
-367.742	-80.023	-0.214	-0.071
-366.727	-111.295	-0.057	0.012
-365.712	-31.056	-0.286	0.160
-364.698	119.787	0.083	-0.102
-363.683	446.147	0.063	0.137
-362.669	-59.366	0.364	0.155
-361.654	189.490	-0.113	-0.167
-360.639	-200.000	0.056	0.348
-359.625	-200.000	0.042	-0.231
-358.610	46.406	0.291	-0.267
-357.596	-200.000	-0.007	-0.058
-356.581	-194.572	-0.239	0.002
-355.566	225.319	-0.042	0.067
-354.552	86.093	0.143	0.156
-353.537	60.642	0.102	-0.100
-352.523	211.122	0.196	0.305
-351.508	-115.896	-0.202	0.037
-350.493	22.503	0.064	-0.051
-349.479	-200.000	0.004	-0.262
-348.464	112.259	-0.092	-0.111
-347.450	-172.985	0.209	0.006
-346.435	-37.982	-0.138	0.072
-345.420	-58.657	-0.059	-0.025
-344.406	-200.000	0.012	0.255
-343.391	-96.791	0.273	0.071
-342.377	9.651	-0.266	0.199
-341.362	-200.000	0.009	-0.059
-340.348	-18.444	-0.512	-0.316
-339.333	3.271	0.250	-0.180
-338.318	0.262	-0.184	0.130
-337.304	-97.207	0.230	-0.059
-336.289	-200.000	0.028	0.273
-335.275	18.190	-0.040	-0.032
-334.260	291.967	-0.103	0.185
-333.245	-132.542	-0.127	-0.016
-332.231	490.231	0.097	-0.219
-331.216	27.803	0.185	0.155
-330.202	515.360	-0.093	-0.215
-329.187	74.971	-0.299	-0.312
-328.172	800.000	0.016	-0.049
-327.158	0.910	0.018	-0.013
-326.143	244.443	-0.119	0.198
-325.129	-114.332	0.217	0.041
-324.114	800.000	0.099	0.284
-323.099	202.287	0.124	-0.190
-322.085	126.936	-0.141	0.176
-321.070	-200.000	-0.004	-0.097
-320.056	119.850	-0.264	0.323
-319.041	-63.206	-0.180	-0.073
-318.026	-66.165	-0.280	-0.110
-317.012	18.721	0.388	-0.307
-315.997	770.894	0.106	0.286
-314.983	224.261	0.049	0.079
-313.968	276.610	-0.082	0.144
-312.953	-105.611	0.400	0.090
-311.939	-87.708	-0.116	0.035
-310.924	165.597	-0.077	-0.108
-309.910	184.652	-0.012	-0.018
-308.895	152.080	0.152	-0.205
-307.880	-33.248	0.283	-0.155
-306.866	39.642	-0.165	-0.146
-305.851	21.761	0.240	-0.193
-304.837	-124.640	0.141	0.022
-303.822	564.739	-0.196	-0.470
-302.807	244.097	-0.169	0.279
-301.793	-72.538	-0.138	0.050
-300.778	-200.000	-0.003	-0.113
-299.764	88.959	0.177	0.195
-298.749	800.000	-0.016	0.055
-297.735	-200.000	0.027	-0.121
-296.720	800.000	0.061	0.173
-295.705	-130.342	0.451	-0.060
-294.691	-47.135	-0.187	0.090
-293.676	800.000	-0.116	-0.446
-292.662	-199.375	0.149	0.001
-291.647	-102.974	0.105	-0.025
-290.632	800.000	0.068	-0.221
-289.618	800.000	0.065	-0.228
-288.603	164.729	-0.194	-0.271
-287.589	800.000	0.053	-0.169
-286.574	6.242	0.113	0.083
-285.559	-30.276	0.169	0.095
-284.545	69.200	-0.339	0.344
-283.530	21.058	0.247	0.197
-282.516	-93.886	-0.233	0.063
-281.501	-200.000	0.005	-0.033
-280.486	95.532	-0.134	-0.151
-279.472	-200.000	-0.118	0.565
-278.457	29.671	0.149	-0.125
-277.443	-200.000	0.021	-0.091
-276.428	0.504	-0.252	-0.178
-275.413	-200.000	-0.011	0.055
-274.399	-142.413	0.131	-0.013
-273.384	-51.582	0.162	-0.074
-272.370	-200.000	0.098	0.533
-271.355	-200.000	-0.074	0.428
-270.340	156.835	-0.184	0.251
-269.326	80.926	-0.269	0.287
-268.311	96.445	-0.088	-0.100
-267.297	38.548	-0.280	-0.246
-266.282	177.174	-0.053	-0.077
-265.267	158.351	0.036	-0.049
-264.253	226.049	-0.089	0.143
-263.238	83.006	-0.183	0.196
-262.224	-57.496	-0.049	0.021
-261.209	384.573	-0.158	0.320
-260.195	551.060	-0.077	0.181
-259.180	-88.765	-0.203	-0.059
-258.165	-111.861	-0.350	-0.070
-257.151	-48.452	0.192	-0.091
-256.136	-6.567	-0.126	-0.085
-255.122	97.040	-0.071	-0.080
-254.107	-200.000	0.021	0.136
-253.092	188.330	-0.050	-0.074
-252.078	-14.647	0.226	0.143
-251.063	800.000	0.058	0.168
-250.049	-132.550	-0.351	-0.044
-249.034	24.406	-0.109	0.089
-248.019	178.613	0.224	-0.322
-247.005	3.252	0.093	-0.066
-245.990	800.000	0.015	-0.052
-244.976	-38.808	0.161	-0.084
-243.961	143.602	-0.149	-0.196
-242.946	-95.369	0.051	-0.013
-241.932	149.007	0.248	-0.331
-240.917	-200.000	-0.026	-0.268
-239.903	138.892	0.164	-0.212
-238.888	-65.420	0.079	-0.031
-237.873	202.165	-0.040	0.061
-236.859	464.236	-0.058	-0.129
-235.844	-200.000	-0.005	0.361
-234.830	-200.000	-0.005	0.191
-233.815	13.581	0.206	-0.158
-232.800	37.270	0.096	-0.084
-231.786	-200.000	-0.036	-0.198
-230.771	26.147	0.247	-0.203
-229.757	-130.374	0.213	-0.028
-228.742	800.000	-0.099	-0.337
-227.727	-38.434	-0.210	0.109
-226.713	-140.586	0.268	0.027
-225.698	30.418	-0.123	0.104
-224.684	337.178	-0.146	-0.280
-223.669	-136.428	0.274	-0.031
-222.655	21.467	0.070	0.056
-221.640	541.616	0.168	0.394
-220.625	-154.292	0.137	-0.009
-219.611	-75.093	-0.140	-0.049
-218.596	-28.887	-0.065	-0.037
-217.582	-200.000	0.023	-0.124
-216.567	12.338	0.245	0.186
-215.552	800.000	0.115	0.478
-214.538	90.193	0.156	-0.172
-213.523	-7.092	-0.208	-0.139
-212.509	-16.969	-0.099	-0.062
-211.494	-200.000	0.035	0.222
-210.479	230.912	-0.211	-0.341
-209.465	-19.489	-0.249	0.152
-208.450	600.403	-0.009	0.022
-207.436	800.000	-0.070	-0.294
-206.421	88.412	0.174	-0.190
-205.406	-35.481	0.109	0.058
-204.392	-90.165	0.281	-0.080
-203.377	-134.041	0.299	-0.036
-202.363	-144.462	-0.305	-0.028
-201.348	-102.903	-0.128	0.030
-200.333	72.220	0.303	-0.310
-199.319	32.206	-0.226	0.192
-198.304	-130.468	-0.273	-0.036
-197.290	422.777	-0.095	0.201
-196.275	-200.000	-0.002	0.167
-195.260	800.000	0.056	0.161
-194.246	-77.498	-0.196	0.067
-193.231	-27.711	0.209	0.119
-192.217	-40.306	0.104	0.053
-191.202	458.389	-0.076	0.166
-190.187	-94.614	0.071	0.019
-189.173	6.980	0.046	-0.033
-188.158	-200.000	-0.057	-0.449
-187.144	5.563	0.227	0.165
-186.129	-25.210	-0.026	0.015
-185.114	88.453	0.238	0.260
-184.100	-13.413	-0.079	-0.050
-183.085	-96.687	0.277	0.072
-182.071	-200.000	0.026	-0.232
-181.056	-9.496	-0.115	0.076
-180.042	310.902	-0.066	-0.121
-179.027	-63.218	0.333	-0.135
-178.012	-200.000	0.085	-0.458
-176.998	3.964	0.219	-0.158
-175.983	664.601	-0.041	-0.105
-174.969	-200.000	0.007	0.178
-173.954	-77.566	-0.322	-0.110
-172.939	6.320	0.259	-0.189
-171.925	-36.532	-0.085	-0.045
-170.910	101.037	0.145	-0.165
-169.896	45.060	0.184	-0.167
-168.881	-81.180	0.180	-0.059
-167.866	-153.579	0.340	0.023
-166.852	765.680	-0.033	0.089
-165.837	172.065	0.139	0.196
-164.823	104.109	-0.120	0.138
-163.808	107.299	0.156	0.182
-162.793	-103.732	0.136	0.031
-161.779	572.489	0.105	-0.252
-160.764	145.379	0.232	-0.306
-159.750	-200.000	-0.020	0.273
-158.735	138.166	0.056	-0.073
-157.720	-73.122	-0.161	-0.058
-156.706	82.871	-0.123	0.132
-155.691	127.022	0.072	-0.090
-154.677	0.387	0.076	0.054
-153.662	74.061	-0.139	-0.143
-152.647	670.582	-0.094	0.240
-151.633	-103.847	0.121	0.028
-150.618	800.000	-0.066	0.280
-149.604	-45.457	-0.219	0.107
-148.589	-65.258	0.464	-0.184
-147.574	-107.833	0.129	0.028
-146.560	328.552	-0.079	-0.149
-145.545	85.506	-0.035	-0.038
-144.531	74.362	0.170	0.176
-143.516	-125.175	-0.095	-0.014
-142.502	62.415	0.122	-0.120
-141.487	-200.000	0.027	-0.192
-140.472	-113.870	-0.183	-0.035
-139.458	-164.084	-0.335	0.015
-138.443	-115.581	0.080	-0.015
-137.429	800.000	0.087	0.320
-136.414	88.583	-0.086	0.093
-135.399	800.000	-0.078	0.214
-134.385	-200.000	-0.027	0.211
-133.370	355.577	-0.028	0.055
-132.356	518.611	0.173	0.398
-131.341	35.799	-0.071	0.062
-130.326	71.793	-0.207	-0.211
-129.312	383.054	0.133	-0.267
-128.297	106.029	0.149	0.173
-127.283	-200.000	-0.040	0.316
-126.268	-114.200	-0.204	0.039
-125.253	-93.415	-0.135	-0.037
-124.239	29.689	0.258	0.215
-123.224	-149.220	-0.096	0.008
-122.210	-130.760	0.350	-0.046
-121.195	-131.855	0.361	0.046
-120.180	271.770	-0.113	0.196
