DTS Sentinel unit serial number:	SN413079Multiplexer serial number:	ORYXHardware model number:	OX4-SRSoftware version number:	ORYX F/W v4.00 Oryx Data Collector v3.7.2.0data status	okinstallation	princeton_trtdifferential loss correction	single-endedforward channel	channel 4reverse channel	N/Adate	2019/09/19time	15:37:35forward acquisition time	60.00reverse acquisition time	0.00gamma	496.2192k internal	0.2299k external	0.2299temperature offset calibration	1.0024default loss term (dB/km)	0.3790temperature slope calibration	1.0000multiplexer offset coefficient	1.0000multiplexer slope coefficient	1.0000fibre end	0.00T internal ref (°C)	34.37T ext. ref 1 (°C)	1.16T ext. ref 2 (°C)	32.13length (m)	temperature (°C)	Stokes	anti-Stokes-747.200	303.014	0.111	-0.210
-746.185	-92.066	-0.225	0.065
-745.171	196.952	-0.069	0.107
-744.156	-149.622	-0.311	-0.025
-743.142	-57.950	0.145	0.065
-742.127	-200.000	-0.004	0.542
-741.112	800.000	0.020	-0.069
-740.098	283.069	-0.166	0.304
-739.083	-23.485	0.147	0.090
-738.069	39.378	-0.427	0.390
-737.054	-200.000	-0.033	0.207
-736.039	-200.000	0.002	0.365
-735.025	-91.036	-0.018	-0.005
-734.010	47.745	-0.246	-0.234
-732.996	-69.771	-0.145	-0.057
-731.981	-200.000	-0.012	-0.196
-730.966	-103.549	-0.477	0.114
-729.952	-56.608	-0.475	0.214
-728.937	-200.000	-0.014	-0.063
-727.923	-44.941	-0.151	-0.077
-726.908	-9.090	-0.274	-0.187
-725.894	-19.350	-0.346	-0.219
-724.879	116.472	0.152	-0.190
-723.864	80.935	0.115	0.127
-722.850	-200.000	0.036	-0.184
-721.835	-68.054	0.070	-0.028
-720.821	-200.000	0.023	-0.164
-719.806	-115.822	-0.382	0.073
-718.791	-32.482	0.115	-0.065
-717.777	103.997	-0.133	-0.159
-716.762	800.000	0.082	0.255
-715.748	-23.381	-0.166	0.102
-714.733	800.000	0.075	0.277
-713.718	285.223	0.167	0.306
-712.704	2.943	-0.097	-0.071
-711.689	800.000	0.062	-0.225
-710.675	88.798	0.058	-0.066
-709.660	-200.000	-0.026	-0.146
-708.645	223.990	-0.176	0.289
-707.631	-22.693	0.192	-0.118
-706.616	800.000	-0.045	0.131
-705.602	14.918	-0.390	-0.311
-704.587	-155.683	0.158	-0.010
-703.572	800.000	-0.086	0.335
-702.558	536.488	0.082	-0.198
-701.543	12.529	0.132	0.104
-700.529	19.959	-0.177	0.145
-699.514	193.386	0.112	-0.172
-698.499	643.624	0.111	-0.289
-697.485	-200.000	0.019	-0.094
-696.470	651.817	0.145	0.378
-695.456	56.974	0.167	0.166
-694.441	-108.262	0.280	0.062
-693.426	-108.723	-0.174	-0.038
-692.412	81.465	-0.235	-0.258
-691.397	-148.918	0.223	0.018
-690.383	101.000	0.186	0.220
-689.368	61.076	-0.130	-0.131
-688.354	-114.269	0.274	0.054
-687.339	-81.989	-0.099	0.033
-686.324	-51.464	0.090	0.043
-685.310	-136.911	0.162	-0.019
-684.295	-32.880	-0.184	-0.104
-683.281	-200.000	0.007	0.137
-682.266	-85.988	0.321	-0.101
-681.251	15.885	-0.139	-0.111
-680.237	-200.000	-0.047	-0.326
-679.222	-200.000	0.033	-0.211
-678.208	63.082	0.024	0.025
-677.193	-145.311	-0.189	0.017
-676.178	758.122	0.248	0.685
-675.164	-75.724	0.198	0.072
-674.149	800.000	0.089	-0.315
-673.135	23.251	0.104	-0.087
-672.120	-122.739	-0.066	-0.011
-671.105	-110.344	0.410	0.087
-670.091	105.897	-0.180	-0.216
-669.076	349.258	0.139	0.278
-668.062	-29.934	0.128	-0.074
-667.047	-57.727	0.224	-0.100
-666.032	800.000	0.062	-0.246
-665.018	-200.000	-0.049	-0.316
-664.003	182.980	0.199	0.299
-662.989	-32.923	0.321	-0.181
-661.974	-53.260	-0.493	0.230
-660.959	-63.500	-0.287	-0.120
-659.945	-74.404	-0.388	0.142
-658.930	-160.738	0.090	-0.005
-657.916	-19.191	-0.216	0.136
-656.901	-126.772	-0.153	0.023
-655.886	-110.743	0.140	-0.029
-654.872	-106.088	-0.319	0.073
-653.857	-200.000	-0.050	0.000
-652.843	-200.000	0.007	-0.112
-651.828	-140.994	-0.212	0.022
-650.814	-133.758	-0.209	-0.027
-649.799	69.988	0.147	-0.155
-648.784	412.299	-0.122	-0.263
-647.770	94.286	-0.113	-0.131
-646.755	-200.000	-0.061	-0.349
-645.741	-200.000	0.042	-0.284
-644.726	-48.256	0.107	0.053
-643.711	61.425	0.079	-0.080
-642.697	106.468	-0.041	-0.049
-641.682	-200.000	0.057	-0.424
-640.668	-200.000	-0.024	-0.137
-639.653	683.925	0.057	0.152
-638.638	79.708	0.050	-0.055
-637.624	-200.000	-0.030	-0.508
-636.609	-132.602	-0.427	-0.056
-635.595	-188.100	0.316	-0.004
-634.580	-98.913	-0.168	-0.043
-633.565	-84.373	0.251	-0.081
-632.551	-22.188	-0.082	0.050
-631.536	34.816	0.120	0.106
-630.522	417.565	-0.081	-0.176
-629.507	-148.990	-0.212	-0.017
-628.492	-137.665	0.207	-0.024
-627.478	2.782	-0.075	0.055
-626.463	-200.000	-0.025	0.192
-625.449	584.431	-0.144	0.360
-624.434	-131.244	-0.044	-0.006
-623.419	-139.703	0.135	0.015
-622.405	-131.629	0.084	-0.011
-621.390	-80.867	-0.677	0.228
-620.376	-191.314	-0.210	-0.002
-619.361	110.288	0.219	-0.267
-618.346	-200.000	0.006	0.160
-617.332	56.739	-0.054	-0.053
-616.317	-200.000	-0.003	0.193
-615.303	291.491	-0.012	-0.022
-614.288	-105.374	0.317	-0.073
-613.273	416.601	0.135	-0.293
-612.259	15.534	-0.246	0.196
-611.244	-200.000	0.017	0.235
-610.230	-200.000	-0.063	-0.344
-609.215	66.894	-0.135	0.139
-608.201	-153.544	0.189	0.013
-607.186	56.906	-0.127	0.126
-606.171	114.425	-0.113	0.140
-605.157	377.984	0.059	0.123
-604.142	-117.002	0.327	0.061
-603.128	303.350	0.196	-0.368
-602.113	-200.000	-0.034	-0.425
-601.098	-142.101	-0.111	0.011
-600.084	-94.368	0.182	-0.051
-599.069	454.987	-0.032	-0.072
-598.055	-74.151	-0.227	0.083
-597.040	-16.385	0.286	-0.184
-596.025	-200.000	0.008	-0.185
-595.011	-93.936	0.099	0.028
-593.996	-77.830	0.213	0.075
-592.982	-49.954	0.230	0.111
-591.967	-82.645	0.213	0.070
-590.952	48.281	-0.273	0.259
-589.938	800.000	-0.094	0.296
-588.923	217.397	0.081	-0.131
-587.909	-200.000	0.048	-0.286
-586.894	233.352	-0.266	-0.444
-585.879	-200.000	-0.048	0.216
-584.865	-180.227	-0.276	-0.006
-583.850	119.310	0.179	0.225
-582.836	-115.242	0.082	-0.016
-581.821	-28.104	-0.307	0.180
-580.806	-105.238	0.086	-0.020
-579.792	-80.217	-0.139	0.047
-578.777	-18.733	-0.200	-0.126
-577.763	-103.815	0.185	0.044
-576.748	-66.109	-0.404	-0.163
-575.733	34.640	0.149	-0.132
-574.719	800.000	-0.161	-0.475
-573.704	106.655	0.063	0.076
-572.690	550.349	-0.119	-0.289
-571.675	-36.284	-0.233	-0.127
-570.661	225.664	0.196	-0.322
-569.646	-200.000	0.031	0.219
-568.631	178.811	0.336	0.497
-567.617	144.474	0.070	0.095
-566.602	-166.550	0.148	0.006
-565.588	-200.000	-0.006	0.132
-564.573	30.878	0.071	-0.062
-563.558	793.654	-0.112	-0.312
-562.544	367.205	0.054	-0.110
-561.529	252.289	0.140	-0.242
-560.515	-87.943	-0.132	-0.040
-559.500	800.000	0.095	0.327
-558.485	-81.078	0.186	0.062
-557.471	-47.507	-0.376	0.185
-556.456	800.000	-0.083	-0.235
-555.442	-52.756	0.266	-0.124
-554.427	191.649	0.044	0.067
-553.412	87.720	-0.177	0.198
-552.398	800.000	-0.100	-0.367
-551.383	-193.407	-0.331	-0.003
-550.369	449.979	-0.065	-0.144
-549.354	416.601	0.130	0.281
-548.339	114.152	0.127	0.156
-547.325	800.000	0.018	-0.077
-546.310	-189.483	-0.255	0.003
-545.296	-199.893	0.214	0.001
-544.281	-18.743	-0.140	0.089
-543.266	743.371	-0.051	-0.140
-542.252	-190.262	0.257	0.003
-541.237	216.342	0.093	-0.150
-540.223	-63.770	0.212	-0.088
-539.208	800.000	-0.031	0.136
-538.193	-161.552	-0.170	-0.009
-537.179	-200.000	-0.039	-0.310
-536.164	-185.890	-0.155	-0.002
-535.150	800.000	-0.021	0.092
-534.135	-101.156	0.318	-0.079
-533.121	746.041	0.091	0.248
-532.106	-200.000	-0.001	0.282
-531.091	-200.000	0.004	-0.209
-530.077	10.669	-0.237	-0.183
-529.062	800.000	0.041	0.167
-528.048	-200.000	0.019	-0.255
-527.033	-200.000	-0.015	0.183
-526.018	4.153	0.263	-0.195
-525.004	800.000	0.049	-0.145
-523.989	-16.582	0.165	0.106
-522.975	-102.316	-0.146	-0.035
-521.960	-200.000	0.034	-0.272
-520.945	-40.179	-0.109	-0.057
-519.931	51.061	0.242	0.232
-518.916	-156.012	-0.212	-0.014
-517.902	-54.904	0.133	0.061
-516.887	58.609	-0.314	0.312
-515.872	216.511	0.095	-0.152
-514.858	159.340	0.210	-0.296
-513.843	157.157	0.156	-0.218
-512.829	-200.000	0.073	0.338
-511.814	5.983	-0.171	0.128
-510.799	126.078	0.134	0.171
-509.785	800.000	-0.049	0.166
-508.770	800.000	-0.038	-0.128
-507.756	-150.875	0.145	-0.011
-506.741	-12.564	-0.067	-0.044
-505.726	-200.000	0.001	0.259
-504.712	29.702	-0.194	-0.167
-503.697	-200.000	-0.006	0.151
-502.683	-89.950	0.188	-0.056
-501.668	800.000	-0.052	-0.228
-500.653	-200.000	0.005	0.071
-499.639	-200.000	-0.053	0.251
-498.624	-200.000	0.002	0.029
-497.610	800.000	-0.061	-0.180
-496.595	-200.000	0.035	-0.254
-495.581	180.994	-0.155	-0.231
-494.566	95.667	0.152	0.175
-493.551	698.884	0.083	0.221
-492.537	88.679	-0.138	0.155
-491.522	-200.000	-0.035	0.469
-490.508	34.372	-0.352	-0.310
-489.493	-106.339	0.357	-0.081
-488.478	-94.476	-0.208	-0.057
-487.464	-119.427	0.187	-0.033
-486.449	-200.000	-0.019	0.132
-485.435	-178.307	-0.297	0.007
-484.420	-200.000	0.002	-0.068
-483.405	-200.000	-0.065	-0.299
-482.391	180.889	-0.095	0.141
-481.376	-54.168	0.046	-0.021
-480.362	800.000	0.062	-0.210
-479.347	800.000	0.085	-0.339
-478.332	614.315	-0.091	-0.230
-477.318	123.015	-0.036	0.045
-476.303	-91.418	0.149	0.043
-475.289	-79.040	-0.155	0.053
-474.274	-95.686	-0.138	-0.037
-473.259	249.527	-0.168	0.288
-472.245	-59.293	0.217	0.094
-471.230	-160.863	-0.190	0.010
-470.216	-76.824	-0.169	0.060
-469.201	138.086	0.215	0.284
-468.186	123.385	0.121	-0.153
-467.172	-34.494	0.257	0.142
-466.157	-4.686	-0.186	-0.130
-465.143	-21.873	-0.138	-0.085
-464.128	-26.963	0.093	-0.055
-463.113	235.813	-0.097	0.161
-462.099	55.707	0.237	0.232
-461.084	267.804	0.251	0.443
-460.070	-9.202	-0.170	-0.115
-459.055	800.000	-0.141	0.467
-458.040	800.000	0.083	0.262
-457.026	169.459	0.220	-0.317
-456.011	146.009	0.015	-0.020
-454.997	-42.585	0.309	0.159
-453.982	145.467	-0.224	0.303
-452.968	682.610	-0.059	0.156
-451.953	326.420	0.050	-0.096
-450.938	-37.686	0.240	0.129
-449.924	-121.136	0.101	0.017
-448.909	800.000	0.046	-0.139
-447.895	-159.665	0.089	0.005
-446.880	600.553	0.089	0.223
-445.865	800.000	0.056	-0.233
-444.851	7.858	-0.272	-0.205
-443.836	800.000	-0.103	0.347
-442.822	502.156	-0.044	0.103
-441.807	-13.602	-0.190	0.124
-440.792	68.101	-0.030	0.031
-439.778	-110.644	0.056	0.012
-438.763	119.281	0.109	0.135
-437.749	-23.425	-0.232	0.141
-436.734	-23.394	-0.170	0.103
-435.719	358.609	0.131	-0.264
-434.705	800.000	-0.034	-0.136
-433.690	92.148	0.112	-0.127
-432.676	-200.000	0.034	-0.232
-431.661	-106.703	0.368	0.082
-430.646	18.268	-0.131	-0.106
-429.632	-98.311	0.108	0.028
-428.617	-0.479	0.170	-0.121
-427.603	-200.000	0.042	-0.434
-426.588	800.000	0.064	-0.201
-425.573	-143.133	-0.138	-0.013
-424.559	152.364	-0.032	-0.044
-423.544	46.641	0.216	-0.202
-422.530	74.519	-0.383	0.406
-421.515	71.328	-0.108	0.113
-420.500	-200.000	-0.021	0.157
-419.486	-44.625	0.058	-0.029
-418.471	-200.000	-0.034	-0.324
-417.457	-100.288	0.202	0.050
-416.442	-200.000	0.065	0.293
-415.428	-107.874	-0.134	-0.029
-414.413	350.057	0.234	0.466
-413.398	-200.000	0.047	-0.227
-412.384	167.328	0.154	-0.220
-411.369	115.422	0.128	-0.157
-410.355	220.162	0.044	-0.072
-409.340	-200.000	-0.048	0.213
-408.325	-88.690	-0.191	0.057
-407.311	-129.794	-0.091	0.013
-406.296	21.504	0.183	0.150
-405.282	-178.738	-0.157	0.004
-404.267	-23.263	-0.302	-0.183
-403.252	-200.000	-0.013	-0.275
-402.238	800.000	-0.086	0.253
-401.223	-200.000	-0.082	0.530
-400.209	-47.434	0.294	0.144
-399.194	299.172	-0.040	0.073
-398.179	298.156	0.081	-0.150
-397.165	-200.000	0.019	0.277
-396.150	651.948	-0.049	0.126
-395.136	-36.636	0.263	-0.142
-394.121	800.000	-0.036	0.120
-393.106	-144.702	0.063	0.006
-392.092	183.942	-0.238	0.355
-391.077	-59.406	-0.161	-0.070
-390.063	12.080	-0.242	-0.187
-389.048	-200.000	-0.027	0.145
-388.033	113.450	-0.159	-0.195
-387.019	226.394	-0.147	-0.241
-386.004	-102.441	-0.464	0.112
-384.990	78.901	0.078	0.084
-383.975	800.000	0.042	-0.159
-382.960	-200.000	0.002	-0.030
-381.946	235.735	-0.099	0.164
-380.931	-31.597	-0.110	-0.062
-379.917	-5.974	-0.402	0.276
-378.902	197.611	0.079	-0.121
-377.888	-80.296	0.286	-0.096
-376.873	210.503	-0.100	0.157
-375.858	-200.000	0.008	-0.199
-374.844	24.144	0.262	0.217
-373.829	-118.777	0.116	0.021
-372.815	2.595	0.121	-0.088
-371.800	189.428	0.135	-0.203
-370.785	-200.000	-0.017	0.128
-369.771	-134.715	0.077	-0.009
-368.756	153.033	0.046	-0.064
-367.742	-156.880	0.093	-0.006
-366.727	-41.605	-0.335	0.173
-365.712	163.411	-0.045	-0.063
-364.698	279.359	0.207	-0.371
-363.683	343.695	-0.015	-0.030
-362.669	157.638	-0.023	0.032
-361.654	-53.407	-0.205	-0.094
-360.639	-139.494	0.457	0.049
-359.625	164.948	-0.245	-0.348
-358.610	-81.862	-0.198	0.065
-357.596	85.512	0.059	0.065
-356.581	102.383	-0.053	-0.062
-355.566	800.000	-0.056	-0.233
-354.552	31.109	-0.173	0.149
-353.537	22.831	0.143	-0.118
-352.523	185.707	0.122	0.183
-351.508	374.189	-0.072	-0.147
-350.493	261.094	0.043	0.075
-349.479	-15.471	-0.210	0.135
-348.464	-111.561	-0.221	-0.045
-347.450	-200.000	0.002	0.017
-346.435	-89.935	-0.134	-0.039
-345.420	59.156	0.301	0.297
-344.406	-200.000	-0.051	0.317
-343.391	397.190	0.071	-0.149
-342.377	7.334	-0.080	0.060
-341.362	33.775	-0.352	0.308
-340.348	-200.000	0.145	0.000
-339.333	39.284	-0.291	-0.261
-338.318	-45.401	-0.183	-0.091
-337.304	-160.560	0.183	0.010
-336.289	-200.000	-0.003	-0.024
-335.275	330.292	0.018	0.034
-334.260	622.099	-0.060	0.153
-333.245	-200.000	-0.013	0.101
-332.231	6.212	-0.149	0.111
-331.216	359.067	0.077	-0.155
-330.202	-200.000	0.048	0.327
-329.187	-200.000	-0.028	-0.229
-328.172	-113.737	-0.495	-0.097
-327.158	-20.878	0.047	-0.029
-326.143	264.372	0.144	0.251
-325.129	148.433	0.069	-0.093
-324.114	-200.000	0.024	-0.274
-323.099	319.195	0.119	0.226
-322.085	-200.000	0.048	0.337
-321.070	800.000	-0.034	-0.146
-320.056	284.022	0.103	0.187
-319.041	-200.000	0.017	0.147
-318.026	56.245	0.112	-0.109
-317.012	468.589	-0.059	0.133
-315.997	3.057	0.246	0.180
-314.983	-200.000	0.029	0.143
-313.968	760.562	-0.065	-0.176
-312.953	-34.891	-0.111	-0.061
-311.939	-18.341	0.301	-0.189
-310.924	800.000	-0.050	-0.212
-309.910	192.272	-0.138	0.208
-308.895	375.989	0.109	0.223
-307.880	-92.370	-0.411	0.116
-306.866	-182.574	-0.318	0.006
-305.851	47.092	0.105	0.098
-304.837	15.137	-0.414	-0.326
-303.822	198.539	-0.151	-0.232
-302.807	-14.655	0.134	0.087
-301.793	800.000	0.012	0.045
-300.778	-8.314	-0.089	-0.060
-299.764	-121.721	-0.156	0.026
-298.749	38.558	0.296	-0.265
-297.735	-36.701	-0.200	0.108
-296.720	-128.439	0.245	0.035
-295.705	-21.855	-0.364	0.222
-294.691	-200.000	0.012	0.172
-293.676	-100.044	0.030	-0.008
-292.662	49.451	-0.051	0.048
-291.647	-200.000	0.004	-0.148
-290.632	-8.400	-0.095	0.064
-289.618	-146.642	-0.040	-0.004
-288.603	-97.373	0.385	0.100
-287.589	-28.189	0.272	0.158
-286.574	-53.755	-0.074	0.034
-285.559	279.377	0.088	-0.157
-284.545	-200.000	0.033	-0.365
-283.530	-21.582	-0.203	0.124
-282.516	462.001	-0.087	0.194
-281.501	156.327	0.157	-0.218
-280.486	-200.000	0.097	-0.463
-279.472	-2.834	0.032	-0.022
-278.457	-10.179	-0.166	0.110
-277.443	-200.000	-0.002	-0.099
-276.428	-147.812	0.216	-0.018
-275.413	-9.122	-0.106	0.071
-274.399	83.469	-0.154	0.169
-273.384	-200.000	0.048	0.315
-272.370	-200.000	-0.004	0.042
-271.355	-119.000	-0.186	-0.033
-270.340	-29.344	0.208	0.119
-269.326	-21.379	0.128	-0.078
-268.311	-121.589	0.148	0.025
-267.297	-70.423	-0.084	-0.032
-266.282	344.570	-0.044	0.087
-265.267	-200.000	0.026	0.149
-264.253	343.399	-0.189	0.370
-263.238	64.562	-0.054	-0.054
-262.224	-200.000	0.009	0.198
-261.209	165.608	-0.116	-0.164
-260.195	-200.000	-0.046	0.355
-259.180	-51.367	0.089	0.042
-258.165	7.309	-0.422	0.315
-257.151	-200.000	-0.066	-0.308
-256.136	-200.000	0.012	0.056
-255.122	-97.111	0.259	-0.068
-254.107	800.000	-0.084	0.253
-253.092	664.253	0.119	-0.308
-252.078	-43.945	-0.153	0.077
-251.063	79.018	-0.117	-0.125
-250.049	39.360	0.185	0.166
-249.034	657.748	-0.025	-0.065
-248.019	230.060	0.176	0.288
-247.005	168.628	-0.381	-0.543
-245.990	-17.246	-0.156	-0.098
-244.976	800.000	-0.047	0.193
-243.961	134.822	0.087	-0.113
-242.946	-7.342	0.207	-0.140
-241.932	-200.000	0.006	-0.250
-240.917	419.950	0.100	-0.215
-239.903	10.052	-0.054	0.041
-238.888	73.027	-0.018	-0.018
-237.873	-200.000	0.000	-0.049
-236.859	-0.162	0.402	0.286
-235.844	223.053	-0.057	0.092
-234.830	-200.000	-0.020	0.187
-233.815	-49.007	0.199	0.095
-232.800	-56.708	0.232	-0.103
-231.786	-42.699	-0.048	0.025
-230.771	-55.132	-0.167	-0.075
-229.757	800.000	0.082	-0.299
-228.742	-57.370	0.184	0.081
-227.727	800.000	-0.012	-0.043
-226.713	108.796	0.159	-0.190
-225.698	49.733	0.245	-0.230
-224.684	-200.000	0.038	0.342
-223.669	-18.276	-0.223	0.139
-222.655	419.793	-0.120	0.257
-221.640	493.062	-0.083	-0.190
-220.625	-75.616	0.254	0.090
-219.611	604.205	0.055	0.137
-218.596	156.250	-0.132	-0.182
-217.582	-65.006	0.219	-0.089
-216.567	-200.000	0.048	0.379
-215.552	-118.868	-0.159	-0.028
-214.538	-91.058	-0.449	-0.129
-213.523	34.827	0.196	0.171
-212.509	-52.170	0.281	0.130
-211.494	-200.000	-0.016	0.074
-210.479	-200.000	-0.002	-0.080
-209.465	87.719	0.015	-0.016
-208.450	5.061	-0.143	0.105
-207.436	800.000	-0.042	0.149
-206.421	-200.000	0.055	-0.301
-205.406	160.293	-0.082	0.114
-204.392	-61.068	0.232	-0.098
-203.377	-30.562	-0.279	0.158
-202.363	-16.483	0.342	0.216
-201.348	404.183	0.095	0.199
-200.333	137.363	0.176	-0.230
-199.319	31.865	-0.238	-0.205
-198.304	-16.941	0.157	0.099
-197.290	504.043	-0.096	0.221
-196.275	800.000	0.047	-0.164
-195.260	-32.761	-0.151	-0.084
-194.246	800.000	0.040	-0.118
-193.231	800.000	-0.049	-0.188
-192.217	4.848	-0.207	0.152
-191.202	-127.413	0.251	0.037
-190.187	49.458	-0.210	-0.198
-189.173	-50.917	-0.198	-0.093
-188.158	800.000	0.098	-0.298
-187.144	-77.011	0.238	0.083
-186.129	46.420	0.232	-0.215
-185.114	-200.000	0.090	-0.568
-184.100	263.894	0.143	-0.248
-183.085	-141.929	0.132	-0.013
-182.071	-200.000	0.011	-0.121
-181.056	-31.831	-0.089	0.050
-180.042	-28.666	0.276	0.158
-179.027	64.268	0.036	0.036
-178.012	179.000	-0.157	0.229
-176.998	356.041	-0.127	-0.253
-175.983	-135.261	-0.145	-0.017
-174.969	-200.000	0.012	0.157
-173.954	800.000	0.020	0.082
-172.939	188.333	0.071	-0.106
-171.925	182.394	-0.309	-0.455
-170.910	-17.466	0.223	0.140
-169.896	-97.924	0.362	-0.093
-168.881	-52.759	-0.175	0.080
-167.866	-125.051	-0.095	-0.014
-166.852	106.391	-0.212	0.250
-165.837	-200.000	0.072	0.428
-164.823	-67.127	0.347	0.137
-163.808	20.667	0.177	0.143
-162.793	226.790	-0.192	0.311
-161.779	800.000	-0.020	-0.081
-160.764	596.890	0.070	-0.174
-159.750	641.735	0.145	-0.368
-158.735	95.536	-0.232	0.263
-157.720	-146.759	-0.374	0.032
-156.706	-46.065	0.287	0.141
-155.691	-51.116	0.370	0.173
-154.677	404.238	0.131	-0.276
-153.662	-97.357	-0.108	0.028
-152.647	-67.088	0.290	-0.114
-151.633	-200.000	-0.007	0.103
-150.618	-0.831	0.109	-0.077
-149.604	-26.115	0.203	-0.119
-148.589	1.775	0.161	0.116
-147.574	-57.217	0.254	0.112
-146.560	-55.495	0.199	0.089
-145.545	-66.951	-0.357	0.140
-144.531	-78.607	-0.314	0.107
-143.516	120.096	0.042	0.052
-142.502	53.383	0.167	-0.160
-141.487	-107.367	-0.283	0.062
-140.472	-200.000	0.006	-0.032
-139.458	44.688	-0.033	-0.030
-138.443	-36.171	-0.226	0.122
-137.429	-200.000	0.005	0.184
-136.414	-101.249	0.194	-0.047
-135.399	-21.951	-0.188	0.114
-134.385	800.000	0.065	0.183
-133.370	120.570	0.025	0.031
-132.356	-186.521	-0.101	-0.001
-131.341	99.493	0.173	-0.199
-130.326	-200.000	-0.021	0.221
-129.312	50.857	0.055	-0.052
-128.297	220.056	-0.177	0.283
-127.283	134.997	-0.194	-0.251
-126.268	462.647	-0.227	-0.505
-125.253	526.810	-0.078	-0.184
-124.239	-183.097	0.157	-0.003
-123.224	-200.000	0.005	-0.154
-122.210	64.932	-0.050	-0.050
-121.195	-200.000	-0.068	-0.310
