DTS Sentinel unit serial number:	SN413079Multiplexer serial number:	ORYXHardware model number:	OX4-SRSoftware version number:	ORYX F/W v4.00 Oryx Data Collector v3.7.2.0data status	okinstallation	princeton_trtdifferential loss correction	single-endedforward channel	channel 4reverse channel	N/Adate	2019/09/19time	15:13:35forward acquisition time	60.00reverse acquisition time	0.00gamma	496.2192k internal	0.2303k external	0.2303temperature offset calibration	1.0026default loss term (dB/km)	0.3790temperature slope calibration	1.0000multiplexer offset coefficient	1.0000multiplexer slope coefficient	1.0000fibre end	0.00T internal ref (°C)	33.53T ext. ref 1 (°C)	1.13T ext. ref 2 (°C)	30.57length (m)	temperature (°C)	Stokes	anti-Stokes-747.200	65.699	0.177	-0.182
-746.185	-115.003	-0.232	0.045
-745.171	-112.270	-0.288	0.059
-744.156	105.346	-0.115	-0.138
-743.142	-1.177	-0.356	0.256
-742.127	-188.607	0.212	-0.003
-741.112	161.860	0.017	-0.025
-740.098	-28.765	0.288	0.169
-739.083	86.511	0.122	0.137
-738.069	-200.000	0.025	0.162
-737.054	-26.337	-0.270	0.161
-736.039	-200.000	-0.015	-0.105
-735.025	-111.079	0.213	0.044
-734.010	39.064	-0.084	0.076
-732.996	800.000	-0.016	0.057
-731.981	-185.993	-0.168	-0.003
-730.966	6.973	0.278	-0.211
-729.952	163.327	0.069	-0.099
-728.937	-146.053	-0.159	-0.014
-727.923	-200.000	0.005	-0.349
-726.908	-101.018	-0.312	-0.078
-725.894	-110.962	0.285	-0.060
-724.879	-118.840	-0.159	0.028
-723.864	-25.003	0.156	-0.094
-722.850	212.694	-0.142	-0.228
-721.835	135.893	-0.181	-0.240
-720.821	54.313	0.140	0.137
-719.806	-200.000	0.033	0.186
-718.791	141.616	-0.169	-0.228
-717.777	-86.551	-0.148	0.046
-716.762	800.000	-0.114	-0.326
-715.748	800.000	-0.089	-0.273
-714.733	143.496	-0.121	-0.164
-713.718	-106.254	-0.340	0.077
-712.704	106.414	0.115	-0.138
-711.689	-89.832	-0.102	0.030
-710.675	-77.248	-0.091	-0.032
-709.660	800.000	0.038	0.142
-708.645	102.179	-0.179	-0.213
-707.631	-200.000	0.001	0.320
-706.616	-23.914	-0.096	0.058
-705.602	-2.091	-0.155	0.111
-704.587	-107.992	0.130	-0.029
-703.572	-199.275	-0.358	-0.002
-702.558	-200.000	-0.032	-0.206
-701.543	-83.223	0.299	0.098
-700.529	127.114	0.136	0.176
-699.514	-35.283	-0.143	0.079
-698.499	34.081	-0.035	0.031
-697.485	-178.753	-0.198	0.005
-696.470	-16.004	0.215	-0.139
-695.456	152.968	0.075	0.104
-694.441	-200.000	-0.003	-0.260
-693.426	-182.312	0.118	-0.002
-692.412	-200.000	0.010	-0.173
-691.397	800.000	0.015	0.056
-690.383	70.494	0.035	0.037
-689.368	263.757	-0.096	0.169
-688.354	-23.665	-0.381	0.232
-687.339	-0.442	-0.251	0.182
-686.324	-200.000	-0.021	0.140
-685.310	40.947	-0.181	0.166
-684.295	142.176	0.060	0.081
-683.281	691.107	-0.052	0.138
-682.266	-70.802	-0.219	0.084
-681.251	-10.466	0.068	-0.046
-680.237	-24.174	-0.260	-0.158
-679.222	-131.246	0.255	-0.034
-678.208	-14.271	0.213	0.139
-677.193	-64.768	-0.279	-0.115
-676.178	-123.551	-0.341	-0.055
-675.164	10.985	0.270	-0.210
-674.149	-71.620	-0.216	-0.082
-673.135	-64.381	0.244	0.101
-672.120	-74.261	0.337	-0.124
-671.105	-200.000	0.047	-0.320
-670.091	360.630	0.048	0.098
-669.076	83.231	0.278	0.308
-668.062	127.792	-0.122	-0.158
-667.047	-98.553	0.417	0.108
-666.032	-119.999	-0.155	-0.027
-665.018	157.546	0.188	0.264
-664.003	-200.000	-0.061	-0.304
-662.989	149.199	-0.112	0.154
-661.974	-200.000	0.014	0.256
-660.959	74.561	-0.108	-0.116
-659.945	-200.000	0.021	-0.189
-658.930	-200.000	0.004	0.062
-657.916	-7.515	0.244	0.167
-656.901	-200.000	-0.001	-0.418
-655.886	-122.318	-0.313	0.052
-654.872	281.656	-0.042	0.076
-653.857	22.359	-0.082	0.068
-652.843	-62.131	0.120	0.051
-651.828	4.838	-0.185	0.138
-650.814	143.299	-0.110	-0.149
-649.799	800.000	0.069	-0.197
-648.784	-60.675	-0.190	-0.082
-647.770	800.000	0.099	-0.374
-646.755	-200.000	0.020	-0.139
-645.741	800.000	0.050	-0.212
-644.726	48.431	-0.136	-0.129
-643.711	-184.250	0.152	-0.003
-642.697	-200.000	-0.004	-0.245
-641.682	-66.876	-0.183	-0.074
-640.668	349.896	-0.194	-0.388
-639.653	60.656	-0.112	-0.113
-638.638	239.948	0.033	-0.057
-637.624	513.765	0.171	0.404
-636.609	-85.419	0.318	-0.100
-635.595	-26.550	-0.209	0.124
-634.580	-134.571	0.226	0.028
-633.565	-75.731	-0.133	0.048
-632.551	217.979	-0.123	-0.200
-631.536	-86.317	0.031	-0.010
-630.522	19.654	0.179	-0.146
-629.507	35.034	-0.341	-0.302
-628.492	-200.000	-0.030	0.175
-627.478	-35.224	0.108	0.060
-626.463	-65.946	-0.230	0.093
-625.449	74.174	0.210	-0.223
-624.434	-130.440	0.213	-0.029
-623.419	51.258	0.062	-0.060
-622.405	-109.298	-0.078	0.017
-621.390	-25.722	-0.191	-0.114
-620.376	-25.531	-0.274	-0.164
-619.361	-82.625	-0.189	-0.062
-618.346	-100.612	0.075	-0.019
-617.332	480.561	-0.105	0.241
-616.317	160.928	0.087	0.123
-615.303	-200.000	0.096	-0.431
-614.288	398.900	-0.227	-0.481
-613.273	19.756	0.089	0.072
-612.259	-103.057	0.250	0.060
-611.244	-50.244	0.199	-0.096
-610.230	-25.799	-0.197	-0.118
-609.215	64.557	-0.248	-0.254
-608.201	-200.000	-0.016	0.162
-607.186	353.759	-0.083	0.167
-606.171	201.622	0.091	0.141
-605.157	-200.000	0.046	0.472
-604.142	800.000	-0.129	-0.386
-603.128	-200.000	0.062	-0.487
-602.113	-135.777	0.269	-0.032
-601.098	27.218	0.191	-0.163
-600.084	123.271	0.093	0.118
-599.069	-79.381	-0.123	0.042
-598.055	160.679	-0.075	0.106
-597.040	-152.101	0.200	-0.015
-596.025	-200.000	0.040	0.344
-595.011	-122.866	-0.119	0.019
-593.996	24.877	-0.206	0.173
-592.982	-200.000	0.006	-0.158
-591.967	-200.000	-0.040	0.189
-590.952	800.000	0.053	-0.155
-589.938	800.000	-0.034	-0.118
-588.923	158.553	-0.004	-0.006
-587.909	800.000	-0.147	0.441
-586.894	284.266	-0.172	-0.313
-585.879	-50.808	0.247	-0.117
-584.865	-75.988	-0.073	-0.026
-583.850	-1.170	0.087	-0.062
-582.836	-58.695	-0.464	0.203
-581.821	-92.308	-0.085	-0.024
-580.806	359.568	-0.115	-0.232
-579.792	-37.897	0.134	-0.072
-578.777	123.793	-0.020	-0.025
-577.763	440.941	-0.103	-0.228
-576.748	87.323	0.082	-0.092
-575.733	-77.946	-0.061	0.021
-574.719	-49.676	0.179	0.086
-573.704	-200.000	0.002	0.128
-572.690	83.299	-0.116	0.128
-571.675	-125.436	0.251	0.039
-570.661	133.194	0.070	0.091
-569.646	-200.000	-0.015	0.116
-568.631	367.362	-0.165	0.337
-567.617	48.968	0.099	-0.094
-566.602	-200.000	0.028	-0.256
-565.588	32.574	-0.184	-0.161
-564.573	193.929	0.137	0.211
-563.558	-200.000	-0.017	-0.228
-562.544	800.000	0.058	0.246
-561.529	-186.336	-0.163	-0.002
-560.515	141.751	-0.116	-0.155
-559.500	-117.451	0.201	-0.037
-558.485	-200.000	-0.003	0.132
-557.471	170.886	-0.087	0.127
-556.456	-123.163	-0.222	-0.036
-555.442	-134.687	-0.149	0.018
-554.427	31.513	-0.190	0.165
-553.412	5.429	0.449	-0.335
-552.398	-200.000	-0.015	0.191
-551.383	40.665	-0.130	0.118
-550.369	151.773	-0.190	0.262
-549.354	-148.115	-0.060	-0.005
-548.339	54.241	-0.208	-0.203
-547.325	70.986	-0.246	0.257
-546.310	373.223	0.225	0.463
-545.296	-127.512	-0.301	0.044
-544.281	17.789	-0.058	0.047
-543.266	139.858	-0.204	-0.271
-542.252	800.000	0.064	-0.207
-541.237	19.149	0.178	-0.145
-540.223	11.409	0.098	-0.076
-539.208	236.036	-0.157	-0.262
-538.193	-200.000	0.013	0.276
-537.179	-63.723	-0.133	-0.055
-536.164	-140.892	0.181	0.019
-535.150	-39.785	0.462	-0.244
-534.135	7.283	-0.201	-0.152
-533.121	-93.120	0.161	0.045
-532.106	243.489	-0.132	0.223
-531.091	45.878	-0.074	0.069
-530.077	-9.670	-0.117	0.079
-529.062	12.062	0.042	-0.033
-528.048	-170.183	-0.133	-0.005
-527.033	28.802	0.119	-0.101
-526.018	48.210	-0.065	-0.061
-525.004	621.521	0.055	0.139
-523.989	-88.132	-0.198	0.060
-522.975	-81.813	0.268	0.089
-521.960	557.022	-0.074	-0.181
-520.945	-61.146	-0.201	0.086
-519.931	144.066	0.143	0.192
-518.916	-200.000	-0.027	0.233
-517.902	174.517	-0.024	-0.036
-516.887	6.245	-0.202	-0.151
-515.872	-200.000	-0.003	0.073
-514.858	151.068	-0.209	0.287
-513.843	402.649	0.145	0.308
-512.829	-34.370	0.031	0.017
-511.814	-5.669	0.170	-0.117
-510.799	441.820	0.040	0.088
-509.785	129.743	-0.069	0.089
-508.770	-138.255	-0.308	0.034
-507.756	-95.721	0.342	0.092
-506.741	-122.976	0.149	0.024
-505.726	-200.000	0.021	0.442
-504.712	54.979	0.201	-0.196
-503.697	370.429	0.133	-0.271
-502.683	283.441	-0.247	-0.447
-501.668	642.601	0.095	-0.244
-500.653	-86.138	-0.201	-0.062
-499.639	698.214	-0.047	0.124
-498.624	-200.000	-0.001	0.018
-497.610	-97.879	-0.170	-0.044
-496.595	800.000	0.082	0.275
-495.581	55.182	0.125	0.122
-494.566	605.455	0.045	-0.113
-493.551	-54.054	0.061	-0.028
-492.537	53.242	0.055	0.053
-491.522	-200.000	-0.039	-0.204
-490.508	-44.466	0.360	-0.182
-489.493	-200.000	-0.038	-0.193
-488.478	-105.555	0.156	-0.036
-487.464	-78.293	0.136	-0.047
-486.449	-200.000	0.002	-0.105
-485.435	310.305	-0.210	0.397
-484.420	-200.000	0.056	0.367
-483.405	-72.468	0.419	-0.156
-482.391	-144.417	-0.152	0.014
-481.376	-163.194	-0.070	0.003
-480.362	-18.105	0.007	0.004
-479.347	261.791	0.097	0.169
-478.332	-46.159	-0.230	-0.114
-477.318	473.213	-0.009	0.021
-476.303	-75.835	-0.272	-0.097
-475.289	-93.304	-0.352	-0.098
-474.274	-52.634	0.382	0.178
-473.259	-115.159	0.096	-0.018
-472.245	110.476	0.131	-0.159
-471.230	15.533	0.085	-0.067
-470.216	-88.464	-0.142	-0.043
-469.201	-170.417	0.319	0.011
-468.186	-200.000	0.024	0.175
-467.172	6.964	-0.277	-0.208
-466.157	188.146	0.123	-0.185
-465.143	260.253	0.042	-0.073
-464.128	45.062	0.024	-0.022
-463.113	-17.873	-0.038	-0.024
-462.099	-200.000	-0.028	0.131
-461.084	800.000	0.034	-0.108
-460.070	22.326	-0.321	0.264
-459.055	642.176	-0.087	0.223
-458.040	254.401	0.105	-0.181
-457.026	-200.000	-0.065	0.475
-456.011	-124.589	0.219	-0.034
-454.997	48.018	0.144	0.136
-453.982	-51.345	0.027	0.013
-452.968	-86.132	-0.072	-0.022
-451.953	-46.843	0.353	0.174
-450.938	-200.000	0.004	0.270
-449.924	-0.155	-0.354	0.253
-448.909	295.215	-0.088	0.162
-447.895	274.506	-0.086	-0.154
-446.880	265.278	0.079	-0.138
-445.865	333.830	-0.094	0.183
-444.851	30.929	-0.012	-0.010
-443.836	-200.000	-0.004	0.032
-442.822	53.995	-0.163	0.157
-441.807	-11.184	-0.079	-0.053
-440.792	800.000	-0.046	-0.161
-439.778	75.652	-0.135	-0.143
-438.763	457.130	0.034	-0.077
-437.749	-200.000	0.012	0.177
-436.734	-200.000	0.012	0.444
-435.719	-200.000	0.037	-0.239
-434.705	-149.984	0.316	-0.025
-433.690	435.869	-0.115	-0.251
-432.676	-69.861	-0.022	0.008
-431.661	-118.768	-0.205	0.036
-430.646	-200.000	-0.015	0.106
-429.632	-200.000	-0.053	-0.374
-428.617	161.231	-0.038	0.053
-427.603	387.719	-0.050	-0.103
-426.588	-119.968	-0.153	-0.026
-425.573	25.733	0.109	0.092
-424.559	-115.970	0.047	0.009
-423.544	-200.000	0.002	0.190
-422.530	-12.632	0.194	-0.127
-421.515	-200.000	-0.066	-0.532
-420.500	-200.000	0.002	-0.030
-419.486	-6.383	-0.087	-0.060
-418.471	-53.641	0.144	-0.066
-417.457	468.104	-0.161	0.363
-416.442	43.869	0.222	0.204
-415.428	136.065	0.182	0.239
-414.413	-42.695	-0.244	-0.125
-413.398	-58.054	-0.085	-0.037
-412.384	658.977	0.141	-0.365
-411.369	223.146	-0.191	0.310
-410.355	-115.137	0.201	0.038
-409.340	25.840	-0.138	-0.115
-408.325	480.481	0.095	0.216
-407.311	95.716	-0.152	0.175
-406.296	80.829	-0.109	-0.118
-405.282	800.000	-0.011	0.034
-404.267	82.037	-0.027	-0.029
-403.252	227.408	0.140	0.229
-402.238	148.076	-0.157	-0.213
-401.223	41.552	-0.176	-0.160
-400.209	-20.989	-0.118	-0.072
-399.194	-146.171	-0.376	0.033
-398.179	38.623	-0.233	0.209
-397.165	-200.000	-0.008	0.069
-396.150	799.239	0.126	0.349
-395.136	-63.821	-0.138	0.057
-394.121	377.701	-0.054	0.111
-393.106	-125.806	0.251	0.038
-392.092	-105.456	-0.099	0.023
-391.077	8.179	0.263	-0.198
-390.063	86.946	-0.137	-0.152
-389.048	261.222	-0.116	0.202
-388.033	-200.000	-0.004	0.125
-387.019	148.042	-0.262	0.355
-386.004	-64.285	0.153	0.062
-384.990	95.726	0.139	-0.160
-383.975	-92.838	-0.139	-0.039
-382.960	119.003	-0.170	-0.211
-381.946	79.760	0.023	-0.025
-380.931	-19.708	-0.203	-0.126
-379.917	-66.386	0.127	0.051
-378.902	-61.339	0.195	-0.082
-377.888	-139.446	-0.079	-0.008
-376.873	-68.345	-0.100	0.039
-375.858	663.871	0.058	0.149
-374.844	60.933	0.210	-0.209
-373.829	-200.000	0.001	0.498
-372.815	-200.000	0.005	0.036
-371.800	247.648	0.160	0.271
-370.785	-52.896	-0.070	0.032
-369.771	630.752	0.145	-0.368
-368.756	-137.289	-0.510	-0.058
-367.742	264.105	-0.139	0.242
-366.727	41.561	0.227	-0.206
-365.712	125.950	-0.111	-0.140
-364.698	-200.000	-0.031	0.210
-363.683	127.956	-0.257	-0.328
-362.669	-200.000	0.015	0.113
-361.654	4.639	0.220	0.162
-360.639	-200.000	0.000	-0.093
-359.625	-2.640	-0.140	0.098
-358.610	92.514	-0.029	-0.032
-357.596	-39.592	0.048	-0.025
-356.581	-91.257	0.099	-0.028
-355.566	-180.014	0.202	-0.004
-354.552	-9.919	-0.133	0.089
-353.537	-200.000	-0.013	0.255
-352.523	-200.000	0.024	-0.312
-351.508	800.000	0.040	0.148
-350.493	57.843	-0.245	0.241
-349.479	64.655	-0.086	0.087
-348.464	-200.000	0.028	-0.222
-347.450	204.859	-0.070	0.109
-346.435	478.770	0.110	-0.251
-345.420	-109.474	0.165	0.035
-344.406	-16.682	0.155	0.098
-343.391	518.298	-0.119	-0.279
-342.377	165.515	0.223	0.316
-341.362	-200.000	-0.007	-0.205
-340.348	-78.861	-0.180	0.062
-339.333	259.251	0.088	-0.152
-338.318	-11.273	-0.161	0.106
-337.304	149.200	-0.251	0.341
-336.289	190.032	0.041	-0.062
-335.275	-200.000	0.028	-0.246
-334.260	0.053	-0.082	0.058
-333.245	-1.867	-0.225	-0.159
-332.231	761.286	0.049	0.132
-331.216	-116.726	0.023	0.004
-330.202	-200.000	0.017	0.518
-329.187	28.005	0.154	0.130
-328.172	328.519	-0.123	-0.236
-327.158	-44.007	0.182	0.092
-326.143	-70.370	0.213	-0.081
-325.129	121.719	0.191	0.239
-324.114	71.152	0.238	-0.247
-323.099	251.917	-0.093	-0.159
-322.085	51.292	-0.117	-0.111
-321.070	84.970	0.227	-0.249
-320.056	-200.000	-0.026	-0.377
-319.041	-155.379	-0.140	-0.009
-318.026	6.732	-0.086	-0.064
-317.012	24.882	0.065	-0.054
-315.997	-187.603	-0.189	0.003
-314.983	-28.220	0.273	0.158
-313.968	-200.000	0.011	0.091
-312.953	-200.000	0.015	0.369
-311.939	-200.000	0.041	-0.199
-310.924	157.083	-0.101	0.140
-309.910	800.000	0.056	-0.236
-308.895	-200.000	0.032	-0.196
-307.880	223.834	-0.134	0.217
-306.866	800.000	0.034	-0.102
-305.851	800.000	0.050	-0.208
-304.837	-76.579	0.286	0.100
-303.822	-111.698	0.255	0.052
-302.807	74.633	-0.069	0.073
-301.793	-87.150	-0.213	0.065
-300.778	-200.000	0.004	-0.135
-299.764	154.697	-0.122	-0.168
-298.749	-9.661	-0.148	0.098
-297.735	120.388	-0.110	0.137
-296.720	-100.048	-0.125	-0.031
-295.705	62.449	0.315	0.315
-294.691	-105.435	-0.123	-0.028
-293.676	-92.656	-0.012	-0.003
-292.662	55.160	-0.200	-0.193
-291.647	-41.731	0.121	0.062
-290.632	-32.952	0.180	0.100
-289.618	-200.000	-0.009	0.116
-288.603	-52.672	-0.376	0.174
-287.589	-61.919	-0.305	-0.128
-286.574	-7.535	0.211	0.143
-285.559	-69.135	0.054	0.021
-284.545	-200.000	0.033	-0.163
-283.530	-90.938	-0.112	-0.032
-282.516	-79.003	0.211	-0.072
-281.501	-117.913	-0.089	-0.016
-280.486	399.939	-0.119	-0.249
-279.472	353.925	-0.133	-0.264
-278.457	-191.989	-0.197	0.002
-277.443	-35.147	-0.127	-0.069
-276.428	156.636	0.025	-0.034
-275.413	-133.171	0.150	0.019
-274.399	264.972	0.059	-0.102
-273.384	-101.431	-0.346	0.084
-272.370	800.000	0.088	0.249
-271.355	136.005	-0.088	-0.115
-270.340	-200.000	-0.012	0.222
-269.326	339.511	-0.152	0.296
-268.311	-75.602	-0.113	-0.040
-267.297	-44.205	0.270	0.136
-266.282	800.000	-0.036	-0.105
-265.267	419.373	0.193	0.414
-264.253	800.000	0.076	-0.211
-263.238	-200.000	0.021	-0.217
-262.224	-16.723	0.170	0.107
-261.209	28.990	-0.139	0.118
-260.195	96.515	0.099	-0.113
-259.180	513.888	0.085	0.198
-258.165	-171.517	0.125	0.004
-257.151	270.300	0.084	0.148
-256.136	-200.000	-0.010	-0.330
-255.122	-200.000	0.039	0.195
-254.107	-11.711	0.133	0.087
-253.092	-174.151	-0.234	0.007
-252.078	-200.000	-0.038	0.247
-251.063	405.431	0.107	0.225
-250.049	-77.770	-0.088	0.031
-249.034	-200.000	0.032	-0.236
-248.019	34.629	0.106	-0.093
-247.005	149.554	0.087	0.117
-245.990	-0.710	0.271	0.192
-244.976	-84.809	0.275	0.086
-243.961	424.770	-0.083	-0.179
-242.946	32.113	0.135	0.117
-241.932	-66.972	0.249	0.098
-240.917	-200.000	0.004	-0.172
-239.903	52.498	-0.061	0.059
-238.888	122.097	-0.042	-0.053
-237.873	101.189	-0.047	-0.055
-236.859	-25.097	0.182	0.108
-235.844	-145.421	-0.237	0.021
-234.830	-137.742	0.348	0.039
-233.815	439.562	-0.091	-0.198
-232.800	237.464	-0.073	-0.121
-231.786	-163.731	0.281	0.013
-230.771	-66.772	-0.250	0.099
-229.757	-200.000	0.016	0.169
-228.742	-200.000	0.067	0.393
-227.727	800.000	-0.044	0.185
-226.713	-200.000	0.074	-0.338
-225.698	298.245	-0.151	0.277
-224.684	-4.005	-0.327	-0.226
-223.669	44.471	0.045	0.041
-222.655	-183.827	0.351	0.006
-221.640	-113.661	-0.305	-0.059
-220.625	167.499	0.091	0.129
-219.611	-200.000	0.040	-0.348
-218.596	-200.000	0.077	-0.341
-217.582	-200.000	-0.008	0.194
-216.567	800.000	0.090	0.277
-215.552	-132.365	0.142	-0.018
-214.538	-130.749	-0.169	-0.023
-213.523	392.366	0.074	0.154
-212.509	-125.575	0.319	-0.048
-211.494	80.414	0.198	0.213
-210.479	-127.289	0.262	-0.038
-209.465	495.915	-0.099	0.227
-208.450	-47.623	0.124	0.060
-207.436	-200.000	0.008	0.074
-206.421	-96.790	0.266	0.070
-205.406	-73.214	-0.121	-0.044
-204.392	-73.254	0.145	0.053
-203.377	-200.000	0.015	-0.334
-202.363	-20.135	0.264	0.162
-201.348	-49.545	-0.329	-0.156
-200.333	-64.199	0.260	0.106
-199.319	100.611	0.155	-0.179
-198.304	-65.735	0.101	0.040
-197.290	387.917	-0.023	0.047
-196.275	-200.000	-0.017	0.391
-195.260	293.336	0.115	-0.209
-194.246	800.000	0.032	-0.098
-193.231	-200.000	0.033	-0.197
-192.217	-14.529	-0.021	-0.014
-191.202	-42.499	0.224	-0.114
-190.187	62.362	0.297	0.296
-189.173	-174.695	-0.336	-0.010
-188.158	-101.808	-0.425	-0.103
-187.144	197.512	0.062	0.094
-186.129	-77.682	0.293	0.101
-185.114	-200.000	-0.014	0.124
-184.100	-161.623	0.238	-0.012
-183.085	-200.000	0.032	-0.187
-182.071	-15.886	-0.211	0.134
-181.056	288.017	0.267	-0.482
-180.042	62.098	-0.296	0.294
-179.027	140.153	0.291	-0.383
-178.012	-36.727	0.188	0.101
-176.998	-200.000	-0.045	-0.266
-175.983	21.723	-0.071	-0.058
-174.969	-55.730	0.317	0.141
-173.954	-62.784	0.064	-0.026
-172.939	-146.088	-0.248	-0.022
-171.925	6.869	0.167	0.124
-170.910	0.700	-0.195	0.139
-169.896	2.542	0.227	-0.163
-168.881	800.000	-0.069	-0.260
-167.866	-87.888	0.221	-0.066
-166.852	-111.793	0.168	0.034
-165.837	-200.000	0.022	-0.169
-164.823	-93.462	0.254	-0.070
-163.808	800.000	-0.109	-0.311
-162.793	-200.000	0.014	-0.062
-161.779	-68.916	-0.177	0.068
-160.764	-62.346	-0.305	-0.126
-159.750	99.314	0.053	0.062
-158.735	-19.570	0.038	0.023
-157.720	-200.000	-0.009	-0.046
-156.706	800.000	0.118	0.395
-155.691	108.408	0.125	0.148
-154.677	4.014	-0.220	-0.160
-153.662	71.896	-0.254	0.263
-152.647	800.000	-0.107	-0.435
-151.633	702.702	-0.132	-0.346
-150.618	800.000	-0.137	0.447
-149.604	-98.389	0.123	0.031
-148.589	-200.000	0.009	0.083
-147.574	513.172	0.067	-0.155
-146.560	-118.538	-0.367	-0.065
-145.545	-200.000	-0.097	0.430
-144.531	-193.589	-0.311	0.003
-143.516	116.438	-0.183	-0.223
-142.502	207.367	0.204	-0.317
-141.487	-200.000	-0.033	-0.146
-140.472	-134.185	-0.346	-0.042
-139.458	668.481	-0.088	-0.227
-138.443	78.834	-0.110	0.117
-137.429	44.647	0.197	-0.180
-136.414	-170.923	-0.097	-0.003
-135.399	147.240	0.130	-0.174
-134.385	-56.295	0.151	-0.067
-133.370	159.435	0.145	0.200
-132.356	-64.259	-0.187	-0.076
-131.341	-20.052	-0.206	-0.127
-130.326	19.469	-0.093	-0.074
-129.312	-9.432	0.104	0.069
-128.297	-91.403	0.126	0.036
-127.283	-79.814	-0.415	-0.139
-126.268	352.125	-0.115	-0.227
-125.253	-9.585	0.442	0.293
-124.239	-145.977	-0.218	-0.019
-123.224	800.000	-0.156	0.450
-122.210	-164.500	0.069	-0.003
-121.195	-6.673	0.105	-0.071
