DTS Sentinel unit serial number:	SN413079Multiplexer serial number:	ORYXHardware model number:	OX4-SRSoftware version number:	ORYX F/W v4.00 Oryx Data Collector v3.7.2.0data status	okinstallation	princeton_trtdifferential loss correction	single-endedforward channel	channel 4reverse channel	N/Adate	2019/09/18time	01:53:35forward acquisition time	60.00reverse acquisition time	0.00gamma	496.2192k internal	0.2334k external	0.2334temperature offset calibration	0.9995default loss term (dB/km)	0.3790temperature slope calibration	1.0000multiplexer offset coefficient	1.0000multiplexer slope coefficient	1.0000fibre end	0.00T internal ref (°C)	22.95T ext. ref 1 (°C)	0.17T ext. ref 2 (°C)	16.66length (m)	temperature (°C)	Stokes	anti-Stokes-747.200	74.174	-0.298	0.314
-746.185	-65.484	-0.179	-0.072
-745.171	-38.379	-0.143	0.076
-744.156	-69.300	-0.218	0.084
-743.142	26.644	-0.139	-0.117
-742.127	120.938	-0.092	0.115
-741.112	6.174	-0.115	-0.086
-740.098	-93.286	-0.270	0.075
-739.083	279.445	0.109	-0.196
-738.069	549.175	-0.207	0.498
-737.054	-83.085	-0.286	0.093
-736.039	0.363	-0.455	-0.327
-735.025	-200.000	-0.058	0.289
-734.010	223.961	-0.127	-0.207
-732.996	-12.177	-0.065	0.043
-731.981	-200.000	-0.037	0.186
-730.966	107.558	0.088	-0.105
-729.952	-113.084	-0.093	0.018
-728.937	-29.555	-0.413	-0.237
-727.923	-159.284	-0.062	0.003
-726.908	587.920	0.120	-0.297
-725.894	31.000	-0.366	-0.315
-724.879	-59.233	0.121	0.052
-723.864	198.226	-0.104	0.160
-722.850	-147.289	0.253	-0.022
-721.835	-176.514	-0.226	-0.006
-720.821	800.000	0.054	-0.194
-719.806	-200.000	0.004	-0.133
-718.791	-9.868	-0.131	0.087
-717.777	-45.785	-0.112	-0.056
-716.762	9.994	-0.133	-0.102
-715.748	-200.000	-0.025	-0.186
-714.733	3.122	-0.077	0.056
-713.718	-63.528	0.075	-0.031
-712.704	800.000	-0.064	-0.281
-711.689	-164.419	0.173	-0.008
-710.675	127.989	0.145	-0.185
-709.660	800.000	-0.070	-0.266
-708.645	800.000	0.101	-0.298
-707.631	-142.092	-0.112	0.011
-706.616	-96.808	0.440	0.116
-705.602	800.000	-0.180	0.549
-704.587	-200.000	-0.025	0.232
-703.572	800.000	0.160	-0.670
-702.558	-200.000	0.001	0.293
-701.543	119.404	-0.087	0.108
-700.529	49.312	0.148	-0.140
-699.514	38.139	-0.084	-0.075
-698.499	794.359	-0.051	-0.140
-697.485	-200.000	0.008	-0.136
-696.470	-113.725	0.233	0.046
-695.456	-129.259	0.133	0.019
-694.441	3.517	-0.106	0.078
-693.426	402.471	0.081	-0.171
-692.412	75.270	-0.211	0.223
-691.397	25.247	-0.090	-0.075
-690.383	590.718	0.066	0.162
-689.368	699.029	0.077	-0.204
-688.354	-200.000	0.026	-0.334
-687.339	-61.777	0.122	0.051
-686.324	-107.518	0.266	-0.058
-685.310	-56.366	-0.136	0.060
-684.295	-200.000	0.003	-0.060
-683.281	-200.000	-0.051	0.344
-682.266	73.046	0.178	0.187
-681.251	-175.555	-0.313	-0.009
-680.237	213.143	-0.068	0.108
-679.222	133.012	0.194	-0.251
-678.208	-55.624	0.202	-0.091
-677.193	163.045	-0.168	-0.236
-676.178	-89.129	0.100	-0.030
-675.164	-200.000	0.024	-0.138
-674.149	180.043	0.091	-0.133
-673.135	-200.000	-0.052	0.273
-672.120	-200.000	0.024	-0.168
-671.105	-200.000	0.026	-0.124
-670.091	696.066	0.076	0.200
-669.076	257.856	0.171	0.295
-668.062	-28.589	-0.132	0.076
-667.047	20.217	-0.092	-0.074
-666.032	-8.746	0.434	-0.292
-665.018	-64.781	0.084	0.034
-664.003	111.425	0.145	-0.175
-662.989	-141.331	-0.320	-0.033
-661.974	-62.301	-0.106	-0.044
-660.959	6.795	-0.157	0.117
-659.945	-126.585	0.287	0.043
-658.930	68.769	0.034	-0.035
-657.916	15.008	0.234	0.184
-656.901	172.042	0.206	0.296
-655.886	-32.353	0.063	-0.035
-654.872	174.845	-0.092	-0.134
-653.857	30.309	0.190	-0.162
-652.843	214.364	-0.058	0.092
-651.828	-44.073	-0.280	-0.141
-650.814	49.843	0.071	0.067
-649.799	301.313	-0.072	-0.132
-648.784	65.307	-0.286	-0.290
-647.770	-84.312	-0.330	-0.104
-646.755	386.838	0.074	0.154
-645.741	84.084	0.123	0.134
-644.726	-200.000	0.017	-0.258
-643.711	-200.000	-0.026	0.346
-642.697	800.000	0.071	-0.198
-641.682	66.236	-0.146	0.148
-640.668	-70.880	-0.410	0.155
-639.653	11.507	0.145	0.111
-638.638	-84.806	0.187	0.059
-637.624	43.998	0.067	-0.061
-636.609	548.837	0.079	0.191
-635.595	-31.084	-0.157	0.089
-634.580	800.000	-0.065	0.201
-633.565	-112.663	0.203	0.040
-632.551	155.988	-0.119	0.165
-631.536	-68.321	0.564	-0.219
-630.522	2.343	0.325	-0.235
-629.507	-111.149	-0.366	-0.075
-628.492	-200.000	-0.020	0.197
-627.478	218.170	-0.117	-0.187
-626.463	-30.402	0.094	0.053
-625.449	800.000	0.074	0.225
-624.434	-57.312	0.028	0.013
-623.419	120.406	-0.039	-0.048
-622.405	60.998	-0.151	-0.150
-621.390	-119.240	-0.244	-0.043
-620.376	-45.916	0.082	0.040
-619.361	-200.000	-0.031	0.142
-618.346	-200.000	-0.123	-0.000
-617.332	-118.963	-0.072	-0.013
-616.317	-200.000	-0.001	0.084
-615.303	800.000	0.086	0.352
-614.288	800.000	0.030	-0.128
-613.273	-96.810	0.386	-0.101
-612.259	122.468	0.131	-0.164
-611.244	-86.570	0.172	-0.053
-610.230	-120.191	-0.024	0.004
-609.215	342.693	0.045	-0.089
-608.201	-68.543	-0.067	-0.026
-607.186	291.104	0.064	-0.117
-606.171	53.643	0.086	-0.083
-605.157	151.425	0.073	-0.100
-604.142	-200.000	0.134	0.000
-603.128	-200.000	-0.050	0.241
-602.113	796.043	-0.119	-0.327
-601.098	5.638	0.156	0.115
-600.084	26.976	0.267	0.224
-599.069	-200.000	-0.024	0.220
-598.055	0.149	-0.025	-0.018
-597.040	111.071	0.115	0.138
-596.025	402.308	0.018	-0.038
-595.011	-91.292	-0.134	0.038
-593.996	-21.173	0.122	-0.075
-592.982	54.172	-0.022	0.021
-591.967	-121.818	0.085	0.014
-590.952	800.000	-0.086	-0.239
-589.938	87.671	0.116	0.128
-588.923	-26.231	0.133	0.078
-587.909	-200.000	-0.009	-0.180
-586.894	188.431	0.022	0.033
-585.879	3.692	-0.160	-0.117
-584.865	57.937	0.123	0.121
-583.850	-10.611	-0.341	0.225
-582.836	800.000	-0.042	-0.142
-581.821	-89.317	-0.463	-0.136
-580.806	-200.000	-0.007	-0.052
-579.792	-95.371	0.297	-0.080
-578.777	-200.000	0.009	-0.280
-577.763	-2.804	-0.116	0.081
-576.748	-75.141	-0.129	-0.046
-575.733	377.131	0.109	-0.223
-574.719	-130.401	-0.226	-0.031
-573.704	-82.832	-0.107	-0.035
-572.690	2.170	0.341	-0.246
-571.675	-101.131	-0.159	0.039
-570.661	-129.404	-0.165	0.023
-569.646	-200.000	0.012	-0.155
-568.631	-20.230	0.136	0.084
-567.617	-105.605	0.173	-0.039
-566.602	-117.994	-0.111	-0.020
-565.588	-76.534	-0.117	0.041
-564.573	166.232	-0.101	0.143
-563.558	-200.000	-0.017	0.373
-562.544	-136.524	-0.334	0.039
-561.529	-24.157	0.161	0.096
-560.515	-200.000	-0.031	-0.396
-559.500	-37.436	-0.071	0.038
-558.485	800.000	-0.040	0.170
-557.471	647.083	-0.021	0.055
-556.456	47.838	-0.041	0.038
-555.442	800.000	-0.115	0.446
-554.427	82.875	0.038	0.041
-553.412	800.000	0.093	-0.260
-552.398	141.595	-0.160	0.212
-551.383	-39.173	0.202	-0.106
-550.369	704.588	0.110	-0.290
-549.354	184.055	0.051	0.075
-548.339	661.993	-0.122	-0.314
-547.325	260.899	-0.086	0.149
-546.310	-19.670	0.126	0.078
-545.296	-156.818	-0.074	0.005
-544.281	800.000	-0.043	0.167
-543.266	759.775	-0.067	0.182
-542.252	800.000	0.056	-0.240
-541.237	-200.000	0.009	-0.266
-540.223	448.079	0.026	0.058
-539.208	161.358	-0.248	0.346
-538.193	-30.434	-0.180	-0.102
-537.179	-56.860	-0.285	-0.126
-536.164	130.952	0.098	0.126
-535.150	378.228	0.149	0.304
-534.135	-58.511	0.345	0.149
-533.121	-85.993	0.245	-0.075
-532.106	786.520	0.096	-0.263
-531.091	608.344	-0.062	-0.155
-530.077	-12.686	-0.085	0.056
-529.062	-35.717	-0.220	-0.119
-528.048	-149.749	0.406	0.032
-527.033	125.537	-0.192	-0.241
-526.018	595.321	0.058	0.143
-525.004	-47.484	0.128	-0.062
-523.989	336.097	-0.143	0.276
-522.975	21.506	0.208	-0.169
-521.960	-37.488	-0.108	-0.057
-520.945	-200.000	-0.007	-0.167
-519.931	269.898	-0.283	-0.496
-518.916	-101.295	0.154	0.037
-517.902	124.809	-0.213	-0.267
-516.887	439.868	-0.158	-0.343
-515.872	800.000	0.071	0.247
-514.858	91.751	0.147	0.165
-513.843	-96.709	-0.108	0.028
-512.829	298.826	-0.007	0.014
-511.814	-138.028	-0.136	0.015
-510.799	-91.568	0.243	-0.069
-509.785	800.000	0.043	0.168
-508.770	-200.000	-0.017	-0.256
-507.756	-200.000	0.030	0.388
-506.741	-144.573	0.418	-0.038
-505.726	38.261	0.271	0.241
-504.712	-78.461	-0.068	-0.023
-503.697	-139.732	0.082	0.009
-502.683	-200.000	0.045	0.460
-501.668	-119.832	-0.256	-0.044
-500.653	-68.990	0.157	-0.060
-499.639	295.684	-0.153	0.280
-498.624	-70.106	0.179	-0.068
-497.610	-47.736	0.220	-0.106
-496.595	10.046	0.046	0.035
-495.581	-200.000	-0.001	-0.129
-494.566	72.519	0.013	0.014
-493.551	14.985	0.430	0.335
-492.537	570.485	-0.126	-0.306
-491.522	41.002	0.072	-0.065
-490.508	800.000	0.053	0.213
-489.493	666.502	0.151	0.388
-488.478	-140.305	-0.022	0.002
-487.464	421.274	-0.201	-0.429
-486.449	-17.881	0.169	0.105
-485.435	71.121	-0.142	0.147
-484.420	-193.941	0.295	-0.002
-483.405	-130.959	0.112	0.015
-482.391	800.000	0.029	-0.119
-481.376	-132.611	0.077	-0.010
-480.362	68.854	-0.018	0.018
-479.347	595.069	-0.170	-0.419
-478.332	119.714	0.183	-0.225
-477.318	26.266	0.059	-0.049
-476.303	-94.954	-0.105	-0.028
-475.289	-200.000	0.040	-0.380
-474.274	3.973	0.180	-0.131
-473.259	-20.648	-0.444	-0.271
-472.245	-200.000	0.020	0.119
-471.230	-30.425	0.083	0.047
-470.216	631.427	0.062	-0.157
-469.201	72.553	-0.266	-0.276
-468.186	274.528	-0.232	0.409
-467.172	353.638	0.087	0.172
-466.157	249.393	-0.034	-0.057
-465.143	-186.558	-0.182	0.003
-464.128	34.591	0.169	0.147
-463.113	30.713	0.054	-0.046
-462.099	-169.083	-0.234	0.009
-461.084	800.000	0.065	-0.189
-460.070	132.729	-0.058	-0.074
-459.055	-59.653	0.234	-0.100
-458.040	174.029	-0.072	0.104
-457.026	-158.872	-0.422	0.024
-456.011	145.608	0.099	-0.131
-454.997	-52.508	-0.251	0.115
-453.982	-7.612	0.181	0.122
-452.968	-200.000	-0.000	0.023
-451.953	-117.655	-0.176	-0.032
-450.938	184.592	0.143	0.210
-449.924	-120.996	-0.412	0.069
-448.909	601.034	-0.087	0.214
-447.895	76.148	-0.074	0.077
-446.880	-9.126	0.181	0.121
-445.865	800.000	-0.068	0.222
-444.851	-179.148	0.265	-0.006
-443.836	122.608	-0.237	0.294
-442.822	-173.335	0.287	0.009
-441.807	-159.844	-0.023	-0.001
-440.792	-200.000	-0.007	-0.285
-439.778	-11.501	0.156	0.102
-438.763	800.000	0.084	-0.281
-437.749	-147.126	-0.336	0.029
-436.734	-144.124	-0.017	-0.002
-435.719	-48.951	-0.201	-0.096
-434.705	-69.982	0.405	0.153
-433.690	-140.337	-0.242	-0.025
-432.676	-200.000	-0.008	0.068
-431.661	-98.017	-0.158	0.041
-430.646	203.986	0.174	-0.268
-429.632	9.414	0.078	-0.059
-428.617	-73.572	-0.217	-0.079
-427.603	675.000	0.047	0.120
-426.588	593.970	-0.059	-0.144
-425.573	339.079	-0.090	-0.175
-424.559	-200.000	-0.001	-0.174
-423.544	-102.987	-0.293	0.069
-422.530	44.115	0.276	-0.251
-421.515	607.340	-0.044	0.108
-420.500	119.855	-0.062	-0.076
-419.486	800.000	0.067	0.226
-418.471	-200.000	0.059	-0.338
-417.457	298.696	0.120	0.218
-416.442	-122.503	-0.050	0.008
-415.428	-43.608	-0.158	0.079
-414.413	-32.348	-0.252	0.140
-413.398	-27.577	-0.216	0.124
-412.384	184.402	0.089	-0.131
-411.369	-166.002	-0.072	0.003
-410.355	225.290	-0.071	0.115
-409.340	-200.000	0.032	-0.300
-408.325	79.534	0.237	-0.252
-407.311	19.854	0.231	-0.184
-406.296	-200.000	0.017	-0.104
-405.282	135.991	0.006	-0.007
-404.267	800.000	0.102	-0.369
-403.252	255.641	0.038	0.065
-402.238	762.155	-0.117	0.316
-401.223	-74.817	-0.326	0.116
-400.209	-102.606	-0.064	-0.015
-399.194	95.363	-0.059	0.066
-398.179	-59.332	-0.100	-0.043
-397.165	120.173	0.137	-0.168
-396.150	104.643	-0.160	0.187
-395.136	-181.700	0.229	0.004
-394.121	-200.000	-0.001	-0.301
-393.106	60.037	-0.200	-0.196
-392.092	45.702	-0.302	-0.276
-391.077	-175.465	0.305	-0.008
-390.063	-110.408	-0.085	-0.018
-389.048	-50.244	0.174	0.081
-388.033	148.884	-0.150	0.201
-387.019	-107.145	0.242	-0.053
-386.004	-109.599	-0.066	0.014
-384.990	12.769	-0.141	-0.108
-383.975	255.223	0.084	0.143
-382.960	-144.282	-0.165	0.015
-381.946	-109.952	-0.219	-0.045
-380.931	679.891	-0.211	-0.544
-379.917	-200.000	0.023	-0.242
-378.902	-200.000	0.003	-0.101
-377.888	79.476	-0.100	-0.107
-376.873	684.683	0.085	-0.220
-375.858	-200.000	-0.005	-0.048
-374.844	-200.000	0.060	0.422
-373.829	351.487	-0.133	-0.260
-372.815	800.000	0.080	-0.262
-371.800	-200.000	0.023	-0.133
-370.785	-56.580	-0.042	-0.019
-369.771	-200.000	-0.011	0.046
-368.756	-135.470	0.166	-0.020
-367.742	-65.329	0.078	0.031
-366.727	109.250	-0.073	0.087
-365.712	149.617	0.131	-0.176
-364.698	800.000	-0.111	0.366
-363.683	-112.980	0.227	-0.044
-362.669	-107.931	0.243	-0.052
-361.654	-45.098	-0.062	0.031
-360.639	-96.537	-0.312	-0.082
-359.625	443.592	0.134	0.291
-358.610	-65.442	0.121	0.048
-357.596	-76.204	0.268	-0.094
-356.581	-110.041	0.234	0.048
-355.566	-96.865	0.093	0.024
-354.552	-200.000	0.043	-0.260
-353.537	-81.988	0.270	0.087
-352.523	-80.728	0.419	0.138
-351.508	-37.428	-0.139	-0.073
-350.493	98.543	-0.201	-0.230
-349.479	800.000	0.031	-0.106
-348.464	197.328	-0.182	0.274
-347.450	-75.452	0.138	0.049
-346.435	59.862	0.075	0.073
-345.420	106.938	-0.043	0.050
-344.406	113.666	0.116	-0.140
-343.391	-200.000	0.025	-0.227
-342.377	-200.000	0.064	0.333
-341.362	-5.758	-0.253	-0.172
-340.348	-200.000	-0.035	-0.201
-339.333	-200.000	0.022	0.242
-338.318	-115.735	-0.280	0.052
-337.304	12.769	-0.082	0.062
-336.289	336.810	-0.204	-0.392
-335.275	800.000	-0.062	0.227
-334.260	117.974	0.132	0.161
-333.245	269.021	0.176	0.305
-332.231	-71.410	-0.385	0.143
-331.216	4.659	0.117	0.085
-330.202	41.952	-0.102	-0.091
-329.187	-200.000	0.045	-0.300
-328.172	-33.413	0.098	0.054
-327.158	-70.730	0.197	0.073
-326.143	466.384	0.115	0.256
-325.129	-117.634	0.347	0.062
-324.114	16.631	-0.301	0.235
-323.099	66.449	-0.229	-0.230
-322.085	-200.000	-0.043	-0.212
-321.070	51.327	0.153	-0.143
-320.056	-11.808	-0.446	-0.289
-319.041	-97.561	-0.294	0.075
-318.026	10.725	-0.380	-0.286
-317.012	-200.000	0.043	0.189
-315.997	-22.414	0.154	-0.092
-314.983	800.000	-0.003	0.013
-313.968	800.000	-0.043	-0.148
-312.953	397.315	0.083	-0.171
-311.939	688.126	-0.152	0.393
-310.924	45.490	-0.230	0.209
-309.910	-200.000	-0.027	-0.388
-308.895	-187.893	-0.489	0.006
-307.880	-114.484	0.175	0.033
-306.866	110.387	0.230	0.273
-305.851	-116.003	-0.336	-0.062
-304.837	800.000	0.106	0.323
-303.822	-84.530	0.130	-0.040
-302.807	484.113	0.142	0.318
-301.793	-200.000	0.009	0.182
-300.778	460.184	0.130	-0.287
-299.764	-106.121	-0.103	-0.023
-298.749	-126.250	-0.592	-0.087
-297.735	17.280	0.181	0.142
-296.720	33.221	-0.327	0.280
-295.705	153.390	-0.090	-0.121
-294.691	-153.938	-0.067	0.005
-293.676	462.895	0.112	-0.246
-292.662	666.291	0.102	0.259
-291.647	-7.411	0.386	0.258
-290.632	122.489	-0.116	0.143
-289.618	-9.560	0.282	0.185
-288.603	242.736	-0.053	0.088
-287.589	35.189	0.268	-0.232
-286.574	488.727	-0.130	0.292
-285.559	-32.686	0.315	0.173
-284.545	42.426	-0.143	0.128
-283.530	240.597	-0.068	-0.113
-282.516	305.496	-0.115	-0.212
-281.501	-200.000	-0.023	-0.195
-280.486	800.000	-0.032	0.122
-279.472	-200.000	-0.051	0.414
-278.457	-200.000	0.033	0.195
-277.443	-144.150	0.089	0.008
-276.428	587.429	0.113	0.274
-275.413	22.155	-0.154	-0.124
-274.399	760.905	-0.045	0.120
-273.384	-116.277	-0.139	0.025
-272.370	-200.000	-0.052	0.225
-271.355	-71.270	0.228	0.084
-270.340	9.984	0.167	-0.125
-269.326	-21.752	-0.096	-0.058
-268.311	189.024	-0.053	-0.078
-267.297	-90.103	0.418	0.120
-266.282	800.000	0.095	0.278
-265.267	-200.000	0.036	0.318
-264.253	-200.000	-0.031	0.377
-263.238	-115.354	-0.181	-0.034
-262.224	800.000	-0.129	-0.496
-261.209	0.261	0.108	-0.076
-260.195	151.148	0.112	-0.150
-259.180	89.816	-0.370	-0.407
-258.165	0.664	-0.054	-0.038
-257.151	157.910	0.048	-0.065
-256.136	309.900	0.178	-0.328
-255.122	-26.180	-0.264	0.153
-254.107	145.286	0.293	-0.387
-253.092	-200.000	-0.018	0.090
-252.078	-101.296	-0.250	-0.060
-251.063	-117.525	0.464	-0.083
-250.049	195.830	-0.073	0.109
-249.034	433.942	0.159	-0.340
-248.019	519.472	0.146	-0.337
-247.005	254.284	-0.075	0.126
-245.990	135.935	0.117	0.150
-244.976	-200.000	0.030	-0.155
-243.961	695.646	-0.049	-0.126
-242.946	92.514	-0.071	-0.079
-241.932	800.000	0.072	0.235
-240.917	446.546	-0.174	0.376
-239.903	-192.843	0.027	-0.000
-238.888	-101.785	0.114	-0.027
-237.873	644.542	-0.090	0.226
-236.859	58.600	0.180	-0.174
-235.844	-150.664	0.234	-0.018
-234.830	58.880	-0.035	-0.034
-233.815	-30.639	-0.242	-0.135
-232.800	300.018	0.034	-0.062
-231.786	800.000	-0.045	0.123
-230.771	166.520	-0.078	-0.109
-229.757	-200.000	-0.031	-0.211
-228.742	-133.188	-0.286	0.036
-227.727	112.941	-0.088	-0.105
-226.713	-31.099	-0.070	-0.039
-225.698	-40.256	0.231	0.118
-224.684	-200.000	0.059	0.310
-223.669	-70.067	-0.337	0.126
-222.655	-112.851	0.366	0.071
-221.640	-58.536	0.291	-0.124
-220.625	800.000	0.063	0.235
-219.611	61.382	-0.172	-0.168
-218.596	-200.000	-0.030	-0.140
-217.582	-33.948	0.068	-0.037
-216.567	-161.910	-0.046	0.002
-215.552	-89.907	0.252	-0.072
-214.538	-42.296	0.189	-0.095
-213.523	4.953	0.229	0.166
-212.509	-117.468	-0.219	0.039
-211.494	355.044	-0.051	-0.100
-210.479	310.515	0.069	0.127
-209.465	144.831	0.105	0.138
-208.450	18.568	0.322	0.253
-207.436	-22.064	-0.217	0.130
-206.421	-52.884	-0.318	0.144
-205.406	-166.523	-0.266	-0.011
-204.392	183.846	-0.161	-0.234
-203.377	64.615	0.273	-0.271
-202.363	213.621	0.251	0.391
-201.348	-46.007	0.178	-0.086
-200.333	-23.548	-0.172	0.102
-199.319	-200.000	0.016	0.078
-198.304	526.928	0.080	-0.186
-197.290	138.274	-0.081	-0.105
-196.275	-200.000	-0.012	-0.083
-195.260	800.000	-0.055	0.205
-194.246	-132.007	0.231	-0.030
-193.231	155.116	-0.162	-0.220
-192.217	-46.234	0.088	-0.042
-191.202	-200.000	0.003	0.243
-190.187	67.713	-0.076	-0.076
-189.173	-110.343	-0.249	-0.051
-188.158	389.597	0.079	-0.161
-187.144	74.191	0.244	-0.252
-186.129	293.046	0.085	0.153
-185.114	249.128	0.058	-0.096
-184.100	-101.079	0.172	-0.041
-183.085	-200.000	0.027	-0.161
-182.071	-85.545	-0.217	0.066
-181.056	-200.000	0.015	0.209
-180.042	332.530	0.051	0.096
-179.027	3.324	0.128	-0.092
-178.012	51.557	0.153	0.143
-176.998	-39.425	-0.207	-0.107
-175.983	458.717	-0.075	-0.165
-174.969	-104.739	-0.038	0.009
-173.954	46.954	0.135	0.124
-172.939	-134.096	0.129	0.016
-171.925	168.002	0.143	-0.200
-170.910	-85.070	-0.356	0.110
-169.896	800.000	0.034	0.098
-168.881	-137.244	0.286	0.032
-167.866	697.159	-0.129	-0.333
-166.852	350.862	0.046	0.089
-165.837	-2.042	0.080	0.055
-164.823	135.100	-0.122	0.155
-163.808	800.000	0.123	0.352
-162.793	-200.000	-0.033	0.449
-161.779	-106.901	0.213	0.046
-160.764	180.162	0.131	0.188
-159.750	-200.000	-0.008	-0.097
-158.735	-126.827	-0.219	-0.032
-157.720	90.493	0.234	-0.258
-156.706	205.084	0.066	0.101
-155.691	263.436	-0.247	0.421
-154.677	-143.538	0.182	-0.017
-153.662	209.755	-0.200	0.308
-152.647	-200.000	-0.045	0.273
-151.633	29.201	-0.373	-0.311
-150.618	-34.391	0.183	0.098
-149.604	-25.271	-0.289	0.168
-148.589	41.798	0.071	-0.063
-147.574	14.017	-0.149	-0.114
-146.560	-200.000	0.076	-0.405
-145.545	800.000	0.080	0.308
-144.531	0.654	0.192	-0.135
-143.516	376.962	0.125	-0.251
-142.502	30.986	0.094	0.079
-141.487	65.883	0.050	0.050
-140.472	-33.037	0.186	0.101
-139.458	-138.971	-0.393	-0.042
-138.443	216.177	0.030	0.046
-137.429	754.315	0.049	0.129
-136.414	8.091	0.108	0.080
-135.399	-200.000	0.004	-0.210
-134.385	34.132	-0.136	-0.116
-133.370	-105.808	0.246	0.054
-132.356	64.201	0.160	-0.158
-131.341	99.542	-0.195	0.222
-130.326	-200.000	-0.059	0.356
-129.312	26.405	0.145	-0.119
-128.297	-59.771	0.074	-0.031
-127.283	204.206	0.157	0.238
-126.268	-137.614	0.116	0.013
-125.253	-147.517	0.341	-0.028
-124.239	800.000	-0.016	-0.050
-123.224	-70.282	0.228	-0.085
-122.210	-89.864	0.020	0.006
-121.195	624.010	-0.137	0.337
-120.180	145.946	0.196	-0.258
