DTS Sentinel unit serial number:	SN413079Multiplexer serial number:	ORYXHardware model number:	OX4-SRSoftware version number:	ORYX F/W v4.00 Oryx Data Collector v3.7.2.0data status	okinstallation	princeton_trtdifferential loss correction	single-endedforward channel	channel 4reverse channel	N/Adate	2019/09/16time	07:41:35forward acquisition time	60.00reverse acquisition time	0.00gamma	496.2192k internal	0.2318k external	0.2318temperature offset calibration	0.9978default loss term (dB/km)	0.3790temperature slope calibration	1.0000multiplexer offset coefficient	1.0000multiplexer slope coefficient	1.0000fibre end	0.00T internal ref (°C)	27.92T ext. ref 1 (°C)	11.67T ext. ref 2 (°C)	24.66length (m)	temperature (°C)	Stokes	anti-Stokes-747.200	-153.786	-0.462	0.032
-746.185	800.000	-0.076	0.234
-745.171	-82.385	0.266	-0.087
-744.156	-85.084	-0.384	0.122
-743.142	-200.000	-0.011	0.157
-742.127	800.000	0.049	0.137
-741.112	98.105	0.018	-0.021
-740.098	35.984	-0.120	0.107
-739.083	102.294	0.234	0.276
-738.069	-122.878	-0.388	0.063
-737.054	-91.908	-0.192	0.055
-736.039	-193.996	0.197	0.002
-735.025	362.475	-0.192	0.391
-734.010	126.741	-0.169	-0.216
-732.996	-77.073	-0.262	0.092
-731.981	320.695	0.103	-0.197
-730.966	800.000	0.097	-0.348
-729.952	-164.355	0.086	-0.004
-728.937	258.391	-0.059	-0.103
-727.923	-8.542	-0.241	-0.164
-726.908	-168.138	-0.291	0.011
-725.894	-127.100	0.050	0.007
-724.879	800.000	-0.098	-0.332
-723.864	75.661	-0.212	0.226
-722.850	-200.000	0.081	-0.382
-721.835	84.312	-0.132	-0.146
-720.821	-54.784	-0.074	-0.034
-719.806	-24.813	0.297	-0.178
-718.791	94.568	-0.135	0.156
-717.777	800.000	0.028	-0.093
-716.762	-74.189	-0.279	0.102
-715.748	84.645	0.139	0.153
-714.733	-152.626	-0.064	0.005
-713.718	306.713	-0.145	0.273
-712.704	-200.000	-0.003	-0.033
-711.689	-24.486	-0.470	-0.283
-710.675	-76.184	-0.229	-0.082
-709.660	-4.218	0.179	0.125
-708.645	-200.000	-0.040	0.239
-707.631	-19.262	0.198	-0.124
-706.616	-200.000	-0.031	-0.152
-705.602	-143.179	0.191	0.019
-704.587	116.646	-0.108	-0.133
-703.572	164.733	-0.275	0.392
-702.558	139.995	-0.064	-0.086
-701.543	-36.187	-0.008	0.004
-700.529	-41.398	0.047	-0.024
-699.514	800.000	-0.056	0.157
-698.499	-33.127	0.272	-0.152
-697.485	-125.021	-0.237	-0.037
-696.470	5.002	0.191	0.142
-695.456	65.265	0.217	-0.222
-694.441	534.515	0.126	0.302
-693.426	-200.000	-0.034	0.217
-692.412	11.875	0.072	-0.056
-691.397	224.973	-0.168	-0.274
-690.383	549.633	-0.046	-0.111
-689.368	411.498	-0.079	-0.169
-688.354	10.641	-0.252	-0.194
-687.339	242.481	0.029	-0.048
-686.324	302.141	-0.123	0.230
-685.310	317.037	0.071	-0.136
-684.295	411.993	-0.017	-0.037
-683.281	32.365	-0.280	0.244
-682.266	-152.194	-0.195	0.014
-681.251	98.041	-0.227	-0.264
-680.237	800.000	0.057	0.229
-679.222	-200.000	-0.007	-0.317
-678.208	707.879	-0.160	-0.426
-677.193	-43.823	0.263	0.134
-676.178	-200.000	-0.010	0.397
-675.164	49.211	-0.046	-0.043
-674.149	800.000	-0.086	-0.258
-673.135	92.700	0.267	0.305
-672.120	114.359	-0.174	-0.213
-671.105	83.788	0.165	-0.182
-670.091	-114.466	-0.148	-0.029
-669.076	237.510	0.124	0.207
-668.062	107.751	-0.124	0.149
-667.047	-100.354	0.323	0.081
-666.032	11.998	-0.217	-0.169
-665.018	166.075	-0.135	-0.193
-664.003	124.391	-0.276	-0.350
-662.989	-137.378	0.352	0.040
-661.974	295.054	0.121	0.223
-660.959	-66.902	0.236	0.094
-659.945	-200.000	0.000	0.335
-658.930	800.000	0.082	-0.284
-657.916	193.365	-0.178	-0.272
-656.901	59.625	0.093	0.093
-655.886	290.246	0.025	0.046
-654.872	-6.654	0.228	-0.157
-653.857	258.041	0.122	-0.212
-652.843	-138.597	-0.190	-0.021
-651.828	5.292	-0.281	-0.209
-650.814	26.738	0.283	0.239
-649.799	-155.519	0.296	-0.019
-648.784	-59.919	0.266	-0.115
-647.770	238.231	-0.111	0.186
-646.755	145.185	0.147	0.198
-645.741	303.024	-0.061	0.115
-644.726	-152.714	0.164	0.012
-643.711	13.655	-0.138	-0.108
-642.697	800.000	0.066	-0.219
-641.682	599.306	0.080	-0.200
-640.668	-200.000	-0.014	0.210
-639.653	86.540	-0.076	0.084
-638.638	42.213	0.119	-0.109
-637.624	-171.849	0.122	0.004
-636.609	-108.280	-0.172	-0.037
-635.595	-68.048	-0.107	0.042
-634.580	-124.396	0.175	0.027
-633.565	-62.364	0.137	-0.058
-632.551	2.392	0.228	0.166
-631.536	-32.700	-0.105	0.059
-630.522	-13.344	0.066	-0.043
-629.507	-115.607	-0.440	0.083
-628.492	-112.646	0.348	0.070
-627.478	75.283	0.173	0.184
-626.463	140.752	0.086	-0.115
-625.449	-200.000	-0.024	-0.323
-624.434	658.305	-0.124	0.321
-623.419	-17.402	0.267	0.169
-622.405	-200.000	0.035	0.172
-621.390	4.514	-0.242	0.179
-620.376	32.942	0.091	-0.080
-619.361	-108.680	-0.305	0.066
-618.346	56.364	0.135	0.132
-617.332	800.000	-0.033	-0.129
-616.317	274.280	-0.057	-0.101
-615.303	-200.000	0.023	0.415
-614.288	-200.000	-0.043	0.255
-613.273	-70.693	-0.284	-0.108
-612.259	-8.161	-0.112	0.076
-611.244	-167.024	0.249	0.010
-610.230	584.924	0.151	0.374
-609.215	-200.000	-0.066	0.343
-608.201	-88.262	0.294	-0.089
-607.186	4.996	0.208	-0.154
-606.171	288.278	0.130	-0.238
-605.157	127.122	-0.168	0.214
-604.142	800.000	-0.041	-0.126
-603.128	307.655	0.112	-0.210
-602.113	-52.629	0.154	0.071
-601.098	-90.497	0.182	-0.053
-600.084	-111.927	-0.110	-0.022
-599.069	800.000	0.029	-0.113
-598.055	166.189	0.086	-0.122
-597.040	-126.688	0.164	0.024
-596.025	-200.000	0.030	0.279
-595.011	756.138	0.076	-0.208
-593.996	543.320	0.163	-0.390
-592.982	298.181	0.119	-0.221
-591.967	125.094	-0.199	-0.253
-590.952	-35.831	-0.211	0.115
-589.938	26.549	0.104	-0.087
-588.923	-103.636	-0.269	-0.063
-587.909	-200.000	0.005	0.160
-586.894	-99.245	-0.148	0.038
-585.879	-200.000	0.028	0.124
-584.865	-200.000	0.005	-0.192
-583.850	800.000	-0.109	0.315
-582.836	39.816	-0.305	-0.276
-581.821	-85.842	-0.089	-0.028
-580.806	68.446	-0.130	0.134
-579.792	-80.948	-0.175	-0.058
-578.777	49.118	0.180	0.170
-577.763	-139.541	0.486	0.052
-576.748	-30.043	0.267	0.153
-575.733	800.000	-0.044	-0.162
-574.719	258.316	0.084	-0.145
-573.704	-162.178	-0.098	0.005
-572.690	800.000	-0.054	-0.181
-571.675	604.433	-0.074	-0.185
-570.661	-104.500	0.116	-0.027
-569.646	-48.418	0.140	0.068
-568.631	-200.000	-0.047	-0.587
-567.617	-102.162	-0.104	0.025
-566.602	-94.021	-0.330	0.091
-565.588	800.000	-0.071	-0.272
-564.573	238.358	0.118	-0.197
-563.558	-58.602	-0.102	-0.044
-562.544	-200.000	-0.041	0.227
-561.529	-16.816	0.290	0.184
-560.515	-123.459	-0.679	0.109
-559.500	800.000	-0.125	0.481
-558.485	800.000	0.080	-0.235
-557.471	40.397	0.074	-0.067
-556.456	-16.202	0.274	0.175
-555.442	-66.884	0.212	0.084
-554.427	-155.619	-0.356	0.023
-553.412	800.000	0.059	-0.176
-552.398	-42.906	-0.053	0.027
-551.383	-77.266	-0.398	-0.139
-550.369	45.831	0.075	-0.070
-549.354	-83.713	-0.160	-0.051
-548.339	-200.000	-0.011	0.177
-547.325	663.313	0.131	-0.339
-546.310	-124.869	0.100	0.015
-545.296	245.288	-0.052	0.088
-544.281	-170.777	0.249	-0.009
-543.266	-55.992	0.213	-0.095
-542.252	790.405	0.076	0.209
-541.237	430.902	-0.131	0.285
-540.223	-168.554	-0.369	0.014
-539.208	114.021	0.053	-0.065
-538.193	-139.411	-0.518	-0.056
-537.179	551.908	-0.064	0.154
-536.164	-96.877	-0.155	0.041
-535.150	24.906	-0.052	-0.043
-534.135	151.880	-0.016	-0.022
-533.121	342.306	0.053	-0.104
-532.106	-98.192	0.251	-0.065
-531.091	-13.953	0.190	-0.123
-530.077	45.905	0.267	0.248
-529.062	163.768	-0.094	0.132
-528.048	800.000	0.041	-0.151
-527.033	-44.372	0.182	-0.092
-526.018	-17.322	-0.400	-0.253
-525.004	34.488	0.277	0.243
-523.989	-108.613	0.097	-0.021
-522.975	800.000	-0.100	-0.342
-521.960	374.157	0.098	-0.200
-520.945	54.666	0.156	0.151
-519.931	-195.386	-0.596	-0.004
-518.916	-10.869	-0.087	-0.057
-517.902	-35.349	0.243	0.133
-516.887	83.776	-0.080	-0.088
-515.872	6.633	-0.098	-0.073
-514.858	-87.047	0.177	0.054
-513.843	-145.109	0.423	0.039
-512.829	104.185	0.232	-0.274
-511.814	-200.000	-0.037	-0.394
-510.799	-121.620	-0.320	0.053
-509.785	-158.213	-0.089	0.005
-508.770	233.834	0.174	-0.287
-507.756	800.000	0.036	0.142
-506.741	-102.096	0.349	0.084
-505.726	800.000	-0.075	-0.299
-504.712	-166.484	-0.254	-0.011
-503.697	20.753	0.228	0.185
-502.683	290.972	-0.045	-0.082
-501.668	-200.000	-0.007	0.079
-500.653	800.000	0.020	0.066
-499.639	-26.823	-0.162	0.095
-498.624	-200.000	-0.042	-0.202
-497.610	-16.751	0.273	0.173
-496.595	800.000	-0.076	0.282
-495.581	800.000	-0.091	0.301
-494.566	48.963	-0.050	-0.047
-493.551	-200.000	0.007	-0.188
-492.537	67.846	-0.049	-0.050
-491.522	-44.894	-0.103	0.052
-490.508	-162.217	-0.077	-0.004
-489.493	73.655	0.047	-0.050
-488.478	-200.000	0.024	0.126
-487.464	17.094	0.400	0.318
-486.449	-119.174	-0.249	-0.044
-485.435	797.009	-0.069	-0.191
-484.420	-180.624	-0.225	0.005
-483.405	800.000	0.060	-0.238
-482.391	-100.427	0.323	-0.080
-481.376	-11.046	0.376	-0.249
-480.362	-185.416	0.234	0.004
-479.347	-200.000	0.022	-0.193
-478.332	260.714	-0.223	-0.387
-477.318	-24.878	0.075	0.044
-476.303	584.643	0.058	0.142
-475.289	-200.000	0.009	-0.065
-474.274	-200.000	0.009	-0.101
-473.259	443.506	0.053	0.115
-472.245	348.696	0.084	-0.167
-471.230	-200.000	-0.015	0.079
-470.216	-94.637	-0.267	0.073
-469.201	-200.000	-0.010	0.070
-468.186	-68.069	0.154	-0.060
-467.172	800.000	0.108	-0.312
-466.157	-12.317	0.131	-0.086
-465.143	-69.361	0.076	0.029
-464.128	-65.884	-0.205	-0.082
-463.113	81.402	-0.162	-0.176
-462.099	245.557	0.220	-0.371
-461.084	-185.391	0.291	0.004
-460.070	-117.307	-0.227	-0.041
-459.055	48.030	0.166	-0.155
-458.040	50.753	0.129	-0.122
-457.026	-200.000	0.031	0.362
-456.011	604.453	0.029	0.073
-454.997	101.187	-0.268	-0.312
-453.982	-143.923	-0.184	-0.017
-452.968	-23.608	0.479	0.288
-451.953	787.874	0.094	-0.258
-450.938	-101.884	-0.381	-0.092
-449.924	409.525	0.052	0.109
-448.909	-200.000	0.012	-0.083
-447.895	-125.102	-0.231	-0.035
-446.880	800.000	0.107	0.384
-445.865	4.478	-0.079	-0.058
-444.851	166.099	0.165	0.234
-443.836	-200.000	0.002	0.090
-442.822	-122.417	0.248	0.040
-441.807	579.391	-0.089	-0.218
-440.792	-132.255	0.083	0.011
-439.778	-200.000	0.063	-0.444
-438.763	103.626	0.242	-0.284
-437.749	-200.000	-0.021	0.281
-436.734	-56.137	-0.035	0.016
-435.719	-200.000	-0.021	-0.160
-434.705	185.235	0.201	-0.298
-433.690	-23.279	-0.292	-0.176
-432.676	-73.754	0.284	-0.103
-431.661	-200.000	0.025	-0.262
-430.646	800.000	-0.071	-0.219
-429.632	37.156	0.055	-0.049
-428.617	-129.227	0.298	0.042
-427.603	-131.954	0.208	-0.027
-426.588	-49.787	-0.119	-0.057
-425.573	-36.067	-0.276	-0.149
-424.559	719.498	-0.110	0.292
-423.544	-33.125	0.149	-0.082
-422.530	-138.921	-0.172	-0.019
-421.515	467.199	-0.073	0.163
-420.500	131.751	0.066	-0.085
-419.486	-139.335	-0.389	0.042
-418.471	58.153	0.100	-0.098
-417.457	-160.715	-0.314	0.017
-416.442	81.234	0.314	-0.339
-415.428	800.000	0.064	-0.211
-414.413	161.477	0.040	0.055
-413.398	291.102	-0.177	-0.322
-412.384	-24.216	-0.071	0.042
-411.369	-66.734	-0.060	-0.024
-410.355	-200.000	-0.040	-0.237
-409.340	-20.162	-0.033	-0.020
-408.325	-46.423	0.162	0.080
-407.311	191.023	0.145	0.218
-406.296	-37.487	-0.142	0.076
-405.282	800.000	-0.070	0.207
-404.267	800.000	-0.071	0.210
-403.252	-129.175	0.155	0.022
-402.238	-80.775	0.082	0.027
-401.223	-86.898	-0.163	-0.050
-400.209	-150.599	0.084	0.006
-399.194	353.093	0.028	0.055
-398.179	-167.213	-0.293	-0.012
-397.165	58.396	0.189	0.185
-396.150	-200.000	0.007	0.248
-395.136	800.000	0.092	-0.297
-394.121	193.975	-0.190	0.288
-393.106	-200.000	0.014	0.230
-392.092	112.956	-0.112	0.135
-391.077	-42.345	0.330	-0.168
-390.063	-64.424	0.266	-0.108
-389.048	39.686	-0.205	0.183
-388.033	99.519	0.072	-0.083
-387.019	-200.000	-0.008	0.169
-386.004	-200.000	-0.025	0.174
-384.990	-150.778	0.227	0.017
-383.975	-25.174	0.132	-0.078
-382.960	-200.000	0.027	0.163
-381.946	274.620	-0.131	0.232
-380.931	800.000	0.086	-0.302
-379.917	-80.786	-0.330	0.109
-378.902	-17.392	0.127	0.080
-377.888	-43.035	0.085	-0.043
-376.873	-35.779	-0.299	0.161
-375.858	800.000	-0.060	0.233
-374.844	-200.000	-0.064	0.320
-373.829	-170.625	0.331	0.011
-372.815	-50.481	0.212	-0.100
-371.800	-57.626	-0.387	0.169
-370.785	-50.922	0.094	-0.044
-369.771	-3.905	-0.299	0.207
-368.756	-200.000	0.021	-0.189
-367.742	-16.915	-0.284	0.179
-366.727	456.062	-0.091	0.200
-365.712	504.148	0.116	-0.267
-364.698	545.401	-0.028	0.066
-363.683	797.299	-0.077	0.211
-362.669	158.287	0.187	0.258
-361.654	176.568	-0.045	-0.065
-360.639	167.103	0.047	0.067
-359.625	-200.000	-0.062	-0.311
-358.610	658.509	0.105	0.270
-357.596	-200.000	-0.023	-0.248
-356.581	800.000	0.028	0.097
-355.566	800.000	-0.034	0.127
-354.552	-7.293	0.083	-0.056
-353.537	-119.701	0.457	0.079
-352.523	-173.957	-0.085	-0.002
-351.508	26.900	-0.228	0.191
-350.493	-13.330	0.318	0.206
-349.479	-57.089	0.114	-0.050
-348.464	800.000	0.112	-0.352
-347.450	23.177	-0.080	-0.066
-346.435	43.918	-0.056	-0.051
-345.420	-200.000	0.018	0.170
-344.406	800.000	-0.087	0.311
-343.391	800.000	0.024	0.101
-342.377	-200.000	0.029	-0.366
-341.362	110.810	-0.098	-0.118
-340.348	-26.673	0.241	0.141
-339.333	555.639	0.082	-0.196
-338.318	-57.994	0.010	0.004
-337.304	-192.106	-0.033	0.000
-336.289	-37.997	-0.283	0.150
-335.275	-200.000	0.007	0.269
-334.260	116.772	-0.047	-0.057
-333.245	-182.525	-0.163	0.003
-332.231	-80.283	-0.025	0.008
-331.216	238.169	0.072	0.119
-330.202	-109.542	0.295	0.062
-329.187	-200.000	-0.044	-0.449
-328.172	-110.253	0.335	-0.070
-327.158	62.057	0.208	-0.207
-326.143	-65.708	-0.446	-0.178
-325.129	471.054	0.220	-0.494
-324.114	755.581	-0.089	0.239
-323.099	-128.933	0.327	-0.046
-322.085	-90.197	0.117	0.034
-321.070	44.208	-0.193	0.177
-320.056	41.759	-0.077	-0.070
-319.041	-35.839	0.026	-0.014
-318.026	30.548	-0.206	-0.176
-317.012	800.000	0.135	-0.503
-315.997	-104.859	0.152	-0.035
-314.983	413.816	0.125	0.265
-313.968	252.727	-0.204	0.346
-312.953	504.353	-0.020	0.046
-311.939	225.449	-0.206	0.332
-310.924	-4.396	-0.176	0.121
-309.910	800.000	0.045	-0.138
-308.895	-160.754	-0.299	0.016
-307.880	-90.922	-0.101	0.029
-306.866	-37.304	-0.332	-0.176
-305.851	800.000	-0.103	-0.290
-304.837	-102.375	0.434	0.103
-303.822	795.617	0.053	0.145
-302.807	190.004	0.181	-0.270
-301.793	86.785	-0.133	-0.147
-300.778	-200.000	0.024	0.109
-299.764	800.000	0.076	-0.308
-298.749	-141.925	-0.309	-0.031
-297.735	110.527	-0.113	-0.135
-296.720	254.840	-0.173	-0.294
-295.705	800.000	-0.074	0.231
-294.691	717.775	0.066	0.173
-293.676	-151.093	-0.344	0.026
-292.662	-65.319	-0.206	-0.082
-291.647	-200.000	0.077	-0.481
-290.632	800.000	0.080	-0.269
-289.618	-135.463	-0.157	0.019
-288.603	-131.504	-0.123	0.016
-287.589	-47.260	-0.259	-0.126
-286.574	101.362	-0.230	0.267
-285.559	15.423	-0.246	0.192
-284.545	-121.024	0.156	-0.026
-283.530	-79.378	-0.270	-0.091
-282.516	-70.708	0.418	0.157
-281.501	497.073	0.007	0.017
-280.486	-200.000	0.073	0.538
-279.472	-200.000	0.052	0.370
-278.457	-200.000	-0.084	0.470
-277.443	675.275	-0.159	0.412
-276.428	-200.000	-0.031	-0.290
-275.413	90.308	0.177	-0.197
-274.399	41.525	0.398	-0.358
-273.384	-200.000	-0.046	-0.435
-272.370	-65.963	-0.401	-0.159
-271.355	-90.905	-0.313	0.090
-270.340	-200.000	-0.010	0.058
-269.326	289.756	-0.109	-0.197
-268.311	-1.721	0.313	-0.219
-267.297	-155.798	-0.237	0.015
-266.282	77.784	0.173	0.183
-265.267	800.000	-0.043	0.183
-264.253	-94.400	0.343	-0.093
-263.238	-25.107	0.191	-0.112
-262.224	324.969	0.079	-0.150
-261.209	-88.485	0.389	0.115
-260.195	800.000	-0.041	-0.143
-259.180	-121.387	0.428	0.071
-258.165	186.804	0.058	-0.085
-257.151	-42.274	0.051	0.026
-256.136	-44.681	0.225	0.112
-255.122	375.331	-0.139	-0.281
-254.107	-6.561	0.222	0.150
-253.092	-30.698	-0.100	-0.056
-252.078	129.993	0.116	0.147
-251.063	-33.845	-0.172	0.094
-250.049	175.682	0.062	-0.089
-249.034	-200.000	0.047	0.282
-248.019	768.960	0.075	-0.203
-247.005	-83.233	-0.364	0.116
-245.990	-200.000	-0.038	0.248
-244.976	-200.000	-0.014	0.117
-243.961	-144.896	-0.265	-0.024
-242.946	-200.000	0.003	0.256
-241.932	77.581	0.134	0.142
-240.917	130.401	0.065	0.083
-239.903	2.780	-0.139	-0.100
-238.888	243.065	0.029	0.048
-237.873	-69.760	-0.511	0.194
-236.859	-200.000	-0.088	0.574
-235.844	-200.000	-0.006	0.089
-234.830	800.000	0.022	0.075
-233.815	60.915	0.198	-0.195
-232.800	-14.295	-0.092	0.058
-231.786	129.030	-0.176	-0.223
-230.771	800.000	0.079	-0.242
-229.757	-50.955	-0.202	0.094
-228.742	132.950	0.065	-0.083
-227.727	50.255	0.113	0.106
-226.713	800.000	-0.034	-0.131
-225.698	102.702	0.085	0.099
-224.684	-53.341	-0.179	0.081
-223.669	-66.229	-0.057	-0.022
-222.655	-133.656	-0.040	0.005
-221.640	800.000	-0.094	-0.405
-220.625	-70.368	0.424	-0.159
-219.611	-87.701	-0.350	0.105
-218.596	-200.000	0.018	0.164
-217.582	-77.383	0.347	-0.119
-216.567	65.827	0.104	-0.104
-215.552	-154.213	0.208	0.014
-214.538	-66.344	0.132	-0.052
-213.523	139.501	0.166	0.217
-212.509	800.000	0.098	0.323
-211.494	-137.729	0.191	0.021
-210.479	345.031	-0.017	0.033
-209.465	800.000	-0.051	0.170
-208.450	-31.931	-0.343	0.190
-207.436	800.000	0.053	-0.166
-206.421	583.248	0.067	0.162
-205.406	33.533	-0.057	0.049
-204.392	142.343	-0.233	0.307
-203.377	-32.895	-0.255	0.140
-202.363	160.378	0.139	-0.192
-201.348	800.000	-0.048	0.182
-200.333	39.087	0.054	0.048
-199.319	-89.732	0.225	-0.065
-198.304	800.000	0.067	0.249
-197.290	800.000	0.083	0.248
-196.275	-67.605	-0.336	-0.130
-195.260	72.994	-0.208	0.215
-194.246	-200.000	-0.014	0.159
-193.231	-34.009	-0.092	-0.050
-192.217	-200.000	0.008	-0.103
-191.202	-189.110	-0.275	-0.003
-190.187	-200.000	-0.064	-0.375
-189.173	63.600	-0.107	-0.106
-188.158	800.000	-0.053	0.186
-187.144	-200.000	-0.064	0.314
-186.129	29.277	-0.157	0.132
-185.114	-200.000	-0.004	-0.137
-184.100	-139.525	-0.178	0.019
-183.085	800.000	0.059	-0.208
-182.071	-200.000	0.075	-0.343
-181.056	-98.848	0.162	0.041
-180.042	86.935	0.205	0.224
-179.027	59.658	-0.063	0.062
-178.012	530.633	-0.064	0.149
-176.998	334.855	-0.092	0.176
-175.983	31.764	-0.148	-0.126
-174.969	-200.000	0.009	0.329
-173.954	218.978	0.111	-0.176
-172.939	173.436	-0.094	-0.134
-171.925	-0.062	0.265	-0.187
-170.910	-6.560	-0.127	0.086
-169.896	-39.616	0.380	0.197
-168.881	-105.211	-0.284	0.064
-167.866	-39.297	-0.583	0.303
-166.852	-200.000	-0.000	-0.062
-165.837	800.000	-0.010	0.035
-164.823	-122.261	0.143	-0.023
-163.808	624.857	0.058	-0.145
-162.793	-132.120	-0.407	0.052
-161.779	32.173	-0.197	-0.168
-160.764	-101.710	0.158	-0.038
-159.750	-200.000	-0.017	-0.156
-158.735	-66.117	-0.137	0.054
-157.720	800.000	0.045	0.161
-156.706	-57.228	-0.188	-0.082
-155.691	53.068	0.193	0.183
-154.677	-107.180	0.201	-0.044
-153.662	-200.000	0.032	-0.268
-152.647	19.255	-0.102	-0.081
-151.633	-22.992	-0.077	0.046
-150.618	-132.140	0.139	-0.018
-149.604	285.989	-0.078	-0.139
-148.589	576.134	-0.144	-0.347
-147.574	-13.413	0.316	0.202
-146.560	800.000	-0.055	-0.168
-145.545	181.817	-0.096	-0.139
-144.531	-200.000	0.043	0.310
-143.516	800.000	0.043	0.171
-142.502	137.457	0.156	-0.201
-141.487	587.617	0.128	-0.311
-140.472	-64.941	0.092	-0.037
-139.458	800.000	0.124	-0.345
-138.443	14.715	-0.125	0.097
-137.429	418.770	-0.112	0.236
-136.414	-200.000	-0.026	0.337
-135.399	123.650	0.079	-0.099
-134.385	-33.793	0.103	-0.056
-133.370	-200.000	0.026	0.192
-132.356	380.001	-0.069	-0.139
-131.341	800.000	0.031	0.116
-130.326	213.232	-0.119	-0.186
-129.312	-50.580	-0.206	-0.096
-128.297	800.000	-0.051	-0.206
-127.283	48.853	0.324	0.300
-126.268	62.660	0.037	-0.036
-125.253	240.856	0.050	-0.082
-124.239	2.488	0.105	0.075
-123.224	-61.076	0.268	-0.112
-122.210	-200.000	0.023	0.184
-121.195	167.802	-0.192	-0.269
