DTS Sentinel unit serial number:	SN413079Multiplexer serial number:	ORYXHardware model number:	OX4-SRSoftware version number:	ORYX F/W v4.00 Oryx Data Collector v3.7.2.0data status	okinstallation	princeton_trtdifferential loss correction	single-endedforward channel	channel 4reverse channel	N/Adate	2019/09/13time	13:05:35forward acquisition time	60.00reverse acquisition time	0.00gamma	496.2192k internal	0.2296k external	0.2296temperature offset calibration	1.0210default loss term (dB/km)	0.3790temperature slope calibration	1.0000multiplexer offset coefficient	1.0000multiplexer slope coefficient	1.0000fibre end	0.00T internal ref (°C)	34.81T ext. ref 1 (°C)	4.56T ext. ref 2 (°C)	31.26length (m)	temperature (°C)	Stokes	anti-Stokes-747.200	207.638	0.175	0.278
-746.185	-200.000	-0.051	0.336
-745.171	-200.000	-0.024	0.125
-744.156	-200.000	0.001	0.309
-743.142	-200.000	-0.014	-0.159
-742.127	-200.000	0.034	-0.155
-741.112	478.011	0.163	-0.376
-740.098	800.000	-0.065	0.202
-739.083	-52.689	0.279	0.131
-738.069	337.238	-0.195	0.388
-737.054	-68.019	-0.365	0.145
-736.039	-135.079	0.109	0.013
-735.025	41.622	0.233	-0.216
-734.010	-165.175	-0.259	-0.012
-732.996	49.746	-0.262	-0.252
-731.981	800.000	0.060	-0.233
-730.966	3.324	0.134	-0.100
-729.952	701.537	-0.094	0.253
-728.937	374.262	-0.076	-0.158
-727.923	-117.566	0.154	-0.028
-726.908	-165.843	-0.081	-0.004
-725.894	-137.343	0.110	0.013
-724.879	-156.507	0.028	-0.002
-723.864	318.544	-0.107	-0.206
-722.850	199.972	-0.200	-0.313
-721.835	373.213	0.021	-0.043
-720.821	769.924	-0.080	0.222
-719.806	-43.863	-0.127	0.065
-718.791	-126.189	0.051	0.008
-717.777	-200.000	0.080	0.372
-716.762	337.493	-0.024	-0.048
-715.748	-200.000	-0.020	-0.090
-714.733	-21.017	0.224	-0.140
-713.718	-80.261	0.087	0.030
-712.704	-200.000	-0.033	0.220
-711.689	-44.258	-0.413	0.211
-710.675	37.403	-0.156	0.141
-709.660	341.089	0.120	-0.238
-708.645	-200.000	0.005	0.113
-707.631	540.667	0.114	0.277
-706.616	-59.517	0.319	-0.140
-705.602	-200.000	0.069	0.379
-704.587	1.344	-0.218	-0.160
-703.572	91.276	0.117	-0.134
-702.558	-26.743	-0.201	-0.120
-701.543	57.527	-0.208	0.207
-700.529	-144.180	-0.139	0.013
-699.514	49.928	0.106	0.102
-698.499	29.364	-0.480	-0.416
-697.485	-200.000	-0.036	0.232
-696.470	465.688	-0.078	0.178
-695.456	-40.907	0.102	0.054
-694.441	-24.961	-0.274	-0.166
-693.426	440.009	0.077	0.172
-692.412	-134.738	0.089	0.011
-691.397	214.885	0.086	-0.138
-690.383	-108.124	0.097	0.022
-689.368	-200.000	-0.016	-0.205
-688.354	75.025	0.119	0.127
-687.339	40.938	-0.191	0.176
-686.324	-38.802	0.151	0.081
-685.310	485.226	0.078	0.181
-684.295	-200.000	-0.019	-0.407
-683.281	-102.539	0.320	-0.078
-682.266	-200.000	0.007	0.197
-681.251	601.094	-0.066	0.168
-680.237	-101.013	-0.303	0.076
-679.222	-114.522	0.126	0.025
-678.208	-106.858	-0.292	0.066
-677.193	37.977	-0.166	-0.150
-676.178	169.943	0.078	-0.114
-675.164	-191.599	0.188	-0.002
-674.149	60.766	0.005	0.005
-673.135	-58.688	-0.094	-0.041
-672.120	-200.000	-0.044	-0.277
-671.105	-68.403	-0.166	-0.066
-670.091	107.948	0.122	0.148
-669.076	592.809	0.074	-0.187
-668.062	-108.535	0.311	0.068
-667.047	103.290	0.133	-0.159
-666.032	-127.285	-0.336	0.050
-665.018	80.154	0.181	0.199
-664.003	800.000	-0.033	-0.109
-662.989	37.273	0.152	0.137
-661.974	-8.485	-0.132	-0.090
-660.959	-6.403	-0.047	-0.032
-659.945	-160.138	0.214	-0.012
-658.930	-200.000	0.057	-0.319
-657.916	10.343	-0.195	-0.151
-656.901	-200.000	-0.021	-0.253
-655.886	283.127	-0.300	-0.549
-654.872	47.089	0.085	0.080
-653.857	-107.392	0.062	-0.014
-652.843	26.157	0.154	-0.131
-651.828	-13.786	0.298	-0.196
-650.814	800.000	-0.082	-0.253
-649.799	-63.573	0.163	-0.068
-648.784	-99.323	-0.352	0.090
-647.770	-147.622	-0.312	0.027
-646.755	-82.127	0.336	0.111
-645.741	800.000	-0.054	-0.154
-644.726	122.505	-0.281	0.358
-643.711	-200.000	-0.011	-0.363
-642.697	-128.715	-0.158	-0.023
-641.682	-200.000	0.020	0.198
-640.668	9.580	0.247	-0.190
-639.653	-152.524	-0.450	-0.033
-638.638	107.685	-0.147	-0.179
-637.624	426.717	0.149	0.326
-636.609	447.266	0.074	-0.165
-635.595	-200.000	-0.058	-0.334
-634.580	69.354	0.303	-0.317
-633.565	-200.000	-0.008	0.099
-632.551	94.172	-0.207	0.239
-631.536	221.618	0.031	-0.051
-630.522	-57.852	-0.163	0.073
-629.507	-114.922	-0.330	-0.064
-628.492	48.687	0.174	-0.166
-627.478	-115.260	0.308	0.059
-626.463	800.000	0.085	-0.341
-625.449	-145.392	-0.146	-0.013
-624.434	-124.449	0.244	0.039
-623.419	62.078	0.023	-0.023
-622.405	-71.944	0.116	-0.044
-621.390	86.208	0.221	0.247
-620.376	-116.557	-0.186	0.035
-619.361	81.108	-0.101	0.111
-618.346	689.824	-0.092	-0.244
-617.332	-54.168	0.277	-0.128
-616.317	191.666	-0.263	-0.403
-615.303	-200.000	-0.007	-0.088
-614.288	-35.192	-0.207	-0.114
-613.273	-200.000	0.040	0.344
-612.259	635.487	-0.024	-0.062
-611.244	24.382	0.167	0.140
-610.230	-30.719	0.302	0.174
-609.215	15.769	0.019	-0.015
-608.201	35.364	-0.268	-0.239
-607.186	-60.928	0.116	0.050
-606.171	530.303	-0.089	-0.213
-605.157	124.013	0.053	-0.068
-604.142	-120.923	0.214	0.037
-603.128	-104.625	-0.323	-0.076
-602.113	-96.535	-0.098	-0.026
-601.098	128.551	-0.094	0.121
-600.084	225.167	0.041	-0.068
-599.069	-6.331	0.058	-0.040
-598.055	13.769	-0.056	-0.044
-597.040	-99.410	-0.160	-0.041
-596.025	800.000	0.099	0.396
-595.011	-200.000	0.017	-0.089
-593.996	-84.287	0.070	-0.022
-592.982	-126.431	0.413	-0.062
-591.967	60.623	0.256	0.258
-590.952	-94.072	-0.297	0.083
-589.938	351.659	-0.098	-0.197
-588.923	-200.000	-0.008	-0.120
-587.909	-93.287	0.129	-0.036
-586.894	-57.840	-0.166	0.074
-585.879	306.747	0.071	-0.135
-584.865	-177.614	-0.072	-0.002
-583.850	346.007	-0.095	0.189
-582.836	-200.000	-0.019	-0.390
-581.821	-200.000	-0.001	-0.245
-580.806	101.630	-0.142	-0.168
-579.792	-126.353	-0.324	0.049
-578.777	58.639	0.127	0.127
-577.763	42.635	0.225	0.208
-576.748	516.421	0.020	0.048
-575.733	-135.736	-0.127	0.015
-574.719	800.000	-0.038	0.154
-573.704	19.451	0.323	0.263
-572.690	-97.912	0.302	0.079
-571.675	-200.000	-0.022	-0.112
-570.661	800.000	-0.100	0.411
-569.646	-200.000	0.031	0.152
-568.631	-37.616	-0.188	-0.102
-567.617	454.272	-0.006	-0.013
-566.602	800.000	0.085	-0.352
-565.588	-31.515	0.209	-0.119
-564.573	2.106	-0.051	0.037
-563.558	42.429	0.280	0.258
-562.544	-153.102	-0.464	0.033
-561.529	546.799	-0.060	-0.145
-560.515	-73.470	-0.232	-0.086
-559.500	-145.792	-0.444	0.040
-558.485	-200.000	-0.108	-0.550
-557.471	-98.280	-0.126	-0.033
-556.456	-106.433	0.251	-0.057
-555.442	-42.637	-0.274	-0.141
-554.427	-120.226	-0.243	0.042
-553.412	-200.000	0.058	-0.378
-552.398	-163.192	0.259	-0.013
-551.383	-200.000	0.054	0.257
-550.369	-73.182	-0.465	0.173
-549.354	800.000	0.055	0.157
-548.339	-173.519	-0.166	0.005
-547.325	-96.703	-0.276	0.074
-546.310	-112.521	-0.290	-0.059
-545.296	251.371	0.076	-0.132
-544.281	-200.000	0.003	0.138
-543.266	-49.129	-0.151	-0.073
-542.252	-200.000	0.006	0.107
-541.237	11.662	-0.213	0.166
-540.223	-39.644	0.225	0.120
-539.208	-200.000	-0.059	0.345
-538.193	-106.941	-0.173	0.039
-537.179	800.000	0.033	-0.132
-536.164	800.000	0.030	-0.085
-535.150	-200.000	0.002	-0.084
-534.135	-3.225	0.230	0.163
-533.121	-200.000	0.011	0.147
-532.106	-200.000	0.010	0.088
-531.091	-53.093	0.326	0.152
-530.077	-200.000	0.012	-0.063
-529.062	740.944	-0.055	-0.148
-528.048	-110.345	0.238	0.050
-527.033	425.906	0.084	-0.183
-526.018	53.837	0.181	0.176
-525.004	-200.000	-0.020	-0.120
-523.989	-33.895	0.101	0.056
-522.975	448.821	0.046	-0.103
-521.960	-158.548	-0.079	-0.005
-520.945	-38.926	-0.320	0.171
-519.931	-172.699	-0.364	-0.012
-518.916	40.911	0.114	0.104
-517.902	-54.948	0.255	0.117
-516.887	212.370	-0.220	0.351
-515.872	-32.961	-0.305	0.172
-514.858	-58.260	-0.179	-0.079
-513.843	44.293	0.111	-0.103
-512.829	-9.254	0.154	-0.104
-511.814	-19.272	-0.012	-0.008
-510.799	-200.000	0.061	0.340
-509.785	-100.267	-0.089	-0.022
-508.770	-109.812	0.170	-0.036
-507.756	132.796	0.288	0.376
-506.741	62.809	-0.132	0.134
-505.726	-47.574	-0.203	0.100
-504.712	119.090	0.080	-0.100
-503.697	-5.647	0.268	-0.186
-502.683	-200.000	0.038	-0.338
-501.668	-13.501	-0.195	0.128
-500.653	82.053	-0.027	0.029
-499.639	-137.087	-0.224	-0.026
-498.624	-75.746	-0.306	-0.110
-497.610	-200.000	0.070	-0.321
-496.595	-104.155	-0.187	0.044
-495.581	-34.155	-0.343	-0.191
-494.566	-200.000	0.009	0.050
-493.551	14.633	0.076	-0.060
-492.537	-16.875	0.187	0.120
-491.522	-108.118	-0.108	0.024
-490.508	-131.447	0.224	-0.030
-489.493	-200.000	-0.038	-0.283
-488.478	421.551	-0.106	0.230
-487.464	111.036	0.090	0.110
-486.449	-200.000	0.030	0.255
-485.435	115.926	0.008	0.010
-484.420	-46.596	0.042	-0.021
-483.405	800.000	-0.099	-0.300
-482.391	-38.498	0.470	0.251
-481.376	-23.212	0.078	-0.047
-480.362	-124.086	0.365	0.058
-479.347	694.916	0.055	-0.145
-478.332	-114.942	-0.276	0.053
-477.318	-47.785	-0.336	-0.165
-476.303	-155.884	0.284	0.018
-475.289	-200.000	-0.011	-0.180
-474.274	-69.666	-0.315	-0.122
-473.259	-175.767	-0.448	-0.012
-472.245	-50.932	0.417	-0.198
-471.230	-44.050	0.296	-0.151
-470.216	713.858	-0.104	0.279
-469.201	287.760	-0.068	0.124
-468.186	-200.000	-0.012	0.111
-467.172	19.398	0.138	0.112
-466.157	49.862	-0.172	0.164
-465.143	-186.117	0.171	0.003
-464.128	-121.630	0.133	0.022
-463.113	249.235	-0.056	-0.095
-462.099	-101.145	0.174	-0.043
-461.084	68.243	0.256	-0.264
-460.070	642.225	0.044	0.113
-459.055	107.484	0.150	0.180
-458.040	-200.000	0.035	-0.614
-457.026	190.215	0.069	0.105
-456.011	205.547	-0.060	-0.094
-454.997	408.984	0.114	0.244
-453.982	655.362	-0.090	0.234
-452.968	-26.522	0.324	0.192
-451.953	-55.492	-0.245	-0.111
-450.938	404.821	0.078	0.166
-449.924	573.495	0.132	-0.326
-448.909	-93.393	-0.191	-0.054
-447.895	800.000	-0.113	0.399
-446.880	71.957	-0.161	0.169
-445.865	-52.162	0.114	-0.053
-444.851	-200.000	-0.003	0.209
-443.836	-200.000	-0.031	0.306
-442.822	524.013	0.043	-0.102
-441.807	754.393	0.065	-0.178
-440.792	78.474	0.083	-0.090
-439.778	-42.675	-0.302	-0.155
-438.763	-59.042	-0.085	-0.037
-437.749	-35.867	0.158	0.086
-436.734	-77.348	0.193	0.068
-435.719	62.245	0.135	-0.136
-434.705	241.864	-0.122	-0.206
-433.690	-109.483	0.217	0.046
-432.676	163.020	0.139	0.197
-431.661	262.793	0.032	0.056
-430.646	229.878	0.119	0.197
-429.632	800.000	0.150	0.495
-428.617	-95.870	0.275	-0.074
-427.603	-200.000	0.034	-0.481
-426.588	180.477	-0.174	-0.257
-425.573	398.540	-0.064	0.136
-424.559	-92.340	0.226	-0.064
-423.544	-56.881	-0.183	-0.082
-422.530	121.563	0.044	-0.055
-421.515	109.510	0.082	0.100
-420.500	800.000	-0.065	-0.210
-419.486	24.026	0.277	0.231
-418.471	8.479	-0.382	0.290
-417.457	800.000	-0.109	0.414
-416.442	-161.404	0.288	0.015
-415.428	-130.450	0.240	-0.033
-414.413	63.062	0.090	-0.091
-413.398	-100.881	0.337	-0.083
-412.384	-200.000	0.021	0.383
-411.369	-46.066	-0.072	-0.036
-410.355	-113.562	-0.356	-0.070
-409.340	53.860	-0.304	-0.295
-408.325	-9.448	-0.192	0.129
-407.311	433.239	0.081	0.177
-406.296	-92.630	0.101	-0.028
-405.282	-200.000	0.026	0.272
-404.267	800.000	-0.122	0.397
-403.252	1.963	0.118	0.086
-402.238	800.000	0.052	0.188
-401.223	623.381	0.056	-0.141
-400.209	9.656	0.339	0.259
-399.194	205.641	-0.078	-0.123
-398.179	-200.000	-0.016	-0.079
-397.165	800.000	-0.026	-0.103
-396.150	-200.000	0.327	-0.001
-395.136	-143.687	0.115	-0.011
-394.121	548.314	-0.054	-0.129
-393.106	-99.607	0.285	-0.072
-392.092	51.231	0.101	-0.097
-391.077	-146.577	0.215	0.019
-390.063	130.031	0.152	0.196
-389.048	800.000	0.060	-0.196
-388.033	46.858	-0.040	0.038
-387.019	-103.870	-0.243	0.057
-386.004	-52.715	-0.040	0.019
-384.990	-6.751	-0.008	-0.006
-383.975	-125.842	0.085	0.013
-382.960	-18.570	-0.291	-0.183
-381.946	173.791	-0.098	0.143
-380.931	-172.487	-0.144	-0.005
-379.917	87.045	0.081	0.090
-378.902	-200.000	0.009	-0.059
-377.888	198.447	0.176	0.271
-376.873	-113.078	-0.453	-0.090
-375.858	173.373	-0.054	-0.079
-374.844	-129.775	0.293	0.041
-373.829	-179.026	-0.230	0.005
-372.815	-73.088	0.066	0.024
-371.800	254.771	-0.074	-0.128
-370.785	-124.530	0.263	0.041
-369.771	800.000	0.058	-0.207
-368.756	368.086	0.062	0.127
-367.742	-38.199	0.047	0.025
-366.727	-200.000	0.069	-0.525
-365.712	-71.258	0.509	0.192
-364.698	27.758	0.018	0.015
-363.683	167.097	-0.141	-0.201
-362.669	800.000	-0.020	-0.057
-361.654	220.197	0.126	-0.204
-360.639	-118.754	-0.498	0.088
-359.625	84.251	-0.145	-0.159
-358.610	-23.465	-0.333	-0.201
-357.596	-95.399	0.058	-0.016
-356.581	147.905	0.110	0.149
-355.566	-145.133	0.136	0.012
-354.552	-1.441	-0.206	-0.146
-353.537	105.390	-0.140	-0.166
-352.523	-200.000	0.008	-0.363
-351.508	-200.000	-0.037	-0.166
-350.493	-117.594	-0.239	-0.043
-349.479	56.235	-0.250	-0.244
-348.464	-61.309	-0.145	-0.061
-347.450	-131.441	0.166	-0.022
-346.435	332.814	0.101	0.196
-345.420	5.295	0.224	0.166
-344.406	-49.074	0.215	0.103
-343.391	16.878	-0.223	-0.178
-342.377	-200.000	0.013	0.199
-341.362	-200.000	0.001	-0.167
-340.348	328.815	0.124	0.239
-339.333	-200.000	0.019	0.279
-338.318	-200.000	-0.048	-0.236
-337.304	-200.000	-0.037	-0.301
-336.289	-44.006	-0.019	0.010
-335.275	-172.969	-0.196	0.006
-334.260	331.641	-0.117	-0.226
-333.245	-65.582	0.172	0.070
-332.231	-169.925	-0.087	0.003
-331.216	-33.501	0.214	-0.119
-330.202	-200.000	-0.080	0.366
-329.187	-75.715	-0.237	-0.085
-328.172	132.464	0.092	0.119
-327.158	-200.000	-0.014	-0.147
-326.143	-34.652	0.251	0.138
-325.129	-200.000	-0.000	-0.030
-324.114	-93.759	0.258	0.072
-323.099	322.611	-0.124	-0.238
-322.085	-62.152	0.247	0.104
-321.070	67.777	0.153	-0.158
-320.056	323.117	0.110	-0.211
-319.041	-136.944	0.327	-0.038
-318.026	632.203	0.003	-0.007
-317.012	-130.739	-0.067	0.009
-315.997	-29.542	-0.217	-0.125
-314.983	38.002	0.211	0.189
-313.968	217.307	0.093	0.148
-312.953	-200.000	-0.032	-0.246
-311.939	82.830	0.122	0.134
-310.924	-79.238	-0.387	0.132
-309.910	240.571	-0.028	-0.046
-308.895	366.596	-0.088	0.178
-307.880	68.448	-0.171	-0.176
-306.866	-200.000	0.009	-0.165
-305.851	-47.450	0.203	0.099
-304.837	733.986	-0.103	-0.278
-303.822	-19.609	-0.167	-0.104
-302.807	800.000	-0.065	-0.192
-301.793	211.854	-0.081	0.128
-300.778	436.545	-0.018	-0.039
-299.764	20.041	-0.047	-0.038
-298.749	-131.408	-0.108	-0.014
-297.735	113.684	-0.148	0.181
-296.720	-200.000	-0.006	-0.117
-295.705	-47.683	-0.245	-0.119
-294.691	-52.295	0.135	0.063
-293.676	-200.000	-0.005	-0.166
-292.662	278.612	0.020	-0.036
-291.647	-58.358	-0.207	-0.090
-290.632	-97.342	0.247	0.065
-289.618	-200.000	-0.011	0.358
-288.603	-96.163	-0.041	0.011
-287.589	-200.000	0.004	0.316
-286.574	800.000	-0.046	-0.196
-285.559	800.000	-0.045	0.128
-284.545	-200.000	0.020	0.414
-283.530	-102.897	0.473	-0.113
-282.516	466.674	-0.060	0.135
-281.501	-200.000	-0.009	-0.230
-280.486	-140.573	-0.219	-0.023
-279.472	-144.901	0.199	0.018
-278.457	84.949	0.069	0.076
-277.443	-200.000	0.031	-0.415
-276.428	295.920	0.050	-0.092
-275.413	-200.000	0.054	0.267
-274.399	-110.718	-0.509	-0.105
-273.384	90.757	-0.108	-0.121
-272.370	-119.497	0.308	0.054
-271.355	-177.322	0.180	0.004
-270.340	114.835	0.078	0.095
-269.326	184.482	-0.032	0.048
-268.311	484.787	0.014	0.032
-267.297	72.172	-0.045	0.047
-266.282	272.306	0.144	-0.255
-265.267	-139.887	-0.151	0.016
-264.253	-89.874	-0.078	-0.023
-263.238	-200.000	0.016	-0.122
-262.224	800.000	-0.031	-0.135
-261.209	31.427	-0.272	-0.234
-260.195	-200.000	-0.029	0.230
-259.180	-52.682	-0.108	0.050
-258.165	-200.000	-0.008	0.084
-257.151	-52.177	0.293	-0.136
-256.136	565.133	0.025	-0.062
-255.122	319.846	0.095	0.180
-254.107	288.001	-0.142	-0.258
-253.092	-200.000	-0.099	0.000
-252.078	184.839	-0.201	0.299
-251.063	-7.990	0.362	-0.245
-250.049	-162.782	0.249	0.012
-249.034	-8.087	0.201	-0.136
-248.019	135.067	0.028	0.037
-247.005	-200.000	-0.009	-0.269
-245.990	-68.801	-0.301	0.117
-244.976	-130.865	-0.237	0.032
-243.961	800.000	0.039	-0.167
-242.946	800.000	-0.039	-0.131
-241.932	-64.883	-0.085	0.034
-240.917	-97.353	0.062	-0.016
-239.903	34.227	0.126	-0.110
-238.888	-68.594	0.124	0.048
-237.873	-193.496	-0.085	-0.001
-236.859	-151.369	-0.137	-0.010
-235.844	-162.945	-0.199	0.010
-234.830	-157.261	-0.244	-0.015
-233.815	-51.152	0.208	-0.098
-232.800	211.928	-0.200	-0.316
-231.786	42.639	-0.165	0.150
-230.771	204.932	-0.081	0.125
-229.757	-100.539	-0.307	0.076
-228.742	-173.569	-0.247	0.007
-227.727	-200.000	-0.007	-0.325
-226.713	369.671	-0.106	0.215
-225.698	181.237	0.172	0.253
-224.684	30.080	-0.128	0.109
-223.669	-200.000	0.027	-0.173
-222.655	800.000	0.013	-0.039
-221.640	-38.353	0.186	-0.098
-220.625	159.150	-0.140	-0.195
-219.611	800.000	0.109	-0.332
-218.596	-75.120	-0.071	0.026
-217.582	-171.721	0.230	0.008
-216.567	-51.685	-0.182	-0.085
-215.552	-2.377	0.211	-0.148
-214.538	111.766	0.129	0.156
-213.523	118.195	-0.151	-0.186
-212.509	-75.920	-0.087	-0.031
-211.494	13.720	0.374	0.291
-210.479	525.743	0.107	0.252
-209.465	-119.060	0.180	0.032
-208.450	-200.000	-0.075	0.347
-207.436	12.160	0.061	0.047
-206.421	228.653	-0.157	-0.256
-205.406	-88.181	-0.166	0.050
-204.392	406.943	-0.118	-0.250
-203.377	-200.000	-0.031	0.233
-202.363	604.006	-0.130	0.323
-201.348	800.000	-0.083	0.291
-200.333	-33.255	0.304	0.169
-199.319	-111.564	-0.138	0.028
-198.304	-124.771	-0.165	-0.026
-197.290	-77.761	0.209	0.072
-196.275	-200.000	0.054	0.238
-195.260	-30.562	0.156	0.089
-194.246	-6.978	0.171	-0.116
-193.231	481.762	-0.037	-0.084
-192.217	-200.000	0.013	0.064
-191.202	-67.024	0.196	0.077
-190.187	-200.000	0.007	0.278
-189.173	-33.733	-0.155	-0.086
-188.158	199.638	0.131	0.202
-187.144	-106.423	-0.133	-0.030
-186.129	-200.000	0.053	-0.234
-185.114	-74.453	-0.193	0.070
-184.100	76.940	-0.059	0.062
-183.085	-74.288	0.129	0.046
-182.071	45.313	0.139	0.128
-181.056	-133.298	-0.114	0.014
-180.042	-146.732	0.203	0.018
-179.027	160.952	0.138	0.193
-178.012	-38.658	-0.075	-0.040
-176.998	-151.926	-0.083	0.006
-175.983	226.299	0.054	0.088
-174.969	16.989	0.237	0.188
-173.954	-200.000	-0.016	-0.109
-172.939	-113.035	0.228	-0.045
-171.925	-105.938	0.070	0.016
-170.910	-121.957	-0.150	0.025
-169.896	107.981	0.078	-0.093
-168.881	800.000	-0.110	0.394
-167.866	149.984	-0.220	-0.299
-166.852	702.306	0.143	-0.377
-165.837	-200.000	0.060	0.313
-164.823	-174.690	0.403	-0.011
-163.808	673.448	-0.070	-0.182
-162.793	749.693	-0.049	0.133
-161.779	80.688	-0.087	-0.094
-160.764	-20.977	-0.350	0.214
-159.750	-124.858	0.261	0.040
-158.735	-30.571	-0.110	-0.062
-157.720	-200.000	0.037	0.178
-156.706	1.157	0.241	0.173
-155.691	-74.283	0.101	0.036
-154.677	722.738	-0.090	0.239
-153.662	28.347	0.047	0.039
-152.647	-200.000	-0.019	-0.177
-151.633	81.861	-0.205	-0.222
-150.618	84.718	0.054	-0.059
-149.604	-7.556	0.181	-0.122
-148.589	-200.000	-0.012	-0.191
-147.574	382.567	-0.121	0.249
-146.560	225.952	-0.023	0.038
-145.545	-64.074	0.280	0.114
-144.531	-73.341	-0.157	-0.057
-143.516	213.738	-0.085	0.135
-142.502	-138.707	0.254	0.028
-141.487	67.487	0.266	-0.271
-140.472	-64.183	0.294	0.120
-139.458	-49.334	0.216	0.103
-138.443	495.158	-0.068	-0.155
-137.429	800.000	-0.056	0.239
-136.414	-66.078	-0.118	-0.047
-135.399	-200.000	-0.013	0.070
-134.385	800.000	0.027	-0.084
-133.370	-83.064	-0.144	-0.046
-132.356	12.935	-0.238	0.184
-131.341	-157.096	0.051	-0.003
-130.326	-178.074	0.037	-0.001
-129.312	84.313	0.065	0.071
-128.297	110.004	-0.020	0.024
-127.283	-51.929	0.175	-0.081
-126.268	525.808	-0.087	-0.204
-125.253	-9.370	0.086	0.057
-124.239	210.635	0.213	0.334
-123.224	-200.000	-0.038	-0.194
-122.210	-143.009	-0.408	0.039
