DTS Sentinel unit serial number:	SN413079Multiplexer serial number:	ORYXHardware model number:	OX4-SRSoftware version number:	ORYX F/W v4.00 Oryx Data Collector v3.7.2.0data status	okinstallation	princeton_trtdifferential loss correction	single-endedforward channel	channel 4reverse channel	N/Adate	2019/09/19time	13:21:35forward acquisition time	60.00reverse acquisition time	0.00gamma	496.2192k internal	0.2313k external	0.2313temperature offset calibration	1.0015default loss term (dB/km)	0.3790temperature slope calibration	1.0000multiplexer offset coefficient	1.0000multiplexer slope coefficient	1.0000fibre end	0.00T internal ref (°C)	29.67T ext. ref 1 (°C)	0.95T ext. ref 2 (°C)	26.97length (m)	temperature (°C)	Stokes	anti-Stokes-747.200	433.449	-0.085	-0.187
-746.185	96.593	0.097	-0.113
-745.171	800.000	-0.020	-0.089
-744.156	-178.905	-0.291	0.007
-743.142	-200.000	0.037	-0.515
-742.127	-200.000	0.029	0.257
-741.112	-15.743	0.097	0.063
-740.098	-117.323	-0.181	0.033
-739.083	800.000	-0.034	0.106
-738.069	292.856	0.203	0.375
-737.054	-57.160	-0.259	-0.116
-736.039	-112.656	-0.261	-0.053
-735.025	-200.000	0.047	0.294
-734.010	7.792	-0.067	-0.051
-732.996	111.765	0.268	0.327
-731.981	-178.428	0.302	-0.007
-730.966	-200.000	0.026	0.274
-729.952	-200.000	0.022	0.116
-728.937	-24.580	0.413	0.249
-727.923	-64.723	-0.294	0.121
-726.908	-200.000	-0.046	-0.295
-725.894	-200.000	0.000	0.007
-724.879	-200.000	-0.008	0.146
-723.864	367.331	-0.209	0.427
-722.850	89.492	0.062	-0.070
-721.835	-68.950	-0.118	-0.046
-720.821	-56.698	0.104	-0.046
-719.806	207.555	-0.057	-0.090
-718.791	687.541	-0.183	0.484
-717.777	-85.005	-0.170	-0.054
-716.762	-129.903	0.327	-0.045
-715.748	-200.000	0.002	-0.266
-714.733	-114.457	-0.013	0.002
-713.718	80.289	0.110	-0.120
-712.704	-168.095	-0.163	-0.006
-711.689	-125.458	-0.191	0.030
-710.675	88.906	-0.124	0.140
-709.660	-92.024	-0.297	-0.085
-708.645	-200.000	-0.011	-0.080
-707.631	75.260	0.143	0.153
-706.616	-200.000	0.048	-0.248
-705.602	-9.111	0.298	0.202
-704.587	117.474	0.045	0.056
-703.572	107.459	-0.311	-0.375
-702.558	800.000	-0.017	-0.055
-701.543	-141.353	0.215	0.022
-700.529	211.953	0.129	0.206
-699.514	-53.165	-0.029	0.014
-698.499	-135.953	-0.347	0.041
-697.485	208.502	-0.196	0.310
-696.470	40.884	-0.357	0.326
-695.456	93.173	0.264	-0.302
-694.441	452.032	0.032	-0.073
-693.426	438.803	-0.149	0.329
-692.412	-200.000	0.024	-0.208
-691.397	41.863	0.109	0.100
-690.383	-200.000	-0.001	-0.071
-689.368	638.530	-0.023	0.059
-688.354	139.277	0.190	0.253
-687.339	-30.696	-0.216	0.124
-686.324	59.741	0.157	-0.157
-685.310	4.351	-0.053	-0.039
-684.295	-181.086	-0.238	-0.005
-683.281	800.000	-0.061	-0.188
-682.266	76.499	0.102	0.109
-681.251	-68.173	-0.146	-0.058
-680.237	-107.257	0.259	-0.058
-679.222	-120.692	-0.082	0.014
-678.208	-50.676	0.335	0.160
-677.193	251.628	0.027	-0.046
-676.178	-127.294	0.349	0.052
-675.164	5.340	0.141	-0.105
-674.149	-46.196	-0.276	0.137
-673.135	-200.000	0.004	-0.167
-672.120	-9.485	0.176	0.119
-671.105	-200.000	-0.003	-0.249
-670.091	-168.202	0.237	0.009
-669.076	-92.669	0.251	-0.071
-668.062	95.523	-0.167	-0.193
-667.047	-4.794	-0.204	0.142
-666.032	-112.827	0.371	0.074
-665.018	499.695	-0.260	0.605
-664.003	669.357	0.008	-0.022
-662.989	-116.181	0.227	0.043
-661.974	-87.501	-0.143	0.044
-660.959	-200.000	0.064	-0.429
-659.945	584.115	-0.041	0.101
-658.930	-30.999	-0.203	0.116
-657.916	-13.113	0.130	-0.085
-656.901	561.283	-0.031	0.075
-655.886	401.535	-0.169	0.359
-654.872	-63.874	-0.074	0.030
-653.857	-25.731	0.180	0.107
-652.843	800.000	-0.101	-0.392
-651.828	-200.000	0.014	0.245
-650.814	81.723	0.071	-0.077
-649.799	21.868	-0.089	0.073
-648.784	-200.000	-0.029	0.251
-647.770	-200.000	0.041	0.213
-646.755	-90.680	-0.138	-0.040
-645.741	13.289	0.108	-0.085
-644.726	293.199	-0.092	-0.169
-643.711	81.249	0.153	-0.168
-642.697	800.000	0.043	0.150
-641.682	-200.000	-0.069	-0.374
-640.668	3.203	0.226	-0.166
-639.653	0.903	-0.171	0.124
-638.638	154.765	0.100	-0.139
-637.624	196.039	-0.156	-0.239
-636.609	39.005	0.245	-0.221
-635.595	211.503	-0.220	0.350
-634.580	316.754	-0.074	-0.141
-633.565	-97.404	0.230	0.060
-632.551	800.000	-0.054	-0.222
-631.536	15.233	-0.294	-0.233
-630.522	172.796	0.297	0.432
-629.507	-1.038	0.312	0.223
-628.492	284.875	-0.036	-0.065
-627.478	-41.135	-0.299	-0.156
-626.463	-70.820	0.316	-0.120
-625.449	800.000	-0.083	0.290
-624.434	-200.000	-0.042	-0.276
-623.419	35.860	-0.131	-0.116
-622.405	-110.150	0.081	0.017
-621.390	-154.615	-0.182	-0.012
-620.376	-124.686	-0.109	0.017
-619.361	35.139	0.171	0.151
-618.346	-170.482	0.139	0.005
-617.332	3.160	0.113	-0.083
-616.317	-200.000	0.016	-0.427
-615.303	353.756	-0.107	-0.214
-614.288	800.000	-0.026	-0.100
-613.273	-118.473	-0.308	-0.055
-612.259	-103.109	0.078	-0.019
-611.244	161.690	0.103	-0.145
-610.230	402.537	-0.065	-0.138
-609.215	-128.666	0.066	-0.009
-608.201	800.000	0.052	0.152
-607.186	-108.635	-0.148	-0.032
-606.171	144.133	0.100	0.135
-605.157	65.069	0.136	-0.139
-604.142	321.182	0.221	0.424
-603.128	631.046	-0.150	0.383
-602.113	65.342	-0.191	0.195
-601.098	-174.396	-0.155	-0.005
-600.084	-200.000	0.046	-0.258
-599.069	-165.769	-0.315	-0.014
-598.055	12.445	-0.033	0.026
-597.040	-103.563	0.048	-0.011
-596.025	657.987	-0.110	0.286
-595.011	-59.641	0.252	0.109
-593.996	800.000	0.074	0.230
-592.982	407.527	0.121	-0.258
-591.967	14.649	-0.109	-0.086
-590.952	-146.600	0.242	0.021
-589.938	68.712	-0.180	-0.186
-588.923	22.097	0.260	-0.214
-587.909	325.291	-0.213	0.410
-586.894	-116.407	0.246	0.046
-585.879	800.000	-0.069	-0.210
-584.865	-133.278	-0.201	0.026
-583.850	-82.049	-0.161	0.053
-582.836	-110.676	-0.167	-0.035
-581.821	-176.485	0.222	-0.006
-580.806	-200.000	-0.014	0.101
-579.792	-105.980	0.357	-0.081
-578.777	-8.486	-0.071	0.048
-577.763	-83.232	-0.081	0.026
-576.748	-200.000	0.008	-0.043
-575.733	-138.717	-0.306	0.034
-574.719	-146.310	0.119	0.010
-573.704	-33.674	-0.182	-0.101
-572.690	763.682	-0.025	0.070
-571.675	-60.695	-0.144	-0.062
-570.661	-200.000	-0.012	0.171
-569.646	62.659	-0.208	-0.210
-568.631	-46.424	0.138	-0.068
-567.617	-111.304	0.208	0.043
-566.602	170.020	-0.191	-0.275
-565.588	-15.730	-0.465	-0.299
-564.573	-119.354	-0.305	0.053
-563.558	800.000	-0.064	-0.206
-562.544	-21.859	0.345	-0.211
-561.529	-80.545	-0.226	0.076
-560.515	55.984	0.073	-0.072
-559.500	15.265	0.107	-0.084
-558.485	108.812	-0.077	0.093
-557.471	404.394	-0.102	0.216
-556.456	-142.047	-0.285	0.029
-555.442	-138.009	-0.207	-0.023
-554.427	35.344	-0.171	-0.151
-553.412	800.000	-0.029	0.122
-552.398	-200.000	-0.010	-0.068
-551.383	-45.292	-0.523	0.262
-550.369	47.774	0.040	-0.038
-549.354	-200.000	0.035	-0.195
-548.339	694.943	0.060	-0.159
-547.325	-200.000	0.062	0.276
-546.310	23.049	0.036	0.030
-545.296	-200.000	-0.015	-0.154
-544.281	-73.205	0.020	-0.007
-543.266	356.144	0.131	0.263
-542.252	-63.353	0.150	0.062
-541.237	64.435	0.159	0.161
-540.223	-91.345	-0.453	-0.130
-539.208	33.842	-0.203	-0.178
-538.193	-154.679	-0.321	0.021
-537.179	30.782	0.067	-0.057
-536.164	404.341	0.052	0.111
-535.150	18.499	0.235	-0.189
-534.135	-26.362	-0.060	-0.036
-533.121	-56.808	-0.522	0.232
-532.106	1.159	0.185	-0.134
-531.091	-132.997	0.174	0.022
-530.077	56.706	-0.277	-0.271
-529.062	800.000	-0.076	-0.248
-528.048	-106.616	0.283	-0.063
-527.033	-35.702	-0.190	-0.104
-526.018	-200.000	-0.019	-0.204
-525.004	-31.114	-0.074	0.042
-523.989	174.603	0.116	0.169
-522.975	-183.143	0.234	0.004
-521.960	3.007	-0.138	-0.101
-520.945	-63.595	0.129	-0.053
-519.931	99.681	-0.247	-0.287
-518.916	160.400	-0.043	-0.061
-517.902	96.924	-0.089	-0.102
-516.887	39.643	0.089	0.080
-515.872	464.833	0.053	0.118
-514.858	266.684	-0.054	-0.094
-513.843	-133.402	-0.387	0.049
-512.829	800.000	-0.116	-0.437
-511.814	47.059	-0.256	-0.239
-510.799	800.000	0.061	0.221
-509.785	167.923	-0.165	-0.235
-508.770	-28.321	0.405	-0.235
-507.756	128.640	-0.145	0.186
-506.741	-101.654	-0.267	-0.065
-505.726	-200.000	0.030	0.153
-504.712	-18.050	-0.305	0.192
-503.697	10.393	-0.137	0.105
-502.683	349.081	0.074	-0.147
-501.668	343.314	0.052	-0.102
-500.653	-83.158	0.208	0.067
-499.639	-154.560	-0.193	-0.013
-498.624	75.798	0.280	-0.297
-497.610	121.269	-0.042	-0.053
-496.595	-84.522	0.265	-0.084
-495.581	-11.300	0.200	0.133
-494.566	-35.066	-0.121	0.066
-493.551	-200.000	-0.008	0.206
-492.537	89.804	0.110	0.123
-491.522	-88.485	0.543	-0.163
-490.508	-43.037	-0.440	0.224
-489.493	-200.000	-0.012	0.114
-488.478	-160.140	0.264	-0.014
-487.464	-93.662	-0.165	0.046
-486.449	-200.000	0.003	0.592
-485.435	760.632	0.015	0.041
-484.420	44.349	-0.094	0.087
-483.405	210.335	0.114	0.179
-482.391	774.046	-0.032	-0.088
-481.376	32.079	0.139	-0.121
-480.362	13.473	0.081	-0.063
-479.347	-200.000	-0.020	0.129
-478.332	31.301	-0.158	0.136
-477.318	173.540	0.228	0.330
-476.303	-54.637	-0.403	-0.183
-475.289	-64.046	-0.128	0.052
-474.274	-71.025	0.278	-0.105
-473.259	800.000	-0.103	-0.441
-472.245	326.259	-0.151	-0.290
-471.230	121.020	0.115	0.144
-470.216	110.003	-0.246	0.297
-469.201	-72.709	0.165	-0.061
-468.186	25.157	0.128	-0.107
-467.172	-200.000	0.019	-0.346
-466.157	-89.408	0.295	-0.087
-465.143	154.351	-0.031	0.043
-464.128	-154.566	0.310	0.021
-463.113	183.030	-0.038	0.057
-462.099	-200.000	-0.010	0.240
-461.084	800.000	-0.097	0.377
-460.070	-42.868	-0.181	0.092
-459.055	-20.140	-0.151	-0.093
-458.040	-200.000	0.032	0.462
-457.026	270.300	0.095	-0.167
-456.011	514.007	0.205	0.480
-454.997	234.188	-0.128	0.211
-453.982	-200.000	0.023	0.208
-452.968	-114.382	0.163	0.032
-451.953	800.000	-0.026	0.105
-450.938	-15.371	0.222	0.142
-449.924	800.000	0.031	-0.119
-448.909	-123.430	-0.168	-0.027
-447.895	-200.000	0.002	0.358
-446.880	126.552	0.124	-0.158
-445.865	-200.000	0.005	0.088
-444.851	-200.000	-0.032	0.178
-443.836	-88.907	-0.107	-0.032
-442.822	800.000	-0.005	-0.021
-441.807	254.513	-0.065	0.112
-440.792	7.780	-0.286	0.215
-439.778	178.210	-0.187	-0.273
-438.763	-200.000	0.043	-0.247
-437.749	160.505	0.087	-0.121
-436.734	-171.396	0.300	0.010
-435.719	129.677	0.305	0.391
-434.705	-200.000	0.081	0.418
-433.690	-200.000	-0.002	0.217
-432.676	88.595	0.140	-0.156
-431.661	-200.000	0.069	-0.347
-430.646	-95.762	0.188	0.050
-429.632	-121.420	-0.161	-0.027
-428.617	251.495	0.006	-0.010
-427.603	324.973	0.190	0.364
-426.588	-63.922	0.146	-0.060
-425.573	-86.381	-0.141	-0.043
-424.559	-200.000	0.020	-0.142
-423.544	25.888	-0.366	-0.306
-422.530	800.000	-0.083	-0.269
-421.515	800.000	0.139	-0.443
-420.500	471.006	0.107	0.241
-419.486	800.000	0.058	-0.226
-418.471	151.881	-0.177	-0.242
-417.457	-52.457	-0.026	0.012
-416.442	-200.000	-0.007	-0.052
-415.428	456.395	0.101	0.225
-414.413	57.949	0.068	0.067
-413.398	319.378	-0.102	-0.194
-412.384	-200.000	-0.020	0.192
-411.369	-73.706	0.135	0.049
-410.355	-155.522	0.235	-0.015
-409.340	29.505	0.244	0.208
-408.325	670.170	0.020	-0.051
-407.311	89.732	0.169	-0.189
-406.296	-156.553	-0.173	0.011
-405.282	305.360	0.082	-0.153
-404.267	-200.000	-0.006	-0.125
-403.252	-200.000	0.006	0.039
-402.238	-96.470	0.157	-0.041
-401.223	-200.000	-0.020	-0.093
-400.209	-53.344	-0.297	-0.136
-399.194	-46.216	-0.417	0.205
-398.179	309.691	0.039	-0.073
-397.165	800.000	0.086	0.301
-396.150	-128.035	0.250	0.036
-395.136	396.956	-0.179	0.374
-394.121	-94.736	0.042	0.012
-393.106	255.163	-0.182	0.311
-392.092	-200.000	-0.042	-0.386
-391.077	31.983	0.076	-0.065
-390.063	-200.000	0.063	-0.316
-389.048	-1.580	0.040	0.028
-388.033	-200.000	0.029	0.307
-387.019	-78.988	-0.259	0.088
-386.004	-133.540	-0.243	0.030
-384.990	34.293	-0.158	-0.138
-383.975	800.000	0.110	0.307
-382.960	-17.866	-0.050	0.031
-381.946	800.000	0.052	0.151
-380.931	-200.000	0.003	-0.017
-379.917	-24.442	-0.227	0.136
-378.902	-42.426	0.257	-0.131
-377.888	-200.000	-0.002	-0.463
-376.873	-110.987	-0.114	-0.023
-375.858	-200.000	-0.002	-0.017
-374.844	-200.000	0.060	-0.415
-373.829	-51.131	-0.049	-0.023
-372.815	-134.955	0.356	0.043
-371.800	166.904	0.078	0.111
-370.785	259.136	0.129	-0.222
-369.771	-200.000	-0.019	0.284
-368.756	20.536	0.073	0.059
-367.742	-154.283	-0.125	0.008
-366.727	13.810	-0.423	0.329
-365.712	-13.126	0.080	0.052
-364.698	-46.758	0.139	-0.068
-363.683	270.853	0.167	0.294
-362.669	-200.000	-0.050	0.224
-361.654	-74.346	0.126	0.045
-360.639	-175.921	-0.301	-0.008
-359.625	55.374	-0.123	0.119
-358.610	-200.000	-0.057	-0.277
-357.596	-200.000	-0.021	0.200
-356.581	22.273	0.174	0.142
-355.566	-11.907	0.219	-0.143
-354.552	-1.203	0.033	-0.024
-353.537	-23.651	-0.294	0.176
-352.523	-200.000	0.009	-0.075
-351.508	-71.786	0.055	-0.021
-350.493	18.904	-0.252	-0.201
-349.479	-10.473	0.217	0.144
-348.464	-10.863	-0.254	-0.167
-347.450	317.213	0.217	0.410
-346.435	92.788	-0.092	-0.104
-345.420	-112.424	0.058	-0.012
-344.406	-68.976	-0.278	-0.107
-343.391	-128.837	0.383	0.054
-342.377	145.812	0.069	-0.093
-341.362	64.324	0.132	0.132
-340.348	75.574	0.128	-0.135
-339.333	-84.294	-0.116	0.037
-338.318	634.620	-0.043	-0.108
-337.304	267.001	0.161	-0.282
-336.289	19.247	0.211	-0.169
-335.275	800.000	-0.041	-0.125
-334.260	-107.803	-0.110	-0.024
-333.245	572.381	0.061	-0.148
-332.231	-112.441	-0.358	0.072
-331.216	11.567	0.126	0.096
-330.202	59.653	0.087	0.086
-329.187	290.497	0.212	0.384
-328.172	376.216	-0.099	0.202
-327.158	800.000	0.046	0.167
-326.143	-63.326	-0.227	0.093
-325.129	14.359	-0.145	-0.113
-324.114	-200.000	0.019	0.247
-323.099	276.942	-0.121	-0.214
-322.085	-127.596	0.451	-0.065
-321.070	63.587	0.267	-0.267
-320.056	129.038	0.117	-0.149
-319.041	800.000	0.054	-0.151
-318.026	-200.000	0.008	0.063
-317.012	326.774	-0.030	-0.058
-315.997	554.154	0.107	-0.256
-314.983	49.192	-0.109	-0.102
-313.968	800.000	-0.044	0.126
-312.953	136.329	-0.059	-0.077
-311.939	-48.052	0.613	-0.295
-310.924	-121.052	0.147	0.025
-309.910	307.587	-0.044	-0.082
-308.895	-131.462	0.633	0.083
-307.880	-200.000	0.074	-0.332
-306.866	-200.000	0.001	0.077
-305.851	663.785	0.149	0.382
-304.837	56.875	-0.247	0.239
-303.822	4.948	0.339	-0.249
-302.807	-112.191	0.358	-0.072
-301.793	-67.259	-0.273	-0.107
-300.778	111.474	-0.057	0.068
-299.764	188.327	0.194	0.289
-298.749	-66.883	0.130	-0.051
-297.735	-169.484	0.057	0.002
-296.720	-151.021	0.173	-0.013
-295.705	800.000	0.113	0.337
-294.691	98.849	-0.118	-0.136
-293.676	-93.430	-0.143	-0.040
-292.662	-125.948	-0.112	0.017
-291.647	-143.727	-0.221	-0.021
-290.632	-119.814	-0.129	-0.022
-289.618	117.656	0.132	0.161
-288.603	257.087	-0.139	0.239
-287.589	-111.951	-0.194	0.039
-286.574	-60.922	-0.157	0.066
-285.559	-84.484	-0.105	0.033
-284.545	2.793	0.285	0.206
-283.530	-11.907	0.086	-0.057
-282.516	-200.000	0.089	0.416
-281.501	151.260	-0.184	-0.249
-280.486	-36.102	-0.219	-0.118
-279.472	-200.000	-0.014	0.117
-278.457	-39.452	-0.153	-0.080
-277.443	307.315	-0.081	0.151
-276.428	-36.552	0.168	-0.090
-275.413	-200.000	-0.075	-0.396
-274.399	58.334	0.198	-0.194
-273.384	90.297	-0.209	0.232
-272.370	-163.384	-0.251	-0.012
-271.355	800.000	0.027	-0.097
-270.340	800.000	-0.066	0.183
-269.326	-63.476	0.126	0.051
-268.311	-41.042	-0.152	-0.078
-267.297	475.723	0.108	-0.244
-266.282	-200.000	-0.015	-0.430
-265.267	119.191	0.222	0.274
-264.253	130.770	-0.178	-0.228
-263.238	312.331	-0.103	-0.192
-262.224	-86.435	-0.067	-0.020
-261.209	165.720	-0.172	-0.242
-260.195	578.967	-0.097	0.235
-259.180	-176.887	0.230	0.006
-258.165	800.000	-0.044	-0.142
-257.151	-200.000	0.022	0.154
-256.136	-200.000	-0.182	-0.001
-255.122	-200.000	0.072	-0.364
-254.107	-200.000	0.003	-0.117
-253.092	-140.855	0.227	0.023
-252.078	233.261	-0.151	-0.247
-251.063	800.000	-0.051	-0.179
-250.049	161.062	0.067	-0.093
-249.034	17.571	-0.176	0.140
-248.019	-78.550	0.312	-0.106
-247.005	-86.562	-0.149	-0.045
-245.990	-42.502	-0.126	0.064
-244.976	-127.664	0.169	0.024
-243.961	-104.953	-0.138	-0.032
-242.946	-55.720	0.239	0.106
-241.932	800.000	-0.065	0.187
-240.917	-154.412	-0.029	-0.002
-239.903	43.354	-0.248	-0.225
-238.888	-25.215	0.155	0.091
-237.873	512.038	0.178	0.412
-236.859	-98.793	-0.193	-0.049
-235.844	-200.000	0.025	-0.205
-234.830	193.549	-0.120	-0.181
-233.815	-127.172	-0.240	0.035
-232.800	-97.524	0.068	0.018
-231.786	64.199	0.198	0.198
-230.771	-2.894	-0.137	-0.095
-229.757	-31.022	0.247	0.139
-228.742	222.138	0.215	-0.343
-227.727	-200.000	0.005	0.204
-226.713	-15.285	0.143	0.091
-225.698	50.233	-0.094	-0.089
-224.684	322.456	0.146	0.276
-223.669	-114.112	0.129	0.025
-222.655	-200.000	-0.004	0.039
-221.640	-111.647	0.133	0.027
-220.625	157.093	0.090	-0.124
-219.611	375.862	-0.148	0.301
-218.596	800.000	0.033	0.140
-217.582	138.287	-0.049	0.063
-216.567	-69.538	0.053	0.020
-215.552	-14.556	-0.071	0.045
-214.538	-96.905	0.220	0.057
-213.523	70.790	-0.085	0.087
-212.509	720.869	0.086	-0.227
-211.494	800.000	-0.099	-0.328
-210.479	-54.890	0.342	-0.153
-209.465	-40.974	0.195	0.100
-208.450	-120.589	0.123	0.021
-207.436	-93.694	0.290	-0.079
-206.421	305.013	0.088	0.163
-205.406	-141.072	0.257	-0.026
-204.392	-200.000	0.026	0.380
-203.377	361.990	0.053	0.106
-202.363	215.278	-0.038	0.060
-201.348	102.249	-0.174	-0.202
-200.333	27.588	0.161	0.134
-199.319	266.788	-0.114	0.199
-198.304	-18.407	-0.136	0.084
-197.290	-190.750	0.276	0.003
-196.275	254.597	-0.089	0.151
-195.260	-70.023	-0.145	0.055
-194.246	-61.127	0.250	0.105
-193.231	-65.238	-0.164	-0.066
-192.217	146.794	0.159	-0.212
-191.202	11.038	0.074	-0.056
-190.187	-200.000	-0.002	0.112
-189.173	11.034	0.095	0.072
-188.158	-100.572	0.062	0.015
-187.144	-200.000	-0.026	0.126
-186.129	313.318	-0.033	-0.061
-185.114	-200.000	-0.029	-0.163
-184.100	392.394	0.056	-0.115
-183.085	-88.305	-0.210	0.062
-182.071	-200.000	0.039	-0.259
-181.056	363.016	-0.105	0.209
-180.042	476.806	-0.150	0.337
-179.027	800.000	-0.111	0.316
-178.012	-181.515	-0.260	-0.005
-176.998	800.000	-0.062	-0.192
-175.983	800.000	0.026	-0.112
-174.969	175.944	-0.099	0.143
-173.954	-200.000	-0.040	0.194
-172.939	800.000	0.028	0.102
-171.925	561.873	-0.131	0.315
-170.910	-200.000	0.054	0.474
-169.896	-120.102	0.080	0.014
-168.881	800.000	-0.024	0.091
-167.866	217.632	-0.052	-0.082
-166.852	-57.920	0.448	-0.194
-165.837	302.746	-0.176	-0.323
-164.823	-200.000	0.004	0.112
-163.808	-41.392	-0.233	0.119
-162.793	800.000	0.092	-0.362
-161.779	-69.962	-0.085	0.032
-160.764	800.000	-0.006	-0.021
-159.750	-146.826	-0.186	-0.016
-158.735	152.040	-0.278	-0.377
-157.720	64.618	0.080	-0.080
-156.706	-141.785	-0.102	0.010
-155.691	800.000	0.023	0.090
-154.677	-67.095	0.191	0.075
-153.662	75.172	0.128	-0.134
-152.647	-200.000	-0.004	-0.188
-151.633	-111.955	-0.165	0.033
-150.618	-200.000	-0.035	0.219
-149.604	-200.000	0.019	0.129
-148.589	-148.274	-0.239	-0.019
-147.574	44.454	-0.229	0.209
-146.560	399.782	0.056	0.117
-145.545	-200.000	0.035	-0.212
-144.531	520.026	0.041	0.095
-143.516	-25.327	-0.178	0.105
-142.502	-77.822	-0.298	0.102
-141.487	163.193	0.104	-0.144
-140.472	800.000	-0.064	0.256
-139.458	21.877	-0.085	-0.069
-138.443	-160.864	0.200	-0.010
-137.429	800.000	0.052	-0.191
-136.414	-200.000	0.052	0.367
-135.399	340.686	-0.084	0.163
-134.385	800.000	-0.057	-0.228
-133.370	325.298	0.101	0.191
-132.356	-8.128	0.402	0.268
-131.341	-145.069	0.341	-0.031
-130.326	390.834	0.048	-0.100
-129.312	-200.000	0.000	-0.071
-128.297	215.115	-0.019	0.030
-127.283	-153.593	-0.100	0.007
-126.268	-159.933	0.100	-0.005
-125.253	211.931	-0.106	-0.165
-124.239	-10.584	-0.061	0.040
-123.224	-158.759	-0.044	-0.003
-122.210	-14.656	0.098	-0.062
-121.195	-32.637	0.247	0.136
