DTS Sentinel unit serial number:	SN413079Multiplexer serial number:	ORYXHardware model number:	OX4-SRSoftware version number:	ORYX F/W v4.00 Oryx Data Collector v3.7.2.0data status	okinstallation	princeton_trtdifferential loss correction	single-endedforward channel	channel 4reverse channel	N/Adate	2019/09/16time	20:45:35forward acquisition time	60.00reverse acquisition time	0.00gamma	496.2192k internal	0.2313k external	0.2313temperature offset calibration	0.9963default loss term (dB/km)	0.3790temperature slope calibration	1.0000multiplexer offset coefficient	1.0000multiplexer slope coefficient	1.0000fibre end	0.00T internal ref (°C)	32.37T ext. ref 1 (°C)	0.06T ext. ref 2 (°C)	26.01length (m)	temperature (°C)	Stokes	anti-Stokes-747.200	-200.000	-0.018	0.138
-746.185	-98.988	-0.140	0.036
-745.171	-115.050	0.266	-0.051
-744.156	-17.253	0.347	-0.222
-743.142	-200.000	-0.002	0.094
-742.127	-44.155	-0.266	-0.135
-741.112	-200.000	0.066	-0.336
-740.098	-133.369	-0.225	0.029
-739.083	-129.117	0.299	0.042
-738.069	-136.003	0.267	0.032
-737.054	365.586	0.070	0.143
-736.039	-55.772	-0.371	-0.168
-735.025	760.219	-0.085	0.234
-734.010	76.662	-0.185	0.199
-732.996	-19.188	-0.162	-0.102
-731.981	-186.973	0.028	-0.000
-730.966	-103.835	-0.193	-0.046
-729.952	538.262	0.145	0.351
-728.937	-200.000	0.026	0.205
-727.923	-200.000	-0.049	0.256
-726.908	-160.913	-0.114	-0.006
-725.894	20.842	-0.107	0.088
-724.879	-200.000	0.004	-0.038
-723.864	-200.000	-0.047	-0.344
-722.850	-70.232	-0.106	0.041
-721.835	-115.208	-0.102	-0.020
-720.821	-168.054	-0.297	-0.012
-719.806	1.928	-0.376	0.275
-718.791	271.411	-0.109	-0.195
-717.777	-114.908	0.347	-0.067
-716.762	-86.766	0.146	0.045
-715.748	-48.410	0.309	-0.151
-714.733	-84.968	-0.060	0.019
-713.718	263.790	-0.078	-0.137
-712.704	-130.807	-0.349	0.047
-711.689	215.555	0.034	0.055
-710.675	800.000	-0.058	0.226
-709.660	-125.259	-0.239	0.037
-708.645	-25.286	0.237	0.142
-707.631	-100.733	0.365	0.091
-706.616	-200.000	-0.045	-0.319
-705.602	672.498	-0.066	0.173
-704.587	-141.646	0.138	-0.014
-703.572	653.363	-0.049	0.127
-702.558	-140.058	-0.111	0.012
-701.543	-52.650	-0.208	0.097
-700.529	-200.000	-0.037	0.215
-699.514	-34.819	0.165	0.092
-698.499	492.813	-0.148	-0.344
-697.485	-200.000	0.009	0.076
-696.470	-160.706	0.094	-0.005
-695.456	-200.000	-0.184	0.001
-694.441	88.544	0.136	0.153
-693.426	241.623	0.212	0.359
-692.412	104.665	-0.123	0.147
-691.397	-143.317	-0.263	0.026
-690.383	113.774	-0.133	0.163
-689.368	-145.052	-0.373	-0.034
-688.354	800.000	-0.082	0.295
-687.339	8.861	0.218	0.166
-686.324	238.747	0.102	-0.171
-685.310	-200.000	-0.019	0.092
-684.295	1.844	-0.243	-0.178
-683.281	-200.000	0.042	-0.186
-682.266	-26.888	-0.230	0.136
-681.251	-200.000	0.014	-0.098
-680.237	-61.352	0.210	0.090
-679.222	87.420	-0.214	0.239
-678.208	-135.011	-0.321	-0.039
-677.193	45.809	-0.104	-0.098
-676.178	-103.674	-0.295	0.070
-675.164	-66.733	-0.285	-0.114
-674.149	-131.739	0.342	-0.045
-673.135	-26.169	0.198	0.117
-672.120	-200.000	-0.000	0.280
-671.105	-94.372	-0.106	-0.029
-670.091	-200.000	-0.068	0.000
-669.076	-200.000	-0.022	-0.245
-668.062	-149.477	-0.220	0.018
-667.047	116.830	-0.148	-0.184
-666.032	-37.778	0.168	0.091
-665.018	-26.994	0.222	0.131
-664.003	-200.000	-0.029	-0.273
-662.989	-128.380	-0.289	-0.042
-661.974	-10.199	-0.154	0.103
-660.959	-138.723	-0.457	0.050
-659.945	83.411	0.074	-0.082
-658.930	278.390	-0.084	0.151
-657.916	-115.563	0.177	0.034
-656.901	-132.913	0.080	0.010
-655.886	395.044	0.094	-0.199
-654.872	-134.366	-0.077	-0.010
-653.857	-174.803	-0.671	0.019
-652.843	55.879	-0.176	0.173
-651.828	-98.154	-0.090	0.023
-650.814	341.620	-0.111	-0.220
-649.799	263.849	-0.164	-0.288
-648.784	-62.164	0.167	0.070
-647.770	800.000	-0.066	0.233
-646.755	-51.860	0.158	0.074
-645.741	-103.655	-0.279	0.066
-644.726	-28.109	0.274	0.160
-643.711	-189.965	0.287	0.003
-642.697	-122.210	-0.197	0.033
-641.682	76.613	0.168	0.180
-640.668	15.352	0.090	-0.072
-639.653	27.829	0.248	-0.211
-638.638	800.000	-0.015	0.054
-637.624	800.000	-0.104	-0.290
-636.609	126.019	0.051	-0.065
-635.595	800.000	-0.069	0.240
-634.580	194.116	0.051	-0.079
-633.565	-199.677	-0.087	-0.000
-632.551	-38.436	0.215	0.115
-631.536	205.887	0.072	0.113
-630.522	-22.273	-0.214	0.131
-629.507	800.000	-0.114	0.353
-628.492	40.067	0.131	0.119
-627.478	100.096	-0.083	-0.097
-626.463	-50.422	-0.284	0.135
-625.449	43.885	-0.244	-0.226
-624.434	-45.016	-0.434	0.218
-623.419	-91.379	-0.143	0.041
-622.405	800.000	0.075	-0.252
-621.390	229.598	0.085	0.141
-620.376	47.066	0.155	0.146
-619.361	-200.000	-0.079	0.478
-618.346	-200.000	-0.039	0.205
-617.332	-143.164	-0.317	-0.031
-616.317	-144.809	0.102	-0.009
-615.303	-65.365	-0.249	0.101
-614.288	234.435	-0.129	-0.215
-613.273	84.811	-0.048	0.053
-612.259	-186.206	0.309	-0.005
-611.244	-62.708	-0.389	-0.163
-610.230	-200.000	0.078	-0.540
-609.215	-11.412	0.138	-0.091
-608.201	-62.376	0.339	0.142
-607.186	-200.000	-0.016	0.182
-606.171	-200.000	0.076	0.360
-605.157	-59.120	-0.347	-0.151
-604.142	-9.570	0.281	-0.189
-603.128	-200.000	-0.027	0.241
-602.113	0.237	-0.233	-0.168
-601.098	144.109	-0.188	-0.254
-600.084	161.041	-0.083	0.117
-599.069	742.319	-0.140	-0.379
-598.055	800.000	-0.051	-0.148
-597.040	-200.000	0.030	0.260
-596.025	-99.035	0.207	0.053
-595.011	98.985	-0.064	-0.075
-593.996	67.109	0.050	0.051
-592.982	158.578	-0.100	-0.140
-591.967	-23.050	-0.169	0.103
-590.952	800.000	0.128	0.484
-589.938	-200.000	0.025	0.206
-588.923	800.000	-0.076	0.237
-587.909	-111.897	-0.150	-0.030
-586.894	-76.600	0.159	-0.056
-585.879	-31.391	0.260	0.147
-584.865	382.248	0.226	0.469
-583.850	24.094	-0.347	-0.289
-582.836	481.997	0.115	0.262
-581.821	25.134	0.079	0.066
-580.806	800.000	-0.138	-0.549
-579.792	-200.000	-0.028	-0.154
-578.777	800.000	-0.053	-0.165
-577.763	17.564	-0.108	0.086
-576.748	-106.002	0.093	-0.021
-575.733	-200.000	0.035	-0.529
-574.719	800.000	0.053	0.166
-573.704	41.674	0.217	0.198
-572.690	-21.121	0.247	-0.152
-571.675	-200.000	-0.015	-0.166
-570.661	127.324	0.075	-0.096
-569.646	-130.632	0.131	-0.018
-568.631	32.706	-0.085	-0.074
-567.617	448.874	0.180	-0.400
-566.602	-57.259	0.192	0.085
-565.588	-200.000	0.043	-0.269
-564.573	-124.157	0.211	-0.033
-563.558	800.000	-0.015	0.061
-562.544	-81.161	-0.390	-0.130
-561.529	248.118	0.021	-0.035
-560.515	-147.546	-0.475	-0.040
-559.500	-176.569	0.334	0.009
-558.485	-123.945	-0.031	0.005
-557.471	-200.000	0.034	-0.388
-556.456	465.205	-0.062	-0.139
-555.442	241.712	-0.163	0.273
-554.427	-74.689	0.213	-0.077
-553.412	-94.742	0.115	0.031
-552.398	-47.131	0.340	-0.167
-551.383	-5.629	-0.163	-0.113
-550.369	-178.806	0.116	0.003
-549.354	-53.909	-0.194	0.089
-548.339	800.000	0.016	0.057
-547.325	95.351	0.174	-0.199
-546.310	-148.984	-0.231	-0.019
-545.296	24.334	-0.349	-0.290
-544.281	800.000	0.086	-0.296
-543.266	352.248	0.097	-0.193
-542.252	-91.614	0.123	0.035
-541.237	110.320	-0.084	0.102
-540.223	-200.000	-0.001	0.210
-539.208	-67.721	-0.274	0.108
-538.193	256.643	0.066	0.114
-537.179	-62.954	-0.125	0.052
-536.164	670.954	-0.013	0.033
-535.150	351.051	-0.089	0.177
-534.135	58.513	0.074	0.073
-533.121	-20.808	-0.158	-0.098
-532.106	-71.189	0.427	0.161
-531.091	-200.000	0.047	-0.287
-530.077	-200.000	-0.042	0.253
-529.062	-118.102	0.222	0.040
-528.048	800.000	0.082	0.323
-527.033	-27.636	-0.075	-0.044
-526.018	-137.444	0.192	-0.022
-525.004	-22.079	0.222	0.136
-523.989	-120.026	0.138	0.024
-522.975	-91.492	0.256	0.073
-521.960	-200.000	-0.005	0.080
-520.945	-200.000	0.030	-0.173
-519.931	-14.499	0.016	0.011
-518.916	323.618	-0.035	0.068
-517.902	21.836	-0.175	-0.144
-516.887	-200.000	-0.010	-0.144
-515.872	-100.206	0.043	-0.011
-514.858	-61.677	0.294	-0.124
-513.843	483.087	-0.047	0.107
-512.829	-166.204	-0.165	0.007
-511.814	167.433	-0.113	-0.161
-510.799	-25.156	0.147	0.088
-509.785	-59.307	0.161	-0.070
-508.770	-29.532	0.087	0.050
-507.756	26.682	-0.240	0.202
-506.741	378.806	-0.041	-0.084
-505.726	138.862	-0.042	-0.056
-504.712	800.000	-0.073	-0.231
-503.697	661.706	0.048	-0.124
-502.683	79.117	-0.152	0.164
-501.668	-200.000	0.053	0.322
-500.653	-200.000	-0.013	0.097
-499.639	-157.906	-0.185	-0.011
-498.624	-119.612	0.147	-0.026
-497.610	-19.539	-0.390	-0.243
-496.595	-43.133	-0.122	0.062
-495.581	-17.479	0.164	-0.104
-494.566	97.443	-0.070	-0.081
-493.551	-100.277	0.094	0.024
-492.537	-200.000	0.048	0.240
-491.522	-130.116	0.257	0.035
-490.508	-200.000	0.011	0.080
-489.493	564.294	0.099	0.241
-488.478	-200.000	0.039	0.249
-487.464	246.567	-0.104	0.177
-486.449	-16.940	-0.376	-0.239
-485.435	-200.000	-0.020	-0.502
-484.420	81.165	0.138	-0.150
-483.405	224.294	0.252	-0.409
-482.391	-200.000	0.029	-0.157
-481.376	474.067	0.064	-0.145
-480.362	-94.109	-0.342	0.094
-479.347	775.242	0.136	0.372
-478.332	-20.474	0.320	0.197
-477.318	663.605	0.070	0.181
-476.303	-67.614	0.220	0.087
-475.289	-105.019	0.390	0.090
-474.274	800.000	-0.015	-0.061
-473.259	-18.772	0.158	-0.099
-472.245	167.498	0.214	-0.305
-471.230	-46.978	0.070	0.035
-470.216	-200.000	-0.014	-0.078
-469.201	-200.000	-0.005	0.135
-468.186	-76.256	-0.056	-0.020
-467.172	-83.445	0.343	0.110
-466.157	-164.445	0.325	0.015
-465.143	5.632	0.095	0.070
-464.128	-200.000	-0.263	-0.000
-463.113	88.591	0.193	-0.215
-462.099	-200.000	-0.020	0.131
-461.084	289.851	-0.125	-0.227
-460.070	230.819	-0.126	0.206
-459.055	-38.107	-0.221	0.118
-458.040	-200.000	0.031	-0.410
-457.026	712.196	-0.006	0.016
-456.011	-200.000	0.017	0.391
-454.997	-60.470	0.136	0.058
-453.982	29.854	-0.112	-0.096
-452.968	373.987	-0.077	-0.158
-451.953	-100.380	-0.441	-0.110
-450.938	588.366	-0.079	0.196
-449.924	-200.000	-0.019	-0.384
-448.909	-10.568	-0.259	-0.172
-447.895	-200.000	0.012	-0.075
-446.880	245.218	0.044	-0.075
-445.865	-200.000	-0.013	-0.122
-444.851	-48.129	-0.304	-0.147
-443.836	-142.251	-0.144	0.014
-442.822	-19.635	-0.201	0.125
-441.807	72.917	0.180	0.189
-440.792	23.451	0.123	-0.102
-439.778	256.903	0.086	-0.148
-438.763	-134.984	0.439	-0.053
-437.749	-17.782	-0.245	0.154
-436.734	147.838	-0.223	0.302
-435.719	-200.000	0.002	0.193
-434.705	-28.235	-0.299	0.173
-433.690	-200.000	0.022	0.194
-432.676	193.116	0.202	-0.306
-431.661	-71.717	0.101	-0.038
-430.646	800.000	0.082	0.282
-429.632	-29.336	0.101	0.058
-428.617	-200.000	-0.052	-0.298
-427.603	40.195	-0.134	-0.120
-426.588	378.079	0.102	-0.208
-425.573	-103.405	0.017	0.004
-424.559	238.754	-0.022	-0.037
-423.544	132.543	-0.226	-0.292
-422.530	127.324	-0.243	0.309
-421.515	-200.000	-0.039	-0.452
-420.500	228.585	-0.093	-0.152
-419.486	29.507	0.151	0.128
-418.471	9.645	-0.310	0.235
-417.457	-75.541	-0.373	-0.133
-416.442	-200.000	-0.026	-0.406
-415.428	-200.000	0.007	-0.244
-414.413	119.107	-0.188	0.233
-413.398	-97.869	-0.139	-0.036
-412.384	-200.000	-0.001	0.154
-411.369	-200.000	0.046	0.229
-410.355	-149.083	-0.207	0.017
-409.340	-200.000	0.007	-0.137
-408.325	800.000	0.039	-0.146
-407.311	73.963	-0.102	-0.108
-406.296	-200.000	-0.019	0.123
-405.282	96.534	-0.295	0.338
-404.267	73.580	0.229	0.240
-403.252	-200.000	0.029	-0.243
-402.238	523.320	0.074	0.175
-401.223	-200.000	0.073	-0.339
-400.209	242.628	-0.195	-0.326
-399.194	-100.057	-0.163	-0.041
-398.179	196.274	0.145	-0.222
-397.165	-57.223	0.070	-0.031
-396.150	-156.498	0.072	-0.004
-395.136	-114.854	-0.337	-0.064
-394.121	800.000	0.021	0.076
-393.106	-200.000	0.049	-0.464
-392.092	414.253	-0.118	-0.252
-391.077	172.519	-0.090	0.129
-390.063	38.389	-0.164	-0.146
-389.048	220.592	0.141	-0.227
-388.033	80.007	-0.303	0.326
-387.019	120.784	-0.095	-0.119
-386.004	403.873	-0.113	-0.237
-384.990	-65.384	0.355	-0.143
-383.975	418.904	0.011	0.024
-382.960	-135.884	0.230	-0.027
-381.946	-57.246	0.112	-0.049
-380.931	-46.980	0.240	0.117
-379.917	-71.134	0.150	0.056
-378.902	146.120	0.205	-0.275
-377.888	-19.893	0.306	-0.189
-376.873	-148.094	0.046	-0.004
-375.858	-141.591	-0.196	-0.020
-374.844	-200.000	0.271	0.000
-373.829	541.214	-0.039	-0.094
-372.815	-200.000	-0.036	0.378
-371.800	-147.986	-0.316	0.026
-370.785	-30.718	-0.278	-0.157
-369.771	800.000	0.054	0.207
-368.756	-149.723	0.176	0.014
-367.742	800.000	0.068	0.211
-366.727	-200.000	0.015	-0.163
-365.712	-172.094	0.299	-0.010
-364.698	-89.942	0.033	0.010
-363.683	-61.674	-0.266	-0.112
-362.669	-120.908	-0.329	0.055
-361.654	-129.869	0.194	-0.027
-360.639	-108.329	-0.301	0.065
-359.625	329.573	0.090	0.174
-358.610	576.562	-0.022	-0.054
-357.596	292.272	0.096	0.175
-356.581	800.000	0.059	0.178
-355.566	293.045	0.186	0.338
-354.552	-200.000	-0.007	0.083
-353.537	83.958	-0.079	0.086
-352.523	-126.147	0.193	-0.029
-351.508	118.910	-0.119	-0.147
-350.493	-13.969	0.306	0.197
-349.479	800.000	-0.092	-0.294
-348.464	-200.000	-0.039	0.366
-347.450	204.072	0.111	0.171
-346.435	-200.000	0.032	0.393
-345.420	-170.783	-0.224	0.008
-344.406	-47.862	-0.342	-0.165
-343.391	-77.453	0.219	0.076
-342.377	200.412	0.319	-0.489
-341.362	-68.294	-0.060	0.023
-340.348	-81.414	0.242	0.080
-339.333	-200.000	0.023	0.254
-338.318	800.000	-0.034	0.121
-337.304	278.574	-0.134	-0.238
-336.289	224.369	0.080	0.129
-335.275	-124.754	0.364	0.056
-334.260	346.402	-0.128	0.251
-333.245	800.000	-0.033	0.137
-332.231	-93.671	-0.165	-0.045
-331.216	-54.773	0.473	-0.213
-330.202	-53.755	0.172	0.078
-329.187	-129.892	-0.369	-0.051
-328.172	273.556	-0.191	-0.337
-327.158	304.060	-0.101	0.187
-326.143	58.213	-0.090	-0.088
-325.129	-200.000	0.012	-0.093
-324.114	26.885	-0.212	0.177
-323.099	-200.000	-0.011	-0.320
-322.085	642.332	0.054	-0.137
-321.070	148.685	-0.043	-0.058
-320.056	800.000	-0.052	0.162
-319.041	-200.000	-0.030	-0.239
-318.026	126.739	-0.174	0.220
-317.012	-200.000	0.036	0.331
-315.997	800.000	0.085	0.334
-314.983	50.578	-0.110	-0.104
-313.968	-48.780	-0.258	0.123
-312.953	-119.459	0.240	0.042
-311.939	353.732	0.109	-0.217
-310.924	-116.960	0.060	-0.011
-309.910	-4.555	-0.179	0.123
-308.895	800.000	0.113	-0.325
-307.880	-172.447	0.245	0.008
-306.866	85.654	-0.129	-0.141
-305.851	-31.605	0.052	-0.029
-304.837	54.317	0.145	-0.140
-303.822	-139.314	-0.367	0.039
-302.807	-200.000	-0.002	-0.108
-301.793	-113.608	0.223	0.043
-300.778	-200.000	0.024	-0.270
-299.764	45.214	-0.371	-0.341
-298.749	-41.912	-0.316	-0.161
-297.735	-200.000	0.021	0.141
-296.720	-114.669	-0.054	0.010
-295.705	-200.000	-0.008	-0.120
-294.691	-93.704	0.144	-0.040
-293.676	-200.000	-0.060	0.341
-292.662	392.242	-0.158	0.328
-291.647	256.980	-0.065	0.112
-290.632	-200.000	0.027	0.579
-289.618	-177.781	-0.047	-0.001
-288.603	-200.000	-0.001	0.179
-287.589	-63.713	0.176	-0.072
-286.574	800.000	0.110	-0.328
-285.559	-200.000	0.017	-0.126
-284.545	86.030	-0.148	0.162
-283.530	800.000	0.102	-0.329
-282.516	-21.833	-0.191	-0.116
-281.501	205.989	0.139	-0.216
-280.486	478.557	-0.086	-0.194
-279.472	-200.000	0.013	-0.196
-278.457	200.892	0.088	0.135
-277.443	-93.587	-0.032	-0.009
-276.428	-200.000	-0.093	-0.534
-275.413	292.724	-0.039	0.071
-274.399	103.163	0.253	-0.296
-273.384	154.550	0.055	-0.076
-272.370	369.835	0.102	-0.206
-271.355	-78.203	-0.232	-0.079
-270.340	2.912	-0.110	-0.080
-269.326	-200.000	-0.006	0.065
-268.311	162.657	0.047	-0.065
-267.297	-57.957	0.382	0.166
-266.282	526.071	0.093	0.217
-265.267	-118.144	0.157	-0.028
-264.253	-200.000	0.051	0.503
-263.238	-55.751	0.062	0.028
-262.224	-93.452	-0.106	-0.029
-261.209	-73.363	-0.110	-0.040
-260.195	-138.605	-0.201	-0.022
-259.180	484.002	-0.072	0.163
-258.165	-105.011	0.115	-0.026
-257.151	257.866	-0.098	0.168
-256.136	195.919	-0.190	-0.287
-255.122	-86.765	0.069	-0.021
-254.107	-88.383	0.154	-0.046
-253.092	-96.958	0.104	0.027
-252.078	-140.537	-0.043	0.004
-251.063	-89.556	0.217	-0.063
-250.049	-48.875	-0.103	0.049
-249.034	4.718	0.093	-0.068
-248.019	-200.000	-0.012	0.080
-247.005	168.781	-0.093	0.132
-245.990	368.892	-0.076	0.154
-244.976	34.467	0.119	0.104
-243.961	211.263	0.137	0.215
-242.946	4.034	0.163	-0.119
-241.932	-170.729	-0.190	0.007
-240.917	-200.000	0.033	-0.278
-239.903	77.797	-0.105	0.111
-238.888	-44.824	-0.176	-0.087
-237.873	-125.757	-0.177	-0.027
-236.859	25.910	-0.328	-0.272
-235.844	-142.772	0.070	-0.007
-234.830	-145.179	-0.174	-0.016
-233.815	4.290	0.221	-0.161
-232.800	-62.346	0.246	0.102
-231.786	-113.919	-0.084	-0.016
-230.771	-12.921	0.111	0.072
-229.757	-200.000	-0.050	0.282
-228.742	-124.155	0.148	0.023
-227.727	322.249	-0.188	-0.355
-226.713	-200.000	0.008	-0.216
-225.698	-44.678	-0.323	0.160
-224.684	2.481	0.197	0.142
-223.669	-67.123	0.117	0.046
-222.655	168.514	0.051	-0.072
-221.640	-24.088	0.351	-0.209
-220.625	573.929	-0.112	0.272
-219.611	800.000	-0.033	-0.095
-218.596	602.909	0.052	-0.129
-217.582	1.328	0.304	-0.217
-216.567	-10.583	-0.356	0.234
-215.552	-41.130	-0.368	0.189
-214.538	242.971	0.036	-0.061
-213.523	800.000	0.015	-0.053
-212.509	800.000	-0.144	0.432
-211.494	-13.674	-0.175	0.113
-210.479	10.116	-0.108	0.082
-209.465	-64.113	-0.196	0.079
-208.450	-86.422	-0.281	0.086
-207.436	48.423	0.187	0.174
-206.421	106.014	-0.197	0.232
-205.406	-191.203	0.088	-0.001
-204.392	-81.137	0.227	0.074
-203.377	-11.108	-0.108	-0.071
-202.363	697.406	-0.140	0.365
-201.348	409.534	-0.072	-0.152
-200.333	800.000	-0.085	0.250
-199.319	-93.442	0.221	-0.061
-198.304	86.290	-0.181	0.198
-197.290	-172.592	-0.085	0.003
-196.275	17.368	-0.140	0.110
-195.260	-116.325	0.027	-0.005
-194.246	48.598	0.108	0.101
-193.231	-84.930	0.295	-0.092
-192.217	-200.000	-0.021	0.269
-191.202	180.954	-0.077	0.113
-190.187	-200.000	0.016	-0.165
-189.173	718.549	0.020	0.052
-188.158	-23.486	0.075	0.045
-187.144	17.677	0.175	-0.138
-186.129	-75.675	-0.032	0.011
-185.114	12.418	0.171	-0.131
-184.100	-84.116	0.215	0.068
-183.085	-76.053	0.199	-0.070
-182.071	-97.369	-0.342	-0.088
-181.056	800.000	0.080	0.303
-180.042	152.531	-0.206	-0.279
-179.027	-83.959	0.453	0.143
-178.012	-77.774	0.092	-0.031
-176.998	-24.291	-0.333	-0.197
-175.983	108.298	-0.068	0.081
-174.969	92.637	0.075	0.084
-173.954	513.119	-0.063	-0.146
-172.939	230.437	-0.285	-0.463
-171.925	-29.454	-0.112	0.064
-170.910	8.325	-0.109	-0.082
-169.896	393.342	0.262	-0.541
-168.881	146.135	-0.137	0.182
-167.866	-200.000	0.034	0.206
-166.852	-66.922	0.093	0.036
-165.837	800.000	0.123	0.452
-164.823	-200.000	-0.012	-0.184
-163.808	140.259	0.333	0.436
-162.793	699.465	0.135	0.352
-161.779	402.498	0.143	0.297
-160.764	606.055	0.099	-0.244
-159.750	-200.000	0.014	-0.174
-158.735	-162.400	0.337	0.017
-157.720	-111.072	-0.248	0.050
-156.706	183.250	0.102	0.149
-155.691	29.908	0.132	-0.112
-154.677	-66.650	-0.113	-0.044
-153.662	-27.893	0.293	0.168
-152.647	284.480	0.188	0.336
-151.633	800.000	-0.080	0.293
-150.618	-171.350	0.277	-0.009
-149.604	-180.781	-0.152	-0.003
-148.589	-200.000	-0.010	-0.149
-147.574	-67.791	-0.209	-0.081
-146.560	168.782	0.045	0.063
-145.545	-39.796	0.195	0.101
-144.531	-182.516	-0.172	-0.003
-143.516	125.815	-0.180	0.225
-142.502	433.670	0.094	-0.201
-141.487	-200.000	-0.116	0.552
-140.472	-99.547	-0.135	-0.034
-139.458	-87.346	-0.336	-0.101
-138.443	114.905	-0.061	0.073
-137.429	-11.666	0.109	-0.071
-136.414	-200.000	0.076	-0.362
-135.399	-200.000	0.003	-0.306
-134.385	-105.887	-0.097	-0.022
-133.370	134.403	-0.173	-0.223
-132.356	652.397	0.105	-0.267
-131.341	187.377	-0.065	0.097
-130.326	-68.067	-0.218	0.084
-129.312	-200.000	-0.005	0.029
-128.297	-120.539	0.339	-0.057
-127.283	-151.769	-0.131	0.010
-126.268	-48.904	-0.096	0.046
-125.253	-109.907	0.333	-0.069
-124.239	-129.434	0.182	0.025
-123.224	58.172	-0.197	0.191
