DTS Sentinel unit serial number:	SN413079Multiplexer serial number:	ORYXHardware model number:	OX4-SRSoftware version number:	ORYX F/W v4.00 Oryx Data Collector v3.7.2.0data status	okinstallation	princeton_trtdifferential loss correction	single-endedforward channel	channel 4reverse channel	N/Adate	2019/09/16time	13:37:34forward acquisition time	60.00reverse acquisition time	0.00gamma	496.2192k internal	0.2285k external	0.2285temperature offset calibration	0.9937default loss term (dB/km)	0.3790temperature slope calibration	1.0000multiplexer offset coefficient	1.0000multiplexer slope coefficient	1.0000fibre end	0.00T internal ref (°C)	42.06T ext. ref 1 (°C)	13.87T ext. ref 2 (°C)	39.65length (m)	temperature (°C)	Stokes	anti-Stokes-747.200	83.746	0.055	0.062
-746.185	121.436	-0.233	0.298
-745.171	756.243	-0.099	0.276
-744.156	512.160	-0.067	-0.161
-743.142	588.094	0.041	-0.104
-742.127	411.079	0.168	0.367
-741.112	-47.650	-0.218	-0.109
-740.098	-200.000	-0.084	0.561
-739.083	-200.000	-0.040	0.239
-738.069	146.412	-0.195	0.268
-737.054	195.161	-0.244	-0.381
-736.039	1.510	-0.288	0.213
-735.025	-127.835	0.174	0.026
-734.010	173.988	0.144	-0.213
-732.996	99.978	-0.064	-0.076
-731.981	800.000	0.099	-0.338
-730.966	98.309	0.093	0.110
-729.952	-5.049	-0.311	-0.220
-728.937	-200.000	0.010	0.257
-727.923	167.807	-0.139	0.203
-726.908	57.758	-0.254	-0.255
-725.894	-28.519	-0.224	0.133
-724.879	-117.924	0.037	-0.007
-723.864	64.310	-0.363	-0.375
-722.850	34.825	0.147	0.132
-721.835	-185.133	-0.033	-0.001
-720.821	796.693	0.088	-0.247
-719.806	-39.546	0.082	0.044
-718.791	-200.000	-0.022	0.363
-717.777	-143.474	-0.179	0.018
-716.762	-66.315	-0.376	0.154
-715.748	-129.141	0.297	-0.043
-714.733	247.475	-0.158	0.275
-713.718	298.616	-0.142	-0.267
-712.704	112.536	-0.185	0.229
-711.689	-97.828	0.244	0.065
-710.675	151.206	0.144	0.200
-709.660	-17.214	-0.280	-0.181
-708.645	153.651	-0.173	-0.242
-707.631	225.727	-0.093	-0.154
-706.616	542.058	0.162	-0.395
-705.602	64.473	0.062	0.065
-704.587	-29.329	0.184	-0.108
-703.572	-55.747	0.091	-0.042
-702.558	-101.574	0.237	-0.059
-701.543	-40.554	-0.169	-0.090
-700.529	-112.711	-0.298	-0.061
-699.514	741.387	-0.077	-0.212
-698.499	132.907	0.165	-0.218
-697.485	-200.000	-0.091	-0.477
-696.470	-200.000	0.028	0.162
-695.456	41.604	-0.066	0.061
-694.441	40.761	-0.054	0.050
-693.426	-200.000	-0.006	-0.070
-692.412	800.000	-0.154	-0.493
-691.397	-200.000	0.014	-0.311
-690.383	42.775	-0.204	-0.191
-689.368	-200.000	-0.326	-0.001
-688.354	-200.000	0.027	-0.184
-687.339	292.570	-0.110	0.205
-686.324	-200.000	0.016	0.144
-685.310	18.073	-0.161	0.131
-684.295	-22.664	0.391	0.242
-683.281	800.000	0.067	-0.282
-682.266	-200.000	0.050	-0.226
-681.251	97.449	0.103	-0.122
-680.237	98.148	0.021	0.025
-679.222	-107.828	0.047	-0.010
-678.208	88.130	0.201	0.229
-677.193	-42.361	0.225	-0.118
-676.178	-74.847	-0.095	0.035
-675.164	-200.000	-0.048	-0.333
-674.149	800.000	-0.033	-0.148
-673.135	800.000	-0.046	-0.176
-672.120	52.694	-0.109	-0.106
-671.105	-57.822	-0.156	-0.070
-670.091	-200.000	0.024	-0.111
-669.076	182.049	-0.184	-0.277
-668.062	-200.000	0.024	0.158
-667.047	-68.097	-0.307	0.122
-666.032	39.188	-0.072	0.066
-665.018	95.101	0.149	0.174
-664.003	-67.966	0.175	0.070
-662.989	58.845	-0.300	-0.302
-661.974	-159.408	0.178	0.010
-660.959	800.000	0.076	-0.265
-659.945	-200.000	-0.021	0.159
-658.930	410.813	0.127	-0.275
-657.916	-163.750	-0.112	-0.005
-656.901	24.611	-0.131	-0.111
-655.886	-200.000	-0.008	-0.043
-654.872	260.957	-0.049	0.086
-653.857	514.776	0.109	0.259
-652.843	-118.196	0.245	-0.045
-651.828	275.030	0.095	-0.172
-650.814	284.250	0.084	-0.154
-649.799	391.579	-0.123	-0.262
-648.784	-164.183	0.225	-0.011
-647.770	-42.231	0.218	0.114
-646.755	-108.482	-0.314	-0.069
-645.741	-89.253	-0.261	-0.079
-644.726	231.076	-0.174	-0.292
-643.711	-200.000	0.001	0.039
-642.697	-200.000	0.007	0.308
-641.682	-139.685	-0.195	-0.021
-640.668	800.000	0.049	-0.153
-639.653	-21.823	-0.153	-0.095
-638.638	-56.444	0.375	-0.170
-637.624	-107.445	-0.408	-0.091
-636.609	800.000	0.027	0.106
-635.595	-29.126	-0.389	-0.228
-634.580	383.311	0.090	-0.189
-633.565	471.601	0.099	0.228
-632.551	-130.708	-0.507	0.070
-631.536	-173.712	0.104	-0.003
-630.522	15.515	-0.095	-0.076
-629.507	163.016	0.044	0.062
-628.492	-60.649	0.097	0.042
-627.478	-195.227	-0.223	0.002
-626.463	-200.000	-0.042	-0.482
-625.449	-86.806	-0.180	0.056
-624.434	577.565	-0.110	0.274
-623.419	-200.000	0.068	0.383
-622.405	-35.305	0.120	-0.067
-621.390	168.094	-0.205	-0.298
-620.376	-79.002	0.294	-0.102
-619.361	67.473	0.068	-0.071
-618.346	-18.836	0.102	-0.065
-617.332	800.000	-0.056	-0.181
-616.317	261.038	-0.069	-0.122
-615.303	-86.229	-0.140	0.044
-614.288	-2.149	-0.140	-0.101
-613.273	77.657	0.025	-0.027
-612.259	2.057	-0.119	0.087
-611.244	-57.475	-0.264	0.118
-610.230	-79.239	-0.155	0.054
-609.215	-7.947	0.129	-0.089
-608.201	143.955	-0.241	-0.328
-607.186	-174.506	-0.220	-0.006
-606.171	-5.969	-0.171	0.119
-605.157	-58.395	-0.284	0.126
-604.142	605.270	0.132	-0.336
-603.128	170.415	0.141	0.205
-602.113	49.079	-0.091	0.087
-601.098	-200.000	0.108	0.487
-600.084	-122.831	0.198	-0.033
-599.069	-200.000	-0.087	0.430
-598.055	-115.977	-0.154	0.029
-597.040	-200.000	0.014	-0.255
-596.025	-149.212	-0.455	-0.037
-595.011	85.484	0.163	0.182
-593.996	-200.000	0.008	0.156
-592.982	-14.881	0.335	0.219
-591.967	191.590	-0.078	0.119
-590.952	-190.355	0.325	-0.004
-589.938	-32.764	-0.120	0.068
-588.923	-92.664	0.187	-0.054
-587.909	-200.000	0.273	0.000
-586.894	92.707	0.123	0.142
-585.879	-200.000	-0.034	0.162
-584.865	19.514	0.154	-0.126
-583.850	577.604	-0.041	0.102
-582.836	-178.744	-0.220	0.005
-581.821	-139.807	0.113	-0.012
-580.806	-117.208	-0.177	0.033
-579.792	-59.732	0.212	-0.093
-578.777	492.380	-0.068	-0.159
-577.763	37.173	0.132	-0.119
-576.748	-200.000	-0.024	-0.388
-575.733	12.804	-0.197	-0.155
-574.719	-156.937	-0.255	-0.016
-573.704	800.000	0.003	0.012
-572.690	800.000	-0.026	-0.086
-571.675	154.808	0.176	0.246
-570.661	549.921	-0.096	-0.234
-569.646	-135.445	-0.359	-0.044
-568.631	-91.069	-0.222	0.065
-567.617	-200.000	-0.020	0.123
-566.602	370.797	0.025	0.051
-565.588	309.111	-0.115	-0.219
-564.573	-156.350	0.291	-0.019
-563.558	23.853	-0.132	-0.111
-562.544	-93.866	-0.166	-0.046
-561.529	-100.958	0.247	-0.062
-560.515	-200.000	-0.004	0.111
-559.500	-200.000	0.049	0.252
-558.485	69.544	-0.173	-0.182
-557.471	-20.970	0.157	-0.098
-556.456	-200.000	0.017	-0.171
-555.442	-61.844	0.269	-0.115
-554.427	387.469	0.164	0.345
-553.412	-200.000	-0.021	-0.180
-552.398	800.000	0.026	-0.087
-551.383	394.486	0.058	-0.124
-550.369	-74.958	0.130	-0.047
-549.354	-200.000	-0.002	0.047
-548.339	800.000	-0.049	-0.178
-547.325	-97.502	0.251	-0.066
-546.310	-136.085	0.183	-0.022
-545.296	542.836	-0.059	0.143
-544.281	188.928	-0.117	-0.179
-543.266	6.962	0.341	-0.259
-542.252	-109.328	-0.129	-0.028
-541.237	-88.351	-0.266	-0.081
-540.223	53.492	-0.281	0.275
-539.208	63.268	0.197	0.202
-538.193	316.653	0.126	-0.243
-537.179	-18.825	-0.117	-0.074
-536.164	800.000	0.098	-0.292
-535.150	254.032	-0.029	-0.051
-534.135	-68.275	0.018	0.007
-533.121	382.493	-0.176	-0.368
-532.106	-200.000	0.020	-0.178
-531.091	13.553	-0.257	-0.203
-530.077	-200.000	-0.007	0.079
-529.062	-22.889	0.177	0.109
-528.048	-200.000	0.067	-0.306
-527.033	-83.245	0.190	0.062
-526.018	76.305	-0.080	-0.086
-525.004	400.795	0.181	-0.386
-523.989	-200.000	-0.031	-0.158
-522.975	291.892	-0.135	0.250
-521.960	-200.000	-0.076	0.000
-520.945	-200.000	-0.007	0.044
-519.931	-4.750	-0.139	-0.098
-518.916	203.410	0.039	-0.061
-517.902	-154.652	0.115	-0.008
-516.887	5.030	0.240	-0.180
-515.872	-200.000	0.006	-0.205
-514.858	-133.525	0.251	0.032
-513.843	225.045	0.028	0.047
-512.829	341.737	-0.118	0.235
-511.814	-10.431	-0.201	0.135
-510.799	164.627	0.137	-0.197
-509.785	-86.759	-0.250	0.078
-508.770	558.101	0.087	0.214
-507.756	667.605	0.114	0.301
-506.741	66.711	-0.152	0.157
-505.726	-99.205	-0.075	-0.019
-504.712	9.734	0.279	0.215
-503.697	107.895	-0.099	0.121
-502.683	-59.123	0.329	-0.144
-501.668	91.013	0.052	0.059
-500.653	73.837	0.185	0.198
-499.639	58.969	-0.269	0.269
-498.624	-127.525	0.222	-0.033
-497.610	2.980	0.260	0.192
-496.595	32.836	-0.314	-0.276
-495.581	-200.000	0.007	-0.347
-494.566	-28.758	-0.173	0.101
-493.551	-200.000	-0.012	-0.158
-492.537	100.017	0.078	0.092
-491.522	-173.931	0.165	-0.005
-490.508	800.000	-0.043	-0.126
-489.493	-200.000	-0.022	0.172
-488.478	362.244	-0.098	0.201
-487.464	-37.893	0.201	-0.108
-486.449	-127.762	0.086	-0.013
-485.435	-38.791	-0.281	-0.151
-484.420	159.153	0.138	0.195
-483.405	-139.941	0.064	0.007
-482.391	-113.689	0.158	0.031
-481.376	-77.701	0.160	0.056
-480.362	306.401	-0.044	-0.084
-479.347	-101.536	0.175	-0.043
-478.332	511.169	-0.101	-0.238
-477.318	-104.395	-0.161	0.038
-476.303	-57.231	0.285	0.128
-475.289	-49.588	0.297	0.144
-474.274	203.382	-0.157	0.247
-473.259	761.239	-0.151	-0.416
-472.245	40.949	-0.094	-0.087
-471.230	-200.000	-0.034	0.245
-470.216	-200.000	-0.010	-0.078
-469.201	75.048	-0.188	0.201
-468.186	44.222	-0.024	-0.022
-467.172	-76.472	0.267	-0.095
-466.157	83.506	-0.165	-0.183
-465.143	800.000	-0.030	0.101
-464.128	-44.897	-0.143	-0.073
-463.113	295.196	-0.021	0.039
-462.099	314.135	-0.086	0.165
-461.084	-140.346	0.386	0.041
-460.070	-1.400	-0.087	0.063
-459.055	-200.000	-0.041	0.307
-458.040	-112.733	0.042	-0.009
-457.026	529.337	-0.098	-0.234
-456.011	2.660	0.160	0.118
-454.997	-200.000	0.004	0.217
-453.982	211.644	-0.148	0.237
-452.968	103.465	-0.082	-0.098
-451.953	57.856	-0.156	0.155
-450.938	-108.046	-0.234	-0.052
-449.924	324.145	-0.227	-0.440
-448.909	19.251	-0.191	0.156
-447.895	-79.819	0.041	0.014
-446.880	-82.407	-0.148	0.049
-445.865	-106.646	-0.044	0.010
-444.851	93.554	-0.091	-0.104
-443.836	119.457	0.167	-0.209
-442.822	-90.904	0.066	-0.019
-441.807	-200.000	0.004	0.081
-440.792	-82.420	0.431	-0.142
-439.778	-102.524	-0.295	0.071
-438.763	-80.200	-0.220	-0.075
-437.749	-90.391	-0.323	-0.095
-436.734	5.555	-0.258	-0.193
-435.719	-118.500	-0.364	0.065
-434.705	78.926	0.053	0.058
-433.690	19.960	0.119	-0.098
-432.676	318.962	0.133	0.256
-431.661	-200.000	0.031	-0.201
-430.646	800.000	0.087	0.340
-429.632	-44.534	0.171	0.087
-428.617	800.000	-0.036	-0.133
-427.603	504.568	-0.134	0.316
-426.588	153.123	-0.200	0.278
-425.573	-81.541	-0.217	-0.072
-424.559	-200.000	0.029	0.251
-423.544	-160.728	0.210	0.011
-422.530	183.881	0.072	-0.108
-421.515	-200.000	-0.118	0.593
-420.500	-200.000	0.004	-0.328
-419.486	-92.043	-0.172	-0.049
-418.471	800.000	0.082	-0.292
-417.457	24.250	0.099	0.083
-416.442	387.466	-0.043	0.090
-415.428	800.000	-0.029	-0.085
-414.413	-200.000	-0.018	0.138
-413.398	-200.000	-0.001	-0.186
-412.384	153.647	0.080	-0.111
-411.369	-4.723	0.253	0.177
-410.355	-200.000	0.025	0.136
-409.340	80.400	-0.301	0.328
-408.325	-73.586	0.352	0.130
-407.311	18.906	0.286	-0.232
-406.296	126.993	0.336	-0.431
-405.282	-200.000	-0.008	0.171
-404.267	84.519	0.108	0.119
-403.252	45.832	0.068	0.064
-402.238	-200.000	0.008	-0.054
-401.223	609.462	-0.054	-0.136
-400.209	800.000	0.098	-0.322
-399.194	-200.000	0.024	0.142
-398.179	138.348	0.236	-0.314
-397.165	-102.533	0.152	-0.037
-396.150	345.203	-0.045	-0.089
-395.136	800.000	-0.054	0.233
-394.121	-49.619	0.191	0.092
-393.106	-81.656	0.039	-0.013
-392.092	-111.442	0.088	-0.018
-391.077	-25.593	0.221	-0.132
-390.063	-200.000	-0.078	0.352
-389.048	340.425	0.083	-0.164
-388.033	-125.582	0.405	-0.062
-387.019	-200.000	-0.003	-0.127
-386.004	-25.520	-0.261	0.156
-384.990	-25.119	0.206	0.124
-383.975	-200.000	-0.006	0.259
-382.960	-25.567	0.109	0.065
-381.946	283.210	-0.178	-0.324
-380.931	-200.000	-0.046	-0.206
-379.917	-176.531	0.201	-0.005
-378.902	72.407	0.111	-0.117
-377.888	-121.441	-0.375	-0.063
-376.873	-37.184	0.119	0.064
-375.858	-55.507	0.212	-0.096
-374.844	-104.880	0.134	-0.031
-373.829	30.991	0.275	-0.239
-372.815	-30.992	0.129	0.074
-371.800	-200.000	0.004	0.115
-370.785	800.000	-0.063	-0.191
-369.771	7.061	0.132	-0.099
-368.756	-200.000	-0.017	-0.462
-367.742	-200.000	-0.027	0.187
-366.727	742.791	0.106	0.289
-365.712	2.943	-0.211	-0.155
-364.698	-11.527	-0.188	0.125
-363.683	-200.000	-0.001	-0.011
-362.669	284.635	-0.128	0.233
-361.654	-96.003	0.231	0.062
-360.639	-200.000	-0.038	-0.202
-359.625	800.000	-0.083	0.260
-358.610	32.321	-0.252	0.220
-357.596	-75.964	-0.293	-0.105
-356.581	800.000	0.104	-0.374
-355.566	-116.424	-0.071	0.013
-354.552	639.026	-0.073	-0.188
-353.537	56.386	0.035	0.035
-352.523	399.305	-0.091	0.192
-351.508	-200.000	0.022	0.307
-350.493	-54.751	-0.403	0.184
-349.479	-200.000	-0.021	-0.120
-348.464	80.115	-0.076	0.083
-347.450	790.659	-0.121	-0.335
-346.435	130.829	0.166	0.215
-345.420	98.163	-0.053	-0.061
-344.406	-67.949	-0.282	-0.111
-343.391	35.012	-0.106	-0.093
-342.377	-200.000	-0.007	-0.090
-341.362	-37.453	-0.027	-0.015
-340.348	35.436	0.093	-0.082
-339.333	705.251	0.116	0.308
-338.318	-200.000	-0.023	0.193
-337.304	-138.204	0.231	-0.026
-336.289	86.864	0.125	0.140
-335.275	-67.511	0.045	0.018
-334.260	153.335	0.263	0.364
-333.245	-117.974	0.266	0.048
-332.231	-41.477	0.214	0.111
-331.216	31.649	-0.139	-0.121
-330.202	-41.799	0.113	-0.058
-329.187	31.061	0.272	-0.235
-328.172	-116.214	-0.225	0.042
-327.158	352.927	0.093	-0.186
-326.143	-95.674	-0.273	-0.074
-325.129	-102.661	0.370	0.089
-324.114	800.000	-0.119	-0.451
-323.099	-72.497	-0.148	0.055
-322.085	494.287	0.151	0.349
-321.070	404.731	0.077	0.163
-320.056	-200.000	0.010	-0.203
-319.041	-38.544	0.124	0.066
-318.026	-184.985	-0.395	0.006
-317.012	482.101	-0.031	-0.071
-315.997	164.732	0.087	0.124
-314.983	267.434	-0.054	-0.096
-313.968	-36.460	-0.113	-0.062
-312.953	-149.593	0.243	0.019
-311.939	-200.000	0.016	0.122
-310.924	197.124	-0.102	0.158
-309.910	-107.243	0.258	0.057
-308.895	-185.351	0.128	-0.002
-307.880	98.788	0.116	-0.135
-306.866	634.772	0.088	-0.226
-305.851	-200.000	-0.042	-0.198
-304.837	311.262	-0.092	0.174
-303.822	406.027	0.179	0.381
-302.807	151.539	0.265	-0.364
-301.793	-16.744	0.182	-0.116
-300.778	-85.670	-0.215	-0.067
-299.764	2.876	-0.112	-0.082
-298.749	800.000	0.015	-0.045
-297.735	101.135	-0.181	0.213
-296.720	332.678	0.135	0.263
-295.705	61.316	-0.174	-0.174
-294.691	-101.328	0.187	0.046
-293.676	-12.216	-0.179	-0.118
-292.662	-83.897	-0.141	0.045
-291.647	-137.897	0.236	0.027
-290.632	-110.041	-0.309	-0.065
-289.618	-67.643	0.351	-0.138
-288.603	-25.067	0.369	-0.221
-287.589	11.137	-0.393	0.304
-286.574	800.000	-0.099	-0.304
-285.559	-200.000	0.056	0.378
-284.545	-36.213	0.197	-0.107
-283.530	174.583	0.124	-0.181
-282.516	215.328	-0.089	-0.142
-281.501	152.706	0.200	-0.276
-280.486	-66.609	0.061	0.024
-279.472	9.847	0.353	0.270
-278.457	770.145	-0.127	0.348
-277.443	-200.000	0.048	0.214
-276.428	-38.286	-0.137	0.073
-275.413	-60.145	-0.147	0.063
-274.399	117.447	-0.077	-0.095
-273.384	-200.000	-0.014	0.369
-272.370	54.541	-0.103	-0.100
-271.355	-56.662	-0.138	-0.062
-270.340	12.669	-0.226	-0.176
-269.326	-47.524	-0.212	0.104
-268.311	-143.464	0.126	0.012
-267.297	-122.348	-0.469	-0.077
-266.282	124.198	0.134	-0.170
-265.267	-132.970	-0.102	-0.013
-264.253	88.261	0.177	0.198
-263.238	32.551	-0.083	0.072
-262.224	-200.000	0.028	-0.243
-261.209	72.935	0.201	-0.212
-260.195	179.838	-0.183	0.270
-259.180	196.928	0.170	-0.262
-258.165	51.805	-0.071	0.068
-257.151	-14.129	-0.136	-0.088
-256.136	43.682	-0.089	-0.082
-255.122	-38.590	0.241	0.128
-254.107	-164.657	0.164	-0.007
-253.092	-75.774	-0.216	-0.077
-252.078	283.869	-0.145	-0.262
-251.063	70.245	0.041	-0.043
-250.049	800.000	-0.072	0.310
-249.034	-51.175	0.118	0.055
-248.019	-67.427	0.229	-0.090
-247.005	-20.751	0.095	0.058
-245.990	-31.991	-0.194	0.109
-244.976	223.732	0.106	-0.173
-243.961	444.853	0.081	0.178
-242.946	177.063	-0.137	-0.201
-241.932	-48.649	-0.253	-0.122
-240.917	-102.020	0.220	0.053
-239.903	-200.000	-0.037	0.393
-238.888	17.513	-0.059	0.047
-237.873	584.943	-0.064	-0.159
-236.859	195.920	0.152	-0.232
-235.844	106.899	-0.147	0.175
-234.830	34.145	-0.267	0.234
-233.815	-77.798	0.201	-0.070
-232.800	-75.703	-0.154	0.055
-231.786	43.789	-0.092	0.085
-230.771	800.000	-0.016	-0.064
-229.757	-200.000	0.009	-0.063
-228.742	-88.595	0.316	0.095
-227.727	324.214	0.112	0.215
-226.713	-200.000	-0.007	0.091
-225.698	-59.817	-0.166	-0.071
-224.684	28.635	-0.068	0.058
-223.669	54.948	0.322	0.313
-222.655	28.904	0.261	0.223
-221.640	-14.842	0.184	0.118
-220.625	-154.053	-0.261	-0.018
-219.611	326.815	-0.098	0.189
-218.596	106.436	-0.191	-0.228
-217.582	611.039	-0.064	0.161
-216.567	86.269	0.188	0.208
-215.552	-104.837	0.195	-0.045
-214.538	-86.144	-0.156	-0.048
-213.523	-113.832	0.178	-0.035
-212.509	590.287	-0.122	0.302
-211.494	-171.222	-0.134	0.005
-210.479	-200.000	-0.018	0.448
-209.465	-12.007	-0.233	0.153
-208.450	53.824	0.156	0.151
-207.436	800.000	-0.072	0.317
-206.421	-200.000	-0.014	0.242
-205.406	20.170	0.076	0.062
-204.392	-158.079	-0.182	0.011
-203.377	36.035	0.086	-0.077
-202.363	40.973	0.165	-0.149
-201.348	-159.689	-0.356	-0.020
-200.333	800.000	0.041	-0.154
-199.319	109.490	-0.393	0.473
-198.304	-200.000	-0.059	0.271
-197.290	517.312	-0.081	0.191
-196.275	-41.734	-0.241	-0.125
-195.260	-200.000	-0.029	0.426
-194.246	520.312	0.071	-0.168
-193.231	51.853	-0.125	-0.120
-192.217	-98.373	-0.333	-0.086
-191.202	68.376	0.055	0.056
-190.187	74.243	0.170	-0.179
-189.173	776.904	-0.084	-0.232
-188.158	45.104	0.129	-0.120
-187.144	284.707	0.095	0.172
-186.129	-116.031	-0.322	0.060
-185.114	-200.000	0.007	0.323
-184.100	-200.000	0.001	-0.178
-183.085	332.427	0.159	-0.308
-182.071	109.153	0.137	0.164
-181.056	-120.815	0.070	0.012
-180.042	-14.106	0.129	0.083
-179.027	127.363	0.098	0.124
-178.012	800.000	0.008	-0.027
-176.998	-200.000	0.010	-0.303
-175.983	800.000	0.053	-0.181
-174.969	1.940	-0.086	-0.062
-173.954	-185.005	0.062	-0.001
-172.939	-14.807	0.222	-0.143
-171.925	178.933	0.139	0.205
-170.910	-11.140	-0.078	-0.051
-169.896	173.745	0.101	0.147
-168.881	-91.213	-0.071	-0.021
-167.866	800.000	0.123	-0.341
-166.852	-200.000	-0.011	-0.139
-165.837	-200.000	-0.023	0.134
-164.823	-200.000	-0.015	0.187
-163.808	259.930	-0.048	0.083
-162.793	-200.000	0.047	-0.387
-161.779	-78.099	0.202	-0.070
-160.764	-104.816	0.332	0.077
-159.750	800.000	0.068	-0.268
-158.735	-106.372	0.044	0.010
-157.720	-200.000	-0.011	-0.130
-156.706	800.000	-0.059	-0.193
-155.691	4.350	-0.184	0.135
-154.677	-146.009	0.231	0.021
-153.662	800.000	0.114	-0.373
-152.647	-106.976	-0.193	-0.043
-151.633	-200.000	-0.023	0.177
-150.618	-61.535	0.157	-0.066
-149.604	-200.000	-0.005	-0.203
-148.589	-99.207	-0.167	0.042
-147.574	-44.099	0.213	0.107
-146.560	202.138	0.110	-0.170
-145.545	-93.362	0.290	-0.081
-144.531	-200.000	0.026	-0.211
-143.516	-99.603	0.267	0.067
-142.502	-51.513	-0.176	-0.083
-141.487	-200.000	-0.006	-0.142
-140.472	-200.000	-0.013	-0.253
-139.458	211.713	-0.041	-0.065
-138.443	-200.000	0.048	0.321
-137.429	-47.933	0.171	-0.083
-136.414	-200.000	-0.027	-0.246
-135.399	800.000	0.039	0.108
-134.385	-200.000	0.010	0.099
-133.370	-10.588	-0.134	-0.089
-132.356	-172.545	-0.372	0.012
-131.341	-200.000	-0.014	0.740
-130.326	214.152	0.144	0.229
-129.312	352.097	-0.122	0.243
-128.297	800.000	-0.051	-0.202
-127.283	-41.833	0.187	0.096
-126.268	-200.000	-0.014	-0.270
-125.253	233.678	0.162	0.267
-124.239	157.272	0.230	-0.319
-123.224	-14.221	-0.204	-0.132
-122.210	-155.305	0.085	0.006
