DTS Sentinel unit serial number:	SN413079Multiplexer serial number:	ORYXHardware model number:	OX4-SRSoftware version number:	ORYX F/W v4.00 Oryx Data Collector v3.7.2.0data status	okinstallation	princeton_trtdifferential loss correction	single-endedforward channel	channel 4reverse channel	N/Adate	2019/09/16time	09:49:35forward acquisition time	60.00reverse acquisition time	0.00gamma	496.2192k internal	0.2305k external	0.2305temperature offset calibration	0.9966default loss term (dB/km)	0.3790temperature slope calibration	1.0000multiplexer offset coefficient	1.0000multiplexer slope coefficient	1.0000fibre end	0.00T internal ref (°C)	32.83T ext. ref 1 (°C)	12.32T ext. ref 2 (°C)	30.74length (m)	temperature (°C)	Stokes	anti-Stokes-747.200	-106.411	0.114	-0.026
-746.185	134.112	-0.222	0.293
-745.171	-9.692	0.076	0.051
-744.156	-200.000	-0.048	0.284
-743.142	-41.104	-0.185	-0.097
-742.127	-177.988	-0.204	0.005
-741.112	108.685	0.120	-0.145
-740.098	-123.385	-0.206	0.033
-739.083	653.373	0.133	-0.347
-738.069	800.000	0.056	0.207
-737.054	3.580	-0.084	0.062
-736.039	-32.616	-0.135	0.076
-735.025	800.000	-0.055	0.209
-734.010	76.162	-0.307	-0.331
-732.996	800.000	0.117	-0.354
-731.981	542.474	-0.067	0.163
-730.966	75.661	0.102	0.110
-729.952	43.884	-0.134	0.125
-728.937	152.297	-0.103	-0.143
-727.923	-200.000	0.017	-0.327
-726.908	800.000	-0.037	0.133
-725.894	-200.000	0.022	0.249
-724.879	245.704	0.212	-0.363
-723.864	50.884	-0.129	0.124
-722.850	184.697	-0.276	0.415
-721.835	1.491	0.367	-0.268
-720.821	-111.456	-0.424	0.088
-719.806	184.988	-0.167	-0.253
-718.791	183.117	0.124	-0.187
-717.777	-127.674	-0.096	0.014
-716.762	-200.000	0.008	-0.152
-715.748	348.507	0.138	0.277
-714.733	-200.000	-0.005	-0.109
-713.718	800.000	0.036	-0.123
-712.704	-149.440	-0.282	0.023
-711.689	25.470	0.165	-0.139
-710.675	-200.000	-0.039	0.619
-709.660	285.881	0.197	-0.360
-708.645	800.000	-0.078	-0.272
-707.631	304.966	-0.126	0.238
-706.616	-40.934	0.325	-0.171
-705.602	-68.765	-0.134	-0.053
-704.587	-200.000	-0.021	0.302
-703.572	-138.842	-0.117	0.013
-702.558	52.306	-0.185	0.179
-701.543	101.120	0.106	-0.125
-700.529	392.087	0.085	0.180
-699.514	-22.131	-0.332	0.205
-698.499	-200.000	-0.008	-0.080
-697.485	-200.000	-0.003	-0.139
-696.470	112.086	-0.356	0.438
-695.456	-63.675	-0.115	0.048
-694.441	25.350	-0.132	-0.112
-693.426	-67.721	-0.257	0.102
-692.412	-59.945	-0.103	-0.045
-691.397	67.120	0.123	-0.127
-690.383	204.645	0.172	-0.271
-689.368	-40.735	-0.271	0.143
-688.354	31.177	-0.126	0.110
-687.339	-94.520	0.132	-0.037
-686.324	91.386	-0.062	0.071
-685.310	98.949	0.042	-0.050
-684.295	-200.000	0.039	-0.201
-683.281	-11.329	0.146	0.097
-682.266	3.665	-0.299	0.222
-681.251	-107.171	-0.126	-0.028
-680.237	-48.872	-0.171	-0.083
-679.222	-44.275	0.287	0.146
-678.208	-34.156	0.139	0.077
-677.193	-200.000	0.018	0.103
-676.178	1.889	-0.112	0.082
-675.164	-94.507	0.159	-0.044
-674.149	8.363	0.216	0.165
-673.135	800.000	0.131	-0.443
-672.120	-72.223	0.080	-0.030
-671.105	284.877	0.039	0.072
-670.091	-99.936	0.074	-0.019
-669.076	-200.000	0.060	-0.476
-668.062	71.394	-0.043	-0.045
-667.047	800.000	-0.039	0.130
-666.032	-200.000	-0.017	-0.144
-665.018	-24.732	-0.212	0.128
-664.003	188.575	-0.197	0.298
-662.989	-29.517	0.181	-0.105
-661.974	377.137	0.075	-0.156
-660.959	599.965	-0.035	-0.088
-659.945	800.000	-0.044	-0.130
-658.930	-28.061	0.097	-0.057
-657.916	-36.902	-0.253	0.138
-656.901	36.012	0.121	-0.108
-655.886	-200.000	0.002	-0.173
-654.872	28.108	0.274	0.234
-653.857	-200.000	-0.005	0.185
-652.843	-93.006	-0.117	-0.033
-651.828	-9.903	-0.069	0.047
-650.814	85.864	-0.291	-0.324
-649.799	-116.572	0.098	0.018
-648.784	68.852	-0.213	0.222
-647.770	326.821	-0.174	-0.338
-646.755	703.146	-0.091	-0.244
-645.741	-105.261	-0.085	0.020
-644.726	-200.000	-0.044	-0.406
-643.711	-87.570	0.004	0.001
-642.697	-87.350	0.156	-0.048
-641.682	-141.020	0.246	0.026
-640.668	68.637	0.175	0.182
-639.653	624.436	-0.090	-0.229
-638.638	800.000	0.032	-0.124
-637.624	-200.000	-0.030	0.180
-636.609	207.303	0.109	0.172
-635.595	-103.184	-0.157	-0.038
-634.580	216.669	-0.214	-0.345
-633.565	702.066	-0.048	0.127
-632.551	-145.108	0.133	-0.012
-631.536	-90.583	-0.266	0.078
-630.522	-123.169	-0.239	0.039
-629.507	-42.532	-0.121	-0.062
-628.492	-44.968	-0.420	-0.212
-627.478	-16.903	-0.086	-0.055
-626.463	128.083	-0.088	-0.113
-625.449	371.560	0.079	-0.162
-624.434	28.727	-0.150	0.128
-623.419	131.748	0.178	0.232
-622.405	64.653	0.105	-0.107
-621.390	-200.000	-0.018	-0.142
-620.376	99.415	-0.277	0.325
-619.361	-94.243	0.077	0.021
-618.346	-12.438	-0.094	0.062
-617.332	-101.345	-0.051	0.013
-616.317	22.148	-0.137	-0.113
-615.303	14.040	0.054	0.043
-614.288	-200.000	-0.007	-0.204
-613.273	-120.140	0.363	0.063
-612.259	-7.463	-0.186	-0.127
-611.244	80.704	-0.169	-0.184
-610.230	99.676	-0.209	0.245
-609.215	92.781	-0.276	0.316
-608.201	-200.000	-0.013	-0.323
-607.186	102.155	-0.288	-0.340
-606.171	36.542	-0.114	0.101
-605.157	-200.000	-0.001	-0.193
-604.142	-200.000	-0.024	-0.138
-603.128	35.217	0.043	0.038
-602.113	665.120	-0.067	-0.175
-601.098	-200.000	-0.050	-0.308
-600.084	-103.969	-0.275	0.065
-599.069	111.276	0.059	0.072
-598.055	800.000	0.127	0.416
-597.040	-200.000	0.071	0.426
-596.025	-17.461	-0.028	-0.018
-595.011	-57.320	-0.216	-0.096
-593.996	-80.525	0.237	0.080
-592.982	-200.000	-0.060	0.351
-591.967	-58.129	0.265	0.117
-590.952	13.993	0.131	-0.103
-589.938	-78.937	0.340	-0.117
-588.923	-78.538	-0.230	-0.080
-587.909	-200.000	-0.017	-0.314
-586.894	-83.459	-0.185	0.060
-585.879	-92.925	-0.225	0.064
-584.865	51.529	-0.216	0.208
-583.850	-104.289	0.205	-0.048
-582.836	800.000	0.021	0.073
-581.821	-91.794	-0.111	0.032
-580.806	-123.618	-0.248	-0.040
-579.792	114.319	-0.038	-0.047
-578.777	157.552	-0.153	-0.214
-577.763	89.889	0.074	0.083
-576.748	-88.286	0.137	-0.041
-575.733	-200.000	0.006	0.102
-574.719	800.000	0.020	0.083
-573.704	136.450	-0.241	0.318
-572.690	25.108	0.120	-0.101
-571.675	59.683	0.042	0.042
-570.661	50.251	-0.086	0.083
-569.646	-71.149	0.224	-0.085
-568.631	155.472	0.134	-0.187
-567.617	-109.923	-0.110	-0.023
-566.602	54.606	0.166	0.162
-565.588	-199.448	-0.100	-0.001
-564.573	-119.432	-0.156	-0.027
-563.558	-20.685	0.421	-0.261
-562.544	800.000	0.085	-0.329
-561.529	52.843	0.335	0.324
-560.515	-99.243	-0.170	-0.043
-559.500	-58.731	-0.170	-0.074
-558.485	-16.696	-0.268	-0.171
-557.471	121.986	0.174	0.220
-556.456	-21.307	-0.060	-0.037
-555.442	2.473	0.180	-0.132
-554.427	75.595	0.198	0.211
-553.412	-200.000	-0.035	0.255
-552.398	-56.787	0.128	-0.057
-551.383	194.943	0.057	-0.087
-550.369	-199.697	-0.123	-0.001
-549.354	-200.000	-0.010	-0.277
-548.339	-40.217	0.227	0.119
-547.325	-71.585	0.204	0.077
-546.310	180.246	-0.217	0.322
-545.296	-200.000	0.020	-0.285
-544.281	-106.333	0.263	-0.059
-543.266	45.073	-0.075	-0.070
-542.252	-50.942	-0.169	-0.080
-541.237	-14.141	0.129	-0.084
-540.223	87.786	0.207	0.232
-539.208	-200.000	-0.066	-0.340
-538.193	800.000	-0.030	-0.114
-537.179	-141.740	-0.235	-0.024
-536.164	185.302	-0.079	0.118
-535.150	-24.796	0.232	-0.139
-534.135	233.452	-0.194	-0.322
-533.121	800.000	-0.024	-0.076
-532.106	91.263	-0.162	0.184
-531.091	800.000	0.085	-0.250
-530.077	-127.639	-0.118	-0.017
-529.062	519.762	0.049	-0.115
-528.048	-200.000	0.016	-0.112
-527.033	-45.829	-0.100	0.050
-526.018	-200.000	-0.008	0.041
-525.004	-61.736	0.194	-0.082
-523.989	678.080	-0.046	-0.121
-522.975	9.421	-0.076	0.058
-521.960	-200.000	0.005	0.098
-520.945	440.637	-0.063	0.139
-519.931	-112.160	-0.299	0.061
-518.916	-200.000	-0.005	0.073
-517.902	-94.971	-0.175	-0.048
-516.887	-200.000	-0.030	-0.139
-515.872	-200.000	-0.010	0.224
-514.858	749.331	-0.099	-0.269
-513.843	-174.174	0.032	-0.001
-512.829	-17.129	0.235	0.149
-511.814	36.598	-0.252	0.225
-510.799	87.860	0.170	0.190
-509.785	-55.729	0.461	0.208
-508.770	200.691	0.267	0.415
-507.756	27.548	0.126	0.107
-506.741	-101.222	-0.355	0.088
-505.726	10.136	0.318	-0.243
-504.712	-162.209	-0.266	0.013
-503.697	5.583	0.284	0.212
-502.683	-200.000	0.048	-0.249
-501.668	-75.941	-0.153	-0.055
-500.653	-200.000	-0.001	-0.132
-499.639	-200.000	-0.002	0.342
-498.624	-41.791	-0.150	0.078
-497.610	27.925	0.139	0.118
-496.595	475.527	-0.174	-0.397
-495.581	-162.075	0.096	0.005
-494.566	-50.940	0.241	0.114
-493.551	-200.000	-0.007	-0.087
-492.537	800.000	-0.059	-0.219
-491.522	-200.000	0.004	0.049
-490.508	800.000	-0.105	-0.376
-489.493	-3.860	0.032	-0.023
-488.478	49.419	0.142	0.135
-487.464	-44.436	0.207	0.104
-486.449	-89.092	0.152	0.045
-485.435	-108.044	0.276	0.060
-484.420	2.714	0.218	-0.159
-483.405	107.434	-0.126	0.151
-482.391	-200.000	-0.041	0.240
-481.376	143.873	0.262	0.352
-480.362	-54.727	-0.310	0.141
-479.347	-116.060	-0.096	-0.018
-478.332	-18.351	0.244	0.154
-477.318	153.412	-0.236	-0.326
-476.303	-123.004	-0.155	0.025
-475.289	120.168	-0.128	-0.160
-474.274	-177.830	0.437	0.011
-473.259	-200.000	0.005	-0.115
-472.245	168.311	0.314	0.450
-471.230	185.226	0.072	0.108
-470.216	291.152	0.128	-0.235
-469.201	136.328	-0.070	0.092
-468.186	-9.760	0.105	-0.070
-467.172	-121.546	0.319	-0.053
-466.157	-73.075	0.546	-0.202
-465.143	99.968	-0.099	0.116
-464.128	15.567	0.087	0.069
-463.113	800.000	-0.046	0.197
-462.099	-153.267	-0.298	0.021
-461.084	-200.000	-0.015	-0.169
-460.070	40.655	0.113	-0.103
-459.055	49.743	-0.120	-0.114
-458.040	-200.000	0.023	0.340
-457.026	125.033	-0.258	0.327
-456.011	800.000	0.036	-0.107
-454.997	-73.817	-0.290	0.106
-453.982	503.194	0.109	-0.253
-452.968	-200.000	0.017	0.104
-451.953	-144.253	-0.175	-0.016
-450.938	755.082	0.059	-0.161
-449.924	28.146	-0.061	-0.052
-448.909	-44.080	0.101	0.051
-447.895	-47.846	0.154	0.075
-446.880	222.402	0.125	0.202
-445.865	800.000	-0.054	0.161
-444.851	800.000	0.109	0.343
-443.836	-26.011	-0.305	-0.180
-442.822	-9.341	-0.215	-0.144
-441.807	-117.315	0.187	-0.034
-440.792	273.171	-0.116	0.207
-439.778	800.000	-0.060	-0.237
-438.763	-119.730	0.204	0.035
-437.749	-47.230	-0.260	-0.127
-436.734	-96.062	-0.243	-0.065
-435.719	191.233	-0.114	0.172
-434.705	287.188	0.050	-0.092
-433.690	-195.428	-0.168	0.001
-432.676	772.849	-0.040	0.108
-431.661	-200.000	-0.046	0.227
-430.646	347.826	-0.036	-0.070
-429.632	-135.260	0.115	0.014
-428.617	259.825	0.034	0.058
-427.603	-200.000	0.006	0.093
-426.588	800.000	-0.009	-0.031
-425.573	-72.004	0.132	-0.049
-424.559	-156.792	-0.121	0.008
-423.544	233.951	0.188	-0.311
-422.530	-80.026	0.236	0.080
-421.515	-138.876	0.192	0.021
-420.500	10.276	0.167	0.127
-419.486	-200.000	-0.008	0.147
-418.471	120.259	0.176	-0.219
-417.457	800.000	-0.086	-0.253
-416.442	-49.118	-0.304	-0.146
-415.428	-200.000	-0.049	0.228
-414.413	452.627	-0.129	-0.287
-413.398	26.133	0.102	-0.085
-412.384	114.630	0.060	0.073
-411.369	800.000	-0.051	0.161
-410.355	134.617	-0.105	-0.136
-409.340	-28.742	-0.069	-0.040
-408.325	21.232	0.323	0.264
-407.311	-117.898	-0.174	0.031
-406.296	-21.496	0.153	-0.094
-405.282	-2.670	-0.090	-0.063
-404.267	21.171	-0.165	-0.135
-403.252	-6.098	0.277	0.190
-402.238	97.432	0.205	0.237
-401.223	-101.692	0.048	0.012
-400.209	-115.163	-0.099	-0.019
-399.194	-200.000	-0.046	-0.228
-398.179	-95.384	-0.114	0.031
-397.165	-200.000	0.026	0.238
-396.150	211.637	0.113	0.179
-395.136	-65.938	-0.057	0.023
-394.121	112.959	-0.069	-0.084
-393.106	-40.739	0.139	0.072
-392.092	191.430	-0.013	-0.019
-391.077	52.752	-0.208	0.199
-390.063	353.611	0.098	0.196
-389.048	-200.000	0.020	-0.218
-388.033	-68.575	0.083	0.032
-387.019	44.029	-0.155	-0.142
-386.004	-200.000	0.007	-0.117
-384.990	172.080	0.183	0.263
-383.975	396.961	-0.039	-0.082
-382.960	47.203	-0.168	0.157
-381.946	78.331	0.062	-0.067
-380.931	-200.000	0.007	-0.126
-379.917	643.020	0.029	0.074
-378.902	65.465	0.183	0.186
-377.888	800.000	-0.067	-0.254
-376.873	176.296	-0.120	0.175
-375.858	298.994	-0.119	0.220
-374.844	-146.269	0.388	-0.034
-373.829	302.819	0.067	-0.124
-372.815	19.785	0.099	0.080
-371.800	143.606	-0.260	-0.348
-370.785	-80.083	-0.348	0.117
-369.771	9.474	-0.314	0.239
-368.756	522.307	-0.099	-0.234
-367.742	-200.000	-0.069	-0.356
-366.727	-200.000	-0.006	0.172
-365.712	126.886	-0.238	-0.303
-364.698	-115.959	-0.260	0.049
-363.683	800.000	0.052	-0.153
-362.669	-2.201	0.142	-0.100
-361.654	148.181	0.038	-0.051
-360.639	264.006	0.122	0.212
-359.625	-6.097	0.177	0.122
-358.610	102.079	0.098	-0.114
-357.596	-99.958	0.192	0.048
-356.581	-62.098	0.276	-0.116
-355.566	-200.000	0.024	0.197
-354.552	-200.000	0.002	0.087
-353.537	-200.000	0.004	0.049
-352.523	-44.130	0.185	-0.093
-351.508	-63.575	0.275	0.113
-350.493	-200.000	0.002	0.163
-349.479	-200.000	-0.011	-0.125
-348.464	120.232	0.133	-0.165
-347.450	-71.277	-0.627	-0.236
-346.435	34.686	-0.056	0.049
-345.420	-200.000	-0.018	0.353
-344.406	-44.106	0.041	0.021
-343.391	-121.588	-0.089	0.015
-342.377	-37.062	-0.192	0.103
-341.362	205.722	-0.267	0.415
-340.348	-200.000	-0.005	0.049
-339.333	-45.251	-0.014	0.007
-338.318	-140.896	-0.212	0.022
-337.304	-113.462	0.134	-0.026
-336.289	145.354	-0.113	-0.152
-335.275	-91.750	-0.142	-0.041
-334.260	-136.143	0.282	0.033
-333.245	52.551	-0.067	-0.064
-332.231	-136.524	0.221	0.026
-331.216	-59.005	0.415	0.179
-330.202	-200.000	0.043	-0.338
-329.187	-200.000	-0.033	-0.210
-328.172	101.362	0.183	0.213
-327.158	-200.000	-0.021	-0.166
-326.143	379.253	-0.075	0.153
-325.129	-69.369	0.390	-0.150
-324.114	-91.966	0.292	0.083
-323.099	-16.009	0.327	0.208
-322.085	-21.832	0.272	0.166
-321.070	-49.111	0.115	-0.055
-320.056	40.362	-0.085	0.076
-319.041	-114.043	0.072	0.014
-318.026	14.748	-0.207	-0.162
-317.012	800.000	0.082	-0.267
-315.997	269.991	-0.218	0.384
-314.983	20.543	-0.328	0.266
-313.968	800.000	0.075	-0.222
-312.953	-200.000	0.006	-0.204
-311.939	111.743	0.196	-0.237
-310.924	-146.084	-0.314	-0.028
-309.910	747.248	0.106	0.287
-308.895	-129.541	0.314	0.044
-307.880	-75.845	-0.154	0.055
-306.866	-117.114	-0.499	-0.091
-305.851	15.040	0.165	-0.129
-304.837	241.880	0.152	0.254
-303.822	-200.000	-0.054	0.310
-302.807	15.227	0.075	0.059
-301.793	-200.000	0.006	-0.079
-300.778	-134.443	0.311	-0.038
-299.764	-154.698	0.258	-0.017
-298.749	42.128	0.121	-0.110
-297.735	-1.441	-0.272	-0.192
-296.720	798.041	-0.050	-0.137
-295.705	-88.915	-0.073	0.022
-294.691	629.142	0.069	-0.175
-293.676	443.475	-0.078	-0.172
-292.662	-45.529	-0.248	0.123
-291.647	87.706	-0.126	-0.140
-290.632	-200.000	-0.034	0.209
-289.618	-200.000	-0.000	0.136
-288.603	800.000	0.112	-0.333
-287.589	234.448	-0.224	-0.369
-286.574	-153.886	0.323	0.022
-285.559	725.590	0.085	0.226
-284.545	-156.973	0.181	0.011
-283.530	567.030	-0.077	0.186
-282.516	224.576	0.083	-0.135
-281.501	800.000	0.139	-0.441
-280.486	111.769	0.129	0.156
-279.472	184.263	-0.127	0.188
-278.457	-79.299	-0.197	0.067
-277.443	800.000	-0.088	-0.324
-276.428	113.798	-0.055	-0.067
-275.413	21.564	0.089	0.073
-274.399	80.114	0.113	-0.122
-273.384	59.606	0.161	-0.159
-272.370	-184.509	0.244	0.004
-271.355	-72.828	-0.169	-0.062
-270.340	104.778	0.093	0.110
-269.326	232.225	-0.064	0.104
-268.311	48.497	-0.089	-0.084
-267.297	114.520	-0.039	-0.047
-266.282	335.143	0.144	-0.280
-265.267	44.055	-0.107	0.098
-264.253	249.643	0.088	0.149
-263.238	268.315	-0.112	-0.196
-262.224	41.761	-0.314	-0.285
-261.209	-200.000	-0.002	0.348
-260.195	154.611	-0.048	0.066
-259.180	-140.743	-0.236	0.024
-258.165	800.000	0.072	0.244
-257.151	124.696	0.006	0.007
-256.136	-139.697	0.154	0.016
-255.122	155.311	0.224	0.308
-254.107	-200.000	0.014	0.149
-253.092	-86.922	0.242	-0.074
-252.078	31.552	-0.074	0.063
-251.063	-38.118	-0.378	0.200
-250.049	-51.007	0.151	0.071
-249.034	-29.517	-0.197	-0.113
-248.019	-200.000	-0.012	-0.316
-247.005	800.000	0.072	0.293
-245.990	-83.131	-0.537	0.173
-244.976	-134.173	0.415	0.051
-243.961	-200.000	-0.002	-0.090
-242.946	128.315	0.128	-0.162
-241.932	225.622	-0.032	0.052
-240.917	-200.000	-0.042	0.326
-239.903	-200.000	0.008	-0.116
-238.888	9.083	0.098	-0.074
-237.873	38.205	-0.191	-0.169
-236.859	488.739	-0.091	-0.207
-235.844	-200.000	-0.028	-0.148
-234.830	-200.000	-0.052	0.335
-233.815	8.397	0.268	-0.201
-232.800	-116.318	0.207	-0.038
-231.786	-33.834	0.322	0.177
-230.771	303.328	-0.134	-0.248
-229.757	-126.971	-0.283	0.041
-228.742	800.000	-0.030	-0.128
-227.727	800.000	-0.015	-0.048
-226.713	-68.426	-0.099	0.038
-225.698	-200.000	0.016	0.145
-224.684	-200.000	0.040	0.316
-223.669	-134.577	0.421	0.051
-222.655	66.582	-0.224	-0.227
-221.640	-6.443	-0.164	-0.112
-220.625	22.172	-0.257	0.210
-219.611	-200.000	0.041	-0.233
-218.596	-114.814	-0.511	0.097
-217.582	319.561	0.088	0.167
-216.567	-98.741	-0.115	-0.029
-215.552	226.405	0.171	-0.276
-214.538	-200.000	-0.032	-0.289
-213.523	336.010	-0.170	0.329
-212.509	-102.381	-0.090	-0.021
-211.494	78.056	-0.145	0.154
-210.479	632.774	-0.047	0.119
-209.465	449.139	0.074	-0.162
-208.450	800.000	0.111	0.363
-207.436	-50.854	0.252	0.118
-206.421	40.606	0.146	-0.132
-205.406	-103.024	0.217	0.051
-204.392	-24.771	-0.231	-0.137
-203.377	-200.000	-0.361	-0.001
-202.363	-159.423	-0.254	0.014
-201.348	-165.821	-0.362	0.016
-200.333	-104.651	-0.122	-0.028
-199.319	-84.824	0.250	0.078
-198.304	89.485	-0.097	0.107
-197.290	74.592	0.067	0.070
-196.275	800.000	0.197	0.647
-195.260	753.873	-0.025	0.067
-194.246	15.927	-0.154	-0.120
-193.231	800.000	-0.112	-0.359
-192.217	121.034	0.203	0.252
-191.202	-200.000	-0.009	-0.239
-190.187	-21.034	-0.174	0.106
-189.173	-82.545	-0.318	-0.103
-188.158	-200.000	-0.023	0.190
-187.144	187.970	0.055	0.082
-186.129	-123.640	0.174	0.027
-185.114	367.107	0.091	0.183
-184.100	800.000	0.066	0.205
-183.085	-10.025	0.274	0.182
-182.071	188.702	0.167	-0.249
-181.056	-77.016	-0.091	0.032
-180.042	-80.996	0.273	-0.090
-179.027	-157.904	-0.040	0.002
-178.012	800.000	-0.041	0.113
-176.998	32.301	0.168	-0.144
-175.983	-106.882	0.113	-0.025
-174.969	163.742	-0.075	0.105
-173.954	-200.000	-0.024	-0.132
-172.939	25.189	0.006	0.005
-171.925	-200.000	-0.051	0.253
-170.910	-28.390	0.440	-0.253
-169.896	-175.669	0.207	-0.006
-168.881	-71.711	0.110	0.041
-167.866	32.491	0.031	-0.027
-166.852	14.700	0.123	-0.096
-165.837	-112.259	-0.075	-0.015
-164.823	-109.479	0.315	-0.066
-163.808	-57.456	-0.130	-0.057
-162.793	-200.000	-0.026	-0.276
-161.779	-200.000	-0.030	-0.194
-160.764	-200.000	0.023	-0.132
-159.750	-184.414	-0.323	0.005
-158.735	-200.000	-0.016	-0.108
-157.720	-104.147	0.236	-0.055
-156.706	-69.578	-0.248	-0.095
-155.691	-51.213	-0.311	-0.145
-154.677	800.000	-0.020	0.087
-153.662	326.704	-0.088	-0.169
-152.647	800.000	-0.100	0.278
-151.633	125.787	0.167	-0.210
-150.618	122.799	-0.318	0.395
-149.604	-200.000	-0.039	0.354
-148.589	397.130	-0.081	0.169
-147.574	-34.918	-0.282	0.153
-146.560	137.818	-0.126	0.165
-145.545	376.617	0.149	-0.302
-144.531	-200.000	0.000	0.036
-143.516	-147.278	0.145	0.012
-142.502	-102.698	0.071	-0.017
-141.487	-62.433	-0.277	0.114
-140.472	29.356	0.249	-0.210
-139.458	-123.085	-0.316	-0.050
-138.443	-200.000	0.014	-0.341
-137.429	318.097	0.355	-0.667
-136.414	129.478	-0.287	-0.364
-135.399	-83.654	0.336	-0.107
-134.385	-200.000	-0.017	-0.226
-133.370	271.709	0.175	-0.307
-132.356	-51.996	0.044	0.020
-131.341	-60.912	0.024	-0.010
-130.326	-200.000	0.043	0.000
-129.312	-78.012	-0.233	-0.080
-128.297	-136.981	0.136	-0.015
-127.283	76.253	0.123	0.129
-126.268	-109.742	-0.399	0.083
-125.253	800.000	-0.045	-0.171
-124.239	-86.189	0.053	0.016
-123.224	-200.000	0.013	0.147
-122.210	143.560	-0.208	0.275
-121.195	321.821	0.120	-0.227
