DTS Sentinel unit serial number:	SN413079Multiplexer serial number:	ORYXHardware model number:	OX4-SRSoftware version number:	ORYX F/W v4.00 Oryx Data Collector v3.7.2.0data status	okinstallation	princeton_trtdifferential loss correction	single-endedforward channel	channel 4reverse channel	N/Adate	2019/09/12time	22:21:34forward acquisition time	60.00reverse acquisition time	0.00gamma	496.2192k internal	0.2315k external	0.2315temperature offset calibration	1.0175default loss term (dB/km)	0.3790temperature slope calibration	1.0000multiplexer offset coefficient	1.0000multiplexer slope coefficient	1.0000fibre end	0.00T internal ref (°C)	29.81T ext. ref 1 (°C)	3.72T ext. ref 2 (°C)	24.37length (m)	temperature (°C)	Stokes	anti-Stokes-747.200	274.831	0.031	0.056
-746.185	-186.426	0.051	0.001
-745.171	-75.574	0.242	-0.087
-744.156	-73.322	0.474	-0.176
-743.142	150.970	-0.106	-0.145
-742.127	268.315	-0.054	0.096
-741.112	-200.000	-0.012	-0.223
-740.098	-136.591	0.226	0.027
-739.083	-151.405	0.248	0.019
-738.069	58.110	-0.263	0.261
-737.054	8.458	0.108	-0.083
-736.039	47.591	-0.058	-0.055
-735.025	-57.374	0.289	-0.129
-734.010	-180.979	-0.429	0.009
-732.996	-92.736	-0.314	-0.089
-731.981	-67.770	0.052	-0.021
-730.966	111.133	-0.224	0.273
-729.952	-199.610	-0.142	0.001
-728.937	-200.000	0.001	-0.013
-727.923	20.029	-0.084	0.068
-726.908	-62.395	-0.089	0.038
-725.894	98.522	0.254	-0.296
-724.879	-7.857	-0.242	0.165
-723.864	465.525	0.058	0.131
-722.850	10.371	-0.063	0.048
-721.835	2.419	0.392	-0.287
-720.821	-113.217	0.410	-0.082
-719.806	41.089	-0.096	-0.088
-718.791	-20.287	0.167	0.104
-717.777	311.064	-0.092	-0.174
-716.762	800.000	0.099	0.290
-715.748	-200.000	-0.005	-0.100
-714.733	554.806	0.149	-0.362
-713.718	-200.000	0.026	-0.140
-712.704	-200.000	-0.042	0.399
-711.689	130.402	0.067	0.087
-710.675	348.003	-0.106	-0.212
-709.660	-36.131	-0.295	-0.161
-708.645	199.325	0.166	-0.257
-707.631	-200.000	0.040	-0.289
-706.616	-121.743	-0.255	0.043
-705.602	-85.314	0.249	-0.079
-704.587	145.525	0.103	0.139
-703.572	-200.000	-0.008	0.201
-702.558	-84.880	-0.347	-0.110
-701.543	509.204	-0.067	0.157
-700.529	110.736	0.315	-0.383
-699.514	129.226	-0.194	-0.250
-698.499	-186.476	-0.102	0.001
-697.485	175.248	-0.001	0.002
-696.470	-86.969	0.320	0.099
-695.456	-142.040	0.125	0.013
-694.441	-5.089	-0.238	-0.166
-693.426	-200.000	0.012	-0.154
-692.412	800.000	-0.087	-0.266
-691.397	106.814	-0.351	0.421
-690.383	-5.168	-0.191	0.133
-689.368	2.654	0.239	0.175
-688.354	102.403	0.233	0.276
-687.339	-200.000	0.019	0.088
-686.324	-200.000	-0.044	-0.317
-685.310	-79.175	-0.206	-0.071
-684.295	148.232	0.248	-0.338
-683.281	395.971	-0.089	0.188
-682.266	757.590	0.179	-0.490
-681.251	-6.930	-0.251	-0.173
-680.237	800.000	-0.062	-0.264
-679.222	116.692	0.090	-0.111
-678.208	-81.777	-0.094	0.031
-677.193	-116.937	-0.159	0.029
-676.178	-123.421	0.232	0.037
-675.164	579.751	0.105	-0.261
-674.149	10.361	-0.134	-0.103
-673.135	-135.420	-0.205	-0.025
-672.120	104.384	-0.031	0.036
-671.105	-39.402	-0.145	0.077
-670.091	-96.580	0.156	-0.042
-669.076	-200.000	0.001	0.065
-668.062	-63.973	-0.139	-0.057
-667.047	308.836	-0.073	-0.139
-666.032	-166.750	0.309	0.013
-665.018	8.936	-0.185	-0.141
-664.003	149.733	0.090	-0.124
-662.989	-200.000	-0.004	0.082
-661.974	105.997	0.137	-0.164
-660.959	800.000	0.081	-0.310
-659.945	192.110	-0.116	-0.177
-658.930	-200.000	-0.262	0.000
-657.916	-106.711	0.210	-0.047
-656.901	65.726	0.100	0.102
-655.886	-54.457	-0.150	-0.069
-654.872	-200.000	0.056	-0.283
-653.857	-133.587	0.283	0.036
-652.843	-200.000	-0.064	0.301
-651.828	85.767	0.210	-0.233
-650.814	166.011	0.127	0.181
-649.799	800.000	0.025	-0.073
-648.784	232.139	-0.023	0.039
-647.770	53.017	0.057	-0.055
-646.755	78.970	-0.251	-0.271
-645.741	742.250	-0.043	-0.116
-644.726	150.403	0.120	0.165
-643.711	-113.338	0.381	-0.075
-642.697	-49.405	-0.046	0.022
-641.682	-200.000	0.003	-0.068
-640.668	-12.612	0.188	-0.124
-639.653	-200.000	-0.059	-0.404
-638.638	56.470	0.098	-0.096
-637.624	55.529	-0.141	-0.138
-636.609	-200.000	-0.003	0.314
-635.595	-200.000	0.019	0.243
-634.580	-21.438	0.024	-0.015
-633.565	-26.501	-0.104	-0.062
-632.551	800.000	-0.108	-0.381
-631.536	1.770	-0.045	-0.033
-630.522	98.656	0.104	-0.121
-629.507	33.686	-0.187	0.164
-628.492	106.405	0.179	-0.214
-627.478	-32.047	0.122	0.069
-626.463	-19.981	-0.166	0.103
-625.449	-200.000	-0.001	-0.120
-624.434	-8.566	0.242	-0.164
-623.419	-58.001	-0.197	0.087
-622.405	800.000	-0.100	0.311
-621.390	800.000	0.059	0.251
-620.376	613.464	0.060	-0.151
-619.361	-144.175	-0.085	-0.008
-618.346	187.306	-0.206	-0.310
-617.332	-200.000	0.140	0.000
-616.317	-200.000	-0.010	-0.082
-615.303	-49.856	-0.118	-0.056
-614.288	-82.810	-0.219	0.071
-613.273	-6.627	-0.093	-0.064
-612.259	-110.726	0.163	-0.034
-611.244	4.766	-0.263	0.195
-610.230	-200.000	0.016	-0.353
-609.215	-200.000	-0.007	-0.120
-608.201	-132.828	-0.455	0.059
-607.186	-19.950	-0.122	-0.076
-606.171	768.863	0.136	0.373
-605.157	-200.000	0.060	0.481
-604.142	791.070	0.090	0.249
-603.128	-92.793	-0.314	-0.088
-602.113	166.370	-0.139	0.198
-601.098	-200.000	-0.022	-0.165
-600.084	-88.730	0.116	-0.035
-599.069	-68.137	0.105	-0.041
-598.055	-97.869	-0.367	-0.096
-597.040	29.409	0.066	0.056
-596.025	-178.645	-0.307	0.007
-595.011	-30.953	0.108	0.061
-593.996	118.891	-0.040	-0.050
-592.982	349.037	0.012	-0.024
-591.967	-14.452	0.099	0.064
-590.952	333.878	0.164	0.320
-589.938	-86.981	-0.070	0.022
-588.923	54.198	0.096	0.093
-587.909	-16.130	-0.199	0.127
-586.894	-118.480	0.348	-0.062
-585.879	800.000	0.056	0.172
-584.865	-200.000	0.161	-0.000
-583.850	24.752	-0.143	0.119
-582.836	-116.528	-0.078	-0.015
-581.821	-200.000	0.026	-0.233
-580.806	202.167	-0.077	0.119
-579.792	201.806	-0.097	0.150
-578.777	-142.698	-0.244	0.024
-577.763	-38.341	-0.206	-0.110
-576.748	-155.299	-0.435	-0.028
-575.733	-200.000	0.025	0.411
-574.719	148.540	-0.162	-0.220
-573.704	-200.000	0.029	-0.504
-572.690	-200.000	0.005	0.258
-571.675	-29.941	-0.140	0.080
-570.661	-200.000	-0.019	0.099
-569.646	-153.668	-0.250	-0.017
-568.631	-88.840	0.222	-0.066
-567.617	-56.912	0.451	-0.200
-566.602	209.137	0.060	-0.094
-565.588	31.306	0.095	-0.082
-564.573	-117.968	0.189	-0.034
-563.558	-104.632	-0.240	0.056
-562.544	-200.000	0.013	0.142
-561.529	22.662	-0.075	-0.062
-560.515	800.000	0.108	0.369
-559.500	-200.000	0.023	-0.168
-558.485	153.386	-0.103	-0.142
-557.471	74.080	0.148	-0.156
-556.456	-34.949	0.144	0.079
-555.442	128.614	-0.172	0.220
-554.427	525.986	0.050	-0.117
-553.412	-21.502	0.128	0.078
-552.398	-200.000	-0.011	0.215
-551.383	-73.682	-0.117	0.043
-550.369	136.728	-0.194	-0.255
-549.354	-200.000	-0.013	0.201
-548.339	672.562	-0.124	0.323
-547.325	800.000	0.036	0.153
-546.310	-121.738	-0.270	-0.045
-545.296	-152.688	0.263	0.019
-544.281	164.817	-0.111	0.158
-543.266	145.888	0.147	0.198
-542.252	692.801	0.106	-0.280
-541.237	-121.800	0.226	0.038
-540.223	55.938	0.095	-0.092
-539.208	-200.000	0.037	-0.292
-538.193	-21.998	-0.162	-0.099
-537.179	549.373	-0.172	0.415
-536.164	-200.000	-0.059	-0.286
-535.150	-95.755	-0.165	0.044
-534.135	-39.765	-0.220	-0.116
-533.121	10.704	0.429	-0.329
-532.106	228.277	-0.051	0.083
-531.091	-200.000	0.002	0.017
-530.077	304.135	0.054	0.101
-529.062	-61.821	0.124	-0.052
-528.048	800.000	-0.083	0.277
-527.033	-92.008	0.129	0.037
-526.018	800.000	0.015	-0.055
-525.004	-113.455	0.080	0.016
-523.989	48.587	-0.207	-0.195
-522.975	-200.000	0.012	0.146
-521.960	-200.000	-0.027	0.214
-520.945	800.000	-0.053	0.208
-519.931	-99.782	-0.177	0.044
-518.916	117.807	-0.209	-0.258
-517.902	290.746	-0.046	0.084
-516.887	-200.000	0.067	-0.408
-515.872	800.000	-0.151	0.502
-514.858	-200.000	0.013	-0.090
-513.843	800.000	0.055	-0.232
-512.829	-50.457	0.348	-0.165
-511.814	66.326	-0.052	0.053
-510.799	-130.131	-0.188	0.026
-509.785	-200.000	0.062	-0.370
-508.770	-200.000	0.045	-0.254
-507.756	101.025	-0.155	-0.181
-506.741	19.803	0.294	0.238
-505.726	520.658	0.034	0.079
-504.712	800.000	-0.033	0.126
-503.697	-78.242	-0.043	0.015
-502.683	-103.412	0.189	-0.045
-501.668	664.716	-0.055	0.142
-500.653	-10.765	-0.128	0.085
-499.639	84.109	0.086	0.094
-498.624	38.938	-0.022	0.020
-497.610	-200.000	0.032	-0.274
-496.595	88.908	0.115	0.129
-495.581	-142.446	-0.263	0.026
-494.566	-200.000	0.041	-0.257
-493.551	-63.014	-0.194	0.080
-492.537	284.165	-0.059	-0.107
-491.522	81.274	0.041	0.044
-490.508	54.996	0.078	0.076
-489.493	-105.435	-0.169	0.039
-488.478	219.354	0.058	-0.094
-487.464	800.000	-0.087	-0.294
-486.449	-200.000	0.011	-0.156
-485.435	-9.300	-0.086	-0.058
-484.420	-200.000	0.018	0.156
-483.405	-8.455	-0.053	-0.036
-482.391	-76.244	-0.216	0.076
-481.376	-21.689	0.171	-0.105
-480.362	56.263	0.135	0.131
-479.347	-200.000	0.078	0.520
-478.332	-115.748	0.057	-0.011
-477.318	800.000	0.108	-0.413
-476.303	309.179	0.128	0.240
-475.289	-14.037	0.198	0.128
-474.274	79.514	0.144	-0.155
-473.259	660.190	-0.088	-0.228
-472.245	-200.000	0.009	-0.104
-471.230	206.113	0.104	-0.163
-470.216	-99.767	0.343	-0.086
-469.201	-200.000	-0.040	-0.308
-468.186	38.569	-0.087	-0.078
-467.172	-41.352	0.150	0.077
-466.157	-142.778	-0.103	-0.010
-465.143	741.149	0.077	0.208
-464.128	-138.835	-0.217	0.024
-463.113	15.193	0.293	0.230
-462.099	250.186	0.156	0.265
-461.084	-75.088	0.055	0.020
-460.070	-77.795	0.224	0.078
-459.055	15.532	0.164	0.129
-458.040	88.118	-0.015	0.017
-457.026	123.406	0.061	-0.077
-456.011	468.011	0.125	-0.282
-454.997	-110.697	-0.141	-0.029
-453.982	800.000	-0.110	-0.340
-452.968	-66.236	-0.189	0.075
-451.953	-25.325	0.186	-0.110
-450.938	20.521	0.262	0.212
-449.924	143.135	-0.231	0.307
-448.909	-200.000	0.017	0.116
-447.895	-52.163	-0.236	-0.110
-446.880	-200.000	0.019	-0.117
-445.865	-105.966	0.099	0.022
-444.851	638.171	-0.060	-0.154
-443.836	-24.373	-0.155	0.092
-442.822	-200.000	-0.088	-0.000
-441.807	-200.000	0.011	0.153
-440.792	120.997	0.077	-0.096
-439.778	783.698	0.102	0.281
-438.763	-35.177	0.207	-0.113
-437.749	-3.950	0.329	-0.228
-436.734	-81.454	-0.143	0.047
-435.719	-140.832	0.333	0.034
-434.705	-44.506	-0.112	0.056
-433.690	359.267	0.137	-0.273
-432.676	434.578	-0.023	-0.050
-431.661	5.375	-0.360	0.265
-430.646	305.637	0.109	0.202
-429.632	241.024	0.048	-0.080
-428.617	-18.688	-0.251	-0.157
-427.603	-44.988	-0.106	-0.053
-426.588	145.234	0.219	0.293
-425.573	-31.446	0.041	-0.023
-424.559	-96.546	-0.090	0.024
-423.544	-144.188	0.186	-0.017
-422.530	15.850	0.502	0.395
-421.515	-51.410	-0.288	0.135
-420.500	10.451	0.186	0.141
-419.486	-101.944	-0.073	0.018
-418.471	800.000	0.133	0.447
-417.457	-35.904	0.215	-0.116
-416.442	-61.650	-0.191	-0.080
-415.428	-121.088	0.084	0.014
-414.413	-17.194	-0.082	0.052
-413.398	-97.824	-0.310	0.080
-412.384	800.000	-0.044	-0.181
-411.369	-180.499	0.143	0.003
-410.355	-0.266	-0.232	0.165
-409.340	-164.179	0.395	-0.018
-408.325	323.209	0.032	-0.060
-407.311	327.941	-0.095	0.183
-406.296	800.000	0.048	0.161
-405.282	-96.414	-0.228	-0.060
-404.267	143.861	-0.188	-0.251
-403.252	174.643	0.079	-0.115
-402.238	-32.447	-0.332	-0.185
-401.223	-200.000	-0.016	0.111
-400.209	48.725	-0.213	-0.200
-399.194	267.567	-0.065	0.113
-398.179	-44.932	-0.107	0.053
-397.165	42.854	-0.207	-0.189
-396.150	78.309	0.223	0.238
-395.136	-200.000	0.105	-0.544
-394.121	-92.041	0.189	0.053
-393.106	-81.233	-0.271	-0.089
-392.092	35.680	0.139	-0.122
-391.077	-200.000	0.029	-0.154
-390.063	-52.300	0.132	-0.061
-389.048	-200.000	-0.033	-0.270
-388.033	-157.089	0.195	0.012
-387.019	-84.226	-0.247	-0.078
-386.004	-106.640	0.320	-0.071
-384.990	-0.535	-0.134	-0.095
-383.975	-123.998	0.055	0.009
-382.960	12.496	-0.247	0.190
-381.946	41.502	0.011	-0.010
-380.931	18.238	0.030	0.024
-379.917	800.000	0.039	0.137
-378.902	120.821	-0.114	-0.142
-377.888	-200.000	-0.021	-0.260
-376.873	-200.000	-0.002	0.142
-375.858	60.171	0.178	-0.175
-374.844	23.564	0.060	-0.050
-373.829	-200.000	0.002	-0.041
-372.815	133.732	-0.087	-0.112
-371.800	-29.741	-0.062	0.035
-370.785	406.858	0.082	0.172
-369.771	-61.541	-0.144	-0.060
-368.756	-139.017	-0.055	0.006
-367.742	-200.000	-0.266	0.001
-366.727	-200.000	0.147	-0.001
-365.712	35.714	0.143	0.125
-364.698	34.873	-0.081	-0.071
-363.683	-9.278	0.252	0.168
-362.669	258.512	-0.088	-0.152
-361.654	-129.684	0.311	-0.043
-360.639	-12.179	0.344	-0.225
-359.625	468.996	0.057	-0.127
-358.610	-200.000	-0.020	-0.153
-357.596	522.148	0.071	0.166
-356.581	-19.260	-0.137	0.085
-355.566	-68.275	-0.151	0.059
-354.552	26.143	-0.057	-0.048
-353.537	-40.875	0.100	-0.052
-352.523	79.187	0.087	0.093
-351.508	-200.000	-0.015	-0.265
-350.493	-19.581	-0.224	-0.138
-349.479	-79.431	-0.121	0.041
-348.464	-37.479	0.251	0.134
-347.450	-200.000	-0.026	0.248
-346.435	-200.000	0.013	-0.153
-345.420	-18.836	0.256	-0.159
-344.406	-130.888	-0.077	0.010
-343.391	-44.332	-0.233	-0.117
-342.377	-200.000	-0.021	0.324
-341.362	282.209	-0.258	0.462
-340.348	-200.000	0.019	-0.164
-339.333	-55.936	0.224	0.099
-338.318	-122.648	-0.120	-0.019
-337.304	78.392	0.089	0.095
-336.289	-62.704	-0.124	0.051
-335.275	12.289	-0.162	-0.125
-334.260	95.836	-0.065	0.074
-333.245	-16.581	0.153	-0.097
-332.231	-101.404	0.139	-0.034
-331.216	-71.875	0.298	-0.110
-330.202	-24.917	0.192	0.114
-329.187	79.769	0.065	-0.070
-328.172	-200.000	-0.081	0.414
-327.158	-117.753	0.330	0.059
-326.143	-16.916	0.384	-0.242
-325.129	10.485	0.044	0.033
-324.114	224.341	0.023	0.037
-323.099	-200.000	0.004	-0.263
-322.085	-164.778	0.245	0.011
-321.070	162.536	-0.295	-0.412
-320.056	8.956	0.088	-0.066
-319.041	-200.000	0.030	0.157
-318.026	-200.000	0.011	0.271
-317.012	-72.368	0.211	-0.078
-315.997	250.758	0.078	-0.132
-314.983	-159.918	0.147	-0.008
-313.968	-122.289	-0.281	-0.046
-312.953	421.245	0.193	0.411
-311.939	118.616	0.163	0.201
-310.924	-93.711	0.126	-0.035
-309.910	-42.300	0.279	-0.142
-308.895	-200.000	0.066	0.362
-307.880	-200.000	-0.019	0.143
-306.866	108.406	0.126	-0.150
-305.851	-116.498	0.282	0.052
-304.837	-79.714	-0.111	-0.037
-303.822	152.152	0.181	0.246
-302.807	48.213	0.074	-0.069
-301.793	68.783	0.104	0.106
-300.778	146.133	0.092	0.123
-299.764	-200.000	0.003	0.126
-298.749	19.591	0.191	-0.153
-297.735	-200.000	-0.058	-0.520
-296.720	15.150	0.108	-0.084
-295.705	784.367	-0.040	-0.108
-294.691	-200.000	-0.050	0.262
-293.676	527.807	0.083	0.194
-292.662	-74.277	-0.331	-0.119
-291.647	-141.425	-0.148	0.015
-290.632	144.214	-0.203	-0.270
-289.618	64.463	0.128	-0.128
-288.603	-74.857	0.027	0.010
-287.589	-200.000	0.046	-0.439
-286.574	800.000	-0.054	-0.216
-285.559	800.000	0.098	0.381
-284.545	-200.000	0.023	0.336
-283.530	245.178	0.094	0.157
-282.516	800.000	-0.028	-0.097
-281.501	-120.270	0.188	0.032
-280.486	-200.000	0.008	0.195
-279.472	-66.967	0.285	-0.112
-278.457	737.667	0.066	-0.175
-277.443	56.140	0.145	-0.141
-276.428	-99.565	0.039	0.010
-275.413	800.000	-0.087	-0.343
-274.399	-200.000	0.002	-0.215
-273.384	163.153	-0.186	-0.260
-272.370	-111.410	-0.197	-0.040
-271.355	-200.000	-0.026	0.170
-270.340	-200.000	0.005	0.054
-269.326	34.644	0.067	0.059
-268.311	-200.000	-0.028	0.202
-267.297	-23.679	-0.161	0.096
-266.282	800.000	-0.080	0.227
-265.267	-157.289	-0.402	-0.024
-264.253	-200.000	-0.014	-0.157
-263.238	-27.627	-0.115	-0.066
-262.224	-57.556	-0.220	0.096
-261.209	-143.939	0.494	-0.046
-260.195	114.551	0.042	-0.051
-259.180	129.782	-0.129	0.164
-258.165	664.119	0.073	-0.186
-257.151	800.000	0.023	-0.081
-256.136	57.076	0.058	-0.056
-255.122	18.745	-0.111	0.088
-254.107	160.189	0.158	0.219
-253.092	9.596	0.119	0.089
-252.078	800.000	0.065	0.281
-251.063	-150.247	0.152	-0.012
-250.049	800.000	0.091	-0.280
-249.034	21.600	-0.095	0.077
-248.019	488.544	-0.147	-0.333
-247.005	-105.178	-0.374	0.085
-245.990	-3.765	0.110	-0.076
-244.976	-53.121	0.118	-0.054
-243.961	-200.000	0.026	0.250
-242.946	-63.211	-0.177	0.072
-241.932	310.456	0.058	-0.108
-240.917	46.619	0.289	0.266
-239.903	-193.279	0.153	0.001
-238.888	-70.580	-0.036	-0.013
-237.873	40.166	-0.110	-0.098
-236.859	-51.097	0.151	0.070
-235.844	537.986	-0.082	-0.193
-234.830	-170.972	-0.237	-0.008
-233.815	562.969	-0.053	0.128
-232.800	-55.734	0.036	0.016
-231.786	106.388	-0.206	0.242
-230.771	137.497	0.110	0.142
-229.757	266.203	-0.037	-0.064
-228.742	-93.672	-0.206	0.056
-227.727	-200.000	0.049	0.232
-226.713	59.763	-0.255	0.250
-225.698	-16.667	-0.138	0.087
-224.684	-73.458	-0.135	0.049
-223.669	-200.000	-0.027	-0.199
-222.655	-105.433	-0.274	0.062
-221.640	-200.000	0.005	-0.158
-220.625	-2.942	0.430	0.298
-219.611	202.314	-0.154	0.237
-218.596	800.000	0.051	-0.147
-217.582	-36.602	-0.187	0.100
-216.567	27.999	-0.293	0.246
-215.552	800.000	0.011	0.042
-214.538	-8.078	0.185	-0.123
-213.523	340.587	0.059	-0.114
-212.509	-159.012	-0.148	-0.008
-211.494	-26.182	-0.117	0.068
-210.479	545.043	-0.070	0.167
-209.465	-125.162	0.210	-0.032
-208.450	-85.611	0.136	-0.042
-207.436	-132.844	-0.227	0.029
-206.421	31.338	-0.264	0.225
-205.406	-165.412	-0.212	0.009
-204.392	58.745	-0.091	-0.088
-203.377	205.354	0.076	-0.117
-202.363	97.560	-0.204	0.233
-201.348	555.727	-0.054	0.129
-200.333	2.912	-0.166	-0.120
-199.319	-66.202	0.285	-0.113
-198.304	-200.000	-0.046	-0.517
-197.290	-200.000	0.037	-0.303
-196.275	262.059	-0.043	0.075
-195.260	-200.000	-0.016	-0.087
-194.246	25.039	-0.088	0.073
-193.231	-192.546	-0.032	-0.000
-192.217	-199.831	-0.237	0.001
-191.202	-25.651	-0.008	-0.005
-190.187	-200.000	-0.051	-0.251
-189.173	233.740	0.123	-0.201
-188.158	-12.746	-0.190	-0.123
-187.144	800.000	0.100	0.298
-186.129	-130.540	-0.220	-0.029
-185.114	5.082	-0.214	-0.156
-184.100	-99.241	0.049	0.012
-183.085	800.000	-0.031	-0.103
-182.071	-200.000	-0.007	0.039
-181.056	268.937	-0.078	-0.136
-180.042	-157.909	0.405	0.024
-179.027	-55.061	0.165	-0.074
-178.012	-200.000	0.007	-0.196
-176.998	-200.000	-0.112	0.000
-175.983	-36.977	0.375	-0.199
-174.969	655.556	0.072	-0.182
-173.954	25.301	0.210	0.173
-172.939	800.000	-0.027	-0.091
-171.925	169.151	0.023	-0.033
-170.910	-143.825	0.217	-0.020
-169.896	5.155	-0.183	-0.134
-168.881	92.266	0.120	-0.134
-167.866	251.593	-0.175	0.295
-166.852	107.640	-0.229	0.270
-165.837	549.044	0.045	0.107
-164.823	19.454	0.221	-0.176
-163.808	28.902	-0.122	-0.103
-162.793	-200.000	0.021	0.172
-161.779	800.000	-0.057	0.210
-160.764	60.098	0.183	0.179
-159.750	-53.148	0.091	-0.041
-158.735	205.567	-0.130	0.199
-157.720	317.300	0.123	0.230
-156.706	-10.248	-0.062	-0.041
-155.691	92.393	0.166	0.186
-154.677	75.945	-0.280	-0.293
-153.662	-17.110	-0.133	0.083
-152.647	-117.387	-0.132	0.024
-151.633	-108.333	-0.418	0.089
-150.618	274.659	-0.068	-0.120
-149.604	-200.000	-0.045	-0.235
-148.589	1.616	-0.105	0.075
-147.574	-200.000	-0.037	-0.265
-146.560	-36.930	0.094	-0.050
-145.545	-149.477	0.100	0.008
-144.531	-34.637	0.488	-0.264
-143.516	342.988	-0.127	0.246
-142.502	-135.536	0.054	0.006
-141.487	218.000	0.026	0.041
-140.472	-21.713	-0.212	-0.128
-139.458	24.389	-0.148	-0.121
-138.443	-112.535	-0.260	0.051
-137.429	160.180	0.084	0.116
-136.414	800.000	-0.011	-0.040
-135.399	-100.668	0.191	-0.047
-134.385	-200.000	0.007	-0.166
-133.370	-194.492	-0.564	-0.004
-132.356	47.494	-0.210	-0.193
-131.341	59.250	0.300	-0.292
-130.326	-200.000	-0.023	-0.197
-129.312	-200.000	-0.009	0.180
-128.297	-71.538	-0.252	-0.093
-127.283	-52.322	-0.222	-0.102
-126.268	800.000	-0.023	0.066
-125.253	-200.000	-0.048	-0.261
-124.239	455.126	-0.190	0.418
-123.224	-23.005	0.151	-0.090
-122.210	-120.837	-0.114	-0.019
-121.195	-123.364	0.257	0.040
