DTS Sentinel unit serial number:	SN413079Multiplexer serial number:	ORYXHardware model number:	OX4-SRSoftware version number:	ORYX F/W v4.00 Oryx Data Collector v3.7.2.0data status	okinstallation	princeton_trtdifferential loss correction	single-endedforward channel	channel 4reverse channel	N/Adate	2019/09/13time	16:45:35forward acquisition time	60.00reverse acquisition time	0.00gamma	496.2192k internal	0.2297k external	0.2297temperature offset calibration	1.0221default loss term (dB/km)	0.3790temperature slope calibration	1.0000multiplexer offset coefficient	1.0000multiplexer slope coefficient	1.0000fibre end	0.00T internal ref (°C)	34.95T ext. ref 1 (°C)	4.93T ext. ref 2 (°C)	29.86length (m)	temperature (°C)	Stokes	anti-Stokes-747.200	114.357	0.117	-0.146
-746.185	57.051	0.097	-0.097
-745.171	249.663	0.217	0.377
-744.156	554.285	-0.152	0.373
-743.142	8.798	-0.263	-0.203
-742.127	-200.000	0.004	-0.070
-741.112	-63.844	-0.299	0.125
-740.098	180.673	0.064	0.096
-739.083	-50.776	-0.267	0.128
-738.069	123.445	0.145	0.185
-737.054	-31.163	-0.196	-0.113
-736.039	242.152	0.136	-0.233
-735.025	533.441	-0.033	-0.080
-734.010	282.302	-0.048	-0.088
-732.996	-112.969	-0.349	-0.071
-731.981	472.712	0.103	0.236
-730.966	199.604	-0.162	0.254
-729.952	10.160	-0.248	0.192
-728.937	268.196	-0.129	-0.231
-727.923	20.906	0.104	0.086
-726.908	-33.401	-0.092	-0.052
-725.894	150.886	-0.199	-0.277
-724.879	-65.975	-0.245	-0.100
-723.864	-98.474	-0.121	-0.032
-722.850	-34.004	-0.179	-0.100
-721.835	19.839	-0.117	-0.096
-720.821	35.316	-0.162	0.145
-719.806	200.106	-0.078	-0.123
-718.791	79.207	-0.327	-0.358
-717.777	-194.893	0.246	0.002
-716.762	-171.729	-0.531	0.018
-715.748	-135.421	0.210	-0.026
-714.733	136.007	-0.157	-0.209
-713.718	311.443	-0.049	0.093
-712.704	-118.278	-0.432	0.078
-711.689	421.083	0.098	0.215
-710.675	-200.000	-0.019	0.140
-709.660	296.489	-0.139	-0.260
-708.645	-200.000	0.039	-0.232
-707.631	-99.456	-0.111	-0.029
-706.616	-179.331	0.407	-0.009
-705.602	-200.000	0.013	-0.097
-704.587	479.031	-0.143	-0.330
-703.572	-174.477	0.137	0.004
-702.558	104.024	-0.092	0.110
-701.543	-125.943	0.298	0.046
-700.529	-200.000	0.022	0.208
-699.514	-66.965	-0.262	0.105
-698.499	-200.000	0.049	0.344
-697.485	-200.000	0.001	0.051
-696.470	800.000	-0.111	-0.349
-695.456	-117.218	-0.347	0.064
-694.441	800.000	-0.053	-0.170
-693.426	-200.000	-0.016	-0.198
-692.412	36.719	0.283	-0.255
-691.397	-200.000	0.019	0.482
-690.383	-169.718	0.120	-0.004
-689.368	800.000	0.078	0.222
-688.354	522.832	0.103	-0.247
-687.339	-200.000	0.032	0.173
-686.324	-200.000	0.001	0.259
-685.310	-200.000	0.072	0.340
-684.295	-200.000	0.002	0.171
-683.281	-73.779	0.278	-0.103
-682.266	-134.675	0.183	0.023
-681.251	-200.000	0.002	-0.160
-680.237	-3.537	0.179	-0.127
-679.222	101.239	-0.097	0.115
-678.208	-38.043	0.279	-0.151
-677.193	-200.000	0.049	0.280
-676.178	222.444	0.057	-0.093
-675.164	159.567	0.059	-0.083
-674.149	-163.132	0.244	-0.012
-673.135	-200.000	-0.015	-0.110
-672.120	-119.109	0.027	-0.005
-671.105	-68.512	-0.198	0.078
-670.091	112.892	0.100	0.123
-669.076	800.000	0.137	-0.428
-668.062	236.568	-0.154	0.260
-667.047	-17.194	0.150	0.096
-666.032	65.621	-0.244	0.252
-665.018	201.658	0.083	0.131
-664.003	-200.000	-0.014	0.133
-662.989	44.586	0.189	-0.177
-661.974	296.409	-0.129	0.241
-660.959	45.831	0.130	0.123
-659.945	414.162	0.069	0.149
-658.930	73.403	0.065	0.069
-657.916	-83.536	-0.184	0.060
-656.901	198.107	-0.056	-0.088
-655.886	275.093	0.239	-0.432
-654.872	-200.000	0.023	0.117
-653.857	800.000	0.091	0.347
-652.843	-94.602	0.300	0.083
-651.828	32.371	-0.132	0.116
-650.814	-25.545	-0.371	-0.223
-649.799	-33.356	-0.036	0.020
-648.784	272.050	-0.110	-0.198
-647.770	126.468	-0.164	-0.212
-646.755	58.004	0.228	-0.227
-645.741	-104.670	-0.158	0.037
-644.726	-19.133	-0.200	0.127
-643.711	53.896	0.115	-0.112
-642.697	800.000	-0.033	0.097
-641.682	-200.000	-0.007	-0.093
-640.668	86.326	-0.212	-0.237
-639.653	151.846	-0.094	-0.130
-638.638	-200.000	0.075	0.388
-637.624	7.378	-0.306	0.233
-636.609	-200.000	0.013	-0.177
-635.595	12.883	-0.050	0.040
-634.580	-152.656	0.407	0.030
-633.565	-100.688	0.182	0.046
-632.551	-200.000	0.003	0.025
-631.536	-75.297	0.081	-0.029
-630.522	800.000	-0.076	-0.241
-629.507	146.199	0.095	-0.129
-628.492	800.000	0.008	0.029
-627.478	-200.000	0.030	0.344
-626.463	-200.000	0.024	-0.111
-625.449	190.544	-0.257	0.393
-624.434	113.538	-0.158	-0.195
-623.419	-6.260	0.082	-0.057
-622.405	94.937	0.238	0.275
-621.390	158.252	-0.034	0.049
-620.376	73.109	0.112	-0.119
-619.361	-100.859	0.499	-0.125
-618.346	800.000	0.145	-0.418
-617.332	800.000	-0.044	-0.138
-616.317	-79.414	0.282	0.097
-615.303	74.522	-0.156	-0.167
-614.288	-200.000	-0.005	-0.128
-613.273	-13.951	-0.231	0.152
-612.259	365.224	0.092	0.189
-611.244	696.957	0.062	-0.166
-610.230	-52.065	0.244	-0.115
-609.215	800.000	0.081	0.253
-608.201	-200.000	-0.036	0.324
-607.186	-59.831	-0.204	0.089
-606.171	800.000	-0.022	-0.091
-605.157	-200.000	-0.003	-0.092
-604.142	101.239	0.021	0.024
-603.128	800.000	-0.026	-0.088
-602.113	587.019	-0.018	-0.044
-601.098	89.388	-0.144	0.163
-600.084	96.508	-0.088	0.103
-599.069	-200.000	-0.030	-0.268
-598.055	800.000	0.113	0.319
-597.040	-171.356	0.144	0.005
-596.025	-200.000	0.001	-0.068
-595.011	-2.896	0.163	0.115
-593.996	297.298	-0.036	0.066
-592.982	-200.000	-0.032	-0.234
-591.967	256.484	-0.114	-0.198
-590.952	800.000	0.057	0.186
-589.938	-177.899	-0.220	0.005
-588.923	596.059	0.020	0.051
-587.909	800.000	-0.072	0.211
-586.894	22.476	-0.124	-0.103
-585.879	477.273	0.143	-0.329
-584.865	292.780	-0.115	-0.212
-583.850	-10.148	0.305	-0.206
-582.836	77.044	0.157	-0.169
-581.821	235.069	-0.109	0.183
-580.806	800.000	-0.051	-0.196
-579.792	-136.937	0.117	-0.014
-578.777	800.000	0.016	-0.053
-577.763	64.351	-0.187	0.191
-576.748	60.589	-0.154	0.155
-575.733	800.000	0.080	0.267
-574.719	125.165	0.061	0.078
-573.704	-200.000	0.014	-0.297
-572.690	-25.400	-0.352	0.211
-571.675	173.054	0.181	-0.264
-570.661	-119.088	-0.431	-0.076
-569.646	-70.901	-0.134	-0.051
-568.631	-47.430	-0.127	0.063
-567.617	-200.000	0.025	-0.190
-566.602	715.250	-0.032	-0.086
-565.588	85.712	-0.199	-0.222
-564.573	38.696	-0.112	0.101
-563.558	-106.055	0.140	0.032
-562.544	800.000	0.045	-0.185
-561.529	-200.000	0.079	-0.390
-560.515	-200.000	0.013	0.158
-559.500	-200.000	0.028	-0.225
-558.485	639.645	-0.013	0.033
-557.471	-87.198	-0.131	0.040
-556.456	47.909	-0.086	0.081
-555.442	-2.403	0.227	0.161
-554.427	-143.713	-0.068	0.007
-553.412	23.594	0.013	0.011
-552.398	127.970	0.086	0.111
-551.383	800.000	-0.097	0.365
-550.369	33.162	0.073	0.064
-549.354	58.356	-0.287	-0.286
-548.339	-200.000	-0.027	0.145
-547.325	-200.000	0.038	-0.291
-546.310	-200.000	0.038	0.364
-545.296	-200.000	-0.011	0.093
-544.281	-125.364	-0.299	0.046
-543.266	199.275	0.095	-0.147
-542.252	-51.202	0.481	0.228
-541.237	148.699	0.070	-0.096
-540.223	28.782	0.234	0.201
-539.208	8.002	-0.153	-0.117
-538.193	-200.000	0.015	0.162
-537.179	-167.496	0.289	-0.012
-536.164	9.301	-0.132	0.101
-535.150	-135.674	0.117	0.014
-534.135	167.216	-0.250	-0.360
-533.121	-156.204	-0.314	0.020
-532.106	-200.000	-0.016	-0.285
-531.091	-117.772	0.258	-0.047
-530.077	-123.819	-0.174	0.028
-529.062	-144.372	-0.157	-0.015
-528.048	-39.781	-0.294	-0.156
-527.033	-200.000	0.017	0.322
-526.018	45.333	0.147	0.137
-525.004	376.159	0.161	0.332
-523.989	9.529	0.252	0.193
-522.975	-26.146	-0.106	-0.063
-521.960	41.432	-0.065	-0.060
-520.945	800.000	0.054	0.162
-519.931	-200.000	0.051	-0.311
-518.916	-200.000	-0.039	-0.193
-517.902	-200.000	0.028	0.209
-516.887	-182.138	0.038	-0.001
-515.872	-57.180	-0.210	-0.094
-514.858	39.395	-0.169	0.153
-513.843	-27.635	0.148	0.087
-512.829	-125.625	0.113	-0.017
-511.814	-62.143	-0.072	0.030
-510.799	493.042	0.073	0.169
-509.785	154.329	0.075	0.104
-508.770	309.218	0.100	-0.189
-507.756	-200.000	0.001	0.080
-506.741	63.538	-0.217	0.220
-505.726	-36.852	0.255	-0.138
-504.712	95.588	-0.074	0.085
-503.697	-103.132	0.079	-0.019
-502.683	800.000	-0.085	-0.338
-501.668	62.221	-0.066	-0.067
-500.653	-61.854	0.313	-0.133
-499.639	632.236	0.092	0.237
-498.624	800.000	0.060	-0.193
-497.610	22.265	-0.112	-0.092
-496.595	0.415	-0.006	-0.004
-495.581	800.000	-0.030	0.118
-494.566	168.886	0.173	0.249
-493.551	-75.570	-0.243	-0.087
-492.537	-200.000	0.023	0.247
-491.522	-200.000	-0.003	0.125
-490.508	458.838	-0.063	-0.142
-489.493	-48.519	0.331	0.161
-488.478	-200.000	0.045	0.296
-487.464	-12.520	0.182	0.120
-486.449	-4.546	0.181	0.126
-485.435	-33.940	-0.228	-0.127
-484.420	153.379	-0.099	-0.137
-483.405	-46.182	-0.141	0.070
-482.391	242.651	0.123	-0.208
-481.376	427.806	0.020	0.043
-480.362	-171.903	0.135	0.004
-479.347	372.206	0.074	-0.151
-478.332	800.000	-0.061	0.257
-477.318	-200.000	-0.019	0.133
-476.303	7.933	-0.248	0.188
-475.289	800.000	0.062	-0.255
-474.274	149.077	0.056	-0.076
-473.259	218.739	0.069	-0.112
-472.245	-22.657	0.228	0.139
-471.230	-200.000	0.179	0.000
-470.216	-75.602	-0.041	-0.015
-469.201	161.269	0.050	-0.071
-468.186	800.000	-0.051	0.210
-467.172	800.000	0.081	0.238
-466.157	-200.000	0.007	0.294
-465.143	2.055	-0.274	0.200
-464.128	-17.609	-0.108	0.069
-463.113	-106.850	-0.079	0.018
-462.099	800.000	0.072	0.306
-461.084	800.000	-0.021	0.077
-460.070	-130.985	0.256	0.035
-459.055	-104.284	-0.194	-0.045
-458.040	-14.855	0.031	-0.020
-457.026	293.749	-0.098	0.181
-456.011	800.000	0.116	0.424
-454.997	-200.000	0.038	-0.272
-453.982	137.724	-0.173	0.229
-452.968	-2.219	-0.094	0.067
-451.953	386.333	0.054	-0.112
-450.938	68.294	0.158	-0.163
-449.924	-109.176	0.106	-0.023
-448.909	-200.000	0.020	0.225
-447.895	-53.472	0.381	-0.176
-446.880	443.928	0.071	-0.158
-445.865	800.000	0.045	0.182
-444.851	800.000	0.045	-0.146
-443.836	-122.284	0.254	0.042
-442.822	73.031	0.194	-0.204
-441.807	20.827	-0.102	-0.083
-440.792	-183.083	0.206	-0.004
-439.778	83.634	-0.153	-0.168
-438.763	35.822	0.157	-0.139
-437.749	-54.611	0.250	0.114
-436.734	-111.155	0.326	-0.067
-435.719	-148.298	-0.317	-0.026
-434.705	64.062	-0.172	0.174
-433.690	-200.000	-0.063	-0.310
-432.676	202.481	-0.151	-0.234
-431.661	-16.852	-0.031	-0.020
-430.646	-64.209	0.021	-0.009
-429.632	509.145	0.128	0.300
-428.617	-159.669	0.244	-0.014
-427.603	800.000	-0.034	-0.098
-426.588	212.083	-0.228	0.363
-425.573	209.396	-0.028	-0.045
-424.559	608.696	-0.087	0.218
-423.544	95.059	-0.049	0.056
-422.530	-115.319	0.065	0.012
-421.515	-44.386	-0.229	-0.116
-420.500	-64.098	-0.159	0.065
-419.486	-200.000	0.037	-0.302
-418.471	-159.726	0.277	-0.015
-417.457	-153.217	-0.141	0.010
-416.442	15.667	0.249	0.197
-415.428	-200.000	-0.418	-0.001
-414.413	-1.158	-0.221	0.158
-413.398	83.435	0.154	-0.169
-412.384	21.274	0.238	0.194
-411.369	211.059	-0.105	0.167
-410.355	15.924	0.214	0.170
-409.340	-200.000	0.008	-0.037
-408.325	-92.450	-0.740	-0.210
-407.311	-200.000	0.009	-0.083
-406.296	800.000	0.060	-0.228
-405.282	-184.070	-0.202	-0.003
-404.267	58.598	-0.322	-0.319
-403.252	562.797	0.075	-0.182
-402.238	-5.831	-0.434	-0.299
-401.223	-58.138	-0.090	-0.039
-400.209	800.000	-0.068	0.295
-399.194	59.061	0.181	0.180
-398.179	-37.298	-0.035	-0.019
-397.165	-45.293	-0.356	0.178
-396.150	-28.808	0.216	0.125
-395.136	-110.294	-0.107	-0.023
-394.121	800.000	-0.011	-0.044
-393.106	-200.000	0.010	0.205
-392.092	-200.000	0.008	0.247
-391.077	-200.000	-0.029	-0.214
-390.063	228.724	-0.107	0.176
-389.048	30.662	0.256	0.221
-388.033	-95.761	-0.112	0.030
-387.019	-187.050	0.138	-0.002
-386.004	-200.000	-0.014	0.063
-384.990	800.000	0.053	0.161
-383.975	18.936	0.085	0.069
-382.960	800.000	-0.097	0.330
-381.946	-200.000	-0.031	-0.310
-380.931	169.749	-0.205	0.295
-379.917	542.410	-0.106	-0.254
-378.902	800.000	0.079	-0.336
-377.888	128.636	-0.291	-0.374
-376.873	261.363	0.160	-0.279
-375.858	113.345	0.081	0.099
-374.844	124.117	-0.168	-0.213
-373.829	-65.272	0.182	0.074
-372.815	-200.000	-0.054	-0.417
-371.800	38.974	0.169	0.152
-370.785	-200.000	0.036	0.309
-369.771	148.053	0.139	-0.189
-368.756	-200.000	0.035	-0.244
-367.742	-16.212	0.125	0.080
-366.727	-92.106	0.256	-0.073
-365.712	-200.000	-0.002	-0.210
-364.698	500.992	-0.066	0.154
-363.683	241.301	-0.140	-0.236
-362.669	-200.000	0.011	0.138
-361.654	-102.389	0.259	0.063
-360.639	146.339	0.068	0.092
-359.625	-30.971	-0.306	-0.174
-358.610	-65.657	-0.257	-0.104
-357.596	206.128	0.189	0.295
-356.581	25.455	0.284	0.238
-355.566	139.142	-0.099	-0.131
-354.552	143.157	0.150	0.201
-353.537	-29.063	0.187	0.108
-352.523	-48.587	0.341	0.165
-351.508	137.542	0.108	0.142
-350.493	185.686	-0.207	0.310
-349.479	-114.708	0.146	0.028
-348.464	325.593	0.195	0.375
-347.450	-200.000	-0.023	-0.248
-346.435	9.895	-0.046	-0.035
-345.420	425.352	-0.026	-0.057
-344.406	-160.669	0.106	0.006
-343.391	138.386	-0.179	-0.237
-342.377	-45.405	-0.113	0.056
-341.362	-109.090	0.242	0.052
-340.348	-200.000	-0.022	0.145
-339.333	-144.865	0.206	0.019
-338.318	-59.650	0.209	-0.090
-337.304	-13.022	0.113	0.074
-336.289	86.580	0.211	0.234
-335.275	318.122	0.170	-0.324
-334.260	7.234	-0.304	-0.228
-333.245	-200.000	0.002	0.040
-332.231	60.068	-0.099	-0.098
-331.216	800.000	0.090	0.333
-330.202	-121.073	0.129	-0.022
-329.187	-131.758	0.216	-0.028
-328.172	258.598	-0.156	-0.270
-327.158	527.002	0.123	-0.292
-326.143	18.152	0.178	-0.143
-325.129	-147.003	-0.193	0.017
-324.114	-200.000	-0.019	0.177
-323.099	160.773	-0.144	-0.201
-322.085	-200.000	-0.022	0.226
-321.070	261.864	0.066	0.114
-320.056	-149.823	0.275	0.022
-319.041	-158.964	-0.268	0.015
-318.026	800.000	0.043	-0.186
-317.012	257.974	0.027	-0.047
-315.997	590.497	-0.125	-0.310
-314.983	436.320	-0.051	0.112
-313.968	394.690	-0.137	-0.287
-312.953	-103.809	-0.562	-0.132
-311.939	-200.000	0.076	-0.353
-310.924	800.000	0.014	0.049
-309.910	56.562	-0.219	0.214
-308.895	-57.047	0.058	-0.025
-307.880	645.131	0.139	-0.356
-306.866	199.252	0.132	-0.203
-305.851	-118.701	0.178	-0.032
-304.837	-200.000	-0.029	-0.144
-303.822	-76.829	0.225	0.079
-302.807	145.842	-0.175	-0.236
-301.793	90.064	-0.154	0.173
-300.778	-115.405	0.110	0.021
-299.764	45.382	0.060	-0.055
-298.749	-57.559	0.211	0.093
-297.735	-78.909	0.074	0.025
-296.720	800.000	-0.085	0.342
-295.705	122.369	0.196	-0.246
-294.691	3.003	-0.086	-0.063
-293.676	539.858	-0.008	0.019
-292.662	-200.000	-0.065	0.352
-291.647	800.000	0.079	-0.324
-290.632	592.330	0.113	-0.281
-289.618	278.634	-0.177	0.317
-288.603	-113.229	-0.281	-0.056
-287.589	94.695	0.197	-0.225
-286.574	28.272	-0.211	-0.179
-285.559	318.304	-0.169	0.321
-284.545	-0.672	0.282	-0.201
-283.530	-95.488	-0.080	-0.021
-282.516	586.222	0.172	0.425
-281.501	-13.708	-0.329	-0.213
-280.486	-84.249	-0.239	0.076
-279.472	179.129	0.062	0.091
-278.457	-200.000	-0.039	0.325
-277.443	-200.000	0.087	-0.419
-276.428	756.769	0.097	0.263
-275.413	-200.000	0.031	-0.213
-274.399	65.066	0.109	-0.111
-273.384	-200.000	-0.000	0.310
-272.370	15.224	-0.201	0.158
-271.355	-100.059	-0.300	0.075
-270.340	800.000	0.056	-0.156
-269.326	-0.099	0.060	-0.043
-268.311	84.800	0.057	-0.062
-267.297	100.644	-0.074	-0.087
-266.282	-15.150	0.176	-0.113
-265.267	-23.153	-0.322	0.194
-264.253	-185.001	-0.168	-0.003
-263.238	-184.546	-0.100	-0.002
-262.224	-88.878	-0.433	0.129
-261.209	-179.211	-0.411	-0.009
-260.195	92.548	0.160	-0.181
-259.180	130.973	0.220	-0.283
-258.165	-101.454	-0.290	-0.071
-257.151	257.237	0.162	0.278
-256.136	51.513	0.221	0.210
-255.122	-125.756	-0.114	0.017
-254.107	800.000	-0.101	0.333
-253.092	196.547	-0.126	-0.192
-252.078	-37.412	0.218	-0.116
-251.063	-162.571	-0.219	0.011
-250.049	-143.455	0.308	-0.029
-249.034	21.758	-0.138	0.113
-248.019	-200.000	-0.007	-0.046
-247.005	235.539	-0.155	0.256
-245.990	246.829	0.232	0.392
-244.976	-107.981	0.103	-0.022
-243.961	-200.000	-0.029	-0.383
-242.946	21.229	0.116	-0.095
-241.932	135.054	-0.234	0.305
-240.917	-46.543	0.133	-0.065
-239.903	-56.236	0.178	-0.079
-238.888	-200.000	0.071	-0.438
-237.873	-54.367	0.188	0.085
-236.859	-30.843	-0.310	0.175
-235.844	-148.943	0.241	0.019
-234.830	-200.000	-0.054	0.315
-233.815	174.972	-0.137	-0.198
-232.800	446.203	-0.068	0.150
-231.786	-71.942	-0.142	-0.053
-230.771	-43.967	0.027	-0.014
-229.757	-13.859	-0.235	0.152
-228.742	366.617	0.122	0.246
-227.727	-200.000	-0.049	0.478
-226.713	-96.670	0.172	0.045
-225.698	-103.016	-0.108	-0.026
-224.684	-102.703	-0.195	0.046
-223.669	105.165	-0.006	0.007
-222.655	170.658	0.040	-0.057
-221.640	-200.000	-0.011	-0.063
-220.625	-0.350	0.136	0.097
-219.611	-169.490	0.276	0.010
-218.596	-116.479	0.203	-0.037
-217.582	-200.000	-0.013	-0.216
-216.567	678.541	-0.088	-0.229
-215.552	-200.000	-0.026	-0.178
-214.538	-125.109	0.159	0.024
-213.523	2.210	-0.138	-0.100
-212.509	141.251	0.243	0.321
-211.494	-59.782	-0.122	-0.052
-210.479	-154.619	-0.187	-0.012
-209.465	300.371	-0.103	-0.189
-208.450	28.381	-0.111	-0.094
-207.436	-61.465	-0.195	-0.082
-206.421	-73.592	-0.183	-0.067
-205.406	212.731	0.174	-0.274
-204.392	-41.036	-0.082	-0.042
-203.377	-132.171	-0.263	0.034
-202.363	44.668	0.071	-0.066
-201.348	-157.332	0.233	-0.014
-200.333	-122.571	-0.158	0.026
-199.319	-200.000	0.062	-0.319
-198.304	402.382	-0.041	-0.086
-197.290	-200.000	-0.026	-0.481
-196.275	-200.000	0.020	0.105
-195.260	-40.406	0.346	0.180
-194.246	212.757	0.316	-0.498
-193.231	800.000	0.042	-0.181
-192.217	-200.000	0.007	0.146
-191.202	35.105	0.143	0.125
-190.187	-37.546	-0.339	0.181
-189.173	-176.929	0.252	-0.006
-188.158	-200.000	0.030	-0.241
-187.144	280.455	0.096	-0.172
-186.129	-76.327	0.211	-0.074
-185.114	276.031	0.189	0.335
-184.100	41.736	0.141	-0.127
-183.085	174.514	-0.065	-0.094
-182.071	11.843	-0.310	-0.238
-181.056	12.855	0.153	-0.118
-180.042	33.260	0.050	-0.043
-179.027	-15.787	0.476	-0.303
-178.012	-19.457	-0.043	-0.026
-176.998	-200.000	-0.035	-0.222
-175.983	57.359	0.015	0.015
-174.969	753.433	-0.033	0.089
-173.954	-200.000	0.007	-0.125
-172.939	-52.039	0.058	-0.027
-171.925	-8.318	-0.401	-0.270
-170.910	30.187	0.178	0.152
-169.896	-200.000	0.040	0.211
-168.881	-93.217	-0.357	0.099
-167.866	-200.000	-0.008	0.052
-166.852	3.002	-0.169	0.122
-165.837	-62.609	0.118	0.049
-164.823	-200.000	-0.016	0.423
-163.808	17.498	-0.193	-0.153
-162.793	-47.907	-0.300	-0.145
-161.779	50.851	-0.225	0.213
-160.764	125.162	0.093	-0.117
-159.750	222.225	-0.156	0.251
-158.735	53.066	0.344	0.329
-157.720	-200.000	0.051	0.350
-156.706	-200.000	0.001	0.206
-155.691	-4.834	-0.304	0.209
-154.677	-180.481	0.236	-0.005
-153.662	113.390	0.007	0.009
-152.647	79.562	-0.136	-0.146
-151.633	-92.868	-0.139	0.039
-150.618	507.320	-0.106	0.245
-149.604	-157.317	-0.184	-0.011
-148.589	800.000	-0.065	0.201
-147.574	58.884	-0.064	0.063
-146.560	-88.063	-0.443	-0.133
-145.545	493.697	-0.063	-0.145
-144.531	-75.649	0.097	-0.035
-143.516	-71.703	0.241	0.090
-142.502	-88.097	0.316	0.095
-141.487	6.049	0.164	0.122
-140.472	800.000	-0.099	0.282
-139.458	-89.585	0.594	-0.174
-138.443	-200.000	0.008	0.055
-137.429	-4.587	-0.317	0.218
-136.414	237.984	0.178	0.295
-135.399	256.844	-0.019	0.033
-134.385	-138.787	0.162	-0.018
-133.370	-129.116	-0.413	0.058
-132.356	-200.000	0.022	-0.468
-131.341	314.535	-0.177	-0.333
-130.326	-106.273	0.187	-0.042
-129.312	800.000	-0.039	-0.169
-128.297	-154.649	0.132	-0.009
-127.283	-200.000	0.057	0.380
-126.268	-92.510	0.207	-0.058
-125.253	-142.034	0.303	-0.030
-124.239	5.038	0.215	0.157
-123.224	-92.834	0.394	-0.110
-122.210	-147.706	0.253	-0.021
-121.195	735.745	0.054	0.145
