DTS Sentinel unit serial number:	SN413079Multiplexer serial number:	ORYXHardware model number:	OX4-SRSoftware version number:	ORYX F/W v4.00 Oryx Data Collector v3.7.2.0data status	okinstallation	princeton_trtdifferential loss correction	single-endedforward channel	channel 4reverse channel	N/Adate	2019/09/17time	14:37:34forward acquisition time	60.00reverse acquisition time	0.00gamma	496.2192k internal	0.2295k external	0.2295temperature offset calibration	0.9988default loss term (dB/km)	0.3790temperature slope calibration	1.0000multiplexer offset coefficient	1.0000multiplexer slope coefficient	1.0000fibre end	0.00T internal ref (°C)	36.69T ext. ref 1 (°C)	0.40T ext. ref 2 (°C)	33.81length (m)	temperature (°C)	Stokes	anti-Stokes-747.200	-98.730	0.361	0.094
-746.185	-200.000	0.015	0.132
-745.171	241.389	0.144	0.245
-744.156	-200.000	0.038	0.298
-743.142	-112.978	-0.237	0.048
-742.127	209.555	-0.294	0.470
-741.112	50.213	-0.096	0.093
-740.098	-141.940	-0.108	-0.011
-739.083	800.000	0.076	0.261
-738.069	108.623	0.016	-0.020
-737.054	-200.000	0.021	-0.272
-736.039	168.591	-0.092	-0.134
-735.025	-119.995	0.262	0.046
-734.010	609.289	0.026	0.067
-732.996	-21.260	-0.277	0.173
-731.981	-50.133	-0.051	0.024
-730.966	-86.043	0.137	-0.043
-729.952	-72.538	0.106	0.040
-728.937	86.917	0.092	-0.103
-727.923	-168.622	-0.099	0.004
-726.908	169.472	-0.115	-0.168
-725.894	-20.256	-0.111	0.070
-724.879	-189.505	0.046	0.001
-723.864	-20.305	0.054	-0.034
-722.850	16.781	0.163	0.132
-721.835	-106.076	-0.174	0.040
-720.821	-155.623	0.159	-0.010
-719.806	-123.655	0.270	-0.044
-718.791	70.683	0.100	-0.106
-717.777	-140.431	-0.178	0.019
-716.762	-200.000	-0.019	-0.290
-715.748	545.590	0.030	-0.072
-714.733	-74.141	-0.379	-0.140
-713.718	293.095	0.101	0.189
-712.704	-138.893	-0.098	-0.011
-711.689	-63.820	0.363	-0.152
-710.675	347.289	-0.102	-0.205
-709.660	-146.487	-0.280	-0.025
-708.645	6.368	-0.204	0.155
-707.631	-109.347	0.263	-0.057
-706.616	-112.779	-0.383	0.078
-705.602	-200.000	-0.022	-0.170
-704.587	-36.355	0.137	-0.075
-703.572	47.456	0.262	0.249
-702.558	-161.306	-0.228	-0.012
-701.543	-200.000	0.026	-0.378
-700.529	-113.216	0.179	0.036
-699.514	-200.000	-0.042	-0.197
-698.499	-71.231	-0.487	-0.186
-697.485	-13.836	-0.294	-0.194
-696.470	-174.540	0.293	0.009
-695.456	605.334	0.087	0.220
-694.441	408.146	0.033	0.070
-693.426	-200.000	-0.008	-0.058
-692.412	-110.861	0.207	-0.044
-691.397	151.971	0.219	-0.304
-690.383	-200.000	0.004	-0.373
-689.368	-144.496	0.174	-0.016
-688.354	9.508	-0.353	0.273
-687.339	-143.104	0.072	0.007
-686.324	-11.686	-0.031	0.021
-685.310	-200.000	0.002	-0.121
-684.295	-57.768	0.128	0.057
-683.281	80.659	-0.185	0.204
-682.266	-151.941	0.279	-0.021
-681.251	792.477	-0.037	0.103
-680.237	-78.222	-0.070	0.024
-679.222	800.000	0.052	0.176
-678.208	-112.436	-0.215	0.044
-677.193	-180.808	-0.050	0.001
-676.178	-200.000	-0.016	-0.119
-675.164	-134.579	-0.216	0.027
-674.149	147.692	0.223	-0.306
-673.135	-63.810	-0.105	-0.044
-672.120	4.894	-0.301	-0.226
-671.105	-191.968	-0.120	-0.001
-670.091	218.508	0.206	-0.335
-669.076	-125.071	-0.210	-0.033
-668.062	-200.000	0.008	-0.346
-667.047	800.000	0.092	0.261
-666.032	-43.176	-0.126	-0.065
-665.018	5.999	0.223	0.169
-664.003	-2.386	-0.156	-0.112
-662.989	-200.000	0.085	-0.392
-661.974	137.752	-0.190	0.254
-660.959	800.000	-0.072	0.209
-659.945	-109.335	-0.335	-0.072
-658.930	-71.327	-0.217	0.083
-657.916	-200.000	-0.021	-0.324
-656.901	84.896	-0.252	-0.281
-655.886	57.728	-0.217	0.216
-654.872	-200.000	-0.012	-0.410
-653.857	800.000	-0.084	0.280
-652.843	-200.000	-0.000	0.189
-651.828	45.808	0.116	0.109
-650.814	-118.618	-0.138	-0.025
-649.799	111.129	0.090	0.110
-648.784	-200.000	0.067	0.381
-647.770	-200.000	-0.020	0.194
-646.755	-108.371	-0.384	0.084
-645.741	-200.000	0.021	-0.117
-644.726	130.537	-0.074	0.097
-643.711	800.000	-0.093	0.287
-642.697	-79.087	0.388	-0.134
-641.682	108.930	0.115	0.140
-640.668	203.686	-0.105	-0.166
-639.653	-12.299	-0.268	-0.179
-638.638	51.638	-0.279	-0.270
-637.624	-16.133	0.259	0.168
-636.609	-132.114	0.095	0.013
-635.595	194.135	-0.083	0.128
-634.580	-13.689	0.245	0.161
-633.565	-98.068	0.291	0.076
-632.551	560.318	-0.091	0.224
-631.536	33.992	-0.249	-0.221
-630.522	-110.192	0.267	0.057
-629.507	800.000	-0.045	0.168
-628.492	83.407	0.110	-0.123
-627.478	39.438	-0.095	-0.087
-626.463	234.455	0.165	-0.277
-625.449	-157.280	-0.389	-0.024
-624.434	-122.783	-0.354	0.058
-623.419	-99.084	0.136	-0.035
-622.405	-200.000	0.023	0.494
-621.390	-124.866	-0.164	-0.026
-620.376	-200.000	-0.183	0.001
-619.361	47.346	-0.160	0.152
-618.346	1.866	0.181	-0.133
-617.332	-125.071	-0.097	0.015
-616.317	-200.000	0.001	0.211
-615.303	-200.000	0.000	0.237
-614.288	146.179	-0.161	-0.220
-613.273	-145.969	0.328	-0.030
-612.259	48.982	0.276	0.264
-611.244	-34.366	-0.197	-0.110
-610.230	-144.841	-0.037	0.003
-609.215	58.466	0.226	0.225
-608.201	13.357	0.160	0.126
-607.186	-74.199	-0.163	-0.060
-606.171	-93.653	0.280	-0.079
-605.157	-110.799	0.430	-0.090
-604.142	-60.084	0.191	-0.083
-603.128	3.945	0.118	-0.088
-602.113	-86.874	-0.354	-0.110
-601.098	800.000	-0.070	0.246
-600.084	-71.166	0.259	-0.099
-599.069	271.035	0.074	-0.133
-598.055	25.703	0.047	-0.040
-597.040	85.796	-0.135	-0.151
-596.025	312.519	0.101	-0.192
-595.011	-87.583	-0.359	0.110
-593.996	-72.785	0.046	-0.017
-592.982	35.452	-0.241	-0.215
-591.967	-200.000	-0.017	0.260
-590.952	50.091	-0.225	-0.215
-589.938	800.000	-0.059	0.204
-588.923	-47.006	-0.357	-0.177
-587.909	-200.000	-0.030	0.189
-586.894	82.922	-0.072	0.079
-585.879	-200.000	0.008	0.050
-584.865	-75.175	0.142	0.051
-583.850	-74.205	-0.153	0.056
-582.836	33.785	0.104	-0.092
-581.821	-166.974	-0.232	-0.010
-580.806	4.071	-0.175	0.130
-579.792	754.095	-0.118	-0.324
-578.777	1.126	0.279	-0.204
-577.763	-200.000	-0.016	-0.317
-576.748	-49.619	-0.449	0.217
-575.733	-46.224	-0.236	0.118
-574.719	-159.228	0.563	0.032
-573.704	35.276	0.051	0.046
-572.690	-200.000	-0.004	-0.153
-571.675	173.213	-0.031	-0.046
-570.661	197.684	0.248	-0.384
-569.646	76.473	-0.140	0.151
-568.631	198.683	0.058	-0.091
-567.617	183.119	-0.146	-0.218
-566.602	180.256	0.104	-0.154
-565.588	40.672	0.159	0.145
-564.573	-89.627	-0.390	-0.116
-563.558	56.801	-0.326	-0.322
-562.544	-200.000	0.006	-0.056
-561.529	-125.675	-0.101	0.016
-560.515	-169.499	0.417	-0.015
-559.500	340.241	-0.183	-0.362
-558.485	118.500	-0.113	-0.142
-557.471	47.068	-0.245	0.231
-556.456	-77.391	-0.124	0.044
-555.442	-193.059	-0.066	0.001
-554.427	102.344	-0.118	0.140
-553.412	-61.327	-0.172	-0.074
-552.398	-120.882	0.328	-0.056
-551.383	800.000	0.075	-0.274
-550.369	-117.912	-0.099	-0.018
-549.354	800.000	0.063	0.204
-548.339	-200.000	0.009	0.090
-547.325	-27.793	-0.190	-0.112
-546.310	530.803	0.055	-0.131
-545.296	553.334	-0.050	0.121
-544.281	-60.611	-0.035	-0.015
-543.266	-105.069	0.194	0.045
-542.252	-200.000	0.019	-0.360
-541.237	-105.814	-0.317	0.073
-540.223	800.000	-0.107	-0.356
-539.208	-125.891	0.214	0.033
-538.193	350.637	-0.191	-0.384
-537.179	-78.944	0.330	-0.114
-536.164	221.762	0.160	0.260
-535.150	268.637	0.204	0.363
-534.135	-136.536	0.151	-0.018
-533.121	323.185	-0.076	0.146
-532.106	146.634	-0.198	0.270
-531.091	-200.000	0.006	0.378
-530.077	-73.039	-0.126	-0.047
-529.062	-8.960	-0.228	-0.155
-528.048	-42.807	0.310	0.160
-527.033	-111.047	-0.152	0.032
-526.018	516.834	-0.158	0.375
-525.004	554.327	0.062	-0.151
-523.989	-200.000	0.008	0.101
-522.975	-66.621	0.004	0.002
-521.960	-128.769	-0.098	0.014
-520.945	-72.877	0.118	0.044
-519.931	-96.935	0.121	-0.032
-518.916	196.462	0.146	0.225
-517.902	-200.000	-0.028	0.184
-516.887	107.576	-0.148	0.179
-515.872	-200.000	-0.038	-0.184
-514.858	-200.000	0.044	0.347
-513.843	-165.623	0.197	-0.009
-512.829	-22.303	-0.166	-0.102
-511.814	394.877	-0.159	0.335
-510.799	-200.000	-0.005	-0.270
-509.785	800.000	-0.049	-0.178
-508.770	-200.000	0.022	-0.127
-507.756	72.515	0.098	-0.104
-506.741	800.000	-0.090	0.273
-505.726	-121.971	0.068	-0.011
-504.712	-10.583	0.208	-0.139
-503.697	32.829	-0.227	-0.199
-502.683	50.515	-0.313	0.300
-501.668	-68.239	-0.222	0.087
-500.653	49.708	0.119	0.114
-499.639	87.547	0.051	0.057
-498.624	-100.123	0.181	0.046
-497.610	98.695	-0.208	0.243
-496.595	-113.660	0.100	-0.020
-495.581	273.722	-0.085	0.152
-494.566	-25.023	-0.046	-0.028
-493.551	-200.000	-0.017	0.089
-492.537	265.965	-0.109	0.192
-491.522	52.169	0.251	0.242
-490.508	-200.000	0.027	-0.128
-489.493	-200.000	-0.018	-0.193
-488.478	70.310	0.003	-0.004
-487.464	-132.027	0.179	-0.024
-486.449	-200.000	-0.001	0.050
-485.435	-200.000	-0.004	0.297
-484.420	-200.000	0.042	-0.398
-483.405	229.010	-0.139	-0.230
-482.391	-89.851	-0.188	-0.055
-481.376	336.837	0.132	-0.259
-480.362	-140.188	-0.117	-0.012
-479.347	-79.794	-0.042	0.014
-478.332	10.124	0.162	0.125
-477.318	59.084	-0.109	0.109
-476.303	-200.000	0.038	0.306
-475.289	-175.088	-0.220	0.006
-474.274	330.395	-0.194	-0.378
-473.259	127.565	0.102	-0.131
-472.245	429.319	-0.060	0.132
-471.230	-56.706	-0.142	-0.064
-470.216	2.917	-0.117	-0.086
-469.201	8.625	0.228	-0.173
-468.186	800.000	-0.071	0.273
-467.172	215.851	0.194	0.311
-466.157	-160.322	0.310	-0.017
-465.143	131.952	-0.075	-0.098
-464.128	-20.800	-0.077	0.047
-463.113	-148.227	-0.187	-0.016
-462.099	-88.840	-0.216	-0.065
-461.084	800.000	-0.069	-0.262
-460.070	-138.743	0.145	-0.016
-459.055	-1.896	-0.092	-0.066
-458.040	-86.634	0.203	0.063
-457.026	-12.384	-0.236	-0.156
-456.011	201.846	0.132	0.205
-454.997	-26.326	-0.360	-0.214
-453.982	305.680	0.179	-0.337
-452.968	-200.000	0.102	-0.624
-451.953	-200.000	-0.021	-0.119
-450.938	-60.109	-0.354	0.153
-449.924	158.901	-0.052	-0.073
-448.909	-22.269	0.295	0.180
-447.895	-17.841	0.184	0.117
-446.880	46.009	-0.375	-0.351
-445.865	-151.689	-0.191	-0.014
-444.851	-60.904	-0.228	0.098
-443.836	569.260	0.136	-0.333
-442.822	-12.460	-0.050	0.033
-441.807	-148.879	0.129	0.011
-440.792	101.414	-0.242	-0.285
-439.778	82.520	-0.026	0.028
-438.763	-168.391	0.305	0.012
-437.749	18.796	0.142	-0.115
-436.734	80.154	-0.223	-0.243
-435.719	45.109	-0.122	0.114
-434.705	-200.000	0.040	0.331
-433.690	172.159	-0.033	0.048
-432.676	-169.680	0.224	-0.008
-431.661	800.000	-0.196	-0.596
-430.646	53.746	-0.178	0.173
-429.632	135.733	-0.080	0.105
-428.617	9.715	0.093	-0.072
-427.603	800.000	0.039	-0.119
-426.588	-154.366	0.388	0.026
-425.573	-200.000	-0.041	0.394
-424.559	-32.998	0.156	-0.087
-423.544	-146.726	-0.352	-0.031
-422.530	-200.000	-0.013	-0.162
-421.515	307.005	0.225	-0.422
-420.500	800.000	0.074	-0.325
-419.486	46.093	-0.250	-0.234
-418.471	265.400	0.081	0.143
-417.457	72.339	0.232	-0.244
-416.442	-37.474	-0.286	-0.154
-415.428	-67.452	0.213	-0.084
-414.413	58.520	0.114	0.113
-413.398	676.218	-0.098	-0.256
-412.384	-68.385	0.443	0.174
-411.369	-200.000	-0.016	0.197
-410.355	-143.211	0.156	-0.015
-409.340	-73.083	-0.277	-0.102
-408.325	-79.494	0.111	0.038
-407.311	321.557	0.130	0.250
-406.296	565.817	0.077	-0.189
-405.282	-103.523	0.288	0.068
-404.267	178.105	-0.154	-0.227
-403.252	-118.505	0.122	-0.022
-402.238	-32.538	-0.237	0.133
-401.223	-200.000	-0.052	-0.302
-400.209	-1.966	0.012	0.008
-399.194	-41.466	0.175	-0.091
-398.179	-10.802	-0.405	-0.270
-397.165	800.000	-0.033	0.134
-396.150	-200.000	-0.041	0.232
-395.136	28.261	0.093	-0.079
-394.121	-144.530	-0.161	-0.015
-393.106	-132.846	0.248	0.032
-392.092	98.435	-0.077	0.090
-391.077	-200.000	0.086	-0.442
-390.063	132.927	0.083	-0.108
-389.048	-154.255	0.076	0.005
-388.033	413.096	0.132	0.283
-387.019	794.315	-0.085	-0.235
-386.004	-200.000	-0.020	0.152
-384.990	-117.229	0.104	-0.019
-383.975	-200.000	-0.015	0.180
-382.960	800.000	0.069	-0.264
-381.946	176.402	0.122	0.179
-380.931	-26.325	0.159	0.094
-379.917	-70.164	0.052	0.020
-378.902	-200.000	0.012	0.102
-377.888	-94.424	0.073	0.020
-376.873	-78.919	-0.303	0.104
-375.858	-58.459	-0.336	0.147
-374.844	64.740	0.269	0.273
-373.829	-31.369	-0.252	0.143
-372.815	-31.440	0.216	0.122
-371.800	66.024	0.079	0.080
-370.785	-129.419	0.539	0.075
-369.771	-101.974	0.033	0.008
-368.756	-200.000	0.025	-0.171
-367.742	800.000	0.039	-0.113
-366.727	-53.368	0.203	-0.094
-365.712	421.672	-0.245	0.529
-364.698	-200.000	-0.003	-0.243
-363.683	-65.119	-0.144	0.058
-362.669	244.869	0.064	-0.108
-361.654	-40.853	0.187	0.097
-360.639	39.692	0.192	0.173
-359.625	71.674	0.145	-0.151
-358.610	-157.215	-0.185	-0.011
-357.596	800.000	0.069	0.216
-356.581	49.408	-0.133	0.126
-355.566	-200.000	-0.012	-0.155
-354.552	94.321	-0.290	0.331
-353.537	201.285	0.222	-0.344
-352.523	73.183	0.225	-0.237
-351.508	-168.221	-0.216	0.008
-350.493	96.746	0.137	-0.159
-349.479	-106.365	0.242	0.054
-348.464	-116.735	-0.291	-0.054
-347.450	86.155	-0.158	0.175
-346.435	-79.445	-0.288	-0.098
-345.420	-200.000	-0.058	0.269
-344.406	-200.000	-0.001	0.239
-343.391	75.539	0.177	0.188
-342.377	271.491	-0.109	-0.193
-341.362	248.471	-0.065	0.111
-340.348	-38.800	-0.327	0.174
-339.333	-185.876	0.280	-0.004
-338.318	46.135	0.043	-0.040
-337.304	-200.000	-0.022	-0.201
-336.289	56.816	-0.148	0.145
-335.275	23.553	0.151	0.125
-334.260	271.736	0.065	-0.115
-333.245	-83.686	0.257	-0.083
-332.231	-153.308	-0.135	-0.009
-331.216	-164.163	0.168	0.008
-330.202	404.023	0.020	0.043
-329.187	35.950	0.144	0.127
-328.172	-72.360	0.229	0.085
-327.158	34.904	-0.206	0.181
-326.143	800.000	-0.091	-0.349
-325.129	-101.894	-0.165	-0.040
-324.114	-115.595	0.436	0.082
-323.099	41.737	-0.195	0.177
-322.085	-74.975	0.243	-0.087
-321.070	20.080	-0.169	-0.137
-320.056	164.156	-0.138	0.195
-319.041	12.137	0.231	0.179
-318.026	277.470	0.102	0.183
-317.012	-200.000	-0.043	-0.261
-315.997	-200.000	-0.005	0.337
-314.983	-111.621	0.405	0.083
-313.968	-129.345	0.379	0.053
-312.953	-141.534	-0.187	0.019
-311.939	83.103	0.065	0.071
-310.924	531.457	-0.076	0.180
-309.910	-51.370	0.220	-0.104
-308.895	-109.656	0.146	-0.031
-307.880	151.366	-0.219	-0.300
-306.866	385.679	-0.091	-0.189
-305.851	-115.890	0.207	-0.039
-304.837	725.110	-0.100	-0.267
-303.822	-105.608	-0.044	-0.010
-302.807	-156.323	0.127	0.008
-301.793	19.768	-0.169	-0.136
-300.778	220.250	0.077	0.124
-299.764	286.511	-0.029	0.052
-298.749	-200.000	0.004	-0.053
-297.735	-143.793	-0.130	0.012
-296.720	72.795	-0.325	0.340
-295.705	68.779	0.029	-0.030
-294.691	-37.728	-0.462	-0.247
-293.676	-113.774	0.243	-0.048
-292.662	-5.679	0.064	-0.044
-291.647	-30.210	-0.326	0.186
-290.632	-31.505	-0.182	0.103
-289.618	-200.000	-0.002	0.352
-288.603	87.037	0.178	0.198
-287.589	256.771	0.115	0.198
-286.574	-200.000	0.041	0.277
-285.559	-200.000	-0.009	0.396
-284.545	-15.867	0.092	0.059
-283.530	-200.000	0.032	0.147
-282.516	5.844	-0.200	0.149
-281.501	-111.910	-0.189	0.038
-280.486	201.477	0.182	0.281
-279.472	-200.000	-0.010	-0.367
-278.457	141.014	0.221	-0.294
-277.443	51.094	-0.143	-0.136
-276.428	-158.798	0.421	0.024
-275.413	-54.104	0.336	-0.153
-274.399	-89.676	-0.172	0.051
-273.384	75.257	-0.096	0.102
-272.370	-81.003	0.097	0.032
-271.355	148.517	0.203	-0.275
-270.340	-200.000	-0.046	0.410
-269.326	517.510	0.055	0.128
-268.311	-118.375	0.173	0.031
-267.297	4.889	0.067	0.049
-266.282	474.724	-0.080	-0.181
-265.267	-41.973	0.150	0.077
-264.253	215.571	-0.192	-0.305
-263.238	-79.264	-0.118	0.040
-262.224	18.859	0.122	0.098
-261.209	164.332	-0.102	0.144
-260.195	-11.495	0.227	0.150
-259.180	-200.000	0.027	-0.314
-258.165	-109.519	0.157	-0.033
-257.151	601.879	-0.044	0.109
-256.136	213.269	-0.236	0.375
-255.122	-172.350	0.065	-0.002
-254.107	321.939	0.131	-0.250
-253.092	-180.694	-0.239	0.005
-252.078	-200.000	-0.002	-0.082
-251.063	-90.754	-0.117	-0.034
-250.049	244.045	-0.077	0.130
-249.034	-200.000	-0.011	0.071
-248.019	150.005	0.221	-0.301
-247.005	-200.000	-0.003	0.204
-245.990	183.145	0.239	-0.354
-244.976	610.023	-0.042	-0.106
-243.961	-200.000	-0.024	0.213
-242.946	-10.602	-0.163	-0.108
-241.932	-160.729	-0.266	-0.014
-240.917	-41.531	-0.062	-0.032
-239.903	336.051	-0.072	-0.140
-238.888	291.195	-0.127	0.232
-237.873	340.502	-0.093	0.182
-236.859	48.301	0.148	0.139
-235.844	800.000	0.060	0.181
-234.830	800.000	-0.041	-0.180
-233.815	-176.442	-0.238	0.006
-232.800	226.272	0.121	0.197
-231.786	15.291	-0.199	-0.157
-230.771	-200.000	-0.035	-0.175
-229.757	-200.000	-0.013	0.223
-228.742	-54.778	-0.297	-0.134
-227.727	540.141	0.165	-0.394
-226.713	57.198	-0.158	-0.155
-225.698	800.000	0.077	0.232
-224.684	800.000	-0.028	-0.098
-223.669	-200.000	-0.039	-0.311
-222.655	122.016	-0.098	0.123
-221.640	543.476	0.064	-0.154
-220.625	209.194	0.093	0.146
-219.611	-200.000	0.058	-0.350
-218.596	-200.000	-0.105	-0.488
-217.582	81.890	0.245	0.266
-216.567	83.683	0.235	0.257
-215.552	18.041	0.110	0.088
-214.538	-162.785	-0.315	-0.015
-213.523	1.282	0.273	0.197
-212.509	-200.000	0.043	0.356
-211.494	800.000	0.042	0.139
-210.479	-59.381	0.068	0.029
-209.465	-148.663	0.136	0.011
-208.450	-33.207	0.109	0.060
-207.436	800.000	-0.065	-0.238
-206.421	-147.405	0.432	0.037
-205.406	-33.942	0.319	-0.176
-204.392	-51.158	-0.159	-0.074
-203.377	133.987	0.031	-0.040
-202.363	-25.132	0.261	-0.155
-201.348	800.000	-0.042	-0.123
-200.333	800.000	-0.058	0.204
-199.319	-200.000	0.006	0.575
-198.304	145.821	-0.035	0.047
-197.290	49.652	0.289	-0.272
-196.275	-200.000	-0.000	0.340
-195.260	-105.063	0.145	0.033
-194.246	-158.934	0.237	0.014
-193.231	101.996	0.251	0.293
-192.217	-51.200	-0.225	0.105
-191.202	-200.000	0.006	-0.069
-190.187	-32.385	0.513	0.286
-189.173	343.769	0.020	0.039
-188.158	-77.872	0.252	-0.087
-187.144	-30.144	-0.072	-0.041
-186.129	-200.000	0.021	-0.293
-185.114	-93.418	0.232	0.064
-184.100	-42.321	-0.314	0.160
-183.085	-18.453	-0.184	0.115
-182.071	-77.687	0.409	0.142
-181.056	-1.850	0.187	-0.132
-180.042	-200.000	0.025	-0.353
-179.027	27.252	0.113	-0.095
-178.012	-14.078	-0.419	-0.271
-176.998	-200.000	0.007	0.225
-175.983	-200.000	0.010	-0.267
-174.969	236.455	0.117	-0.194
-173.954	-178.480	-0.192	-0.004
-172.939	-200.000	-0.007	-0.049
-171.925	258.645	-0.153	-0.263
-170.910	283.146	0.032	-0.057
-169.896	-200.000	-0.038	0.199
-168.881	64.504	0.187	-0.188
-167.866	-14.931	-0.414	0.265
-166.852	-128.792	-0.214	-0.030
-165.837	-200.000	-0.010	-0.081
-164.823	350.998	-0.123	-0.244
-163.808	-101.076	-0.167	0.041
-162.793	-200.000	-0.019	-0.155
-161.779	-120.248	-0.423	-0.072
-160.764	800.000	-0.082	0.245
-159.750	-95.585	0.221	0.059
-158.735	142.882	-0.302	-0.402
-157.720	-200.000	-0.001	-0.052
-156.706	-101.089	-0.268	-0.066
-155.691	-57.144	0.355	-0.156
-154.677	110.335	-0.060	0.072
-153.662	82.389	-0.229	0.249
-152.647	-200.000	0.030	0.178
-151.633	19.884	-0.168	-0.135
-150.618	168.276	-0.159	0.226
-149.604	14.522	0.214	-0.167
-148.589	214.290	-0.058	-0.092
-147.574	-11.596	0.013	0.009
-146.560	603.697	-0.057	0.143
-145.545	-7.035	-0.296	-0.201
-144.531	-200.000	0.011	0.135
-143.516	59.829	0.272	-0.268
-142.502	-200.000	0.011	0.106
-141.487	-161.302	-0.338	0.018
-140.472	-176.675	-0.199	-0.005
-139.458	-200.000	0.047	-0.226
-138.443	-26.590	0.256	-0.149
-137.429	-200.000	0.003	0.121
-136.414	-155.796	0.253	0.016
-135.399	-200.000	-0.009	0.273
-134.385	-38.520	0.044	0.023
-133.370	800.000	0.057	-0.162
-132.356	713.982	-0.048	-0.126
-131.341	-200.000	0.000	0.138
-130.326	-113.529	0.072	-0.014
-129.312	-72.910	-0.108	0.039
-128.297	-158.604	0.275	0.016
-127.283	-58.489	0.096	0.041
-126.268	398.259	0.238	-0.497
-125.253	-200.000	-0.046	-0.202
-124.239	16.162	0.181	-0.143
-123.224	61.002	0.105	0.104
-122.210	36.312	-0.205	0.180
