DTS Sentinel unit serial number:	SN413079Multiplexer serial number:	ORYXHardware model number:	OX4-SRSoftware version number:	ORYX F/W v4.00 Oryx Data Collector v3.7.2.0data status	okinstallation	princeton_trtdifferential loss correction	single-endedforward channel	channel 4reverse channel	N/Adate	2019/09/16time	23:41:35forward acquisition time	60.00reverse acquisition time	0.00gamma	496.2192k internal	0.2314k external	0.2314temperature offset calibration	0.9977default loss term (dB/km)	0.3790temperature slope calibration	1.0000multiplexer offset coefficient	1.0000multiplexer slope coefficient	1.0000fibre end	0.00T internal ref (°C)	29.75T ext. ref 1 (°C)	0.08T ext. ref 2 (°C)	23.81length (m)	temperature (°C)	Stokes	anti-Stokes-747.200	-174.250	-0.169	-0.005
-746.185	171.915	-0.031	-0.045
-745.171	113.524	-0.157	-0.193
-744.156	122.412	0.252	0.319
-743.142	800.000	0.025	0.071
-742.127	60.863	-0.195	0.196
-741.112	-47.210	-0.278	-0.137
-740.098	55.558	0.229	0.224
-739.083	-124.741	-0.143	0.022
-738.069	-106.674	0.175	-0.040
-737.054	-102.577	-0.144	-0.035
-736.039	-200.000	-0.013	-0.259
-735.025	-56.272	0.117	0.053
-734.010	-28.039	0.320	-0.188
-732.996	800.000	0.068	-0.226
-731.981	-200.000	-0.018	0.186
-730.966	-200.000	0.014	0.145
-729.952	466.680	-0.081	-0.184
-728.937	800.000	0.038	0.119
-727.923	3.721	0.073	0.054
-726.908	10.334	-0.247	-0.190
-725.894	-8.519	-0.306	0.208
-724.879	-40.601	0.288	-0.152
-723.864	-158.586	-0.150	0.009
-722.850	-112.561	0.292	0.059
-721.835	-200.000	-0.001	-0.047
-720.821	45.581	-0.221	-0.207
-719.806	-200.000	-0.021	0.118
-718.791	-79.763	0.119	-0.041
-717.777	556.989	-0.170	-0.415
-716.762	6.913	-0.193	-0.145
-715.748	-81.834	0.039	-0.013
-714.733	-200.000	-0.053	-0.351
-713.718	47.216	0.206	0.194
-712.704	-200.000	-0.024	-0.128
-711.689	800.000	0.141	-0.401
-710.675	-6.381	0.147	0.102
-709.660	443.756	0.117	-0.261
-708.645	-200.000	0.011	-0.156
-707.631	800.000	-0.052	-0.200
-706.616	-177.761	0.282	0.007
-705.602	-133.305	-0.130	0.017
-704.587	-200.000	0.077	0.415
-703.572	416.357	0.111	0.240
-702.558	47.920	0.143	-0.135
-701.543	-136.232	-0.247	-0.029
-700.529	-148.901	-0.101	-0.008
-699.514	532.131	0.086	-0.205
-698.499	-108.062	-0.207	-0.045
-697.485	-94.141	0.350	-0.097
-696.470	-26.561	0.023	-0.014
-695.456	800.000	0.070	-0.210
-694.441	352.483	0.109	0.218
-693.426	-153.971	0.473	-0.033
-692.412	241.376	-0.110	-0.187
-691.397	-117.756	0.258	0.047
-690.383	-88.084	-0.246	0.075
-689.368	95.387	-0.164	-0.189
-688.354	-118.422	0.284	-0.051
-687.339	338.554	-0.073	0.144
-686.324	-129.272	0.116	0.016
-685.310	464.051	0.088	-0.198
-684.295	-170.432	-0.245	0.009
-683.281	800.000	0.048	0.162
-682.266	-200.000	-0.021	0.173
-681.251	-200.000	-0.026	0.195
-680.237	800.000	0.073	-0.287
-679.222	33.606	0.062	0.054
-678.208	82.890	0.171	-0.188
-677.193	-1.334	-0.224	-0.160
-676.178	78.566	-0.117	-0.127
-675.164	-67.005	0.226	0.090
-674.149	51.133	0.215	-0.206
-673.135	-132.874	0.124	-0.016
-672.120	254.731	-0.073	0.126
-671.105	-200.000	-0.014	0.111
-670.091	-185.469	-0.111	-0.002
-669.076	-47.706	0.099	-0.049
-668.062	800.000	-0.078	-0.308
-667.047	450.005	-0.106	-0.237
-666.032	-137.252	0.038	-0.004
-665.018	223.965	-0.124	0.203
-664.003	384.695	0.072	-0.150
-662.989	54.328	-0.117	-0.114
-661.974	800.000	-0.057	0.227
-660.959	-23.770	-0.220	0.133
-659.945	70.910	0.198	0.208
-658.930	60.542	-0.146	-0.147
-657.916	98.123	0.195	-0.227
-656.901	30.487	-0.143	-0.123
-655.886	7.639	-0.137	0.104
-654.872	241.333	-0.079	0.133
-653.857	38.139	-0.185	-0.166
-652.843	12.373	-0.136	0.106
-651.828	396.036	-0.197	-0.415
-650.814	800.000	-0.091	0.388
-649.799	800.000	0.066	0.220
-648.784	136.041	0.150	0.198
-647.770	-171.758	-0.320	-0.011
-646.755	-58.823	-0.442	-0.193
-645.741	39.805	0.170	-0.154
-644.726	800.000	0.092	-0.395
-643.711	-35.767	-0.259	0.141
-642.697	-44.171	-0.061	-0.031
-641.682	-148.488	-0.494	0.041
-640.668	228.731	0.035	-0.057
-639.653	14.749	-0.182	0.144
-638.638	-21.477	0.128	0.079
-637.624	-200.000	0.005	-0.074
-636.609	-200.000	-0.007	-0.278
-635.595	153.195	0.071	-0.099
-634.580	233.998	0.100	-0.167
-633.565	800.000	0.074	-0.267
-632.551	95.655	-0.223	-0.256
-631.536	0.896	-0.080	-0.058
-630.522	110.401	-0.168	0.204
-629.507	-200.000	-0.011	0.225
-628.492	226.552	0.195	0.320
-627.478	74.632	-0.161	-0.171
-626.463	-70.532	0.178	-0.068
-625.449	-171.616	-0.358	-0.012
-624.434	-200.000	-0.000	-0.055
-623.419	-200.000	0.014	-0.266
-622.405	60.420	0.069	0.069
-621.390	800.000	-0.098	0.326
-620.376	-61.492	-0.033	0.014
-619.361	-21.559	-0.254	-0.156
-618.346	193.810	0.150	0.229
-617.332	-200.000	0.016	-0.155
-616.317	800.000	-0.008	-0.027
-615.303	155.207	0.228	-0.316
-614.288	800.000	-0.070	-0.210
-613.273	11.125	-0.096	0.074
-612.259	-91.771	-0.351	-0.101
-611.244	-28.733	0.122	0.071
-610.230	153.401	0.133	-0.184
-609.215	238.399	-0.100	-0.168
-608.201	-98.427	-0.238	-0.061
-607.186	-121.309	-0.149	-0.025
-606.171	26.994	0.188	-0.159
-605.157	-117.511	0.380	0.069
-604.142	21.184	-0.179	0.146
-603.128	-200.000	-0.009	0.166
-602.113	-200.000	-0.010	-0.221
-601.098	800.000	-0.122	-0.355
-600.084	-57.729	0.298	0.132
-599.069	57.628	-0.165	0.163
-598.055	-200.000	-0.010	0.314
-597.040	328.839	0.128	-0.248
-596.025	-38.193	0.349	0.186
-595.011	16.802	0.079	0.063
-593.996	359.249	0.153	-0.308
-592.982	-27.190	-0.210	-0.123
-591.967	-60.689	-0.198	-0.085
-590.952	-142.262	-0.218	-0.022
-589.938	-200.000	0.030	0.176
-588.923	81.919	-0.251	-0.274
-587.909	-200.000	-0.009	-0.058
-586.894	-125.803	-0.280	-0.043
-585.879	-69.242	-0.198	-0.077
-584.865	-200.000	-0.003	0.143
-583.850	-145.729	0.086	0.008
-582.836	-200.000	0.059	0.291
-581.821	-61.754	0.167	-0.071
-580.806	105.063	0.312	0.370
-579.792	159.367	0.032	0.045
-578.777	800.000	0.041	-0.118
-577.763	-0.904	0.100	0.071
-576.748	20.572	0.172	-0.140
-575.733	197.185	0.051	-0.079
-574.719	-57.432	0.192	0.085
-573.704	-121.947	-0.347	-0.057
-572.690	-148.477	0.292	-0.024
-571.675	-37.788	0.208	0.112
-570.661	-28.051	-0.118	0.069
-569.646	61.728	0.062	-0.062
-568.631	-200.000	0.037	-0.183
-567.617	171.035	-0.299	0.431
-566.602	407.898	-0.060	0.127
-565.588	-93.670	-0.236	-0.065
-564.573	402.289	0.131	-0.277
-563.558	504.751	0.089	-0.208
-562.544	85.098	-0.195	0.215
-561.529	72.000	-0.125	0.131
-560.515	-120.215	0.279	-0.048
-559.500	800.000	0.016	0.059
-558.485	64.564	0.096	-0.097
-557.471	194.394	-0.130	0.198
-556.456	-148.457	-0.333	0.027
-555.442	-200.000	0.015	-0.179
-554.427	26.086	-0.087	0.073
-553.412	-133.112	-0.055	0.007
-552.398	-200.000	-0.038	-0.294
-551.383	1.685	0.225	0.163
-550.369	800.000	-0.072	-0.317
-549.354	-88.719	-0.382	-0.114
-548.339	-82.036	-0.063	-0.021
-547.325	-8.232	-0.061	-0.041
-546.310	-157.905	-0.024	0.001
-545.296	-200.000	0.043	0.242
-544.281	-156.991	-0.194	-0.012
-543.266	699.186	-0.102	0.270
-542.252	18.433	-0.099	0.080
-541.237	346.858	0.106	-0.210
-540.223	189.176	-0.051	0.077
-539.208	800.000	-0.102	0.412
-538.193	-27.966	0.377	0.220
-537.179	-7.494	-0.294	-0.200
-536.164	800.000	0.054	-0.184
-535.150	-172.039	-0.113	-0.004
-534.135	-142.473	-0.241	-0.024
-533.121	-158.572	-0.121	0.007
-532.106	280.136	0.141	0.253
-531.091	-12.443	0.157	0.103
-530.077	-200.000	-0.258	-0.001
-529.062	482.656	-0.056	0.128
-528.048	-200.000	0.014	0.154
-527.033	63.311	0.199	0.200
-526.018	-155.949	0.352	-0.022
-525.004	-76.899	-0.399	0.140
-523.989	-200.000	0.034	-0.157
-522.975	669.616	-0.169	-0.441
-521.960	-200.000	-0.020	-0.140
-520.945	-184.764	0.565	0.009
-519.931	241.863	-0.036	-0.060
-518.916	165.717	-0.099	-0.140
-517.902	-200.000	0.063	-0.372
-516.887	3.924	0.102	-0.075
-515.872	52.787	0.063	0.060
-514.858	41.823	-0.078	0.071
-513.843	398.919	0.065	-0.136
-512.829	129.264	-0.135	-0.173
-511.814	75.069	0.188	0.199
-510.799	-178.170	0.270	0.006
-509.785	-164.633	-0.403	-0.018
-508.770	-82.458	-0.232	-0.076
-507.756	-112.466	-0.311	0.062
-506.741	-65.426	-0.287	-0.116
-505.726	-93.110	-0.278	0.078
-504.712	-119.936	0.248	-0.043
-503.697	99.111	-0.078	-0.091
-502.683	-13.869	0.281	-0.182
-501.668	-98.942	0.277	0.071
-500.653	161.207	0.116	0.163
-499.639	-0.502	0.269	0.192
-498.624	16.282	0.276	0.218
-497.610	-152.574	-0.294	-0.021
-496.595	244.952	0.054	-0.091
-495.581	89.984	-0.115	0.129
-494.566	-200.000	0.001	0.116
-493.551	114.157	0.040	0.049
-492.537	-81.006	-0.040	-0.013
-491.522	-40.079	0.202	-0.105
-490.508	29.980	0.102	-0.087
-489.493	-38.583	0.281	0.149
-488.478	-200.000	-0.004	0.208
-487.464	182.832	0.216	-0.321
-486.449	800.000	0.111	-0.439
-485.435	-104.597	0.095	0.022
-484.420	800.000	-0.029	-0.097
-483.405	-23.785	-0.441	-0.265
-482.391	-161.689	0.226	0.012
-481.376	-179.296	0.517	-0.011
-480.362	-117.563	-0.352	-0.064
-479.347	-189.463	0.373	0.004
-478.332	309.623	-0.086	0.162
-477.318	143.576	0.097	0.130
-476.303	-31.511	0.068	-0.039
-475.289	6.703	0.087	0.065
-474.274	-200.000	-0.071	-0.366
-473.259	-114.932	0.331	-0.063
-472.245	-95.243	-0.055	-0.015
-471.230	17.884	-0.277	-0.221
-470.216	-104.253	-0.050	0.012
-469.201	-98.762	-0.351	-0.090
-468.186	-66.970	0.260	0.103
-467.172	-58.712	0.181	0.079
-466.157	-56.252	-0.067	0.030
-465.143	115.829	-0.119	0.146
-464.128	-24.657	0.267	0.159
-463.113	343.319	0.087	0.170
-462.099	24.643	0.134	-0.111
-461.084	26.822	0.104	-0.088
-460.070	-20.322	-0.291	-0.179
-459.055	192.561	0.256	0.388
-458.040	17.123	0.069	-0.055
-457.026	248.946	-0.140	0.238
-456.011	126.414	-0.057	-0.072
-454.997	-16.234	0.334	-0.212
-453.982	264.136	0.039	-0.067
-452.968	112.627	0.077	-0.094
-451.953	-106.323	0.097	0.022
-450.938	-200.000	0.225	-0.001
-449.924	-37.768	-0.463	0.247
-448.909	800.000	0.035	0.107
-447.895	-80.095	-0.084	0.028
-446.880	-195.811	0.115	-0.001
-445.865	-200.000	0.074	-0.336
-444.851	-200.000	0.031	-0.184
-443.836	75.757	0.144	-0.152
-442.822	179.196	-0.111	0.163
-441.807	226.590	-0.095	-0.154
-440.792	-200.000	-0.003	0.066
-439.778	800.000	-0.067	-0.243
-438.763	142.360	-0.142	0.189
-437.749	-82.017	-0.279	0.091
-436.734	661.362	0.220	-0.568
-435.719	800.000	0.061	0.178
-434.705	-184.915	0.174	-0.003
-433.690	-115.118	0.376	0.071
-432.676	-200.000	0.031	-0.156
-431.661	-60.739	-0.197	-0.084
-430.646	81.499	0.144	0.156
-429.632	21.622	-0.118	0.096
-428.617	-200.000	-0.006	0.167
-427.603	-67.993	-0.234	-0.091
-426.588	-200.000	0.236	-0.001
-425.573	97.500	0.100	0.115
-424.559	424.737	0.052	-0.112
-423.544	-197.189	-0.283	0.002
-422.530	-155.818	-0.217	0.014
-421.515	339.850	0.148	-0.289
-420.500	800.000	-0.046	0.168
-419.486	-200.000	0.043	0.255
-418.471	147.039	-0.093	-0.125
-417.457	133.523	-0.126	0.163
-416.442	7.162	-0.139	-0.104
-415.428	-40.034	-0.158	-0.082
-414.413	-112.669	-0.184	0.037
-413.398	490.573	0.149	-0.341
-412.384	-75.569	0.176	0.063
-411.369	88.581	-0.153	0.171
-410.355	154.463	0.308	0.423
-409.340	-130.356	-0.185	-0.025
-408.325	45.918	0.133	-0.123
-407.311	570.351	-0.052	-0.127
-406.296	31.385	-0.206	-0.177
-405.282	2.342	0.284	-0.206
-404.267	-12.192	-0.077	-0.051
-403.252	-17.615	0.109	-0.069
-402.238	178.150	-0.072	0.106
-401.223	800.000	0.037	0.125
-400.209	133.808	0.096	0.125
-399.194	-180.933	-0.094	-0.002
-398.179	-106.408	-0.177	-0.040
-397.165	40.672	0.296	0.267
-396.150	-95.527	0.201	0.054
-395.136	20.885	-0.329	0.267
-394.121	615.782	0.129	-0.323
-393.106	142.418	0.055	0.074
-392.092	-106.730	0.243	-0.054
-391.077	-164.154	-0.235	0.011
-390.063	-200.000	0.021	0.138
-389.048	39.477	0.045	-0.041
-388.033	-34.469	0.211	-0.116
-387.019	167.675	0.156	-0.221
-386.004	-200.000	0.004	0.224
-384.990	411.884	-0.191	-0.404
-383.975	-67.633	0.437	0.171
-382.960	-170.029	-0.300	0.011
-381.946	-83.140	0.287	-0.092
-380.931	95.382	-0.129	0.147
-379.917	-91.983	0.263	-0.074
-378.902	324.376	-0.078	0.149
-377.888	247.468	0.092	-0.155
-376.873	89.190	-0.130	0.144
-375.858	242.693	0.166	0.278
-374.844	261.964	0.028	-0.048
-373.829	-78.681	-0.178	0.061
-372.815	-200.000	0.021	-0.474
-371.800	-64.261	0.023	-0.009
-370.785	800.000	-0.019	0.060
-369.771	248.866	-0.084	-0.142
-368.756	-200.000	0.070	0.367
-367.742	328.032	-0.061	-0.117
-366.727	401.210	0.042	0.089
-365.712	800.000	0.067	-0.286
-364.698	-200.000	-0.030	0.217
-363.683	-197.836	0.186	-0.001
-362.669	-78.158	-0.153	0.053
-361.654	-162.344	-0.228	0.011
-360.639	60.441	0.220	-0.218
-359.625	90.510	-0.167	0.186
-358.610	537.685	-0.105	0.249
-357.596	-200.000	0.003	0.078
-356.581	-134.223	0.284	0.035
-355.566	-200.000	0.018	-0.099
-354.552	-128.066	-0.255	-0.036
-353.537	29.214	0.124	-0.105
-352.523	-113.475	-0.148	0.029
-351.508	-200.000	0.015	-0.325
-350.493	13.675	-0.355	-0.275
-349.479	800.000	-0.079	0.324
-348.464	214.552	-0.210	0.332
-347.450	57.864	0.195	-0.190
-346.435	99.919	-0.068	0.079
-345.420	-135.628	-0.286	-0.034
-344.406	-22.488	0.425	-0.257
-343.391	-200.000	0.029	-0.261
-342.377	-121.869	0.351	0.058
-341.362	-12.652	-0.183	-0.119
-340.348	800.000	-0.093	0.406
-339.333	-10.345	0.139	0.092
-338.318	60.461	-0.138	-0.136
-337.304	-85.175	-0.193	-0.060
-336.289	-42.282	0.075	0.038
-335.275	143.176	0.158	0.209
-334.260	-44.631	0.198	0.099
-333.245	800.000	0.138	-0.379
-332.231	244.061	0.086	0.144
-331.216	800.000	-0.116	-0.322
-330.202	292.272	0.072	0.132
-329.187	180.143	0.143	-0.209
-328.172	305.514	0.068	-0.126
-327.158	-87.278	-0.191	0.058
-326.143	17.530	0.133	0.106
-325.129	800.000	0.070	0.208
-324.114	800.000	0.096	-0.333
-323.099	-200.000	-0.058	0.258
-322.085	-200.000	-0.047	-0.262
-321.070	-98.780	0.177	-0.045
-320.056	-143.335	0.323	0.031
-319.041	505.226	-0.068	-0.156
-318.026	10.949	0.278	0.212
-317.012	-106.718	-0.370	-0.082
-315.997	62.480	-0.084	-0.084
-314.983	-132.579	-0.401	0.051
-313.968	736.964	-0.166	-0.445
-312.953	-180.265	-0.238	-0.005
-311.939	277.825	0.258	0.458
-310.924	-200.000	-0.002	-0.070
-309.910	-200.000	0.007	0.036
-308.895	-114.339	0.143	0.027
-307.880	26.076	-0.198	0.165
-306.866	-12.926	0.096	0.062
-305.851	312.985	-0.091	-0.171
-304.837	-148.702	0.404	0.033
-303.822	-159.781	-0.145	-0.008
-302.807	-61.938	0.436	0.182
-301.793	-190.951	0.017	0.000
-300.778	-28.397	-0.327	0.188
-299.764	8.427	0.237	0.178
-298.749	114.132	0.244	0.296
-297.735	607.431	-0.107	0.267
-296.720	-149.970	0.199	0.015
-295.705	55.578	0.067	-0.065
-294.691	-200.000	-0.052	0.348
-293.676	86.735	0.289	0.318
-292.662	140.382	-0.086	0.113
-291.647	6.317	0.168	-0.124
-290.632	128.078	-0.182	0.231
-289.618	74.526	-0.255	0.267
-288.603	157.571	-0.143	-0.197
-287.589	204.451	-0.017	0.026
-286.574	-200.000	0.016	0.078
-285.559	-13.898	0.140	0.090
-284.545	-38.710	0.063	0.033
-283.530	98.323	0.030	0.034
-282.516	-68.039	0.231	0.090
-281.501	-93.705	-0.218	0.060
-280.486	693.483	0.055	-0.144
-279.472	12.413	0.475	-0.364
-278.457	-157.138	0.063	-0.004
-277.443	152.599	-0.240	0.326
-276.428	-27.996	-0.094	0.054
-275.413	7.918	0.413	0.308
-274.399	-200.000	0.062	-0.275
-273.384	-61.044	-0.206	-0.087
-272.370	-29.760	-0.170	0.096
-271.355	274.944	0.037	0.065
-270.340	85.011	-0.189	0.206
-269.326	-160.387	0.070	0.004
-268.311	26.277	0.137	-0.114
-267.297	-200.000	0.050	0.242
-266.282	450.822	-0.129	0.283
-265.267	157.175	0.224	-0.308
-264.253	129.350	0.080	-0.102
-263.238	105.090	-0.222	-0.261
-262.224	268.191	-0.093	0.162
-261.209	-200.000	0.010	0.071
-260.195	-200.000	-0.019	-0.262
-259.180	193.096	-0.152	-0.229
-258.165	79.887	-0.120	0.128
-257.151	-200.000	-0.009	-0.070
-256.136	-146.590	-0.334	0.029
-255.122	266.501	0.044	0.076
-254.107	-29.508	-0.110	-0.062
-253.092	142.813	0.050	-0.066
-252.078	-200.000	0.015	0.100
-251.063	800.000	-0.031	-0.119
-250.049	-139.449	0.179	0.019
-249.034	-158.552	0.095	-0.005
-248.019	-81.376	-0.186	0.061
-247.005	-191.432	-0.204	-0.002
-245.990	124.425	-0.186	0.233
-244.976	402.166	-0.102	-0.214
-243.961	549.368	0.072	-0.171
-242.946	244.258	-0.067	-0.113
-241.932	-116.587	-0.136	0.025
-240.917	93.444	-0.072	0.081
-239.903	570.919	0.190	-0.460
-238.888	484.201	-0.056	-0.127
-237.873	14.145	0.087	-0.067
-236.859	-200.000	0.012	-0.076
-235.844	-200.000	-0.032	-0.235
-234.830	-170.265	0.035	0.001
-233.815	139.134	-0.100	0.131
-232.800	274.601	0.122	-0.215
-231.786	-106.447	-0.167	0.037
-230.771	675.363	0.069	0.178
-229.757	706.335	0.098	0.258
-228.742	-200.000	-0.018	-0.308
-227.727	733.997	-0.095	-0.252
-226.713	800.000	0.033	0.117
-225.698	-176.071	-0.359	-0.009
-224.684	171.493	-0.177	0.252
-223.669	24.563	0.135	0.111
-222.655	-14.220	-0.180	-0.115
-221.640	97.534	0.347	0.396
-220.625	188.359	0.077	-0.115
-219.611	-76.412	0.233	-0.081
-218.596	-71.306	0.207	0.077
-217.582	267.064	0.155	0.269
-216.567	504.012	-0.113	-0.260
-215.552	-72.197	0.121	-0.045
-214.538	126.941	-0.049	-0.061
-213.523	398.068	0.062	0.128
-212.509	325.569	0.075	-0.142
-211.494	800.000	0.025	0.068
-210.479	57.418	-0.292	0.283
-209.465	-12.933	-0.286	0.185
-208.450	-153.058	0.342	0.024
-207.436	-139.270	-0.470	-0.050
-206.421	11.574	0.194	-0.148
-205.406	800.000	0.081	-0.277
-204.392	188.401	-0.075	0.112
-203.377	-200.000	0.003	-0.092
-202.363	800.000	0.021	0.093
-201.348	315.717	0.074	-0.139
-200.333	-80.431	0.258	0.085
-199.319	37.610	-0.275	0.242
-198.304	-200.000	0.009	0.275
-197.290	-39.642	-0.155	0.080
-196.275	432.177	-0.122	0.263
-195.260	-51.383	0.158	-0.073
-194.246	-8.239	-0.130	0.087
-193.231	-117.370	0.210	0.038
-192.217	321.646	0.077	-0.146
-191.202	-73.599	-0.164	-0.059
-190.187	209.468	0.057	0.089
-189.173	295.254	0.167	0.303
-188.158	-167.795	0.223	-0.009
-187.144	-133.911	-0.259	0.032
-186.129	-10.247	-0.308	-0.203
-185.114	800.000	0.089	-0.304
-184.100	408.223	0.134	-0.281
-183.085	-2.009	0.125	-0.087
-182.071	-162.452	-0.079	0.004
-181.056	-174.626	0.118	-0.003
-180.042	121.306	0.077	0.095
-179.027	189.099	-0.102	0.151
-178.012	-44.144	0.413	0.205
-176.998	1.893	0.109	0.078
-175.983	755.016	0.066	-0.176
-174.969	-33.090	-0.136	-0.075
-173.954	800.000	0.090	0.377
-172.939	-136.311	0.106	0.012
-171.925	-200.000	0.002	0.110
-170.910	-124.170	-0.258	-0.040
-169.896	-120.006	-0.122	-0.021
-168.881	135.152	-0.033	0.042
-167.866	617.273	-0.107	-0.265
-166.852	-88.772	-0.079	-0.023
-165.837	667.061	0.118	0.303
-164.823	-200.000	0.021	-0.139
-163.808	-72.060	-0.412	0.152
-162.793	63.088	-0.106	0.105
-161.779	-200.000	0.001	-0.069
-160.764	165.644	0.049	0.069
-159.750	800.000	-0.060	-0.190
-158.735	-35.796	-0.140	0.075
-157.720	-74.919	0.121	-0.043
-156.706	-200.000	0.050	0.258
-155.691	-97.364	0.355	-0.092
-154.677	-200.000	-0.032	0.160
-153.662	-200.000	0.015	0.407
-152.647	-91.069	-0.269	-0.076
-151.633	-113.804	-0.201	-0.039
-150.618	155.129	-0.073	0.100
-149.604	144.939	-0.050	0.067
-148.589	-29.810	0.103	-0.058
-147.574	-89.101	-0.310	0.091
-146.560	-11.310	-0.246	0.160
-145.545	-200.000	0.071	0.365
-144.531	-3.177	-0.115	-0.079
-143.516	133.091	-0.109	-0.140
-142.502	-200.000	-0.031	-0.304
-141.487	-61.129	0.140	-0.058
-140.472	-9.149	-0.158	0.104
-139.458	-94.502	-0.106	0.029
-138.443	-139.533	-0.209	0.022
-137.429	645.093	-0.091	-0.230
-136.414	-200.000	0.024	-0.180
-135.399	-200.000	0.003	0.124
-134.385	-200.000	0.024	0.257
-133.370	-200.000	-0.005	-0.226
-132.356	800.000	0.059	-0.198
-131.341	231.317	0.027	-0.044
-130.326	113.235	-0.111	-0.134
-129.312	431.550	-0.217	0.464
-128.297	-76.422	-0.203	0.071
-127.283	43.497	0.079	0.071
-126.268	-200.000	-0.038	-0.323
-125.253	158.867	-0.333	-0.458
-124.239	-200.000	-0.122	0.000
-123.224	-42.013	-0.036	0.018
-122.210	-99.374	0.317	0.079
-121.195	454.668	0.048	-0.105
