DTS Sentinel unit serial number:	SN413079Multiplexer serial number:	ORYXHardware model number:	OX4-SRSoftware version number:	ORYX F/W v4.00 Oryx Data Collector v3.7.2.0data status	okinstallation	princeton_trtdifferential loss correction	single-endedforward channel	channel 4reverse channel	N/Adate	2019/09/14time	04:45:34forward acquisition time	60.00reverse acquisition time	0.00gamma	496.2192k internal	0.2321k external	0.2321temperature offset calibration	1.0131default loss term (dB/km)	0.3790temperature slope calibration	1.0000multiplexer offset coefficient	1.0000multiplexer slope coefficient	1.0000fibre end	0.00T internal ref (°C)	26.81T ext. ref 1 (°C)	3.36T ext. ref 2 (°C)	21.97length (m)	temperature (°C)	Stokes	anti-Stokes-747.200	-40.036	0.133	0.070
-746.185	-30.125	-0.717	0.412
-745.171	-40.771	0.128	-0.067
-744.156	199.258	-0.157	0.244
-743.142	271.735	-0.043	0.076
-742.127	232.104	-0.178	0.296
-741.112	436.265	0.174	-0.383
-740.098	-38.017	-0.052	-0.028
-739.083	-59.194	-0.343	0.149
-738.069	-99.241	0.347	0.089
-737.054	-11.625	0.164	-0.109
-736.039	146.670	0.127	0.172
-735.025	-181.943	-0.162	-0.003
-734.010	-14.837	-0.253	0.164
-732.996	66.743	0.140	-0.144
-731.981	85.867	-0.136	-0.151
-730.966	-130.237	-0.107	0.015
-729.952	-94.676	0.283	-0.078
-728.937	100.787	-0.311	-0.365
-727.923	423.694	-0.118	-0.257
-726.908	82.906	-0.207	-0.227
-725.894	-14.415	-0.106	0.069
-724.879	-10.156	-0.083	0.055
-723.864	232.127	-0.178	-0.295
-722.850	763.769	-0.071	-0.194
-721.835	-148.802	-0.112	-0.009
-720.821	-158.399	0.053	0.003
-719.806	132.978	-0.098	0.127
-718.791	204.858	-0.136	0.214
-717.777	-16.557	-0.023	0.014
-716.762	326.070	0.108	-0.208
-715.748	375.119	-0.208	-0.428
-714.733	-126.632	-0.171	0.026
-713.718	86.006	-0.306	0.340
-712.704	27.589	-0.130	-0.110
-711.689	305.606	-0.097	0.182
-710.675	105.895	0.023	-0.028
-709.660	800.000	-0.064	-0.221
-708.645	-175.312	-0.368	-0.010
-707.631	-14.560	0.171	0.111
-706.616	434.919	-0.073	-0.160
-705.602	800.000	0.014	0.041
-704.587	-166.644	-0.255	0.011
-703.572	-18.977	-0.068	0.042
-702.558	-61.699	0.204	0.086
-701.543	800.000	-0.033	-0.106
-700.529	495.267	-0.077	-0.179
-699.514	-200.000	0.095	-0.431
-698.499	-131.064	-0.122	-0.016
-697.485	-124.118	0.562	0.089
-696.470	83.242	0.073	0.080
-695.456	80.111	0.188	0.204
-694.441	573.577	-0.083	-0.203
-693.426	-168.486	-0.235	0.009
-692.412	-43.774	0.173	0.088
-691.397	-65.409	0.392	0.159
-690.383	307.565	-0.159	0.300
-689.368	105.118	0.201	-0.240
-688.354	761.496	0.077	0.210
-687.339	-71.838	-0.344	-0.129
-686.324	-168.209	-0.084	0.003
-685.310	-200.000	-0.083	0.000
-684.295	398.433	-0.006	-0.013
-683.281	-89.579	-0.157	0.046
-682.266	-197.233	-0.163	0.001
-681.251	800.000	-0.143	-0.484
-680.237	74.182	-0.150	-0.158
-679.222	767.286	-0.161	-0.441
-678.208	401.221	0.148	-0.313
-677.193	-200.000	0.023	0.141
-676.178	-102.621	0.252	-0.061
-675.164	103.623	-0.128	-0.151
-674.149	-63.324	-0.390	-0.162
-673.135	800.000	-0.110	-0.393
-672.120	327.738	0.251	-0.485
-671.105	272.555	-0.066	-0.117
-670.091	80.758	0.131	0.142
-669.076	-200.000	0.012	0.150
-668.062	-74.169	0.134	-0.049
-667.047	107.098	-0.093	-0.111
-666.032	-200.000	-0.037	0.291
-665.018	-168.593	0.117	0.004
-664.003	-154.523	-0.280	0.019
-662.989	-137.702	0.012	-0.001
-661.974	50.205	0.081	-0.077
-660.959	-200.000	0.004	0.134
-659.945	800.000	0.063	-0.200
-658.930	800.000	0.097	-0.382
-657.916	6.130	-0.061	-0.045
-656.901	800.000	-0.068	-0.251
-655.886	800.000	0.021	-0.067
-654.872	800.000	-0.097	-0.335
-653.857	-200.000	0.028	-0.182
-652.843	-51.413	-0.093	0.044
-651.828	-23.794	-0.257	0.155
-650.814	-11.250	0.266	-0.177
-649.799	-109.139	-0.192	0.041
-648.784	634.183	0.053	0.136
-647.770	-125.285	-0.403	-0.062
-646.755	17.889	0.134	0.107
-645.741	718.667	0.037	0.100
-644.726	-189.983	0.382	0.004
-643.711	199.479	-0.116	0.180
-642.697	-17.553	0.169	0.107
-641.682	-103.376	0.239	0.057
-640.668	-200.000	0.154	0.000
-639.653	-100.645	0.231	-0.058
-638.638	-121.769	-0.420	0.070
-637.624	53.701	-0.065	-0.063
-636.609	17.800	-0.063	-0.050
-635.595	62.331	-0.104	0.104
-634.580	-200.000	-0.035	-0.241
-633.565	-200.000	0.010	-0.164
-632.551	-51.413	-0.329	-0.155
-631.536	19.473	0.225	-0.182
-630.522	439.950	-0.115	0.253
-629.507	48.085	-0.092	0.086
-628.492	56.816	-0.191	0.187
-627.478	-35.263	0.171	0.094
-626.463	122.900	0.062	-0.078
-625.449	-144.590	-0.088	0.008
-624.434	76.607	0.061	-0.065
-623.419	-66.026	0.222	-0.089
-622.405	-62.048	-0.205	0.086
-621.390	-107.580	0.095	-0.021
-620.376	-89.308	0.340	0.101
-619.361	-200.000	-0.011	0.065
-618.346	48.738	-0.209	-0.198
-617.332	114.318	-0.107	-0.131
-616.317	52.998	-0.154	-0.148
-615.303	149.099	-0.112	-0.153
-614.288	68.247	0.112	-0.115
-613.273	-200.000	-0.072	-0.338
-612.259	155.822	-0.128	0.177
-611.244	2.114	-0.070	0.051
-610.230	-13.532	0.091	-0.059
-609.215	553.248	0.042	-0.101
-608.201	96.602	0.304	-0.351
-607.186	-20.581	-0.335	0.207
-606.171	800.000	-0.025	-0.096
-605.157	-102.799	-0.347	0.083
-604.142	-99.801	-0.286	-0.072
-603.128	-81.066	0.084	0.028
-602.113	-98.758	-0.328	0.084
-601.098	17.174	0.022	0.018
-600.084	615.191	-0.063	-0.158
-599.069	800.000	0.029	-0.105
-598.055	-51.126	0.235	-0.111
-597.040	17.803	-0.233	0.187
-596.025	-200.000	0.024	-0.226
-595.011	-127.393	-0.233	-0.034
-593.996	156.646	-0.189	0.263
-592.982	-72.117	0.203	-0.076
-591.967	-200.000	-0.015	-0.402
-590.952	356.884	-0.132	-0.265
-589.938	144.839	-0.287	0.385
-588.923	-200.000	0.011	0.318
-587.909	-200.000	-0.017	0.200
-586.894	-58.033	0.157	-0.069
-585.879	44.470	-0.219	-0.202
-584.865	145.227	0.201	0.270
-583.850	-200.000	0.026	0.328
-582.836	-200.000	-0.012	-0.161
-581.821	-90.826	-0.098	0.028
-580.806	-123.563	-0.275	0.044
-579.792	-1.873	-0.156	0.110
-578.777	415.658	0.103	-0.221
-577.763	-200.000	-0.012	0.088
-576.748	-66.364	0.127	-0.051
-575.733	483.271	-0.078	-0.177
-574.719	163.714	0.085	-0.121
-573.704	166.220	0.018	-0.025
-572.690	800.000	-0.044	-0.187
-571.675	-200.000	-0.006	0.323
-570.661	-200.000	0.042	-0.185
-569.646	116.782	-0.233	0.287
-568.631	-200.000	0.027	0.178
-567.617	-37.237	-0.257	-0.138
-566.602	800.000	0.028	-0.107
-565.588	-150.747	-0.283	-0.022
-564.573	-5.352	0.219	-0.151
-563.558	-48.502	0.203	-0.098
-562.544	247.949	0.152	0.259
-561.529	33.107	-0.284	0.247
-560.515	800.000	-0.077	-0.223
-559.500	349.736	0.037	-0.074
-558.485	-121.113	0.365	0.061
-557.471	21.569	-0.179	0.146
-556.456	-200.000	0.014	-0.248
-555.442	42.558	0.156	-0.142
-554.427	267.841	0.223	-0.392
-553.412	-54.861	0.165	-0.075
-552.398	0.190	0.165	-0.118
-551.383	72.442	0.113	0.118
-550.369	-98.671	-0.141	-0.036
-549.354	-148.474	-0.141	-0.012
-548.339	640.221	0.072	-0.183
-547.325	-200.000	0.021	0.114
-546.310	-118.844	0.202	0.036
-545.296	300.629	0.069	0.127
-544.281	-83.471	-0.126	-0.040
-543.266	800.000	-0.076	-0.308
-542.252	-200.000	0.031	-0.170
-541.237	-170.779	-0.293	0.010
-540.223	-121.884	-0.111	0.018
-539.208	-200.000	0.002	-0.111
-538.193	7.490	0.113	0.085
-537.179	170.885	0.134	0.193
-536.164	-144.391	-0.225	0.021
-535.150	45.045	-0.431	-0.398
-534.135	-98.076	0.244	-0.063
-533.121	60.116	-0.232	-0.230
-532.106	-12.169	-0.115	-0.075
-531.091	533.634	0.098	0.232
-530.077	-41.716	0.257	0.132
-529.062	-56.369	0.173	0.077
-528.048	0.472	0.109	-0.078
-527.033	-155.175	-0.322	0.021
-526.018	-200.000	0.298	-0.001
-525.004	-120.900	0.288	0.049
-523.989	104.343	-0.135	-0.159
-522.975	9.924	-0.051	-0.039
-521.960	-37.789	-0.279	-0.149
-520.945	57.420	-0.263	-0.258
-519.931	-72.939	-0.105	0.039
-518.916	-32.674	0.248	-0.138
-517.902	800.000	0.012	-0.053
-516.887	-77.130	0.126	0.044
-515.872	-102.240	-0.095	-0.023
-514.858	-127.844	-0.105	0.015
-513.843	195.701	0.201	-0.306
-512.829	207.859	0.248	-0.387
-511.814	61.757	-0.152	0.152
-510.799	-66.316	-0.098	0.039
-509.785	245.166	-0.146	0.247
-508.770	5.623	-0.164	0.121
-507.756	-117.309	-0.119	0.022
-506.741	-200.000	0.006	-0.327
-505.726	57.281	-0.123	-0.120
-504.712	196.311	0.110	0.168
-503.697	-149.564	-0.397	-0.031
-502.683	132.881	-0.121	0.157
-501.668	-200.000	-0.031	0.225
-500.653	35.959	-0.232	-0.204
-499.639	-169.009	-0.166	-0.006
-498.624	-200.000	0.014	-0.062
-497.610	60.416	0.169	0.167
-496.595	-173.603	-0.149	0.004
-495.581	-43.291	0.075	-0.038
-494.566	-165.020	0.432	-0.019
-493.551	-200.000	-0.049	0.345
-492.537	144.358	0.171	0.228
-491.522	800.000	-0.055	0.218
-490.508	-60.710	-0.148	0.063
-489.493	89.030	0.123	0.137
-488.478	302.903	-0.027	-0.050
-487.464	66.700	0.094	-0.096
-486.449	102.193	-0.020	0.024
-485.435	-35.986	-0.195	-0.106
-484.420	73.170	0.189	0.198
-483.405	33.532	0.212	0.185
-482.391	800.000	0.054	0.155
-481.376	800.000	-0.039	0.127
-480.362	800.000	-0.014	-0.048
-479.347	800.000	0.054	0.169
-478.332	150.345	0.152	0.206
-477.318	800.000	-0.019	-0.060
-476.303	-100.686	-0.401	-0.099
-475.289	-200.000	-0.033	-0.216
-474.274	-140.463	0.271	0.028
-473.259	-48.078	-0.162	0.078
-472.245	36.715	0.131	0.116
-471.230	-49.744	0.110	-0.052
-470.216	368.241	-0.008	-0.016
-469.201	-42.562	0.154	-0.079
-468.186	-34.782	0.122	0.066
-467.172	304.648	0.093	0.173
-466.157	90.690	0.079	-0.088
-465.143	-102.634	0.437	0.104
-464.128	-17.063	0.250	-0.158
-463.113	800.000	0.078	0.227
-462.099	53.277	-0.300	-0.287
-461.084	-93.061	0.060	0.017
-460.070	22.688	-0.211	-0.173
-459.055	108.970	0.194	-0.232
-458.040	260.105	-0.074	0.127
-457.026	-128.119	-0.306	-0.044
-456.011	-200.000	-0.034	0.185
-454.997	45.626	0.155	0.143
-453.982	124.650	-0.132	-0.166
-452.968	800.000	-0.053	-0.208
-451.953	-152.881	0.132	0.009
-450.938	-34.152	0.239	-0.131
-449.924	-56.458	-0.392	-0.174
-448.909	18.547	-0.274	-0.219
-447.895	-69.251	0.285	0.109
-446.880	-1.810	0.312	-0.219
-445.865	17.380	-0.301	-0.239
-444.851	-200.000	-0.020	-0.218
-443.836	126.312	-0.120	0.152
-442.822	212.486	0.132	-0.208
-441.807	105.966	0.066	-0.079
-440.792	-3.307	-0.076	0.053
-439.778	-200.000	0.021	0.168
-438.763	106.560	0.127	0.150
-437.749	160.327	-0.093	-0.129
-436.734	800.000	-0.092	-0.396
-435.719	-83.094	0.437	-0.140
-434.705	-139.943	0.249	0.026
-433.690	72.996	0.200	-0.209
-432.676	-33.392	-0.288	0.159
-431.661	117.434	-0.122	-0.150
-430.646	-50.619	0.376	-0.177
-429.632	45.399	-0.201	0.185
-428.617	-70.754	0.015	-0.006
-427.603	-200.000	-0.057	0.286
-426.588	-200.000	-0.020	-0.295
-425.573	242.482	-0.141	-0.236
-424.559	-200.000	0.004	-0.285
-423.544	-40.897	-0.329	-0.170
-422.530	678.963	-0.074	-0.193
-421.515	-152.350	-0.415	0.030
-420.500	117.387	-0.146	-0.179
-419.486	-74.717	-0.032	0.012
-418.471	-20.541	0.326	0.200
-417.457	-67.089	-0.273	0.107
-416.442	-55.252	-0.044	-0.020
-415.428	-200.000	0.270	-0.001
-414.413	507.968	0.205	0.476
-413.398	-17.646	0.208	-0.130
-412.384	9.961	-0.011	0.008
-411.369	711.599	-0.137	0.363
-410.355	-200.000	0.029	0.281
-409.340	800.000	-0.067	-0.214
-408.325	197.802	-0.080	-0.121
-407.311	800.000	-0.049	0.149
-406.296	-200.000	-0.033	-0.324
-405.282	123.918	0.081	-0.101
-404.267	11.070	0.018	0.014
-403.252	644.945	0.071	0.180
-402.238	2.744	-0.371	-0.269
-401.223	168.772	0.183	-0.260
-400.209	-97.705	0.120	0.031
-399.194	163.261	-0.127	-0.178
-398.179	-200.000	-0.022	0.256
-397.165	-200.000	-0.090	-0.446
-396.150	2.811	-0.185	-0.134
-395.136	-13.503	-0.223	0.144
-394.121	118.051	-0.240	0.295
-393.106	800.000	0.075	0.225
-392.092	679.417	0.106	-0.274
-391.077	-76.053	0.254	-0.089
-390.063	15.885	-0.078	0.061
-389.048	444.211	0.149	0.326
-388.033	800.000	0.030	-0.094
-387.019	-200.000	0.050	-0.423
-386.004	-200.000	-0.085	0.383
-384.990	231.728	0.141	-0.231
-383.975	343.345	0.253	-0.494
-382.960	-102.406	0.112	-0.027
-381.946	-144.425	-0.394	-0.036
-380.931	66.198	0.264	0.267
-379.917	-200.000	0.015	0.108
-378.902	-50.461	0.192	0.090
-377.888	-27.071	0.115	0.067
-376.873	742.463	0.119	-0.319
-375.858	-66.134	-0.215	0.086
-374.844	-47.190	0.198	-0.096
-373.829	-64.632	-0.297	-0.120
-372.815	-69.397	-0.255	0.098
-371.800	-25.934	-0.304	-0.178
-370.785	-122.747	0.397	0.064
-369.771	528.238	0.043	-0.102
-368.756	-55.712	0.300	0.134
-367.742	-155.139	0.355	-0.023
-366.727	-200.000	0.002	0.047
-365.712	205.570	0.085	0.132
-364.698	195.336	0.137	-0.208
-363.683	78.475	-0.158	-0.168
-362.669	-58.880	-0.307	-0.132
-361.654	-95.022	0.247	-0.066
-360.639	800.000	0.065	-0.270
-359.625	-200.000	-0.036	-0.306
-358.610	800.000	-0.031	-0.115
-357.596	-178.101	-0.409	0.010
-356.581	386.707	0.093	-0.192
-355.566	-118.678	-0.261	0.046
-354.552	272.756	-0.114	0.201
-353.537	-108.569	-0.212	0.045
-352.523	-200.000	0.018	0.383
-351.508	49.976	0.110	0.103
-350.493	-59.613	-0.167	0.071
-349.479	-2.097	-0.220	-0.154
-348.464	-158.182	-0.226	-0.013
-347.450	-200.000	0.024	0.157
-346.435	-128.398	0.129	-0.018
-345.420	-200.000	0.003	-0.121
-344.406	-72.967	0.442	-0.162
-343.391	303.900	-0.187	0.345
-342.377	-64.831	-0.252	0.101
-341.362	-61.398	0.170	0.071
-340.348	800.000	0.080	0.318
-339.333	-156.814	0.310	-0.019
-338.318	-172.160	0.130	0.004
-337.304	122.584	0.124	-0.154
-336.289	-96.027	0.095	0.025
-335.275	17.725	0.176	0.139
-334.260	15.463	-0.114	0.089
-333.245	-200.000	0.016	-0.140
-332.231	29.022	-0.100	0.085
-331.216	70.319	-0.082	0.085
-330.202	-98.460	0.377	0.096
-329.187	-146.990	0.130	-0.011
-328.172	-59.137	0.311	0.133
-327.158	800.000	0.030	-0.119
-326.143	173.804	0.104	0.149
-325.129	-122.781	0.231	-0.037
-324.114	373.374	-0.096	0.194
-323.099	-154.772	0.241	0.016
-322.085	2.452	0.259	-0.186
-321.070	-165.625	0.127	-0.005
-320.056	-200.000	-0.034	-0.277
-319.041	82.554	-0.124	0.134
-318.026	-74.962	-0.209	-0.074
-317.012	-131.946	0.159	0.021
-315.997	661.193	0.152	0.388
-314.983	6.803	-0.103	0.076
-313.968	-109.104	0.123	0.026
-312.953	-200.000	-0.013	0.111
-311.939	14.208	0.385	0.298
-310.924	99.654	-0.069	0.080
-309.910	-53.126	0.214	-0.098
-308.895	461.609	-0.113	0.250
-307.880	-200.000	0.031	0.137
-306.866	-181.184	0.196	0.004
-305.851	-77.256	-0.166	-0.057
-304.837	-162.731	0.128	0.006
-303.822	800.000	0.035	0.138
-302.807	-115.445	0.128	0.024
-301.793	-180.673	-0.254	-0.005
-300.778	166.689	0.194	0.273
-299.764	158.330	-0.129	-0.178
-298.749	152.472	-0.156	-0.212
-297.735	-200.000	0.047	-0.303
-296.720	-36.571	-0.191	-0.102
-295.705	556.511	0.042	0.100
-294.691	-200.000	-0.025	0.236
-293.676	169.504	0.275	-0.390
-292.662	-200.000	0.026	0.139
-291.647	-150.299	0.085	-0.006
-290.632	-60.811	-0.447	0.188
-289.618	800.000	0.047	0.182
-288.603	132.186	-0.165	-0.211
-287.589	340.706	-0.071	0.138
-286.574	-90.119	0.375	0.108
-285.559	133.647	-0.261	-0.336
-284.545	-22.484	0.044	0.026
-283.530	-63.527	-0.286	0.117
-282.516	-20.264	0.322	0.197
-281.501	800.000	-0.119	-0.349
-280.486	-5.889	-0.080	-0.054
-279.472	-200.000	-0.065	0.432
-278.457	800.000	-0.113	0.385
-277.443	-42.789	0.272	-0.137
-276.428	174.355	-0.230	-0.330
-275.413	-70.850	0.172	-0.064
-274.399	-162.332	0.051	0.003
-273.384	189.501	0.083	-0.123
-272.370	-200.000	0.002	0.024
-271.355	-5.739	-0.217	0.148
-270.340	-51.788	-0.140	0.065
-269.326	-200.000	0.020	-0.314
-268.311	-92.297	0.220	-0.062
-267.297	48.663	0.123	0.114
-266.282	-75.241	0.331	0.117
-265.267	-200.000	0.071	0.342
-264.253	-200.000	0.009	0.082
-263.238	-200.000	0.034	0.196
-262.224	372.703	0.041	0.083
-261.209	42.042	-0.087	0.079
-260.195	800.000	0.054	-0.226
-259.180	40.988	0.153	0.137
-258.165	-50.316	0.127	-0.059
-257.151	35.789	-0.285	-0.248
-256.136	-76.359	-0.133	0.047
-255.122	349.355	0.040	-0.079
-254.107	-200.000	0.013	0.253
-253.092	-91.907	-0.346	0.097
-252.078	-200.000	-0.011	-0.121
-251.063	288.026	0.034	0.061
-250.049	-140.716	-0.256	0.026
-249.034	800.000	0.063	0.252
-248.019	-67.933	-0.181	0.070
-247.005	382.470	0.143	-0.292
-245.990	-77.841	-0.072	-0.025
-244.976	-140.755	0.153	-0.016
-243.961	58.713	0.042	-0.041
-242.946	132.206	-0.204	-0.260
-241.932	169.946	-0.123	-0.174
-240.917	-200.000	-0.009	0.278
-239.903	-45.587	-0.241	0.118
-238.888	122.810	-0.164	0.204
-237.873	-33.748	0.199	-0.109
-236.859	-196.375	-0.084	-0.001
-235.844	-48.385	-0.235	-0.112
-234.830	-107.902	0.324	-0.070
-233.815	-86.842	-0.452	0.137
-232.800	800.000	-0.033	0.111
-231.786	215.449	0.116	-0.182
-230.771	800.000	0.070	-0.193
-229.757	-12.823	-0.208	0.134
-228.742	-88.052	0.336	0.100
-227.727	33.590	-0.220	-0.190
-226.713	-35.310	-0.198	0.106
-225.698	142.097	-0.187	-0.245
-224.684	-4.042	-0.128	0.088
-223.669	-52.208	0.312	-0.143
-222.655	-200.000	0.049	-0.387
-221.640	-168.816	-0.016	-0.001
-220.625	-200.000	-0.007	0.117
-219.611	-102.791	-0.376	-0.089
-218.596	284.250	-0.080	0.142
-217.582	22.822	-0.041	0.033
-216.567	315.087	0.164	-0.305
-215.552	104.816	0.098	-0.114
-214.538	460.673	0.044	0.098
-213.523	-51.344	0.073	-0.034
-212.509	-53.045	0.098	-0.045
-211.494	-83.907	0.177	0.056
-210.479	-103.794	0.130	-0.030
-209.465	81.724	-0.277	0.297
-208.450	800.000	0.055	0.193
-207.436	489.803	0.269	0.608
-206.421	225.458	0.225	0.361
-205.406	605.308	-0.128	0.316
-204.392	526.306	-0.105	-0.245
-203.377	-4.506	0.120	0.082
-202.363	-59.569	0.255	-0.108
-201.348	-166.254	-0.085	0.004
-200.333	-154.989	-0.260	0.017
-199.319	541.115	0.034	-0.080
-198.304	-93.335	-0.096	-0.026
-197.290	615.746	-0.205	0.508
-196.275	459.645	0.062	0.137
-195.260	726.239	0.127	0.335
-194.246	-136.432	0.094	0.011
-193.231	-165.828	-0.090	-0.004
-192.217	46.860	0.179	-0.165
-191.202	-163.778	-0.246	0.011
-190.187	402.443	-0.118	-0.245
-189.173	800.000	-0.066	0.215
-188.158	-10.463	0.187	0.123
-187.144	51.269	0.313	0.294
-186.129	-108.514	-0.188	0.040
-185.114	800.000	-0.076	-0.281
-184.100	-170.401	0.296	0.010
-183.085	-49.241	0.097	0.046
-182.071	231.136	-0.182	-0.294
-181.056	-200.000	0.030	0.185
-180.042	535.063	0.067	0.158
-179.027	83.880	0.065	0.070
-178.012	-135.586	-0.374	-0.044
-176.998	-200.000	0.016	-0.269
-175.983	-200.000	-0.075	0.521
-174.969	-69.386	0.340	-0.129
-173.954	800.000	-0.045	-0.190
-172.939	-114.896	0.141	-0.027
-171.925	-200.000	-0.032	0.154
-170.910	-45.498	-0.222	-0.108
-169.896	301.007	0.051	0.093
-168.881	599.427	-0.126	0.309
-167.866	-80.841	0.248	0.081
-166.852	-200.000	0.033	0.208
-165.837	-200.000	0.016	0.113
-164.823	371.176	0.108	-0.216
-163.808	512.644	-0.079	-0.183
-162.793	-55.934	0.276	0.122
-161.779	-33.762	0.302	0.164
-160.764	-32.169	-0.118	-0.065
-159.750	-32.278	0.121	0.067
-158.735	800.000	-0.095	0.295
-157.720	208.989	0.107	-0.166
-156.706	-200.000	0.020	0.104
-155.691	443.813	-0.030	0.065
-154.677	-46.035	0.257	-0.125
-153.662	-87.185	0.141	-0.042
-152.647	282.716	0.018	0.032
-151.633	-17.830	-0.330	0.204
-150.618	-110.387	-0.120	-0.025
-149.604	227.565	0.126	0.203
-148.589	-72.834	0.312	0.113
-147.574	-85.741	-0.551	0.169
-146.560	-96.614	-0.114	0.030
-145.545	652.677	0.024	-0.060
-144.531	-200.000	-0.036	-0.303
-143.516	800.000	0.104	-0.373
-142.502	39.033	0.256	-0.226
-141.487	-200.000	-0.022	-0.133
-140.472	-190.663	0.380	0.004
-139.458	-58.709	0.079	-0.034
-138.443	-67.779	-0.295	-0.114
-137.429	800.000	-0.060	-0.178
-136.414	185.617	-0.059	0.087
-135.399	-51.132	0.051	-0.023
-134.385	800.000	-0.030	-0.130
-133.370	-106.249	0.264	0.058
-132.356	-180.497	-0.188	-0.004
-131.341	800.000	-0.032	0.124
-130.326	-200.000	0.004	-0.229
-129.312	-110.505	0.182	-0.037
-128.297	-200.000	0.030	-0.358
-127.283	155.205	-0.084	0.114
-126.268	54.401	0.052	-0.049
-125.253	-200.000	-0.010	0.077
-124.239	-126.479	-0.158	0.023
-123.224	682.750	-0.058	-0.149
-122.210	120.615	0.058	0.071
-121.195	-129.854	0.246	0.033
