DTS Sentinel unit serial number:	SN413079Multiplexer serial number:	ORYXHardware model number:	OX4-SRSoftware version number:	ORYX F/W v4.00 Oryx Data Collector v3.7.2.0data status	okinstallation	princeton_trtdifferential loss correction	single-endedforward channel	channel 4reverse channel	N/Adate	2019/09/14time	08:29:34forward acquisition time	60.00reverse acquisition time	0.00gamma	496.2192k internal	0.2313k external	0.2313temperature offset calibration	1.0133default loss term (dB/km)	0.3790temperature slope calibration	1.0000multiplexer offset coefficient	1.0000multiplexer slope coefficient	1.0000fibre end	0.00T internal ref (°C)	28.37T ext. ref 1 (°C)	3.63T ext. ref 2 (°C)	25.86length (m)	temperature (°C)	Stokes	anti-Stokes-747.200	-200.000	-0.018	0.298
-746.185	-23.568	0.317	0.193
-745.171	554.280	0.062	0.151
-744.156	8.442	0.245	0.187
-743.142	-99.504	-0.215	-0.055
-742.127	-200.000	-0.040	0.332
-741.112	89.076	-0.143	0.162
-740.098	-119.305	0.279	0.049
-739.083	-156.621	-0.199	0.012
-738.069	-51.602	-0.174	0.083
-737.054	800.000	0.020	-0.067
-736.039	-200.000	0.022	-0.154
-735.025	800.000	0.068	0.203
-734.010	800.000	0.056	-0.211
-732.996	555.168	-0.116	0.284
-731.981	-98.135	-0.104	0.027
-730.966	-65.869	-0.475	-0.192
-729.952	-54.415	-0.361	-0.166
-728.937	-200.000	-0.021	-0.096
-727.923	23.242	-0.120	-0.100
-726.908	-58.161	0.158	-0.070
-725.894	-200.000	-0.010	-0.068
-724.879	-200.000	0.048	0.286
-723.864	573.815	0.111	0.274
-722.850	139.673	-0.178	-0.238
-721.835	193.549	0.092	-0.142
-720.821	362.296	-0.138	-0.280
-719.806	133.075	0.146	0.191
-718.791	-26.450	0.232	0.138
-717.777	800.000	0.068	-0.261
-716.762	-200.000	-0.021	-0.194
-715.748	-160.584	-0.423	-0.023
-714.733	343.489	-0.054	0.108
-713.718	-115.018	-0.186	0.036
-712.704	-66.141	0.120	-0.048
-711.689	-60.454	-0.410	0.177
-710.675	217.163	0.375	0.605
-709.660	-137.134	-0.282	0.033
-708.645	-200.000	0.017	0.207
-707.631	-61.172	0.214	-0.091
-706.616	-200.000	0.102	-0.534
-705.602	336.308	-0.149	-0.293
-704.587	-67.991	-0.127	-0.050
-703.572	-70.811	0.216	-0.083
-702.558	35.041	-0.044	-0.039
-701.543	-167.559	-0.148	-0.006
-700.529	-200.000	0.060	-0.288
-699.514	-7.441	0.262	0.180
-698.499	436.797	-0.102	0.224
-697.485	-15.684	-0.095	0.061
-696.470	114.444	0.045	0.055
-695.456	-197.204	0.270	0.002
-694.441	-57.700	-0.385	-0.171
-693.426	8.932	0.336	0.257
-692.412	-147.036	0.182	-0.016
-691.397	800.000	0.121	0.366
-690.383	352.787	0.075	-0.150
-689.368	57.870	0.257	-0.255
-688.354	-200.000	0.054	-0.249
-687.339	-200.000	0.022	-0.137
-686.324	-200.000	-0.040	-0.230
-685.310	800.000	0.043	0.132
-684.295	-41.710	0.232	0.121
-683.281	-200.000	-0.077	0.390
-682.266	-68.576	-0.326	-0.128
-681.251	264.472	0.065	0.114
-680.237	393.908	-0.067	-0.140
-679.222	19.568	-0.141	-0.114
-678.208	-200.000	-0.063	-0.326
-677.193	-131.639	0.063	-0.008
-676.178	23.973	0.232	-0.194
-675.164	47.911	-0.176	-0.167
-674.149	-110.197	-0.308	0.065
-673.135	35.361	0.082	0.073
-672.120	-106.839	-0.159	-0.036
-671.105	0.708	0.065	0.047
-670.091	-200.000	0.017	-0.086
-669.076	259.399	-0.093	-0.163
-668.062	526.379	0.087	0.208
-667.047	37.640	-0.105	-0.094
-666.032	-108.351	-0.182	0.040
-665.018	-131.805	-0.136	0.018
-664.003	485.183	-0.102	-0.235
-662.989	14.809	0.194	0.154
-661.974	-200.000	-0.018	-0.087
-660.959	47.211	-0.082	-0.077
-659.945	176.660	0.088	0.130
-658.930	-200.000	-0.029	0.308
-657.916	558.957	-0.067	-0.163
-656.901	-200.000	-0.015	0.082
-655.886	255.306	0.023	-0.040
-654.872	800.000	0.018	0.051
-653.857	280.773	0.054	-0.097
-652.843	-200.000	0.046	-0.210
-651.828	-200.000	-0.035	0.404
-650.814	76.274	-0.183	-0.195
-649.799	800.000	-0.052	-0.211
-648.784	-29.585	-0.327	-0.189
-647.770	104.689	0.053	0.064
-646.755	-200.000	0.014	0.130
-645.741	45.582	0.210	-0.196
-644.726	4.714	0.292	-0.217
-643.711	-200.000	-0.015	-0.293
-642.697	197.025	-0.069	-0.106
-641.682	800.000	-0.091	-0.265
-640.668	-200.000	-0.023	0.186
-639.653	52.713	0.093	-0.090
-638.638	20.825	0.099	-0.081
-637.624	-200.000	0.016	-0.082
-636.609	-123.426	0.178	-0.029
-635.595	89.204	-0.151	-0.170
-634.580	48.293	-0.204	-0.193
-633.565	796.320	0.074	0.205
-632.551	-54.173	-0.179	0.082
-631.536	17.035	0.214	-0.171
-630.522	800.000	-0.067	0.253
-629.507	12.220	-0.263	0.204
-628.492	-200.000	-0.020	-0.366
-627.478	-99.459	-0.215	0.055
-626.463	-200.000	-0.247	0.001
-625.449	-200.000	0.017	-0.192
-624.434	-29.045	0.267	-0.155
-623.419	239.859	0.085	0.143
-622.405	-95.135	-0.244	0.067
-621.390	39.259	0.169	0.153
-620.376	-154.115	-0.311	0.021
-619.361	20.207	0.325	0.265
-618.346	-169.957	0.307	0.011
-617.332	-200.000	-0.072	0.367
-616.317	-50.809	0.220	-0.105
-615.303	-200.000	0.003	-0.216
-614.288	800.000	0.078	0.227
-613.273	42.145	0.235	-0.215
-612.259	-200.000	-0.012	-0.114
-611.244	800.000	0.032	-0.125
-610.230	-48.827	-0.057	-0.028
-609.215	-12.783	-0.077	-0.051
-608.201	577.113	0.136	-0.336
-607.186	-27.153	-0.172	-0.101
-606.171	9.692	0.141	0.108
-605.157	69.003	-0.213	-0.221
-604.142	-16.894	-0.254	0.162
-603.128	800.000	0.104	-0.369
-602.113	112.453	-0.084	-0.103
-601.098	133.760	-0.240	-0.313
-600.084	369.812	-0.152	-0.311
-599.069	56.001	0.171	-0.168
-598.055	-68.703	-0.163	-0.064
-597.040	188.547	-0.164	-0.247
-596.025	-131.908	0.287	0.038
-595.011	-200.000	-0.024	0.145
-593.996	-132.896	-0.184	0.024
-592.982	71.805	-0.179	-0.188
-591.967	-29.183	0.073	0.042
-590.952	-46.052	-0.116	-0.057
-589.938	-200.000	-0.044	0.306
-588.923	-55.114	-0.299	-0.136
-587.909	-10.952	-0.179	-0.119
-586.894	-200.000	-0.032	0.316
-585.879	82.612	0.195	0.214
-584.865	-62.919	0.205	-0.085
-583.850	410.266	-0.155	-0.331
-582.836	-200.000	0.030	-0.376
-581.821	-13.159	-0.108	-0.071
-580.806	120.012	0.183	-0.229
-579.792	-54.651	0.272	-0.124
-578.777	-80.083	0.280	-0.095
-577.763	466.528	0.159	-0.358
-576.748	126.141	0.136	0.173
-575.733	800.000	0.029	-0.102
-574.719	73.885	0.141	0.149
-573.704	372.069	-0.094	0.192
-572.690	-200.000	-0.002	-0.166
-571.675	115.469	0.112	-0.138
-570.661	-89.127	0.037	-0.011
-569.646	800.000	0.035	0.119
-568.631	-134.183	0.225	0.028
-567.617	50.694	-0.120	-0.114
-566.602	327.265	-0.095	-0.183
-565.588	277.755	0.160	-0.287
-564.573	800.000	0.068	0.296
-563.558	118.357	-0.085	0.106
-562.544	-200.000	-0.045	-0.301
-561.529	-84.791	-0.179	0.057
-560.515	-166.780	0.187	0.008
-559.500	555.710	-0.134	0.326
-558.485	-117.932	-0.066	-0.012
-557.471	26.205	0.081	-0.068
-556.456	-28.304	-0.055	0.032
-555.442	-200.000	0.011	0.061
-554.427	-200.000	-0.007	0.033
-553.412	384.843	-0.082	-0.170
-552.398	-200.000	-0.022	0.279
-551.383	-150.671	-0.067	0.005
-550.369	800.000	0.046	-0.132
-549.354	-200.000	-0.021	-0.093
-548.339	28.009	-0.296	0.251
-547.325	134.683	-0.074	0.096
-546.310	-6.388	-0.079	-0.054
-545.296	105.653	0.126	0.149
-544.281	-178.612	-0.158	-0.004
-543.266	14.906	-0.058	-0.045
-542.252	-173.291	-0.090	-0.003
-541.237	-43.823	0.326	0.165
-540.223	-105.838	0.174	0.039
-539.208	196.008	-0.079	0.120
-538.193	-72.832	-0.172	0.064
-537.179	-200.000	-0.073	0.513
-536.164	8.080	0.135	-0.102
-535.150	-138.969	0.070	0.008
-534.135	455.332	-0.163	0.364
-533.121	67.310	0.220	0.226
-532.106	-200.000	0.023	-0.190
-531.091	48.327	-0.324	0.305
-530.077	-60.892	-0.214	0.091
-529.062	130.998	0.079	0.102
-528.048	124.314	-0.224	-0.284
-527.033	-110.253	0.273	-0.057
-526.018	-45.602	0.198	-0.099
-525.004	115.360	-0.224	-0.275
-523.989	54.683	0.114	0.110
-522.975	800.000	0.038	-0.147
-521.960	418.730	0.113	0.242
-520.945	-74.792	0.224	0.081
-519.931	190.647	-0.230	-0.348
-518.916	25.188	-0.206	-0.172
-517.902	-147.425	0.121	0.010
-516.887	-105.479	-0.534	-0.122
-515.872	-139.721	0.437	-0.047
-514.858	63.243	0.204	-0.206
-513.843	-200.000	-0.033	-0.268
-512.829	-131.169	0.178	-0.024
-511.814	43.105	0.152	-0.139
-510.799	65.114	-0.099	-0.100
-509.785	-111.339	-0.106	0.022
-508.770	337.271	0.070	0.138
-507.756	3.041	-0.217	0.159
-506.741	800.000	0.041	0.152
-505.726	-200.000	-0.001	0.253
-504.712	86.373	0.065	-0.072
-503.697	800.000	-0.132	-0.399
-502.683	159.793	0.332	0.464
-501.668	-31.127	0.108	0.061
-500.653	800.000	0.063	-0.206
-499.639	-200.000	0.021	-0.244
-498.624	-160.809	0.171	-0.009
-497.610	-29.356	-0.039	-0.022
-496.595	99.080	0.065	0.076
-495.581	-87.138	-0.111	0.034
-494.566	-9.005	-0.240	-0.161
-493.551	-158.689	-0.178	0.010
-492.537	-8.760	-0.265	-0.179
-491.522	-94.285	-0.225	0.062
-490.508	67.442	0.138	-0.141
-489.493	-11.291	-0.203	0.134
-488.478	107.254	0.201	-0.240
-487.464	608.586	0.131	-0.328
-486.449	-162.924	-0.321	0.016
-485.435	74.689	0.261	-0.276
-484.420	-120.122	0.223	0.038
-483.405	800.000	0.057	0.215
-482.391	-53.915	0.288	0.132
-481.376	583.658	0.214	0.528
-480.362	190.302	0.182	0.274
-479.347	-96.217	-0.262	0.070
-478.332	-67.668	0.212	-0.083
-477.318	280.880	0.047	0.085
-476.303	358.078	0.200	0.402
-475.289	-43.022	0.188	-0.096
-474.274	-200.000	0.002	0.078
-473.259	85.744	-0.206	-0.227
-472.245	-83.939	-0.262	0.084
-471.230	159.994	-0.118	0.164
-470.216	-61.419	0.152	-0.064
-469.201	-138.917	0.063	0.007
-468.186	517.190	0.026	0.062
-467.172	-200.000	-0.070	-0.403
-466.157	800.000	-0.056	-0.220
-465.143	-163.366	-0.171	0.008
-464.128	394.797	0.094	0.197
-463.113	42.730	0.071	0.065
-462.099	800.000	0.082	-0.262
-461.084	87.097	0.090	-0.100
-460.070	133.558	0.164	-0.212
-459.055	800.000	0.006	0.019
-458.040	-53.815	0.184	-0.084
-457.026	41.705	-0.112	0.102
-456.011	-8.001	0.193	0.130
-454.997	-146.936	-0.327	0.028
-453.982	-200.000	-0.032	0.169
-452.968	306.369	-0.040	0.075
-451.953	-13.953	-0.193	-0.125
-450.938	28.652	-0.206	-0.175
-449.924	311.779	-0.134	0.253
-448.909	192.589	0.037	0.056
-447.895	-200.000	0.017	-0.265
-446.880	44.924	-0.042	-0.038
-445.865	-77.438	-0.325	0.113
-444.851	-100.859	-0.363	0.089
-443.836	163.644	0.179	-0.252
-442.822	158.458	0.143	0.199
-441.807	-77.437	0.296	0.103
-440.792	-61.265	-0.501	-0.211
-439.778	-21.589	0.128	0.078
-438.763	-65.754	-0.086	0.035
-437.749	58.795	-0.191	-0.188
-436.734	-96.808	-0.272	-0.072
-435.719	-58.778	-0.144	-0.062
-434.705	800.000	0.076	0.235
-433.690	568.609	-0.075	-0.183
-432.676	283.457	-0.069	-0.124
-431.661	-156.756	0.365	-0.023
-430.646	-200.000	-0.035	0.186
-429.632	142.918	0.142	-0.189
-428.617	-200.000	-0.010	0.185
-427.603	207.113	0.059	-0.092
-426.588	646.658	-0.031	-0.079
-425.573	-52.631	-0.196	-0.091
-424.559	-163.619	-0.324	0.015
-423.544	800.000	-0.062	-0.201
-422.530	-38.053	-0.195	-0.103
-421.515	-157.807	-0.360	-0.021
-420.500	98.672	0.130	0.150
-419.486	-200.000	-0.011	0.422
-418.471	-200.000	0.030	0.158
-417.457	-54.830	-0.121	0.055
-416.442	318.670	0.142	-0.268
-415.428	-94.220	0.113	-0.031
-414.413	82.025	0.356	0.386
-413.398	-57.098	-0.308	-0.136
-412.384	-84.537	-0.349	-0.110
-411.369	800.000	0.124	0.357
-410.355	-93.984	-0.204	-0.056
-409.340	228.552	0.209	0.340
-408.325	-43.933	-0.406	0.204
-407.311	4.268	0.093	-0.068
-406.296	63.209	0.055	-0.055
-405.282	-200.000	-0.002	-0.077
-404.267	134.138	0.138	-0.179
-403.252	-26.536	-0.129	-0.075
-402.238	10.253	0.030	-0.023
-401.223	-161.206	-0.149	-0.008
-400.209	-130.102	0.285	0.039
-399.194	-200.000	-0.014	-0.279
-398.179	162.485	0.225	0.315
-397.165	12.762	-0.021	-0.016
-396.150	275.008	0.107	0.190
-395.136	-200.000	-0.043	-0.218
-394.121	7.923	-0.240	0.180
-393.106	-123.476	-0.140	0.022
-392.092	-52.137	-0.033	0.015
-391.077	-200.000	0.016	-0.198
-390.063	-200.000	0.006	0.026
-389.048	-46.262	-0.095	0.047
-388.033	407.988	0.170	0.360
-387.019	95.691	0.209	-0.239
-386.004	44.490	0.142	-0.131
-384.990	-200.000	-0.002	0.140
-383.975	736.654	-0.086	-0.231
-382.960	-55.395	-0.136	0.061
-381.946	113.323	-0.172	0.209
-380.931	-17.395	0.167	0.105
-379.917	53.674	-0.135	-0.130
-378.902	175.365	0.037	0.054
-377.888	-30.739	0.313	0.177
-376.873	-19.243	0.157	0.098
-375.858	-93.471	0.211	-0.058
-374.844	-30.691	0.289	-0.164
-373.829	-164.869	0.277	-0.012
-372.815	212.383	-0.153	-0.241
-371.800	-12.691	0.119	0.078
-370.785	-58.498	0.141	-0.061
-369.771	531.138	-0.144	0.341
-368.756	505.092	0.068	0.158
-367.742	22.985	0.059	-0.048
-366.727	8.680	0.253	-0.190
-365.712	-145.624	0.396	-0.035
-364.698	554.388	0.189	0.454
-363.683	-97.473	0.033	0.008
-362.669	-67.693	-0.302	0.118
-361.654	749.408	0.025	0.067
-360.639	800.000	-0.026	0.089
-359.625	800.000	-0.094	0.299
-358.610	90.088	-0.133	0.149
-357.596	26.628	0.148	0.124
-356.581	-200.000	0.082	-0.375
-355.566	33.935	-0.255	0.222
-354.552	-41.926	-0.117	0.060
-353.537	133.082	-0.179	-0.230
-352.523	6.316	0.250	-0.185
-351.508	284.832	-0.084	-0.151
-350.493	-194.831	-0.464	-0.004
-349.479	55.553	-0.148	0.144
-348.464	-99.199	-0.032	0.008
-347.450	148.002	0.183	-0.246
-346.435	-4.613	-0.338	0.233
-345.420	-200.000	0.038	0.206
-344.406	-44.345	0.306	0.153
-343.391	431.496	0.028	0.061
-342.377	-111.536	-0.162	-0.033
-341.362	592.177	0.018	0.044
-340.348	800.000	-0.066	-0.265
-339.333	5.953	0.235	-0.174
-338.318	379.228	0.088	-0.180
-337.304	-54.790	0.174	0.079
-336.289	800.000	0.125	0.418
-335.275	377.747	0.114	0.233
-334.260	284.210	0.042	0.075
-333.245	-200.000	-0.020	-0.139
-332.231	800.000	-0.047	-0.149
-331.216	346.403	-0.066	0.129
-330.202	-23.789	0.094	0.056
-329.187	360.365	0.154	-0.308
-328.172	306.221	-0.122	-0.226
-327.158	-167.982	-0.024	0.001
-326.143	-200.000	0.056	0.366
-325.129	-200.000	0.055	0.470
-324.114	-200.000	-0.004	-0.072
-323.099	-84.986	0.177	0.055
-322.085	-149.266	-0.179	-0.014
-321.070	16.121	0.321	0.252
-320.056	-10.348	-0.148	0.098
-319.041	-130.807	0.330	-0.044
-318.026	227.172	-0.110	-0.179
-317.012	-61.900	0.511	0.213
-315.997	-73.487	-0.323	-0.118
-314.983	82.398	-0.154	-0.166
-313.968	435.110	-0.170	0.368
-312.953	-151.221	-0.042	0.003
-311.939	124.889	0.129	-0.162
-310.924	78.904	0.135	-0.144
-309.910	66.096	-0.098	0.099
-308.895	-154.982	-0.035	0.002
-307.880	-200.000	0.014	0.501
-306.866	410.630	-0.175	0.369
-305.851	292.639	0.057	-0.103
-304.837	-16.465	0.201	-0.127
-303.822	358.264	-0.118	-0.235
-302.807	800.000	-0.068	0.211
-301.793	-200.000	-0.001	0.136
-300.778	257.567	-0.141	0.243
-299.764	-5.218	0.097	-0.067
-298.749	-123.972	-0.152	-0.024
-297.735	-200.000	0.137	-0.651
-296.720	37.368	0.166	0.146
-295.705	-126.138	0.242	0.036
-294.691	-44.000	0.172	-0.086
-293.676	800.000	-0.101	-0.368
-292.662	800.000	-0.060	-0.227
-291.647	-57.894	0.390	-0.170
-290.632	255.979	-0.060	-0.102
-289.618	-200.000	-0.036	-0.279
-288.603	-200.000	-0.063	0.408
-287.589	-68.191	0.196	0.076
-286.574	48.757	-0.261	-0.244
-285.559	200.548	0.099	-0.151
-284.545	-60.577	-0.283	-0.120
-283.530	-200.000	0.021	-0.204
-282.516	-200.000	0.003	0.094
-281.501	-200.000	0.018	0.214
-280.486	374.746	-0.121	0.246
-279.472	-136.731	0.228	0.026
-278.457	-120.050	0.384	-0.066
-277.443	-20.346	0.229	-0.140
-276.428	800.000	0.052	-0.181
-275.413	645.844	-0.123	-0.314
-274.399	800.000	-0.052	0.217
-273.384	38.651	-0.300	-0.266
-272.370	-98.744	-0.244	-0.062
-271.355	-200.000	0.003	0.078
-270.340	7.471	0.239	-0.178
-269.326	800.000	0.091	0.296
-268.311	800.000	0.088	-0.380
-267.297	546.922	-0.092	0.219
-266.282	-144.315	-0.092	0.008
-265.267	-80.643	0.230	0.076
-264.253	-200.000	0.063	0.326
-263.238	363.581	0.062	-0.124
-262.224	-32.123	0.288	0.160
-261.209	646.641	-0.061	0.155
-260.195	179.088	-0.118	-0.171
-259.180	-200.000	0.022	-0.287
-258.165	14.795	-0.167	-0.130
-257.151	-124.383	0.227	0.035
-256.136	-24.638	-0.090	0.054
-255.122	245.944	0.109	-0.182
-254.107	406.765	0.154	0.324
-253.092	800.000	-0.031	0.112
-252.078	-43.720	0.118	0.059
-251.063	45.152	-0.284	0.260
-250.049	312.507	-0.072	0.135
-249.034	-200.000	0.014	0.163
-248.019	-81.844	-0.396	-0.129
-247.005	-58.113	-0.314	-0.136
-245.990	173.767	-0.104	0.150
-244.976	-60.053	0.084	0.036
-243.961	-74.297	0.362	-0.130
-242.946	332.055	0.114	0.220
-241.932	-75.317	-0.147	0.052
-240.917	114.059	0.028	-0.034
-239.903	-131.680	0.103	0.013
-238.888	-5.178	-0.227	-0.155
-237.873	-115.098	0.368	0.069
-236.859	5.335	-0.175	0.128
-235.844	220.469	-0.139	-0.221
-234.830	8.291	0.179	-0.133
-233.815	-200.000	0.000	0.187
-232.800	-200.000	0.001	-0.012
-231.786	-200.000	-0.003	-0.131
-230.771	6.025	-0.244	0.179
-229.757	14.282	-0.210	0.163
-228.742	-200.000	0.073	0.668
-227.727	81.424	-0.120	-0.129
-226.713	800.000	0.097	-0.344
-225.698	129.009	0.070	-0.089
-224.684	547.945	0.056	-0.134
-223.669	107.765	0.161	-0.190
-222.655	-34.866	-0.267	-0.145
-221.640	174.178	-0.217	-0.311
-220.625	529.474	0.134	-0.314
-219.611	585.923	0.079	-0.193
-218.596	-165.480	0.278	-0.012
-217.582	142.583	-0.091	-0.120
-216.567	34.496	0.102	0.089
-215.552	-200.000	-0.031	0.209
-214.538	-200.000	-0.004	0.059
-213.523	-93.040	0.426	0.118
-212.509	-57.406	-0.209	0.091
-211.494	-19.531	0.160	-0.099
-210.479	-175.765	0.074	-0.002
-209.465	57.348	0.206	0.200
-208.450	143.593	0.134	-0.177
-207.436	-84.201	0.007	0.002
-206.421	0.547	-0.155	-0.110
-205.406	-91.175	0.186	-0.053
-204.392	800.000	-0.036	0.107
-203.377	800.000	0.102	0.305
-202.363	-200.000	0.040	0.288
-201.348	-108.530	-0.141	-0.030
-200.333	46.949	0.110	0.102
-199.319	-200.000	0.009	-0.070
-198.304	101.147	-0.161	0.186
-197.290	-200.000	0.002	0.206
-196.275	-34.042	0.199	0.109
-195.260	800.000	0.070	-0.223
-194.246	-82.909	-0.299	0.096
-193.231	800.000	0.080	-0.274
-192.217	158.163	0.284	0.391
-191.202	292.280	0.100	0.181
-190.187	-141.681	-0.249	0.025
-189.173	354.693	-0.051	0.102
-188.158	411.083	0.104	0.218
-187.144	-2.043	0.234	0.163
-186.129	-52.296	-0.253	0.116
-185.114	43.535	-0.093	0.084
-184.100	49.981	0.162	-0.151
-183.085	259.846	-0.123	-0.210
-182.071	235.826	0.158	0.259
-181.056	-153.102	-0.241	0.017
-180.042	-53.120	-0.284	-0.129
-179.027	177.301	-0.089	-0.129
-178.012	302.922	-0.121	-0.223
-176.998	66.387	-0.206	0.208
-175.983	800.000	0.069	0.195
-174.969	-97.641	-0.264	0.068
-173.954	800.000	-0.109	0.375
-172.939	-122.257	-0.106	0.017
-171.925	136.344	0.115	0.149
-170.910	78.725	0.180	0.191
-169.896	7.706	-0.278	-0.207
-168.881	800.000	-0.118	0.401
-167.866	-71.599	-0.275	0.102
-166.852	86.259	0.169	-0.185
-165.837	-2.117	0.302	-0.210
-164.823	-200.000	0.104	-0.595
-163.808	151.713	-0.170	0.229
-162.793	-200.000	0.045	-0.241
-161.779	-48.490	-0.286	-0.136
-160.764	5.711	-0.241	-0.176
-159.750	426.053	0.090	0.193
-158.735	-79.630	-0.282	-0.094
-157.720	166.988	-0.188	0.265
-156.706	65.586	0.237	0.238
-155.691	-34.206	-0.207	-0.113
-154.677	800.000	0.028	0.081
-153.662	-27.893	0.283	0.163
-152.647	21.824	-0.128	0.103
-151.633	-200.000	0.008	0.041
-150.618	46.661	-0.215	0.198
-149.604	170.566	0.140	0.199
-148.589	136.273	-0.052	-0.067
-147.574	555.962	-0.024	-0.056
-146.560	-200.000	0.003	0.064
-145.545	-15.533	0.198	-0.125
-144.531	-60.916	-0.053	0.022
-143.516	153.620	-0.072	0.098
-142.502	-49.135	-0.261	0.124
-141.487	98.476	0.124	0.142
-140.472	-41.644	0.193	0.098
-139.458	145.815	0.026	0.034
-138.443	-52.376	0.202	-0.093
-137.429	9.853	0.244	-0.183
-136.414	-24.874	-0.202	0.119
-135.399	295.182	0.153	-0.277
-134.385	-200.000	0.023	-0.113
-133.370	-57.715	0.263	-0.114
-132.356	-162.627	-0.388	0.019
-131.341	-36.634	-0.256	-0.136
-130.326	-200.000	0.016	0.135
-129.312	66.957	0.171	0.172
-128.297	-72.739	0.317	-0.116
-127.283	-84.892	-0.120	0.037
-126.268	-200.000	-0.012	-0.051
-125.253	-72.723	0.269	0.098
-124.239	-87.087	0.154	0.046
-123.224	98.762	0.035	0.040
-122.210	39.261	-0.460	0.407
-121.195	-151.609	-0.191	-0.014
-120.180	22.158	0.083	0.067
-119.166	-3.616	0.212	0.146
