DTS Sentinel unit serial number:	SN413079Multiplexer serial number:	ORYXHardware model number:	OX4-SRSoftware version number:	ORYX F/W v4.00 Oryx Data Collector v3.7.2.0data status	okinstallation	princeton_trtdifferential loss correction	single-endedforward channel	channel 4reverse channel	N/Adate	2019/09/16time	09:05:35forward acquisition time	60.00reverse acquisition time	0.00gamma	496.2192k internal	0.2309k external	0.2309temperature offset calibration	0.9970default loss term (dB/km)	0.3790temperature slope calibration	1.0000multiplexer offset coefficient	1.0000multiplexer slope coefficient	1.0000fibre end	0.00T internal ref (°C)	30.69T ext. ref 1 (°C)	12.08T ext. ref 2 (°C)	28.22length (m)	temperature (°C)	Stokes	anti-Stokes-747.200	325.751	0.086	-0.167
-746.185	46.209	0.097	0.091
-745.171	225.669	0.067	0.110
-744.156	123.384	-0.142	0.181
-743.142	28.738	-0.168	-0.145
-742.127	120.029	0.214	0.270
-741.112	328.742	0.083	0.162
-740.098	437.886	-0.053	0.117
-739.083	-200.000	0.010	-0.279
-738.069	-200.000	-0.014	-0.087
-737.054	-200.000	0.015	0.128
-736.039	-32.447	-0.191	-0.108
-735.025	79.856	0.149	-0.163
-734.010	-101.441	-0.222	-0.055
-732.996	-87.371	-0.128	-0.039
-731.981	-200.000	0.057	-0.482
-730.966	-200.000	-0.077	-0.348
-729.952	30.000	-0.344	0.298
-728.937	112.978	-0.198	0.243
-727.923	-174.396	-0.187	0.005
-726.908	-44.892	-0.146	-0.074
-725.894	-182.561	-0.080	-0.001
-724.879	-141.434	-0.135	-0.014
-723.864	-200.000	-0.022	-0.273
-722.850	-55.417	-0.029	0.013
-721.835	-114.227	-0.626	0.123
-720.821	234.608	-0.138	-0.232
-719.806	29.302	0.176	0.152
-718.791	-121.579	0.183	-0.031
-717.777	-200.000	0.070	0.394
-716.762	-200.000	-0.028	-0.142
-715.748	-200.000	0.034	0.170
-714.733	800.000	-0.117	-0.413
-713.718	-148.619	0.235	-0.019
-712.704	-12.482	-0.070	-0.046
-711.689	53.953	-0.144	-0.140
-710.675	-2.714	0.065	-0.046
-709.660	-98.025	-0.223	0.058
-708.645	103.094	-0.056	0.067
-707.631	-169.326	-0.282	-0.011
-706.616	73.637	-0.187	-0.199
-705.602	-200.000	0.010	-0.324
-704.587	-89.167	-0.127	0.038
-703.572	29.312	-0.237	-0.204
-702.558	81.368	0.120	0.132
-701.543	800.000	0.026	-0.083
-700.529	-61.500	0.212	-0.090
-699.514	42.424	0.150	-0.138
-698.499	-200.000	-0.025	0.238
-697.485	94.353	-0.143	-0.164
-696.470	134.009	-0.079	-0.103
-695.456	138.503	-0.152	0.202
-694.441	-48.255	-0.132	-0.064
-693.426	-168.282	-0.424	0.017
-692.412	267.044	0.032	0.057
-691.397	-23.970	-0.153	-0.093
-690.383	-116.226	-0.029	0.005
-689.368	345.738	-0.032	0.064
-688.354	-34.898	0.133	0.074
-687.339	-200.000	0.047	-0.267
-686.324	-183.856	0.176	-0.003
-685.310	-96.212	0.211	-0.057
-684.295	507.194	-0.017	-0.040
-683.281	-130.863	0.134	0.018
-682.266	78.420	-0.019	0.021
-681.251	471.833	0.208	0.475
-680.237	-25.113	0.181	0.109
-679.222	800.000	-0.020	-0.064
-678.208	-39.855	-0.020	-0.011
-677.193	250.104	0.051	0.088
-676.178	-200.000	-0.040	-0.202
-675.164	-200.000	0.003	0.322
-674.149	169.026	-0.066	-0.096
-673.135	-113.135	0.399	0.080
-672.120	800.000	-0.072	-0.209
-671.105	-7.595	0.171	0.117
-670.091	-106.335	0.051	-0.011
-669.076	-180.975	-0.277	-0.006
-668.062	-200.000	0.016	0.300
-667.047	-40.871	-0.178	0.093
-666.032	-28.306	0.200	0.117
-665.018	800.000	0.053	-0.235
-664.003	-115.435	-0.310	-0.059
-662.989	-84.093	-0.139	0.045
-661.974	-98.437	-0.043	-0.011
-660.959	-200.000	-0.019	-0.283
-659.945	293.057	0.057	-0.106
-658.930	148.858	0.054	-0.074
-657.916	800.000	0.040	0.129
-656.901	-91.119	-0.217	-0.063
-655.886	800.000	-0.042	-0.157
-654.872	-21.889	-0.345	0.213
-653.857	541.111	0.162	-0.392
-652.843	218.133	-0.188	0.303
-651.828	154.877	0.183	-0.254
-650.814	800.000	-0.063	-0.244
-649.799	-200.000	0.016	0.287
-648.784	46.806	0.181	0.170
-647.770	-200.000	-0.031	0.218
-646.755	-200.000	-0.003	0.224
-645.741	-2.763	-0.051	0.036
-644.726	-115.774	0.190	0.036
-643.711	800.000	0.108	-0.374
-642.697	84.175	-0.283	0.312
-641.682	173.604	-0.098	0.143
-640.668	-69.814	-0.249	-0.096
-639.653	-200.000	0.008	0.316
-638.638	-54.597	0.157	-0.072
-637.624	-60.746	-0.236	-0.101
-636.609	141.065	-0.224	-0.299
-635.595	-55.273	-0.136	-0.062
-634.580	137.645	0.162	-0.215
-633.565	-107.843	-0.152	-0.033
-632.551	800.000	0.039	-0.126
-631.536	27.930	0.227	0.194
-630.522	-200.000	-0.013	-0.217
-629.507	-63.484	0.071	0.030
-628.492	-50.287	0.213	0.102
-627.478	156.424	-0.210	0.293
-626.463	-88.958	0.047	0.014
-625.449	276.054	-0.047	0.085
-624.434	-200.000	0.064	0.328
-623.419	279.101	-0.137	-0.248
-622.405	-24.922	-0.234	0.141
-621.390	-200.000	0.037	-0.235
-620.376	8.887	-0.140	0.107
-619.361	-200.000	-0.033	-0.151
-618.346	-149.266	0.154	-0.012
-617.332	-200.000	-0.013	-0.147
-616.317	-27.716	0.207	0.121
-615.303	800.000	-0.041	0.134
-614.288	-200.000	0.006	0.129
-613.273	168.178	-0.124	-0.178
-612.259	176.356	0.094	-0.138
-611.244	83.559	-0.245	0.270
-610.230	210.870	-0.170	0.270
-609.215	106.368	-0.203	-0.243
-608.201	-52.739	0.088	-0.041
-607.186	-200.000	0.050	0.312
-606.171	-18.500	0.260	0.164
-605.157	188.125	0.163	0.246
-604.142	-200.000	0.023	0.138
-603.128	-170.454	-0.074	0.003
-602.113	-115.593	-0.201	0.038
-601.098	-25.780	0.040	-0.024
-600.084	99.115	0.182	-0.213
-599.069	-153.971	0.494	-0.034
-598.055	-200.000	0.044	0.334
-597.040	-139.444	0.114	-0.012
-596.025	-200.000	0.147	-0.000
-595.011	3.689	-0.207	0.152
-593.996	-117.593	-0.300	-0.055
-592.982	-200.000	-0.011	-0.164
-591.967	-22.926	-0.356	-0.217
-590.952	-24.727	-0.136	-0.081
-589.938	280.948	-0.099	0.179
-588.923	14.659	-0.172	-0.136
-587.909	-148.135	0.161	0.013
-586.894	-54.104	0.240	-0.110
-585.879	-161.096	-0.376	0.020
-584.865	123.798	0.072	-0.091
-583.850	800.000	0.132	-0.382
-582.836	800.000	-0.035	0.116
-581.821	298.560	0.172	0.320
-580.806	-200.000	0.021	0.175
-579.792	-200.000	-0.022	0.252
-578.777	800.000	0.045	-0.162
-577.763	-73.862	0.130	-0.048
-576.748	-15.365	-0.182	-0.117
-575.733	-200.000	-0.058	-0.260
-574.719	101.011	-0.296	-0.348
-573.704	-95.882	0.160	0.043
-572.690	800.000	-0.081	0.247
-571.675	-64.721	-0.057	0.023
-570.661	800.000	0.089	-0.273
-569.646	-155.945	-0.199	0.013
-568.631	-84.152	0.279	0.089
-567.617	-200.000	0.019	0.208
-566.602	1.232	0.201	-0.146
-565.588	127.359	0.042	0.053
-564.573	-86.642	-0.279	-0.086
-563.558	95.879	-0.135	-0.155
-562.544	-109.633	-0.358	0.076
-561.529	-19.447	0.067	-0.042
-560.515	-200.000	-0.021	-0.173
-559.500	-71.352	-0.075	0.028
-558.485	234.300	-0.220	0.365
-557.471	522.966	-0.111	0.263
-556.456	106.365	0.061	0.073
-555.442	-109.777	0.103	0.022
-554.427	-111.745	-0.471	-0.096
-553.412	-145.019	-0.274	0.025
-552.398	224.420	0.147	0.239
-551.383	-49.691	0.249	0.119
-550.369	22.341	-0.294	-0.242
-549.354	800.000	-0.045	0.153
-548.339	-8.602	-0.134	-0.091
-547.325	-76.706	-0.173	0.061
-546.310	-200.000	-0.020	-0.474
-545.296	632.362	0.064	-0.164
-544.281	-200.000	0.042	-0.501
-543.266	800.000	-0.131	0.378
-542.252	142.403	0.109	-0.146
-541.237	-86.554	0.185	-0.057
-540.223	-200.000	-0.012	-0.398
-539.208	-53.169	-0.133	-0.062
-538.193	-200.000	0.016	0.170
-537.179	120.996	-0.028	0.035
-536.164	-87.007	0.257	-0.079
-535.150	93.736	-0.282	-0.322
-534.135	85.926	0.304	-0.337
-533.121	-200.000	0.003	0.029
-532.106	-200.000	0.013	0.285
-531.091	-54.175	-0.411	0.188
-530.077	-17.321	0.180	-0.114
-529.062	800.000	-0.076	-0.231
-528.048	-143.922	-0.132	0.013
-527.033	-200.000	-0.040	0.302
-526.018	-200.000	0.010	-0.200
-525.004	84.237	-0.104	-0.115
-523.989	-52.518	0.042	-0.020
-522.975	-200.000	0.029	-0.186
-521.960	20.733	0.521	0.425
-520.945	-16.632	-0.248	0.158
-519.931	184.714	0.059	0.088
-518.916	-27.443	-0.078	0.046
-517.902	-133.087	0.067	-0.009
-516.887	-200.000	0.059	-0.279
-515.872	68.594	0.162	-0.167
-514.858	-50.769	-0.175	-0.083
-513.843	-200.000	0.002	-0.198
-512.829	-91.175	-0.311	-0.090
-511.814	800.000	0.035	0.137
-510.799	59.955	-0.107	0.106
-509.785	483.080	-0.110	-0.252
-508.770	-200.000	-0.026	-0.185
-507.756	-106.866	0.149	0.033
-506.741	800.000	0.064	-0.247
-505.726	-200.000	-0.030	-0.168
-504.712	-9.843	-0.181	0.122
-503.697	800.000	0.041	-0.176
-502.683	141.458	0.007	0.009
-501.668	-21.724	0.165	0.101
-500.653	185.321	0.088	0.132
-499.639	-125.194	-0.157	-0.024
-498.624	511.232	-0.079	-0.184
-497.610	800.000	0.038	0.144
-496.595	167.160	0.108	0.154
-495.581	-141.387	-0.092	-0.009
-494.566	-100.330	-0.309	-0.077
-493.551	-200.000	-0.058	0.278
-492.537	-6.285	0.127	-0.087
-491.522	-102.917	0.113	0.027
-490.508	800.000	-0.011	0.036
-489.493	196.409	-0.103	0.158
-488.478	-44.279	0.098	0.050
-487.464	275.823	-0.141	0.251
-486.449	-200.000	0.047	0.393
-485.435	-177.125	0.110	0.003
-484.420	-114.162	-0.228	0.044
-483.405	55.468	-0.333	0.324
-482.391	-43.283	0.389	-0.198
-481.376	3.097	0.213	-0.156
-480.362	800.000	-0.090	0.253
-479.347	-60.137	-0.165	0.071
-478.332	-77.838	0.201	-0.070
-477.318	-53.153	-0.066	-0.031
-476.303	-52.085	0.119	-0.056
-475.289	19.660	0.210	0.170
-474.274	469.728	0.092	0.207
-473.259	-152.796	-0.263	0.019
-472.245	-159.022	-0.229	0.013
-471.230	-5.107	-0.113	0.078
-470.216	-141.045	0.112	0.012
-469.201	-140.987	-0.169	0.017
-468.186	65.028	0.102	0.104
-467.172	-189.081	0.374	-0.005
-466.157	-78.431	-0.121	-0.042
-465.143	800.000	0.070	0.198
-464.128	-200.000	0.010	0.264
-463.113	-49.423	0.229	0.110
-462.099	-200.000	-0.023	0.121
-461.084	-200.000	0.047	-0.247
-460.070	-97.123	-0.094	-0.025
-459.055	800.000	-0.141	-0.476
-458.040	800.000	0.118	0.364
-457.026	-200.000	-0.003	0.142
-456.011	800.000	-0.026	0.085
-454.997	-84.142	0.334	0.107
-453.982	50.527	-0.352	-0.334
-452.968	-200.000	-0.029	0.219
-451.953	130.726	-0.182	-0.234
-450.938	-200.000	0.043	0.231
-449.924	-200.000	0.016	0.131
-448.909	-84.778	-0.127	-0.040
-447.895	-200.000	-0.044	-0.340
-446.880	64.292	0.239	0.242
-445.865	-166.026	0.325	-0.014
-444.851	-128.009	0.172	-0.025
-443.836	-40.394	0.145	-0.075
-442.822	101.916	0.113	0.133
-441.807	-7.877	-0.064	0.043
-440.792	318.400	-0.037	-0.070
-439.778	-200.000	-0.022	-0.134
-438.763	800.000	0.058	-0.228
-437.749	-32.847	0.110	-0.061
-436.734	-70.427	-0.184	-0.070
-435.719	596.537	0.078	0.195
-434.705	-200.000	-0.011	0.166
-433.690	-200.000	0.025	-0.418
-432.676	-23.288	0.288	-0.174
-431.661	220.757	0.109	0.175
-430.646	48.617	0.167	0.157
-429.632	266.653	0.203	-0.357
-428.617	-200.000	-0.029	-0.338
-427.603	459.074	-0.073	0.162
-426.588	-126.151	0.108	-0.016
-425.573	205.723	-0.119	-0.186
-424.559	262.611	-0.168	0.293
-423.544	190.468	-0.139	0.210
-422.530	-42.718	-0.075	0.038
-421.515	-83.442	0.172	0.055
-420.500	-40.498	0.164	-0.086
-419.486	800.000	0.054	-0.177
-418.471	52.319	0.150	0.144
-417.457	11.611	0.117	0.090
-416.442	800.000	0.099	0.291
-415.428	-136.419	0.149	-0.017
-414.413	-41.177	0.179	-0.093
-413.398	800.000	0.044	-0.148
-412.384	-42.330	0.252	0.129
-411.369	-100.728	0.059	0.015
-410.355	505.274	-0.071	-0.166
-409.340	47.850	0.179	0.167
-408.325	-78.622	0.337	0.115
-407.311	-38.825	-0.253	0.134
-406.296	-44.400	0.124	-0.062
-405.282	-200.000	-0.018	0.192
-404.267	45.904	0.055	-0.051
-403.252	800.000	0.077	0.271
-402.238	36.666	-0.036	-0.031
-401.223	-42.999	-0.045	-0.023
-400.209	800.000	0.015	-0.045
-399.194	-53.457	0.266	-0.122
-398.179	74.226	0.062	-0.065
-397.165	260.507	0.026	-0.045
-396.150	-200.000	-0.079	0.418
-395.136	257.347	-0.139	0.239
-394.121	352.970	0.048	0.095
-393.106	-76.798	-0.083	-0.029
-392.092	-20.508	-0.214	0.132
-391.077	800.000	0.030	-0.097
-390.063	-162.323	0.246	0.012
-389.048	-132.961	0.200	0.025
-388.033	-141.353	0.209	-0.021
-387.019	-108.686	-0.233	0.050
-386.004	-200.000	0.015	-0.101
-384.990	-183.179	0.344	0.006
-383.975	-149.721	-0.234	0.018
-382.960	6.589	-0.300	-0.223
-381.946	-200.000	0.017	0.098
-380.931	376.697	-0.177	-0.362
-379.917	200.102	0.104	0.159
-378.902	-18.148	0.154	-0.097
-377.888	-28.729	0.273	0.157
-376.873	-83.040	0.303	-0.098
-375.858	-59.022	-0.350	-0.151
-374.844	-200.000	0.070	0.403
-373.829	35.601	-0.261	-0.229
-372.815	-164.381	0.197	-0.009
-371.800	295.978	0.058	-0.106
-370.785	-137.448	-0.404	-0.046
-369.771	800.000	-0.029	-0.118
-368.756	633.806	-0.113	0.287
-367.742	115.369	0.023	0.028
-366.727	800.000	0.032	0.125
-365.712	197.181	-0.017	-0.026
-364.698	81.188	0.112	0.122
-363.683	-36.077	-0.198	0.107
-362.669	-200.000	0.031	0.301
-361.654	-158.793	-0.043	0.002
-360.639	-120.041	-0.369	0.063
-359.625	-125.128	0.110	0.017
-358.610	-6.587	0.195	0.133
-357.596	110.355	0.388	0.467
-356.581	-200.000	-0.015	-0.137
-355.566	-200.000	-0.041	-0.421
-354.552	-129.415	0.149	-0.021
-353.537	-51.692	-0.208	-0.097
-352.523	54.778	-0.244	-0.236
-351.508	800.000	-0.073	-0.211
-350.493	428.106	0.118	-0.256
-349.479	800.000	0.047	-0.180
-348.464	237.137	-0.045	0.074
-347.450	-37.086	0.309	0.166
-346.435	259.197	0.013	-0.023
-345.420	800.000	0.023	0.073
-344.406	97.487	-0.163	0.188
-343.391	-87.938	-0.344	-0.104
-342.377	800.000	-0.068	-0.197
-341.362	-200.000	0.011	0.188
-340.348	-79.404	-0.380	0.129
-339.333	-32.532	-0.289	-0.161
-338.318	-52.308	-0.038	0.018
-337.304	-200.000	-0.069	0.313
-336.289	248.227	0.092	-0.156
-335.275	221.772	0.195	0.313
-334.260	-124.759	0.252	0.039
-333.245	-66.549	-0.288	0.114
-332.231	76.371	0.082	-0.087
-331.216	-131.339	0.291	-0.039
-330.202	800.000	-0.069	0.285
-329.187	47.777	-0.250	0.233
-328.172	224.669	0.099	-0.160
-327.158	562.687	-0.037	-0.090
-326.143	-200.000	-0.023	-0.218
-325.129	32.647	0.331	-0.286
-324.114	-47.020	-0.402	-0.196
-323.099	136.321	-0.207	-0.270
-322.085	-63.327	0.176	0.072
-321.070	-87.686	-0.112	-0.034
-320.056	-200.000	0.046	-0.313
-319.041	158.379	-0.133	0.184
-318.026	67.862	-0.076	0.077
-317.012	-58.964	-0.289	0.125
-315.997	92.157	-0.051	0.057
-314.983	26.812	0.073	0.061
-313.968	-51.492	0.116	-0.054
-312.953	-57.847	0.204	-0.089
-311.939	16.308	-0.012	-0.010
-310.924	38.675	-0.344	-0.306
-309.910	670.403	-0.025	-0.064
-308.895	564.255	-0.072	0.175
-307.880	608.792	0.049	-0.123
-306.866	-84.059	0.115	-0.036
-305.851	-123.107	-0.337	0.054
-304.837	-124.979	0.094	0.014
-303.822	123.566	0.279	-0.350
-302.807	219.311	-0.136	0.217
-301.793	486.187	0.132	0.299
-300.778	18.618	0.262	-0.209
-299.764	800.000	0.122	0.371
-298.749	-87.384	0.282	0.085
-297.735	102.204	-0.014	-0.017
-296.720	135.457	0.133	-0.173
-295.705	800.000	0.146	-0.414
-294.691	-27.762	0.074	-0.043
-293.676	-200.000	-0.010	-0.177
-292.662	432.434	0.162	0.352
-291.647	-200.000	-0.013	0.108
-290.632	69.481	-0.354	-0.364
-289.618	127.460	0.205	-0.260
-288.603	339.019	-0.059	0.114
-287.589	800.000	0.085	-0.355
-286.574	-200.000	0.016	0.249
-285.559	-200.000	-0.005	-0.101
-284.545	-200.000	0.023	0.140
-283.530	-200.000	-0.005	-0.081
-282.516	65.492	0.137	0.139
-281.501	-96.780	-0.163	-0.043
-280.486	13.988	-0.020	-0.015
-279.472	800.000	-0.051	0.176
-278.457	-100.421	-0.454	0.112
-277.443	196.293	0.166	0.253
-276.428	-200.000	-0.003	0.032
-275.413	-28.477	-0.056	-0.032
-274.399	685.891	0.068	-0.177
-273.384	-116.165	0.306	-0.057
-272.370	-37.009	-0.201	-0.108
-271.355	800.000	0.101	-0.319
-270.340	-71.812	0.087	0.032
-269.326	156.745	0.135	0.186
-268.311	14.733	-0.014	-0.011
-267.297	-200.000	0.016	0.158
-266.282	-200.000	-0.016	-0.110
-265.267	-200.000	-0.001	0.196
-264.253	-62.993	-0.162	-0.067
-263.238	-98.650	-0.332	0.084
-262.224	-45.914	0.121	0.060
-261.209	-200.000	0.047	-0.215
-260.195	-122.450	-0.153	0.025
-259.180	322.461	-0.154	0.292
-258.165	-62.223	0.088	-0.037
-257.151	357.109	0.129	-0.257
-256.136	118.371	-0.279	-0.343
-255.122	-184.654	0.323	0.005
-254.107	-200.000	0.027	0.144
-253.092	172.033	0.096	0.137
-252.078	-200.000	-0.003	0.399
-251.063	-37.952	-0.303	0.161
-250.049	800.000	0.075	0.210
-249.034	-85.759	0.307	-0.095
-248.019	83.375	0.077	0.083
-247.005	800.000	0.039	0.167
-245.990	215.821	0.200	-0.316
-244.976	-136.302	0.168	0.020
-243.961	-200.000	-0.044	0.229
-242.946	97.471	-0.071	0.081
-241.932	-158.373	-0.237	-0.014
-240.917	165.220	0.135	-0.190
-239.903	-98.687	-0.119	0.030
-238.888	-85.230	-0.276	0.086
-237.873	49.763	0.142	0.134
-236.859	-127.574	0.230	-0.033
-235.844	106.818	0.171	-0.202
-234.830	-47.066	-0.153	-0.075
-233.815	123.522	0.130	0.163
-232.800	-79.713	0.100	0.034
-231.786	67.647	-0.182	-0.185
-230.771	800.000	-0.071	-0.297
-229.757	64.883	-0.206	-0.207
-228.742	-2.981	-0.108	-0.075
-227.727	800.000	0.024	0.085
-226.713	222.026	0.142	0.228
-225.698	132.006	-0.131	0.168
-224.684	204.857	0.140	-0.217
-223.669	-200.000	-0.011	0.231
-222.655	211.567	0.152	-0.239
-221.640	-100.766	0.192	0.047
-220.625	-146.953	-0.168	-0.014
-219.611	-35.782	-0.292	-0.158
-218.596	-12.006	0.235	-0.154
-217.582	-136.655	-0.222	0.026
-216.567	800.000	0.071	-0.279
-215.552	-96.105	0.142	0.037
-214.538	-7.550	0.136	0.092
-213.523	-130.208	-0.272	-0.037
-212.509	800.000	-0.047	-0.182
-211.494	-138.124	-0.133	-0.015
-210.479	-151.217	0.394	-0.029
-209.465	-57.317	-0.017	-0.007
-208.450	58.567	-0.120	-0.117
-207.436	-49.462	0.268	0.127
-206.421	-21.981	-0.402	0.243
-205.406	-200.000	-0.025	-0.171
-204.392	44.960	0.306	-0.281
-203.377	-84.885	0.088	0.028
-202.363	-95.818	0.147	0.039
-201.348	800.000	-0.054	-0.205
-200.333	-107.117	-0.212	-0.047
-199.319	-131.644	0.087	0.011
-198.304	84.892	0.056	-0.061
-197.290	-65.810	0.346	-0.138
-196.275	-200.000	0.000	0.086
-195.260	-132.060	-0.065	0.008
-194.246	115.923	0.136	0.166
-193.231	-132.436	-0.319	0.041
-192.217	189.773	-0.210	-0.313
-191.202	-131.915	-0.192	-0.025
-190.187	-137.312	-0.201	0.023
-189.173	-105.583	-0.289	0.065
-188.158	177.105	-0.255	-0.369
-187.144	195.774	-0.091	0.138
-186.129	-47.366	-0.169	0.082
-185.114	-178.350	0.247	0.006
-184.100	-200.000	-0.030	-0.425
-183.085	800.000	-0.086	-0.362
-182.071	-111.619	-0.116	0.023
-181.056	-195.006	0.441	0.003
-180.042	192.231	0.137	0.205
-179.027	-200.000	-0.042	0.330
-178.012	-200.000	-0.104	0.467
-176.998	-110.666	0.418	-0.086
-175.983	232.472	-0.105	-0.172
-174.969	-137.447	0.170	0.019
-173.954	51.123	-0.090	0.085
-172.939	-20.785	-0.401	-0.244
-171.925	-86.462	0.255	0.078
-170.910	-55.574	-0.044	0.020
-169.896	-91.806	-0.159	0.045
-168.881	85.028	-0.163	-0.178
-167.866	120.374	0.085	0.105
-166.852	800.000	-0.065	0.199
-165.837	-200.000	-0.008	0.265
-164.823	800.000	-0.087	-0.302
-163.808	320.198	-0.132	-0.249
-162.793	-200.000	-0.009	-0.121
-161.779	-58.907	0.422	0.181
-160.764	-200.000	-0.012	-0.169
-159.750	-102.629	0.169	-0.040
-158.735	356.901	0.081	-0.161
-157.720	-12.583	-0.081	0.053
-156.706	-200.000	0.003	0.169
-155.691	-78.061	0.176	0.060
-154.677	61.364	-0.017	-0.016
-153.662	-200.000	-0.072	0.364
-152.647	-157.525	0.479	-0.029
-151.633	-200.000	-0.077	-0.450
-150.618	-200.000	0.094	0.435
-149.604	-36.299	0.144	0.077
-148.589	203.755	-0.115	0.176
-147.574	800.000	-0.106	-0.304
-146.560	-115.958	-0.156	-0.029
-145.545	139.942	0.093	-0.122
-144.531	-45.903	0.293	0.143
-143.516	-200.000	0.039	0.217
-142.502	-200.000	0.012	-0.574
-141.487	-200.000	0.033	0.143
-140.472	116.534	0.113	-0.138
-139.458	-152.507	0.238	0.017
-138.443	-51.626	0.242	0.112
-137.429	-12.742	0.215	0.139
-136.414	-175.173	-0.077	-0.002
-135.399	75.902	-0.070	-0.074
-134.385	7.368	0.120	0.089
-133.370	50.122	-0.105	0.098
-132.356	-200.000	0.254	0.001
-131.341	517.636	0.043	-0.099
-130.326	-24.239	-0.160	-0.095
-129.312	-200.000	-0.056	-0.535
-128.297	116.087	-0.203	-0.246
-127.283	-101.609	-0.231	-0.056
-126.268	-200.000	-0.009	-0.163
-125.253	800.000	-0.142	0.459
-124.239	-105.281	-0.225	0.051
-123.224	26.702	-0.067	-0.056
