DTS Sentinel unit serial number:	SN413079Multiplexer serial number:	ORYXHardware model number:	OX4-SRSoftware version number:	ORYX F/W v4.00 Oryx Data Collector v3.7.2.0data status	okinstallation	princeton_trtdifferential loss correction	single-endedforward channel	channel 4reverse channel	N/Adate	2019/09/16time	12:29:35forward acquisition time	60.00reverse acquisition time	0.00gamma	496.2192k internal	0.2292k external	0.2292temperature offset calibration	0.9946default loss term (dB/km)	0.3790temperature slope calibration	1.0000multiplexer offset coefficient	1.0000multiplexer slope coefficient	1.0000fibre end	0.00T internal ref (°C)	39.56T ext. ref 1 (°C)	13.37T ext. ref 2 (°C)	37.08length (m)	temperature (°C)	Stokes	anti-Stokes-747.200	-200.000	0.036	0.181
-746.185	-200.000	0.042	0.548
-745.171	-12.390	-0.255	0.170
-744.156	-168.451	-0.092	-0.004
-743.142	-18.865	0.281	0.179
-742.127	-54.241	-0.161	-0.075
-741.112	268.413	-0.178	-0.320
-740.098	-200.000	-0.018	0.146
-739.083	90.776	0.064	-0.073
-738.069	-66.075	-0.123	0.050
-737.054	-200.000	-0.073	-0.333
-736.039	40.672	-0.092	0.085
-735.025	-186.521	0.312	0.005
-734.010	-181.055	-0.219	-0.004
-732.996	44.546	0.285	0.268
-731.981	-75.957	0.396	-0.143
-730.966	-81.338	-0.300	-0.101
-729.952	-25.755	0.234	-0.141
-728.937	-60.652	-0.016	-0.007
-727.923	58.665	-0.145	-0.146
-726.908	206.939	-0.094	-0.150
-725.894	-200.000	0.013	-0.248
-724.879	-18.740	0.239	-0.152
-723.864	267.082	0.171	-0.306
-722.850	148.619	0.204	-0.282
-721.835	-200.000	-0.004	0.035
-720.821	-93.020	-0.361	-0.103
-719.806	-55.980	-0.157	0.072
-718.791	-5.025	-0.124	-0.087
-717.777	800.000	0.071	-0.220
-716.762	-156.521	-0.178	-0.011
-715.748	-8.873	-0.359	0.246
-714.733	17.715	-0.135	-0.110
-713.718	-58.558	0.247	-0.110
-712.704	210.433	-0.222	0.356
-711.689	800.000	0.031	0.138
-710.675	800.000	0.021	-0.078
-709.660	84.117	-0.132	-0.147
-708.645	-200.000	-0.012	-0.230
-707.631	800.000	0.070	0.235
-706.616	800.000	0.046	0.184
-705.602	2.517	0.096	-0.071
-704.587	77.758	0.333	-0.362
-703.572	-200.000	-0.006	-0.131
-702.558	-84.211	0.128	0.041
-701.543	-145.053	0.566	0.053
-700.529	-200.000	-0.013	0.211
-699.514	-60.671	0.196	-0.085
-698.499	800.000	0.076	-0.263
-697.485	-38.867	-0.201	-0.108
-696.470	-200.000	-0.003	0.108
-695.456	-84.278	-0.379	-0.123
-694.441	-133.229	-0.246	0.032
-693.426	2.926	0.124	-0.092
-692.412	-200.000	-0.063	0.292
-691.397	-84.176	0.170	0.055
-690.383	-200.000	0.011	-0.136
-689.368	-42.183	0.308	0.161
-688.354	529.835	0.111	-0.267
-687.339	-58.308	-0.187	0.083
-686.324	758.048	-0.106	0.294
-685.310	5.050	-0.296	0.222
-684.295	102.570	0.173	-0.207
-683.281	26.543	-0.351	-0.300
-682.266	800.000	0.023	0.067
-681.251	-24.006	0.075	0.046
-680.237	-200.000	-0.006	-0.294
-679.222	-167.042	-0.258	-0.011
-678.208	441.575	0.178	-0.398
-677.193	-170.644	-0.190	-0.007
-676.178	339.777	0.133	-0.264
-675.164	-154.395	-0.236	0.016
-674.149	186.409	0.080	-0.122
-673.135	660.760	0.049	-0.129
-672.120	-117.495	-0.169	-0.031
-671.105	-81.265	0.334	0.113
-670.091	800.000	-0.083	-0.262
-669.076	-124.514	-0.200	0.032
-668.062	-200.000	0.025	-0.231
-667.047	36.225	-0.129	-0.116
-666.032	-181.013	-0.075	-0.002
-665.018	13.361	0.239	0.189
-664.003	-13.736	-0.165	0.109
-662.989	-200.000	-0.197	-0.001
-661.974	132.755	-0.018	0.023
-660.959	661.317	0.136	0.357
-659.945	-109.091	-0.539	0.117
-658.930	-116.897	-0.287	-0.053
-657.916	-132.042	0.275	-0.037
-656.901	-200.000	-0.006	-0.336
-655.886	90.242	0.272	-0.310
-654.872	-81.151	0.372	0.125
-653.857	176.681	-0.104	-0.154
-652.843	279.094	-0.074	0.134
-651.828	-67.421	0.354	-0.142
-650.814	195.916	-0.034	0.053
-649.799	-78.927	0.245	-0.085
-648.784	53.847	0.243	-0.238
-647.770	-200.000	0.028	-0.211
-646.755	-136.180	0.148	-0.018
-645.741	-127.878	0.114	-0.017
-644.726	-30.414	-0.067	-0.039
-643.711	223.273	0.029	0.048
-642.697	173.484	0.047	0.070
-641.682	105.767	0.126	-0.152
-640.668	-104.277	-0.203	-0.048
-639.653	457.613	0.081	-0.182
-638.638	73.475	0.116	0.123
-637.624	-200.000	-0.018	0.081
-636.609	24.136	-0.146	0.123
-635.595	-127.169	0.227	0.034
-634.580	-42.089	0.094	0.049
-633.565	-76.325	0.351	-0.126
-632.551	-53.493	-0.113	-0.053
-631.536	-200.000	-0.054	0.000
-630.522	780.217	-0.187	0.521
-629.507	-15.434	0.113	0.073
-628.492	800.000	0.026	0.079
-627.478	800.000	0.059	-0.195
-626.463	270.513	-0.167	-0.299
-625.449	-77.262	0.055	-0.020
-624.434	61.071	-0.124	-0.126
-623.419	-181.156	0.134	-0.003
-622.405	-200.000	0.029	0.141
-621.390	-200.000	-0.022	-0.183
-620.376	706.703	0.023	-0.062
-619.361	-45.399	0.206	-0.104
-618.346	-75.946	0.299	0.108
-617.332	40.899	-0.104	-0.095
-616.317	-162.674	0.250	-0.013
-615.303	-200.000	0.003	0.028
-614.288	129.305	-0.181	0.236
-613.273	800.000	-0.065	-0.251
-612.259	8.054	0.036	0.028
-611.244	-42.095	-0.495	-0.258
-610.230	122.036	0.088	-0.112
-609.215	-147.873	0.165	0.014
-608.201	-21.562	-0.240	-0.149
-607.186	-157.944	-0.170	0.010
-606.171	-19.844	-0.279	0.175
-605.157	-121.458	-0.289	-0.049
-604.142	-12.088	0.082	-0.055
-603.128	79.185	-0.079	-0.087
-602.113	377.801	0.107	-0.223
-601.098	800.000	-0.036	-0.123
-600.084	-138.261	-0.546	-0.062
-599.069	-155.113	0.213	0.014
-598.055	-90.536	-0.214	-0.063
-597.040	138.505	0.058	0.078
-596.025	-26.973	0.307	-0.182
-595.011	-200.000	0.018	-0.236
-593.996	153.354	-0.212	0.295
-592.982	29.985	-0.109	-0.095
-591.967	-124.123	-0.082	0.013
-590.952	-18.839	0.150	0.095
-589.938	-200.000	0.014	-0.126
-588.923	-200.000	-0.016	0.189
-587.909	20.160	0.209	-0.172
-586.894	49.385	-0.153	0.146
-585.879	69.222	0.014	0.015
-584.865	86.147	-0.025	0.028
-583.850	315.068	-0.222	0.426
-582.836	-63.501	-0.197	0.082
-581.821	-182.405	-0.121	-0.002
-580.806	261.375	-0.069	-0.121
-579.792	-139.181	-0.326	0.036
-578.777	66.245	-0.113	0.117
-577.763	-161.010	-0.144	0.008
-576.748	-64.331	0.028	0.011
-575.733	135.221	0.047	-0.062
-574.719	-200.000	-0.009	0.072
-573.704	-109.552	-0.060	-0.013
-572.690	-200.000	0.001	0.202
-571.675	-75.595	0.392	-0.142
-570.661	-83.051	-0.108	0.035
-569.646	326.011	-0.161	0.313
-568.631	-200.000	0.033	-0.229
-567.617	-98.129	-0.124	0.032
-566.602	-19.023	0.182	-0.115
-565.588	800.000	0.098	-0.290
-564.573	562.443	0.038	0.094
-563.558	126.121	-0.285	0.367
-562.544	-145.358	-0.237	-0.022
-561.529	502.804	0.140	0.329
-560.515	800.000	0.014	-0.046
-559.500	129.408	0.129	-0.167
-558.485	72.327	-0.243	-0.258
-557.471	-123.914	0.323	-0.052
-556.456	800.000	0.127	0.415
-555.442	532.014	0.039	0.094
-554.427	-78.503	0.255	0.089
-553.412	800.000	-0.071	0.312
-552.398	-172.644	0.198	0.006
-551.383	3.069	-0.093	-0.068
-550.369	380.763	-0.173	0.361
-549.354	-74.159	0.094	-0.035
-548.339	261.263	0.131	0.230
-547.325	800.000	-0.052	0.229
-546.310	-82.648	-0.431	-0.142
-545.296	-200.000	0.069	-0.361
-544.281	281.550	0.096	0.175
-543.266	274.053	0.176	0.316
-542.252	12.402	0.115	-0.090
-541.237	35.926	0.096	0.085
-540.223	129.745	-0.301	-0.391
-539.208	-44.576	-0.136	0.069
-538.193	733.083	-0.046	0.125
-537.179	-125.748	0.121	0.019
-536.164	-101.520	0.165	0.041
-535.150	-71.340	0.073	0.028
-534.135	800.000	-0.094	0.340
-533.121	-127.231	-0.291	0.043
-532.106	800.000	-0.038	-0.116
-531.091	800.000	0.018	-0.078
-530.077	-200.000	0.016	-0.177
-529.062	205.940	-0.082	0.129
-528.048	800.000	-0.058	0.169
-527.033	76.172	-0.071	-0.076
-526.018	-17.744	-0.199	0.127
-525.004	-200.000	-0.015	-0.165
-523.989	412.797	-0.033	0.072
-522.975	-200.000	-0.009	-0.102
-521.960	-84.924	0.141	-0.045
-520.945	800.000	-0.034	-0.110
-519.931	-115.550	-0.182	0.035
-518.916	-165.866	-0.359	-0.016
-517.902	-199.187	-0.118	-0.001
-516.887	800.000	0.082	0.257
-515.872	-173.901	0.061	-0.002
-514.858	-140.665	-0.260	0.027
-513.843	800.000	-0.073	-0.307
-512.829	-88.061	0.135	-0.041
-511.814	-88.547	-0.113	0.034
-510.799	-200.000	0.021	-0.364
-509.785	-167.243	-0.200	-0.008
-508.770	99.026	-0.204	0.238
-507.756	462.420	-0.113	-0.256
-506.741	800.000	-0.095	-0.285
-505.726	312.532	0.094	-0.178
-504.712	-31.136	0.146	0.083
-503.697	-200.000	0.007	0.086
-502.683	98.780	-0.147	-0.172
-501.668	800.000	-0.015	0.053
-500.653	-129.789	-0.252	0.035
-499.639	18.274	0.185	0.150
-498.624	-32.429	0.439	0.248
-497.610	683.763	0.131	-0.348
-496.595	1.727	-0.184	0.134
-495.581	201.615	0.142	0.222
-494.566	30.210	0.244	-0.211
-493.551	-200.000	0.028	-0.364
-492.537	800.000	-0.058	-0.201
-491.522	-53.206	-0.150	-0.070
-490.508	-103.872	0.173	-0.041
-489.493	-82.414	-0.132	0.043
-488.478	117.931	0.150	0.187
-487.464	-156.846	-0.075	-0.005
-486.449	118.504	0.103	0.129
-485.435	-147.389	0.248	-0.021
-484.420	-173.221	0.193	-0.006
-483.405	-138.871	0.046	-0.005
-482.391	-200.000	-0.020	-0.220
-481.376	-145.077	-0.156	0.014
-480.362	110.683	-0.115	0.140
-479.347	687.523	0.081	0.214
-478.332	-46.795	-0.243	-0.120
-477.318	-200.000	-0.059	0.275
-476.303	800.000	-0.069	0.281
-475.289	-7.060	-0.153	0.105
-474.274	-200.000	0.004	0.151
-473.259	-200.000	-0.073	0.376
-472.245	-122.582	0.239	0.039
-471.230	-148.720	0.248	-0.020
-470.216	-200.000	0.032	0.175
-469.201	-53.214	-0.247	-0.115
-468.186	-136.244	0.118	0.014
-467.172	274.988	0.014	-0.025
-466.157	-163.557	-0.354	-0.017
-465.143	-21.508	0.081	-0.050
-464.128	-200.000	0.032	0.317
-463.113	138.565	-0.144	-0.192
-462.099	555.658	-0.065	-0.159
-461.084	79.844	-0.113	0.123
-460.070	-103.498	0.287	0.068
-459.055	-86.667	-0.194	0.060
-458.040	21.826	0.030	0.025
-457.026	-147.695	-0.080	0.007
-456.011	-79.133	-0.336	-0.115
-454.997	-57.436	0.067	0.030
-453.982	-200.000	0.023	-0.214
-452.968	99.251	0.101	-0.118
-451.953	-120.596	0.191	0.033
-450.938	-133.987	-0.333	-0.042
-449.924	800.000	0.030	0.125
-448.909	7.189	-0.158	-0.119
-447.895	149.689	0.142	0.195
-446.880	105.559	0.051	0.061
-445.865	-88.265	-0.169	0.051
-444.851	-65.182	-0.418	-0.171
-443.836	-118.000	0.390	0.071
-442.822	768.695	0.126	-0.347
-441.807	33.579	-0.200	-0.175
-440.792	434.976	-0.088	-0.195
-439.778	-200.000	0.000	0.053
-438.763	93.867	-0.262	0.301
-437.749	22.023	0.387	-0.319
-436.734	-200.000	0.007	0.153
-435.719	279.533	0.086	0.156
-434.705	556.581	0.138	-0.336
-433.690	-155.117	0.148	0.010
-432.676	-84.067	0.139	0.045
-431.661	58.634	0.130	-0.129
-430.646	157.383	0.134	-0.187
-429.632	-62.175	-0.062	-0.026
-428.617	-36.631	-0.182	-0.099
-427.603	110.969	0.151	0.183
-426.588	234.132	-0.083	0.137
-425.573	-6.206	-0.129	0.089
-424.559	31.977	-0.306	-0.266
-423.544	124.852	0.031	0.039
-422.530	-200.000	-0.027	0.171
-421.515	-63.092	0.289	-0.120
-420.500	800.000	0.013	0.043
-419.486	-49.064	-0.201	-0.097
-418.471	115.874	-0.027	-0.033
-417.457	-200.000	0.044	-0.207
-416.442	800.000	0.065	0.261
-415.428	138.593	0.139	0.184
-414.413	25.316	0.026	-0.022
-413.398	-35.605	-0.197	0.108
-412.384	5.439	-0.162	0.121
-411.369	800.000	0.035	-0.121
-410.355	-51.183	0.395	-0.187
-409.340	-158.373	-0.137	-0.008
-408.325	35.466	-0.315	-0.280
-407.311	21.470	0.277	0.227
-406.296	98.122	-0.051	-0.059
-405.282	-161.722	0.179	-0.009
-404.267	-200.000	0.214	0.001
-403.252	-27.153	0.094	0.055
-402.238	454.038	0.098	-0.220
-401.223	-108.754	-0.444	-0.096
-400.209	-200.000	0.054	-0.259
-399.194	-135.753	-0.192	-0.023
-398.179	-200.000	0.042	-0.197
-397.165	-200.000	0.023	0.102
-396.150	-124.743	0.323	0.050
-395.136	5.318	0.315	0.235
-394.121	431.502	0.091	0.199
-393.106	-200.000	0.007	0.033
-392.092	-200.000	0.015	-0.151
-391.077	80.950	-0.058	0.064
-390.063	12.355	-0.163	0.126
-389.048	51.014	0.199	0.191
-388.033	-90.831	0.161	0.047
-387.019	117.443	0.176	-0.219
-386.004	-2.525	0.136	-0.096
-384.990	88.215	0.088	-0.098
-383.975	140.242	0.113	-0.150
-382.960	-82.918	0.118	0.038
-381.946	189.970	-0.210	-0.318
-380.931	-200.000	-0.011	0.320
-379.917	-11.262	-0.202	0.134
-378.902	-127.730	0.335	0.049
-377.888	-29.081	-0.238	0.138
-376.873	-95.945	-0.100	-0.027
-375.858	101.505	0.093	0.110
-374.844	800.000	-0.065	0.208
-373.829	-15.617	-0.144	-0.092
-372.815	151.727	-0.143	-0.197
-371.800	-36.360	0.192	0.104
-370.785	800.000	-0.030	0.085
-369.771	513.437	0.067	-0.157
-368.756	-70.872	0.253	-0.096
-367.742	387.674	0.107	-0.223
-366.727	-80.848	-0.195	0.065
-365.712	187.977	0.121	-0.183
-364.698	259.147	-0.204	-0.355
-363.683	-200.000	-0.011	0.215
-362.669	-200.000	0.023	-0.206
-361.654	-200.000	0.119	-0.596
-360.639	130.808	0.061	-0.078
-359.625	605.026	0.101	0.255
-358.610	-200.000	-0.010	0.095
-357.596	-148.937	-0.074	-0.006
-356.581	333.289	0.041	0.080
-355.566	-26.461	-0.254	0.150
-354.552	800.000	0.077	0.252
-353.537	-107.016	-0.260	0.058
-352.523	48.027	0.056	0.052
-351.508	-176.866	0.056	0.001
-350.493	-17.148	-0.169	-0.107
-349.479	45.127	0.123	-0.114
-348.464	800.000	-0.157	-0.472
-347.450	412.141	-0.079	0.170
-346.435	69.584	0.109	-0.113
-345.420	-144.681	-0.277	-0.026
-344.406	107.624	0.068	-0.082
-343.391	163.810	-0.154	0.218
-342.377	680.155	0.092	-0.242
-341.362	-106.212	0.206	0.047
-340.348	-22.661	0.113	-0.069
-339.333	-180.542	-0.381	-0.008
-338.318	146.290	-0.015	0.020
-337.304	73.147	0.165	0.174
-336.289	-35.102	0.446	-0.245
-335.275	98.691	-0.119	-0.138
-334.260	-200.000	0.020	0.318
-333.245	-200.000	-0.002	0.307
-332.231	-200.000	-0.022	-0.107
-331.216	800.000	-0.059	-0.214
-330.202	28.984	0.181	-0.155
-329.187	-200.000	-0.001	0.137
-328.172	800.000	-0.044	0.153
-327.158	-200.000	0.021	0.385
-326.143	-102.717	0.135	-0.032
-325.129	-80.037	0.217	0.073
-324.114	-200.000	-0.008	0.212
-323.099	-200.000	-0.035	-0.258
-322.085	27.710	0.245	0.207
-321.070	800.000	-0.071	-0.253
-320.056	-68.452	0.421	-0.164
-319.041	800.000	-0.114	-0.346
-318.026	-200.000	0.002	-0.082
-317.012	800.000	-0.054	0.193
-315.997	121.827	0.104	-0.131
-314.983	124.873	0.165	0.210
-313.968	619.815	0.206	0.521
-312.953	-48.989	0.169	0.081
-311.939	800.000	-0.112	0.442
-310.924	115.620	-0.132	0.162
-309.910	-155.747	0.215	-0.014
-308.895	-76.696	-0.192	0.068
-307.880	-69.625	-0.216	-0.083
-306.866	4.702	-0.062	-0.046
-305.851	-126.197	-0.108	0.016
-304.837	-33.180	0.180	-0.100
-303.822	-200.000	-0.027	0.492
-302.807	94.007	0.138	0.158
-301.793	326.037	-0.190	-0.366
-300.778	246.196	-0.100	0.169
-299.764	317.479	-0.102	0.193
-298.749	-110.206	0.322	-0.067
-297.735	800.000	-0.055	-0.172
-296.720	597.673	0.154	-0.384
-295.705	-4.684	0.106	-0.074
-294.691	202.796	0.250	0.388
-293.676	-2.122	0.265	0.187
-292.662	117.032	0.124	-0.154
-291.647	97.372	-0.168	-0.194
-290.632	800.000	-0.076	-0.238
-289.618	-114.658	-0.114	0.022
-288.603	-67.869	0.162	-0.064
-287.589	48.983	-0.312	-0.295
-286.574	36.111	0.097	-0.086
-285.559	411.432	-0.107	-0.229
-284.545	-200.000	0.031	-0.156
-283.530	-0.836	-0.214	-0.152
-282.516	18.303	0.239	0.192
-281.501	0.423	-0.348	-0.250
-280.486	800.000	-0.034	0.123
-279.472	-69.854	-0.117	-0.045
-278.457	399.141	-0.050	0.104
-277.443	187.072	0.070	-0.104
-276.428	227.333	0.137	0.223
-275.413	16.278	-0.247	0.196
-274.399	800.000	-0.039	0.137
-273.384	298.701	-0.094	0.174
-272.370	44.138	0.167	-0.154
-271.355	-68.568	0.182	0.071
-270.340	-80.528	0.180	0.060
-269.326	-24.254	-0.254	0.152
-268.311	295.567	0.142	-0.261
-267.297	99.934	-0.175	-0.204
-266.282	-64.794	0.223	0.091
-265.267	173.196	0.098	-0.142
-264.253	-178.042	-0.245	-0.006
-263.238	183.863	0.035	-0.053
-262.224	192.146	-0.031	-0.047
-261.209	31.631	-0.104	0.090
-260.195	565.257	-0.054	0.132
-259.180	180.078	0.199	-0.293
-258.165	-9.625	0.219	0.146
-257.151	-74.123	0.110	-0.040
-256.136	47.660	-0.197	-0.184
-255.122	196.948	0.167	0.256
-254.107	-79.758	0.141	-0.048
-253.092	-200.000	-0.111	-0.000
-252.078	-200.000	-0.004	-0.154
-251.063	800.000	0.048	0.166
-250.049	-32.748	0.246	-0.137
-249.034	800.000	0.064	-0.190
-248.019	513.807	0.061	-0.143
-247.005	141.594	-0.104	-0.138
-245.990	-200.000	0.062	0.304
-244.976	-200.000	0.000	-0.177
-243.961	-200.000	0.018	0.130
-242.946	256.243	0.062	-0.107
-241.932	-34.974	0.267	0.146
-240.917	-45.051	-0.264	-0.132
-239.903	192.314	-0.183	-0.277
-238.888	-109.909	0.154	-0.032
-237.873	97.411	0.139	0.160
-236.859	530.373	0.034	-0.081
-235.844	115.385	0.180	0.221
-234.830	-133.643	-0.321	0.040
-233.815	5.682	-0.031	-0.023
-232.800	-88.637	0.158	-0.047
-231.786	40.266	0.021	0.019
-230.771	70.079	0.166	-0.172
-229.757	-129.678	0.297	-0.041
-228.742	-27.199	-0.106	0.062
-227.727	-200.000	0.013	-0.085
-226.713	-10.775	0.113	-0.075
-225.698	-24.781	-0.294	0.175
-224.684	9.971	-0.206	-0.157
-223.669	-77.054	0.205	0.072
-222.655	-59.542	-0.285	-0.123
-221.640	800.000	0.102	0.428
-220.625	-86.644	-0.049	-0.015
-219.611	-18.094	-0.315	0.198
-218.596	800.000	-0.026	0.076
-217.582	28.509	-0.193	-0.164
-216.567	328.480	0.115	-0.222
-215.552	-200.000	0.003	0.078
-214.538	-200.000	-0.012	-0.147
-213.523	800.000	0.040	0.116
-212.509	-200.000	0.031	0.440
-211.494	-200.000	-0.017	0.214
-210.479	-106.989	0.359	-0.079
-209.465	215.894	0.067	-0.107
-208.450	-36.669	-0.117	-0.063
-207.436	-56.279	-0.165	-0.074
-206.421	-200.000	0.045	0.345
-205.406	-192.348	-0.089	0.001
-204.392	-51.494	-0.254	0.119
-203.377	-79.716	-0.311	0.105
-202.363	-200.000	-0.015	-0.296
-201.348	234.488	0.294	-0.485
-200.333	82.982	0.112	-0.122
-199.319	-125.305	0.314	-0.048
-198.304	-200.000	0.004	0.230
-197.290	-169.396	-0.143	-0.005
-196.275	137.041	0.046	0.061
-195.260	-47.452	-0.319	0.155
-194.246	235.952	0.132	0.219
-193.231	171.666	0.117	0.168
-192.217	21.819	0.139	0.114
-191.202	-99.688	0.293	0.074
-190.187	48.416	0.078	0.073
-189.173	-61.306	0.378	0.159
-188.158	800.000	-0.037	-0.160
-187.144	24.596	0.149	-0.124
-186.129	800.000	0.074	-0.299
-185.114	195.690	-0.199	0.303
-184.100	800.000	0.048	0.154
-183.085	50.056	-0.249	0.235
-182.071	76.956	0.152	-0.162
-181.056	-200.000	0.031	-0.251
-180.042	59.055	-0.179	0.176
-179.027	0.911	-0.149	0.107
-178.012	-200.000	-0.011	0.196
-176.998	800.000	0.027	0.103
-175.983	396.404	0.171	-0.358
-174.969	-166.651	-0.185	0.008
-173.954	33.315	-0.333	0.289
-172.939	-199.117	0.101	0.001
-171.925	364.291	0.060	-0.121
-170.910	469.541	-0.050	0.113
-169.896	60.396	-0.205	0.203
-168.881	-149.476	0.293	-0.023
-167.866	24.463	-0.263	-0.218
-166.852	114.421	-0.186	0.227
-165.837	800.000	-0.053	-0.212
-164.823	800.000	-0.065	-0.277
-163.808	58.054	0.195	-0.191
-162.793	-114.114	-0.325	0.063
-161.779	-14.265	0.256	-0.165
-160.764	321.323	-0.093	-0.178
-159.750	85.714	-0.038	-0.042
-158.735	154.664	-0.271	0.373
-157.720	-118.345	0.115	-0.020
-156.706	-200.000	0.038	0.189
-155.691	-98.500	-0.220	0.056
-154.677	-154.225	0.273	-0.018
-153.662	-159.963	-0.571	-0.031
-152.647	266.265	0.091	0.159
-151.633	-74.154	0.189	0.069
-150.618	-152.780	-0.314	-0.022
-149.604	94.948	-0.111	-0.127
-148.589	172.233	-0.062	0.090
-147.574	-51.111	0.344	0.161
-146.560	-20.489	0.074	0.045
-145.545	-67.290	-0.118	0.047
-144.531	-143.135	-0.245	-0.024
-143.516	98.539	-0.165	0.190
-142.502	800.000	-0.054	0.221
-141.487	800.000	0.108	0.323
-140.472	74.121	0.160	0.168
-139.458	122.444	-0.099	0.124
-138.443	272.940	-0.129	-0.228
-137.429	-94.914	0.131	-0.035
-136.414	-200.000	0.010	0.099
-135.399	-200.000	0.042	-0.202
-134.385	-57.016	-0.321	0.141
-133.370	-200.000	-0.027	0.275
-132.356	156.129	0.069	0.095
-131.341	-200.000	0.077	0.404
-130.326	583.368	0.057	0.140
-129.312	238.770	0.137	0.227
-128.297	-200.000	-0.014	-0.293
-127.283	-91.872	0.320	-0.091
-126.268	-200.000	-0.042	-0.235
-125.253	28.312	0.077	-0.065
-124.239	-200.000	0.010	0.291
-123.224	571.018	0.050	0.120
-122.210	95.484	-0.267	0.304
-121.195	-200.000	-0.018	-0.241
