DTS Sentinel unit serial number:	SN413079Multiplexer serial number:	ORYXHardware model number:	OX4-SRSoftware version number:	ORYX F/W v4.00 Oryx Data Collector v3.7.2.0data status	okinstallation	princeton_trtdifferential loss correction	single-endedforward channel	channel 4reverse channel	N/Adate	2019/09/17time	01:57:34forward acquisition time	60.00reverse acquisition time	0.00gamma	496.2192k internal	0.2312k external	0.2312temperature offset calibration	0.9977default loss term (dB/km)	0.3790temperature slope calibration	1.0000multiplexer offset coefficient	1.0000multiplexer slope coefficient	1.0000fibre end	0.00T internal ref (°C)	29.64T ext. ref 1 (°C)	0.13T ext. ref 2 (°C)	24.54length (m)	temperature (°C)	Stokes	anti-Stokes-747.200	-30.445	0.102	0.059
-746.185	-200.000	0.090	0.495
-745.171	535.754	-0.179	0.431
-744.156	50.458	0.183	0.176
-743.142	-200.000	-0.041	-0.226
-742.127	800.000	0.050	0.182
-741.112	62.068	-0.080	-0.081
-740.098	70.977	-0.159	0.167
-739.083	24.349	-0.269	0.226
-738.069	-143.820	-0.009	-0.001
-737.054	-200.000	0.021	-0.252
-736.039	-200.000	0.005	0.268
-735.025	-158.038	0.114	0.007
-734.010	-175.971	-0.606	0.016
-732.996	-156.468	-0.275	-0.017
-731.981	-40.586	0.027	-0.014
-730.966	7.310	-0.129	0.097
-729.952	800.000	-0.038	-0.109
-728.937	-162.049	-0.168	0.009
-727.923	-0.645	-0.151	-0.109
-726.908	-200.000	-0.059	-0.449
-725.894	-37.122	-0.061	-0.033
-724.879	354.298	-0.098	0.198
-723.864	-200.000	0.023	0.326
-722.850	-7.299	-0.355	-0.244
-721.835	-16.054	0.109	0.070
-720.821	153.671	0.152	-0.212
-719.806	800.000	0.108	0.359
-718.791	-71.033	-0.305	0.116
-717.777	-32.374	0.273	0.154
-716.762	83.636	0.106	-0.118
-715.748	187.457	0.084	-0.128
-714.733	-200.000	0.001	-0.049
-713.718	78.645	0.125	-0.136
-712.704	-70.562	-0.258	-0.099
-711.689	-66.911	0.158	-0.063
-710.675	-2.253	-0.298	0.212
-709.660	800.000	-0.015	-0.051
-708.645	126.900	-0.078	-0.100
-707.631	-200.000	-0.066	-0.319
-706.616	-200.000	0.007	-0.246
-705.602	759.923	0.075	0.207
-704.587	66.949	-0.101	0.104
-703.572	-200.000	0.045	0.307
-702.558	-200.000	-0.027	-0.172
-701.543	15.972	0.137	-0.110
-700.529	-10.696	-0.237	-0.159
-699.514	69.084	-0.074	0.077
-698.499	-27.496	0.172	-0.101
-697.485	752.931	0.062	0.170
-696.470	-134.836	-0.308	-0.038
-695.456	108.331	0.177	0.214
-694.441	-22.595	0.135	0.083
-693.426	-200.000	-0.081	-0.378
-692.412	-23.797	0.260	-0.157
-691.397	-200.000	-0.065	-0.301
-690.383	-200.000	0.009	-0.092
-689.368	323.544	0.100	0.194
-688.354	-82.448	-0.369	-0.121
-687.339	70.120	-0.215	-0.225
-686.324	-200.000	0.004	0.180
-685.310	40.575	0.171	0.156
-684.295	-58.839	-0.282	0.124
-683.281	-156.094	-0.044	-0.003
-682.266	184.588	0.081	0.121
-681.251	-200.000	-0.043	0.276
-680.237	300.587	-0.113	-0.210
-679.222	-4.963	-0.134	0.093
-678.208	37.917	-0.190	-0.171
-677.193	55.960	0.212	0.208
-676.178	299.603	-0.146	0.272
-675.164	800.000	0.045	-0.147
-674.149	-145.587	-0.326	-0.030
-673.135	-200.000	-0.026	-0.210
-672.120	-139.970	0.155	0.017
-671.105	-130.191	-0.292	0.040
-670.091	800.000	-0.015	0.047
-669.076	-69.696	-0.051	0.020
-668.062	-21.860	0.277	0.170
-667.047	176.761	-0.066	-0.097
-666.032	-100.454	-0.361	-0.090
-665.018	-200.000	0.015	0.178
-664.003	96.047	-0.110	-0.127
-662.989	249.967	-0.164	-0.281
-661.974	-200.000	0.068	-0.476
-660.959	357.679	0.078	0.157
-659.945	-1.829	0.206	-0.147
-658.930	-104.880	-0.063	0.015
-657.916	-200.000	-0.030	-0.141
-656.901	-96.709	0.118	-0.031
-655.886	18.158	0.324	-0.262
-654.872	-143.502	-0.143	0.014
-653.857	800.000	-0.069	-0.300
-652.843	1.768	0.179	-0.130
-651.828	96.797	-0.263	-0.305
-650.814	-145.950	0.252	0.023
-649.799	-112.531	-0.135	-0.027
-648.784	52.513	0.040	-0.039
-647.770	489.490	-0.154	0.357
-646.755	-6.842	0.127	0.087
-645.741	172.212	-0.048	0.069
-644.726	-200.000	0.037	0.246
-643.711	800.000	-0.066	-0.244
-642.697	24.903	-0.104	0.087
-641.682	18.142	0.169	-0.136
-640.668	195.527	-0.180	-0.277
-639.653	17.533	-0.135	0.108
-638.638	323.680	-0.080	-0.155
-637.624	-200.000	0.029	0.186
-636.609	-200.000	-0.011	-0.077
-635.595	192.318	0.064	-0.098
-634.580	-43.304	0.164	-0.084
-633.565	713.439	-0.035	0.093
-632.551	12.230	-0.208	0.162
-631.536	309.170	-0.128	-0.241
-630.522	152.291	0.109	-0.151
-629.507	510.184	-0.119	0.280
-628.492	203.283	-0.050	0.078
-627.478	800.000	0.123	-0.369
-626.463	-150.423	0.271	-0.021
-625.449	34.496	0.233	-0.205
-624.434	43.552	0.318	-0.294
-623.419	172.026	0.055	-0.079
-622.405	-66.071	-0.128	0.052
-621.390	-25.136	0.152	-0.091
-620.376	35.134	0.303	0.268
-619.361	790.327	0.021	-0.059
-618.346	57.413	0.215	-0.212
-617.332	124.744	0.057	-0.072
-616.317	10.643	0.219	-0.168
-615.303	-200.000	0.007	0.061
-614.288	-55.575	-0.254	0.115
-613.273	539.045	-0.035	0.083
-612.259	130.232	-0.089	0.116
-611.244	-93.323	0.134	0.038
-610.230	-163.498	0.377	-0.018
-609.215	-200.000	-0.005	-0.040
-608.201	-200.000	-0.037	0.290
-607.186	490.372	0.085	-0.197
-606.171	72.676	-0.147	0.155
-605.157	-100.802	0.220	-0.055
-604.142	33.572	-0.304	0.266
-603.128	-200.000	0.053	0.302
-602.113	-200.000	-0.003	0.066
-601.098	149.819	-0.200	-0.273
-600.084	66.904	0.145	0.149
-599.069	37.582	0.127	0.114
-598.055	800.000	-0.120	0.379
-597.040	192.587	-0.055	0.084
-596.025	-174.433	-0.128	0.004
-595.011	-139.445	-0.151	-0.016
-593.996	-145.556	-0.162	-0.015
-592.982	-164.114	0.215	0.010
-591.967	22.707	-0.281	0.232
-590.952	40.630	-0.097	0.088
-589.938	320.937	-0.191	-0.365
-588.923	599.615	-0.097	-0.244
-587.909	42.036	0.062	-0.057
-586.894	-26.854	-0.068	0.040
-585.879	230.437	0.194	0.320
-584.865	-200.000	0.011	0.099
-583.850	-200.000	-0.007	0.079
-582.836	118.506	0.303	-0.377
-581.821	100.980	-0.107	-0.125
-580.806	-200.000	-0.025	-0.193
-579.792	-173.215	0.275	0.008
-578.777	-200.000	-0.016	-0.487
-577.763	-77.192	0.113	-0.040
-576.748	-190.314	0.264	0.003
-575.733	-200.000	-0.006	0.398
-574.719	-148.997	0.436	0.035
-573.704	-91.192	0.231	0.067
-572.690	-200.000	0.039	0.207
-571.675	-36.005	-0.225	0.122
-570.661	-26.005	0.287	-0.170
-569.646	92.385	0.037	-0.041
-568.631	-6.512	0.083	-0.057
-567.617	-176.169	-0.195	-0.005
-566.602	-115.835	-0.114	0.021
-565.588	72.320	0.277	0.290
-564.573	10.438	-0.058	-0.044
-563.558	61.952	-0.056	0.056
-562.544	75.120	0.069	0.073
-561.529	-126.301	-0.314	0.047
-560.515	294.015	-0.106	-0.196
-559.500	333.633	0.125	-0.244
-558.485	800.000	-0.072	-0.202
-557.471	544.327	0.065	-0.156
-556.456	453.796	0.044	0.098
-555.442	80.031	-0.105	0.114
-554.427	230.259	0.131	-0.216
-553.412	52.603	-0.096	-0.092
-552.398	-200.000	0.048	0.351
-551.383	-200.000	0.028	0.318
-550.369	37.616	0.159	0.142
-549.354	-200.000	0.024	-0.163
-548.339	86.678	-0.014	0.016
-547.325	-158.608	-0.284	-0.016
-546.310	-74.757	0.135	-0.049
-545.296	783.300	-0.054	-0.150
-544.281	57.944	0.046	-0.045
-543.266	98.178	-0.256	0.296
-542.252	-14.850	0.066	-0.043
-541.237	-95.261	0.143	-0.039
-540.223	73.397	-0.185	0.195
-539.208	-41.472	-0.065	0.034
-538.193	336.688	0.120	0.235
-537.179	800.000	0.044	0.127
-536.164	41.373	-0.081	-0.073
-535.150	800.000	-0.060	0.181
-534.135	-30.235	-0.102	0.058
-533.121	-200.000	-0.012	0.121
-532.106	-200.000	-0.013	-0.074
-531.091	355.379	-0.150	-0.301
-530.077	-200.000	-0.009	0.214
-529.062	800.000	0.034	-0.115
-528.048	800.000	-0.077	-0.222
-527.033	175.238	0.154	-0.224
-526.018	566.842	0.096	-0.233
-525.004	-144.368	-0.174	-0.016
-523.989	-200.000	-0.023	0.237
-522.975	-200.000	0.008	-0.312
-521.960	-17.043	0.100	0.064
-520.945	-200.000	0.052	-0.315
-519.931	308.807	0.037	0.069
-518.916	-140.714	0.152	-0.016
-517.902	529.147	0.028	0.067
-516.887	-21.612	-0.130	-0.079
-515.872	-155.250	0.022	0.001
-514.858	-3.799	0.191	0.133
-513.843	112.182	-0.121	0.147
-512.829	20.228	-0.038	-0.031
-511.814	800.000	0.089	0.290
-510.799	-179.069	-0.413	-0.009
-509.785	103.097	-0.144	-0.170
-508.770	-200.000	0.064	0.000
-507.756	-62.160	0.181	0.076
-506.741	800.000	0.070	0.294
-505.726	-107.771	0.106	-0.023
-504.712	142.463	-0.104	-0.139
-503.697	-200.000	-0.024	0.147
-502.683	53.149	0.108	-0.104
-501.668	-49.546	-0.259	0.124
-500.653	-133.307	-0.184	-0.023
-499.639	-120.974	0.215	0.036
-498.624	800.000	0.050	0.160
-497.610	318.004	-0.096	0.182
-496.595	286.749	-0.075	-0.137
-495.581	800.000	-0.052	-0.197
-494.566	-16.447	-0.296	0.189
-493.551	800.000	0.074	-0.223
-492.537	361.031	0.073	0.147
-491.522	800.000	0.036	0.132
-490.508	-200.000	0.041	0.276
-489.493	230.491	0.026	-0.043
-488.478	224.107	0.039	0.063
-487.464	89.684	0.287	-0.322
-486.449	112.627	0.206	0.250
-485.435	272.603	0.158	0.281
-484.420	-103.401	0.151	-0.036
-483.405	-39.123	-0.407	-0.215
-482.391	-200.000	0.025	-0.329
-481.376	-200.000	-0.013	-0.375
-480.362	-110.383	-0.576	0.120
-479.347	800.000	-0.015	0.063
-478.332	455.622	-0.122	-0.272
-477.318	-76.196	0.400	0.142
-476.303	134.342	-0.104	-0.135
-475.289	-66.498	-0.262	0.104
-474.274	-35.066	0.159	-0.087
-473.259	128.505	-0.148	0.189
-472.245	321.752	-0.104	-0.199
-471.230	185.368	-0.099	0.147
-470.216	-21.461	-0.098	-0.060
-469.201	-13.116	-0.028	0.018
-468.186	-123.551	-0.162	-0.026
-467.172	59.890	-0.273	0.270
-466.157	20.997	-0.062	0.051
-465.143	-129.491	0.220	0.031
-464.128	-200.000	0.045	0.361
-463.113	-106.290	-0.031	-0.007
-462.099	91.066	0.278	-0.313
-461.084	-119.535	0.124	-0.022
-460.070	-163.285	0.476	0.023
-459.055	-151.744	-0.339	0.025
-458.040	182.326	0.094	0.139
-457.026	-200.000	0.036	-0.166
-456.011	-53.309	0.224	0.103
-454.997	-184.189	0.137	-0.002
-453.982	88.679	-0.092	0.103
-452.968	111.018	0.182	-0.219
-451.953	244.412	0.089	-0.150
-450.938	800.000	-0.053	0.199
-449.924	575.884	0.060	-0.148
-448.909	800.000	-0.062	-0.265
-447.895	-49.060	0.294	-0.141
-446.880	268.093	-0.111	0.195
-445.865	-53.578	-0.103	0.047
-444.851	800.000	0.043	-0.138
-443.836	-200.000	0.015	-0.085
-442.822	-200.000	-0.037	-0.196
-441.807	-200.000	0.013	0.175
-440.792	800.000	-0.094	0.303
-439.778	89.750	-0.101	-0.113
-438.763	43.340	0.111	0.102
-437.749	-3.675	-0.363	-0.253
-436.734	-200.000	0.018	-0.167
-435.719	-171.200	-0.210	-0.007
-434.705	188.542	0.087	-0.131
-433.690	-200.000	0.007	-0.164
-432.676	-113.663	0.185	0.036
-431.661	-200.000	0.005	-0.214
-430.646	-200.000	-0.020	-0.112
-429.632	48.299	-0.097	-0.091
-428.617	46.082	-0.100	-0.093
-427.603	800.000	-0.057	-0.164
-426.588	179.812	0.051	-0.075
-425.573	-200.000	0.105	0.533
-424.559	49.436	-0.243	-0.229
-423.544	104.191	0.223	0.263
-422.530	800.000	-0.039	0.124
-421.515	-40.399	0.240	0.125
-420.500	723.256	0.062	-0.166
-419.486	-5.597	-0.032	0.022
-418.471	-27.749	-0.165	-0.096
-417.457	368.685	-0.085	-0.172
-416.442	257.514	-0.083	0.143
-415.428	-78.622	-0.338	0.116
-414.413	-200.000	-0.017	-0.291
-413.398	444.158	-0.119	-0.262
-412.384	-9.745	-0.303	0.202
-411.369	-28.334	0.237	0.137
-410.355	393.819	-0.129	-0.269
-409.340	-77.859	0.088	0.030
-408.325	33.789	-0.211	-0.184
-407.311	-200.000	-0.040	-0.232
-406.296	-118.427	0.294	0.052
-405.282	-68.799	0.233	-0.090
-404.267	599.177	-0.019	0.048
-403.252	16.471	0.156	-0.123
-402.238	19.983	-0.164	-0.133
-401.223	-4.940	0.059	0.041
-400.209	-128.523	0.234	-0.033
-399.194	-200.000	0.008	-0.064
-398.179	87.376	0.244	-0.270
-397.165	20.214	0.256	0.207
-396.150	-200.000	-0.006	-0.184
-395.136	-140.956	0.436	0.045
-394.121	5.624	-0.206	0.152
-393.106	49.003	-0.277	-0.260
-392.092	451.969	-0.082	0.180
-391.077	800.000	-0.063	-0.256
-390.063	151.089	-0.125	-0.171
-389.048	-123.908	-0.069	-0.011
-388.033	7.480	0.164	0.123
-387.019	-200.000	0.053	-0.297
-386.004	-200.000	-0.040	0.284
-384.990	440.403	-0.095	0.208
-383.975	800.000	-0.012	0.042
-382.960	10.210	-0.085	0.065
-381.946	167.960	-0.122	0.174
-380.931	-200.000	-0.053	0.388
-379.917	216.635	-0.146	0.232
-378.902	-108.478	-0.074	-0.016
-377.888	-15.493	-0.269	-0.172
-376.873	-64.461	0.049	0.020
-375.858	-200.000	0.007	0.255
-374.844	-40.905	-0.205	0.106
-373.829	800.000	-0.032	-0.123
-372.815	-55.148	0.225	0.101
-371.800	-39.635	-0.122	0.064
-370.785	-200.000	0.011	0.257
-369.771	800.000	-0.067	0.195
-368.756	92.376	-0.026	-0.029
-367.742	64.853	0.221	-0.223
-366.727	-16.499	-0.160	0.101
-365.712	-145.166	0.088	0.008
-364.698	-200.000	0.009	0.071
-363.683	-56.668	0.194	-0.086
-362.669	96.229	-0.065	0.074
-361.654	688.312	0.055	0.143
-360.639	800.000	-0.082	-0.266
-359.625	-98.201	0.309	-0.079
-358.610	-155.300	0.087	0.006
-357.596	72.581	-0.141	-0.147
-356.581	-48.013	-0.232	-0.112
-355.566	356.017	0.128	0.256
-354.552	-141.995	0.429	0.043
-353.537	305.973	0.169	0.313
-352.523	173.613	-0.258	-0.372
-351.508	-200.000	-0.082	-0.499
-350.493	142.020	-0.136	-0.180
-349.479	800.000	0.028	-0.093
-348.464	-50.846	-0.282	-0.133
-347.450	-16.055	0.146	-0.093
-346.435	357.982	-0.073	0.146
-345.420	-200.000	0.022	0.123
-344.406	112.012	-0.080	0.097
-343.391	226.586	0.155	-0.251
-342.377	412.463	0.101	-0.214
-341.362	-200.000	-0.074	0.540
-340.348	-87.583	0.198	-0.060
-339.333	-123.157	-0.191	-0.031
-338.318	-71.093	-0.234	-0.088
-337.304	-86.419	0.294	0.090
-336.289	120.767	-0.078	-0.097
-335.275	191.546	-0.298	-0.449
-334.260	71.103	-0.082	-0.085
-333.245	-181.844	0.259	-0.005
-332.231	393.193	0.085	-0.176
-331.216	49.654	-0.165	0.155
-330.202	-79.753	0.366	0.123
-329.187	-65.056	-0.084	-0.034
-328.172	-136.079	-0.421	-0.049
-327.158	52.521	-0.242	-0.231
-326.143	-96.511	0.069	0.018
-325.129	186.886	0.102	-0.152
-324.114	24.988	0.123	-0.102
-323.099	352.097	-0.241	-0.476
-322.085	-200.000	0.010	0.100
-321.070	-55.186	0.367	-0.165
-320.056	800.000	0.120	0.349
-319.041	679.620	0.145	-0.378
-318.026	299.976	0.059	-0.108
-317.012	-23.146	0.091	-0.055
-315.997	-200.000	0.021	0.107
-314.983	212.890	-0.072	0.114
-313.968	-159.362	0.178	0.010
-312.953	-200.000	-0.022	-0.183
-311.939	-200.000	-0.001	-0.065
-310.924	-54.916	0.352	0.158
-309.910	-33.019	0.053	-0.029
-308.895	90.329	0.075	0.084
-307.880	52.532	-0.300	0.286
-306.866	-65.463	-0.184	-0.074
-305.851	-200.000	0.001	0.160
-304.837	448.095	0.096	0.211
-303.822	-0.706	0.149	-0.106
-302.807	6.339	-0.076	-0.056
-301.793	-200.000	0.053	0.332
-300.778	-75.693	-0.316	0.112
-299.764	59.146	-0.196	-0.192
-298.749	513.393	-0.033	0.077
-297.735	800.000	0.034	0.119
-296.720	800.000	0.075	-0.306
-295.705	-200.000	-0.019	0.107
-294.691	800.000	0.027	0.095
-293.676	-127.560	-0.322	-0.047
-292.662	-14.732	-0.030	-0.019
-291.647	-138.605	0.323	-0.035
-290.632	154.708	-0.156	-0.213
-289.618	177.624	0.091	-0.132
-288.603	-66.389	-0.330	0.131
-287.589	-200.000	-0.015	0.122
-286.574	-10.416	0.182	-0.120
-285.559	8.615	-0.067	0.050
-284.545	-115.303	0.089	-0.017
-283.530	252.219	0.050	-0.086
-282.516	54.616	0.170	0.163
-281.501	-84.693	0.034	-0.011
-280.486	246.577	-0.169	0.285
-279.472	-169.583	0.454	-0.016
-278.457	-200.000	0.020	0.209
-277.443	273.374	-0.061	0.107
-276.428	-129.915	-0.237	0.032
-275.413	226.612	0.177	0.286
-274.399	73.261	0.226	0.236
-273.384	-150.453	-0.172	-0.013
-272.370	-146.763	-0.249	-0.021
-271.355	38.995	-0.191	-0.170
-270.340	532.848	-0.104	-0.245
-269.326	82.366	0.139	-0.150
-268.311	800.000	-0.075	0.215
-267.297	-28.554	0.272	-0.156
-266.282	-200.000	0.049	0.461
-265.267	21.469	-0.222	0.180
-264.253	-117.468	0.258	-0.046
-263.238	-58.073	-0.220	0.096
-262.224	336.789	0.090	-0.175
-261.209	-200.000	0.004	0.054
-260.195	214.196	-0.117	0.184
-259.180	-200.000	0.003	-0.074
-258.165	31.272	0.128	-0.109
-257.151	149.487	0.022	0.030
-256.136	180.636	0.063	-0.092
-255.122	-64.229	-0.209	-0.085
-254.107	800.000	-0.021	-0.078
-253.092	-164.656	0.152	0.007
-252.078	-200.000	-0.013	-0.079
-251.063	315.411	-0.120	0.225
-250.049	-200.000	-0.020	-0.094
-249.034	-107.184	-0.246	-0.054
-248.019	-120.809	0.263	0.044
-247.005	134.358	-0.065	0.084
-245.990	-103.101	-0.163	0.038
-244.976	-102.403	0.026	0.006
-243.961	507.652	-0.060	0.139
-242.946	-91.431	0.162	-0.046
-241.932	-200.000	0.055	0.290
-240.917	205.065	-0.168	-0.259
-239.903	39.175	-0.150	-0.134
-238.888	120.131	0.076	0.094
-237.873	-200.000	0.055	-0.297
-236.859	80.517	-0.138	-0.148
-235.844	-82.832	-0.123	0.040
-234.830	-68.898	-0.141	0.054
-233.815	800.000	-0.045	0.180
-232.800	-200.000	0.005	-0.246
-231.786	350.119	0.060	0.118
-230.771	-137.280	-0.232	-0.026
-229.757	47.874	0.270	0.251
-228.742	79.575	0.159	0.169
-227.727	-58.715	0.047	-0.020
-226.713	-111.744	0.291	-0.059
-225.698	-200.000	0.007	0.124
-224.684	391.149	-0.037	0.076
-223.669	15.984	-0.209	-0.164
-222.655	-174.801	0.096	0.003
-221.640	-99.733	-0.095	0.024
-220.625	-98.795	0.104	-0.026
-219.611	-111.281	-0.286	-0.058
-218.596	-152.891	0.354	-0.025
-217.582	260.295	0.213	0.365
-216.567	-96.824	-0.311	0.081
-215.552	-72.816	-0.166	0.061
-214.538	-200.000	-0.005	0.084
-213.523	-167.611	-0.366	0.014
-212.509	-141.831	-0.018	0.002
-211.494	239.311	-0.254	0.420
-210.479	-37.806	0.147	0.078
-209.465	31.724	-0.097	0.083
-208.450	67.600	0.088	0.089
-207.436	64.073	0.039	0.039
-206.421	-24.974	-0.140	-0.083
-205.406	344.160	-0.183	-0.356
-204.392	313.517	-0.065	-0.122
-203.377	-0.507	0.078	0.055
-202.363	291.626	-0.164	0.297
-201.348	325.468	-0.087	-0.165
-200.333	800.000	-0.027	-0.073
-199.319	-200.000	0.003	0.173
-198.304	-200.000	-0.005	0.049
-197.290	137.743	0.106	0.138
-196.275	800.000	0.050	-0.149
-195.260	-15.852	-0.328	-0.207
-194.246	-107.113	0.215	0.047
-193.231	689.973	-0.082	0.212
-192.217	2.223	0.224	0.161
-191.202	552.348	0.031	0.073
-190.187	253.010	-0.015	0.026
-189.173	153.134	0.119	-0.162
-188.158	-200.000	0.067	0.401
-187.144	-200.000	-0.080	0.420
-186.129	297.004	-0.155	-0.282
-185.114	-200.000	0.033	0.000
-184.100	-73.647	-0.131	0.047
-183.085	118.240	-0.186	0.227
-182.071	-200.000	-0.022	0.218
-181.056	-200.000	0.013	0.316
-180.042	800.000	-0.116	0.346
-179.027	-16.592	0.054	0.034
-178.012	86.578	0.169	-0.185
-176.998	-200.000	0.025	-0.399
-175.983	-200.000	0.002	-0.526
-174.969	800.000	0.124	-0.344
-173.954	-24.494	0.133	0.078
-172.939	168.394	0.054	0.076
-171.925	62.035	0.129	-0.127
-170.910	22.375	0.077	-0.063
-169.896	154.131	0.134	-0.182
-168.881	459.465	0.111	0.244
-167.866	-16.081	0.228	-0.144
-166.852	38.969	0.136	0.120
-165.837	-200.000	-0.052	-0.267
-164.823	297.362	0.035	-0.064
-163.808	800.000	-0.052	0.198
-162.793	-96.522	0.308	0.081
-161.779	68.596	-0.184	-0.187
-160.764	-128.560	-0.078	-0.011
-159.750	-119.853	0.445	-0.076
-158.735	-127.633	-0.374	-0.054
-157.720	194.265	-0.139	-0.209
-156.706	73.697	-0.134	-0.139
-155.691	116.163	-0.147	-0.178
-154.677	800.000	-0.042	-0.153
-153.662	7.382	0.142	-0.105
-152.647	800.000	0.114	0.367
-151.633	720.484	-0.038	0.099
-150.618	-152.021	0.261	-0.019
-149.604	-142.254	0.086	0.008
-148.589	-84.093	0.275	-0.087
-147.574	265.559	-0.114	0.197
-146.560	-200.000	0.013	0.180
-145.545	-25.765	0.088	0.051
-144.531	-200.000	0.061	0.333
-143.516	66.414	0.206	0.207
-142.502	26.511	0.235	0.195
-141.487	-85.110	-0.196	-0.061
-140.472	800.000	0.039	0.116
-139.458	-200.000	0.057	0.484
-138.443	-33.308	-0.249	-0.137
-137.429	373.335	-0.107	-0.216
-136.414	-200.000	-0.002	0.179
-135.399	-86.820	-0.101	-0.031
-134.385	800.000	0.012	-0.042
-133.370	-200.000	0.003	-0.038
-132.356	-39.613	0.260	-0.135
-131.341	-200.000	0.036	0.174
-130.326	-200.000	-0.008	0.159
-129.312	733.149	-0.044	0.115
-128.297	800.000	-0.091	0.248
-127.283	-96.099	-0.214	0.056
-126.268	-117.133	0.266	0.048
-125.253	-200.000	0.046	0.349
-124.239	-130.614	-0.372	-0.050
-123.224	66.247	0.317	0.319
-122.210	-160.549	-0.464	0.025
-121.195	550.486	0.098	-0.234
