DTS Sentinel unit serial number:	SN413079Multiplexer serial number:	ORYXHardware model number:	OX4-SRSoftware version number:	ORYX F/W v4.00 Oryx Data Collector v3.7.2.0data status	okinstallation	princeton_trtdifferential loss correction	single-endedforward channel	channel 4reverse channel	N/Adate	2019/09/13time	06:09:34forward acquisition time	60.00reverse acquisition time	0.00gamma	496.2192k internal	0.2324k external	0.2324temperature offset calibration	1.0197default loss term (dB/km)	0.3790temperature slope calibration	1.0000multiplexer offset coefficient	1.0000multiplexer slope coefficient	1.0000fibre end	0.00T internal ref (°C)	26.12T ext. ref 1 (°C)	4.08T ext. ref 2 (°C)	20.92length (m)	temperature (°C)	Stokes	anti-Stokes-747.200	800.000	-0.046	0.143
-746.185	-28.794	-0.093	0.054
-745.171	512.221	0.083	-0.196
-744.156	800.000	-0.098	0.362
-743.142	-146.024	0.332	-0.030
-742.127	-12.333	-0.257	0.169
-741.112	1.141	-0.051	-0.037
-740.098	-98.346	-0.129	-0.033
-739.083	800.000	0.031	-0.099
-738.069	520.218	-0.130	0.309
-737.054	-200.000	-0.004	0.223
-736.039	23.426	-0.381	-0.317
-735.025	-200.000	0.042	0.196
-734.010	-103.109	-0.433	0.103
-732.996	155.350	-0.107	-0.149
-731.981	-124.445	0.200	0.031
-730.966	100.641	-0.126	0.147
-729.952	329.617	-0.220	0.427
-728.937	-94.991	-0.222	-0.061
-727.923	513.285	-0.048	-0.113
-726.908	-200.000	-0.012	-0.200
-725.894	-77.310	-0.505	-0.177
-724.879	-29.469	-0.045	-0.026
-723.864	-140.273	-0.182	-0.019
-722.850	-200.000	-0.063	-0.317
-721.835	-200.000	0.022	-0.223
-720.821	-118.813	-0.286	0.051
-719.806	-162.733	0.376	0.019
-718.791	-91.588	0.394	-0.113
-717.777	232.501	-0.158	-0.262
-716.762	-108.135	0.271	-0.059
-715.748	98.196	0.126	0.147
-714.733	-112.883	-0.297	0.059
-713.718	445.158	0.093	-0.206
-712.704	-18.857	-0.399	-0.250
-711.689	-27.948	0.200	0.117
-710.675	-1.304	0.179	0.128
-709.660	-145.153	-0.291	-0.027
-708.645	54.303	0.097	-0.094
-707.631	-144.328	-0.397	0.037
-706.616	-126.541	0.275	-0.041
-705.602	525.192	-0.059	0.141
-704.587	451.794	-0.059	-0.132
-703.572	5.123	0.167	0.124
-702.558	-78.292	-0.228	0.079
-701.543	107.067	-0.168	0.201
-700.529	143.727	-0.080	-0.107
-699.514	19.462	0.125	0.101
-698.499	588.185	-0.059	-0.146
-697.485	-93.426	-0.377	-0.105
-696.470	-42.831	0.117	-0.060
-695.456	-80.545	0.428	-0.144
-694.441	-95.595	-0.359	-0.097
-693.426	-67.078	-0.160	0.064
-692.412	175.157	-0.058	0.084
-691.397	-4.653	0.343	-0.238
-690.383	-96.440	-0.449	0.120
-689.368	-72.956	-0.218	0.081
-688.354	599.129	-0.089	0.221
-687.339	-200.000	0.003	0.221
-686.324	-200.000	-0.023	-0.167
-685.310	-140.652	-0.256	0.027
-684.295	-37.634	0.172	0.092
-683.281	112.478	0.163	-0.199
-682.266	-61.897	0.042	0.018
-681.251	-149.044	0.261	-0.021
-680.237	318.014	-0.132	-0.251
-679.222	-22.337	-0.213	0.130
-678.208	-63.813	0.318	0.131
-677.193	161.980	-0.100	-0.141
-676.178	213.943	-0.079	-0.126
-675.164	336.406	-0.118	-0.231
-674.149	-200.000	-0.010	0.077
-673.135	148.461	-0.061	0.082
-672.120	-11.662	-0.483	-0.320
-671.105	25.908	0.388	-0.325
-670.091	800.000	0.087	-0.317
-669.076	-200.000	-0.029	0.158
-668.062	-200.000	-0.014	0.393
-667.047	-130.345	-0.191	-0.026
-666.032	243.340	-0.102	0.172
-665.018	-200.000	0.030	-0.278
-664.003	56.539	-0.293	-0.287
-662.989	-1.683	0.198	-0.140
-661.974	800.000	0.068	-0.230
-660.959	-144.429	-0.191	0.018
-659.945	800.000	-0.044	0.164
-658.930	0.846	-0.255	0.184
-657.916	-40.123	0.144	0.076
-656.901	-68.429	-0.101	-0.039
-655.886	800.000	-0.048	-0.135
-654.872	-200.000	-0.036	-0.203
-653.857	-200.000	0.011	0.183
-652.843	-99.939	0.076	0.019
-651.828	-65.084	0.245	0.099
-650.814	-200.000	-0.050	0.268
-649.799	22.200	0.069	-0.057
-648.784	38.645	0.045	-0.040
-647.770	767.704	-0.176	-0.481
-646.755	-58.016	-0.262	-0.115
-645.741	-200.000	-0.005	-0.097
-644.726	-98.975	-0.306	0.078
-643.711	81.157	-0.109	-0.119
-642.697	114.185	-0.171	0.209
-641.682	70.055	0.080	0.083
-640.668	-75.538	0.206	-0.074
-639.653	94.909	-0.089	-0.102
-638.638	-100.521	0.409	0.102
-637.624	604.005	-0.032	-0.080
-636.609	178.927	-0.095	0.140
-635.595	-200.000	0.013	-0.183
-634.580	453.866	-0.185	-0.412
-633.565	652.638	-0.065	-0.168
-632.551	-200.000	0.023	-0.104
-631.536	-200.000	-0.234	0.001
-630.522	-2.722	-0.075	-0.053
-629.507	277.045	0.093	0.165
-628.492	184.078	0.129	0.192
-627.478	-32.027	0.264	-0.148
-626.463	397.119	-0.044	0.092
-625.449	46.627	0.101	0.094
-624.434	141.760	0.048	0.063
-623.419	-154.599	-0.045	-0.003
-622.405	800.000	-0.070	0.232
-621.390	-200.000	0.054	0.335
-620.376	569.097	0.093	-0.226
-619.361	-130.042	0.314	-0.043
-618.346	37.540	-0.152	0.135
-617.332	9.352	0.367	0.279
-616.317	-176.410	-0.263	0.007
-615.303	199.213	0.117	-0.180
-614.288	-27.086	0.156	-0.091
-613.273	-76.394	0.047	-0.017
-612.259	800.000	0.072	0.266
-611.244	-200.000	0.048	0.259
-610.230	-161.886	-0.197	-0.010
-609.215	15.356	0.070	-0.055
-608.201	696.232	0.022	0.059
-607.186	57.772	-0.348	-0.342
-606.171	-70.411	-0.106	0.040
-605.157	525.856	0.118	0.278
-604.142	-200.000	-0.028	-0.148
-603.128	800.000	-0.126	0.406
-602.113	-1.274	-0.132	0.093
-601.098	19.703	-0.048	0.039
-600.084	46.772	0.170	0.159
-599.069	-200.000	-0.010	-0.269
-598.055	-200.000	0.011	0.184
-597.040	800.000	0.053	-0.191
-596.025	6.312	-0.385	0.287
-595.011	103.738	0.076	0.089
-593.996	743.279	-0.042	0.114
-592.982	-141.605	0.305	-0.031
-591.967	143.222	-0.037	-0.049
-590.952	35.723	-0.149	-0.131
-589.938	-99.606	0.299	-0.075
-588.923	-200.000	-0.018	-0.270
-587.909	206.796	0.052	-0.081
-586.894	-73.394	0.141	-0.052
-585.879	-120.376	0.162	0.028
-584.865	-193.103	-0.352	-0.003
-583.850	661.303	0.049	-0.127
-582.836	-171.259	-0.181	-0.006
-581.821	32.121	0.140	0.121
-580.806	161.710	0.190	0.267
-579.792	-15.243	0.082	-0.053
-578.777	-64.574	0.245	0.100
-577.763	504.011	-0.087	-0.201
-576.748	103.129	0.142	-0.167
-575.733	-85.440	0.070	-0.022
-574.719	-97.641	-0.227	0.059
-573.704	641.254	0.048	-0.123
-572.690	-113.344	-0.182	-0.036
-571.675	-200.000	-0.086	0.437
-570.661	616.518	0.185	0.467
-569.646	800.000	-0.061	0.234
-568.631	-200.000	0.030	0.131
-567.617	-102.353	0.360	0.086
-566.602	132.691	-0.028	-0.036
-565.588	-51.550	0.415	0.194
-564.573	75.739	-0.211	-0.223
-563.558	-200.000	-0.004	0.260
-562.544	-45.238	0.277	0.138
-561.529	-77.642	0.372	-0.129
-560.515	482.284	-0.123	-0.280
-559.500	-57.100	-0.104	0.046
-558.485	-62.009	-0.105	0.044
-557.471	188.989	-0.119	-0.178
-556.456	475.752	-0.089	-0.202
-555.442	-200.000	0.009	0.137
-554.427	4.743	-0.281	-0.207
-553.412	800.000	-0.043	-0.124
-552.398	34.604	0.219	0.191
-551.383	-31.297	-0.075	0.042
-550.369	800.000	-0.023	-0.086
-549.354	-200.000	0.036	-0.302
-548.339	18.241	0.207	-0.166
-547.325	-89.485	-0.198	0.058
-546.310	-200.000	0.006	0.041
-545.296	-200.000	0.012	-0.151
-544.281	132.331	0.066	-0.085
-543.266	-95.521	-0.041	-0.011
-542.252	-87.195	-0.342	-0.104
-541.237	195.157	-0.040	0.061
-540.223	-30.957	-0.407	0.230
-539.208	172.650	-0.201	-0.290
-538.193	-200.000	-0.000	0.027
-537.179	96.577	0.162	-0.186
-536.164	146.156	-0.127	-0.171
-535.150	116.949	-0.130	0.159
-534.135	800.000	-0.009	0.039
-533.121	136.372	-0.068	-0.089
-532.106	-56.564	-0.281	0.125
-531.091	-10.667	-0.114	-0.075
-530.077	-127.799	-0.149	-0.022
-529.062	-76.597	0.503	-0.177
-528.048	800.000	0.052	-0.179
-527.033	302.338	-0.087	0.160
-526.018	800.000	-0.085	-0.261
-525.004	733.382	0.039	0.105
-523.989	-88.996	0.085	-0.025
-522.975	-44.911	-0.103	0.051
-521.960	-118.516	-0.142	-0.025
-520.945	-200.000	0.022	0.229
-519.931	170.172	-0.185	0.265
-518.916	487.743	-0.124	0.283
-517.902	213.113	0.192	0.304
-516.887	-4.659	0.306	-0.211
-515.872	-58.839	0.347	-0.150
-514.858	-200.000	-0.032	-0.310
-513.843	182.575	-0.244	-0.360
-512.829	90.612	0.094	0.106
-511.814	-111.221	0.043	-0.009
-510.799	-200.000	0.034	0.219
-509.785	6.999	-0.173	0.129
-508.770	304.425	-0.131	-0.244
-507.756	216.628	0.179	-0.284
-506.741	-69.202	-0.049	-0.019
-505.726	-15.615	0.310	0.198
-504.712	-60.043	-0.213	-0.091
-503.697	-200.000	-0.017	0.097
-502.683	-200.000	0.002	0.118
-501.668	207.867	0.063	-0.098
-500.653	-14.387	-0.247	-0.159
-499.639	-88.416	-0.255	-0.076
-498.624	-139.049	-0.100	-0.011
-497.610	-200.000	-0.020	0.198
-496.595	-0.507	0.097	-0.069
-495.581	-50.066	0.200	0.095
-494.566	-19.695	0.192	0.119
-493.551	334.991	0.055	-0.107
-492.537	-24.458	-0.167	-0.100
-491.522	-134.929	-0.293	-0.035
-490.508	-95.444	0.063	-0.017
-489.493	-12.388	-0.172	-0.112
-488.478	119.888	0.164	-0.203
-487.464	-200.000	0.014	0.130
-486.449	339.881	-0.114	-0.223
-485.435	-46.391	-0.140	0.069
-484.420	-200.000	0.004	0.134
-483.405	114.777	0.373	0.455
-482.391	314.491	0.074	-0.139
-481.376	61.454	-0.131	-0.130
-480.362	499.214	0.022	-0.050
-479.347	-200.000	0.002	0.055
-478.332	-98.206	-0.159	0.041
-477.318	-42.819	-0.066	0.033
-476.303	-21.637	-0.354	0.215
-475.289	-122.862	-0.162	0.026
-474.274	-97.580	-0.122	-0.032
-473.259	-200.000	-0.051	-0.241
-472.245	-200.000	0.014	-0.175
-471.230	-200.000	-0.006	-0.060
-470.216	695.539	0.063	0.164
-469.201	185.801	-0.203	0.302
-468.186	-200.000	-0.046	0.405
-467.172	153.386	0.134	-0.184
-466.157	469.654	0.088	-0.197
-465.143	28.778	-0.144	0.122
-464.128	-124.761	0.202	0.031
-463.113	77.457	-0.140	0.149
-462.099	-112.597	-0.223	-0.044
-461.084	-200.000	0.002	-0.101
-460.070	-200.000	-0.018	0.171
-459.055	554.910	-0.144	-0.346
-458.040	-200.000	-0.067	-0.355
-457.026	41.877	0.071	0.065
-456.011	-200.000	0.025	0.248
-454.997	-162.610	0.206	-0.010
-453.982	-12.679	-0.163	0.106
-452.968	4.451	0.012	0.009
-451.953	-11.626	0.048	0.031
-450.938	-200.000	-0.007	0.199
-449.924	49.686	-0.259	0.243
-448.909	-157.401	-0.242	-0.015
-447.895	35.485	0.179	-0.157
-446.880	-111.404	0.119	-0.024
-445.865	800.000	0.049	0.170
-444.851	546.852	0.061	0.144
-443.836	-163.519	-0.421	0.020
-442.822	-157.352	0.234	-0.014
-441.807	53.689	-0.263	-0.252
-440.792	-79.606	-0.188	0.063
-439.778	-48.840	-0.255	-0.122
-438.763	168.121	0.009	0.012
-437.749	800.000	0.069	0.219
-436.734	317.490	0.167	0.316
-435.719	-63.235	0.439	-0.180
-434.705	99.704	0.061	-0.071
-433.690	-200.000	-0.025	-0.301
-432.676	114.546	-0.155	-0.189
-431.661	600.370	0.080	-0.199
-430.646	769.815	0.059	0.162
-429.632	-53.329	0.333	-0.152
-428.617	-134.087	-0.137	-0.017
-427.603	-142.861	-0.309	0.030
-426.588	-116.508	0.205	0.038
-425.573	-200.000	-0.017	-0.201
-424.559	-200.000	-0.027	0.198
-423.544	-187.088	-0.176	0.002
-422.530	395.820	0.086	-0.178
-421.515	108.544	0.070	0.083
-420.500	-152.321	-0.093	-0.007
-419.486	-200.000	-0.071	-0.394
-418.471	134.006	0.242	-0.313
-417.457	62.810	0.050	-0.050
-416.442	80.363	-0.207	0.222
-415.428	47.889	-0.165	-0.153
-414.413	-200.000	-0.002	0.481
-413.398	-200.000	0.012	-0.059
-412.384	-107.007	0.422	0.093
-411.369	464.111	0.039	0.087
-410.355	-46.249	-0.281	0.138
-409.340	267.136	0.048	0.083
-408.325	695.376	-0.143	-0.373
-407.311	119.912	-0.191	-0.236
-406.296	10.068	0.213	-0.161
-405.282	371.825	0.120	-0.244
-404.267	148.281	-0.148	0.199
-403.252	361.893	-0.093	-0.185
-402.238	-77.679	0.006	-0.002
-401.223	471.349	-0.105	0.235
-400.209	26.550	0.181	0.151
-399.194	1.307	0.115	0.083
-398.179	-169.288	-0.112	0.004
-397.165	7.274	-0.207	0.154
-396.150	-2.312	-0.101	-0.071
-395.136	-0.647	-0.094	-0.066
-394.121	-200.000	-0.033	0.151
-393.106	2.402	0.164	0.118
-392.092	32.852	0.316	-0.273
-391.077	98.878	0.100	-0.115
-390.063	-200.000	-0.049	0.225
-389.048	-40.344	-0.042	-0.022
-388.033	558.945	-0.044	0.106
-387.019	-97.937	0.137	0.035
-386.004	-0.865	-0.284	0.200
-384.990	192.709	-0.194	-0.292
-383.975	-27.894	0.227	0.131
-382.960	-27.788	0.467	0.270
-381.946	674.208	-0.036	-0.092
-380.931	97.542	0.109	0.125
-379.917	-200.000	-0.074	-0.367
-378.902	-120.914	-0.174	-0.029
-377.888	-86.414	-0.065	0.020
-376.873	-108.650	-0.263	0.056
-375.858	442.142	0.123	0.267
-374.844	800.000	0.053	-0.161
-373.829	-66.474	0.158	-0.062
-372.815	2.229	-0.236	0.169
-371.800	-200.000	-0.032	0.443
-370.785	-97.626	0.233	0.060
-369.771	116.568	0.145	-0.176
-368.756	-14.562	0.166	-0.106
-367.742	-87.833	0.250	0.075
-366.727	-132.460	-0.292	-0.037
-365.712	-200.000	-0.004	0.044
-364.698	-40.517	0.253	0.130
-363.683	153.997	0.150	-0.205
-362.669	71.664	-0.169	-0.175
-361.654	-80.281	-0.353	-0.118
-360.639	501.086	-0.071	-0.162
-359.625	-44.760	0.350	0.174
-358.610	44.771	-0.150	0.137
-357.596	-53.626	0.153	-0.070
-356.581	-200.000	-0.035	0.199
-355.566	-200.000	0.008	-0.306
-354.552	347.821	0.207	-0.406
-353.537	-40.171	-0.198	-0.103
-352.523	-70.701	-0.386	-0.145
-351.508	-200.000	-0.013	0.115
-350.493	-200.000	-0.036	-0.222
-349.479	-200.000	0.006	-0.056
-348.464	800.000	0.065	0.224
-347.450	-200.000	-0.021	-0.289
-346.435	282.206	0.147	0.262
-345.420	-75.883	0.244	-0.086
-344.406	243.257	0.025	0.042
-343.391	-200.000	0.054	0.317
-342.377	103.291	-0.134	-0.156
-341.362	-123.404	0.236	0.037
-340.348	800.000	0.039	0.159
-339.333	800.000	-0.064	0.211
-338.318	145.096	-0.147	0.195
-337.304	146.588	0.064	0.085
-336.289	-87.207	0.247	0.074
-335.275	-200.000	-0.019	0.100
-334.260	217.209	-0.059	0.093
-333.245	-27.728	0.214	0.123
-332.231	119.714	-0.098	-0.120
-331.216	75.572	-0.192	-0.201
-330.202	800.000	0.045	-0.148
-329.187	38.421	-0.201	-0.178
-328.172	-39.046	-0.265	-0.139
-327.158	626.143	-0.079	0.199
-326.143	125.558	0.175	-0.220
-325.129	-200.000	-0.037	-0.407
-324.114	800.000	0.085	0.249
-323.099	-26.628	0.113	0.066
-322.085	730.551	0.048	0.128
-321.070	-92.851	0.071	-0.020
-320.056	43.688	0.170	-0.155
-319.041	-74.686	0.163	0.058
-318.026	361.540	0.096	0.192
-317.012	-95.205	-0.141	-0.038
-315.997	-200.000	0.029	0.405
-314.983	76.531	-0.139	0.146
-313.968	-200.000	-0.015	-0.154
-312.953	-114.005	0.112	0.021
-311.939	-89.040	-0.244	-0.072
-310.924	39.419	-0.298	-0.265
-309.910	77.797	-0.085	0.089
-308.895	32.777	0.134	0.115
-307.880	158.403	0.174	-0.239
-306.866	-113.778	-0.325	-0.063
-305.851	31.725	0.256	-0.219
-304.837	800.000	0.024	-0.071
-303.822	800.000	-0.054	-0.168
-302.807	-2.805	0.177	0.123
-301.793	94.344	-0.208	-0.235
-300.778	-77.943	0.413	-0.141
-299.764	800.000	-0.031	-0.106
-298.749	-103.591	0.189	0.044
-297.735	-63.037	-0.087	0.036
-296.720	306.825	0.129	0.239
-295.705	446.283	0.164	-0.358
-294.691	800.000	-0.089	-0.280
-293.676	42.455	0.290	0.262
-292.662	800.000	-0.079	-0.219
-291.647	17.465	0.204	-0.161
-290.632	72.119	0.045	-0.046
-289.618	34.399	0.144	0.125
-288.603	-200.000	-0.010	-0.353
-287.589	-32.708	-0.046	-0.025
-286.574	-41.953	-0.091	0.046
-285.559	100.505	-0.076	-0.087
-284.545	161.292	0.069	-0.096
-283.530	156.113	-0.161	-0.220
-282.516	58.434	0.082	-0.080
-281.501	-200.000	0.007	0.079
-280.486	800.000	0.047	0.133
-279.472	-200.000	0.009	0.084
-278.457	800.000	0.058	-0.188
-277.443	-200.000	0.032	0.184
-276.428	-131.374	-0.243	-0.032
-275.413	-52.497	0.383	-0.175
-274.399	442.691	-0.081	-0.176
-273.384	-124.896	0.050	0.008
-272.370	-168.542	-0.266	0.010
-271.355	-78.805	0.154	-0.052
-270.340	-88.465	0.315	-0.093
-269.326	18.054	-0.129	-0.102
-268.311	-160.235	-0.227	-0.012
-267.297	136.208	0.132	0.171
-266.282	-17.313	-0.099	0.062
-265.267	-200.000	0.061	-0.284
-264.253	-17.478	-0.148	-0.092
-263.238	123.275	0.116	0.144
-262.224	-120.379	0.242	0.041
-261.209	24.201	0.062	-0.051
-260.195	-177.090	-0.348	-0.009
-259.180	-200.000	-0.009	0.196
-258.165	800.000	-0.025	-0.074
-257.151	-200.000	0.040	0.385
-256.136	-60.749	0.189	0.079
-255.122	-181.268	0.437	-0.009
-254.107	237.344	-0.128	0.210
-253.092	-200.000	0.013	-0.146
-252.078	-200.000	-0.026	-0.128
-251.063	-110.505	-0.051	-0.010
-250.049	-200.000	0.009	0.054
-249.034	188.513	-0.133	-0.196
-248.019	800.000	0.024	-0.069
-247.005	482.543	0.091	-0.205
-245.990	-142.734	0.262	0.025
-244.976	-35.979	-0.170	-0.091
-243.961	627.027	0.069	-0.172
-242.946	-121.084	-0.098	0.016
-241.932	272.249	-0.142	0.248
-240.917	-40.823	-0.107	-0.055
-239.903	2.344	0.160	0.114
-238.888	-200.000	0.011	0.146
-237.873	-90.957	-0.205	-0.058
-236.859	146.039	0.058	0.077
-235.844	-60.629	-0.279	0.117
-234.830	-57.006	0.308	0.134
-233.815	249.822	-0.071	0.120
-232.800	-93.700	0.263	-0.072
-231.786	-144.623	0.376	0.034
-230.771	-160.854	-0.079	-0.004
-229.757	78.039	-0.129	0.136
-228.742	113.281	-0.017	-0.021
-227.727	800.000	-0.027	0.094
-226.713	-126.904	0.278	-0.041
-225.698	-200.000	0.031	-0.241
-224.684	162.931	-0.075	0.105
-223.669	800.000	0.091	0.339
-222.655	75.255	-0.128	-0.133
-221.640	104.333	0.085	0.099
-220.625	285.848	-0.128	-0.228
-219.611	136.839	0.113	0.147
-218.596	193.960	-0.173	0.259
-217.582	333.378	-0.166	-0.317
-216.567	-64.768	0.172	-0.069
-215.552	-68.215	0.288	-0.111
-214.538	295.656	-0.080	0.146
-213.523	-50.064	-0.191	0.090
-212.509	-173.953	0.207	-0.006
-211.494	-69.674	0.398	0.151
-210.479	-200.000	0.042	0.272
-209.465	16.889	-0.190	0.149
-208.450	251.323	-0.220	0.370
-207.436	422.211	0.010	-0.022
-206.421	233.441	-0.205	0.333
-205.406	-89.623	-0.183	-0.053
-204.392	-62.028	-0.077	0.032
-203.377	-28.276	-0.133	-0.076
-202.363	148.847	-0.168	0.225
-201.348	-200.000	-0.015	-0.093
-200.333	-150.238	0.111	0.008
-199.319	-46.333	0.113	0.055
-198.304	-200.000	0.000	0.068
-197.290	800.000	0.090	-0.304
-196.275	-32.455	-0.291	0.160
-195.260	68.171	-0.094	-0.095
-194.246	1.342	0.249	-0.176
-193.231	53.456	-0.188	-0.178
-192.217	-200.000	-0.031	-0.295
-191.202	176.296	-0.147	-0.211
-190.187	-77.276	-0.155	0.053
-189.173	153.934	0.101	0.136
-188.158	-200.000	-0.048	-0.224
-187.144	-116.572	0.183	0.033
-186.129	-33.271	-0.190	0.104
-185.114	113.310	-0.132	0.158
-184.100	-42.892	0.036	-0.018
-183.085	152.381	-0.116	0.157
-182.071	30.882	-0.243	0.205
-181.056	-152.758	0.283	-0.020
-180.042	50.349	0.099	0.092
-179.027	308.386	-0.039	0.073
-178.012	-111.340	0.403	-0.081
-176.998	320.681	-0.036	-0.068
-175.983	217.509	-0.161	0.254
-174.969	800.000	-0.047	0.158
-173.954	43.718	-0.111	0.100
-172.939	800.000	0.092	0.305
-171.925	137.764	-0.151	0.195
-170.910	162.741	0.225	0.311
-169.896	284.676	0.155	-0.275
-168.881	-132.817	0.427	0.054
-167.866	-98.572	0.150	0.038
-166.852	-200.000	0.037	0.180
-165.837	-40.489	0.260	0.133
-164.823	57.628	-0.057	-0.055
-163.808	-96.872	-0.081	0.021
-162.793	-200.000	-0.013	-0.097
-161.779	-121.723	0.285	0.047
-160.764	800.000	0.049	-0.187
-159.750	-200.000	-0.060	-0.267
-158.735	25.951	0.084	-0.069
-157.720	-200.000	-0.011	0.109
-156.706	55.019	-0.095	0.090
-155.691	-29.286	0.112	0.063
-154.677	-127.045	-0.519	0.075
-153.662	438.738	-0.053	0.114
-152.647	-21.410	-0.207	-0.124
-151.633	375.260	0.088	-0.176
-150.618	4.167	-0.132	-0.095
-149.604	-116.791	0.360	-0.065
-148.589	800.000	0.102	0.328
-147.574	99.951	0.098	0.112
-146.560	150.421	0.026	0.035
-145.545	-89.123	-0.112	0.033
-144.531	-47.014	0.280	0.135
-143.516	227.166	-0.176	0.283
-142.502	477.058	0.170	-0.379
-141.487	-122.781	-0.214	-0.034
-140.472	77.020	0.137	-0.144
-139.458	55.824	-0.147	-0.141
-138.443	-173.588	0.227	-0.007
-137.429	203.840	-0.062	-0.095
-136.414	768.929	-0.041	0.110
-135.399	52.919	-0.091	0.086
-134.385	800.000	0.123	0.336
-133.370	-200.000	-0.022	-0.141
-132.356	33.916	0.267	-0.229
-131.341	460.371	0.154	-0.338
-130.326	5.767	0.099	-0.072
-129.312	174.268	-0.127	0.181
-128.297	539.647	-0.019	0.044
-127.283	44.866	-0.312	-0.283
-126.268	-154.329	-0.356	-0.024
-125.253	-200.000	-0.012	-0.210
-124.239	-146.918	0.319	-0.027
-123.224	-184.208	-0.148	0.002
-122.210	-33.987	0.171	0.093
