DTS Sentinel unit serial number:	SN413079Multiplexer serial number:	ORYXHardware model number:	OX4-SRSoftware version number:	ORYX F/W v4.00 Oryx Data Collector v3.7.2.0data status	okinstallation	princeton_trtdifferential loss correction	single-endedforward channel	channel 4reverse channel	N/Adate	2019/09/15time	04:01:35forward acquisition time	60.00reverse acquisition time	0.00gamma	496.2192k internal	0.2309k external	0.2309temperature offset calibration	1.0033default loss term (dB/km)	0.3790temperature slope calibration	1.0000multiplexer offset coefficient	1.0000multiplexer slope coefficient	1.0000fibre end	0.00T internal ref (°C)	30.94T ext. ref 1 (°C)	4.64T ext. ref 2 (°C)	25.86length (m)	temperature (°C)	Stokes	anti-Stokes-747.200	21.910	0.320	0.265
-746.185	-174.498	0.046	0.001
-745.171	55.879	0.101	-0.100
-744.156	-148.251	-0.127	0.011
-743.142	-44.941	0.156	0.079
-742.127	83.778	0.283	0.314
-741.112	-63.145	0.187	-0.078
-740.098	-130.670	0.257	0.035
-739.083	800.000	-0.053	-0.159
-738.069	-200.000	-0.026	-0.211
-737.054	-87.444	0.169	-0.052
-736.039	800.000	-0.077	-0.246
-735.025	-7.296	-0.111	-0.077
-734.010	-43.888	-0.221	-0.113
-732.996	800.000	-0.051	-0.203
-731.981	-125.242	-0.245	0.038
-730.966	395.198	-0.085	0.181
-729.952	110.947	0.244	-0.298
-728.937	743.269	-0.077	-0.210
-727.923	109.408	0.182	-0.221
-726.908	800.000	-0.052	-0.221
-725.894	249.517	0.097	-0.167
-724.879	-200.000	-0.010	-0.092
-723.864	48.254	-0.223	-0.212
-722.850	-14.304	-0.335	0.219
-721.835	514.822	-0.090	-0.214
-720.821	50.992	0.239	-0.230
-719.806	-141.786	-0.181	-0.018
-718.791	121.066	-0.124	0.156
-717.777	-200.000	0.028	-0.197
-716.762	-200.000	0.042	0.255
-715.748	287.669	-0.159	0.291
-714.733	272.522	-0.039	0.070
-713.718	265.633	0.064	0.114
-712.704	-41.667	0.124	-0.065
-711.689	800.000	-0.036	0.159
-710.675	-90.104	-0.459	-0.136
-709.660	545.048	-0.014	-0.034
-708.645	14.010	-0.280	-0.221
-707.631	-200.000	-0.055	0.335
-706.616	-14.940	-0.104	0.068
-705.602	-89.296	0.235	0.070
-704.587	36.832	-0.355	-0.319
-703.572	-164.693	0.155	0.007
-702.558	697.654	-0.135	-0.360
-701.543	-68.457	-0.202	-0.079
-700.529	-69.196	0.126	0.049
-699.514	-9.600	-0.182	0.123
-698.499	17.314	-0.084	0.068
-697.485	-81.827	0.176	-0.058
-696.470	403.795	0.072	0.154
-695.456	-87.922	-0.208	-0.063
-694.441	-69.546	0.111	-0.043
-693.426	-99.595	-0.284	-0.072
-692.412	39.590	-0.080	0.072
-691.397	-200.000	0.059	0.355
-690.383	-30.968	-0.093	-0.053
-689.368	45.688	-0.048	-0.045
-688.354	-84.694	-0.212	0.068
-687.339	-99.542	0.276	0.070
-686.324	-200.000	0.023	-0.156
-685.310	-142.869	-0.491	0.048
-684.295	-159.024	-0.262	0.015
-683.281	-200.000	0.004	-0.265
-682.266	125.154	0.157	0.201
-681.251	-200.000	-0.069	-0.346
-680.237	-116.463	-0.156	-0.029
-679.222	-200.000	0.027	-0.145
-678.208	-200.000	-0.020	0.219
-677.193	-10.827	-0.198	-0.133
-676.178	-1.964	0.227	0.162
-675.164	-163.123	0.179	-0.009
-674.149	409.356	0.054	0.117
-673.135	-126.734	-0.154	-0.023
-672.120	-76.355	-0.346	-0.123
-671.105	-200.000	0.011	0.098
-670.091	800.000	-0.082	0.234
-669.076	652.125	-0.068	0.176
-668.062	800.000	0.041	0.117
-667.047	-53.270	-0.328	0.152
-666.032	-104.589	-0.083	-0.019
-665.018	800.000	0.072	-0.203
-664.003	-88.167	-0.125	0.038
-662.989	800.000	-0.016	0.069
-661.974	-102.583	-0.092	0.022
-660.959	-16.717	0.157	0.101
-659.945	-200.000	-0.040	-0.187
-658.930	-200.000	-0.002	0.254
-657.916	-2.906	-0.183	-0.130
-656.901	-130.424	-0.408	-0.056
-655.886	-200.000	-0.038	-0.362
-654.872	-92.916	-0.196	0.055
-653.857	225.160	0.014	0.023
-652.843	-108.548	-0.208	0.045
-651.828	741.116	-0.024	0.064
-650.814	-149.375	-0.330	-0.027
-649.799	459.980	0.087	-0.195
-648.784	-113.262	-0.242	0.048
-647.770	-132.260	-0.102	-0.013
-646.755	34.635	0.112	-0.099
-645.741	84.429	-0.124	0.137
-644.726	-121.107	0.310	-0.053
-643.711	800.000	-0.064	0.203
-642.697	75.740	-0.089	0.095
-641.682	127.432	-0.163	0.210
-640.668	-114.733	0.425	0.082
-639.653	-41.141	0.222	0.116
-638.638	-111.498	-0.256	0.053
-637.624	-143.487	0.174	0.017
-636.609	800.000	-0.049	0.183
-635.595	153.982	-0.058	0.080
-634.580	800.000	0.017	0.058
-633.565	55.620	0.109	0.107
-632.551	-55.994	-0.157	-0.071
-631.536	-28.699	-0.076	-0.044
-630.522	48.045	-0.164	-0.155
-629.507	-47.529	-0.116	-0.057
-628.492	-112.072	0.157	0.032
-627.478	800.000	-0.040	0.134
-626.463	-40.971	-0.151	0.079
-625.449	800.000	0.052	0.184
-624.434	-191.218	-0.171	0.002
-623.419	-200.000	-0.317	0.000
-622.405	-200.000	0.001	0.006
-621.390	55.139	-0.123	-0.120
-620.376	701.486	0.053	0.141
-619.361	163.358	0.139	0.197
-618.346	164.439	0.161	-0.230
-617.332	212.687	-0.125	-0.199
-616.317	237.040	0.165	-0.277
-615.303	-132.572	0.251	-0.033
-614.288	-200.000	0.036	0.285
-613.273	-35.454	0.052	0.029
-612.259	-85.082	-0.400	-0.127
-611.244	-200.000	-0.056	-0.267
-610.230	407.726	-0.081	-0.173
-609.215	-36.693	0.256	0.139
-608.201	-200.000	0.000	-0.039
-607.186	-51.589	0.420	0.198
-606.171	-151.994	0.374	0.028
-605.157	-102.777	-0.101	-0.024
-604.142	-76.375	0.291	-0.103
-603.128	800.000	-0.052	-0.200
-602.113	229.752	-0.366	-0.604
-601.098	9.011	0.136	-0.104
-600.084	271.876	0.150	-0.267
-599.069	-200.000	-0.020	0.217
-598.055	166.938	-0.117	0.168
-597.040	-112.206	-0.202	-0.041
-596.025	102.185	-0.190	-0.224
-595.011	-200.000	-0.017	-0.235
-593.996	-141.200	0.294	0.030
-592.982	118.062	-0.165	0.205
-591.967	-106.562	0.236	-0.053
-590.952	-200.000	0.019	-0.376
-589.938	139.692	0.152	0.202
-588.923	-9.618	0.271	-0.183
-587.909	-200.000	0.005	-0.234
-586.894	8.211	0.083	0.063
-585.879	-113.934	0.520	-0.102
-584.865	-114.713	-0.141	-0.027
-583.850	387.122	-0.103	0.214
-582.836	141.001	0.243	0.324
-581.821	31.257	-0.175	0.152
-580.806	-11.296	-0.280	-0.186
-579.792	-94.588	0.168	-0.046
-578.777	-24.640	-0.031	0.018
-577.763	-200.000	-0.008	-0.070
-576.748	225.689	0.101	0.165
-575.733	800.000	-0.052	-0.217
-574.719	61.593	0.287	0.288
-573.704	-139.940	-0.346	-0.037
-572.690	7.701	-0.128	0.097
-571.675	62.455	0.315	-0.317
-570.661	772.949	0.157	-0.433
-569.646	-91.824	-0.230	-0.066
-568.631	46.665	-0.023	0.022
-567.617	-200.000	-0.008	-0.332
-566.602	-112.281	-0.567	0.115
-565.588	91.054	-0.101	0.114
-564.573	40.153	0.225	0.204
-563.558	800.000	0.062	-0.173
-562.544	4.588	0.134	-0.099
-561.529	800.000	-0.014	0.054
-560.515	-200.000	0.004	0.085
-559.500	-64.710	-0.332	-0.136
-558.485	-69.319	0.045	0.017
-557.471	-129.539	0.378	-0.053
-556.456	165.757	-0.108	0.154
-555.442	423.640	-0.095	0.206
-554.427	-200.000	-0.003	0.082
-553.412	800.000	-0.022	0.075
-552.398	-200.000	0.021	-0.267
-551.383	29.235	0.197	-0.169
-550.369	458.084	0.067	-0.151
-549.354	-160.601	-0.085	-0.005
-548.339	800.000	0.066	0.188
-547.325	-122.173	-0.167	-0.028
-546.310	-154.931	0.258	-0.017
-545.296	-200.000	0.016	-0.175
-544.281	-114.662	-0.140	0.027
-543.266	-23.167	0.155	-0.094
-542.252	-98.461	-0.169	0.044
-541.237	-87.494	0.039	0.012
-540.223	-189.313	-0.080	-0.001
-539.208	86.312	-0.163	0.181
-538.193	-32.653	0.167	0.094
-537.179	-200.000	-0.024	-0.159
-536.164	190.351	0.167	0.253
-535.150	800.000	0.049	0.170
-534.135	-88.170	0.200	-0.060
-533.121	635.317	-0.064	0.163
-532.106	-115.759	0.182	0.034
-531.091	433.813	0.082	-0.180
-530.077	42.048	0.180	-0.165
-529.062	-200.000	0.125	0.000
-528.048	-200.000	0.028	0.353
-527.033	-80.525	-0.357	0.120
-526.018	-168.106	0.297	0.012
-525.004	-200.000	0.015	0.131
-523.989	232.699	0.037	0.061
-522.975	66.963	0.118	-0.122
-521.960	-200.000	0.037	0.191
-520.945	750.439	0.010	-0.027
-519.931	252.735	0.044	0.075
-518.916	800.000	0.033	0.118
-517.902	-171.804	-0.546	0.018
-516.887	32.360	-0.107	-0.093
-515.872	164.608	0.249	0.353
-514.858	-200.000	-0.016	0.106
-513.843	-200.000	-0.039	-0.270
-512.829	-15.748	-0.184	-0.118
-511.814	-101.040	-0.066	-0.016
-510.799	800.000	-0.042	-0.130
-509.785	-200.000	0.031	-0.278
-508.770	-32.557	-0.140	-0.078
-507.756	597.171	0.077	0.192
-506.741	161.370	0.096	-0.135
-505.726	278.442	0.114	-0.204
-504.712	47.157	0.137	-0.128
-503.697	-200.000	0.045	-0.320
-502.683	76.335	-0.100	-0.106
-501.668	-55.694	0.270	-0.121
-500.653	-90.810	-0.239	0.069
-499.639	-200.000	-0.001	0.138
-498.624	-133.645	-0.207	0.026
-497.610	25.736	0.417	-0.350
-496.595	-74.788	-0.340	-0.123
-495.581	119.817	-0.306	-0.381
-494.566	-94.826	-0.014	-0.004
-493.551	-200.000	-0.028	0.183
-492.537	-163.574	0.087	-0.004
-491.522	409.444	0.087	-0.185
-490.508	296.038	0.082	-0.151
-489.493	800.000	-0.037	-0.161
-488.478	-114.986	-0.419	-0.080
-487.464	-44.871	0.093	0.046
-486.449	-200.000	0.087	-0.386
-485.435	28.448	-0.240	0.204
-484.420	-185.457	-0.231	-0.004
-483.405	55.334	-0.119	0.116
-482.391	-124.770	0.276	-0.043
-481.376	-175.649	-0.161	-0.004
-480.362	-134.129	-0.307	-0.038
-479.347	51.950	-0.240	-0.230
-478.332	-200.000	-0.004	0.061
-477.318	800.000	0.063	0.178
-476.303	315.668	-0.075	-0.142
-475.289	800.000	0.116	-0.324
-474.274	-105.749	0.384	-0.087
-473.259	211.587	-0.096	-0.152
-472.245	-200.000	0.041	-0.277
-471.230	-54.201	-0.460	0.210
-470.216	-119.003	-0.119	-0.021
-469.201	-150.480	0.455	0.035
-468.186	-95.300	0.328	0.089
-467.172	99.369	-0.140	0.163
-466.157	-200.000	0.010	-0.208
-465.143	-148.958	-0.168	0.014
-464.128	43.113	-0.197	-0.181
-463.113	499.600	-0.132	0.307
-462.099	15.150	0.416	-0.327
-461.084	107.197	-0.121	0.144
-460.070	-89.569	0.150	-0.044
-459.055	-66.035	0.095	-0.038
-458.040	-32.446	-0.222	0.125
-457.026	-35.056	-0.261	0.143
-456.011	-115.984	-0.206	-0.039
-454.997	-200.000	0.005	-0.190
-453.982	58.200	0.221	-0.218
-452.968	-64.828	-0.022	0.009
-451.953	-66.678	0.052	-0.021
-450.938	-200.000	0.045	-0.235
-449.924	-163.042	0.208	-0.010
-448.909	-200.000	-0.026	0.210
-447.895	-200.000	-0.023	-0.145
-446.880	171.323	-0.034	-0.049
-445.865	-33.118	-0.269	-0.150
-444.851	-152.251	0.350	0.025
-443.836	-200.000	0.035	0.198
-442.822	126.434	0.205	-0.260
-441.807	800.000	-0.037	-0.111
-440.792	26.835	-0.207	-0.174
-439.778	-3.298	0.209	0.146
-438.763	103.881	0.054	-0.063
-437.749	-142.149	-0.311	-0.031
-436.734	-17.491	0.052	-0.033
-435.719	7.644	0.252	-0.189
-434.705	-170.964	-0.110	-0.004
-433.690	-12.823	-0.210	-0.138
-432.676	-87.664	-0.127	-0.038
-431.661	19.760	-0.238	-0.193
-430.646	-106.258	0.076	0.017
-429.632	14.572	0.156	0.123
-428.617	-200.000	0.011	-0.160
-427.603	-102.237	0.222	-0.054
-426.588	-34.480	-0.327	-0.180
-425.573	46.764	-0.187	-0.174
-424.559	59.106	-0.068	0.068
-423.544	-93.179	0.112	0.031
-422.530	-141.133	-0.037	0.004
-421.515	-26.236	-0.277	-0.163
-420.500	-200.000	-0.014	0.430
-419.486	-200.000	-0.003	0.032
-418.471	28.268	-0.165	0.140
-417.457	81.465	0.349	0.378
-416.442	397.846	0.075	-0.157
-415.428	-30.376	-0.252	0.144
-414.413	50.472	-0.206	0.195
-413.398	-118.423	0.324	0.058
-412.384	23.304	-0.141	0.116
-411.369	-99.711	0.183	-0.046
-410.355	-72.092	-0.138	-0.051
-409.340	-73.466	-0.025	0.009
-408.325	10.855	-0.062	0.047
-407.311	-102.208	-0.077	0.019
-406.296	-91.068	0.376	0.108
-405.282	-75.404	0.049	-0.017
-404.267	-70.103	0.277	-0.105
-403.252	-111.628	-0.570	0.116
-402.238	190.162	-0.053	-0.080
-401.223	615.926	0.024	-0.060
-400.209	-144.783	0.102	-0.009
-399.194	-87.112	-0.093	0.028
-398.179	-66.659	-0.249	0.099
-397.165	-200.000	-0.001	0.349
-396.150	-130.800	-0.067	-0.009
-395.136	194.195	-0.193	0.293
-394.121	189.263	0.239	-0.360
-393.106	-200.000	-0.022	0.116
-392.092	-76.613	-0.293	-0.103
-391.077	88.104	0.186	0.206
-390.063	800.000	0.057	0.182
-389.048	-200.000	-0.026	-0.409
-388.033	-112.384	-0.097	0.020
-387.019	-101.177	-0.065	0.016
-386.004	-0.845	0.136	-0.097
-384.990	-114.220	-0.262	0.051
-383.975	282.425	-0.086	-0.154
-382.960	105.871	-0.222	0.263
-381.946	-133.561	0.165	-0.021
-380.931	31.790	0.330	0.285
-379.917	-200.000	-0.033	0.314
-378.902	-62.584	-0.409	-0.170
-377.888	5.357	0.077	0.057
-376.873	88.684	0.048	-0.053
-375.858	28.260	0.283	-0.240
-374.844	206.219	-0.104	0.163
-373.829	800.000	-0.067	0.226
-372.815	267.198	-0.141	0.248
-371.800	-200.000	0.017	0.256
-370.785	304.617	0.081	0.151
-369.771	-200.000	-0.026	0.187
-368.756	-122.817	-0.293	0.047
-367.742	-200.000	-0.010	-0.088
-366.727	800.000	0.080	-0.279
-365.712	-36.163	0.252	-0.136
-364.698	800.000	0.135	0.428
-363.683	602.546	-0.007	0.018
-362.669	153.603	0.035	-0.048
-361.654	800.000	-0.083	-0.360
-360.639	263.382	0.095	-0.166
-359.625	-200.000	-0.023	0.484
-358.610	13.232	0.091	0.071
-357.596	332.708	0.103	-0.199
-356.581	-200.000	-0.036	0.206
-355.566	-200.000	0.003	-0.184
-354.552	800.000	-0.091	0.361
-353.537	63.679	-0.063	-0.064
-352.523	-87.546	0.292	0.088
-351.508	-154.551	0.070	0.005
-350.493	-14.963	-0.202	-0.129
-349.479	-81.153	-0.419	-0.139
-348.464	-200.000	0.067	-0.472
-347.450	-36.719	-0.223	-0.120
-346.435	164.348	0.060	-0.084
-345.420	-200.000	0.032	-0.213
-344.406	754.753	-0.053	0.142
-343.391	-77.221	0.463	-0.161
-342.377	327.601	-0.084	-0.161
-341.362	-96.169	-0.042	-0.011
-340.348	-70.248	0.168	-0.064
-339.333	349.254	-0.093	0.184
-338.318	-112.980	0.240	0.047
-337.304	174.426	-0.155	-0.224
-336.289	-98.477	0.147	-0.038
-335.275	800.000	0.054	-0.196
-334.260	27.893	0.203	0.171
-333.245	207.702	-0.167	0.261
-332.231	22.513	0.236	0.193
-331.216	165.000	0.121	0.171
-330.202	-10.929	-0.227	0.150
-329.187	74.643	-0.067	0.070
-328.172	131.603	-0.071	0.092
-327.158	-84.840	0.135	0.042
-326.143	-50.524	0.128	-0.060
-325.129	-27.886	0.215	-0.125
-324.114	748.222	0.045	0.120
-323.099	-200.000	-0.028	0.243
-322.085	-33.135	-0.168	0.093
-321.070	476.900	-0.186	0.421
-320.056	605.531	-0.095	-0.236
-319.041	-108.935	0.252	-0.054
-318.026	35.830	0.161	0.142
-317.012	-156.891	0.168	-0.010
-315.997	-68.590	-0.274	-0.106
-314.983	74.640	-0.251	0.264
-313.968	-29.262	-0.152	-0.087
-312.953	69.993	0.135	-0.139
-311.939	-12.663	0.176	0.115
-310.924	-185.364	-0.218	0.003
-309.910	-128.703	0.320	-0.045
-308.895	-200.000	0.012	0.145
-307.880	-159.306	0.299	-0.017
-306.866	137.307	0.131	-0.171
-305.851	-98.372	0.093	-0.024
-304.837	172.235	-0.091	-0.130
-303.822	252.450	0.104	-0.177
-302.807	-6.276	-0.118	-0.081
-301.793	78.747	0.043	-0.046
-300.778	79.505	0.204	-0.219
-299.764	-99.126	-0.269	-0.068
-298.749	-72.072	0.160	0.059
-297.735	800.000	0.013	-0.051
-296.720	47.225	-0.082	-0.076
-295.705	-200.000	-0.048	0.299
-294.691	63.617	0.072	0.072
-293.676	-24.312	-0.235	-0.140
-292.662	92.283	-0.128	0.144
-291.647	-200.000	-0.037	0.177
-290.632	800.000	-0.083	-0.338
-289.618	17.522	0.079	0.063
-288.603	421.291	-0.035	0.074
-287.589	-28.473	0.063	-0.036
-286.574	800.000	-0.083	-0.282
-285.559	-200.000	0.005	-0.039
-284.545	22.948	0.054	-0.044
-283.530	-32.166	0.151	-0.084
-282.516	184.612	-0.212	-0.314
-281.501	94.019	-0.094	-0.106
-280.486	-25.032	0.081	0.048
-279.472	247.838	-0.042	-0.071
-278.457	84.583	-0.028	0.030
-277.443	62.098	-0.328	0.327
-276.428	76.102	0.080	0.085
-275.413	210.623	-0.080	-0.125
-274.399	-54.643	-0.317	-0.143
-273.384	-200.000	0.023	-0.146
-272.370	-61.500	-0.092	0.038
-271.355	31.132	-0.147	0.126
-270.340	800.000	-0.016	-0.055
-269.326	-12.969	-0.236	0.153
-268.311	-124.328	0.261	-0.041
-267.297	-23.989	0.040	0.024
-266.282	29.504	0.227	-0.192
-265.267	-200.000	0.015	0.113
-264.253	-3.023	-0.088	0.061
-263.238	289.223	0.078	-0.142
-262.224	6.991	-0.226	-0.168
-261.209	-44.363	-0.258	0.129
-260.195	-200.000	-0.027	0.133
-259.180	227.824	-0.139	0.225
-258.165	-61.027	0.178	0.075
-257.151	15.474	0.050	-0.039
-256.136	-187.793	-0.380	-0.005
-255.122	-200.000	-0.002	-0.088
-254.107	139.842	-0.146	-0.191
-253.092	111.573	-0.125	0.150
-252.078	-69.237	0.218	-0.084
-251.063	443.221	-0.106	-0.232
-250.049	46.309	-0.076	-0.070
-249.034	-61.060	0.282	0.118
-248.019	191.501	-0.118	0.177
-247.005	-73.307	0.257	-0.094
-245.990	-49.332	-0.098	0.046
-244.976	800.000	0.040	0.120
-243.961	-71.728	0.395	-0.147
-242.946	-57.726	-0.167	0.073
-241.932	75.282	0.029	-0.030
-240.917	148.123	0.097	0.130
-239.903	-54.410	-0.038	-0.017
-238.888	-200.000	0.058	0.264
-237.873	800.000	-0.026	-0.096
-236.859	-93.384	0.318	0.088
-235.844	-200.000	-0.015	0.109
-234.830	-200.000	-0.006	0.170
-233.815	163.212	-0.061	0.085
-232.800	162.273	0.153	0.214
-231.786	-200.000	-0.000	0.040
-230.771	-200.000	-0.006	0.099
-229.757	-200.000	0.028	0.311
-228.742	198.825	0.237	0.361
-227.727	-38.899	0.062	0.033
-226.713	56.289	0.178	-0.172
-225.698	800.000	-0.084	-0.248
-224.684	-17.047	0.081	0.051
-223.669	40.011	-0.318	0.284
-222.655	397.538	0.079	-0.165
-221.640	218.729	0.161	-0.256
-220.625	800.000	-0.092	0.306
-219.611	-14.672	0.179	-0.115
-218.596	277.433	-0.075	-0.132
-217.582	-200.000	0.031	0.145
-216.567	-126.815	-0.194	0.028
-215.552	-41.876	0.166	0.084
-214.538	-4.387	0.373	0.256
-213.523	303.796	-0.012	0.022
-212.509	-83.277	0.108	0.035
-211.494	-157.138	-0.197	0.012
-210.479	-177.267	-0.301	0.007
-209.465	55.458	0.060	0.058
-208.450	-39.187	0.201	0.105
-207.436	484.349	0.046	0.105
-206.421	244.766	-0.007	0.012
-205.406	-200.000	-0.026	-0.221
-204.392	82.113	-0.082	0.089
-203.377	40.787	-0.199	-0.178
-202.363	800.000	0.060	0.243
-201.348	-174.635	-0.165	0.005
-200.333	-110.668	-0.270	0.055
-199.319	-147.620	0.385	-0.032
-198.304	-38.167	0.222	0.117
-197.290	-200.000	-0.046	0.367
-196.275	425.713	-0.038	-0.082
-195.260	-98.804	-0.285	0.072
-194.246	-200.000	0.018	0.207
-193.231	-78.686	0.348	-0.118
-192.217	69.190	-0.208	-0.213
-191.202	-17.659	-0.200	0.125
-190.187	25.968	0.114	-0.094
-189.173	72.696	0.071	-0.074
-188.158	38.408	-0.306	0.271
-187.144	-200.000	0.029	0.373
-186.129	536.239	-0.107	0.252
-185.114	-27.484	-0.215	0.124
-184.100	-82.514	0.070	-0.023
-183.085	537.722	-0.099	-0.234
-182.071	-22.030	-0.017	-0.010
-181.056	638.183	0.100	-0.254
-180.042	594.909	-0.064	0.158
-179.027	-86.622	-0.251	0.076
-178.012	-116.918	-0.399	-0.072
-176.998	45.424	0.050	-0.046
-175.983	54.216	0.275	-0.263
-174.969	-75.656	-0.121	-0.043
-173.954	594.825	0.045	0.110
-172.939	800.000	0.051	-0.185
-171.925	-27.019	0.300	-0.174
-170.910	137.682	-0.219	0.285
-169.896	266.409	0.127	0.220
-168.881	-83.417	0.289	0.092
-167.866	-200.000	0.045	-0.206
-166.852	117.431	0.117	-0.143
-165.837	-200.000	-0.001	0.208
-164.823	-200.000	-0.014	0.112
-163.808	253.505	0.065	0.110
-162.793	-2.556	0.351	-0.244
-161.779	-200.000	-0.010	-0.360
-160.764	-200.000	-0.017	0.331
-159.750	-112.092	-0.188	0.038
-158.735	69.890	0.080	-0.082
-157.720	-138.311	0.274	0.030
-156.706	21.529	-0.205	0.165
-155.691	24.427	-0.147	-0.121
-154.677	33.888	-0.144	0.124
-153.662	52.705	0.211	0.201
-152.647	-48.731	0.198	-0.094
-151.633	118.280	0.164	0.201
-150.618	-200.000	0.004	0.036
-149.604	-127.290	-0.068	-0.010
-148.589	-63.078	-0.355	-0.145
-147.574	-27.482	0.076	-0.044
-146.560	-99.532	0.094	0.024
-145.545	135.717	0.248	-0.321
-144.531	-7.898	-0.343	-0.230
-143.516	800.000	-0.064	-0.231
-142.502	108.589	-0.180	-0.214
-141.487	95.981	-0.079	0.090
-140.472	-29.249	-0.150	-0.085
-139.458	49.121	-0.150	-0.140
-138.443	-0.614	-0.234	0.165
-137.429	305.571	0.028	0.052
-136.414	591.422	0.101	0.248
-135.399	344.245	0.048	0.094
-134.385	276.285	0.032	-0.057
-133.370	-195.397	-0.161	0.001
-132.356	20.429	-0.335	0.268
-131.341	-143.575	0.220	-0.021
-130.326	-87.571	-0.415	0.124
-129.312	55.325	-0.333	0.320
-128.297	-134.554	-0.458	-0.056
-127.283	-200.000	0.017	-0.212
-126.268	124.479	0.119	0.148
-125.253	-60.923	0.262	0.110
-124.239	-157.566	0.163	-0.010
-123.224	-120.230	-0.201	-0.034
-122.210	-14.882	0.257	0.163
