DTS Sentinel unit serial number:	SN413079Multiplexer serial number:	ORYXHardware model number:	OX4-SRSoftware version number:	ORYX F/W v4.00 Oryx Data Collector v3.7.2.0data status	okinstallation	princeton_trtdifferential loss correction	single-endedforward channel	channel 4reverse channel	N/Adate	2019/09/17time	21:25:34forward acquisition time	60.00reverse acquisition time	0.00gamma	496.2192k internal	0.2327k external	0.2327temperature offset calibration	0.9993default loss term (dB/km)	0.3790temperature slope calibration	1.0000multiplexer offset coefficient	1.0000multiplexer slope coefficient	1.0000fibre end	0.00T internal ref (°C)	27.39T ext. ref 1 (°C)	0.19T ext. ref 2 (°C)	19.35length (m)	temperature (°C)	Stokes	anti-Stokes-747.200	51.331	-0.193	-0.184
-746.185	-200.000	0.016	0.275
-745.171	260.375	-0.060	0.104
-744.156	26.220	-0.134	-0.113
-743.142	-200.000	0.059	0.333
-742.127	-147.682	-0.080	-0.007
-741.112	-29.510	0.132	0.076
-740.098	121.796	-0.134	-0.168
-739.083	-43.539	0.142	0.072
-738.069	86.177	-0.181	0.200
-737.054	80.331	-0.053	-0.058
-736.039	-94.794	-0.238	0.065
-735.025	-108.880	0.159	0.034
-734.010	-200.000	-0.021	0.190
-732.996	-152.774	-0.091	-0.006
-731.981	257.248	0.247	0.429
-730.966	165.922	-0.077	-0.110
-729.952	-200.000	-0.003	-0.041
-728.937	187.640	0.164	0.247
-727.923	-103.042	-0.176	0.042
-726.908	47.481	-0.196	-0.184
-725.894	-51.082	0.068	0.032
-724.879	421.599	-0.049	-0.106
-723.864	157.957	0.083	0.116
-722.850	800.000	-0.054	0.193
-721.835	81.043	-0.162	-0.176
-720.821	417.151	0.102	-0.219
-719.806	-22.101	0.095	0.058
-718.791	174.628	-0.077	0.112
-717.777	-74.620	-0.027	-0.010
-716.762	-163.390	-0.322	0.015
-715.748	800.000	-0.057	-0.221
-714.733	-6.419	0.083	0.057
-713.718	32.271	-0.064	-0.056
-712.704	-95.174	0.226	0.061
-711.689	239.868	0.058	-0.097
-710.675	-62.314	-0.157	-0.066
-709.660	-55.292	-0.144	0.065
-708.645	96.763	0.223	0.257
-707.631	-154.823	-0.223	0.015
-706.616	-68.620	0.425	0.166
-705.602	29.508	0.204	-0.174
-704.587	127.468	-0.233	0.298
-703.572	-67.696	-0.065	-0.026
-702.558	361.185	-0.062	-0.126
-701.543	44.155	0.217	0.200
-700.529	-20.729	-0.075	-0.046
-699.514	-99.662	0.249	0.063
-698.499	21.149	-0.086	-0.070
-697.485	5.704	-0.238	-0.177
-696.470	167.223	0.152	-0.217
-695.456	-137.297	-0.234	-0.027
-694.441	719.436	-0.091	-0.244
-693.426	-176.020	-0.160	-0.004
-692.412	64.839	0.098	-0.099
-691.397	-58.527	-0.317	0.138
-690.383	303.852	0.099	0.185
-689.368	-123.871	0.097	-0.015
-688.354	-167.126	-0.242	-0.010
-687.339	-64.022	-0.160	0.066
-686.324	-30.307	-0.214	0.122
-685.310	70.200	-0.051	-0.053
-684.295	-146.429	-0.240	0.021
-683.281	-96.920	0.190	0.050
-682.266	-200.000	-0.052	-0.418
-681.251	-200.000	0.071	-0.365
-680.237	69.826	-0.070	-0.073
-679.222	105.036	-0.272	-0.322
-678.208	-90.598	-0.120	0.035
-677.193	159.101	0.208	-0.291
-676.178	-97.417	-0.148	0.039
-675.164	-62.913	0.347	0.144
-674.149	0.084	-0.280	0.201
-673.135	-125.383	-0.314	-0.048
-672.120	-200.000	0.014	-0.171
-671.105	-200.000	0.002	-0.506
-670.091	521.622	-0.122	0.287
-669.076	-84.195	-0.224	0.071
-668.062	-200.000	0.035	-0.332
-667.047	-200.000	0.054	0.238
-666.032	-200.000	-0.018	-0.441
-665.018	27.747	-0.200	0.169
-664.003	278.750	-0.069	-0.124
-662.989	502.777	-0.135	0.314
-661.974	189.326	-0.214	-0.321
-660.959	-200.000	0.027	-0.130
-659.945	-67.615	0.176	-0.069
-658.930	196.825	-0.093	0.142
-657.916	77.969	0.088	-0.094
-656.901	800.000	0.091	-0.391
-655.886	-52.434	-0.210	-0.098
-654.872	205.139	-0.105	-0.163
-653.857	-82.009	0.126	0.041
-652.843	58.911	-0.085	0.084
-651.828	31.468	-0.174	-0.150
-650.814	-0.952	0.190	-0.135
-649.799	-8.688	-0.133	-0.090
-648.784	32.196	0.012	-0.010
-647.770	72.432	-0.147	-0.154
-646.755	800.000	0.012	0.039
-645.741	800.000	-0.065	0.190
-644.726	-200.000	-0.006	-0.286
-643.711	103.843	0.093	-0.110
-642.697	-44.857	-0.308	0.154
-641.682	-33.367	-0.206	-0.115
-640.668	-153.586	0.328	0.023
-639.653	67.852	-0.167	0.171
-638.638	331.111	-0.127	0.245
-637.624	-200.000	0.095	-0.424
-636.609	591.134	0.123	-0.304
-635.595	560.393	-0.108	-0.262
-634.580	-61.316	-0.149	-0.063
-633.565	232.981	0.094	0.154
-632.551	-164.499	0.011	0.000
-631.536	47.416	-0.127	-0.119
-630.522	-138.476	0.168	0.019
-629.507	1.285	-0.160	0.115
-628.492	-200.000	0.001	0.101
-627.478	-153.097	0.236	0.017
-626.463	800.000	-0.050	0.184
-625.449	295.518	-0.111	0.203
-624.434	144.747	0.203	0.273
-623.419	699.410	0.122	0.323
-622.405	40.296	-0.085	0.077
-621.390	-125.561	-0.108	-0.016
-620.376	-79.289	0.354	0.120
-619.361	-56.298	0.123	-0.055
-618.346	-54.736	-0.223	0.101
-617.332	-53.205	-0.317	0.146
-616.317	13.900	0.178	-0.139
-615.303	800.000	0.082	-0.241
-614.288	607.170	-0.049	0.122
-613.273	12.544	-0.163	-0.126
-612.259	-200.000	-0.046	0.220
-611.244	800.000	0.122	0.381
-610.230	-73.403	-0.250	0.092
-609.215	-33.927	0.112	-0.062
-608.201	-106.600	0.219	-0.049
-607.186	800.000	0.022	0.089
-606.171	78.987	0.174	-0.186
-605.157	-200.000	0.039	0.175
-604.142	-181.039	0.359	-0.007
-603.128	57.102	0.105	-0.103
-602.113	800.000	0.069	-0.228
-601.098	-46.557	-0.283	0.139
-600.084	-156.776	0.374	-0.023
-599.069	-200.000	0.003	0.125
-598.055	-157.732	-0.345	-0.021
-597.040	21.407	-0.144	-0.118
-596.025	27.756	0.203	-0.172
-595.011	63.883	0.104	-0.105
-593.996	496.207	0.089	-0.206
-592.982	-147.701	0.289	0.024
-591.967	41.925	0.209	0.190
-590.952	417.245	-0.028	0.060
-589.938	60.774	-0.251	0.249
-588.923	800.000	0.084	-0.337
-587.909	149.977	-0.074	0.101
-586.894	43.197	-0.209	-0.191
-585.879	448.150	0.058	0.128
-584.865	64.608	0.134	-0.135
-583.850	-200.000	0.014	-0.244
-582.836	129.536	-0.214	-0.274
-581.821	-57.511	-0.037	-0.016
-580.806	-8.753	-0.065	0.044
-579.792	120.986	-0.200	-0.249
-578.777	800.000	0.029	-0.089
-577.763	260.893	0.185	0.320
-576.748	-58.721	-0.145	-0.063
-575.733	625.277	0.173	0.438
-574.719	1.442	-0.290	0.209
-573.704	-158.167	0.136	-0.008
-572.690	195.293	-0.068	0.103
-571.675	2.909	0.390	0.284
-570.661	419.941	-0.125	-0.267
-569.646	80.390	-0.102	0.110
-568.631	42.217	-0.314	-0.285
-567.617	485.666	-0.113	0.258
-566.602	800.000	0.107	0.305
-565.588	-92.216	0.207	0.058
-564.573	-126.423	-0.169	-0.025
-563.558	-64.646	0.270	-0.110
-562.544	132.815	0.399	-0.515
-561.529	-196.119	-0.324	0.002
-560.515	-200.000	-0.015	-0.240
-559.500	-114.716	-0.139	-0.027
-558.485	-33.908	-0.202	0.111
-557.471	427.315	0.048	0.105
-556.456	450.280	-0.069	-0.153
-555.442	-82.986	-0.164	0.053
-554.427	800.000	-0.026	0.077
-553.412	-118.559	-0.276	-0.049
-552.398	-134.489	0.164	0.020
-551.383	37.520	-0.319	0.283
-550.369	-70.523	0.058	0.022
-549.354	-75.228	0.151	0.054
-548.339	-134.033	0.294	-0.036
-547.325	-200.000	0.068	0.338
-546.310	88.652	0.068	-0.075
-545.296	220.160	-0.087	0.139
-544.281	-159.629	0.257	0.014
-543.266	-119.100	-0.208	0.036
-542.252	-200.000	-0.018	-0.084
-541.237	-15.757	-0.197	-0.126
-540.223	58.405	0.183	0.180
-539.208	-15.697	0.247	-0.158
-538.193	800.000	0.031	0.095
-537.179	-97.146	-0.071	0.019
-536.164	-37.734	0.165	-0.088
-535.150	800.000	0.033	0.100
-534.135	-146.863	0.103	-0.009
-533.121	63.659	0.192	-0.193
-532.106	-6.875	-0.115	0.078
-531.091	-27.684	0.177	0.103
-530.077	3.738	-0.207	-0.151
-529.062	-87.423	-0.051	0.015
-528.048	52.528	0.174	0.166
-527.033	226.636	-0.164	-0.266
-526.018	-200.000	0.079	-0.501
-525.004	-200.000	-0.106	-0.501
-523.989	-200.000	0.001	-0.131
-522.975	-200.000	0.074	-0.361
-521.960	353.525	-0.135	-0.268
-520.945	-137.285	0.154	0.018
-519.931	749.686	-0.077	0.207
-518.916	-180.842	0.192	0.004
-517.902	143.863	-0.220	-0.293
-516.887	63.518	-0.186	-0.187
-515.872	-89.357	-0.149	-0.044
-514.858	79.027	-0.194	-0.207
-513.843	678.700	0.017	0.045
-512.829	51.125	-0.017	0.016
-511.814	-124.658	-0.385	0.060
-510.799	-87.237	0.236	0.071
-509.785	-200.000	0.022	0.239
-508.770	137.795	0.101	-0.133
-507.756	-27.126	-0.166	-0.097
-506.741	22.156	0.149	-0.122
-505.726	469.875	0.114	0.256
-504.712	-51.997	0.236	-0.109
-503.697	243.626	0.090	-0.150
-502.683	17.238	0.043	0.034
-501.668	167.954	-0.089	-0.126
-500.653	-97.565	0.263	-0.068
-499.639	800.000	0.068	0.203
-498.624	-200.000	0.006	0.038
-497.610	58.213	-0.156	-0.152
-496.595	800.000	-0.072	-0.265
-495.581	-200.000	-0.012	-0.321
-494.566	-141.489	-0.147	0.015
-493.551	-200.000	-0.006	0.154
-492.537	-25.661	0.087	0.051
-491.522	800.000	-0.026	0.084
-490.508	405.353	0.095	0.200
-489.493	-41.013	-0.066	0.034
-488.478	152.758	0.067	-0.092
-487.464	-143.063	-0.195	-0.019
-486.449	-47.592	-0.254	-0.123
-485.435	-82.546	0.230	0.075
-484.420	-42.908	-0.368	-0.186
-483.405	185.338	0.212	-0.314
-482.391	-98.737	0.333	-0.085
-481.376	-101.395	0.111	-0.027
-480.362	800.000	0.026	-0.073
-479.347	414.476	-0.015	0.032
-478.332	800.000	-0.087	-0.348
-477.318	131.619	-0.044	0.056
-476.303	-113.612	0.261	-0.051
-475.289	-62.274	0.177	0.073
-474.274	-200.000	-0.028	0.177
-473.259	382.376	0.049	-0.100
-472.245	-126.017	-0.368	0.055
-471.230	-200.000	0.005	-0.191
-470.216	58.831	0.134	-0.132
-469.201	-103.712	-0.364	0.085
-468.186	231.640	-0.167	0.273
-467.172	146.612	0.107	-0.143
-466.157	-144.438	0.370	-0.034
-465.143	374.888	-0.115	0.233
-464.128	71.985	-0.219	-0.227
-463.113	15.277	0.075	0.059
-462.099	-200.000	-0.015	-0.375
-461.084	575.096	-0.045	-0.109
-460.070	119.927	-0.104	-0.128
-459.055	-32.895	-0.130	-0.072
-458.040	-117.252	-0.409	-0.074
-457.026	18.726	0.351	0.280
-456.011	540.020	-0.078	-0.184
-454.997	-138.703	-0.052	0.006
-453.982	-71.530	-0.297	-0.111
-452.968	-25.320	-0.299	-0.176
-451.953	483.249	0.020	0.044
-450.938	-144.590	-0.081	0.007
-449.924	78.923	-0.074	-0.079
-448.909	676.457	-0.126	0.326
-447.895	563.933	-0.037	0.090
-446.880	-45.991	0.251	0.123
-445.865	64.132	0.095	0.095
-444.851	68.162	-0.316	0.322
-443.836	800.000	0.066	-0.188
-442.822	-18.708	0.217	-0.135
-441.807	-23.255	0.368	-0.221
-440.792	0.959	0.265	0.189
-439.778	255.942	0.137	0.235
-438.763	544.573	0.056	-0.134
-437.749	-103.343	-0.157	0.037
-436.734	800.000	0.079	0.219
-435.719	-93.348	0.142	-0.039
-434.705	-200.000	0.007	0.031
-433.690	-27.104	0.208	-0.121
-432.676	-200.000	0.042	-0.231
-431.661	-34.949	-0.216	0.117
-430.646	-200.000	0.057	0.491
-429.632	1.592	-0.161	0.115
-428.617	-200.000	-0.051	0.540
-427.603	245.922	-0.053	-0.089
-426.588	-200.000	0.066	0.389
-425.573	53.798	-0.170	0.162
-424.559	323.592	0.057	-0.107
-423.544	800.000	-0.088	0.375
-422.530	800.000	0.015	-0.052
-421.515	141.349	0.066	-0.087
-420.500	800.000	0.067	-0.199
-419.486	371.019	0.135	0.272
-418.471	-84.773	0.219	0.069
-417.457	94.351	-0.151	0.171
-416.442	126.693	0.131	0.165
-415.428	-200.000	-0.009	0.125
-414.413	15.270	-0.131	0.102
-413.398	800.000	0.049	-0.176
-412.384	800.000	0.027	-0.084
-411.369	407.019	0.077	0.162
-410.355	800.000	0.062	-0.201
-409.340	-200.000	-0.007	-0.280
-408.325	17.661	0.259	-0.205
-407.311	318.787	-0.065	-0.122
-406.296	115.494	-0.104	0.127
-405.282	-200.000	-0.011	0.052
-404.267	295.448	0.154	0.281
-403.252	-132.222	-0.119	0.015
-402.238	36.822	0.203	0.178
-401.223	-200.000	-0.035	0.254
-400.209	115.286	-0.175	0.212
-399.194	800.000	0.017	0.047
-398.179	-124.838	-0.326	-0.050
-397.165	107.657	-0.330	0.390
-396.150	-79.264	0.422	0.142
-395.136	-19.848	-0.193	0.118
-394.121	-200.000	0.019	-0.306
-393.106	139.122	-0.108	-0.141
-392.092	800.000	-0.034	-0.133
-391.077	-147.037	-0.271	-0.023
-390.063	-200.000	-0.002	0.049
-389.048	538.956	0.124	0.294
-388.033	-78.026	0.194	0.066
-387.019	800.000	-0.033	0.095
-386.004	800.000	-0.148	-0.478
-384.990	147.663	0.184	-0.247
-383.975	96.964	0.268	-0.305
-382.960	49.309	-0.279	0.261
-381.946	521.105	0.056	0.131
-380.931	800.000	-0.060	-0.196
-379.917	47.121	0.110	-0.102
-378.902	-69.703	-0.097	-0.037
-377.888	-200.000	0.029	-0.126
-376.873	-200.000	0.026	0.163
-375.858	-70.195	-0.189	-0.071
-374.844	-90.897	-0.160	-0.046
-373.829	-200.000	0.052	-0.272
-372.815	-200.000	0.005	0.138
-371.800	-35.285	0.095	-0.051
-370.785	-88.571	0.072	-0.021
-369.771	800.000	0.032	0.093
-368.756	-99.161	0.271	-0.068
-367.742	800.000	-0.095	0.308
-366.727	-74.313	-0.094	0.034
-365.712	5.502	0.064	-0.047
-364.698	-82.743	0.167	0.054
-363.683	-36.043	-0.214	0.115
-362.669	-26.876	-0.079	-0.046
-361.654	-89.421	0.256	-0.075
-360.639	-200.000	0.010	-0.406
-359.625	-49.873	0.146	0.069
-358.610	-108.768	-0.245	-0.052
-357.596	-154.145	-0.119	-0.008
-356.581	27.135	-0.172	0.143
-355.566	-155.529	-0.504	-0.032
-354.552	-156.295	-0.111	-0.007
-353.537	719.960	-0.067	0.178
-352.523	5.264	-0.270	-0.198
-351.508	-163.566	-0.287	-0.013
-350.493	313.639	-0.055	0.103
-349.479	212.490	0.126	0.197
-348.464	9.317	-0.305	-0.229
-347.450	17.391	0.153	0.121
-346.435	13.143	0.026	0.020
-345.420	-89.160	0.436	0.128
-344.406	162.249	0.157	-0.218
-343.391	49.774	0.075	-0.070
-342.377	58.739	0.097	0.094
-341.362	-200.000	-0.010	-0.312
-340.348	-138.366	0.163	-0.018
-339.333	-200.000	0.029	0.277
-338.318	-45.862	0.067	-0.033
-337.304	-146.440	0.111	-0.010
-336.289	53.837	-0.157	-0.150
-335.275	-7.366	-0.165	-0.111
-334.260	-46.854	-0.084	0.041
-333.245	-196.032	0.400	-0.003
-332.231	18.322	-0.408	0.323
-331.216	-184.332	-0.120	0.002
-330.202	-7.837	0.176	0.118
-329.187	-127.839	-0.221	-0.032
-328.172	-17.264	-0.040	-0.025
-327.158	201.563	0.198	0.303
-326.143	28.066	-0.137	0.115
-325.129	-19.590	-0.019	0.012
-324.114	800.000	0.107	0.299
-323.099	192.450	-0.060	0.089
-322.085	190.471	0.177	0.264
-321.070	-123.111	-0.083	-0.013
-320.056	-53.228	0.175	-0.080
-319.041	405.506	0.118	-0.247
-318.026	-200.000	0.006	0.472
-317.012	-200.000	-0.032	0.402
-315.997	-0.033	-0.097	0.068
-314.983	115.495	0.229	0.277
-313.968	-98.410	-0.131	-0.033
-312.953	13.728	-0.217	-0.167
-311.939	-124.310	0.243	-0.038
-310.924	-18.594	-0.166	-0.102
-309.910	-53.235	0.390	-0.178
-308.895	800.000	0.099	0.312
-307.880	-10.864	-0.195	0.127
-306.866	800.000	0.056	-0.230
-305.851	-200.000	-0.013	0.143
-304.837	-108.970	-0.195	-0.041
-303.822	-103.311	0.113	0.026
-302.807	-200.000	-0.018	0.151
-301.793	800.000	-0.076	-0.237
-300.778	184.295	0.037	-0.054
-299.764	-46.638	0.277	-0.134
-298.749	8.653	-0.254	0.189
-297.735	-200.000	-0.015	0.075
-296.720	53.375	-0.163	-0.155
-295.705	-95.027	-0.177	-0.047
-294.691	-74.530	0.170	-0.061
-293.676	-12.002	-0.197	-0.128
-292.662	-137.597	0.238	0.027
-291.647	-30.342	0.214	-0.120
-290.632	-57.507	-0.258	0.112
-289.618	800.000	-0.025	0.107
-288.603	-200.000	0.024	0.332
-287.589	-188.562	0.160	0.002
-286.574	760.281	0.096	-0.258
-285.559	-147.305	0.112	-0.009
-284.545	660.160	0.049	-0.124
-283.530	-200.000	0.044	0.311
-282.516	-200.000	0.025	0.228
-281.501	-101.180	-0.191	0.046
-280.486	-123.503	0.224	0.035
-279.472	-200.000	0.177	0.001
-278.457	-102.629	0.155	-0.037
-277.443	253.505	-0.170	0.288
-276.428	707.541	-0.079	-0.207
-275.413	-200.000	0.004	0.024
-274.399	-200.000	-0.030	-0.256
-273.384	387.791	-0.133	-0.272
-272.370	250.889	-0.056	-0.095
-271.355	-7.001	0.452	-0.304
-270.340	56.689	0.309	-0.298
-269.326	301.154	-0.113	0.206
-268.311	800.000	-0.091	0.274
-267.297	56.296	0.057	-0.055
-266.282	-58.588	-0.315	-0.135
-265.267	21.475	0.191	-0.154
-264.253	-82.624	0.383	0.123
-263.238	-200.000	0.066	0.305
-262.224	-95.803	0.167	-0.044
-261.209	33.045	-0.138	0.118
-260.195	-140.813	0.423	0.043
-259.180	64.006	0.151	0.150
-258.165	208.241	-0.212	-0.328
-257.151	-44.726	0.282	-0.139
-256.136	147.210	-0.248	0.331
-255.122	-152.623	-0.398	-0.028
-254.107	-200.000	-0.029	0.201
-253.092	-178.718	-0.048	0.001
-252.078	285.915	0.074	-0.131
-251.063	-105.505	-0.377	-0.085
-250.049	-2.692	-0.090	0.063
-249.034	208.708	0.164	0.253
-248.019	-119.300	-0.227	-0.039
-247.005	207.836	-0.083	0.129
-245.990	-105.426	0.417	-0.094
-244.976	-84.061	0.191	0.060
-243.961	644.387	0.084	0.213
-242.946	424.866	0.089	-0.189
-241.932	-112.783	0.138	-0.027
-240.917	-200.000	-0.017	0.277
-239.903	16.917	-0.044	0.034
-238.888	46.894	0.191	-0.176
-237.873	7.055	-0.059	-0.043
-236.859	255.692	0.064	-0.109
-235.844	46.744	-0.068	-0.062
-234.830	-139.813	-0.104	0.011
-233.815	-200.000	-0.006	0.307
-232.800	162.196	0.124	0.172
-231.786	800.000	0.055	0.193
-230.771	57.807	-0.074	-0.071
-229.757	800.000	-0.078	-0.303
-228.742	-200.000	-0.041	0.293
-227.727	397.615	0.110	0.228
-226.713	-52.134	-0.296	0.136
-225.698	-200.000	0.012	0.312
-224.684	87.090	0.008	-0.009
-223.669	-31.293	0.109	0.061
-222.655	-96.925	0.145	-0.037
-221.640	800.000	-0.072	-0.228
-220.625	-28.524	0.264	0.150
-219.611	-91.075	-0.189	0.054
-218.596	15.675	-0.219	-0.170
-217.582	342.979	-0.162	0.314
-216.567	-18.263	0.266	0.164
-215.552	-172.043	-0.129	-0.004
-214.538	61.108	-0.107	0.105
-213.523	-200.000	0.037	-0.313
-212.509	158.481	0.052	-0.071
-211.494	526.782	0.149	-0.347
-210.479	300.440	-0.310	-0.565
-209.465	-105.118	0.091	-0.020
-208.450	-15.658	-0.137	0.086
-207.436	-2.201	-0.285	-0.197
-206.421	-115.057	0.163	-0.030
-205.406	-70.626	-0.065	-0.024
-204.392	-158.007	0.161	0.009
-203.377	-200.000	-0.026	0.264
-202.363	-52.405	-0.315	-0.144
-201.348	206.851	-0.138	-0.212
-200.333	-200.000	0.068	-0.376
-199.319	128.098	0.151	-0.190
-198.304	-37.174	0.315	-0.166
-197.290	12.305	0.203	-0.154
-196.275	322.029	0.096	-0.179
-195.260	0.921	-0.380	0.268
-194.246	222.987	-0.130	0.207
-193.231	-14.017	0.139	0.089
-192.217	12.934	0.127	0.097
-191.202	-4.974	-0.302	0.205
-190.187	8.148	-0.420	-0.311
-189.173	-200.000	0.049	0.353
-188.158	-103.220	0.271	-0.063
-187.144	-115.481	-0.063	0.012
-186.129	-200.000	0.019	0.252
-185.114	60.486	0.148	0.145
-184.100	-49.006	0.235	-0.111
-183.085	25.488	-0.331	0.271
-182.071	-86.558	-0.080	-0.024
-181.056	-96.517	0.284	0.074
-180.042	800.000	-0.049	-0.192
-179.027	-145.392	-0.265	-0.024
-178.012	-75.064	0.337	0.119
-176.998	-67.876	0.070	-0.027
-175.983	-30.838	-0.230	-0.128
-174.969	-200.000	-0.008	0.183
-173.954	736.783	0.109	-0.289
-172.939	133.663	-0.204	-0.260
-171.925	-145.943	0.146	0.013
-170.910	800.000	-0.139	-0.380
-169.896	-35.025	-0.234	0.126
-168.881	-200.000	-0.006	0.216
-167.866	-192.134	-0.388	-0.004
-166.852	80.353	0.108	0.115
-165.837	-168.641	0.136	0.005
-164.823	119.542	0.204	-0.249
-163.808	30.353	0.074	0.063
-162.793	-139.142	-0.211	0.022
-161.779	-200.000	-0.003	-0.263
-160.764	308.110	0.123	-0.227
-159.750	158.281	0.085	0.116
-158.735	25.267	0.132	-0.108
-157.720	-13.770	0.069	-0.044
-156.706	-86.082	0.065	-0.020
-155.691	9.166	-0.106	-0.079
-154.677	88.049	-0.046	-0.050
-153.662	-129.336	-0.044	-0.006
-152.647	-200.000	0.003	-0.104
-151.633	120.151	-0.106	-0.130
-150.618	-128.340	0.096	-0.013
-149.604	334.702	0.075	0.144
-148.589	-200.000	-0.003	-0.378
-147.574	639.643	0.192	-0.481
-146.560	-110.106	-0.327	-0.067
-145.545	-91.189	0.153	-0.043
-144.531	480.279	0.063	-0.140
-143.516	-200.000	0.043	0.284
-142.502	323.473	-0.057	0.106
-141.487	190.594	-0.273	-0.404
-140.472	275.782	-0.087	-0.152
-139.458	564.547	-0.082	-0.195
-138.443	-81.086	0.239	0.078
-137.429	46.488	0.289	-0.264
-136.414	-153.919	0.243	0.016
-135.399	-87.876	0.320	-0.095
-134.385	-38.529	0.247	0.129
-133.370	-75.643	0.082	0.029
-132.356	167.225	0.238	0.332
-131.341	-200.000	0.057	-0.274
-130.326	239.967	0.140	-0.229
-129.312	421.940	0.040	-0.085
-128.297	-138.334	-0.113	0.012
-127.283	800.000	-0.037	0.133
-126.268	-200.000	0.001	-0.012
-125.253	800.000	-0.079	-0.246
-124.239	95.234	-0.145	-0.163
-123.224	-200.000	0.032	0.163
-122.210	-100.485	0.153	0.037
-121.195	-200.000	0.038	0.221
