DTS Sentinel unit serial number:	SN413079Multiplexer serial number:	ORYXHardware model number:	OX4-SRSoftware version number:	ORYX F/W v4.00 Oryx Data Collector v3.7.2.0data status	okinstallation	princeton_trtdifferential loss correction	single-endedforward channel	channel 4reverse channel	N/Adate	2019/09/13time	21:13:34forward acquisition time	60.00reverse acquisition time	0.00gamma	496.2192k internal	0.2319k external	0.2319temperature offset calibration	1.0126default loss term (dB/km)	0.3790temperature slope calibration	1.0000multiplexer offset coefficient	1.0000multiplexer slope coefficient	1.0000fibre end	0.00T internal ref (°C)	28.45T ext. ref 1 (°C)	3.05T ext. ref 2 (°C)	23.01length (m)	temperature (°C)	Stokes	anti-Stokes-747.200	20.159	0.128	-0.105
-746.185	252.020	0.069	0.118
-745.171	80.000	-0.141	0.153
-744.156	331.014	0.072	0.140
-743.142	43.770	-0.162	-0.150
-742.127	-200.000	-0.021	-0.245
-741.112	800.000	0.135	0.380
-740.098	38.136	0.057	0.052
-739.083	-71.382	-0.304	0.115
-738.069	227.412	0.158	0.260
-737.054	-72.902	-0.382	-0.142
-736.039	-35.572	0.108	0.059
-735.025	609.356	-0.122	0.308
-734.010	800.000	0.078	-0.293
-732.996	52.258	-0.328	-0.316
-731.981	168.517	0.185	-0.267
-730.966	-200.000	0.005	-0.070
-729.952	18.879	0.095	-0.077
-728.937	-200.000	0.013	-0.233
-727.923	-191.013	-0.323	-0.003
-726.908	75.281	0.255	-0.272
-725.894	-66.980	-0.196	0.078
-724.879	-93.306	-0.222	-0.062
-723.864	127.360	0.183	0.235
-722.850	-141.383	-0.065	-0.007
-721.835	-69.015	-0.137	-0.054
-720.821	524.205	-0.093	-0.222
-719.806	-200.000	-0.081	-0.431
-718.791	-53.569	-0.164	0.076
-717.777	-200.000	-0.011	-0.079
-716.762	-149.631	-0.048	0.004
-715.748	-59.514	-0.200	-0.087
-714.733	-200.000	-0.014	-0.180
-713.718	346.898	-0.147	-0.293
-712.704	46.564	-0.175	0.165
-711.689	-26.485	-0.040	-0.024
-710.675	-156.724	-0.093	0.006
-709.660	-200.000	0.047	-0.268
-708.645	-102.780	-0.309	-0.074
-707.631	-2.408	0.275	-0.194
-706.616	71.769	-0.128	-0.134
-705.602	800.000	-0.048	-0.143
-704.587	-15.482	0.025	0.016
-703.572	345.205	-0.229	0.454
-702.558	-16.988	-0.103	-0.066
-701.543	-200.000	0.008	-0.195
-700.529	-200.000	-0.006	-0.450
-699.514	-81.970	-0.321	-0.106
-698.499	-78.090	-0.395	0.137
-697.485	-94.128	-0.190	-0.053
-696.470	202.995	-0.194	-0.303
-695.456	12.255	0.195	-0.152
-694.441	289.455	-0.073	0.134
-693.426	-171.611	-0.209	0.007
-692.412	214.769	-0.197	-0.315
-691.397	-200.000	-0.040	0.209
-690.383	-47.865	0.224	-0.110
-689.368	548.875	-0.084	-0.204
-688.354	162.220	-0.280	-0.396
-687.339	-88.080	0.136	-0.041
-686.324	-22.439	-0.226	-0.138
-685.310	87.294	-0.057	0.063
-684.295	294.491	0.134	-0.247
-683.281	-40.583	0.095	0.050
-682.266	150.120	-0.269	0.369
-681.251	-200.000	-0.035	0.192
-680.237	-200.000	-0.074	0.533
-679.222	232.948	0.171	0.283
-678.208	800.000	-0.103	-0.298
-677.193	449.223	-0.065	-0.146
-676.178	-38.857	0.157	0.084
-675.164	163.092	0.130	-0.185
-674.149	800.000	-0.068	-0.228
-673.135	-95.061	0.167	0.046
-672.120	255.354	-0.158	-0.272
-671.105	137.597	-0.176	-0.232
-670.091	-51.616	0.163	0.076
-669.076	-84.247	0.214	0.068
-668.062	343.283	-0.044	0.087
-667.047	-200.000	0.042	-0.264
-666.032	302.249	-0.148	0.276
-665.018	-112.653	0.143	0.029
-664.003	50.174	-0.307	-0.293
-662.989	-58.993	0.334	0.146
-661.974	538.940	-0.086	-0.207
-660.959	-13.248	0.339	0.222
-659.945	-200.000	-0.070	0.457
-658.930	-140.407	0.305	0.032
-657.916	26.130	-0.309	0.260
-656.901	310.814	0.103	-0.195
-655.886	76.073	0.353	-0.377
-654.872	-52.827	-0.135	0.063
-653.857	211.601	-0.149	0.237
-652.843	-102.953	0.282	0.068
-651.828	120.905	-0.172	0.216
-650.814	-47.207	0.158	0.078
-649.799	-91.151	-0.365	0.105
-648.784	199.913	0.076	0.117
-647.770	-8.774	-0.142	-0.096
-646.755	-67.475	-0.190	-0.075
-645.741	-200.000	0.056	0.331
-644.726	-0.614	-0.367	0.263
-643.711	8.374	0.141	-0.107
-642.697	800.000	-0.037	0.124
-641.682	611.208	-0.080	-0.203
-640.668	800.000	0.034	-0.134
-639.653	-71.060	-0.101	0.038
-638.638	800.000	-0.036	0.111
-637.624	-0.201	0.073	-0.052
-636.609	-200.000	-0.026	0.139
-635.595	-171.985	-0.313	0.010
-634.580	-200.000	0.010	-0.251
-633.565	290.511	0.082	-0.150
-632.551	308.679	0.153	-0.287
-631.536	-200.000	0.026	-0.301
-630.522	-56.220	0.392	0.176
-629.507	72.857	-0.387	-0.407
-628.492	6.181	-0.196	-0.146
-627.478	-23.140	-0.113	0.069
-626.463	-149.996	0.230	-0.018
-625.449	-19.419	-0.459	-0.287
-624.434	-181.959	-0.256	0.005
-623.419	-104.935	0.472	-0.109
-622.405	-152.087	-0.298	-0.022
-621.390	-73.849	-0.355	0.130
-620.376	22.695	-0.128	0.105
-619.361	395.268	0.116	-0.243
-618.346	165.834	-0.117	-0.167
-617.332	800.000	0.025	0.076
-616.317	37.055	-0.244	0.217
-615.303	-148.678	0.120	0.010
-614.288	-11.484	0.113	-0.075
-613.273	-110.636	0.201	-0.042
-612.259	-51.314	-0.147	-0.069
-611.244	-36.225	-0.230	0.125
-610.230	-39.586	-0.342	-0.180
-609.215	436.478	-0.184	-0.403
-608.201	-76.958	0.109	-0.038
-607.186	-107.035	0.198	-0.044
-606.171	-62.536	0.246	-0.103
-605.157	182.055	-0.212	0.315
-604.142	-28.637	-0.543	0.315
-603.128	39.083	0.150	-0.135
-602.113	12.331	0.128	-0.099
-601.098	800.000	-0.056	-0.203
-600.084	-39.991	-0.139	-0.073
-599.069	-92.950	0.268	0.075
-598.055	-77.823	-0.120	-0.042
-597.040	-139.432	-0.026	0.003
-596.025	-200.000	-0.021	-0.096
-595.011	433.781	-0.059	0.130
-593.996	-35.294	-0.216	0.118
-592.982	228.340	0.107	-0.176
-591.967	189.241	-0.126	-0.190
-590.952	-34.941	0.112	-0.061
-589.938	221.794	-0.096	0.156
-588.923	45.904	0.148	-0.138
-587.909	-6.535	-0.118	-0.081
-586.894	-178.971	0.346	0.008
-585.879	-138.236	0.410	-0.046
-584.865	-66.793	-0.386	-0.154
-583.850	-106.908	-0.349	0.078
-582.836	408.041	0.081	0.173
-581.821	147.707	0.100	0.135
-580.806	-132.426	-0.162	-0.021
-579.792	-200.000	-0.048	-0.271
-578.777	95.205	-0.166	-0.190
-577.763	-88.152	-0.266	-0.080
-576.748	137.945	-0.130	-0.171
-575.733	-141.413	0.271	-0.028
-574.719	510.381	0.132	0.309
-573.704	800.000	-0.102	-0.305
-572.690	76.948	0.076	-0.081
-571.675	-200.000	-0.021	0.254
-570.661	225.380	0.053	-0.087
-569.646	-105.169	-0.137	-0.031
-568.631	29.807	0.192	0.164
-567.617	-200.000	-0.039	0.244
-566.602	30.639	-0.129	-0.111
-565.588	180.128	-0.111	-0.164
-564.573	-91.001	-0.368	0.106
-563.558	-32.586	-0.225	0.126
-562.544	-200.000	-0.062	0.299
-561.529	121.595	-0.161	-0.202
-560.515	352.329	0.129	0.257
-559.500	-140.408	0.184	0.019
-558.485	-200.000	0.002	0.228
-557.471	-157.113	-0.148	0.009
-556.456	-23.572	0.062	-0.037
-555.442	50.636	0.095	0.090
-554.427	-12.500	0.346	0.227
-553.412	131.369	-0.125	-0.162
-552.398	-148.436	-0.196	0.016
-551.383	-99.305	0.311	0.079
-550.369	-137.558	0.114	0.013
-549.354	10.187	0.239	0.183
-548.339	-200.000	-0.033	-0.175
-547.325	-200.000	0.003	-0.147
-546.310	65.276	0.200	0.203
-545.296	-56.302	-0.279	-0.125
-544.281	7.072	0.179	-0.134
-543.266	-143.083	-0.255	0.025
-542.252	49.067	0.082	0.077
-541.237	800.000	0.072	0.284
-540.223	-200.000	-0.117	0.533
-539.208	55.067	0.175	-0.169
-538.193	80.795	0.294	0.319
-537.179	395.365	0.143	0.298
-536.164	210.076	0.128	0.201
-535.150	800.000	0.109	0.303
-534.135	-200.000	0.023	0.179
-533.121	-100.275	-0.073	-0.018
-532.106	41.234	0.041	0.037
-531.091	369.441	0.061	-0.123
-530.077	184.736	-0.016	-0.024
-529.062	107.680	0.195	-0.232
-528.048	800.000	-0.047	0.153
-527.033	24.163	0.283	-0.234
-526.018	88.920	0.141	-0.157
-525.004	-200.000	0.014	-0.143
-523.989	708.812	-0.081	0.214
-522.975	350.635	-0.071	0.140
-521.960	-82.251	-0.211	-0.069
-520.945	800.000	0.072	-0.236
-519.931	171.489	-0.246	0.355
-518.916	-104.890	-0.216	0.050
-517.902	-62.614	0.200	0.083
-516.887	75.151	0.001	0.001
-515.872	256.028	0.096	-0.166
-514.858	800.000	0.023	-0.071
-513.843	-26.237	0.137	-0.081
-512.829	-33.924	-0.259	-0.143
-511.814	638.092	0.105	0.268
-510.799	800.000	-0.031	0.116
-509.785	89.146	0.167	-0.187
-508.770	214.388	0.083	-0.132
-507.756	-200.000	-0.012	0.289
-506.741	-102.880	-0.141	-0.033
-505.726	-200.000	0.178	0.001
-504.712	255.929	-0.079	0.136
-503.697	-200.000	-0.024	0.177
-502.683	-43.902	0.041	-0.021
-501.668	0.033	0.099	0.071
-500.653	-115.777	0.047	-0.009
-499.639	2.674	-0.358	0.260
-498.624	800.000	-0.016	0.066
-497.610	-200.000	-0.021	-0.171
-496.595	-84.434	-0.078	0.025
-495.581	-85.863	-0.371	-0.115
-494.566	-200.000	0.001	-0.113
-493.551	-200.000	-0.041	-0.385
-492.537	-200.000	-0.008	-0.227
-491.522	-200.000	-0.085	-0.374
-490.508	800.000	0.084	-0.252
-489.493	-50.980	0.309	-0.145
-488.478	90.951	-0.013	0.014
-487.464	28.502	0.088	0.074
-486.449	-43.024	-0.245	-0.124
-485.435	35.445	-0.133	-0.117
-484.420	-34.714	0.184	0.101
-483.405	-77.963	-0.089	0.031
-482.391	192.494	-0.118	-0.179
-481.376	35.575	-0.024	-0.021
-480.362	800.000	0.064	0.193
-479.347	800.000	-0.061	-0.207
-478.332	61.930	-0.239	-0.238
-477.318	800.000	0.017	0.073
-476.303	-200.000	0.018	-0.093
-475.289	-157.404	-0.189	0.011
-474.274	-200.000	-0.031	-0.252
-473.259	800.000	0.065	-0.222
-472.245	-189.083	0.137	0.002
-471.230	800.000	0.085	-0.278
-470.216	520.970	-0.091	-0.214
-469.201	-158.128	0.177	-0.010
-468.186	675.656	0.094	-0.243
-467.172	-200.000	-0.028	-0.197
-466.157	691.762	-0.106	0.277
-465.143	203.380	0.066	-0.102
-464.128	275.270	0.066	-0.118
-463.113	150.141	-0.108	-0.147
-462.099	800.000	0.087	-0.307
-461.084	-52.920	-0.363	0.167
-460.070	800.000	0.050	0.166
-459.055	-200.000	-0.081	-0.363
-458.040	441.910	-0.061	0.134
-457.026	186.632	0.120	-0.178
-456.011	-53.872	0.249	-0.114
-454.997	-17.200	-0.192	0.121
-453.982	134.399	0.066	-0.086
-452.968	248.124	-0.154	0.260
-451.953	275.402	-0.086	-0.152
-450.938	-200.000	0.014	-0.270
-449.924	-96.193	-0.069	0.018
-448.909	-89.375	0.081	0.024
-447.895	-55.642	0.129	0.058
-446.880	312.088	0.088	-0.165
-445.865	-200.000	0.044	-0.324
-444.851	-200.000	-0.004	-0.075
-443.836	692.967	-0.081	0.213
-442.822	-6.163	0.220	-0.151
-441.807	159.067	-0.166	0.231
-440.792	251.194	0.208	-0.354
-439.778	144.805	0.139	0.186
-438.763	718.438	-0.076	-0.202
-437.749	-200.000	-0.004	0.135
-436.734	-200.000	-0.049	0.292
-435.719	242.593	-0.116	0.194
-434.705	800.000	-0.013	0.043
-433.690	-124.994	-0.055	-0.008
-432.676	800.000	-0.120	0.338
-431.661	-200.000	0.020	-0.113
-430.646	-128.852	-0.119	-0.017
-429.632	-25.214	-0.154	-0.091
-428.617	127.826	-0.155	0.197
-427.603	-200.000	-0.005	-0.245
-426.588	-10.626	0.063	0.042
-425.573	393.991	-0.128	0.267
-424.559	119.287	-0.084	-0.104
-423.544	97.720	-0.176	-0.202
-422.530	800.000	-0.074	0.245
-421.515	-200.000	0.002	0.201
-420.500	-200.000	-0.043	0.462
-419.486	83.639	-0.130	-0.142
-418.471	-200.000	-0.012	-0.215
-417.457	242.397	-0.235	0.393
-416.442	160.272	0.313	0.435
-415.428	-186.969	0.085	-0.001
-414.413	-200.000	-0.053	-0.303
-413.398	11.792	-0.135	0.104
-412.384	-56.944	-0.083	0.037
-411.369	800.000	0.080	0.310
-410.355	126.529	0.097	-0.123
-409.340	800.000	0.033	0.126
-408.325	266.931	-0.205	-0.359
-407.311	-129.843	-0.126	0.017
-406.296	409.653	-0.137	-0.291
-405.282	800.000	0.073	-0.241
-404.267	76.104	-0.164	0.173
-403.252	288.122	-0.041	0.073
-402.238	-94.100	-0.265	0.072
-401.223	16.105	0.018	0.015
-400.209	1.732	0.121	-0.087
-399.194	-200.000	0.024	-0.276
-398.179	800.000	0.087	-0.285
-397.165	-158.327	0.133	-0.008
-396.150	-27.263	-0.386	-0.224
-395.136	-173.931	-0.272	-0.008
-394.121	800.000	0.006	-0.023
-393.106	-91.311	-0.049	0.014
-392.092	34.353	0.157	-0.136
-391.077	-11.488	0.221	0.145
-390.063	169.318	0.259	-0.368
-389.048	163.930	0.058	-0.081
-388.033	800.000	-0.096	-0.365
-387.019	-200.000	0.018	0.288
-386.004	-142.267	0.331	0.033
-384.990	95.621	0.141	0.160
-383.975	56.225	0.256	-0.248
-382.960	75.810	0.230	-0.242
-381.946	369.030	0.073	-0.148
-380.931	-182.773	0.165	0.003
-379.917	19.080	0.275	-0.220
-378.902	-200.000	0.060	0.274
-377.888	-111.109	0.272	0.056
-376.873	-200.000	0.022	0.188
-375.858	-74.632	0.288	0.103
-374.844	-138.852	0.119	0.013
-373.829	14.745	0.353	-0.276
-372.815	35.332	-0.220	0.193
-371.800	-200.000	0.059	0.267
-370.785	800.000	-0.057	-0.158
-369.771	56.982	0.202	-0.197
-368.756	115.099	0.145	-0.177
-367.742	-200.000	-0.035	-0.183
-366.727	488.280	0.128	-0.292
-365.712	-79.490	0.189	0.064
-364.698	800.000	-0.075	0.276
-363.683	306.329	-0.053	0.099
-362.669	141.352	-0.206	-0.272
-361.654	800.000	-0.098	0.308
-360.639	-121.583	-0.273	-0.045
-359.625	-137.000	-0.236	-0.027
-358.610	-36.178	0.092	-0.050
-357.596	129.926	-0.028	-0.036
-356.581	-200.000	0.042	0.197
-355.566	-63.894	0.075	0.031
-354.552	193.768	0.089	0.134
-353.537	-119.926	-0.122	0.021
-352.523	-0.206	0.076	0.054
-351.508	723.257	-0.086	0.229
-350.493	184.651	0.296	-0.437
-349.479	62.624	0.125	-0.125
-348.464	47.850	-0.163	0.151
-347.450	-24.118	-0.137	0.082
-346.435	119.249	-0.190	0.234
-345.420	-2.881	0.036	0.025
-344.406	-59.750	-0.021	0.009
-343.391	-34.547	-0.368	0.201
-342.377	-50.712	0.432	0.203
-341.362	-129.449	0.186	-0.026
-340.348	800.000	-0.034	0.094
-339.333	63.417	0.058	0.058
-338.318	309.323	-0.133	0.248
-337.304	397.657	-0.047	0.097
-336.289	23.695	0.133	0.109
-335.275	-172.232	0.112	0.004
-334.260	17.929	-0.207	0.165
-333.245	-68.109	-0.270	-0.105
-332.231	-114.954	0.214	0.041
-331.216	72.402	-0.072	-0.075
-330.202	-59.455	-0.229	-0.098
-329.187	213.109	-0.136	-0.214
-328.172	48.238	-0.141	-0.132
-327.158	-64.098	-0.103	-0.042
-326.143	482.737	-0.013	-0.030
-325.129	-159.370	-0.218	-0.012
-324.114	78.782	0.170	0.181
-323.099	-200.000	-0.026	-0.140
-322.085	123.372	0.142	-0.177
-321.070	800.000	-0.012	0.042
-320.056	-26.836	-0.234	-0.136
-319.041	-2.824	-0.169	-0.118
-318.026	746.055	0.089	-0.238
-317.012	12.652	-0.168	0.129
-315.997	-54.116	0.132	-0.060
-314.983	140.780	-0.051	0.067
-313.968	-31.337	-0.359	-0.201
-312.953	-200.000	-0.004	0.109
-311.939	-41.045	0.316	0.163
-310.924	-200.000	0.014	-0.195
-309.910	-106.040	-0.223	0.050
-308.895	-111.967	0.186	0.037
-307.880	-200.000	0.048	0.231
-306.866	49.924	-0.047	0.044
-305.851	800.000	-0.025	0.067
-304.837	-200.000	0.058	-0.366
-303.822	-150.556	-0.205	0.016
-302.807	56.189	0.110	0.106
-301.793	502.684	-0.035	0.080
-300.778	110.557	0.043	0.051
-299.764	-9.884	0.101	-0.067
-298.749	-11.706	-0.274	-0.179
-297.735	491.430	-0.069	-0.156
-296.720	89.699	-0.022	-0.025
-295.705	-200.000	-0.003	-0.126
-294.691	-157.240	-0.172	-0.010
-293.676	-99.014	0.387	0.098
-292.662	-45.816	0.300	0.147
-291.647	-8.434	0.113	-0.076
-290.632	164.090	-0.095	0.133
-289.618	3.534	0.263	-0.191
-288.603	-154.809	-0.370	-0.024
-287.589	-178.042	0.013	0.000
-286.574	-151.997	-0.233	-0.017
-285.559	108.324	0.059	0.070
-284.545	181.441	-0.131	-0.192
-283.530	-92.440	0.197	0.055
-282.516	-152.103	-0.123	-0.009
-281.501	794.944	0.039	-0.107
-280.486	-77.755	0.299	-0.103
-279.472	290.293	-0.136	0.246
-278.457	-122.355	-0.444	-0.072
-277.443	-12.213	0.116	0.075
-276.428	-44.769	-0.231	-0.115
-275.413	44.408	0.145	-0.132
-274.399	-65.578	0.106	-0.042
-273.384	-200.000	0.060	-0.322
-272.370	80.964	0.214	0.229
-271.355	-200.000	0.050	0.226
-270.340	-71.808	-0.163	-0.060
-269.326	-128.075	0.449	-0.064
-268.311	57.603	0.134	0.130
-267.297	-36.552	0.224	0.119
-266.282	-8.728	0.190	0.126
-265.267	646.897	0.091	-0.232
-264.253	800.000	-0.034	0.125
-263.238	800.000	0.042	0.139
-262.224	-200.000	0.198	0.000
-261.209	-46.380	-0.141	0.069
-260.195	155.680	-0.098	0.134
-259.180	-200.000	-0.023	-0.170
-258.165	62.328	0.288	0.285
-257.151	190.587	-0.202	0.302
-256.136	108.922	-0.103	-0.122
-255.122	342.703	0.178	-0.346
-254.107	-96.745	0.357	0.093
-253.092	-100.787	0.109	0.027
-252.078	171.328	-0.163	-0.232
-251.063	800.000	-0.047	0.169
-250.049	577.689	-0.181	0.440
-249.034	219.204	-0.078	0.124
-248.019	783.125	0.124	0.338
-247.005	611.499	0.051	0.127
-245.990	-111.600	0.402	-0.081
-244.976	96.681	-0.147	0.168
-243.961	431.614	0.099	0.213
-242.946	-76.283	0.214	-0.075
-241.932	800.000	0.040	-0.125
-240.917	108.344	0.125	0.148
-239.903	11.054	0.228	-0.173
-238.888	-9.515	0.105	-0.069
-237.873	-147.462	-0.072	-0.006
-236.859	88.615	0.235	0.259
-235.844	-112.668	-0.187	-0.037
-234.830	127.025	0.015	0.019
-233.815	84.719	-0.085	0.093
-232.800	800.000	0.052	0.188
-231.786	20.060	0.191	0.153
-230.771	-116.301	-0.303	0.056
-229.757	-133.648	0.185	-0.023
-228.742	711.821	-0.010	0.025
-227.727	800.000	0.059	0.184
-226.713	-200.000	-0.028	0.349
-225.698	-94.309	-0.362	0.098
-224.684	-24.853	-0.218	-0.129
-223.669	150.777	-0.170	-0.228
-222.655	800.000	0.089	-0.378
-221.640	-1.260	-0.293	0.205
-220.625	-200.000	-0.012	-0.387
-219.611	42.767	-0.064	-0.057
-218.596	-100.942	0.275	-0.067
-217.582	14.955	-0.057	0.044
-216.567	-200.000	0.017	-0.261
-215.552	800.000	0.068	0.211
-214.538	-88.238	0.242	-0.072
-213.523	42.477	-0.241	0.218
-212.509	62.397	-0.077	-0.076
-211.494	-77.287	-0.177	0.061
-210.479	800.000	0.043	0.176
-209.465	490.938	0.214	-0.486
-208.450	-171.682	-0.290	-0.009
-207.436	-120.489	0.262	0.044
-206.421	54.933	0.350	0.335
-205.406	-56.304	-0.209	-0.092
-204.392	80.435	-0.124	0.132
-203.377	162.741	0.117	0.163
-202.363	-200.000	0.038	0.234
-201.348	-200.000	-0.002	0.129
-200.333	221.126	0.159	0.252
-199.319	-200.000	0.041	0.381
-198.304	-46.097	-0.156	-0.076
-197.290	10.653	0.267	0.201
-196.275	-200.000	0.009	-0.241
-195.260	-200.000	-0.025	0.214
-194.246	-10.547	0.160	-0.105
-193.231	-200.000	0.011	-0.078
-192.217	-79.617	-0.032	-0.011
-191.202	57.072	-0.058	0.056
-190.187	80.731	0.153	0.163
-189.173	262.995	-0.036	0.062
-188.158	562.415	0.096	0.231
-187.144	199.402	-0.081	0.122
-186.129	-176.067	0.091	0.002
-185.114	-108.862	-0.099	0.021
-184.100	-167.250	0.104	-0.004
-183.085	142.260	0.136	0.179
-182.071	-200.000	-0.021	0.166
-181.056	152.916	0.217	0.294
-180.042	-73.975	-0.085	-0.031
-179.027	-200.000	-0.000	0.123
-178.012	-7.614	-0.325	0.217
-176.998	619.981	-0.126	-0.314
-175.983	437.598	-0.135	-0.291
-174.969	27.703	-0.353	-0.294
-173.954	-200.000	0.023	-0.134
-172.939	-97.039	0.167	0.043
-171.925	800.000	0.047	0.133
-170.910	-61.476	0.195	-0.081
-169.896	-41.810	-0.195	0.099
-168.881	-19.476	0.295	0.181
-167.866	280.765	0.073	0.130
-166.852	15.491	0.206	-0.160
-165.837	221.082	0.201	-0.320
-164.823	-200.000	0.003	-0.201
-163.808	-119.986	-0.382	0.065
-162.793	151.314	-0.201	0.271
-161.779	-118.937	0.245	-0.043
-160.764	39.754	-0.098	0.087
-159.750	-137.189	0.309	-0.035
-158.735	-19.867	0.262	0.160
-157.720	-78.904	0.137	0.046
-156.706	6.870	0.151	0.111
-155.691	-17.268	-0.308	-0.192
-154.677	-200.000	0.022	0.125
-153.662	-72.989	0.384	0.139
-152.647	-104.377	0.341	-0.078
-151.633	45.812	-0.034	-0.031
-150.618	-108.272	0.103	-0.022
-149.604	-155.928	0.130	-0.008
-148.589	-43.546	0.102	-0.051
-147.574	-66.665	-0.206	-0.081
-146.560	280.535	0.201	0.356
-145.545	32.941	-0.052	-0.044
-144.531	362.496	0.155	-0.308
-143.516	69.197	-0.088	0.089
-142.502	800.000	-0.021	0.083
-141.487	-65.101	0.262	-0.105
-140.472	170.809	0.052	-0.073
-139.458	-200.000	0.048	0.417
-138.443	-0.352	0.137	0.096
-137.429	-140.415	0.207	-0.021
-136.414	53.627	-0.219	0.208
-135.399	172.520	-0.197	-0.281
-134.385	61.996	0.219	-0.216
-133.370	91.494	0.234	0.259
-132.356	235.992	0.073	0.119
-131.341	-68.026	0.101	-0.039
-130.326	-85.362	-0.115	0.035
-129.312	54.427	0.121	-0.115
-128.297	-149.794	0.103	-0.008
-127.283	-200.000	0.010	-0.087
-126.268	-200.000	0.003	-0.107
-125.253	-200.000	-0.031	-0.173
-124.239	-39.524	-0.228	-0.118
-123.224	800.000	-0.058	0.239
-122.210	3.860	0.178	0.128
-121.195	665.549	0.081	0.207
