DTS Sentinel unit serial number:	SN413079Multiplexer serial number:	ORYXHardware model number:	OX4-SRSoftware version number:	ORYX F/W v4.00 Oryx Data Collector v3.7.2.0data status	okinstallation	princeton_trtdifferential loss correction	single-endedforward channel	channel 4reverse channel	N/Adate	2019/09/13time	23:17:34forward acquisition time	60.00reverse acquisition time	0.00gamma	496.2192k internal	0.2322k external	0.2322temperature offset calibration	1.0132default loss term (dB/km)	0.3790temperature slope calibration	1.0000multiplexer offset coefficient	1.0000multiplexer slope coefficient	1.0000fibre end	0.00T internal ref (°C)	27.05T ext. ref 1 (°C)	3.18T ext. ref 2 (°C)	20.96length (m)	temperature (°C)	Stokes	anti-Stokes-747.200	339.161	-0.060	0.118
-746.185	-7.302	0.197	0.135
-745.171	167.362	0.047	-0.068
-744.156	325.653	-0.214	0.414
-743.142	147.046	0.173	-0.235
-742.127	78.963	-0.231	0.250
-741.112	-45.773	0.376	-0.188
-740.098	-9.990	-0.121	0.081
-739.083	800.000	0.094	0.268
-738.069	-46.493	-0.220	0.109
-737.054	55.124	0.261	-0.255
-736.039	-30.906	-0.499	-0.284
-735.025	-53.432	0.202	-0.094
-734.010	288.860	-0.119	0.217
-732.996	-113.311	0.246	0.049
-731.981	202.560	-0.366	-0.571
-730.966	-142.690	0.085	-0.008
-729.952	57.661	-0.254	0.251
-728.937	5.752	0.152	-0.114
-727.923	155.272	-0.118	-0.163
-726.908	-90.051	0.029	-0.008
-725.894	11.470	0.027	-0.021
-724.879	-200.000	0.024	0.115
-723.864	-200.000	0.019	-0.098
-722.850	-68.969	-0.309	-0.120
-721.835	205.909	-0.124	-0.194
-720.821	-31.732	-0.209	-0.118
-719.806	-49.850	-0.128	0.062
-718.791	22.812	0.198	-0.164
-717.777	458.531	0.108	-0.241
-716.762	-55.493	-0.190	-0.086
-715.748	117.954	0.085	-0.105
-714.733	-200.000	0.018	-0.282
-713.718	107.407	-0.219	0.263
-712.704	58.442	0.101	0.100
-711.689	-50.350	-0.143	0.068
-710.675	-57.795	0.226	0.100
-709.660	33.755	-0.177	0.155
-708.645	114.329	-0.010	-0.012
-707.631	800.000	-0.073	0.215
-706.616	-200.000	-0.001	-0.409
-705.602	146.917	0.119	-0.161
-704.587	-65.044	-0.189	0.077
-703.572	131.993	-0.133	0.172
-702.558	0.426	-0.301	-0.217
-701.543	-200.000	0.029	-0.170
-700.529	-27.229	-0.249	0.146
-699.514	-42.629	-0.161	0.083
-698.499	-88.065	0.146	0.044
-697.485	136.671	0.101	-0.133
-696.470	95.803	-0.279	0.321
-695.456	-144.974	-0.049	0.004
-694.441	157.929	0.122	-0.171
-693.426	-165.166	0.372	0.017
-692.412	-3.534	-0.527	-0.369
-691.397	800.000	0.133	0.427
-690.383	-196.302	0.167	-0.001
-689.368	37.960	0.111	0.099
-688.354	-200.000	-0.009	-0.117
-687.339	-35.989	-0.329	0.180
-686.324	261.332	0.133	-0.233
-685.310	35.606	0.134	0.119
-684.295	102.378	0.208	0.245
-683.281	623.857	-0.107	0.272
-682.266	210.514	-0.103	0.164
-681.251	-200.000	-0.022	0.211
-680.237	574.105	0.042	-0.102
-679.222	-91.382	0.241	-0.069
-678.208	495.984	0.124	0.288
-677.193	540.662	-0.097	-0.234
-676.178	211.127	-0.201	-0.318
-675.164	197.273	0.108	-0.166
-674.149	-108.005	0.122	-0.027
-673.135	72.670	0.204	0.214
-672.120	-127.314	-0.075	0.011
-671.105	-27.215	0.180	0.106
-670.091	-141.317	-0.151	0.015
-669.076	-129.978	-0.425	0.059
-668.062	-67.329	-0.104	-0.041
-667.047	800.000	-0.074	0.289
-666.032	235.264	0.084	0.140
-665.018	195.926	-0.104	-0.160
-664.003	-72.381	-0.232	-0.086
-662.989	718.839	-0.043	0.114
-661.974	800.000	0.074	-0.265
-660.959	93.436	0.070	0.080
-659.945	371.359	-0.120	-0.246
-658.930	-200.000	-0.034	-0.234
-657.916	109.744	0.103	0.125
-656.901	10.582	0.149	0.114
-655.886	3.492	0.062	0.046
-654.872	-46.577	0.163	-0.080
-653.857	-193.453	-0.190	0.002
-652.843	-200.000	-0.001	0.119
-651.828	-34.539	-0.033	-0.018
-650.814	-200.000	0.032	-0.293
-649.799	168.843	-0.116	0.166
-648.784	84.353	-0.124	0.136
-647.770	-200.000	-0.005	-0.100
-646.755	-148.688	-0.168	-0.014
-645.741	-4.941	0.064	-0.044
-644.726	-121.224	0.173	0.029
-643.711	79.927	-0.155	0.168
-642.697	77.379	-0.153	-0.164
-641.682	-116.618	0.238	0.044
-640.668	147.494	-0.277	-0.375
-639.653	165.299	-0.172	-0.245
-638.638	169.694	-0.252	0.362
-637.624	134.506	-0.180	0.235
-636.609	-200.000	0.009	-0.113
-635.595	800.000	0.074	0.253
-634.580	23.305	0.048	0.040
-633.565	95.852	0.080	-0.091
-632.551	384.280	0.104	-0.215
-631.536	168.365	-0.208	0.297
-630.522	-200.000	0.001	0.109
-629.507	-7.315	0.392	-0.267
-628.492	-200.000	-0.006	0.111
-627.478	-124.587	0.197	-0.031
-626.463	-39.353	-0.038	0.020
-625.449	420.307	0.081	0.174
-624.434	100.457	0.075	0.087
-623.419	-134.182	-0.575	-0.071
-622.405	34.277	-0.194	-0.170
-621.390	119.271	0.073	-0.091
-620.376	-152.461	-0.248	-0.018
-619.361	5.234	-0.311	-0.230
-618.346	-73.079	-0.270	-0.099
-617.332	188.102	0.129	-0.193
-616.317	78.158	-0.157	0.168
-615.303	-200.000	0.022	0.107
-614.288	-86.964	0.174	0.053
-613.273	-75.107	-0.184	-0.066
-612.259	88.162	0.076	-0.085
-611.244	202.249	-0.234	-0.363
-610.230	-74.814	-0.098	-0.035
-609.215	800.000	0.044	-0.130
-608.201	-39.394	0.211	-0.111
-607.186	-41.442	0.110	-0.057
-606.171	234.201	-0.086	-0.142
-605.157	-82.196	-0.397	0.130
-604.142	-200.000	-0.052	-0.302
-603.128	-90.425	-0.374	-0.109
-602.113	-200.000	0.005	0.131
-601.098	79.720	-0.121	0.130
-600.084	-43.172	0.282	0.143
-599.069	-92.911	0.131	-0.037
-598.055	-6.130	-0.263	-0.180
-597.040	-40.435	0.222	0.116
-596.025	401.043	0.127	-0.267
-595.011	9.622	-0.036	0.028
-593.996	166.916	0.071	0.102
-592.982	-76.465	-0.202	-0.071
-591.967	523.226	0.037	0.087
-590.952	767.125	0.046	-0.127
-589.938	142.567	-0.143	-0.191
-588.923	7.534	-0.183	0.138
-587.909	36.445	0.102	0.090
-586.894	-22.803	-0.170	-0.103
-585.879	-71.973	-0.282	0.105
-584.865	81.105	-0.118	-0.128
-583.850	800.000	-0.010	0.035
-582.836	-200.000	0.078	0.440
-581.821	800.000	-0.020	0.073
-580.806	100.165	-0.202	0.235
-579.792	800.000	0.028	-0.122
-578.777	-155.607	-0.408	-0.026
-577.763	-2.948	0.169	-0.118
-576.748	230.931	-0.058	-0.095
-575.733	-93.614	0.107	0.030
-574.719	6.742	0.353	0.264
-573.704	-55.727	-0.556	-0.249
-572.690	289.492	0.072	0.130
-571.675	-17.858	-0.075	-0.047
-570.661	45.646	0.063	-0.059
-569.646	-81.340	0.184	0.061
-568.631	800.000	0.073	0.307
-567.617	386.045	-0.003	-0.007
-566.602	-106.573	-0.131	-0.029
-565.588	250.946	-0.068	0.116
-564.573	155.167	0.019	-0.027
-563.558	-200.000	-0.029	-0.137
-562.544	-200.000	-0.037	-0.281
-561.529	7.245	-0.223	0.167
-560.515	800.000	0.046	-0.129
-559.500	-168.981	-0.056	0.002
-558.485	244.172	-0.119	0.201
-557.471	319.112	0.076	0.144
-556.456	-200.000	0.031	-0.187
-555.442	-48.853	-0.163	0.078
-554.427	72.839	-0.174	0.182
-553.412	229.148	0.077	0.126
-552.398	295.047	0.083	0.153
-551.383	-111.148	0.419	-0.086
-550.369	800.000	-0.152	-0.429
-549.354	-33.039	0.208	-0.116
-548.339	-53.136	-0.232	0.107
-547.325	118.230	0.111	-0.137
-546.310	-66.076	0.028	0.011
-545.296	305.137	-0.183	0.341
-544.281	-200.000	-0.002	0.022
-543.266	-200.000	-0.036	0.294
-542.252	-200.000	0.033	-0.175
-541.237	-92.084	-0.075	-0.021
-540.223	-200.000	0.007	0.085
-539.208	470.162	-0.028	-0.063
-538.193	271.919	-0.158	-0.279
-537.179	313.342	-0.066	0.123
-536.164	314.411	0.131	-0.248
-535.150	-159.136	0.178	-0.010
-534.135	515.320	-0.068	0.158
-533.121	-100.960	0.327	0.080
-532.106	150.103	-0.160	0.217
-531.091	241.090	0.125	-0.209
-530.077	800.000	-0.073	0.302
-529.062	96.164	-0.107	-0.122
-528.048	66.314	0.244	-0.248
-527.033	-200.000	-0.022	0.375
-526.018	478.528	-0.064	0.145
-525.004	-76.154	-0.239	-0.084
-523.989	-167.216	0.096	0.004
-522.975	-185.842	-0.239	0.004
-521.960	800.000	0.040	0.137
-520.945	-200.000	0.013	0.079
-519.931	308.159	-0.064	0.120
-518.916	49.262	0.057	0.054
-517.902	-180.520	0.135	-0.003
-516.887	215.868	-0.197	0.314
-515.872	471.720	0.123	0.277
-514.858	138.198	-0.091	0.119
-513.843	-76.007	0.092	0.033
-512.829	251.252	0.081	0.138
-511.814	-67.375	0.112	0.044
-510.799	-36.404	-0.311	0.168
-509.785	-14.346	-0.181	0.117
-508.770	90.503	-0.091	-0.102
-507.756	-115.591	-0.238	-0.045
-506.741	-74.058	-0.118	-0.043
-505.726	-200.000	-0.027	0.209
-504.712	-38.486	0.307	-0.162
-503.697	800.000	-0.076	-0.302
-502.683	-163.539	-0.184	-0.009
-501.668	-198.056	-0.346	-0.002
-500.653	8.701	0.134	0.101
-499.639	-200.000	-0.011	-0.334
-498.624	800.000	0.101	0.320
-497.610	-200.000	-0.099	0.439
-496.595	27.999	-0.327	0.276
-495.581	-200.000	-0.027	0.212
-494.566	160.103	-0.042	0.058
-493.551	-200.000	-0.053	-0.417
-492.537	-109.003	-0.504	-0.107
-491.522	-24.192	0.246	0.147
-490.508	744.129	0.086	-0.232
-489.493	761.965	-0.114	0.308
-488.478	-200.000	0.013	0.066
-487.464	93.742	0.028	-0.031
-486.449	-166.640	-0.293	0.012
-485.435	427.701	0.038	-0.082
-484.420	-122.973	-0.150	-0.024
-483.405	-1.507	0.166	0.117
-482.391	16.870	-0.129	-0.102
-481.376	-44.258	0.021	0.011
-480.362	800.000	-0.050	0.212
-479.347	280.855	-0.010	-0.018
-478.332	-99.955	0.404	0.101
-477.318	-137.438	0.051	-0.006
-476.303	386.460	0.058	-0.120
-475.289	-200.000	-0.103	0.536
-474.274	23.266	0.230	0.189
-473.259	-48.430	0.161	0.078
-472.245	-63.451	0.239	-0.098
-471.230	-114.635	-0.158	0.030
-470.216	-199.312	-0.334	-0.002
-469.201	157.942	0.223	0.309
-468.186	271.750	0.145	0.256
-467.172	-73.584	0.174	-0.064
-466.157	224.956	-0.095	-0.153
-465.143	661.190	0.023	-0.060
-464.128	31.474	0.323	0.277
-463.113	-200.000	0.012	0.212
-462.099	250.923	-0.285	0.484
-461.084	112.465	0.363	0.439
-460.070	111.019	0.234	-0.282
-459.055	173.092	0.082	0.118
-458.040	-31.629	-0.159	0.089
-457.026	-120.637	0.255	0.043
-456.011	101.579	0.155	0.181
-454.997	-200.000	0.003	-0.096
-453.982	-200.000	-0.010	0.105
-452.968	-120.955	-0.278	0.047
-451.953	-128.882	-0.243	0.034
-450.938	139.945	-0.206	-0.271
-449.924	-200.000	-0.005	-0.190
-448.909	67.240	-0.106	0.108
-447.895	36.514	0.272	0.239
-446.880	11.050	-0.209	-0.160
-445.865	-40.359	-0.235	-0.122
-444.851	-38.727	-0.300	-0.158
-443.836	-147.821	-0.051	-0.004
-442.822	-78.779	0.017	0.006
-441.807	338.498	-0.058	0.114
-440.792	16.431	0.213	0.168
-439.778	-36.739	0.091	0.049
-438.763	-1.729	-0.394	-0.277
-437.749	166.806	0.355	-0.503
-436.734	304.204	-0.141	0.260
-435.719	-64.023	0.351	0.143
-434.705	-136.200	-0.279	-0.033
-433.690	-96.942	-0.115	0.030
-432.676	-27.829	-0.197	-0.114
-431.661	-53.534	0.128	-0.058
-430.646	4.413	0.119	-0.087
-429.632	54.716	0.174	-0.167
-428.617	-82.962	0.444	-0.143
-427.603	-200.000	0.059	-0.271
-426.588	551.167	0.012	-0.029
-425.573	-29.941	0.030	0.017
-424.559	-95.931	-0.023	0.006
-423.544	800.000	-0.035	0.135
-422.530	76.946	0.144	-0.153
-421.515	-84.226	0.296	-0.094
-420.500	-71.747	0.169	0.063
-419.486	-11.392	-0.190	0.125
-418.471	800.000	-0.015	-0.059
-417.457	-144.424	0.308	0.028
-416.442	-173.039	-0.279	-0.009
-415.428	800.000	-0.031	-0.114
-414.413	-125.205	0.270	0.041
-413.398	-128.466	-0.359	-0.051
-412.384	-63.616	0.255	-0.104
-411.369	0.218	-0.077	-0.055
-410.355	-90.914	0.209	0.060
-409.340	-68.535	0.057	0.022
-408.325	-68.266	0.311	0.121
-407.311	3.627	-0.295	-0.215
-406.296	567.433	0.200	-0.485
-405.282	7.404	-0.164	0.122
-404.267	-44.225	0.363	-0.181
-403.252	-13.141	0.330	0.214
-402.238	417.795	0.081	-0.172
-401.223	-200.000	-0.022	-0.101
-400.209	-200.000	0.029	-0.323
-399.194	-22.631	-0.047	0.028
-398.179	39.947	-0.175	0.157
-397.165	-31.221	0.278	-0.156
-396.150	27.615	0.308	0.258
-395.136	800.000	-0.082	-0.284
-394.121	9.300	0.418	-0.315
-393.106	33.954	-0.219	0.190
-392.092	-141.369	-0.136	-0.014
-391.077	103.741	-0.252	-0.295
-390.063	682.359	-0.038	-0.099
-389.048	32.003	0.201	0.173
-388.033	-33.183	-0.216	-0.119
-387.019	19.838	0.229	-0.184
-386.004	-21.984	0.045	-0.027
-384.990	-19.296	-0.069	-0.043
-383.975	-200.000	0.013	0.076
-382.960	-16.142	0.167	-0.106
-381.946	-138.547	0.092	-0.010
-380.931	-56.324	0.133	-0.059
-379.917	38.986	-0.135	0.120
-378.902	392.778	0.099	0.205
-377.888	345.919	-0.133	-0.261
-376.873	-13.732	0.141	-0.091
-375.858	-153.841	-0.213	-0.014
-374.844	-85.975	-0.042	-0.013
-373.829	800.000	0.034	0.113
-372.815	-73.925	-0.406	0.147
-371.800	-200.000	-0.060	-0.264
-370.785	4.397	-0.081	0.059
-369.771	-200.000	-0.055	0.262
-368.756	152.807	0.134	0.182
-367.742	60.653	-0.143	-0.142
-366.727	143.956	0.193	-0.256
-365.712	43.008	-0.223	0.203
-364.698	-200.000	0.063	0.421
-363.683	-170.703	0.189	-0.006
-362.669	-89.348	0.483	-0.142
-361.654	-200.000	-0.065	-0.328
-360.639	-73.757	-0.125	-0.045
-359.625	116.558	-0.084	0.103
-358.610	-25.876	-0.233	-0.137
-357.596	23.836	0.100	0.082
-356.581	173.159	0.173	0.247
-355.566	-50.487	-0.181	0.085
-354.552	-146.887	0.030	0.003
-353.537	497.385	-0.095	0.217
-352.523	102.945	0.148	0.173
-351.508	125.369	0.302	-0.379
-350.493	-200.000	-0.007	-0.259
-349.479	-63.124	-0.213	-0.087
-348.464	-61.700	-0.380	-0.158
-347.450	-200.000	-0.002	0.189
-346.435	135.807	0.149	0.193
-345.420	245.791	-0.177	-0.296
-344.406	-200.000	0.002	0.253
-343.391	-37.667	-0.063	0.034
-342.377	-56.353	0.314	0.139
-341.362	37.443	-0.065	0.057
-340.348	293.832	-0.106	0.192
-339.333	-166.270	0.244	0.010
-338.318	19.390	0.258	0.207
-337.304	800.000	0.072	-0.292
-336.289	347.511	-0.040	0.079
-335.275	-200.000	-0.022	-0.118
-334.260	-149.417	0.150	-0.012
-333.245	800.000	0.091	0.313
-332.231	120.877	-0.164	0.202
-331.216	-89.591	-0.294	-0.086
-330.202	-41.723	-0.123	0.063
-329.187	102.897	0.066	-0.077
-328.172	10.497	0.268	-0.203
-327.158	-200.000	0.013	0.258
-326.143	-200.000	0.004	-0.084
-325.129	192.728	0.190	0.285
-324.114	96.292	0.338	0.384
-323.099	-8.905	0.094	-0.062
-322.085	-200.000	0.048	-0.354
-321.070	-107.597	0.559	-0.122
-320.056	-200.000	0.034	-0.229
-319.041	-200.000	-0.042	-0.187
-318.026	-57.580	-0.196	0.085
-317.012	-58.405	-0.144	-0.062
-315.997	-200.000	-0.011	0.138
-314.983	129.406	-0.052	-0.066
-313.968	98.256	0.250	-0.286
-312.953	-150.529	0.249	-0.019
-311.939	-200.000	-0.050	-0.298
-310.924	421.725	0.171	0.365
-309.910	-25.168	-0.237	-0.139
-308.895	-20.662	0.152	0.093
-307.880	103.397	-0.015	-0.017
-306.866	800.000	-0.016	0.063
-305.851	-26.385	0.237	0.138
-304.837	7.420	0.148	0.110
-303.822	285.111	0.097	-0.173
-302.807	-49.504	-0.367	-0.174
-301.793	220.135	0.065	-0.104
-300.778	-200.000	0.063	0.323
-299.764	440.019	-0.073	-0.159
-298.749	-188.728	-0.156	-0.002
-297.735	-119.499	-0.304	0.052
-296.720	24.646	-0.041	-0.034
-295.705	-107.678	0.181	-0.039
-294.691	-43.699	0.170	-0.085
-293.676	-94.683	-0.192	0.052
-292.662	168.855	-0.041	-0.059
-291.647	131.553	-0.153	0.195
-290.632	800.000	-0.117	0.379
-289.618	452.109	0.091	0.201
-288.603	-112.240	-0.191	-0.038
-287.589	-30.988	0.327	-0.183
-286.574	-200.000	0.162	-0.000
-285.559	-48.977	-0.130	-0.062
-284.545	800.000	-0.054	-0.171
-283.530	800.000	0.086	-0.254
-282.516	-129.442	-0.130	-0.018
-281.501	-200.000	-0.026	-0.131
-280.486	10.476	0.089	0.067
-279.472	800.000	-0.104	-0.348
-278.457	93.179	0.131	-0.147
-277.443	19.839	0.021	0.017
-276.428	487.014	0.106	-0.240
-275.413	-1.032	-0.245	-0.172
-274.399	-48.383	0.133	0.063
-273.384	-200.000	0.001	-0.149
-272.370	-65.952	-0.141	0.056
-271.355	75.978	-0.118	0.124
-270.340	-56.556	0.170	0.075
-269.326	91.351	-0.150	-0.167
-268.311	-128.687	0.214	0.030
-267.297	-101.489	0.218	-0.053
-266.282	193.664	-0.078	-0.116
-265.267	190.569	-0.102	-0.152
-264.253	87.076	0.092	0.101
-263.238	369.641	-0.132	-0.265
-262.224	211.840	0.012	0.019
-261.209	-83.734	0.288	-0.091
-260.195	-178.829	0.192	0.004
-259.180	-67.880	-0.257	-0.100
-258.165	-52.607	-0.354	0.162
-257.151	-200.000	-0.002	0.264
-256.136	35.122	0.265	0.231
-255.122	-200.000	-0.032	-0.145
-254.107	111.056	0.123	0.147
-253.092	489.088	-0.060	0.137
-252.078	-119.694	0.043	-0.007
-251.063	129.076	0.096	-0.122
-250.049	-103.932	0.238	0.055
-249.034	-93.543	0.256	-0.070
-248.019	-200.000	0.035	-0.278
-247.005	-142.756	-0.196	-0.019
-245.990	308.289	0.130	0.241
-244.976	-110.347	0.286	0.059
-243.961	213.928	0.187	0.293
-242.946	-37.678	-0.130	-0.069
-241.932	19.459	-0.210	-0.167
-240.917	-190.886	-0.169	-0.002
-239.903	800.000	-0.060	0.198
-238.888	-88.070	0.348	0.103
-237.873	800.000	0.001	0.004
-236.859	153.110	-0.187	-0.253
-235.844	-200.000	0.040	-0.203
-234.830	141.335	-0.076	-0.100
-233.815	25.494	-0.159	-0.131
-232.800	-101.138	0.264	-0.064
-231.786	-200.000	-0.030	-0.141
-230.771	17.711	0.259	-0.204
-229.757	177.429	0.103	-0.149
-228.742	13.583	0.319	-0.245
-227.727	800.000	-0.079	-0.328
-226.713	389.370	-0.132	-0.271
-225.698	102.544	-0.133	-0.154
-224.684	542.614	0.070	-0.166
-223.669	-161.676	-0.434	0.022
-222.655	-74.443	-0.103	-0.037
-221.640	686.779	-0.019	-0.048
-220.625	127.240	0.259	0.325
-219.611	-40.233	0.170	-0.087
-218.596	800.000	-0.038	-0.139
-217.582	-60.742	0.270	-0.113
-216.567	329.048	-0.090	0.171
-215.552	-141.726	-0.455	0.045
-214.538	-200.000	-0.020	0.093
-213.523	-200.000	0.046	-0.248
-212.509	-72.989	-0.186	0.068
-211.494	-137.187	-0.420	0.047
-210.479	3.692	0.057	0.041
-209.465	-200.000	0.015	-0.114
-208.450	800.000	-0.065	0.277
-207.436	501.885	0.162	0.370
-206.421	800.000	-0.113	0.395
-205.406	95.915	-0.163	-0.184
-204.392	-148.258	-0.162	-0.013
-203.377	8.655	0.263	-0.196
-202.363	-93.493	-0.233	-0.064
-201.348	-96.784	-0.314	-0.081
-200.333	154.948	-0.267	-0.363
-199.319	-200.000	-0.009	0.156
-198.304	-200.000	0.022	-0.369
-197.290	-165.787	0.175	0.007
-196.275	774.454	-0.072	0.195
-195.260	-200.000	0.017	-0.092
-194.246	75.298	0.235	-0.245
-193.231	-200.000	0.011	-0.262
-192.217	99.286	0.063	0.071
-191.202	144.196	-0.137	0.180
-190.187	-200.000	0.045	0.321
-189.173	-78.434	0.307	0.104
-188.158	-200.000	0.007	-0.252
-187.144	-148.864	0.283	-0.023
-186.129	18.468	-0.188	0.149
-185.114	3.809	0.231	-0.167
-184.100	-40.839	-0.261	-0.133
-183.085	-200.000	-0.045	-0.414
-182.071	-200.000	0.028	-0.238
-181.056	203.006	0.132	-0.202
-180.042	-63.147	0.276	0.112
-179.027	-23.841	0.099	-0.059
-178.012	-200.000	0.053	0.292
-176.998	216.904	-0.140	0.220
-175.983	120.072	0.094	0.115
-174.969	767.654	-0.105	0.281
-173.954	177.510	-0.011	0.016
-172.939	228.654	0.066	-0.107
-171.925	-200.000	0.000	0.193
-170.910	161.490	0.220	0.304
-169.896	-54.456	-0.101	-0.045
-168.881	-131.572	0.160	0.021
-167.866	172.991	0.120	0.170
-166.852	-7.382	-0.165	-0.110
-165.837	203.117	0.091	0.139
-164.823	-137.028	0.112	0.013
-163.808	77.516	-0.005	-0.005
-162.793	-1.161	0.067	-0.047
-161.779	127.982	-0.113	-0.142
-160.764	-124.676	-0.273	-0.042
-159.750	800.000	0.016	-0.068
-158.735	-200.000	0.034	0.261
-157.720	-95.817	0.317	0.083
-156.706	503.626	0.166	0.378
-155.691	151.614	0.145	0.196
-154.677	-200.000	-0.022	-0.285
-153.662	119.985	-0.150	0.184
-152.647	150.718	0.087	-0.117
-151.633	442.467	0.129	0.278
-150.618	72.460	-0.050	-0.052
-149.604	-184.947	0.047	-0.001
-148.589	177.274	0.120	0.172
-147.574	-33.656	-0.069	-0.038
-146.560	-200.000	0.023	-0.185
-145.545	52.735	0.184	0.174
-144.531	275.072	-0.054	-0.094
-143.516	800.000	-0.037	0.110
-142.502	146.136	0.071	0.093
-141.487	-174.746	0.218	0.006
-140.472	-156.746	-0.428	-0.026
-139.458	-2.741	-0.146	0.101
-138.443	-88.701	-0.127	-0.037
-137.429	-29.358	-0.067	-0.038
-136.414	378.541	-0.154	0.311
-135.399	-200.000	0.006	-0.149
-134.385	800.000	0.070	0.202
-133.370	-200.000	0.011	-0.242
-132.356	308.838	-0.098	0.180
-131.341	286.444	0.094	-0.167
-130.326	201.319	-0.135	-0.205
-129.312	-200.000	-0.009	0.339
-128.297	800.000	-0.046	-0.132
-127.283	-41.556	-0.074	0.038
-126.268	2.874	0.266	0.190
-125.253	800.000	0.064	0.219
-124.239	-200.000	-0.030	0.266
-123.224	632.423	0.087	0.216
-122.210	-200.000	-0.027	0.120
-121.195	-133.867	-0.257	0.031
-120.180	516.227	0.100	0.229
