DTS Sentinel unit serial number:	SN413079Multiplexer serial number:	ORYXHardware model number:	OX4-SRSoftware version number:	ORYX F/W v4.00 Oryx Data Collector v3.7.2.0data status	okinstallation	princeton_trtdifferential loss correction	single-endedforward channel	channel 4reverse channel	N/Adate	2019/09/14time	09:45:35forward acquisition time	60.00reverse acquisition time	0.00gamma	496.2192k internal	0.2303k external	0.2303temperature offset calibration	1.0135default loss term (dB/km)	0.3790temperature slope calibration	1.0000multiplexer offset coefficient	1.0000multiplexer slope coefficient	1.0000fibre end	0.00T internal ref (°C)	32.25T ext. ref 1 (°C)	3.92T ext. ref 2 (°C)	30.40length (m)	temperature (°C)	Stokes	anti-Stokes-747.200	-133.543	0.198	0.025
-746.185	402.430	-0.080	0.172
-745.171	-112.399	0.085	0.017
-744.156	-200.000	0.059	0.298
-743.142	-46.510	0.344	0.172
-742.127	-171.936	0.487	-0.016
-741.112	-200.000	0.015	-0.139
-740.098	90.852	0.176	0.201
-739.083	82.171	0.239	-0.264
-738.069	677.908	0.088	0.233
-737.054	78.191	-0.232	-0.252
-736.039	-139.593	-0.315	0.034
-735.025	-7.727	0.206	0.142
-734.010	-65.098	-0.216	-0.089
-732.996	-23.891	-0.272	0.165
-731.981	-123.814	-0.130	0.021
-730.966	197.055	0.149	0.231
-729.952	-200.000	0.014	-0.074
-728.937	-70.145	0.105	0.041
-727.923	272.298	0.044	-0.079
-726.908	800.000	-0.037	-0.118
-725.894	-200.000	-0.006	-0.130
-724.879	213.041	-0.056	-0.089
-723.864	800.000	0.082	0.247
-722.850	800.000	0.045	-0.157
-721.835	213.125	-0.032	0.052
-720.821	632.241	0.072	0.185
-719.806	4.304	0.053	0.039
-718.791	-133.498	0.343	0.044
-717.777	-170.955	-0.145	-0.005
-716.762	-183.014	0.141	0.003
-715.748	-49.961	-0.078	-0.038
-714.733	-34.692	0.202	0.113
-713.718	-200.000	-0.058	0.298
-712.704	21.566	0.118	0.098
-711.689	-92.453	-0.296	0.085
-710.675	-30.987	0.093	-0.053
-709.660	-111.543	-0.175	0.036
-708.645	-4.890	0.096	0.067
-707.631	398.478	0.034	0.072
-706.616	-200.000	-0.004	0.053
-705.602	-123.703	-0.029	-0.005
-704.587	192.553	-0.124	0.191
-703.572	800.000	0.013	0.041
-702.558	-61.479	-0.437	-0.187
-701.543	70.500	0.132	-0.139
-700.529	378.715	-0.177	0.368
-699.514	-33.987	-0.113	-0.063
-698.499	-141.266	0.234	0.024
-697.485	800.000	-0.091	0.289
-696.470	-63.930	-0.323	-0.134
-695.456	800.000	0.089	-0.362
-694.441	-200.000	-0.008	0.184
-693.426	-95.282	0.192	0.052
-692.412	-129.566	-0.197	-0.028
-691.397	35.420	0.232	-0.207
-690.383	90.209	0.107	-0.121
-689.368	61.458	0.303	0.306
-688.354	208.619	-0.018	0.028
-687.339	-51.734	0.104	-0.049
-686.324	137.296	0.065	-0.086
-685.310	-129.391	-0.265	0.037
-684.295	-176.423	-0.094	-0.002
-683.281	-56.110	0.239	0.108
-682.266	-35.855	0.263	-0.145
-681.251	-119.174	0.312	-0.055
-680.237	800.000	0.089	0.285
-679.222	18.819	-0.267	0.218
-678.208	-183.667	0.288	-0.005
-677.193	187.904	0.192	-0.291
-676.178	-200.000	0.016	0.172
-675.164	-65.462	0.101	-0.041
-674.149	-35.701	0.260	-0.143
-673.135	102.787	-0.105	-0.125
-672.120	-64.397	0.185	-0.076
-671.105	-200.000	0.030	-0.192
-670.091	800.000	0.123	-0.385
-669.076	154.946	0.045	0.062
-668.062	177.383	-0.166	-0.246
-667.047	166.905	-0.123	-0.177
-666.032	40.236	0.175	0.160
-665.018	-200.000	0.042	-0.194
-664.003	-61.336	-0.178	0.076
-662.989	-22.682	-0.383	0.235
-661.974	-130.275	0.358	0.049
-660.959	556.748	0.126	-0.308
-659.945	-148.203	0.250	0.021
-658.930	800.000	0.038	-0.119
-657.916	-42.412	-0.252	0.130
-656.901	-200.000	-0.005	0.298
-655.886	-9.102	-0.122	-0.083
-654.872	800.000	0.053	-0.175
-653.857	800.000	0.050	0.146
-652.843	-137.576	-0.146	0.017
-651.828	-29.861	-0.188	-0.109
-650.814	-136.754	0.248	-0.029
-649.799	-200.000	-0.183	0.000
-648.784	800.000	-0.052	-0.194
-647.770	15.155	-0.138	-0.110
-646.755	-135.838	0.194	0.023
-645.741	-146.698	-0.376	-0.033
-644.726	139.037	0.030	-0.040
-643.711	-102.004	0.259	0.063
-642.697	308.330	-0.129	0.244
-641.682	-120.283	0.220	0.038
-640.668	-110.379	0.229	-0.048
-639.653	-159.367	-0.203	-0.012
-638.638	-62.788	0.164	0.069
-637.624	800.000	0.071	-0.248
-636.609	-190.262	0.134	0.001
-635.595	83.572	0.179	0.198
-634.580	58.424	-0.129	-0.129
-633.565	480.632	0.044	0.101
-632.551	-3.195	-0.278	0.197
-631.536	800.000	-0.040	0.160
-630.522	-200.000	-0.026	-0.240
-629.507	-81.723	-0.206	0.069
-628.492	80.419	-0.216	0.236
-627.478	800.000	0.116	-0.340
-626.463	-200.000	-0.055	-0.255
-625.449	-133.304	-0.278	-0.036
-624.434	-76.562	0.119	0.042
-623.419	-200.000	0.039	-0.192
-622.405	155.890	0.197	-0.275
-621.390	-71.570	0.119	-0.045
-620.376	6.728	-0.117	0.088
-619.361	-13.273	-0.183	0.120
-618.346	-12.535	0.261	0.173
-617.332	800.000	0.098	-0.279
-616.317	800.000	-0.031	0.114
-615.303	576.791	-0.064	-0.157
-614.288	197.880	-0.122	-0.189
-613.273	800.000	0.123	-0.479
-612.259	-114.014	0.120	0.024
-611.244	-200.000	0.005	-0.047
-610.230	95.929	-0.171	-0.198
-609.215	-200.000	0.005	-0.098
-608.201	95.624	0.043	-0.049
-607.186	-200.000	0.015	-0.268
-606.171	-96.235	0.131	-0.035
-605.157	-26.743	-0.186	0.110
-604.142	-117.901	-0.296	-0.054
-603.128	-34.534	-0.069	0.038
-602.113	136.220	-0.047	-0.062
-601.098	50.846	0.090	-0.087
-600.084	-200.000	-0.027	0.318
-599.069	-200.000	-0.038	-0.249
-598.055	-18.517	0.250	0.158
-597.040	800.000	-0.030	0.133
-596.025	-70.025	-0.099	0.038
-595.011	-86.571	-0.390	0.121
-593.996	-159.514	0.082	0.005
-592.982	-89.642	0.140	-0.042
-591.967	-26.640	0.016	-0.009
-590.952	110.681	-0.100	0.121
-589.938	-48.213	0.124	-0.061
-588.923	24.830	-0.177	-0.148
-587.909	-159.834	0.090	-0.005
-586.894	265.212	-0.138	0.244
-585.879	208.608	0.077	0.122
-584.865	-200.000	0.019	-0.360
-583.850	-55.912	-0.137	0.062
-582.836	276.817	-0.103	0.186
-581.821	-65.050	0.222	0.091
-580.806	-54.511	-0.047	0.021
-579.792	-49.667	-0.286	-0.138
-578.777	-120.438	0.226	-0.039
-577.763	800.000	0.041	0.162
-576.748	-22.138	-0.209	-0.128
-575.733	-136.486	-0.292	0.034
-574.719	-94.867	0.041	-0.011
-573.704	-200.000	-0.028	0.476
-572.690	364.061	0.129	0.263
-571.675	134.239	-0.274	-0.359
-570.661	-6.248	0.110	-0.076
-569.646	61.268	0.170	-0.171
-568.631	-64.124	0.124	0.051
-567.617	119.675	0.155	0.194
-566.602	-200.000	0.002	-0.160
-565.588	-125.070	0.411	0.064
-564.573	-107.240	-0.133	0.030
-563.558	115.776	0.087	-0.107
-562.544	164.773	-0.106	0.152
-561.529	462.698	-0.055	0.124
-560.515	229.556	-0.097	-0.160
-559.500	43.996	-0.116	-0.108
-558.485	-200.000	-0.025	0.165
-557.471	-28.466	0.234	0.136
-556.456	57.487	0.485	-0.479
-555.442	800.000	-0.071	0.295
-554.427	-200.000	-0.017	-0.085
-553.412	-43.129	0.216	-0.111
-552.398	-90.714	0.133	-0.039
-551.383	-200.000	0.002	-0.265
-550.369	81.186	0.145	0.158
-549.354	-200.000	0.003	-0.128
-548.339	0.060	-0.244	0.176
-547.325	-82.258	0.279	0.092
-546.310	-200.000	-0.047	0.224
-545.296	-200.000	0.015	-0.108
-544.281	-143.843	-0.259	-0.025
-543.266	800.000	0.046	-0.146
-542.252	-151.597	0.161	0.012
-541.237	-112.070	-0.195	-0.040
-540.223	800.000	-0.056	-0.160
-539.208	-53.040	-0.212	-0.099
-538.193	-102.741	-0.143	0.034
-537.179	144.228	-0.020	-0.027
-536.164	24.291	0.109	-0.091
-535.150	-200.000	-0.004	0.040
-534.135	-96.464	0.071	0.019
-533.121	-200.000	-0.037	0.190
-532.106	800.000	-0.048	0.170
-531.091	410.566	0.102	0.217
-530.077	494.465	0.117	0.271
-529.062	-141.783	-0.629	0.064
-528.048	800.000	-0.111	0.393
-527.033	203.169	0.025	0.039
-526.018	-200.000	-0.001	-0.221
-525.004	800.000	-0.064	0.212
-523.989	-116.191	-0.210	-0.039
-522.975	-11.436	-0.116	0.077
-521.960	165.593	-0.135	0.193
-520.945	31.137	0.068	0.059
-519.931	800.000	-0.092	-0.370
-518.916	-200.000	0.055	-0.272
-517.902	-32.002	-0.128	0.073
-516.887	-200.000	-0.001	-0.046
-515.872	96.387	-0.146	0.168
-514.858	171.801	-0.141	-0.205
-513.843	709.413	-0.089	-0.237
-512.829	409.049	0.132	0.283
-511.814	-200.000	-0.107	0.499
-510.799	35.052	-0.081	0.071
-509.785	800.000	-0.054	-0.216
-508.770	-110.230	-0.376	0.079
-507.756	-121.303	-0.038	0.006
-506.741	-200.000	-0.012	0.055
-505.726	162.493	-0.168	0.238
-504.712	-16.689	-0.068	-0.044
-503.697	-81.466	0.377	-0.125
-502.683	-84.750	-0.280	0.089
-501.668	-91.396	0.072	0.021
-500.653	800.000	-0.038	-0.163
-499.639	-200.000	0.007	-0.116
-498.624	154.975	0.144	-0.200
-497.610	-200.000	0.028	0.136
-496.595	216.410	0.109	0.175
-495.581	-100.240	0.039	-0.010
-494.566	-98.099	0.196	-0.051
-493.551	-55.113	-0.160	0.073
-492.537	63.299	0.147	0.149
-491.522	-67.560	-0.285	0.113
-490.508	303.815	-0.136	-0.255
-489.493	433.896	-0.094	0.206
-488.478	-65.890	-0.204	-0.082
-487.464	800.000	-0.029	0.096
-486.449	241.465	0.040	-0.067
-485.435	279.083	0.068	0.123
-484.420	267.526	0.085	-0.150
-483.405	-200.000	0.047	0.333
-482.391	-72.859	-0.141	-0.052
-481.376	595.168	-0.039	0.096
-480.362	361.537	0.251	-0.507
-479.347	-15.526	0.189	0.122
-478.332	800.000	0.063	0.257
-477.318	105.987	0.097	0.116
-476.303	-146.797	0.407	0.035
-475.289	-118.138	0.381	-0.069
-474.274	140.182	0.080	0.107
-473.259	-200.000	-0.001	0.086
-472.245	-171.570	-0.227	0.008
-471.230	-157.148	-0.317	0.019
-470.216	112.711	-0.189	0.231
-469.201	258.836	-0.170	-0.295
-468.186	62.860	-0.051	0.052
-467.172	66.918	0.191	0.196
-466.157	800.000	0.042	-0.148
-465.143	-200.000	-0.024	0.112
-464.128	-200.000	-0.036	-0.172
-463.113	31.146	0.165	-0.142
-462.099	163.706	0.058	-0.083
-461.084	-62.467	0.149	-0.062
-460.070	63.206	0.233	-0.235
-459.055	800.000	-0.028	-0.117
-458.040	268.665	0.072	-0.127
-457.026	184.715	0.139	0.207
-456.011	-117.794	-0.215	0.039
-454.997	-47.309	0.331	0.162
-453.982	-200.000	0.010	0.080
-452.968	-112.462	-0.262	0.053
-451.953	251.776	0.082	-0.141
-450.938	-133.401	0.196	0.025
-449.924	-38.661	0.321	-0.170
-448.909	175.112	-0.045	-0.066
-447.895	-157.871	-0.152	-0.009
-446.880	103.769	0.086	-0.102
-445.865	-172.704	0.187	-0.006
-444.851	-111.755	-0.303	0.062
-443.836	352.056	-0.096	-0.192
-442.822	-26.814	0.055	-0.032
-441.807	-200.000	0.017	0.093
-440.792	-200.000	0.034	-0.153
-439.778	-73.449	-0.215	0.079
-438.763	-200.000	-0.047	0.272
-437.749	564.738	-0.154	-0.376
-436.734	338.498	0.104	0.204
-435.719	65.624	0.125	0.127
-434.705	65.457	-0.141	0.143
-433.690	44.510	-0.233	-0.215
-432.676	-71.969	0.177	-0.066
-431.661	60.180	0.118	-0.117
-430.646	-154.642	-0.058	0.004
-429.632	800.000	0.090	-0.338
-428.617	-73.871	-0.180	0.066
-427.603	800.000	-0.062	-0.240
-426.588	800.000	-0.082	0.261
-425.573	-56.676	0.155	-0.069
-424.559	-90.010	-0.121	0.036
-423.544	125.818	0.229	-0.291
-422.530	3.862	0.143	0.105
-421.515	-77.239	-0.036	0.012
-420.500	-106.995	0.266	-0.059
-419.486	254.048	-0.047	-0.080
-418.471	-16.862	-0.193	-0.123
-417.457	-134.908	0.336	0.041
-416.442	437.607	0.116	0.254
-415.428	-108.870	-0.255	-0.055
-414.413	-160.077	-0.383	0.021
-413.398	-104.843	-0.214	0.050
-412.384	800.000	0.016	0.065
-411.369	-94.141	-0.099	-0.027
-410.355	154.217	0.108	0.149
-409.340	14.774	0.092	0.072
-408.325	800.000	0.003	0.010
-407.311	-186.187	-0.262	-0.004
-406.296	-141.714	-0.306	0.031
-405.282	-91.107	0.290	0.084
-404.267	154.461	-0.047	-0.065
-403.252	640.735	0.160	-0.410
-402.238	332.408	0.092	0.178
-401.223	65.399	-0.279	0.284
-400.209	-200.000	-0.001	-0.228
-399.194	241.436	-0.082	0.138
-398.179	308.119	0.053	-0.100
-397.165	-131.302	0.069	-0.009
-396.150	279.323	-0.048	0.086
-395.136	800.000	-0.063	0.230
-394.121	-164.996	0.115	-0.005
-393.106	-27.225	-0.299	-0.175
-392.092	-150.665	0.409	0.031
-391.077	64.112	-0.242	-0.244
-390.063	-53.676	-0.179	0.082
-389.048	137.102	0.155	0.204
-388.033	-200.000	0.005	-0.175
-387.019	-165.426	0.057	-0.003
-386.004	350.817	-0.161	0.321
-384.990	-94.613	0.200	0.055
-383.975	-58.584	0.102	0.045
-382.960	-94.195	-0.237	-0.065
-381.946	56.254	0.247	-0.241
-380.931	608.864	0.017	-0.043
-379.917	-94.165	0.134	-0.037
-378.902	-16.732	-0.100	0.063
-377.888	-42.765	0.226	-0.115
-376.873	-88.262	0.216	0.065
-375.858	410.557	-0.005	0.010
-374.844	800.000	0.053	-0.154
-373.829	37.835	0.159	-0.142
-372.815	56.923	-0.253	0.248
-371.800	60.021	-0.231	0.229
-370.785	-200.000	-0.072	0.403
-369.771	62.824	0.131	0.132
-368.756	800.000	0.020	-0.059
-367.742	-153.604	-0.170	0.012
-366.727	18.619	-0.051	-0.041
-365.712	-178.545	-0.257	0.006
-364.698	-148.514	-0.547	-0.045
-363.683	67.050	0.123	0.126
-362.669	2.551	0.347	0.252
-361.654	800.000	0.017	0.057
-360.639	12.268	-0.057	-0.044
-359.625	783.319	0.102	-0.281
-358.610	800.000	0.023	-0.088
-357.596	-200.000	0.002	-0.272
-356.581	-56.216	0.124	0.055
-355.566	-52.985	-0.326	0.151
-354.552	155.967	0.106	0.147
-353.537	-138.495	-0.158	-0.017
-352.523	-33.342	-0.332	0.184
-351.508	29.761	-0.132	0.112
-350.493	211.511	-0.230	0.363
-349.479	134.857	-0.205	0.267
-348.464	-140.896	0.326	-0.034
-347.450	77.614	0.173	-0.185
-346.435	-124.383	-0.117	-0.018
-345.420	329.638	0.059	-0.113
-344.406	800.000	0.043	0.123
-343.391	-132.773	0.282	-0.036
-342.377	-94.936	0.308	-0.084
-341.362	145.990	0.155	0.209
-340.348	-20.248	0.349	-0.216
-339.333	-200.000	-0.007	0.284
-338.318	-200.000	0.002	-0.065
-337.304	-200.000	-0.043	-0.346
-336.289	-27.175	-0.204	0.119
-335.275	-107.801	0.184	-0.040
-334.260	-185.665	-0.226	0.003
-333.245	92.187	-0.028	-0.031
-332.231	-167.463	-0.118	-0.005
-331.216	800.000	-0.031	-0.096
-330.202	-37.058	-0.093	0.050
-329.187	522.298	-0.089	0.209
-328.172	-200.000	-0.001	-0.085
-327.158	221.865	-0.031	0.050
-326.143	49.939	0.100	0.094
-325.129	-200.000	-0.001	-0.275
-324.114	-19.449	-0.085	0.052
-323.099	264.440	0.058	0.101
-322.085	243.505	-0.088	0.148
-321.070	592.103	0.024	-0.059
-320.056	761.984	-0.028	-0.077
-319.041	-13.177	-0.109	-0.071
-318.026	674.733	-0.138	0.359
-317.012	-47.674	-0.260	-0.126
-315.997	64.431	-0.269	0.272
-314.983	-200.000	-0.012	-0.278
-313.968	-36.137	0.202	0.109
-312.953	517.058	0.139	0.325
-311.939	-162.158	0.316	-0.016
-310.924	800.000	-0.123	0.372
-309.910	155.786	-0.062	0.086
-308.895	137.538	0.133	0.175
-307.880	-40.264	0.165	-0.086
-306.866	38.196	-0.071	-0.063
-305.851	-108.112	0.228	-0.049
-304.837	83.053	0.102	-0.111
-303.822	-55.158	-0.159	-0.072
-302.807	-94.286	0.099	0.027
-301.793	301.751	0.056	-0.104
-300.778	-145.307	0.205	0.019
-299.764	-200.000	-0.059	0.262
-298.749	800.000	0.094	0.264
-297.735	-200.000	-0.001	0.184
-296.720	12.064	0.302	-0.233
-295.705	38.676	0.168	0.150
-294.691	-63.925	-0.044	0.018
-293.676	800.000	-0.064	-0.231
-292.662	800.000	0.034	-0.124
-291.647	800.000	0.043	0.120
-290.632	-167.925	0.384	-0.015
-289.618	-89.780	0.147	-0.043
-288.603	212.883	0.188	-0.296
-287.589	-6.250	-0.161	-0.110
-286.574	34.882	-0.285	-0.249
-285.559	-47.000	0.043	0.021
-284.545	-141.648	0.321	-0.032
-283.530	-46.100	0.052	-0.025
-282.516	800.000	-0.051	-0.167
-281.501	-200.000	0.011	-0.295
-280.486	200.453	0.034	0.053
-279.472	12.749	0.081	0.063
-278.457	43.591	-0.183	-0.167
-277.443	800.000	-0.019	0.054
-276.428	-20.056	0.153	-0.095
-275.413	-0.109	0.168	0.119
-274.399	-125.021	-0.043	0.007
-273.384	-54.203	0.321	0.146
-272.370	49.647	-0.167	0.157
-271.355	-200.000	0.004	-0.127
-270.340	-62.298	0.179	0.075
-269.326	225.631	-0.097	0.158
-268.311	-200.000	0.014	0.245
-267.297	-6.295	0.123	-0.084
-266.282	790.859	0.021	0.058
-265.267	624.851	0.034	-0.086
-264.253	178.703	-0.141	-0.205
-263.238	124.735	-0.081	-0.102
-262.224	75.062	0.197	0.207
-261.209	-95.902	-0.120	0.032
-260.195	318.018	0.078	-0.148
-259.180	375.329	-0.132	-0.270
-258.165	-91.601	-0.307	0.087
-257.151	-8.522	-0.086	-0.058
-256.136	89.237	-0.119	-0.132
-255.122	217.349	-0.106	-0.169
-254.107	49.177	0.147	0.138
-253.092	-200.000	0.033	-0.220
-252.078	-200.000	0.016	-0.082
-251.063	384.106	0.063	0.129
-250.049	-5.498	0.093	0.064
-249.034	49.797	-0.260	-0.245
-248.019	-17.939	-0.148	-0.093
-247.005	260.827	0.096	-0.167
-245.990	116.133	0.087	0.106
-244.976	800.000	0.097	0.348
-243.961	800.000	0.075	-0.324
-242.946	-200.000	0.001	-0.064
-241.932	-95.571	-0.200	-0.054
-240.917	-15.485	0.160	-0.102
-239.903	198.308	0.095	0.145
-238.888	-34.848	-0.324	-0.177
-237.873	276.691	0.141	-0.251
-236.859	33.435	0.221	-0.192
-235.844	-90.859	0.129	-0.037
-234.830	20.703	-0.125	0.101
-233.815	-114.923	0.091	0.017
-232.800	-6.955	0.366	-0.248
-231.786	-67.353	0.050	0.019
-230.771	-200.000	0.009	-0.043
-229.757	-38.971	0.252	-0.132
-228.742	104.682	0.119	-0.139
-227.727	672.080	-0.051	0.132
-226.713	-61.167	-0.240	-0.101
-225.698	-102.337	0.251	-0.060
-224.684	147.802	-0.067	0.090
-223.669	-92.834	0.233	-0.065
-222.655	183.792	-0.133	0.196
-221.640	-133.820	-0.293	0.036
-220.625	-200.000	-0.004	-0.048
-219.611	-118.802	0.191	-0.034
-218.596	-135.226	0.407	-0.049
-217.582	233.614	-0.087	-0.143
-216.567	83.137	0.164	-0.178
-215.552	-122.039	0.169	0.028
-214.538	18.354	0.255	-0.203
-213.523	-200.000	-0.062	0.453
-212.509	-58.138	-0.165	0.072
-211.494	209.136	0.166	-0.259
-210.479	-10.503	-0.064	-0.043
-209.465	-200.000	-0.007	-0.079
-208.450	800.000	-0.040	0.144
-207.436	147.410	-0.201	0.270
-206.421	44.716	-0.182	-0.167
-205.406	106.377	-0.105	-0.124
-204.392	151.128	0.050	0.068
-203.377	-200.000	-0.024	-0.241
-202.363	367.715	-0.026	-0.053
-201.348	-200.000	-0.012	0.318
-200.333	-82.232	0.323	0.105
-199.319	70.131	-0.118	0.122
-198.304	-28.882	-0.158	-0.091
-197.290	-5.109	-0.216	-0.148
-196.275	-14.839	0.058	0.037
-195.260	513.184	0.010	0.024
-194.246	-192.531	0.097	0.001
-193.231	158.270	-0.103	-0.143
-192.217	-156.035	-0.150	0.009
-191.202	260.172	-0.163	-0.281
-190.187	-74.345	0.468	0.169
-189.173	-126.333	-0.388	-0.058
-188.158	800.000	-0.060	0.235
-187.144	42.215	0.064	-0.058
-186.129	107.237	0.189	-0.223
-185.114	229.639	0.126	0.204
-184.100	179.704	0.103	-0.150
-183.085	-60.305	-0.200	-0.085
-182.071	142.257	-0.164	0.217
-181.056	633.927	-0.084	0.213
-180.042	224.724	-0.103	0.166
-179.027	-200.000	0.237	0.000
-178.012	800.000	-0.100	0.310
-176.998	-200.000	-0.037	-0.265
-175.983	-120.310	0.224	0.038
-174.969	-182.071	0.085	-0.002
-173.954	41.739	-0.101	0.091
-172.939	9.268	-0.081	0.061
-171.925	-31.183	-0.189	0.106
-170.910	800.000	-0.058	0.159
-169.896	95.715	-0.146	0.166
-168.881	-200.000	-0.006	-0.156
-167.866	-42.005	-0.030	0.015
-166.852	-52.024	0.147	-0.068
-165.837	-126.297	0.197	-0.029
-164.823	-200.000	-0.035	-0.168
-163.808	-19.677	-0.166	-0.103
-162.793	-200.000	0.000	-0.369
-161.779	700.625	-0.067	-0.175
-160.764	-74.550	0.081	0.029
-159.750	4.798	0.282	0.206
-158.735	106.878	-0.241	0.285
-157.720	-22.353	-0.327	0.197
-156.706	-170.337	0.181	-0.006
-155.691	35.594	0.145	0.127
-154.677	8.114	0.326	0.243
-153.662	-73.670	-0.212	0.077
-152.647	-200.000	-0.084	-0.389
-151.633	535.530	-0.149	0.353
-150.618	-54.898	0.255	0.115
-149.604	-43.824	0.440	-0.220
-148.589	-82.457	0.281	0.091
-147.574	-115.760	-0.026	0.005
-146.560	-120.087	0.074	-0.013
-145.545	-31.753	-0.141	-0.079
-144.531	20.203	-0.129	-0.104
-143.516	319.383	-0.195	0.367
-142.502	800.000	0.204	-0.608
-141.487	-98.166	-0.257	0.066
-140.472	438.368	-0.060	0.130
-139.458	800.000	-0.005	-0.014
-138.443	-84.691	-0.106	0.033
-137.429	-200.000	0.004	0.030
-136.414	-109.358	-0.203	-0.043
-135.399	-200.000	0.077	0.350
-134.385	800.000	-0.083	-0.260
-133.370	-200.000	0.033	-0.146
-132.356	-200.000	0.015	-0.074
-131.341	120.952	-0.032	-0.040
-130.326	18.109	0.222	0.176
-129.312	-200.000	0.027	-0.221
-128.297	-200.000	0.014	0.255
-127.283	-56.885	0.073	-0.032
-126.268	209.682	-0.110	-0.172
-125.253	280.969	0.182	-0.324
-124.239	456.032	0.251	-0.554
-123.224	-98.052	0.298	-0.076
-122.210	-118.130	-0.380	-0.067
-121.195	383.222	-0.093	-0.191
