DTS Sentinel unit serial number:	SN413079Multiplexer serial number:	ORYXHardware model number:	OX4-SRSoftware version number:	ORYX F/W v4.00 Oryx Data Collector v3.7.2.0data status	okinstallation	princeton_trtdifferential loss correction	single-endedforward channel	channel 4reverse channel	N/Adate	2019/09/16time	23:53:34forward acquisition time	60.00reverse acquisition time	0.00gamma	496.2192k internal	0.2314k external	0.2314temperature offset calibration	0.9977default loss term (dB/km)	0.3790temperature slope calibration	1.0000multiplexer offset coefficient	1.0000multiplexer slope coefficient	1.0000fibre end	0.00T internal ref (°C)	29.62T ext. ref 1 (°C)	0.09T ext. ref 2 (°C)	23.94length (m)	temperature (°C)	Stokes	anti-Stokes-747.200	-46.876	-0.398	-0.197
-746.185	-200.000	-0.061	-0.385
-745.171	52.908	-0.146	0.141
-744.156	-46.564	-0.369	0.183
-743.142	-200.000	-0.013	-0.456
-742.127	140.399	-0.221	-0.296
-741.112	-200.000	-0.016	-0.168
-740.098	-200.000	-0.082	0.505
-739.083	112.778	0.132	0.162
-738.069	-200.000	-0.033	0.652
-737.054	-172.638	-0.134	0.004
-736.039	-95.004	-0.096	-0.026
-735.025	294.289	-0.055	0.103
-734.010	-80.803	-0.403	-0.136
-732.996	-200.000	-0.027	-0.250
-731.981	153.362	-0.168	0.233
-730.966	-200.000	-0.007	0.086
-729.952	32.185	-0.092	-0.080
-728.937	205.626	-0.126	0.198
-727.923	-22.630	-0.302	-0.185
-726.908	-93.119	-0.435	-0.123
-725.894	177.471	0.167	-0.247
-724.879	-122.530	-0.338	-0.056
-723.864	-18.481	-0.064	-0.040
-722.850	506.456	-0.078	-0.184
-721.835	-65.570	-0.328	0.133
-720.821	-92.573	0.098	0.028
-719.806	-97.654	-0.251	-0.066
-718.791	41.190	-0.078	0.072
-717.777	-55.613	0.035	-0.016
-716.762	-48.483	-0.136	-0.066
-715.748	-138.214	-0.530	-0.059
-714.733	97.060	0.255	-0.296
-713.718	28.540	0.150	0.128
-712.704	216.860	-0.146	-0.235
-711.689	-49.365	-0.159	0.077
-710.675	-200.000	-0.044	-0.225
-709.660	30.996	-0.100	-0.087
-708.645	-171.028	-0.337	-0.012
-707.631	-200.000	-0.001	0.258
-706.616	261.195	-0.081	-0.143
-705.602	-200.000	-0.009	-0.059
-704.587	744.689	0.077	-0.209
-703.572	-200.000	0.013	-0.072
-702.558	126.184	-0.182	-0.233
-701.543	800.000	-0.054	-0.188
-700.529	-200.000	0.021	0.226
-699.514	-139.211	0.325	-0.035
-698.499	39.023	-0.291	-0.263
-697.485	-141.490	0.229	0.023
-696.470	-43.974	-0.231	0.118
-695.456	319.421	0.199	-0.382
-694.441	348.225	-0.226	-0.451
-693.426	-47.690	-0.321	-0.158
-692.412	256.507	0.056	-0.097
-691.397	-177.695	-0.091	0.002
-690.383	-200.000	0.005	-0.070
-689.368	-200.000	-0.038	0.171
-688.354	-200.000	-0.044	0.205
-687.339	-42.428	0.271	0.140
-686.324	-66.282	0.118	-0.047
-685.310	-185.523	0.116	-0.002
-684.295	-67.228	-0.505	-0.201
-683.281	133.496	-0.100	-0.131
-682.266	-188.856	-0.425	-0.005
-681.251	-117.133	-0.258	-0.048
-680.237	-200.000	0.052	0.272
-679.222	-28.909	0.220	-0.128
-678.208	800.000	-0.040	-0.122
-677.193	17.742	0.107	-0.086
-676.178	148.112	-0.131	-0.179
-675.164	60.094	0.190	-0.190
-674.149	-45.090	-0.259	-0.130
-673.135	-200.000	-0.017	-0.396
-672.120	-200.000	0.012	0.199
-671.105	-65.291	0.311	0.127
-670.091	6.763	0.134	-0.101
-669.076	179.556	0.062	0.091
-668.062	-32.272	-0.227	0.128
-667.047	-110.532	-0.164	-0.034
-666.032	-75.554	-0.239	-0.086
-665.018	-193.567	-0.119	0.001
-664.003	502.192	0.062	0.145
-662.989	-183.249	-0.334	-0.006
-661.974	-175.281	0.252	-0.007
-660.959	-90.165	-0.209	0.062
-659.945	80.168	0.109	-0.118
-658.930	800.000	0.106	0.304
-657.916	231.742	0.018	-0.031
-656.901	261.907	-0.094	0.164
-655.886	210.151	-0.117	-0.185
-654.872	306.256	-0.055	-0.103
-653.857	41.656	-0.104	-0.095
-652.843	-27.035	-0.115	-0.068
-651.828	-46.283	-0.316	-0.157
-650.814	800.000	0.051	-0.174
-649.799	-200.000	-0.022	-0.215
-648.784	-144.487	-0.208	0.019
-647.770	77.281	0.116	-0.124
-646.755	-61.886	-0.354	-0.150
-645.741	-41.173	0.359	0.187
-644.726	-172.365	-0.134	-0.004
-643.711	123.139	-0.070	-0.089
-642.697	800.000	0.098	-0.397
-641.682	-3.741	0.093	0.065
-640.668	409.077	-0.060	-0.128
-639.653	655.259	-0.069	0.179
-638.638	628.507	-0.090	-0.230
-637.624	3.407	0.202	-0.148
-636.609	531.029	0.157	-0.375
-635.595	421.303	0.075	-0.162
-634.580	274.075	0.080	-0.143
-633.565	349.959	0.183	-0.364
-632.551	-112.607	0.036	-0.007
-631.536	-47.664	-0.159	-0.078
-630.522	303.853	-0.101	-0.188
-629.507	-89.044	-0.213	-0.064
-628.492	-44.394	-0.151	0.076
-627.478	539.008	0.017	0.041
-626.463	800.000	0.021	0.091
-625.449	577.491	0.113	-0.279
-624.434	-160.119	-0.219	-0.012
-623.419	-200.000	-0.018	-0.215
-622.405	155.558	-0.069	-0.096
-621.390	-200.000	0.003	0.102
-620.376	22.184	-0.081	-0.067
-619.361	-122.467	-0.403	0.066
-618.346	375.784	-0.138	0.285
-617.332	-17.523	-0.141	0.089
-616.317	389.113	-0.056	-0.117
-615.303	23.232	-0.406	-0.337
-614.288	-200.000	-0.017	0.141
-613.273	209.894	-0.106	-0.167
-612.259	130.139	-0.129	-0.167
-611.244	-156.599	0.267	0.017
-610.230	-200.000	0.007	0.033
-609.215	800.000	0.048	0.139
-608.201	459.716	-0.113	0.254
-607.186	-200.000	-0.026	0.160
-606.171	-160.554	-0.319	0.017
-605.157	-163.192	0.114	-0.006
-604.142	84.615	-0.064	-0.071
-603.128	137.192	-0.058	0.077
-602.113	18.627	-0.098	0.079
-601.098	-52.852	-0.075	-0.035
-600.084	9.316	0.151	-0.115
-599.069	47.095	-0.071	0.067
-598.055	800.000	0.119	-0.525
-597.040	92.857	-0.186	-0.212
-596.025	-91.725	-0.275	-0.079
-595.011	-5.137	0.074	-0.051
-593.996	4.001	-0.258	0.190
-592.982	-200.000	-0.027	0.449
-591.967	800.000	-0.104	0.307
-590.952	379.488	-0.140	0.289
-589.938	789.151	0.064	0.178
-588.923	37.488	0.230	0.205
-587.909	31.426	-0.297	0.257
-586.894	339.889	0.067	-0.131
-585.879	33.214	-0.087	0.076
-584.865	542.379	0.080	0.193
-583.850	800.000	-0.085	-0.312
-582.836	-59.627	0.048	0.021
-581.821	-63.711	-0.050	-0.021
-580.806	587.774	-0.139	-0.345
-579.792	119.298	0.179	0.224
-578.777	-81.891	0.222	-0.073
-577.763	-66.518	-0.309	0.123
-576.748	310.861	-0.063	0.119
-575.733	-200.000	0.023	0.212
-574.719	149.548	0.139	-0.190
-573.704	-72.039	-0.213	-0.080
-572.690	-40.454	0.335	0.175
-571.675	-19.756	-0.150	0.094
-570.661	-104.135	-0.285	-0.067
-569.646	-118.463	-0.193	0.034
-568.631	12.334	-0.071	0.055
-567.617	-200.000	-0.008	-0.178
-566.602	136.124	0.040	-0.053
-565.588	96.503	0.098	-0.112
-564.573	-200.000	0.003	0.153
-563.558	-152.737	0.251	-0.018
-562.544	-115.391	-0.106	-0.020
-561.529	-145.729	0.266	0.024
-560.515	105.904	-0.113	0.135
-559.500	-10.697	-0.020	0.013
-558.485	105.905	0.107	-0.127
-557.471	-116.335	0.241	-0.045
-556.456	-200.000	0.048	0.257
-555.442	461.598	0.089	0.201
-554.427	27.669	-0.164	-0.139
-553.412	-83.151	0.244	-0.079
-552.398	326.189	-0.127	-0.244
-551.383	-108.513	-0.276	-0.060
-550.369	29.945	-0.124	-0.106
-549.354	-32.411	0.223	-0.125
-548.339	156.483	0.017	0.024
-547.325	-200.000	0.017	0.413
-546.310	32.464	0.055	-0.047
-545.296	-200.000	0.028	0.542
-544.281	171.142	0.165	-0.238
-543.266	-77.332	0.243	0.085
-542.252	-158.760	0.330	-0.019
-541.237	48.477	-0.356	-0.335
-540.223	-143.313	-0.285	-0.027
-539.208	-47.388	0.205	-0.101
-538.193	-200.000	0.009	-0.510
-537.179	44.598	0.110	0.101
-536.164	321.455	-0.135	-0.259
-535.150	-2.427	0.246	0.173
-534.135	-180.850	-0.311	0.006
-533.121	-110.378	-0.271	0.057
-532.106	51.258	-0.118	-0.112
-531.091	41.977	-0.157	0.143
-530.077	56.452	-0.235	0.230
-529.062	800.000	-0.042	-0.170
-528.048	-115.686	0.310	-0.058
-527.033	102.072	0.165	0.193
-526.018	800.000	0.061	0.216
-525.004	209.021	-0.132	-0.207
-523.989	-200.000	0.080	0.364
-522.975	-150.217	0.145	0.011
-521.960	75.607	-0.124	0.131
-520.945	-200.000	0.034	0.151
-519.931	-103.250	-0.244	0.058
-518.916	-67.475	-0.192	-0.076
-517.902	369.764	-0.058	0.119
-516.887	38.794	0.222	-0.199
-515.872	211.748	0.142	0.224
-514.858	-86.073	-0.307	0.095
-513.843	800.000	-0.070	0.224
-512.829	-121.375	0.066	0.011
-511.814	-171.182	0.075	-0.003
-510.799	259.252	-0.101	0.176
-509.785	92.058	0.314	-0.355
-508.770	333.784	-0.217	-0.422
-507.756	800.000	0.055	0.156
-506.741	-153.449	-0.083	0.006
-505.726	-56.589	-0.193	-0.086
-504.712	-133.190	-0.118	0.015
-503.697	-154.431	-0.250	0.017
-502.683	52.603	0.098	-0.094
-501.668	-119.789	0.189	-0.033
-500.653	-16.602	-0.203	0.129
-499.639	308.060	0.085	-0.160
-498.624	4.194	0.283	-0.208
-497.610	-150.592	0.085	-0.007
-496.595	-187.289	0.229	-0.003
-495.581	-20.036	-0.258	0.160
-494.566	-104.998	-0.323	0.074
-493.551	280.965	0.004	0.007
-492.537	-200.000	0.072	-0.352
-491.522	-112.989	-0.321	-0.064
-490.508	-75.918	0.423	0.150
-489.493	-49.075	-0.331	0.159
-488.478	385.329	0.053	0.111
-487.464	-3.233	-0.103	-0.072
-486.449	-138.023	-0.053	-0.006
-485.435	-200.000	0.002	0.197
-484.420	800.000	0.045	0.135
-483.405	-200.000	0.013	-0.086
-482.391	505.773	-0.043	0.099
-481.376	73.664	0.059	0.062
-480.362	-200.000	-0.017	-0.112
-479.347	-163.294	-0.257	-0.012
-478.332	-200.000	-0.023	0.399
-477.318	-89.909	-0.238	-0.070
-476.303	712.901	0.031	-0.083
-475.289	-200.000	-0.015	0.146
-474.274	-68.306	-0.267	-0.104
-473.259	-200.000	0.025	0.219
-472.245	-121.536	0.226	0.038
-471.230	-132.478	-0.191	-0.025
-470.216	800.000	-0.100	-0.359
-469.201	-200.000	0.050	-0.252
-468.186	-200.000	-0.001	-0.074
-467.172	-135.019	-0.123	-0.015
-466.157	-200.000	0.034	-0.175
-465.143	-56.323	0.248	-0.110
-464.128	-108.503	-0.271	0.058
-463.113	34.956	-0.154	0.135
-462.099	24.214	-0.199	-0.165
-461.084	-138.272	0.383	0.043
-460.070	28.848	0.247	0.210
-459.055	-200.000	-0.010	-0.157
-458.040	131.746	-0.135	-0.174
-457.026	92.517	0.168	-0.189
-456.011	118.002	-0.179	-0.221
-454.997	720.310	-0.032	0.085
-453.982	-166.603	-0.316	0.013
-452.968	22.423	0.119	0.097
-451.953	-111.025	-0.179	0.037
-450.938	-67.957	0.076	-0.030
-449.924	-126.787	0.325	-0.048
-448.909	-116.507	0.079	-0.015
-447.895	-116.207	0.192	0.036
-446.880	6.538	-0.384	0.286
-445.865	-60.314	0.187	0.080
-444.851	-12.892	0.015	-0.010
-443.836	-39.272	-0.142	-0.075
-442.822	-200.000	-0.029	-0.209
-441.807	131.746	-0.109	-0.141
-440.792	800.000	-0.088	-0.265
-439.778	30.027	-0.278	0.237
-438.763	-82.506	0.414	0.135
-437.749	-35.033	-0.085	-0.046
-436.734	-200.000	0.077	-0.431
-435.719	800.000	0.052	-0.160
-434.705	-157.801	-0.093	-0.006
-433.690	57.127	0.280	0.274
-432.676	-164.720	0.222	0.010
-431.661	-158.708	0.147	0.008
-430.646	-200.000	-0.064	-0.293
-429.632	748.829	0.094	-0.253
-428.617	29.057	0.182	0.154
-427.603	-56.464	-0.495	-0.220
-426.588	619.687	-0.062	0.157
-425.573	-115.710	0.179	-0.034
-424.559	-53.790	-0.269	-0.123
-423.544	608.920	-0.061	-0.152
-422.530	83.940	0.078	-0.085
-421.515	-200.000	-0.025	0.141
-420.500	196.639	-0.073	0.112
-419.486	-200.000	0.023	0.140
-418.471	-95.711	0.371	-0.099
-417.457	16.819	-0.200	0.158
-416.442	335.394	-0.106	-0.206
-415.428	-102.625	-0.097	-0.023
-414.413	2.783	0.234	-0.170
-413.398	67.100	0.202	-0.206
-412.384	-200.000	0.006	-0.253
-411.369	278.627	0.142	-0.254
-410.355	-49.271	0.274	0.131
-409.340	-200.000	-0.047	-0.392
-408.325	273.780	-0.183	0.325
-407.311	61.975	-0.219	-0.219
-406.296	-200.000	0.008	0.134
-405.282	-5.790	0.172	0.118
-404.267	22.204	0.048	-0.039
-403.252	-72.196	0.222	0.082
-402.238	114.417	0.231	0.282
-401.223	-55.706	0.120	0.054
-400.209	-175.820	-0.134	-0.004
-399.194	501.785	0.070	-0.162
-398.179	-69.336	0.343	-0.132
-397.165	-53.497	-0.021	0.010
-396.150	-39.425	0.088	-0.046
-395.136	-200.000	-0.015	0.243
-394.121	-72.460	-0.030	-0.011
-393.106	800.000	-0.117	0.337
-392.092	-13.101	0.084	-0.054
-391.077	402.784	0.093	-0.195
-390.063	170.712	0.277	-0.397
-389.048	-15.055	0.255	-0.163
-388.033	-81.906	0.318	0.104
-387.019	389.528	-0.169	0.350
-386.004	17.740	-0.131	-0.105
-384.990	-200.000	-0.024	0.178
-383.975	800.000	-0.130	0.504
-382.960	-110.617	0.390	-0.081
-381.946	207.151	0.100	-0.156
-380.931	175.660	0.146	0.212
-379.917	-34.645	0.421	-0.230
-378.902	-40.718	0.403	0.209
-377.888	-77.473	0.074	-0.026
-376.873	-186.081	-0.354	-0.005
-375.858	-97.826	-0.248	0.064
-374.844	-73.588	0.198	0.072
-373.829	50.479	0.114	-0.107
-372.815	80.905	0.185	-0.199
-371.800	-113.230	0.209	0.041
-370.785	680.952	-0.044	-0.114
-369.771	800.000	0.081	0.256
-368.756	-200.000	-0.054	-0.306
-367.742	-57.154	0.333	0.147
-366.727	82.843	0.121	0.131
-365.712	800.000	0.048	0.140
-364.698	1.572	-0.160	0.115
-363.683	-66.514	0.132	-0.052
-362.669	-35.354	0.171	0.093
-361.654	-164.955	0.255	0.011
-360.639	144.088	-0.103	-0.137
-359.625	-76.687	0.270	-0.094
-358.610	375.904	-0.195	-0.398
-357.596	-109.666	-0.244	-0.051
-356.581	-14.436	0.082	0.053
-355.566	197.855	-0.049	-0.075
-354.552	-3.936	0.119	-0.082
-353.537	55.418	-0.049	-0.048
-352.523	-200.000	-0.032	0.145
-351.508	-174.251	0.229	0.007
-350.493	-9.375	-0.215	-0.144
-349.479	-104.514	0.409	0.094
-348.464	-92.322	-0.138	-0.039
-347.450	149.267	-0.278	-0.376
-346.435	-37.307	0.084	0.045
-345.420	63.213	-0.143	0.143
-344.406	265.343	-0.102	0.177
-343.391	-159.903	-0.359	-0.020
-342.377	-200.000	0.005	0.064
-341.362	-200.000	0.039	0.340
-340.348	-200.000	-0.056	0.259
-339.333	-37.082	-0.283	0.151
-338.318	-118.680	0.195	0.034
-337.304	41.202	-0.164	0.148
-336.289	794.089	-0.168	0.461
-335.275	-77.985	-0.238	0.082
-334.260	-42.517	-0.291	-0.148
-333.245	-56.199	0.087	0.039
-332.231	239.006	0.045	-0.075
-331.216	25.080	0.197	0.163
-330.202	322.397	0.037	0.070
-329.187	-200.000	-0.019	0.133
-328.172	-12.556	0.257	0.167
-327.158	-18.057	0.354	-0.221
-326.143	28.381	0.174	0.147
-325.129	-200.000	-0.015	0.206
-324.114	21.286	0.321	-0.260
-323.099	244.320	0.026	-0.044
-322.085	-63.100	-0.107	0.044
-321.070	-90.585	0.093	-0.027
-320.056	83.125	0.035	-0.038
-319.041	-97.763	-0.104	0.027
-318.026	-200.000	0.007	-0.034
-317.012	-109.577	-0.358	0.075
-315.997	-200.000	-0.011	0.094
-314.983	-200.000	-0.084	0.393
-313.968	-83.779	0.348	0.111
-312.953	-200.000	0.040	-0.319
-311.939	-85.241	0.417	-0.130
-310.924	129.764	0.193	0.246
-309.910	239.283	0.073	0.121
-308.895	-200.000	0.004	0.032
-307.880	192.953	-0.032	0.048
-306.866	420.060	-0.085	-0.182
-305.851	28.914	0.053	0.045
-304.837	-200.000	-0.006	-0.165
-303.822	131.827	0.136	-0.174
-302.807	-135.933	-0.496	0.058
-301.793	-134.074	-0.187	0.023
-300.778	-176.719	0.325	0.008
-299.764	-200.000	-0.027	-0.116
-298.749	397.630	0.104	-0.216
-297.735	800.000	0.062	-0.225
-296.720	-47.405	0.364	-0.177
-295.705	-168.390	0.353	-0.013
-294.691	-157.695	0.345	-0.020
-293.676	232.582	0.083	0.136
-292.662	-10.007	0.235	0.156
-291.647	-200.000	0.017	-0.237
-290.632	-8.062	-0.114	-0.076
-289.618	-185.818	-0.199	0.003
-288.603	-83.292	-0.102	0.033
-287.589	175.422	0.121	0.175
-286.574	-200.000	-0.042	0.357
-285.559	-141.467	0.444	-0.045
-284.545	-101.465	-0.071	-0.017
-283.530	-200.000	0.009	-0.053
-282.516	27.467	-0.157	0.132
-281.501	-19.043	-0.274	0.169
-280.486	67.900	0.190	0.194
-279.472	-31.518	-0.182	-0.102
-278.457	-200.000	-0.025	0.144
-277.443	42.376	-0.161	-0.146
-276.428	-18.985	-0.065	-0.040
-275.413	737.052	0.076	0.204
-274.399	344.887	-0.035	-0.068
-273.384	-41.692	0.228	0.116
-272.370	-7.897	0.128	-0.086
-271.355	-200.000	0.214	0.001
-270.340	346.163	0.135	0.263
-269.326	786.648	0.071	-0.194
-268.311	-135.508	-0.219	-0.026
-267.297	-183.640	-0.278	-0.005
-266.282	113.335	-0.099	0.119
-265.267	301.221	0.055	0.100
-264.253	-11.236	-0.157	-0.103
-263.238	74.313	0.027	-0.028
-262.224	800.000	-0.089	-0.270
-261.209	35.151	-0.082	-0.072
-260.195	800.000	0.038	0.149
-259.180	171.019	0.183	-0.261
-258.165	800.000	-0.024	0.078
-257.151	-27.414	-0.145	-0.084
-256.136	19.522	-0.142	0.114
-255.122	124.314	0.149	-0.186
-254.107	-200.000	0.009	-0.087
-253.092	29.687	-0.106	-0.090
-252.078	-185.708	-0.201	-0.003
-251.063	-49.402	0.037	-0.017
-250.049	-71.841	0.246	0.091
-249.034	638.957	0.219	0.553
-248.019	-200.000	-0.056	0.328
-247.005	-3.405	-0.123	0.085
-245.990	-16.622	0.300	-0.189
-244.976	-19.120	-0.127	-0.079
-243.961	62.284	0.014	0.013
-242.946	674.903	-0.104	-0.269
-241.932	98.178	-0.154	0.176
-240.917	-147.851	0.234	0.019
-239.903	43.166	-0.236	0.214
-238.888	-200.000	-0.073	0.369
-237.873	-96.177	0.214	-0.056
-236.859	33.345	-0.096	0.083
-235.844	-61.100	-0.513	-0.215
-234.830	170.203	-0.080	0.114
-233.815	-160.156	-0.122	-0.007
-232.800	280.470	-0.101	0.180
-231.786	-55.028	0.054	-0.024
-230.771	-86.453	0.177	-0.054
-229.757	-188.760	0.241	0.003
-228.742	-200.000	-0.039	-0.212
-227.727	800.000	-0.094	0.300
-226.713	-200.000	0.016	-0.423
-225.698	202.211	0.068	-0.105
-224.684	-110.782	-0.250	-0.051
-223.669	-116.543	-0.134	-0.024
-222.655	199.323	-0.303	0.462
-221.640	800.000	-0.067	-0.278
-220.625	-200.000	0.013	0.357
-219.611	9.899	-0.129	0.098
-218.596	-200.000	0.028	0.292
-217.582	800.000	0.092	0.329
-216.567	557.378	-0.067	-0.160
-215.552	17.084	-0.069	-0.054
-214.538	238.482	0.113	-0.187
-213.523	-116.840	0.068	0.012
-212.509	-47.763	0.130	0.063
-211.494	51.429	-0.155	-0.146
-210.479	-200.000	-0.021	-0.302
-209.465	-165.556	-0.188	0.008
-208.450	4.912	-0.126	0.092
-207.436	800.000	-0.045	-0.157
-206.421	-21.130	0.038	0.023
-205.406	9.082	0.037	0.028
-204.392	-200.000	-0.005	0.207
-203.377	-200.000	-0.009	-0.211
-202.363	-105.819	0.017	0.004
-201.348	-124.028	-0.084	-0.013
-200.333	72.299	0.083	0.086
-199.319	53.718	0.009	0.008
-198.304	-85.612	0.093	0.029
-197.290	53.057	-0.137	-0.130
-196.275	484.968	0.067	0.151
-195.260	-200.000	-0.037	0.181
-194.246	104.014	0.209	0.244
-193.231	-200.000	0.025	0.144
-192.217	-200.000	0.030	0.228
-191.202	688.078	-0.058	-0.151
-190.187	-187.414	-0.123	-0.002
-189.173	-126.867	-0.185	-0.027
-188.158	149.179	0.173	0.233
-187.144	-165.740	0.288	-0.012
-186.129	213.707	0.085	-0.133
-185.114	150.441	0.094	-0.127
-184.100	-38.678	0.032	0.017
-183.085	800.000	-0.104	-0.372
-182.071	223.511	0.198	0.317
-181.056	85.342	-0.045	-0.049
-180.042	-76.156	-0.109	0.038
-179.027	55.396	0.153	0.146
-178.012	-157.422	0.263	-0.016
-176.998	-5.893	-0.296	0.201
-175.983	-105.334	-0.057	0.013
-174.969	-13.561	0.139	0.089
-173.954	37.300	-0.104	-0.091
-172.939	651.523	-0.056	-0.141
-171.925	-151.685	-0.205	0.015
-170.910	334.781	0.039	0.076
-169.896	703.930	0.088	-0.231
-168.881	-100.427	-0.221	-0.054
-167.866	209.889	0.146	-0.227
-166.852	-115.489	-0.211	-0.039
-165.837	46.518	-0.207	-0.190
-164.823	-92.362	0.173	-0.048
-163.808	-91.007	-0.141	-0.040
-162.793	577.985	-0.092	0.222
-161.779	339.001	-0.047	0.092
-160.764	521.190	0.097	0.226
-159.750	227.848	0.160	-0.258
-158.735	-200.000	0.007	-0.142
-157.720	81.090	-0.100	-0.107
-156.706	-66.508	-0.123	-0.048
-155.691	225.890	0.188	0.303
-154.677	-113.622	-0.040	0.008
-153.662	-95.241	0.067	-0.018
-152.647	-61.763	0.248	-0.103
-151.633	-42.439	0.102	0.051
-150.618	2.835	0.349	0.251
-149.604	-8.473	-0.263	0.175
-148.589	-89.970	0.125	-0.036
-147.574	-84.544	-0.076	0.024
-146.560	63.367	-0.028	-0.028
-145.545	284.221	-0.149	0.265
-144.531	-14.417	0.135	0.086
-143.516	-200.000	-0.012	-0.234
-142.502	800.000	0.088	-0.280
-141.487	-17.611	-0.325	-0.203
-140.472	-146.857	0.204	-0.017
-139.458	47.528	-0.295	-0.273
-138.443	56.940	0.169	-0.163
-137.429	-152.453	0.071	0.005
-136.414	249.349	0.095	0.160
-135.399	388.096	-0.092	0.188
-134.385	15.292	0.195	0.151
-133.370	346.004	-0.069	0.135
-132.356	-35.433	-0.304	0.163
-131.341	104.904	-0.222	-0.259
-130.326	-200.000	0.005	-0.208
-129.312	800.000	0.019	0.058
-128.297	800.000	-0.059	0.189
-127.283	-43.254	-0.083	-0.042
-126.268	-90.632	0.187	0.053
-125.253	98.847	0.100	0.114
-124.239	373.724	-0.137	-0.275
-123.224	-121.369	0.292	0.048
-122.210	800.000	-0.084	0.256
