DTS Sentinel unit serial number:	SN413079Multiplexer serial number:	ORYXHardware model number:	OX4-SRSoftware version number:	ORYX F/W v4.00 Oryx Data Collector v3.7.2.0data status	okinstallation	princeton_trtdifferential loss correction	single-endedforward channel	channel 4reverse channel	N/Adate	2019/09/18time	09:09:35forward acquisition time	60.00reverse acquisition time	0.00gamma	496.2192k internal	0.2324k external	0.2324temperature offset calibration	0.9986default loss term (dB/km)	0.3790temperature slope calibration	1.0000multiplexer offset coefficient	1.0000multiplexer slope coefficient	1.0000fibre end	0.00T internal ref (°C)	25.44T ext. ref 1 (°C)	0.24T ext. ref 2 (°C)	22.76length (m)	temperature (°C)	Stokes	anti-Stokes-747.200	-52.441	0.077	-0.036
-746.185	-122.489	-0.172	-0.028
-745.171	-32.537	-0.090	0.050
-744.156	-200.000	-0.005	-0.306
-743.142	17.304	0.114	0.091
-742.127	74.984	-0.305	0.324
-741.112	290.492	-0.024	-0.044
-740.098	-161.030	0.174	-0.009
-739.083	-200.000	-0.002	0.086
-738.069	-114.057	-0.237	0.046
-737.054	57.915	-0.147	-0.146
-736.039	-200.000	-0.071	0.461
-735.025	-200.000	-0.044	0.353
-734.010	1.116	-0.247	0.179
-732.996	-65.738	0.346	-0.140
-731.981	800.000	0.067	-0.221
-730.966	-158.998	0.132	0.008
-729.952	-77.165	-0.269	-0.094
-728.937	92.956	-0.004	-0.004
-727.923	-57.853	-0.190	0.084
-726.908	250.421	-0.075	0.129
-725.894	800.000	0.038	0.143
-724.879	-136.480	0.395	-0.046
-723.864	-63.686	-0.429	0.178
-722.850	-200.000	0.038	-0.401
-721.835	-48.742	-0.204	-0.099
-720.821	-174.729	0.255	-0.007
-719.806	-72.104	-0.027	0.010
-718.791	262.994	0.099	0.173
-717.777	764.752	0.024	0.067
-716.762	-1.198	0.187	-0.133
-715.748	-56.855	-0.191	-0.085
-714.733	-200.000	-0.063	-0.465
-713.718	102.822	-0.019	0.022
-712.704	800.000	0.031	0.105
-711.689	-166.840	0.190	-0.008
-710.675	197.535	-0.212	0.327
-709.660	426.200	-0.190	0.413
-708.645	-48.372	-0.117	0.057
-707.631	161.933	-0.129	-0.182
-706.616	-8.209	0.280	0.190
-705.602	17.341	-0.157	0.125
-704.587	-35.627	-0.159	-0.087
-703.572	-51.516	-0.067	-0.032
-702.558	-136.084	0.207	-0.024
-701.543	-107.346	-0.279	0.062
-700.529	54.000	-0.281	-0.272
-699.514	800.000	-0.101	0.320
-698.499	-53.940	-0.070	0.032
-697.485	-57.682	0.103	-0.046
-696.470	800.000	0.101	-0.370
-695.456	131.288	0.073	-0.094
-694.441	758.197	-0.113	0.308
-693.426	101.254	-0.091	0.107
-692.412	39.642	0.205	0.185
-691.397	-92.695	0.253	-0.071
-690.383	-146.705	-0.204	0.018
-689.368	-56.779	0.160	0.071
-688.354	-126.828	-0.319	0.047
-687.339	-169.987	-0.203	-0.007
-686.324	-61.162	-0.060	0.025
-685.310	-88.964	0.086	0.026
-684.295	321.960	-0.021	-0.040
-683.281	-200.000	-0.006	-0.285
-682.266	-81.277	-0.274	-0.091
-681.251	-200.000	-0.012	-0.108
-680.237	-72.808	-0.304	-0.113
-679.222	257.871	-0.104	0.180
-678.208	125.791	0.085	0.109
-677.193	-3.574	-0.346	0.243
-676.178	800.000	-0.056	-0.193
-675.164	-86.944	0.286	-0.088
-674.149	401.869	-0.103	-0.217
-673.135	-71.802	0.186	-0.070
-672.120	-200.000	0.029	0.136
-671.105	800.000	-0.024	0.074
-670.091	-21.359	0.188	0.115
-669.076	-130.071	0.078	0.011
-668.062	581.056	0.060	0.148
-667.047	139.340	-0.177	0.234
-666.032	9.981	0.021	0.016
-665.018	-200.000	-0.045	0.300
-664.003	-10.492	-0.177	-0.118
-662.989	-200.000	-0.015	0.271
-661.974	800.000	-0.022	-0.071
-660.959	-89.134	0.243	0.072
-659.945	-139.244	0.098	0.011
-658.930	-12.457	0.192	-0.126
-657.916	25.733	-0.437	0.366
-656.901	-105.743	-0.149	0.034
-655.886	-200.000	0.004	-0.090
-654.872	345.296	-0.151	-0.298
-653.857	427.669	0.047	0.101
-652.843	222.469	-0.205	0.332
-651.828	161.595	0.173	0.243
-650.814	800.000	0.108	-0.326
-649.799	800.000	-0.022	-0.080
-648.784	157.328	0.056	-0.078
-647.770	125.911	-0.140	0.178
-646.755	422.339	-0.023	0.050
-645.741	717.619	0.113	0.301
-644.726	227.487	-0.123	-0.200
-643.711	507.258	0.075	0.174
-642.697	800.000	-0.063	-0.247
-641.682	323.747	-0.119	-0.228
-640.668	33.259	0.024	0.021
-639.653	-169.321	-0.145	-0.005
-638.638	444.585	-0.047	-0.103
-637.624	-153.295	-0.250	-0.018
-636.609	1.096	0.324	-0.234
-635.595	97.455	0.127	0.147
-634.580	139.126	0.153	-0.202
-633.565	-200.000	-0.000	-0.174
-632.551	55.966	0.071	0.070
-631.536	-9.903	-0.240	0.161
-630.522	-200.000	0.023	0.168
-629.507	800.000	0.030	0.126
-628.492	-153.344	0.185	-0.013
-627.478	-31.103	0.150	-0.085
-626.463	77.117	0.185	-0.197
-625.449	-122.833	0.066	-0.011
-624.434	-38.244	-0.126	-0.067
-623.419	800.000	0.023	0.079
-622.405	-55.522	-0.156	0.070
-621.390	-200.000	-0.011	0.065
-620.376	408.423	0.021	-0.046
-619.361	189.706	-0.151	-0.227
-618.346	-200.000	0.013	-0.166
-617.332	283.641	0.177	-0.320
-616.317	8.790	0.161	0.122
-615.303	-78.518	0.134	0.046
-614.288	-8.183	-0.290	-0.196
-613.273	800.000	0.075	0.290
-612.259	-161.093	0.122	-0.006
-611.244	20.935	-0.091	-0.074
-610.230	-60.902	-0.366	0.155
-609.215	-37.650	0.119	0.064
-608.201	-135.592	-0.141	-0.017
-607.186	-154.848	-0.056	-0.004
-606.171	202.401	0.092	-0.143
-605.157	-1.479	-0.117	0.083
-604.142	-200.000	0.018	-0.181
-603.128	-68.232	0.295	-0.115
-602.113	99.579	0.198	0.230
-601.098	-85.222	-0.091	-0.028
-600.084	-38.646	-0.164	-0.087
-599.069	42.122	-0.263	-0.239
-598.055	-200.000	0.023	-0.115
-597.040	436.218	0.205	-0.447
-596.025	428.835	-0.017	0.038
-595.011	-88.483	0.189	-0.057
-593.996	166.639	0.208	0.296
-592.982	-68.031	-0.099	0.039
-591.967	186.764	-0.185	-0.277
-590.952	-123.298	-0.174	-0.028
-589.938	88.335	-0.179	0.200
-588.923	-23.538	0.139	0.084
-587.909	3.722	0.182	0.133
-586.894	52.793	0.056	-0.054
-585.879	-200.000	-0.021	0.094
-584.865	-67.879	0.068	0.027
-583.850	-3.325	-0.207	0.144
-582.836	-144.367	0.084	-0.008
-581.821	-92.145	-0.206	-0.058
-580.806	256.952	-0.189	-0.326
-579.792	334.562	-0.204	-0.396
-578.777	730.558	0.047	-0.125
-577.763	-134.418	-0.097	-0.012
-576.748	153.570	0.126	0.174
-575.733	53.796	-0.057	0.055
-574.719	-23.026	-0.214	0.129
-573.704	-200.000	-0.007	0.076
-572.690	28.287	0.125	-0.106
-571.675	5.499	0.285	-0.211
-570.661	481.296	0.152	0.346
-569.646	-143.990	0.249	-0.023
-568.631	800.000	0.039	-0.131
-567.617	-9.835	0.036	-0.024
-566.602	138.884	-0.085	0.112
-565.588	800.000	-0.090	0.371
-564.573	106.975	0.034	-0.040
-563.558	239.341	0.077	-0.128
-562.544	334.591	0.141	0.273
-561.529	-146.296	-0.258	-0.023
-560.515	245.912	-0.053	0.089
-559.500	-137.288	0.259	-0.030
-558.485	322.534	-0.078	0.148
-557.471	298.267	0.243	0.448
-556.456	336.349	0.033	0.064
-555.442	-200.000	0.009	-0.211
-554.427	470.667	-0.026	0.060
-553.412	60.517	-0.110	-0.109
-552.398	345.496	0.056	-0.110
-551.383	71.656	-0.106	-0.110
-550.369	738.689	0.113	0.303
-549.354	29.204	-0.138	-0.117
-548.339	-53.456	0.366	0.168
-547.325	544.048	0.121	-0.289
-546.310	-67.245	-0.093	0.037
-545.296	800.000	-0.083	-0.355
-544.281	23.960	-0.095	0.078
-543.266	105.688	0.014	-0.016
-542.252	-92.148	0.275	0.078
-541.237	237.005	-0.135	-0.224
-540.223	-100.577	-0.200	-0.050
-539.208	-187.684	-0.147	-0.002
-538.193	800.000	0.144	0.405
-537.179	60.171	0.189	-0.187
-536.164	-200.000	-0.013	0.092
-535.150	122.544	0.036	0.046
-534.135	104.860	0.057	-0.067
-533.121	-200.000	-0.015	-0.079
-532.106	479.147	0.128	-0.290
-531.091	330.363	-0.163	-0.314
-530.077	46.386	-0.170	-0.157
-529.062	-200.000	-0.006	0.158
-528.048	83.378	0.166	0.181
-527.033	68.823	-0.048	0.049
-526.018	31.266	0.057	-0.049
-525.004	-32.216	-0.323	-0.180
-523.989	-200.000	-0.018	-0.264
-522.975	-200.000	-0.029	0.127
-521.960	224.980	-0.156	-0.253
-520.945	-21.229	-0.179	0.109
-519.931	800.000	0.047	-0.171
-518.916	439.133	-0.077	-0.169
-517.902	-200.000	-0.006	0.056
-516.887	800.000	0.015	-0.051
-515.872	-135.978	-0.199	-0.023
-514.858	-200.000	-0.033	-0.405
-513.843	-28.516	0.143	-0.082
-512.829	-41.044	-0.443	0.229
-511.814	160.471	-0.074	0.103
-510.799	418.987	-0.064	0.136
-509.785	-183.023	-0.251	-0.004
-508.770	-53.721	0.176	0.080
-507.756	800.000	-0.064	0.202
-506.741	-160.750	0.061	0.003
-505.726	800.000	0.045	-0.191
-504.712	-200.000	0.036	-0.286
-503.697	32.922	0.091	0.079
-502.683	37.798	0.157	0.139
-501.668	267.853	0.200	-0.350
-500.653	-200.000	-0.116	0.529
-499.639	371.408	-0.037	0.075
-498.624	-30.015	0.217	0.123
-497.610	0.035	0.199	0.142
-496.595	-200.000	0.070	-0.321
-495.581	286.960	-0.045	-0.081
-494.566	-200.000	0.068	-0.331
-493.551	80.880	-0.202	-0.218
-492.537	732.343	-0.101	0.271
-491.522	131.772	0.248	0.318
-490.508	800.000	0.044	0.178
-489.493	205.742	0.092	-0.143
-488.478	-200.000	-0.020	0.216
-487.464	800.000	-0.020	0.056
-486.449	1.080	0.293	0.210
-485.435	271.088	0.072	0.126
-484.420	-178.016	-0.113	-0.003
-483.405	-37.185	0.180	-0.096
-482.391	58.493	0.273	0.267
-481.376	331.160	-0.149	0.288
-480.362	283.662	0.173	0.311
-479.347	-159.412	0.295	0.016
-478.332	-200.000	0.047	0.222
-477.318	515.712	0.088	0.206
-476.303	383.824	-0.105	0.216
-475.289	-200.000	0.024	0.133
-474.274	-6.566	0.183	-0.125
-473.259	-128.829	-0.257	0.036
-472.245	-200.000	0.003	0.141
-471.230	-181.701	0.209	-0.004
-470.216	181.944	0.296	-0.435
-469.201	-200.000	-0.023	0.287
-468.186	800.000	-0.055	0.205
-467.172	-47.778	-0.177	0.086
-466.157	136.174	0.050	0.065
-465.143	800.000	0.065	-0.222
-464.128	-200.000	0.009	0.065
-463.113	113.735	-0.140	0.169
-462.099	54.798	0.088	-0.085
-461.084	300.670	-0.117	0.216
-460.070	800.000	0.072	-0.200
-459.055	-200.000	0.013	-0.251
-458.040	-32.543	0.167	-0.093
-457.026	23.271	-0.089	0.073
-456.011	-6.526	0.161	-0.110
-454.997	-94.707	-0.058	0.016
-453.982	-85.136	-0.234	-0.073
-452.968	-157.977	0.285	-0.017
-451.953	302.521	0.026	-0.048
-450.938	-124.751	0.234	-0.036
-449.924	2.324	-0.230	0.166
-448.909	316.738	-0.104	0.197
-447.895	567.410	-0.173	0.419
-446.880	-200.000	0.018	-0.093
-445.865	101.381	0.153	-0.178
-444.851	-137.566	-0.080	0.009
-443.836	-125.838	0.184	-0.028
-442.822	-86.847	-0.175	0.053
-441.807	800.000	0.059	0.206
-440.792	-200.000	0.046	0.390
-439.778	-41.209	0.263	-0.135
-438.763	8.658	0.209	-0.157
-437.749	222.344	-0.112	-0.180
-436.734	12.401	-0.203	0.156
-435.719	-200.000	-0.052	0.241
-434.705	-65.735	0.272	0.109
-433.690	-200.000	-0.088	0.466
-432.676	800.000	-0.081	0.258
-431.661	224.707	0.059	0.094
-430.646	22.315	0.096	0.078
-429.632	-103.756	0.220	0.051
-428.617	596.552	0.129	0.318
-427.603	-200.000	-0.027	0.144
-426.588	72.697	-0.072	0.075
-425.573	625.829	0.064	0.161
-424.559	-200.000	-0.060	0.279
-423.544	-142.543	0.352	0.034
-422.530	-200.000	0.064	-0.354
-421.515	74.535	0.062	0.064
-420.500	-200.000	0.003	-0.052
-419.486	620.843	-0.104	-0.260
-418.471	164.394	0.166	0.234
-417.457	-86.017	-0.067	0.021
-416.442	-200.000	0.032	-0.150
-415.428	439.828	0.114	0.248
-414.413	-87.568	0.143	0.043
-413.398	800.000	-0.019	-0.070
-412.384	-14.859	0.116	0.074
-411.369	800.000	-0.025	0.083
-410.355	119.813	-0.167	-0.206
-409.340	-104.750	-0.113	0.026
-408.325	-200.000	0.015	0.215
-407.311	41.329	0.105	0.094
-406.296	-21.178	0.167	0.102
-405.282	-89.745	0.177	-0.052
-404.267	-200.000	0.004	-0.225
-403.252	-126.010	-0.205	0.031
-402.238	-182.808	0.123	0.002
-401.223	-69.522	-0.188	0.072
-400.209	250.266	0.173	-0.293
-399.194	404.642	0.135	-0.282
-398.179	-200.000	0.021	0.155
-397.165	-99.567	-0.329	0.082
-396.150	-200.000	-0.035	-0.206
-395.136	-45.740	-0.237	0.117
-394.121	800.000	-0.148	-0.425
-393.106	-19.255	0.140	-0.087
-392.092	7.058	0.097	0.072
-391.077	-130.683	0.246	-0.033
-390.063	211.657	-0.076	0.119
-389.048	800.000	0.091	0.270
-388.033	-123.666	-0.168	-0.027
-387.019	76.751	0.140	0.148
-386.004	662.838	-0.083	-0.212
-384.990	800.000	0.015	0.051
-383.975	-114.211	-0.521	0.100
-382.960	-200.000	-0.021	-0.123
-381.946	-160.320	0.257	-0.014
-380.931	-200.000	-0.007	-0.253
-379.917	-164.344	-0.331	0.015
-378.902	-200.000	0.015	0.160
-377.888	3.307	0.205	-0.149
-376.873	4.585	0.132	-0.097
-375.858	-150.149	0.311	0.024
-374.844	-116.449	0.299	0.055
-373.829	-200.000	-0.038	0.169
-372.815	-68.577	0.066	-0.025
-371.800	-200.000	-0.065	0.428
-370.785	-200.000	-0.007	0.124
-369.771	-80.220	-0.119	-0.040
-368.756	-90.360	-0.218	-0.063
-367.742	-145.332	0.235	-0.021
-366.727	67.362	-0.079	0.080
-365.712	748.483	0.026	-0.071
-364.698	-200.000	0.047	-0.265
-363.683	35.389	0.131	-0.114
-362.669	113.434	0.117	-0.141
-361.654	-24.647	-0.232	0.137
-360.639	-21.119	0.413	0.251
-359.625	-200.000	-0.004	0.127
-358.610	-129.423	0.113	-0.016
-357.596	160.879	0.072	-0.099
-356.581	409.787	-0.068	0.144
-355.566	212.635	-0.255	-0.400
-354.552	-85.981	-0.316	0.097
-353.537	-3.264	0.355	0.246
-352.523	-24.235	-0.208	0.123
-351.508	-3.880	-0.119	-0.082
-350.493	178.369	0.178	-0.259
-349.479	42.578	-0.148	0.134
-348.464	31.087	0.079	-0.067
-347.450	-200.000	-0.005	-0.115
-346.435	-108.198	-0.232	-0.050
-345.420	-160.069	-0.318	-0.017
-344.406	-21.082	-0.213	0.129
-343.391	800.000	0.053	-0.167
-342.377	-23.436	0.207	0.124
-341.362	-173.903	0.111	0.003
-340.348	-21.115	0.044	0.027
-339.333	-67.237	0.111	-0.043
-338.318	73.468	0.178	-0.186
-337.304	182.961	-0.056	0.082
-336.289	-200.000	0.006	-0.203
-335.275	-39.923	-0.396	0.205
-334.260	-92.371	-0.177	0.049
-333.245	444.836	-0.060	-0.131
-332.231	-94.382	-0.057	-0.015
-331.216	800.000	0.011	-0.047
-330.202	-200.000	0.009	0.097
-329.187	-6.011	0.228	-0.155
-328.172	-103.428	-0.330	0.077
-327.158	800.000	0.082	0.285
-326.143	21.276	0.107	0.087
-325.129	-200.000	-0.013	0.077
-324.114	-90.972	0.248	0.071
-323.099	18.857	0.179	0.142
-322.085	-90.582	0.199	0.057
-321.070	800.000	-0.039	0.150
-320.056	234.866	0.231	0.378
-319.041	43.911	0.158	0.144
-318.026	73.049	0.115	0.119
-317.012	-200.000	-0.023	0.221
-315.997	244.967	-0.211	0.352
-314.983	800.000	-0.015	0.048
-313.968	800.000	0.067	-0.220
-312.953	-28.204	-0.383	-0.220
-311.939	-200.000	0.018	-0.152
-310.924	363.355	0.026	-0.053
-309.910	163.358	0.197	-0.275
-308.895	800.000	-0.048	0.206
-307.880	104.041	0.109	0.127
-306.866	-200.000	-0.009	0.202
-305.851	-144.386	-0.346	-0.032
-304.837	-200.000	-0.052	-0.383
-303.822	-115.594	0.149	-0.028
-302.807	800.000	-0.091	-0.325
-301.793	-123.990	0.498	-0.078
-300.778	-60.060	-0.373	-0.158
-299.764	36.504	-0.122	-0.107
-298.749	87.474	0.166	0.182
-297.735	122.863	0.130	0.161
-296.720	577.454	-0.134	-0.325
-295.705	126.471	-0.199	0.249
-294.691	-32.200	-0.107	-0.059
-293.676	476.533	0.089	-0.200
-292.662	800.000	-0.035	-0.135
-291.647	270.797	-0.208	0.362
-290.632	-200.000	-0.003	-0.051
-289.618	-67.693	-0.149	0.058
-288.603	-13.930	0.218	0.140
-287.589	-170.255	-0.216	0.008
-286.574	-200.000	0.051	0.251
-285.559	118.574	-0.155	-0.190
-284.545	-110.552	0.227	-0.047
-283.530	19.824	0.182	0.145
-282.516	-200.000	-0.034	0.598
-281.501	-69.076	-0.415	0.158
-280.486	472.978	0.042	-0.094
-279.472	60.968	-0.178	-0.175
-278.457	55.776	-0.201	-0.193
-277.443	-108.310	-0.084	-0.018
-276.428	800.000	-0.048	-0.144
-275.413	86.638	-0.226	0.247
-274.399	-1.413	0.373	0.261
-273.384	-104.184	-0.236	-0.054
-272.370	267.229	-0.201	-0.348
-271.355	80.874	-0.298	-0.318
-270.340	138.056	0.252	0.328
-269.326	-47.465	0.279	0.134
-268.311	151.289	0.131	-0.176
-267.297	-134.504	0.119	0.014
-266.282	-150.653	0.028	-0.002
-265.267	-200.000	0.028	-0.123
-264.253	251.719	0.165	-0.279
-263.238	31.980	-0.112	-0.096
-262.224	-200.000	-0.001	-0.151
-261.209	-58.264	0.083	-0.036
-260.195	-150.278	-0.182	-0.014
-259.180	-129.573	-0.165	-0.023
-258.165	-50.402	0.208	0.097
-257.151	800.000	0.059	-0.255
-256.136	-31.851	-0.303	-0.168
-255.122	82.847	-0.130	-0.140
-254.107	675.500	-0.118	-0.302
-253.092	169.047	0.116	0.164
-252.078	-159.064	-0.069	0.004
-251.063	-27.549	-0.297	-0.171
-250.049	-86.991	0.131	0.040
-249.034	135.722	0.209	-0.269
-248.019	371.473	0.135	-0.272
-247.005	40.520	0.123	-0.110
-245.990	581.617	0.036	0.087
-244.976	-145.763	-0.289	0.025
-243.961	800.000	0.010	0.043
-242.946	-200.000	0.038	0.436
-241.932	-37.314	-0.077	-0.040
-240.917	-200.000	-0.030	-0.428
-239.903	199.396	-0.054	0.082
-238.888	-92.028	-0.225	-0.063
-237.873	800.000	-0.126	-0.347
-236.859	13.464	0.163	-0.125
-235.844	-130.551	0.334	0.045
-234.830	-62.554	-0.097	-0.040
-233.815	340.993	-0.166	0.321
-232.800	800.000	0.095	0.304
-231.786	125.040	-0.136	0.170
-230.771	-176.775	0.054	-0.001
-229.757	537.519	0.088	0.206
-228.742	28.718	0.212	-0.177
-227.727	133.583	-0.176	-0.226
-226.713	59.539	-0.250	-0.244
-225.698	-200.000	-0.020	0.202
-224.684	-113.890	-0.232	-0.045
-223.669	-108.919	0.197	0.041
-222.655	391.878	-0.092	0.189
-221.640	521.174	0.079	0.182
-220.625	-200.000	-0.019	0.098
-219.611	-146.202	-0.431	0.037
-218.596	-26.272	0.258	0.150
-217.582	89.147	-0.055	0.060
-216.567	267.072	-0.097	0.168
-215.552	800.000	0.080	0.292
-214.538	-125.201	0.108	0.016
-213.523	-64.690	0.054	-0.022
-212.509	-12.498	0.157	-0.101
-211.494	-200.000	-0.010	-0.484
-210.479	86.014	0.174	-0.189
-209.465	-200.000	0.002	-0.339
-208.450	249.816	0.134	-0.225
-207.436	800.000	0.061	-0.220
-206.421	800.000	0.034	-0.113
-205.406	677.839	0.077	0.199
-204.392	-200.000	-0.010	-0.117
-203.377	-56.573	0.287	-0.126
-202.363	81.759	0.384	-0.410
-201.348	800.000	-0.152	-0.540
-200.333	-150.908	-0.278	-0.021
-199.319	-21.191	-0.353	-0.213
-198.304	452.017	-0.043	-0.094
-197.290	800.000	-0.051	-0.152
-196.275	-137.211	0.328	0.037
-195.260	152.405	0.249	0.336
-194.246	106.773	-0.096	0.113
-193.231	-200.000	0.001	-0.173
-192.217	242.700	0.033	-0.055
-191.202	800.000	-0.121	0.416
-190.187	-67.048	0.024	0.009
-189.173	21.267	-0.248	0.199
-188.158	-33.694	-0.318	-0.173
-187.144	27.300	0.185	-0.153
-186.129	-104.343	0.162	0.037
-185.114	-200.000	0.010	-0.439
-184.100	18.964	0.160	-0.126
-183.085	800.000	-0.055	-0.154
-182.071	-6.485	-0.121	-0.082
-181.056	320.628	-0.140	-0.263
-180.042	-103.120	-0.053	0.012
-179.027	-200.000	-0.052	-0.246
-178.012	-200.000	0.007	0.178
-176.998	381.303	-0.152	0.308
-175.983	-8.824	0.154	0.102
-174.969	-48.536	-0.346	0.164
-173.954	643.429	0.229	0.577
-172.939	-200.000	-0.010	-0.233
-171.925	19.140	-0.089	0.071
-170.910	-70.729	0.335	-0.125
-169.896	179.159	-0.151	0.219
-168.881	-200.000	-0.015	0.090
-167.866	57.799	0.150	0.145
-166.852	199.235	-0.265	-0.401
-165.837	70.704	-0.301	0.307
-164.823	42.705	-0.135	-0.121
-163.808	-200.000	0.009	0.293
-162.793	800.000	0.058	0.252
-161.779	-123.408	-0.095	-0.015
-160.764	-66.323	-0.048	-0.019
-159.750	9.656	-0.227	0.170
-158.735	512.925	-0.054	-0.125
-157.720	-91.221	-0.184	-0.052
-156.706	-40.783	-0.349	-0.178
-155.691	800.000	-0.191	-0.524
-154.677	-200.000	0.003	-0.138
-153.662	-91.817	-0.203	0.057
-152.647	424.302	0.237	0.502
-151.633	-200.000	0.050	-0.303
-150.618	-25.940	0.212	0.123
-149.604	92.458	-0.204	0.227
-148.589	205.895	0.095	0.146
-147.574	52.594	0.259	-0.244
-146.560	-114.481	0.382	0.072
-145.545	-87.756	-0.180	-0.054
-144.531	-200.000	0.061	-0.415
-143.516	-200.000	0.001	0.091
-142.502	165.659	-0.170	-0.236
-141.487	-200.000	-0.049	0.268
-140.472	179.397	0.179	0.258
-139.458	-83.684	-0.134	0.042
-138.443	394.071	0.112	-0.230
-137.429	19.828	0.139	0.110
-136.414	19.358	-0.094	0.074
-135.399	-158.605	-0.340	-0.019
-134.385	237.468	0.143	-0.234
-133.370	67.698	-0.109	-0.110
-132.356	-200.000	0.094	-0.000
-131.341	192.112	0.220	0.326
-130.326	-90.589	0.400	-0.114
-129.312	619.429	0.047	0.116
-128.297	-0.445	0.121	-0.085
-127.283	-10.505	-0.157	-0.102
-126.268	-48.515	0.230	0.109
-125.253	449.912	0.101	0.219
-124.239	-47.530	0.068	0.033
-123.224	71.424	0.157	0.161
-122.210	-137.727	0.182	-0.020
-121.195	369.305	-0.232	0.463
