DTS Sentinel unit serial number:	SN413079Multiplexer serial number:	ORYXHardware model number:	OX4-SRSoftware version number:	ORYX F/W v4.00 Oryx Data Collector v3.7.2.0data status	okinstallation	princeton_trtdifferential loss correction	single-endedforward channel	channel 4reverse channel	N/Adate	2019/09/11time	12:55:11forward acquisition time	60.00reverse acquisition time	0.00gamma	496.2192k internal	0.2283k external	0.2283temperature offset calibration	0.9962default loss term (dB/km)	0.3790temperature slope calibration	1.0000multiplexer offset coefficient	1.0000multiplexer slope coefficient	1.0000fibre end	0.00T internal ref (°C)	41.39T ext. ref 1 (°C)	0.23T ext. ref 2 (°C)	38.84length (m)	temperature (°C)	Stokes	anti-Stokes-747.200	229.236	0.031	-0.052
-746.185	505.898	0.113	0.269
-745.171	-200.000	-0.008	0.414
-744.156	-85.820	-0.224	0.071
-743.142	-115.437	-0.418	0.081
-742.127	-61.632	-0.205	0.088
-741.112	800.000	0.031	0.098
-740.098	-34.512	-0.094	0.053
-739.083	-200.000	0.028	0.157
-738.069	179.709	0.157	0.236
-737.054	-133.981	-0.102	0.013
-736.039	63.290	-0.130	0.133
-735.025	40.568	0.190	-0.176
-734.010	524.977	0.084	-0.204
-732.996	322.203	-0.164	-0.320
-731.981	427.751	0.034	0.075
-730.966	-103.398	-0.589	-0.142
-729.952	-200.000	-0.008	-0.053
-728.937	-23.241	0.113	0.070
-727.923	-40.046	0.118	-0.063
-726.908	261.141	0.134	-0.238
-725.894	-200.000	-0.036	-0.252
-724.879	-41.690	0.076	0.040
-723.864	-200.000	-0.079	-0.707
-722.850	59.575	0.323	0.327
-721.835	-200.000	0.010	0.301
-720.821	291.326	-0.152	-0.284
-719.806	240.443	-0.189	-0.324
-718.791	129.891	-0.366	-0.481
-717.777	-90.023	0.203	-0.061
-716.762	-200.000	0.029	0.179
-715.748	1.417	-0.198	0.146
-714.733	-200.000	0.369	0.001
-713.718	270.449	0.019	-0.035
-712.704	800.000	0.065	-0.205
-711.689	424.838	-0.170	-0.375
-710.675	-31.051	0.273	0.158
-709.660	125.656	0.317	-0.410
-708.645	-107.608	-0.154	0.035
-707.631	-50.106	-0.054	-0.026
-706.616	55.455	-0.134	0.133
-705.602	188.279	0.123	-0.189
-704.587	151.865	0.143	-0.200
-703.572	-58.573	-0.408	0.181
-702.558	800.000	-0.053	-0.235
-701.543	334.493	-0.062	0.124
-700.529	-200.000	-0.018	-0.235
-699.514	97.829	-0.203	-0.239
-698.499	108.025	-0.083	0.102
-697.485	-200.000	0.116	-0.545
-696.470	-0.431	0.138	0.100
-695.456	150.492	-0.220	0.307
-694.441	107.145	0.049	-0.060
-693.426	-109.596	0.212	-0.046
-692.412	-34.374	0.100	-0.057
-691.397	72.875	-0.103	0.110
-690.383	100.853	0.182	-0.217
-689.368	191.047	0.115	-0.177
-688.354	-191.590	0.321	-0.003
-687.339	-200.000	-0.037	0.367
-686.324	800.000	-0.038	-0.117
-685.310	-190.017	-0.177	0.002
-684.295	-142.391	0.220	0.022
-683.281	263.245	0.055	0.097
-682.266	800.000	-0.043	0.171
-681.251	800.000	0.098	0.307
-680.237	-44.721	-0.142	-0.073
-679.222	-0.747	0.172	-0.125
-678.208	-151.756	-0.210	0.016
-677.193	-123.493	0.134	-0.022
-676.178	250.161	0.043	-0.075
-675.164	35.376	-0.176	0.158
-674.149	4.676	-0.102	-0.077
-673.135	-14.307	0.134	-0.088
-672.120	-200.000	0.078	-0.485
-671.105	64.995	-0.211	-0.218
-670.091	-20.313	-0.132	-0.083
-669.076	800.000	-0.076	-0.324
-668.062	166.705	0.214	0.311
-667.047	560.440	0.017	-0.042
-666.032	-200.000	0.043	-0.438
-665.018	-50.340	-0.057	0.028
-664.003	-154.111	0.042	0.003
-662.989	-200.000	0.064	-0.314
-661.974	416.642	0.169	0.370
-660.959	-121.620	-0.231	-0.039
-659.945	140.761	-0.017	-0.023
-658.930	-200.000	-0.001	-0.160
-657.916	-70.711	-0.276	-0.107
-656.901	168.419	0.212	-0.310
-655.886	12.144	0.209	-0.165
-654.872	-31.021	0.428	-0.248
-653.857	-166.163	-0.239	0.010
-652.843	55.638	-0.153	-0.152
-651.828	-200.000	-0.016	-0.524
-650.814	35.664	-0.118	0.106
-649.799	68.011	0.038	0.039
-648.784	-66.118	0.088	0.036
-647.770	-88.804	-0.276	0.084
-646.755	91.035	-0.100	0.115
-645.741	-142.423	-0.185	0.019
-644.726	486.696	0.043	0.100
-643.711	-200.000	-0.036	-0.277
-642.697	337.663	0.063	-0.125
-641.682	-149.115	0.275	-0.023
-640.668	-21.664	0.047	0.029
-639.653	800.000	0.033	-0.128
-638.638	800.000	0.100	0.416
-637.624	187.747	0.062	0.095
-636.609	33.533	-0.352	0.313
-635.595	12.229	-0.040	0.032
-634.580	-200.000	-0.050	-0.233
-633.565	-200.000	0.016	-0.154
-632.551	800.000	-0.016	-0.062
-631.536	800.000	0.059	-0.181
-630.522	-200.000	-0.070	-0.357
-629.507	-200.000	0.021	0.325
-628.492	-35.062	-0.229	0.128
-627.478	14.854	0.128	-0.102
-626.463	491.254	-0.118	-0.277
-625.449	-122.791	0.241	-0.040
-624.434	800.000	-0.061	-0.196
-623.419	240.932	-0.165	-0.281
-622.405	61.095	-0.131	-0.133
-621.390	92.557	-0.112	-0.129
-620.376	-200.000	-0.011	-0.091
-619.361	-58.185	-0.246	-0.109
-618.346	242.476	-0.207	-0.354
-617.332	-200.000	-0.044	0.269
-616.317	311.876	0.102	-0.195
-615.303	-17.545	-0.276	-0.177
-614.288	-68.518	-0.140	-0.055
-613.273	18.246	-0.140	-0.114
-612.259	-38.038	-0.097	-0.053
-611.244	599.955	0.069	0.176
-610.230	-98.862	0.207	0.054
-609.215	-132.802	-0.091	-0.012
-608.201	-200.000	-0.038	-0.325
-607.186	-200.000	-0.004	0.055
-606.171	800.000	0.019	0.073
-605.157	75.007	0.194	0.208
-604.142	-57.093	-0.159	-0.071
-603.128	-152.133	-0.323	0.024
-602.113	552.669	0.092	-0.225
-601.098	-75.652	-0.286	0.104
-600.084	-200.000	0.063	0.309
-599.069	-199.416	0.337	-0.002
-598.055	800.000	0.076	-0.271
-597.040	-95.108	0.203	-0.056
-596.025	38.544	-0.016	-0.014
-595.011	-134.133	0.228	-0.029
-593.996	-114.742	0.046	0.009
-592.982	49.654	0.074	0.071
-591.967	135.390	0.022	-0.029
-590.952	-5.338	0.188	0.132
-589.938	261.911	0.122	0.216
-588.923	783.697	0.071	-0.198
-587.909	-200.000	-0.006	0.041
-586.894	88.085	-0.102	0.116
-585.879	106.214	0.117	-0.141
-584.865	-92.515	-0.366	-0.105
-583.850	576.357	0.037	0.092
-582.836	800.000	0.071	-0.282
-581.821	-200.000	-0.008	-0.249
-580.806	-22.872	-0.180	-0.111
-579.792	-112.265	-0.170	0.035
-578.777	-70.758	0.312	-0.120
-577.763	-6.899	0.201	0.139
-576.748	-44.037	0.153	-0.079
-575.733	-200.000	0.087	0.499
-574.719	-57.339	0.171	-0.077
-573.704	-70.114	-0.263	-0.102
-572.690	378.124	0.073	0.153
-571.675	800.000	-0.047	-0.140
-570.661	182.112	0.083	-0.124
-569.646	-200.000	-0.061	-0.341
-568.631	800.000	-0.133	0.415
-567.617	474.801	0.198	-0.456
-566.602	-200.000	-0.057	0.328
-565.588	-25.986	-0.138	-0.083
-564.573	128.539	0.120	-0.156
-563.558	147.630	-0.115	-0.157
-562.544	-200.000	-0.010	0.145
-561.529	-18.863	0.247	-0.157
-560.515	-200.000	-0.015	0.090
-559.500	800.000	0.018	-0.076
-558.485	-102.081	-0.321	0.079
-557.471	87.541	-0.161	0.181
-556.456	-105.243	0.105	-0.024
-555.442	-59.421	0.255	0.112
-554.427	-78.229	-0.120	0.042
-553.412	-200.000	0.011	-0.101
-552.398	-84.735	-0.055	-0.018
-551.383	5.617	0.334	0.252
-550.369	205.151	-0.118	-0.187
-549.354	-93.142	-0.242	-0.069
-548.339	161.733	0.141	-0.201
-547.325	187.088	0.152	-0.231
-546.310	472.481	0.056	-0.129
-545.296	-200.000	-0.001	-0.188
-544.281	-166.833	-0.308	-0.013
-543.266	800.000	0.056	0.188
-542.252	131.506	-0.016	-0.021
-541.237	-51.151	0.112	-0.054
-540.223	-133.597	0.326	0.042
-539.208	-113.772	-0.148	-0.029
-538.193	-41.718	0.210	0.110
-537.179	20.896	-0.065	-0.054
-536.164	354.978	-0.116	-0.234
-535.150	-26.674	0.236	0.141
-534.135	-141.137	-0.081	0.008
-533.121	243.848	0.044	-0.075
-532.106	134.314	-0.145	0.192
-531.091	266.939	-0.145	-0.258
-530.077	-70.801	0.189	0.072
-529.062	-200.000	-0.033	-0.206
-528.048	-131.289	0.196	-0.026
-527.033	-200.000	-0.007	-0.176
-526.018	108.887	0.127	-0.155
-525.004	-200.000	-0.004	0.224
-523.989	-153.447	-0.289	0.020
-522.975	489.719	0.117	0.272
-521.960	599.376	-0.164	-0.416
-520.945	800.000	0.068	-0.250
-519.931	383.751	-0.154	0.323
-518.916	39.951	0.074	0.068
-517.902	203.053	0.081	0.128
-516.887	149.474	-0.171	-0.236
-515.872	-82.314	0.132	-0.044
-514.858	-190.597	-0.180	-0.002
-513.843	800.000	-0.034	-0.107
-512.829	-127.016	-0.055	0.008
-511.814	-128.022	0.332	0.048
-510.799	210.314	-0.194	0.311
-509.785	-24.843	-0.080	0.049
-508.770	-77.500	0.333	-0.118
-507.756	80.574	-0.073	0.080
-506.741	177.962	-0.174	0.258
-505.726	-14.688	-0.175	-0.114
-504.712	-200.000	0.017	-0.161
-503.697	606.717	-0.045	0.114
-502.683	302.690	-0.209	0.394
-501.668	-26.490	0.191	-0.114
-500.653	-200.000	0.041	-0.296
-499.639	779.935	0.079	-0.220
-498.624	35.609	-0.122	0.109
-497.610	42.888	-0.153	-0.142
-496.595	-200.000	0.032	-0.211
-495.581	-200.000	0.021	-0.601
-494.566	-113.248	0.077	0.015
-493.551	-200.000	0.011	-0.182
-492.537	-200.000	0.012	-0.132
-491.522	82.106	-0.183	0.201
-490.508	182.815	-0.069	0.104
-489.493	-156.879	-0.188	-0.012
-488.478	-200.000	0.016	-0.253
-487.464	309.099	-0.040	0.075
-486.449	298.835	-0.073	0.136
-485.435	-24.597	-0.342	-0.207
-484.420	-11.001	-0.050	0.034
-483.405	-148.284	-0.160	-0.013
-482.391	-170.415	-0.313	-0.011
-481.376	-134.567	-0.085	-0.011
-480.362	564.895	0.121	0.299
-479.347	129.101	0.196	-0.255
-478.332	-200.000	0.001	-0.094
-477.318	-102.231	0.218	-0.053
-476.303	-86.183	-0.377	0.118
-475.289	274.332	0.119	0.214
-474.274	566.217	-0.021	-0.051
-473.259	-68.914	0.238	-0.094
-472.245	-200.000	-0.016	-0.088
-471.230	-70.897	0.565	0.217
-470.216	-127.801	0.287	-0.042
-469.201	-35.988	0.243	-0.133
-468.186	663.642	-0.074	0.195
-467.172	-200.000	-0.009	-0.259
-466.157	-200.000	-0.010	0.100
-465.143	482.642	-0.070	0.162
-464.128	85.809	0.205	-0.230
-463.113	27.712	-0.121	-0.104
-462.099	41.211	0.178	-0.164
-461.084	800.000	0.076	-0.256
-460.070	-99.993	0.093	-0.023
-459.055	-155.981	-0.172	0.011
-458.040	-150.844	-0.214	-0.016
-457.026	-141.249	0.042	-0.004
-456.011	51.200	0.051	0.050
-454.997	800.000	0.093	0.264
-453.982	51.417	0.150	0.145
-452.968	-115.842	-0.116	-0.022
-451.953	172.301	-0.110	-0.160
-450.938	-97.204	0.251	-0.066
-449.924	337.730	0.094	0.186
-448.909	800.000	0.062	-0.246
-447.895	25.914	0.175	-0.148
-446.880	-119.105	-0.102	0.018
-445.865	-179.859	0.059	0.001
-444.851	4.452	0.163	0.121
-443.836	1.131	0.335	0.244
-442.822	64.392	-0.084	-0.086
-441.807	27.734	-0.323	-0.276
-440.792	-200.000	-0.026	-0.277
-439.778	70.686	-0.164	0.172
-438.763	-86.645	-0.178	0.055
-437.749	-159.341	-0.243	-0.014
-436.734	-120.057	0.207	0.036
-435.719	-200.000	0.029	-0.151
-434.705	800.000	0.055	0.190
-433.690	214.822	0.108	0.173
-432.676	23.458	-0.194	-0.162
-431.661	-181.025	-0.151	0.003
-430.646	-23.932	-0.124	-0.075
-429.632	-78.241	0.140	-0.049
-428.617	175.585	0.146	0.214
-427.603	-25.945	0.295	0.177
-426.588	26.942	0.223	-0.190
-425.573	-93.627	0.114	0.032
-424.559	728.098	0.094	0.256
-423.544	800.000	-0.017	-0.072
-422.530	-8.190	0.351	0.240
-421.515	45.011	0.212	0.198
-420.500	-200.000	-0.004	0.083
-419.486	800.000	0.040	-0.168
-418.471	168.242	-0.129	0.186
-417.457	800.000	-0.076	0.309
-416.442	621.509	0.092	-0.235
-415.428	409.124	0.143	-0.308
-414.413	33.779	-0.104	0.092
-413.398	75.191	-0.436	0.466
-412.384	81.657	0.205	0.225
-411.369	-89.140	-0.070	-0.021
-410.355	-189.113	0.206	0.002
-409.340	59.979	0.121	0.121
-408.325	-76.357	-0.162	-0.058
-407.311	800.000	0.056	-0.161
-406.296	601.670	-0.119	-0.300
-405.282	-200.000	0.002	-0.117
-404.267	-124.818	0.159	-0.025
-403.252	-20.237	-0.211	0.132
-402.238	-135.142	-0.270	-0.033
-401.223	43.263	0.425	-0.394
-400.209	191.703	0.122	0.187
-399.194	-200.000	-0.058	-0.285
-398.179	-200.000	-0.003	-0.137
-397.165	-200.000	0.015	0.238
-396.150	-102.318	-0.294	0.071
-395.136	-200.000	0.016	0.096
-394.121	103.540	-0.145	-0.172
-393.106	-200.000	-0.055	0.379
-392.092	247.128	0.017	0.030
-391.077	82.176	-0.215	-0.237
-390.063	-1.869	-0.117	0.083
-389.048	56.363	-0.166	0.164
-388.033	212.438	0.032	0.051
-387.019	-2.180	-0.333	0.237
-386.004	-102.046	-0.095	0.023
-384.990	36.096	0.177	0.158
-383.975	-153.934	-0.409	0.028
-382.960	414.174	-0.152	-0.329
-381.946	-41.743	-0.376	-0.195
-380.931	800.000	-0.032	0.117
-379.917	-129.909	-0.108	-0.015
-378.902	800.000	-0.082	0.246
-377.888	8.256	-0.179	-0.136
-376.873	426.959	0.053	0.116
-375.858	-45.803	0.214	0.107
-374.844	-28.166	-0.182	0.107
-373.829	471.308	-0.110	0.252
-372.815	76.744	0.095	0.102
-371.800	-108.111	-0.065	-0.014
-370.785	-36.470	0.104	0.057
-369.771	18.744	-0.211	0.171
-368.756	-116.008	0.124	0.023
-367.742	78.607	-0.191	-0.207
-366.727	23.094	-0.204	-0.169
-365.712	-53.172	0.304	0.141
-364.698	800.000	0.061	0.191
-363.683	-200.000	0.017	-0.089
-362.669	800.000	-0.041	0.141
-361.654	-200.000	0.070	0.362
-360.639	-200.000	0.018	-0.083
-359.625	183.042	0.161	-0.241
-358.610	-118.489	-0.322	0.058
-357.596	108.205	-0.118	0.142
-356.581	800.000	0.114	0.475
-355.566	115.398	-0.036	-0.045
-354.552	800.000	0.128	0.399
-353.537	-37.771	-0.125	-0.067
-352.523	28.709	0.339	0.290
-351.508	-166.497	-0.234	0.010
-350.493	-200.000	0.008	0.413
-349.479	205.046	0.204	0.321
-348.464	253.013	0.127	-0.220
-347.450	-111.783	-0.069	0.014
-346.435	-95.677	0.223	-0.060
-345.420	-52.047	-0.372	0.175
-344.406	800.000	-0.071	0.211
-343.391	66.675	0.109	-0.112
-342.377	-200.000	0.036	0.188
-341.362	-30.321	-0.251	0.144
-340.348	-200.000	0.012	-0.362
-339.333	-49.559	0.377	-0.181
-338.318	-28.929	0.195	-0.113
-337.304	81.834	0.052	0.056
-336.289	-124.269	-0.090	-0.014
-335.275	-200.000	-0.033	0.152
-334.260	-200.000	-0.018	-0.100
-333.245	449.062	-0.122	0.271
-332.231	-77.819	-0.073	0.025
-331.216	479.395	-0.069	-0.157
-330.202	-73.078	-0.046	-0.017
-329.187	175.021	0.076	-0.112
-328.172	800.000	0.077	0.255
-327.158	-109.643	-0.100	-0.021
-326.143	-200.000	0.009	-0.316
-325.129	-200.000	0.005	0.045
-324.114	-7.099	0.032	-0.022
-323.099	430.119	0.083	0.181
-322.085	366.341	-0.092	-0.188
-321.070	-200.000	0.031	0.333
-320.056	-200.000	-0.027	0.279
-319.041	81.362	-0.033	0.036
-318.026	-53.011	-0.141	-0.066
-317.012	800.000	0.051	0.156
-315.997	5.965	0.139	-0.104
-314.983	800.000	0.047	0.209
-313.968	-63.554	0.166	0.069
-312.953	-200.000	0.025	0.186
-311.939	588.129	-0.033	0.082
-310.924	-16.163	-0.020	0.013
-309.910	-200.000	0.020	0.192
-308.895	77.589	0.071	-0.077
-307.880	353.904	-0.093	-0.187
-306.866	-36.616	-0.169	-0.092
-305.851	556.853	0.032	0.078
-304.837	-200.000	0.015	0.304
-303.822	-23.030	-0.465	0.283
-302.807	22.939	0.352	0.291
-301.793	-143.074	0.352	0.034
-300.778	-121.534	-0.315	0.053
-299.764	-152.734	0.088	0.006
-298.749	-73.708	-0.294	-0.108
-297.735	-103.469	0.346	0.082
-296.720	164.978	-0.157	-0.224
-295.705	800.000	0.038	-0.130
-294.691	-200.000	0.010	0.318
-293.676	-25.319	-0.142	-0.085
-292.662	435.580	-0.060	0.132
-291.647	30.268	-0.016	0.014
-290.632	64.966	-0.084	-0.086
-289.618	-169.901	-0.108	-0.004
-288.603	-16.539	0.413	0.264
-287.589	713.869	0.056	0.150
-286.574	-68.382	-0.209	0.082
-285.559	49.145	-0.175	0.166
-284.545	800.000	-0.073	-0.298
-283.530	440.425	0.146	-0.322
-282.516	-106.605	0.158	-0.036
-281.501	-31.133	0.376	0.214
-280.486	-200.000	-0.002	0.095
-279.472	72.810	-0.080	0.085
-278.457	190.139	-0.054	-0.082
-277.443	80.675	-0.054	0.059
-276.428	8.000	-0.138	-0.104
-275.413	-95.874	0.202	0.054
-274.399	-62.201	-0.163	0.068
-273.384	-153.941	-0.255	-0.018
-272.370	-122.612	-0.244	0.040
-271.355	81.187	0.120	0.131
-270.340	-13.538	-0.139	-0.091
-269.326	-43.861	-0.047	-0.024
-268.311	-94.916	0.175	0.048
-267.297	50.957	-0.222	0.212
-266.282	-52.363	-0.456	-0.213
-265.267	-200.000	-0.030	-0.397
-264.253	-200.000	0.034	-0.278
-263.238	-21.783	0.217	-0.133
-262.224	85.539	-0.150	-0.166
-261.209	-200.000	0.043	0.230
-260.195	80.856	0.064	0.070
-259.180	-123.001	-0.203	-0.033
-258.165	-64.839	0.071	-0.029
-257.151	-67.446	0.136	-0.054
-256.136	-100.433	0.277	0.069
-255.122	800.000	0.039	0.137
-254.107	800.000	-0.081	-0.254
-253.092	-11.068	-0.065	0.044
-252.078	56.555	-0.192	0.188
-251.063	25.236	0.061	-0.051
-250.049	138.994	0.154	-0.203
-249.034	-200.000	-0.043	-0.225
-248.019	-110.743	-0.307	-0.064
-247.005	-200.000	0.035	0.281
-245.990	95.805	0.139	-0.160
-244.976	-92.948	0.123	0.035
-243.961	9.909	0.215	0.164
-242.946	26.801	0.252	-0.213
-241.932	718.764	0.059	0.158
-240.917	59.355	-0.099	0.098
-239.903	210.629	0.148	-0.234
-238.888	31.461	-0.270	0.234
-237.873	-42.319	0.143	-0.073
-236.859	721.255	0.074	0.198
-235.844	-200.000	0.049	-0.435
-234.830	-200.000	-0.052	-0.382
-233.815	87.619	0.092	-0.102
-232.800	-81.841	-0.167	-0.055
-231.786	800.000	0.020	-0.075
-230.771	-166.217	-0.502	-0.021
-229.757	-27.695	-0.143	0.083
-228.742	-200.000	0.059	-0.317
-227.727	-29.873	-0.204	0.117
-226.713	248.156	-0.121	-0.206
-225.698	119.088	-0.114	-0.142
-224.684	65.773	-0.226	0.231
-223.669	-140.709	0.122	0.013
-222.655	39.694	0.284	-0.257
-221.640	96.122	0.160	-0.184
-220.625	-93.620	0.165	-0.046
-219.611	-162.014	0.182	-0.009
-218.596	25.286	0.111	0.093
-217.582	678.740	0.012	0.032
-216.567	800.000	0.092	-0.257
-215.552	127.824	0.107	0.137
-214.538	59.830	-0.162	0.161
-213.523	-128.518	0.103	0.015
-212.509	291.451	0.135	-0.248
-211.494	-73.080	0.162	-0.060
-210.479	-174.790	0.307	0.009
-209.465	-200.000	-0.021	0.141
-208.450	26.558	0.137	-0.115
-207.436	320.996	-0.063	0.121
-206.421	800.000	-0.032	-0.129
-205.406	800.000	-0.076	-0.272
-204.392	99.682	-0.098	-0.114
-203.377	-200.000	-0.025	0.208
-202.363	800.000	0.091	0.318
-201.348	-183.426	0.256	-0.004
-200.333	-200.000	-0.028	0.344
-199.319	34.175	-0.116	0.102
-198.304	176.845	-0.130	-0.189
-197.290	5.463	0.121	-0.090
-196.275	68.285	0.061	0.063
-195.260	190.612	-0.154	-0.233
-194.246	41.312	0.038	0.035
-193.231	-200.000	0.003	0.114
-192.217	-68.476	-0.031	-0.012
-191.202	-200.000	-0.007	0.074
-190.187	-185.615	-0.534	0.008
-189.173	85.173	0.210	0.232
-188.158	-70.017	0.208	-0.080
-187.144	-120.181	0.273	-0.047
-186.129	800.000	0.055	0.212
-185.114	250.053	-0.149	0.253
-184.100	2.386	-0.228	-0.166
-183.085	297.268	0.169	-0.312
-182.071	-33.436	0.125	-0.070
-181.056	-92.331	-0.317	0.090
-180.042	6.044	0.122	-0.091
-179.027	385.312	0.095	-0.197
-178.012	502.301	0.131	-0.304
-176.998	800.000	-0.077	-0.283
-175.983	79.010	0.102	0.110
-174.969	112.021	0.280	0.340
-173.954	614.326	0.106	0.267
-172.939	450.251	0.125	0.277
-171.925	225.137	0.057	0.093
-170.910	-79.664	0.362	-0.123
-169.896	-12.583	-0.132	-0.086
-168.881	-37.041	-0.359	0.193
-167.866	-106.926	-0.071	-0.016
-166.852	-80.894	0.079	0.026
-165.837	-45.724	0.037	-0.019
-164.823	101.979	0.156	-0.183
-163.808	-14.151	-0.124	0.080
-162.793	-107.148	-0.154	-0.034
-161.779	-200.000	0.017	-0.329
-160.764	-145.282	0.594	0.054
-159.750	-41.034	0.096	-0.050
-158.735	377.270	-0.099	0.203
-157.720	-173.384	0.116	0.004
-156.706	175.592	0.065	0.095
-155.691	94.175	0.181	0.206
-154.677	-200.000	0.031	0.266
-153.662	76.409	0.121	-0.129
-152.647	-200.000	0.016	0.213
-151.633	-66.874	-0.427	0.169
-150.618	167.235	-0.163	-0.233
-149.604	-190.558	0.202	0.002
-148.589	12.430	0.182	-0.141
-147.574	800.000	-0.039	-0.152
-146.560	10.622	-0.199	0.152
-145.545	50.066	0.100	0.095
-144.531	-28.839	-0.117	-0.067
-143.516	431.963	-0.127	0.276
-142.502	-98.288	0.043	0.011
-141.487	-61.413	-0.193	-0.082
-140.472	165.970	0.136	-0.193
-139.458	50.024	0.079	0.075
-138.443	14.065	0.057	0.044
-137.429	-116.174	0.053	0.010
-136.414	-200.000	-0.026	0.325
-135.399	17.057	0.081	0.065
-134.385	-20.005	0.383	-0.237
-133.370	48.636	-0.107	0.101
-132.356	-200.000	0.004	0.164
-131.341	-36.448	-0.121	0.065
-130.326	-200.000	-0.022	-0.177
-129.312	-49.652	0.139	0.066
-128.297	-200.000	-0.032	0.235
-127.283	-19.740	0.054	0.034
-126.268	-200.000	-0.021	-0.223
-125.253	-91.461	-0.257	0.073
-124.239	-65.355	0.165	-0.067
-123.224	-200.000	-0.024	0.109
-122.210	188.611	-0.071	0.106
-121.195	5.305	-0.158	-0.117
