DTS Sentinel unit serial number:	SN413079Multiplexer serial number:	ORYXHardware model number:	OX4-SRSoftware version number:	ORYX F/W v4.00 Oryx Data Collector v3.7.2.0data status	okinstallation	princeton_trtdifferential loss correction	single-endedforward channel	channel 4reverse channel	N/Adate	2019/09/17time	20:05:35forward acquisition time	60.00reverse acquisition time	0.00gamma	496.2192k internal	0.2317k external	0.2317temperature offset calibration	0.9985default loss term (dB/km)	0.3790temperature slope calibration	1.0000multiplexer offset coefficient	1.0000multiplexer slope coefficient	1.0000fibre end	0.00T internal ref (°C)	32.77T ext. ref 1 (°C)	0.22T ext. ref 2 (°C)	22.74length (m)	temperature (°C)	Stokes	anti-Stokes-747.200	-129.727	-0.430	0.060
-746.185	-200.000	0.024	0.229
-745.171	426.931	-0.098	0.214
-744.156	551.311	-0.012	0.030
-743.142	-158.320	-0.182	-0.011
-742.127	-11.435	-0.155	-0.103
-741.112	-200.000	-0.021	0.099
-740.098	800.000	0.095	0.375
-739.083	37.631	0.152	0.137
-738.069	-74.236	-0.449	-0.164
-737.054	401.864	0.089	-0.189
-736.039	-165.814	-0.443	-0.019
-735.025	-12.807	0.283	0.187
-734.010	-21.616	-0.321	-0.198
-732.996	439.166	-0.023	-0.052
-731.981	-151.075	0.246	-0.019
-730.966	66.523	-0.177	-0.182
-729.952	652.262	0.047	0.121
-728.937	-100.166	-0.175	-0.044
-727.923	-111.258	-0.173	-0.036
-726.908	-153.411	-0.353	-0.025
-725.894	113.553	0.153	-0.189
-724.879	-58.349	-0.173	-0.076
-723.864	800.000	0.038	-0.149
-722.850	59.384	-0.105	0.105
-721.835	22.939	0.222	0.185
-720.821	800.000	-0.061	-0.269
-719.806	404.786	0.136	0.290
-718.791	-200.000	0.006	-0.172
-717.777	10.987	-0.169	-0.131
-716.762	800.000	0.104	0.302
-715.748	-200.000	-0.002	0.237
-714.733	-158.956	-0.236	-0.014
-713.718	-107.205	0.097	0.022
-712.704	-92.384	-0.484	0.138
-711.689	-153.692	-0.216	-0.015
-710.675	333.188	0.055	0.108
-709.660	26.174	0.085	-0.072
-708.645	490.925	0.119	-0.276
-707.631	-8.864	0.105	0.071
-706.616	81.034	-0.261	-0.285
-705.602	132.488	-0.075	-0.097
-704.587	66.058	0.141	-0.145
-703.572	652.884	-0.085	-0.221
-702.558	-143.849	-0.126	-0.012
-701.543	-81.785	0.307	-0.102
-700.529	-57.458	-0.194	-0.086
-699.514	-188.564	-0.282	0.004
-698.499	337.859	-0.047	-0.092
-697.485	800.000	-0.043	-0.132
-696.470	14.979	-0.242	-0.191
-695.456	-200.000	-0.008	-0.141
-694.441	594.265	-0.103	0.256
-693.426	-17.279	-0.151	0.096
-692.412	2.839	-0.073	-0.054
-691.397	55.431	-0.322	0.315
-690.383	312.795	0.074	0.141
-689.368	100.646	0.107	0.125
-688.354	-107.503	0.136	0.030
-687.339	-200.000	-0.005	-0.168
-686.324	76.892	-0.122	0.131
-685.310	-72.320	0.161	0.060
-684.295	800.000	0.046	0.157
-683.281	189.501	0.090	-0.137
-682.266	-37.389	0.296	-0.160
-681.251	-79.704	0.211	-0.072
-680.237	-124.348	-0.281	0.044
-679.222	-155.919	0.315	-0.020
-678.208	369.224	-0.108	0.220
-677.193	93.161	-0.131	-0.149
-676.178	800.000	0.048	-0.164
-675.164	115.300	0.097	-0.120
-674.149	246.748	0.121	0.207
-673.135	21.463	-0.224	-0.184
-672.120	-128.881	-0.421	0.060
-671.105	-200.000	-0.013	-0.363
-670.091	-40.334	-0.275	0.144
-669.076	-200.000	-0.044	-0.218
-668.062	-10.470	0.384	-0.257
-667.047	-29.698	-0.226	-0.130
-666.032	12.925	-0.188	-0.146
-665.018	138.633	0.209	0.277
-664.003	800.000	0.106	-0.328
-662.989	41.342	-0.184	-0.168
-661.974	-24.548	-0.166	0.100
-660.959	-200.000	-0.048	-0.369
-659.945	196.251	-0.099	-0.152
-658.930	800.000	0.070	-0.230
-657.916	169.532	0.122	0.176
-656.901	-29.047	0.344	0.199
-655.886	209.161	0.100	-0.158
-654.872	14.106	0.292	-0.229
-653.857	800.000	0.091	-0.257
-652.843	-200.000	-0.000	-0.200
-651.828	800.000	0.086	0.268
-650.814	-119.759	0.038	0.007
-649.799	7.855	-0.169	-0.128
-648.784	-200.000	0.004	-0.224
-647.770	55.997	0.202	0.198
-646.755	-200.000	0.012	-0.247
-645.741	148.467	-0.108	0.148
-644.726	-47.314	0.257	-0.126
-643.711	70.281	0.092	0.096
-642.697	172.250	0.078	0.113
-641.682	314.845	0.148	0.281
-640.668	-200.000	0.002	0.251
-639.653	-200.000	-0.011	-0.122
-638.638	42.140	-0.186	-0.170
-637.624	280.151	0.082	-0.147
-636.609	-200.000	-0.008	0.047
-635.595	203.341	-0.062	0.096
-634.580	47.330	-0.118	0.110
-633.565	91.374	0.117	0.132
-632.551	-33.336	0.172	0.096
-631.536	-60.044	0.247	-0.106
-630.522	800.000	-0.073	-0.254
-629.507	-55.278	0.217	0.098
-628.492	25.858	0.165	0.139
-627.478	572.214	-0.053	0.130
-626.463	3.820	0.071	0.052
-625.449	-170.894	0.141	0.005
-624.434	65.044	-0.270	0.275
-623.419	-177.748	0.047	0.001
-622.405	371.671	0.194	-0.396
-621.390	-115.948	-0.323	0.061
-620.376	43.297	-0.170	0.156
-619.361	-34.596	-0.019	-0.011
-618.346	159.892	-0.084	0.117
-617.332	-200.000	-0.015	-0.119
-616.317	-27.551	0.097	0.056
-615.303	-13.005	0.188	0.123
-614.288	-10.279	-0.280	-0.187
-613.273	-200.000	0.016	-0.288
-612.259	-200.000	-0.018	-0.228
-611.244	-200.000	-0.033	0.177
-610.230	800.000	-0.008	0.032
-609.215	-5.766	0.354	-0.244
-608.201	-33.411	0.073	-0.040
-607.186	800.000	0.107	0.374
-606.171	229.880	-0.098	0.161
-605.157	-200.000	0.014	0.080
-604.142	91.646	0.152	0.172
-603.128	569.810	-0.048	0.117
-602.113	-40.561	-0.166	-0.087
-601.098	-200.000	-0.015	0.328
-600.084	-200.000	-0.015	0.232
-599.069	-200.000	-0.010	-0.232
-598.055	-86.930	0.070	-0.022
-597.040	-14.594	0.062	0.040
-596.025	800.000	-0.083	-0.325
-595.011	144.979	-0.265	-0.356
-593.996	-200.000	-0.045	-0.200
-592.982	135.302	0.023	-0.030
-591.967	-104.492	-0.219	0.051
-590.952	136.640	0.089	0.117
-589.938	68.313	-0.070	0.072
-588.923	-200.000	-0.015	0.110
-587.909	-60.526	0.223	-0.095
-586.894	800.000	0.022	0.064
-585.879	-68.661	-0.035	-0.014
-584.865	-20.938	-0.426	0.263
-583.850	-129.340	-0.462	0.065
-582.836	-200.000	-0.020	-0.149
-581.821	-200.000	-0.014	-0.153
-580.806	-116.138	-0.122	-0.023
-579.792	199.080	-0.107	0.164
-578.777	-200.000	0.025	-0.395
-577.763	491.398	-0.151	0.348
-576.748	17.527	0.225	-0.180
-575.733	-89.493	-0.119	0.035
-574.719	-134.682	0.046	-0.006
-573.704	-200.000	0.051	0.227
-572.690	-46.865	0.254	0.125
-571.675	117.840	-0.031	0.039
-570.661	-83.383	-0.150	-0.048
-569.646	117.931	0.168	0.208
-568.631	-200.000	-0.026	-0.377
-567.617	635.652	0.055	-0.141
-566.602	104.329	0.241	-0.285
-565.588	-69.378	-0.241	0.093
-564.573	57.746	0.319	0.314
-563.558	-66.260	0.285	0.114
-562.544	-178.672	0.114	0.003
-561.529	800.000	0.069	-0.288
-560.515	295.786	0.139	-0.255
-559.500	-28.724	-0.080	0.046
-558.485	249.766	-0.111	-0.188
-557.471	161.331	0.149	0.210
-556.456	800.000	-0.044	-0.188
-555.442	-15.554	-0.170	-0.109
-554.427	762.011	-0.098	-0.267
-553.412	-200.000	-0.017	-0.085
-552.398	-200.000	0.085	-0.385
-551.383	79.881	-0.046	-0.050
-550.369	-105.808	-0.500	0.113
-549.354	569.663	-0.088	0.215
-548.339	-144.500	0.382	-0.035
-547.325	800.000	-0.057	-0.184
-546.310	800.000	-0.052	0.173
-545.296	-101.195	-0.201	-0.049
-544.281	-200.000	0.012	0.158
-543.266	-135.215	0.073	-0.009
-542.252	800.000	0.054	-0.228
-541.237	-93.700	-0.504	0.140
-540.223	800.000	-0.008	-0.025
-539.208	-1.017	0.117	0.083
-538.193	-200.000	-0.017	0.555
-537.179	356.402	-0.114	0.229
-536.164	-0.688	0.235	0.167
-535.150	22.355	0.064	0.052
-534.135	137.451	-0.045	-0.058
-533.121	-61.819	-0.170	0.071
-532.106	-115.565	-0.346	-0.065
-531.091	443.767	0.101	-0.223
-530.077	524.353	-0.077	0.183
-529.062	-200.000	-0.013	0.128
-528.048	-62.408	0.245	-0.102
-527.033	-138.029	0.463	0.052
-526.018	58.999	0.037	0.037
-525.004	-200.000	-0.042	-0.415
-523.989	-168.820	0.370	-0.014
-522.975	-35.929	0.250	-0.136
-521.960	-200.000	-0.001	-0.089
-520.945	-21.974	0.077	-0.047
-519.931	136.646	-0.124	-0.162
-518.916	79.992	-0.077	-0.083
-517.902	209.905	0.154	-0.243
-516.887	-48.410	-0.204	-0.098
-515.872	-111.577	-0.235	-0.048
-514.858	-67.980	0.406	-0.159
-513.843	29.142	0.283	0.241
-512.829	-40.744	0.116	0.060
-511.814	485.904	-0.067	-0.153
-510.799	82.190	0.175	-0.190
-509.785	-36.312	0.150	0.081
-508.770	-115.914	-0.175	-0.033
-507.756	197.984	-0.174	0.266
-506.741	-148.867	-0.265	0.021
-505.726	7.594	0.047	-0.035
-504.712	241.579	-0.078	0.130
-503.697	229.799	0.131	0.215
-502.683	281.994	0.101	0.181
-501.668	436.984	-0.042	-0.091
-500.653	-29.100	0.289	0.166
-499.639	434.383	0.079	0.172
-498.624	-200.000	-0.008	0.228
-497.610	24.607	0.155	-0.129
-496.595	-19.073	-0.182	0.113
-495.581	-200.000	-0.004	-0.278
-494.566	89.263	-0.368	0.411
-493.551	283.821	0.092	0.166
-492.537	639.411	-0.091	0.233
-491.522	643.585	0.106	0.270
-490.508	95.398	-0.298	0.341
-489.493	-200.000	0.027	0.192
-488.478	-3.052	0.177	0.124
-487.464	-200.000	-0.036	-0.463
-486.449	89.535	-0.171	-0.191
-485.435	-56.053	0.331	0.148
-484.420	187.401	0.096	0.144
-483.405	118.858	0.149	0.185
-482.391	-115.979	-0.107	-0.020
-481.376	-13.842	-0.171	-0.111
-480.362	124.241	-0.214	-0.269
-479.347	-200.000	0.009	0.297
-478.332	278.806	-0.043	-0.076
-477.318	-67.848	-0.009	0.004
-476.303	800.000	-0.090	-0.254
-475.289	-200.000	-0.012	-0.274
-474.274	15.560	-0.014	-0.011
-473.259	105.354	0.063	-0.074
-472.245	-18.508	-0.259	-0.162
-471.230	-200.000	-0.002	0.118
-470.216	168.690	0.178	-0.254
-469.201	-83.020	-0.233	0.075
-468.186	169.429	0.063	0.090
-467.172	-69.846	-0.229	0.087
-466.157	800.000	-0.062	0.222
-465.143	-155.215	-0.164	-0.011
-464.128	201.330	0.383	0.590
-463.113	-200.000	0.039	0.367
-462.099	-106.893	0.195	-0.043
-461.084	-200.000	-0.104	-0.477
-460.070	-161.090	-0.091	-0.005
-459.055	-42.314	-0.242	0.124
-458.040	485.613	-0.097	-0.221
-457.026	-200.000	0.030	-0.390
-456.011	132.845	0.167	-0.216
-454.997	-96.335	-0.093	0.025
-453.982	166.934	0.082	-0.116
-452.968	-135.360	0.134	-0.016
-451.953	83.600	0.176	0.192
-450.938	-125.594	-0.089	-0.014
-449.924	-37.366	-0.188	0.100
-448.909	800.000	0.052	0.178
-447.895	-15.758	-0.260	-0.166
-446.880	-103.598	-0.275	-0.065
-445.865	282.304	-0.169	0.302
-444.851	60.635	0.175	0.173
-443.836	78.639	-0.103	0.111
-442.822	154.668	0.065	0.089
-441.807	800.000	0.026	-0.090
-440.792	-23.917	-0.080	0.048
-439.778	-200.000	0.014	0.102
-438.763	-200.000	0.021	0.194
-437.749	-42.283	-0.324	0.166
-436.734	33.402	-0.286	0.248
-435.719	-171.632	0.318	0.011
-434.705	1.335	-0.131	-0.094
-433.690	-200.000	-0.008	-0.105
-432.676	29.282	-0.078	0.066
-431.661	-119.969	0.242	0.042
-430.646	50.390	0.231	0.218
-429.632	-26.706	-0.054	0.032
-428.617	-69.795	-0.068	-0.026
-427.603	134.205	-0.045	0.059
-426.588	-128.570	0.430	0.061
-425.573	56.890	-0.023	-0.023
-424.559	366.671	-0.131	-0.265
-423.544	699.100	-0.087	0.228
-422.530	-200.000	-0.018	-0.128
-421.515	-147.330	-0.217	-0.018
-420.500	176.627	-0.179	0.260
-419.486	395.549	-0.163	-0.340
-418.471	800.000	0.107	-0.404
-417.457	800.000	0.075	-0.274
-416.442	-200.000	-0.011	-0.312
-415.428	-25.997	0.216	0.127
-414.413	-49.709	-0.250	0.119
-413.398	104.502	-0.025	-0.030
-412.384	-200.000	-0.024	-0.243
-411.369	-28.428	-0.090	0.052
-410.355	-200.000	-0.036	0.296
-409.340	-1.822	0.098	-0.069
-408.325	101.770	-0.056	-0.065
-407.311	-98.925	-0.514	0.130
-406.296	433.766	0.109	0.237
-405.282	271.799	-0.091	-0.161
-404.267	473.885	0.030	-0.067
-403.252	109.522	-0.180	-0.216
-402.238	374.295	-0.116	0.237
-401.223	-88.615	-0.170	-0.051
-400.209	-200.000	-0.021	0.376
-399.194	-166.329	0.338	0.014
-398.179	-152.492	-0.170	-0.012
-397.165	18.619	0.206	-0.165
-396.150	-126.281	0.322	0.048
-395.136	22.020	-0.320	0.261
-394.121	243.182	0.154	-0.258
-393.106	31.720	-0.198	-0.170
-392.092	93.431	-0.127	0.144
-391.077	-104.621	-0.148	-0.034
-390.063	800.000	0.061	-0.235
-389.048	241.300	-0.172	0.286
-388.033	134.233	-0.199	0.257
-387.019	-46.469	0.149	0.073
-386.004	31.690	0.118	0.101
-384.990	84.522	-0.146	-0.160
-383.975	-138.084	0.440	-0.049
-382.960	-113.873	0.133	-0.026
-381.946	-200.000	-0.009	-0.154
-380.931	-200.000	0.059	-0.393
-379.917	800.000	-0.082	-0.255
-378.902	-200.000	-0.026	-0.332
-377.888	-127.022	0.190	0.028
-376.873	-125.796	0.186	0.028
-375.858	476.873	-0.107	0.242
-374.844	-200.000	-0.031	-0.300
-373.829	-200.000	0.005	-0.183
-372.815	-200.000	0.052	0.236
-371.800	800.000	0.107	-0.381
-370.785	389.680	0.069	0.142
-369.771	104.817	0.101	-0.119
-368.756	-66.341	0.318	-0.126
-367.742	-96.738	-0.329	-0.086
-366.727	-200.000	-0.017	-0.174
-365.712	800.000	-0.031	0.093
-364.698	-91.974	0.326	-0.092
-363.683	202.005	0.060	0.092
-362.669	85.743	0.147	-0.161
-361.654	-200.000	0.041	-0.270
-360.639	-104.719	-0.045	-0.010
-359.625	-61.273	0.113	-0.048
-358.610	-200.000	-0.003	0.064
-357.596	-66.262	0.285	-0.113
-356.581	-200.000	0.022	0.192
-355.566	-43.619	0.065	0.033
-354.552	94.465	-0.102	0.116
-353.537	-200.000	0.074	0.430
-352.523	-200.000	-0.012	0.258
-351.508	800.000	-0.027	0.089
-350.493	-54.795	0.359	-0.162
-349.479	-21.088	-0.332	0.203
-348.464	-103.698	-0.255	0.060
-347.450	-90.723	-0.215	-0.062
-346.435	-200.000	0.021	-0.181
-345.420	-17.700	0.386	0.242
-344.406	800.000	0.145	-0.432
-343.391	180.545	-0.111	0.163
-342.377	-181.630	0.078	-0.002
-341.362	119.552	0.133	-0.165
-340.348	76.362	-0.183	0.193
-339.333	267.416	0.218	0.380
-338.318	-200.000	-0.056	0.292
-337.304	28.619	0.151	0.127
-336.289	-162.522	-0.215	-0.011
-335.275	-200.000	-0.016	-0.150
-334.260	-29.602	-0.370	-0.210
-333.245	800.000	-0.101	0.337
-332.231	69.095	0.083	-0.085
-331.216	123.290	-0.145	-0.181
-330.202	-103.662	-0.176	0.041
-329.187	284.115	0.071	-0.127
-328.172	-9.747	-0.045	-0.030
-327.158	-200.000	0.036	0.327
-326.143	800.000	-0.055	0.191
-325.129	-101.779	-0.328	0.079
-324.114	27.882	0.034	-0.028
-323.099	-144.566	-0.407	-0.037
-322.085	548.529	-0.122	-0.291
-321.070	-200.000	-0.033	-0.459
-320.056	-80.645	0.081	0.027
-319.041	146.771	-0.055	-0.073
-318.026	-99.184	0.297	-0.075
-317.012	-24.002	-0.119	0.071
-315.997	188.574	-0.201	-0.300
-314.983	-172.481	0.133	-0.004
-313.968	800.000	-0.032	0.115
-312.953	-200.000	-0.007	0.095
-311.939	-200.000	-0.015	-0.073
-310.924	-190.504	-0.340	0.004
-309.910	-103.133	-0.320	0.075
-308.895	-7.719	0.112	-0.075
-307.880	1.924	0.145	0.104
-306.866	63.915	0.153	-0.153
-305.851	-56.565	0.071	0.031
-304.837	-200.000	0.023	0.240
-303.822	-12.195	-0.298	-0.194
-302.807	-200.000	0.132	-0.583
-301.793	427.057	-0.213	-0.457
-300.778	-12.634	-0.366	-0.238
-299.764	-40.578	-0.135	0.070
-298.749	40.315	-0.067	0.060
-297.735	-200.000	-0.012	0.089
-296.720	-139.263	-0.416	-0.045
-295.705	-54.392	0.319	-0.144
-294.691	-94.116	-0.101	0.028
-293.676	-61.491	0.184	0.077
-292.662	-200.000	0.002	0.012
-291.647	800.000	0.047	-0.146
-290.632	-200.000	0.001	-0.017
-289.618	-70.464	0.070	0.027
-288.603	72.825	0.135	0.140
-287.589	1.302	-0.109	-0.078
-286.574	-141.358	-0.158	-0.016
-285.559	-200.000	-0.007	-0.141
-284.545	70.340	0.202	-0.208
-283.530	148.770	0.209	-0.280
-282.516	9.736	0.145	0.109
-281.501	-42.068	0.025	0.013
-280.486	778.312	0.116	0.316
-279.472	440.350	0.097	0.211
-278.457	411.933	-0.046	-0.096
-277.443	-200.000	-0.038	-0.472
-276.428	-200.000	-0.032	0.189
-275.413	-200.000	-0.014	0.154
-274.399	34.666	0.108	0.093
-273.384	-115.410	0.430	0.081
-272.370	-200.000	0.036	-0.245
-271.355	107.762	-0.134	-0.159
-270.340	388.897	0.042	-0.087
-269.326	39.578	0.211	-0.188
-268.311	84.860	0.256	-0.279
-267.297	-12.392	0.357	0.232
-266.282	-129.891	0.268	0.037
-265.267	-200.000	-0.092	-0.535
-264.253	155.959	0.265	-0.363
-263.238	6.956	0.217	-0.161
-262.224	-9.912	-0.359	-0.238
-261.209	-138.327	0.349	-0.038
-260.195	-48.028	-0.239	0.115
-259.180	-140.835	-0.262	0.027
-258.165	-112.820	0.235	-0.046
-257.151	-23.617	0.327	0.195
-256.136	800.000	-0.085	-0.251
-255.122	64.685	-0.137	0.137
-254.107	547.443	-0.081	-0.192
-253.092	-110.298	0.369	-0.076
-252.078	-48.640	0.223	0.106
-251.063	-86.941	0.052	0.016
-250.049	191.197	-0.249	0.372
-249.034	454.136	0.035	0.076
-248.019	800.000	-0.094	-0.334
-247.005	800.000	0.049	0.206
-245.990	-97.352	-0.397	-0.103
-244.976	-200.000	0.014	0.143
-243.961	153.612	-0.035	0.047
-242.946	-104.672	0.231	0.053
-241.932	-200.000	0.021	-0.142
-240.917	800.000	0.013	0.037
-239.903	-28.723	-0.163	0.093
-238.888	141.872	0.068	0.090
-237.873	328.562	0.063	0.121
-236.859	-200.000	0.026	-0.156
-235.844	262.902	0.061	0.105
-234.830	-200.000	-0.014	-0.105
-233.815	-146.800	-0.281	-0.024
-232.800	-88.107	-0.069	-0.020
-231.786	-200.000	0.049	-0.223
-230.771	-200.000	0.021	-0.105
-229.757	535.294	0.099	-0.233
-228.742	-92.809	-0.194	-0.054
-227.727	-200.000	0.014	-0.129
-226.713	451.325	0.058	0.128
-225.698	213.678	-0.088	0.138
-224.684	-42.504	0.292	0.148
-223.669	59.569	0.130	0.127
-222.655	27.458	0.076	0.063
-221.640	28.013	-0.387	0.324
-220.625	-36.019	0.226	0.121
-219.611	83.853	0.082	-0.088
-218.596	-6.708	-0.333	0.225
-217.582	64.366	0.078	-0.078
-216.567	-35.248	-0.051	-0.027
-215.552	-149.863	-0.142	-0.011
-214.538	-200.000	-0.010	-0.191
-213.523	-200.000	-0.032	-0.210
-212.509	-138.577	0.319	0.035
-211.494	-200.000	0.012	-0.269
-210.479	214.105	0.129	-0.203
-209.465	-10.873	-0.191	-0.125
-208.450	-81.313	0.397	0.130
-207.436	655.071	0.074	0.189
-206.421	46.817	0.108	-0.100
-205.406	-200.000	-0.061	-0.324
-204.392	-200.000	0.045	0.000
-203.377	-119.257	-0.338	0.058
-202.363	-37.516	0.181	0.096
-201.348	-82.733	-0.241	0.077
-200.333	279.469	-0.201	0.356
-199.319	-50.843	0.099	0.046
-198.304	-200.000	0.005	0.324
-197.290	22.240	0.128	0.103
-196.275	-41.387	0.108	0.055
-195.260	-91.094	0.329	-0.094
-194.246	-109.846	-0.179	0.037
-193.231	-111.245	-0.132	-0.027
-192.217	163.210	-0.235	0.327
-191.202	-124.836	-0.443	0.068
-190.187	-131.996	-0.303	0.039
-189.173	800.000	0.039	0.152
-188.158	-127.453	0.506	-0.073
-187.144	31.980	0.202	0.172
-186.129	-126.268	0.054	0.008
-185.114	-169.291	0.482	0.018
-184.100	189.570	0.032	0.048
-183.085	-200.000	0.015	-0.153
-182.071	-200.000	0.010	-0.210
-181.056	-114.981	-0.151	-0.029
-180.042	-200.000	0.042	0.241
-179.027	-149.404	-0.339	0.027
-178.012	-200.000	-0.005	0.307
-176.998	-200.000	-0.045	0.413
-175.983	-75.988	-0.048	0.017
-174.969	-166.560	0.163	-0.007
-173.954	-181.111	0.181	-0.004
-172.939	-200.000	0.015	-0.218
-171.925	-200.000	0.118	-0.619
-170.910	695.801	0.120	0.311
-169.896	800.000	-0.062	0.193
-168.881	136.045	0.072	0.093
-167.866	-185.676	-0.347	0.005
-166.852	800.000	0.017	0.067
-165.837	236.436	0.094	-0.154
-164.823	-50.365	0.190	-0.089
-163.808	-17.916	0.229	-0.142
-162.793	315.213	0.039	-0.073
-161.779	222.758	-0.158	0.251
-160.764	7.829	-0.145	0.107
-159.750	156.138	-0.034	0.046
-158.735	800.000	-0.007	-0.030
-157.720	12.528	0.284	0.217
-156.706	-68.490	-0.294	-0.113
-155.691	15.295	-0.172	0.134
-154.677	800.000	0.074	0.233
-153.662	-29.033	-0.136	-0.077
-152.647	800.000	-0.064	0.268
-151.633	15.776	-0.173	0.134
-150.618	800.000	-0.088	-0.293
-149.604	9.745	0.214	0.161
-148.589	-135.594	0.214	0.025
-147.574	-88.900	-0.169	-0.049
-146.560	170.853	0.259	-0.367
-145.545	216.578	0.180	0.283
-144.531	216.892	0.134	0.211
-143.516	116.654	0.139	-0.168
-142.502	20.792	0.164	0.131
-141.487	-41.215	-0.231	-0.118
-140.472	-200.000	-0.005	-0.104
-139.458	-29.975	-0.108	0.061
-138.443	-200.000	0.057	-0.369
-137.429	347.893	-0.010	-0.019
-136.414	133.345	-0.293	0.375
-135.399	-200.000	-0.032	-0.302
-134.385	800.000	-0.150	0.426
-133.370	-71.035	0.425	-0.158
-132.356	-117.368	-0.294	0.053
-131.341	-127.394	0.215	-0.031
-130.326	28.636	-0.165	0.138
-129.312	110.485	-0.072	0.085
-128.297	-174.982	0.090	0.002
-127.283	60.068	-0.250	0.244
-126.268	575.849	0.046	-0.111
-125.253	-41.212	-0.080	0.041
-124.239	-70.115	0.154	0.058
-123.224	169.554	0.071	0.100
-122.210	761.665	-0.111	-0.298
