DTS Sentinel unit serial number:	SN413079Multiplexer serial number:	ORYXHardware model number:	OX4-SRSoftware version number:	ORYX F/W v4.00 Oryx Data Collector v3.7.2.0data status	okinstallation	princeton_trtdifferential loss correction	single-endedforward channel	channel 4reverse channel	N/Adate	2019/09/14time	22:33:35forward acquisition time	60.00reverse acquisition time	0.00gamma	496.2192k internal	0.2306k external	0.2306temperature offset calibration	1.0060default loss term (dB/km)	0.3790temperature slope calibration	1.0000multiplexer offset coefficient	1.0000multiplexer slope coefficient	1.0000fibre end	0.00T internal ref (°C)	32.55T ext. ref 1 (°C)	4.68T ext. ref 2 (°C)	27.53length (m)	temperature (°C)	Stokes	anti-Stokes-747.200	165.493	-0.011	-0.016
-746.185	-200.000	-0.038	0.235
-745.171	-82.717	0.335	0.110
-744.156	-200.000	0.008	0.220
-743.142	145.586	-0.157	-0.214
-742.127	800.000	-0.086	0.371
-741.112	-37.188	-0.036	0.020
-740.098	-114.280	-0.241	-0.047
-739.083	-145.742	0.213	-0.019
-738.069	-89.413	-0.314	0.094
-737.054	-200.000	-0.055	-0.301
-736.039	285.340	-0.214	-0.392
-735.025	715.536	0.135	-0.365
-734.010	800.000	0.076	-0.287
-732.996	113.914	-0.225	-0.279
-731.981	-100.807	-0.157	0.039
-730.966	175.629	-0.078	-0.114
-729.952	29.162	0.350	-0.302
-728.937	73.839	-0.101	0.107
-727.923	-78.341	-0.121	-0.042
-726.908	-200.000	0.020	-0.141
-725.894	368.583	-0.101	-0.208
-724.879	82.752	0.203	0.225
-723.864	-8.055	0.090	0.062
-722.850	80.546	0.133	-0.145
-721.835	-31.209	0.206	-0.118
-720.821	-94.100	-0.250	-0.070
-719.806	-38.988	0.084	-0.045
-718.791	-200.000	-0.056	-0.250
-717.777	800.000	-0.145	-0.449
-716.762	310.652	0.074	-0.141
-715.748	-184.498	0.270	0.004
-714.733	107.254	-0.045	-0.054
-713.718	36.346	0.109	-0.097
-712.704	-200.000	0.012	-0.083
-711.689	-129.805	-0.238	-0.033
-710.675	-32.531	0.063	0.036
-709.660	-87.758	-0.325	0.100
-708.645	-63.844	0.437	-0.182
-707.631	800.000	-0.045	-0.153
-706.616	54.708	-0.013	-0.012
-705.602	-200.000	0.017	0.208
-704.587	-200.000	-0.013	-0.079
-703.572	-71.326	-0.205	0.078
-702.558	114.513	0.077	-0.095
-701.543	93.295	-0.084	-0.096
-700.529	247.131	0.100	0.171
-699.514	75.496	0.304	0.326
-698.499	6.503	-0.245	-0.185
-697.485	74.842	-0.080	0.085
-696.470	-200.000	0.012	0.230
-695.456	419.804	-0.099	0.215
-694.441	-36.438	0.225	-0.123
-693.426	-91.159	0.292	0.085
-692.412	78.284	-0.134	0.145
-691.397	49.309	0.076	0.072
-690.383	145.416	-0.234	0.318
-689.368	800.000	-0.075	-0.222
-688.354	38.059	-0.156	-0.141
-687.339	263.671	0.114	0.202
-686.324	691.268	0.042	0.111
-685.310	-92.336	-0.237	0.068
-684.295	-83.695	-0.184	-0.060
-683.281	-200.000	0.039	0.211
-682.266	554.075	0.091	0.221
-681.251	138.360	-0.051	-0.069
-680.237	-156.326	-0.374	-0.024
-679.222	410.682	-0.050	-0.107
-678.208	69.463	0.242	-0.253
-677.193	758.335	-0.074	-0.202
-676.178	800.000	-0.055	-0.166
-675.164	-200.000	0.033	-0.304
-674.149	121.663	0.127	0.161
-673.135	-200.000	0.018	-0.119
-672.120	84.397	0.042	-0.047
-671.105	223.002	0.274	0.448
-670.091	-200.000	0.002	0.382
-669.076	299.014	0.084	-0.157
-668.062	-65.762	-0.091	-0.037
-667.047	228.362	-0.079	-0.130
-666.032	12.543	0.223	0.175
-665.018	572.554	-0.109	-0.269
-664.003	-9.801	0.312	-0.211
-662.989	482.942	-0.063	-0.145
-661.974	-60.727	-0.384	0.165
-660.959	-66.365	-0.115	0.046
-659.945	-200.000	-0.057	-0.379
-658.930	243.991	-0.117	0.199
-657.916	-136.710	0.018	-0.002
-656.901	-24.594	0.284	-0.172
-655.886	143.100	-0.147	0.198
-654.872	3.382	0.076	-0.056
-653.857	800.000	0.068	-0.283
-652.843	133.634	-0.273	0.358
-651.828	800.000	0.010	0.038
-650.814	-200.000	0.009	0.157
-649.799	-154.318	0.185	-0.013
-648.784	-200.000	-0.007	-0.061
-647.770	536.486	0.070	0.167
-646.755	-58.715	-0.012	0.005
-645.741	-200.000	-0.027	-0.416
-644.726	140.281	-0.079	-0.106
-643.711	-200.000	0.028	0.302
-642.697	-200.000	0.016	-0.111
-641.682	129.764	0.117	-0.152
-640.668	-159.059	0.315	-0.018
-639.653	800.000	-0.019	0.078
-638.638	-105.125	-0.562	-0.130
-637.624	734.972	-0.036	-0.098
-636.609	-200.000	-0.001	0.063
-635.595	77.208	-0.160	0.172
-634.580	-200.000	-0.005	0.063
-633.565	-33.191	0.292	0.164
-632.551	55.006	-0.165	-0.162
-631.536	-45.565	-0.163	-0.082
-630.522	29.610	0.098	0.084
-629.507	318.866	-0.032	-0.062
-628.492	57.561	0.047	-0.046
-627.478	-97.675	-0.136	-0.036
-626.463	-11.989	-0.311	0.207
-625.449	-97.920	0.161	-0.042
-624.434	-14.383	0.119	0.078
-623.419	-154.844	-0.142	0.009
-622.405	279.052	-0.034	0.062
-621.390	-66.360	-0.146	-0.059
-620.376	-200.000	0.037	-0.246
-619.361	638.209	-0.069	0.176
-618.346	-100.825	0.254	0.063
-617.332	-28.749	-0.182	0.106
-616.317	57.769	0.309	-0.306
-615.303	-2.999	0.131	0.093
-614.288	-87.995	-0.161	-0.049
-613.273	45.508	0.254	-0.238
-612.259	800.000	0.057	0.225
-611.244	800.000	-0.036	-0.152
-610.230	-149.419	-0.116	-0.009
-609.215	800.000	-0.101	0.333
-608.201	247.729	0.079	0.134
-607.186	-200.000	-0.025	0.135
-606.171	450.606	0.075	-0.167
-605.157	669.736	-0.108	0.283
-604.142	33.679	-0.149	-0.131
-603.128	-200.000	-0.062	-0.287
-602.113	-56.985	-0.250	-0.111
-601.098	599.268	0.071	-0.178
-600.084	-154.817	0.311	0.021
-599.069	-200.000	-0.009	-0.216
-598.055	29.786	-0.374	-0.322
-597.040	-67.644	0.312	0.124
-596.025	6.776	-0.225	-0.170
-595.011	409.584	-0.062	-0.132
-593.996	-145.248	0.253	-0.023
-592.982	-66.926	0.231	-0.092
-591.967	-100.719	0.244	-0.061
-590.952	115.557	0.112	0.139
-589.938	-200.000	-0.025	0.205
-588.923	-169.929	0.176	0.006
-587.909	-63.543	0.244	0.101
-586.894	139.129	0.083	0.110
-585.879	-31.153	-0.127	-0.072
-584.865	-85.702	0.261	-0.082
-583.850	-143.172	-0.082	-0.008
-582.836	121.541	0.036	0.045
-581.821	486.723	0.091	0.209
-580.806	103.085	0.116	-0.137
-579.792	-200.000	0.014	0.087
-578.777	-112.551	-0.135	0.027
-577.763	233.100	0.214	-0.355
-576.748	800.000	-0.050	0.192
-575.733	471.578	0.128	-0.292
-574.719	181.869	-0.126	0.188
-573.704	-200.000	-0.010	-0.121
-572.690	49.644	-0.039	-0.037
-571.675	-200.000	-0.018	0.115
-570.661	-119.758	-0.211	0.037
-569.646	663.563	-0.023	-0.059
-568.631	800.000	-0.087	0.309
-567.617	200.585	-0.124	-0.193
-566.602	44.687	0.300	-0.278
-565.588	800.000	-0.014	-0.053
-564.573	-85.540	-0.184	0.058
-563.558	220.788	0.099	0.161
-562.544	100.678	-0.061	0.072
-561.529	-0.120	0.173	-0.125
-560.515	-200.000	0.070	-0.365
-559.500	-167.026	0.065	0.003
-558.485	213.767	0.150	-0.240
-557.471	-13.875	0.122	0.080
-556.456	-63.174	0.143	0.060
-555.442	-56.837	-0.076	-0.034
-554.427	-87.417	-0.447	-0.137
-553.412	191.759	0.174	-0.266
-552.398	800.000	0.058	-0.243
-551.383	152.364	0.099	-0.136
-550.369	7.172	-0.032	-0.024
-549.354	62.720	0.088	-0.089
-548.339	48.149	-0.067	0.063
-547.325	80.217	0.110	-0.119
-546.310	-200.000	-0.006	0.043
-545.296	24.460	0.133	0.111
-544.281	-132.450	-0.263	-0.034
-543.266	-99.406	0.374	-0.095
-542.252	-115.970	0.232	0.044
-541.237	-200.000	-0.034	0.279
-540.223	-200.000	0.002	0.187
-539.208	-200.000	0.045	-0.265
-538.193	13.522	0.191	-0.150
-537.179	667.424	0.070	-0.183
-536.164	800.000	-0.062	-0.186
-535.150	-149.578	-0.391	-0.031
-534.135	-200.000	-0.019	0.108
-533.121	581.965	-0.061	-0.150
-532.106	-200.000	0.008	-0.096
-531.091	-200.000	-0.012	0.074
-530.077	-200.000	-0.042	-0.231
-529.062	-137.013	-0.252	0.029
-528.048	215.963	0.094	-0.150
-527.033	-77.037	0.093	0.033
-526.018	800.000	0.082	0.236
-525.004	14.831	-0.046	-0.036
-523.989	-83.891	-0.185	0.059
-522.975	137.349	0.142	-0.188
-521.960	-190.601	0.080	0.001
-520.945	-200.000	-0.030	0.217
-519.931	-101.952	0.291	0.071
-518.916	800.000	-0.048	0.181
-517.902	-35.836	0.284	-0.155
-516.887	-200.000	0.063	-0.000
-515.872	61.808	0.092	0.092
-514.858	513.064	0.148	0.347
-513.843	-43.791	0.241	-0.123
-512.829	-200.000	0.024	0.201
-511.814	321.279	0.117	0.225
-510.799	-78.056	0.015	0.005
-509.785	155.749	0.111	-0.154
-508.770	-69.806	-0.106	-0.041
-507.756	416.417	0.134	0.289
-506.741	-200.000	0.020	-0.200
-505.726	-108.639	0.058	0.013
-504.712	151.092	-0.090	0.123
-503.697	544.369	0.019	-0.046
-502.683	-169.635	-0.223	-0.008
-501.668	54.166	-0.263	-0.255
-500.653	35.947	0.215	0.191
-499.639	-162.461	-0.393	-0.020
-498.624	7.087	-0.049	-0.037
-497.610	800.000	0.055	-0.189
-496.595	-22.401	-0.100	0.061
-495.581	800.000	0.012	-0.046
-494.566	-24.728	-0.237	-0.142
-493.551	800.000	0.042	-0.120
-492.537	41.493	-0.200	-0.183
-491.522	-200.000	-0.035	0.219
-490.508	-97.518	0.043	-0.011
-489.493	174.108	-0.130	0.189
-488.478	-200.000	0.049	-0.358
-487.464	204.492	0.262	0.409
-486.449	-26.481	0.166	-0.098
-485.435	-86.880	-0.477	0.147
-484.420	130.809	-0.167	0.215
-483.405	16.669	-0.197	-0.157
-482.391	54.590	0.154	-0.149
-481.376	9.766	0.145	0.111
-480.362	17.435	-0.078	0.062
-479.347	800.000	0.057	0.187
-478.332	-200.000	0.012	0.082
-477.318	800.000	-0.046	0.184
-476.303	35.052	0.111	0.097
-475.289	-26.120	-0.116	-0.069
-474.274	-20.894	0.208	-0.129
-473.259	6.980	0.217	0.163
-472.245	800.000	-0.057	-0.170
-471.230	800.000	0.050	-0.141
-470.216	371.282	-0.074	-0.152
-469.201	-122.330	0.251	0.041
-468.186	-200.000	-0.087	0.000
-467.172	21.177	-0.197	-0.161
-466.157	-200.000	0.016	0.130
-465.143	-98.332	-0.156	-0.040
-464.128	800.000	0.069	0.246
-463.113	87.147	0.095	0.105
-462.099	403.174	-0.092	0.194
-461.084	40.153	0.209	0.189
-460.070	182.154	-0.100	0.148
-459.055	35.679	0.081	-0.071
-458.040	-75.619	-0.184	-0.066
-457.026	-88.571	0.091	-0.027
-456.011	-200.000	-0.007	0.411
-454.997	-84.415	-0.069	0.022
-453.982	51.084	-0.261	-0.249
-452.968	-107.962	-0.187	-0.041
-451.953	64.546	0.242	-0.245
-450.938	192.269	-0.139	0.211
-449.924	-200.000	0.040	0.192
-448.909	30.847	-0.071	0.061
-447.895	-182.538	-0.363	0.007
-446.880	-99.084	-0.247	0.063
-445.865	123.114	-0.165	0.207
-444.851	203.059	-0.119	0.185
-443.836	156.951	0.119	-0.165
-442.822	-36.524	-0.135	0.073
-441.807	37.036	-0.122	-0.109
-440.792	-34.456	-0.159	-0.088
-439.778	800.000	-0.038	-0.158
-438.763	82.423	-0.059	-0.064
-437.749	-15.812	-0.278	-0.178
-436.734	-21.422	-0.218	0.134
-435.719	-136.791	0.172	-0.020
-434.705	81.897	0.127	0.138
-433.690	-157.537	-0.074	-0.004
-432.676	-32.662	-0.162	-0.090
-431.661	179.374	-0.140	0.205
-430.646	800.000	0.020	0.069
-429.632	137.505	0.152	0.200
-428.617	27.365	-0.058	-0.049
-427.603	163.819	0.013	0.019
-426.588	172.880	0.148	-0.215
-425.573	800.000	0.122	0.370
-424.559	-41.450	-0.301	0.156
-423.544	-200.000	0.088	0.390
-422.530	-22.524	0.216	-0.131
-421.515	-169.629	-0.317	-0.012
-420.500	-98.954	-0.266	-0.068
-419.486	0.543	-0.136	0.097
-418.471	-108.505	0.367	-0.079
-417.457	553.647	0.095	0.229
-416.442	72.462	0.339	-0.355
-415.428	-52.617	-0.151	0.070
-414.413	-200.000	-0.058	-0.269
-413.398	14.809	-0.035	0.028
-412.384	263.175	0.121	0.211
-411.369	-89.601	-0.094	-0.028
-410.355	800.000	-0.092	-0.308
-409.340	-200.000	0.028	-0.192
-408.325	-200.000	-0.004	-0.121
-407.311	515.950	0.114	0.267
-406.296	-200.000	0.016	0.096
-405.282	-101.152	0.168	-0.041
-404.267	-200.000	-0.037	0.425
-403.252	-200.000	0.010	0.251
-402.238	92.992	-0.076	0.086
-401.223	800.000	0.065	0.237
-400.209	191.815	-0.160	0.242
-399.194	30.979	0.044	0.038
-398.179	-200.000	0.016	-0.224
-397.165	-4.114	-0.148	-0.103
-396.150	-30.057	0.161	-0.092
-395.136	-200.000	0.041	0.355
-394.121	-71.404	0.219	-0.082
-393.106	473.051	-0.122	-0.276
-392.092	-8.490	0.220	-0.148
-391.077	-200.000	-0.049	-0.241
-390.063	-125.556	-0.295	0.045
-389.048	-200.000	-0.010	0.331
-388.033	-94.531	-0.133	0.036
-387.019	-177.639	-0.281	0.007
-386.004	-95.393	0.274	-0.074
-384.990	-97.304	-0.234	-0.061
-383.975	42.864	0.069	-0.063
-382.960	800.000	0.010	0.028
-381.946	652.436	-0.131	-0.336
-380.931	-99.093	0.168	0.043
-379.917	-46.130	-0.261	0.129
-378.902	261.665	-0.012	0.020
-377.888	-52.974	-0.114	0.053
-376.873	-74.717	0.080	0.029
-375.858	166.514	0.126	-0.179
-374.844	-87.818	0.310	-0.094
-373.829	-200.000	0.049	-0.498
-372.815	-125.138	0.158	-0.024
-371.800	139.565	-0.163	0.216
-370.785	800.000	0.060	0.237
-369.771	-110.407	-0.288	0.060
-368.756	77.887	-0.190	-0.203
-367.742	367.828	0.166	0.336
-366.727	-2.748	0.148	0.104
-365.712	578.000	-0.200	0.489
-364.698	54.334	-0.119	0.115
-363.683	-85.135	0.163	0.051
-362.669	28.903	0.270	-0.230
-361.654	-21.985	0.274	-0.167
-360.639	-200.000	-0.005	-0.146
-359.625	-94.820	-0.187	0.051
-358.610	-35.752	0.279	0.152
-357.596	-10.841	-0.037	0.024
-356.581	287.419	-0.119	-0.216
-355.566	160.724	0.170	-0.238
-354.552	575.210	0.040	-0.097
-353.537	-90.429	0.231	-0.067
-352.523	-159.516	-0.144	-0.008
-351.508	-77.633	0.241	-0.084
-350.493	-91.637	0.388	-0.111
-349.479	-180.263	-0.467	-0.010
-348.464	176.348	-0.069	0.101
-347.450	42.230	0.101	-0.092
-346.435	247.542	0.074	0.125
-345.420	800.000	-0.067	0.230
-344.406	-200.000	-0.027	-0.153
-343.391	103.923	0.177	0.209
-342.377	40.946	0.240	0.217
-341.362	167.613	0.038	-0.054
-340.348	-11.142	-0.228	-0.150
-339.333	-121.227	0.197	0.033
-338.318	-47.004	-0.235	0.115
-337.304	-200.000	-0.014	0.124
-336.289	295.149	0.102	-0.187
-335.275	341.580	0.168	0.329
-334.260	103.054	0.230	0.270
-333.245	-200.000	0.006	0.210
-332.231	-200.000	-0.000	-0.034
-331.216	131.112	-0.109	0.140
-330.202	-24.325	-0.071	-0.042
-329.187	358.946	-0.086	-0.172
-328.172	-121.905	-0.214	-0.035
-327.158	-78.195	-0.297	0.102
-326.143	505.056	0.100	0.231
-325.129	-130.261	-0.300	-0.041
-324.114	-200.000	0.003	-0.029
-323.099	-32.190	-0.343	-0.192
-322.085	141.007	-0.163	0.216
-321.070	-157.718	0.254	-0.015
-320.056	69.422	-0.197	-0.203
-319.041	43.409	0.107	-0.098
-318.026	-200.000	-0.005	0.205
-317.012	-110.558	0.110	-0.023
-315.997	-200.000	0.024	0.154
-314.983	293.271	-0.149	-0.273
-313.968	79.178	0.095	0.101
-312.953	-200.000	-0.034	-0.407
-311.939	512.709	-0.070	0.162
-310.924	-200.000	0.061	0.507
-309.910	-200.000	0.011	-0.233
-308.895	-200.000	0.007	-0.244
-307.880	-157.791	0.390	-0.023
-306.866	69.396	-0.067	-0.069
-305.851	-121.229	-0.082	-0.014
-304.837	30.103	-0.121	0.104
-303.822	-113.103	0.064	0.013
-302.807	26.761	0.143	-0.120
-301.793	-200.000	0.070	-0.362
-300.778	-105.914	-0.282	0.063
-299.764	-153.414	0.038	-0.003
-298.749	368.499	0.047	-0.096
-297.735	121.242	-0.211	-0.262
-296.720	-95.111	0.118	0.032
-295.705	-123.235	0.205	-0.033
-294.691	-200.000	0.026	-0.363
-293.676	-74.490	0.286	0.103
-292.662	-146.536	-0.343	0.030
-291.647	99.774	0.359	-0.416
-290.632	-200.000	-0.051	0.251
-289.618	-138.499	-0.517	0.057
-288.603	337.313	-0.015	-0.028
-287.589	-6.755	-0.247	-0.168
-286.574	113.077	0.206	0.249
-285.559	-33.301	0.299	0.165
-284.545	-200.000	0.015	-0.126
-283.530	436.308	-0.061	0.133
-282.516	-7.781	0.387	-0.261
-281.501	-119.459	0.382	-0.066
-280.486	800.000	-0.064	-0.220
-279.472	331.287	-0.092	-0.178
-278.457	-118.393	-0.477	0.085
-277.443	214.043	0.171	-0.270
-276.428	-57.166	0.148	0.065
-275.413	-197.336	-0.163	-0.001
-274.399	-162.554	-0.319	0.016
-273.384	369.056	-0.071	-0.144
-272.370	25.651	0.080	0.066
-271.355	146.141	-0.150	0.201
-270.340	-20.928	-0.200	-0.122
-269.326	81.017	-0.107	-0.115
-268.311	800.000	-0.089	-0.268
-267.297	-110.697	-0.087	0.018
-266.282	-91.726	-0.177	0.050
-265.267	800.000	0.054	0.166
-264.253	-200.000	-0.046	-0.333
-263.238	-74.826	-0.430	-0.154
-262.224	-105.339	0.135	-0.031
-261.209	104.228	0.036	-0.043
-260.195	-200.000	0.012	-0.113
-259.180	800.000	0.010	0.032
-258.165	-52.830	-0.286	0.132
-257.151	146.028	-0.085	0.114
-256.136	47.833	0.241	0.225
-255.122	31.575	0.159	-0.137
-254.107	-88.616	-0.199	-0.059
-253.092	-200.000	-0.017	0.194
-252.078	-112.349	-0.416	0.083
-251.063	-35.678	-0.141	0.076
-250.049	116.815	0.132	-0.162
-249.034	-200.000	0.006	-0.120
-248.019	-122.732	0.067	0.011
-247.005	-59.790	-0.144	-0.061
-245.990	5.860	0.137	-0.101
-244.976	598.091	-0.032	-0.080
-243.961	-105.600	0.122	-0.028
-242.946	-150.029	-0.155	-0.012
-241.932	118.825	0.064	-0.079
-240.917	800.000	0.094	0.397
-239.903	-106.446	-0.143	-0.032
-238.888	-156.463	0.186	-0.012
-237.873	-90.180	-0.174	0.050
-236.859	-154.862	0.237	0.016
-235.844	-43.812	-0.129	0.065
-234.830	178.087	-0.161	0.235
-233.815	158.027	-0.090	0.125
-232.800	800.000	-0.060	-0.235
-231.786	-142.893	0.366	-0.035
-230.771	-200.000	-0.007	0.439
-229.757	-72.038	0.075	-0.028
-228.742	199.391	0.176	-0.270
-227.727	-33.156	0.264	0.146
-226.713	-200.000	0.039	0.245
-225.698	116.185	0.236	0.288
-224.684	12.176	0.079	0.060
-223.669	-92.959	0.392	-0.109
-222.655	260.775	0.021	-0.036
-221.640	-117.702	-0.350	0.063
-220.625	-192.207	-0.173	0.002
-219.611	-106.078	-0.168	0.038
-218.596	-74.970	0.275	0.098
-217.582	-145.328	0.089	0.008
-216.567	20.556	0.172	-0.139
-215.552	-108.702	-0.118	0.025
-214.538	442.363	-0.073	-0.160
-213.523	295.435	0.092	-0.168
-212.509	-111.619	-0.148	0.030
-211.494	-50.442	0.034	0.016
-210.479	-20.659	0.248	-0.152
-209.465	-200.000	-0.014	0.229
-208.450	-99.499	-0.108	-0.027
-207.436	57.143	0.243	0.237
-206.421	123.766	-0.027	-0.034
-205.406	800.000	0.058	-0.176
-204.392	-200.000	0.023	-0.165
-203.377	800.000	-0.077	0.322
-202.363	-200.000	-0.031	0.400
-201.348	-7.107	0.295	-0.200
-200.333	-200.000	-0.021	0.182
-199.319	-34.170	0.461	-0.252
-198.304	-85.003	-0.288	0.090
-197.290	-71.376	-0.207	-0.077
-196.275	-200.000	-0.037	-0.326
-195.260	-200.000	0.002	-0.044
-194.246	92.753	0.109	0.122
-193.231	-73.051	-0.432	0.158
-192.217	267.719	-0.122	-0.212
-191.202	258.413	0.111	0.190
-190.187	-18.735	-0.397	-0.246
-189.173	156.519	-0.109	-0.150
-188.158	750.642	0.050	0.134
-187.144	-200.000	-0.026	-0.170
-186.129	335.672	-0.057	0.110
-185.114	40.542	0.112	0.101
-184.100	-200.000	-0.034	-0.162
-183.085	209.213	-0.128	-0.199
-182.071	-200.000	0.023	0.396
-181.056	354.455	0.063	0.125
-180.042	-200.000	0.091	-0.439
-179.027	-200.000	0.005	0.186
-178.012	214.961	-0.161	0.254
-176.998	-114.237	0.046	-0.009
-175.983	656.372	0.090	0.230
-174.969	-93.718	-0.120	-0.033
-173.954	-16.768	-0.043	0.027
-172.939	-61.588	-0.281	0.117
-171.925	-79.180	0.331	-0.112
-170.910	172.176	0.218	-0.312
-169.896	-147.528	0.064	-0.005
-168.881	-17.391	0.259	0.162
-167.866	179.729	-0.098	-0.143
-166.852	800.000	-0.056	0.176
-165.837	231.913	0.129	0.211
-164.823	153.983	-0.040	0.055
-163.808	-73.339	0.133	-0.048
-162.793	-200.000	0.005	-0.227
-161.779	-20.048	0.411	0.252
-160.764	800.000	0.030	-0.086
-159.750	-77.132	-0.195	0.068
-158.735	-200.000	0.038	0.196
-157.720	-38.939	-0.336	0.176
-156.706	41.837	-0.161	0.146
-155.691	-10.723	0.237	-0.156
-154.677	-73.595	0.171	0.062
-153.662	456.243	-0.127	-0.280
-152.647	-200.000	0.141	0.001
-151.633	-200.000	0.007	0.168
-150.618	-38.493	-0.060	0.032
-149.604	365.250	0.127	0.255
-148.589	-82.387	-0.190	0.062
-147.574	-86.330	-0.028	0.009
-146.560	25.042	0.070	0.058
-145.545	47.510	0.198	0.184
-144.531	303.546	0.162	-0.299
-143.516	84.827	0.123	-0.134
-142.502	50.395	-0.261	-0.246
-141.487	7.937	0.051	-0.038
-140.472	-200.000	0.023	0.138
-139.458	-158.849	0.238	-0.013
-138.443	217.572	-0.149	-0.236
-137.429	800.000	-0.095	0.289
-136.414	-12.981	0.190	0.123
-135.399	-200.000	0.032	-0.174
-134.385	-113.267	0.135	0.026
-133.370	41.419	0.019	0.017
-132.356	800.000	0.062	-0.215
-131.341	402.141	-0.096	0.199
-130.326	-33.520	0.183	-0.100
-129.312	-53.852	-0.084	-0.038
-128.297	628.257	-0.007	-0.017
-127.283	-102.885	0.279	0.066
-126.268	-60.483	-0.193	0.082
-125.253	-200.000	0.048	-0.377
-124.239	70.126	0.268	0.275
-123.224	407.297	-0.180	0.377
-122.210	-200.000	-0.004	0.118
-121.195	198.958	0.062	-0.094
