DTS Sentinel unit serial number:	SN413079Multiplexer serial number:	ORYXHardware model number:	OX4-SRSoftware version number:	ORYX F/W v4.00 Oryx Data Collector v3.7.2.0data status	okinstallation	princeton_trtdifferential loss correction	single-endedforward channel	channel 4reverse channel	N/Adate	2019/09/16time	18:09:35forward acquisition time	60.00reverse acquisition time	0.00gamma	496.2192k internal	0.2300k external	0.2300temperature offset calibration	0.9950default loss term (dB/km)	0.3790temperature slope calibration	1.0000multiplexer offset coefficient	1.0000multiplexer slope coefficient	1.0000fibre end	0.00T internal ref (°C)	37.33T ext. ref 1 (°C)	15.71T ext. ref 2 (°C)	30.92length (m)	temperature (°C)	Stokes	anti-Stokes-747.200	2.173	-0.194	0.143
-746.185	527.116	-0.093	0.225
-745.171	-8.326	-0.061	-0.042
-744.156	21.900	-0.182	-0.151
-743.142	60.871	0.192	0.194
-742.127	-200.000	-0.021	0.187
-741.112	419.803	0.155	-0.339
-740.098	-65.818	-0.162	0.066
-739.083	800.000	0.040	0.140
-738.069	441.107	-0.203	0.453
-737.054	800.000	-0.046	-0.146
-736.039	-35.475	-0.399	-0.221
-735.025	-57.052	0.090	0.041
-734.010	64.672	0.107	-0.110
-732.996	-64.812	-0.299	0.123
-731.981	800.000	-0.041	-0.163
-730.966	-200.000	-0.003	-0.129
-729.952	800.000	-0.025	-0.108
-728.937	170.474	-0.119	-0.174
-727.923	800.000	-0.077	0.226
-726.908	31.586	-0.254	0.222
-725.894	-98.330	-0.215	0.056
-724.879	87.978	-0.147	-0.166
-723.864	743.163	-0.111	-0.304
-722.850	719.183	0.078	0.210
-721.835	-200.000	-0.006	-0.137
-720.821	-4.217	0.117	0.082
-719.806	-200.000	0.008	-0.164
-718.791	800.000	-0.051	-0.166
-717.777	-200.000	-0.006	0.161
-716.762	184.072	0.027	0.041
-715.748	31.256	0.127	0.111
-714.733	167.461	0.238	-0.345
-713.718	800.000	0.033	0.126
-712.704	-183.186	0.070	0.001
-711.689	59.164	-0.030	0.030
-710.675	169.249	-0.169	-0.246
-709.660	-15.890	0.166	0.108
-708.645	364.562	0.142	0.291
-707.631	384.773	-0.115	-0.240
-706.616	23.191	0.092	0.077
-705.602	800.000	0.048	-0.142
-704.587	-200.000	0.002	0.267
-703.572	63.178	0.090	-0.092
-702.558	-59.091	-0.335	-0.147
-701.543	-83.513	0.199	-0.065
-700.529	224.671	0.053	0.087
-699.514	-200.000	0.026	-0.213
-698.499	-58.709	-0.056	-0.025
-697.485	-101.193	0.260	-0.065
-696.470	601.659	-0.138	0.349
-695.456	18.294	0.318	0.258
-694.441	-168.541	-0.109	0.004
-693.426	-11.554	0.254	0.170
-692.412	117.779	0.180	-0.226
-691.397	-103.225	0.277	0.067
-690.383	-182.262	0.028	0.001
-689.368	-21.821	-0.147	-0.091
-688.354	55.788	-0.046	0.045
-687.339	-76.596	-0.217	0.078
-686.324	263.239	0.117	-0.207
-685.310	461.495	-0.115	-0.262
-684.295	-200.000	-0.182	0.001
-683.281	-64.786	0.257	-0.106
-682.266	65.917	-0.111	0.115
-681.251	79.233	0.207	-0.226
-680.237	800.000	-0.076	-0.223
-679.222	-200.000	-0.045	-0.294
-678.208	-82.859	-0.305	-0.100
-677.193	-82.367	0.171	-0.056
-676.178	800.000	0.029	0.113
-675.164	-200.000	0.066	0.400
-674.149	360.237	0.073	-0.148
-673.135	35.272	0.078	-0.069
-672.120	-107.349	0.213	-0.048
-671.105	800.000	-0.016	-0.047
-670.091	-200.000	-0.001	0.133
-669.076	123.561	0.157	-0.201
-668.062	263.412	0.120	-0.212
-667.047	12.667	-0.323	-0.254
-666.032	24.824	0.107	-0.090
-665.018	-23.216	-0.271	0.166
-664.003	-200.000	-0.027	0.230
-662.989	-55.441	-0.308	0.140
-661.974	800.000	-0.021	0.076
-660.959	95.024	-0.160	0.185
-659.945	800.000	-0.034	0.124
-658.930	-200.000	0.008	-0.247
-657.916	-200.000	-0.000	-0.128
-656.901	-76.195	-0.129	-0.046
-655.886	-121.675	0.189	-0.032
-654.872	195.468	0.101	0.155
-653.857	497.535	-0.049	0.115
-652.843	306.711	0.119	-0.225
-651.828	-200.000	0.022	0.099
-650.814	-24.641	-0.402	0.243
-649.799	-75.784	-0.027	-0.010
-648.784	-85.936	0.086	-0.027
-647.770	-36.998	0.171	-0.093
-646.755	-200.000	-0.022	0.183
-645.741	77.933	-0.051	-0.056
-644.726	-97.471	-0.225	-0.059
-643.711	-200.000	0.076	0.486
-642.697	800.000	0.010	0.039
-641.682	800.000	-0.084	0.248
-640.668	78.624	-0.161	-0.174
-639.653	-200.000	-0.026	-0.158
-638.638	800.000	0.061	0.262
-637.624	-147.450	0.082	0.007
-636.609	29.079	-0.082	-0.071
-635.595	-105.108	-0.100	-0.023
-634.580	-131.908	-0.303	-0.040
-633.565	800.000	-0.097	0.382
-632.551	-200.000	-0.065	0.369
-631.536	15.581	0.420	-0.335
-630.522	800.000	-0.047	-0.153
-629.507	221.399	0.145	-0.236
-628.492	-199.425	0.109	-0.001
-627.478	-113.695	0.193	0.038
-626.463	-27.846	-0.307	0.181
-625.449	136.370	-0.055	0.073
-624.434	195.875	0.125	0.193
-623.419	-93.634	0.097	-0.027
-622.405	-120.677	-0.201	0.035
-621.390	-200.000	-0.008	0.238
-620.376	-104.674	0.467	-0.109
-619.361	-200.000	0.015	-0.397
-618.346	-92.294	-0.269	-0.077
-617.332	227.969	-0.106	-0.175
-616.317	-1.843	-0.130	0.093
-615.303	-200.000	0.008	-0.095
-614.288	629.660	-0.108	-0.277
-613.273	558.076	0.180	-0.441
-612.259	-200.000	-0.034	-0.206
-611.244	-200.000	-0.028	-0.170
-610.230	-84.807	0.285	-0.091
-609.215	-52.213	-0.331	0.156
-608.201	-200.000	-0.026	-0.138
-607.186	-84.450	-0.379	0.121
-606.171	469.683	-0.087	0.197
-605.157	-94.274	0.147	-0.041
-604.142	-121.661	0.201	-0.034
-603.128	-200.000	-0.038	-0.200
-602.113	-25.234	-0.143	0.086
-601.098	-31.518	-0.330	-0.188
-600.084	-123.575	0.337	-0.054
-599.069	172.802	-0.045	-0.066
-598.055	-99.882	0.178	0.045
-597.040	-113.113	0.143	0.029
-596.025	-163.813	0.109	-0.005
-595.011	497.876	0.077	0.180
-593.996	381.777	0.168	-0.350
-592.982	800.000	0.014	-0.047
-591.967	-20.420	0.103	-0.064
-590.952	25.405	0.073	0.061
-589.938	-5.072	-0.164	0.114
-588.923	-200.000	-0.006	-0.161
-587.909	275.335	0.109	0.196
-586.894	-200.000	0.026	0.184
-585.879	46.358	0.317	0.298
-584.865	-60.129	0.230	0.099
-583.850	-139.682	-0.272	-0.029
-582.836	-3.546	0.202	-0.142
-581.821	280.108	-0.086	0.155
-580.806	155.669	-0.046	0.064
-579.792	800.000	-0.054	-0.235
-578.777	-50.419	-0.102	0.049
-577.763	340.938	0.050	-0.100
-576.748	800.000	0.038	-0.162
-575.733	-83.847	-0.235	-0.076
-574.719	193.918	0.085	-0.131
-573.704	119.001	0.074	-0.092
-572.690	-200.000	-0.007	0.506
-571.675	-82.700	-0.386	0.127
-570.661	371.026	0.207	-0.426
-569.646	9.759	-0.206	-0.158
-568.631	-88.554	-0.137	0.041
-567.617	-64.465	0.176	-0.072
-566.602	-200.000	-0.022	-0.219
-565.588	-21.432	-0.173	0.107
-564.573	-200.000	-0.030	0.231
-563.558	22.385	0.131	0.109
-562.544	800.000	-0.074	0.269
-561.529	800.000	0.043	0.135
-560.515	89.529	-0.027	-0.031
-559.500	800.000	0.030	0.103
-558.485	-126.295	-0.233	0.035
-557.471	-200.000	0.003	0.197
-556.456	176.446	-0.153	-0.226
-555.442	-160.265	-0.092	-0.005
-554.427	800.000	0.059	0.240
-553.412	468.038	0.082	-0.187
-552.398	-82.001	0.408	0.135
-551.383	-45.983	0.170	-0.085
-550.369	-74.652	0.165	0.060
-549.354	-137.679	0.095	-0.011
-548.339	-138.168	-0.209	0.024
-547.325	-200.000	-0.005	-0.123
-546.310	-47.070	0.224	0.111
-545.296	-200.000	-0.007	0.103
-544.281	97.655	0.123	-0.143
-543.266	-143.443	-0.227	-0.022
-542.252	-42.616	-0.123	-0.063
-541.237	82.282	0.107	-0.117
-540.223	4.906	0.237	-0.176
-539.208	395.490	-0.040	0.085
-538.193	-43.192	-0.104	0.053
-537.179	-83.451	0.074	-0.024
-536.164	-200.000	0.033	0.300
-535.150	-2.496	-0.296	-0.209
-534.135	-18.368	0.131	-0.083
-533.121	-51.616	0.258	-0.122
-532.106	-12.563	0.315	-0.208
-531.091	260.979	-0.169	0.297
-530.077	800.000	0.058	0.174
-529.062	-200.000	0.002	0.030
-528.048	271.790	0.165	-0.294
-527.033	10.968	-0.089	0.069
-526.018	-200.000	-0.008	-0.101
-525.004	50.027	0.304	-0.290
-523.989	223.007	-0.060	-0.099
-522.975	-11.510	-0.023	0.015
-521.960	-88.636	-0.101	-0.030
-520.945	-70.472	-0.254	-0.097
-519.931	98.184	-0.234	0.273
-518.916	437.944	0.064	0.141
-517.902	66.140	-0.174	0.179
-516.887	262.042	0.083	-0.145
-515.872	-200.000	0.039	-0.240
-514.858	-130.882	-0.300	0.041
-513.843	-73.865	0.085	-0.031
-512.829	-22.753	-0.189	0.115
-511.814	-200.000	0.009	-0.209
-510.799	-3.888	-0.100	0.070
-509.785	215.124	0.168	0.269
-508.770	-123.073	0.278	-0.045
-507.756	-66.108	0.228	-0.092
-506.741	-10.751	0.074	0.050
-505.726	-28.894	-0.177	0.103
-504.712	-200.000	-0.027	-0.246
-503.697	228.627	-0.118	-0.194
-502.683	393.183	0.042	-0.088
-501.668	-130.525	0.219	0.030
-500.653	-92.627	-0.080	-0.023
-499.639	46.519	-0.145	0.136
-498.624	42.188	-0.241	-0.221
-497.610	8.289	0.157	0.120
-496.595	-7.678	-0.252	0.172
-495.581	266.882	-0.106	0.187
-494.566	-145.393	-0.247	-0.023
-493.551	-99.268	-0.229	-0.058
-492.537	-134.170	0.099	-0.012
-491.522	-7.912	-0.383	-0.261
-490.508	-53.288	0.414	0.192
-489.493	-56.069	-0.114	0.051
-488.478	2.721	-0.038	-0.028
-487.464	-200.000	0.029	0.162
-486.449	616.634	-0.081	0.206
-485.435	65.780	0.103	0.105
-484.420	-200.000	-0.046	0.225
-483.405	392.850	0.096	-0.201
-482.391	117.789	0.059	-0.074
-481.376	-200.000	-0.057	-0.306
-480.362	-24.092	-0.262	0.158
-479.347	-100.296	-0.207	0.052
-478.332	-200.000	0.029	0.314
-477.318	-26.084	-0.144	0.086
-476.303	16.106	0.170	0.135
-475.289	-200.000	0.001	0.022
-474.274	-100.848	0.065	0.016
-473.259	-45.888	-0.106	0.053
-472.245	-104.311	0.137	0.032
-471.230	-11.464	-0.285	-0.189
-470.216	-150.795	0.180	-0.014
-469.201	350.910	-0.160	0.320
-468.186	-200.000	-0.036	-0.401
-467.172	240.351	0.132	-0.222
-466.157	-140.492	-0.082	-0.009
-465.143	384.023	0.099	-0.205
-464.128	-69.838	-0.246	-0.095
-463.113	800.000	-0.070	0.234
-462.099	27.397	0.216	-0.183
-461.084	309.817	0.080	-0.152
-460.070	139.765	-0.067	0.089
-459.055	-131.622	-0.251	0.033
-458.040	-102.892	-0.087	0.021
-457.026	14.179	-0.078	-0.062
-456.011	-21.110	-0.272	-0.168
-454.997	-200.000	0.030	0.287
-453.982	-91.433	-0.034	0.010
-452.968	-86.164	0.084	-0.026
-451.953	-66.404	-0.123	-0.049
-450.938	53.669	-0.103	0.099
-449.924	-153.412	0.247	-0.017
-448.909	404.268	0.076	0.162
-447.895	-110.494	-0.098	0.020
-446.880	-46.565	0.099	-0.049
-445.865	-60.503	0.259	-0.111
-444.851	384.969	0.081	0.168
-443.836	-1.519	0.165	0.117
-442.822	569.638	-0.011	-0.027
-441.807	-64.530	-0.172	0.070
-440.792	-72.100	0.221	-0.083
-439.778	-119.863	0.248	0.043
-438.763	129.254	0.120	0.154
-437.749	-200.000	-0.050	0.284
-436.734	36.240	0.161	0.143
-435.719	3.178	0.026	-0.019
-434.705	41.708	0.101	-0.092
-433.690	-116.245	0.343	0.064
-432.676	12.743	-0.102	-0.079
-431.661	61.833	-0.132	-0.133
-430.646	318.149	-0.077	-0.146
-429.632	-69.585	0.489	-0.189
-428.617	800.000	-0.024	0.078
-427.603	740.478	0.136	0.368
-426.588	-200.000	0.001	0.221
-425.573	334.283	-0.102	-0.198
-424.559	-98.665	-0.211	-0.054
-423.544	418.592	0.117	0.253
-422.530	163.590	-0.129	0.183
-421.515	449.053	-0.039	-0.086
-420.500	-106.515	0.173	-0.039
-419.486	308.908	-0.130	0.245
-418.471	-143.026	0.290	-0.028
-417.457	-50.080	-0.105	0.050
-416.442	-200.000	-0.005	0.189
-415.428	-200.000	0.013	0.505
-414.413	-200.000	-0.017	-0.139
-413.398	-200.000	-0.032	-0.186
-412.384	75.170	-0.245	0.261
-411.369	145.425	0.132	-0.178
-410.355	-101.613	0.179	-0.044
-409.340	171.134	-0.084	0.121
-408.325	-200.000	0.026	-0.213
-407.311	-86.589	-0.078	0.024
-406.296	18.302	0.285	-0.229
-405.282	-200.000	0.007	-0.192
-404.267	-191.298	0.253	0.003
-403.252	-101.139	-0.215	-0.053
-402.238	-200.000	-0.069	-0.321
-401.223	376.355	0.129	0.265
-400.209	182.334	-0.131	-0.194
-399.194	-8.487	0.161	0.109
-398.179	-59.401	-0.043	-0.018
-397.165	88.414	0.013	0.015
-396.150	4.502	0.289	0.214
-395.136	353.622	-0.073	-0.147
-394.121	25.459	0.249	-0.208
-393.106	225.404	-0.129	-0.210
-392.092	147.196	0.147	0.199
-391.077	-49.387	0.021	-0.010
-390.063	529.196	-0.109	0.259
-389.048	135.462	0.090	-0.118
-388.033	-13.466	-0.104	0.068
-387.019	-200.000	0.027	-0.356
-386.004	-118.791	-0.139	-0.025
-384.990	-34.979	0.085	0.047
-383.975	-200.000	-0.019	0.107
-382.960	-150.066	0.133	0.010
-381.946	64.726	-0.171	-0.173
-380.931	-54.719	-0.291	-0.132
-379.917	-150.805	-0.465	0.036
-378.902	-160.522	0.308	-0.017
-377.888	800.000	-0.043	0.135
-376.873	-52.661	0.034	-0.016
-375.858	18.029	-0.252	-0.202
-374.844	-200.000	-0.011	-0.301
-373.829	-200.000	0.008	-0.158
-372.815	320.768	-0.129	0.246
-371.800	77.502	-0.159	-0.170
-370.785	-200.000	-0.021	-0.126
-369.771	52.015	-0.109	0.104
-368.756	800.000	0.051	0.173
-367.742	-182.334	-0.202	-0.004
-366.727	-200.000	0.246	-0.001
-365.712	-141.726	-0.189	-0.019
-364.698	-98.239	-0.055	0.014
-363.683	546.345	-0.059	0.142
-362.669	-152.198	-0.312	0.023
-361.654	274.950	0.139	-0.248
-360.639	-100.834	-0.147	-0.036
-359.625	596.191	-0.063	0.156
-358.610	12.762	0.190	-0.147
-357.596	800.000	0.123	0.439
-356.581	-67.836	0.253	0.099
-355.566	-200.000	-0.014	-0.070
-354.552	10.956	0.213	0.164
-353.537	-200.000	0.047	0.551
-352.523	-75.397	0.181	-0.065
-351.508	101.931	-0.137	-0.160
-350.493	-106.371	0.277	-0.062
-349.479	-156.504	-0.281	-0.018
-348.464	76.842	0.066	0.071
-347.450	-200.000	-0.022	0.619
-346.435	-200.000	-0.014	-0.181
-345.420	-18.458	0.205	0.129
-344.406	-106.410	-0.181	0.041
-343.391	21.889	-0.128	-0.104
-342.377	74.001	-0.026	-0.027
-341.362	-138.380	0.195	-0.022
-340.348	361.114	-0.222	0.446
-339.333	-200.000	0.013	0.319
-338.318	-140.697	-0.431	0.045
-337.304	-118.329	0.148	-0.026
-336.289	-200.000	0.076	0.347
-335.275	800.000	0.112	0.325
-334.260	13.118	0.134	0.104
-333.245	-115.716	-0.368	-0.069
-332.231	161.980	0.080	0.112
-331.216	-0.606	0.164	0.117
-330.202	-58.415	-0.136	-0.059
-329.187	-192.773	-0.138	0.001
-328.172	-200.000	0.134	-0.675
-327.158	-48.272	-0.175	-0.085
-326.143	-62.650	-0.163	-0.068
-325.129	-200.000	0.081	-0.632
-324.114	-200.000	0.009	-0.088
-323.099	-200.000	0.043	0.256
-322.085	800.000	-0.101	-0.294
-321.070	-200.000	0.021	-0.125
-320.056	475.166	-0.115	0.260
-319.041	97.170	-0.205	0.236
-318.026	800.000	-0.038	0.129
-317.012	-118.765	0.148	0.026
-315.997	-183.546	-0.342	-0.006
-314.983	-193.963	0.098	0.001
-313.968	651.994	0.035	0.089
-312.953	-103.781	-0.177	-0.041
-311.939	81.575	-0.181	0.196
-310.924	-63.084	0.029	-0.012
-309.910	751.424	0.051	-0.138
-308.895	-7.869	0.115	-0.078
-307.880	-66.361	-0.182	-0.073
-306.866	-200.000	0.033	-0.200
-305.851	-167.817	0.427	-0.017
-304.837	800.000	0.129	-0.410
-303.822	800.000	-0.016	-0.063
-302.807	-48.581	-0.197	0.095
-301.793	244.536	-0.072	-0.121
-300.778	6.562	-0.071	-0.053
-299.764	-200.000	-0.056	-0.325
-298.749	221.497	0.087	-0.140
-297.735	-83.137	0.242	0.078
-296.720	-37.374	0.152	-0.081
-295.705	434.094	0.187	-0.408
-294.691	-83.980	0.128	0.041
-293.676	18.666	0.041	-0.033
-292.662	94.495	-0.090	0.102
-291.647	-10.195	0.095	0.063
-290.632	17.723	0.274	-0.219
-289.618	19.571	-0.442	0.356
-288.603	244.637	0.125	-0.210
-287.589	123.491	-0.123	-0.155
-286.574	158.588	0.069	0.096
-285.559	-200.000	0.020	0.151
-284.545	800.000	0.098	-0.293
-283.530	-200.000	-0.029	-0.272
-282.516	-200.000	0.016	0.131
-281.501	-89.139	-0.160	0.047
-280.486	178.957	0.027	0.040
-279.472	-86.034	-0.205	-0.063
-278.457	182.078	-0.218	-0.322
-277.443	-156.727	0.158	-0.010
-276.428	541.810	0.076	-0.182
-275.413	-0.354	-0.104	-0.074
-274.399	-200.000	-0.012	0.311
-273.384	-94.714	0.182	0.050
-272.370	-64.965	0.159	0.064
-271.355	-72.432	0.235	0.087
-270.340	-57.405	-0.171	-0.075
-269.326	346.751	-0.115	0.227
-268.311	367.109	-0.022	-0.045
-267.297	-91.709	0.186	-0.053
-266.282	579.377	0.112	-0.274
-265.267	-13.168	0.121	0.078
-264.253	-200.000	0.015	-0.230
-263.238	-137.755	-0.198	0.022
-262.224	435.701	0.118	-0.257
-261.209	116.924	-0.179	-0.221
-260.195	202.595	0.096	-0.148
-259.180	800.000	0.087	0.379
-258.165	247.215	-0.175	0.296
-257.151	151.834	-0.085	0.116
-256.136	80.701	-0.222	-0.239
-255.122	271.910	-0.056	0.099
-254.107	29.327	0.087	-0.074
-253.092	67.347	-0.073	-0.075
-252.078	800.000	0.032	-0.116
-251.063	-150.440	0.523	0.040
-250.049	-74.087	0.284	0.103
-249.034	443.843	0.076	-0.166
-248.019	96.037	0.097	-0.111
-247.005	-200.000	0.031	-0.156
-245.990	493.290	-0.093	0.214
-244.976	143.001	-0.024	-0.032
-243.961	-139.159	-0.198	-0.021
-242.946	-200.000	-0.042	0.193
-241.932	210.944	0.268	-0.422
-240.917	11.314	0.215	0.165
-239.903	-23.600	0.305	0.183
-238.888	800.000	0.079	-0.281
-237.873	-3.680	0.078	-0.054
-236.859	-6.010	0.272	0.186
-235.844	39.223	-0.164	-0.147
-234.830	41.503	-0.257	0.233
-233.815	-200.000	0.015	0.133
-232.800	359.647	0.112	-0.223
-231.786	574.708	-0.075	-0.182
-230.771	56.658	-0.222	0.216
-229.757	4.009	0.141	0.103
-228.742	37.942	0.182	-0.162
-227.727	-34.784	-0.283	0.154
-226.713	472.527	-0.091	-0.205
-225.698	131.814	-0.154	-0.198
-224.684	163.962	-0.211	0.297
-223.669	27.435	0.286	0.240
-222.655	274.756	-0.103	0.182
-221.640	724.920	0.019	0.051
-220.625	597.615	0.042	0.103
-219.611	-63.678	-0.165	0.068
-218.596	-103.393	-0.201	-0.047
-217.582	541.647	-0.096	-0.230
-216.567	-28.956	-0.287	0.165
-215.552	-156.640	-0.399	-0.025
-214.538	-200.000	0.036	0.316
-213.523	403.910	-0.115	0.242
-212.509	-101.901	0.316	-0.076
-211.494	20.964	0.033	0.027
-210.479	800.000	-0.046	-0.179
-209.465	179.585	-0.181	0.265
-208.450	-200.000	-0.016	-0.073
-207.436	170.632	0.149	-0.213
-206.421	-200.000	0.011	0.068
-205.406	58.260	-0.143	0.140
-204.392	80.427	0.054	-0.058
-203.377	-133.906	-0.348	-0.043
-202.363	-70.978	-0.306	-0.115
-201.348	-200.000	0.016	0.163
-200.333	-39.342	0.095	0.050
-199.319	-200.000	0.042	0.498
-198.304	-29.015	-0.174	-0.099
-197.290	622.194	0.144	0.363
-196.275	299.548	0.085	0.156
-195.260	-200.000	0.043	0.278
-194.246	39.929	0.061	0.054
-193.231	-200.000	0.009	-0.265
-192.217	-134.148	-0.156	-0.019
-191.202	90.775	0.123	0.137
-190.187	-68.553	0.195	0.075
-189.173	-77.320	-0.104	0.036
-188.158	108.415	0.227	-0.270
-187.144	-200.000	0.026	-0.250
-186.129	143.920	0.159	0.212
-185.114	-69.954	-0.070	0.027
-184.100	-59.704	0.214	-0.091
-183.085	800.000	-0.068	-0.292
-182.071	-200.000	0.024	-0.427
-181.056	-134.027	0.248	0.031
-180.042	-88.744	-0.172	0.051
-179.027	-200.000	-0.036	0.290
-178.012	-19.944	0.381	-0.235
-176.998	-16.213	0.017	-0.011
-175.983	-183.242	0.244	-0.004
-174.969	-200.000	-0.373	0.000
-173.954	21.241	-0.162	-0.131
-172.939	-146.981	0.088	0.007
-171.925	800.000	-0.188	-0.588
-170.910	800.000	0.133	0.404
-169.896	384.287	0.139	0.286
-168.881	800.000	0.062	-0.261
-167.866	791.154	0.077	-0.210
-166.852	-60.481	-0.157	-0.067
-165.837	45.199	-0.152	0.139
-164.823	-76.334	0.281	-0.099
-163.808	269.272	-0.087	0.152
-162.793	-146.150	-0.323	-0.028
-161.779	-100.522	0.206	-0.051
-160.764	-200.000	0.137	0.000
-159.750	-200.000	0.020	0.232
-158.735	-200.000	0.011	0.230
-157.720	800.000	-0.037	0.153
-156.706	27.061	0.159	-0.133
-155.691	-86.939	-0.162	-0.049
-154.677	679.047	0.085	0.220
-153.662	-33.090	0.043	-0.024
-152.647	391.169	0.121	-0.251
-151.633	-13.121	-0.111	-0.072
-150.618	150.182	0.101	0.137
-149.604	-117.488	-0.234	-0.042
-148.589	-124.048	0.150	0.024
-147.574	-60.174	0.235	-0.100
-146.560	800.000	0.094	0.314
-145.545	-122.800	-0.242	0.039
-144.531	-137.489	0.209	-0.023
-143.516	-65.452	-0.262	-0.105
-142.502	-200.000	-0.036	0.181
-141.487	197.564	-0.086	0.130
-140.472	-83.339	-0.253	0.081
-139.458	-115.734	0.326	0.061
-138.443	35.624	-0.045	-0.040
-137.429	403.646	-0.159	0.334
-136.414	800.000	-0.039	0.161
-135.399	49.787	0.088	0.083
-134.385	-144.928	0.279	0.025
-133.370	97.070	0.058	-0.066
-132.356	174.901	-0.071	0.103
-131.341	-200.000	0.002	-0.071
-130.326	-200.000	-0.004	-0.072
-129.312	-177.862	-0.311	0.007
-128.297	-137.263	0.215	0.024
-127.283	-180.969	-0.067	0.001
-126.268	-127.529	0.521	0.075
-125.253	70.440	-0.093	-0.096
-124.239	-172.087	0.187	0.006
-123.224	234.260	-0.164	0.269
-122.210	-126.487	0.375	0.056
