DTS Sentinel unit serial number:	SN413079Multiplexer serial number:	ORYXHardware model number:	OX4-SRSoftware version number:	ORYX F/W v4.00 Oryx Data Collector v3.7.2.0data status	okinstallation	princeton_trtdifferential loss correction	single-endedforward channel	channel 4reverse channel	N/Adate	2019/09/12time	19:53:19forward acquisition time	15.00reverse acquisition time	0.00gamma	496.2192k internal	0.2310k external	0.2310temperature offset calibration	1.0162default loss term (dB/km)	0.3790temperature slope calibration	1.0000multiplexer offset coefficient	1.0000multiplexer slope coefficient	1.0000fibre end	0.00T internal ref (°C)	31.87T ext. ref 1 (°C)	3.44T ext. ref 2 (°C)	26.40length (m)	temperature (°C)	Stokes	anti-Stokes-747.200	-155.725	-0.730	0.047
-746.185	10.676	-0.241	-0.186
-745.171	754.468	-0.052	-0.141
-744.156	97.223	0.504	0.588
-743.142	-134.976	-0.523	0.064
-742.127	109.942	-0.463	0.564
-741.112	212.864	0.282	0.451
-740.098	-162.971	0.245	-0.012
-739.083	311.585	-0.349	0.665
-738.069	9.150	0.365	-0.280
-737.054	695.603	-0.106	-0.282
-736.039	45.786	-0.369	0.347
-735.025	-124.524	0.457	0.072
-734.010	-200.000	0.004	0.374
-732.996	-200.000	-0.014	0.204
-731.981	-87.358	-0.641	-0.197
-730.966	-19.769	-0.235	-0.148
-729.952	-148.134	0.218	0.018
-728.937	281.239	0.386	0.702
-727.923	7.699	0.401	-0.305
-726.908	-96.963	-0.278	0.074
-725.894	10.149	0.343	-0.264
-724.879	26.960	-0.328	0.279
-723.864	800.000	-0.113	0.424
-722.850	312.399	-0.209	-0.397
-721.835	185.253	-0.309	0.465
-720.821	-14.765	-0.781	-0.509
-719.806	-87.649	-0.334	0.102
-718.791	-177.796	-1.012	0.025
-717.777	167.025	-0.212	0.305
-716.762	-141.177	0.431	0.045
-715.748	735.123	0.254	-0.689
-714.733	20.910	-0.395	0.325
-713.718	-200.000	-0.020	0.359
-712.704	84.710	-0.191	-0.212
-711.689	176.623	-0.086	0.127
-710.675	93.547	0.117	-0.134
-709.660	14.630	-0.330	-0.261
-708.645	-101.941	0.486	-0.119
-707.631	584.467	0.103	0.256
-706.616	241.019	-0.274	-0.463
-705.602	563.177	0.190	0.466
-704.587	-188.031	-0.632	0.008
-703.572	-52.250	0.446	0.209
-702.558	547.112	0.049	-0.118
-701.543	-126.105	0.713	-0.108
-700.529	-65.686	-0.316	-0.128
-699.514	402.209	-0.278	0.592
-698.499	-56.666	-0.298	-0.134
-697.485	-0.820	-0.728	0.523
-696.470	-72.439	-0.362	0.136
-695.456	-169.074	-0.628	-0.024
-694.441	800.000	-0.135	-0.471
-693.426	199.911	-0.301	-0.468
-692.412	-66.020	0.280	0.113
-691.397	41.047	0.159	0.146
-690.383	800.000	0.227	-0.723
-689.368	-121.216	1.253	-0.212
-688.354	-20.300	0.057	-0.036
-687.339	2.367	-0.529	0.388
-686.324	-91.018	-0.366	0.107
-685.310	478.718	-0.280	-0.642
-684.295	-200.000	0.005	-0.694
-683.281	-200.000	-0.006	0.449
-682.266	122.411	0.204	0.258
-681.251	-200.000	-0.050	0.270
-680.237	-99.728	-1.381	-0.351
-679.222	-4.290	-0.907	0.635
-678.208	33.068	-0.145	-0.127
-677.193	800.000	0.596	-1.681
-676.178	407.438	-0.216	0.462
-675.164	-24.615	-0.704	0.424
-674.149	800.000	-0.099	0.328
-673.135	-17.673	-0.225	-0.143
-672.120	-62.666	0.126	0.053
-671.105	2.229	0.310	-0.227
-670.091	-200.000	-0.157	-0.792
-669.076	-100.527	0.361	-0.090
-668.062	-84.137	0.689	-0.221
-667.047	20.671	-0.415	0.340
-666.032	71.845	0.508	0.534
-665.018	-200.000	-0.037	0.324
-664.003	-200.000	-0.122	1.017
-662.989	158.766	0.078	0.109
-661.974	30.029	0.261	-0.226
-660.959	-70.747	-0.022	0.008
-659.945	-200.000	0.053	-0.742
-658.930	-30.055	0.696	0.401
-657.916	619.493	0.325	-0.826
-656.901	233.234	-0.526	0.876
-655.886	110.350	0.112	0.136
-654.872	77.689	0.132	-0.142
-653.857	22.614	0.202	0.167
-652.843	291.466	-0.377	-0.694
-651.828	572.468	0.240	-0.592
-650.814	-177.092	0.678	0.017
-649.799	-0.695	0.420	-0.301
-648.784	-200.000	-0.043	0.606
-647.770	218.216	-0.153	-0.248
-646.755	11.430	0.669	-0.518
-645.741	9.499	0.447	-0.342
-644.726	-197.302	-1.100	-0.007
-643.711	-200.000	0.053	-0.755
-642.697	-131.473	0.644	-0.086
-641.682	12.616	-0.414	-0.323
-640.668	16.231	0.656	-0.523
-639.653	-100.333	-0.558	-0.140
-638.638	800.000	-0.114	-0.469
-637.624	800.000	0.248	-0.962
-636.609	176.780	-0.487	-0.716
-635.595	-4.381	-0.824	0.576
-634.580	-200.000	-0.047	0.230
-633.565	-60.141	-0.415	0.179
-632.551	800.000	-0.121	0.372
-631.536	-200.000	-0.036	-0.524
-630.522	-105.667	0.098	0.022
-629.507	800.000	-0.173	-0.656
-628.492	800.000	-0.174	0.628
-627.478	-71.270	1.173	0.445
-626.463	-133.896	-0.513	0.064
-625.449	-133.147	-0.483	-0.062
-624.434	-67.792	0.125	0.049
-623.419	-56.136	-0.310	0.139
-622.405	-62.256	0.367	0.155
-621.390	-74.012	-0.570	-0.209
-620.376	8.185	0.319	0.242
-619.361	-74.728	-0.795	-0.289
-618.346	-200.000	-0.182	0.976
-617.332	222.479	-0.429	-0.699
-616.317	-130.934	-1.134	0.153
-615.303	-200.000	0.120	-0.583
-614.288	-20.384	0.058	-0.036
-613.273	717.495	-0.084	-0.226
-612.259	188.682	0.502	-0.759
-611.244	-150.392	-0.245	-0.019
-610.230	38.893	-0.236	-0.213
-609.215	-140.728	-0.873	-0.091
-608.201	56.284	-0.841	-0.826
-607.186	-90.865	0.406	-0.118
-606.171	-58.765	0.144	-0.063
-605.157	174.220	-0.329	0.481
-604.142	-156.908	0.155	-0.010
-603.128	-7.219	0.085	-0.058
-602.113	2.672	-0.514	-0.376
-601.098	245.807	-0.394	-0.670
-600.084	-88.081	-0.485	-0.147
-599.069	-108.994	-0.228	0.049
-598.055	113.353	0.134	-0.164
-597.040	88.183	0.403	-0.452
-596.025	141.039	-0.507	-0.677
-595.011	406.328	0.047	0.100
-593.996	118.497	-0.206	0.256
-592.982	-145.393	0.224	-0.020
-591.967	-97.024	-0.442	-0.117
-590.952	276.495	-0.068	-0.122
-589.938	111.846	0.570	-0.694
-588.923	-194.323	-0.778	0.006
-587.909	187.953	-0.316	0.476
-586.894	25.972	0.090	-0.076
-585.879	8.052	0.623	-0.472
-584.865	91.988	-0.503	-0.572
-583.850	203.891	0.309	-0.482
-582.836	-59.595	0.824	0.357
-581.821	114.756	-0.103	-0.127
-580.806	-43.834	1.615	0.820
-579.792	-119.931	-0.274	-0.047
-578.777	800.000	-0.049	-0.205
-577.763	459.696	-0.090	0.203
-576.748	-77.076	0.121	-0.043
-575.733	800.000	-0.266	0.892
-574.719	800.000	0.159	-0.492
-573.704	139.409	-0.098	0.129
-572.690	151.772	-0.172	-0.236
-571.675	61.550	0.057	-0.057
-570.661	800.000	0.060	0.210
-569.646	177.562	-0.365	0.536
-568.631	55.652	-0.542	0.530
-567.617	-120.080	-0.420	0.072
-566.602	-128.797	-0.640	-0.091
-565.588	-3.426	0.510	-0.358
-564.573	-22.985	-0.106	-0.064
-563.558	-25.581	-0.084	0.050
-562.544	84.991	-0.101	0.111
-561.529	61.521	-0.164	0.165
-560.515	-34.012	0.211	0.117
-559.500	31.117	0.133	0.115
-558.485	-1.261	0.145	0.103
-557.471	86.367	-0.338	0.376
-556.456	-200.000	-0.087	1.439
-555.442	148.767	0.671	0.915
-554.427	-174.380	-0.319	0.009
-553.412	105.448	0.815	-0.970
-552.398	87.081	-0.446	0.496
-551.383	-140.354	-0.743	0.078
-550.369	800.000	0.244	-0.705
-549.354	-35.648	0.858	-0.469
-548.339	265.141	0.424	-0.744
-547.325	-118.694	0.378	0.067
-546.310	-0.661	0.419	-0.300
-545.296	-52.614	0.548	-0.255
-544.281	-33.388	-0.484	-0.270
-543.266	-164.652	0.415	-0.019
-542.252	800.000	-0.226	0.834
-541.237	800.000	-0.085	0.243
-540.223	677.006	0.233	0.611
-539.208	70.581	-0.349	-0.363
-538.193	-101.273	-0.934	-0.230
-537.179	-73.308	-0.900	-0.332
-536.164	135.970	-0.483	0.634
-535.150	-200.000	0.058	-0.441
-534.135	34.843	0.434	-0.382
-533.121	21.218	0.540	0.442
-532.106	62.724	0.640	-0.644
-531.091	-129.690	0.250	0.035
-530.077	494.890	0.193	-0.446
-529.062	30.348	-0.518	0.445
-528.048	-64.579	-0.285	0.116
-527.033	459.697	0.115	-0.258
-526.018	459.871	-0.144	-0.322
-525.004	228.643	0.171	0.281
-523.989	97.569	-0.197	0.228
-522.975	36.120	-0.122	-0.108
-521.960	-24.680	-0.419	0.251
-520.945	-130.466	-0.142	0.019
-519.931	-107.313	0.298	-0.066
-518.916	204.916	0.112	0.174
-517.902	43.686	0.320	-0.295
-516.887	-43.339	-0.103	-0.052
-515.872	-24.596	0.359	-0.215
-514.858	800.000	-0.121	0.357
-513.843	-200.000	-0.101	0.487
-512.829	-122.152	0.309	-0.051
-511.814	201.120	0.364	-0.563
-510.799	-57.083	0.347	-0.154
-509.785	71.875	-0.523	0.547
-508.770	800.000	-0.137	0.389
-507.756	26.501	0.501	0.422
-506.741	-110.795	0.402	0.083
-505.726	-200.000	-0.018	0.366
-504.712	24.967	-0.362	-0.302
-503.697	-117.443	-0.773	-0.141
-502.683	351.767	-0.140	0.280
-501.668	-0.435	0.590	-0.421
-500.653	-80.158	-0.396	0.133
-499.639	-200.000	-0.093	-0.497
-498.624	-73.047	0.786	-0.290
-497.610	374.119	0.262	-0.537
-496.595	-152.265	0.199	0.014
-495.581	-142.907	0.177	-0.017
-494.566	800.000	-0.155	-0.479
-493.551	20.199	-0.249	-0.202
-492.537	-5.002	-0.772	0.535
-491.522	-3.051	-0.447	0.314
-490.508	-157.636	0.458	0.027
-489.493	-140.987	0.254	-0.026
-488.478	-116.938	0.158	-0.029
-487.464	-76.439	0.387	-0.137
-486.449	800.000	0.076	0.318
-485.435	634.720	0.169	-0.430
-484.420	165.012	-0.246	-0.349
-483.405	-158.066	-0.255	0.015
-482.391	800.000	0.283	-1.005
-481.376	-124.221	0.587	-0.092
-480.362	-200.000	-0.076	-0.523
-479.347	-65.708	0.421	-0.170
-478.332	-178.170	-0.564	0.013
-477.318	447.554	-0.274	0.606
-476.303	338.005	-0.094	0.183
-475.289	132.661	-0.280	0.363
-474.274	56.654	0.256	0.251
-473.259	800.000	0.316	0.897
-472.245	800.000	0.023	0.084
-471.230	-108.310	-0.394	-0.085
-470.216	-43.612	0.563	0.285
-469.201	-74.600	0.456	-0.165
-468.186	800.000	-0.057	0.203
-467.172	-148.738	-0.353	-0.029
-466.157	-200.000	0.140	0.754
-465.143	321.586	0.497	-0.950
-464.128	-200.000	0.097	0.445
-463.113	-155.277	0.646	0.042
-462.099	-173.376	-0.700	0.021
-461.084	800.000	-0.043	0.122
-460.070	390.407	0.351	0.732
-459.055	-125.392	-0.530	-0.081
-458.040	-40.719	0.203	-0.105
-457.026	-93.220	-0.323	-0.090
-456.011	16.048	0.282	-0.223
-454.997	-28.449	0.096	-0.056
-453.982	-151.643	-0.644	-0.048
-452.968	77.072	0.801	-0.854
-451.953	-109.203	-0.312	0.067
-450.938	-200.000	0.071	0.328
-449.924	800.000	0.159	-0.525
-448.909	-200.000	-0.001	-0.113
-447.895	-88.382	1.155	-0.346
-446.880	208.005	0.427	-0.670
-445.865	414.625	-0.089	0.190
-444.851	276.324	-0.221	0.394
-443.836	-86.159	-0.077	-0.024
-442.822	-110.475	0.814	0.169
-441.807	-14.598	0.560	0.361
-440.792	65.576	0.474	0.481
-439.778	-119.418	-0.332	0.058
-438.763	11.634	-0.463	0.357
-437.749	-200.000	0.007	-0.097
-436.734	800.000	-0.310	1.198
-435.719	-102.655	0.442	0.106
-434.705	234.571	-0.151	0.250
-433.690	191.392	0.110	-0.166
-432.676	332.302	-0.190	0.369
-431.661	-200.000	0.081	0.881
-430.646	136.925	0.162	0.213
-429.632	-62.569	-0.598	0.249
-428.617	-63.628	0.045	0.018
-427.603	-71.522	-0.046	0.017
-426.588	242.668	0.378	0.635
-425.573	-35.684	-0.407	-0.221
-424.559	615.861	-0.331	0.832
-423.544	-200.000	0.165	0.794
-422.530	348.289	0.203	-0.401
-421.515	-188.134	-0.937	0.012
-420.500	800.000	-0.237	-0.684
-419.486	-12.788	0.158	-0.103
-418.471	-58.989	-0.234	-0.101
-417.457	-200.000	0.127	-0.732
-416.442	-113.319	0.319	0.063
-415.428	800.000	-0.376	-1.154
-414.413	-136.703	-0.200	-0.023
-413.398	800.000	0.144	0.612
-412.384	-104.849	-0.280	0.064
-411.369	242.895	0.382	-0.641
-410.355	-200.000	-0.014	-0.774
-409.340	44.354	-0.583	0.536
-408.325	-56.853	0.177	-0.078
-407.311	-40.602	0.549	-0.286
-406.296	-14.673	-0.171	0.110
-405.282	-95.170	0.477	-0.129
-404.267	-43.010	-0.712	0.362
-403.252	800.000	0.132	-0.572
-402.238	-133.575	-0.825	0.103
-401.223	-162.370	-0.617	0.031
-400.209	-63.052	0.782	0.323
-399.194	-200.000	0.046	-0.555
-398.179	-200.000	-0.069	1.215
-397.165	-121.555	-1.104	-0.184
-396.150	-93.495	-0.481	0.133
-395.136	180.851	-0.266	-0.391
-394.121	24.171	0.929	0.768
-393.106	-200.000	0.033	0.236
-392.092	-53.963	0.284	0.130
-391.077	-161.077	0.294	-0.015
-390.063	19.681	-0.507	-0.408
-389.048	-33.919	0.197	-0.108
-388.033	800.000	-0.032	-0.111
-387.019	-97.712	-0.742	0.192
-386.004	-61.957	0.347	0.145
-384.990	-30.379	0.287	0.163
-383.975	-25.876	0.638	0.376
-382.960	-151.844	-0.617	0.045
-381.946	-102.262	0.173	0.042
-380.931	-31.686	0.264	0.148
-379.917	-49.470	0.782	0.373
-378.902	220.406	-0.463	0.743
-377.888	-154.212	-0.434	-0.029
-376.873	-114.736	-0.268	-0.051
-375.858	-29.242	-0.171	0.098
-374.844	-107.533	0.149	0.033
-373.829	-166.067	-0.831	-0.035
-372.815	-20.047	-0.186	0.115
-371.800	-74.760	0.584	0.210
-370.785	247.704	-0.101	-0.170
-369.771	-34.048	-0.906	-0.499
-368.756	305.948	0.690	1.284
-367.742	702.191	-0.198	0.523
-366.727	-34.766	0.186	-0.102
-365.712	800.000	-0.028	-0.090
-364.698	85.431	0.455	0.499
-363.683	-153.780	-0.294	-0.020
-362.669	800.000	0.338	-0.992
-361.654	528.578	-0.253	-0.598
-360.639	-64.514	0.328	0.133
-359.625	-200.000	-0.209	1.174
-358.610	-58.007	-0.668	0.292
-357.596	-28.758	0.637	0.367
-356.581	800.000	0.078	0.299
-355.566	271.225	-0.175	-0.308
-354.552	-64.948	1.370	-0.554
-353.537	-197.649	0.123	0.001
-352.523	97.694	0.452	-0.520
-351.508	-176.193	0.458	-0.012
-350.493	800.000	-0.132	-0.567
-349.479	256.907	-0.296	-0.509
-348.464	199.695	-0.286	0.439
-347.450	-122.966	-0.688	0.111
-346.435	116.911	-0.498	0.611
-345.420	800.000	0.142	-0.414
-344.406	-138.948	-0.363	0.039
-343.391	72.891	-0.134	0.140
-342.377	48.331	0.533	-0.499
-341.362	16.661	0.314	-0.249
-340.348	397.964	-0.145	-0.303
-339.333	-200.000	-0.668	-0.003
-338.318	-15.030	0.197	0.126
-337.304	-137.012	-0.510	0.058
-336.289	-17.916	-0.643	0.403
-335.275	485.471	-0.079	-0.180
-334.260	-1.748	0.641	0.451
-333.245	524.483	0.080	0.187
-332.231	199.443	-0.275	-0.421
-331.216	706.011	0.136	0.359
-330.202	79.547	0.372	0.398
-329.187	-133.176	-0.754	0.095
-328.172	152.629	-0.381	0.520
-327.158	119.701	0.239	0.296
-326.143	800.000	-0.384	-1.137
-325.129	-81.861	0.550	-0.180
-324.114	73.864	0.297	-0.311
-323.099	352.990	-0.300	-0.594
-322.085	800.000	0.335	-0.944
-321.070	225.337	-0.229	0.370
-320.056	-33.050	-0.150	-0.083
-319.041	281.334	-0.314	0.561
-318.026	800.000	-0.164	0.585
-317.012	-123.043	-1.280	0.205
-315.997	800.000	0.149	0.432
-314.983	230.463	0.477	-0.778
-313.968	49.718	-0.169	-0.159
-312.953	-104.950	0.943	0.216
-311.939	-200.000	0.084	-0.489
-310.924	-74.173	0.764	0.276
-309.910	56.882	0.238	-0.231
-308.895	-66.174	-1.055	0.420
-307.880	-167.597	0.274	0.011
-306.866	800.000	-0.114	-0.358
-305.851	800.000	0.089	-0.269
-304.837	14.166	-0.194	0.151
-303.822	630.132	-0.186	0.470
-302.807	800.000	0.083	-0.307
-301.793	-61.147	-0.428	0.180
-300.778	-13.576	-0.454	0.294
-299.764	141.364	0.142	-0.188
-298.749	-117.894	0.908	-0.162
-297.735	-27.708	-0.716	0.415
-296.720	316.421	-0.172	-0.325
-295.705	-97.817	-0.837	-0.216
-294.691	-200.000	-0.083	0.423
-293.676	-142.085	0.556	0.055
-292.662	141.899	-0.752	0.994
-291.647	-84.999	0.417	-0.130
-290.632	0.821	0.329	0.235
-289.618	-63.941	-0.462	0.188
-288.603	800.000	0.156	0.526
-287.589	58.170	0.286	0.280
-286.574	800.000	-0.126	-0.413
-285.559	-164.399	0.488	-0.022
-284.545	800.000	-0.065	-0.185
-283.530	-143.539	0.410	-0.039
-282.516	-178.251	-0.668	0.016
-281.501	-116.697	0.246	0.045
-280.486	-200.000	-0.178	0.835
-279.472	-85.737	0.558	0.173
-278.457	20.697	0.240	0.194
-277.443	-72.298	0.606	0.224
-276.428	-200.000	0.159	0.967
-275.413	39.523	-0.761	-0.680
-274.399	800.000	0.161	0.684
-273.384	57.476	0.771	-0.751
-272.370	-200.000	-0.046	0.426
-271.355	31.784	0.171	0.147
-270.340	55.408	0.586	-0.565
-269.326	22.620	-0.239	-0.195
-268.311	-31.957	0.462	-0.258
-267.297	-163.187	0.424	0.020
-266.282	684.946	0.147	-0.382
-265.267	116.122	0.555	0.678
-264.253	-31.721	0.687	-0.384
-263.238	-104.488	0.584	-0.135
-262.224	376.787	0.523	-1.065
-261.209	-200.000	0.012	-0.281
-260.195	-36.141	-0.716	0.385
-259.180	-59.655	0.220	-0.094
-258.165	44.689	-0.592	-0.542
-257.151	203.870	-0.387	-0.598
-256.136	31.713	0.610	0.523
-255.122	163.054	0.409	0.573
-254.107	-9.449	0.636	-0.423
-253.092	-200.000	-0.125	-0.824
-252.078	800.000	0.282	0.902
-251.063	-13.576	0.423	0.273
-250.049	-33.070	-0.312	-0.173
-249.034	-200.000	-0.007	0.385
-248.019	61.879	0.377	0.374
-247.005	-10.068	-0.347	-0.230
-245.990	45.573	-0.628	-0.577
-244.976	173.132	-0.168	-0.241
-243.961	-33.617	-0.092	0.050
-242.946	117.656	-0.180	0.220
-241.932	-200.000	0.023	-1.055
-240.917	-200.000	0.065	0.388
-239.903	73.515	1.086	1.132
-238.888	-200.000	-0.021	-0.593
-237.873	-68.859	-0.465	-0.179
-236.859	-46.578	0.388	0.189
-235.844	-200.000	-0.060	-0.283
-234.830	1.288	-0.633	0.453
-233.815	239.393	0.103	-0.170
-232.800	603.879	-0.146	0.361
-231.786	2.615	0.382	-0.275
-230.771	119.526	0.083	-0.102
-229.757	-108.244	-0.467	0.100
-228.742	-31.835	-0.494	0.275
-227.727	-116.858	-0.615	0.112
-226.713	66.776	0.186	0.189
-225.698	-200.000	0.046	0.292
-224.684	55.126	0.423	-0.407
-223.669	76.180	0.363	-0.382
-222.655	293.873	-0.128	0.232
-221.640	29.741	0.568	0.481
-220.625	800.000	-0.171	-0.541
-219.611	-107.782	0.330	-0.072
-218.596	-183.328	-0.491	0.009
-217.582	-165.290	0.804	-0.035
-216.567	-200.000	0.035	0.821
-215.552	68.256	-0.144	-0.147
-214.538	-59.893	0.531	-0.226
-213.523	184.146	-0.199	0.292
-212.509	174.201	0.267	0.384
-211.494	-78.521	0.497	-0.169
-210.479	800.000	0.064	-0.271
-209.465	27.253	-0.619	0.517
-208.450	-185.998	-0.448	-0.007
-207.436	-11.816	0.972	0.634
-206.421	48.441	0.406	0.378
-205.406	-200.000	0.074	-1.133
-204.392	-60.795	-0.224	0.094
-203.377	-178.364	1.059	-0.025
-202.363	-200.000	-0.062	-0.302
-201.348	431.644	0.065	-0.140
-200.333	-102.528	-0.800	0.190
-199.319	-25.167	-0.257	0.151
-198.304	-134.649	0.302	0.037
-197.290	-200.000	0.046	-0.818
-196.275	-175.775	-0.503	-0.013
-195.260	-91.539	0.493	0.140
-194.246	-200.000	0.071	0.849
-193.231	13.864	-0.397	-0.307
-192.217	718.321	0.078	-0.207
-191.202	105.004	0.501	-0.587
-190.187	-200.000	0.038	0.831
-189.173	209.941	0.110	-0.171
-188.158	415.013	0.185	0.392
-187.144	167.406	0.293	0.414
-186.129	-160.745	-0.397	-0.021
-185.114	-147.209	-1.179	-0.100
-184.100	160.977	-0.455	-0.631
-183.085	-85.858	0.511	0.157
-182.071	800.000	0.182	0.646
-181.056	-200.000	0.024	0.409
-180.042	-88.245	-0.193	0.057
-179.027	-166.459	0.665	0.028
-178.012	284.552	0.356	-0.636
-176.998	-200.000	0.024	0.119
-175.983	759.129	-0.056	-0.150
-174.969	-85.913	-0.214	0.066
-173.954	-111.709	0.170	0.034
-172.939	-82.597	-0.104	0.033
-171.925	-51.503	0.472	-0.219
-170.910	93.262	-0.170	0.191
-169.896	-20.200	-0.398	-0.244
-168.881	-200.000	0.013	-0.538
-167.866	-83.948	0.660	0.208
-166.852	-80.902	0.555	-0.183
-165.837	32.346	-0.026	-0.022
-164.823	-137.019	-0.487	-0.055
-163.808	-124.988	-0.824	-0.126
-162.793	-34.239	-0.515	0.280
-161.779	621.891	-0.350	-0.875
-160.764	-200.000	-0.013	0.060
-159.750	4.914	0.419	0.306
-158.735	235.371	-0.238	-0.390
-157.720	-200.000	0.079	-0.518
-156.706	479.819	0.049	0.110
-155.691	-44.741	-0.694	0.344
-154.677	-200.000	-0.032	-0.353
-153.662	-200.000	-0.053	0.542
-152.647	800.000	0.163	-0.480
-151.633	282.328	0.183	0.325
-150.618	24.914	0.259	0.213
-149.604	-143.366	-0.454	-0.043
-148.589	-178.782	1.217	0.028
-147.574	-65.825	0.882	0.350
-146.560	166.578	-0.395	-0.556
-145.545	-82.505	-0.493	0.159
-144.531	469.982	-0.168	0.375
-143.516	85.921	-0.363	-0.396
-142.502	-200.000	0.004	0.185
-141.487	-116.008	0.176	0.033
-140.472	-85.026	0.320	-0.099
-139.458	-66.884	0.227	0.089
-138.443	-106.516	0.319	-0.071
-137.429	169.133	0.830	-1.174
-136.414	-33.811	-0.900	-0.492
-135.399	258.050	0.303	0.517
-134.385	-200.000	-0.150	0.864
-133.370	-112.923	0.977	0.192
-132.356	-18.874	0.152	0.094
-131.341	-103.288	-1.017	-0.238
-130.326	-139.248	-0.655	-0.070
-129.312	158.812	0.373	-0.513
-128.297	800.000	0.261	0.860
-127.283	-106.219	0.349	-0.078
-126.268	-29.707	0.541	0.306
-125.253	-109.860	0.524	-0.109
-124.239	-200.000	-0.037	-0.822
-123.224	407.775	-0.207	0.434
-122.210	-110.917	-0.222	-0.045
-121.195	-54.432	-0.366	0.164
