DTS Sentinel unit serial number:	SN413079Multiplexer serial number:	ORYXHardware model number:	OX4-SRSoftware version number:	ORYX F/W v4.00 Oryx Data Collector v3.7.2.0data status	okinstallation	princeton_trtdifferential loss correction	single-endedforward channel	channel 4reverse channel	N/Adate	2019/09/19time	04:57:35forward acquisition time	60.00reverse acquisition time	0.00gamma	496.2192k internal	0.2340k external	0.2340temperature offset calibration	1.0030default loss term (dB/km)	0.3790temperature slope calibration	1.0000multiplexer offset coefficient	1.0000multiplexer slope coefficient	1.0000fibre end	0.00T internal ref (°C)	19.75T ext. ref 1 (°C)	0.61T ext. ref 2 (°C)	13.04length (m)	temperature (°C)	Stokes	anti-Stokes-747.200	28.633	0.087	0.074
-746.185	151.053	0.246	0.335
-745.171	-114.981	-0.177	-0.034
-744.156	-85.195	0.187	0.059
-743.142	56.807	0.197	0.192
-742.127	543.784	0.060	0.143
-741.112	-30.144	0.279	0.159
-740.098	-123.386	-0.321	0.051
-739.083	-200.000	-0.026	-0.198
-738.069	-10.875	-0.083	0.055
-737.054	800.000	-0.016	0.051
-736.039	-28.567	-0.324	-0.187
-735.025	-200.000	0.021	0.330
-734.010	-49.005	-0.230	0.110
-732.996	173.906	0.238	-0.344
-731.981	-121.714	0.271	-0.045
-730.966	90.561	-0.119	-0.133
-729.952	273.904	0.068	-0.121
-728.937	18.066	-0.053	0.042
-727.923	237.483	-0.153	-0.255
-726.908	-129.114	0.310	0.043
-725.894	-200.000	0.042	-0.320
-724.879	384.772	-0.086	0.178
-723.864	321.158	0.034	-0.065
-722.850	206.997	0.170	-0.266
-721.835	-200.000	0.000	0.008
-720.821	-200.000	0.005	-0.193
-719.806	13.179	-0.321	-0.249
-718.791	608.633	0.171	-0.428
-717.777	21.964	-0.437	0.357
-716.762	-200.000	0.010	-0.091
-715.748	800.000	0.037	0.157
-714.733	-101.068	-0.307	0.075
-713.718	-17.592	0.164	-0.103
-712.704	-4.889	-0.329	-0.227
-711.689	-119.521	-0.123	0.021
-710.675	-73.030	0.122	0.045
-709.660	-119.952	-0.127	-0.022
-708.645	-48.447	-0.207	-0.100
-707.631	-89.853	0.263	0.077
-706.616	-84.308	-0.172	-0.054
-705.602	217.182	-0.084	0.134
-704.587	597.225	-0.068	0.168
-703.572	-60.105	0.128	-0.054
-702.558	-134.376	-0.346	0.043
-701.543	267.882	-0.153	-0.268
-700.529	198.603	-0.159	0.244
-699.514	545.280	0.046	-0.110
-698.499	-200.000	-0.020	-0.149
-697.485	-200.000	-0.001	0.133
-696.470	187.386	-0.193	0.288
-695.456	-78.214	-0.348	-0.120
-694.441	768.355	0.020	-0.054
-693.426	157.316	0.151	0.209
-692.412	-98.615	-0.333	-0.085
-691.397	-125.681	0.052	0.008
-690.383	-160.109	-0.439	-0.024
-689.368	138.408	-0.285	0.375
-688.354	81.521	0.125	-0.135
-687.339	329.392	-0.265	0.511
-686.324	-117.457	-0.246	-0.044
-685.310	18.361	-0.016	-0.013
-684.295	-120.079	0.273	-0.047
-683.281	-46.327	-0.250	0.123
-682.266	432.548	-0.032	0.070
-681.251	-14.245	0.213	0.138
-680.237	-148.828	-0.114	-0.009
-679.222	-103.023	-0.125	-0.030
-678.208	-106.556	-0.504	-0.112
-677.193	142.764	-0.078	0.104
-676.178	-154.569	-0.313	0.021
-675.164	30.537	0.155	0.132
-674.149	270.332	0.102	-0.179
-673.135	-76.983	0.125	-0.044
-672.120	45.126	-0.061	-0.056
-671.105	-48.184	0.050	0.024
-670.091	-43.529	-0.350	-0.177
-669.076	-84.593	0.373	0.117
-668.062	89.435	-0.300	-0.334
-667.047	800.000	-0.099	-0.329
-666.032	-54.691	-0.143	-0.065
-665.018	-127.842	-0.091	0.013
-664.003	-200.000	0.002	-0.089
-662.989	-200.000	0.077	-0.463
-661.974	-74.739	-0.247	-0.089
-660.959	-13.708	0.267	-0.173
-659.945	-125.561	0.402	-0.061
-658.930	181.316	-0.192	-0.282
-657.916	-125.584	0.216	0.033
-656.901	-200.000	0.024	0.151
-655.886	-111.819	0.062	-0.013
-654.872	-59.511	-0.091	-0.039
-653.857	-4.035	-0.253	-0.175
-652.843	-67.173	-0.169	0.067
-651.828	-3.340	-0.193	-0.134
-650.814	-200.000	0.020	-0.097
-649.799	-7.235	-0.195	0.132
-648.784	-101.612	-0.085	0.021
-647.770	-81.848	0.047	-0.015
-646.755	-157.646	0.342	-0.020
-645.741	326.827	-0.044	0.083
-644.726	-200.000	0.021	-0.267
-643.711	800.000	-0.068	0.237
-642.697	39.413	0.134	0.120
-641.682	-34.463	0.114	0.062
-640.668	514.061	-0.069	-0.160
-639.653	-200.000	-0.059	0.272
-638.638	189.930	0.113	-0.169
-637.624	204.604	-0.197	0.304
-636.609	-200.000	-0.037	0.304
-635.595	-44.736	0.108	0.054
-634.580	-94.578	0.048	-0.013
-633.565	-61.098	0.276	-0.116
-632.551	-112.640	-0.217	0.043
-631.536	191.355	-0.180	-0.270
-630.522	705.268	0.161	0.425
-629.507	37.785	0.216	0.192
-628.492	-136.096	0.174	0.020
-627.478	-200.000	-0.027	0.136
-626.463	263.046	-0.234	-0.406
-625.449	800.000	-0.064	-0.186
-624.434	296.056	-0.237	-0.433
-623.419	-200.000	0.028	-0.314
-622.405	800.000	-0.053	-0.147
-621.390	536.679	0.120	0.284
-620.376	-200.000	-0.048	0.214
-619.361	197.863	0.182	0.277
-618.346	-66.534	-0.161	0.064
-617.332	-30.248	0.227	-0.128
-616.317	130.244	0.117	-0.150
-615.303	-200.000	-0.017	-0.129
-614.288	-61.053	-0.074	0.031
-613.273	-49.581	0.154	-0.073
-612.259	-57.927	0.191	0.083
-611.244	800.000	0.059	-0.221
-610.230	121.553	-0.139	0.173
-609.215	131.758	-0.274	0.352
-608.201	-2.255	0.409	-0.286
-607.186	-200.000	0.006	-0.283
-606.171	-200.000	-0.019	0.221
-605.157	-54.144	0.224	-0.101
-604.142	-68.420	-0.160	0.062
-603.128	17.752	-0.275	0.218
-602.113	-165.116	-0.035	-0.002
-601.098	-99.604	-0.328	-0.082
-600.084	-57.402	0.247	-0.108
-599.069	165.996	0.054	-0.076
-598.055	800.000	-0.097	-0.279
-597.040	-179.384	0.296	0.007
-596.025	513.648	-0.065	-0.151
-595.011	-200.000	-0.007	-0.534
-593.996	735.516	-0.094	-0.252
-592.982	-194.681	-0.338	0.003
-591.967	-200.000	0.001	-0.026
-590.952	-200.000	0.038	-0.192
-589.938	34.109	0.125	-0.108
-588.923	-90.214	0.079	-0.023
-587.909	48.257	0.119	0.111
-586.894	112.900	-0.337	-0.407
-585.879	800.000	-0.057	-0.222
-584.865	164.468	-0.148	0.208
-583.850	-82.524	0.357	-0.115
-582.836	-88.109	0.260	0.078
-581.821	70.296	-0.075	0.078
-580.806	-75.116	0.227	0.081
-579.792	-47.832	0.202	0.098
-578.777	-134.544	-0.197	0.024
-577.763	800.000	0.018	0.071
-576.748	-200.000	0.005	0.045
-575.733	659.508	-0.120	0.307
-574.719	359.664	0.049	-0.097
-573.704	266.765	-0.071	0.123
-572.690	353.167	0.134	0.264
-571.675	88.751	0.105	-0.116
-570.661	-200.000	-0.110	0.534
-569.646	-200.000	0.008	0.173
-568.631	64.843	-0.136	-0.137
-567.617	65.876	0.129	-0.130
-566.602	-144.979	-0.251	-0.023
-565.588	287.030	0.093	-0.167
-564.573	353.413	-0.088	0.173
-563.558	691.198	-0.152	-0.396
-562.544	21.118	0.104	-0.084
-561.529	330.398	0.105	-0.201
-560.515	-106.407	-0.137	0.031
-559.500	149.222	-0.296	-0.399
-558.485	800.000	-0.055	0.155
-557.471	-4.000	0.154	0.106
-556.456	-86.811	-0.188	0.057
-555.442	-120.735	-0.193	-0.032
-554.427	-40.510	0.227	-0.117
-553.412	-200.000	0.102	0.454
-552.398	633.997	0.122	0.309
-551.383	-200.000	-0.017	-0.155
-550.369	-200.000	-0.021	0.118
-549.354	-119.657	-0.253	0.044
-548.339	-200.000	0.007	-0.369
-547.325	144.293	0.246	-0.326
-546.310	128.908	-0.120	-0.152
-545.296	-31.630	-0.154	0.086
-544.281	-200.000	0.034	-0.229
-543.266	-58.982	-0.266	-0.114
-542.252	-135.538	-0.234	0.028
-541.237	800.000	-0.037	-0.133
-540.223	210.856	0.161	0.252
-539.208	135.834	-0.264	0.342
-538.193	-200.000	-0.010	-0.289
-537.179	20.978	0.172	0.139
-536.164	-106.562	0.066	-0.015
-535.150	800.000	-0.068	-0.240
-534.135	45.050	0.262	-0.240
-533.121	-58.631	0.254	-0.110
-532.106	252.915	-0.122	0.206
-531.091	800.000	0.067	-0.205
-530.077	-126.210	-0.102	-0.015
-529.062	-182.033	0.082	-0.002
-528.048	-7.098	0.291	-0.196
-527.033	198.540	-0.161	0.245
-526.018	-139.841	-0.048	0.005
-525.004	-200.000	0.007	0.138
-523.989	98.948	-0.106	-0.122
-522.975	-138.905	0.163	0.018
-521.960	-200.000	-0.060	0.551
-520.945	-91.507	-0.408	-0.116
-519.931	-179.604	-0.335	0.007
-518.916	800.000	0.021	-0.078
-517.902	-50.815	0.021	-0.010
-516.887	-151.043	-0.433	0.032
-515.872	-6.570	-0.192	-0.130
-514.858	-200.000	-0.007	-0.037
-513.843	-20.953	0.150	0.091
-512.829	607.204	0.113	0.280
-511.814	-74.879	-0.232	0.083
-510.799	678.280	-0.105	0.270
-509.785	-52.803	0.273	-0.125
-508.770	-98.722	0.176	0.044
-507.756	-94.504	-0.221	-0.060
-506.741	800.000	0.064	-0.198
-505.726	39.781	0.228	0.203
-504.712	283.371	-0.109	-0.195
-503.697	800.000	-0.009	-0.024
-502.683	800.000	-0.069	-0.223
-501.668	786.308	0.063	0.173
-500.653	800.000	0.095	-0.390
-499.639	800.000	-0.071	-0.212
-498.624	-15.087	-0.262	-0.167
-497.610	524.336	0.049	-0.114
-496.595	-200.000	0.006	-0.527
-495.581	188.868	-0.008	-0.012
-494.566	-168.701	0.242	-0.009
-493.551	-200.000	-0.039	-0.280
-492.537	800.000	0.058	-0.169
-491.522	294.419	-0.095	0.171
-490.508	-64.902	-0.079	0.032
-489.493	800.000	0.133	0.390
-488.478	181.282	-0.149	-0.217
-487.464	333.232	-0.117	0.225
-486.449	-53.781	-0.313	-0.142
-485.435	-86.164	0.106	0.033
-484.420	367.766	-0.115	-0.231
-483.405	-59.325	0.122	0.052
-482.391	75.569	0.013	-0.014
-481.376	492.443	-0.037	-0.085
-480.362	-1.443	-0.092	0.065
-479.347	-58.099	-0.262	-0.113
-478.332	150.860	-0.271	0.365
-477.318	-116.313	0.327	-0.060
-476.303	-14.865	0.322	0.205
-475.289	-84.477	0.074	-0.023
-474.274	-125.847	0.138	0.021
-473.259	133.788	-0.195	-0.250
-472.245	-19.561	-0.271	-0.166
-471.230	-9.109	-0.270	-0.179
-470.216	31.295	0.251	-0.214
-469.201	-200.000	0.011	-0.086
-468.186	-200.000	0.010	0.110
-467.172	-165.592	0.275	0.012
-466.157	800.000	-0.059	-0.205
-465.143	-200.000	0.013	0.400
-464.128	243.241	-0.245	0.407
-463.113	800.000	0.096	0.316
-462.099	-175.987	0.229	0.006
-461.084	-200.000	-0.016	0.087
-460.070	86.529	0.089	-0.098
-459.055	-21.690	0.234	-0.141
-458.040	-200.000	0.001	-0.212
-457.026	-200.000	0.024	0.136
-456.011	-200.000	-0.016	0.146
-454.997	284.971	-0.042	0.076
-453.982	-139.270	0.172	0.018
-452.968	12.586	-0.334	-0.256
-451.953	-200.000	0.019	-0.186
-450.938	201.525	-0.179	-0.274
-449.924	318.845	-0.137	0.258
-448.909	77.102	-0.099	0.104
-447.895	182.607	0.224	0.328
-446.880	51.708	-0.059	0.055
-445.865	800.000	0.053	0.159
-444.851	800.000	-0.092	0.254
-443.836	772.465	-0.037	0.099
-442.822	-77.301	-0.074	-0.026
-441.807	-30.993	-0.101	0.056
-440.792	-130.969	0.039	-0.005
-439.778	-141.778	-0.347	-0.034
-438.763	-200.000	-0.030	-0.229
-437.749	189.481	-0.254	-0.377
-436.734	304.934	-0.114	0.210
-435.719	200.464	-0.094	-0.144
-434.705	-140.709	0.286	0.029
-433.690	46.861	0.095	-0.087
-432.676	215.486	-0.260	-0.408
-431.661	81.190	0.163	0.174
-430.646	68.627	0.128	-0.130
-429.632	37.183	0.094	-0.082
-428.617	800.000	0.138	-0.500
-427.603	37.358	-0.113	-0.099
-426.588	-166.246	-0.280	0.012
-425.573	-59.589	-0.192	-0.082
-424.559	-200.000	0.008	0.098
-423.544	125.637	-0.144	0.180
-422.530	-16.086	0.186	0.117
-421.515	554.114	-0.097	0.231
-420.500	499.339	0.027	-0.062
-419.486	-73.406	0.129	-0.047
-418.471	800.000	0.015	-0.056
-417.457	-5.409	0.205	0.139
-416.442	-129.179	-0.352	0.049
-415.428	320.950	0.027	0.051
-414.413	-200.000	0.011	-0.070
-413.398	119.499	0.241	-0.295
-412.384	52.592	-0.097	0.091
-411.369	-35.064	0.251	0.135
-410.355	-200.000	-0.005	-0.195
-409.340	-56.475	0.356	-0.156
-408.325	-200.000	-0.040	-0.233
-407.311	7.330	0.371	-0.274
-406.296	-200.000	-0.015	0.339
-405.282	-106.888	-0.430	-0.094
-404.267	394.757	-0.042	0.087
-403.252	35.223	-0.180	0.156
-402.238	800.000	-0.033	-0.099
-401.223	28.819	0.172	-0.144
-400.209	49.840	-0.043	-0.040
-399.194	384.573	-0.187	0.382
-398.179	10.937	-0.092	-0.069
-397.165	-119.532	0.267	-0.046
-396.150	41.193	0.179	-0.160
-395.136	-22.683	-0.264	-0.157
-394.121	21.454	-0.169	0.136
-393.106	-200.000	-0.006	0.278
-392.092	38.101	0.135	-0.118
-391.077	442.580	0.034	-0.074
-390.063	2.286	0.254	0.181
-389.048	800.000	0.089	0.366
-388.033	68.145	-0.272	0.276
-387.019	35.335	-0.129	-0.112
-386.004	-99.383	0.079	-0.020
-384.990	27.088	-0.196	0.162
-383.975	-200.000	0.009	-0.249
-382.960	27.056	0.251	0.209
-381.946	-200.000	0.041	-0.189
-380.931	-141.669	-0.242	-0.024
-379.917	-23.800	0.282	0.167
-378.902	66.819	0.152	-0.152
-377.888	301.930	0.112	-0.205
-376.873	234.083	-0.121	0.197
-375.858	-200.000	0.071	0.320
-374.844	-21.224	0.300	-0.181
-373.829	-9.712	-0.209	0.137
-372.815	228.474	0.145	-0.234
-371.800	-200.000	-0.053	-0.266
-370.785	72.898	-0.091	-0.094
-369.771	157.551	-0.127	0.173
-368.756	286.826	-0.144	-0.257
-367.742	800.000	-0.029	-0.116
-366.727	-200.000	0.032	0.290
-365.712	252.148	0.087	-0.147
-364.698	-127.913	0.040	0.006
-363.683	800.000	0.094	-0.257
-362.669	418.118	-0.078	-0.165
-361.654	-200.000	0.025	0.142
-360.639	-143.882	-0.139	-0.013
-359.625	603.369	-0.076	0.186
-358.610	429.462	0.044	0.094
-357.596	-200.000	-0.011	0.118
-356.581	-108.230	0.233	0.050
-355.566	-109.229	0.129	0.027
-354.552	-12.052	0.093	0.060
-353.537	-1.739	0.208	-0.144
-352.523	235.519	-0.207	0.337
-351.508	521.374	0.157	0.365
-350.493	-0.168	-0.384	0.269
-349.479	-182.232	0.256	0.005
-348.464	800.000	-0.084	-0.240
-347.450	800.000	-0.070	0.242
-346.435	-134.899	-0.042	0.005
-345.420	800.000	-0.068	-0.268
-344.406	241.435	0.126	-0.207
-343.391	35.133	0.139	-0.121
-342.377	-31.565	-0.163	0.090
-341.362	-37.440	0.238	-0.125
-340.348	77.745	-0.078	0.082
-339.333	78.333	-0.188	0.199
-338.318	-200.000	-0.027	0.228
-337.304	-50.039	-0.028	-0.013
-336.289	107.114	0.142	0.167
-335.275	-58.227	0.264	-0.114
-334.260	-200.000	0.025	-0.166
-333.245	-102.299	-0.217	0.051
-332.231	375.499	0.122	0.246
-331.216	81.928	-0.286	0.306
-330.202	-200.000	-0.064	-0.296
-329.187	86.243	-0.045	-0.049
-328.172	800.000	0.022	0.067
-327.158	800.000	0.088	0.264
-326.143	468.337	0.056	0.124
-325.129	-200.000	0.027	0.555
-324.114	-63.838	-0.177	0.071
-323.099	-200.000	0.029	-0.182
-322.085	-62.221	0.154	-0.063
-321.070	-29.829	0.092	0.052
-320.056	115.660	0.132	0.159
-319.041	11.393	0.066	-0.050
-318.026	74.031	0.109	0.113
-317.012	376.890	0.104	-0.208
-315.997	-200.000	0.005	0.066
-314.983	-167.222	0.044	0.002
-313.968	800.000	-0.013	0.053
-312.953	800.000	0.072	-0.210
-311.939	-200.000	-0.017	-0.283
-310.924	-200.000	-0.008	0.048
-309.910	-200.000	-0.025	0.486
-308.895	698.445	0.111	0.288
-307.880	-200.000	0.040	0.304
-306.866	29.073	-0.295	0.247
-305.851	-88.335	0.139	0.041
-304.837	7.438	-0.081	-0.059
-303.822	-200.000	0.082	-0.393
-302.807	-200.000	-0.007	0.040
-301.793	-105.147	0.314	-0.071
-300.778	177.156	-0.188	0.270
-299.764	-112.403	-0.214	0.042
-298.749	-83.401	0.154	0.049
-297.735	9.800	-0.258	0.193
-296.720	-200.000	-0.043	-0.289
-295.705	95.010	0.136	-0.152
-294.691	-157.872	0.084	-0.005
-293.676	-85.639	-0.067	0.020
-292.662	800.000	0.007	-0.024
-291.647	179.532	-0.240	0.347
-290.632	-200.000	0.000	0.037
-289.618	-123.435	-0.330	-0.052
-288.603	-34.990	-0.057	-0.031
-287.589	-115.194	-0.217	-0.041
-286.574	238.132	-0.151	-0.247
-285.559	800.000	-0.013	0.044
-284.545	-113.727	-0.184	0.035
-283.530	-200.000	-0.011	0.218
-282.516	773.028	0.100	-0.269
-281.501	-59.946	-0.206	0.087
-280.486	-5.297	0.200	0.135
-279.472	99.882	0.288	0.329
-278.457	16.716	-0.143	0.111
-277.443	800.000	-0.063	0.183
-276.428	288.992	-0.203	0.362
-275.413	-51.555	0.296	0.136
-274.399	90.607	0.150	-0.166
-273.384	-15.445	0.079	-0.049
-272.370	-200.000	-0.046	0.244
-271.355	-200.000	-0.035	-0.178
-270.340	-169.218	0.260	0.009
-269.326	94.207	0.121	-0.135
-268.311	800.000	0.029	-0.122
-267.297	800.000	-0.041	0.156
-266.282	-200.000	0.051	0.280
-265.267	-200.000	0.009	0.047
-264.253	215.534	0.098	-0.152
-263.238	-55.746	0.209	0.092
-262.224	-80.436	0.353	-0.116
-261.209	76.628	-0.060	-0.063
-260.195	-200.000	-0.071	-0.439
-259.180	-200.000	-0.053	-0.293
-258.165	-87.040	0.312	-0.093
-257.151	800.000	0.053	0.195
-256.136	-122.895	-0.163	0.026
-255.122	800.000	0.063	0.229
-254.107	123.746	-0.138	0.170
-253.092	-84.571	0.064	0.020
-252.078	-58.985	-0.152	0.065
-251.063	-109.120	-0.341	0.071
-250.049	-144.411	0.375	0.034
-249.034	-110.728	0.190	0.038
-248.019	-120.180	-0.162	-0.027
-247.005	233.353	-0.138	0.224
-245.990	-4.201	-0.044	0.030
-244.976	-25.431	0.220	-0.128
-243.961	163.230	-0.236	-0.326
-242.946	-96.127	0.184	-0.048
-241.932	32.965	0.297	0.253
-240.917	258.043	0.066	-0.112
-239.903	-200.000	-0.067	-0.359
-238.888	-135.957	0.097	-0.011
-237.873	286.703	-0.046	0.082
-236.859	-88.817	0.244	0.071
-235.844	-200.000	0.085	0.369
-234.830	-200.000	0.020	-0.291
-233.815	-87.183	-0.137	0.041
-232.800	-82.194	-0.199	-0.064
-231.786	23.350	-0.195	0.158
-230.771	547.491	0.182	0.428
-229.757	800.000	0.131	-0.364
-228.742	-133.220	-0.236	-0.029
-227.727	675.047	0.084	-0.214
-226.713	-97.590	-0.132	-0.034
-225.698	800.000	-0.085	0.360
-224.684	-127.635	0.317	-0.045
-223.669	-146.639	0.061	-0.005
-222.655	519.360	-0.107	0.246
-221.640	-26.856	-0.115	-0.066
-220.625	800.000	-0.027	0.104
-219.611	-167.260	0.070	0.003
-218.596	205.132	0.108	-0.165
-217.582	-126.085	-0.148	0.022
-216.567	-200.000	-0.005	0.273
-215.552	-19.351	-0.071	0.043
-214.538	216.495	0.155	-0.242
-213.523	12.384	-0.190	-0.144
-212.509	800.000	0.036	-0.107
-211.494	-28.716	0.048	-0.027
-210.479	264.600	0.029	0.049
-209.465	145.844	0.020	0.026
-208.450	-79.455	-0.167	0.056
-207.436	559.049	0.130	0.308
-206.421	277.721	-0.140	0.244
-205.406	-51.192	-0.300	-0.138
-204.392	-47.222	-0.060	0.029
-203.377	-106.419	0.246	0.054
-202.363	-110.877	0.103	0.021
-201.348	117.213	0.238	0.287
-200.333	-200.000	-0.011	0.228
-199.319	-80.616	-0.247	-0.081
-198.304	140.472	-0.213	-0.276
-197.290	-89.560	0.362	-0.104
-196.275	-20.989	-0.145	-0.087
-195.260	20.295	-0.125	-0.099
-194.246	241.405	-0.127	-0.207
-193.231	237.642	0.133	-0.217
-192.217	-197.615	0.139	0.001
-191.202	-151.572	-0.086	-0.006
-190.187	103.419	0.281	-0.324
-189.173	118.839	0.134	-0.162
-188.158	510.364	-0.093	0.213
-187.144	-200.000	-0.057	0.291
-186.129	-200.000	0.014	0.310
-185.114	-68.141	-0.224	-0.086
-184.100	307.251	0.134	-0.245
-183.085	-100.949	-0.134	-0.032
-182.071	218.901	0.103	-0.162
-181.056	-200.000	-0.001	-0.235
-180.042	-145.308	-0.170	-0.015
-179.027	65.515	0.171	0.169
-178.012	-189.689	-0.365	0.004
-176.998	-31.781	0.173	0.095
-175.983	48.895	0.109	0.100
-174.969	-161.547	-0.398	-0.020
-173.954	-45.017	0.157	-0.077
-172.939	1.742	-0.161	0.114
-171.925	58.831	0.197	0.190
-170.910	16.244	-0.162	-0.126
-169.896	-145.748	-0.214	-0.019
-168.881	-52.513	0.070	-0.032
-167.866	16.983	0.144	-0.112
-166.852	-103.700	-0.359	0.083
-165.837	-65.183	-0.018	-0.007
-164.823	-200.000	0.014	0.242
-163.808	521.937	0.060	0.139
-162.793	-24.429	0.413	-0.241
-161.779	800.000	0.055	0.152
-160.764	80.318	0.184	-0.194
-159.750	-113.730	-0.051	0.010
-158.735	39.496	0.278	-0.244
-157.720	300.005	-0.014	0.025
-156.706	19.721	0.167	-0.132
-155.691	-154.450	-0.114	0.008
-154.677	-200.000	0.024	-0.204
-153.662	-139.098	0.361	0.038
-152.647	22.429	0.139	-0.111
-151.633	95.242	-0.131	-0.146
-150.618	-29.667	-0.204	0.114
-149.604	231.229	0.081	-0.130
-148.589	-47.763	0.234	0.111
-147.574	-101.931	0.032	0.008
-146.560	800.000	-0.060	0.177
-145.545	-2.132	-0.309	-0.213
-144.531	-17.766	0.281	-0.173
-143.516	-91.214	0.200	-0.056
-142.502	-40.620	-0.215	-0.109
-141.487	-23.073	0.152	0.090
-140.472	126.444	-0.033	0.041
-139.458	-179.966	-0.260	0.005
-138.443	488.642	-0.122	-0.272
-137.429	-126.556	-0.142	-0.021
-136.414	-149.130	-0.097	-0.008
-135.399	-108.416	0.036	0.008
-134.385	-73.593	0.152	0.054
-133.370	159.497	0.175	0.239
-132.356	624.474	-0.117	0.288
-131.341	614.537	0.072	0.176
-130.326	189.639	0.138	0.203
-129.312	-124.442	0.226	-0.034
-128.297	-3.713	-0.244	-0.166
-127.283	-200.000	-0.038	-0.423
-126.268	-94.872	0.224	0.059
-125.253	68.534	-0.109	-0.109
-124.239	-168.080	0.164	-0.006
-123.224	-79.027	-0.435	-0.145
-122.210	-124.485	0.249	-0.038
