DTS Sentinel unit serial number:	SN413079Multiplexer serial number:	ORYXHardware model number:	OX4-SRSoftware version number:	ORYX F/W v4.00 Oryx Data Collector v3.7.2.0data status	okinstallation	princeton_trtdifferential loss correction	single-endedforward channel	channel 4reverse channel	N/Adate	2019/09/19time	13:49:34forward acquisition time	60.00reverse acquisition time	0.00gamma	496.2192k internal	0.2310k external	0.2310temperature offset calibration	1.0019default loss term (dB/km)	0.3790temperature slope calibration	1.0000multiplexer offset coefficient	1.0000multiplexer slope coefficient	1.0000fibre end	0.00T internal ref (°C)	30.72T ext. ref 1 (°C)	1.00T ext. ref 2 (°C)	27.99length (m)	temperature (°C)	Stokes	anti-Stokes-747.200	241.112	0.058	-0.099
-746.185	-72.391	-0.278	0.105
-745.171	-117.511	-0.248	-0.045
-744.156	-200.000	-0.009	0.104
-743.142	-6.262	0.028	-0.019
-742.127	306.992	-0.057	0.109
-741.112	41.710	0.203	0.186
-740.098	72.267	0.037	0.039
-739.083	173.947	-0.076	-0.112
-738.069	800.000	0.129	0.407
-737.054	-169.784	0.104	-0.004
-736.039	105.333	0.041	-0.049
-735.025	140.634	0.275	0.369
-734.010	-79.953	-0.292	-0.100
-732.996	800.000	0.116	-0.412
-731.981	499.197	0.086	0.201
-730.966	388.864	-0.098	0.206
-729.952	-72.597	-0.105	-0.039
-728.937	716.891	-0.064	-0.171
-727.923	470.560	0.148	0.338
-726.908	-93.988	-0.622	0.173
-725.894	-20.144	-0.157	-0.098
-724.879	658.016	0.078	0.204
-723.864	92.954	0.114	0.130
-722.850	-89.963	0.078	0.023
-721.835	61.511	-0.264	0.267
-720.821	800.000	0.065	0.213
-719.806	-44.096	-0.269	0.137
-718.791	-50.367	-0.318	-0.152
-717.777	271.440	-0.149	-0.266
-716.762	-66.930	-0.237	0.095
-715.748	-24.059	0.165	-0.100
-714.733	800.000	-0.083	-0.238
-713.718	-166.581	-0.539	0.023
-712.704	13.281	0.090	-0.071
-711.689	799.818	-0.057	-0.158
-710.675	535.585	-0.081	-0.195
-709.660	-2.728	-0.108	-0.077
-708.645	-152.298	0.356	-0.026
-707.631	-200.000	-0.010	0.143
-706.616	-125.965	-0.254	-0.039
-705.602	-51.189	-0.281	-0.133
-704.587	676.500	-0.012	0.030
-703.572	-153.563	-0.231	-0.016
-702.558	-200.000	-0.011	-0.481
-701.543	-121.664	0.105	0.018
-700.529	154.267	0.072	0.100
-699.514	141.628	-0.129	-0.173
-698.499	32.811	0.240	-0.211
-697.485	197.145	-0.278	0.430
-696.470	-25.553	0.277	-0.166
-695.456	-96.480	-0.364	0.098
-694.441	800.000	0.029	-0.111
-693.426	637.486	0.040	0.102
-692.412	-73.697	-0.086	0.032
-691.397	-12.168	-0.207	0.137
-690.383	-55.047	0.093	-0.043
-689.368	-200.000	-0.002	-0.058
-688.354	35.086	0.225	-0.200
-687.339	363.700	0.102	-0.208
-686.324	32.319	0.225	-0.196
-685.310	136.136	-0.146	-0.193
-684.295	83.525	-0.156	0.173
-683.281	-67.347	0.265	-0.105
-682.266	91.853	-0.032	-0.036
-681.251	-49.880	0.447	-0.215
-680.237	-61.158	0.095	0.040
-679.222	-200.000	-0.012	-0.114
-678.208	-166.182	0.234	-0.010
-677.193	-200.000	-0.023	-0.340
-676.178	-12.668	-0.087	-0.057
-675.164	218.211	-0.082	0.133
-674.149	434.975	-0.136	0.299
-673.135	-6.423	0.139	-0.096
-672.120	-200.000	0.016	-0.334
-671.105	11.558	0.091	0.071
-670.091	164.765	-0.126	-0.180
-669.076	35.212	-0.246	0.218
-668.062	81.940	0.102	-0.112
-667.047	423.841	-0.167	-0.364
-666.032	-12.104	-0.096	0.064
-665.018	344.723	0.131	0.261
-664.003	85.945	-0.069	-0.076
-662.989	76.702	-0.118	0.127
-661.974	146.422	-0.115	0.157
-660.959	-42.380	-0.023	-0.012
-659.945	124.786	-0.247	-0.315
-658.930	-200.000	-0.018	-0.105
-657.916	-39.731	-0.045	0.024
-656.901	191.432	-0.161	-0.245
-655.886	731.494	0.072	-0.195
-654.872	135.038	-0.038	0.049
-653.857	-23.344	-0.308	0.188
-652.843	-200.000	0.010	0.266
-651.828	-24.617	0.190	-0.115
-650.814	56.396	0.219	-0.216
-649.799	-108.546	0.308	0.067
-648.784	-83.233	-0.066	0.021
-647.770	800.000	-0.035	-0.146
-646.755	-200.000	0.002	0.032
-645.741	-97.967	-0.176	0.046
-644.726	-130.098	0.262	-0.036
-643.711	42.939	-0.133	0.123
-642.697	443.791	-0.088	0.194
-641.682	-200.000	0.005	-0.194
-640.668	-90.929	-0.354	0.103
-639.653	800.000	0.028	-0.088
-638.638	-5.887	-0.038	-0.026
-637.624	583.291	-0.114	0.283
-636.609	2.766	-0.102	-0.075
-635.595	404.408	0.068	-0.144
-634.580	592.794	-0.032	-0.081
-633.565	-46.354	-0.355	-0.177
-632.551	-14.078	-0.397	-0.259
-631.536	291.384	-0.105	0.193
-630.522	32.939	-0.051	-0.044
-629.507	591.748	0.021	0.053
-628.492	-68.513	0.160	-0.063
-627.478	-78.644	0.333	-0.115
-626.463	-115.366	-0.209	0.040
-625.449	-77.165	-0.144	0.051
-624.434	27.242	-0.029	0.024
-623.419	215.276	0.257	0.413
-622.405	-67.620	-0.202	0.080
-621.390	-17.236	0.388	0.247
-620.376	-144.125	0.424	0.040
-619.361	401.802	-0.026	-0.056
-618.346	-137.484	-0.421	-0.048
-617.332	800.000	0.082	-0.273
-616.317	-156.812	-0.125	0.008
-615.303	-200.000	-0.067	-0.000
-614.288	-200.000	0.015	-0.096
-613.273	168.287	0.092	0.132
-612.259	800.000	-0.145	0.477
-611.244	-119.818	-0.333	0.058
-610.230	-117.680	0.177	0.032
-609.215	-151.500	-0.145	0.011
-608.201	-161.448	-0.357	-0.019
-607.186	14.988	-0.139	-0.110
-606.171	-155.432	0.185	0.012
-605.157	231.821	-0.047	-0.078
-604.142	324.527	0.118	0.228
-603.128	-200.000	0.050	0.235
-602.113	124.602	0.182	-0.231
-601.098	-2.669	0.215	0.152
-600.084	-200.000	-0.001	-0.211
-599.069	-200.000	0.052	-0.305
-598.055	-22.431	0.170	-0.104
-597.040	-73.277	0.248	0.092
-596.025	-200.000	-0.004	-0.181
-595.011	-143.275	0.553	0.054
-593.996	-123.846	-0.535	-0.085
-592.982	-200.000	-0.017	-0.173
-591.967	414.755	-0.064	-0.138
-590.952	43.229	0.152	0.140
-589.938	285.825	0.018	-0.034
-588.923	-44.017	-0.199	0.101
-587.909	800.000	0.110	-0.365
-586.894	800.000	0.032	-0.126
-585.879	163.392	-0.172	-0.244
-584.865	800.000	-0.046	0.166
-583.850	-200.000	0.040	-0.271
-582.836	-200.000	0.105	-0.496
-581.821	-7.789	0.134	-0.091
-580.806	800.000	-0.034	-0.096
-579.792	-200.000	-0.034	0.528
-578.777	-132.025	0.241	0.032
-577.763	-128.652	0.148	-0.021
-576.748	-200.000	-0.014	0.065
-575.733	-200.000	0.014	-0.275
-574.719	-200.000	0.014	-0.141
-573.704	433.580	-0.056	0.123
-572.690	288.136	0.059	-0.108
-571.675	501.570	-0.181	-0.421
-570.661	-137.925	-0.060	-0.007
-569.646	621.287	0.053	0.136
-568.631	94.220	-0.104	-0.119
-567.617	198.289	0.077	0.118
-566.602	465.354	0.015	-0.033
-565.588	-149.551	0.343	0.027
-564.573	-1.563	-0.212	0.151
-563.558	128.193	0.163	0.210
-562.544	173.009	-0.227	0.330
-561.529	-68.462	0.298	-0.117
-560.515	185.306	0.123	0.184
-559.500	-14.336	-0.300	0.195
-558.485	703.563	0.071	-0.189
-557.471	21.787	0.085	0.070
-556.456	-151.983	0.281	0.021
-555.442	-17.185	0.183	-0.116
-554.427	-11.521	-0.337	0.223
-553.412	-200.000	-0.041	-0.191
-552.398	303.858	-0.048	-0.089
-551.383	-107.818	0.090	0.020
-550.369	-85.540	-0.218	-0.068
-549.354	-200.000	-0.024	0.272
-548.339	-200.000	-0.009	0.372
-547.325	463.426	0.076	-0.172
-546.310	800.000	0.075	0.211
-545.296	-3.645	-0.312	-0.219
-544.281	172.888	-0.059	-0.085
-543.266	111.994	-0.052	-0.064
-542.252	501.838	0.093	-0.218
-541.237	202.886	0.194	0.302
-540.223	800.000	0.050	-0.148
-539.208	-148.935	-0.223	-0.018
-538.193	-200.000	0.006	-0.280
-537.179	-108.746	0.031	0.007
-536.164	96.425	-0.179	0.206
-535.150	-73.549	-0.131	0.048
-534.135	800.000	0.047	0.148
-533.121	-200.000	-0.016	0.397
-532.106	128.536	0.114	-0.146
-531.091	-125.172	-0.175	0.027
-530.077	-149.694	0.166	-0.013
-529.062	187.376	-0.167	-0.251
-528.048	232.824	0.307	-0.509
-527.033	800.000	0.192	-0.552
-526.018	82.816	0.044	0.048
-525.004	800.000	0.029	-0.088
-523.989	108.823	-0.035	-0.042
-522.975	-200.000	0.038	-0.252
-521.960	7.710	0.351	0.265
-520.945	217.016	-0.302	0.484
-519.931	-47.109	0.384	-0.188
-518.916	12.739	-0.224	0.174
-517.902	-66.882	0.128	0.051
-516.887	-16.611	0.167	-0.107
-515.872	-200.000	-0.052	0.270
-514.858	-200.000	0.004	0.257
-513.843	-200.000	-0.060	0.372
-512.829	800.000	0.057	-0.192
-511.814	-85.653	0.155	-0.049
-510.799	-200.000	-0.028	0.295
-509.785	-157.228	0.429	0.026
-508.770	686.931	-0.033	-0.086
-507.756	-200.000	0.008	-0.089
-506.741	230.504	0.258	0.424
-505.726	-14.885	0.218	-0.141
-504.712	800.000	-0.055	-0.230
-503.697	26.913	0.103	-0.087
-502.683	-200.000	0.013	0.225
-501.668	-200.000	0.037	0.257
-500.653	304.688	-0.065	-0.122
-499.639	26.582	0.255	0.215
-498.624	800.000	0.071	0.233
-497.610	666.137	0.066	0.171
-496.595	800.000	-0.112	-0.332
-495.581	-167.316	-0.156	-0.006
-494.566	406.915	0.134	0.285
-493.551	-72.750	-0.205	0.076
-492.537	-200.000	-0.065	0.360
-491.522	99.705	-0.256	-0.298
-490.508	-109.575	-0.023	-0.005
-489.493	-200.000	0.076	0.341
-488.478	35.739	0.087	-0.077
-487.464	800.000	0.006	-0.026
-486.449	480.211	0.107	0.244
-485.435	40.346	-0.178	-0.161
-484.420	185.547	-0.083	-0.123
-483.405	-8.166	-0.482	0.327
-482.391	800.000	-0.087	0.301
-481.376	-200.000	0.027	0.173
-480.362	349.457	-0.128	0.255
-479.347	-143.971	-0.282	-0.027
-478.332	20.021	-0.015	0.012
-477.318	23.865	0.167	-0.139
-476.303	-21.104	-0.352	-0.217
-475.289	-200.000	-0.000	0.097
-474.274	260.506	-0.157	0.273
-473.259	125.108	0.179	-0.227
-472.245	-122.169	-0.004	-0.001
-471.230	44.713	-0.072	0.066
-470.216	14.038	0.182	0.142
-469.201	-162.986	-0.403	0.020
-468.186	262.664	-0.050	-0.088
-467.172	800.000	0.041	0.143
-466.157	780.598	-0.037	-0.102
-465.143	415.303	-0.136	-0.292
-464.128	12.932	-0.257	-0.200
-463.113	58.816	-0.108	-0.106
-462.099	42.070	0.096	0.087
-461.084	-87.880	-0.275	-0.083
-460.070	-115.369	0.203	-0.038
-459.055	800.000	-0.026	0.089
-458.040	-200.000	-0.003	0.163
-457.026	32.861	-0.180	-0.156
-456.011	-34.970	-0.214	0.117
-454.997	339.496	-0.016	0.031
-453.982	44.724	0.087	-0.081
-452.968	-200.000	0.104	0.638
-451.953	-35.980	0.182	-0.099
-450.938	800.000	0.019	0.076
-449.924	293.483	0.044	0.081
-448.909	800.000	-0.125	-0.435
-447.895	188.371	-0.186	0.280
-446.880	-42.316	-0.156	-0.080
-445.865	-200.000	0.028	-0.147
-444.851	-6.271	-0.221	0.151
-443.836	50.935	-0.267	-0.254
-442.822	180.300	0.224	-0.329
-441.807	-200.000	-0.016	0.082
-440.792	-60.702	-0.109	0.046
-439.778	-36.889	0.061	-0.033
-438.763	-200.000	0.015	-0.149
-437.749	-129.000	-0.432	0.061
-436.734	14.987	-0.102	-0.080
-435.719	15.628	0.269	0.212
-434.705	-62.522	-0.203	0.085
-433.690	148.651	-0.110	-0.150
-432.676	-200.000	-0.019	-0.260
-431.661	379.682	0.071	0.147
-430.646	-200.000	-0.058	0.284
-429.632	588.275	-0.241	0.594
-428.617	791.103	-0.048	0.132
-427.603	800.000	0.047	0.183
-426.588	-74.534	0.191	0.069
-425.573	232.935	0.142	0.233
-424.559	-7.314	-0.176	-0.119
-423.544	-87.948	0.430	0.130
-422.530	-151.114	-0.589	0.044
-421.515	800.000	0.043	-0.122
-420.500	73.080	-0.095	-0.099
-419.486	192.698	0.242	-0.366
-418.471	54.113	0.056	-0.054
-417.457	209.425	0.031	-0.049
-416.442	195.971	-0.155	0.236
-415.428	-122.110	0.134	-0.022
-414.413	-80.560	0.271	-0.090
-413.398	-30.810	-0.220	0.125
-412.384	-62.588	-0.075	-0.031
-411.369	77.439	0.104	-0.111
-410.355	214.300	-0.052	-0.083
-409.340	1.282	0.366	0.263
-408.325	50.792	0.074	-0.071
-407.311	-67.404	-0.389	0.153
-406.296	800.000	-0.028	-0.122
-405.282	247.166	0.118	-0.200
-404.267	538.796	-0.050	0.118
-403.252	-200.000	0.028	0.321
-402.238	-36.291	0.089	0.048
-401.223	140.797	0.056	-0.074
-400.209	-27.245	0.485	-0.283
-399.194	800.000	-0.037	0.156
-398.179	120.105	0.097	-0.120
-397.165	-109.731	0.382	-0.080
-396.150	-79.707	-0.324	-0.109
-395.136	47.481	-0.117	0.109
-394.121	800.000	-0.120	0.339
-393.106	-49.520	0.489	-0.233
-392.092	-114.866	0.189	-0.036
-391.077	391.763	0.063	-0.132
-390.063	-200.000	-0.008	0.455
-389.048	277.255	-0.154	-0.274
-388.033	-37.469	-0.128	-0.068
-387.019	-95.740	-0.136	-0.036
-386.004	-59.281	-0.058	0.025
-384.990	39.431	-0.214	-0.192
-383.975	-58.450	-0.287	0.125
-382.960	-200.000	-0.025	-0.132
-381.946	137.816	-0.183	-0.240
-380.931	-62.137	-0.291	0.122
-379.917	445.768	-0.170	-0.373
-378.902	70.717	-0.036	0.038
-377.888	127.086	0.088	-0.112
-376.873	46.555	0.117	0.109
-375.858	278.195	-0.146	0.261
-374.844	-200.000	-0.006	0.058
-373.829	-62.769	-0.118	0.049
-372.815	-52.171	-0.103	0.048
-371.800	-126.668	0.415	-0.062
-370.785	-200.000	-0.055	-0.332
-369.771	149.647	0.082	0.112
-368.756	166.241	0.112	0.158
-367.742	800.000	0.069	-0.225
-366.727	-200.000	0.010	0.262
-365.712	-200.000	0.038	0.237
-364.698	-120.994	-0.197	-0.033
-363.683	-187.342	-0.245	0.003
-362.669	-140.861	0.205	0.021
-361.654	-138.541	0.293	0.032
-360.639	343.288	-0.131	-0.256
-359.625	76.219	0.203	0.215
-358.610	68.300	-0.194	-0.199
-357.596	-200.000	-0.016	-0.099
-356.581	-37.450	0.138	-0.074
-355.566	-107.447	-0.296	-0.065
-354.552	10.057	-0.057	-0.043
-353.537	199.678	-0.207	0.318
-352.523	-85.705	-0.138	0.043
-351.508	183.447	0.168	-0.248
-350.493	222.182	0.092	-0.148
-349.479	500.781	0.047	0.109
-348.464	-94.205	-0.399	-0.109
-347.450	323.022	0.193	-0.367
-346.435	-200.000	0.009	0.080
-345.420	-27.740	0.131	-0.076
-344.406	800.000	0.053	0.220
-343.391	96.137	-0.213	0.243
-342.377	800.000	0.055	-0.212
-341.362	800.000	0.057	0.176
-340.348	16.431	-0.152	0.120
-339.333	-60.675	-0.273	0.116
-338.318	40.954	0.444	-0.401
-337.304	-200.000	-0.027	0.348
-336.289	207.861	0.115	-0.179
-335.275	82.127	-0.278	-0.301
-334.260	-200.000	-0.001	-0.152
-333.245	9.342	0.205	0.155
-332.231	79.425	-0.237	0.254
-331.216	800.000	0.042	-0.120
-330.202	51.485	0.182	-0.173
-329.187	800.000	0.018	-0.061
-328.172	-35.988	-0.247	0.134
-327.158	-103.609	0.260	-0.061
-326.143	800.000	-0.096	0.316
-325.129	-158.295	-0.262	-0.015
-324.114	22.326	-0.277	-0.227
-323.099	61.739	0.198	0.197
-322.085	242.807	0.157	0.262
-321.070	91.174	0.241	0.270
-320.056	192.326	-0.107	-0.161
-319.041	80.274	-0.050	0.054
-318.026	-181.866	0.446	-0.009
-317.012	305.545	-0.114	-0.212
-315.997	-200.000	0.027	-0.123
-314.983	218.540	0.014	-0.023
-313.968	64.642	-0.259	-0.261
-312.953	180.568	-0.083	0.122
-311.939	-15.539	0.110	-0.070
-310.924	413.390	0.105	-0.222
-309.910	10.243	-0.094	0.071
-308.895	-106.711	0.284	0.063
-307.880	486.930	-0.054	0.123
-306.866	-200.000	-0.010	0.114
-305.851	-200.000	-0.014	-0.250
-304.837	150.375	-0.192	-0.261
-303.822	-86.888	0.355	-0.108
-302.807	-45.241	0.370	-0.184
-301.793	-4.540	0.098	-0.068
-300.778	125.229	0.120	0.152
-299.764	-86.762	0.217	-0.066
-298.749	-97.172	-0.097	-0.025
-297.735	61.404	0.229	0.228
-296.720	149.778	-0.177	0.240
-295.705	-200.000	0.033	-0.192
-294.691	-200.000	-0.012	-0.242
-293.676	800.000	-0.078	-0.307
-292.662	376.846	-0.177	0.361
-291.647	62.423	-0.101	-0.101
-290.632	-168.680	0.101	-0.004
-289.618	133.763	-0.099	0.128
-288.603	-141.423	-0.243	0.025
-287.589	800.000	0.029	-0.109
-286.574	-148.870	0.240	0.019
-285.559	200.308	-0.113	-0.173
-284.545	17.060	0.154	0.122
-283.530	-105.836	-0.205	-0.046
-282.516	-70.969	-0.103	-0.039
-281.501	800.000	0.063	-0.248
-280.486	-134.108	-0.183	0.023
-279.472	-11.544	-0.237	-0.156
-278.457	227.098	-0.113	-0.184
-277.443	-102.748	0.131	-0.031
-276.428	-81.268	0.246	-0.081
-275.413	359.816	-0.117	0.234
-274.399	-167.085	0.167	-0.007
-273.384	203.465	0.039	0.060
-272.370	25.313	0.022	-0.018
-271.355	-10.867	0.085	-0.056
-270.340	-58.602	0.136	-0.059
-269.326	-200.000	-0.039	0.202
-268.311	191.816	-0.190	0.285
-267.297	-200.000	0.013	-0.111
-266.282	-98.922	-0.118	-0.030
-265.267	142.911	-0.326	-0.432
-264.253	-200.000	0.012	0.382
-263.238	151.404	0.202	-0.274
-262.224	-200.000	-0.025	0.210
-261.209	210.870	-0.016	-0.026
-260.195	329.497	-0.131	-0.250
-259.180	227.335	0.104	-0.169
-258.165	-200.000	0.038	0.186
-257.151	-113.943	0.313	0.061
-256.136	-60.141	0.145	-0.062
-255.122	-103.196	0.238	-0.056
-254.107	-70.667	0.237	-0.089
-253.092	-51.165	-0.248	0.116
-252.078	573.105	-0.096	0.233
-251.063	-52.038	0.063	-0.029
-250.049	-142.640	0.311	0.030
-249.034	462.337	0.013	-0.029
-248.019	-200.000	-0.012	-0.103
-247.005	-87.596	-0.355	0.107
-245.990	-122.571	0.164	-0.027
-244.976	-29.496	0.317	0.180
-243.961	-53.760	-0.278	0.127
-242.946	130.393	-0.141	0.180
-241.932	46.154	0.227	-0.209
-240.917	154.850	-0.016	-0.022
-239.903	82.460	0.176	0.190
-238.888	-111.967	0.130	-0.026
-237.873	-200.000	-0.015	0.068
-236.859	19.078	0.139	0.111
-235.844	-200.000	0.036	-0.394
-234.830	132.151	0.101	-0.130
-233.815	61.156	-0.202	-0.199
-232.800	2.214	-0.193	0.139
-231.786	92.617	0.225	-0.253
-230.771	-20.061	0.335	0.206
-229.757	-72.203	-0.149	-0.055
-228.742	258.395	0.108	0.185
-227.727	184.630	-0.097	-0.143
-226.713	800.000	0.105	-0.375
-225.698	-200.000	0.017	0.197
-224.684	113.063	-0.128	0.154
-223.669	800.000	-0.063	-0.215
-222.655	-111.601	0.290	-0.059
-221.640	-200.000	0.012	0.387
-220.625	-200.000	-0.022	0.314
-219.611	128.006	0.079	-0.100
-218.596	-25.081	-0.156	0.092
-217.582	800.000	0.032	-0.121
-216.567	-200.000	0.047	0.306
-215.552	210.048	0.160	0.250
-214.538	-37.811	-0.062	0.033
-213.523	800.000	0.061	-0.185
-212.509	216.055	-0.189	0.299
-211.494	585.421	-0.144	-0.353
-210.479	-200.000	-0.006	0.144
-209.465	-35.137	0.295	0.160
-208.450	-98.336	0.282	0.072
-207.436	800.000	-0.058	-0.247
-206.421	154.045	-0.070	-0.095
-205.406	-111.504	-0.132	0.027
-204.392	29.941	-0.057	-0.048
-203.377	800.000	-0.075	0.260
-202.363	492.830	-0.023	0.052
-201.348	-98.873	-0.191	-0.048
-200.333	-96.584	-0.315	-0.083
-199.319	800.000	-0.086	-0.280
-198.304	-6.158	-0.136	0.092
-197.290	322.263	-0.160	0.304
-196.275	-98.753	0.120	-0.030
-195.260	-62.319	-0.321	-0.133
-194.246	-52.253	0.440	-0.203
-193.231	-82.393	0.116	-0.037
-192.217	-92.484	0.359	-0.100
-191.202	27.108	-0.083	0.069
-190.187	-200.000	-0.011	0.191
-189.173	-133.379	0.452	-0.056
-188.158	138.058	-0.130	0.169
-187.144	91.599	-0.112	0.125
-186.129	-117.296	0.132	0.024
-185.114	-80.261	-0.254	-0.085
-184.100	477.732	-0.071	0.159
-183.085	513.606	-0.090	-0.208
-182.071	71.359	0.038	-0.040
-181.056	16.821	0.173	-0.136
-180.042	-138.377	-0.276	0.030
-179.027	-55.038	0.324	0.145
-178.012	-97.821	0.418	0.107
-176.998	-68.386	-0.352	0.136
-175.983	-200.000	-0.007	-0.139
-174.969	752.928	-0.073	-0.195
-173.954	10.363	-0.009	-0.007
-172.939	125.873	0.032	-0.041
-171.925	-5.192	0.326	0.223
-170.910	-200.000	0.064	-0.287
-169.896	412.359	0.079	0.168
-168.881	210.863	0.204	-0.319
-167.866	182.995	0.312	-0.458
-166.852	1.125	-0.154	0.110
-165.837	-163.238	-0.294	-0.014
-164.823	448.654	0.065	-0.143
-163.808	39.800	0.137	0.122
-162.793	92.012	-0.099	0.110
-161.779	-139.246	0.343	-0.037
-160.764	-13.717	-0.287	-0.184
-159.750	1.705	-0.100	-0.071
-158.735	286.986	0.093	0.166
-157.720	800.000	-0.111	-0.329
-156.706	520.054	0.045	0.106
-155.691	108.852	0.040	-0.047
-154.677	-200.000	0.031	-0.194
-153.662	-96.448	-0.126	0.033
-152.647	-27.723	0.056	-0.032
-151.633	-75.071	-0.236	0.084
-150.618	-60.052	0.127	-0.054
-149.604	40.807	-0.170	-0.152
-148.589	-69.897	0.186	0.070
-147.574	-126.840	-0.183	-0.027
-146.560	146.142	-0.112	-0.149
-145.545	-200.000	-0.014	0.395
-144.531	-48.030	0.163	0.078
-143.516	472.247	-0.126	0.281
-142.502	368.302	-0.118	0.237
-141.487	247.091	0.044	0.073
-140.472	-200.000	-0.050	0.283
-139.458	117.487	-0.096	0.117
-138.443	-200.000	0.084	-0.380
-137.429	-66.078	0.248	0.098
-136.414	-140.157	0.198	0.021
-135.399	139.195	-0.092	-0.120
-134.385	263.582	0.038	-0.066
-133.370	-200.000	0.006	0.267
-132.356	28.375	0.108	0.091
-131.341	-24.051	-0.025	-0.015
-130.326	87.388	-0.186	-0.204
-129.312	-61.563	-0.164	0.068
-128.297	428.182	0.111	0.238
-127.283	-28.395	-0.051	0.029
-126.268	-200.000	-0.019	-0.131
-125.253	2.421	0.482	0.346
-124.239	800.000	-0.122	-0.343
-123.224	-92.426	0.351	-0.098
-122.210	-24.289	0.047	-0.028
-121.195	-52.926	0.118	-0.054
