DTS Sentinel unit serial number:	SN413079Multiplexer serial number:	ORYXHardware model number:	OX4-SRSoftware version number:	ORYX F/W v4.00 Oryx Data Collector v3.7.2.0data status	okinstallation	princeton_trtdifferential loss correction	single-endedforward channel	channel 4reverse channel	N/Adate	2019/09/12time	19:18:19forward acquisition time	15.00reverse acquisition time	0.00gamma	496.2192k internal	0.2309k external	0.2309temperature offset calibration	1.0141default loss term (dB/km)	0.3790temperature slope calibration	1.0000multiplexer offset coefficient	1.0000multiplexer slope coefficient	1.0000fibre end	0.00T internal ref (°C)	32.50T ext. ref 1 (°C)	3.22T ext. ref 2 (°C)	27.06length (m)	temperature (°C)	Stokes	anti-Stokes-747.200	149.032	0.450	-0.618
-746.185	138.805	-0.563	0.752
-745.171	-144.617	-0.365	-0.034
-744.156	-200.000	0.081	0.600
-743.142	-38.535	-0.921	-0.494
-742.127	131.877	-0.466	0.609
-741.112	439.956	0.214	-0.476
-740.098	800.000	0.142	-0.434
-739.083	800.000	-0.241	-0.929
-738.069	221.640	-0.132	-0.215
-737.054	36.441	0.180	0.161
-736.039	-19.024	0.016	-0.010
-735.025	170.837	-0.220	0.321
-734.010	-200.000	-0.003	0.989
-732.996	-109.605	-0.730	-0.156
-731.981	641.836	-0.077	-0.200
-730.966	7.988	-0.461	-0.351
-729.952	-96.048	-0.710	-0.192
-728.937	-200.000	0.193	-0.935
-727.923	27.770	-0.345	-0.295
-726.908	800.000	0.210	-0.800
-725.894	-3.878	-0.150	0.106
-724.879	173.891	0.393	0.576
-723.864	-104.826	-0.552	-0.129
-722.850	-45.191	-0.776	-0.391
-721.835	-135.421	0.815	-0.099
-720.821	800.000	-0.062	-0.274
-719.806	-61.851	-1.082	0.460
-718.791	-200.000	0.120	0.669
-717.777	249.032	-0.354	0.608
-716.762	-160.737	0.221	0.012
-715.748	800.000	-0.183	-0.578
-714.733	0.162	-0.710	0.514
-713.718	118.759	-0.739	0.926
-712.704	-14.657	0.382	-0.249
-711.689	249.030	0.205	-0.352
-710.675	209.528	-0.441	0.702
-709.660	235.458	0.285	0.477
-708.645	480.651	-0.248	-0.571
-707.631	-56.520	-0.533	0.240
-706.616	-200.000	-0.168	0.973
-705.602	-200.000	-0.184	-0.897
-704.587	-30.556	0.197	-0.113
-703.572	-93.721	-0.675	-0.189
-702.558	800.000	0.211	0.669
-701.543	40.009	0.347	0.317
-700.529	-4.657	-0.434	-0.304
-699.514	-162.427	-0.833	0.042
-698.499	25.097	-0.153	0.129
-697.485	-95.827	-0.572	0.155
-696.470	720.438	0.155	0.419
-695.456	-83.707	-0.952	-0.308
-694.441	-14.847	0.485	-0.316
-693.426	771.477	0.104	0.286
-692.412	800.000	-0.189	-0.532
-691.397	-46.806	-0.861	0.427
-690.383	-122.164	-0.492	-0.082
-689.368	-127.183	-0.508	-0.075
-688.354	-200.000	0.054	-0.428
-687.339	38.163	-0.419	0.378
-686.324	-38.598	0.653	0.350
-685.310	666.822	0.195	-0.512
-684.295	-131.630	0.691	-0.092
-683.281	328.955	-0.301	-0.585
-682.266	-200.000	0.174	-1.421
-681.251	36.492	-0.109	-0.098
-680.237	-200.000	0.093	0.536
-679.222	-41.907	0.254	0.132
-678.208	18.017	0.262	0.212
-677.193	800.000	0.124	-0.518
-676.178	-200.000	0.022	-0.166
-675.164	-200.000	0.003	-0.838
-674.149	116.264	0.112	0.139
-673.135	800.000	-0.245	0.759
-672.120	-200.000	-0.040	-0.601
-671.105	153.251	0.279	0.386
-670.091	-124.372	-0.867	0.137
-669.076	800.000	0.195	-0.620
-668.062	-32.946	0.146	0.082
-667.047	182.254	-0.445	0.664
-666.032	82.290	-0.306	0.337
-665.018	-200.000	0.112	0.667
-664.003	157.045	-0.624	0.873
-662.989	-90.849	0.296	0.086
-661.974	-200.000	-0.004	-0.210
-660.959	-107.854	0.680	0.150
-659.945	1.704	-0.392	-0.286
-658.930	-85.596	-0.269	-0.085
-657.916	-29.914	-0.485	0.280
-656.901	-20.940	-0.564	0.350
-655.886	-167.559	0.569	-0.023
-654.872	117.367	0.633	0.788
-653.857	82.730	-0.863	0.949
-652.843	-200.000	-0.007	-0.145
-651.828	-200.000	-0.081	-0.619
-650.814	155.150	-0.110	-0.153
-649.799	-123.096	0.574	0.093
-648.784	71.304	-0.390	-0.409
-647.770	65.852	0.186	-0.191
-646.755	276.383	0.186	0.335
-645.741	327.162	-0.487	0.945
-644.726	-106.472	0.732	0.165
-643.711	-200.000	-0.049	0.512
-642.697	190.918	0.143	-0.217
-641.682	119.321	-0.304	0.381
-640.668	-89.016	0.277	0.083
-639.653	593.618	-0.393	-0.984
-638.638	-188.547	0.948	0.012
-637.624	82.149	-0.110	-0.120
-636.609	134.161	0.327	0.428
-635.595	-128.953	-0.431	-0.061
-634.580	-156.417	-0.793	0.050
-633.565	-55.708	1.077	-0.487
-632.551	-200.000	0.056	-0.757
-631.536	-8.294	-0.178	-0.121
-630.522	-51.227	0.192	-0.091
-629.507	115.133	0.505	0.624
-628.492	-47.253	-0.245	0.121
-627.478	126.478	-0.357	0.457
-626.463	301.718	-0.133	0.248
-625.449	-87.965	0.742	0.226
-624.434	-114.053	-0.975	-0.191
-623.419	-150.467	0.988	0.077
-622.405	47.868	-0.349	-0.330
-621.390	147.321	0.373	0.508
-620.376	-15.646	-0.162	0.105
-619.361	-132.746	-0.821	-0.106
-618.346	-68.639	-0.187	0.073
-617.332	124.623	-0.279	-0.356
-616.317	-200.000	0.053	0.302
-615.303	289.023	0.176	0.323
-614.288	-85.745	0.176	0.055
-613.273	-200.000	-0.018	0.512
-612.259	24.045	0.428	0.357
-611.244	-200.000	-0.034	0.235
-610.230	-200.000	-0.014	-0.446
-609.215	409.545	0.128	0.273
-608.201	-200.000	-0.066	0.444
-607.186	23.413	-0.529	-0.439
-606.171	-92.469	-0.719	-0.204
-605.157	-113.631	0.898	-0.177
-604.142	86.800	-0.398	0.444
-603.128	-200.000	-0.054	-0.357
-602.113	-200.000	-0.041	-0.224
-601.098	518.313	-0.086	0.204
-600.084	-80.001	-0.307	0.104
-599.069	-79.566	0.646	-0.220
-598.055	800.000	-0.162	-0.700
-597.040	-45.965	-0.100	-0.050
-596.025	-147.325	-0.697	-0.060
-595.011	44.317	-0.372	-0.345
-593.996	-200.000	-0.154	-0.944
-592.982	223.391	-0.405	-0.659
-591.967	-37.099	-0.740	0.400
-590.952	-200.000	0.168	0.970
-589.938	-200.000	0.042	0.687
-588.923	-9.385	-0.187	0.126
-587.909	800.000	-0.129	-0.461
-586.894	-200.000	-0.002	-0.506
-585.879	799.639	-0.142	-0.397
-584.865	5.053	-0.772	-0.574
-583.850	-130.883	0.213	-0.029
-582.836	-133.235	-1.011	-0.129
-581.821	800.000	0.044	-0.137
-580.806	-62.196	-0.678	0.285
-579.792	102.009	-0.198	-0.234
-578.777	-97.053	0.810	0.214
-577.763	-133.848	0.701	0.088
-576.748	315.013	0.440	-0.837
-575.733	20.438	-0.740	0.604
-574.719	-200.000	-0.231	1.038
-573.704	-54.274	-0.349	0.160
-572.690	-61.061	0.394	-0.168
-571.675	800.000	0.125	-0.465
-570.661	-200.000	0.067	0.436
-569.646	-37.922	-0.645	-0.346
-568.631	800.000	0.033	-0.137
-567.617	-127.069	-0.705	-0.104
-566.602	-71.062	-0.549	0.208
-565.588	188.375	0.241	0.364
-564.573	-200.000	0.004	-0.445
-563.558	695.474	-0.247	-0.656
-562.544	-143.082	1.088	-0.106
-561.529	800.000	0.096	-0.291
-560.515	237.653	-0.113	0.189
-559.500	-11.346	0.587	0.390
-558.485	-101.691	-0.697	0.171
-557.471	506.561	0.362	0.846
-556.456	-81.103	0.579	0.193
-555.442	575.649	-0.216	0.533
-554.427	-52.749	-0.246	0.115
-553.412	-200.000	-0.005	-0.116
-552.398	-0.709	0.348	-0.249
-551.383	-200.000	-0.029	0.174
-550.369	800.000	-0.098	0.295
-549.354	800.000	-0.177	-0.670
-548.339	-200.000	0.010	-0.861
-547.325	-104.902	-0.194	0.045
-546.310	-129.968	0.718	-0.099
-545.296	-9.873	0.605	-0.406
-544.281	151.821	0.557	-0.766
-543.266	133.151	-0.284	-0.370
-542.252	259.444	-0.053	0.092
-541.237	4.348	0.482	-0.356
-540.223	-200.000	-0.007	-0.422
-539.208	-200.000	0.039	-0.307
-538.193	-101.222	-0.028	0.007
-537.179	-130.951	-0.446	-0.060
-536.164	-200.000	-0.016	-0.366
-535.150	53.593	-0.274	-0.265
-534.135	-182.290	-0.467	0.009
-533.121	85.824	-0.273	-0.302
-532.106	680.348	-0.277	-0.726
-531.091	-28.064	0.762	-0.444
-530.077	-200.000	0.011	0.076
-529.062	53.397	0.611	0.591
-528.048	800.000	0.108	-0.414
-527.033	26.771	0.283	-0.239
-526.018	-200.000	0.006	0.398
-525.004	-200.000	0.152	0.836
-523.989	349.596	0.204	-0.405
-522.975	96.113	-0.506	-0.583
-521.960	-200.000	-0.193	-0.000
-520.945	110.628	-0.401	-0.485
-519.931	-200.000	-1.016	0.000
-518.916	127.952	0.146	0.187
-517.902	92.443	0.578	0.656
-516.887	8.696	-0.392	0.297
-515.872	-73.675	-0.227	-0.083
-514.858	2.096	-0.489	0.356
-513.843	-51.003	-0.239	-0.113
-512.829	-200.000	0.129	1.253
-511.814	-79.018	0.881	0.302
-510.799	20.898	-0.169	-0.138
-509.785	151.948	0.588	0.807
-508.770	-60.128	0.608	0.261
-507.756	27.208	-0.446	-0.377
-506.741	-100.547	0.307	-0.077
-505.726	165.502	0.310	-0.442
-504.712	288.557	0.241	-0.439
-503.697	21.943	0.666	-0.547
-502.683	-41.837	0.631	-0.325
-501.668	27.707	-0.624	-0.529
-500.653	-200.000	-0.033	0.234
-499.639	641.927	-0.081	0.208
-498.624	-200.000	-0.037	0.922
-497.610	-111.172	0.495	0.102
-496.595	800.000	-0.160	0.513
-495.581	605.478	-0.368	0.923
-494.566	-33.354	-0.640	0.356
-493.551	-200.000	0.009	0.074
-492.537	-11.106	0.486	0.322
-491.522	-13.456	-0.382	-0.249
-490.508	41.202	-0.330	0.300
-489.493	-42.124	0.424	0.218
-488.478	-200.000	0.016	-0.326
-487.464	15.534	0.089	0.070
-486.449	-200.000	0.038	-0.386
-485.435	-56.766	0.521	-0.232
-484.420	-102.815	0.432	0.103
-483.405	143.861	0.321	0.431
-482.391	674.339	-0.080	0.208
-481.376	-172.972	0.166	-0.005
-480.362	13.661	-0.325	-0.254
-479.347	14.140	-0.727	-0.569
-478.332	43.451	0.477	-0.439
-477.318	192.471	-0.261	0.396
-476.303	-200.000	-0.139	-0.821
-475.289	-200.000	0.017	-0.647
-474.274	-126.522	0.505	-0.075
-473.259	800.000	-0.149	-0.528
-472.245	69.025	-0.209	-0.216
-471.230	-200.000	0.062	0.323
-470.216	346.034	-0.306	0.605
-469.201	-200.000	0.048	-0.633
-468.186	-200.000	-0.071	0.662
-467.172	-110.889	0.268	-0.055
-466.157	-110.227	0.450	0.094
-465.143	-158.566	0.958	-0.056
-464.128	-200.000	-0.045	0.918
-463.113	-26.628	0.808	0.475
-462.099	-1.299	0.332	0.236
-461.084	185.769	0.351	0.524
-460.070	113.891	0.254	-0.310
-459.055	800.000	-0.081	0.313
-458.040	-137.549	0.290	-0.033
-457.026	-200.000	-0.223	-1.083
-456.011	-200.000	-0.001	0.129
-454.997	353.164	0.335	-0.668
-453.982	-120.092	-0.186	0.032
-452.968	-85.129	-0.252	0.079
-451.953	800.000	-0.203	-0.569
-450.938	-200.000	-0.028	-0.401
-449.924	-63.199	-0.212	-0.088
-448.909	-191.335	-1.343	-0.014
-447.895	-200.000	0.053	0.298
-446.880	-56.588	0.422	-0.188
-445.865	439.349	-0.196	-0.431
-444.851	-139.753	0.186	-0.020
-443.836	141.730	0.043	0.058
-442.822	88.040	-0.502	-0.559
-441.807	800.000	0.033	0.093
-440.792	-200.000	0.042	-0.919
-439.778	-167.059	-0.702	-0.029
-438.763	-155.654	-0.288	0.019
-437.749	800.000	-0.130	-0.447
-436.734	-84.920	-0.403	0.127
-435.719	25.079	-0.809	-0.674
-434.705	227.522	-0.544	0.888
-433.690	-138.363	-0.335	0.037
-432.676	-101.820	0.550	0.134
-431.661	-137.068	0.663	0.076
-430.646	-14.984	-0.613	0.394
-429.632	-106.198	0.634	0.143
-428.617	-143.523	-0.734	-0.070
-427.603	-3.736	-0.454	-0.316
-426.588	27.988	0.435	-0.368
-425.573	-31.704	0.661	0.372
-424.559	25.804	0.330	0.276
-423.544	19.051	-0.606	0.487
-422.530	-3.559	-0.544	0.380
-421.515	312.453	0.408	-0.769
-420.500	-30.832	0.693	-0.393
-419.486	154.060	0.247	-0.339
-418.471	104.680	-0.143	0.169
-417.457	173.328	-0.113	-0.164
-416.442	110.815	0.414	-0.500
-415.428	-142.856	0.411	-0.040
-414.413	31.560	0.425	-0.367
-413.398	-100.622	0.818	-0.203
-412.384	186.272	-0.288	0.431
-411.369	-22.496	0.446	0.271
-410.355	205.272	-0.251	-0.391
-409.340	-2.274	0.253	0.178
-408.325	-18.934	-0.124	0.078
-407.311	-67.310	0.304	0.120
-406.296	800.000	-0.091	0.277
-405.282	-51.499	0.627	0.294
-404.267	-113.602	0.066	-0.013
-403.252	-1.027	-0.650	-0.461
-402.238	-112.745	-1.168	0.233
-401.223	-200.000	-0.010	-0.362
-400.209	-200.000	0.034	-0.475
-399.194	-34.549	0.830	-0.456
-398.179	-86.096	-0.491	-0.152
-397.165	800.000	-0.088	0.264
-396.150	9.655	-0.436	-0.331
-395.136	-43.682	0.209	-0.105
-394.121	-132.403	-0.063	0.008
-393.106	-160.647	0.357	0.019
-392.092	192.322	-0.107	0.162
-391.077	-46.237	0.491	0.242
-390.063	-200.000	0.024	0.207
-389.048	800.000	-0.111	-0.426
-388.033	-100.368	-0.360	0.089
-387.019	49.162	-0.093	-0.088
-386.004	-51.451	-0.267	-0.125
-384.990	183.530	-0.309	0.457
-383.975	-82.028	-0.237	-0.078
-382.960	575.497	-0.136	0.332
-381.946	-43.427	0.591	0.299
-380.931	-115.172	0.575	-0.109
-379.917	-102.127	0.428	0.103
-378.902	-103.628	-0.800	-0.188
-377.888	462.549	0.137	0.306
-376.873	268.101	-0.301	-0.528
-375.858	-200.000	0.030	1.096
-374.844	414.591	0.193	0.412
-373.829	-139.912	0.059	-0.006
-372.815	15.597	0.127	0.100
-371.800	441.053	-0.149	-0.327
-370.785	117.500	-0.383	-0.472
-369.771	648.591	-0.072	0.183
-368.756	307.281	-0.110	0.206
-367.742	-200.000	-0.005	0.577
-366.727	-28.912	0.297	0.171
-365.712	-84.045	-0.848	-0.270
-364.698	800.000	-0.160	-0.590
-363.683	-27.803	-0.864	0.502
-362.669	87.476	-0.161	0.179
-361.654	232.034	-0.457	-0.751
-360.639	-181.993	-0.259	-0.005
-359.625	360.686	0.390	0.782
-358.610	289.893	-0.369	-0.671
-357.596	-75.419	-0.512	0.183
-356.581	800.000	-0.197	-0.853
-355.566	-87.226	0.274	0.083
-354.552	-74.215	0.807	0.292
-353.537	293.275	-0.225	-0.410
-352.523	-154.742	0.418	-0.028
-351.508	-63.934	-0.274	0.112
-350.493	-86.565	0.470	0.144
-349.479	800.000	-0.094	0.312
-348.464	-200.000	0.052	0.255
-347.450	-116.558	-0.516	-0.095
-346.435	91.877	0.126	0.142
-345.420	-200.000	-0.014	0.181
-344.406	14.089	-0.496	-0.386
-343.391	-28.698	0.160	0.092
-342.377	-17.145	-0.670	0.423
-341.362	-200.000	-0.155	1.353
-340.348	12.743	0.534	-0.413
-339.333	126.093	-0.644	-0.815
-338.318	-200.000	0.003	-0.274
-337.304	49.255	0.263	-0.248
-336.289	800.000	-0.126	0.507
-335.275	525.612	0.113	0.267
-334.260	65.260	0.795	0.803
-333.245	-140.533	0.254	0.026
-332.231	-50.706	0.542	0.255
-331.216	-152.597	0.783	-0.056
-330.202	-200.000	0.008	0.561
-329.187	-115.423	0.556	0.105
-328.172	-200.000	-0.084	-0.381
-327.158	-82.498	-0.290	0.094
-326.143	18.984	0.365	0.293
-325.129	-101.892	-0.480	-0.116
-324.114	-61.976	0.336	-0.140
-323.099	128.514	-0.410	-0.521
-322.085	118.181	-0.781	-0.963
-321.070	-87.452	-0.338	0.102
-320.056	-177.895	1.187	0.028
-319.041	106.484	0.608	0.720
-318.026	287.891	-0.163	0.296
-317.012	-200.000	-0.005	-0.214
-315.997	800.000	-0.134	-0.538
-314.983	800.000	0.135	-0.567
-313.968	156.636	0.534	-0.737
-312.953	98.140	-0.584	0.671
-311.939	-82.013	0.458	-0.149
-310.924	-24.700	0.319	0.190
-309.910	79.283	0.187	0.200
-308.895	-8.630	0.296	-0.199
-307.880	285.974	0.062	-0.112
-306.866	-200.000	-0.185	1.032
-305.851	145.966	-0.457	0.613
-304.837	-116.269	0.576	0.107
-303.822	80.018	-0.228	0.245
-302.807	205.344	0.244	0.378
-301.793	-194.129	0.693	-0.006
-300.778	-161.292	-0.671	-0.035
-299.764	11.907	-0.539	-0.414
-298.749	42.127	0.526	-0.477
-297.735	-100.112	0.111	0.028
-296.720	-106.830	-1.039	-0.230
-295.705	-12.246	0.380	-0.248
-294.691	147.217	-0.334	-0.449
-293.676	-200.000	-0.005	0.068
-292.662	66.511	-0.217	0.220
-291.647	-200.000	-0.057	-0.348
-290.632	3.197	-0.359	0.261
-289.618	-147.848	0.143	0.012
-288.603	60.756	0.602	-0.596
-287.589	-155.699	-0.879	0.056
-286.574	-2.448	0.596	-0.417
-285.559	-200.000	0.105	0.640
-284.545	-112.461	0.853	-0.170
-283.530	179.366	-0.179	-0.261
-282.516	-161.607	0.373	-0.019
-281.501	-200.000	0.044	0.201
-280.486	-91.765	0.615	0.174
-279.472	37.553	0.621	0.550
-278.457	-200.000	-0.004	-0.036
-277.443	-33.423	0.405	0.223
-276.428	-200.000	0.028	-0.714
-275.413	-98.227	-0.282	0.072
-274.399	416.136	-0.464	-0.987
-273.384	-200.000	0.004	-0.253
-272.370	-32.369	-0.955	-0.532
-271.355	110.091	-0.256	0.306
-270.340	-116.700	0.559	-0.103
-269.326	34.428	-0.475	0.413
-268.311	648.364	0.030	0.076
-267.297	-171.529	-0.306	-0.010
-266.282	339.380	0.393	0.764
-265.267	-133.158	-0.074	-0.009
-264.253	-8.780	0.262	-0.175
-263.238	-174.815	-0.638	-0.018
-262.224	-86.511	0.259	0.079
-261.209	800.000	-0.146	-0.501
-260.195	-189.699	-0.397	0.005
-259.180	-180.782	0.115	0.002
-258.165	-84.889	-0.415	0.130
-257.151	800.000	0.202	0.616
-256.136	-106.903	0.987	-0.218
-255.122	-113.861	-0.356	0.069
-254.107	42.840	0.884	0.803
-253.092	-145.546	-0.647	-0.058
-252.078	-200.000	-0.041	-0.725
-251.063	170.782	-0.416	-0.594
-250.049	-31.042	0.264	0.148
-249.034	143.022	-0.141	0.187
-248.019	-38.255	-0.626	-0.331
-247.005	33.735	0.387	-0.336
-245.990	89.294	0.046	-0.051
-244.976	800.000	-0.127	0.535
-243.961	415.199	-0.390	0.829
-242.946	-96.188	0.112	-0.030
-241.932	92.639	0.614	0.691
-240.917	-129.000	-0.440	-0.061
-239.903	644.789	0.218	0.553
-238.888	202.288	-0.230	-0.354
-237.873	-200.000	-0.002	-0.036
-236.859	-75.947	0.842	-0.297
-235.844	604.359	0.270	-0.668
-234.830	-71.251	0.319	0.119
-233.815	577.062	-0.101	0.246
-232.800	-200.000	0.028	-0.650
-231.786	200.587	0.416	0.637
-230.771	-43.048	0.053	-0.027
-229.757	-88.929	0.894	0.264
-228.742	-31.563	0.230	0.129
-227.727	-20.755	0.960	-0.587
-226.713	-200.000	0.079	-0.759
-225.698	192.558	0.205	-0.308
-224.684	202.746	-0.163	0.250
-223.669	-165.888	-0.414	0.018
-222.655	-200.000	0.069	0.571
-221.640	800.000	0.086	0.284
-220.625	111.432	-0.311	0.373
-219.611	-79.764	0.510	0.171
-218.596	800.000	0.178	-0.666
-217.582	255.419	-0.230	-0.393
-216.567	800.000	-0.134	0.502
-215.552	-200.000	-0.064	-0.512
-214.538	-110.575	-0.404	-0.083
-213.523	-117.174	0.554	-0.100
-212.509	-200.000	-0.126	0.615
-211.494	800.000	0.105	0.288
-210.479	-200.000	-0.582	-0.001
-209.465	305.488	0.091	-0.168
-208.450	-92.622	-0.626	-0.175
-207.436	-200.000	0.028	-0.416
-206.421	203.236	-0.157	-0.242
-205.406	252.491	-0.327	-0.555
-204.392	-117.500	1.246	-0.224
-203.377	-200.000	-0.001	0.065
-202.363	-200.000	-0.041	0.410
-201.348	89.801	-0.520	0.578
-200.333	800.000	-0.195	-0.614
-199.319	146.502	-0.220	0.293
-198.304	83.651	0.722	0.784
-197.290	-25.115	-0.947	-0.558
-196.275	733.721	-0.343	0.912
-195.260	-39.286	0.838	0.438
-194.246	-200.000	-0.136	0.634
-193.231	147.521	-0.191	0.256
-192.217	163.130	-0.726	1.015
-191.202	-83.760	-0.194	0.062
-190.187	451.927	-0.108	-0.238
-189.173	37.517	-0.537	0.474
-188.158	-110.025	-0.965	0.201
-187.144	-133.869	-0.641	-0.079
-186.129	800.000	0.105	0.299
-185.114	433.762	-0.242	0.523
-184.100	201.665	-0.472	-0.723
-183.085	21.132	-0.378	0.305
-182.071	-11.070	0.286	0.187
-181.056	-152.765	-0.102	0.007
-180.042	-89.901	0.996	0.289
-179.027	-14.465	0.630	-0.403
-178.012	-200.000	-0.113	0.513
-176.998	-200.000	-0.016	0.072
-175.983	-96.702	1.079	0.282
-174.969	-44.542	-0.288	0.143
-173.954	-75.172	0.608	0.216
-172.939	-145.313	-0.094	0.008
-171.925	128.405	0.397	-0.502
-170.910	-200.000	-0.000	-0.369
-169.896	450.463	0.066	-0.145
-168.881	-138.232	0.701	-0.077
-167.866	304.800	-0.309	0.570
-166.852	62.704	-0.547	-0.543
-165.837	-109.243	-0.518	0.109
-164.823	-200.000	-0.033	-0.170
-163.808	244.207	0.354	-0.591
-162.793	-123.834	-0.714	0.112
-161.779	163.722	-0.422	0.590
-160.764	-105.841	0.104	0.023
-159.750	-200.000	-0.044	-1.036
-158.735	800.000	0.193	0.739
-157.720	-158.790	-0.369	0.021
-156.706	40.579	0.225	0.201
-155.691	-13.698	-0.236	-0.152
-154.677	-172.364	0.330	0.010
-153.662	-136.431	0.157	-0.018
-152.647	-70.175	-0.248	0.094
-151.633	800.000	-0.067	-0.188
-150.618	800.000	0.082	-0.318
-149.604	800.000	-0.025	-0.077
-148.589	-19.943	0.299	-0.183
-147.574	-23.898	0.131	-0.078
-146.560	92.490	-0.971	-1.087
-145.545	303.615	-0.323	-0.595
-144.531	-19.048	0.301	-0.186
-143.516	-200.000	0.051	-0.737
-142.502	-66.894	-0.082	0.032
-141.487	-100.143	-0.969	0.239
-140.472	-118.934	0.316	-0.055
-139.458	593.640	0.159	0.391
-138.443	92.641	0.219	-0.245
-137.429	-118.741	0.208	0.036
-136.414	-106.737	-0.212	0.047
-135.399	800.000	-0.027	-0.100
-134.385	-200.000	0.012	0.466
-133.370	-200.000	0.063	0.658
-132.356	-120.327	0.575	-0.097
-131.341	95.323	-0.743	0.840
-130.326	-200.000	0.048	-0.324
-129.312	-71.247	1.606	0.598
-128.297	-179.081	-0.229	0.005
-127.283	199.566	-0.328	-0.499
-126.268	9.121	0.322	0.241
-125.253	27.121	0.280	0.233
-124.239	23.508	0.573	0.468
-123.224	42.775	-0.318	0.288
