DTS Sentinel unit serial number:	SN413079Multiplexer serial number:	ORYXHardware model number:	OX4-SRSoftware version number:	ORYX F/W v4.00 Oryx Data Collector v3.7.2.0data status	okinstallation	princeton_trtdifferential loss correction	single-endedforward channel	channel 4reverse channel	N/Adate	2019/09/12time	22:33:35forward acquisition time	60.00reverse acquisition time	0.00gamma	496.2192k internal	0.2315k external	0.2315temperature offset calibration	1.0177default loss term (dB/km)	0.3790temperature slope calibration	1.0000multiplexer offset coefficient	1.0000multiplexer slope coefficient	1.0000fibre end	0.00T internal ref (°C)	29.64T ext. ref 1 (°C)	3.74T ext. ref 2 (°C)	24.25length (m)	temperature (°C)	Stokes	anti-Stokes-747.200	800.000	-0.077	-0.319
-746.185	105.115	-0.166	0.199
-745.171	-200.000	-0.016	0.072
-744.156	-119.083	-0.147	-0.026
-743.142	-200.000	0.007	-0.083
-742.127	-153.559	0.546	0.038
-741.112	-137.946	-0.377	-0.043
-740.098	-68.902	0.106	0.041
-739.083	191.711	-0.120	-0.184
-738.069	-3.504	0.127	-0.090
-737.054	-94.795	-0.294	0.081
-736.039	499.198	-0.023	-0.053
-735.025	471.595	0.138	0.315
-734.010	22.493	-0.142	0.118
-732.996	195.455	-0.064	-0.099
-731.981	-200.000	-0.004	-0.098
-730.966	255.362	0.165	0.286
-729.952	-106.515	-0.476	0.107
-728.937	138.406	-0.170	0.226
-727.923	332.739	0.048	-0.094
-726.908	270.051	-0.084	0.150
-725.894	-78.509	-0.466	0.162
-724.879	-200.000	-0.002	-0.295
-723.864	-7.782	0.316	0.216
-722.850	504.468	0.103	0.242
-721.835	150.205	-0.115	0.158
-720.821	-194.566	-0.191	0.002
-719.806	272.051	0.102	0.182
-718.791	408.126	0.035	0.076
-717.777	145.954	0.055	0.074
-716.762	-46.217	-0.243	0.121
-715.748	-50.045	-0.061	0.029
-714.733	-52.726	0.084	-0.039
-713.718	-13.922	-0.186	0.121
-712.704	-103.187	0.430	0.103
-711.689	255.245	0.075	-0.131
-710.675	800.000	-0.114	-0.341
-709.660	-114.491	-0.304	-0.059
-708.645	-39.768	0.251	-0.133
-707.631	800.000	0.071	0.262
-706.616	258.476	-0.129	0.225
-705.602	-99.463	0.173	0.044
-704.587	415.040	-0.077	-0.165
-703.572	-200.000	-0.029	0.209
-702.558	-67.953	0.069	0.027
-701.543	-94.068	-0.123	0.034
-700.529	141.775	0.075	-0.101
-699.514	189.905	0.026	-0.039
-698.499	327.057	-0.128	0.249
-697.485	-77.117	0.210	-0.074
-696.470	-45.623	-0.076	0.038
-695.456	-118.446	0.165	0.030
-694.441	335.759	0.069	-0.136
-693.426	-20.544	-0.157	0.098
-692.412	-140.436	0.116	-0.012
-691.397	438.875	0.051	-0.113
-690.383	299.056	-0.119	0.221
-689.368	31.384	-0.240	0.208
-688.354	-37.201	0.068	-0.037
-687.339	800.000	0.026	0.075
-686.324	210.247	-0.117	0.186
-685.310	-16.941	-0.086	0.055
-684.295	800.000	-0.067	-0.190
-683.281	-200.000	0.004	-0.198
-682.266	311.739	0.086	-0.162
-681.251	-67.293	0.421	-0.167
-680.237	-162.021	-0.263	0.013
-679.222	-93.481	-0.293	-0.082
-678.208	-118.255	0.139	0.025
-677.193	-80.979	0.094	-0.031
-676.178	51.589	0.110	-0.106
-675.164	-92.309	-0.285	0.081
-674.149	67.851	0.047	0.048
-673.135	18.601	-0.183	0.148
-672.120	43.030	-0.114	-0.105
-671.105	-200.000	0.115	0.000
-670.091	352.655	-0.110	-0.220
-669.076	-200.000	-0.007	0.054
-668.062	222.119	-0.030	0.048
-667.047	36.357	0.463	0.412
-666.032	-19.718	-0.325	-0.203
-665.018	-6.518	-0.199	0.137
-664.003	406.771	-0.151	0.323
-662.989	800.000	-0.041	-0.146
-661.974	-108.872	-0.048	0.010
-660.959	642.135	-0.106	-0.273
-659.945	-200.000	-0.040	-0.253
-658.930	257.133	0.056	-0.097
-657.916	-43.485	-0.056	0.028
-656.901	325.513	-0.109	-0.211
-655.886	519.813	-0.057	-0.134
-654.872	54.688	-0.120	-0.116
-653.857	-200.000	-0.050	-0.236
-652.843	-96.546	-0.345	-0.092
-651.828	800.000	-0.062	0.214
-650.814	-92.581	-0.166	0.047
-649.799	-106.718	-0.249	-0.056
-648.784	-44.171	0.190	-0.096
-647.770	-68.690	-0.188	-0.074
-646.755	175.141	-0.032	0.046
-645.741	-200.000	-0.019	-0.253
-644.726	-49.762	0.311	-0.149
-643.711	800.000	-0.094	-0.277
-642.697	-147.283	0.107	0.009
-641.682	281.599	-0.174	0.314
-640.668	-200.000	0.044	-0.199
-639.653	-102.061	-0.158	0.038
-638.638	800.000	-0.065	-0.268
-637.624	-65.584	0.318	0.129
-636.609	800.000	-0.056	-0.160
-635.595	-200.000	-0.042	0.189
-634.580	-200.000	0.030	0.200
-633.565	52.369	-0.204	-0.196
-632.551	250.130	0.119	-0.203
-631.536	-200.000	0.024	0.244
-630.522	-122.950	-0.129	0.021
-629.507	93.113	-0.143	-0.163
-628.492	-45.855	0.164	-0.082
-627.478	800.000	-0.135	0.451
-626.463	258.246	-0.224	0.390
-625.449	800.000	-0.071	-0.224
-624.434	-200.000	0.026	-0.198
-623.419	-193.572	0.132	-0.001
-622.405	241.910	-0.123	0.207
-621.390	665.081	0.106	0.277
-620.376	108.518	0.165	0.199
-619.361	4.312	-0.219	0.162
-618.346	202.862	-0.168	-0.261
-617.332	-48.890	-0.380	0.184
-616.317	-162.658	0.252	-0.012
-615.303	-67.957	-0.080	0.032
-614.288	800.000	-0.077	-0.262
-613.273	285.872	-0.113	0.206
-612.259	128.467	-0.094	-0.121
-611.244	-29.201	-0.048	-0.028
-610.230	-200.000	-0.023	0.302
-609.215	531.271	0.099	0.237
-608.201	800.000	0.102	0.299
-607.186	800.000	-0.113	0.375
-606.171	-200.000	-0.097	0.585
-605.157	800.000	-0.043	0.170
-604.142	-155.996	0.372	-0.024
-603.128	-200.000	-0.019	0.191
-602.113	-152.623	-0.156	0.011
-601.098	570.608	-0.076	0.186
-600.084	-200.000	0.008	0.353
-599.069	-15.703	-0.335	0.215
-598.055	0.997	0.138	-0.099
-597.040	-200.000	0.016	-0.271
-596.025	136.957	-0.167	-0.220
-595.011	-14.652	0.360	0.233
-593.996	-118.387	0.344	-0.061
-592.982	670.982	-0.091	-0.236
-591.967	109.714	0.129	-0.156
-590.952	800.000	-0.027	0.118
-589.938	800.000	0.064	0.197
-588.923	-200.000	0.017	0.185
-587.909	49.653	0.129	-0.122
-586.894	-7.347	-0.270	-0.184
-585.879	-200.000	0.020	0.408
-584.865	236.035	0.004	-0.007
-583.850	-4.612	0.121	-0.084
-582.836	-126.957	-0.159	0.023
-581.821	51.219	0.206	0.197
-580.806	-66.550	0.068	-0.027
-579.792	-130.431	-0.367	0.050
-578.777	-40.941	-0.138	-0.072
-577.763	800.000	-0.015	0.052
-576.748	-94.214	0.306	0.084
-575.733	800.000	-0.033	-0.108
-574.719	216.815	-0.145	-0.232
-573.704	-131.314	-0.277	-0.037
-572.690	-200.000	0.006	-0.267
-571.675	474.619	-0.157	-0.357
-570.661	627.900	-0.107	0.271
-569.646	-83.310	-0.381	-0.123
-568.631	-89.365	-0.213	-0.063
-567.617	113.686	-0.264	-0.323
-566.602	276.675	0.154	-0.275
-565.588	-156.576	0.106	0.007
-564.573	-4.434	-0.162	0.113
-563.558	-200.000	0.006	-0.140
-562.544	-172.996	0.130	0.004
-561.529	133.917	-0.117	-0.152
-560.515	800.000	0.078	-0.228
-559.500	-200.000	0.008	0.244
-558.485	-37.012	0.359	-0.193
-557.471	-200.000	0.006	0.062
-556.456	800.000	-0.063	0.180
-555.442	-200.000	0.011	0.146
-554.427	106.780	-0.097	-0.116
-553.412	-200.000	-0.060	0.347
-552.398	800.000	0.034	0.137
-551.383	-103.392	-0.065	0.015
-550.369	800.000	-0.029	0.096
-549.354	-50.327	-0.137	-0.065
-548.339	-127.327	-0.190	-0.028
-547.325	-138.647	0.376	-0.041
-546.310	430.450	0.040	-0.086
-545.296	180.006	0.089	0.131
-544.281	62.059	0.113	-0.113
-543.266	503.300	0.049	0.114
-542.252	-68.778	0.168	0.065
-541.237	159.701	0.102	-0.143
-540.223	-124.412	-0.463	-0.072
-539.208	-44.207	0.214	0.108
-538.193	-91.765	0.074	0.021
-537.179	243.542	-0.024	-0.040
-536.164	53.152	0.364	-0.350
-535.150	165.420	0.125	0.178
-534.135	154.313	0.160	-0.221
-533.121	-200.000	-0.051	0.273
-532.106	304.084	-0.056	-0.105
-531.091	-71.719	0.214	-0.080
-530.077	-90.792	-0.362	0.105
-529.062	62.477	-0.278	-0.279
-528.048	295.105	-0.074	0.137
-527.033	800.000	0.095	0.408
-526.018	506.749	0.040	0.094
-525.004	-135.305	0.158	0.019
-523.989	800.000	-0.037	-0.102
-522.975	48.649	-0.041	-0.039
-521.960	-33.392	0.174	-0.097
-520.945	-43.747	-0.162	-0.082
-519.931	-5.410	-0.281	-0.194
-518.916	-200.000	-0.013	-0.091
-517.902	147.706	-0.141	-0.191
-516.887	-43.222	0.376	-0.191
-515.872	-46.136	-0.496	-0.245
-514.858	-44.287	0.134	0.068
-513.843	83.833	-0.141	0.155
-512.829	278.054	0.163	0.291
-511.814	-200.000	0.015	0.273
-510.799	-200.000	0.005	0.266
-509.785	-200.000	0.021	-0.153
-508.770	800.000	0.154	0.506
-507.756	17.754	0.194	-0.155
-506.741	800.000	-0.056	-0.194
-505.726	-182.451	0.174	-0.003
-504.712	-12.888	-0.154	-0.101
-503.697	656.259	0.091	-0.234
-502.683	-200.000	-0.008	-0.138
-501.668	-197.631	0.104	0.001
-500.653	-136.388	-0.224	-0.026
-499.639	-200.000	-0.014	0.085
-498.624	-200.000	-0.010	-0.175
-497.610	800.000	0.045	0.194
-496.595	-34.699	0.160	0.088
-495.581	-91.442	-0.213	0.061
-494.566	761.092	-0.137	0.372
-493.551	-115.134	-0.196	0.037
-492.537	38.036	0.165	0.147
-491.522	-51.393	0.387	-0.182
-490.508	-25.825	-0.291	-0.172
-489.493	5.167	-0.089	0.066
-488.478	-54.002	-0.218	0.100
-487.464	800.000	-0.059	0.167
-486.449	-200.000	-0.034	-0.323
-485.435	43.398	0.094	-0.087
-484.420	-102.471	0.108	-0.026
-483.405	-64.681	0.201	-0.082
-482.391	-145.743	-0.140	-0.012
-481.376	-116.474	0.160	0.030
-480.362	106.738	-0.187	0.222
-479.347	314.564	-0.130	-0.246
-478.332	-200.000	-0.030	-0.166
-477.318	695.282	0.024	0.063
-476.303	-200.000	0.029	0.155
-475.289	-50.931	-0.234	0.110
-474.274	143.587	0.038	0.051
-473.259	-157.920	0.320	-0.019
-472.245	-115.224	0.126	0.024
-471.230	175.735	0.175	-0.254
-470.216	-82.328	-0.162	0.053
-469.201	-38.744	-0.217	-0.115
-468.186	9.841	-0.146	0.111
-467.172	355.919	0.033	-0.066
-466.157	-8.594	-0.264	0.178
-465.143	800.000	0.025	-0.092
-464.128	-200.000	-0.000	-0.085
-463.113	229.138	0.046	0.075
-462.099	800.000	0.087	0.244
-461.084	-165.058	0.377	0.017
-460.070	-156.598	0.275	-0.017
-459.055	-124.598	-0.242	-0.038
-458.040	-174.684	-0.375	0.011
-457.026	9.083	0.113	-0.085
-456.011	-59.280	-0.041	-0.018
-454.997	-200.000	0.055	-0.286
-453.982	-132.855	0.620	-0.079
-452.968	427.200	-0.157	-0.339
-451.953	74.514	0.226	0.238
-450.938	-73.335	0.239	-0.087
-449.924	-200.000	-0.049	0.216
-448.909	101.836	0.302	-0.353
-447.895	115.644	-0.124	-0.152
-446.880	215.267	0.145	0.231
-445.865	106.233	0.084	-0.100
-444.851	373.779	-0.072	-0.147
-443.836	-47.521	-0.163	0.079
-442.822	32.937	-0.018	-0.016
-441.807	-200.000	-0.004	0.141
-440.792	-86.895	-0.177	0.054
-439.778	-100.877	-0.131	-0.032
-438.763	800.000	0.059	-0.189
-437.749	47.425	0.267	-0.249
-436.734	50.961	-0.255	0.242
-435.719	800.000	0.041	0.117
-434.705	264.036	0.040	-0.069
-433.690	-104.018	-0.386	0.090
-432.676	750.701	0.030	0.082
-431.661	364.994	-0.210	-0.424
-430.646	800.000	0.098	-0.318
-429.632	49.914	0.218	-0.206
-428.617	-147.001	0.094	0.008
-427.603	76.523	0.237	0.251
-426.588	98.762	0.143	0.165
-425.573	-56.193	0.193	-0.086
-424.559	14.856	-0.309	-0.242
-423.544	209.289	-0.204	0.320
-422.530	-63.881	0.209	-0.086
-421.515	-200.000	-0.003	0.024
-420.500	311.127	-0.142	-0.266
-419.486	-87.658	-0.151	0.046
-418.471	590.224	0.122	-0.300
-417.457	3.959	0.075	0.055
-416.442	-124.527	0.195	0.030
-415.428	-74.186	0.332	-0.120
-414.413	72.429	-0.220	0.229
-413.398	-71.403	0.120	-0.045
-412.384	-39.476	-0.053	-0.028
-411.369	404.288	-0.115	-0.242
-410.355	34.134	-0.109	-0.095
-409.340	800.000	-0.132	-0.375
-408.325	-37.482	0.209	0.112
-407.311	-125.960	-0.165	0.025
-406.296	-140.801	-0.161	-0.017
-405.282	-31.741	0.308	0.173
-404.267	-82.980	0.202	-0.065
-403.252	-85.222	0.280	-0.088
-402.238	-181.736	-0.257	0.005
-401.223	225.569	0.167	-0.270
-400.209	151.826	0.215	-0.293
-399.194	40.061	-0.166	-0.149
-398.179	-26.525	-0.075	-0.044
-397.165	99.240	-0.266	0.307
-396.150	68.455	0.268	0.274
-395.136	40.792	-0.240	-0.216
-394.121	153.603	-0.103	-0.141
-393.106	326.401	-0.103	0.197
-392.092	28.112	-0.101	0.085
-391.077	-135.028	0.423	0.051
-390.063	-100.966	0.250	0.061
-389.048	110.129	0.111	-0.133
-388.033	-4.895	0.168	0.116
-387.019	57.268	0.128	-0.125
-386.004	-200.000	0.014	-0.397
-384.990	-49.382	-0.247	-0.118
-383.975	-88.170	-0.147	0.044
-382.960	-107.909	-0.260	-0.057
-381.946	800.000	-0.026	0.115
-380.931	-200.000	-0.007	0.033
-379.917	149.977	0.131	0.178
-378.902	800.000	-0.127	-0.383
-377.888	383.494	0.165	0.338
-376.873	31.168	-0.181	0.155
-375.858	800.000	0.020	0.056
-374.844	251.349	0.041	0.070
-373.829	26.985	0.243	0.204
-372.815	225.749	-0.042	0.068
-371.800	6.612	-0.288	0.214
-370.785	800.000	0.063	0.196
-369.771	-200.000	-0.002	-0.379
-368.756	341.905	0.122	-0.239
-367.742	800.000	0.046	0.159
-366.727	800.000	-0.062	0.177
-365.712	607.252	-0.230	0.572
-364.698	-39.294	-0.254	0.133
-363.683	-121.592	-0.224	-0.037
-362.669	-64.467	-0.106	-0.043
-361.654	-61.151	-0.068	0.029
-360.639	-200.000	0.037	-0.201
-359.625	-63.735	0.118	0.048
-358.610	-86.042	0.254	-0.078
-357.596	-75.700	0.062	0.022
-356.581	468.443	0.063	-0.141
-355.566	293.607	0.111	-0.203
-354.552	-1.825	-0.097	0.068
-353.537	137.358	-0.091	0.119
-352.523	-74.458	0.291	0.105
-351.508	477.976	-0.017	0.039
-350.493	-67.145	-0.101	0.040
-349.479	345.898	0.103	-0.202
-348.464	107.899	0.056	-0.067
-347.450	-25.510	-0.117	0.069
-346.435	120.365	0.236	0.292
-345.420	-105.056	0.201	0.046
-344.406	-66.118	-0.248	-0.099
-343.391	-40.757	-0.211	0.109
-342.377	-118.720	-0.140	0.025
-341.362	184.277	-0.174	-0.257
-340.348	145.333	-0.234	-0.313
-339.333	328.474	0.188	0.360
-338.318	-128.185	-0.088	0.013
-337.304	-200.000	0.006	-0.056
-336.289	-172.880	0.124	0.004
-335.275	800.000	0.029	-0.096
-334.260	-41.924	-0.226	0.116
-333.245	-50.120	-0.105	0.050
-332.231	800.000	0.085	-0.295
-331.216	-95.181	-0.198	-0.053
-330.202	426.058	0.111	-0.238
-329.187	73.748	-0.222	0.232
-328.172	800.000	-0.027	0.104
-327.158	-95.643	-0.152	0.041
-326.143	-63.219	-0.394	-0.162
-325.129	-200.000	0.032	0.204
-324.114	-21.038	0.072	-0.044
-323.099	800.000	0.112	-0.360
-322.085	362.756	-0.035	0.070
-321.070	36.310	0.051	0.045
-320.056	50.705	0.183	0.173
-319.041	-200.000	0.033	0.332
-318.026	-22.028	-0.051	-0.031
-317.012	106.188	0.115	-0.136
-315.997	49.736	0.247	-0.231
-314.983	-40.344	0.196	0.102
-313.968	56.495	0.133	0.129
-312.953	-102.506	-0.240	0.057
-311.939	-200.000	0.000	-0.065
-310.924	-200.000	0.057	-0.372
-309.910	-200.000	0.043	-0.247
-308.895	-200.000	0.004	-0.017
-307.880	-34.762	0.142	0.077
-306.866	686.214	0.142	0.368
-305.851	256.035	0.052	0.088
-304.837	536.981	-0.090	0.212
-303.822	-200.000	-0.014	0.169
-302.807	-200.000	0.030	-0.195
-301.793	138.328	-0.216	-0.283
-300.778	263.474	0.106	-0.183
-299.764	-127.474	-0.260	0.038
-298.749	-94.184	0.177	-0.048
-297.735	77.187	0.123	-0.130
-296.720	139.668	-0.096	0.126
-295.705	-29.664	-0.174	-0.099
-294.691	-36.534	0.169	-0.091
-293.676	-78.439	0.196	-0.067
-292.662	-200.000	0.003	-0.133
-291.647	-44.612	0.058	0.029
-290.632	250.326	0.052	0.088
-289.618	800.000	-0.057	0.158
-288.603	-23.279	-0.188	0.113
-287.589	800.000	-0.032	-0.096
-286.574	-200.000	-0.016	-0.214
-285.559	-97.953	-0.151	-0.039
-284.545	233.258	0.167	-0.273
-283.530	-182.675	0.310	0.006
-282.516	-20.377	0.097	0.059
-281.501	-125.650	0.032	0.005
-280.486	479.743	0.077	-0.173
-279.472	-107.237	0.119	0.026
-278.457	148.509	0.234	0.314
-277.443	-132.908	0.018	-0.002
-276.428	273.104	-0.155	0.273
-275.413	207.819	-0.116	0.180
-274.399	-126.106	0.027	-0.004
-273.384	800.000	0.127	-0.359
-272.370	-108.775	0.347	-0.074
-271.355	163.895	-0.093	-0.131
-270.340	-7.105	-0.135	0.091
-269.326	-128.129	-0.121	-0.017
-268.311	-200.000	-0.048	0.392
-267.297	-35.613	0.274	0.148
-266.282	800.000	0.050	0.146
-265.267	-49.077	-0.063	0.030
-264.253	158.211	-0.031	0.042
-263.238	-200.000	0.006	0.333
-262.224	-115.436	-0.194	-0.036
-261.209	31.233	-0.132	-0.112
-260.195	-200.000	-0.025	-0.247
-259.180	-200.000	0.018	-0.082
-258.165	704.537	0.060	-0.156
-257.151	-200.000	-0.019	0.103
-256.136	262.858	0.087	0.150
-255.122	-200.000	-0.001	-0.116
-254.107	-151.241	0.177	-0.013
-253.092	-200.000	0.003	-0.233
-252.078	27.365	0.281	0.234
-251.063	800.000	-0.058	-0.222
-250.049	57.262	-0.140	-0.136
-249.034	800.000	0.051	0.155
-248.019	-53.068	0.099	-0.045
-247.005	352.581	-0.101	-0.199
-245.990	-76.424	-0.162	-0.057
-244.976	12.012	-0.147	-0.112
-243.961	-200.000	-0.011	0.132
-242.946	-200.000	0.011	0.127
-241.932	-25.023	-0.132	-0.078
-240.917	356.641	-0.144	0.286
-239.903	-200.000	0.044	0.235
-238.888	705.939	0.072	0.190
-237.873	0.289	0.318	-0.226
-236.859	-200.000	-0.009	-0.121
-235.844	-54.439	0.054	-0.024
-234.830	-200.000	0.042	0.280
-233.815	112.825	-0.191	-0.230
-232.800	184.806	-0.111	0.164
-231.786	158.131	-0.143	0.197
-230.771	-200.000	0.006	0.159
-229.757	88.904	0.020	-0.022
-228.742	-200.000	-0.003	0.084
-227.727	800.000	0.120	0.352
-226.713	13.701	0.043	-0.033
-225.698	164.017	0.104	0.146
-224.684	800.000	0.056	0.203
-223.669	86.277	0.363	0.397
-222.655	341.901	-0.100	-0.193
-221.640	-171.191	-0.176	-0.006
-220.625	-45.484	0.329	0.162
-219.611	-200.000	0.034	0.470
-218.596	-1.249	-0.199	-0.140
-217.582	-104.857	0.204	0.047
-216.567	88.597	0.074	-0.082
-215.552	12.612	0.300	-0.230
-214.538	619.002	0.055	0.137
-213.523	130.255	0.310	-0.394
-212.509	21.953	0.150	0.121
-211.494	800.000	0.071	0.234
-210.479	94.494	-0.198	0.224
-209.465	-150.291	-0.421	-0.032
-208.450	527.553	-0.054	-0.125
-207.436	-200.000	-0.035	0.251
-206.421	-200.000	-0.012	0.262
-205.406	232.607	-0.142	-0.232
-204.392	-85.340	0.349	-0.108
-203.377	429.784	0.091	-0.194
-202.363	-200.000	0.040	0.433
-201.348	800.000	0.089	0.289
-200.333	621.749	-0.074	0.184
-199.319	559.456	-0.081	-0.195
-198.304	7.069	0.195	-0.144
-197.290	-200.000	0.013	0.130
-196.275	-86.680	0.318	-0.097
-195.260	23.536	0.278	0.227
-194.246	-200.000	0.037	-0.345
-193.231	38.463	-0.165	-0.146
-192.217	232.356	0.119	-0.194
-191.202	140.469	0.070	-0.091
-190.187	63.884	-0.236	0.235
-189.173	66.338	-0.209	0.211
-188.158	-8.957	0.335	-0.223
-187.144	800.000	0.094	-0.283
-186.129	216.412	-0.144	0.228
-185.114	-47.379	0.478	0.231
-184.100	-200.000	0.054	0.274
-183.085	481.606	-0.171	-0.385
-182.071	257.352	-0.197	-0.335
-181.056	119.002	0.162	-0.199
-180.042	-87.399	-0.560	-0.168
-179.027	-177.616	-0.162	0.004
-178.012	345.868	0.044	0.087
-176.998	-200.000	0.025	0.199
-175.983	-117.467	-0.312	-0.056
-174.969	-115.572	-0.202	-0.038
-173.954	141.100	-0.142	-0.186
-172.939	37.312	0.338	-0.297
-171.925	14.401	0.094	-0.073
-170.910	-108.299	-0.126	-0.027
-169.896	25.022	0.118	0.097
-168.881	-200.000	0.033	-0.338
-167.866	208.006	-0.239	-0.370
-166.852	4.074	0.190	-0.138
-165.837	2.205	-0.164	-0.118
-164.823	178.562	0.083	0.121
-163.808	230.131	0.117	-0.189
-162.793	-153.635	-0.292	0.020
-161.779	-200.000	0.047	0.294
-160.764	-61.180	-0.174	0.073
-159.750	-180.728	-0.111	-0.002
-158.735	-200.000	0.019	-0.099
-157.720	-200.000	0.031	0.273
-156.706	-193.338	-0.080	-0.001
-155.691	-70.436	-0.151	-0.057
-154.677	99.308	-0.098	0.113
-153.662	480.719	0.104	-0.234
-152.647	-147.605	-0.257	0.021
-151.633	-200.000	0.014	-0.251
-150.618	-73.387	0.407	-0.147
-149.604	800.000	0.028	0.122
-148.589	-134.540	-0.076	-0.009
-147.574	-28.021	0.196	-0.112
-146.560	425.681	0.084	-0.180
-145.545	-200.000	0.016	0.168
-144.531	759.301	0.161	0.433
-143.516	92.859	-0.288	0.322
-142.502	76.701	0.092	-0.096
-141.487	-10.270	-0.241	-0.159
-140.472	-70.882	-0.216	0.080
-139.458	114.684	-0.238	0.288
-138.443	-44.433	0.205	0.102
-137.429	800.000	-0.071	0.258
-136.414	541.573	0.067	-0.158
-135.399	68.523	-0.132	-0.133
-134.385	335.001	0.101	0.193
-133.370	7.091	-0.163	0.120
-132.356	237.545	0.157	0.257
-131.341	726.046	-0.090	0.239
-130.326	800.000	0.063	-0.173
-129.312	-65.230	-0.073	-0.029
-128.297	125.430	0.232	0.290
-127.283	132.661	-0.180	0.230
-126.268	-200.000	-0.017	-0.229
-125.253	234.659	0.042	0.068
-124.239	-106.546	-0.115	0.025
-123.224	138.445	-0.094	-0.122
-122.210	-79.163	0.111	0.037
-121.195	148.963	-0.193	-0.259
