DTS Sentinel unit serial number:	SN413079Multiplexer serial number:	ORYXHardware model number:	OX4-SRSoftware version number:	ORYX F/W v4.00 Oryx Data Collector v3.7.2.0data status	okinstallation	princeton_trtdifferential loss correction	single-endedforward channel	channel 4reverse channel	N/Adate	2019/09/18time	11:53:35forward acquisition time	60.00reverse acquisition time	0.00gamma	496.2192k internal	0.2309k external	0.2309temperature offset calibration	0.9983default loss term (dB/km)	0.3790temperature slope calibration	1.0000multiplexer offset coefficient	1.0000multiplexer slope coefficient	1.0000fibre end	0.00T internal ref (°C)	31.37T ext. ref 1 (°C)	0.47T ext. ref 2 (°C)	27.98length (m)	temperature (°C)	Stokes	anti-Stokes-747.200	-177.429	-0.340	-0.008
-746.185	-61.256	-0.223	0.096
-745.171	-136.363	-0.091	0.011
-744.156	-19.468	-0.184	-0.116
-743.142	-200.000	0.004	0.060
-742.127	800.000	0.129	0.434
-741.112	-65.101	0.129	0.053
-740.098	29.419	-0.249	-0.215
-739.083	-200.000	0.027	-0.376
-738.069	-9.130	-0.264	0.179
-737.054	-136.249	0.144	-0.017
-736.039	800.000	0.039	-0.162
-735.025	-51.876	0.232	-0.110
-734.010	-141.311	-0.386	0.040
-732.996	-81.282	0.041	-0.014
-731.981	231.652	0.035	0.058
-730.966	-61.717	-0.166	-0.071
-729.952	-6.563	0.197	-0.136
-728.937	-47.478	-0.281	0.139
-727.923	-200.000	-0.018	-0.410
-726.908	-200.000	0.060	-0.425
-725.894	-98.460	-0.118	-0.031
-724.879	120.762	0.167	0.211
-723.864	-136.647	0.253	0.030
-722.850	-131.096	-0.212	-0.029
-721.835	59.001	-0.168	-0.168
-720.821	-73.213	-0.112	-0.042
-719.806	-83.616	-0.233	0.076
-718.791	-54.257	0.216	-0.100
-717.777	-27.522	-0.278	-0.164
-716.762	-200.000	0.010	-0.078
-715.748	-57.456	-0.146	-0.065
-714.733	726.012	0.003	0.007
-713.718	-58.601	0.317	-0.139
-712.704	-200.000	-0.020	-0.118
-711.689	-127.851	-0.184	0.027
-710.675	-97.352	0.178	0.047
-709.660	-91.228	-0.144	0.042
-708.645	34.929	0.054	0.048
-707.631	-79.058	0.171	-0.059
-706.616	314.332	0.086	0.164
-705.602	-200.000	0.015	-0.201
-704.587	-171.002	0.270	0.009
-703.572	-2.837	0.138	0.098
-702.558	-131.213	0.292	-0.039
-701.543	-154.662	0.142	0.010
-700.529	31.432	-0.386	-0.337
-699.514	-75.444	-0.299	0.108
-698.499	33.482	-0.180	-0.159
-697.485	595.730	0.130	0.326
-696.470	173.816	-0.193	0.282
-695.456	359.100	0.152	-0.307
-694.441	-143.467	0.101	-0.010
-693.426	-52.806	-0.237	-0.111
-692.412	-75.567	0.123	0.044
-691.397	655.758	-0.095	-0.247
-690.383	65.759	-0.183	0.188
-689.368	7.405	-0.162	-0.123
-688.354	27.988	0.040	-0.034
-687.339	149.432	0.170	-0.234
-686.324	252.312	0.160	0.277
-685.310	-14.348	-0.251	-0.164
-684.295	221.323	0.096	-0.157
-683.281	245.769	0.107	-0.182
-682.266	44.158	-0.106	0.098
-681.251	800.000	0.076	-0.300
-680.237	6.749	-0.203	-0.153
-679.222	193.839	0.131	0.201
-678.208	56.838	-0.116	0.114
-677.193	188.511	-0.086	0.130
-676.178	-129.977	0.310	0.043
-675.164	-133.812	0.377	-0.048
-674.149	20.551	-0.145	-0.119
-673.135	-61.873	0.314	0.133
-672.120	800.000	-0.082	-0.277
-671.105	-200.000	-0.011	-0.089
-670.091	-101.919	0.229	-0.056
-669.076	800.000	-0.029	-0.096
-668.062	-200.000	0.020	-0.456
-667.047	-200.000	0.006	-0.159
-666.032	-200.000	-0.069	0.307
-665.018	308.445	0.119	-0.224
-664.003	10.214	0.251	-0.194
-662.989	800.000	0.100	-0.284
-661.974	577.298	-0.075	0.187
-660.959	152.038	0.144	0.198
-659.945	-7.243	0.115	-0.079
-658.930	20.878	0.241	-0.198
-657.916	18.632	-0.087	0.071
-656.901	800.000	-0.039	-0.125
-655.886	-95.935	0.127	0.034
-654.872	323.814	0.110	0.213
-653.857	-113.943	-0.372	-0.073
-652.843	-44.245	0.264	-0.134
-651.828	-83.311	0.210	-0.068
-650.814	-200.000	0.013	-0.182
-649.799	-7.574	0.155	0.106
-648.784	525.733	0.060	-0.143
-647.770	-50.473	-0.413	-0.197
-646.755	82.770	0.238	-0.262
-645.741	76.736	0.264	0.283
-644.726	-200.000	0.035	0.334
-643.711	-200.000	-0.052	0.316
-642.697	71.158	0.347	0.364
-641.682	111.389	-0.149	0.182
-640.668	412.326	-0.147	-0.315
-639.653	-181.999	0.141	-0.003
-638.638	-200.000	0.009	0.248
-637.624	-200.000	0.015	0.135
-636.609	-191.817	0.218	-0.002
-635.595	-56.242	-0.396	0.178
-634.580	800.000	-0.105	-0.352
-633.565	147.188	0.088	0.120
-632.551	-143.896	0.114	0.011
-631.536	-137.554	-0.080	-0.009
-630.522	-99.016	0.336	0.086
-629.507	-120.904	0.324	0.055
-628.492	-51.078	0.325	0.154
-627.478	11.871	0.097	-0.076
-626.463	64.817	-0.210	-0.214
-625.449	-50.539	0.077	-0.037
-624.434	352.396	-0.098	0.196
-623.419	247.077	-0.140	0.238
-622.405	61.773	0.224	-0.225
-621.390	-15.079	-0.066	0.043
-620.376	-20.990	0.103	0.064
-619.361	-39.808	0.189	-0.100
-618.346	145.564	-0.128	0.173
-617.332	-200.000	0.019	0.185
-616.317	-200.000	-0.014	0.195
-615.303	-53.249	-0.195	-0.091
-614.288	-34.183	0.285	0.158
-613.273	-200.000	-0.003	0.096
-612.259	27.621	-0.187	-0.160
-611.244	-200.000	-0.018	-0.139
-610.230	495.607	0.126	-0.293
-609.215	672.172	0.014	-0.037
-608.201	-94.690	0.108	0.030
-607.186	-200.000	0.019	-0.148
-606.171	-122.528	0.167	0.027
-605.157	-128.148	-0.332	0.048
-604.142	800.000	-0.058	-0.235
-603.128	-85.776	0.102	0.032
-602.113	14.085	0.134	-0.106
-601.098	123.672	0.136	0.172
-600.084	-161.732	0.146	-0.008
-599.069	-34.930	0.266	0.146
-598.055	-9.714	0.170	-0.115
-597.040	3.208	-0.208	0.153
-596.025	-200.000	-0.100	0.516
-595.011	-142.442	-0.198	0.020
-593.996	125.962	-0.097	0.124
-592.982	531.351	-0.133	0.318
-591.967	800.000	0.038	0.143
-590.952	-127.479	0.313	-0.046
-589.938	-87.211	-0.113	-0.035
-588.923	-100.814	-0.462	0.115
-587.909	-43.628	0.193	-0.098
-586.894	800.000	-0.041	0.114
-585.879	-159.752	-0.294	0.016
-584.865	71.831	0.061	0.064
-583.850	-200.000	0.023	0.240
-582.836	-120.361	-0.064	0.011
-581.821	733.274	0.103	-0.278
-580.806	-0.981	-0.195	-0.139
-579.792	-200.000	-0.013	0.139
-578.777	81.201	-0.062	-0.067
-577.763	6.182	-0.166	-0.124
-576.748	48.160	-0.166	-0.157
-575.733	-127.000	-0.268	-0.040
-574.719	21.870	-0.293	-0.241
-573.704	-200.000	-0.040	-0.257
-572.690	302.422	0.072	-0.134
-571.675	800.000	-0.040	-0.173
-570.661	-0.356	-0.333	-0.239
-569.646	-200.000	0.028	-0.135
-568.631	117.831	-0.081	0.101
-567.617	0.351	0.312	0.225
-566.602	-15.233	-0.195	-0.126
-565.588	105.461	-0.122	-0.146
-564.573	-82.233	-0.021	-0.007
-563.558	800.000	-0.070	0.242
-562.544	-103.657	-0.224	0.053
-561.529	-200.000	0.020	0.250
-560.515	-3.740	0.091	0.064
-559.500	-43.288	0.335	0.171
-558.485	687.244	0.045	-0.119
-557.471	800.000	-0.092	-0.259
-556.456	-200.000	0.026	0.348
-555.442	-143.508	-0.116	0.011
-554.427	750.398	-0.082	0.224
-553.412	-41.366	-0.113	0.059
-552.398	86.427	-0.243	0.270
-551.383	142.482	-0.176	0.236
-550.369	132.745	-0.047	0.062
-549.354	51.287	-0.127	-0.122
-548.339	-130.327	0.176	-0.024
-547.325	-200.000	0.005	0.060
-546.310	-54.495	-0.228	0.104
-545.296	-200.000	-0.056	-0.263
-544.281	304.557	-0.143	-0.268
-543.266	14.997	-0.094	-0.074
-542.252	171.084	-0.275	0.397
-541.237	-55.669	-0.260	0.117
-540.223	800.000	0.044	-0.151
-539.208	-200.000	-0.019	-0.134
-538.193	-200.000	-0.057	0.257
-537.179	75.947	-0.165	0.176
-536.164	188.908	0.156	0.235
-535.150	-200.000	-0.015	-0.217
-534.135	-131.335	-0.160	-0.021
-533.121	83.270	-0.335	0.368
-532.106	267.004	0.114	0.201
-531.091	-4.221	-0.043	0.030
-530.077	-66.310	0.119	-0.048
-529.062	-28.805	-0.113	-0.065
-528.048	-200.000	0.007	-0.056
-527.033	-79.511	-0.340	-0.116
-526.018	79.783	0.118	0.128
-525.004	260.880	0.041	-0.072
-523.989	-119.312	-0.192	-0.034
-522.975	-45.047	-0.177	-0.089
-521.960	2.732	-0.042	0.031
-520.945	-56.030	0.157	0.071
-519.931	127.071	-0.025	-0.032
-518.916	235.787	-0.210	0.349
-517.902	-86.047	0.193	-0.060
-516.887	178.301	-0.188	0.276
-515.872	99.786	0.143	0.167
-514.858	19.888	-0.089	-0.072
-513.843	45.125	-0.145	-0.135
-512.829	-111.792	-0.316	0.064
-511.814	-52.196	0.040	0.019
-510.799	17.024	-0.138	-0.110
-509.785	72.506	-0.161	0.169
-508.770	151.895	0.095	-0.130
-507.756	-15.586	-0.268	0.172
-506.741	-9.042	-0.294	0.198
-505.726	152.202	0.128	-0.176
-504.712	-196.748	0.054	0.000
-503.697	-200.000	-0.013	0.170
-502.683	-8.426	-0.321	-0.217
-501.668	-200.000	-0.007	-0.413
-500.653	-48.630	0.204	-0.099
-499.639	-118.627	0.346	-0.062
-498.624	175.667	-0.076	-0.111
-497.610	-80.436	0.442	-0.148
-496.595	267.601	0.165	0.290
-495.581	-200.000	0.003	-0.031
-494.566	-17.654	-0.302	-0.191
-493.551	134.788	-0.119	-0.156
-492.537	117.429	0.094	0.116
-491.522	73.373	0.212	0.223
-490.508	96.208	0.105	0.121
-489.493	-3.900	-0.057	-0.040
-488.478	-130.632	-0.198	-0.027
-487.464	433.774	-0.148	-0.324
-486.449	602.095	-0.099	-0.247
-485.435	-2.077	-0.175	0.124
-484.420	2.141	-0.156	0.113
-483.405	-175.441	0.104	-0.003
-482.391	800.000	-0.111	0.350
-481.376	-3.192	-0.303	0.213
-480.362	-127.822	-0.232	-0.034
-479.347	800.000	-0.103	-0.305
-478.332	-32.943	-0.194	0.108
-477.318	-200.000	-0.028	0.341
-476.303	-76.725	-0.526	-0.185
-475.289	-96.689	-0.270	0.072
-474.274	-97.458	0.212	-0.055
-473.259	-13.775	-0.220	-0.143
-472.245	-121.590	-0.408	-0.068
-471.230	333.131	-0.081	-0.158
-470.216	-117.600	0.116	0.021
-469.201	800.000	-0.125	-0.391
-468.186	256.297	0.198	-0.341
-467.172	-114.020	-0.334	-0.065
-466.157	-200.000	0.025	-0.307
-465.143	-41.952	0.210	-0.108
-464.128	135.521	0.124	0.162
-463.113	-200.000	-0.026	-0.160
-462.099	-200.000	0.008	0.304
-461.084	0.062	0.164	-0.117
-460.070	-200.000	0.085	0.404
-459.055	278.316	0.060	-0.107
-458.040	-200.000	-0.014	0.138
-457.026	-165.871	-0.266	-0.011
-456.011	339.829	0.125	-0.244
-454.997	-78.856	-0.115	-0.039
-453.982	-101.338	-0.314	0.077
-452.968	-44.365	0.336	-0.169
-451.953	800.000	-0.066	-0.285
-450.938	-62.602	0.213	-0.089
-449.924	474.712	0.099	0.224
-448.909	-200.000	-0.016	0.090
-447.895	185.153	0.052	0.078
-446.880	-200.000	-0.002	-0.047
-445.865	-100.778	0.142	0.035
-444.851	16.088	-0.263	-0.208
-443.836	101.947	-0.125	0.147
-442.822	618.750	0.122	0.307
-441.807	-200.000	0.064	-0.313
-440.792	173.669	0.084	0.121
-439.778	98.959	-0.109	0.126
-438.763	375.645	-0.150	0.308
-437.749	-4.285	-0.318	0.221
-436.734	800.000	0.153	-0.446
-435.719	800.000	0.077	0.296
-434.705	70.046	0.195	0.202
-433.690	-200.000	0.030	-0.191
-432.676	-100.336	-0.144	0.036
-431.661	350.504	-0.097	0.192
-430.646	800.000	-0.036	0.111
-429.632	-200.000	-0.005	-0.318
-428.617	87.111	-0.063	-0.070
-427.603	672.816	0.091	-0.237
-426.588	-129.001	0.294	-0.041
-425.573	192.461	0.203	0.307
-424.559	-200.000	0.029	0.180
-423.544	-200.000	0.045	-0.203
-422.530	800.000	0.014	-0.050
-421.515	180.286	-0.164	0.242
-420.500	-148.396	-0.235	-0.019
-419.486	-23.108	-0.089	0.054
-418.471	-138.836	-0.321	-0.035
-417.457	286.235	-0.076	0.137
-416.442	536.092	-0.135	-0.322
-415.428	800.000	-0.077	-0.255
-414.413	-99.851	-0.139	0.035
-413.398	238.429	-0.149	0.249
-412.384	-9.377	0.082	-0.055
-411.369	-62.230	0.363	0.152
-410.355	-38.981	-0.275	0.145
-409.340	-200.000	0.009	0.157
-408.325	-200.000	-0.028	0.223
-407.311	-85.625	-0.109	0.034
-406.296	69.535	-0.120	-0.124
-405.282	-86.301	0.440	0.136
-404.267	-34.503	0.052	0.028
-403.252	-29.075	-0.185	0.106
-402.238	275.192	-0.091	-0.161
-401.223	41.254	0.161	0.146
-400.209	159.862	-0.137	-0.191
-399.194	-56.558	0.147	0.065
-398.179	-135.213	0.323	0.039
-397.165	38.413	-0.136	0.121
-396.150	-200.000	0.004	0.049
-395.136	-11.992	0.088	0.058
-394.121	-86.104	0.319	-0.099
-393.106	52.234	-0.177	0.169
-392.092	-38.271	0.142	-0.075
-391.077	-108.757	0.228	0.049
-390.063	288.518	-0.072	-0.131
-389.048	-89.312	0.439	0.130
-388.033	-200.000	-0.024	-0.149
-387.019	76.134	0.330	-0.350
-386.004	50.655	-0.260	-0.246
-384.990	273.730	0.208	0.369
-383.975	-200.000	0.041	0.262
-382.960	-200.000	-0.002	0.326
-381.946	-12.520	-0.079	0.052
-380.931	61.017	-0.067	-0.067
-379.917	153.265	-0.155	-0.212
-378.902	800.000	-0.072	-0.309
-377.888	137.551	-0.131	0.171
-376.873	-82.318	0.220	-0.072
-375.858	-106.954	0.206	-0.046
-374.844	140.682	-0.109	-0.145
-373.829	-31.356	0.116	-0.065
-372.815	28.722	0.113	-0.096
-371.800	-143.448	0.180	-0.017
-370.785	800.000	0.039	0.108
-369.771	70.230	0.201	0.208
-368.756	116.265	0.210	0.257
-367.742	-70.685	0.217	-0.082
-366.727	-95.289	0.336	0.091
-365.712	-0.760	0.057	-0.040
-364.698	-0.907	-0.054	0.038
-363.683	-61.208	0.120	-0.050
-362.669	249.935	0.194	-0.329
-361.654	-32.518	-0.252	0.141
-360.639	-200.000	0.030	-0.498
-359.625	-101.162	0.345	-0.085
-358.610	-55.855	-0.259	-0.116
-357.596	-50.215	-0.017	0.008
-356.581	-200.000	-0.010	0.087
-355.566	634.598	-0.036	-0.092
-354.552	-200.000	-0.004	-0.171
-353.537	800.000	0.078	-0.253
-352.523	-51.569	0.140	0.065
-351.508	44.595	-0.115	0.105
-350.493	-200.000	-0.003	-0.164
-349.479	311.978	0.140	-0.262
-348.464	-99.349	-0.148	-0.037
-347.450	-200.000	-0.007	0.154
-346.435	7.059	0.278	0.208
-345.420	800.000	0.078	0.242
-344.406	200.191	0.212	0.326
-343.391	42.569	-0.119	0.108
-342.377	88.067	-0.115	0.128
-341.362	800.000	0.045	-0.194
-340.348	9.719	0.151	0.115
-339.333	-200.000	0.010	0.201
-338.318	-200.000	0.003	-0.118
-337.304	-22.131	0.279	-0.169
-336.289	-84.161	-0.055	0.017
-335.275	410.673	-0.125	-0.265
-334.260	440.844	0.227	-0.496
-333.245	225.249	-0.001	0.002
-332.231	800.000	-0.037	0.119
-331.216	568.323	-0.089	0.217
-330.202	800.000	-0.011	-0.035
-329.187	50.887	0.101	-0.096
-328.172	73.373	0.128	-0.133
-327.158	19.264	0.221	0.177
-326.143	56.211	0.175	-0.170
-325.129	265.666	0.078	0.136
-324.114	158.190	-0.153	-0.213
-323.099	-94.122	0.164	-0.045
-322.085	723.617	0.027	0.073
-321.070	89.675	-0.210	-0.234
-320.056	797.461	-0.066	-0.183
-319.041	-1.054	0.174	-0.123
-318.026	123.102	0.112	-0.140
-317.012	-75.690	-0.059	0.021
-315.997	447.688	-0.132	0.291
-314.983	-200.000	0.008	-0.421
-313.968	-200.000	-0.002	-0.357
-312.953	221.351	0.102	-0.164
-311.939	-57.223	0.044	0.019
-310.924	382.137	0.038	-0.079
-309.910	-200.000	0.023	0.188
-308.895	36.501	0.131	0.115
-307.880	-118.552	-0.178	-0.032
-306.866	-67.823	-0.142	0.056
-305.851	-105.862	0.225	0.051
-304.837	800.000	0.072	-0.206
-303.822	88.725	-0.180	0.200
-302.807	-50.271	0.034	0.016
-301.793	-200.000	0.018	-0.265
-300.778	-130.557	-0.507	0.068
-299.764	72.794	-0.015	-0.016
-298.749	11.769	0.138	0.106
-297.735	-75.087	-0.423	-0.151
-296.720	412.822	0.062	0.132
-295.705	-144.094	-0.270	-0.025
-294.691	24.897	0.225	0.186
-293.676	-173.832	-0.178	0.005
-292.662	4.007	0.145	0.106
-291.647	800.000	0.032	-0.092
-290.632	156.436	0.114	-0.157
-289.618	-131.724	0.074	-0.010
-288.603	48.484	0.131	0.123
-287.589	-56.525	-0.217	-0.096
-286.574	-200.000	-0.025	0.247
-285.559	-15.053	-0.067	0.043
-284.545	160.922	0.087	0.121
-283.530	-146.837	0.051	-0.004
-282.516	-98.665	-0.218	-0.055
-281.501	409.021	-0.124	-0.262
-280.486	68.207	0.291	-0.298
-279.472	-43.787	-0.030	-0.015
-278.457	127.546	-0.177	-0.225
-277.443	360.488	-0.117	-0.233
-276.428	-155.929	0.129	-0.008
-275.413	61.034	0.083	0.082
-274.399	3.760	0.104	-0.076
-273.384	159.402	0.086	0.119
-272.370	-104.221	-0.370	-0.086
-271.355	800.000	-0.113	0.311
-270.340	0.070	-0.268	0.191
-269.326	-96.002	-0.150	0.040
-268.311	-194.315	0.326	0.003
-267.297	51.898	0.145	0.138
-266.282	-200.000	0.001	0.296
-265.267	-33.119	0.142	-0.079
-264.253	-200.000	-0.013	-0.086
-263.238	-200.000	-0.021	-0.338
-262.224	13.597	0.183	-0.141
-261.209	67.888	0.200	0.204
-260.195	-28.029	0.137	0.079
-259.180	215.949	-0.107	0.170
-258.165	-89.355	0.352	0.103
-257.151	800.000	-0.083	-0.257
-256.136	-200.000	-0.043	-0.337
-255.122	-73.498	-0.153	0.056
-254.107	-26.961	-0.237	-0.138
-253.092	-200.000	0.025	0.178
-252.078	183.875	-0.142	0.210
-251.063	709.267	-0.011	0.029
-250.049	111.834	0.230	-0.277
-249.034	-34.772	0.060	0.033
-248.019	-66.139	-0.228	0.091
-247.005	280.798	-0.128	0.229
-245.990	-115.853	0.065	-0.012
-244.976	67.175	0.193	-0.196
-243.961	58.711	-0.189	0.185
-242.946	35.890	0.135	-0.118
-241.932	780.697	-0.153	0.417
-240.917	366.516	-0.035	-0.070
-239.903	-200.000	0.005	-0.278
-238.888	-79.129	0.234	0.079
-237.873	-155.313	0.297	0.019
-236.859	-48.776	0.070	-0.033
-235.844	-200.000	-0.039	-0.434
-234.830	-80.933	0.413	-0.136
-233.815	-84.321	0.265	0.084
-232.800	129.160	0.132	0.167
-231.786	-200.000	-0.032	0.237
-230.771	-95.456	0.251	-0.067
-229.757	-200.000	0.006	-0.096
-228.742	-74.070	0.271	-0.098
-227.727	208.932	0.109	-0.170
-226.713	185.573	0.122	-0.181
-225.698	-18.048	-0.200	-0.125
-224.684	-200.000	0.003	0.081
-223.669	301.312	-0.114	-0.209
-222.655	-60.426	0.215	-0.091
-221.640	-127.040	0.601	0.088
-220.625	265.190	0.072	-0.126
-219.611	800.000	0.069	0.190
-218.596	48.231	0.126	0.118
-217.582	-21.599	-0.112	-0.068
-216.567	800.000	0.051	-0.206
-215.552	1.245	-0.113	-0.081
-214.538	338.664	-0.167	0.324
-213.523	-82.103	0.216	-0.070
-212.509	-33.706	-0.291	-0.160
-211.494	61.872	0.079	0.078
-210.479	48.825	-0.172	0.160
-209.465	-200.000	-0.020	-0.150
-208.450	118.479	-0.191	-0.235
-207.436	800.000	0.097	0.353
-206.421	-108.285	0.372	-0.080
-205.406	97.832	0.194	0.222
-204.392	800.000	0.022	-0.071
-203.377	-145.490	-0.141	-0.013
-202.363	-0.779	0.105	0.074
-201.348	-200.000	0.047	0.280
-200.333	-200.000	-0.036	-0.175
-199.319	-200.000	-0.031	-0.294
-198.304	442.891	0.103	-0.225
-197.290	301.961	0.055	-0.100
-196.275	93.105	0.008	0.009
-195.260	-200.000	0.046	-0.265
-194.246	192.443	-0.101	0.151
-193.231	-23.292	-0.179	-0.107
-192.217	361.234	0.112	0.223
-191.202	-37.092	0.197	0.105
-190.187	309.400	-0.099	0.183
-189.173	340.351	0.059	0.115
-188.158	33.604	-0.186	0.161
-187.144	-24.804	0.485	0.286
-186.129	800.000	-0.095	0.291
-185.114	-20.469	0.261	0.159
-184.100	-200.000	-0.000	-0.264
-183.085	90.446	-0.140	-0.156
-182.071	139.333	-0.245	-0.320
-181.056	145.527	-0.167	0.222
-180.042	-99.417	0.085	0.021
-179.027	800.000	-0.076	0.246
-178.012	48.512	-0.230	0.214
-176.998	-116.622	0.072	0.013
-175.983	237.933	0.106	-0.175
-174.969	800.000	0.046	-0.185
-173.954	-106.159	-0.151	0.034
-172.939	800.000	-0.030	-0.099
-171.925	-147.654	0.246	-0.021
-170.910	170.989	-0.089	-0.127
-169.896	-200.000	0.020	-0.128
-168.881	-190.505	0.183	-0.002
-167.866	171.285	0.125	-0.179
-166.852	24.410	0.124	-0.102
-165.837	-133.556	0.305	-0.038
-164.823	-200.000	-0.005	-0.236
-163.808	319.896	-0.113	0.214
-162.793	4.156	-0.039	0.028
-161.779	-200.000	-0.053	-0.341
-160.764	-200.000	0.037	-0.197
-159.750	329.288	0.074	0.142
-158.735	229.843	-0.125	0.203
-157.720	19.315	-0.375	-0.299
-156.706	21.487	-0.185	-0.150
-155.691	-172.670	-0.098	-0.003
-154.677	545.554	0.088	0.210
-153.662	800.000	0.075	0.237
-152.647	-46.980	0.191	0.093
-151.633	-200.000	0.013	-0.077
-150.618	-68.933	-0.046	-0.018
-149.604	78.316	-0.164	-0.174
-148.589	59.058	-0.159	0.155
-147.574	12.283	0.116	-0.089
-146.560	-50.855	0.275	0.128
-145.545	15.325	0.308	-0.240
-144.531	326.506	0.042	0.079
-143.516	457.278	-0.071	-0.157
-142.502	-143.366	-0.213	-0.020
-141.487	-92.012	0.336	0.095
-140.472	106.999	-0.046	0.054
-139.458	-200.000	0.082	-0.443
-138.443	37.349	0.153	-0.134
-137.429	59.011	-0.116	0.113
-136.414	243.023	0.108	0.180
-135.399	140.549	0.032	0.042
-134.385	307.799	-0.248	0.458
-133.370	-86.505	-0.194	0.059
-132.356	-136.350	-0.277	0.032
-131.341	93.842	0.159	0.179
-130.326	-76.309	-0.332	-0.116
-129.312	-200.000	0.004	0.160
-128.297	-64.758	0.078	-0.031
-127.283	-200.000	-0.005	0.035
-126.268	248.481	0.105	-0.176
-125.253	-172.544	0.196	0.006
-124.239	320.133	0.184	-0.346
-123.224	59.905	0.096	-0.094
-122.210	-32.870	0.205	-0.113
-121.195	75.359	0.060	-0.063
-120.180	-56.351	-0.061	-0.027
