DTS Sentinel unit serial number:	SN413079Multiplexer serial number:	ORYXHardware model number:	OX4-SRSoftware version number:	ORYX F/W v4.00 Oryx Data Collector v3.7.2.0data status	okinstallation	princeton_trtdifferential loss correction	single-endedforward channel	channel 4reverse channel	N/Adate	2019/09/13time	04:49:35forward acquisition time	60.00reverse acquisition time	0.00gamma	496.2192k internal	0.2322k external	0.2322temperature offset calibration	1.0192default loss term (dB/km)	0.3790temperature slope calibration	1.0000multiplexer offset coefficient	1.0000multiplexer slope coefficient	1.0000fibre end	0.00T internal ref (°C)	26.56T ext. ref 1 (°C)	4.05T ext. ref 2 (°C)	21.07length (m)	temperature (°C)	Stokes	anti-Stokes-747.200	-67.139	-0.232	0.092
-746.185	-18.334	0.115	0.072
-745.171	-200.000	-0.044	0.201
-744.156	-179.605	-0.307	0.007
-743.142	64.380	-0.034	0.035
-742.127	9.042	-0.090	0.069
-741.112	87.435	0.212	0.236
-740.098	800.000	0.048	0.183
-739.083	146.906	0.056	0.077
-738.069	-14.839	-0.238	0.154
-737.054	-200.000	0.039	0.305
-736.039	-70.472	-0.459	0.176
-735.025	226.579	0.131	0.216
-734.010	-82.880	-0.291	-0.095
-732.996	-200.000	0.024	-0.183
-731.981	800.000	-0.052	-0.151
-730.966	-155.036	-0.067	0.004
-729.952	-105.569	0.077	0.018
-728.937	153.310	-0.143	-0.198
-727.923	-104.085	0.169	0.040
-726.908	-97.468	-0.108	0.028
-725.894	2.826	-0.182	-0.133
-724.879	552.166	-0.050	-0.122
-723.864	178.466	0.157	0.231
-722.850	-39.236	-0.228	-0.121
-721.835	-200.000	0.080	0.388
-720.821	418.196	-0.118	-0.254
-719.806	592.885	0.116	-0.289
-718.791	-32.104	-0.168	-0.095
-717.777	-31.919	0.347	0.196
-716.762	800.000	0.027	0.078
-715.748	800.000	0.015	0.067
-714.733	-111.153	0.252	-0.052
-713.718	303.000	-0.111	0.207
-712.704	800.000	0.020	0.083
-711.689	-152.026	-0.358	-0.026
-710.675	-2.693	0.041	-0.029
-709.660	-154.906	0.300	0.020
-708.645	-69.486	-0.212	-0.082
-707.631	800.000	-0.033	-0.130
-706.616	-158.878	0.601	-0.035
-705.602	-165.729	-0.063	0.003
-704.587	-157.036	0.144	-0.009
-703.572	-200.000	-0.002	-0.107
-702.558	771.809	0.123	-0.337
-701.543	-78.734	-0.127	-0.044
-700.529	800.000	0.011	-0.042
-699.514	-155.450	0.154	0.010
-698.499	742.486	-0.176	-0.478
-697.485	-94.639	-0.266	0.073
-696.470	-200.000	0.019	0.182
-695.456	800.000	-0.045	0.133
-694.441	800.000	0.112	-0.403
-693.426	88.085	-0.103	0.115
-692.412	358.680	0.116	0.233
-691.397	-5.258	-0.195	-0.135
-690.383	271.101	-0.072	0.127
-689.368	-109.683	-0.086	0.018
-688.354	163.574	-0.019	0.027
-687.339	800.000	-0.017	-0.049
-686.324	-200.000	-0.016	-0.373
-685.310	-0.515	-0.179	-0.128
-684.295	-40.252	0.360	-0.189
-683.281	-6.799	0.119	-0.082
-682.266	32.821	-0.116	-0.101
-681.251	19.887	-0.376	-0.305
-680.237	-37.113	0.115	0.062
-679.222	-120.422	-0.167	0.029
-678.208	149.271	-0.106	-0.145
-677.193	87.712	-0.229	-0.255
-676.178	305.063	-0.106	-0.199
-675.164	800.000	0.025	0.103
-674.149	-200.000	0.016	-0.114
-673.135	-200.000	-0.042	-0.187
-672.120	-73.155	-0.294	-0.109
-671.105	534.901	0.202	-0.481
-670.091	-200.000	-0.018	0.155
-669.076	800.000	-0.059	0.238
-668.062	149.654	0.152	-0.207
-667.047	-5.725	0.367	-0.254
-666.032	-125.043	0.076	0.012
-665.018	89.602	0.324	0.364
-664.003	-200.000	0.044	-0.291
-662.989	800.000	0.106	-0.387
-661.974	800.000	-0.049	-0.149
-660.959	-136.360	0.148	-0.017
-659.945	61.960	0.246	-0.247
-658.930	-170.767	-0.426	-0.015
-657.916	-126.824	-0.189	0.028
-656.901	88.000	0.122	-0.136
-655.886	89.565	-0.082	0.092
-654.872	253.248	-0.088	-0.151
-653.857	45.564	0.171	-0.159
-652.843	-93.386	-0.183	-0.051
-651.828	25.816	0.314	-0.263
-650.814	-2.712	-0.175	-0.123
-649.799	142.549	0.265	0.354
-648.784	800.000	-0.047	0.161
-647.770	47.474	-0.307	-0.288
-646.755	-38.545	0.219	-0.117
-645.741	-200.000	0.019	-0.221
-644.726	-108.411	-0.242	-0.053
-643.711	-58.991	0.097	0.042
-642.697	-200.000	0.025	-0.162
-641.682	-78.170	0.329	0.114
-640.668	-159.831	0.157	-0.009
-639.653	-142.060	0.213	-0.021
-638.638	800.000	-0.025	-0.077
-637.624	308.993	-0.078	-0.146
-636.609	-70.293	-0.296	-0.113
-635.595	167.137	0.105	0.150
-634.580	19.813	0.213	0.172
-633.565	82.273	-0.073	0.080
-632.551	-108.891	-0.294	0.063
-631.536	197.822	0.037	0.056
-630.522	297.935	-0.204	0.378
-629.507	800.000	0.019	-0.075
-628.492	-54.023	0.062	0.029
-627.478	-118.436	-0.145	-0.026
-626.463	100.573	-0.098	-0.115
-625.449	-5.170	0.249	-0.172
-624.434	-32.400	0.327	-0.183
-623.419	-200.000	-0.040	0.245
-622.405	45.515	-0.134	-0.125
-621.390	588.226	-0.074	0.184
-620.376	800.000	-0.104	0.288
-619.361	270.989	-0.050	0.088
-618.346	290.257	-0.126	0.230
-617.332	346.734	-0.094	0.187
-616.317	-73.278	0.222	0.082
-615.303	123.109	0.221	-0.278
-614.288	-139.914	0.366	0.039
-613.273	-127.123	-0.181	0.027
-612.259	-98.119	0.512	0.132
-611.244	-27.421	-0.321	0.188
-610.230	-89.815	-0.177	0.052
-609.215	52.607	0.163	-0.156
-608.201	22.672	0.206	-0.169
-607.186	-160.709	-0.398	0.021
-606.171	800.000	0.034	-0.150
-605.157	0.753	0.049	0.035
-604.142	110.324	0.203	0.245
-603.128	-26.087	-0.092	0.054
-602.113	800.000	0.167	-0.474
-601.098	122.937	-0.149	-0.187
-600.084	-63.973	-0.126	0.052
-599.069	244.281	0.094	-0.159
-598.055	-200.000	-0.028	-0.239
-597.040	-94.221	-0.149	0.041
-596.025	800.000	-0.032	-0.102
-595.011	778.107	-0.098	-0.270
-593.996	195.412	0.190	-0.291
-592.982	-39.322	0.176	0.093
-591.967	228.942	-0.083	0.136
-590.952	31.622	0.109	0.094
-589.938	285.128	-0.162	-0.292
-588.923	-200.000	0.038	0.467
-587.909	800.000	-0.033	-0.106
-586.894	-67.453	0.156	0.062
-585.879	800.000	-0.030	0.115
-584.865	82.880	0.299	-0.327
-583.850	-200.000	0.030	-0.149
-582.836	-184.368	-0.208	0.003
-581.821	571.169	-0.215	-0.525
-580.806	124.801	-0.039	-0.049
-579.792	-2.946	-0.327	0.229
-578.777	45.754	0.123	-0.115
-577.763	157.343	0.090	-0.125
-576.748	-121.803	-0.369	0.061
-575.733	-200.000	0.034	0.237
-574.719	96.440	0.117	0.134
-573.704	347.647	0.057	-0.112
-572.690	97.347	0.116	0.134
-571.675	109.645	0.194	-0.233
-570.661	-200.000	0.026	-0.119
-569.646	-126.656	-0.206	-0.031
-568.631	-200.000	-0.016	-0.292
-567.617	194.659	-0.165	-0.251
-566.602	-105.730	-0.307	-0.070
-565.588	-67.552	0.137	0.054
-564.573	46.997	-0.077	0.072
-563.558	-200.000	0.005	-0.084
-562.544	-36.590	-0.034	0.018
-561.529	-200.000	-0.001	0.053
-560.515	800.000	0.013	0.039
-559.500	78.865	-0.213	0.228
-558.485	-177.292	0.174	0.004
-557.471	-166.044	-0.120	-0.005
-556.456	232.911	-0.132	-0.218
-555.442	393.368	-0.066	0.138
-554.427	-75.509	0.226	0.081
-553.412	62.055	0.061	0.061
-552.398	66.638	0.075	0.077
-551.383	447.189	-0.124	0.274
-550.369	-5.726	0.170	-0.117
-549.354	-90.334	0.139	-0.041
-548.339	132.110	-0.104	0.134
-547.325	-11.829	-0.377	0.248
-546.310	-99.985	0.165	-0.041
-545.296	-160.721	0.252	-0.013
-544.281	-39.724	0.027	-0.014
-543.266	248.490	0.122	-0.207
-542.252	-78.393	-0.325	-0.112
-541.237	-71.992	0.083	0.031
-540.223	271.787	-0.100	-0.176
-539.208	-73.398	0.113	0.041
-538.193	151.707	0.192	0.262
-537.179	-89.797	-0.253	-0.074
-536.164	-96.730	0.246	0.065
-535.150	48.680	-0.181	0.170
-534.135	458.439	0.063	-0.140
-533.121	800.000	-0.107	0.376
-532.106	48.706	0.044	0.041
-531.091	-6.318	-0.189	0.129
-530.077	48.287	0.121	0.113
-529.062	18.489	0.251	-0.201
-528.048	-200.000	0.039	-0.328
-527.033	-200.000	-0.001	0.025
-526.018	642.329	-0.092	0.235
-525.004	200.331	-0.254	0.390
-523.989	108.315	-0.225	0.269
-522.975	800.000	-0.139	0.510
-521.960	-138.879	-0.144	-0.016
-520.945	76.601	-0.271	0.288
-519.931	-41.481	-0.378	-0.195
-518.916	-200.000	0.010	0.049
-517.902	-125.016	-0.199	0.031
-516.887	-99.223	-0.144	0.037
-515.872	800.000	0.101	-0.303
-514.858	149.386	-0.055	-0.075
-513.843	194.404	0.063	0.096
-512.829	-73.509	0.157	-0.057
-511.814	-200.000	0.043	0.342
-510.799	-200.000	0.000	0.029
-509.785	80.804	0.250	-0.269
-508.770	-200.000	0.009	0.114
-507.756	-200.000	-0.066	-0.330
-506.741	-142.791	0.293	-0.029
-505.726	143.684	0.172	-0.229
-504.712	-69.643	0.157	0.060
-503.697	-145.077	-0.363	0.033
-502.683	251.610	0.090	0.153
-501.668	-200.000	-0.124	-0.551
-500.653	77.582	-0.209	-0.223
-499.639	125.035	0.106	0.134
-498.624	-116.123	0.051	0.009
-497.610	299.970	0.039	-0.072
-496.595	-49.421	-0.257	0.123
-495.581	-94.315	-0.200	0.055
-494.566	279.259	-0.077	-0.137
-493.551	52.524	0.245	-0.234
-492.537	35.374	0.208	0.183
-491.522	-13.225	-0.147	0.096
-490.508	-6.753	-0.383	0.261
-489.493	-200.000	-0.015	0.236
-488.478	18.717	0.075	0.060
-487.464	160.455	0.152	0.211
-486.449	249.235	-0.108	-0.182
-485.435	459.365	0.117	0.260
-484.420	-52.332	-0.190	0.088
-483.405	-119.487	-0.308	0.053
-482.391	61.414	-0.176	0.175
-481.376	373.797	0.115	-0.234
-480.362	-134.648	-0.110	0.013
-479.347	-160.082	0.068	-0.004
-478.332	-177.544	-0.161	-0.004
-477.318	-200.000	-0.001	0.259
-476.303	-104.739	0.163	0.037
-475.289	27.798	-0.213	-0.180
-474.274	-200.000	-0.009	0.144
-473.259	274.549	0.099	0.174
-472.245	-18.592	0.308	-0.192
-471.230	-200.000	-0.023	0.372
-470.216	800.000	-0.067	-0.275
-469.201	-48.601	-0.111	-0.053
-468.186	-200.000	0.028	0.231
-467.172	-85.681	-0.482	-0.149
-466.157	199.640	0.106	-0.162
-465.143	80.858	0.047	-0.051
-464.128	433.980	-0.090	-0.196
-463.113	-155.058	0.106	-0.007
-462.099	-69.120	-0.224	0.086
-461.084	-120.143	-0.375	0.064
-460.070	21.740	0.156	-0.127
-459.055	643.555	0.087	0.223
-458.040	9.081	-0.234	0.176
-457.026	-59.768	-0.148	0.063
-456.011	-200.000	-0.016	0.088
-454.997	278.302	0.044	-0.079
-453.982	10.840	0.077	0.059
-452.968	-73.239	-0.145	-0.053
-451.953	-200.000	0.228	0.001
-450.938	533.692	0.038	-0.089
-449.924	369.373	0.085	-0.171
-448.909	10.476	0.108	0.082
-447.895	203.190	0.090	0.139
-446.880	74.788	-0.073	0.077
-445.865	28.071	0.238	0.201
-444.851	-200.000	0.021	-0.100
-443.836	-200.000	0.020	-0.486
-442.822	398.135	-0.040	-0.083
-441.807	800.000	-0.050	0.208
-440.792	-75.728	-0.103	-0.037
-439.778	800.000	0.094	-0.345
-438.763	15.640	0.030	-0.023
-437.749	-200.000	0.003	-0.077
-436.734	-4.443	-0.357	0.246
-435.719	-35.796	0.190	-0.103
-434.705	325.670	-0.125	-0.238
-433.690	800.000	0.114	0.329
-432.676	64.911	0.076	-0.077
-431.661	55.097	0.213	-0.205
-430.646	142.077	-0.132	-0.175
-429.632	-200.000	0.041	0.300
-428.617	-44.885	-0.323	0.161
-427.603	250.698	0.181	-0.306
-426.588	179.540	0.105	-0.153
-425.573	-90.267	0.262	-0.076
-424.559	-200.000	-0.024	-0.132
-423.544	222.753	0.107	0.173
-422.530	800.000	-0.061	0.177
-421.515	800.000	0.080	0.230
-420.500	638.528	-0.036	-0.092
-419.486	-200.000	0.052	0.338
-418.471	388.283	0.197	0.407
-417.457	678.758	0.025	0.065
-416.442	629.000	0.090	-0.227
-415.428	-200.000	-0.029	0.170
-414.413	20.774	0.059	0.048
-413.398	47.516	-0.228	0.212
-412.384	-53.223	0.335	-0.153
-411.369	-114.173	0.320	0.062
-410.355	396.778	0.048	-0.100
-409.340	18.616	-0.131	0.104
-408.325	800.000	-0.055	-0.158
-407.311	-109.198	-0.215	0.045
-406.296	93.803	-0.184	0.208
-405.282	235.029	-0.047	0.077
-404.267	-157.178	-0.353	0.021
-403.252	19.577	0.102	0.082
-402.238	-23.226	0.305	0.183
-401.223	-88.005	0.179	-0.054
-400.209	800.000	-0.039	0.155
-399.194	800.000	-0.057	0.168
-398.179	202.575	0.241	0.371
-397.165	-200.000	-0.013	-0.252
-396.150	75.454	0.023	0.024
-395.136	-200.000	-0.005	0.215
-394.121	-200.000	-0.004	0.039
-393.106	-200.000	-0.014	-0.164
-392.092	765.617	0.057	0.154
-391.077	-140.287	0.087	-0.009
-390.063	-16.324	-0.227	0.144
-389.048	-116.968	-0.307	-0.056
-388.033	-200.000	0.003	0.189
-387.019	95.406	-0.118	-0.134
-386.004	36.250	0.036	0.032
-384.990	-119.122	0.221	0.038
-383.975	-154.614	-0.105	-0.007
-382.960	800.000	0.072	0.200
-381.946	414.536	0.088	0.187
-380.931	382.839	-0.110	-0.225
-379.917	-200.000	-0.003	-0.174
-378.902	-55.125	-0.288	-0.129
-377.888	-30.007	-0.339	0.192
-376.873	-18.736	-0.171	-0.106
-375.858	-8.497	0.206	0.138
-374.844	800.000	0.045	-0.160
-373.829	-136.182	0.127	0.015
-372.815	800.000	-0.073	-0.227
-371.800	395.759	-0.179	-0.373
-370.785	-66.745	0.181	-0.071
-369.771	-144.612	0.255	0.023
-368.756	-103.145	-0.160	-0.038
-367.742	1.719	-0.250	-0.179
-366.727	-130.653	-0.194	0.026
-365.712	-138.687	0.215	0.023
-364.698	800.000	-0.057	-0.165
-363.683	-36.429	0.158	-0.085
-362.669	422.230	0.024	0.052
-361.654	75.736	0.227	-0.238
-360.639	223.576	0.091	0.145
-359.625	380.354	0.058	-0.119
-358.610	800.000	-0.042	0.143
-357.596	554.820	-0.052	0.124
-356.581	199.275	0.231	0.352
-355.566	-24.633	0.216	0.128
-354.552	137.629	-0.003	-0.005
-353.537	-200.000	-0.008	0.213
-352.523	-121.181	-0.268	0.045
-351.508	800.000	-0.091	-0.332
-350.493	95.810	0.181	-0.206
-349.479	411.547	-0.072	-0.151
-348.464	357.575	0.122	0.242
-347.450	13.441	-0.212	0.164
-346.435	-90.929	0.270	-0.077
-345.420	424.707	0.162	0.346
-344.406	800.000	-0.061	0.264
-343.391	-200.000	-0.003	0.110
-342.377	-104.604	0.277	-0.064
-341.362	612.389	-0.074	0.183
-340.348	66.058	0.230	0.232
-339.333	-87.850	0.117	0.035
-338.318	372.703	-0.084	0.171
-337.304	-41.199	-0.131	-0.067
-336.289	194.662	0.190	-0.286
-335.275	148.816	0.108	0.145
-334.260	-49.181	0.119	-0.056
-333.245	-200.000	0.009	0.047
-332.231	132.719	-0.080	0.102
-331.216	800.000	0.068	0.281
-330.202	171.181	-0.052	0.074
-329.187	50.490	-0.139	-0.130
-328.172	48.455	-0.075	-0.070
-327.158	285.217	-0.072	-0.128
-326.143	-155.401	-0.049	-0.003
-325.129	493.932	-0.094	-0.213
-324.114	84.137	0.242	-0.262
-323.099	79.012	-0.056	0.059
-322.085	-47.165	-0.159	0.077
-321.070	-200.000	0.034	-0.349
-320.056	-116.707	-0.383	0.070
-319.041	-200.000	-0.073	-0.530
-318.026	-4.678	0.224	-0.154
-317.012	-200.000	0.004	-0.088
-315.997	491.370	0.126	0.286
-314.983	64.201	0.120	-0.120
-313.968	-18.340	-0.068	-0.042
-312.953	-51.840	-0.171	0.079
-311.939	-142.023	-0.146	-0.014
-310.924	-200.000	-0.008	-0.192
-309.910	-200.000	0.042	-0.193
-308.895	800.000	-0.060	-0.213
-307.880	-99.650	0.128	-0.032
-306.866	800.000	-0.127	0.348
-305.851	25.874	0.169	0.140
-304.837	487.146	-0.083	-0.188
-303.822	800.000	0.126	0.378
-302.807	-128.986	-0.334	0.047
-301.793	-200.000	-0.008	-0.108
-300.778	800.000	-0.024	0.078
-299.764	-31.252	0.123	0.069
-298.749	800.000	-0.096	0.316
-297.735	-189.578	0.122	-0.001
-296.720	12.075	0.096	0.073
-295.705	93.838	-0.200	0.225
-294.691	-200.000	0.003	0.115
-293.676	-200.000	0.009	-0.252
-292.662	1.316	0.226	-0.161
-291.647	67.860	-0.190	-0.193
-290.632	-200.000	0.046	0.551
-289.618	-153.156	-0.221	0.015
-288.603	-7.188	0.153	-0.103
-287.589	-81.935	-0.247	-0.080
-286.574	800.000	0.021	0.063
-285.559	5.120	-0.053	-0.039
-284.545	-200.000	-0.001	-0.010
-283.530	110.758	-0.070	-0.084
-282.516	-179.715	-0.283	-0.006
-281.501	-143.945	-0.101	0.009
-280.486	54.639	-0.140	-0.134
-279.472	430.036	-0.206	0.443
-278.457	-200.000	0.033	-0.172
-277.443	368.228	0.065	-0.131
-276.428	461.320	-0.086	0.189
-275.413	693.996	-0.087	-0.227
-274.399	-78.049	0.196	-0.067
-273.384	-77.359	0.100	0.035
-272.370	-200.000	0.050	-0.277
-271.355	232.736	-0.123	0.200
-270.340	17.051	0.159	-0.125
-269.326	-148.709	-0.367	0.030
-268.311	-63.863	-0.012	0.005
-267.297	800.000	0.117	0.368
-266.282	-51.715	0.045	0.021
-265.267	88.605	0.314	0.346
-264.253	-200.000	0.009	0.326
-263.238	-187.461	0.028	-0.000
-262.224	-200.000	-0.027	0.217
-261.209	432.620	-0.169	0.364
-260.195	-200.000	-0.062	0.333
-259.180	-128.180	0.274	-0.039
-258.165	-136.528	-0.402	-0.046
-257.151	142.667	-0.117	-0.154
-256.136	-73.153	0.334	0.121
-255.122	-102.258	0.307	-0.073
-254.107	66.387	-0.213	0.215
-253.092	-16.498	0.091	0.057
-252.078	-200.000	0.035	-0.215
-251.063	800.000	-0.118	-0.493
-250.049	-146.066	0.248	0.022
-249.034	-136.739	-0.225	-0.026
-248.019	-93.583	-0.340	-0.093
-247.005	16.358	0.096	-0.075
-245.990	-69.044	0.035	0.013
-244.976	47.144	0.255	-0.235
-243.961	0.712	0.018	-0.013
-242.946	-46.024	-0.167	0.082
-241.932	-99.289	0.367	0.092
-240.917	-102.318	-0.143	-0.034
-239.903	800.000	0.048	0.193
-238.888	323.464	0.113	-0.214
-237.873	-98.625	0.168	0.042
-236.859	104.295	-0.258	-0.301
-235.844	20.128	0.148	-0.119
-234.830	351.489	-0.069	-0.135
-233.815	598.706	-0.087	0.214
-232.800	-200.000	0.038	-0.209
-231.786	52.174	-0.386	0.364
-230.771	-94.085	-0.060	0.016
-229.757	67.451	0.152	-0.154
-228.742	151.612	0.205	0.276
-227.727	25.654	-0.078	-0.064
-226.713	750.757	-0.071	-0.189
-225.698	102.138	0.119	-0.137
-224.684	-21.582	-0.203	-0.123
-223.669	46.103	0.258	0.236
-222.655	-148.820	-0.197	-0.016
-221.640	-85.998	0.178	0.055
-220.625	55.079	-0.146	-0.139
-219.611	182.845	0.126	0.184
-218.596	-154.881	0.230	-0.015
-217.582	173.943	-0.050	0.072
-216.567	-155.704	0.600	0.038
-215.552	-200.000	0.012	-0.097
-214.538	736.642	0.207	-0.549
-213.523	800.000	-0.050	-0.209
-212.509	800.000	0.078	0.286
-211.494	160.214	-0.056	0.077
-210.479	9.333	0.060	0.045
-209.465	353.481	-0.082	-0.161
-208.450	-125.703	-0.300	-0.045
-207.436	-138.599	-0.055	-0.006
-206.421	81.165	-0.113	-0.121
-205.406	317.026	-0.089	-0.166
-204.392	800.000	0.043	-0.154
-203.377	-129.695	0.339	0.046
-202.363	416.531	-0.032	-0.067
-201.348	-197.078	-0.138	-0.001
-200.333	82.733	-0.068	0.073
-199.319	508.877	-0.119	-0.272
-198.304	28.483	-0.169	-0.141
-197.290	-130.882	-0.161	0.021
-196.275	-200.000	-0.027	-0.205
-195.260	-45.972	-0.115	-0.056
-194.246	-40.500	-0.347	-0.178
-193.231	-110.778	0.118	-0.024
-192.217	166.638	0.075	0.105
-191.202	195.166	-0.043	-0.065
-190.187	-69.980	0.208	0.078
-189.173	-55.581	0.359	-0.159
-188.158	128.923	0.083	0.105
-187.144	-120.795	-0.123	-0.020
-186.129	66.547	0.086	0.087
-185.114	-30.617	0.103	-0.058
-184.100	800.000	0.045	-0.156
-183.085	-135.707	0.153	0.018
-182.071	89.795	0.056	-0.061
-181.056	0.977	-0.174	-0.124
-180.042	-200.000	-0.006	0.054
-179.027	-104.749	-0.071	-0.016
-178.012	-200.000	-0.062	-0.389
-176.998	-71.921	0.177	-0.065
-175.983	-13.524	-0.077	0.049
-174.969	-11.324	0.236	0.153
-173.954	-90.932	0.137	0.039
-172.939	-49.721	0.318	-0.150
-171.925	-94.722	0.153	0.041
-170.910	-200.000	0.003	0.047
-169.896	20.710	0.238	-0.191
-168.881	-200.000	0.050	-0.555
-167.866	-124.918	-0.256	-0.039
-166.852	800.000	0.042	0.138
-165.837	213.707	0.179	-0.280
-164.823	-174.490	0.240	-0.007
-163.808	-144.620	0.092	0.008
-162.793	91.330	0.450	-0.499
-161.779	417.457	0.144	0.304
-160.764	-200.000	0.041	0.228
-159.750	-200.000	0.010	-0.115
-158.735	-200.000	-0.015	-0.265
-157.720	-92.412	-0.252	0.070
-156.706	8.383	-0.018	0.013
-155.691	-200.000	-0.019	-0.109
-154.677	-74.863	0.117	0.041
-153.662	-16.325	-0.196	-0.123
-152.647	38.376	-0.216	0.190
-151.633	207.042	0.073	0.112
-150.618	-13.916	-0.383	0.244
-149.604	111.968	0.015	0.018
-148.589	-200.000	0.022	0.215
-147.574	-111.004	0.133	0.027
-146.560	-121.836	-0.106	0.017
-145.545	224.487	0.035	-0.056
-144.531	-104.113	-0.353	-0.081
-143.516	800.000	-0.023	-0.079
-142.502	800.000	0.023	0.083
-141.487	-200.000	-0.011	0.136
-140.472	-152.960	-0.236	-0.016
-139.458	270.731	0.089	-0.154
-138.443	-69.527	0.046	-0.017
-137.429	86.254	-0.268	-0.292
-136.414	69.954	0.133	-0.135
-135.399	-200.000	0.021	0.201
-134.385	-31.618	0.170	-0.094
-133.370	800.000	-0.079	0.247
-132.356	-200.000	0.042	0.267
-131.341	-77.302	-0.082	-0.028
-130.326	-200.000	-0.019	0.189
-129.312	198.461	0.285	0.430
-128.297	800.000	-0.104	0.421
-127.283	398.843	-0.118	0.244
-126.268	-66.362	0.344	-0.135
-125.253	-29.628	-0.168	0.094
-124.239	-33.456	-0.208	0.113
-123.224	-31.765	0.079	0.044
-122.210	-53.399	0.159	0.072
-121.195	-200.000	0.037	-0.316
-120.180	110.392	-0.182	0.216
