DTS Sentinel unit serial number:	SN413079Multiplexer serial number:	ORYXHardware model number:	OX4-SRSoftware version number:	ORYX F/W v4.00 Oryx Data Collector v3.7.2.0data status	okinstallation	princeton_trtdifferential loss correction	single-endedforward channel	channel 4reverse channel	N/Adate	2019/09/17time	17:37:35forward acquisition time	60.00reverse acquisition time	0.00gamma	496.2192k internal	0.2278k external	0.2278temperature offset calibration	0.9981default loss term (dB/km)	0.3790temperature slope calibration	1.0000multiplexer offset coefficient	1.0000multiplexer slope coefficient	1.0000fibre end	0.00T internal ref (°C)	43.31T ext. ref 1 (°C)	0.33T ext. ref 2 (°C)	38.99length (m)	temperature (°C)	Stokes	anti-Stokes-747.200	800.000	-0.050	0.159
-746.185	-38.718	-0.279	0.152
-745.171	-163.871	0.082	0.004
-744.156	-200.000	0.046	0.295
-743.142	7.099	-0.032	0.025
-742.127	-200.000	-0.080	0.523
-741.112	467.436	0.026	-0.061
-740.098	-200.000	-0.015	0.229
-739.083	-200.000	-0.059	-0.310
-738.069	-15.934	0.012	0.008
-737.054	-2.531	-0.108	0.078
-736.039	-97.713	-0.266	0.071
-735.025	80.263	-0.035	-0.039
-734.010	248.671	-0.224	0.391
-732.996	244.541	-0.079	-0.137
-731.981	485.930	-0.071	-0.167
-730.966	280.061	-0.031	0.057
-729.952	-200.000	0.009	0.182
-728.937	16.933	0.259	0.211
-727.923	800.000	0.029	0.115
-726.908	125.641	0.111	0.144
-725.894	-110.616	-0.322	-0.069
-724.879	202.272	0.029	-0.045
-723.864	74.466	0.190	0.205
-722.850	186.322	0.090	-0.138
-721.835	-87.052	-0.408	0.128
-720.821	-83.429	-0.172	0.057
-719.806	-189.089	0.257	0.003
-718.791	-200.000	-0.021	0.105
-717.777	63.806	-0.107	0.110
-716.762	755.287	0.028	0.078
-715.748	-200.000	-0.009	0.175
-714.733	591.472	-0.040	0.101
-713.718	146.823	-0.109	-0.151
-712.704	-104.957	-0.196	0.046
-711.689	-54.919	-0.215	-0.100
-710.675	243.756	-0.113	-0.195
-709.660	626.932	0.049	-0.128
-708.645	139.137	-0.203	0.275
-707.631	-200.000	-0.022	-0.181
-706.616	-155.399	-0.309	0.021
-705.602	26.383	0.177	0.152
-704.587	800.000	-0.054	-0.161
-703.572	93.406	0.024	0.028
-702.558	-106.686	-0.094	-0.022
-701.543	-9.886	-0.363	0.249
-700.529	24.190	0.167	-0.142
-699.514	-159.589	-0.124	-0.007
-698.499	-200.000	0.035	-0.294
-697.485	-200.000	0.035	-0.192
-696.470	-200.000	-0.064	0.389
-695.456	91.272	0.119	-0.138
-694.441	800.000	-0.054	-0.238
-693.426	-85.540	-0.230	-0.074
-692.412	-200.000	-0.039	0.258
-691.397	800.000	0.054	0.239
-690.383	-136.175	-0.103	0.012
-689.368	-72.508	0.327	0.124
-688.354	30.797	-0.128	-0.112
-687.339	27.864	-0.069	-0.060
-686.324	800.000	0.079	-0.354
-685.310	-57.301	0.148	0.067
-684.295	291.482	-0.030	-0.055
-683.281	800.000	-0.062	0.189
-682.266	316.579	0.085	-0.166
-681.251	27.507	-0.168	-0.145
-680.237	-144.897	-0.132	-0.012
-679.222	-65.469	-0.154	-0.064
-678.208	-117.191	-0.145	0.027
-677.193	-47.589	-0.199	0.099
-676.178	499.495	0.026	-0.061
-675.164	800.000	-0.118	0.385
-674.149	-200.000	-0.028	0.285
-673.135	179.220	-0.188	0.283
-672.120	-1.531	0.155	0.112
-671.105	25.189	0.052	0.044
-670.091	-151.028	-0.014	-0.001
-669.076	-200.000	0.005	-0.240
-668.062	605.421	-0.049	-0.126
-667.047	-2.321	-0.224	-0.161
-666.032	-139.049	0.143	-0.016
-665.018	-200.000	-0.016	0.276
-664.003	38.130	0.163	-0.149
-662.989	800.000	0.118	0.406
-661.974	361.764	-0.093	-0.192
-660.959	24.211	0.211	-0.179
-659.945	-200.000	-0.026	0.397
-658.930	452.844	0.036	-0.082
-657.916	-200.000	0.042	0.296
-656.901	-200.000	0.016	0.152
-655.886	800.000	-0.103	-0.299
-654.872	4.790	-0.159	-0.120
-653.857	-161.849	-0.260	-0.014
-652.843	-86.170	0.090	-0.029
-651.828	-51.047	0.080	0.038
-650.814	720.972	-0.112	-0.306
-649.799	114.616	0.081	-0.101
-648.784	-200.000	-0.017	-0.256
-647.770	-200.000	0.002	-0.015
-646.755	-39.432	-0.146	0.079
-645.741	-70.782	-0.225	-0.087
-644.726	-200.000	0.038	-0.244
-643.711	288.000	0.119	-0.221
-642.697	127.738	-0.233	-0.304
-641.682	-200.000	-0.023	-0.232
-640.668	111.222	0.246	-0.304
-639.653	-135.853	0.309	-0.037
-638.638	-200.000	0.028	-0.179
-637.624	-64.779	0.374	-0.156
-636.609	-35.409	-0.209	-0.116
-635.595	-157.394	-0.153	0.009
-634.580	193.246	0.186	-0.289
-633.565	-48.171	-0.299	-0.148
-632.551	-43.835	-0.333	-0.172
-631.536	236.611	-0.064	0.109
-630.522	43.280	-0.100	0.093
-629.507	-103.055	-0.081	-0.020
-628.492	127.927	0.228	0.297
-627.478	-80.824	0.146	-0.050
-626.463	-2.415	-0.391	-0.281
-625.449	159.156	0.081	-0.115
-624.434	800.000	-0.096	0.277
-623.419	51.583	-0.052	0.051
-622.405	-200.000	-0.042	0.250
-621.390	-134.410	-0.265	0.033
-620.376	-96.072	0.452	-0.123
-619.361	-82.604	-0.109	0.036
-618.346	800.000	-0.019	0.081
-617.332	12.015	0.247	0.194
-616.317	231.566	0.154	-0.258
-615.303	155.736	-0.131	0.185
-614.288	-200.000	0.018	-0.278
-613.273	-85.254	-0.297	0.095
-612.259	288.755	-0.051	-0.095
-611.244	800.000	-0.032	-0.093
-610.230	225.310	-0.092	-0.153
-609.215	258.532	-0.190	-0.335
-608.201	88.617	-0.150	0.171
-607.186	-19.143	0.113	0.072
-606.171	-108.103	0.123	0.027
-605.157	128.873	-0.081	0.106
-604.142	-11.219	-0.219	0.148
-603.128	800.000	0.038	0.141
-602.113	-200.000	-0.004	-0.292
-601.098	800.000	-0.056	-0.206
-600.084	126.038	-0.223	-0.289
-599.069	-21.266	0.296	-0.185
-598.055	-137.163	0.042	-0.005
-597.040	-200.000	0.000	0.123
-596.025	156.169	0.173	-0.244
-595.011	-160.156	0.117	0.006
-593.996	-200.000	0.024	0.248
-592.982	27.020	-0.148	0.127
-591.967	-155.294	-0.317	0.021
-590.952	-78.872	-0.123	0.043
-589.938	-43.818	-0.127	-0.065
-588.923	-86.417	0.169	0.053
-587.909	-200.000	-0.002	-0.034
-586.894	-43.880	0.333	0.171
-585.879	130.127	0.225	0.295
-584.865	-200.000	0.037	-0.287
-583.850	800.000	0.063	-0.193
-582.836	-132.494	-0.199	0.026
-581.821	665.953	-0.047	0.124
-580.806	508.528	0.047	0.112
-579.792	-84.901	-0.287	-0.092
-578.777	-200.000	-0.010	0.104
-577.763	-28.475	-0.167	0.099
-576.748	-34.131	-0.306	-0.172
-575.733	39.681	0.207	-0.190
-574.719	-200.000	0.026	-0.190
-573.704	69.217	0.133	-0.140
-572.690	2.199	0.413	0.306
-571.675	-200.000	0.015	0.110
-570.661	-155.912	0.058	-0.004
-569.646	0.934	0.145	-0.106
-568.631	12.959	0.208	0.164
-567.617	-111.598	-0.222	0.046
-566.602	-83.491	-0.098	-0.032
-565.588	75.640	-0.271	-0.293
-564.573	-200.000	0.028	0.165
-563.558	-92.067	-0.254	0.073
-562.544	800.000	-0.075	0.298
-561.529	40.771	0.123	0.113
-560.515	-26.836	-0.297	0.178
-559.500	-120.413	-0.129	-0.022
-558.485	68.270	0.026	0.028
-557.471	-108.641	0.232	0.051
-556.456	-200.000	0.098	0.625
-555.442	46.023	0.233	0.221
-554.427	-75.856	-0.316	-0.115
-553.412	251.838	-0.209	0.363
-552.398	-39.457	-0.075	-0.040
-551.383	-103.680	-0.312	-0.075
-550.369	250.646	-0.078	0.135
-549.354	-182.131	-0.160	-0.003
-548.339	-200.000	-0.005	0.246
-547.325	-37.609	0.143	0.078
-546.310	-62.652	0.170	-0.072
-545.296	-68.929	0.218	-0.086
-544.281	59.544	-0.230	-0.232
-543.266	-167.445	-0.191	-0.008
-542.252	-30.068	0.160	0.093
-541.237	-88.685	-0.165	0.050
-540.223	-118.615	0.359	-0.065
-539.208	800.000	-0.038	-0.110
-538.193	-200.000	0.033	0.172
-537.179	800.000	0.115	0.419
-536.164	-200.000	-0.005	0.086
-535.150	50.966	0.133	0.129
-534.135	-134.299	-0.031	-0.004
-533.121	169.456	-0.195	0.284
-532.106	-72.541	0.134	-0.050
-531.091	-136.128	0.150	0.018
-530.077	-102.627	0.117	0.028
-529.062	800.000	-0.085	0.295
-528.048	51.975	-0.239	-0.233
-527.033	-200.000	0.030	-0.287
-526.018	-126.256	0.273	-0.042
-525.004	-167.537	0.114	0.005
-523.989	8.483	-0.192	-0.148
-522.975	58.886	0.220	0.221
-521.960	800.000	-0.121	-0.348
-520.945	358.934	-0.053	-0.108
-519.931	-200.000	-0.013	-0.105
-518.916	140.561	0.117	-0.158
-517.902	-100.877	-0.217	-0.054
-516.887	-33.786	-0.269	-0.151
-515.872	74.900	-0.227	-0.244
-514.858	-200.000	-0.020	-0.223
-513.843	-200.000	-0.012	-0.228
-512.829	-47.364	0.295	-0.146
-511.814	65.193	-0.125	-0.129
-510.799	187.432	-0.059	-0.090
-509.785	65.496	-0.296	-0.306
-508.770	-33.708	-0.157	-0.089
-507.756	-141.059	-0.187	0.020
-506.741	170.292	-0.154	0.225
-505.726	-200.000	-0.041	0.386
-504.712	232.278	-0.087	-0.146
-503.697	260.321	-0.148	-0.261
-502.683	-200.000	0.039	-0.199
-501.668	-116.818	-0.173	-0.032
-500.653	42.843	-0.216	0.201
-499.639	-200.000	0.063	-0.611
-498.624	135.096	-0.053	0.071
-497.610	33.270	-0.044	0.039
-496.595	59.010	0.176	-0.176
-495.581	-200.000	-0.008	0.278
-494.566	-200.000	0.009	-0.107
-493.551	-122.391	0.234	0.039
-492.537	38.217	-0.128	-0.116
-491.522	435.300	0.055	0.122
-490.508	-53.934	0.246	-0.114
-489.493	-110.865	-0.146	-0.031
-488.478	-190.496	0.341	0.004
-487.464	800.000	0.046	0.156
-486.449	-69.783	-0.108	-0.042
-485.435	416.513	0.043	0.094
-484.420	-173.960	0.372	0.011
-483.405	-200.000	-0.035	-0.497
-482.391	18.386	0.083	-0.068
-481.376	61.414	-0.139	-0.141
-480.362	37.493	0.165	0.149
-479.347	-80.492	-0.229	0.078
-478.332	549.165	-0.144	0.352
-477.318	72.549	0.043	0.046
-476.303	-2.358	-0.087	-0.062
-475.289	-102.940	0.076	0.018
-474.274	131.911	-0.158	-0.207
-473.259	-38.374	-0.075	0.040
-472.245	-118.840	0.268	0.048
-471.230	405.356	-0.064	0.138
-470.216	309.904	-0.151	0.289
-469.201	-155.113	-0.163	-0.011
-468.186	-200.000	0.004	0.070
-467.172	60.603	0.247	0.249
-466.157	28.260	0.198	0.170
-465.143	-71.281	-0.223	-0.085
-464.128	800.000	0.034	-0.099
-463.113	121.930	0.353	-0.448
-462.099	-83.555	-0.283	-0.092
-461.084	-56.670	-0.197	-0.089
-460.070	576.282	-0.121	-0.300
-459.055	146.804	-0.096	0.132
-458.040	-121.156	-0.388	-0.066
-457.026	-20.073	-0.256	0.161
-456.011	-100.980	-0.229	-0.057
-454.997	-93.581	0.345	0.097
-453.982	43.572	-0.163	-0.152
-452.968	-200.000	-0.002	-0.079
-451.953	48.009	0.138	-0.132
-450.938	45.823	-0.139	0.131
-449.924	172.632	0.152	0.223
-448.909	-200.000	-0.011	-0.200
-447.895	459.088	0.166	-0.377
-446.880	-0.242	0.341	-0.247
-445.865	-200.000	-0.035	0.245
-444.851	-135.855	-0.344	0.041
-443.836	-12.605	-0.042	0.028
-442.822	350.871	-0.143	-0.288
-441.807	-22.798	0.014	-0.009
-440.792	464.946	-0.082	0.186
-439.778	-100.795	-0.105	-0.026
-438.763	-200.000	0.009	-0.350
-437.749	-200.000	-0.013	-0.339
-436.734	150.455	0.105	-0.145
-435.719	203.371	0.160	0.252
-434.705	-200.000	-0.010	-0.045
-433.690	188.218	0.177	0.268
-432.676	-85.103	0.068	-0.022
-431.661	-74.753	0.126	0.046
-430.646	580.392	-0.161	-0.401
-429.632	-200.000	0.045	-0.388
-428.617	-35.589	0.274	0.151
-427.603	800.000	0.066	0.208
-426.588	65.486	0.113	0.116
-425.573	555.641	0.101	-0.248
-424.559	10.432	0.147	-0.114
-423.544	179.431	0.054	-0.080
-422.530	208.012	-0.064	0.101
-421.515	-13.356	-0.310	0.205
-420.500	217.714	0.184	0.298
-419.486	505.047	-0.127	0.298
-418.471	12.590	-0.178	0.140
-417.457	144.836	-0.074	0.100
-416.442	800.000	-0.077	-0.241
-415.428	17.129	-0.401	-0.323
-414.413	-23.511	-0.068	-0.041
-413.398	107.825	-0.144	0.174
-412.384	800.000	0.068	0.276
-411.369	-200.000	0.022	-0.163
-410.355	775.568	0.087	-0.241
-409.340	2.034	0.201	-0.148
-408.325	-179.506	-0.102	-0.002
-407.311	-200.000	0.002	0.108
-406.296	-84.237	0.286	-0.092
-405.282	46.254	0.118	-0.111
-404.267	-166.971	0.488	0.020
-403.252	-41.569	-0.084	0.044
-402.238	-90.832	-0.205	0.060
-401.223	24.481	0.114	0.096
-400.209	137.256	0.111	-0.148
-399.194	151.292	0.068	0.095
-398.179	-200.000	-0.002	-0.338
-397.165	202.324	-0.035	0.055
-396.150	-133.273	-0.150	0.019
-395.136	-118.199	0.269	-0.049
-394.121	-34.290	0.168	0.094
-393.106	-200.000	-0.031	0.298
-392.092	800.000	0.072	-0.237
-391.077	-1.181	-0.084	-0.060
-390.063	104.541	0.143	0.171
-389.048	-200.000	0.070	-0.511
-388.033	76.536	0.271	-0.292
-387.019	800.000	0.127	0.367
-386.004	-200.000	0.004	-0.079
-384.990	198.868	-0.244	-0.379
-383.975	-81.019	0.200	-0.067
-382.960	-74.876	0.146	0.053
-381.946	-10.904	0.168	0.113
-380.931	367.869	-0.047	-0.097
-379.917	-200.000	0.009	-0.154
-378.902	370.772	-0.192	-0.395
-377.888	-200.000	-0.016	-0.092
-376.873	-194.721	-0.249	0.002
-375.858	-64.271	0.444	-0.183
-374.844	-161.426	0.228	-0.012
-373.829	800.000	0.038	-0.169
-372.815	-143.590	0.380	0.037
-371.800	221.367	-0.189	-0.308
-370.785	154.273	0.038	0.053
-369.771	-200.000	0.002	0.017
-368.756	356.892	-0.085	0.171
-367.742	-200.000	-0.003	-0.020
-366.727	-49.550	0.144	-0.070
-365.712	800.000	-0.028	-0.089
-364.698	-42.049	0.226	0.117
-363.683	-113.599	-0.121	-0.024
-362.669	-200.000	0.006	-0.418
-361.654	-87.203	0.285	0.088
-360.639	95.724	0.135	0.156
-359.625	222.674	0.070	-0.115
-358.610	-18.211	0.177	-0.112
-357.596	-200.000	-0.003	-0.134
-356.581	-200.000	0.010	-0.237
-355.566	102.290	0.123	-0.145
-354.552	-200.000	0.011	-0.124
-353.537	293.188	-0.069	0.128
-352.523	-200.000	-0.051	0.327
-351.508	421.936	0.042	-0.091
-350.493	100.383	-0.132	0.155
-349.479	59.189	0.309	0.308
-348.464	243.002	0.029	0.049
-347.450	645.598	-0.060	0.155
-346.435	662.392	0.106	0.276
-345.420	180.581	-0.116	-0.173
-344.406	-92.649	-0.229	0.065
-343.391	292.106	0.177	0.326
-342.377	0.605	-0.033	0.024
-341.362	-47.177	-0.077	-0.038
-340.348	669.615	-0.039	0.104
-339.333	-156.418	-0.111	-0.007
-338.318	175.812	0.136	0.200
-337.304	269.434	0.096	-0.170
-336.289	-142.731	0.125	0.012
-335.275	45.462	-0.136	0.127
-334.260	247.661	-0.066	0.113
-333.245	-22.968	-0.271	0.166
-332.231	-200.000	0.056	0.269
-331.216	-200.000	-0.016	0.177
-330.202	-111.529	0.419	-0.086
-329.187	-81.162	-0.369	0.124
-328.172	216.232	0.097	-0.156
-327.158	-150.473	-0.386	-0.030
-326.143	565.724	0.025	0.062
-325.129	800.000	0.059	0.187
-324.114	24.467	-0.106	0.089
-323.099	-139.432	-0.287	0.031
-322.085	-89.859	0.348	-0.103
-321.070	-31.205	0.168	-0.096
-320.056	-200.000	-0.010	0.064
-319.041	183.697	0.177	-0.265
-318.026	797.988	0.204	-0.568
-317.012	-0.495	-0.059	0.043
-315.997	-200.000	-0.018	-0.330
-314.983	83.194	-0.223	0.246
-313.968	37.564	-0.087	0.079
-312.953	-52.522	0.316	0.148
-311.939	155.425	-0.069	0.096
-310.924	-101.142	-0.051	0.013
-309.910	-0.310	-0.338	0.243
-308.895	-117.166	-0.134	-0.025
-307.880	-19.425	0.232	0.146
-306.866	800.000	0.080	-0.265
-305.851	-200.000	0.032	-0.183
-304.837	86.291	-0.219	0.244
-303.822	-131.121	0.119	0.016
-302.807	-200.000	-0.006	-0.156
-301.793	-156.355	-0.364	0.023
-300.778	-170.903	0.169	-0.006
-299.764	5.610	0.098	-0.073
-298.749	98.273	0.115	-0.135
-297.735	-107.825	0.460	0.101
-296.720	339.937	0.180	0.356
-295.705	-88.925	-0.169	0.051
-294.691	-14.167	0.093	0.061
-293.676	169.256	0.201	0.290
-292.662	-4.257	0.242	0.169
-291.647	800.000	0.050	-0.186
-290.632	-109.428	0.053	0.011
-289.618	164.301	-0.195	0.277
-288.603	-6.731	0.202	-0.139
-287.589	62.036	-0.356	-0.359
-286.574	-65.107	-0.283	-0.116
-285.559	3.040	-0.042	0.031
-284.545	192.847	-0.117	0.179
-283.530	137.708	-0.042	-0.056
-282.516	524.978	-0.128	0.304
-281.501	800.000	-0.081	0.275
-280.486	800.000	-0.068	-0.273
-279.472	-200.000	0.083	-0.433
-278.457	-200.000	0.004	-0.025
-277.443	-69.767	0.427	0.165
-276.428	800.000	-0.179	0.517
-275.413	-153.692	-0.071	0.005
-274.399	-111.501	-0.119	-0.025
-273.384	624.783	0.030	-0.077
-272.370	-200.000	0.017	0.136
-271.355	800.000	0.048	-0.146
-270.340	655.368	-0.051	-0.133
-269.326	144.467	0.151	0.204
-268.311	24.300	-0.268	0.224
-267.297	67.493	-0.242	0.250
-266.282	337.268	0.147	-0.289
-265.267	-26.693	-0.205	0.121
-264.253	54.601	0.125	0.122
-263.238	237.320	-0.182	0.305
-262.224	53.820	0.081	-0.079
-261.209	249.826	-0.150	-0.258
-260.195	-85.309	-0.181	0.057
-259.180	-60.860	0.090	0.039
-258.165	-120.332	-0.082	-0.014
-257.151	800.000	0.082	0.260
-256.136	-3.494	-0.335	-0.235
-255.122	-92.423	0.345	0.098
-254.107	800.000	-0.039	0.109
-253.092	800.000	-0.023	0.079
-252.078	99.237	-0.197	-0.230
-251.063	-200.000	-0.027	-0.220
-250.049	-134.451	0.193	0.024
-249.034	-62.506	-0.145	0.061
-248.019	-200.000	0.084	-0.386
-247.005	-200.000	-0.018	-0.162
-245.990	800.000	0.021	-0.084
-244.976	-39.739	0.052	-0.027
-243.961	392.330	0.051	0.107
-242.946	202.464	0.088	-0.137
-241.932	-66.842	0.332	-0.133
-240.917	-200.000	0.008	0.154
-239.903	-59.893	-0.231	-0.100
-238.888	84.956	-0.031	-0.035
-237.873	-72.773	-0.160	0.059
-236.859	478.553	-0.064	0.146
-235.844	-152.229	0.291	-0.021
-234.830	-41.441	-0.258	-0.134
-233.815	190.828	0.142	0.216
-232.800	-200.000	-0.036	0.313
-231.786	-200.000	-0.009	0.136
-230.771	72.503	0.165	0.174
-229.757	-80.362	-0.068	-0.023
-228.742	54.325	0.143	-0.139
-227.727	-175.212	0.103	-0.003
-226.713	800.000	0.084	0.259
-225.698	290.620	-0.147	-0.270
-224.684	-102.310	-0.307	0.074
-223.669	254.661	-0.186	0.321
-222.655	-140.183	0.110	0.012
-221.640	6.308	-0.043	0.032
-220.625	-200.000	0.001	-0.101
-219.611	-200.000	-0.058	0.391
-218.596	186.457	0.092	0.139
-217.582	48.474	-0.171	-0.161
-216.567	-101.285	-0.358	-0.088
-215.552	-200.000	0.000	-0.170
-214.538	-21.007	0.147	0.091
-213.523	136.157	0.217	0.285
-212.509	152.710	0.059	0.081
-211.494	131.168	-0.242	0.314
-210.479	-82.241	0.070	0.023
-209.465	22.358	0.194	0.160
-208.450	-90.878	0.212	0.061
-207.436	800.000	0.110	0.384
-206.421	-18.044	0.031	-0.019
-205.406	-200.000	-0.012	0.124
-204.392	-200.000	-0.001	0.043
-203.377	412.811	0.150	-0.322
-202.363	458.844	0.207	0.464
-201.348	58.143	0.288	0.284
-200.333	800.000	0.065	0.229
-199.319	136.128	0.172	0.226
-198.304	-57.149	-0.547	0.243
-197.290	-80.143	-0.037	-0.013
-196.275	-78.545	-0.354	-0.122
-195.260	-94.423	-0.099	-0.027
-194.246	357.165	-0.051	-0.103
-193.231	38.869	-0.092	0.083
-192.217	-102.808	-0.271	-0.065
-191.202	-103.142	-0.130	-0.031
-190.187	-200.000	0.005	-0.281
-189.173	151.692	0.115	-0.158
-188.158	-39.437	0.064	-0.034
-187.144	-85.152	0.110	0.035
-186.129	29.722	0.139	0.119
-185.114	800.000	0.022	-0.087
-184.100	141.472	-0.129	-0.172
-183.085	-151.779	0.227	-0.017
-182.071	28.128	0.095	0.080
-181.056	800.000	0.022	0.067
-180.042	103.646	0.080	-0.095
-179.027	-200.000	0.004	-0.283
-178.012	62.949	-0.099	-0.100
-176.998	32.194	0.237	0.206
-175.983	800.000	0.059	-0.181
-174.969	-45.163	0.134	0.067
-173.954	-62.309	0.187	0.078
-172.939	-147.631	0.088	-0.007
-171.925	-200.000	-0.022	0.415
-170.910	800.000	-0.108	0.436
-169.896	151.349	0.069	0.095
-168.881	213.471	-0.148	0.236
-167.866	-200.000	-0.040	-0.210
-166.852	-200.000	-0.002	0.197
-165.837	-116.227	0.457	0.085
-164.823	-200.000	-0.001	0.249
-163.808	-75.973	0.109	0.039
-162.793	-83.588	-0.210	-0.068
-161.779	-200.000	-0.022	0.246
-160.764	548.281	0.091	0.220
-159.750	-200.000	-0.030	0.229
-158.735	354.175	0.081	-0.161
-157.720	250.671	0.170	-0.291
-156.706	127.889	0.019	-0.024
-155.691	800.000	-0.049	0.162
-154.677	216.462	-0.079	-0.126
-153.662	-200.000	-0.045	0.265
-152.647	592.587	-0.052	0.129
-151.633	132.594	-0.173	-0.225
-150.618	-154.175	-0.206	-0.014
-149.604	-78.113	-0.180	-0.062
-148.589	-56.630	-0.074	0.033
-147.574	-200.000	-0.122	-0.560
-146.560	-1.353	-0.348	0.247
-145.545	-80.147	0.164	-0.055
-144.531	207.374	-0.083	0.130
-143.516	-1.689	0.065	0.046
-142.502	137.048	0.104	-0.136
-141.487	321.209	0.126	0.241
-140.472	159.563	0.203	-0.285
-139.458	-24.524	-0.188	-0.112
-138.443	7.852	0.256	-0.193
-137.429	-87.628	-0.199	0.060
-136.414	-65.229	-0.094	-0.038
-135.399	-133.168	0.258	0.033
-134.385	-118.071	-0.037	0.007
-133.370	-139.588	-0.117	0.013
-132.356	800.000	0.041	-0.154
-131.341	-200.000	-0.032	-0.331
-130.326	319.072	0.118	0.225
-129.312	-63.108	0.093	-0.039
-128.297	-43.931	-0.147	-0.074
-127.283	31.142	-0.200	0.173
-126.268	88.213	0.102	0.114
-125.253	-50.877	0.070	0.033
-124.239	-123.711	-0.252	-0.040
-123.224	141.605	0.104	0.138
-122.210	160.062	-0.132	0.185
