DTS Sentinel unit serial number:	SN413079Multiplexer serial number:	ORYXHardware model number:	OX4-SRSoftware version number:	ORYX F/W v4.00 Oryx Data Collector v3.7.2.0data status	okinstallation	princeton_trtdifferential loss correction	single-endedforward channel	channel 4reverse channel	N/Adate	2019/09/12time	09:23:11forward acquisition time	60.00reverse acquisition time	0.00gamma	496.2192k internal	0.2296k external	0.2296temperature offset calibration	1.0066default loss term (dB/km)	0.3790temperature slope calibration	1.0000multiplexer offset coefficient	1.0000multiplexer slope coefficient	1.0000fibre end	0.00T internal ref (°C)	35.17T ext. ref 1 (°C)	1.81T ext. ref 2 (°C)	33.81length (m)	temperature (°C)	Stokes	anti-Stokes-747.200	253.419	-0.201	0.351
-746.185	-176.945	-0.707	-0.018
-745.171	389.371	0.093	0.197
-744.156	-99.347	-0.399	-0.103
-743.142	-151.206	-0.259	-0.020
-742.127	800.000	0.125	0.446
-741.112	768.491	0.024	0.066
-740.098	339.200	-0.106	0.212
-739.083	-10.896	0.413	0.279
-738.069	491.228	-0.058	0.137
-737.054	120.184	-0.195	-0.248
-736.039	614.193	0.051	0.130
-735.025	-84.288	0.120	-0.039
-734.010	426.769	0.125	0.275
-732.996	-171.816	-0.144	0.005
-731.981	-51.352	-0.352	0.168
-730.966	166.840	0.127	0.184
-729.952	-75.106	-0.089	0.032
-728.937	-200.000	0.007	-0.036
-727.923	224.991	-0.223	0.368
-726.908	-159.767	-0.159	-0.009
-725.894	-200.000	0.032	-0.523
-724.879	154.379	0.229	-0.321
-723.864	-167.227	-0.204	-0.008
-722.850	-15.042	-0.137	-0.090
-721.835	-200.000	0.024	-0.327
-720.821	-76.293	0.053	0.019
-719.806	-162.515	-0.426	-0.021
-718.791	-200.000	0.005	-0.273
-717.777	-200.000	0.010	0.117
-716.762	800.000	-0.048	0.166
-715.748	-200.000	0.029	0.160
-714.733	72.364	-0.244	-0.260
-713.718	-71.953	0.280	-0.106
-712.704	-200.000	0.020	-0.116
-711.689	800.000	-0.017	0.056
-710.675	-91.537	0.384	-0.112
-709.660	-21.533	0.244	0.152
-708.645	-80.808	-0.466	0.158
-707.631	30.989	-0.110	0.096
-706.616	345.907	0.115	0.230
-705.602	-52.886	-0.192	-0.090
-704.587	226.910	-0.217	0.359
-703.572	147.242	0.139	-0.191
-702.558	-200.000	-0.058	-0.331
-701.543	112.307	0.094	0.117
-700.529	241.862	0.062	-0.106
-699.514	194.040	-0.135	0.209
-698.499	-160.046	0.281	0.016
-697.485	44.952	0.115	-0.108
-696.470	8.444	0.083	0.064
-695.456	341.169	-0.095	-0.189
-694.441	-85.964	-0.091	0.029
-693.426	-126.975	0.177	-0.027
-692.412	-141.626	-0.253	-0.026
-691.397	800.000	0.086	0.307
-690.383	8.871	-0.304	-0.234
-689.368	-200.000	-0.054	0.487
-688.354	-134.476	-0.194	-0.024
-687.339	-22.901	0.238	0.147
-686.324	679.563	-0.036	-0.095
-685.310	800.000	0.043	0.149
-684.295	800.000	-0.107	-0.340
-683.281	128.327	0.293	-0.380
-682.266	-115.501	-0.375	0.072
-681.251	598.433	0.045	-0.115
-680.237	112.737	0.099	0.123
-679.222	-152.459	0.196	-0.014
-678.208	-6.395	-0.110	-0.077
-677.193	-51.451	-0.153	-0.073
-676.178	6.188	0.047	-0.036
-675.164	-21.199	-0.174	0.108
-674.149	359.889	0.104	-0.213
-673.135	-103.925	0.115	0.027
-672.120	-89.321	-0.306	-0.092
-671.105	-31.441	-0.205	-0.117
-670.091	-200.000	0.013	0.102
-669.076	367.499	-0.117	0.240
-668.062	800.000	0.070	-0.225
-667.047	-75.953	-0.242	-0.087
-666.032	149.663	-0.074	0.102
-665.018	-49.179	0.218	-0.106
-664.003	11.559	-0.161	0.126
-662.989	199.801	0.099	-0.155
-661.974	-200.000	0.002	0.114
-660.959	-69.929	-0.054	-0.021
-659.945	800.000	0.056	-0.222
-658.930	-98.421	0.080	0.021
-657.916	-175.966	0.123	-0.003
-656.901	63.999	0.054	-0.055
-655.886	193.609	0.190	0.293
-654.872	135.068	0.073	-0.096
-653.857	-200.000	-0.055	0.249
-652.843	206.070	-0.071	0.113
-651.828	281.725	-0.075	-0.136
-650.814	-125.237	-0.325	0.051
-649.799	479.442	-0.076	-0.174
-648.784	-200.000	-0.010	0.117
-647.770	-59.827	0.140	0.061
-646.755	-200.000	0.036	0.258
-645.741	800.000	-0.073	-0.225
-644.726	-35.151	0.222	0.123
-643.711	-200.000	0.043	-0.231
-642.697	60.637	0.121	0.122
-641.682	800.000	0.082	-0.289
-640.668	-200.000	-0.020	-0.168
-639.653	800.000	-0.040	-0.132
-638.638	132.154	-0.053	0.069
-637.624	84.151	0.147	0.163
-636.609	40.210	-0.052	-0.048
-635.595	-176.219	0.325	0.009
-634.580	-68.083	0.212	0.084
-633.565	-77.022	0.091	0.032
-632.551	800.000	-0.080	0.235
-631.536	347.269	0.063	-0.126
-630.522	106.141	-0.138	-0.166
-629.507	-71.191	-0.265	0.101
-628.492	-88.301	0.113	-0.034
-627.478	45.132	-0.135	0.127
-626.463	-129.889	0.321	-0.045
-625.449	353.443	-0.193	-0.390
-624.434	800.000	-0.077	-0.229
-623.419	800.000	-0.032	-0.113
-622.405	-194.956	0.301	-0.002
-621.390	-200.000	0.000	-0.072
-620.376	-33.209	-0.156	0.088
-619.361	235.325	-0.150	-0.253
-618.346	6.768	-0.027	-0.021
-617.332	800.000	-0.057	0.218
-616.317	104.848	-0.137	-0.164
-615.303	-200.000	0.010	-0.218
-614.288	-45.875	0.063	-0.031
-613.273	-81.032	0.320	0.108
-612.259	-153.097	-0.145	-0.010
-611.244	15.571	-0.120	0.096
-610.230	-157.890	0.342	-0.021
-609.215	800.000	-0.014	-0.055
-608.201	-200.000	0.013	0.263
-607.186	243.119	-0.053	-0.090
-606.171	437.038	0.034	0.076
-605.157	113.676	0.047	0.058
-604.142	601.574	-0.074	0.186
-603.128	800.000	0.049	-0.190
-602.113	101.657	0.247	0.293
-601.098	800.000	0.073	0.282
-600.084	-55.417	0.128	0.058
-599.069	190.193	-0.054	0.082
-598.055	-94.318	0.420	-0.117
-597.040	-129.520	-0.326	-0.046
-596.025	57.986	-0.083	-0.083
-595.011	800.000	-0.087	0.264
-593.996	82.813	0.098	0.108
-592.982	321.182	-0.141	-0.273
-591.967	800.000	0.002	-0.009
-590.952	-200.000	-0.023	-0.200
-589.938	-200.000	0.015	0.129
-588.923	-60.551	-0.213	-0.092
-587.909	-200.000	-0.036	-0.229
-586.894	-116.769	0.336	0.063
-585.879	720.073	0.057	-0.153
-584.865	-34.607	0.199	-0.110
-583.850	86.800	-0.244	0.274
-582.836	426.171	0.085	-0.187
-581.821	-15.683	-0.165	-0.107
-580.806	439.975	-0.127	-0.281
-579.792	-200.000	0.010	0.046
-578.777	305.304	-0.035	-0.065
-577.763	-94.612	-0.107	-0.030
-576.748	800.000	-0.060	-0.177
-575.733	-109.095	-0.114	0.025
-574.719	-52.724	-0.188	0.088
-573.704	644.612	0.102	-0.264
-572.690	-49.650	-0.111	0.053
-571.675	-41.518	0.066	-0.034
-570.661	-200.000	-0.013	-0.140
-569.646	-134.773	-0.143	-0.018
-568.631	4.052	-0.299	-0.222
-567.617	458.627	0.079	-0.178
-566.602	178.374	-0.030	-0.045
-565.588	12.396	-0.106	-0.083
-564.573	-115.498	0.139	-0.026
-563.558	800.000	-0.086	-0.349
-562.544	-198.467	0.321	0.002
-561.529	-91.097	-0.147	0.043
-560.515	-181.927	-0.304	0.006
-559.500	103.203	-0.096	-0.114
-558.485	33.586	0.221	0.194
-557.471	-200.000	-0.047	-0.232
-556.456	-200.000	-0.020	-0.433
-555.442	289.327	0.042	-0.077
-554.427	-83.307	-0.197	-0.064
-553.412	93.263	0.116	-0.133
-552.398	-200.000	-0.049	0.247
-551.383	-152.999	0.068	-0.005
-550.369	-200.000	-0.009	-0.321
-549.354	-85.355	-0.329	-0.104
-548.339	116.342	-0.142	0.176
-547.325	35.123	-0.058	-0.052
-546.310	-161.110	-0.407	-0.022
-545.296	54.926	-0.302	0.295
-544.281	-109.852	0.165	0.035
-543.266	-50.142	-0.143	0.069
-542.252	800.000	-0.155	-0.469
-541.237	677.226	-0.076	0.201
-540.223	-1.479	0.139	-0.100
-539.208	50.447	-0.060	0.057
-538.193	800.000	-0.068	0.216
-537.179	-11.331	0.126	0.084
-536.164	30.651	-0.035	-0.030
-535.150	25.522	-0.248	-0.209
-534.135	800.000	0.084	0.255
-533.121	256.762	-0.034	0.059
-532.106	718.384	0.137	0.368
-531.091	197.224	0.152	0.235
-530.077	165.401	0.155	0.222
-529.062	-80.109	0.158	0.054
-528.048	-200.000	-0.013	0.104
-527.033	800.000	-0.121	0.350
-526.018	-88.851	0.231	0.069
-525.004	94.454	0.129	0.148
-523.989	-143.576	0.191	0.018
-522.975	-133.932	0.159	-0.020
-521.960	-87.856	-0.134	0.041
-520.945	44.545	-0.107	-0.100
-519.931	108.348	-0.083	-0.100
-518.916	-21.585	-0.159	0.098
-517.902	-200.000	0.007	-0.194
-516.887	-200.000	0.039	0.172
-515.872	-200.000	-0.010	-0.046
-514.858	-92.353	0.300	-0.086
-513.843	-188.993	-0.164	-0.002
-512.829	256.382	-0.112	0.196
-511.814	18.454	0.056	-0.045
-510.799	195.568	0.033	-0.050
-509.785	-156.405	-0.425	0.027
-508.770	-88.790	0.384	0.115
-507.756	199.894	-0.142	-0.221
-506.741	-36.569	0.084	-0.046
-505.726	13.251	-0.407	0.319
-504.712	-29.178	-0.005	-0.003
-503.697	26.685	-0.072	0.061
-502.683	243.055	-0.138	-0.235
-501.668	-171.365	0.077	-0.003
-500.653	44.819	-0.233	0.217
-499.639	-101.201	-0.021	0.005
-498.624	-162.466	0.370	0.019
-497.610	-71.334	-0.319	0.121
-496.595	-59.534	-0.222	0.097
-495.581	-126.649	0.244	0.037
-494.566	-14.531	-0.120	0.078
-493.551	-106.885	-0.340	0.076
-492.537	-78.496	-0.222	-0.077
-491.522	77.138	-0.022	0.023
-490.508	-74.326	-0.385	0.141
-489.493	-18.829	0.165	0.104
-488.478	107.698	-0.087	-0.105
-487.464	-200.000	0.043	-0.201
-486.449	70.814	-0.097	-0.102
-485.435	-96.945	0.091	0.024
-484.420	224.782	0.086	-0.141
-483.405	18.909	-0.228	-0.185
-482.391	322.467	-0.118	0.228
-481.376	-171.978	-0.133	0.004
-480.362	45.550	0.290	0.271
-479.347	249.558	0.106	0.182
-478.332	800.000	-0.096	0.306
-477.318	125.175	-0.086	0.109
-476.303	800.000	-0.063	-0.234
-475.289	159.359	-0.120	-0.168
-474.274	18.099	-0.230	0.186
-473.259	-99.320	-0.405	0.103
-472.245	646.152	-0.046	-0.118
-471.230	-18.865	0.278	0.175
-470.216	7.894	0.265	-0.201
-469.201	-28.469	0.193	0.112
-468.186	800.000	-0.118	-0.503
-467.172	-126.284	0.258	0.039
-466.157	800.000	-0.112	-0.335
-465.143	52.205	0.184	-0.177
-464.128	-26.795	-0.075	-0.044
-463.113	16.574	-0.304	0.243
-462.099	-40.461	0.481	-0.252
-461.084	165.660	-0.077	-0.110
-460.070	-141.742	-0.177	0.018
-459.055	-200.000	0.054	0.384
-458.040	758.756	-0.040	-0.109
-457.026	380.197	-0.007	0.015
-456.011	23.344	0.231	0.192
-454.997	237.509	-0.108	0.182
-453.982	-29.972	0.169	0.097
-452.968	45.905	0.102	0.095
-451.953	358.988	0.053	0.106
-450.938	-87.080	0.281	0.087
-449.924	-156.182	0.025	-0.002
-448.909	213.449	0.112	0.179
-447.895	-200.000	-0.039	-0.184
-446.880	-200.000	-0.009	0.221
-445.865	89.011	0.074	-0.083
-444.851	-198.096	0.337	0.002
-443.836	673.953	-0.078	0.203
-442.822	138.541	-0.211	-0.280
-441.807	-87.331	0.262	-0.080
-440.792	-26.119	0.312	-0.185
-439.778	-54.361	-0.224	-0.103
-438.763	527.047	-0.119	-0.284
-437.749	-82.196	0.236	-0.078
-436.734	-200.000	-0.045	0.208
-435.719	208.438	-0.148	-0.234
-434.705	-200.000	0.078	-0.372
-433.690	800.000	-0.129	-0.433
-432.676	72.633	0.019	0.021
-431.661	-120.043	-0.208	0.036
-430.646	389.839	0.066	0.139
-429.632	114.064	0.059	-0.072
-428.617	-200.000	0.007	0.106
-427.603	-48.068	-0.097	-0.047
-426.588	132.700	0.172	0.224
-425.573	-200.000	0.028	-0.167
-424.559	-183.890	0.526	-0.009
-423.544	-100.150	0.078	-0.020
-422.530	-76.200	-0.144	-0.051
-421.515	800.000	0.031	0.112
-420.500	85.096	-0.249	-0.276
-419.486	87.955	0.191	-0.213
-418.471	-49.700	0.266	-0.128
-417.457	800.000	0.017	0.063
-416.442	-120.488	-0.040	0.007
-415.428	700.642	0.070	-0.185
-414.413	800.000	-0.084	-0.246
-413.398	-200.000	-0.006	0.135
-412.384	205.921	0.129	0.202
-411.369	93.468	0.162	0.185
-410.355	137.585	-0.162	-0.213
-409.340	-200.000	-0.023	-0.434
-408.325	1.990	0.239	-0.174
-407.311	-31.128	-0.279	-0.159
-406.296	-63.449	-0.019	0.008
-405.282	-200.000	0.069	-0.320
-404.267	-99.002	-0.346	0.089
-403.252	259.553	-0.143	-0.248
-402.238	800.000	0.065	0.240
-401.223	-200.000	0.054	-0.416
-400.209	-200.000	-0.035	-0.189
-399.194	455.111	0.145	-0.324
-398.179	-85.875	0.292	-0.091
-397.165	-44.096	0.049	0.025
-396.150	800.000	0.034	-0.151
-395.136	112.408	-0.179	0.219
-394.121	90.052	0.233	-0.263
-393.106	84.594	-0.095	-0.105
-392.092	71.245	-0.179	0.188
-391.077	46.297	-0.096	0.090
-390.063	-48.424	-0.291	-0.141
-389.048	-68.130	-0.096	0.038
-388.033	17.466	0.155	-0.124
-387.019	464.631	0.156	-0.351
-386.004	170.307	-0.130	0.187
-384.990	-71.813	0.095	0.036
-383.975	-111.165	-0.235	0.049
-382.960	-25.342	-0.267	0.159
-381.946	-87.742	0.186	-0.056
-380.931	30.402	-0.194	0.167
-379.917	-74.556	-0.092	-0.033
-378.902	82.810	0.076	0.084
-377.888	587.061	0.098	0.242
-376.873	-49.088	-0.222	-0.107
-375.858	-90.480	-0.086	-0.025
-374.844	-82.364	0.159	0.052
-373.829	-200.000	-0.070	0.357
-372.815	-200.000	0.012	-0.062
-371.800	-81.521	-0.116	0.038
-370.785	-124.671	0.316	-0.049
-369.771	-105.130	0.100	-0.023
-368.756	-71.572	-0.298	0.112
-367.742	-116.295	-0.196	-0.037
-366.727	165.219	0.079	0.112
-365.712	-42.300	0.181	0.093
-364.698	-24.940	0.287	0.171
-363.683	239.676	-0.176	0.294
-362.669	-200.000	0.005	0.028
-361.654	253.958	0.131	0.225
-360.639	-77.715	-0.049	-0.017
-359.625	-200.000	-0.009	0.364
-358.610	14.116	-0.088	-0.069
-357.596	-181.621	0.194	0.004
-356.581	800.000	0.051	0.183
-355.566	-56.837	-0.340	-0.151
-354.552	800.000	-0.105	0.373
-353.537	-112.463	0.492	0.099
-352.523	168.382	-0.011	0.016
-351.508	119.095	-0.056	-0.069
-350.493	800.000	-0.072	-0.218
-349.479	-200.000	0.006	0.210
-348.464	417.666	0.140	-0.302
-347.450	28.494	0.123	0.105
-346.435	-17.662	0.228	-0.144
-345.420	701.224	-0.125	-0.330
-344.406	203.735	0.026	-0.041
-343.391	-200.000	0.370	0.001
-342.377	29.124	0.239	-0.204
-341.362	1.366	-0.157	-0.114
-340.348	91.059	0.198	-0.224
-339.333	-32.172	0.079	-0.045
-338.318	-200.000	0.029	0.201
-337.304	-86.376	0.090	-0.028
-336.289	-108.720	0.163	0.035
-335.275	119.486	0.264	0.329
-334.260	-121.342	0.134	0.022
-333.245	800.000	0.083	0.236
-332.231	800.000	0.065	-0.207
-331.216	50.551	-0.118	0.113
-330.202	146.002	-0.081	0.110
-329.187	66.362	-0.069	0.071
-328.172	376.803	0.152	-0.313
-327.158	349.430	-0.155	0.307
-326.143	56.153	-0.260	-0.254
-325.129	-200.000	0.034	-0.224
-324.114	-200.000	0.008	-0.292
-323.099	-98.129	-0.097	-0.025
-322.085	283.702	0.094	0.171
-321.070	676.499	-0.148	-0.386
-320.056	-161.653	0.185	0.010
-319.041	-55.985	-0.302	0.136
-318.026	225.983	-0.102	-0.165
-317.012	42.820	0.097	-0.089
-315.997	559.554	-0.071	0.173
-314.983	-200.000	0.038	-0.186
-313.968	-200.000	-0.302	0.001
-312.953	103.753	-0.109	0.129
-311.939	494.610	-0.052	-0.121
-310.924	-91.591	-0.234	0.067
-309.910	-200.000	0.022	0.132
-308.895	-127.179	0.128	-0.019
-307.880	533.616	-0.178	0.423
-306.866	141.129	0.207	0.274
-305.851	-100.130	0.250	-0.062
-304.837	686.358	-0.025	-0.065
-303.822	-39.288	-0.141	-0.074
-302.807	-10.722	0.176	-0.117
-301.793	-200.000	0.193	0.000
-300.778	244.994	-0.109	-0.185
-299.764	34.099	-0.155	-0.136
-298.749	124.047	0.059	-0.074
-297.735	-11.433	0.316	0.209
-296.720	-200.000	0.058	0.384
-295.705	655.831	0.095	0.246
-294.691	-119.871	-0.266	-0.046
-293.676	215.535	0.107	0.170
-292.662	-200.000	0.057	-0.421
-291.647	22.970	-0.225	-0.185
-290.632	-50.279	0.317	-0.151
-289.618	-200.000	0.028	0.159
-288.603	800.000	-0.051	-0.190
-287.589	118.290	0.150	0.186
-286.574	267.921	-0.041	-0.072
-285.559	-62.835	0.175	0.073
-284.545	723.169	-0.048	0.127
-283.530	-47.503	-0.181	-0.088
-282.516	-200.000	-0.049	0.215
-281.501	-200.000	0.283	-0.001
-280.486	-200.000	-0.011	-0.302
-279.472	-103.590	-0.109	-0.026
-278.457	14.985	-0.207	-0.162
-277.443	-7.439	-0.258	-0.176
-276.428	-2.302	0.109	0.076
-275.413	-151.671	-0.302	-0.022
-274.399	153.304	-0.133	-0.183
-273.384	175.129	-0.029	0.042
-272.370	193.558	0.031	-0.046
-271.355	800.000	-0.028	-0.105
-270.340	44.155	-0.076	0.070
-269.326	-79.111	-0.198	0.068
-268.311	800.000	0.077	0.281
-267.297	82.518	0.208	0.227
-266.282	1.553	0.174	-0.126
-265.267	36.111	0.166	0.147
-264.253	491.696	-0.158	-0.363
-263.238	800.000	-0.036	0.152
-262.224	800.000	0.052	-0.161
-261.209	-118.839	-0.087	0.015
-260.195	-200.000	0.031	-0.157
-259.180	194.022	0.117	0.178
-258.165	-20.116	0.418	0.258
-257.151	-123.008	-0.311	-0.050
-256.136	-151.119	0.188	0.014
-255.122	283.690	0.031	-0.056
-254.107	154.391	-0.030	0.041
-253.092	-38.042	0.174	-0.093
-252.078	-200.000	-0.033	-0.285
-251.063	-40.885	0.226	-0.117
-250.049	-51.307	0.200	0.094
-249.034	-200.000	-0.030	-0.410
-248.019	-180.043	-0.394	0.008
-247.005	-200.000	0.065	0.331
-245.990	-200.000	-0.068	-0.352
-244.976	-17.099	-0.234	-0.148
-243.961	800.000	0.069	0.300
-242.946	-200.000	-0.039	0.389
-241.932	800.000	-0.065	-0.213
-240.917	22.410	-0.112	0.092
-239.903	-141.203	-0.107	-0.011
-238.888	20.143	0.090	-0.073
-237.873	800.000	-0.034	0.117
-236.859	-200.000	0.062	-0.285
-235.844	143.015	0.109	0.145
-234.830	42.402	-0.198	-0.180
-233.815	217.918	0.128	0.204
-232.800	-70.169	-0.179	-0.068
-231.786	-200.000	0.067	0.336
-230.771	694.354	-0.059	0.154
-229.757	-117.363	-0.112	0.020
-228.742	-78.643	0.206	0.071
-227.727	49.313	0.285	-0.269
-226.713	138.429	-0.149	0.196
-225.698	800.000	0.056	0.208
-224.684	-28.110	0.183	0.106
-223.669	162.394	-0.102	-0.143
-222.655	800.000	0.017	-0.062
-221.640	35.233	-0.171	0.150
-220.625	-200.000	0.015	-0.141
-219.611	-200.000	0.226	0.001
-218.596	-158.831	-0.270	0.015
-217.582	397.043	0.123	0.258
-216.567	72.509	0.051	0.053
-215.552	-200.000	-0.005	-0.366
-214.538	-200.000	-0.002	0.264
-213.523	-31.618	0.238	0.134
-212.509	-200.000	0.074	0.351
-211.494	-121.468	-0.260	-0.043
-210.479	737.291	0.097	0.261
-209.465	27.465	0.062	0.052
-208.450	13.803	0.243	0.189
-207.436	-93.238	0.241	-0.067
-206.421	-120.805	0.096	-0.016
-205.406	94.563	0.072	0.082
-204.392	-71.945	0.337	0.125
-203.377	138.118	0.276	0.362
-202.363	708.215	0.121	-0.319
-201.348	303.411	0.081	0.149
-200.333	146.462	-0.308	0.414
-199.319	-200.000	-0.073	-0.324
-198.304	292.174	-0.226	0.412
-197.290	261.602	-0.179	0.311
-196.275	242.117	-0.119	0.199
-195.260	-117.989	-0.159	-0.029
-194.246	39.754	-0.172	-0.154
-193.231	800.000	0.077	-0.274
-192.217	-71.154	-0.275	-0.103
-191.202	116.118	0.105	-0.128
-190.187	92.427	-0.107	-0.121
-189.173	-78.684	0.108	-0.037
-188.158	800.000	0.133	0.389
-187.144	378.084	-0.022	-0.044
-186.129	-200.000	0.007	0.197
-185.114	-19.241	0.212	-0.131
-184.100	187.978	-0.172	0.256
-183.085	-64.222	-0.403	0.164
-182.071	192.819	0.241	0.363
-181.056	-62.696	-0.252	0.104
-180.042	308.281	-0.146	0.273
-179.027	152.364	0.091	0.124
-178.012	-78.095	0.099	-0.034
-176.998	-57.378	-0.104	0.046
-175.983	-105.128	-0.250	-0.057
-174.969	74.651	0.240	0.252
-173.954	-53.766	0.132	-0.060
-172.939	129.638	-0.123	0.157
-171.925	-200.000	0.047	-0.541
-170.910	208.407	0.134	-0.209
-169.896	-114.251	-0.255	0.049
-168.881	-61.256	0.164	0.069
-167.866	-179.281	0.053	-0.001
-166.852	26.665	0.052	0.043
-165.837	200.380	0.092	-0.141
-164.823	87.196	0.229	0.252
-163.808	-200.000	-0.020	0.263
-162.793	109.901	-0.161	0.193
-161.779	30.116	0.172	0.146
-160.764	-113.232	-0.190	0.037
-159.750	-200.000	0.014	-0.286
-158.735	-41.887	0.102	-0.052
-157.720	663.980	-0.066	-0.170
-156.706	647.766	-0.054	0.138
-155.691	-15.537	0.171	-0.109
-154.677	35.439	-0.175	-0.153
-153.662	54.356	-0.161	0.155
-152.647	-200.000	-0.041	0.250
-151.633	658.716	-0.059	-0.151
-150.618	-200.000	-0.031	0.366
-149.604	-57.793	-0.339	0.148
-148.589	-200.000	0.015	-0.197
-147.574	-200.000	-0.047	-0.219
-146.560	135.080	-0.074	-0.096
-145.545	56.764	-0.047	-0.046
-144.531	-56.734	-0.313	-0.138
-143.516	176.703	-0.108	-0.156
-142.502	-69.283	0.101	-0.039
-141.487	-68.234	0.055	0.021
-140.472	800.000	-0.033	0.100
-139.458	64.306	0.178	0.179
-138.443	800.000	-0.127	0.432
-137.429	141.759	0.103	-0.136
-136.414	-118.399	0.211	0.037
-135.399	-200.000	-0.009	-0.094
-134.385	41.354	0.190	-0.172
-133.370	-104.639	-0.155	0.036
-132.356	58.679	-0.088	0.087
-131.341	378.888	-0.051	0.103
-130.326	-194.636	-0.085	-0.001
-129.312	61.745	-0.171	0.170
-128.297	156.039	-0.188	0.259
-127.283	-132.804	0.180	-0.023
-126.268	286.156	0.182	0.327
-125.253	250.886	0.149	0.252
-124.239	525.798	0.046	0.107
-123.224	9.588	-0.300	-0.226
-122.210	22.379	0.390	0.318
-121.195	109.477	-0.156	0.187
