DTS Sentinel unit serial number:	SN413079Multiplexer serial number:	ORYXHardware model number:	OX4-SRSoftware version number:	ORYX F/W v4.00 Oryx Data Collector v3.7.2.0data status	okinstallation	princeton_trtdifferential loss correction	single-endedforward channel	channel 4reverse channel	N/Adate	2019/09/10time	16:23:11forward acquisition time	60.00reverse acquisition time	0.00gamma	496.2192k internal	0.2295k external	0.2295temperature offset calibration	0.9937default loss term (dB/km)	0.3790temperature slope calibration	1.0000multiplexer offset coefficient	1.0000multiplexer slope coefficient	1.0000fibre end	0.00T internal ref (°C)	38.19T ext. ref 1 (°C)	-0.30T ext. ref 2 (°C)	30.80length (m)	temperature (°C)	Stokes	anti-Stokes-747.200	-200.000	-0.011	-0.175
-746.185	-200.000	0.009	0.153
-745.171	-83.197	0.308	0.101
-744.156	-79.525	-0.283	-0.098
-743.142	-58.828	-0.400	0.177
-742.127	173.864	0.104	0.154
-741.112	-36.965	-0.237	0.130
-740.098	-136.279	0.217	-0.026
-739.083	0.282	-0.279	-0.204
-738.069	-200.000	-0.010	-0.089
-737.054	477.914	-0.127	0.293
-736.039	-97.181	-0.255	-0.068
-735.025	800.000	0.099	0.384
-734.010	328.813	-0.182	-0.358
-732.996	-187.422	-0.094	0.001
-731.981	599.930	0.026	0.066
-730.966	783.919	-0.181	-0.506
-729.952	86.987	0.047	0.053
-728.937	200.128	-0.257	0.403
-727.923	174.969	-0.199	-0.295
-726.908	-200.000	-0.054	0.308
-725.894	134.428	-0.143	0.190
-724.879	660.065	-0.086	-0.227
-723.864	282.928	-0.100	-0.184
-722.850	-72.654	-0.430	0.162
-721.835	-200.000	-0.006	-0.076
-720.821	221.218	-0.056	-0.092
-719.806	-200.000	-0.002	0.308
-718.791	-200.000	-0.034	0.363
-717.777	-14.989	-0.091	-0.059
-716.762	-200.000	-0.091	-0.436
-715.748	101.241	0.115	0.137
-714.733	70.529	-0.136	-0.143
-713.718	29.127	-0.185	-0.161
-712.704	-98.913	0.407	0.105
-711.689	-15.019	-0.048	0.031
-710.675	-52.742	0.208	0.098
-709.660	211.041	-0.067	0.107
-708.645	11.675	-0.122	-0.096
-707.631	-126.279	0.231	-0.035
-706.616	-50.853	0.249	-0.119
-705.602	12.718	0.419	-0.331
-704.587	800.000	0.048	-0.202
-703.572	-12.698	0.132	-0.088
-702.558	42.367	-0.114	-0.106
-701.543	-40.441	0.353	0.187
-700.529	-200.000	0.041	-0.278
-699.514	-200.000	-0.044	-0.271
-698.499	-110.673	0.127	-0.027
-697.485	-200.000	-0.002	-0.117
-696.470	662.542	0.128	0.338
-695.456	68.118	-0.293	-0.306
-694.441	-30.770	-0.065	-0.038
-693.426	284.679	-0.073	0.134
-692.412	35.185	-0.242	-0.216
-691.397	266.939	0.111	-0.198
-690.383	-127.708	-0.261	-0.038
-689.368	-24.858	0.067	-0.040
-688.354	95.422	0.113	0.132
-687.339	-200.000	-0.027	-0.144
-686.324	271.700	0.105	-0.189
-685.310	-137.998	0.116	-0.013
-684.295	73.558	-0.188	-0.200
-683.281	-51.375	0.137	-0.065
-682.266	62.552	-0.114	0.116
-681.251	-9.325	-0.189	-0.129
-680.237	-42.854	-0.114	-0.059
-679.222	-118.011	0.125	-0.023
-678.208	-45.372	-0.283	0.143
-677.193	800.000	-0.069	-0.289
-676.178	-47.501	0.138	-0.069
-675.164	723.136	-0.094	-0.255
-674.149	-200.000	0.028	0.168
-673.135	-200.000	0.030	-0.503
-672.120	-93.613	-0.241	0.068
-671.105	-200.000	-0.030	-0.254
-670.091	15.010	0.151	0.120
-669.076	282.219	-0.103	-0.188
-668.062	168.541	0.130	0.189
-667.047	379.386	0.101	0.210
-666.032	-93.181	-0.106	0.030
-665.018	800.000	-0.060	-0.224
-664.003	301.630	-0.019	-0.035
-662.989	800.000	-0.037	-0.140
-661.974	-131.954	-0.112	-0.015
-660.959	-51.782	-0.068	0.032
-659.945	511.746	-0.037	-0.087
-658.930	-36.902	-0.259	0.142
-657.916	231.835	0.160	-0.267
-656.901	-132.258	-0.292	0.039
-655.886	-95.354	-0.154	-0.042
-654.872	-117.411	-0.447	-0.082
-653.857	77.407	-0.156	-0.169
-652.843	-27.064	-0.048	0.028
-651.828	-200.000	0.005	-0.172
-650.814	210.882	0.263	-0.422
-649.799	-8.582	0.179	-0.122
-648.784	-131.576	0.155	0.021
-647.770	7.390	0.282	0.215
-646.755	460.125	-0.137	-0.311
-645.741	297.729	-0.064	-0.120
-644.726	-73.571	0.139	0.052
-643.711	1.254	0.349	0.255
-642.697	138.612	-0.088	-0.117
-641.682	7.368	-0.075	0.057
-640.668	238.527	-0.150	-0.253
-639.653	-200.000	0.011	-0.117
-638.638	0.964	-0.215	0.157
-637.624	7.042	-0.169	0.129
-636.609	-71.007	0.120	-0.046
-635.595	-162.068	-0.288	-0.015
-634.580	-39.295	0.196	0.105
-633.565	761.020	-0.042	-0.115
-632.551	491.937	-0.046	-0.107
-631.536	-107.802	-0.246	0.055
-630.522	-128.098	-0.135	0.020
-629.507	-78.240	-0.363	0.127
-628.492	16.458	-0.057	-0.045
-627.478	280.928	0.096	-0.175
-626.463	800.000	0.052	0.184
-625.449	-107.058	-0.480	-0.108
-624.434	800.000	-0.029	-0.128
-623.419	35.085	-0.309	0.275
-622.405	95.780	-0.111	0.129
-621.390	-183.651	-0.354	0.006
-620.376	-162.995	0.343	0.017
-619.361	-143.482	-0.282	0.027
-618.346	-51.117	-0.132	-0.063
-617.332	52.813	-0.365	0.355
-616.317	425.853	-0.024	-0.052
-615.303	-131.834	-0.154	0.021
-614.288	711.864	-0.091	-0.245
-613.273	800.000	0.056	-0.219
-612.259	-55.669	-0.230	0.105
-611.244	-87.377	0.197	-0.061
-610.230	20.706	0.230	-0.190
-609.215	-200.000	-0.039	-0.276
-608.201	800.000	0.058	-0.213
-607.186	473.006	-0.063	-0.145
-606.171	93.063	0.083	-0.095
-605.157	725.564	-0.028	0.077
-604.142	155.271	-0.035	0.049
-603.128	73.970	-0.154	-0.165
-602.113	-116.084	-0.275	0.052
-601.098	370.071	-0.149	0.306
-600.084	72.889	0.193	-0.205
-599.069	-86.287	0.430	-0.134
-598.055	121.354	-0.172	0.217
-597.040	73.161	-0.140	-0.149
-596.025	-170.473	-0.235	0.008
-595.011	-80.948	-0.293	-0.099
-593.996	-200.000	-0.002	0.264
-592.982	-109.490	0.275	-0.059
-591.967	797.902	-0.091	0.254
-590.952	-53.144	-0.210	-0.098
-589.938	-193.862	-0.119	-0.001
-588.923	165.531	0.112	0.161
-587.909	120.669	0.059	-0.075
-586.894	-200.000	-0.068	0.309
-585.879	543.823	0.060	0.145
-584.865	-200.000	0.009	0.076
-583.850	-123.526	0.338	-0.055
-582.836	-58.440	0.222	0.098
-581.821	-200.000	0.020	0.101
-580.806	-65.837	-0.443	-0.180
-579.792	800.000	-0.107	-0.300
-578.777	-76.553	0.235	-0.084
-577.763	24.662	0.037	-0.031
-576.748	314.221	0.129	0.247
-575.733	281.076	-0.079	-0.144
-574.719	800.000	-0.025	-0.086
-573.704	-1.942	0.246	0.176
-572.690	-168.657	-0.278	-0.011
-571.675	-28.930	0.009	0.005
-570.661	-11.164	0.139	0.093
-569.646	-115.073	-0.407	-0.079
-568.631	-15.686	0.243	0.157
-567.617	318.235	-0.068	-0.131
-566.602	-108.828	-0.260	0.056
-565.588	-16.219	0.211	0.136
-564.573	-23.206	0.130	0.080
-563.558	800.000	0.034	0.118
-562.544	572.362	0.106	0.261
-561.529	-57.329	0.064	-0.029
-560.515	800.000	-0.094	0.282
-559.500	800.000	0.100	0.284
-558.485	800.000	-0.090	-0.328
-557.471	233.096	-0.187	-0.313
-556.456	-108.108	0.123	-0.027
-555.442	800.000	0.094	-0.342
-554.427	-97.386	-0.252	0.067
-553.412	-46.089	-0.055	-0.028
-552.398	791.495	-0.100	0.278
-551.383	-200.000	0.009	-0.278
-550.369	-136.231	0.066	0.008
-549.354	-162.056	-0.194	-0.010
-548.339	-67.695	0.253	0.100
-547.325	41.832	-0.397	0.365
-546.310	346.220	0.053	-0.105
-545.296	800.000	-0.054	-0.197
-544.281	-126.862	-0.030	-0.004
-543.266	73.598	0.180	0.191
-542.252	-200.000	0.021	-0.199
-541.237	-153.211	0.198	-0.014
-540.223	-200.000	0.085	-0.486
-539.208	-102.601	0.136	0.033
-538.193	-200.000	-0.004	-0.104
-537.179	-200.000	0.018	-0.101
-536.164	-200.000	-0.018	-0.192
-535.150	-16.751	-0.061	-0.039
-534.135	5.455	0.207	0.155
-533.121	123.294	0.197	-0.251
-532.106	800.000	0.012	0.045
-531.091	63.510	-0.324	-0.329
-530.077	-133.894	-0.158	-0.020
-529.062	-139.266	-0.084	0.009
-528.048	-130.096	-0.254	-0.035
-527.033	-108.473	0.272	0.059
-526.018	-200.000	0.020	0.117
-525.004	566.748	-0.112	0.275
-523.989	800.000	0.075	-0.248
-522.975	-186.419	0.385	-0.006
-521.960	-200.000	0.016	-0.163
-520.945	0.286	-0.261	-0.189
-519.931	243.654	-0.171	-0.290
-518.916	113.041	0.236	-0.290
-517.902	800.000	0.054	-0.235
-516.887	-111.258	-0.109	0.023
-515.872	-200.000	-0.013	0.117
-514.858	9.071	0.075	0.058
-513.843	-96.636	-0.080	-0.021
-512.829	-200.000	0.029	0.218
-511.814	-132.703	0.114	-0.015
-510.799	58.988	-0.203	-0.203
-509.785	94.587	-0.042	0.048
-508.770	173.736	0.025	0.036
-507.756	-101.459	-0.182	-0.045
-506.741	800.000	0.115	-0.441
-505.726	-101.127	-0.047	-0.012
-504.712	800.000	0.021	0.089
-503.697	-200.000	0.046	0.298
-502.683	82.426	-0.217	-0.238
-501.668	13.362	-0.367	0.288
-500.653	-200.000	0.019	0.107
-499.639	-27.170	-0.264	-0.156
-498.624	-125.881	0.196	0.030
-497.610	800.000	0.030	0.123
-496.595	140.017	-0.115	0.153
-495.581	521.919	-0.075	0.179
-494.566	79.424	0.136	0.148
-493.551	800.000	-0.046	0.134
-492.537	196.519	-0.178	0.274
-491.522	-79.470	-0.073	-0.025
-490.508	-74.343	-0.191	-0.070
-489.493	-154.584	-0.133	-0.009
-488.478	77.416	-0.095	-0.102
-487.464	39.821	0.074	0.067
-486.449	125.417	0.110	0.141
-485.435	-134.872	0.174	0.021
-484.420	-200.000	0.048	-0.255
-483.405	-54.237	-0.126	0.058
-482.391	-200.000	-0.016	-0.219
-481.376	99.502	-0.043	0.050
-480.362	-99.324	-0.077	0.020
-479.347	-23.474	-0.144	-0.087
-478.332	-37.730	0.209	0.113
-477.318	96.581	-0.026	-0.030
-476.303	532.764	0.034	0.081
-475.289	15.849	0.130	0.104
-474.274	800.000	-0.057	0.212
-473.259	-200.000	0.008	0.147
-472.245	800.000	0.067	0.258
-471.230	-34.103	0.235	-0.131
-470.216	-140.933	-0.229	-0.024
-469.201	-26.789	0.313	-0.185
-468.186	480.287	0.150	-0.345
-467.172	-96.112	-0.277	0.074
-466.157	21.631	-0.105	0.087
-465.143	-38.569	-0.140	-0.075
-464.128	-108.297	0.298	-0.065
-463.113	294.729	-0.062	-0.114
-462.099	-200.000	-0.003	-0.127
-461.084	-76.837	0.278	-0.098
-460.070	152.853	-0.106	-0.146
-459.055	-13.999	-0.261	-0.171
-458.040	-12.281	0.322	0.213
-457.026	22.363	0.176	0.146
-456.011	-42.258	0.110	-0.057
-454.997	-200.000	0.000	-0.321
-453.982	-56.847	0.075	-0.033
-452.968	800.000	0.045	0.192
-451.953	800.000	0.011	-0.038
-450.938	-1.811	-0.109	-0.077
-449.924	571.196	-0.041	-0.101
-448.909	162.648	-0.129	-0.183
-447.895	65.608	0.041	-0.042
-446.880	79.855	0.064	-0.070
-445.865	-104.363	0.338	-0.079
-444.851	449.828	-0.081	0.180
-443.836	-200.000	0.014	-0.124
-442.822	27.170	-0.027	0.023
-441.807	631.021	0.054	0.138
-440.792	-200.000	0.006	0.250
-439.778	800.000	0.016	0.060
-438.763	272.864	-0.096	-0.171
-437.749	800.000	0.102	-0.378
-436.734	-16.876	-0.049	0.031
-435.719	330.082	-0.111	-0.215
-434.705	-200.000	0.017	-0.121
-433.690	1.740	-0.138	-0.101
-432.676	4.221	-0.351	0.259
-431.661	36.317	0.290	0.258
-430.646	800.000	-0.039	0.125
-429.632	-200.000	0.036	0.161
-428.617	390.150	0.034	0.071
-427.603	800.000	0.059	0.166
-426.588	63.610	0.122	-0.124
-425.573	-34.508	0.228	-0.126
-424.559	-0.079	0.173	0.124
-423.544	-200.000	-0.063	0.404
-422.530	-147.872	0.243	-0.021
-421.515	-29.692	-0.123	-0.071
-420.500	-0.714	0.093	-0.066
-419.486	734.916	-0.057	-0.155
-418.471	141.730	0.236	0.315
-417.457	16.582	-0.202	0.161
-416.442	-147.750	0.092	-0.008
-415.428	-38.667	-0.149	-0.079
-414.413	61.796	-0.125	-0.126
-413.398	109.367	0.084	0.101
-412.384	800.000	0.083	-0.346
-411.369	144.920	-0.156	-0.211
-410.355	144.142	0.204	0.275
-409.340	-107.811	-0.119	-0.026
-408.325	-81.843	-0.100	-0.033
-407.311	-200.000	0.013	0.138
-406.296	-14.366	0.088	-0.057
-405.282	-82.927	-0.166	0.054
-404.267	298.290	-0.193	-0.358
-403.252	-200.000	-0.027	-0.415
-402.238	85.339	-0.130	-0.144
-401.223	-200.000	0.053	0.237
-400.209	-158.946	-0.228	-0.013
-399.194	-72.185	-0.277	0.104
-398.179	3.184	0.158	-0.116
-397.165	594.222	0.048	-0.120
-396.150	-125.965	0.348	0.053
-395.136	-102.337	0.138	-0.033
-394.121	-170.069	-0.118	0.004
-393.106	-22.894	-0.202	-0.123
-392.092	-26.607	0.085	-0.050
-391.077	-172.707	0.320	0.010
-390.063	54.052	0.194	-0.188
-389.048	430.993	0.112	-0.245
-388.033	-184.598	-0.267	-0.004
-387.019	245.361	0.066	0.112
-386.004	-19.603	-0.058	-0.036
-384.990	238.910	0.037	0.062
-383.975	-56.370	0.289	0.129
-382.960	-150.792	0.046	-0.004
-381.946	-64.589	-0.102	0.042
-380.931	-25.540	0.195	-0.116
-379.917	442.587	-0.037	0.081
-378.902	-157.368	-0.139	0.008
-377.888	-200.000	-0.000	-0.218
-376.873	120.553	0.109	0.137
-375.858	230.779	-0.034	0.056
-374.844	-46.272	-0.168	-0.083
-373.829	-16.933	0.225	0.143
-372.815	-23.840	0.109	-0.066
-371.800	-121.795	0.083	-0.014
-370.785	-17.498	0.248	0.157
-369.771	-30.414	-0.083	-0.047
-368.756	-162.049	0.342	0.017
-367.742	800.000	-0.102	-0.297
-366.727	-119.301	-0.167	0.029
-365.712	-107.411	0.174	-0.038
-364.698	-82.960	-0.170	0.055
-363.683	-200.000	-0.091	-0.405
-362.669	47.892	0.096	0.090
-361.654	-200.000	-0.028	0.310
-360.639	-38.221	0.212	0.113
-359.625	-200.000	0.003	0.070
-358.610	154.888	0.026	-0.037
-357.596	261.296	0.127	0.221
-356.581	-35.106	-0.164	-0.090
-355.566	185.171	-0.133	-0.199
-354.552	-44.958	-0.200	-0.100
-353.537	-200.000	-0.030	-0.195
-352.523	87.206	-0.280	-0.312
-351.508	124.365	0.111	-0.141
-350.493	-5.843	-0.178	0.122
-349.479	-32.863	-0.227	-0.127
-348.464	-100.578	-0.306	-0.076
-347.450	-13.713	-0.078	0.050
-346.435	-74.492	-0.147	0.053
-345.420	-121.798	-0.203	-0.034
-344.406	-59.150	-0.054	-0.023
-343.391	43.539	-0.025	0.023
-342.377	-200.000	0.055	-0.325
-341.362	258.508	-0.133	0.230
-340.348	-200.000	-0.017	-0.145
-339.333	-70.642	0.493	-0.187
-338.318	-123.964	0.447	0.071
-337.304	772.980	0.078	-0.214
-336.289	-200.000	-0.036	0.368
-335.275	-84.969	-0.117	-0.037
-334.260	104.170	0.183	0.216
-333.245	-39.897	0.330	0.173
-332.231	-200.000	0.032	-0.143
-331.216	53.860	0.132	-0.127
-330.202	-136.011	0.195	0.023
-329.187	47.842	-0.363	-0.341
-328.172	128.743	-0.131	-0.168
-327.158	789.277	0.058	-0.160
-326.143	-131.909	0.153	0.020
-325.129	-200.000	0.043	0.195
-324.114	-152.500	-0.155	0.011
-323.099	39.685	0.087	-0.079
-322.085	-21.683	-0.169	-0.103
-321.070	1.839	-0.125	0.091
-320.056	620.870	-0.091	0.229
-319.041	50.855	0.246	-0.234
-318.026	463.763	0.064	-0.143
-317.012	-200.000	-0.042	-0.420
-315.997	800.000	-0.106	-0.461
-314.983	-132.656	0.097	0.013
-313.968	-200.000	0.012	0.336
-312.953	91.469	0.246	0.277
-311.939	-171.009	0.421	0.014
-310.924	90.566	0.101	-0.113
-309.910	-200.000	0.016	0.300
-308.895	-125.177	0.359	0.055
-307.880	-200.000	0.000	-0.034
-306.866	-141.191	0.258	0.026
-305.851	285.667	0.090	-0.163
-304.837	-13.818	-0.135	0.088
-303.822	38.716	-0.198	-0.178
-302.807	-126.930	-0.259	-0.038
-301.793	436.276	-0.152	-0.333
-300.778	6.474	0.101	0.075
-299.764	-135.416	0.223	-0.027
-298.749	-200.000	0.003	0.171
-297.735	116.170	0.137	0.169
-296.720	230.904	0.037	-0.060
-295.705	-8.554	-0.213	-0.144
-294.691	-200.000	-0.029	-0.250
-293.676	582.683	-0.085	0.209
-292.662	-200.000	0.005	0.307
-291.647	46.155	-0.227	-0.212
-290.632	800.000	-0.052	0.156
-289.618	116.919	0.096	-0.118
-288.603	176.846	0.077	-0.112
-287.589	-200.000	0.020	-0.290
-286.574	-67.737	0.138	0.054
-285.559	-125.608	-0.339	-0.052
-284.545	717.902	-0.115	-0.306
-283.530	-166.774	-0.343	-0.014
-282.516	-200.000	-0.059	-0.307
-281.501	474.669	0.176	0.399
-280.486	-200.000	0.035	0.221
-279.472	800.000	-0.015	-0.055
-278.457	-200.000	-0.005	0.354
-277.443	-92.610	-0.329	-0.093
-276.428	283.626	0.137	0.248
-275.413	24.525	-0.187	-0.155
-274.399	-152.992	0.177	-0.013
-273.384	780.813	-0.108	0.295
-272.370	90.830	-0.138	-0.155
-271.355	-80.872	-0.166	0.055
-270.340	-75.521	0.352	-0.126
-269.326	800.000	0.055	-0.157
-268.311	-160.647	-0.206	-0.011
-267.297	-48.374	-0.207	-0.100
-266.282	-135.974	0.078	-0.009
-265.267	64.514	-0.137	0.138
-264.253	19.270	-0.110	-0.089
-263.238	381.005	0.164	-0.338
-262.224	-145.238	-0.227	-0.021
-261.209	98.851	0.167	-0.194
-260.195	-161.270	0.095	-0.005
-259.180	-44.455	0.125	-0.063
-258.165	-200.000	-0.050	0.269
-257.151	81.173	0.183	0.198
-256.136	-158.017	0.320	0.019
-255.122	-200.000	-0.021	-0.114
-254.107	-51.924	-0.209	0.097
-253.092	47.169	-0.186	0.174
-252.078	-200.000	0.014	0.078
-251.063	-39.742	0.343	-0.180
-250.049	36.436	-0.226	-0.200
-249.034	102.797	0.120	-0.141
-248.019	-200.000	0.014	0.324
-247.005	-45.815	0.230	-0.114
-245.990	-200.000	0.009	0.095
-244.976	800.000	0.098	0.348
-243.961	2.134	-0.169	0.122
-242.946	458.756	0.078	0.173
-241.932	-200.000	-0.031	-0.146
-240.917	81.599	-0.020	-0.021
-239.903	-77.484	0.315	-0.109
-238.888	-200.000	0.014	0.200
-237.873	-24.785	0.316	0.188
-236.859	800.000	0.032	0.115
-235.844	-43.232	0.127	-0.065
-234.830	792.535	-0.150	0.415
-233.815	38.982	-0.117	0.105
-232.800	8.219	0.401	0.302
-231.786	-200.000	0.016	0.458
-230.771	50.959	-0.124	-0.117
-229.757	800.000	-0.028	-0.114
-228.742	-29.480	0.280	-0.160
-227.727	3.270	0.058	-0.043
-226.713	800.000	0.018	-0.074
-225.698	-136.546	0.141	0.016
-224.684	-200.000	0.022	0.105
-223.669	90.605	-0.180	-0.202
-222.655	-93.452	0.130	-0.036
-221.640	-17.347	0.200	0.126
-220.625	-5.142	-0.095	0.066
-219.611	-67.746	0.433	-0.170
-218.596	-200.000	-0.009	0.164
-217.582	372.629	-0.037	0.075
-216.567	77.749	-0.158	0.169
-215.552	47.415	-0.085	0.079
-214.538	137.715	-0.249	0.326
-213.523	205.243	0.060	-0.093
-212.509	31.835	0.050	-0.043
-211.494	441.439	-0.046	0.102
-210.479	18.609	-0.117	-0.094
-209.465	-107.816	0.589	0.128
-208.450	800.000	-0.078	0.225
-207.436	-156.701	0.112	0.007
-206.421	115.818	-0.119	0.146
-205.406	90.103	0.128	0.143
-204.392	164.281	-0.389	0.549
-203.377	286.803	0.062	0.112
-202.363	-33.082	0.074	-0.041
-201.348	36.566	-0.125	0.111
-200.333	506.423	0.064	-0.148
-199.319	-200.000	-0.051	0.417
-198.304	22.209	-0.088	-0.072
-197.290	-68.829	-0.296	-0.114
-196.275	378.113	0.071	-0.144
-195.260	196.867	-0.153	-0.234
-194.246	-109.100	0.396	-0.084
-193.231	-70.979	-0.251	0.095
-192.217	-87.843	-0.091	0.027
-191.202	-170.072	0.257	0.009
-190.187	41.844	0.120	0.109
-189.173	-178.233	0.513	-0.012
-188.158	9.560	-0.108	0.082
-187.144	341.381	0.189	0.369
-186.129	-13.478	0.252	0.164
-185.114	-120.612	-0.134	0.023
-184.100	252.121	0.142	-0.241
-183.085	-91.496	-0.318	-0.091
-182.071	-5.099	-0.335	-0.230
-181.056	-101.824	-0.142	-0.034
-180.042	-151.814	-0.124	0.009
-179.027	800.000	0.050	0.140
-178.012	-138.079	0.188	-0.021
-176.998	-120.459	0.152	-0.026
-175.983	-200.000	0.051	0.399
-174.969	-200.000	-0.003	0.281
-173.954	-77.526	0.201	0.070
-172.939	-67.607	0.182	-0.071
-171.925	800.000	0.163	0.588
-170.910	-103.277	0.149	0.035
-169.896	-123.867	-0.110	-0.017
-168.881	-107.504	-0.282	-0.062
-167.866	29.182	-0.037	0.031
-166.852	-200.000	-0.039	-0.228
-165.837	69.222	-0.214	0.220
-164.823	-46.742	-0.029	-0.014
-163.808	-22.370	0.345	0.209
-162.793	800.000	0.078	0.233
-161.779	533.736	-0.105	0.249
-160.764	-200.000	0.032	-0.263
-159.750	134.220	0.142	-0.184
-158.735	-185.183	0.108	-0.002
-157.720	-200.000	0.002	0.287
-156.706	51.173	0.136	-0.129
-155.691	97.409	0.177	-0.203
-154.677	-86.948	-0.081	0.025
-153.662	-139.976	-0.395	0.042
-152.647	-82.097	-0.202	-0.066
-151.633	38.271	-0.167	0.149
-150.618	90.978	0.099	0.111
-149.604	-62.697	0.198	0.082
-148.589	-121.043	0.254	0.043
-147.574	7.442	-0.080	0.060
-146.560	-200.000	0.050	0.409
-145.545	-9.201	0.132	0.088
-144.531	110.307	0.093	0.112
-143.516	-200.000	-0.041	-0.356
-142.502	-104.465	0.170	-0.039
-141.487	-200.000	-0.009	-0.108
-140.472	-177.488	-0.119	0.003
-139.458	15.452	0.198	0.155
-138.443	-200.000	0.025	-0.174
-137.429	312.737	0.103	0.193
-136.414	726.211	-0.067	0.178
-135.399	14.886	-0.164	-0.128
-134.385	555.688	-0.026	-0.063
-133.370	-200.000	0.026	0.210
-132.356	-173.825	-0.129	0.004
-131.341	-200.000	0.006	0.035
-130.326	-31.078	0.489	-0.276
-129.312	143.462	0.317	0.421
-128.297	800.000	0.007	0.022
-127.283	-200.000	0.035	0.180
-126.268	-36.937	-0.403	-0.216
-125.253	-185.999	-0.190	-0.003
-124.239	587.141	0.090	-0.221
-123.224	-144.107	-0.159	0.015
-122.210	14.188	-0.257	0.200
