DTS Sentinel unit serial number:	SN413079Multiplexer serial number:	ORYXHardware model number:	OX4-SRSoftware version number:	ORYX F/W v4.00 Oryx Data Collector v3.7.2.0data status	okinstallation	princeton_trtdifferential loss correction	single-endedforward channel	channel 4reverse channel	N/Adate	2019/09/12time	10:23:11forward acquisition time	60.00reverse acquisition time	0.00gamma	496.2192k internal	0.2296k external	0.2296temperature offset calibration	1.0069default loss term (dB/km)	0.3790temperature slope calibration	1.0000multiplexer offset coefficient	1.0000multiplexer slope coefficient	1.0000fibre end	0.00T internal ref (°C)	36.81T ext. ref 1 (°C)	1.88T ext. ref 2 (°C)	34.82length (m)	temperature (°C)	Stokes	anti-Stokes-747.200	114.167	0.242	0.301
-746.185	400.302	0.212	0.454
-745.171	290.054	0.105	-0.195
-744.156	-25.699	0.269	0.162
-743.142	-200.000	-0.025	0.214
-742.127	-200.000	0.022	0.618
-741.112	306.551	-0.146	0.279
-740.098	-170.186	0.167	-0.006
-739.083	150.900	0.149	0.206
-738.069	-88.007	-0.058	0.018
-737.054	-200.000	0.077	-0.505
-736.039	-101.630	-0.182	0.045
-735.025	-88.303	0.121	-0.037
-734.010	800.000	0.082	-0.275
-732.996	800.000	0.171	-0.524
-731.981	-123.900	-0.149	-0.024
-730.966	248.352	0.058	0.101
-729.952	-132.989	0.308	-0.040
-728.937	450.815	0.151	-0.340
-727.923	-200.000	0.015	0.238
-726.908	-16.372	-0.192	-0.124
-725.894	-200.000	-0.039	-0.182
-724.879	87.407	0.135	-0.152
-723.864	12.167	-0.210	-0.165
-722.850	-200.000	-0.012	-0.351
-721.835	-200.000	-0.060	-0.278
-720.821	45.449	0.165	-0.156
-719.806	-200.000	-0.022	-0.170
-718.791	145.172	-0.095	0.130
-717.777	20.876	-0.360	0.298
-716.762	539.390	0.118	-0.287
-715.748	56.621	0.093	-0.092
-714.733	-163.132	-0.088	-0.004
-713.718	101.651	0.150	0.179
-712.704	146.796	0.096	0.131
-711.689	-142.893	-0.182	-0.018
-710.675	-200.000	0.045	-0.417
-709.660	-200.000	-0.002	-0.290
-708.645	176.567	-0.177	-0.263
-707.631	49.800	-0.087	-0.084
-706.616	-200.000	0.022	0.447
-705.602	-71.187	-0.117	-0.045
-704.587	325.238	-0.137	-0.267
-703.572	8.181	0.209	-0.160
-702.558	-95.209	0.257	-0.071
-701.543	116.002	0.228	-0.284
-700.529	-60.424	0.174	-0.075
-699.514	-200.000	-0.019	-0.093
-698.499	-200.000	0.071	-0.331
-697.485	121.998	-0.089	-0.113
-696.470	54.690	-0.051	-0.050
-695.456	-200.000	0.003	-0.368
-694.441	-135.881	-0.416	-0.050
-693.426	432.971	-0.024	-0.053
-692.412	174.903	-0.067	0.099
-691.397	-78.993	0.249	-0.086
-690.383	10.719	-0.216	-0.168
-689.368	800.000	0.114	0.376
-688.354	211.264	0.068	0.110
-687.339	800.000	0.067	-0.226
-686.324	433.403	0.106	0.235
-685.310	-200.000	0.004	-0.074
-684.295	54.829	-0.171	-0.169
-683.281	-15.594	-0.108	-0.070
-682.266	110.121	-0.183	-0.224
-681.251	-52.198	-0.227	0.107
-680.237	195.032	-0.097	-0.150
-679.222	265.034	-0.065	-0.116
-678.208	37.588	-0.180	-0.162
-677.193	46.077	0.194	0.183
-676.178	-50.957	-0.137	-0.065
-675.164	517.372	0.114	-0.271
-674.149	285.542	-0.229	0.421
-673.135	1.820	0.042	0.031
-672.120	-200.000	0.029	-0.134
-671.105	251.572	0.055	-0.096
-670.091	-85.512	-0.340	0.108
-669.076	-200.000	-0.008	0.125
-668.062	14.356	-0.109	0.087
-667.047	-93.607	0.105	-0.029
-666.032	243.644	0.163	-0.279
-665.018	720.269	-0.138	-0.375
-664.003	-92.927	-0.214	-0.061
-662.989	589.100	-0.079	-0.199
-661.974	138.500	-0.035	0.047
-660.959	800.000	0.122	0.373
-659.945	-91.569	-0.217	0.063
-658.930	-115.240	-0.298	0.058
-657.916	260.424	0.149	-0.263
-656.901	96.614	0.138	-0.161
-655.886	800.000	0.050	0.218
-654.872	800.000	-0.028	-0.102
-653.857	456.662	0.125	-0.282
-652.843	-200.000	-0.036	-0.317
-651.828	49.913	-0.219	-0.210
-650.814	-33.831	-0.348	0.195
-649.799	283.376	-0.130	-0.239
-648.784	441.533	-0.119	0.266
-647.770	111.168	-0.055	-0.068
-646.755	135.030	0.086	0.113
-645.741	-112.909	-0.047	0.009
-644.726	187.135	-0.040	0.060
-643.711	27.076	-0.282	-0.241
-642.697	-200.000	0.049	0.269
-641.682	-200.000	-0.033	-0.380
-640.668	-129.657	-0.098	-0.014
-639.653	-200.000	0.018	0.115
-638.638	800.000	-0.028	0.099
-637.624	89.978	0.097	-0.111
-636.609	800.000	-0.016	-0.054
-635.595	-100.152	0.060	0.015
-634.580	-185.137	0.302	0.005
-633.565	235.905	-0.145	0.245
-632.551	800.000	0.017	0.068
-631.536	-179.577	0.073	0.002
-630.522	-118.585	0.090	0.016
-629.507	-200.000	0.011	-0.105
-628.492	23.335	-0.126	0.105
-627.478	800.000	-0.101	0.286
-626.463	800.000	-0.050	-0.170
-625.449	-108.514	0.102	-0.022
-624.434	-51.807	0.254	-0.120
-623.419	28.032	0.095	-0.082
-622.405	158.528	-0.163	0.230
-621.390	-109.391	0.124	-0.027
-620.376	-130.946	0.080	-0.011
-619.361	325.277	-0.116	-0.225
-618.346	43.100	0.181	-0.168
-617.332	7.464	-0.104	-0.079
-616.317	-10.810	-0.101	-0.068
-615.303	268.321	0.174	0.310
-614.288	-200.000	-0.011	0.271
-613.273	-49.380	0.275	0.133
-612.259	-47.106	0.265	-0.131
-611.244	-4.102	0.229	0.161
-610.230	33.178	-0.125	-0.110
-609.215	-138.783	-0.252	-0.028
-608.201	-93.898	-0.131	0.037
-607.186	-200.000	-0.088	-0.434
-606.171	139.082	-0.228	-0.305
-605.157	-101.655	0.141	0.035
-604.142	101.065	-0.314	-0.371
-603.128	-96.758	-0.196	-0.052
-602.113	-132.677	-0.354	0.046
-601.098	229.360	0.036	-0.059
-600.084	-200.000	0.021	-0.238
-599.069	-123.177	-0.176	0.029
-598.055	-56.307	-0.257	-0.116
-597.040	-200.000	0.015	0.355
-596.025	800.000	-0.054	0.172
-595.011	-200.000	0.009	0.244
-593.996	308.744	0.019	-0.036
-592.982	52.818	-0.106	-0.103
-591.967	800.000	-0.033	-0.111
-590.952	6.387	-0.109	-0.082
-589.938	32.896	0.230	0.202
-588.923	-104.994	0.208	0.048
-587.909	-200.000	-0.046	0.236
-586.894	-200.000	-0.024	0.195
-585.879	-41.230	-0.267	-0.140
-584.865	800.000	-0.030	0.115
-583.850	-51.124	0.218	0.104
-582.836	-114.946	0.294	0.057
-581.821	695.755	-0.109	-0.291
-580.806	-200.000	-0.029	-0.184
-579.792	-200.000	-0.020	-0.182
-578.777	-68.040	0.145	0.057
-577.763	-50.103	-0.119	-0.057
-576.748	303.766	-0.105	-0.197
-575.733	-200.000	-0.051	0.244
-574.719	-148.757	-0.177	-0.015
-573.704	18.212	0.237	0.192
-572.690	327.158	-0.020	-0.039
-571.675	-66.204	-0.187	-0.076
-570.661	-200.000	0.027	0.135
-569.646	541.970	0.078	0.189
-568.631	-149.805	-0.280	0.022
-567.617	-149.678	-0.248	0.020
-566.602	-112.037	0.204	0.042
-565.588	-72.396	-0.232	-0.087
-564.573	800.000	0.047	-0.137
-563.558	-136.986	0.407	0.047
-562.544	800.000	-0.056	0.181
-561.529	-200.000	-0.038	0.293
-560.515	-96.454	-0.260	-0.070
-559.500	-65.341	0.224	-0.091
-558.485	727.056	-0.044	-0.119
-557.471	337.338	-0.120	0.237
-556.456	-79.542	-0.213	-0.073
-555.442	800.000	-0.052	-0.153
-554.427	51.351	-0.139	-0.134
-553.412	-18.064	-0.013	-0.008
-552.398	800.000	0.012	-0.052
-551.383	10.774	-0.241	-0.186
-550.369	66.566	0.166	-0.171
-549.354	-200.000	0.047	0.224
-548.339	68.113	0.272	0.282
-547.325	-132.066	-0.176	-0.023
-546.310	27.789	-0.054	-0.046
-545.296	800.000	0.053	-0.157
-544.281	-154.047	0.261	-0.018
-543.266	62.714	-0.120	0.122
-542.252	554.548	-0.071	-0.174
-541.237	-26.467	-0.040	-0.024
-540.223	800.000	0.042	-0.169
-539.208	-14.110	0.133	0.087
-538.193	-200.000	0.025	0.536
-537.179	-76.448	-0.249	-0.089
-536.164	-140.051	0.335	0.036
-535.150	21.122	0.113	-0.093
-534.135	-76.423	-0.167	0.059
-533.121	-64.600	-0.104	0.043
-532.106	-6.259	0.262	-0.181
-531.091	-83.857	0.164	0.053
-530.077	154.247	-0.025	0.034
-529.062	-65.996	0.286	-0.116
-528.048	-116.926	0.252	-0.047
-527.033	13.239	0.038	0.030
-526.018	165.400	-0.226	-0.323
-525.004	-83.293	-0.324	-0.106
-523.989	-109.056	-0.307	-0.066
-522.975	800.000	0.047	-0.172
-521.960	244.999	-0.080	0.137
-520.945	157.785	0.218	0.306
-519.931	22.854	0.236	0.196
-518.916	-182.574	0.038	-0.001
-517.902	159.729	-0.226	0.318
-516.887	800.000	0.088	0.309
-515.872	4.578	0.090	-0.067
-514.858	-34.815	0.156	0.086
-513.843	62.324	-0.422	0.427
-512.829	-181.349	0.189	0.004
-511.814	116.717	0.303	0.377
-510.799	541.539	-0.171	-0.413
-509.785	29.093	-0.094	-0.081
-508.770	87.903	-0.023	0.026
-507.756	800.000	-0.092	0.288
-506.741	486.472	-0.100	-0.231
-505.726	-22.894	-0.141	0.086
-504.712	-41.138	0.114	-0.059
-503.697	209.367	0.157	0.249
-502.683	-200.000	0.030	0.236
-501.668	49.573	-0.328	-0.313
-500.653	258.132	-0.080	0.139
-499.639	-126.653	0.378	-0.057
-498.624	-117.533	0.186	-0.034
-497.610	-56.449	0.213	-0.096
-496.595	-200.000	0.032	-0.154
-495.581	800.000	0.052	-0.150
-494.566	49.298	0.281	0.267
-493.551	363.471	0.178	0.363
-492.537	-132.479	-0.175	0.023
-491.522	123.084	0.149	-0.189
-490.508	35.465	-0.054	0.048
-489.493	69.516	0.084	0.087
-488.478	-190.280	-0.116	-0.001
-487.464	-35.413	-0.259	0.143
-486.449	-200.000	0.004	0.080
-485.435	-46.920	0.263	-0.130
-484.420	741.694	-0.065	0.176
-483.405	-16.102	-0.092	0.059
-482.391	800.000	-0.084	-0.323
-481.376	-152.864	-0.195	-0.014
-480.362	800.000	-0.100	-0.331
-479.347	28.169	-0.239	-0.204
-478.332	89.910	-0.224	-0.253
-477.318	-100.523	0.125	-0.031
-476.303	10.359	0.222	-0.171
-475.289	35.571	0.079	0.070
-474.274	232.851	-0.203	0.337
-473.259	307.628	0.034	0.065
-472.245	800.000	0.027	-0.097
-471.230	74.163	0.203	-0.215
-470.216	156.552	0.094	-0.131
-469.201	-143.395	0.265	0.026
-468.186	-200.000	-0.011	-0.309
-467.172	-104.636	-0.268	-0.062
-466.157	-12.118	0.131	0.086
-465.143	67.077	-0.150	-0.155
-464.128	-200.000	0.000	-0.179
-463.113	27.368	0.156	-0.132
-462.099	-200.000	-0.022	-0.149
-461.084	-60.617	-0.284	0.122
-460.070	-13.996	-0.218	-0.142
-459.055	39.263	0.041	0.037
-458.040	-200.000	0.024	0.287
-457.026	-139.797	0.214	-0.023
-456.011	53.283	-0.251	0.243
-454.997	319.160	0.121	0.231
-453.982	-93.558	-0.317	-0.089
-452.968	89.614	-0.242	0.272
-451.953	221.187	0.030	-0.048
-450.938	163.820	-0.246	0.349
-449.924	108.994	-0.232	0.280
-448.909	201.445	-0.204	-0.317
-447.895	-137.283	-0.163	-0.019
-446.880	-61.721	0.210	-0.089
-445.865	52.154	0.205	0.198
-444.851	-56.820	-0.155	0.069
-443.836	108.750	0.084	0.101
-442.822	-123.256	-0.129	-0.021
-441.807	800.000	0.061	-0.174
-440.792	66.122	0.260	0.267
-439.778	-30.044	-0.277	0.159
-438.763	-52.854	0.290	-0.135
-437.749	-11.911	0.083	-0.055
-436.734	800.000	0.096	-0.282
-435.719	-162.239	-0.096	-0.005
-434.705	264.724	-0.073	-0.128
-433.690	-200.000	-0.005	0.124
-432.676	-29.338	-0.102	0.059
-431.661	24.534	0.165	0.138
-430.646	393.085	0.035	0.073
-429.632	800.000	0.045	0.174
-428.617	-16.377	0.051	-0.033
-427.603	554.995	0.014	-0.034
-426.588	209.829	0.123	-0.195
-425.573	800.000	-0.061	-0.210
-424.559	-30.276	-0.074	-0.042
-423.544	190.806	0.235	0.356
-422.530	368.108	0.092	0.187
-421.515	-200.000	-0.061	0.312
-420.500	134.732	-0.036	0.048
-419.486	492.270	0.040	0.093
-418.471	252.602	0.053	0.091
-417.457	-200.000	0.048	0.292
-416.442	126.027	-0.250	-0.319
-415.428	-200.000	-0.006	0.236
-414.413	425.911	0.124	0.269
-413.398	-200.000	-0.016	0.274
-412.384	-27.296	-0.161	0.094
-411.369	343.594	0.097	-0.191
-410.355	96.641	-0.077	-0.089
-409.340	784.586	-0.122	0.338
-408.325	93.576	-0.050	0.057
-407.311	-59.921	-0.312	0.135
-406.296	-200.000	-0.038	0.170
-405.282	800.000	-0.084	-0.278
-404.267	595.068	-0.106	-0.265
-403.252	98.167	-0.069	0.081
-402.238	-72.621	0.185	0.069
-401.223	45.613	0.089	-0.083
-400.209	-79.856	-0.249	0.084
-399.194	23.799	0.184	0.153
-398.179	-58.529	-0.212	-0.093
-397.165	-200.000	-0.017	-0.155
-396.150	252.727	0.109	0.187
-395.136	-65.919	0.152	0.061
-394.121	503.414	-0.017	-0.040
-393.106	383.070	-0.127	-0.263
-392.092	-64.023	-0.156	-0.064
-391.077	13.073	0.250	-0.195
-390.063	-55.115	0.400	0.182
-389.048	-200.000	-0.030	0.296
-388.033	58.120	-0.182	-0.180
-387.019	-114.811	0.129	-0.025
-386.004	-155.146	0.485	-0.032
-384.990	-118.920	0.134	-0.024
-383.975	164.647	0.094	-0.133
-382.960	-134.331	-0.111	0.014
-381.946	-124.800	0.293	0.046
-380.931	-80.425	-0.065	0.022
-379.917	-166.507	0.366	0.015
-378.902	-88.491	-0.151	-0.045
-377.888	-84.503	0.396	-0.126
-376.873	264.630	0.107	0.188
-375.858	120.396	0.106	0.132
-374.844	800.000	0.028	0.083
-373.829	-200.000	0.009	-0.122
-372.815	136.655	0.172	-0.226
-371.800	-200.000	-0.027	-0.251
-370.785	-70.231	-0.057	-0.022
-369.771	-38.344	-0.188	0.100
-368.756	-141.655	-0.042	-0.004
-367.742	331.119	-0.056	-0.109
-366.727	119.528	-0.218	-0.272
-365.712	133.768	-0.047	0.061
-364.698	800.000	0.137	0.477
-363.683	-145.525	0.120	0.011
-362.669	-45.012	-0.427	-0.214
-361.654	-74.421	-0.356	-0.129
-360.639	800.000	0.047	0.146
-359.625	278.289	-0.106	0.190
-358.610	-165.266	-0.075	0.003
-357.596	-200.000	0.025	-0.117
-356.581	-129.271	0.056	-0.008
-355.566	42.778	0.070	-0.064
-354.552	-42.237	0.281	0.144
-353.537	-92.692	-0.251	-0.071
-352.523	49.456	0.054	-0.051
-351.508	-200.000	0.005	0.071
-350.493	800.000	-0.048	-0.161
-349.479	-48.647	0.135	-0.065
-348.464	-200.000	0.022	-0.254
-347.450	173.284	-0.177	-0.257
-346.435	-181.425	0.329	-0.006
-345.420	-87.256	-0.153	0.047
-344.406	800.000	0.060	-0.198
-343.391	-86.362	-0.102	-0.031
-342.377	-153.422	0.137	-0.010
-341.362	-85.924	0.249	-0.077
-340.348	8.039	-0.302	0.228
-339.333	-47.476	0.217	0.106
-338.318	298.607	-0.088	0.163
-337.304	-19.982	0.110	0.068
-336.289	-171.386	-0.083	-0.003
-335.275	106.171	0.018	0.021
-334.260	-105.159	0.361	-0.083
-333.245	800.000	-0.051	0.168
-332.231	422.254	-0.137	-0.296
-331.216	-129.275	-0.050	-0.007
-330.202	12.448	-0.306	0.237
-329.187	-165.827	-0.347	-0.015
-328.172	283.003	0.073	-0.132
-327.158	-81.473	0.372	0.123
-326.143	-145.436	0.138	0.013
-325.129	-142.881	0.344	-0.034
-324.114	203.628	0.095	0.147
-323.099	-200.000	0.024	-0.283
-322.085	-200.000	-0.032	-0.169
-321.070	168.951	-0.155	-0.222
-320.056	-93.640	-0.287	0.080
-319.041	438.460	-0.215	-0.471
-318.026	-200.000	-0.005	0.213
-317.012	48.258	-0.133	-0.125
-315.997	-146.054	0.177	-0.016
-314.983	-200.000	0.027	-0.144
-313.968	-165.940	0.292	-0.013
-312.953	-15.849	-0.242	0.155
-311.939	644.458	0.159	-0.407
-310.924	-200.000	-0.038	0.187
-309.910	-17.172	0.141	-0.090
-308.895	-2.645	0.310	-0.218
-307.880	78.556	0.055	0.059
-306.866	800.000	-0.027	0.079
-305.851	-151.308	-0.182	-0.014
-304.837	-58.207	-0.414	0.181
-303.822	798.599	0.036	0.099
-302.807	90.340	0.173	-0.194
-301.793	-200.000	-0.144	0.000
-300.778	102.490	-0.173	-0.203
-299.764	271.678	-0.214	-0.378
-298.749	-200.000	0.013	-0.140
-297.735	-47.350	-0.215	-0.105
-296.720	63.854	0.156	0.157
-295.705	-1.508	0.066	0.047
-294.691	-42.591	0.417	0.213
-293.676	53.268	0.282	-0.271
-292.662	-24.277	0.150	-0.090
-291.647	11.613	-0.132	-0.102
-290.632	-124.850	-0.109	-0.017
-289.618	-42.430	-0.146	0.075
-288.603	331.035	0.044	-0.085
-287.589	-200.000	0.020	-0.106
-286.574	800.000	0.050	-0.138
-285.559	217.750	0.160	0.255
-284.545	-104.317	0.149	-0.035
-283.530	28.723	0.094	-0.080
-282.516	-84.169	0.328	-0.105
-281.501	324.180	-0.176	0.338
-280.486	65.904	-0.213	0.217
-279.472	800.000	-0.076	0.328
-278.457	154.800	-0.071	-0.098
-277.443	800.000	0.050	0.202
-276.428	55.218	-0.161	-0.157
-275.413	-56.063	0.124	-0.055
-274.399	626.010	0.216	0.546
-273.384	-111.971	0.138	0.028
-272.370	-200.000	-0.012	0.239
-271.355	9.663	-0.110	-0.084
-270.340	45.821	-0.305	0.283
-269.326	-72.289	-0.053	0.020
-268.311	-63.407	-0.363	-0.150
-267.297	113.271	0.141	0.172
-266.282	-33.625	-0.020	-0.011
-265.267	-99.262	0.175	0.044
-264.253	-200.000	0.015	0.310
-263.238	-29.266	-0.332	-0.190
-262.224	-200.000	-0.026	0.257
-261.209	80.735	-0.206	-0.223
-260.195	-84.161	-0.153	-0.049
-259.180	89.237	-0.022	0.024
-258.165	-141.774	0.168	0.017
-257.151	800.000	0.015	-0.067
-256.136	252.828	0.151	-0.258
-255.122	800.000	0.061	-0.222
-254.107	-200.000	-0.003	-0.255
-253.092	93.115	-0.070	-0.079
-252.078	646.380	0.105	-0.268
-251.063	195.761	0.113	0.172
-250.049	-200.000	0.100	-0.493
-249.034	279.680	0.228	-0.408
-248.019	409.452	0.068	0.145
-247.005	800.000	0.079	-0.237
-245.990	800.000	-0.056	0.210
-244.976	-101.166	0.121	0.030
-243.961	-52.583	-0.131	-0.061
-242.946	-200.000	0.024	0.210
-241.932	511.718	0.036	0.084
-240.917	44.809	0.130	-0.120
-239.903	-131.032	0.377	0.050
-238.888	-101.676	-0.191	0.046
-237.873	621.439	-0.029	0.072
-236.859	9.873	0.174	-0.132
-235.844	800.000	0.059	0.233
-234.830	-89.485	0.133	-0.039
-233.815	-200.000	0.045	0.367
-232.800	637.645	-0.048	-0.121
-231.786	337.713	-0.234	-0.456
-230.771	180.267	0.175	0.257
-229.757	100.685	0.128	0.148
-228.742	-127.676	-0.126	-0.018
-227.727	235.774	0.194	0.321
-226.713	398.069	0.086	-0.180
-225.698	-163.272	-0.086	0.004
-224.684	505.519	-0.159	0.369
-223.669	-70.049	0.137	-0.052
-222.655	6.436	-0.350	0.260
-221.640	-9.687	0.246	0.164
-220.625	800.000	0.074	-0.250
-219.611	303.429	0.063	-0.117
-218.596	-1.369	0.362	-0.256
-217.582	469.465	-0.078	0.175
-216.567	14.165	0.084	0.066
-215.552	-116.335	-0.176	0.033
-214.538	264.419	0.100	-0.175
-213.523	-36.577	-0.133	-0.071
-212.509	-88.319	-0.225	-0.067
-211.494	-153.965	-0.045	0.003
-210.479	234.889	0.139	0.229
-209.465	265.770	0.134	-0.233
-208.450	-116.328	0.114	-0.021
-207.436	193.861	0.127	0.193
-206.421	17.523	0.157	-0.125
-205.406	-34.913	-0.059	0.032
-204.392	-45.697	0.191	-0.095
-203.377	-118.561	-0.083	0.015
-202.363	77.483	0.084	-0.090
-201.348	175.305	-0.105	0.153
-200.333	800.000	0.016	-0.045
-199.319	-124.259	-0.205	0.032
-198.304	4.432	-0.054	0.040
-197.290	-162.902	0.039	0.002
-196.275	800.000	-0.081	0.274
-195.260	-176.346	-0.142	0.004
-194.246	391.512	0.115	0.238
-193.231	515.556	0.098	0.229
-192.217	-200.000	0.031	0.396
-191.202	199.999	-0.100	0.154
-190.187	279.922	0.112	0.200
-189.173	98.483	-0.110	-0.127
-188.158	529.479	0.091	0.214
-187.144	36.206	0.033	-0.029
-186.129	76.622	0.123	-0.130
-185.114	-104.119	-0.105	-0.024
-184.100	3.650	0.194	-0.142
-183.085	377.495	-0.123	-0.251
-182.071	-22.214	0.136	-0.082
-181.056	-200.000	-0.011	-0.141
-180.042	800.000	0.029	-0.125
-179.027	21.044	-0.161	0.130
-178.012	800.000	0.064	-0.212
-176.998	-26.863	-0.244	0.143
-175.983	-30.417	0.121	0.068
-174.969	354.043	-0.171	-0.340
-173.954	-200.000	-0.003	0.085
-172.939	69.735	0.099	-0.102
-171.925	-82.624	-0.175	-0.057
-170.910	16.713	0.225	-0.178
-169.896	800.000	0.106	-0.324
-168.881	0.760	-0.113	-0.081
-167.866	-16.888	-0.356	-0.225
-166.852	145.183	-0.050	-0.066
-165.837	-148.007	-0.223	-0.019
-164.823	275.299	-0.120	-0.213
-163.808	71.455	-0.314	0.325
-162.793	97.566	-0.097	0.111
-161.779	559.746	-0.065	-0.157
-160.764	-200.000	-0.006	0.164
-159.750	-41.394	-0.204	-0.105
-158.735	-119.024	-0.094	0.016
-157.720	800.000	0.005	-0.019
-156.706	-111.406	0.289	-0.059
-155.691	-11.123	-0.049	-0.032
-154.677	181.127	-0.127	0.187
-153.662	207.374	0.150	-0.233
-152.647	378.565	-0.046	0.094
-151.633	-117.807	0.371	-0.067
-150.618	-51.263	0.436	0.204
-149.604	95.351	0.228	0.259
-148.589	-200.000	0.011	-0.214
-147.574	-68.307	0.365	-0.142
-146.560	-200.000	-0.003	-0.174
-145.545	32.071	0.109	0.094
-144.531	-200.000	0.011	0.079
-143.516	-66.106	-0.533	-0.212
-142.502	224.607	0.153	0.247
-141.487	-68.969	0.232	-0.089
-140.472	291.226	-0.037	-0.068
-139.458	-114.851	-0.130	0.025
-138.443	-200.000	-0.019	0.091
-137.429	-67.024	0.291	0.115
-136.414	-166.354	-0.553	-0.023
-135.399	34.450	0.172	-0.150
-134.385	65.867	0.191	-0.194
-133.370	-65.883	0.258	0.103
-132.356	-76.783	0.110	0.038
-131.341	800.000	0.014	0.040
-130.326	576.302	-0.114	0.277
-129.312	-104.175	-0.251	0.058
-128.297	198.000	0.168	-0.255
-127.283	-52.232	0.123	0.057
-126.268	131.902	-0.105	0.135
-125.253	333.375	-0.058	0.111
-124.239	-53.483	-0.184	0.084
-123.224	-200.000	0.016	0.166
-122.210	-200.000	-0.001	0.198
-121.195	128.595	-0.152	-0.193
