DTS Sentinel unit serial number:	SN413079Multiplexer serial number:	ORYXHardware model number:	OX4-SRSoftware version number:	ORYX F/W v4.00 Oryx Data Collector v3.7.2.0data status	okinstallation	princeton_trtdifferential loss correction	single-endedforward channel	channel 4reverse channel	N/Adate	2019/09/15time	07:25:34forward acquisition time	60.00reverse acquisition time	0.00gamma	496.2192k internal	0.2310k external	0.2310temperature offset calibration	1.0030default loss term (dB/km)	0.3790temperature slope calibration	1.0000multiplexer offset coefficient	1.0000multiplexer slope coefficient	1.0000fibre end	0.00T internal ref (°C)	30.58T ext. ref 1 (°C)	4.86T ext. ref 2 (°C)	25.75length (m)	temperature (°C)	Stokes	anti-Stokes-747.200	134.625	0.168	0.222
-746.185	-91.466	0.174	0.051
-745.171	-19.998	0.152	-0.095
-744.156	-11.830	-0.310	0.206
-743.142	-75.261	0.049	-0.018
-742.127	800.000	-0.036	0.112
-741.112	-200.000	-0.008	0.064
-740.098	-3.222	-0.082	-0.058
-739.083	800.000	-0.108	-0.345
-738.069	23.372	-0.166	-0.139
-737.054	35.580	-0.251	-0.224
-736.039	32.588	-0.094	-0.083
-735.025	-197.735	0.481	-0.003
-734.010	-200.000	0.016	0.196
-732.996	20.640	-0.201	0.165
-731.981	-56.600	0.383	0.172
-730.966	-144.239	-0.199	-0.019
-729.952	34.720	-0.170	0.150
-728.937	9.069	-0.258	0.198
-727.923	231.346	0.054	-0.089
-726.908	-66.986	0.095	-0.038
-725.894	450.511	0.115	0.259
-724.879	34.613	0.357	-0.316
-723.864	692.756	0.079	0.210
-722.850	59.488	-0.315	0.315
-721.835	-53.185	0.110	-0.051
-720.821	68.901	-0.107	-0.112
-719.806	-69.427	-0.085	0.033
-718.791	-200.000	0.044	-0.517
-717.777	377.955	-0.131	-0.271
-716.762	361.688	0.173	-0.352
-715.748	-73.897	0.300	0.111
-714.733	-9.764	0.127	0.086
-713.718	-200.000	0.046	-0.270
-712.704	328.930	-0.074	-0.144
-711.689	127.644	-0.008	-0.010
-710.675	83.910	0.172	-0.190
-709.660	-100.931	0.145	0.036
-708.645	-23.626	-0.239	0.145
-707.631	73.645	0.076	0.080
-706.616	-145.190	0.360	-0.033
-705.602	-16.700	0.081	-0.052
-704.587	-200.000	-0.023	0.309
-703.572	-200.000	-0.025	-0.191
-702.558	800.000	-0.046	-0.156
-701.543	-200.000	0.003	0.035
-700.529	800.000	0.021	-0.075
-699.514	88.745	-0.149	-0.168
-698.499	138.521	0.065	-0.087
-697.485	167.033	-0.067	-0.096
-696.470	-59.082	-0.407	-0.178
-695.456	-200.000	-0.026	-0.271
-694.441	-3.916	-0.084	-0.059
-693.426	-29.864	-0.170	-0.098
-692.412	41.139	-0.193	0.177
-691.397	-77.756	-0.301	-0.106
-690.383	800.000	-0.051	0.216
-689.368	-200.000	-0.016	0.131
-688.354	58.952	0.250	-0.249
-687.339	-66.199	-0.040	-0.016
-686.324	-104.487	-0.180	0.042
-685.310	64.427	-0.038	-0.038
-684.295	800.000	0.047	-0.186
-683.281	-200.000	0.004	0.080
-682.266	322.732	0.024	-0.047
-681.251	800.000	0.139	0.517
-680.237	198.977	-0.139	0.216
-679.222	287.454	-0.070	-0.128
-678.208	150.954	0.157	-0.216
-677.193	326.443	-0.114	-0.222
-676.178	-33.464	-0.226	-0.127
-675.164	69.656	-0.113	0.118
-674.149	-22.339	0.028	0.017
-673.135	800.000	0.046	0.200
-672.120	-83.593	0.473	-0.153
-671.105	-122.045	0.116	0.019
-670.091	-47.121	-0.320	-0.158
-669.076	-200.000	0.008	0.325
-668.062	-200.000	0.057	-0.297
-667.047	93.248	-0.124	0.142
-666.032	-81.925	0.275	0.091
-665.018	457.288	0.064	-0.145
-664.003	27.232	-0.166	-0.141
-662.989	75.049	-0.163	-0.174
-661.974	-59.305	0.408	-0.178
-660.959	-165.689	-0.444	-0.019
-659.945	800.000	-0.019	0.079
-658.930	-75.179	0.025	0.009
-657.916	-105.255	-0.171	-0.039
-656.901	227.459	0.187	-0.308
-655.886	86.052	0.129	-0.143
-654.872	800.000	-0.060	0.219
-653.857	-89.590	-0.077	-0.023
-652.843	-93.770	0.049	0.014
-651.828	800.000	-0.030	-0.110
-650.814	-28.760	0.011	0.007
-649.799	412.031	0.051	-0.111
-648.784	-49.177	-0.028	0.013
-647.770	775.921	-0.045	0.124
-646.755	30.081	-0.163	-0.141
-645.741	-166.203	0.284	0.012
-644.726	-200.000	0.027	-0.136
-643.711	-200.000	0.028	0.189
-642.697	-138.104	0.152	0.017
-641.682	45.897	-0.213	0.200
-640.668	-4.959	-0.130	0.091
-639.653	-82.287	0.260	-0.086
-638.638	179.119	-0.123	0.182
-637.624	-97.624	-0.294	0.077
-636.609	-39.582	-0.309	-0.163
-635.595	-33.467	0.186	-0.104
-634.580	-83.390	-0.254	0.082
-633.565	-104.600	0.111	-0.026
-632.551	800.000	0.029	0.084
-631.536	-104.851	0.223	-0.052
-630.522	371.402	-0.132	-0.270
-629.507	-200.000	0.026	-0.265
-628.492	87.104	-0.223	-0.249
-627.478	-70.500	-0.179	-0.068
-626.463	-176.576	0.115	-0.003
-625.449	146.981	-0.212	-0.288
-624.434	-200.000	-0.001	0.027
-623.419	308.648	-0.023	-0.043
-622.405	-200.000	0.008	0.090
-621.390	-74.366	0.053	-0.019
-620.376	170.868	0.185	-0.267
-619.361	-200.000	0.004	0.050
-618.346	471.892	-0.113	-0.257
-617.332	587.664	-0.065	0.161
-616.317	448.589	-0.065	0.145
-615.303	-5.807	0.121	-0.084
-614.288	-145.515	0.314	-0.028
-613.273	-22.524	-0.284	-0.173
-612.259	-93.702	0.048	0.013
-611.244	414.082	-0.174	0.375
-610.230	140.269	0.155	-0.206
-609.215	139.500	0.037	-0.050
-608.201	-200.000	-0.045	0.224
-607.186	448.610	-0.041	-0.092
-606.171	-31.979	0.064	0.036
-605.157	800.000	-0.020	0.082
-604.142	800.000	-0.040	0.115
-603.128	203.437	0.092	0.144
-602.113	-106.065	0.367	-0.083
-601.098	-127.042	-0.236	-0.035
-600.084	800.000	0.076	0.312
-599.069	-130.505	0.231	-0.032
-598.055	800.000	0.020	-0.074
-597.040	-180.949	-0.109	0.002
-596.025	800.000	0.076	-0.278
-595.011	800.000	-0.111	-0.335
-593.996	752.551	0.027	-0.073
-592.982	-200.000	-0.029	-0.180
-591.967	-143.221	-0.197	0.019
-590.952	-131.598	-0.306	0.041
-589.938	-136.271	-0.113	0.013
-588.923	-10.662	-0.196	0.131
-587.909	-176.712	-0.143	0.004
-586.894	-18.564	0.081	-0.051
-585.879	-97.575	-0.254	0.067
-584.865	-22.443	-0.054	-0.033
-583.850	-62.974	-0.170	0.071
-582.836	800.000	-0.090	0.321
-581.821	-200.000	-0.007	0.109
-580.806	-134.175	0.365	-0.045
-579.792	-200.000	-0.010	-0.296
-578.777	-120.048	-0.136	-0.024
-577.763	196.969	0.118	-0.181
-576.748	-200.000	-0.044	-0.278
-575.733	-159.437	-0.258	-0.015
-574.719	72.775	0.131	0.138
-573.704	-200.000	0.005	0.034
-572.690	109.236	-0.141	0.170
-571.675	-2.610	-0.100	-0.071
-570.661	60.151	-0.195	0.194
-569.646	50.336	0.164	-0.156
-568.631	-10.381	-0.042	-0.028
-567.617	-67.902	-0.197	-0.078
-566.602	96.766	-0.175	-0.202
-565.588	-164.058	0.127	-0.006
-564.573	247.000	0.129	-0.220
-563.558	-200.000	-0.026	-0.145
-562.544	437.585	0.024	0.054
-561.529	198.611	0.193	-0.298
-560.515	800.000	-0.144	-0.426
-559.500	189.736	-0.072	-0.108
-558.485	148.430	0.095	0.130
-557.471	133.230	0.264	0.344
-556.456	14.525	0.240	-0.189
-555.442	-134.589	0.164	0.020
-554.427	-99.478	0.355	0.090
-553.412	800.000	-0.036	0.111
-552.398	-13.557	0.267	-0.174
-551.383	-200.000	0.025	-0.142
-550.369	-99.616	-0.347	0.088
-549.354	800.000	0.072	-0.253
-548.339	49.382	-0.429	-0.407
-547.325	462.119	-0.068	-0.152
-546.310	-200.000	0.045	-0.221
-545.296	75.468	-0.117	-0.125
-544.281	-124.716	0.430	0.067
-543.266	-15.852	0.256	0.164
-542.252	-200.000	0.068	-0.313
-541.237	292.007	-0.106	0.195
-540.223	-170.122	-0.195	-0.007
-539.208	800.000	-0.064	-0.233
-538.193	-200.000	-0.008	-0.070
-537.179	2.722	-0.187	0.137
-536.164	-29.487	0.239	0.138
-535.150	191.726	0.156	-0.236
-534.135	-188.522	-0.449	0.006
-533.121	-36.751	0.258	-0.140
-532.106	-200.000	-0.007	0.248
-531.091	-2.846	0.054	-0.038
-530.077	-112.240	-0.342	0.069
-529.062	-28.778	0.231	-0.134
-528.048	-44.130	-0.333	0.169
-527.033	-200.000	-0.017	-0.177
-526.018	-200.000	-0.019	-0.199
-525.004	124.522	0.192	0.244
-523.989	170.605	0.216	0.311
-522.975	-99.980	0.256	-0.064
-521.960	146.660	0.118	0.160
-520.945	558.054	-0.078	-0.190
-519.931	-115.412	0.051	0.010
-518.916	-71.059	-0.289	0.109
-517.902	98.120	0.125	-0.145
-516.887	102.013	0.268	0.315
-515.872	126.415	-0.149	0.190
-514.858	497.479	0.083	0.192
-513.843	208.337	0.172	0.271
-512.829	-170.585	0.292	0.010
-511.814	180.000	-0.140	0.206
-510.799	-200.000	0.032	0.151
-509.785	-103.062	-0.153	0.036
-508.770	657.025	-0.075	0.193
-507.756	317.856	0.039	0.075
-506.741	-113.409	-0.192	0.038
-505.726	-43.332	-0.427	-0.217
-504.712	18.017	-0.149	0.119
-503.697	-200.000	-0.032	0.194
-502.683	-127.513	0.339	-0.050
-501.668	157.107	0.197	0.274
-500.653	130.341	-0.311	0.400
-499.639	256.238	-0.112	0.193
-498.624	-165.182	0.257	-0.011
-497.610	-62.195	0.119	0.050
-496.595	20.782	-0.162	-0.132
-495.581	-108.154	0.077	-0.017
-494.566	-49.645	-0.195	-0.093
-493.551	-48.841	0.318	0.154
-492.537	-87.189	-0.237	0.072
-491.522	-106.950	0.372	0.083
-490.508	139.288	-0.138	0.182
-489.493	152.368	0.179	0.246
-488.478	87.660	-0.038	0.042
-487.464	-200.000	-0.007	-0.304
-486.449	800.000	-0.078	0.328
-485.435	-200.000	0.063	-0.343
-484.420	273.973	0.043	0.076
-483.405	165.443	-0.064	0.091
-482.391	800.000	0.074	0.235
-481.376	9.154	-0.102	0.077
-480.362	-3.079	0.445	-0.312
-479.347	232.700	0.032	-0.052
-478.332	18.283	-0.352	-0.282
-477.318	-16.521	0.369	-0.235
-476.303	-70.684	0.111	-0.042
-475.289	-24.973	-0.326	0.194
-474.274	-36.710	-0.348	0.188
-473.259	-106.865	0.221	-0.049
-472.245	251.778	0.166	0.284
-471.230	-39.513	-0.285	0.150
-470.216	462.405	-0.094	-0.211
-469.201	-200.000	0.057	0.379
-468.186	800.000	-0.069	0.248
-467.172	-169.358	0.261	0.010
-466.157	800.000	0.061	-0.185
-465.143	-153.667	-0.180	0.012
-464.128	-153.293	-0.120	0.008
-463.113	338.230	0.209	0.409
-462.099	230.649	0.094	-0.154
-461.084	-190.360	0.242	0.003
-460.070	-19.480	-0.112	0.070
-459.055	227.868	-0.020	0.032
-458.040	-200.000	0.018	-0.080
-457.026	-86.154	0.099	0.031
-456.011	44.163	-0.052	0.048
-454.997	23.311	0.053	-0.043
-453.982	733.720	-0.045	0.121
-452.968	-67.965	0.136	0.053
-451.953	357.679	0.131	0.262
-450.938	143.701	-0.120	-0.160
-449.924	-200.000	-0.011	-0.161
-448.909	-200.000	-0.033	-0.408
-447.895	-29.599	-0.106	-0.060
-446.880	25.404	-0.148	-0.124
-445.865	40.572	-0.102	0.092
-444.851	800.000	0.048	-0.190
-443.836	800.000	-0.118	0.341
-442.822	-104.984	0.322	-0.074
-441.807	800.000	-0.054	-0.203
-440.792	-27.615	-0.323	-0.188
-439.778	-81.651	0.437	-0.144
-438.763	-77.938	-0.363	-0.126
-437.749	-35.435	0.121	0.066
-436.734	-144.512	-0.305	-0.028
-435.719	-128.141	0.197	0.028
-434.705	-200.000	0.032	-0.375
-433.690	-61.685	0.147	0.062
-432.676	279.614	0.049	-0.088
-431.661	467.370	-0.099	-0.222
-430.646	-162.042	-0.194	0.010
-429.632	187.476	0.202	0.302
-428.617	-65.994	0.315	0.126
-427.603	800.000	0.125	-0.359
-426.588	452.763	0.058	-0.129
-425.573	-22.340	-0.269	0.163
-424.559	-167.906	-0.155	-0.006
-423.544	800.000	0.023	-0.070
-422.530	27.662	-0.180	-0.152
-421.515	-43.620	0.086	0.044
-420.500	-200.000	0.002	0.340
-419.486	-167.089	-0.095	-0.004
-418.471	-200.000	0.008	-0.057
-417.457	-89.205	0.286	-0.085
-416.442	-200.000	0.037	0.274
-415.428	305.115	0.095	-0.176
-414.413	-20.097	0.203	-0.125
-413.398	79.020	0.297	-0.319
-412.384	140.667	-0.048	0.064
-411.369	-131.916	0.133	-0.017
-410.355	800.000	-0.018	-0.051
-409.340	-200.000	-0.016	0.299
-408.325	-57.378	-0.051	-0.022
-407.311	79.169	-0.072	0.078
-406.296	-141.644	0.292	0.029
-405.282	800.000	-0.107	0.326
-404.267	-146.483	0.146	0.013
-403.252	54.668	0.058	0.056
-402.238	-126.982	-0.245	0.036
-401.223	800.000	0.050	0.194
-400.209	271.725	0.100	0.176
-399.194	-2.638	0.174	-0.122
-398.179	-128.970	-0.100	0.014
-397.165	15.748	-0.148	-0.117
-396.150	304.641	0.014	0.027
-395.136	-111.516	-0.229	-0.047
-394.121	-200.000	-0.012	-0.083
-393.106	1.523	-0.183	0.132
-392.092	-200.000	-0.002	0.079
-391.077	37.593	-0.076	-0.067
-390.063	-122.553	0.286	0.047
-389.048	412.514	-0.147	-0.312
-388.033	635.599	-0.065	-0.165
-387.019	-200.000	0.018	-0.085
-386.004	-200.000	-0.049	0.257
-384.990	-200.000	-0.020	0.377
-383.975	-153.713	-0.506	-0.035
-382.960	51.009	0.155	0.147
-381.946	-37.772	0.230	-0.123
-380.931	404.663	0.069	-0.145
-379.917	-83.414	-0.150	0.048
-378.902	800.000	-0.039	0.114
-377.888	-106.769	0.193	-0.043
-376.873	-121.958	0.197	0.032
-375.858	431.121	-0.087	0.189
-374.844	184.820	0.081	0.121
-373.829	179.447	0.046	0.068
-372.815	-188.431	-0.188	0.002
-371.800	3.783	-0.224	0.164
-370.785	-9.623	-0.082	-0.055
-369.771	800.000	-0.081	0.303
-368.756	-134.868	0.059	0.007
-367.742	-200.000	-0.022	-0.177
-366.727	-85.015	0.197	-0.062
-365.712	0.822	-0.318	0.228
-364.698	800.000	-0.121	-0.371
-363.683	158.214	-0.039	0.054
-362.669	101.959	0.069	0.080
-361.654	493.895	0.149	-0.343
-360.639	-63.259	-0.208	-0.086
-359.625	-154.479	0.230	-0.015
-358.610	-146.393	0.177	-0.015
-357.596	-200.000	-0.020	-0.259
-356.581	203.849	-0.104	0.162
-355.566	-121.375	0.404	0.067
-354.552	15.805	-0.154	-0.121
-353.537	-106.863	0.282	-0.063
-352.523	-72.083	0.104	-0.039
-351.508	-127.874	0.204	0.029
-350.493	191.119	0.072	0.109
-349.479	-13.112	-0.046	0.030
-348.464	-200.000	-0.010	-0.071
-347.450	-106.481	0.206	0.046
-346.435	-54.477	-0.038	0.017
-345.420	-200.000	0.021	0.370
-344.406	6.613	-0.343	0.255
-343.391	59.776	-0.120	0.118
-342.377	182.379	-0.216	-0.319
-341.362	-200.000	0.013	0.064
-340.348	144.895	-0.233	-0.311
-339.333	-124.301	-0.163	-0.026
-338.318	800.000	-0.064	-0.212
-337.304	270.514	0.022	-0.038
-336.289	-32.908	-0.040	-0.022
-335.275	-117.285	0.103	0.019
-334.260	-95.368	-0.272	-0.073
-333.245	-17.150	0.306	0.193
-332.231	-200.000	0.109	-0.000
-331.216	-200.000	0.046	0.244
-330.202	800.000	0.083	-0.243
-329.187	60.633	0.106	0.105
-328.172	-70.980	-0.061	0.023
-327.158	-200.000	-0.003	0.146
-326.143	587.671	0.100	0.246
-325.129	-200.000	0.019	-0.402
-324.114	33.138	0.284	-0.246
-323.099	-42.461	0.175	-0.089
-322.085	-3.536	-0.427	0.296
-321.070	338.569	-0.185	0.360
-320.056	-39.370	-0.099	0.052
-319.041	-168.120	-0.271	-0.011
-318.026	-67.805	0.198	0.077
-317.012	-200.000	0.009	0.246
-315.997	341.433	-0.106	-0.206
-314.983	800.000	0.075	-0.271
-313.968	-139.739	-0.212	0.023
-312.953	-21.917	0.252	0.153
-311.939	-185.004	-0.074	0.001
-310.924	-200.000	-0.026	-0.148
-309.910	545.799	0.135	-0.321
-308.895	71.271	-0.134	0.139
-307.880	130.008	0.114	0.145
-306.866	-200.000	0.016	0.158
-305.851	-151.824	0.235	-0.017
-304.837	-72.830	-0.302	-0.111
-303.822	-34.562	-0.242	0.132
-302.807	800.000	0.103	-0.300
-301.793	-200.000	0.080	0.409
-300.778	-38.722	0.019	-0.010
-299.764	-200.000	0.039	-0.193
-298.749	-200.000	-0.046	0.204
-297.735	-32.223	0.161	-0.090
-296.720	632.636	0.045	-0.114
-295.705	21.419	-0.257	0.209
-294.691	-24.586	0.193	-0.114
-293.676	-61.704	0.212	-0.089
-292.662	800.000	0.031	-0.106
-291.647	718.129	-0.100	-0.265
-290.632	-200.000	-0.027	-0.275
-289.618	165.548	-0.093	0.131
-288.603	54.749	0.029	0.028
-287.589	108.118	0.056	-0.066
-286.574	-200.000	0.054	-0.250
-285.559	189.420	0.066	0.098
-284.545	800.000	-0.056	-0.190
-283.530	-72.016	0.194	0.072
-282.516	420.876	-0.054	0.116
-281.501	271.075	-0.102	-0.180
-280.486	382.598	0.150	0.307
-279.472	116.658	0.200	0.244
-278.457	800.000	0.086	0.250
-277.443	-171.064	0.233	-0.008
-276.428	189.668	0.040	-0.059
-275.413	-200.000	-0.007	0.111
-274.399	-123.689	0.186	-0.029
-273.384	-19.699	0.120	0.074
-272.370	7.454	-0.161	-0.120
-271.355	-68.856	0.033	0.013
-270.340	-200.000	-0.000	-0.146
-269.326	-67.852	-0.212	-0.082
-268.311	-200.000	-0.008	0.296
-267.297	-56.843	-0.105	0.046
-266.282	89.243	0.066	-0.073
-265.267	-167.377	-0.315	-0.013
-264.253	17.647	-0.238	-0.188
-263.238	-59.563	0.146	0.062
-262.224	-170.757	-0.358	0.012
-261.209	-200.000	-0.012	0.103
-260.195	218.073	0.141	-0.224
-259.180	-200.000	-0.016	0.208
-258.165	800.000	-0.038	-0.121
-257.151	181.783	-0.142	-0.209
-256.136	-32.867	-0.113	-0.062
-255.122	-141.485	0.054	0.005
-254.107	-67.958	0.160	0.062
-253.092	-163.157	0.300	0.014
-252.078	800.000	0.045	-0.128
-251.063	-108.104	0.117	-0.025
-250.049	91.507	-0.108	0.121
-249.034	71.282	-0.018	0.019
-248.019	-68.686	-0.126	-0.048
-247.005	-89.449	0.124	0.036
-245.990	23.813	0.048	-0.039
-244.976	107.052	-0.064	0.076
-243.961	-200.000	0.212	-0.001
-242.946	800.000	-0.083	-0.257
-241.932	-200.000	-0.399	-0.002
-240.917	-200.000	0.017	-0.239
-239.903	125.080	-0.248	-0.311
-238.888	-100.773	0.127	0.031
-237.873	-163.750	-0.273	-0.013
-236.859	-200.000	0.020	0.371
-235.844	-39.615	-0.326	-0.170
-234.830	-31.196	0.139	-0.078
-233.815	-182.956	0.050	0.001
-232.800	-200.000	0.048	0.247
-231.786	284.532	-0.142	-0.255
-230.771	-104.430	0.343	0.079
-229.757	-200.000	-0.008	0.070
-228.742	-11.495	-0.180	-0.118
-227.727	800.000	0.081	-0.335
-226.713	-132.370	0.599	0.077
-225.698	178.861	0.130	0.189
-224.684	-16.403	-0.219	0.138
-223.669	-28.261	0.274	0.157
-222.655	17.392	0.018	-0.014
-221.640	-81.907	0.227	-0.074
-220.625	248.418	0.142	0.239
-219.611	-200.000	0.003	0.141
-218.596	-11.430	-0.132	-0.086
-217.582	-157.723	-0.055	0.003
-216.567	269.956	-0.232	-0.405
-215.552	-181.897	-0.281	0.005
-214.538	136.271	-0.164	0.212
-213.523	78.820	0.148	-0.157
-212.509	77.209	-0.102	-0.108
-211.494	656.374	-0.095	-0.243
-210.479	-146.544	-0.142	-0.012
-209.465	-200.000	-0.002	0.225
-208.450	262.325	0.169	0.291
-207.436	157.844	0.084	-0.116
-206.421	-71.102	-0.079	0.030
-205.406	-200.000	0.062	0.344
-204.392	277.705	0.083	0.146
-203.377	191.806	-0.049	-0.074
-202.363	-200.000	-0.003	0.099
-201.348	4.115	-0.030	0.022
-200.333	121.163	0.091	0.113
-199.319	258.442	-0.020	-0.034
-198.304	-200.000	-0.000	-0.125
-197.290	240.049	-0.160	-0.264
-196.275	-47.398	-0.265	0.128
-195.260	-132.667	0.298	0.038
-194.246	800.000	-0.018	0.067
-193.231	-200.000	-0.002	0.226
-192.217	-12.640	-0.288	-0.187
-191.202	-171.424	0.197	-0.007
-190.187	800.000	0.105	0.351
-189.173	-109.166	-0.336	-0.071
-188.158	290.668	0.192	-0.347
-187.144	-160.038	-0.238	-0.013
-186.129	-200.000	0.003	0.211
-185.114	141.427	0.181	-0.237
-184.100	-28.072	0.212	-0.122
-183.085	19.632	-0.068	-0.054
-182.071	283.207	0.067	0.120
-181.056	-26.996	0.324	0.188
-180.042	-200.000	-0.028	-0.322
-179.027	-136.737	0.127	-0.015
-178.012	-200.000	0.026	-0.143
-176.998	80.578	-0.127	0.136
-175.983	800.000	-0.013	0.045
-174.969	14.132	-0.186	-0.144
-173.954	235.164	-0.081	-0.132
-172.939	-68.364	-0.103	0.040
-171.925	-116.360	-0.246	0.045
-170.910	39.248	0.164	0.146
-169.896	22.512	0.083	0.067
-168.881	-93.455	-0.155	0.043
-167.866	-70.563	-0.296	-0.111
-166.852	-142.692	0.353	-0.034
-165.837	179.541	0.085	0.124
-164.823	300.392	-0.162	0.296
-163.808	53.899	0.010	-0.009
-162.793	-200.000	0.034	0.209
-161.779	-90.731	0.058	0.017
-160.764	21.839	0.052	-0.042
-159.750	800.000	-0.046	-0.152
-158.735	270.771	0.108	0.188
-157.720	-13.303	-0.116	0.075
-156.706	-107.031	0.274	-0.060
-155.691	174.286	-0.076	0.110
-154.677	-139.476	-0.198	0.021
-153.662	-135.064	0.177	0.021
-152.647	144.189	0.087	-0.116
-151.633	-23.169	-0.107	0.064
-150.618	-83.457	0.330	-0.105
-149.604	-200.000	0.005	0.183
-148.589	125.640	0.093	-0.116
-147.574	239.171	-0.109	0.179
-146.560	-200.000	0.041	0.319
-145.545	-88.334	0.202	0.060
-144.531	-147.029	0.093	-0.008
-143.516	-101.913	0.252	-0.060
-142.502	-200.000	-0.011	0.155
-141.487	177.143	-0.043	-0.061
-140.472	-148.548	0.543	0.044
-139.458	800.000	-0.071	-0.277
-138.443	800.000	0.060	0.174
-137.429	-2.061	-0.251	0.175
-136.414	-8.230	0.214	-0.143
-135.399	-56.192	0.205	0.090
-134.385	-148.284	0.154	0.013
-133.370	-54.784	0.346	0.155
-132.356	-109.323	0.326	-0.068
-131.341	-18.680	0.178	-0.110
-130.326	-92.480	0.203	0.056
-129.312	57.919	-0.085	0.082
-128.297	625.417	-0.047	0.118
-127.283	354.030	-0.042	0.083
-126.268	-8.721	0.038	-0.025
-125.253	800.000	0.099	0.366
-124.239	800.000	-0.043	0.172
-123.224	212.768	-0.074	0.116
-122.210	-111.614	-0.138	-0.028
