DTS Sentinel unit serial number:	SN413079Multiplexer serial number:	ORYXHardware model number:	OX4-SRSoftware version number:	ORYX F/W v4.00 Oryx Data Collector v3.7.2.0data status	okinstallation	princeton_trtdifferential loss correction	single-endedforward channel	channel 4reverse channel	N/Adate	2019/09/15time	05:33:35forward acquisition time	60.00reverse acquisition time	0.00gamma	496.2192k internal	0.2311k external	0.2311temperature offset calibration	1.0034default loss term (dB/km)	0.3790temperature slope calibration	1.0000multiplexer offset coefficient	1.0000multiplexer slope coefficient	1.0000fibre end	0.00T internal ref (°C)	30.56T ext. ref 1 (°C)	4.75T ext. ref 2 (°C)	25.74length (m)	temperature (°C)	Stokes	anti-Stokes-747.200	800.000	0.070	-0.258
-746.185	-94.212	0.180	-0.050
-745.171	183.109	0.248	0.371
-744.156	-200.000	-0.079	0.416
-743.142	-200.000	-0.038	0.265
-742.127	192.169	0.025	-0.039
-741.112	201.049	0.094	-0.146
-740.098	800.000	0.060	-0.236
-739.083	350.792	0.106	-0.212
-738.069	-200.000	-0.078	0.522
-737.054	-127.219	-0.303	-0.045
-736.039	697.920	0.035	0.095
-735.025	-200.000	0.028	-0.127
-734.010	-179.311	0.255	-0.006
-732.996	-200.000	-0.012	0.405
-731.981	2.311	-0.175	0.129
-730.966	-108.401	-0.312	-0.068
-729.952	-138.237	-0.237	0.027
-728.937	59.653	0.311	0.311
-727.923	37.528	-0.131	0.118
-726.908	135.805	0.166	-0.219
-725.894	37.814	-0.454	0.409
-724.879	-106.139	-0.036	0.008
-723.864	128.359	0.122	-0.157
-722.850	-19.133	0.272	0.172
-721.835	-112.111	0.218	-0.044
-720.821	-200.000	-0.006	0.184
-719.806	17.599	-0.191	-0.154
-718.791	5.938	-0.133	-0.100
-717.777	20.201	0.129	0.106
-716.762	-200.000	-0.014	0.126
-715.748	-200.000	-0.010	-0.218
-714.733	-200.000	0.011	-0.326
-713.718	27.560	-0.034	0.029
-712.704	-22.444	0.146	-0.089
-711.689	60.794	-0.099	0.099
-710.675	-71.180	-0.252	-0.096
-709.660	-200.000	0.007	0.034
-708.645	61.539	0.189	0.190
-707.631	35.491	-0.223	-0.199
-706.616	800.000	-0.043	-0.138
-705.602	625.799	-0.117	-0.299
-704.587	134.776	0.166	0.219
-703.572	-139.549	-0.237	0.026
-702.558	74.334	0.093	0.099
-701.543	32.136	0.114	0.100
-700.529	-200.000	0.026	-0.187
-699.514	-200.000	0.004	-0.167
-698.499	800.000	-0.086	-0.332
-697.485	800.000	-0.034	-0.113
-696.470	618.294	-0.121	0.308
-695.456	47.560	0.242	0.229
-694.441	-7.542	-0.199	0.136
-693.426	-66.477	-0.177	0.071
-692.412	-60.074	0.241	0.104
-691.397	-200.000	-0.005	0.054
-690.383	723.364	0.003	0.007
-689.368	-82.419	0.296	-0.097
-688.354	-125.657	-0.222	0.034
-687.339	19.403	0.226	0.184
-686.324	167.848	-0.174	0.250
-685.310	-92.365	-0.223	0.063
-684.295	-192.185	0.047	0.000
-683.281	-75.542	-0.080	-0.029
-682.266	-200.000	0.004	0.143
-681.251	-200.000	-0.065	-0.435
-680.237	233.163	-0.130	0.217
-679.222	-84.000	-0.163	-0.052
-678.208	427.377	0.101	-0.222
-677.193	-3.867	-0.281	-0.197
-676.178	-6.739	-0.185	-0.128
-675.164	0.506	-0.189	-0.137
-674.149	178.622	0.076	0.112
-673.135	470.191	-0.107	0.243
-672.120	-66.925	-0.001	-0.001
-671.105	67.333	0.192	-0.198
-670.091	-82.392	-0.366	-0.120
-669.076	691.734	-0.110	-0.292
-668.062	29.126	-0.102	-0.087
-667.047	-52.939	-0.194	0.090
-666.032	-200.000	-0.206	-0.001
-665.018	-124.524	-0.038	-0.006
-664.003	-200.000	0.005	0.064
-662.989	-66.587	-0.197	0.079
-661.974	-2.897	0.128	-0.091
-660.959	-200.000	-0.036	-0.305
-659.945	800.000	-0.093	0.270
-658.930	-43.845	0.218	-0.111
-657.916	-72.582	-0.445	0.166
-656.901	-111.492	0.288	0.059
-655.886	300.242	0.091	-0.170
-654.872	-200.000	-0.007	-0.048
-653.857	13.670	-0.196	0.154
-652.843	-200.000	0.065	-0.330
-651.828	-29.872	-0.311	0.180
-650.814	-84.830	0.273	0.087
-649.799	222.685	0.094	0.154
-648.784	-128.712	-0.494	0.070
-647.770	384.033	-0.065	-0.135
-646.755	407.322	-0.182	0.390
-645.741	-101.720	0.011	-0.003
-644.726	-200.000	-0.022	-0.299
-643.711	-200.000	0.008	0.177
-642.697	-200.000	0.006	0.055
-641.682	18.029	-0.322	-0.260
-640.668	-200.000	-0.001	-0.054
-639.653	-200.000	0.024	0.346
-638.638	-58.295	0.086	-0.038
-637.624	1.728	-0.217	0.158
-636.609	638.023	0.065	-0.167
-635.595	83.699	0.118	-0.130
-634.580	800.000	-0.143	0.414
-633.565	-107.392	-0.431	0.096
-632.551	258.861	-0.148	-0.259
-631.536	80.604	-0.165	-0.179
-630.522	-200.000	0.009	0.219
-629.507	-109.558	-0.220	0.047
-628.492	138.628	0.046	-0.062
-627.478	620.331	-0.076	0.193
-626.463	800.000	-0.030	0.116
-625.449	-80.875	-0.192	0.064
-624.434	-36.814	0.221	0.120
-623.419	66.474	0.218	0.224
-622.405	461.554	0.051	-0.115
-621.390	-59.179	0.163	0.071
-620.376	-177.868	0.047	-0.001
-619.361	-34.398	-0.435	0.241
-618.346	-41.913	-0.061	-0.032
-617.332	-16.695	0.148	0.095
-616.317	-42.617	0.094	-0.048
-615.303	55.714	0.247	-0.242
-614.288	752.162	-0.006	0.018
-613.273	23.913	-0.111	0.092
-612.259	-111.260	0.342	0.071
-611.244	278.125	-0.046	-0.083
-610.230	-200.000	-0.024	-0.131
-609.215	42.233	0.059	0.055
-608.201	210.589	-0.094	0.149
-607.186	-39.589	-0.161	0.085
-606.171	383.333	0.129	0.269
-605.157	-78.470	0.241	0.083
-604.142	-148.597	0.245	0.020
-603.128	-5.376	-0.110	0.076
-602.113	-30.010	0.214	0.123
-601.098	-200.000	-0.047	-0.315
-600.084	128.803	-0.116	0.150
-599.069	-76.255	-0.087	0.031
-598.055	-200.000	0.005	-0.194
-597.040	-69.110	0.077	-0.030
-596.025	53.931	-0.109	-0.106
-595.011	-200.000	-0.008	0.102
-593.996	74.920	0.134	0.143
-592.982	800.000	-0.040	-0.159
-591.967	-200.000	-0.029	-0.266
-590.952	-200.000	-0.000	-0.258
-589.938	-71.732	-0.167	-0.063
-588.923	357.193	0.104	-0.209
-587.909	20.702	-0.284	0.232
-586.894	-141.336	0.111	0.011
-585.879	220.261	-0.108	0.175
-584.865	191.103	0.083	-0.126
-583.850	-200.000	0.029	-0.374
-582.836	-60.694	-0.023	-0.010
-581.821	800.000	0.057	-0.211
-580.806	-200.000	-0.027	0.173
-579.792	-200.000	-0.028	-0.199
-578.777	-200.000	-0.017	0.083
-577.763	-79.058	-0.121	0.041
-576.748	-120.996	0.414	0.070
-575.733	-26.729	-0.196	-0.116
-574.719	12.285	0.246	0.191
-573.704	-200.000	0.005	0.092
-572.690	-24.431	-0.095	0.057
-571.675	653.559	-0.147	-0.381
-570.661	402.302	-0.066	-0.140
-569.646	36.243	-0.163	0.145
-568.631	-89.221	-0.358	0.107
-567.617	-111.569	0.020	-0.004
-566.602	296.157	0.054	0.099
-565.588	-101.139	0.277	0.068
-564.573	17.924	0.198	0.159
-563.558	53.697	-0.230	-0.223
-562.544	766.110	0.072	-0.196
-561.529	798.342	0.086	0.238
-560.515	-200.000	0.022	0.272
-559.500	-45.424	0.178	0.089
-558.485	-78.488	0.218	0.075
-557.471	-166.093	0.124	-0.005
-556.456	563.141	0.145	-0.353
-555.442	307.558	-0.072	-0.135
-554.427	-126.753	-0.419	0.062
-553.412	-37.640	0.045	0.024
-552.398	-78.486	-0.228	-0.079
-551.383	-200.000	-0.007	-0.042
-550.369	-44.712	0.294	-0.148
-549.354	-141.963	0.228	0.023
-548.339	138.647	-0.278	-0.367
-547.325	65.071	0.316	0.322
-546.310	-114.478	-0.193	0.037
-545.296	-200.000	-0.009	-0.096
-544.281	191.845	-0.100	0.153
-543.266	-52.792	-0.158	0.073
-542.252	111.047	0.301	-0.365
-541.237	-10.888	-0.159	-0.105
-540.223	-46.895	-0.132	0.065
-539.208	-29.927	0.131	0.075
-538.193	27.586	-0.081	-0.069
-537.179	-73.711	-0.289	0.106
-536.164	-200.000	-0.035	-0.269
-535.150	44.337	-0.095	0.088
-534.135	69.290	0.347	0.359
-533.121	34.226	0.190	-0.167
-532.106	-130.598	-0.043	0.006
-531.091	-24.584	-0.366	0.219
-530.077	800.000	0.038	0.126
-529.062	-107.441	0.459	-0.101
-528.048	-31.216	-0.069	-0.039
-527.033	800.000	-0.053	0.215
-526.018	-143.033	0.155	-0.015
-525.004	18.003	-0.275	0.220
-523.989	800.000	0.082	0.313
-522.975	191.656	-0.065	0.099
-521.960	-112.847	0.368	-0.073
-520.945	15.878	0.227	-0.180
-519.931	-90.929	0.254	-0.074
-518.916	800.000	-0.049	0.191
-517.902	-200.000	0.007	-0.203
-516.887	12.288	-0.124	0.096
-515.872	-81.762	0.246	-0.081
-514.858	-129.929	-0.341	0.047
-513.843	-186.135	-0.182	0.003
-512.829	-85.469	-0.254	0.080
-511.814	16.512	0.149	-0.118
-510.799	141.648	-0.050	-0.067
-509.785	-63.283	0.296	0.123
-508.770	-78.661	-0.461	-0.158
-507.756	146.952	0.101	0.136
-506.741	-85.426	0.187	0.059
-505.726	325.022	0.177	-0.340
-504.712	-39.824	-0.172	0.090
-503.697	-66.573	-0.357	-0.142
-502.683	-123.814	0.209	-0.033
-501.668	-78.716	-0.091	0.031
-500.653	-118.301	0.159	-0.028
-499.639	190.525	-0.178	-0.269
-498.624	800.000	-0.018	-0.068
-497.610	-200.000	0.036	0.307
-496.595	129.810	-0.076	-0.097
-495.581	800.000	0.087	0.260
-494.566	-183.938	0.173	-0.003
-493.551	-8.322	0.071	0.048
-492.537	-200.000	0.012	-0.129
-491.522	-5.992	-0.221	-0.152
-490.508	554.591	0.062	0.149
-489.493	-142.640	-0.181	-0.018
-488.478	198.645	-0.083	-0.128
-487.464	58.219	-0.029	-0.028
-486.449	-41.525	0.264	0.137
-485.435	-15.942	0.278	0.178
-484.420	454.014	-0.045	-0.100
-483.405	-150.271	-0.069	0.005
-482.391	304.154	-0.131	0.244
-481.376	-95.427	0.359	-0.097
-480.362	-68.721	0.177	0.069
-479.347	-174.560	-0.118	-0.003
-478.332	-143.328	-0.261	0.025
-477.318	15.336	0.174	-0.137
-476.303	193.944	0.172	0.261
-475.289	156.483	-0.178	-0.247
-474.274	-40.225	0.247	0.129
-473.259	-142.075	-0.301	-0.030
-472.245	654.410	0.074	-0.192
-471.230	-77.317	-0.202	-0.071
-470.216	121.835	-0.094	0.118
-469.201	243.992	0.112	0.189
-468.186	59.477	0.118	0.117
-467.172	-46.721	0.156	-0.076
-466.157	-16.668	-0.175	0.111
-465.143	145.449	-0.033	-0.044
-464.128	-140.555	-0.234	-0.024
-463.113	-159.491	0.132	-0.007
-462.099	3.446	-0.178	-0.130
-461.084	267.667	0.148	0.259
-460.070	41.123	0.223	0.203
-459.055	363.010	0.068	-0.137
-458.040	347.871	0.054	-0.106
-457.026	-200.000	-0.001	-0.303
-456.011	-138.060	0.286	-0.032
-454.997	-200.000	-0.010	0.118
-453.982	172.237	0.065	0.093
-452.968	72.817	-0.121	-0.127
-451.953	148.752	-0.158	-0.214
-450.938	210.949	0.015	-0.023
-449.924	167.448	-0.034	-0.048
-448.909	51.725	-0.267	0.255
-447.895	-2.654	-0.215	0.151
-446.880	15.524	-0.292	0.230
-445.865	-98.329	-0.255	-0.066
-444.851	79.241	0.313	0.336
-443.836	-200.000	0.027	-0.277
-442.822	-134.805	0.088	0.011
-441.807	14.327	0.013	-0.010
-440.792	459.726	0.048	0.107
-439.778	42.621	-0.164	-0.150
-438.763	1.785	0.122	-0.088
-437.749	800.000	-0.052	0.200
-436.734	40.277	-0.217	-0.196
-435.719	-9.530	0.233	0.156
-434.705	-200.000	0.028	-0.192
-433.690	-200.000	0.014	-0.102
-432.676	44.422	-0.101	-0.093
-431.661	-200.000	0.074	0.437
-430.646	461.267	-0.010	0.023
-429.632	-200.000	-0.007	0.249
-428.617	30.159	-0.179	0.154
-427.603	93.806	-0.052	-0.059
-426.588	113.991	0.155	-0.189
-425.573	-200.000	-0.001	-0.018
-424.559	-69.005	-0.215	0.083
-423.544	-159.239	0.353	0.020
-422.530	-200.000	0.021	-0.369
-421.515	536.494	0.117	0.278
-420.500	-200.000	0.005	0.073
-419.486	7.902	-0.179	0.135
-418.471	125.332	0.180	0.228
-417.457	-183.689	-0.101	-0.002
-416.442	176.123	0.142	0.206
-415.428	-120.548	-0.414	-0.070
-414.413	-132.251	0.692	-0.090
-413.398	-2.844	0.142	-0.099
-412.384	-95.683	-0.336	0.090
-411.369	612.169	0.132	-0.331
-410.355	49.892	0.267	-0.253
-409.340	-87.987	-0.197	-0.059
-408.325	126.056	-0.162	-0.205
-407.311	136.553	0.125	-0.163
-406.296	800.000	0.042	-0.153
-405.282	800.000	-0.127	0.460
-404.267	-114.316	-0.206	0.040
-403.252	76.346	0.057	-0.060
-402.238	-130.573	-0.345	-0.047
-401.223	-200.000	0.007	0.279
-400.209	-20.946	-0.059	-0.036
-399.194	-115.916	0.222	0.042
-398.179	685.034	-0.108	-0.282
-397.165	-65.308	0.181	-0.073
-396.150	-200.000	-0.041	-0.452
-395.136	8.370	-0.063	0.047
-394.121	263.826	-0.153	0.267
-393.106	-91.315	0.100	0.029
-392.092	68.412	0.073	0.075
-391.077	-78.265	0.420	0.145
-390.063	17.361	-0.224	0.178
-389.048	-108.882	-0.151	-0.032
-388.033	-132.529	0.615	-0.079
-387.019	-59.324	-0.160	-0.069
-386.004	0.039	-0.115	0.082
-384.990	-200.000	0.074	0.381
-383.975	659.127	-0.082	0.212
-382.960	-200.000	-0.020	-0.119
-381.946	-200.000	0.025	0.160
-380.931	331.783	-0.098	-0.190
-379.917	-135.441	0.199	-0.024
-378.902	-200.000	-0.033	0.211
-377.888	199.858	0.075	-0.115
-376.873	800.000	-0.103	-0.324
-375.858	-28.439	-0.257	0.148
-374.844	-91.940	-0.093	0.026
-373.829	-22.635	0.090	0.055
-372.815	-200.000	0.085	-0.415
-371.800	-22.143	0.170	-0.103
-370.785	800.000	0.058	-0.192
-369.771	-111.643	0.101	0.020
-368.756	-60.383	0.068	0.029
-367.742	-163.917	0.239	0.011
-366.727	105.379	0.172	0.204
-365.712	800.000	-0.042	0.167
-364.698	-63.343	0.251	-0.103
-363.683	177.202	-0.189	-0.275
-362.669	51.743	-0.193	-0.183
-361.654	-56.687	0.219	0.097
-360.639	-81.848	-0.302	0.099
-359.625	-131.186	0.326	0.043
-358.610	-200.000	0.002	0.173
-357.596	-65.494	0.332	-0.133
-356.581	109.961	0.247	-0.297
-355.566	21.621	-0.311	-0.253
-354.552	656.495	0.127	0.326
-353.537	51.317	0.155	0.147
-352.523	-200.000	0.060	-0.429
-351.508	-200.000	0.108	-0.475
-350.493	490.385	-0.228	0.522
-349.479	800.000	-0.088	-0.253
-348.464	800.000	0.090	-0.281
-347.450	-200.000	0.008	0.127
-346.435	719.880	0.079	0.211
-345.420	49.580	-0.218	0.206
-344.406	141.666	-0.048	0.063
-343.391	76.390	-0.209	-0.222
-342.377	81.756	0.209	-0.226
-341.362	711.215	-0.071	0.188
-340.348	-85.415	0.143	-0.044
-339.333	800.000	0.084	0.355
-338.318	105.228	-0.214	-0.252
-337.304	96.718	0.114	-0.130
-336.289	-200.000	0.043	0.231
-335.275	-84.995	-0.308	-0.096
-334.260	86.132	0.076	-0.084
-333.245	20.247	-0.250	0.201
-332.231	-125.353	-0.127	0.019
-331.216	-108.959	-0.270	-0.058
-330.202	-200.000	-0.018	0.222
-329.187	-57.196	-0.347	0.152
-328.172	-200.000	-0.019	-0.124
-327.158	193.232	-0.069	-0.104
-326.143	-71.899	-0.085	0.032
-325.129	-35.737	0.095	-0.051
-324.114	-104.673	-0.264	0.061
-323.099	200.210	0.100	0.153
-322.085	-200.000	-0.006	-0.098
-321.070	800.000	-0.050	0.215
-320.056	-19.794	-0.090	0.056
-319.041	110.779	0.193	-0.232
-318.026	-200.000	0.044	0.419
-317.012	-57.924	-0.079	0.034
-315.997	352.625	0.146	0.289
-314.983	-132.007	0.252	0.033
-313.968	-78.914	-0.221	-0.075
-312.953	-15.589	0.052	0.033
-311.939	-200.000	0.021	-0.209
-310.924	-10.477	-0.160	0.106
-309.910	-89.586	-0.305	-0.089
-308.895	-143.484	-0.453	-0.043
-307.880	800.000	-0.050	0.141
-306.866	115.771	0.052	0.063
-305.851	659.113	-0.055	-0.142
-304.837	-98.745	0.184	-0.047
-303.822	143.897	-0.117	0.156
-302.807	-118.181	-0.220	0.039
-301.793	-38.072	-0.165	0.087
-300.778	-200.000	0.003	0.071
-299.764	94.067	0.054	0.061
-298.749	-111.865	0.041	0.008
-297.735	-4.353	0.141	-0.097
-296.720	800.000	0.043	-0.142
-295.705	43.327	-0.225	-0.205
-294.691	-200.000	0.007	-0.121
-293.676	-200.000	0.009	0.132
-292.662	92.461	0.310	0.349
-291.647	-2.267	0.101	-0.071
-290.632	-62.007	-0.308	0.129
-289.618	-51.375	0.145	-0.068
-288.603	669.352	-0.088	0.227
-287.589	-94.456	0.248	-0.067
-286.574	657.302	0.044	-0.114
-285.559	-163.017	0.150	-0.007
-284.545	72.771	0.166	-0.173
-283.530	105.202	0.157	0.185
-282.516	39.043	-0.199	-0.177
-281.501	800.000	-0.130	-0.412
-280.486	800.000	0.034	0.127
-279.472	-200.000	0.003	0.115
-278.457	-30.816	-0.173	0.097
-277.443	70.406	0.144	-0.148
-276.428	-48.170	-0.232	0.111
-275.413	81.468	0.097	0.105
-274.399	-103.441	0.173	0.041
-273.384	8.505	-0.106	0.080
-272.370	-200.000	-0.031	-0.224
-271.355	-200.000	-0.053	-0.246
-270.340	530.659	0.029	0.068
-269.326	-172.548	0.185	0.006
-268.311	800.000	-0.039	-0.130
-267.297	-21.428	-0.379	-0.230
-266.282	-100.913	-0.161	0.039
-265.267	12.902	0.301	0.232
-264.253	157.105	-0.189	0.261
-263.238	125.013	0.038	-0.048
-262.224	121.782	0.101	-0.126
-261.209	134.830	-0.301	-0.389
-260.195	-143.729	0.322	0.030
-259.180	-200.000	0.004	0.055
-258.165	502.132	-0.038	0.087
-257.151	555.468	0.182	-0.437
-256.136	-200.000	0.009	0.097
-255.122	-2.557	-0.086	0.060
-254.107	-43.576	-0.187	0.094
-253.092	-40.077	0.417	-0.216
-252.078	237.248	0.188	0.310
-251.063	-127.614	0.290	-0.042
-250.049	-126.415	-0.100	-0.015
-249.034	380.890	0.080	-0.163
-248.019	-54.491	-0.229	0.103
-247.005	-105.832	-0.084	-0.019
-245.990	303.826	-0.023	-0.042
-244.976	226.691	-0.143	0.232
-243.961	-118.274	0.444	-0.079
-242.946	16.487	-0.146	-0.115
-241.932	456.195	-0.056	-0.123
-240.917	205.493	0.195	0.302
-239.903	-200.000	-0.026	-0.163
-238.888	-75.503	-0.150	-0.053
-237.873	-71.231	0.310	0.116
-236.859	91.240	0.344	-0.385
-235.844	-79.826	-0.080	0.027
-234.830	28.394	0.111	-0.093
-233.815	-5.109	0.121	-0.083
-232.800	339.421	0.041	-0.080
-231.786	529.282	0.051	-0.120
-230.771	-60.568	0.212	0.089
-229.757	-96.042	-0.119	-0.031
-228.742	-114.950	-0.006	-0.001
-227.727	-123.553	0.134	-0.021
-226.713	389.613	0.040	0.083
-225.698	17.228	-0.221	0.174
-224.684	-200.000	-0.005	-0.034
-223.669	61.535	0.174	-0.172
-222.655	-79.477	0.251	0.085
-221.640	-83.225	-0.267	-0.085
-220.625	-200.000	0.000	0.190
-219.611	-200.000	0.006	0.100
-218.596	-200.000	-0.002	-0.159
-217.582	-200.000	-0.002	-0.142
-216.567	142.523	0.105	-0.138
-215.552	60.420	-0.272	0.268
-214.538	-70.767	-0.338	0.127
-213.523	-200.000	-0.078	-0.427
-212.509	82.091	0.119	-0.128
-211.494	-200.000	-0.014	-0.107
-210.479	8.794	0.217	-0.163
-209.465	-65.212	-0.098	-0.039
-208.450	-95.248	-0.163	-0.044
-207.436	201.361	0.189	0.290
-206.421	45.441	-0.178	-0.163
-205.406	-200.000	0.003	-0.032
-204.392	-39.162	0.272	-0.142
-203.377	350.280	-0.129	-0.254
-202.363	253.422	-0.081	0.138
-201.348	256.613	0.081	-0.138
-200.333	30.382	-0.191	-0.162
-199.319	161.229	0.069	-0.096
-198.304	-76.842	-0.185	-0.064
-197.290	-33.369	-0.221	0.122
-196.275	-106.709	0.215	0.047
-195.260	800.000	0.076	-0.274
-194.246	800.000	-0.080	-0.223
-193.231	-119.911	-0.261	-0.045
-192.217	524.469	-0.110	0.256
-191.202	800.000	-0.026	-0.088
-190.187	-16.036	0.097	0.062
-189.173	-29.057	0.241	0.138
-188.158	134.395	0.164	-0.211
-187.144	-200.000	-0.050	0.248
-186.129	137.778	0.156	0.203
-185.114	-39.243	-0.114	0.060
-184.100	-139.236	0.336	-0.036
-183.085	800.000	-0.087	-0.300
-182.071	-53.416	0.203	0.092
-181.056	-85.246	0.094	0.029
-180.042	50.342	-0.337	-0.317
-179.027	-105.034	0.145	0.033
-178.012	-141.785	-0.394	0.039
-176.998	800.000	0.078	0.325
-175.983	-143.018	-0.257	-0.025
-174.969	800.000	0.044	-0.174
-173.954	-85.743	-0.259	-0.080
-172.939	-30.183	0.111	0.062
-171.925	149.653	-0.205	0.276
-170.910	-200.000	0.004	-0.252
-169.896	231.140	0.109	-0.178
-168.881	-200.000	0.035	0.225
-167.866	-200.000	0.018	-0.108
-166.852	-161.823	0.217	-0.011
-165.837	-200.000	-0.004	0.147
-164.823	-85.272	0.208	-0.064
-163.808	-40.602	0.072	0.037
-162.793	-120.918	0.331	0.055
-161.779	263.719	0.149	0.256
-160.764	409.278	-0.049	-0.102
-159.750	460.460	0.069	0.152
-158.735	-200.000	-0.016	0.298
-157.720	-43.216	-0.123	0.062
-156.706	272.839	-0.033	0.057
-155.691	313.355	0.082	0.152
-154.677	800.000	-0.081	0.343
-153.662	-200.000	-0.016	-0.155
-152.647	319.184	0.044	-0.083
-151.633	-200.000	0.034	-0.360
-150.618	-200.000	-0.010	0.230
-149.604	4.734	0.167	0.121
-148.589	-68.534	-0.078	-0.030
-147.574	-200.000	0.013	-0.317
-146.560	-200.000	0.001	-0.018
-145.545	-200.000	0.039	-0.221
-144.531	-200.000	0.009	0.057
-143.516	8.862	-0.109	-0.082
-142.502	301.892	0.096	0.176
-141.487	299.027	0.093	-0.170
-140.472	-102.032	0.212	-0.051
-139.458	789.099	-0.083	0.227
-138.443	-115.764	0.063	-0.012
-137.429	548.042	-0.051	-0.122
-136.414	-200.000	0.001	-0.107
-135.399	645.061	0.124	0.313
-134.385	172.997	-0.097	-0.138
-133.370	216.639	0.142	0.224
-132.356	53.662	0.309	-0.294
-131.341	-155.949	0.167	-0.010
-130.326	-109.695	-0.384	0.080
-129.312	229.330	-0.052	-0.084
-128.297	129.614	-0.248	0.314
-127.283	479.092	0.281	-0.630
-126.268	-46.431	-0.154	-0.075
-125.253	493.096	0.061	-0.139
-124.239	174.586	-0.132	-0.189
-123.224	-49.611	-0.241	0.113
-122.210	-6.289	0.103	0.070
-121.195	-200.000	0.029	-0.152
