DTS Sentinel unit serial number:	SN413079Multiplexer serial number:	ORYXHardware model number:	OX4-SRSoftware version number:	ORYX F/W v4.00 Oryx Data Collector v3.7.2.0data status	okinstallation	princeton_trtdifferential loss correction	single-endedforward channel	channel 4reverse channel	N/Adate	2019/09/13time	00:13:35forward acquisition time	60.00reverse acquisition time	0.00gamma	496.2192k internal	0.2317k external	0.2317temperature offset calibration	1.0174default loss term (dB/km)	0.3790temperature slope calibration	1.0000multiplexer offset coefficient	1.0000multiplexer slope coefficient	1.0000fibre end	0.00T internal ref (°C)	28.55T ext. ref 1 (°C)	3.77T ext. ref 2 (°C)	23.18length (m)	temperature (°C)	Stokes	anti-Stokes-747.200	800.000	-0.083	-0.240
-746.185	-35.011	-0.404	0.223
-745.171	800.000	0.019	-0.072
-744.156	-84.199	-0.254	-0.082
-743.142	-200.000	-0.019	-0.197
-742.127	-200.000	0.017	0.099
-741.112	-53.759	0.092	0.042
-740.098	800.000	0.105	0.319
-739.083	2.711	0.159	0.116
-738.069	-200.000	-0.110	0.512
-737.054	-200.000	0.057	-0.269
-736.039	-72.970	-0.610	-0.227
-735.025	274.988	0.177	-0.317
-734.010	800.000	0.073	-0.266
-732.996	-200.000	0.034	-0.245
-731.981	-99.057	0.220	-0.056
-730.966	-200.000	-0.006	-0.183
-729.952	-107.460	-0.160	-0.035
-728.937	167.196	-0.158	-0.226
-727.923	800.000	-0.162	-0.519
-726.908	-138.097	-0.497	-0.056
-725.894	-172.664	-0.396	0.013
-724.879	339.401	0.157	0.311
-723.864	-200.000	-0.030	-0.378
-722.850	151.595	0.051	0.071
-721.835	171.057	-0.348	-0.505
-720.821	-200.000	-0.016	-0.190
-719.806	269.262	-0.049	-0.087
-718.791	391.048	-0.112	0.236
-717.777	28.401	0.346	0.296
-716.762	170.104	0.097	-0.140
-715.748	199.800	-0.255	0.396
-714.733	-86.488	-0.232	0.072
-713.718	800.000	0.114	-0.399
-712.704	36.323	0.214	0.191
-711.689	-200.000	0.064	0.367
-710.675	41.096	-0.191	0.174
-709.660	389.009	0.136	-0.285
-708.645	-200.000	-0.058	0.330
-707.631	9.585	-0.121	0.093
-706.616	-104.777	-0.345	-0.080
-705.602	-64.283	0.204	-0.084
-704.587	140.466	-0.119	-0.159
-703.572	612.607	0.146	0.370
-702.558	176.682	0.132	-0.194
-701.543	19.130	-0.039	0.032
-700.529	307.736	-0.047	-0.089
-699.514	49.093	0.098	-0.093
-698.499	-200.000	0.064	-0.383
-697.485	800.000	-0.055	-0.217
-696.470	444.073	-0.047	-0.105
-695.456	-200.000	0.021	0.151
-694.441	88.422	0.199	0.223
-693.426	-157.515	0.049	0.003
-692.412	800.000	0.046	-0.139
-691.397	-200.000	0.022	0.200
-690.383	125.258	0.106	-0.135
-689.368	662.625	-0.128	-0.334
-688.354	63.063	-0.055	-0.056
-687.339	800.000	0.020	0.066
-686.324	389.129	0.056	-0.118
-685.310	800.000	-0.063	0.215
-684.295	363.978	0.077	0.157
-683.281	-76.969	-0.205	0.072
-682.266	-80.431	0.387	0.130
-681.251	242.751	0.091	-0.153
-680.237	32.660	0.178	0.155
-679.222	800.000	-0.044	-0.161
-678.208	800.000	0.044	0.159
-677.193	211.392	0.076	0.121
-676.178	-68.709	-0.162	-0.063
-675.164	-200.000	-0.025	-0.174
-674.149	-200.000	0.015	0.326
-673.135	459.458	0.074	0.167
-672.120	-114.632	0.457	-0.088
-671.105	-32.896	-0.208	0.117
-670.091	78.222	0.140	-0.151
-669.076	297.584	-0.206	0.383
-668.062	-148.733	-0.104	-0.009
-667.047	530.667	0.058	-0.139
-666.032	-8.855	-0.323	-0.218
-665.018	800.000	0.040	0.133
-664.003	398.963	-0.131	-0.276
-662.989	96.329	-0.088	-0.101
-661.974	-200.000	0.006	-0.145
-660.959	-161.201	-0.073	0.004
-659.945	367.517	-0.172	-0.350
-658.930	-86.868	0.186	0.057
-657.916	509.937	-0.122	-0.286
-656.901	338.112	-0.132	0.260
-655.886	-168.626	-0.272	-0.010
-654.872	159.402	0.058	0.082
-653.857	-104.281	-0.176	0.041
-652.843	145.383	0.163	-0.220
-651.828	-101.425	-0.383	-0.094
-650.814	-86.170	0.171	-0.053
-649.799	-5.617	0.230	-0.159
-648.784	800.000	0.028	0.081
-647.770	264.223	0.139	0.244
-646.755	795.064	0.060	0.165
-645.741	301.747	-0.191	-0.356
-644.726	-200.000	0.004	0.201
-643.711	-62.817	0.143	-0.060
-642.697	-200.000	-0.019	0.117
-641.682	71.331	0.215	0.225
-640.668	551.512	0.042	0.102
-639.653	-144.658	-0.195	-0.018
-638.638	164.569	-0.088	-0.126
-637.624	-200.000	-0.011	0.071
-636.609	-1.025	-0.106	0.076
-635.595	402.454	0.129	0.274
-634.580	-200.000	0.030	0.163
-633.565	-158.311	-0.387	-0.023
-632.551	510.858	0.090	-0.212
-631.536	-73.231	-0.164	-0.061
-630.522	-0.433	-0.331	-0.237
-629.507	105.345	0.207	0.246
-628.492	-91.712	-0.264	-0.076
-627.478	-20.990	-0.088	0.054
-626.463	174.462	-0.054	-0.078
-625.449	-200.000	-0.036	-0.229
-624.434	-151.134	0.274	0.021
-623.419	-200.000	-0.041	0.196
-622.405	-30.395	-0.126	-0.072
-621.390	156.304	-0.065	-0.091
-620.376	543.437	0.060	-0.143
-619.361	-120.367	-0.228	-0.039
-618.346	-200.000	-0.009	-0.172
-617.332	-144.315	-0.363	0.034
-616.317	-17.334	-0.129	-0.082
-615.303	8.838	0.233	-0.177
-614.288	-72.115	0.111	-0.041
-613.273	-30.041	-0.172	0.099
-612.259	750.486	0.064	-0.173
-611.244	367.959	-0.145	0.295
-610.230	-59.989	0.323	-0.139
-609.215	392.531	0.079	-0.165
-608.201	-182.837	-0.023	0.000
-607.186	343.107	0.167	-0.330
-606.171	-119.050	-0.231	-0.041
-605.157	102.182	0.154	-0.181
-604.142	-196.876	0.086	0.001
-603.128	800.000	-0.101	0.351
-602.113	-59.111	0.085	-0.037
-601.098	-200.000	-0.000	0.039
-600.084	-200.000	-0.012	-0.129
-599.069	800.000	-0.115	-0.505
-598.055	346.270	-0.106	-0.210
-597.040	800.000	0.051	-0.194
-596.025	18.264	0.264	-0.212
-595.011	-200.000	0.013	0.107
-593.996	-38.265	-0.168	-0.090
-592.982	-109.011	-0.270	-0.058
-591.967	489.821	-0.071	0.162
-590.952	89.760	-0.198	-0.223
-589.938	-112.679	-0.149	-0.030
-588.923	-139.987	0.059	-0.006
-587.909	-19.627	0.209	0.130
-586.894	-118.278	-0.139	-0.025
-585.879	-104.728	0.319	0.074
-584.865	800.000	0.124	0.371
-583.850	800.000	-0.042	-0.132
-582.836	-86.542	-0.234	-0.072
-581.821	-0.113	-0.258	0.184
-580.806	-200.000	-0.039	0.192
-579.792	518.634	-0.090	0.213
-578.777	-161.717	0.137	-0.007
-577.763	800.000	0.034	-0.103
-576.748	800.000	-0.042	-0.164
-575.733	-54.298	-0.214	-0.098
-574.719	-0.792	-0.373	0.266
-573.704	800.000	-0.080	-0.234
-572.690	-183.465	0.216	-0.004
-571.675	49.635	-0.182	-0.172
-570.661	-186.252	0.210	0.003
-569.646	-200.000	0.018	0.275
-568.631	-131.346	0.102	0.014
-567.617	800.000	0.040	0.150
-566.602	23.329	0.029	-0.024
-565.588	327.881	0.062	-0.120
-564.573	-34.793	-0.259	-0.142
-563.558	800.000	0.050	-0.190
-562.544	29.622	0.207	-0.177
-561.529	-200.000	-0.253	0.000
-560.515	-200.000	0.013	-0.461
-559.500	-17.109	0.133	-0.084
-558.485	-126.937	0.291	-0.043
-557.471	-127.079	-0.098	0.015
-556.456	-54.344	-0.231	-0.105
-555.442	-200.000	0.003	-0.082
-554.427	-200.000	-0.005	0.067
-553.412	-200.000	0.013	-0.063
-552.398	15.955	-0.103	0.081
-551.383	-121.574	0.187	-0.031
-550.369	28.224	-0.254	-0.216
-549.354	467.211	-0.020	0.044
-548.339	-200.000	0.008	0.148
-547.325	-65.071	0.227	0.092
-546.310	65.637	-0.198	0.202
-545.296	-200.000	0.004	-0.118
-544.281	-189.839	-0.125	0.001
-543.266	313.195	0.134	0.254
-542.252	-34.729	-0.079	0.043
-541.237	21.871	-0.051	0.042
-540.223	120.307	-0.157	0.196
-539.208	-114.324	-0.261	-0.050
-538.193	800.000	0.109	0.324
-537.179	-49.825	-0.211	-0.101
-536.164	201.602	0.040	-0.062
-535.150	800.000	0.049	-0.142
-534.135	800.000	-0.063	-0.259
-533.121	297.991	-0.124	-0.229
-532.106	247.853	0.124	-0.210
-531.091	-200.000	0.186	0.000
-530.077	70.017	0.391	0.405
-529.062	382.792	0.078	0.161
-528.048	127.861	-0.124	0.159
-527.033	526.289	0.192	-0.454
-526.018	-0.530	-0.202	0.144
-525.004	47.461	0.043	0.040
-523.989	142.889	-0.129	-0.172
-522.975	613.125	0.061	-0.153
-521.960	318.667	-0.210	0.400
-520.945	-200.000	-0.047	-0.218
-519.931	800.000	0.031	-0.109
-518.916	220.813	0.050	-0.081
-517.902	20.324	0.254	0.206
-516.887	-27.475	-0.175	-0.102
-515.872	-27.652	-0.279	0.163
-514.858	-177.785	0.406	-0.010
-513.843	232.544	0.144	0.237
-512.829	-75.516	-0.321	0.114
-511.814	-88.706	-0.127	-0.038
-510.799	-115.032	-0.138	0.026
-509.785	800.000	0.043	-0.190
-508.770	-200.000	-0.018	0.167
-507.756	-130.197	0.087	0.012
-506.741	111.771	-0.215	-0.261
-505.726	800.000	-0.104	-0.329
-504.712	124.455	0.124	0.156
-503.697	-83.470	-0.316	0.101
-502.683	12.631	-0.161	-0.125
-501.668	-70.025	-0.275	-0.105
-500.653	160.223	-0.112	0.157
-499.639	137.499	-0.331	-0.435
-498.624	-128.993	0.096	-0.014
-497.610	536.266	-0.137	0.325
-496.595	-200.000	0.023	0.242
-495.581	-170.478	0.222	-0.008
-494.566	35.235	0.128	0.113
-493.551	-200.000	-0.029	-0.257
-492.537	-111.197	-0.058	-0.012
-491.522	-120.106	-0.093	0.016
-490.508	54.324	0.289	0.279
-489.493	-153.425	-0.086	-0.006
-488.478	-79.499	0.120	-0.041
-487.464	372.193	-0.019	-0.038
-486.449	769.237	0.183	0.499
-485.435	-14.225	0.373	0.241
-484.420	97.971	0.171	-0.197
-483.405	-72.921	-0.231	-0.085
-482.391	150.132	-0.139	-0.189
-481.376	458.531	0.037	-0.083
-480.362	-8.312	-0.175	-0.118
-479.347	-200.000	0.007	0.185
-478.332	-132.285	0.214	0.028
-477.318	-56.512	-0.092	0.041
-476.303	-175.237	0.423	0.012
-475.289	-90.214	0.198	0.058
-474.274	800.000	-0.036	0.120
-473.259	495.739	0.091	0.209
-472.245	-80.757	0.104	-0.035
-471.230	-101.169	0.240	-0.059
-470.216	60.139	0.023	0.023
-469.201	-200.000	-0.096	0.448
-468.186	800.000	0.149	0.470
-467.172	-174.501	-0.370	0.011
-466.157	263.397	-0.120	0.210
-465.143	610.661	-0.113	-0.283
-464.128	-200.000	-0.012	0.136
-463.113	218.592	0.069	0.111
-462.099	800.000	0.071	0.268
-461.084	800.000	-0.045	0.189
-460.070	91.651	0.120	-0.135
-459.055	-36.047	0.136	-0.074
-458.040	64.744	-0.483	-0.488
-457.026	78.092	0.021	0.022
-456.011	-57.158	0.206	-0.091
-454.997	65.488	0.094	0.096
-453.982	-41.543	0.336	0.173
-452.968	46.108	0.329	-0.305
-451.953	183.404	-0.060	-0.089
-450.938	-83.606	0.259	-0.083
-449.924	140.809	0.042	0.055
-448.909	-200.000	-0.048	-0.270
-447.895	-200.000	0.023	-0.199
-446.880	-94.655	0.355	-0.097
-445.865	681.960	0.102	-0.267
-444.851	-96.722	0.293	-0.077
-443.836	-146.232	0.061	-0.005
-442.822	114.037	0.154	-0.187
-441.807	-29.184	-0.111	-0.064
-440.792	-88.626	-0.445	0.133
-439.778	-200.000	0.074	-0.349
-438.763	-47.407	0.303	-0.147
-437.749	112.741	-0.184	0.223
-436.734	-25.368	0.350	-0.207
-435.719	-96.438	-0.120	0.032
-434.705	800.000	0.039	-0.118
-433.690	-122.518	0.233	0.038
-432.676	-200.000	0.021	0.120
-431.661	-133.945	0.261	-0.032
-430.646	326.652	0.157	0.301
-429.632	-11.255	0.034	-0.022
-428.617	-136.100	-0.209	-0.025
-427.603	-128.513	0.377	0.054
-426.588	149.322	0.081	0.109
-425.573	343.711	0.044	0.087
-424.559	398.255	-0.108	-0.226
-423.544	20.826	-0.255	0.207
-422.530	-200.000	0.047	0.221
-421.515	721.629	0.165	-0.438
-420.500	-200.000	-0.021	-0.144
-419.486	-200.000	-0.007	0.037
-418.471	-98.054	0.121	0.031
-417.457	-155.447	-0.257	-0.017
-416.442	160.022	-0.231	-0.321
-415.428	-200.000	0.021	0.129
-414.413	800.000	0.092	0.267
-413.398	49.357	-0.265	0.249
-412.384	193.679	-0.143	-0.216
-411.369	-200.000	-0.043	0.298
-410.355	-172.642	0.266	-0.008
-409.340	-152.399	-0.035	-0.003
-408.325	800.000	-0.056	-0.157
-407.311	772.404	-0.011	0.031
-406.296	-126.377	0.176	-0.026
-405.282	315.025	0.037	0.069
-404.267	98.493	-0.264	0.304
-403.252	-94.918	0.111	-0.030
-402.238	-93.587	-0.123	0.034
-401.223	20.448	-0.018	0.014
-400.209	-66.584	0.056	0.022
-399.194	-200.000	-0.030	0.250
-398.179	-200.000	-0.028	-0.166
-397.165	175.490	-0.025	-0.037
-396.150	-200.000	0.018	-0.120
-395.136	-100.457	0.096	0.024
-394.121	-161.992	-0.272	-0.014
-393.106	-200.000	-0.068	0.533
-392.092	-200.000	-0.095	-0.450
-391.077	-200.000	0.023	-0.161
-390.063	-105.245	-0.243	-0.055
-389.048	155.714	0.022	0.031
-388.033	425.786	-0.078	0.168
-387.019	-111.553	-0.265	0.054
-386.004	-156.685	-0.270	-0.017
-384.990	800.000	-0.057	-0.159
-383.975	-64.807	-0.113	-0.046
-382.960	-200.000	-0.002	-0.278
-381.946	-200.000	0.036	0.311
-380.931	-165.618	-0.058	0.002
-379.917	295.078	0.024	-0.043
-378.902	-200.000	-0.046	-0.261
-377.888	548.702	0.047	0.113
-376.873	-37.679	-0.183	0.097
-375.858	-48.177	0.238	-0.115
-374.844	9.088	0.062	0.047
-373.829	-59.143	-0.275	-0.118
-372.815	36.214	-0.092	-0.081
-371.800	126.123	0.222	0.280
-370.785	800.000	-0.037	-0.137
-369.771	-200.000	-0.031	-0.276
-368.756	20.487	-0.087	-0.070
-367.742	188.959	-0.050	-0.075
-366.727	1.564	0.266	-0.191
-365.712	-65.572	-0.233	-0.093
-364.698	130.943	0.016	-0.020
-363.683	-51.376	0.147	-0.069
-362.669	-80.383	-0.039	0.013
-361.654	-106.824	0.268	0.059
-360.639	182.161	-0.264	0.387
-359.625	800.000	0.045	0.190
-358.610	-114.226	0.257	-0.049
-357.596	-78.048	0.315	0.108
-356.581	-63.736	-0.080	-0.033
-355.566	-60.033	-0.114	0.048
-354.552	-200.000	-0.022	0.195
-353.537	18.077	0.149	0.118
-352.523	405.550	0.085	0.179
-351.508	143.249	-0.140	0.186
-350.493	27.926	0.105	-0.089
-349.479	-170.457	-0.121	-0.004
-348.464	202.977	0.035	-0.054
-347.450	-200.000	0.029	0.144
-346.435	12.748	-0.123	-0.095
-345.420	-116.736	0.374	0.068
-344.406	160.450	-0.252	0.350
-343.391	742.735	0.075	0.201
-342.377	179.686	0.187	-0.273
-341.362	130.528	-0.130	-0.166
-340.348	216.823	-0.075	-0.119
-339.333	-75.202	0.039	-0.014
-338.318	82.537	0.336	0.364
-337.304	-161.604	-0.431	0.022
-336.289	533.041	-0.161	-0.380
-335.275	-48.298	0.188	-0.090
-334.260	201.667	-0.200	0.307
-333.245	290.560	0.105	0.191
-332.231	-200.000	-0.010	0.246
-331.216	470.850	0.118	-0.265
-330.202	-166.416	0.299	-0.012
-329.187	-200.000	0.218	-0.001
-328.172	40.820	-0.089	0.080
-327.158	-113.176	-0.118	0.023
-326.143	42.816	-0.211	-0.192
-325.129	-163.630	0.257	0.012
-324.114	549.422	-0.198	0.474
-323.099	800.000	-0.068	0.273
-322.085	-83.126	-0.162	-0.052
-321.070	-94.959	-0.300	-0.081
-320.056	-106.281	0.152	-0.034
-319.041	287.298	0.123	-0.222
-318.026	126.795	0.056	-0.071
-317.012	-50.520	0.090	0.042
-315.997	-113.394	-0.105	0.021
-314.983	-40.372	0.249	0.129
-313.968	-40.678	0.197	-0.102
-312.953	-200.000	0.027	-0.395
-311.939	-200.000	0.056	-0.273
-310.924	308.158	-0.106	-0.197
-309.910	-86.884	-0.351	-0.107
-308.895	800.000	-0.064	-0.265
-307.880	800.000	0.054	0.157
-306.866	47.913	0.249	-0.232
-305.851	467.579	0.070	0.156
-304.837	102.280	-0.236	-0.274
-303.822	-200.000	0.002	-0.190
-302.807	267.570	-0.088	0.153
-301.793	183.763	-0.112	0.165
-300.778	-120.067	0.228	0.039
-299.764	-200.000	-0.045	-0.198
-298.749	-182.764	-0.203	0.004
-297.735	357.068	-0.088	0.175
-296.720	236.766	0.116	0.190
-295.705	-126.458	-0.046	0.007
-294.691	306.447	0.101	0.186
-293.676	58.495	0.085	0.083
-292.662	64.411	0.100	0.100
-291.647	-69.404	-0.226	-0.086
-290.632	112.882	0.086	0.104
-289.618	-50.908	0.438	0.205
-288.603	-52.063	0.128	0.059
-287.589	182.374	-0.095	0.140
-286.574	22.435	-0.094	-0.077
-285.559	-200.000	0.007	0.036
-284.545	-200.000	-0.048	0.373
-283.530	-66.822	0.102	-0.040
-282.516	-200.000	-0.063	-0.422
-281.501	20.793	0.169	-0.136
-280.486	593.629	-0.172	0.423
-279.472	800.000	0.187	-0.543
-278.457	-44.668	-0.285	-0.141
-277.443	296.326	0.082	-0.149
-276.428	-84.708	-0.231	0.072
-275.413	-200.000	-0.011	0.099
-274.399	53.149	-0.162	0.154
-273.384	-30.723	0.118	0.066
-272.370	87.822	0.027	-0.029
-271.355	-156.986	-0.164	-0.010
-270.340	-200.000	-0.003	-0.249
-269.326	-200.000	-0.047	-0.374
-268.311	-106.263	0.412	0.092
-267.297	111.074	0.088	0.106
-266.282	-99.630	0.248	0.062
-265.267	-141.125	-0.076	-0.008
-264.253	-79.653	0.057	-0.019
-263.238	731.816	-0.075	-0.199
-262.224	-91.140	-0.344	-0.098
-261.209	135.842	-0.159	0.206
-260.195	-86.210	0.489	0.150
-259.180	-102.520	-0.587	0.140
-258.165	-12.200	-0.149	0.097
-257.151	95.759	0.062	0.071
-256.136	800.000	-0.072	-0.215
-255.122	-200.000	0.027	0.291
-254.107	43.093	0.177	-0.160
-253.092	174.328	0.327	0.470
-252.078	-120.211	0.317	0.054
-251.063	-132.147	0.148	0.019
-250.049	-105.400	-0.122	0.028
-249.034	-137.428	0.077	-0.009
-248.019	-200.000	0.003	-0.179
-247.005	-88.298	0.088	0.026
-245.990	-200.000	0.034	-0.248
-244.976	324.251	-0.024	0.045
-243.961	91.170	0.260	0.290
-242.946	-200.000	0.080	0.569
-241.932	110.599	0.085	0.101
-240.917	800.000	0.077	-0.211
-239.903	-200.000	-0.028	0.177
-238.888	-200.000	0.025	0.254
-237.873	-18.106	-0.228	-0.142
-236.859	-37.367	0.132	-0.070
-235.844	65.893	-0.124	-0.124
-234.830	-99.609	0.478	-0.119
-233.815	143.517	-0.042	-0.055
-232.800	482.606	0.124	-0.279
-231.786	-192.325	-0.294	0.003
-230.771	100.501	0.082	0.095
-229.757	-63.889	0.213	0.086
-228.742	-56.495	0.131	0.058
-227.727	236.841	-0.151	0.248
-226.713	19.483	0.319	0.254
-225.698	-15.271	-0.181	0.115
-224.684	-200.000	-0.021	-0.172
-223.669	39.727	0.116	-0.103
-222.655	-13.489	-0.180	-0.116
-221.640	-200.000	0.028	-0.161
-220.625	58.612	0.106	0.103
-219.611	-200.000	-0.022	-0.105
-218.596	63.913	-0.081	-0.081
-217.582	268.013	-0.077	-0.134
-216.567	-15.927	0.240	0.152
-215.552	-116.885	0.220	0.040
-214.538	446.404	-0.212	0.463
-213.523	143.285	0.194	0.257
-212.509	629.701	0.099	0.248
-211.494	-121.990	-0.214	0.035
-210.479	189.459	0.142	-0.211
-209.465	-10.556	0.232	-0.152
-208.450	153.624	-0.157	-0.214
-207.436	-200.000	-0.012	-0.226
-206.421	-5.318	-0.244	0.166
-205.406	34.975	0.259	0.225
-204.392	-28.840	0.103	-0.059
-203.377	485.161	-0.131	0.296
-202.363	-83.955	0.299	0.094
-201.348	296.311	0.165	0.300
-200.333	324.295	0.023	0.044
-199.319	800.000	-0.024	-0.065
-198.304	-68.454	-0.257	-0.099
-197.290	-175.795	0.198	-0.005
-196.275	-47.661	0.340	0.164
-195.260	417.958	-0.117	-0.249
-194.246	800.000	-0.047	0.180
-193.231	800.000	0.075	0.254
-192.217	-138.733	-0.555	0.060
-191.202	-200.000	0.012	-0.088
-190.187	-110.420	0.174	0.036
-189.173	-102.656	-0.258	0.061
-188.158	-148.260	-0.155	-0.013
-187.144	128.876	0.179	0.226
-186.129	398.212	-0.130	-0.269
-185.114	800.000	-0.055	-0.224
-184.100	-97.679	0.273	-0.070
-183.085	-122.139	-0.254	0.041
-182.071	-37.073	-0.352	-0.187
-181.056	27.744	-0.290	0.242
-180.042	172.240	-0.168	-0.239
-179.027	29.554	-0.153	-0.129
-178.012	-200.000	0.003	0.054
-176.998	-200.000	-0.009	0.061
-175.983	-200.000	0.015	-0.124
-174.969	-182.025	-0.296	-0.006
-173.954	800.000	-0.091	-0.285
-172.939	174.961	0.073	0.104
-171.925	569.611	-0.151	-0.365
-170.910	-179.320	0.409	-0.009
-169.896	-170.167	-0.161	-0.006
-168.881	800.000	0.042	0.152
-167.866	-27.775	0.058	0.033
-166.852	-200.000	-0.031	-0.251
-165.837	-200.000	0.001	0.037
-164.823	68.056	0.153	0.155
-163.808	-50.065	-0.287	0.135
-162.793	-129.870	0.232	-0.031
-161.779	-77.800	0.195	0.067
-160.764	11.795	0.118	-0.090
-159.750	-115.147	-0.322	0.060
-158.735	-200.000	0.006	-0.058
-157.720	44.302	-0.054	-0.049
-156.706	-63.610	0.091	-0.037
-155.691	-69.621	-0.108	-0.041
-154.677	136.298	0.139	-0.179
-153.662	-94.896	-0.196	-0.053
-152.647	800.000	0.035	0.096
-151.633	15.236	0.041	-0.032
-150.618	80.632	0.202	-0.216
-149.604	192.564	0.191	0.285
-148.589	-200.000	-0.019	0.176
-147.574	-22.911	-0.119	-0.071
-146.560	800.000	-0.143	-0.418
-145.545	800.000	-0.065	-0.274
-144.531	-42.448	-0.056	0.028
-143.516	-159.514	0.048	0.003
-142.502	-200.000	0.000	-0.112
-141.487	-200.000	-0.008	0.181
-140.472	93.161	-0.181	-0.203
-139.458	36.763	-0.309	0.270
-138.443	-92.082	0.317	0.089
-137.429	13.565	-0.096	-0.074
-136.414	157.130	0.270	0.369
-135.399	403.845	0.097	-0.202
-134.385	-69.410	-0.173	-0.066
-133.370	-200.000	0.027	-0.218
-132.356	756.525	0.031	-0.084
-131.341	-200.000	0.019	0.305
-130.326	11.418	-0.143	0.108
-129.312	-72.845	0.324	0.118
-128.297	41.051	-0.136	0.121
-127.283	72.810	0.081	0.084
-126.268	-2.459	0.057	-0.040
-125.253	-200.000	0.011	0.359
-124.239	-24.068	-0.327	0.193
-123.224	228.170	0.042	0.068
-122.210	132.092	-0.258	0.328
