DTS Sentinel unit serial number:	SN413079Multiplexer serial number:	ORYXHardware model number:	OX4-SRSoftware version number:	ORYX F/W v4.00 Oryx Data Collector v3.7.2.0data status	okinstallation	princeton_trtdifferential loss correction	single-endedforward channel	channel 4reverse channel	N/Adate	2019/09/18time	00:05:35forward acquisition time	60.00reverse acquisition time	0.00gamma	496.2192k internal	0.2333k external	0.2333temperature offset calibration	0.9994default loss term (dB/km)	0.3790temperature slope calibration	1.0000multiplexer offset coefficient	1.0000multiplexer slope coefficient	1.0000fibre end	0.00T internal ref (°C)	23.81T ext. ref 1 (°C)	0.17T ext. ref 2 (°C)	17.25length (m)	temperature (°C)	Stokes	anti-Stokes-747.200	-4.895	-0.132	0.092
-746.185	173.469	0.133	0.193
-745.171	-200.000	0.034	0.415
-744.156	-127.031	0.099	-0.015
-743.142	-95.249	0.147	-0.040
-742.127	263.284	-0.080	-0.140
-741.112	-24.378	-0.074	-0.044
-740.098	34.879	-0.101	0.089
-739.083	-200.000	0.012	0.115
-738.069	-145.184	-0.101	-0.009
-737.054	-143.705	-0.088	0.008
-736.039	-200.000	-0.006	0.241
-735.025	-93.255	-0.172	0.048
-734.010	-200.000	0.007	-0.239
-732.996	182.826	-0.201	-0.298
-731.981	800.000	-0.049	-0.143
-730.966	-76.868	0.063	-0.022
-729.952	-50.308	-0.102	-0.048
-728.937	92.200	0.153	-0.173
-727.923	15.205	-0.298	-0.235
-726.908	32.965	-0.095	0.083
-725.894	-7.913	0.183	-0.124
-724.879	-76.835	0.138	0.048
-723.864	-137.746	-0.395	-0.045
-722.850	88.410	-0.129	0.144
-721.835	-119.007	-0.417	-0.073
-720.821	490.504	-0.024	-0.056
-719.806	-23.433	-0.031	0.018
-718.791	-30.374	0.215	0.123
-717.777	-52.996	0.209	-0.096
-716.762	22.900	-0.192	0.158
-715.748	-164.285	-0.157	-0.007
-714.733	98.066	0.121	-0.139
-713.718	-200.000	-0.043	-0.369
-712.704	160.534	0.234	-0.327
-711.689	79.425	-0.012	0.013
-710.675	-39.347	0.379	-0.200
-709.660	-78.129	0.152	0.053
-708.645	-67.856	-0.273	-0.107
-707.631	196.978	0.093	-0.142
-706.616	-51.654	0.174	-0.082
-705.602	-164.399	0.235	-0.011
-704.587	696.105	-0.093	-0.245
-703.572	310.558	0.075	-0.141
-702.558	198.137	-0.219	-0.336
-701.543	-200.000	-0.007	-0.463
-700.529	-200.000	0.021	-0.221
-699.514	-200.000	-0.001	0.167
-698.499	270.351	0.062	0.110
-697.485	49.812	0.070	-0.066
-696.470	115.460	0.118	0.144
-695.456	800.000	-0.034	-0.108
-694.441	57.745	0.211	0.207
-693.426	-98.805	0.011	0.003
-692.412	-200.000	-0.010	0.081
-691.397	-85.980	0.393	-0.122
-690.383	800.000	0.090	0.350
-689.368	800.000	-0.030	0.094
-688.354	-200.000	0.042	-0.264
-687.339	-200.000	-0.031	0.164
-686.324	-108.802	0.066	0.014
-685.310	517.336	0.026	-0.062
-684.295	-77.088	0.072	-0.025
-683.281	-200.000	-0.008	0.136
-682.266	51.478	-0.228	-0.217
-681.251	303.054	-0.072	-0.133
-680.237	421.501	-0.110	-0.238
-679.222	279.291	0.044	0.079
-678.208	89.673	0.125	0.140
-677.193	695.162	0.122	-0.321
-676.178	15.448	-0.078	0.062
-675.164	103.749	-0.080	0.095
-674.149	-170.735	0.161	0.006
-673.135	735.327	0.058	0.156
-672.120	-33.031	-0.125	-0.069
-671.105	102.956	-0.318	-0.374
-670.091	-100.049	-0.132	-0.033
-669.076	9.442	-0.160	0.121
-668.062	-29.184	-0.165	-0.095
-667.047	-26.198	-0.101	-0.059
-666.032	-148.963	-0.190	0.015
-665.018	-82.945	0.391	-0.127
-664.003	-200.000	0.045	0.208
-662.989	-158.578	-0.453	0.026
-661.974	-52.598	-0.325	-0.151
-660.959	800.000	0.088	-0.292
-659.945	354.787	0.057	0.113
-658.930	800.000	0.048	-0.205
-657.916	-200.000	0.017	-0.076
-656.901	19.773	-0.317	0.255
-655.886	52.228	-0.090	-0.086
-654.872	535.656	0.029	-0.070
-653.857	-124.814	-0.188	-0.029
-652.843	-160.681	-0.087	0.005
-651.828	30.238	0.145	-0.124
-650.814	112.581	0.185	-0.225
-649.799	348.940	0.064	0.126
-648.784	800.000	0.094	0.346
-647.770	320.005	0.082	-0.157
-646.755	216.587	0.076	-0.121
-645.741	-58.054	-0.225	-0.098
-644.726	-200.000	0.026	-0.178
-643.711	740.674	-0.157	-0.421
-642.697	-108.300	0.145	-0.031
-641.682	-200.000	-0.008	-0.057
-640.668	691.789	-0.129	-0.338
-639.653	-3.000	-0.073	-0.051
-638.638	-200.000	0.042	-0.200
-637.624	-4.441	0.248	-0.172
-636.609	-180.018	0.204	0.004
-635.595	-123.626	-0.286	0.045
-634.580	800.000	0.081	0.266
-633.565	531.650	-0.114	-0.269
-632.551	34.049	-0.165	-0.144
-631.536	543.707	-0.251	-0.601
-630.522	-137.932	-0.122	0.014
-629.507	-179.158	-0.156	0.003
-628.492	66.460	0.149	-0.152
-627.478	84.299	0.067	0.074
-626.463	401.829	-0.086	0.181
-625.449	-57.109	0.248	0.109
-624.434	-4.830	-0.345	-0.238
-623.419	252.554	-0.030	0.052
-622.405	273.804	0.055	-0.098
-621.390	-131.696	-0.169	-0.022
-620.376	-70.151	0.115	0.044
-619.361	-119.180	-0.206	-0.036
-618.346	-52.372	0.204	0.094
-617.332	88.944	-0.163	-0.182
-616.317	-200.000	-0.008	-0.394
-615.303	-13.320	-0.246	-0.160
-614.288	-35.850	0.241	-0.131
-613.273	553.213	0.062	0.150
-612.259	89.853	0.072	0.081
-611.244	6.713	-0.304	0.226
-610.230	-200.000	0.006	0.045
-609.215	193.342	0.036	-0.054
-608.201	-64.115	0.221	0.090
-607.186	41.807	-0.285	-0.258
-606.171	-200.000	0.011	0.308
-605.157	-98.583	-0.093	0.024
-604.142	-150.510	-0.254	0.019
-603.128	800.000	0.047	-0.206
-602.113	65.438	-0.136	-0.138
-601.098	-54.651	-0.467	0.211
-600.084	-200.000	-0.043	0.276
-599.069	800.000	0.054	-0.189
-598.055	168.601	0.181	0.257
-597.040	74.404	0.020	0.021
-596.025	14.335	-0.202	-0.158
-595.011	-200.000	0.023	-0.156
-593.996	541.799	0.038	0.091
-592.982	-124.189	0.219	-0.034
-591.967	-200.000	-0.042	-0.303
-590.952	800.000	0.028	0.119
-589.938	328.873	-0.093	0.178
-588.923	-175.447	-0.122	0.003
-587.909	136.667	-0.244	0.319
-586.894	-53.636	0.346	0.158
-585.879	800.000	0.112	0.316
-584.865	77.825	-0.130	0.139
-583.850	303.365	-0.125	-0.231
-582.836	-7.437	0.202	0.136
-581.821	5.333	0.209	-0.154
-580.806	-54.752	0.115	-0.052
-579.792	800.000	-0.169	0.561
-578.777	-10.918	-0.182	-0.120
-577.763	129.658	-0.140	-0.179
-576.748	-200.000	-0.039	0.260
-575.733	44.619	0.155	-0.143
-574.719	-159.175	-0.123	0.007
-573.704	-35.754	-0.090	-0.049
-572.690	-138.218	0.093	0.010
-571.675	800.000	-0.072	-0.206
-570.661	-200.000	-0.068	0.364
-569.646	-90.714	-0.518	-0.149
-568.631	-50.031	0.185	-0.088
-567.617	-1.320	0.242	-0.171
-566.602	224.370	0.160	0.259
-565.588	769.525	0.132	-0.360
-564.573	82.719	-0.224	-0.243
-563.558	-98.125	0.246	0.063
-562.544	-200.000	-0.055	-0.345
-561.529	-200.000	0.009	-0.337
-560.515	-122.984	-0.158	0.025
-559.500	-132.847	0.034	-0.004
-558.485	-7.455	0.165	-0.111
-557.471	-200.000	-0.008	-0.230
-556.456	-133.300	-0.070	0.009
-555.442	800.000	0.088	-0.327
-554.427	58.329	-0.062	-0.061
-553.412	451.365	0.042	-0.093
-552.398	-200.000	-0.053	-0.369
-551.383	119.821	-0.206	-0.255
-550.369	648.387	-0.023	0.058
-549.354	-200.000	0.015	-0.167
-548.339	-200.000	0.006	0.128
-547.325	-200.000	-0.030	0.152
-546.310	800.000	-0.090	0.250
-545.296	68.568	0.210	0.215
-544.281	-162.311	0.241	-0.012
-543.266	-200.000	-0.021	0.124
-542.252	419.981	0.024	0.052
-541.237	-141.506	0.265	0.027
-540.223	-32.133	-0.143	0.080
-539.208	137.184	0.060	0.078
-538.193	76.317	-0.163	0.172
-537.179	-110.434	-0.404	0.084
-536.164	-48.250	-0.167	-0.080
-535.150	-32.227	-0.118	0.065
-534.135	-37.571	-0.186	-0.099
-533.121	800.000	0.130	0.380
-532.106	-120.286	0.294	-0.050
-531.091	800.000	-0.025	-0.081
-530.077	-54.623	0.071	-0.032
-529.062	-35.535	0.096	-0.052
-528.048	407.168	0.152	0.320
-527.033	-98.684	0.103	0.026
-526.018	-152.170	-0.264	-0.019
-525.004	-200.000	0.016	-0.209
-523.989	-30.723	-0.167	-0.094
-522.975	-200.000	-0.011	0.121
-521.960	144.171	0.140	0.187
-520.945	-117.679	0.192	-0.034
-519.931	103.046	-0.154	-0.180
-518.916	-200.000	-0.007	-0.160
-517.902	-135.883	-0.299	0.035
-516.887	-119.510	-0.288	0.050
-515.872	183.893	-0.018	0.027
-514.858	-200.000	0.036	0.196
-513.843	-154.076	-0.405	0.027
-512.829	10.398	0.223	-0.169
-511.814	-200.000	-0.018	-0.282
-510.799	-78.261	0.191	0.065
-509.785	63.187	-0.090	0.090
-508.770	-115.532	-0.240	0.045
-507.756	-82.946	-0.083	0.027
-506.741	-18.044	0.263	-0.164
-505.726	-158.191	-0.103	0.006
-504.712	-126.940	0.042	-0.006
-503.697	-29.359	0.191	0.109
-502.683	-200.000	0.067	0.562
-501.668	-13.416	0.182	0.117
-500.653	497.194	0.082	-0.188
-499.639	167.455	-0.169	-0.239
-498.624	10.649	0.118	0.090
-497.610	-140.731	-0.149	0.015
-496.595	-16.841	-0.143	-0.090
-495.581	665.461	-0.127	0.327
-494.566	135.910	0.133	-0.173
-493.551	179.355	-0.174	0.254
-492.537	800.000	0.071	0.226
-491.522	356.490	0.081	0.160
-490.508	265.919	-0.110	-0.192
-489.493	-87.475	0.248	-0.075
-488.478	800.000	0.056	0.195
-487.464	-102.130	-0.289	0.069
-486.449	30.863	-0.258	0.220
-485.435	-194.653	0.501	0.004
-484.420	-57.513	-0.205	-0.089
-483.405	800.000	-0.089	0.364
-482.391	133.711	-0.145	0.187
-481.376	-4.922	0.359	-0.246
-480.362	120.017	0.055	0.068
-479.347	800.000	0.075	-0.222
-478.332	-15.483	-0.311	-0.198
-477.318	310.839	-0.026	-0.049
-476.303	-96.719	-0.031	0.008
-475.289	162.517	-0.074	0.104
-474.274	-51.336	0.114	0.053
-473.259	2.382	-0.113	0.081
-472.245	367.765	-0.062	-0.125
-471.230	307.544	-0.090	0.168
-470.216	-19.562	0.312	0.192
-469.201	-67.309	-0.097	0.038
-468.186	-29.075	-0.261	-0.149
-467.172	-98.516	-0.333	0.085
-466.157	417.703	-0.059	-0.126
-465.143	-200.000	0.020	0.162
-464.128	51.334	-0.277	0.261
-463.113	13.866	-0.351	-0.272
-462.099	-200.000	-0.000	0.098
-461.084	-136.727	-0.136	0.016
-460.070	-108.556	-0.085	-0.018
-459.055	-50.543	-0.488	-0.229
-458.040	-90.876	0.343	-0.098
-457.026	-64.365	-0.311	-0.126
-456.011	-49.430	0.323	0.153
-454.997	-65.412	-0.268	0.107
-453.982	-165.181	0.134	-0.006
-452.968	-75.457	-0.285	-0.101
-451.953	800.000	-0.111	-0.334
-450.938	11.416	-0.199	0.152
-449.924	-158.057	-0.071	-0.004
-448.909	-134.067	-0.325	0.040
-447.895	156.718	0.015	0.020
-446.880	-27.169	-0.163	0.095
-445.865	-200.000	-0.007	-0.331
-444.851	472.408	0.037	0.084
-443.836	93.611	-0.070	-0.078
-442.822	-113.133	0.169	-0.033
-441.807	-46.531	-0.281	0.137
-440.792	11.587	-0.066	0.050
-439.778	-13.708	0.282	0.182
-438.763	337.903	0.106	0.204
-437.749	30.572	-0.131	0.111
-436.734	175.508	0.196	0.282
-435.719	258.370	0.090	0.154
-434.705	3.583	0.300	0.218
-433.690	124.669	-0.059	0.074
-432.676	-200.000	0.064	0.311
-431.661	-75.960	0.146	0.051
-430.646	-82.455	0.153	0.049
-429.632	-200.000	0.048	0.426
-428.617	-101.631	0.271	0.065
-427.603	-200.000	0.061	0.377
-426.588	-23.513	-0.171	0.102
-425.573	-200.000	0.028	-0.140
-424.559	10.602	0.295	-0.223
-423.544	-200.000	-0.051	0.232
-422.530	-47.929	0.205	0.098
-421.515	-147.527	-0.158	0.013
-420.500	164.797	-0.120	0.168
-419.486	-200.000	0.028	-0.293
-418.471	-45.775	-0.217	0.106
-417.457	-97.036	0.174	0.045
-416.442	83.271	0.317	-0.342
-415.428	-165.614	-0.173	0.007
-414.413	-20.280	-0.169	0.103
-413.398	-60.356	-0.161	0.068
-412.384	92.485	-0.087	0.097
-411.369	25.419	-0.016	-0.013
-410.355	-49.972	0.392	-0.184
-409.340	-200.000	-0.029	-0.154
-408.325	62.951	0.323	0.321
-407.311	800.000	-0.074	0.308
-406.296	26.104	-0.015	0.013
-405.282	-200.000	-0.075	-0.347
-404.267	792.127	0.126	-0.344
-403.252	69.137	0.280	0.285
-402.238	-54.216	0.311	0.140
-401.223	-48.004	0.392	0.188
-400.209	800.000	-0.100	-0.345
-399.194	413.860	0.088	0.186
-398.179	191.086	0.061	0.090
-397.165	597.329	0.128	-0.315
-396.150	-86.292	-0.136	0.042
-395.136	-142.184	-0.440	0.043
-394.121	251.863	-0.081	-0.137
-393.106	140.679	0.187	-0.245
-392.092	27.086	-0.251	0.209
-391.077	600.934	0.062	0.152
-390.063	78.638	-0.091	0.097
-389.048	-200.000	0.033	0.344
-388.033	11.328	0.080	-0.061
-387.019	-200.000	0.007	-0.069
-386.004	-71.612	-0.455	-0.169
-384.990	411.019	-0.073	-0.154
-383.975	453.276	-0.059	-0.129
-382.960	173.420	0.021	0.031
-381.946	800.000	-0.059	-0.241
-380.931	-100.545	0.245	0.060
-379.917	-131.112	-0.140	-0.018
-378.902	-11.923	-0.255	-0.166
-377.888	-94.262	0.300	-0.081
-376.873	-115.031	-0.315	0.059
-375.858	-200.000	0.040	0.302
-374.844	106.070	-0.095	0.112
-373.829	117.139	0.094	0.114
-372.815	800.000	0.023	0.075
-371.800	205.335	-0.105	-0.162
-370.785	-15.925	0.157	-0.099
-369.771	-86.379	-0.017	-0.005
-368.756	-13.736	-0.409	0.262
-367.742	-158.000	0.444	-0.026
-366.727	-24.865	-0.275	0.162
-365.712	-42.352	0.134	0.068
-364.698	-82.589	0.202	-0.065
-363.683	28.311	0.102	-0.085
-362.669	114.306	0.131	0.158
-361.654	-200.000	-0.023	0.138
-360.639	-110.004	0.101	-0.021
-359.625	65.321	0.065	0.065
-358.610	-80.809	0.054	-0.018
-357.596	-200.000	-0.003	0.016
-356.581	236.221	0.116	0.190
-355.566	-144.296	0.215	0.020
-354.552	22.906	-0.392	-0.319
-353.537	27.943	0.203	0.169
-352.523	-200.000	0.087	-0.446
-351.508	24.156	-0.325	-0.265
-350.493	47.779	-0.269	-0.249
-349.479	22.403	-0.106	0.086
-348.464	-200.000	-0.009	0.141
-347.450	348.297	0.155	-0.302
-346.435	-200.000	0.081	-0.513
-345.420	-133.528	0.109	-0.014
-344.406	27.818	-0.211	-0.176
-343.391	233.690	0.087	-0.142
-342.377	-35.661	-0.213	-0.115
-341.362	-181.318	-0.286	-0.006
-340.348	-200.000	0.007	-0.157
-339.333	134.910	0.036	0.047
-338.318	-200.000	-0.026	0.153
-337.304	800.000	0.088	-0.242
-336.289	-33.447	-0.051	0.028
-335.275	556.719	0.107	0.255
-334.260	-154.877	0.111	-0.007
-333.245	5.142	0.153	0.112
-332.231	-21.745	0.306	0.184
-331.216	335.195	0.102	-0.196
-330.202	-105.936	0.165	0.037
-329.187	57.464	-0.220	-0.213
-328.172	-200.000	-0.034	0.413
-327.158	12.621	0.187	-0.142
-326.143	800.000	0.080	-0.344
-325.129	69.347	-0.084	-0.086
-324.114	-200.000	0.012	-0.205
-323.099	289.700	0.195	-0.350
-322.085	-155.614	-0.353	0.022
-321.070	-15.674	0.422	0.266
-320.056	-147.523	-0.169	0.014
-319.041	-200.000	0.008	-0.116
-318.026	800.000	-0.009	0.030
-317.012	82.973	0.182	-0.196
-315.997	-200.000	0.055	0.381
-314.983	800.000	0.027	0.115
-313.968	151.226	-0.053	-0.071
-312.953	-21.207	0.152	-0.092
-311.939	-200.000	0.040	0.306
-310.924	-200.000	-0.024	0.225
-309.910	-31.589	0.085	0.047
-308.895	-95.968	0.100	-0.026
-307.880	-126.571	0.255	0.037
-306.866	278.220	0.115	0.203
-305.851	-21.785	0.218	-0.131
-304.837	278.884	-0.033	-0.059
-303.822	-119.196	0.115	0.020
-302.807	152.834	-0.084	-0.114
-301.793	-10.290	-0.226	-0.148
-300.778	-47.324	-0.358	-0.172
-299.764	-148.870	0.236	0.019
-298.749	-200.000	-0.043	-0.282
-297.735	-96.628	0.079	-0.020
-296.720	-200.000	0.009	0.119
-295.705	-111.219	-0.227	0.046
-294.691	-200.000	-0.006	0.197
-293.676	183.745	0.238	-0.347
-292.662	-9.122	-0.183	-0.121
-291.647	-53.086	0.179	0.081
-290.632	-57.797	0.332	0.144
-289.618	178.554	0.128	0.184
-288.603	-118.547	0.109	-0.019
-287.589	-200.000	0.057	0.249
-286.574	-200.000	0.015	0.093
-285.559	278.332	0.039	0.069
-284.545	-200.000	0.008	-0.171
-283.530	-58.746	-0.211	0.090
-282.516	800.000	-0.039	0.164
-281.501	-130.174	-0.269	-0.036
-280.486	-115.227	0.631	-0.118
-279.472	-200.000	0.007	-0.037
-278.457	-200.000	0.004	0.089
-277.443	-30.037	0.148	-0.083
-276.428	-200.000	-0.003	0.060
-275.413	-78.669	-0.245	-0.083
-274.399	-118.085	0.067	0.012
-273.384	1.623	0.229	-0.163
-272.370	135.311	0.182	-0.234
-271.355	-138.150	0.246	-0.027
-270.340	-112.638	0.293	0.058
-269.326	-200.000	0.015	0.127
-268.311	-139.992	-0.436	-0.045
-267.297	24.031	-0.049	0.040
-266.282	-87.036	0.228	-0.069
-265.267	479.536	0.117	0.262
-264.253	-20.356	0.507	-0.308
-263.238	197.411	-0.235	0.353
-262.224	-35.091	-0.523	0.282
-261.209	171.887	0.186	0.264
-260.195	-12.058	-0.402	0.260
-259.180	29.576	0.316	-0.266
-258.165	-200.000	0.002	0.086
-257.151	-6.529	-0.187	0.126
-256.136	191.644	0.282	0.419
-255.122	800.000	-0.093	-0.298
-254.107	-200.000	-0.080	-0.391
-253.092	-137.402	-0.276	-0.031
-252.078	-200.000	0.037	0.293
-251.063	-157.812	-0.144	-0.008
-250.049	183.156	-0.177	0.258
-249.034	18.016	-0.129	-0.102
-248.019	194.566	-0.128	0.191
-247.005	8.266	-0.164	0.121
-245.990	-2.247	-0.148	-0.103
-244.976	52.692	-0.262	0.246
-243.961	-59.932	0.214	-0.090
-242.946	358.248	0.130	0.256
-241.932	60.159	0.066	-0.064
-240.917	-159.759	-0.136	-0.007
-239.903	-200.000	0.088	0.454
-238.888	-85.538	0.198	0.061
-237.873	95.805	-0.168	-0.189
-236.859	-200.000	0.023	-0.126
-235.844	-200.000	-0.033	0.215
-234.830	-78.736	0.337	-0.113
-233.815	-200.000	-0.039	-0.239
-232.800	79.513	-0.076	0.080
-231.786	800.000	-0.053	-0.175
-230.771	10.738	0.263	0.198
-229.757	800.000	0.079	0.283
-228.742	-200.000	0.033	0.214
-227.727	-200.000	-0.035	0.205
-226.713	-200.000	-0.004	-0.212
-225.698	-103.795	0.446	0.103
-224.684	245.028	-0.148	-0.245
-223.669	-58.343	-0.122	-0.052
-222.655	107.319	-0.116	-0.136
-221.640	-108.614	-0.052	-0.011
-220.625	-51.913	0.268	-0.123
-219.611	-80.429	0.283	-0.093
-218.596	6.954	-0.156	0.114
-217.582	433.304	-0.124	-0.266
-216.567	36.852	0.164	-0.142
-215.552	-34.808	0.260	-0.140
-214.538	114.157	0.163	0.195
-213.523	-46.712	0.170	-0.082
-212.509	14.562	-0.182	-0.140
-211.494	42.684	0.275	0.246
-210.479	277.595	0.034	0.060
-209.465	123.836	-0.116	-0.143
-208.450	-200.000	0.026	-0.312
-207.436	54.513	-0.241	-0.229
-206.421	-142.288	-0.158	-0.015
-205.406	22.155	0.096	-0.077
-204.392	199.250	-0.149	-0.225
-203.377	-39.499	-0.162	0.083
-202.363	-200.000	-0.021	-0.136
-201.348	-47.410	0.065	-0.031
-200.333	-200.000	-0.030	0.285
-199.319	-200.000	0.017	-0.439
-198.304	-107.015	-0.183	-0.040
-197.290	114.722	0.242	0.290
-196.275	8.495	0.171	-0.127
-195.260	-113.330	0.104	0.020
-194.246	41.930	-0.219	-0.195
-193.231	800.000	-0.040	-0.115
-192.217	133.256	0.113	-0.144
-191.202	232.784	0.148	-0.239
-190.187	715.753	0.049	-0.129
-189.173	-5.442	-0.055	-0.037
-188.158	-165.865	-0.235	-0.010
-187.144	298.934	-0.021	0.039
-186.129	310.652	0.075	0.138
-185.114	-76.548	-0.122	0.042
-184.100	273.543	0.176	-0.305
-183.085	18.655	-0.059	-0.047
-182.071	-41.337	-0.126	0.064
-181.056	293.277	0.103	-0.185
-180.042	-58.939	0.212	0.090
-179.027	-85.130	0.446	0.137
-178.012	-173.579	-0.323	0.010
-176.998	22.302	0.090	0.072
-175.983	-155.504	0.286	0.018
-174.969	-20.058	-0.070	-0.043
-173.954	-118.819	-0.170	0.029
-172.939	-87.874	-0.287	0.085
-171.925	84.842	-0.083	-0.089
-170.910	-104.316	-0.078	-0.018
-169.896	800.000	0.061	-0.202
-168.881	-86.834	0.153	-0.046
-167.866	50.011	0.201	0.187
-166.852	-150.622	0.286	-0.021
-165.837	34.040	0.198	-0.169
-164.823	800.000	-0.010	0.035
-163.808	-200.000	0.033	0.467
-162.793	141.342	0.228	0.296
-161.779	-91.035	0.144	-0.041
-160.764	-200.000	-0.055	-0.247
-159.750	-28.670	-0.239	-0.135
-158.735	502.855	-0.080	0.182
-157.720	9.757	0.101	0.076
-156.706	800.000	-0.019	-0.081
-155.691	720.522	-0.097	0.254
-154.677	286.371	0.154	0.273
-153.662	135.947	0.050	-0.064
-152.647	22.909	0.255	0.206
-151.633	-104.679	-0.353	-0.080
-150.618	575.162	-0.005	0.012
-149.604	800.000	-0.054	-0.220
-148.589	-57.565	-0.169	0.073
-147.574	72.397	-0.211	-0.216
-146.560	-35.057	0.141	-0.075
-145.545	229.431	0.153	-0.245
-144.531	-200.000	-0.003	0.074
-143.516	-179.066	0.190	0.004
-142.502	-200.000	-0.043	0.215
-141.487	486.751	-0.118	-0.264
-140.472	-200.000	0.020	0.113
-139.458	286.966	-0.143	-0.253
-138.443	14.980	-0.220	0.169
-137.429	-200.000	-0.051	-0.347
-136.414	-200.000	0.047	-0.217
-135.399	13.278	-0.175	0.133
-134.385	656.259	-0.110	-0.276
-133.370	638.830	-0.056	-0.140
-132.356	8.416	0.141	0.104
-131.341	371.159	-0.112	0.223
-130.326	-200.000	-0.029	0.127
-129.312	-116.193	0.262	0.048
-128.297	-147.995	0.165	-0.013
-127.283	-35.106	0.143	0.076
-126.268	508.855	0.069	0.157
-125.253	-98.656	-0.110	0.027
-124.239	500.329	0.145	0.327
-123.224	-57.829	-0.379	-0.163
-122.210	212.493	-0.020	0.031
-121.195	473.366	-0.042	-0.093
