DTS Sentinel unit serial number:	SN413079Multiplexer serial number:	ORYXHardware model number:	OX4-SRSoftware version number:	ORYX F/W v4.00 Oryx Data Collector v3.7.2.0data status	okinstallation	princeton_trtdifferential loss correction	single-endedforward channel	channel 4reverse channel	N/Adate	2019/09/13time	05:37:35forward acquisition time	60.00reverse acquisition time	0.00gamma	496.2192k internal	0.2323k external	0.2323temperature offset calibration	1.0193default loss term (dB/km)	0.3790temperature slope calibration	1.0000multiplexer offset coefficient	1.0000multiplexer slope coefficient	1.0000fibre end	0.00T internal ref (°C)	26.25T ext. ref 1 (°C)	4.04T ext. ref 2 (°C)	20.87length (m)	temperature (°C)	Stokes	anti-Stokes-747.200	230.980	-0.127	-0.209
-746.185	-104.240	-0.266	-0.062
-745.171	-1.593	-0.042	0.030
-744.156	-14.384	0.070	0.045
-743.142	-15.033	-0.220	-0.142
-742.127	800.000	-0.031	0.137
-741.112	12.277	-0.151	0.117
-740.098	-24.644	-0.228	0.137
-739.083	-80.112	0.154	0.052
-738.069	-200.000	-0.000	0.217
-737.054	-200.000	0.007	0.119
-736.039	-91.664	-0.380	0.109
-735.025	367.150	0.070	-0.143
-734.010	800.000	-0.086	-0.331
-732.996	9.738	-0.252	0.193
-731.981	51.523	-0.195	-0.187
-730.966	-140.506	-0.248	0.026
-729.952	-29.122	-0.177	-0.102
-728.937	86.339	0.039	0.043
-727.923	-200.000	-0.014	0.083
-726.908	385.588	-0.132	-0.275
-725.894	-41.473	-0.117	0.061
-724.879	102.534	-0.131	-0.155
-723.864	-20.718	0.075	-0.046
-722.850	-119.418	-0.346	0.061
-721.835	98.306	-0.049	-0.057
-720.821	23.268	0.028	-0.023
-719.806	34.893	-0.129	0.114
-718.791	-199.201	-0.148	-0.001
-717.777	-200.000	0.013	0.074
-716.762	438.104	-0.161	0.354
-715.748	-163.424	0.314	-0.015
-714.733	-200.000	0.004	0.165
-713.718	5.911	0.111	-0.082
-712.704	549.682	0.091	-0.221
-711.689	-200.000	-0.006	-0.058
-710.675	-137.909	0.132	0.015
-709.660	-125.646	-0.183	-0.028
-708.645	-72.684	0.400	0.149
-707.631	-200.000	0.005	-0.126
-706.616	97.701	0.158	-0.183
-705.602	-86.236	0.184	-0.057
-704.587	-103.836	-0.213	0.050
-703.572	-149.994	-0.206	0.016
-702.558	376.858	0.278	0.572
-701.543	-21.845	0.053	-0.032
-700.529	-200.000	0.011	0.144
-699.514	-200.000	-0.038	-0.356
-698.499	177.118	0.110	-0.162
-697.485	-40.991	-0.160	0.083
-696.470	83.324	-0.161	0.176
-695.456	800.000	-0.050	-0.200
-694.441	99.662	0.057	0.067
-693.426	61.238	-0.247	0.248
-692.412	-115.015	-0.333	0.064
-691.397	-200.000	0.028	-0.275
-690.383	325.836	-0.081	-0.156
-689.368	55.294	0.191	-0.187
-688.354	-126.955	-0.190	0.028
-687.339	-200.000	-0.005	0.145
-686.324	-200.000	0.010	0.122
-685.310	800.000	0.062	0.192
-684.295	95.188	0.229	0.263
-683.281	47.508	-0.211	-0.198
-682.266	20.059	-0.237	-0.193
-681.251	-68.289	-0.209	-0.082
-680.237	800.000	-0.042	0.129
-679.222	167.011	-0.077	-0.111
-678.208	27.096	0.256	-0.216
-677.193	126.441	0.172	-0.219
-676.178	-78.422	-0.181	-0.063
-675.164	-48.191	-0.117	-0.057
-674.149	69.188	0.201	-0.208
-673.135	-200.000	-0.050	-0.373
-672.120	133.359	-0.191	-0.249
-671.105	-90.733	-0.429	-0.125
-670.091	-14.015	-0.260	0.169
-669.076	-200.000	-0.027	0.193
-668.062	12.355	-0.147	-0.114
-667.047	558.058	0.147	0.356
-666.032	-5.890	0.067	0.046
-665.018	-157.895	-0.190	0.011
-664.003	-88.742	-0.485	-0.145
-662.989	231.858	-0.069	-0.114
-661.974	-200.000	-0.025	-0.137
-660.959	-18.053	0.100	-0.063
-659.945	296.001	-0.089	0.164
-658.930	-63.698	-0.353	-0.145
-657.916	236.690	0.179	-0.299
-656.901	53.826	0.138	-0.133
-655.886	440.467	0.059	0.131
-654.872	225.110	-0.143	0.232
-653.857	208.662	0.164	-0.258
-652.843	-15.001	0.193	0.125
-651.828	-117.287	-0.283	-0.052
-650.814	-85.678	0.188	0.059
-649.799	-78.678	0.124	-0.043
-648.784	800.000	0.043	-0.182
-647.770	-129.936	-0.103	-0.014
-646.755	64.191	0.096	-0.097
-645.741	-50.836	-0.279	-0.132
-644.726	-105.475	0.243	-0.056
-643.711	-8.054	0.156	-0.105
-642.697	134.909	-0.141	-0.184
-641.682	-77.035	0.098	-0.034
-640.668	34.657	-0.089	0.079
-639.653	-200.000	-0.013	0.080
-638.638	26.478	0.154	-0.129
-637.624	-152.308	0.505	-0.037
-636.609	268.171	0.116	-0.204
-635.595	800.000	-0.008	0.030
-634.580	-29.500	0.113	0.065
-633.565	117.291	-0.146	-0.181
-632.551	-154.975	-0.279	0.018
-631.536	-52.995	-0.226	0.104
-630.522	74.765	0.114	0.121
-629.507	-123.297	0.588	-0.094
-628.492	-157.062	0.069	-0.004
-627.478	-200.000	-0.006	-0.050
-626.463	-77.328	0.158	0.055
-625.449	-75.029	-0.452	0.163
-624.434	401.788	0.193	0.408
-623.419	691.823	0.015	-0.039
-622.405	-37.372	0.172	0.092
-621.390	800.000	-0.031	0.110
-620.376	-145.341	0.081	-0.007
-619.361	-79.291	-0.016	-0.006
-618.346	-4.667	-0.380	0.264
-617.332	21.447	-0.080	-0.066
-616.317	-200.000	-0.015	0.426
-615.303	87.353	0.039	-0.043
-614.288	-170.048	0.080	0.003
-613.273	492.426	-0.030	0.070
-612.259	70.369	-0.248	0.258
-611.244	800.000	0.050	-0.158
-610.230	-200.000	-0.012	-0.362
-609.215	7.153	-0.176	-0.132
-608.201	207.579	0.282	0.443
-607.186	504.230	0.004	-0.009
-606.171	-163.878	0.437	0.021
-605.157	12.789	0.080	0.062
-604.142	-81.927	0.108	-0.035
-603.128	-200.000	0.004	0.024
-602.113	42.793	-0.114	-0.105
-601.098	-161.713	-0.256	-0.013
-600.084	800.000	0.115	-0.338
-599.069	-200.000	-0.009	-0.100
-598.055	128.875	-0.124	-0.159
-597.040	-200.000	0.062	0.000
-596.025	162.090	-0.267	0.376
-595.011	-116.773	-0.153	0.028
-593.996	-94.588	-0.112	0.031
-592.982	224.927	-0.133	-0.216
-591.967	800.000	-0.059	0.193
-590.952	-121.350	-0.040	0.007
-589.938	23.955	0.207	0.171
-588.923	21.453	0.245	0.200
-587.909	-145.837	-0.173	0.015
-586.894	-60.058	-0.085	-0.036
-585.879	-138.165	0.100	0.011
-584.865	10.995	0.224	-0.172
-583.850	507.714	-0.106	-0.248
-582.836	-173.652	0.170	-0.005
-581.821	497.488	0.066	-0.152
-580.806	-158.409	0.269	0.016
-579.792	-7.187	0.060	-0.041
-578.777	635.239	-0.022	0.056
-577.763	-46.811	-0.273	-0.134
-576.748	198.303	-0.082	0.126
-575.733	800.000	-0.075	-0.231
-574.719	-31.631	0.148	-0.083
-573.704	-76.642	-0.283	0.099
-572.690	-27.337	-0.094	-0.055
-571.675	-100.262	-0.072	-0.018
-570.661	508.863	-0.071	-0.166
-569.646	800.000	0.018	0.059
-568.631	-200.000	-0.009	0.119
-567.617	387.552	-0.040	-0.083
-566.602	-42.257	0.297	0.152
-565.588	-158.946	-0.251	0.014
-564.573	-71.381	0.253	-0.095
-563.558	-77.495	0.114	-0.040
-562.544	71.965	-0.150	-0.157
-561.529	9.272	-0.035	-0.026
-560.515	-41.456	-0.116	-0.060
-559.500	-121.333	-0.171	0.029
-558.485	-121.811	0.166	-0.027
-557.471	-42.827	-0.214	-0.109
-556.456	21.062	0.119	-0.097
-555.442	8.183	0.162	-0.122
-554.427	800.000	-0.067	0.241
-553.412	-200.000	-0.031	0.217
-552.398	-84.268	0.228	0.072
-551.383	-29.509	-0.224	-0.128
-550.369	-16.405	-0.090	0.057
-549.354	154.389	-0.240	-0.331
-548.339	-70.521	0.100	-0.038
-547.325	-200.000	0.001	0.346
-546.310	800.000	-0.038	-0.129
-545.296	-34.769	0.013	0.007
-544.281	604.775	0.102	-0.253
-543.266	-94.094	-0.099	0.027
-542.252	-95.157	0.142	0.038
-541.237	-117.408	0.096	-0.017
-540.223	-87.778	0.189	-0.057
-539.208	800.000	0.029	-0.108
-538.193	-112.190	-0.196	0.039
-537.179	-200.000	-0.015	0.168
-536.164	-200.000	0.068	-0.315
-535.150	-184.074	-0.154	0.003
-534.135	-200.000	0.015	0.333
-533.121	-61.973	-0.144	0.060
-532.106	-46.464	-0.228	-0.112
-531.091	14.023	0.273	-0.213
-530.077	800.000	0.121	-0.377
-529.062	800.000	-0.045	0.178
-528.048	-200.000	0.031	0.218
-527.033	-81.145	-0.132	0.044
-526.018	12.481	-0.239	-0.184
-525.004	800.000	-0.052	-0.187
-523.989	-123.882	-0.321	0.051
-522.975	593.158	-0.113	0.279
-521.960	-97.513	0.130	-0.034
-520.945	800.000	0.052	-0.169
-519.931	52.806	0.105	0.101
-518.916	219.490	-0.166	-0.266
-517.902	21.431	0.176	0.143
-516.887	564.521	-0.037	0.089
-515.872	749.235	-0.124	0.335
-514.858	451.995	-0.089	0.196
-513.843	800.000	0.023	0.085
-512.829	37.642	0.117	0.104
-511.814	-105.003	-0.029	0.007
-510.799	149.915	-0.098	-0.133
-509.785	-170.681	0.071	0.002
-508.770	727.620	0.016	-0.042
-507.756	-178.880	0.187	0.004
-506.741	800.000	-0.041	0.149
-505.726	97.037	0.104	0.119
-504.712	763.684	-0.088	0.239
-503.697	-67.835	0.166	-0.065
-502.683	-56.662	-0.320	0.142
-501.668	125.163	0.181	-0.228
-500.653	-200.000	-0.027	-0.233
-499.639	28.703	0.106	0.090
-498.624	28.248	-0.051	0.043
-497.610	651.334	0.093	-0.238
-496.595	41.208	-0.134	0.121
-495.581	-200.000	0.008	0.085
-494.566	100.573	0.099	0.115
-493.551	-200.000	0.053	-0.248
-492.537	800.000	0.064	-0.235
-491.522	-20.047	0.406	0.251
-490.508	-110.400	0.340	0.071
-489.493	-132.767	0.294	0.038
-488.478	-99.765	-0.400	0.100
-487.464	-152.543	-0.193	-0.014
-486.449	-112.449	-0.220	-0.044
-485.435	-87.827	-0.250	0.075
-484.420	-129.695	-0.396	0.055
-483.405	-200.000	0.002	0.308
-482.391	23.790	0.128	0.105
-481.376	-85.728	0.162	-0.050
-480.362	-47.462	-0.298	-0.145
-479.347	-122.360	-0.327	-0.053
-478.332	-200.000	0.041	0.481
-477.318	-33.735	0.257	0.142
-476.303	800.000	0.042	0.166
-475.289	-200.000	-0.008	0.275
-474.274	377.424	0.046	0.095
-473.259	-131.141	-0.362	0.048
-472.245	-115.269	-0.312	0.059
-471.230	620.501	0.079	0.198
-470.216	800.000	-0.060	0.240
-469.201	112.559	0.159	0.192
-468.186	-55.848	-0.015	0.007
-467.172	263.982	0.099	-0.172
-466.157	-145.693	0.148	0.013
-465.143	107.846	0.223	-0.265
-464.128	-56.379	-0.390	-0.173
-463.113	-99.177	0.396	-0.100
-462.099	-16.927	-0.092	-0.058
-461.084	-77.102	-0.214	-0.075
-460.070	21.209	0.133	0.107
-459.055	-113.705	-0.134	-0.026
-458.040	-200.000	-0.020	-0.147
-457.026	-200.000	0.051	0.384
-456.011	-133.022	-0.034	0.004
-454.997	77.099	0.172	0.182
-453.982	-34.599	0.304	-0.166
-452.968	205.953	-0.090	0.140
-451.953	-79.381	-0.149	-0.050
-450.938	62.688	0.048	0.048
-449.924	243.753	-0.180	-0.301
-448.909	-116.154	-0.227	0.042
-447.895	17.237	0.278	0.220
-446.880	-200.000	-0.028	0.188
-445.865	-21.982	-0.121	-0.073
-444.851	800.000	0.135	0.460
-443.836	-105.098	-0.376	0.086
-442.822	-34.027	-0.295	-0.162
-441.807	-82.043	0.500	-0.163
-440.792	-200.000	0.019	0.175
-439.778	240.507	0.108	0.180
-438.763	-200.000	0.057	-0.328
-437.749	-61.410	-0.097	0.041
-436.734	-26.040	-0.427	-0.250
-435.719	-200.000	-0.017	0.209
-434.705	141.001	-0.099	-0.131
-433.690	91.627	0.203	0.228
-432.676	-133.132	-0.442	-0.056
-431.661	-76.048	0.261	0.092
-430.646	256.682	-0.145	-0.249
-429.632	61.567	-0.323	-0.321
-428.617	-138.045	-0.255	-0.028
-427.603	-59.096	0.251	0.108
-426.588	-11.441	-0.293	-0.192
-425.573	-146.997	0.322	-0.028
-424.559	-18.250	0.017	0.010
-423.544	-200.000	-0.010	0.170
-422.530	666.619	0.124	-0.320
-421.515	800.000	0.101	0.370
-420.500	-200.000	-0.027	-0.146
-419.486	-53.129	0.210	0.096
-418.471	-200.000	-0.245	0.000
-417.457	353.965	-0.121	0.240
-416.442	-159.497	-0.338	-0.019
-415.428	-200.000	-0.035	0.190
-414.413	-200.000	0.000	-0.191
-413.398	800.000	0.036	-0.111
-412.384	-200.000	-0.044	-0.197
-411.369	-18.581	0.245	0.152
-410.355	-58.664	-0.140	0.060
-409.340	172.937	-0.223	-0.321
-408.325	-30.432	-0.136	0.077
-407.311	800.000	-0.036	0.154
-406.296	-121.858	-0.447	-0.073
-405.282	-200.000	-0.051	-0.332
-404.267	121.442	0.112	-0.139
-403.252	169.990	0.115	0.164
-402.238	-200.000	0.012	-0.237
-401.223	-133.026	0.200	0.025
-400.209	-200.000	0.032	-0.290
-399.194	-200.000	0.006	-0.056
-398.179	-200.000	-0.029	0.163
-397.165	-68.430	0.181	-0.070
-396.150	73.872	-0.268	-0.280
-395.136	800.000	-0.010	0.039
-394.121	206.136	-0.133	-0.207
-393.106	180.596	-0.057	0.084
-392.092	197.525	0.166	-0.252
-391.077	-142.349	-0.344	0.034
-390.063	-4.431	0.164	0.113
-389.048	454.509	0.069	-0.153
-388.033	-169.945	0.132	0.005
-387.019	96.233	-0.046	-0.053
-386.004	504.083	0.101	0.233
-384.990	800.000	-0.080	0.221
-383.975	-183.026	0.206	0.004
-382.960	155.223	-0.051	0.070
-381.946	521.781	-0.073	-0.172
-380.931	42.868	-0.222	0.202
-379.917	-200.000	0.013	0.233
-378.902	-17.400	-0.108	-0.068
-377.888	230.655	-0.041	0.068
-376.873	-136.270	0.186	-0.022
-375.858	800.000	0.154	0.427
-374.844	324.385	-0.151	0.288
-373.829	320.985	0.054	-0.101
-372.815	-113.435	-0.318	0.062
-371.800	800.000	0.079	-0.299
-370.785	-58.500	0.182	-0.079
-369.771	-170.263	0.273	0.010
-368.756	-63.339	-0.210	0.086
-367.742	208.901	-0.036	-0.055
-366.727	-31.158	-0.213	-0.119
-365.712	800.000	-0.094	0.320
-364.698	-200.000	-0.050	0.280
-363.683	52.393	0.329	0.312
-362.669	-200.000	0.031	0.229
-361.654	14.276	-0.293	-0.227
-360.639	-80.351	-0.165	-0.055
-359.625	-60.971	0.380	-0.160
-358.610	-200.000	0.021	-0.132
-357.596	721.615	-0.039	0.103
-356.581	461.648	-0.066	-0.146
-355.566	332.114	0.102	-0.195
-354.552	139.112	-0.032	0.042
-353.537	-79.331	0.127	-0.043
-352.523	55.359	0.220	0.211
-351.508	110.729	0.118	0.141
-350.493	11.419	0.070	0.054
-349.479	356.825	-0.196	-0.388
-348.464	479.149	0.047	-0.105
-347.450	-98.831	0.095	0.024
-346.435	245.785	-0.158	-0.265
-345.420	47.909	-0.337	-0.313
-344.406	-66.920	-0.070	0.027
-343.391	800.000	-0.094	0.307
-342.377	-112.188	0.292	0.058
-341.362	800.000	-0.044	-0.147
-340.348	800.000	0.038	-0.136
-339.333	-176.226	-0.110	-0.003
-338.318	288.349	0.162	0.291
-337.304	-200.000	-0.033	-0.234
-336.289	-79.460	0.139	0.047
-335.275	137.488	-0.126	0.164
-334.260	214.749	-0.155	-0.244
-333.245	-67.092	0.229	-0.090
-332.231	45.679	0.060	-0.055
-331.216	-138.377	0.125	0.014
-330.202	279.201	-0.082	0.146
-329.187	-200.000	-0.030	-0.170
-328.172	349.487	0.037	-0.073
-327.158	-123.943	-0.230	0.036
-326.143	-136.146	-0.238	-0.028
-325.129	800.000	0.080	0.277
-324.114	-200.000	0.032	0.259
-323.099	-122.569	0.014	-0.002
-322.085	-141.016	-0.165	0.017
-321.070	-18.639	-0.260	-0.161
-320.056	685.145	-0.059	-0.154
-319.041	-66.385	-0.228	0.090
-318.026	151.351	0.236	-0.319
-317.012	-59.869	0.146	-0.062
-315.997	-10.887	0.208	-0.136
-314.983	189.764	-0.181	0.270
-313.968	122.368	0.089	-0.111
-312.953	-64.081	0.261	-0.106
-311.939	-150.028	0.052	0.004
-310.924	-46.305	-0.044	-0.021
-309.910	-5.185	0.258	0.176
-308.895	13.847	-0.451	0.348
-307.880	-59.034	0.312	-0.134
-306.866	-47.311	-0.179	0.086
-305.851	-64.719	0.109	-0.044
-304.837	-200.000	-0.066	0.397
-303.822	271.314	0.201	-0.351
-302.807	287.840	0.114	0.204
-301.793	-26.268	-0.086	0.050
-300.778	800.000	-0.047	-0.189
-299.764	-146.503	-0.210	0.018
-298.749	-97.691	0.295	-0.076
-297.735	44.826	-0.077	0.070
-296.720	187.630	0.076	0.112
-295.705	-141.735	0.206	0.021
-294.691	-118.660	-0.215	-0.038
-293.676	213.599	-0.158	0.247
-292.662	-43.935	-0.226	0.113
-291.647	53.231	-0.190	-0.181
-290.632	800.000	-0.081	0.258
-289.618	36.768	0.233	-0.204
-288.603	167.972	0.289	0.408
-287.589	115.444	0.247	0.299
-286.574	404.069	-0.063	-0.132
-285.559	-33.634	-0.446	-0.244
-284.545	115.097	0.197	0.238
-283.530	257.705	0.117	0.200
-282.516	-46.513	-0.421	0.205
-281.501	-82.269	0.116	0.037
-280.486	-40.653	-0.229	0.118
-279.472	-200.000	-0.104	-0.491
-278.457	-200.000	0.008	-0.086
-277.443	219.223	-0.097	-0.154
-276.428	800.000	0.149	-0.450
-275.413	117.173	0.210	-0.256
-274.399	800.000	0.033	0.122
-273.384	-109.748	-0.124	0.026
-272.370	83.716	-0.147	-0.159
-271.355	-84.091	0.190	-0.060
-270.340	-28.845	0.120	0.068
-269.326	800.000	0.037	0.117
-268.311	-164.672	-0.269	-0.012
-267.297	-64.685	-0.278	-0.112
-266.282	-118.725	-0.421	0.073
-265.267	-74.984	-0.081	-0.029
-264.253	800.000	0.023	-0.089
-263.238	-200.000	-0.016	0.089
-262.224	-200.000	0.023	0.232
-261.209	-96.587	0.098	0.026
-260.195	108.518	0.157	0.186
-259.180	-200.000	-0.023	-0.262
-258.165	-200.000	0.014	-0.075
-257.151	-120.906	-0.203	0.034
-256.136	-115.219	-0.134	0.025
-255.122	-65.520	-0.124	-0.049
-254.107	-44.524	0.143	0.071
-253.092	-97.025	0.141	0.037
-252.078	36.262	-0.135	0.118
-251.063	-28.470	0.050	-0.028
-250.049	249.104	-0.036	-0.061
-249.034	-157.916	0.321	-0.019
-248.019	-200.000	-0.008	0.037
-247.005	-200.000	-0.001	-0.029
-245.990	-200.000	-0.068	0.348
-244.976	-132.109	0.325	0.042
-243.961	20.160	0.175	-0.140
-242.946	-200.000	-0.079	-0.434
-241.932	9.822	-0.075	0.056
-240.917	-90.712	-0.266	-0.076
-239.903	-84.841	0.236	-0.073
-238.888	51.848	0.360	0.339
-237.873	-123.819	0.145	0.023
-236.859	743.209	-0.073	0.193
-235.844	-141.355	0.129	0.013
-234.830	705.887	0.084	0.219
-233.815	800.000	0.043	0.183
-232.800	800.000	-0.015	-0.066
-231.786	95.364	-0.147	0.166
-230.771	-32.805	0.192	-0.105
-229.757	134.139	-0.032	0.041
-228.742	134.600	0.077	0.098
-227.727	221.228	0.110	-0.174
-226.713	283.019	0.246	-0.438
-225.698	-200.000	-0.016	0.195
-224.684	705.568	0.180	-0.469
-223.669	20.518	0.180	-0.144
-222.655	-200.000	0.064	-0.352
-221.640	-94.325	-0.168	0.045
-220.625	-119.859	-0.287	0.049
-219.611	800.000	-0.020	0.065
-218.596	67.864	0.233	-0.236
-217.582	-200.000	0.124	0.615
-216.567	298.457	0.114	-0.208
-215.552	-200.000	0.031	-0.206
-214.538	53.113	-0.128	-0.121
-213.523	-14.622	0.154	0.098
-212.509	-119.762	0.391	-0.067
-211.494	635.356	0.035	-0.087
-210.479	12.396	-0.196	-0.149
-209.465	-158.011	0.078	0.005
-208.450	-72.141	-0.497	-0.183
-207.436	-14.778	-0.294	-0.186
-206.421	-32.080	0.197	-0.109
-205.406	-140.332	0.082	-0.009
-204.392	39.750	0.185	-0.164
-203.377	55.181	0.097	-0.092
-202.363	-71.413	-0.358	0.132
-201.348	414.620	-0.092	0.193
-200.333	-57.796	0.306	0.132
-199.319	-200.000	0.031	-0.353
-198.304	-129.377	0.366	0.050
-197.290	-66.275	0.295	-0.116
-196.275	-1.529	0.041	-0.028
-195.260	-186.251	-0.293	-0.004
-194.246	-29.463	-0.188	-0.106
-193.231	-200.000	-0.004	-0.109
-192.217	-71.756	0.173	0.064
-191.202	440.788	0.026	-0.055
-190.187	596.026	0.042	0.102
-189.173	65.740	-0.246	0.246
-188.158	75.653	0.186	0.194
-187.144	12.156	0.142	-0.108
-186.129	265.233	0.029	0.050
-185.114	74.234	0.119	-0.124
-184.100	-200.000	-0.097	-0.477
-183.085	93.920	0.152	0.171
-182.071	75.065	-0.148	0.154
-181.056	-200.000	0.007	-0.316
-180.042	99.382	-0.171	0.195
-179.027	182.735	0.217	-0.316
-178.012	66.863	0.286	0.287
-176.998	247.671	0.103	0.172
-175.983	425.453	-0.096	-0.204
-174.969	440.954	0.020	0.042
-173.954	-15.562	0.150	0.094
-172.939	-19.570	0.343	0.210
-171.925	-200.000	-0.009	-0.181
-170.910	-82.090	-0.168	0.054
-169.896	696.751	-0.066	0.170
-168.881	800.000	-0.108	0.310
-167.866	-200.000	-0.018	-0.088
-166.852	339.307	0.105	0.202
-165.837	-200.000	0.022	0.136
-164.823	458.935	0.152	0.334
-163.808	-7.816	0.057	0.038
-162.793	-59.445	-0.152	-0.065
-161.779	800.000	0.047	0.148
-160.764	311.523	-0.155	-0.287
-159.750	-62.482	-0.083	-0.034
-158.735	-112.142	0.313	-0.062
-157.720	800.000	0.018	-0.070
-156.706	255.835	-0.138	-0.233
-155.691	68.866	0.142	0.144
-154.677	720.450	-0.072	-0.190
-153.662	202.853	0.090	-0.137
-152.647	657.370	0.083	-0.209
-151.633	520.303	-0.023	0.054
-150.618	649.709	-0.088	0.223
-149.604	-99.323	0.097	-0.024
-148.589	-9.907	0.136	0.089
-147.574	750.298	-0.117	0.311
-146.560	-13.715	-0.335	0.214
-145.545	-200.000	0.034	0.184
-144.531	47.402	-0.171	0.157
-143.516	-200.000	-0.028	0.233
-142.502	-6.220	0.098	0.066
-141.487	174.549	-0.079	-0.113
-140.472	-70.112	0.159	-0.060
-139.458	-104.278	-0.227	-0.052
-138.443	-200.000	-0.010	-0.121
-137.429	-1.895	-0.149	0.104
-136.414	-45.504	-0.061	0.030
-135.399	203.833	0.085	-0.130
-134.385	41.826	0.172	-0.153
-133.370	402.887	0.114	-0.236
-132.356	-55.353	0.216	-0.096
-131.341	19.763	0.094	0.075
-130.326	704.418	0.084	0.218
-129.312	204.615	0.080	0.122
-128.297	324.269	0.127	-0.239
-127.283	48.502	0.137	-0.127
-126.268	35.572	0.184	-0.159
-125.253	800.000	-0.133	-0.567
-124.239	140.969	0.047	-0.061
-123.224	-50.171	-0.172	0.080
-122.210	20.753	0.260	-0.207
-121.195	-200.000	-0.100	-0.456
