DTS Sentinel unit serial number:	SN413079Multiplexer serial number:	ORYXHardware model number:	OX4-SRSoftware version number:	ORYX F/W v4.00 Oryx Data Collector v3.7.2.0data status	okinstallation	princeton_trtdifferential loss correction	single-endedforward channel	channel 4reverse channel	N/Adate	2019/09/18time	14:41:35forward acquisition time	60.00reverse acquisition time	0.00gamma	496.2192k internal	0.2299k external	0.2299temperature offset calibration	1.0000default loss term (dB/km)	0.3790temperature slope calibration	1.0000multiplexer offset coefficient	1.0000multiplexer slope coefficient	1.0000fibre end	0.00T internal ref (°C)	34.75T ext. ref 1 (°C)	0.72T ext. ref 2 (°C)	32.70length (m)	temperature (°C)	Stokes	anti-Stokes-747.200	800.000	-0.014	-0.053
-746.185	20.708	-0.245	0.202
-745.171	25.493	0.189	-0.160
-744.156	255.062	0.306	0.534
-743.142	91.065	-0.216	0.248
-742.127	-200.000	-0.001	-0.005
-741.112	-31.860	0.383	0.219
-740.098	-142.577	0.066	0.007
-739.083	-25.026	-0.279	-0.169
-738.069	-104.462	-0.105	-0.025
-737.054	-200.000	-0.031	-0.326
-736.039	533.604	-0.029	0.069
-735.025	118.994	0.299	0.377
-734.010	-56.882	-0.185	0.083
-732.996	551.933	-0.078	-0.192
-731.981	25.094	-0.134	-0.114
-730.966	-106.894	0.189	0.043
-729.952	-103.451	0.353	0.085
-728.937	-122.207	-0.299	0.050
-727.923	707.388	0.165	-0.445
-726.908	-15.260	0.172	-0.113
-725.894	489.769	-0.057	0.133
-724.879	-200.000	-0.002	-0.128
-723.864	800.000	-0.054	-0.211
-722.850	62.392	-0.157	-0.160
-721.835	-103.368	-0.240	-0.058
-720.821	-35.417	0.136	-0.075
-719.806	-200.000	-0.007	0.111
-718.791	239.302	-0.059	0.100
-717.777	800.000	-0.094	-0.347
-716.762	-200.000	-0.004	0.125
-715.748	-200.000	-0.011	-0.083
-714.733	31.906	0.183	0.160
-713.718	-200.000	-0.007	0.119
-712.704	-121.629	-0.016	-0.003
-711.689	156.907	0.082	0.115
-710.675	-15.376	0.266	0.173
-709.660	-172.393	0.189	-0.006
-708.645	206.102	-0.175	0.277
-707.631	559.476	0.076	-0.187
-706.616	424.812	-0.049	0.106
-705.602	184.538	-0.140	0.212
-704.587	755.905	-0.047	-0.129
-703.572	406.384	0.070	0.151
-702.558	253.593	0.104	0.181
-701.543	-200.000	-0.060	-0.438
-700.529	249.420	0.035	0.060
-699.514	77.098	0.050	-0.054
-698.499	144.091	-0.173	0.236
-697.485	-200.000	0.006	-0.073
-696.470	-93.731	-0.368	-0.103
-695.456	800.000	-0.064	-0.283
-694.441	207.175	-0.089	-0.141
-693.426	-24.420	-0.179	-0.109
-692.412	296.629	0.106	-0.197
-691.397	-200.000	0.014	-0.389
-690.383	143.423	-0.120	-0.163
-689.368	-200.000	0.010	-0.139
-688.354	800.000	0.043	-0.190
-687.339	64.342	0.272	-0.279
-686.324	-34.372	-0.378	-0.211
-685.310	84.787	-0.208	-0.231
-684.295	633.376	-0.018	-0.046
-683.281	-81.996	0.122	-0.040
-682.266	-114.486	-0.199	0.039
-681.251	1.195	-0.357	-0.261
-680.237	-8.943	-0.248	0.169
-679.222	-200.000	0.003	-0.160
-678.208	1.103	0.395	0.288
-677.193	14.816	-0.285	-0.227
-676.178	22.815	0.089	-0.075
-675.164	-200.000	0.049	0.226
-674.149	266.913	-0.263	0.468
-673.135	-102.493	0.217	-0.053
-672.120	-200.000	-0.012	0.200
-671.105	560.852	-0.089	0.219
-670.091	-180.878	-0.187	0.004
-669.076	117.137	0.189	-0.236
-668.062	130.408	0.186	-0.242
-667.047	800.000	-0.121	0.385
-666.032	62.263	-0.098	-0.100
-665.018	-54.044	-0.137	-0.064
-664.003	27.355	-0.313	-0.267
-662.989	256.841	-0.140	0.245
-661.974	-200.000	-0.019	-0.254
-660.959	-18.466	-0.216	-0.137
-659.945	210.008	-0.289	0.460
-658.930	-154.349	0.048	-0.003
-657.916	-152.726	0.152	0.011
-656.901	70.759	-0.353	0.372
-655.886	25.816	0.195	-0.166
-654.872	175.792	-0.055	-0.081
-653.857	681.952	-0.073	0.194
-652.843	282.939	0.036	-0.065
-651.828	-200.000	-0.008	-0.154
-650.814	107.577	0.196	0.237
-649.799	-65.143	-0.302	-0.124
-648.784	-40.841	0.471	-0.248
-647.770	412.778	0.052	-0.112
-646.755	-30.614	0.117	-0.067
-645.741	-200.000	-0.048	-0.314
-644.726	-200.000	-0.032	-0.171
-643.711	-82.037	-0.220	0.073
-642.697	406.131	0.125	-0.268
-641.682	-144.571	-0.074	0.007
-640.668	17.012	0.263	-0.212
-639.653	-34.793	0.172	0.095
-638.638	-17.514	-0.129	-0.082
-637.624	214.172	-0.216	-0.347
-636.609	800.000	0.021	-0.068
-635.595	657.657	0.050	0.130
-634.580	-151.246	0.149	-0.011
-633.565	207.836	0.076	-0.121
-632.551	117.707	0.311	-0.388
-631.536	-20.504	0.098	-0.061
-630.522	-102.725	0.311	-0.075
-629.507	21.156	0.121	-0.100
-628.492	42.408	0.327	-0.302
-627.478	310.591	0.164	0.312
-626.463	-92.703	-0.447	0.127
-625.449	800.000	-0.063	0.182
-624.434	446.909	-0.114	0.255
-623.419	-51.543	-0.112	0.053
-622.405	255.531	0.097	0.168
-621.390	-119.962	-0.129	-0.023
-620.376	-28.210	0.062	-0.036
-619.361	-200.000	-0.001	-0.274
-618.346	372.705	-0.145	0.299
-617.332	800.000	0.077	-0.238
-616.317	-23.416	-0.253	-0.154
-615.303	-13.410	0.150	-0.099
-614.288	-41.275	0.105	-0.055
-613.273	800.000	0.043	-0.171
-612.259	-62.060	0.266	-0.113
-611.244	-3.404	0.161	0.114
-610.230	718.380	0.044	-0.118
-609.215	-92.542	-0.166	0.047
-608.201	196.677	-0.191	0.296
-607.186	316.971	0.189	0.363
-606.171	254.702	-0.073	0.126
-605.157	329.261	-0.030	0.059
-604.142	-136.168	-0.253	-0.030
-603.128	800.000	-0.040	-0.113
-602.113	800.000	-0.120	-0.346
-601.098	800.000	-0.134	-0.449
-600.084	52.110	0.112	0.109
-599.069	141.118	0.101	0.135
-598.055	512.999	0.039	-0.093
-597.040	86.392	0.151	-0.168
-596.025	51.989	0.101	0.098
-595.011	-17.727	-0.243	-0.155
-593.996	-13.747	-0.084	-0.055
-592.982	-200.000	-0.003	-0.091
-591.967	-149.063	0.064	-0.005
-590.952	-16.200	-0.142	0.091
-589.938	-176.979	0.033	0.001
-588.923	290.102	-0.161	-0.296
-587.909	-28.937	0.275	0.160
-586.894	-71.384	-0.219	-0.083
-585.879	-40.778	-0.265	0.139
-584.865	129.205	0.130	0.169
-583.850	-94.752	-0.237	-0.065
-582.836	-200.000	-0.027	-0.249
-581.821	423.028	-0.088	-0.192
-580.806	-58.277	-0.095	0.042
-579.792	371.593	-0.160	0.329
-578.777	296.738	0.030	-0.055
-577.763	597.038	0.063	0.159
-576.748	-135.230	-0.013	0.002
-575.733	-6.475	0.156	-0.108
-574.719	289.431	-0.072	-0.132
-573.704	68.685	-0.185	-0.193
-572.690	-200.000	0.020	0.278
-571.675	-33.200	0.242	0.136
-570.661	-68.483	-0.239	-0.094
-569.646	2.440	0.178	0.130
-568.631	-125.078	0.154	-0.024
-567.617	-17.914	-0.226	-0.144
-566.602	-55.476	-0.122	-0.055
-565.588	-89.154	0.123	-0.037
-564.573	-58.815	0.254	-0.111
-563.558	-200.000	0.020	-0.283
-562.544	-38.926	0.180	0.096
-561.529	-74.320	0.263	0.096
-560.515	369.318	-0.127	-0.260
-559.500	800.000	0.091	-0.316
-558.485	-200.000	0.053	0.445
-557.471	-16.373	0.106	0.068
-556.456	115.804	0.180	-0.223
-555.442	43.219	-0.327	0.302
-554.427	58.232	-0.101	-0.100
-553.412	-5.604	-0.169	0.118
-552.398	181.970	0.124	-0.185
-551.383	153.983	-0.129	-0.180
-550.369	800.000	0.075	0.269
-549.354	-131.154	0.240	0.032
-548.339	-10.315	-0.230	-0.155
-547.325	83.307	-0.325	0.359
-546.310	-122.522	0.076	0.012
-545.296	-118.980	0.015	-0.003
-544.281	96.178	-0.197	-0.228
-543.266	527.092	0.043	0.103
-542.252	-106.538	-0.117	-0.026
-541.237	344.918	0.154	-0.306
-540.223	266.771	-0.073	0.130
-539.208	-200.000	-0.002	0.122
-538.193	-33.460	-0.145	0.081
-537.179	800.000	-0.082	0.236
-536.164	-200.000	-0.005	-0.387
-535.150	-110.433	-0.144	0.030
-534.135	650.536	-0.109	0.282
-533.121	-141.066	-0.130	0.013
-532.106	187.717	0.080	0.122
-531.091	-119.843	-0.163	-0.028
-530.077	36.750	0.318	-0.284
-529.062	-67.755	-0.124	0.049
-528.048	294.263	-0.117	-0.216
-527.033	102.961	0.422	-0.501
-526.018	233.046	0.066	0.110
-525.004	-95.017	0.150	0.041
-523.989	-200.000	0.011	0.385
-522.975	42.607	-0.219	-0.202
-521.960	-30.307	-0.384	0.221
-520.945	87.330	-0.163	0.182
-519.931	800.000	0.042	-0.122
-518.916	152.769	0.085	0.118
-517.902	-74.416	0.090	-0.033
-516.887	179.836	-0.357	-0.529
-515.872	6.415	-0.190	-0.142
-514.858	450.571	0.056	0.124
-513.843	7.093	0.106	-0.080
-512.829	141.359	0.218	-0.292
-511.814	14.092	0.156	-0.123
-510.799	-99.875	0.173	0.044
-509.785	273.389	0.080	0.142
-508.770	-121.518	0.217	0.036
-507.756	800.000	0.074	-0.322
-506.741	429.102	-0.033	-0.073
-505.726	-105.693	0.227	-0.052
-504.712	-200.000	-0.009	-0.174
-503.697	-20.544	-0.102	0.064
-502.683	686.212	0.084	-0.222
-501.668	-200.000	0.007	-0.057
-500.653	-200.000	0.036	0.340
-499.639	304.673	-0.020	-0.038
-498.624	0.037	-0.136	0.098
-497.610	-200.000	-0.015	0.322
-496.595	142.794	0.103	-0.138
-495.581	14.447	-0.171	-0.134
-494.566	265.966	0.134	0.237
-493.551	189.641	0.034	-0.051
-492.537	88.644	0.124	-0.139
-491.522	15.394	-0.013	0.010
-490.508	235.855	-0.259	-0.433
-489.493	-73.911	-0.051	-0.019
-488.478	37.295	0.109	-0.098
-487.464	-92.336	-0.043	0.012
-486.449	-81.753	-0.215	0.071
-485.435	-200.000	0.040	-0.228
-484.420	800.000	-0.011	0.037
-483.405	-200.000	0.014	0.259
-482.391	-46.766	-0.205	-0.101
-481.376	-97.412	-0.112	0.030
-480.362	-200.000	0.007	-0.082
-479.347	-102.470	-0.166	0.040
-478.332	-76.971	0.067	0.024
-477.318	-138.581	0.172	-0.019
-476.303	-200.000	0.020	0.291
-475.289	-200.000	-0.030	-0.147
-474.274	1.892	0.232	-0.169
-473.259	20.541	-0.121	-0.098
-472.245	160.294	-0.073	-0.102
-471.230	-99.469	-0.199	0.050
-470.216	800.000	0.013	0.036
-469.201	-110.711	-0.122	0.025
-468.186	161.580	-0.178	0.251
-467.172	-138.731	-0.128	0.014
-466.157	-41.421	-0.236	-0.122
-465.143	-200.000	0.015	0.213
-464.128	-200.000	0.004	0.115
-463.113	-34.648	0.087	0.048
-462.099	-89.639	-0.190	0.056
-461.084	-37.781	0.277	-0.149
-460.070	-200.000	0.014	-0.148
-459.055	-42.554	0.470	-0.242
-458.040	538.430	0.140	0.335
-457.026	-120.215	0.202	-0.035
-456.011	-200.000	-0.019	0.173
-454.997	232.990	-0.212	0.351
-453.982	800.000	0.028	-0.123
-452.968	-108.849	-0.175	-0.038
-451.953	-88.590	0.206	-0.062
-450.938	220.723	0.090	-0.146
-449.924	-31.295	0.133	-0.076
-448.909	-200.000	0.003	0.321
-447.895	127.259	-0.149	0.191
-446.880	-116.886	0.257	0.047
-445.865	800.000	0.112	0.402
-444.851	-134.922	0.175	-0.021
-443.836	362.426	0.190	-0.385
-442.822	643.490	0.071	-0.184
-441.807	226.256	0.067	0.109
-440.792	30.798	-0.130	-0.113
-439.778	-19.553	0.037	0.023
-438.763	-200.000	0.061	0.372
-437.749	441.507	0.128	-0.282
-436.734	-200.000	0.015	-0.090
-435.719	-138.447	0.115	0.013
-434.705	-56.858	0.102	0.046
-433.690	-2.457	-0.232	-0.164
-432.676	-200.000	0.020	-0.303
-431.661	-200.000	0.032	-0.388
-430.646	-122.628	0.249	0.041
-429.632	92.942	-0.096	0.109
-428.617	800.000	-0.023	-0.092
-427.603	800.000	-0.032	0.111
-426.588	-59.972	-0.357	-0.154
-425.573	-23.083	-0.075	-0.046
-424.559	15.771	-0.166	0.132
-423.544	-200.000	0.000	0.267
-422.530	45.537	0.077	-0.072
-421.515	-200.000	0.053	0.306
-420.500	-200.000	-0.087	0.428
-419.486	-163.445	-0.187	-0.009
-418.471	44.462	0.277	-0.256
-417.457	-54.942	-0.225	-0.102
-416.442	199.293	0.144	0.222
-415.428	-79.970	-0.087	-0.030
-414.413	-200.000	-0.069	-0.332
-413.398	-200.000	0.001	0.017
-412.384	-38.230	-0.160	-0.086
-411.369	-98.083	0.220	0.057
-410.355	-106.007	-0.180	0.041
-409.340	-41.050	0.189	0.098
-408.325	-200.000	-0.025	-0.345
-407.311	800.000	0.079	-0.220
-406.296	75.326	-0.098	-0.104
-405.282	-54.730	0.205	0.093
-404.267	-112.582	0.291	0.058
-403.252	-120.821	0.106	-0.018
-402.238	-200.000	0.024	-0.219
-401.223	-119.381	-0.493	0.086
-400.209	-21.524	0.316	0.194
-399.194	-200.000	-0.041	0.325
-398.179	247.371	-0.036	-0.061
-397.165	-200.000	0.005	0.101
-396.150	-200.000	-0.014	-0.325
-395.136	67.417	-0.100	0.103
-394.121	-200.000	0.004	-0.097
-393.106	449.527	0.035	-0.078
-392.092	323.775	0.058	0.112
-391.077	800.000	-0.050	-0.169
-390.063	-21.862	0.080	0.049
-389.048	-200.000	0.000	-0.037
-388.033	-99.849	-0.162	-0.041
-387.019	-117.615	-0.254	-0.046
-386.004	-112.883	0.319	-0.064
-384.990	-28.889	0.148	0.085
-383.975	438.117	-0.061	0.134
-382.960	-11.529	-0.208	0.138
-381.946	800.000	-0.053	-0.203
-380.931	-33.899	-0.182	-0.101
-379.917	-200.000	-0.009	-0.153
-378.902	75.940	0.095	-0.101
-377.888	41.128	0.210	0.191
-376.873	434.676	0.046	0.101
-375.858	-200.000	-0.057	0.264
-374.844	-180.971	0.054	-0.001
-373.829	13.039	-0.255	0.198
-372.815	-80.618	-0.090	0.030
-371.800	54.637	-0.019	-0.018
-370.785	65.798	0.100	0.102
-369.771	-200.000	-0.025	-0.129
-368.756	-200.000	-0.012	-0.229
-367.742	-112.379	-0.221	0.045
-366.727	6.447	0.229	0.171
-365.712	-42.620	0.330	0.169
-364.698	27.567	-0.235	-0.199
-363.683	-200.000	-0.032	0.247
-362.669	-48.994	-0.234	-0.113
-361.654	333.537	0.099	0.192
-360.639	59.538	-0.200	-0.198
-359.625	275.595	-0.109	-0.194
-358.610	-88.856	-0.151	0.045
-357.596	-200.000	0.011	0.230
-356.581	15.030	-0.218	0.172
-355.566	-72.742	-0.110	-0.041
-354.552	-200.000	-0.034	-0.191
-353.537	-200.000	0.125	0.000
-352.523	-35.061	0.211	-0.116
-351.508	40.043	-0.177	0.160
-350.493	303.367	0.104	0.193
-349.479	-150.806	-0.097	0.007
-348.464	3.715	-0.277	0.203
-347.450	170.029	-0.062	0.089
-346.435	-74.978	0.053	0.019
-345.420	-70.279	-0.200	0.076
-344.406	-200.000	-0.015	-0.439
-343.391	-200.000	0.316	0.000
-342.377	800.000	0.081	0.243
-341.362	135.750	-0.168	0.220
-340.348	-129.444	-0.059	-0.008
-339.333	-77.451	-0.126	0.044
-338.318	800.000	-0.116	-0.355
-337.304	107.531	0.205	-0.246
-336.289	-40.367	-0.069	-0.036
-335.275	-120.089	-0.078	0.013
-334.260	800.000	-0.023	-0.097
-333.245	-92.110	0.053	-0.015
-332.231	-96.665	0.269	-0.071
-331.216	-118.891	0.083	0.015
-330.202	-200.000	-0.006	-0.127
-329.187	-200.000	-0.028	0.144
-328.172	-126.983	-0.200	0.029
-327.158	219.305	-0.070	-0.112
-326.143	27.291	-0.060	0.051
-325.129	-122.992	-0.116	0.019
-324.114	-41.524	-0.228	0.118
-323.099	320.522	-0.067	0.127
-322.085	-146.638	0.287	-0.025
-321.070	762.171	0.037	-0.099
-320.056	-135.339	-0.215	0.026
-319.041	-200.000	-0.246	-0.000
-318.026	-34.671	0.141	0.077
-317.012	593.370	-0.154	-0.383
-315.997	-112.886	-0.151	0.030
-314.983	-200.000	-0.017	0.207
-313.968	-161.862	-0.071	-0.004
-312.953	-90.630	-0.172	0.050
-311.939	-200.000	0.012	0.229
-310.924	43.112	0.076	0.069
-309.910	-200.000	0.005	-0.159
-308.895	-142.454	-0.590	0.058
-307.880	235.482	0.170	0.282
-306.866	93.564	-0.118	-0.134
-305.851	-69.895	0.227	-0.087
-304.837	-12.307	0.142	0.093
-303.822	584.732	-0.074	0.181
-302.807	414.712	0.036	-0.077
-301.793	-111.428	-0.322	0.066
-300.778	800.000	0.076	-0.249
-299.764	-55.400	-0.092	0.041
-298.749	12.800	-0.156	-0.121
-297.735	193.283	0.164	0.249
-296.720	96.190	-0.206	0.236
-295.705	-113.674	0.248	0.048
-294.691	-54.676	0.202	0.092
-293.676	-5.128	0.089	-0.061
-292.662	-133.640	0.317	0.040
-291.647	800.000	0.017	0.073
-290.632	800.000	0.053	0.206
-289.618	-140.205	0.321	-0.034
-288.603	800.000	-0.170	0.498
-287.589	-200.000	-0.001	-0.197
-286.574	-144.737	0.135	0.012
-285.559	122.871	-0.035	0.043
-284.545	259.734	0.063	-0.110
-283.530	-0.115	0.198	0.141
-282.516	-200.000	-0.002	-0.128
-281.501	280.663	0.165	-0.296
-280.486	353.213	0.039	-0.077
-279.472	358.999	0.070	0.141
-278.457	-97.675	-0.069	0.018
-277.443	139.005	-0.287	0.378
-276.428	55.330	0.203	0.197
-275.413	506.068	0.070	0.163
-274.399	800.000	-0.030	-0.090
-273.384	-13.087	-0.243	-0.158
-272.370	800.000	-0.050	0.207
-271.355	-88.996	0.111	-0.033
-270.340	19.471	-0.217	0.175
-269.326	-53.970	-0.120	-0.055
-268.311	-54.354	0.242	0.110
-267.297	-48.152	-0.172	0.083
-266.282	-189.771	0.131	-0.001
-265.267	198.340	0.124	0.190
-264.253	-149.705	0.141	0.011
-263.238	-200.000	0.069	0.322
-262.224	-136.801	-0.248	0.029
-261.209	-55.583	-0.298	0.134
-260.195	-84.221	0.417	-0.132
-259.180	-1.945	0.062	-0.044
-258.165	32.664	0.138	-0.120
-257.151	177.203	-0.236	-0.344
-256.136	570.685	0.182	0.444
-255.122	125.531	0.019	-0.024
-254.107	-90.952	0.378	0.109
-253.092	461.173	-0.107	-0.239
-252.078	-119.624	0.290	0.050
-251.063	338.296	0.086	-0.167
-250.049	144.198	0.058	0.078
-249.034	-124.760	-0.342	0.053
-248.019	800.000	-0.073	-0.208
-247.005	-124.657	0.295	-0.046
-245.990	-200.000	-0.012	0.163
-244.976	800.000	-0.042	-0.117
-243.961	417.026	0.034	0.072
-242.946	107.998	0.096	0.114
-241.932	26.040	-0.252	0.210
-240.917	152.228	-0.211	0.289
-239.903	-200.000	-0.065	0.367
-238.888	-200.000	0.020	0.554
-237.873	-128.454	-0.435	-0.062
-236.859	-200.000	0.032	-0.309
-235.844	316.853	-0.068	0.128
-234.830	46.374	-0.155	-0.144
-233.815	80.396	-0.135	0.145
-232.800	-134.044	0.198	0.024
-231.786	800.000	-0.188	-0.537
-230.771	-96.356	0.189	0.050
-229.757	765.657	0.099	0.269
-228.742	179.691	0.176	-0.257
-227.727	-200.000	-0.049	-0.262
-226.713	-200.000	0.020	0.128
-225.698	-200.000	-0.010	-0.103
-224.684	-124.748	-0.193	0.030
-223.669	24.474	0.046	-0.038
-222.655	368.801	0.139	-0.282
-221.640	-75.608	0.361	-0.128
-220.625	-174.846	0.241	0.007
-219.611	187.732	0.111	0.166
-218.596	-200.000	-0.012	0.076
-217.582	-108.741	0.344	0.074
-216.567	36.559	-0.214	0.189
-215.552	-200.000	0.021	-0.105
-214.538	-79.753	-0.117	-0.040
-213.523	-86.033	-0.343	0.106
-212.509	-173.201	0.018	0.001
-211.494	-57.645	-0.154	-0.067
-210.479	-102.191	-0.184	-0.044
-209.465	57.793	-0.098	-0.096
-208.450	-200.000	-0.021	-0.096
-207.436	320.650	-0.109	0.208
-206.421	-29.502	0.105	0.060
-205.406	175.305	0.313	0.453
-204.392	22.076	-0.125	0.102
-203.377	800.000	-0.035	0.138
-202.363	47.637	0.311	-0.289
-201.348	253.349	0.110	0.188
-200.333	-200.000	0.009	-0.076
-199.319	71.402	0.052	0.054
-198.304	-133.407	-0.231	-0.029
-197.290	800.000	-0.106	-0.330
-196.275	-43.726	-0.238	-0.120
-195.260	45.954	0.282	0.261
-194.246	-57.954	0.351	0.153
-193.231	-12.123	-0.069	0.045
-192.217	5.369	0.161	-0.118
-191.202	800.000	-0.179	-0.588
-190.187	23.598	-0.063	-0.052
-189.173	-98.144	-0.264	-0.068
-188.158	206.809	0.137	0.214
-187.144	204.373	0.104	0.161
-186.129	-31.117	-0.519	0.292
-185.114	-119.336	-0.038	0.007
-184.100	-57.199	0.109	-0.048
-183.085	-200.000	-0.020	0.240
-182.071	-200.000	0.097	0.438
-181.056	351.022	-0.088	-0.174
-180.042	51.677	0.149	0.142
-179.027	261.659	-0.295	-0.511
-178.012	20.839	0.184	0.149
-176.998	-200.000	0.005	0.037
-175.983	-130.168	-0.231	0.031
-174.969	800.000	0.069	0.293
-173.954	191.764	-0.055	-0.082
-172.939	83.241	-0.118	0.129
-171.925	-200.000	-0.019	-0.135
-170.910	-27.015	0.140	0.081
-169.896	27.364	0.149	0.125
-168.881	-73.325	-0.225	-0.082
-167.866	-200.000	-0.008	-0.100
-166.852	-145.463	0.263	-0.024
-165.837	-200.000	-0.014	-0.101
-164.823	617.528	-0.042	0.105
-163.808	28.171	0.154	0.130
-162.793	-93.958	0.224	-0.061
-161.779	-26.317	0.061	0.035
-160.764	123.743	-0.160	-0.200
-159.750	520.422	-0.106	0.248
-158.735	15.113	0.293	0.229
-157.720	114.813	0.242	0.294
-156.706	62.358	0.311	0.310
-155.691	201.472	0.082	-0.126
-154.677	15.175	-0.131	-0.102
-153.662	-200.000	-0.014	-0.158
-152.647	208.418	0.146	-0.227
-151.633	-12.703	-0.028	-0.018
-150.618	-200.000	0.004	-0.066
-149.604	83.987	-0.121	0.132
-148.589	-82.528	0.285	0.092
-147.574	-177.330	0.390	0.010
-146.560	111.804	-0.057	-0.069
-145.545	-11.479	-0.124	0.081
-144.531	-121.892	-0.148	-0.024
-143.516	-136.383	-0.157	0.018
-142.502	241.904	-0.334	0.556
-141.487	-80.746	0.110	0.036
-140.472	91.794	-0.061	-0.069
-139.458	-200.000	-0.012	0.262
-138.443	-123.228	-0.136	-0.022
-137.429	800.000	-0.083	-0.317
-136.414	-50.077	-0.197	0.093
-135.399	246.738	0.040	-0.067
-134.385	-2.317	0.171	0.119
-133.370	30.776	0.318	-0.272
-132.356	86.999	0.142	-0.156
-131.341	-91.635	-0.063	-0.018
-130.326	-83.308	0.091	-0.029
-129.312	-200.000	-0.026	0.147
-128.297	228.937	0.011	0.018
-127.283	548.172	0.150	0.357
-126.268	-35.785	0.375	0.202
-125.253	-180.324	-0.402	-0.008
-124.239	-100.269	-0.319	-0.079
-123.224	-174.201	-0.125	-0.004
-122.210	-200.000	0.039	0.221
