DTS Sentinel unit serial number:	SN413079Multiplexer serial number:	ORYXHardware model number:	OX4-SRSoftware version number:	ORYX F/W v4.00 Oryx Data Collector v3.7.2.0data status	okinstallation	princeton_trtdifferential loss correction	single-endedforward channel	channel 4reverse channel	N/Adate	2019/09/12time	14:47:11forward acquisition time	60.00reverse acquisition time	0.00gamma	496.2192k internal	0.2290k external	0.2290temperature offset calibration	1.0088default loss term (dB/km)	0.3790temperature slope calibration	1.0000multiplexer offset coefficient	1.0000multiplexer slope coefficient	1.0000fibre end	0.00T internal ref (°C)	40.19T ext. ref 1 (°C)	2.31T ext. ref 2 (°C)	37.08length (m)	temperature (°C)	Stokes	anti-Stokes-747.200	49.541	0.207	-0.200
-746.185	-200.000	-0.028	0.178
-745.171	-200.000	0.008	0.193
-744.156	-13.356	0.079	0.052
-743.142	18.402	0.234	-0.192
-742.127	-62.681	0.446	0.189
-741.112	800.000	-0.111	0.324
-740.098	-200.000	-0.039	-0.194
-739.083	-109.605	0.307	-0.066
-738.069	-40.846	0.270	0.143
-737.054	-101.367	-0.268	-0.067
-736.039	64.361	-0.127	0.131
-735.025	800.000	0.166	0.567
-734.010	-200.000	0.021	-0.323
-732.996	-47.711	-0.074	0.037
-731.981	353.127	-0.030	-0.060
-730.966	55.202	0.075	-0.075
-729.952	-200.000	0.036	-0.324
-728.937	-200.000	-0.027	-0.190
-727.923	-200.000	0.028	-0.237
-726.908	-91.848	-0.120	0.035
-725.894	48.594	-0.199	-0.191
-724.879	29.447	-0.122	-0.106
-723.864	44.841	-0.245	-0.231
-722.850	56.293	-0.123	-0.123
-721.835	-143.848	-0.202	-0.019
-720.821	-117.418	0.395	-0.073
-719.806	61.220	-0.349	-0.355
-718.791	-147.551	-0.267	-0.023
-717.777	11.524	-0.173	-0.135
-716.762	110.607	0.361	-0.444
-715.748	-4.697	-0.273	-0.193
-714.733	-200.000	-0.055	-0.288
-713.718	-200.000	-0.031	-0.369
-712.704	48.495	0.222	0.212
-711.689	-99.787	-0.327	-0.084
-710.675	428.102	0.057	0.127
-709.660	-30.467	-0.128	0.074
-708.645	38.209	0.106	0.097
-707.631	65.377	0.056	0.058
-706.616	-200.000	-0.090	-0.554
-705.602	-86.576	0.309	-0.097
-704.587	-200.000	0.004	0.205
-703.572	-137.321	0.138	0.016
-702.558	21.547	0.109	-0.091
-701.543	-6.510	-0.137	0.096
-700.529	-140.054	0.232	-0.025
-699.514	103.333	-0.273	-0.328
-698.499	-134.242	0.084	-0.011
-697.485	-122.790	-0.161	0.027
-696.470	-96.821	-0.151	0.041
-695.456	48.269	-0.072	0.069
-694.441	800.000	0.069	-0.293
-693.426	258.022	-0.098	-0.173
-692.412	-124.131	0.184	-0.029
-691.397	800.000	-0.074	-0.226
-690.383	567.144	0.039	0.096
-689.368	186.244	-0.137	-0.209
-688.354	41.595	0.296	0.274
-687.339	119.184	0.008	0.010
-686.324	545.996	-0.051	0.124
-685.310	-119.197	0.088	0.016
-684.295	-131.302	0.346	-0.047
-683.281	-96.204	0.040	-0.011
-682.266	611.296	-0.136	-0.348
-681.251	59.163	-0.224	0.225
-680.237	127.798	-0.215	0.279
-679.222	344.139	0.119	0.239
-678.208	-132.756	-0.460	0.060
-677.193	72.507	0.124	-0.132
-676.178	125.491	-0.130	-0.168
-675.164	-24.502	0.182	-0.111
-674.149	-125.569	0.132	-0.021
-673.135	-200.000	0.018	-0.129
-672.120	-200.000	0.027	-0.250
-671.105	343.222	0.120	-0.241
-670.091	-11.309	0.162	-0.109
-669.076	620.281	-0.101	-0.258
-668.062	793.044	0.091	-0.257
-667.047	-125.298	-0.145	0.023
-666.032	-72.499	0.239	0.090
-665.018	97.913	0.208	0.244
-664.003	495.619	-0.084	0.197
-662.989	9.422	-0.058	-0.045
-661.974	-102.337	-0.252	0.062
-660.959	6.069	0.066	0.050
-659.945	-142.952	-0.273	-0.027
-658.930	-148.967	0.286	0.024
-657.916	-15.677	0.191	0.125
-656.901	91.274	0.079	-0.090
-655.886	71.474	0.328	-0.348
-654.872	-60.385	0.071	-0.031
-653.857	443.429	-0.096	-0.215
-652.843	766.406	-0.124	-0.345
-651.828	43.696	-0.042	-0.039
-650.814	64.214	0.119	0.122
-649.799	103.305	-0.195	-0.234
-648.784	-107.725	0.133	-0.030
-647.770	800.000	0.085	0.367
-646.755	304.416	-0.048	0.091
-645.741	-115.459	-0.200	0.039
-644.726	-2.423	-0.156	0.111
-643.711	800.000	0.094	-0.316
-642.697	52.729	-0.349	0.340
-641.682	-69.345	-0.039	0.015
-640.668	-179.717	0.062	-0.001
-639.653	-200.000	-0.033	-0.173
-638.638	-200.000	-0.006	0.120
-637.624	800.000	0.022	-0.089
-636.609	-189.970	0.579	0.007
-635.595	800.000	-0.061	-0.234
-634.580	-92.113	0.198	-0.057
-633.565	96.839	0.146	0.171
-632.551	23.377	0.346	-0.290
-631.536	-154.748	-0.579	0.039
-630.522	195.545	0.073	-0.114
-629.507	-75.397	0.208	-0.075
-628.492	362.973	-0.196	-0.402
-627.478	-158.080	0.087	-0.005
-626.463	-64.890	0.293	-0.121
-625.449	-27.560	-0.066	0.039
-624.434	-41.122	-0.244	-0.128
-623.419	123.051	0.161	0.206
-622.405	221.040	-0.156	0.255
-621.390	-15.623	0.045	-0.030
-620.376	405.680	-0.122	0.262
-619.361	336.760	0.129	0.255
-618.346	-56.361	-0.257	-0.116
-617.332	800.000	-0.073	-0.216
-616.317	377.607	-0.062	0.128
-615.303	-112.079	0.226	0.046
-614.288	153.262	-0.195	-0.272
-613.273	14.401	0.171	0.136
-612.259	-102.872	-0.170	-0.041
-611.244	-166.652	0.134	-0.006
-610.230	7.402	0.070	0.054
-609.215	-65.157	-0.425	-0.175
-608.201	55.157	-0.207	0.204
-607.186	54.357	-0.075	-0.074
-606.171	-67.333	0.193	0.077
-605.157	270.511	0.082	0.146
-604.142	-82.237	-0.161	-0.053
-603.128	35.357	-0.168	0.150
-602.113	634.718	-0.150	0.387
-601.098	232.007	0.262	-0.439
-600.084	-127.913	0.037	0.005
-599.069	28.293	0.071	0.061
-598.055	800.000	-0.048	-0.152
-597.040	800.000	-0.143	-0.480
-596.025	-3.026	-0.219	0.156
-595.011	-29.290	-0.139	0.081
-593.996	24.784	-0.071	-0.060
-592.982	800.000	-0.057	-0.166
-591.967	-200.000	0.044	-0.334
-590.952	72.758	0.102	0.108
-589.938	-37.137	-0.148	-0.081
-588.923	-166.978	-0.220	0.009
-587.909	-77.942	-0.115	0.040
-586.894	168.268	0.140	-0.203
-585.879	678.643	0.123	-0.327
-584.865	-200.000	0.045	0.323
-583.850	168.642	0.169	0.245
-582.836	800.000	0.051	-0.178
-581.821	-200.000	-0.032	-0.346
-580.806	-200.000	-0.013	0.103
-579.792	-177.350	0.291	-0.007
-578.777	-200.000	0.017	0.278
-577.763	-143.709	-0.180	-0.017
-576.748	-60.535	0.352	0.152
-575.733	-96.232	-0.083	-0.022
-574.719	-121.601	-0.259	-0.044
-573.704	-153.845	0.189	0.013
-572.690	800.000	-0.110	-0.318
-571.675	756.347	-0.177	-0.489
-570.661	-21.713	0.123	0.076
-569.646	167.709	-0.085	0.123
-568.631	-7.787	0.116	-0.080
-567.617	800.000	-0.056	0.206
-566.602	800.000	0.029	-0.120
-565.588	-131.309	-0.123	0.017
-564.573	-132.911	-0.154	0.020
-563.558	-150.983	-0.194	-0.015
-562.544	-1.709	-0.229	-0.164
-561.529	-124.818	0.174	0.027
-560.515	-107.768	-0.408	-0.090
-559.500	698.630	0.092	-0.246
-558.485	-114.393	0.213	-0.042
-557.471	-186.814	-0.143	0.002
-556.456	-156.701	-0.448	0.028
-555.442	-24.311	0.075	0.046
-554.427	490.216	0.059	0.138
-553.412	-47.186	0.192	-0.095
-552.398	17.676	0.083	0.067
-551.383	-25.339	0.147	0.088
-550.369	9.839	0.147	0.114
-549.354	25.358	-0.046	0.039
-548.339	-200.000	0.003	0.166
-547.325	61.891	-0.139	0.141
-546.310	-200.000	-0.028	0.238
-545.296	231.736	0.035	0.058
-544.281	-67.788	0.113	0.045
-543.266	800.000	0.019	-0.081
-542.252	-149.751	-0.269	0.021
-541.237	-69.397	-0.180	-0.070
-540.223	74.193	0.154	-0.165
-539.208	21.930	-0.100	-0.083
-538.193	-109.089	-0.201	-0.044
-537.179	-127.407	0.119	0.018
-536.164	79.789	-0.173	0.189
-535.150	75.102	-0.270	0.289
-534.135	-46.770	0.134	-0.067
-533.121	-126.617	-0.127	0.019
-532.106	-49.137	-0.312	-0.152
-531.091	-8.442	-0.233	0.159
-530.077	91.376	-0.219	-0.250
-529.062	-111.651	0.285	-0.059
-528.048	-50.063	-0.093	0.045
-527.033	-73.158	-0.141	-0.053
-526.018	470.738	0.103	-0.235
-525.004	800.000	0.023	0.093
-523.989	-77.698	-0.290	-0.102
-522.975	-144.399	-0.350	-0.033
-521.960	176.068	0.237	0.349
-520.945	155.147	0.120	0.168
-519.931	-35.670	0.193	0.106
-518.916	276.935	0.092	-0.167
-517.902	67.111	0.097	-0.100
-516.887	-114.801	0.217	-0.042
-515.872	452.325	0.111	-0.249
-514.858	556.847	-0.108	-0.264
-513.843	482.885	0.022	-0.052
-512.829	56.986	0.090	-0.090
-511.814	-200.000	-0.040	0.322
-510.799	-61.214	0.129	0.055
-509.785	-200.000	0.009	0.045
-508.770	-9.674	0.134	-0.091
-507.756	-20.329	0.046	-0.029
-506.741	443.470	-0.144	0.320
-505.726	-121.832	-0.215	-0.036
-504.712	368.626	-0.054	-0.112
-503.697	-200.000	-0.009	0.126
-502.683	165.048	-0.192	-0.275
-501.668	-200.000	0.017	0.312
-500.653	-23.060	-0.230	-0.141
-499.639	-66.114	-0.101	0.041
-498.624	-46.159	-0.180	-0.090
-497.610	-70.813	0.216	0.083
-496.595	-90.422	-0.168	-0.049
-495.581	89.017	-0.287	-0.324
-494.566	-200.000	-0.003	-0.247
-493.551	-3.307	-0.420	-0.297
-492.537	-11.784	-0.115	0.077
-491.522	-94.063	-0.337	-0.094
-490.508	44.144	0.120	-0.112
-489.493	800.000	-0.102	-0.332
-488.478	-200.000	-0.007	-0.349
-487.464	-200.000	0.048	-0.448
-486.449	-64.738	0.172	0.071
-485.435	25.770	0.368	0.311
-484.420	283.654	-0.048	-0.088
-483.405	-49.040	0.240	0.117
-482.391	-63.947	-0.113	0.047
-481.376	-77.469	0.130	0.046
-480.362	-167.172	-0.226	0.009
-479.347	49.623	-0.114	-0.109
-478.332	123.981	-0.065	0.083
-477.318	1.831	-0.315	0.230
-476.303	-200.000	0.056	-0.381
-475.289	86.940	0.049	-0.055
-474.274	1.671	-0.025	-0.018
-473.259	-48.543	0.167	-0.082
-472.245	-135.222	0.194	0.024
-471.230	112.741	0.266	-0.327
-470.216	-88.594	0.168	0.051
-469.201	-55.811	-0.200	0.091
-468.186	-117.162	-0.191	0.035
-467.172	-44.692	-0.217	0.110
-466.157	-200.000	0.038	-0.182
-465.143	124.531	-0.220	0.281
-464.128	800.000	-0.069	0.275
-463.113	150.828	-0.035	-0.048
-462.099	-200.000	-0.004	0.127
-461.084	-2.832	0.104	-0.074
-460.070	-149.803	0.298	0.024
-459.055	-106.874	0.132	0.030
-458.040	-93.393	0.236	-0.066
-457.026	335.892	0.032	-0.063
-456.011	-200.000	0.018	0.186
-454.997	-111.105	0.418	0.087
-453.982	414.243	0.050	-0.109
-452.968	46.500	-0.334	-0.314
-451.953	-94.788	0.159	-0.044
-450.938	156.367	-0.165	0.230
-449.924	-200.000	-0.048	0.221
-448.909	-64.491	0.090	0.037
-447.895	-41.631	0.251	-0.131
-446.880	103.680	-0.071	0.084
-445.865	179.014	0.059	0.088
-444.851	-84.682	-0.071	0.023
-443.836	127.855	-0.139	0.178
-442.822	-200.000	0.014	-0.151
-441.807	131.486	0.177	-0.230
-440.792	269.551	-0.130	-0.231
-439.778	284.867	0.132	0.241
-438.763	517.386	0.157	-0.371
-437.749	-142.106	-0.191	-0.019
-436.734	405.378	0.089	0.190
-435.719	-98.125	0.055	-0.014
-434.705	-158.313	-0.261	0.015
-433.690	-120.154	-0.085	-0.015
-432.676	-42.121	0.201	0.104
-431.661	433.552	0.199	0.438
-430.646	797.628	-0.078	-0.219
-429.632	114.246	-0.298	-0.367
-428.617	-200.000	-0.010	-0.208
-427.603	175.118	-0.115	0.169
-426.588	-26.698	0.092	-0.055
-425.573	-63.578	0.224	-0.093
-424.559	-68.780	-0.140	-0.055
-423.544	324.681	0.016	0.032
-422.530	500.057	-0.060	0.139
-421.515	-200.000	0.012	-0.155
-420.500	87.444	0.172	0.192
-419.486	70.374	0.306	0.320
-418.471	-200.000	0.019	-0.423
-417.457	79.022	-0.119	-0.129
-416.442	476.905	0.099	-0.228
-415.428	275.812	-0.082	-0.146
-414.413	190.381	-0.116	-0.177
-413.398	-97.916	0.156	-0.041
-412.384	14.791	-0.151	-0.120
-411.369	-133.078	0.207	0.027
-410.355	800.000	0.026	-0.091
-409.340	82.341	0.168	0.184
-408.325	-74.274	-0.151	0.055
-407.311	588.690	-0.094	0.234
-406.296	16.685	-0.124	0.100
-405.282	9.162	0.221	-0.169
-404.267	338.382	-0.175	0.345
-403.252	-33.047	-0.090	0.051
-402.238	-30.931	-0.160	-0.091
-401.223	-200.000	0.022	0.174
-400.209	-200.000	0.022	0.237
-399.194	800.000	0.114	0.328
-398.179	-54.101	-0.148	-0.068
-397.165	-139.514	0.173	-0.019
-396.150	-165.534	0.114	0.005
-395.136	154.224	-0.280	-0.388
-394.121	77.481	-0.099	-0.107
-393.106	800.000	0.056	-0.231
-392.092	142.240	-0.214	-0.286
-391.077	-94.364	-0.141	-0.039
-390.063	-141.029	-0.136	0.014
-389.048	800.000	-0.027	0.097
-388.033	-200.000	0.012	0.333
-387.019	-200.000	-0.039	-0.216
-386.004	159.001	0.091	-0.128
-384.990	156.958	0.178	-0.249
-383.975	-83.097	0.294	0.096
-382.960	-108.196	0.479	-0.105
-381.946	-200.000	-0.005	0.236
-380.931	-126.870	-0.340	-0.051
-379.917	10.186	0.150	-0.115
-378.902	-180.689	-0.088	-0.002
-377.888	-78.028	-0.644	0.224
-376.873	-64.028	-0.170	0.070
-375.858	-200.000	0.014	-0.299
-374.844	-125.848	0.310	0.047
-373.829	-8.357	0.131	0.089
-372.815	-165.368	0.078	-0.003
-371.800	-200.000	-0.009	-0.242
-370.785	-29.703	-0.292	-0.168
-369.771	11.574	0.140	-0.109
-368.756	417.319	0.009	0.020
-367.742	254.308	0.116	0.201
-366.727	-105.085	-0.020	-0.005
-365.712	-49.187	-0.269	0.130
-364.698	-46.474	0.101	0.050
-363.683	101.710	-0.462	0.544
-362.669	82.020	0.124	0.135
-361.654	-126.990	0.049	-0.007
-360.639	-200.000	-0.042	0.439
-359.625	-200.000	-0.009	0.093
-358.610	-103.325	0.335	0.080
-357.596	640.631	0.081	0.208
-356.581	-10.392	-0.061	-0.041
-355.566	382.280	-0.076	-0.158
-354.552	117.937	-0.118	0.147
-353.537	24.549	0.211	-0.176
-352.523	25.634	-0.281	0.236
-351.508	-27.399	-0.355	0.208
-350.493	-200.000	0.008	0.045
-349.479	412.900	-0.074	0.159
-348.464	-57.065	-0.247	0.110
-347.450	-200.000	-0.057	-0.379
-346.435	-9.827	-0.295	-0.198
-345.420	-1.542	0.295	-0.209
-344.406	-28.537	0.218	0.127
-343.391	800.000	-0.082	0.274
-342.377	-23.407	-0.089	-0.054
-341.362	8.256	0.051	0.039
-340.348	-98.231	0.072	-0.019
-339.333	133.790	-0.172	0.224
-338.318	-200.000	-0.050	0.243
-337.304	269.234	0.149	0.264
-336.289	-200.000	-0.024	-0.273
-335.275	102.666	0.131	0.154
-334.260	-81.967	0.076	-0.025
-333.245	174.332	-0.118	0.173
-332.231	99.907	0.160	0.187
-331.216	-89.133	0.256	0.076
-330.202	221.439	-0.126	0.204
-329.187	622.693	-0.141	-0.357
-328.172	-200.000	-0.041	-0.361
-327.158	25.599	0.157	-0.132
-326.143	-56.591	0.248	-0.111
-325.129	585.822	-0.083	0.206
-324.114	565.791	0.047	0.116
-323.099	109.618	-0.091	0.110
-322.085	149.780	-0.087	-0.120
-321.070	41.259	-0.149	0.135
-320.056	-4.188	-0.167	0.116
-319.041	709.832	0.030	-0.080
-318.026	177.265	-0.118	0.173
-317.012	221.117	0.073	0.118
-315.997	-1.445	-0.120	-0.085
-314.983	197.552	0.132	-0.204
-313.968	3.799	-0.190	0.140
-312.953	-90.951	0.189	-0.055
-311.939	-80.113	-0.085	-0.029
-310.924	-88.917	0.462	-0.138
-309.910	-112.680	0.078	0.016
-308.895	173.878	0.094	0.137
-307.880	23.303	-0.250	0.207
-306.866	-44.241	-0.099	0.050
-305.851	-81.865	0.188	-0.062
-304.837	-98.009	0.344	-0.089
-303.822	27.285	0.210	0.178
-302.807	-134.921	0.307	0.037
-301.793	-200.000	-0.017	0.362
-300.778	166.387	0.169	0.241
-299.764	394.580	0.017	-0.035
-298.749	-8.090	-0.351	-0.238
-297.735	-64.448	0.158	0.065
-296.720	392.365	-0.048	-0.100
-295.705	-82.516	0.293	0.096
-294.691	-2.694	0.123	0.086
-293.676	-3.393	-0.058	-0.040
-292.662	34.653	-0.049	0.043
-291.647	-200.000	-0.020	-0.182
-290.632	-0.470	-0.022	0.016
-289.618	192.757	0.054	-0.083
-288.603	413.905	0.174	0.372
-287.589	-200.000	0.015	0.115
-286.574	269.945	0.069	0.121
-285.559	-138.198	0.142	0.016
-284.545	31.028	0.245	0.212
-283.530	1.499	-0.143	0.104
-282.516	-200.000	-0.066	-0.296
-281.501	0.098	-0.105	-0.075
-280.486	-200.000	0.044	-0.279
-279.472	-110.215	-0.341	-0.072
-278.457	104.128	0.184	0.218
-277.443	420.073	0.062	-0.133
-276.428	800.000	-0.048	-0.205
-275.413	467.828	0.105	-0.238
-274.399	90.757	0.133	0.150
-273.384	-1.817	0.089	0.063
-272.370	800.000	-0.044	0.149
-271.355	-61.582	-0.102	-0.043
-270.340	-200.000	0.067	0.333
-269.326	-200.000	0.079	0.447
-268.311	-104.014	-0.107	0.025
-267.297	-8.465	-0.070	0.048
-266.282	-122.076	0.222	-0.037
-265.267	-0.879	0.137	-0.097
-264.253	142.610	0.199	0.266
-263.238	131.008	-0.190	-0.246
-262.224	366.524	-0.063	-0.127
-261.209	-121.777	-0.504	-0.084
-260.195	696.407	0.162	-0.427
-259.180	-47.484	0.040	0.020
-258.165	202.637	-0.089	-0.137
-257.151	-200.000	0.004	0.324
-256.136	-31.339	0.184	-0.104
-255.122	-97.548	-0.245	-0.064
-254.107	586.910	0.105	0.259
-253.092	601.922	0.045	-0.112
-252.078	620.128	0.052	-0.131
-251.063	800.000	-0.024	0.071
-250.049	362.775	0.115	0.232
-249.034	-200.000	0.012	0.131
-248.019	-164.260	0.388	0.018
-247.005	604.026	-0.180	0.450
-245.990	-149.542	0.083	-0.007
-244.976	-200.000	-0.033	-0.477
-243.961	178.721	0.155	-0.228
-242.946	-143.033	0.280	-0.027
-241.932	-39.553	0.244	0.128
-240.917	192.151	0.211	0.320
-239.903	-43.897	-0.162	0.082
-238.888	619.042	0.108	-0.272
-237.873	-200.000	0.007	0.045
-236.859	-200.000	0.070	-0.410
-235.844	153.000	0.101	-0.139
-234.830	51.721	-0.216	0.206
-233.815	17.426	0.161	-0.128
-232.800	-166.410	-0.315	-0.013
-231.786	-84.082	0.128	0.041
-230.771	265.305	0.211	-0.369
-229.757	548.609	-0.029	-0.070
-228.742	800.000	0.073	0.277
-227.727	-118.267	-0.127	0.023
-226.713	-130.622	0.298	-0.040
-225.698	-200.000	0.048	0.600
-224.684	-41.819	-0.189	-0.097
-223.669	-14.219	0.178	-0.115
-222.655	289.246	-0.132	0.240
-221.640	-200.000	0.038	0.190
-220.625	408.931	0.116	0.246
-219.611	-108.619	0.258	-0.056
-218.596	116.410	-0.140	0.172
-217.582	197.012	0.097	0.149
-216.567	-171.896	0.187	-0.006
-215.552	69.230	0.069	-0.071
-214.538	800.000	0.036	0.137
-213.523	-200.000	0.045	-0.202
-212.509	-94.109	0.328	0.090
-211.494	-200.000	-0.004	-0.046
-210.479	400.204	-0.136	-0.286
-209.465	32.912	-0.217	-0.188
-208.450	-200.000	0.044	0.206
-207.436	380.462	-0.155	0.319
-206.421	177.575	0.078	-0.114
-205.406	-95.354	0.247	0.067
-204.392	170.183	-0.042	-0.061
-203.377	15.653	-0.070	-0.056
-202.363	-3.349	-0.220	0.154
-201.348	-20.569	-0.123	0.076
-200.333	178.158	0.074	-0.108
-199.319	190.511	0.119	-0.180
-198.304	-124.838	0.190	-0.029
-197.290	165.582	-0.150	-0.213
-196.275	800.000	-0.081	0.235
-195.260	-12.675	0.029	0.019
-194.246	16.720	-0.324	-0.257
-193.231	-101.310	-0.266	-0.065
-192.217	-139.999	0.160	-0.017
-191.202	-105.311	-0.075	-0.017
-190.187	-5.153	0.474	-0.327
-189.173	-60.825	0.169	-0.072
-188.158	-110.962	0.326	-0.067
-187.144	-33.383	0.056	0.031
-186.129	-200.000	0.005	-0.106
-185.114	133.628	0.041	0.053
-184.100	-107.198	-0.161	-0.036
-183.085	-82.729	-0.272	0.088
-182.071	97.536	-0.120	0.138
-181.056	55.597	-0.203	0.197
-180.042	3.921	-0.111	-0.081
-179.027	-29.130	0.330	0.189
-178.012	-10.980	0.227	-0.150
-176.998	-68.261	0.206	-0.080
-175.983	-200.000	0.006	0.284
-174.969	-200.000	-0.003	-0.136
-173.954	-115.759	-0.369	0.069
-172.939	506.916	-0.052	-0.121
-171.925	-16.796	0.163	0.103
-170.910	-121.908	-0.392	-0.065
-169.896	-112.251	0.189	0.038
-168.881	-126.742	-0.124	-0.018
-167.866	800.000	0.086	-0.239
-166.852	321.158	-0.050	-0.095
-165.837	-121.562	-0.161	-0.027
-164.823	186.963	0.262	-0.391
-163.808	-80.870	0.119	0.039
-162.793	194.134	-0.229	0.348
-161.779	-112.538	0.283	-0.057
-160.764	-151.176	-0.301	-0.023
-159.750	127.914	-0.119	-0.151
-158.735	555.313	-0.214	0.517
-157.720	71.206	0.191	-0.199
-156.706	120.920	0.297	-0.370
-155.691	255.060	0.090	0.154
-154.677	-200.000	-0.012	0.076
-153.662	88.224	0.159	0.177
-152.647	-3.444	0.227	0.158
-151.633	73.725	-0.161	0.168
-150.618	-57.328	0.108	0.047
-149.604	130.731	0.104	-0.134
-148.589	4.699	-0.145	0.106
-147.574	-200.000	0.018	0.271
-146.560	46.715	0.149	0.139
-145.545	11.602	-0.085	-0.065
-144.531	-200.000	-0.065	0.450
-143.516	19.368	0.105	0.085
-142.502	128.385	-0.041	-0.052
-141.487	40.818	-0.128	0.115
-140.472	-3.546	0.292	0.203
-139.458	258.211	-0.078	0.135
-138.443	-46.002	0.235	0.116
-137.429	-21.485	0.266	-0.162
-136.414	-125.547	0.315	-0.048
-135.399	-40.995	0.290	0.150
-134.385	-200.000	-0.050	0.259
-133.370	167.733	0.088	0.126
-132.356	26.259	0.099	0.083
-131.341	-105.156	-0.186	0.043
-130.326	529.744	-0.075	-0.177
-129.312	-200.000	-0.020	-0.263
-128.297	-6.896	0.258	-0.175
-127.283	-51.444	-0.125	0.059
-126.268	-61.554	-0.245	0.103
-125.253	42.899	0.051	-0.046
-124.239	800.000	-0.082	0.252
-123.224	800.000	-0.121	0.477
-122.210	-200.000	0.004	0.193
-121.195	43.751	0.252	0.231
-120.180	114.214	0.143	0.173
