DTS Sentinel unit serial number:	SN413079Multiplexer serial number:	ORYXHardware model number:	OX4-SRSoftware version number:	ORYX F/W v4.00 Oryx Data Collector v3.7.2.0data status	okinstallation	princeton_trtdifferential loss correction	single-endedforward channel	channel 4reverse channel	N/Adate	2019/09/15time	14:33:34forward acquisition time	60.00reverse acquisition time	0.00gamma	496.2192k internal	0.2288k external	0.2288temperature offset calibration	0.9989default loss term (dB/km)	0.3790temperature slope calibration	1.0000multiplexer offset coefficient	1.0000multiplexer slope coefficient	1.0000fibre end	0.00T internal ref (°C)	39.42T ext. ref 1 (°C)	4.91T ext. ref 2 (°C)	36.41length (m)	temperature (°C)	Stokes	anti-Stokes-747.200	-44.264	0.025	-0.013
-746.185	167.887	0.171	0.250
-745.171	-200.000	-0.040	0.197
-744.156	479.868	-0.060	0.140
-743.142	-113.024	-0.218	-0.044
-742.127	225.220	-0.104	0.173
-741.112	800.000	-0.064	0.230
-740.098	-200.000	0.005	0.298
-739.083	117.728	-0.092	-0.116
-738.069	160.280	-0.076	0.108
-737.054	-200.000	0.001	-0.383
-736.039	-116.094	-0.075	-0.014
-735.025	-44.055	0.080	0.041
-734.010	-200.000	-0.024	0.197
-732.996	800.000	0.010	-0.030
-731.981	800.000	-0.070	-0.278
-730.966	395.944	-0.113	-0.241
-729.952	93.670	0.358	0.416
-728.937	-146.981	-0.108	0.010
-727.923	800.000	0.032	-0.108
-726.908	165.589	-0.172	-0.250
-725.894	-200.000	0.020	-0.123
-724.879	-200.000	0.009	0.114
-723.864	800.000	-0.026	0.073
-722.850	-32.355	0.109	-0.062
-721.835	-105.584	-0.226	-0.052
-720.821	-200.000	-0.041	-0.275
-719.806	-16.405	0.019	0.012
-718.791	324.118	0.011	-0.021
-717.777	-55.338	-0.260	-0.120
-716.762	78.416	0.110	0.121
-715.748	-16.559	-0.109	0.071
-714.733	800.000	0.048	0.140
-713.718	-103.697	0.065	0.016
-712.704	-171.992	0.241	0.008
-711.689	24.054	-0.220	0.186
-710.675	800.000	-0.123	-0.349
-709.660	38.816	-0.155	0.142
-708.645	-66.733	-0.333	-0.135
-707.631	800.000	-0.064	-0.269
-706.616	41.111	0.166	0.154
-705.602	800.000	-0.035	-0.116
-704.587	-46.006	-0.119	-0.060
-703.572	-38.671	-0.262	0.141
-702.558	71.982	-0.186	-0.198
-701.543	136.442	0.113	-0.151
-700.529	-115.909	-0.158	0.030
-699.514	263.329	-0.073	-0.131
-698.499	357.332	-0.025	-0.050
-697.485	-162.142	-0.015	0.001
-696.470	-77.816	-0.133	0.047
-695.456	-17.408	-0.287	-0.185
-694.441	-112.960	0.538	0.109
-693.426	-200.000	0.024	0.130
-692.412	-25.130	0.194	0.118
-691.397	709.378	-0.065	-0.176
-690.383	800.000	0.067	0.201
-689.368	-200.000	0.020	-0.280
-688.354	0.169	0.144	-0.105
-687.339	55.480	-0.193	-0.191
-686.324	108.333	0.136	-0.166
-685.310	644.353	-0.042	0.109
-684.295	800.000	0.037	0.117
-683.281	-200.000	0.011	0.133
-682.266	36.869	-0.138	-0.125
-681.251	419.372	-0.112	-0.246
-680.237	315.735	0.100	-0.193
-679.222	800.000	0.023	-0.097
-678.208	800.000	0.081	-0.281
-677.193	-1.060	0.154	0.111
-676.178	-127.679	0.188	0.028
-675.164	32.133	-0.307	0.271
-674.149	106.033	-0.085	0.102
-673.135	128.770	-0.268	-0.349
-672.120	800.000	0.054	-0.214
-671.105	55.541	-0.125	-0.124
-670.091	-90.502	-0.172	-0.051
-669.076	411.281	-0.027	-0.060
-668.062	-20.655	-0.008	-0.005
-667.047	800.000	-0.029	-0.098
-666.032	-155.297	-0.250	-0.017
-665.018	-88.266	0.266	0.081
-664.003	-59.795	-0.460	0.201
-662.989	800.000	0.053	0.185
-661.974	-100.587	0.196	-0.050
-660.959	70.493	-0.276	0.291
-659.945	58.749	0.107	0.107
-658.930	592.366	-0.090	-0.228
-657.916	306.754	0.082	-0.155
-656.901	-154.693	0.463	0.031
-655.886	-99.605	0.221	-0.057
-654.872	88.980	-0.032	0.037
-653.857	531.717	0.155	-0.375
-652.843	59.747	0.353	0.356
-651.828	373.372	-0.070	0.146
-650.814	57.425	0.266	0.266
-649.799	-200.000	-0.025	0.126
-648.784	-133.166	-0.274	-0.035
-647.770	-121.161	-0.251	-0.043
-646.755	-200.000	-0.017	0.186
-645.741	367.092	0.114	-0.235
-644.726	-200.000	-0.026	-0.254
-643.711	-200.000	0.035	-0.172
-642.697	688.441	0.035	-0.092
-641.682	212.496	0.100	0.162
-640.668	-48.500	-0.237	0.116
-639.653	93.981	-0.081	-0.094
-638.638	51.033	-0.180	-0.174
-637.624	-200.000	0.029	0.170
-636.609	39.324	0.183	-0.168
-635.595	204.627	-0.216	0.343
-634.580	93.447	0.116	-0.134
-633.565	-36.442	-0.257	-0.141
-632.551	-200.000	-0.023	0.194
-631.536	800.000	-0.021	0.077
-630.522	-179.227	0.118	0.003
-629.507	8.268	-0.088	0.067
-628.492	-200.000	0.021	0.211
-627.478	131.691	-0.070	0.092
-626.463	-89.753	-0.090	0.027
-625.449	800.000	-0.046	-0.174
-624.434	-200.000	0.002	-0.045
-623.419	-51.802	0.253	-0.120
-622.405	-42.442	-0.255	-0.133
-621.390	301.758	0.059	0.111
-620.376	59.465	-0.096	0.097
-619.361	27.931	-0.073	-0.063
-618.346	-200.000	-0.017	0.076
-617.332	800.000	0.167	0.568
-616.317	147.677	-0.098	0.134
-615.303	113.085	0.220	0.272
-614.288	-86.470	0.120	0.038
-613.273	7.813	-0.197	-0.150
-612.259	-64.218	0.030	-0.012
-611.244	-150.492	-0.231	-0.018
-610.230	800.000	-0.099	0.317
-609.215	-200.000	-0.003	0.182
-608.201	-86.122	-0.228	-0.072
-607.186	85.527	0.169	0.189
-606.171	-194.358	0.034	-0.000
-605.157	800.000	-0.108	-0.310
-604.142	319.510	-0.149	-0.288
-603.128	-124.124	0.118	-0.019
-602.113	-85.861	-0.204	0.064
-601.098	287.355	0.093	-0.172
-600.084	36.486	-0.151	-0.136
-599.069	-112.996	0.396	0.080
-598.055	-200.000	-0.025	-0.281
-597.040	800.000	-0.073	0.309
-596.025	-34.785	-0.121	0.067
-595.011	-200.000	-0.032	-0.466
-593.996	-172.658	0.144	0.005
-592.982	-37.113	0.316	-0.172
-591.967	232.132	0.080	0.134
-590.952	-24.155	0.186	-0.113
-589.938	800.000	-0.049	-0.185
-588.923	53.550	0.304	-0.297
-587.909	-120.419	-0.115	-0.020
-586.894	85.492	-0.341	-0.382
-585.879	247.570	-0.225	-0.388
-584.865	-30.888	0.355	0.204
-583.850	-200.000	0.012	0.131
-582.836	800.000	0.027	-0.095
-581.821	-200.000	-0.018	0.333
-580.806	21.844	-0.212	0.176
-579.792	800.000	-0.089	-0.313
-578.777	124.432	-0.066	0.085
-577.763	-200.000	-0.017	-0.104
-576.748	74.149	0.172	-0.184
-575.733	84.780	0.076	-0.084
-574.719	16.510	-0.144	0.116
-573.704	-77.310	-0.043	0.015
-572.690	202.147	0.041	-0.065
-571.675	-180.162	0.284	0.006
-570.661	248.697	-0.021	0.036
-569.646	-7.853	0.244	-0.168
-568.631	-140.184	0.190	0.020
-567.617	-200.000	-0.010	0.173
-566.602	126.229	0.073	0.094
-565.588	-200.000	-0.018	-0.318
-564.573	-113.141	0.320	-0.064
-563.558	800.000	-0.033	0.096
-562.544	54.722	0.066	0.065
-561.529	-21.610	0.369	0.229
-560.515	17.141	0.249	-0.201
-559.500	800.000	0.042	-0.127
-558.485	-200.000	-0.036	-0.253
-557.471	502.993	-0.083	-0.195
-556.456	800.000	0.006	-0.026
-555.442	116.129	-0.054	0.067
-554.427	800.000	0.064	0.232
-553.412	55.201	-0.171	-0.168
-552.398	-200.000	-0.038	-0.242
-551.383	142.580	0.073	-0.099
-550.369	136.710	0.151	-0.201
-549.354	-138.353	0.161	0.018
-548.339	-132.309	0.169	0.022
-547.325	227.017	-0.235	0.388
-546.310	800.000	-0.048	0.185
-545.296	229.304	0.031	0.051
-544.281	800.000	-0.102	0.330
-543.266	-200.000	-0.017	0.086
-542.252	8.071	-0.212	-0.162
-541.237	-91.719	-0.130	-0.038
-540.223	-200.000	-0.027	-0.226
-539.208	-200.000	0.059	0.394
-538.193	85.741	0.143	0.160
-537.179	800.000	-0.089	-0.271
-536.164	-200.000	-0.029	-0.168
-535.150	-16.930	-0.161	0.103
-534.135	-200.000	-0.037	0.170
-533.121	18.006	0.257	0.208
-532.106	-200.000	0.019	0.111
-531.091	-147.120	0.289	0.025
-530.077	118.593	-0.197	-0.248
-529.062	-200.000	-0.037	-0.180
-528.048	163.183	0.028	0.040
-527.033	71.345	0.202	0.213
-526.018	767.621	0.005	0.014
-525.004	-108.942	0.081	0.018
-523.989	55.629	-0.195	0.192
-522.975	390.625	-0.100	-0.210
-521.960	-81.489	-0.070	-0.023
-520.945	-19.604	-0.220	0.138
-519.931	31.010	0.017	0.015
-518.916	-200.000	0.115	-0.000
-517.902	12.822	-0.122	0.096
-516.887	425.547	-0.022	-0.047
-515.872	-200.000	0.066	0.452
-514.858	-7.436	-0.063	-0.043
-513.843	342.924	0.108	-0.215
-512.829	23.177	-0.141	0.117
-511.814	422.376	0.084	0.184
-510.799	-165.254	0.172	0.008
-509.785	66.883	0.272	-0.282
-508.770	491.379	-0.075	0.174
-507.756	-98.690	-0.274	0.071
-506.741	246.737	0.147	-0.251
-505.726	-14.700	-0.126	0.082
-504.712	-75.416	-0.183	0.066
-503.697	25.834	0.089	-0.075
-502.683	-200.000	-0.010	0.168
-501.668	710.388	-0.091	0.245
-500.653	-95.660	-0.068	0.019
-499.639	358.293	-0.078	-0.158
-498.624	44.260	-0.291	-0.272
-497.610	48.479	-0.217	-0.206
-496.595	-84.418	-0.213	0.068
-495.581	-25.854	0.150	0.089
-494.566	151.652	-0.239	0.330
-493.551	10.564	-0.171	-0.132
-492.537	-200.000	-0.038	-0.185
-491.522	-197.867	0.149	0.001
-490.508	-14.027	0.160	-0.105
-489.493	-128.005	0.176	0.026
-488.478	-200.000	-0.035	0.260
-487.464	-103.125	-0.342	0.082
-486.449	800.000	-0.092	-0.306
-485.435	-200.000	0.017	-0.098
-484.420	2.964	-0.142	0.105
-483.405	-46.754	0.150	-0.075
-482.391	67.058	0.178	0.184
-481.376	-74.551	0.375	-0.137
-480.362	759.770	-0.092	-0.252
-479.347	-33.431	-0.126	0.071
-478.332	-73.425	0.290	0.108
-477.318	-98.097	0.107	0.028
-476.303	-103.383	-0.074	0.018
-475.289	800.000	0.121	0.472
-474.274	-8.787	-0.128	0.087
-473.259	-200.000	0.006	0.077
-472.245	363.265	-0.144	0.294
-471.230	26.973	0.046	0.039
-470.216	800.000	0.058	0.174
-469.201	-74.586	-0.318	0.116
-468.186	43.332	0.326	-0.302
-467.172	193.451	0.214	0.328
-466.157	-72.676	-0.216	-0.081
-465.143	-70.867	-0.553	-0.212
-464.128	72.945	0.078	0.082
-463.113	-101.228	-0.455	-0.113
-462.099	800.000	0.080	-0.230
-461.084	-88.521	-0.441	-0.133
-460.070	-41.889	0.188	0.098
-459.055	-200.000	-0.034	-0.188
-458.040	-135.545	-0.435	0.053
-457.026	-60.633	-0.082	-0.035
-456.011	-146.805	0.241	-0.021
-454.997	93.833	-0.031	-0.035
-453.982	134.846	-0.157	-0.207
-452.968	-200.000	-0.047	0.211
-451.953	-48.216	-0.189	-0.093
-450.938	-200.000	0.006	0.164
-449.924	-5.614	-0.072	-0.050
-448.909	142.834	-0.108	-0.145
-447.895	-110.158	-0.248	0.052
-446.880	-85.977	-0.061	-0.019
-445.865	328.044	0.190	0.369
-444.851	194.162	-0.189	0.290
-443.836	-83.115	-0.103	0.034
-442.822	-32.451	0.151	-0.085
-441.807	-77.144	0.065	-0.023
-440.792	-91.861	-0.253	0.073
-439.778	-125.722	-0.014	-0.002
-438.763	-81.171	0.270	0.090
-437.749	-8.368	0.168	0.115
-436.734	-126.862	-0.156	0.023
-435.719	231.121	-0.100	-0.166
-434.705	800.000	-0.020	0.090
-433.690	143.885	0.070	-0.094
-432.676	-200.000	-0.041	0.357
-431.661	-113.735	-0.183	0.036
-430.646	-53.564	-0.271	-0.126
-429.632	800.000	0.077	-0.236
-428.617	281.289	0.168	-0.305
-427.603	-21.733	0.057	-0.035
-426.588	-47.337	-0.103	0.051
-425.573	772.452	-0.105	-0.289
-424.559	-117.727	-0.213	0.039
-423.544	-5.086	-0.169	0.118
-422.530	-158.337	0.224	-0.013
-421.515	85.684	0.272	-0.302
-420.500	-128.101	-0.160	-0.023
-419.486	-92.652	0.268	-0.076
-418.471	800.000	0.033	-0.119
-417.457	38.206	-0.209	-0.189
-416.442	-200.000	-0.062	0.299
-415.428	-200.000	-0.004	-0.047
-414.413	-45.479	0.428	-0.215
-413.398	23.860	-0.098	-0.082
-412.384	-71.341	-0.215	0.082
-411.369	111.855	0.059	-0.073
-410.355	-95.171	-0.169	-0.046
-409.340	153.592	0.173	0.240
-408.325	399.380	0.078	0.165
-407.311	-123.866	-0.183	0.029
-406.296	-108.771	0.429	-0.093
-405.282	510.179	0.054	-0.128
-404.267	333.628	0.074	-0.144
-403.252	155.321	-0.093	0.129
-402.238	-79.084	0.120	0.041
-401.223	-115.852	-0.160	0.030
-400.209	-70.223	-0.320	-0.123
-399.194	-125.872	-0.352	0.054
-398.179	-98.047	0.386	-0.101
-397.165	149.389	-0.188	-0.257
-396.150	-200.000	-0.033	0.149
-395.136	-200.000	-0.044	-0.210
-394.121	-200.000	0.072	0.399
-393.106	-85.924	-0.095	0.030
-392.092	800.000	-0.008	-0.023
-391.077	263.911	0.016	-0.029
-390.063	-28.580	0.145	0.084
-389.048	-80.477	0.043	0.015
-388.033	-200.000	-0.003	0.115
-387.019	-174.403	-0.133	0.004
-386.004	-28.226	0.096	-0.056
-384.990	438.909	-0.116	0.255
-383.975	-200.000	0.009	0.063
-382.960	-18.390	-0.279	0.176
-381.946	512.903	-0.159	0.374
-380.931	-200.000	-0.012	0.078
-379.917	-200.000	-0.045	-0.331
-378.902	391.998	0.148	-0.310
-377.888	800.000	-0.064	-0.182
-376.873	-32.186	0.051	0.029
-375.858	-200.000	0.009	-0.327
-374.844	800.000	0.053	-0.186
-373.829	90.600	-0.186	0.210
-372.815	790.820	0.087	-0.242
-371.800	154.741	0.052	-0.073
-370.785	-200.000	0.013	0.000
-369.771	-71.728	-0.178	0.067
-368.756	-66.395	0.279	-0.112
-367.742	-200.000	0.097	0.477
-366.727	26.537	0.062	-0.053
-365.712	44.230	0.165	-0.153
-364.698	472.492	-0.043	-0.097
-363.683	-151.087	0.279	0.021
-362.669	-56.297	-0.302	0.135
-361.654	247.737	0.132	-0.226
-360.639	-200.000	-0.046	-0.264
-359.625	112.284	-0.049	-0.060
-358.610	4.600	-0.234	0.174
-357.596	257.891	-0.070	0.121
-356.581	175.886	0.151	-0.221
-355.566	70.352	-0.268	0.280
-354.552	-82.291	0.199	0.065
-353.537	80.873	0.192	0.210
-352.523	88.285	0.186	-0.209
-351.508	-51.380	0.161	-0.076
-350.493	99.859	0.258	0.302
-349.479	-40.289	-0.125	-0.066
-348.464	-156.666	0.192	-0.012
-347.450	248.187	0.129	-0.220
-346.435	7.122	0.256	-0.193
-345.420	-200.000	0.038	-0.234
-344.406	364.585	-0.077	-0.156
-343.391	-91.438	-0.324	-0.093
-342.377	156.734	-0.138	0.193
-341.362	-77.343	-0.134	-0.047
-340.348	-200.000	0.006	-0.038
-339.333	800.000	0.026	-0.112
-338.318	-200.000	-0.012	-0.211
-337.304	71.109	-0.119	0.124
-336.289	-52.645	0.248	-0.116
-335.275	22.479	-0.163	0.135
-334.260	-110.898	0.300	-0.062
-333.245	-22.728	0.270	-0.164
-332.231	-77.581	-0.239	0.084
-331.216	-51.653	0.175	-0.082
-330.202	249.374	0.063	-0.108
-329.187	-163.660	-0.059	-0.003
-328.172	389.115	-0.037	0.078
-327.158	-200.000	0.001	0.137
-326.143	23.504	-0.156	0.130
-325.129	246.204	0.222	0.378
-324.114	-15.885	-0.228	0.147
-323.099	-89.899	-0.129	0.038
-322.085	-76.429	-0.212	0.075
-321.070	-200.000	0.019	0.160
-320.056	404.556	0.080	-0.170
-319.041	-31.622	0.054	-0.031
-318.026	-59.856	-0.099	-0.043
-317.012	-200.000	0.007	-0.104
-315.997	800.000	-0.142	0.428
-314.983	-40.483	-0.123	0.064
-313.968	387.813	-0.105	-0.218
-312.953	136.351	-0.195	-0.256
-311.939	-200.000	0.003	-0.160
-310.924	445.256	-0.100	-0.222
-309.910	-50.927	0.149	-0.071
-308.895	193.567	0.083	-0.127
-307.880	184.440	0.168	-0.251
-306.866	510.357	0.144	-0.337
-305.851	40.223	0.217	0.197
-304.837	-123.371	0.197	-0.032
-303.822	-131.395	0.449	0.060
-302.807	800.000	-0.039	-0.159
-301.793	127.969	0.140	-0.179
-300.778	217.830	-0.106	-0.171
-299.764	-33.813	-0.392	0.218
-298.749	660.250	0.023	0.059
-297.735	-200.000	0.055	0.270
-296.720	343.066	0.085	-0.169
-295.705	-97.936	-0.370	0.096
-294.691	34.371	-0.234	-0.206
-293.676	268.550	0.131	-0.231
-292.662	-108.714	-0.381	0.082
-291.647	22.449	-0.138	-0.113
-290.632	-200.000	0.033	0.183
-289.618	-49.682	0.057	-0.027
-288.603	-118.910	0.020	-0.004
-287.589	525.494	0.098	0.233
-286.574	728.730	-0.121	0.325
-285.559	349.407	0.155	0.309
-284.545	-155.365	0.347	-0.023
-283.530	325.983	-0.095	0.184
-282.516	-27.615	-0.313	-0.183
-281.501	-134.815	0.182	0.022
-280.486	532.406	-0.043	-0.103
-279.472	-200.000	0.012	-0.090
-278.457	-16.466	-0.134	0.086
-277.443	-109.858	-0.360	0.076
-276.428	126.315	-0.157	0.200
-275.413	642.359	-0.054	0.139
-274.399	-200.000	-0.019	-0.150
-273.384	-200.000	-0.041	0.205
-272.370	-149.655	0.209	-0.017
-271.355	119.365	0.155	0.193
-270.340	186.238	0.093	0.139
-269.326	-151.823	0.026	-0.002
-268.311	191.280	0.134	-0.204
-267.297	16.500	-0.126	-0.100
-266.282	-122.196	0.386	-0.064
-265.267	-2.499	0.249	-0.175
-264.253	-200.000	0.012	0.306
-263.238	-200.000	-0.023	-0.483
-262.224	-11.566	-0.360	-0.238
-261.209	-73.721	-0.161	0.059
-260.195	103.690	-0.090	-0.106
-259.180	800.000	-0.058	0.192
-258.165	-94.615	-0.284	0.078
-257.151	-95.564	-0.152	-0.041
-256.136	-48.537	0.307	-0.149
-255.122	-125.943	0.100	-0.015
-254.107	-60.998	-0.304	0.129
-253.092	118.122	0.050	-0.062
-252.078	44.393	0.132	0.122
-251.063	420.815	-0.024	-0.052
-250.049	-200.000	0.016	-0.259
-249.034	-200.000	0.011	-0.205
-248.019	387.069	-0.074	-0.153
-247.005	88.667	-0.111	-0.124
-245.990	579.078	0.059	-0.145
-244.976	-106.252	0.253	0.057
-243.961	-6.037	0.146	-0.100
-242.946	800.000	0.004	-0.016
-241.932	-96.046	-0.303	0.081
-240.917	800.000	0.055	0.207
-239.903	-43.978	-0.229	-0.116
-238.888	275.684	0.051	-0.090
-237.873	592.007	0.148	0.369
-236.859	39.830	-0.286	0.258
-235.844	674.772	-0.114	0.298
-234.830	171.754	-0.065	0.095
-233.815	-123.521	-0.205	-0.033
-232.800	-144.178	0.297	-0.028
-231.786	214.384	0.149	-0.238
-230.771	-106.994	0.236	-0.052
-229.757	-66.825	-0.234	-0.093
-228.742	-200.000	0.001	-0.074
-227.727	82.211	0.246	-0.268
-226.713	-200.000	0.032	-0.249
-225.698	800.000	0.037	0.133
-224.684	116.713	0.211	-0.261
-223.669	355.143	0.224	0.449
-222.655	-200.000	-0.012	0.326
-221.640	14.658	-0.108	0.085
-220.625	-200.000	0.033	0.180
-219.611	-95.298	0.123	-0.033
-218.596	-89.552	0.082	0.024
-217.582	800.000	-0.009	-0.035
-216.567	188.800	-0.032	0.049
-215.552	800.000	0.076	-0.244
-214.538	11.276	0.094	-0.073
-213.523	-24.626	-0.255	0.153
-212.509	-86.030	0.175	0.054
-211.494	-145.667	0.220	0.020
-210.479	209.185	-0.205	0.322
-209.465	-200.000	-0.042	-0.234
-208.450	800.000	0.090	0.390
-207.436	-112.800	0.443	0.088
-206.421	209.630	-0.060	-0.095
-205.406	627.746	0.123	-0.313
-204.392	348.785	-0.122	-0.242
-203.377	113.689	-0.075	-0.092
-202.363	-61.289	0.182	-0.077
-201.348	145.302	0.031	-0.041
-200.333	-87.811	0.152	-0.046
-199.319	-200.000	0.019	-0.179
-198.304	-7.434	-0.203	-0.138
-197.290	18.645	-0.181	0.145
-196.275	-128.812	0.145	-0.020
-195.260	800.000	-0.031	-0.089
-194.246	30.534	-0.103	0.088
-193.231	359.811	0.071	-0.142
-192.217	-200.000	-0.028	0.136
-191.202	47.026	0.252	0.235
-190.187	-200.000	-0.037	0.370
-189.173	-200.000	0.085	0.462
-188.158	-40.278	-0.131	0.068
-187.144	-102.506	0.355	0.085
-186.129	60.650	0.126	-0.126
-185.114	800.000	0.035	0.136
-184.100	-200.000	0.011	0.225
-183.085	292.313	0.068	-0.125
-182.071	13.969	0.213	0.166
-181.056	535.908	0.086	-0.206
-180.042	59.241	-0.135	0.133
-179.027	230.399	-0.073	-0.119
-178.012	242.111	0.108	0.182
-176.998	-101.533	-0.301	-0.073
-175.983	-114.716	-0.096	-0.018
-174.969	-38.263	-0.222	0.118
-173.954	-162.481	0.404	0.020
-172.939	718.974	-0.039	0.104
-171.925	4.348	0.229	-0.168
-170.910	-146.585	0.220	0.019
-169.896	800.000	0.064	0.267
-168.881	470.899	-0.013	-0.029
-167.866	-62.887	0.248	0.103
-166.852	127.054	0.191	0.243
-165.837	294.539	0.081	-0.148
-164.823	-0.893	0.077	-0.055
-163.808	-200.000	0.013	0.125
-162.793	-108.371	-0.063	-0.014
-161.779	-200.000	-0.004	0.184
-160.764	-200.000	-0.023	0.197
-159.750	-200.000	0.000	-0.022
-158.735	-200.000	0.061	0.361
-157.720	-104.812	0.335	-0.077
-156.706	58.673	-0.200	-0.197
-155.691	-131.547	0.107	-0.014
-154.677	-200.000	0.064	-0.301
-153.662	-118.296	0.177	-0.032
-152.647	800.000	-0.027	-0.088
-151.633	-59.887	0.048	-0.020
-150.618	277.225	0.171	0.305
-149.604	518.482	-0.051	0.120
-148.589	-200.000	0.028	0.186
-147.574	-139.763	-0.372	-0.040
-146.560	324.559	-0.076	-0.145
-145.545	507.262	0.121	0.281
-144.531	426.476	-0.151	0.325
-143.516	800.000	0.128	-0.411
-142.502	295.816	0.048	-0.088
-141.487	116.569	0.156	-0.191
-140.472	800.000	-0.061	-0.249
-139.458	-73.503	-0.218	0.080
-138.443	800.000	0.066	0.242
-137.429	122.196	0.175	-0.218
-136.414	-200.000	0.007	0.041
-135.399	-41.190	-0.098	0.051
-134.385	305.535	0.014	-0.026
-133.370	51.816	-0.077	-0.073
-132.356	37.623	0.266	0.237
-131.341	-200.000	-0.023	0.207
-130.326	-0.007	-0.375	0.267
-129.312	341.884	-0.099	0.195
-128.297	-145.556	0.270	0.024
-127.283	-66.899	0.250	0.099
-126.268	-72.518	0.165	0.061
-125.253	-103.730	-0.223	-0.052
-124.239	-200.000	0.070	-0.405
-123.224	-52.688	0.116	0.054
-122.210	19.590	-0.119	-0.096
