DTS Sentinel unit serial number:	SN413079Multiplexer serial number:	ORYXHardware model number:	OX4-SRSoftware version number:	ORYX F/W v4.00 Oryx Data Collector v3.7.2.0data status	okinstallation	princeton_trtdifferential loss correction	single-endedforward channel	channel 4reverse channel	N/Adate	2019/09/18time	02:09:34forward acquisition time	60.00reverse acquisition time	0.00gamma	496.2192k internal	0.2335k external	0.2335temperature offset calibration	0.9994default loss term (dB/km)	0.3790temperature slope calibration	1.0000multiplexer offset coefficient	1.0000multiplexer slope coefficient	1.0000fibre end	0.00T internal ref (°C)	22.87T ext. ref 1 (°C)	0.17T ext. ref 2 (°C)	16.69length (m)	temperature (°C)	Stokes	anti-Stokes-747.200	800.000	-0.080	0.227
-746.185	-4.715	-0.140	-0.097
-745.171	-72.544	0.423	-0.157
-744.156	116.864	-0.027	0.033
-743.142	124.648	0.074	-0.094
-742.127	186.330	0.097	0.145
-741.112	800.000	0.045	-0.158
-740.098	580.337	0.039	0.096
-739.083	36.180	-0.157	0.139
-738.069	103.582	-0.258	0.305
-737.054	65.156	-0.165	0.167
-736.039	-77.953	-0.510	0.177
-735.025	99.492	0.213	0.248
-734.010	179.873	-0.245	-0.361
-732.996	-60.112	0.184	-0.079
-731.981	109.901	-0.113	0.136
-730.966	-151.479	-0.078	0.006
-729.952	25.787	-0.302	-0.253
-728.937	189.448	-0.140	-0.211
-727.923	692.022	-0.051	-0.135
-726.908	2.840	-0.426	-0.311
-725.894	800.000	-0.068	-0.255
-724.879	800.000	-0.134	-0.455
-723.864	-200.000	-0.054	-0.242
-722.850	-100.261	-0.079	0.020
-721.835	-200.000	0.055	0.340
-720.821	-84.771	0.279	0.088
-719.806	-200.000	0.009	-0.160
-718.791	-178.735	-0.273	0.006
-717.777	-81.923	0.200	0.066
-716.762	-200.000	-0.034	0.216
-715.748	-77.502	0.193	-0.067
-714.733	81.451	0.203	-0.221
-713.718	-105.222	-0.170	0.039
-712.704	237.446	-0.137	-0.227
-711.689	-200.000	0.006	0.075
-710.675	-75.090	-0.026	-0.009
-709.660	6.542	0.146	-0.109
-708.645	800.000	0.114	0.379
-707.631	-25.327	-0.269	-0.160
-706.616	-134.752	0.330	0.040
-705.602	27.156	0.122	-0.103
-704.587	440.950	-0.070	-0.153
-703.572	-42.635	-0.102	0.052
-702.558	331.095	0.016	-0.030
-701.543	89.557	-0.304	-0.340
-700.529	-200.000	0.018	0.151
-699.514	260.017	0.090	-0.156
-698.499	-140.127	0.156	-0.016
-697.485	37.552	0.223	-0.199
-696.470	-200.000	-0.000	-0.016
-695.456	-126.563	0.421	0.063
-694.441	-200.000	0.071	-0.425
-693.426	-200.000	0.048	-0.360
-692.412	-136.504	0.251	0.029
-691.397	800.000	-0.073	-0.249
-690.383	266.724	0.041	-0.071
-689.368	-43.285	-0.072	-0.037
-688.354	800.000	0.123	-0.399
-687.339	-34.565	-0.105	-0.057
-686.324	27.135	-0.142	0.120
-685.310	-200.000	-0.014	0.209
-684.295	117.617	-0.137	0.169
-683.281	105.158	0.224	0.265
-682.266	-39.563	0.272	-0.143
-681.251	800.000	0.045	0.131
-680.237	-101.537	-0.161	0.039
-679.222	-194.085	-0.356	-0.003
-678.208	-33.860	-0.161	-0.089
-677.193	-40.602	0.086	-0.045
-676.178	349.002	-0.225	-0.446
-675.164	-88.055	0.090	-0.027
-674.149	79.721	0.091	-0.098
-673.135	-17.247	-0.108	-0.068
-672.120	-25.159	-0.344	-0.204
-671.105	199.875	0.113	0.174
-670.091	377.837	0.140	-0.287
-669.076	531.528	-0.054	-0.129
-668.062	18.119	0.214	0.171
-667.047	-10.855	-0.206	-0.136
-666.032	378.444	-0.052	-0.107
-665.018	-90.495	0.269	-0.078
-664.003	-200.000	0.109	0.000
-662.989	800.000	0.084	-0.308
-661.974	800.000	0.069	-0.212
-660.959	477.195	-0.046	0.104
-659.945	-167.697	-0.298	-0.012
-658.930	800.000	-0.089	-0.370
-657.916	-200.000	0.017	-0.328
-656.901	-200.000	-0.009	-0.146
-655.886	-144.981	0.279	-0.025
-654.872	-157.261	-0.411	0.025
-653.857	-177.607	0.181	-0.004
-652.843	-200.000	0.019	-0.233
-651.828	563.281	0.037	-0.090
-650.814	-127.112	0.227	0.033
-649.799	279.819	0.120	-0.214
-648.784	-200.000	-0.019	-0.169
-647.770	-200.000	0.046	-0.237
-646.755	74.144	0.231	-0.243
-645.741	311.282	-0.165	-0.310
-644.726	-33.585	-0.256	-0.142
-643.711	45.058	0.252	-0.232
-642.697	-200.000	-0.021	0.277
-641.682	-141.676	0.378	-0.038
-640.668	-24.202	0.080	0.048
-639.653	759.997	-0.047	-0.127
-638.638	-200.000	-0.006	-0.227
-637.624	-63.904	-0.458	0.188
-636.609	-200.000	0.072	0.347
-635.595	-77.925	0.074	0.026
-634.580	800.000	0.070	0.230
-633.565	327.969	-0.143	0.275
-632.551	-200.000	-0.004	-0.277
-631.536	-50.624	0.315	-0.148
-630.522	-185.284	0.075	-0.001
-629.507	-85.493	0.062	-0.019
-628.492	-22.591	-0.044	0.026
-627.478	41.079	-0.207	0.187
-626.463	-184.536	0.492	-0.008
-625.449	21.023	-0.251	-0.204
-624.434	393.266	-0.067	-0.140
-623.419	470.389	-0.163	-0.367
-622.405	326.963	-0.143	-0.274
-621.390	-130.045	0.180	0.025
-620.376	167.904	-0.056	-0.080
-619.361	-80.871	-0.430	0.143
-618.346	-163.532	0.084	-0.004
-617.332	166.816	0.045	0.063
-616.317	-28.314	0.357	0.206
-615.303	-133.021	-0.125	-0.016
-614.288	-67.971	0.186	-0.073
-613.273	-169.904	-0.090	-0.003
-612.259	800.000	0.059	-0.221
-611.244	158.927	-0.267	-0.371
-610.230	148.419	-0.043	-0.059
-609.215	-100.756	0.149	0.037
-608.201	151.143	0.027	-0.037
-607.186	532.592	-0.053	0.126
-606.171	234.984	0.054	-0.089
-605.157	-14.468	0.135	-0.087
-604.142	27.088	-0.163	-0.137
-603.128	27.547	-0.064	-0.053
-602.113	513.831	-0.183	0.427
-601.098	-175.258	0.157	0.004
-600.084	2.493	-0.229	0.165
-599.069	-45.267	-0.242	-0.120
-598.055	211.145	-0.252	-0.396
-597.040	70.721	-0.083	0.086
-596.025	-27.486	0.201	-0.117
-595.011	-200.000	0.063	-0.278
-593.996	-200.000	0.042	0.299
-592.982	68.214	0.111	0.114
-591.967	33.206	-0.036	-0.031
-590.952	-17.048	0.057	-0.036
-589.938	-115.621	-0.366	0.069
-588.923	-112.202	0.237	0.047
-587.909	-200.000	0.017	0.453
-586.894	437.087	0.059	0.129
-585.879	-194.158	-0.311	0.003
-584.865	158.040	-0.140	0.194
-583.850	257.777	0.116	0.200
-582.836	738.832	0.008	-0.022
-581.821	-200.000	-0.029	-0.215
-580.806	-53.501	-0.361	-0.165
-579.792	-200.000	0.006	0.220
-578.777	-120.968	-0.301	0.051
-577.763	91.093	-0.331	-0.371
-576.748	-200.000	0.027	-0.378
-575.733	-166.301	0.225	-0.009
-574.719	411.322	-0.055	0.117
-573.704	221.928	-0.106	-0.170
-572.690	-19.627	0.204	0.126
-571.675	-200.000	-0.004	-0.396
-570.661	-200.000	0.004	-0.300
-569.646	-200.000	-0.024	-0.134
-568.631	-200.000	-0.008	-0.149
-567.617	299.588	0.030	-0.056
-566.602	108.230	0.165	-0.196
-565.588	-200.000	0.021	0.140
-564.573	-160.357	-0.201	-0.011
-563.558	-126.190	0.112	0.017
-562.544	-200.000	-0.002	-0.085
-561.529	349.408	0.059	0.116
-560.515	46.432	-0.283	-0.262
-559.500	-57.523	-0.332	-0.145
-558.485	476.740	0.122	-0.276
-557.471	800.000	0.083	-0.350
-556.456	270.958	0.086	-0.151
-555.442	-200.000	-0.011	0.236
-554.427	164.745	-0.030	0.042
-553.412	494.975	-0.169	0.388
-552.398	-112.211	0.303	-0.061
-551.383	-80.700	0.236	-0.078
-550.369	249.134	0.187	-0.316
-549.354	-41.666	0.231	-0.118
-548.339	-86.482	-0.323	-0.099
-547.325	-72.948	-0.108	-0.039
-546.310	-156.882	0.038	-0.002
-545.296	-77.700	-0.157	0.054
-544.281	-200.000	-0.103	0.504
-543.266	180.198	-0.118	0.172
-542.252	-118.346	-0.359	-0.064
-541.237	-65.252	0.120	-0.048
-540.223	-200.000	0.000	-0.149
-539.208	-200.000	0.023	-0.150
-538.193	800.000	-0.013	0.047
-537.179	-187.225	-0.450	0.006
-536.164	-200.000	-0.005	0.226
-535.150	-43.129	-0.267	-0.135
-534.135	56.781	0.272	-0.264
-533.121	219.484	0.156	-0.248
-532.106	43.154	0.153	-0.139
-531.091	174.768	-0.096	0.139
-530.077	-200.000	0.006	0.048
-529.062	19.082	-0.203	0.162
-528.048	109.973	-0.133	0.160
-527.033	126.412	0.218	-0.275
-526.018	148.710	-0.101	-0.136
-525.004	-30.705	-0.137	-0.077
-523.989	-29.130	-0.194	-0.111
-522.975	-19.341	0.158	0.097
-521.960	20.426	0.183	-0.147
-520.945	154.697	-0.118	-0.162
-519.931	99.953	0.076	-0.087
-518.916	-104.910	0.189	-0.043
-517.902	-73.649	0.222	0.081
-516.887	503.463	0.085	-0.196
-515.872	-152.652	-0.108	-0.008
-514.858	-44.766	0.268	0.133
-513.843	577.652	0.051	0.123
-512.829	800.000	0.088	-0.244
-511.814	166.337	-0.154	0.218
-510.799	-56.213	-0.259	0.115
-509.785	-82.220	0.075	-0.024
-508.770	-200.000	0.014	-0.327
-507.756	62.693	0.104	-0.104
-506.741	-54.579	0.098	0.044
-505.726	84.975	0.048	0.052
-504.712	-28.965	0.077	-0.044
-503.697	36.493	0.151	-0.133
-502.683	163.238	-0.133	-0.186
-501.668	-200.000	0.081	-0.402
-500.653	-31.874	0.195	-0.109
-499.639	728.198	0.123	-0.326
-498.624	128.038	0.220	-0.278
-497.610	-200.000	0.050	-0.272
-496.595	-67.162	-0.244	0.096
-495.581	-176.244	0.041	0.001
-494.566	-148.811	-0.098	0.008
-493.551	-200.000	-0.058	0.297
-492.537	-61.008	0.407	0.171
-491.522	-155.960	0.229	-0.014
-490.508	-84.660	0.070	0.022
-489.493	95.184	-0.052	-0.059
-488.478	-75.471	-0.182	-0.065
-487.464	-200.000	0.001	-0.035
-486.449	-38.991	0.138	-0.072
-485.435	-110.780	-0.183	0.038
-484.420	-106.053	0.297	-0.067
-483.405	-129.274	-0.154	-0.021
-482.391	-200.000	0.029	-0.164
-481.376	43.807	-0.126	0.115
-480.362	-53.999	-0.288	0.130
-479.347	-184.452	0.167	0.003
-478.332	48.087	-0.210	0.195
-477.318	-19.373	0.264	0.163
-476.303	393.753	-0.097	0.201
-475.289	-57.760	0.371	0.161
-474.274	115.659	-0.034	-0.041
-473.259	77.240	-0.089	0.094
-472.245	388.718	-0.058	-0.119
-471.230	-82.290	-0.190	0.062
-470.216	46.358	0.141	0.130
-469.201	-108.586	0.219	0.047
-468.186	-136.285	-0.359	0.042
-467.172	380.583	0.021	0.042
-466.157	80.352	0.082	0.087
-465.143	-143.187	-0.323	-0.031
-464.128	-57.750	0.162	-0.070
-463.113	-187.690	-0.382	-0.005
-462.099	-4.500	-0.149	-0.102
-461.084	-94.806	-0.074	-0.020
-460.070	800.000	0.054	0.177
-459.055	-200.000	-0.035	0.300
-458.040	-24.666	-0.094	-0.055
-457.026	-200.000	-0.048	-0.229
-456.011	800.000	0.064	-0.242
-454.997	-142.376	0.287	-0.028
-453.982	0.529	-0.185	0.132
-452.968	-17.552	-0.184	0.115
-451.953	145.386	-0.071	0.094
-450.938	130.221	-0.308	-0.391
-449.924	153.957	-0.080	-0.109
-448.909	10.765	-0.068	-0.052
-447.895	34.686	0.116	-0.100
-446.880	48.000	0.208	0.193
-445.865	187.230	0.054	-0.080
-444.851	179.147	-0.074	0.107
-443.836	15.235	-0.192	-0.150
-442.822	48.578	0.229	-0.213
-441.807	-131.176	0.449	0.059
-440.792	800.000	-0.107	-0.333
-439.778	2.090	0.237	-0.170
-438.763	1.748	0.084	-0.060
-437.749	800.000	-0.093	-0.373
-436.734	800.000	0.024	-0.095
-435.719	-200.000	0.021	-0.196
-434.705	-169.268	-0.011	-0.000
-433.690	48.235	-0.367	0.341
-432.676	342.321	0.093	-0.180
-431.661	549.550	0.102	0.244
-430.646	77.999	-0.205	0.217
-429.632	-39.594	0.199	0.103
-428.617	800.000	-0.049	-0.151
-427.603	-200.000	0.001	0.125
-426.588	0.882	0.235	0.167
-425.573	171.604	0.082	0.117
-424.559	-200.000	0.115	-0.509
-423.544	79.346	0.127	0.135
-422.530	-46.331	0.208	-0.101
-421.515	-93.750	0.118	0.032
-420.500	-118.182	-0.141	0.025
-419.486	108.067	-0.135	-0.159
-418.471	89.578	-0.216	0.240
-417.457	-70.788	-0.134	-0.050
-416.442	800.000	-0.051	0.205
-415.428	-200.000	-0.033	0.265
-414.413	-17.996	-0.199	0.124
-413.398	-36.638	0.092	-0.049
-412.384	37.083	0.165	0.145
-411.369	800.000	-0.013	0.057
-410.355	-200.000	0.027	0.163
-409.340	31.034	0.298	-0.253
-408.325	-55.560	0.239	-0.106
-407.311	800.000	0.029	-0.082
-406.296	-200.000	0.010	0.160
-405.282	-50.743	-0.042	-0.020
-404.267	-158.967	0.502	-0.028
-403.252	-18.052	0.373	-0.232
-402.238	220.862	0.071	0.113
-401.223	305.448	0.093	-0.171
-400.209	-124.088	-0.333	-0.052
-399.194	-137.648	0.263	-0.029
-398.179	24.562	0.192	-0.158
-397.165	105.151	-0.156	0.182
-396.150	-200.000	0.039	-0.192
-395.136	13.246	0.131	-0.101
-394.121	-28.865	0.159	-0.091
-393.106	-200.000	0.063	-0.412
-392.092	21.974	-0.352	-0.285
-391.077	36.090	-0.244	-0.213
-390.063	-33.328	0.134	0.073
-389.048	-57.288	-0.210	0.091
-388.033	-67.821	-0.191	-0.074
-387.019	133.776	-0.107	0.137
-386.004	-200.000	-0.061	0.348
-384.990	89.317	-0.200	0.221
-383.975	-44.186	0.263	-0.131
-382.960	60.302	0.108	0.106
-381.946	-82.685	-0.297	-0.095
-380.931	115.582	-0.188	-0.228
-379.917	220.488	-0.158	0.251
-378.902	-200.000	0.029	0.249
-377.888	-66.637	-0.235	0.092
-376.873	800.000	0.087	0.241
-375.858	-22.411	-0.250	-0.150
-374.844	-72.485	0.255	0.093
-373.829	268.265	-0.069	0.120
-372.815	-70.038	-0.343	0.129
-371.800	366.026	0.112	0.223
-370.785	-145.490	-0.209	0.019
-369.771	800.000	-0.071	0.288
-368.756	-67.287	0.230	0.090
-367.742	-74.360	0.130	-0.046
-366.727	800.000	0.043	0.131
-365.712	146.016	-0.241	0.320
-364.698	-115.031	0.353	0.066
-363.683	-200.000	-0.039	0.278
-362.669	-200.000	0.014	-0.298
-361.654	-38.038	-0.311	0.163
-360.639	314.324	0.049	0.091
-359.625	-108.409	0.416	0.089
-358.610	466.288	-0.040	-0.088
-357.596	38.495	0.252	0.222
-356.581	-194.217	0.236	-0.002
-355.566	237.306	-0.176	0.288
-354.552	-24.381	-0.213	0.126
-353.537	9.242	0.258	0.193
-352.523	30.163	-0.081	-0.068
-351.508	-71.430	0.037	0.014
-350.493	-200.000	0.045	0.285
-349.479	226.530	-0.044	-0.071
-348.464	-101.691	0.185	-0.044
-347.450	81.441	0.134	-0.143
-346.435	-132.971	-0.204	0.026
-345.420	-200.000	-0.115	-0.511
-344.406	244.610	-0.201	0.334
-343.391	32.428	0.233	-0.200
-342.377	-94.752	-0.268	-0.072
-341.362	-200.000	-0.001	-0.439
-340.348	86.986	0.139	0.151
-339.333	88.617	-0.116	0.128
-338.318	-200.000	0.010	-0.054
-337.304	-125.045	-0.259	0.039
-336.289	-133.085	-0.158	-0.020
-335.275	-133.940	-0.299	0.037
-334.260	-136.953	0.072	0.008
-333.245	386.303	-0.011	0.022
-332.231	-200.000	-0.044	0.246
-331.216	-200.000	0.000	-0.004
-330.202	764.938	0.065	-0.173
-329.187	270.146	0.205	-0.356
-328.172	624.423	-0.089	0.221
-327.158	179.700	-0.034	0.049
-326.143	-110.926	-0.219	-0.045
-325.129	-86.800	-0.131	0.039
-324.114	211.046	-0.187	-0.291
-323.099	372.720	0.074	0.148
-322.085	-54.563	0.304	-0.136
-321.070	7.470	0.130	0.096
-320.056	205.895	0.050	-0.077
-319.041	28.306	0.163	0.136
-318.026	-162.877	0.061	-0.003
-317.012	102.256	-0.073	0.084
-315.997	-21.239	-0.125	-0.075
-314.983	24.273	-0.088	0.072
-313.968	343.741	0.122	0.236
-312.953	-40.847	-0.223	0.114
-311.939	-200.000	-0.045	0.459
-310.924	-68.963	-0.132	-0.050
-309.910	111.336	0.140	-0.167
-308.895	800.000	0.043	-0.163
-307.880	-102.347	0.457	-0.108
-306.866	-9.187	-0.126	0.083
-305.851	-19.151	-0.019	-0.012
-304.837	-38.753	-0.170	0.089
-303.822	331.836	0.187	0.356
-302.807	325.477	0.092	0.173
-301.793	-35.059	0.132	-0.071
-300.778	-78.271	-0.200	0.068
-299.764	-116.239	-0.389	-0.071
-298.749	-15.114	0.252	0.159
-297.735	83.719	-0.074	-0.079
-296.720	71.991	-0.260	0.267
-295.705	800.000	0.090	-0.342
-294.691	137.742	-0.235	0.303
-293.676	-100.777	-0.152	-0.037
-292.662	-81.131	-0.218	0.071
-291.647	-173.732	0.142	0.004
-290.632	109.800	-0.019	0.023
-289.618	523.169	-0.065	-0.150
-288.603	-200.000	0.012	0.129
-287.589	-107.173	-0.176	0.038
-286.574	379.202	0.155	0.314
-285.559	-200.000	0.001	0.304
-284.545	128.093	-0.116	-0.145
-283.530	-200.000	-0.032	0.190
-282.516	-7.873	-0.051	0.034
-281.501	316.262	-0.243	0.452
-280.486	-138.108	0.066	-0.007
-279.472	20.690	0.316	0.252
-278.457	172.990	0.079	0.112
-277.443	-158.434	-0.293	-0.017
-276.428	102.196	0.083	-0.096
-275.413	-38.807	-0.407	-0.212
-274.399	800.000	0.049	-0.194
-273.384	89.920	-0.172	0.190
-272.370	-93.832	-0.177	-0.048
-271.355	800.000	0.014	0.043
-270.340	-63.825	0.257	-0.104
-269.326	800.000	-0.051	-0.217
-268.311	195.810	-0.103	-0.155
-267.297	800.000	0.051	-0.163
-266.282	800.000	0.107	0.365
-265.267	68.692	-0.069	0.070
-264.253	800.000	0.064	-0.183
-263.238	430.217	-0.103	-0.219
-262.224	766.991	-0.114	-0.307
-261.209	-200.000	-0.042	0.254
-260.195	-95.476	0.045	0.012
-259.180	73.791	0.107	-0.111
-258.165	47.245	-0.116	0.106
-257.151	-200.000	0.010	-0.436
-256.136	800.000	0.106	0.369
-255.122	-164.349	0.138	0.006
-254.107	-5.862	-0.276	0.186
-253.092	373.451	0.062	0.125
-252.078	60.249	0.040	0.039
-251.063	-52.867	0.334	0.152
-250.049	33.592	0.131	0.112
-249.034	-158.504	-0.276	0.016
-248.019	-5.759	0.122	0.082
-247.005	-38.920	0.112	0.058
-245.990	-12.424	-0.215	0.138
-244.976	356.613	-0.053	0.103
-243.961	92.541	-0.279	0.310
-242.946	-133.132	-0.433	0.054
-241.932	-64.120	-0.319	0.128
-240.917	58.146	0.110	-0.106
-239.903	-200.000	0.004	0.105
-238.888	-200.000	-0.007	0.335
-237.873	398.643	0.032	0.066
-236.859	-108.099	0.276	-0.059
-235.844	-177.398	0.225	-0.005
-234.830	-88.779	0.160	-0.047
-233.815	153.570	0.128	0.173
-232.800	552.093	-0.126	-0.297
-231.786	155.740	-0.094	-0.127
-230.771	-76.247	-0.292	-0.102
-229.757	566.015	-0.198	0.472
-228.742	9.912	-0.014	0.010
-227.727	92.589	0.100	-0.111
-226.713	-59.846	-0.248	0.105
-225.698	800.000	-0.006	0.023
-224.684	264.029	0.083	0.142
-223.669	-110.062	0.137	-0.028
-222.655	800.000	-0.047	-0.129
-221.640	-23.540	-0.047	-0.028
-220.625	191.827	-0.226	0.336
-219.611	634.144	0.086	0.216
-218.596	-60.152	0.241	-0.101
-217.582	-79.183	0.105	-0.035
-216.567	800.000	0.037	-0.121
-215.552	326.151	0.121	0.229
-214.538	-200.000	-0.046	0.210
-213.523	-123.406	-0.236	-0.037
-212.509	196.810	-0.048	-0.072
-211.494	-46.409	-0.244	0.118
-210.479	800.000	-0.087	0.258
-209.465	800.000	-0.131	0.474
-208.450	-56.749	0.043	0.019
-207.436	23.920	0.139	-0.113
-206.421	59.592	0.037	0.036
-205.406	779.513	-0.050	-0.135
-204.392	800.000	-0.012	-0.044
-203.377	-200.000	0.011	-0.160
-202.363	425.080	0.151	0.320
-201.348	12.517	-0.037	-0.028
-200.333	354.764	-0.194	0.379
-199.319	-100.097	0.325	-0.080
-198.304	41.705	0.091	0.081
-197.290	-152.414	-0.136	-0.010
-196.275	349.343	-0.126	-0.244
-195.260	472.151	0.077	-0.171
-194.246	-200.000	0.009	-0.052
-193.231	393.977	0.154	-0.315
-192.217	-200.000	0.061	0.387
-191.202	424.127	0.173	0.366
-190.187	355.798	0.193	-0.377
-189.173	800.000	0.015	-0.060
-188.158	619.208	0.093	-0.230
-187.144	690.221	0.044	-0.114
-186.129	140.734	0.129	0.167
-185.114	-91.039	0.465	0.131
-184.100	-200.000	-0.002	0.042
-183.085	-74.221	0.150	-0.053
-182.071	-10.639	-0.314	-0.204
-181.056	800.000	-0.069	-0.203
-180.042	69.412	0.222	0.225
-179.027	-147.035	0.263	0.022
-178.012	345.332	-0.163	-0.314
-176.998	-175.811	-0.091	0.002
-175.983	103.001	-0.110	0.127
-174.969	109.656	0.096	0.113
-173.954	71.712	0.199	0.203
-172.939	-131.850	-0.170	-0.022
-171.925	287.680	-0.160	0.284
-170.910	-200.000	-0.001	-0.387
-169.896	-200.000	-0.069	-0.304
-168.881	-126.274	0.261	0.038
-167.866	-67.098	-0.156	-0.061
-166.852	-62.423	0.318	-0.130
-165.837	-200.000	0.025	0.162
-164.823	-85.567	0.214	-0.065
-163.808	-139.128	-0.255	-0.027
-162.793	13.810	0.117	0.089
-161.779	-124.489	0.260	0.040
-160.764	104.180	0.099	0.114
-159.750	-25.565	0.094	0.055
-158.735	-177.123	0.120	-0.003
-157.720	28.630	0.304	0.253
-156.706	-200.000	-0.014	0.119
-155.691	2.036	0.435	-0.308
-154.677	-60.311	0.188	-0.078
-153.662	89.947	0.204	0.224
-152.647	800.000	0.028	0.108
-151.633	250.388	0.118	-0.197
-150.618	476.436	0.081	0.179
-149.604	-200.000	-0.015	0.116
-148.589	22.471	-0.211	0.170
-147.574	-117.205	0.335	-0.060
-146.560	613.622	-0.072	-0.178
-145.545	-30.380	0.263	-0.146
-144.531	265.239	0.105	-0.180
-143.516	638.722	-0.095	0.236
-142.502	-130.762	-0.113	0.015
-141.487	800.000	-0.128	0.383
-140.472	6.206	-0.103	-0.075
-139.458	-200.000	0.046	0.211
-138.443	-200.000	-0.047	0.446
-137.429	-200.000	0.000	0.226
-136.414	-68.982	-0.126	-0.048
-135.399	-113.928	-0.295	-0.056
-134.385	-48.051	0.105	-0.050
-133.370	-200.000	-0.041	-0.189
-132.356	107.267	0.208	-0.243
-131.341	-24.258	-0.165	0.096
-130.326	44.500	-0.315	0.284
-129.312	-92.251	0.064	-0.018
-128.297	57.683	0.061	0.058
-127.283	112.312	0.135	0.160
-126.268	-200.000	0.023	-0.127
-125.253	-33.684	0.151	0.082
-124.239	335.103	-0.036	-0.069
-123.224	83.374	0.191	-0.204
-122.210	161.615	-0.111	-0.152
-121.195	213.144	0.125	0.194
