DTS Sentinel unit serial number:	SN413079Multiplexer serial number:	ORYXHardware model number:	OX4-SRSoftware version number:	ORYX F/W v4.00 Oryx Data Collector v3.7.2.0data status	okinstallation	princeton_trtdifferential loss correction	single-endedforward channel	channel 4reverse channel	N/Adate	2019/09/13time	21:29:35forward acquisition time	60.00reverse acquisition time	0.00gamma	496.2192k internal	0.2319k external	0.2319temperature offset calibration	1.0122default loss term (dB/km)	0.3790temperature slope calibration	1.0000multiplexer offset coefficient	1.0000multiplexer slope coefficient	1.0000fibre end	0.00T internal ref (°C)	28.28T ext. ref 1 (°C)	3.01T ext. ref 2 (°C)	22.95length (m)	temperature (°C)	Stokes	anti-Stokes-747.200	-200.000	0.221	-0.000
-746.185	-69.361	-0.139	-0.054
-745.171	-200.000	0.044	-0.209
-744.156	800.000	-0.041	-0.163
-743.142	-9.020	0.244	0.165
-742.127	-118.826	-0.183	0.033
-741.112	800.000	-0.060	0.209
-740.098	-82.766	0.144	0.047
-739.083	-14.029	0.233	-0.152
-738.069	41.170	0.064	-0.058
-737.054	32.622	-0.157	0.137
-736.039	-24.868	-0.299	-0.179
-735.025	219.652	0.201	0.325
-734.010	-113.375	-0.217	0.043
-732.996	120.849	-0.217	0.272
-731.981	800.000	-0.056	-0.197
-730.966	-67.577	-0.343	0.136
-729.952	-105.634	0.020	-0.005
-728.937	-62.429	0.134	-0.056
-727.923	335.499	-0.205	-0.402
-726.908	240.866	-0.138	-0.233
-725.894	46.855	0.118	0.111
-724.879	-199.602	-0.315	-0.002
-723.864	-114.105	-0.457	0.089
-722.850	-200.000	0.031	0.281
-721.835	20.528	0.049	0.040
-720.821	-200.000	0.031	0.546
-719.806	117.131	0.182	-0.225
-718.791	-101.870	-0.171	0.042
-717.777	-200.000	0.002	0.023
-716.762	-200.000	0.073	0.363
-715.748	47.597	0.114	0.107
-714.733	800.000	0.127	-0.410
-713.718	800.000	-0.090	-0.257
-712.704	-119.937	-0.151	-0.026
-711.689	-200.000	-0.010	-0.149
-710.675	30.549	0.161	-0.139
-709.660	-4.132	-0.111	0.078
-708.645	-147.705	0.145	-0.012
-707.631	307.872	0.113	0.214
-706.616	-200.000	0.020	-0.235
-705.602	800.000	-0.022	-0.083
-704.587	-76.548	0.143	0.051
-703.572	40.841	0.095	0.087
-702.558	212.213	0.027	0.043
-701.543	-123.807	0.250	-0.040
-700.529	78.591	0.110	-0.119
-699.514	800.000	-0.063	-0.207
-698.499	95.239	-0.089	-0.102
-697.485	396.836	-0.161	-0.339
-696.470	70.425	-0.099	-0.103
-695.456	61.088	0.302	0.303
-694.441	-5.562	0.153	-0.106
-693.426	-62.269	-0.124	-0.052
-692.412	-165.538	0.236	0.010
-691.397	76.148	-0.058	0.062
-690.383	160.130	-0.127	-0.179
-689.368	800.000	0.057	0.206
-688.354	800.000	-0.052	0.201
-687.339	144.723	-0.165	0.223
-686.324	397.795	0.048	0.101
-685.310	114.925	0.124	0.153
-684.295	104.467	0.065	-0.078
-683.281	-74.919	0.123	0.044
-682.266	28.676	-0.188	0.161
-681.251	558.507	-0.070	0.172
-680.237	250.522	0.137	-0.235
-679.222	-200.000	0.003	0.024
-678.208	-200.000	-0.411	0.001
-677.193	775.084	0.022	0.060
-676.178	-122.667	-0.048	0.008
-675.164	-51.497	-0.084	0.039
-674.149	53.522	0.097	0.094
-673.135	238.405	-0.150	-0.252
-672.120	-200.000	0.013	0.130
-671.105	279.883	-0.074	0.133
-670.091	-148.104	-0.254	0.021
-669.076	108.349	0.130	-0.157
-668.062	137.728	0.181	-0.239
-667.047	-200.000	-0.003	-0.033
-666.032	108.821	0.095	-0.115
-665.018	-111.711	-0.168	0.034
-664.003	533.655	-0.079	-0.189
-662.989	-113.675	0.169	-0.033
-661.974	-22.007	-0.476	0.291
-660.959	404.348	0.167	0.354
-659.945	-130.385	0.128	0.017
-658.930	24.924	0.290	-0.242
-657.916	-200.000	0.036	0.224
-656.901	-40.835	0.091	-0.047
-655.886	511.464	-0.086	0.201
-654.872	2.542	-0.240	0.175
-653.857	800.000	-0.110	0.305
-652.843	581.726	-0.139	0.343
-651.828	800.000	-0.098	0.320
-650.814	-73.429	-0.272	0.100
-649.799	-200.000	-0.023	-0.121
-648.784	800.000	0.043	-0.180
-647.770	800.000	0.078	0.291
-646.755	417.509	0.068	0.147
-645.741	68.427	-0.054	0.056
-644.726	419.819	-0.192	-0.414
-643.711	240.640	0.141	0.236
-642.697	-117.255	-0.263	0.048
-641.682	-200.000	0.024	0.163
-640.668	3.437	-0.008	0.006
-639.653	-133.618	-0.082	-0.010
-638.638	-93.084	0.182	0.051
-637.624	57.340	0.080	-0.079
-636.609	404.492	0.021	-0.045
-635.595	-79.057	0.264	-0.090
-634.580	-90.691	0.331	-0.096
-633.565	-68.518	-0.177	-0.069
-632.551	260.468	0.053	0.093
-631.536	155.018	0.138	-0.192
-630.522	0.738	-0.088	-0.063
-629.507	405.234	-0.143	0.304
-628.492	800.000	0.066	-0.207
-627.478	228.627	-0.059	-0.098
-626.463	-47.151	0.200	-0.098
-625.449	-23.016	-0.117	0.071
-624.434	-200.000	0.028	0.287
-623.419	-14.224	-0.224	0.146
-622.405	-147.225	0.208	-0.018
-621.390	199.958	-0.095	-0.147
-620.376	800.000	-0.046	-0.148
-619.361	-200.000	0.023	-0.109
-618.346	-115.878	-0.164	0.031
-617.332	-200.000	-0.044	0.212
-616.317	243.495	0.049	-0.082
-615.303	-90.364	0.217	0.063
-614.288	-200.000	-0.052	-0.364
-613.273	-112.060	0.342	0.069
-612.259	-47.926	0.033	0.016
-611.244	16.267	0.101	-0.080
-610.230	161.228	-0.071	0.100
-609.215	49.201	-0.205	0.194
-608.201	-200.000	-0.004	-0.040
-607.186	326.784	0.076	-0.147
-606.171	175.956	-0.047	0.069
-605.157	-51.707	0.205	0.096
-604.142	417.993	0.057	0.122
-603.128	147.009	-0.169	-0.228
-602.113	-64.400	-0.066	0.027
-601.098	25.338	-0.201	-0.168
-600.084	-6.266	0.168	-0.115
-599.069	-166.345	0.252	-0.011
-598.055	-76.493	-0.306	-0.108
-597.040	362.210	-0.058	0.116
-596.025	800.000	0.029	0.107
-595.011	-200.000	-0.005	-0.104
-593.996	-120.181	-0.143	-0.025
-592.982	-200.000	-0.070	-0.313
-591.967	-36.935	-0.166	-0.090
-590.952	191.630	-0.111	0.167
-589.938	12.266	-0.113	-0.087
-588.923	-84.292	-0.279	-0.089
-587.909	-200.000	0.033	0.335
-586.894	8.794	0.201	0.153
-585.879	35.084	0.186	0.164
-584.865	-112.802	0.190	0.038
-583.850	565.604	0.042	0.102
-582.836	162.718	0.192	0.271
-581.821	32.031	0.088	0.076
-580.806	800.000	-0.066	-0.219
-579.792	-91.536	0.166	0.048
-578.777	-200.000	-0.043	-0.259
-577.763	114.045	0.297	-0.363
-576.748	-200.000	-0.047	-0.217
-575.733	-92.593	0.126	0.036
-574.719	747.299	0.080	0.216
-573.704	-200.000	0.065	-0.306
-572.690	-44.496	0.145	-0.073
-571.675	40.398	0.099	-0.090
-570.661	241.336	-0.084	-0.141
-569.646	-168.370	0.097	0.004
-568.631	258.324	0.142	-0.245
-567.617	15.990	-0.096	-0.076
-566.602	268.226	0.124	0.218
-565.588	800.000	-0.055	0.159
-564.573	-94.927	0.376	0.102
-563.558	-43.137	-0.357	-0.182
-562.544	-113.186	-0.326	-0.064
-561.529	-200.000	-0.021	0.103
-560.515	152.517	0.184	-0.252
-559.500	-60.621	0.073	-0.031
-558.485	191.636	-0.134	-0.202
-557.471	107.672	0.024	-0.028
-556.456	62.743	0.071	-0.071
-555.442	80.950	-0.169	0.183
-554.427	7.220	-0.075	0.056
-553.412	110.236	0.038	-0.046
-552.398	-200.000	-0.014	0.308
-551.383	800.000	-0.061	0.199
-550.369	-78.890	-0.139	-0.047
-549.354	800.000	0.068	0.242
-548.339	68.644	0.164	-0.169
-547.325	-43.068	-0.223	-0.114
-546.310	-17.441	-0.146	-0.093
-545.296	394.829	0.181	-0.378
-544.281	3.828	-0.162	-0.118
-543.266	-73.857	0.179	-0.065
-542.252	-70.690	-0.364	-0.138
-541.237	240.071	0.057	0.095
-540.223	800.000	-0.107	0.301
-539.208	743.204	-0.159	0.429
-538.193	800.000	0.123	-0.399
-537.179	590.721	0.094	0.232
-536.164	-90.677	-0.174	-0.051
-535.150	800.000	-0.046	-0.129
-534.135	102.422	-0.044	0.051
-533.121	242.175	0.087	0.146
-532.106	-200.000	0.046	-0.205
-531.091	-73.548	-0.139	-0.051
-530.077	800.000	0.055	0.153
-529.062	-69.218	0.172	-0.066
-528.048	210.598	-0.030	0.048
-527.033	106.712	0.218	-0.260
-526.018	215.310	0.131	-0.208
-525.004	-200.000	0.045	-0.326
-523.989	382.289	-0.112	-0.231
-522.975	7.430	0.091	0.068
-521.960	20.772	0.095	-0.078
-520.945	-200.000	0.048	-0.223
-519.931	-78.067	0.362	-0.125
-518.916	800.000	-0.059	-0.222
-517.902	-93.757	0.128	0.035
-516.887	109.785	0.073	0.088
-515.872	88.144	0.326	-0.362
-514.858	15.660	0.125	0.098
-513.843	-118.505	0.334	-0.059
-512.829	606.369	0.035	-0.088
-511.814	-93.409	0.084	0.023
-510.799	-91.478	-0.223	-0.064
-509.785	800.000	0.040	-0.132
-508.770	-73.586	-0.185	0.068
-507.756	78.720	0.117	0.126
-506.741	-92.485	-0.427	-0.120
-505.726	-70.499	0.052	0.020
-504.712	-200.000	-0.048	-0.297
-503.697	-105.593	0.228	0.052
-502.683	336.343	-0.130	-0.253
-501.668	-200.000	0.010	-0.362
-500.653	57.484	-0.077	0.075
-499.639	-104.128	0.048	-0.011
-498.624	137.445	0.059	-0.077
-497.610	-200.000	-0.013	-0.115
-496.595	-89.218	-0.367	0.109
-495.581	-166.112	0.387	-0.016
-494.566	27.785	-0.173	0.146
-493.551	-42.054	0.393	-0.201
-492.537	-57.513	-0.180	0.079
-491.522	48.595	0.174	-0.163
-490.508	332.600	0.103	-0.199
-489.493	-61.841	-0.261	-0.110
-488.478	142.585	-0.090	-0.120
-487.464	-82.881	-0.104	0.034
-486.449	800.000	-0.050	0.181
-485.435	174.445	0.085	-0.124
-484.420	655.272	-0.057	0.147
-483.405	-92.102	-0.092	-0.026
-482.391	-145.944	0.400	-0.036
-481.376	112.483	0.150	-0.182
-480.362	-165.091	0.211	0.009
-479.347	800.000	-0.075	0.234
-478.332	-27.472	-0.079	-0.046
-477.318	-72.490	0.104	0.038
-476.303	23.420	-0.147	0.121
-475.289	-113.668	0.173	0.034
-474.274	-5.484	0.127	0.087
-473.259	-182.303	0.326	0.006
-472.245	800.000	-0.048	-0.157
-471.230	-2.654	0.172	-0.121
-470.216	-178.769	0.302	-0.007
-469.201	187.025	-0.052	0.078
-468.186	-66.554	0.369	-0.146
-467.172	76.078	-0.123	0.131
-466.157	800.000	-0.042	0.156
-465.143	-172.495	0.271	0.009
-464.128	800.000	0.089	0.286
-463.113	232.384	0.075	0.123
-462.099	9.208	0.023	0.018
-461.084	160.741	0.197	0.275
-460.070	704.758	-0.096	0.253
-459.055	-114.655	-0.145	-0.028
-458.040	-11.145	-0.215	-0.141
-457.026	-200.000	0.035	-0.235
-456.011	-70.295	-0.100	0.038
-454.997	-171.854	0.131	0.004
-453.982	800.000	-0.059	0.203
-452.968	-200.000	0.024	0.177
-451.953	-83.763	0.084	0.027
-450.938	-35.882	-0.346	-0.187
-449.924	29.969	0.159	-0.135
-448.909	-25.607	-0.125	0.074
-447.895	8.796	0.262	-0.198
-446.880	-200.000	0.017	-0.130
-445.865	-96.161	-0.195	-0.052
-444.851	290.992	-0.109	0.198
-443.836	215.380	-0.269	0.426
-442.822	-55.811	-0.065	-0.029
-441.807	-10.332	0.166	-0.110
-440.792	-200.000	-0.016	0.145
-439.778	292.213	-0.172	0.312
-438.763	-200.000	0.004	0.089
-437.749	8.310	-0.107	0.081
-436.734	-13.642	-0.143	-0.093
-435.719	715.002	-0.048	0.128
-434.705	-107.953	0.312	0.068
-433.690	114.625	-0.127	0.155
-432.676	147.792	0.100	0.135
-431.661	-200.000	0.016	-0.282
-430.646	92.469	-0.168	-0.190
-429.632	166.167	0.099	0.140
-428.617	-55.829	0.236	-0.105
-427.603	259.029	0.072	0.124
-426.588	522.728	-0.128	-0.300
-425.573	-9.549	-0.131	-0.087
-424.559	-93.936	-0.345	0.095
-423.544	-24.849	-0.093	0.055
-422.530	-102.896	0.076	-0.018
-421.515	800.000	0.042	-0.164
-420.500	-139.985	-0.136	0.014
-419.486	-121.180	-0.219	0.037
-418.471	198.599	0.127	0.194
-417.457	109.740	0.242	-0.290
-416.442	81.600	0.111	-0.120
-415.428	-120.997	0.274	-0.046
-414.413	-40.753	-0.167	0.087
-413.398	252.893	0.199	0.340
-412.384	-144.644	0.245	-0.023
-411.369	800.000	-0.030	-0.115
-410.355	-96.912	0.187	-0.049
-409.340	-200.000	0.006	0.129
-408.325	-13.566	-0.391	0.253
-407.311	75.721	-0.081	0.086
-406.296	-163.311	-0.298	0.014
-405.282	-43.057	0.213	-0.108
-404.267	-87.510	-0.314	0.095
-403.252	-39.239	0.140	-0.073
-402.238	-48.691	0.129	-0.062
-401.223	800.000	0.031	0.107
-400.209	197.074	0.113	0.172
-399.194	533.906	0.137	0.323
-398.179	88.435	-0.183	0.203
-397.165	-200.000	-0.295	-0.001
-396.150	54.097	-0.243	-0.233
-395.136	-101.839	0.203	-0.049
-394.121	-200.000	0.036	0.258
-393.106	14.994	0.051	0.040
-392.092	-97.018	-0.342	0.089
-391.077	-178.577	-0.262	-0.006
-390.063	95.459	0.137	0.156
-389.048	635.862	0.103	0.261
-388.033	-39.525	-0.221	-0.115
-387.019	-200.000	0.039	0.231
-386.004	33.701	0.338	0.293
-384.990	-78.563	-0.388	0.132
-383.975	90.946	0.086	0.096
-382.960	800.000	-0.079	-0.248
-381.946	-84.049	0.215	-0.068
-380.931	19.668	0.228	-0.183
-379.917	-158.042	-0.430	0.025
-378.902	214.648	0.111	0.176
-377.888	103.206	0.100	-0.117
-376.873	-78.685	0.323	-0.110
-375.858	-77.060	-0.304	-0.106
-374.844	-141.338	-0.244	-0.025
-373.829	-84.082	-0.101	0.032
-372.815	5.051	-0.105	0.077
-371.800	84.525	-0.039	0.043
-370.785	179.267	-0.161	-0.235
-369.771	-200.000	0.020	0.226
-368.756	-200.000	-0.031	0.334
-367.742	-200.000	0.029	0.300
-366.727	42.695	0.111	-0.100
-365.712	102.816	0.138	0.161
-364.698	-94.791	-0.066	-0.018
-363.683	190.414	0.083	0.124
-362.669	-131.154	0.041	0.005
-361.654	86.804	-0.255	-0.280
-360.639	227.006	0.035	0.057
-359.625	45.258	-0.172	0.158
-358.610	386.851	-0.032	0.066
-357.596	-32.128	0.340	0.189
-356.581	-200.000	-0.006	-0.190
-355.566	191.690	-0.070	0.105
-354.552	122.190	0.180	0.224
-353.537	800.000	0.117	-0.394
-352.523	92.624	0.108	-0.121
-351.508	-4.000	-0.192	-0.133
-350.493	381.011	0.092	-0.189
-349.479	630.946	-0.079	0.198
-348.464	-144.184	-0.354	-0.033
-347.450	-25.925	0.302	-0.177
-346.435	-92.464	0.170	-0.048
-345.420	158.801	-0.231	0.320
-344.406	-61.349	0.201	0.084
-343.391	800.000	-0.049	0.161
-342.377	800.000	-0.103	0.310
-341.362	800.000	0.012	-0.038
-340.348	-11.804	-0.147	0.096
-339.333	-97.409	-0.363	-0.094
-338.318	-200.000	0.001	0.045
-337.304	359.905	-0.145	-0.289
-336.289	-122.803	0.063	-0.010
-335.275	800.000	-0.043	0.183
-334.260	800.000	-0.054	-0.166
-333.245	-157.157	-0.022	0.001
-332.231	-200.000	-0.040	-0.332
-331.216	-135.941	0.177	0.021
-330.202	38.721	-0.106	0.094
-329.187	-200.000	0.007	0.137
-328.172	-123.943	0.289	-0.045
-327.158	-102.939	0.187	0.044
-326.143	6.784	0.089	0.066
-325.129	-200.000	-0.045	0.238
-324.114	-53.882	-0.392	0.178
-323.099	800.000	-0.035	-0.103
-322.085	-115.329	-0.099	-0.019
-321.070	-148.524	-0.403	0.033
-320.056	-200.000	0.044	-0.332
-319.041	94.241	0.062	0.070
-318.026	-134.597	-0.248	0.030
-317.012	-161.888	0.129	0.007
-315.997	-129.204	0.210	0.029
-314.983	800.000	-0.082	0.252
-313.968	-149.339	-0.117	-0.009
-312.953	-200.000	0.034	0.177
-311.939	-88.979	0.102	0.030
-310.924	307.368	0.161	0.299
-309.910	200.123	-0.184	0.282
-308.895	674.948	0.090	0.233
-307.880	-109.821	0.479	0.100
-306.866	800.000	-0.050	0.149
-305.851	-107.901	-0.034	0.007
-304.837	800.000	0.066	0.253
-303.822	57.636	0.033	0.032
-302.807	-15.084	-0.132	-0.084
-301.793	-26.689	-0.219	0.127
-300.778	-51.906	0.227	0.105
-299.764	800.000	0.083	-0.314
-298.749	299.091	-0.216	-0.395
-297.735	-129.448	0.197	0.027
-296.720	-65.875	0.103	-0.041
-295.705	41.701	-0.161	0.145
-294.691	-200.000	-0.002	-0.093
-293.676	281.915	-0.078	0.139
-292.662	395.558	-0.148	-0.306
-291.647	1.716	-0.141	-0.101
-290.632	33.473	-0.269	0.232
-289.618	-200.000	-0.035	0.241
-288.603	800.000	-0.035	0.146
-287.589	800.000	0.122	0.352
-286.574	-3.497	0.095	-0.065
-285.559	-95.162	-0.235	-0.063
-284.545	107.610	0.113	0.133
-283.530	-101.718	-0.084	0.020
-282.516	-145.030	-0.255	0.023
-281.501	-22.363	0.037	-0.022
-280.486	211.405	-0.087	-0.136
-279.472	-68.317	0.176	-0.068
-278.457	87.044	-0.113	0.123
-277.443	307.236	-0.088	-0.162
-276.428	722.952	-0.040	0.105
-275.413	-2.927	0.152	0.105
-274.399	37.255	-0.049	-0.043
-273.384	-176.215	0.510	-0.013
-272.370	-155.567	0.072	0.005
-271.355	207.131	0.174	-0.269
-270.340	17.940	-0.162	-0.128
-269.326	-200.000	0.043	0.187
-268.311	31.190	-0.172	0.147
-267.297	74.182	0.028	-0.029
-266.282	-200.000	-0.048	0.223
-265.267	70.821	-0.303	0.311
-264.253	105.760	0.342	-0.402
-263.238	-62.204	-0.476	0.197
-262.224	-106.796	0.089	0.020
-261.209	-84.099	0.352	-0.111
-260.195	-48.748	0.296	0.141
-259.180	54.599	0.175	-0.168
-258.165	253.749	0.131	-0.222
-257.151	-90.170	0.190	0.055
-256.136	27.021	-0.103	-0.086
-255.122	536.144	0.085	-0.201
-254.107	-185.393	-0.370	-0.006
-253.092	-144.742	0.225	0.021
-252.078	800.000	0.103	0.282
-251.063	-70.564	0.122	0.046
-250.049	-102.622	-0.135	-0.032
-249.034	419.843	0.064	-0.135
-248.019	-18.900	0.170	0.105
-247.005	800.000	0.048	0.206
-245.990	24.958	-0.035	0.029
-244.976	800.000	-0.037	-0.118
-243.961	-3.310	-0.165	-0.114
-242.946	-125.387	-0.439	0.066
-241.932	201.783	0.092	0.141
-240.917	-130.047	-0.170	0.023
-239.903	-200.000	-0.003	0.255
-238.888	-93.151	0.168	-0.046
-237.873	416.182	0.008	0.016
-236.859	800.000	0.092	0.264
-235.844	-200.000	0.018	0.249
-234.830	-200.000	0.034	0.325
-233.815	-59.582	0.176	-0.075
-232.800	-56.092	-0.088	0.039
-231.786	-75.354	0.074	-0.026
-230.771	-55.711	0.295	-0.131
-229.757	-76.101	-0.145	-0.051
-228.742	-62.885	0.093	0.038
-227.727	-81.458	-0.373	0.122
-226.713	800.000	0.036	0.133
-225.698	51.404	0.084	0.079
-224.684	-200.000	-0.005	-0.042
-223.669	254.079	-0.082	0.139
-222.655	-72.588	-0.298	0.109
-221.640	16.461	-0.195	-0.153
-220.625	800.000	0.085	-0.278
-219.611	-200.000	-0.020	-0.262
-218.596	-17.012	-0.256	-0.160
-217.582	-97.175	0.125	0.032
-216.567	84.063	0.131	0.142
-215.552	9.571	0.075	-0.056
-214.538	115.759	-0.093	-0.113
-213.523	-200.000	-0.016	-0.079
-212.509	800.000	0.061	-0.189
-211.494	31.830	0.369	0.315
-210.479	800.000	-0.102	-0.378
-209.465	800.000	-0.083	0.345
-208.450	686.155	0.096	0.248
-207.436	323.154	0.167	-0.316
-206.421	-200.000	-0.054	-0.237
-205.406	265.649	0.135	-0.233
-204.392	34.538	-0.306	0.265
-203.377	-200.000	0.001	-0.050
-202.363	53.824	-0.030	0.029
-201.348	800.000	0.042	0.134
-200.333	-100.036	0.098	-0.024
-199.319	-200.000	0.020	0.280
-198.304	-71.690	0.088	-0.032
-197.290	-200.000	-0.030	0.237
-196.275	-9.557	0.046	0.031
-195.260	-11.999	-0.086	0.056
-194.246	-81.919	-0.040	-0.013
-193.231	-116.322	-0.070	-0.013
-192.217	-100.382	-0.151	0.037
-191.202	800.000	-0.159	-0.541
-190.187	-200.000	-0.085	-0.412
-189.173	279.001	0.081	-0.143
-188.158	-30.706	0.089	0.050
-187.144	-200.000	-0.004	-0.155
-186.129	550.847	-0.045	-0.108
-185.114	51.867	-0.151	-0.142
-184.100	279.379	-0.175	0.309
-183.085	-27.712	-0.050	-0.029
-182.071	-200.000	0.028	-0.252
-181.056	-200.000	-0.015	0.190
-180.042	85.510	0.058	-0.063
-179.027	30.442	0.241	0.204
-178.012	800.000	-0.073	-0.288
-176.998	-118.125	0.091	-0.016
-175.983	-92.741	-0.256	-0.071
-174.969	-52.013	-0.126	-0.058
-173.954	14.978	-0.016	0.012
-172.939	-200.000	-0.003	0.024
-171.925	8.569	-0.006	-0.004
-170.910	576.330	-0.089	-0.216
-169.896	-20.393	0.197	0.120
-168.881	555.629	0.074	0.176
-167.866	465.201	0.135	0.299
-166.852	-200.000	-0.014	0.302
-165.837	-15.115	-0.090	0.057
-164.823	-72.112	0.133	-0.049
-163.808	-101.946	-0.326	0.078
-162.793	800.000	0.034	-0.102
-161.779	88.945	-0.165	0.182
-160.764	2.791	-0.178	-0.127
-159.750	-200.000	0.039	-0.415
-158.735	800.000	-0.063	-0.204
-157.720	55.783	0.160	0.154
-156.706	94.598	-0.297	-0.334
-155.691	119.346	0.159	-0.195
-154.677	139.198	-0.203	-0.264
-153.662	666.720	-0.126	-0.321
-152.647	724.830	-0.101	-0.265
-151.633	-134.909	-0.267	0.032
-150.618	310.390	0.140	0.258
-149.604	-200.000	-0.059	-0.314
-148.589	76.966	-0.156	-0.164
-147.574	-144.433	-0.252	-0.023
-146.560	-99.982	0.335	-0.083
-145.545	800.000	0.044	0.185
-144.531	309.676	-0.003	-0.005
-143.516	24.907	0.207	0.169
-142.502	75.569	0.021	-0.022
-141.487	-126.053	0.279	-0.041
-140.472	-17.770	0.236	-0.146
-139.458	-200.000	0.031	0.184
-138.443	-200.000	0.025	0.318
-137.429	-4.653	0.104	0.071
-136.414	440.878	0.038	-0.082
-135.399	800.000	0.112	0.351
-134.385	51.653	-0.124	0.117
-133.370	-63.498	0.081	0.033
-132.356	74.564	-0.154	-0.160
-131.341	-200.000	0.016	-0.350
-130.326	-68.426	-0.395	-0.151
-129.312	94.080	0.161	0.181
-128.297	-126.965	-0.447	-0.065
-127.283	-109.228	-0.208	0.044
-126.268	-52.011	-0.268	-0.123
-125.253	800.000	-0.073	-0.285
-124.239	-163.390	-0.328	-0.015
-123.224	-200.000	0.058	-0.343
-122.210	-200.000	-0.005	-0.049
-121.195	-200.000	-0.034	0.180
-120.180	-104.289	-0.052	-0.012
