DTS Sentinel unit serial number:	SN413079Multiplexer serial number:	ORYXHardware model number:	OX4-SRSoftware version number:	ORYX F/W v4.00 Oryx Data Collector v3.7.2.0data status	okinstallation	princeton_trtdifferential loss correction	single-endedforward channel	channel 4reverse channel	N/Adate	2019/09/17time	13:45:35forward acquisition time	60.00reverse acquisition time	0.00gamma	496.2192k internal	0.2297k external	0.2297temperature offset calibration	0.9988default loss term (dB/km)	0.3790temperature slope calibration	1.0000multiplexer offset coefficient	1.0000multiplexer slope coefficient	1.0000fibre end	0.00T internal ref (°C)	35.06T ext. ref 1 (°C)	0.41T ext. ref 2 (°C)	32.28length (m)	temperature (°C)	Stokes	anti-Stokes-747.200	396.207	-0.066	-0.142
-746.185	800.000	0.061	-0.187
-745.171	280.435	0.112	-0.204
-744.156	115.992	-0.227	0.284
-743.142	-200.000	0.028	0.171
-742.127	-121.118	-0.134	0.023
-741.112	-161.723	-0.288	0.015
-740.098	333.368	-0.118	0.234
-739.083	800.000	0.113	0.333
-738.069	-176.683	-0.221	-0.006
-737.054	-131.883	-0.239	0.032
-736.039	8.648	-0.192	0.148
-735.025	235.494	0.041	-0.069
-734.010	-31.243	0.178	0.102
-732.996	-139.632	-0.208	0.023
-731.981	-189.441	0.074	-0.001
-730.966	736.509	0.021	-0.058
-729.952	-200.000	0.008	-0.132
-728.937	169.648	-0.102	-0.148
-727.923	-8.813	-0.158	0.108
-726.908	-121.430	-0.387	0.066
-725.894	148.393	-0.126	-0.173
-724.879	-135.292	0.116	0.014
-723.864	-200.000	0.009	0.280
-722.850	38.095	-0.154	-0.140
-721.835	-118.371	-0.293	0.053
-720.821	-200.000	0.024	-0.133
-719.806	800.000	0.096	0.363
-718.791	800.000	-0.061	0.201
-717.777	-52.282	0.117	-0.055
-716.762	399.382	-0.144	-0.308
-715.748	121.068	-0.108	0.137
-714.733	-65.883	-0.051	0.021
-713.718	-102.989	0.102	-0.025
-712.704	-200.000	-0.013	-0.081
-711.689	241.437	-0.046	-0.078
-710.675	-200.000	0.008	-0.146
-709.660	-3.686	0.080	-0.057
-708.645	-141.203	-0.100	-0.010
-707.631	-72.013	-0.238	0.090
-706.616	264.395	-0.120	0.212
-705.602	-84.702	0.281	0.090
-704.587	-200.000	0.003	0.048
-703.572	-47.316	0.143	-0.071
-702.558	-54.144	0.155	-0.072
-701.543	-200.000	-0.016	-0.106
-700.529	-200.000	0.001	0.081
-699.514	576.045	0.138	0.343
-698.499	74.988	0.226	-0.243
-697.485	25.514	-0.179	0.152
-696.470	-53.294	-0.210	0.098
-695.456	-200.000	0.024	-0.190
-694.441	-200.000	-0.020	-0.298
-693.426	-34.680	0.073	0.041
-692.412	-51.067	0.062	0.030
-691.397	84.411	0.278	0.310
-690.383	-108.436	-0.063	-0.014
-689.368	-2.239	0.208	0.149
-688.354	-200.000	-0.034	-0.169
-687.339	-200.000	-0.040	0.282
-686.324	-200.000	0.005	-0.102
-685.310	-71.910	-0.087	-0.033
-684.295	-200.000	0.003	0.164
-683.281	-92.822	-0.242	0.069
-682.266	-58.466	0.106	0.047
-681.251	720.934	-0.092	-0.251
-680.237	93.319	0.235	-0.271
-679.222	670.629	-0.088	0.231
-678.208	180.448	-0.117	0.174
-677.193	446.268	-0.098	0.219
-676.178	45.434	0.077	-0.072
-675.164	-104.676	-0.154	-0.036
-674.149	800.000	-0.089	0.257
-673.135	101.821	0.126	0.150
-672.120	-200.000	-0.044	-0.315
-671.105	-102.764	0.182	0.044
-670.091	-100.285	-0.099	0.025
-669.076	-8.411	-0.061	-0.042
-668.062	373.776	0.190	-0.393
-667.047	83.970	-0.200	-0.222
-666.032	-200.000	0.003	-0.047
-665.018	-200.000	-0.006	0.340
-664.003	232.778	0.049	-0.082
-662.989	71.558	0.037	0.039
-661.974	85.704	0.053	0.059
-660.959	125.550	-0.124	-0.159
-659.945	430.825	-0.063	-0.138
-658.930	57.030	-0.101	0.100
-657.916	-105.811	-0.042	-0.010
-656.901	67.529	-0.192	0.199
-655.886	84.112	-0.099	-0.110
-654.872	18.715	0.076	0.062
-653.857	-200.000	0.038	-0.347
-652.843	-86.694	0.029	0.009
-651.828	800.000	0.025	0.081
-650.814	800.000	-0.037	-0.147
-649.799	300.061	-0.103	0.193
-648.784	-15.025	-0.134	-0.088
-647.770	800.000	0.037	0.109
-646.755	149.591	-0.129	0.177
-645.741	-120.006	-0.014	-0.002
-644.726	-88.432	0.013	0.004
-643.711	237.061	0.090	-0.152
-642.697	204.680	-0.064	0.101
-641.682	-11.642	-0.179	-0.120
-640.668	800.000	-0.050	-0.205
-639.653	8.445	0.136	-0.104
-638.638	-41.434	0.252	-0.132
-637.624	-120.675	-0.079	0.014
-636.609	-73.103	0.117	-0.044
-635.595	444.606	0.090	0.202
-634.580	325.370	-0.109	-0.212
-633.565	-72.961	-0.070	-0.026
-632.551	-37.964	-0.145	0.078
-631.536	-109.148	0.136	-0.029
-630.522	-9.112	0.041	-0.028
-629.507	-200.000	-0.029	-0.162
-628.492	109.604	-0.127	-0.155
-627.478	-93.494	-0.131	-0.037
-626.463	-200.000	-0.018	0.093
-625.449	-200.000	-0.013	-0.420
-624.434	800.000	0.085	-0.270
-623.419	23.243	-0.353	0.295
-622.405	216.692	-0.096	-0.155
-621.390	-38.602	0.298	0.160
-620.376	29.330	0.447	0.386
-619.361	-148.834	-0.386	0.032
-618.346	671.465	-0.079	0.208
-617.332	0.209	-0.154	-0.112
-616.317	-200.000	-0.002	0.043
-615.303	-89.275	-0.235	-0.070
-614.288	-127.200	-0.207	0.031
-613.273	-157.163	-0.288	-0.018
-612.259	800.000	-0.057	0.250
-611.244	1.980	0.043	-0.031
-610.230	800.000	0.049	-0.145
-609.215	96.037	0.366	0.425
-608.201	-33.829	-0.145	0.081
-607.186	-40.688	-0.112	0.059
-606.171	-75.946	0.135	-0.048
-605.157	-200.000	0.071	-0.348
-604.142	-83.683	0.054	-0.018
-603.128	-50.628	0.282	0.135
-602.113	-55.223	-0.168	-0.077
-601.098	-82.888	-0.150	0.049
-600.084	-23.333	-0.065	-0.040
-599.069	-78.870	-0.130	0.045
-598.055	-71.109	-0.196	0.075
-597.040	-126.600	-0.116	-0.017
-596.025	-103.820	-0.116	0.027
-595.011	-94.420	0.032	-0.009
-593.996	-200.000	-0.004	-0.174
-592.982	-84.449	-0.263	-0.084
-591.967	-143.489	-0.141	0.014
-590.952	109.377	0.343	0.418
-589.938	297.634	-0.189	-0.353
-588.923	-155.235	-0.442	0.029
-587.909	0.122	0.070	-0.050
-586.894	17.313	0.194	0.157
-585.879	28.558	-0.180	-0.154
-584.865	127.225	-0.161	0.207
-583.850	800.000	-0.117	0.413
-582.836	-99.524	-0.257	-0.066
-581.821	-200.000	0.013	0.187
-580.806	-42.647	0.178	-0.092
-579.792	197.000	-0.105	-0.162
-578.777	800.000	0.133	0.377
-577.763	800.000	-0.059	0.173
-576.748	-152.550	-0.490	-0.036
-575.733	-63.890	-0.359	-0.149
-574.719	1.222	0.150	0.109
-573.704	22.481	0.070	-0.058
-572.690	-134.184	-0.153	0.019
-571.675	547.247	-0.012	-0.028
-570.661	67.611	0.156	-0.161
-569.646	-106.882	-0.240	0.054
-568.631	56.295	0.021	-0.021
-567.617	-107.523	-0.242	-0.054
-566.602	121.092	0.090	0.113
-565.588	800.000	0.010	0.030
-564.573	-125.365	0.251	0.039
-563.558	174.177	-0.270	-0.396
-562.544	-46.709	0.335	-0.166
-561.529	-200.000	0.013	-0.304
-560.515	800.000	-0.055	-0.216
-559.500	134.658	-0.182	-0.240
-558.485	-200.000	-0.018	-0.088
-557.471	-34.374	-0.110	0.061
-556.456	-23.042	-0.153	-0.094
-555.442	-29.543	0.259	0.150
-554.427	228.836	0.049	0.081
-553.412	241.871	0.094	0.159
-552.398	-200.000	-0.001	-0.064
-551.383	345.607	0.117	0.234
-550.369	-42.097	-0.261	-0.135
-549.354	-200.000	0.058	0.358
-548.339	54.648	-0.075	-0.073
-547.325	-104.184	-0.198	-0.047
-546.310	-36.987	-0.169	0.092
-545.296	-147.355	-0.171	0.015
-544.281	473.803	-0.082	-0.187
-543.266	-111.658	-0.179	-0.037
-542.252	473.707	-0.072	-0.165
-541.237	353.724	0.195	0.392
-540.223	-56.711	0.311	0.139
-539.208	-22.895	0.237	-0.145
-538.193	-200.000	-0.028	-0.190
-537.179	-127.172	0.210	0.031
-536.164	277.611	-0.083	-0.149
-535.150	-200.000	0.005	0.197
-534.135	-119.683	0.070	0.012
-533.121	-20.236	0.304	0.189
-532.106	39.189	-0.115	0.105
-531.091	260.826	0.105	-0.184
-530.077	-200.000	0.005	0.183
-529.062	800.000	0.040	-0.164
-528.048	444.995	0.020	-0.044
-527.033	800.000	0.050	-0.197
-526.018	244.870	-0.224	0.382
-525.004	411.663	0.093	-0.199
-523.989	-123.261	-0.172	0.028
-522.975	140.905	-0.067	-0.090
-521.960	-97.514	0.083	-0.022
-520.945	800.000	-0.037	0.165
-519.931	-194.237	0.184	0.002
-518.916	-130.044	-0.258	-0.036
-517.902	-96.151	0.134	0.036
-516.887	-78.232	0.302	0.105
-515.872	-122.982	-0.283	-0.046
-514.858	563.971	0.107	0.263
-513.843	97.693	0.264	0.308
-512.829	-113.281	-0.224	-0.045
-511.814	-98.550	0.270	-0.070
-510.799	800.000	-0.090	-0.348
-509.785	800.000	-0.076	0.254
-508.770	-11.501	-0.071	-0.047
-507.756	17.262	-0.277	-0.222
-506.741	52.265	-0.052	-0.050
-505.726	139.468	0.127	0.169
-504.712	40.246	0.194	-0.177
-503.697	47.874	-0.125	-0.118
-502.683	27.950	0.121	0.103
-501.668	672.992	-0.081	-0.212
-500.653	446.397	0.209	0.466
-499.639	186.414	-0.053	-0.080
-498.624	87.337	-0.098	0.110
-497.610	-122.219	0.244	0.040
-496.595	-139.733	0.156	0.017
-495.581	177.613	0.071	-0.105
-494.566	39.816	0.197	0.179
-493.551	800.000	-0.102	0.292
-492.537	800.000	-0.080	-0.354
-491.522	-200.000	0.001	-0.109
-490.508	800.000	0.064	-0.248
-489.493	-80.720	-0.177	-0.059
-488.478	-73.087	-0.182	-0.068
-487.464	753.454	0.136	-0.372
-486.449	-200.000	-0.000	-0.138
-485.435	-147.474	-0.060	-0.005
-484.420	-85.784	0.263	0.082
-483.405	61.059	-0.190	-0.190
-482.391	271.258	0.110	-0.197
-481.376	-80.639	0.184	-0.062
-480.362	-79.133	-0.328	-0.113
-479.347	-112.859	-0.226	0.045
-478.332	-10.392	-0.020	-0.013
-477.318	-107.241	0.199	-0.044
-476.303	-1.725	-0.186	0.133
-475.289	630.777	-0.032	-0.081
-474.274	-200.000	-0.006	-0.110
-473.259	230.221	0.102	-0.169
-472.245	37.165	-0.244	0.219
-471.230	-80.532	-0.160	-0.054
-470.216	-34.044	0.154	0.085
-469.201	238.148	0.235	-0.393
-468.186	5.467	0.138	-0.103
-467.172	245.096	0.023	-0.039
-466.157	-158.924	-0.064	-0.004
-465.143	-200.000	-0.046	0.222
-464.128	-135.437	-0.262	0.032
-463.113	-133.344	-0.221	0.028
-462.099	-64.796	-0.193	-0.079
-461.084	-200.000	-0.031	0.180
-460.070	392.338	-0.127	-0.267
-459.055	-127.930	0.096	0.014
-458.040	529.086	0.084	0.199
-457.026	800.000	0.019	0.057
-456.011	-49.956	-0.302	-0.145
-454.997	176.141	0.110	-0.161
-453.982	122.802	0.052	-0.066
-452.968	-141.217	-0.322	0.033
-451.953	-79.857	0.130	0.044
-450.938	-200.000	0.000	-0.413
-449.924	312.594	0.051	-0.096
-448.909	598.944	-0.078	0.196
-447.895	-114.814	-0.089	0.017
-446.880	-200.000	-0.041	0.202
-445.865	-47.131	0.365	0.180
-444.851	-60.511	0.196	-0.084
-443.836	-78.591	-0.183	0.063
-442.822	-200.000	0.029	-0.376
-441.807	209.736	-0.077	0.121
-440.792	337.879	0.104	-0.205
-439.778	-200.000	0.007	-0.209
-438.763	106.039	0.165	-0.197
-437.749	-200.000	-0.019	-0.212
-436.734	165.583	-0.155	-0.221
-435.719	-43.706	0.237	0.121
-434.705	-49.525	0.090	0.043
-433.690	108.331	-0.114	-0.137
-432.676	-114.839	0.285	-0.055
-431.661	-71.954	-0.299	-0.112
-430.646	648.302	-0.041	-0.105
-429.632	-106.717	0.026	-0.006
-428.617	9.852	-0.162	-0.124
-427.603	-200.000	0.018	-0.476
-426.588	294.753	-0.066	-0.123
-425.573	800.000	-0.055	-0.219
-424.559	107.945	0.122	0.147
-423.544	221.239	0.086	-0.140
-422.530	-30.519	-0.333	-0.190
-421.515	208.367	0.151	-0.239
-420.500	-3.651	-0.275	0.193
-419.486	-88.836	-0.352	-0.105
-418.471	5.216	-0.100	-0.074
-417.457	-95.134	0.320	0.087
-416.442	-48.002	0.229	-0.112
-415.428	-200.000	0.047	0.225
-414.413	-99.349	0.035	0.009
-413.398	-81.974	0.143	-0.047
-412.384	-47.527	0.279	0.137
-411.369	98.500	0.325	0.378
-410.355	319.458	-0.068	0.129
-409.340	-38.031	-0.574	-0.307
-408.325	4.889	0.067	0.050
-407.311	-13.251	0.172	0.113
-406.296	140.753	-0.063	0.084
-405.282	240.540	0.042	-0.071
-404.267	101.316	0.154	0.181
-403.252	163.923	0.064	0.091
-402.238	-180.451	0.058	0.001
-401.223	800.000	-0.061	0.228
-400.209	-33.430	0.080	0.045
-399.194	247.648	0.111	-0.189
-398.179	-159.932	-0.127	0.007
-397.165	359.136	0.141	-0.285
-396.150	285.725	-0.141	-0.255
-395.136	9.084	-0.233	0.178
-394.121	-73.491	0.139	0.051
-393.106	-148.031	0.149	0.012
-392.092	800.000	0.034	0.115
-391.077	-70.568	0.101	0.038
-390.063	-200.000	0.009	-0.185
-389.048	-200.000	-0.002	-0.179
-388.033	-200.000	0.015	0.071
-387.019	21.868	-0.254	-0.209
-386.004	-61.938	-0.074	0.031
-384.990	339.137	0.143	0.281
-383.975	61.158	0.392	0.392
-382.960	-180.660	-0.179	-0.004
-381.946	375.322	-0.080	-0.164
-380.931	-4.384	-0.223	0.155
-379.917	130.543	-0.147	0.190
-378.902	-140.737	-0.208	-0.022
-377.888	-200.000	0.015	0.283
-376.873	800.000	0.020	-0.079
-375.858	800.000	0.069	0.256
-374.844	208.998	0.110	0.173
-373.829	-2.599	-0.111	0.078
-372.815	784.084	-0.007	0.018
-371.800	800.000	-0.085	-0.252
-370.785	-200.000	-0.045	-0.328
-369.771	507.068	-0.118	0.275
-368.756	-200.000	0.008	-0.083
-367.742	401.693	0.044	0.092
-366.727	-192.237	-0.356	-0.003
-365.712	800.000	-0.055	0.176
-364.698	341.651	0.079	0.155
-363.683	-11.227	0.059	-0.039
-362.669	-95.442	0.284	0.077
-361.654	79.169	-0.114	0.123
-360.639	-200.000	-0.018	-0.222
-359.625	6.457	-0.090	-0.067
-358.610	240.601	-0.025	-0.041
-357.596	-12.820	0.192	-0.126
-356.581	-158.045	-0.185	-0.011
-355.566	99.008	-0.276	0.321
-354.552	800.000	-0.071	0.270
-353.537	800.000	-0.050	-0.163
-352.523	-97.660	0.393	0.103
-351.508	580.837	0.115	0.284
-350.493	42.835	0.051	-0.047
-349.479	252.864	0.076	-0.131
-348.464	-200.000	-0.002	0.032
-347.450	12.794	-0.069	0.054
-346.435	-200.000	0.013	0.108
-345.420	-90.450	0.287	0.084
-344.406	-53.330	-0.270	-0.125
-343.391	-200.000	0.074	0.331
-342.377	800.000	-0.075	0.287
-341.362	-180.260	0.210	-0.004
-340.348	-119.924	0.216	0.037
-339.333	-200.000	0.010	-0.355
-338.318	-176.397	-0.193	-0.005
-337.304	224.570	-0.109	0.177
-336.289	309.150	0.076	0.143
-335.275	-184.596	0.099	-0.002
-334.260	270.295	0.091	-0.162
-333.245	470.694	-0.042	0.094
-332.231	-176.038	0.302	0.008
-331.216	-40.744	-0.134	0.070
-330.202	-83.444	-0.210	-0.068
-329.187	-136.991	0.245	0.028
-328.172	-119.947	-0.104	0.018
-327.158	800.000	-0.046	-0.146
-326.143	800.000	0.080	-0.265
-325.129	-43.342	-0.132	-0.067
-324.114	726.058	-0.075	-0.200
-323.099	-64.223	-0.156	-0.064
-322.085	800.000	0.014	0.042
-321.070	-200.000	0.077	0.462
-320.056	-109.989	-0.152	-0.032
-319.041	-122.329	0.328	-0.054
-318.026	-141.324	-0.299	-0.031
-317.012	-200.000	-0.019	0.111
-315.997	-103.516	0.178	0.042
-314.983	18.443	-0.016	0.013
-313.968	19.464	-0.217	0.175
-312.953	-4.017	0.282	-0.197
-311.939	127.223	-0.108	0.137
-310.924	-200.000	0.005	0.130
-309.910	-61.551	0.375	0.158
-308.895	318.273	0.112	-0.214
-307.880	-75.246	0.163	-0.059
-306.866	32.860	-0.034	0.030
-305.851	548.665	-0.005	-0.012
-304.837	-155.354	0.381	0.025
-303.822	2.683	0.127	0.093
-302.807	110.732	-0.245	-0.296
-301.793	184.201	0.314	0.467
-300.778	152.185	0.119	0.163
-299.764	138.769	0.258	-0.340
-298.749	-5.076	0.083	-0.058
-297.735	12.551	-0.063	-0.049
-296.720	-200.000	0.029	0.309
-295.705	26.282	0.058	-0.048
-294.691	-28.958	-0.177	-0.102
-293.676	-200.000	-0.004	-0.411
-292.662	181.629	-0.111	-0.164
-291.647	-55.330	0.150	-0.067
-290.632	-106.667	0.112	-0.025
-289.618	-13.771	0.108	-0.070
-288.603	177.152	0.148	0.217
-287.589	273.293	0.070	0.123
-286.574	-39.854	-0.172	-0.090
-285.559	-200.000	0.002	0.023
-284.545	-92.163	-0.291	0.083
-283.530	-169.784	0.353	-0.013
-282.516	-147.581	0.278	0.023
-281.501	80.459	-0.129	0.139
-280.486	510.829	-0.049	0.115
-279.472	-25.059	-0.086	0.051
-278.457	114.629	-0.104	-0.127
-277.443	-160.688	0.120	0.006
-276.428	-151.509	0.208	0.015
-275.413	568.996	0.096	0.234
-274.399	83.840	-0.149	0.164
-273.384	-59.304	-0.357	0.154
-272.370	90.406	0.147	-0.165
-271.355	302.905	0.073	0.135
-270.340	-200.000	-0.123	-0.586
-269.326	47.509	0.193	-0.180
-268.311	-56.871	0.217	0.096
-267.297	0.160	0.135	0.097
-266.282	-200.000	0.011	-0.130
-265.267	84.983	-0.141	-0.155
-264.253	-56.394	-0.063	-0.028
-263.238	-130.212	-0.353	0.048
-262.224	800.000	0.024	0.081
-261.209	-200.000	-0.007	-0.133
-260.195	-49.309	0.290	-0.139
-259.180	800.000	-0.055	0.196
-258.165	-48.723	0.080	-0.038
-257.151	241.213	0.188	-0.315
-256.136	-28.636	0.230	-0.133
-255.122	-200.000	-0.096	-0.504
-254.107	-200.000	-0.001	0.112
-253.092	-200.000	-0.020	0.112
-252.078	141.335	-0.089	-0.118
-251.063	-200.000	0.001	-0.116
-250.049	-45.332	-0.303	0.151
-249.034	204.827	-0.075	-0.117
-248.019	390.879	-0.048	-0.099
-247.005	-200.000	-0.079	0.503
-245.990	-31.759	0.063	-0.036
-244.976	5.676	0.247	-0.183
-243.961	-55.502	-0.152	0.068
-242.946	109.405	-0.062	0.074
-241.932	-200.000	0.021	-0.109
-240.917	-65.438	-0.111	-0.045
-239.903	28.444	-0.068	0.057
-238.888	-200.000	0.004	0.063
-237.873	800.000	0.045	0.173
-236.859	-123.153	0.333	-0.053
-235.844	24.529	-0.095	-0.079
-234.830	800.000	0.008	-0.033
-233.815	-119.890	-0.137	-0.024
-232.800	-154.252	0.108	-0.007
-231.786	-53.450	0.296	-0.136
-230.771	63.436	-0.240	0.241
-229.757	-82.144	0.154	-0.050
-228.742	412.062	-0.131	-0.279
-227.727	-42.743	0.120	0.061
-226.713	-200.000	0.000	0.272
-225.698	800.000	0.051	0.185
-224.684	51.866	0.162	0.154
-223.669	213.825	0.051	-0.081
-222.655	-28.088	0.112	0.065
-221.640	159.400	0.068	-0.095
-220.625	192.436	0.200	-0.302
-219.611	-93.972	-0.145	-0.040
-218.596	95.361	0.122	0.139
-217.582	-200.000	0.047	-0.254
-216.567	800.000	-0.085	0.323
-215.552	-108.710	0.035	0.008
-214.538	-44.188	0.372	0.186
-213.523	-200.000	-0.037	0.332
-212.509	-143.719	-0.244	0.023
-211.494	-200.000	0.011	-0.142
-210.479	329.183	0.105	-0.202
-209.465	83.494	-0.075	-0.082
-208.450	800.000	-0.087	-0.285
-207.436	800.000	-0.011	-0.047
-206.421	-123.193	-0.359	-0.058
-205.406	5.149	0.029	-0.021
-204.392	65.156	-0.163	0.165
-203.377	-148.069	0.222	0.018
-202.363	336.279	0.081	0.158
-201.348	-32.861	-0.039	0.022
-200.333	-89.332	-0.146	0.043
-199.319	800.000	-0.084	-0.322
-198.304	381.308	0.044	0.090
-197.290	531.650	-0.040	0.095
-196.275	-39.312	-0.059	-0.031
-195.260	410.198	-0.035	0.074
-194.246	-19.355	0.300	-0.186
-193.231	166.584	0.129	-0.183
-192.217	-156.074	0.047	-0.003
-191.202	-200.000	-0.006	0.085
-190.187	-65.891	-0.091	0.036
-189.173	522.475	0.132	-0.310
-188.158	282.313	-0.141	0.253
-187.144	-200.000	0.007	-0.304
-186.129	-38.405	-0.291	0.154
-185.114	231.436	0.258	0.423
-184.100	-200.000	-0.042	0.208
-183.085	-108.832	-0.359	-0.077
-182.071	-200.000	0.020	0.129
-181.056	-29.299	0.190	0.109
-180.042	-152.553	0.280	-0.020
-179.027	-24.367	0.153	-0.091
-178.012	800.000	0.028	0.113
-176.998	490.513	-0.122	0.278
-175.983	800.000	0.094	0.352
-174.969	113.179	0.200	0.242
-173.954	-7.898	0.213	0.143
-172.939	36.285	-0.211	-0.186
-171.925	800.000	0.108	-0.432
-170.910	-200.000	-0.006	0.175
-169.896	19.860	0.200	-0.161
-168.881	-15.120	-0.211	0.135
-167.866	800.000	0.007	0.027
-166.852	11.898	0.214	-0.164
-165.837	-200.000	0.045	0.205
-164.823	800.000	0.077	0.272
-163.808	26.102	0.043	-0.036
-162.793	27.544	-0.168	-0.141
-161.779	436.215	-0.176	0.382
-160.764	800.000	0.089	0.310
-159.750	-29.740	0.273	-0.156
-158.735	-0.079	-0.055	-0.039
-157.720	-106.004	0.175	0.039
-156.706	-83.826	-0.388	0.123
-155.691	-200.000	0.016	0.194
-154.677	-200.000	0.004	-0.092
-153.662	-62.218	0.342	-0.142
-152.647	-39.965	0.074	0.038
-151.633	552.865	-0.114	0.272
-150.618	-8.031	-0.286	0.192
-149.604	86.367	-0.162	-0.178
-148.589	5.061	-0.209	-0.153
-147.574	-179.464	0.311	-0.007
-146.560	0.119	0.166	0.118
-145.545	84.453	-0.165	0.180
-144.531	-161.425	0.129	-0.007
-143.516	247.228	-0.105	0.177
-142.502	-13.015	-0.085	0.055
-141.487	-65.930	-0.269	0.107
-140.472	96.605	-0.266	-0.304
-139.458	800.000	0.087	-0.277
-138.443	274.252	0.185	-0.326
-137.429	-200.000	0.045	0.317
-136.414	151.260	-0.026	-0.035
-135.399	519.912	-0.051	-0.119
-134.385	73.474	0.172	-0.179
-133.370	-200.000	-0.048	-0.328
-132.356	-3.526	-0.083	-0.057
-131.341	117.929	0.280	-0.344
-130.326	-81.785	-0.072	0.023
-129.312	264.802	-0.191	-0.332
-128.297	-200.000	0.150	-0.001
-127.283	29.406	-0.202	-0.171
-126.268	279.165	-0.100	-0.178
-125.253	800.000	-0.042	-0.139
-124.239	-200.000	-0.027	-0.136
-123.224	-115.661	0.241	0.045
-122.210	-64.672	-0.041	0.016
-121.195	-154.096	0.579	0.039
