DTS Sentinel unit serial number:	SN413079Multiplexer serial number:	ORYXHardware model number:	OX4-SRSoftware version number:	ORYX F/W v4.00 Oryx Data Collector v3.7.2.0data status	okinstallation	princeton_trtdifferential loss correction	single-endedforward channel	channel 4reverse channel	N/Adate	2019/09/19time	00:21:34forward acquisition time	60.00reverse acquisition time	0.00gamma	496.2192k internal	0.2337k external	0.2337temperature offset calibration	1.0031default loss term (dB/km)	0.3790temperature slope calibration	1.0000multiplexer offset coefficient	1.0000multiplexer slope coefficient	1.0000fibre end	0.00T internal ref (°C)	22.62T ext. ref 1 (°C)	0.74T ext. ref 2 (°C)	15.64length (m)	temperature (°C)	Stokes	anti-Stokes-747.200	218.106	0.213	-0.341
-746.185	-200.000	-0.012	0.063
-745.171	108.628	0.079	-0.095
-744.156	23.613	-0.185	-0.153
-743.142	-101.325	0.182	-0.045
-742.127	-200.000	0.001	0.013
-741.112	-140.459	0.226	-0.024
-740.098	-92.211	-0.585	-0.166
-739.083	-32.966	-0.148	-0.082
-738.069	800.000	0.042	0.164
-737.054	379.930	-0.037	0.076
-736.039	-7.844	-0.271	-0.183
-735.025	15.472	0.114	0.090
-734.010	800.000	0.058	-0.234
-732.996	-200.000	0.026	0.314
-731.981	452.303	-0.075	0.166
-730.966	27.042	0.149	-0.125
-729.952	-200.000	-0.050	-0.478
-728.937	104.731	-0.292	-0.345
-727.923	-200.000	-0.004	0.176
-726.908	-117.361	0.163	-0.030
-725.894	363.411	0.034	0.069
-724.879	150.140	-0.157	0.214
-723.864	-18.001	-0.357	0.224
-722.850	98.790	0.215	-0.249
-721.835	-30.831	-0.095	-0.054
-720.821	19.998	-0.244	0.197
-719.806	-200.000	-0.190	-0.000
-718.791	-200.000	-0.015	-0.296
-717.777	212.020	0.210	-0.331
-716.762	-200.000	0.007	0.111
-715.748	248.452	-0.081	-0.137
-714.733	-200.000	-0.026	-0.273
-713.718	-107.417	-0.307	0.067
-712.704	-142.251	0.239	-0.024
-711.689	-79.181	0.134	-0.045
-710.675	-60.291	-0.058	0.025
-709.660	-174.424	0.340	0.010
-708.645	47.029	0.254	-0.237
-707.631	9.714	-0.107	-0.082
-706.616	136.692	-0.039	-0.051
-705.602	272.034	-0.085	-0.151
-704.587	-177.631	-0.089	-0.002
-703.572	-200.000	0.008	-0.134
-702.558	-95.812	0.292	-0.078
-701.543	-200.000	-0.018	0.114
-700.529	59.639	-0.022	0.021
-699.514	-31.280	0.072	0.041
-698.499	173.763	-0.353	-0.510
-697.485	-92.156	0.244	0.069
-696.470	-46.417	0.149	-0.073
-695.456	49.783	-0.075	0.071
-694.441	51.773	0.345	-0.329
-693.426	15.228	-0.166	0.130
-692.412	800.000	-0.062	0.176
-691.397	196.646	-0.146	-0.223
-690.383	190.376	0.208	-0.313
-689.368	-70.550	-0.083	0.032
-688.354	-40.301	-0.390	-0.203
-687.339	-59.212	0.229	0.099
-686.324	800.000	0.084	-0.343
-685.310	-2.036	-0.249	0.176
-684.295	461.750	-0.136	0.304
-683.281	-69.033	0.043	-0.017
-682.266	800.000	-0.024	0.082
-681.251	263.145	0.115	-0.200
-680.237	736.985	0.078	0.211
-679.222	-152.816	-0.205	0.015
-678.208	-200.000	-0.028	0.148
-677.193	125.398	0.218	-0.275
-676.178	-200.000	-0.003	-0.388
-675.164	-19.525	-0.231	-0.143
-674.149	137.564	-0.236	-0.310
-673.135	800.000	-0.085	-0.319
-672.120	369.586	-0.150	-0.305
-671.105	-91.336	0.411	0.118
-670.091	-114.603	-0.316	0.061
-669.076	-98.742	0.201	0.051
-668.062	-132.398	0.260	-0.034
-667.047	-103.247	0.109	0.026
-666.032	4.444	0.285	-0.209
-665.018	-14.782	-0.189	0.122
-664.003	788.909	0.033	0.090
-662.989	310.623	-0.061	0.114
-661.974	-15.529	0.216	-0.138
-660.959	171.800	-0.095	-0.137
-659.945	33.797	-0.035	0.031
-658.930	50.576	-0.092	0.087
-657.916	159.369	0.162	0.225
-656.901	-42.524	-0.135	0.069
-655.886	-113.990	-0.204	-0.040
-654.872	-200.000	0.013	-0.185
-653.857	-44.743	0.078	-0.039
-652.843	-200.000	0.052	-0.237
-651.828	117.456	-0.158	0.194
-650.814	143.192	0.183	-0.243
-649.799	-200.000	-0.010	0.269
-648.784	-56.724	0.158	-0.070
-647.770	-54.775	0.339	-0.153
-646.755	-89.317	-0.433	0.128
-645.741	-75.857	-0.233	0.083
-644.726	-200.000	0.025	-0.248
-643.711	-8.308	-0.252	0.170
-642.697	800.000	0.071	-0.240
-641.682	-24.795	-0.338	0.201
-640.668	200.950	0.160	0.247
-639.653	-103.501	-0.381	-0.089
-638.638	-40.367	0.201	0.104
-637.624	-119.079	-0.280	-0.049
-636.609	66.256	0.139	0.142
-635.595	800.000	0.013	-0.048
-634.580	234.633	-0.118	-0.195
-633.565	800.000	-0.078	-0.237
-632.551	145.394	-0.157	-0.210
-631.536	-84.919	-0.479	0.150
-630.522	413.195	-0.114	-0.241
-629.507	17.166	-0.111	0.088
-628.492	29.238	0.234	0.198
-627.478	73.235	0.201	-0.211
-626.463	-190.587	0.205	-0.002
-625.449	206.014	-0.071	0.111
-624.434	306.961	0.117	-0.218
-623.419	800.000	-0.044	-0.138
-622.405	-115.292	0.191	-0.036
-621.390	269.017	-0.190	0.333
-620.376	-12.376	0.245	-0.160
-619.361	-23.185	0.152	0.091
-618.346	38.808	0.324	-0.289
-617.332	-200.000	0.013	-0.114
-616.317	-114.149	-0.394	-0.076
-615.303	-200.000	-0.000	0.107
-614.288	-39.501	0.190	-0.099
-613.273	-184.746	0.154	-0.002
-612.259	-26.936	0.023	-0.013
-611.244	800.000	0.058	-0.166
-610.230	-80.522	-0.221	0.074
-609.215	-132.070	0.375	-0.049
-608.201	-101.733	0.116	0.028
-607.186	-200.000	0.027	0.122
-606.171	-200.000	-0.036	0.269
-605.157	783.131	0.074	-0.203
-604.142	73.116	-0.032	-0.034
-603.128	-200.000	-0.040	0.183
-602.113	244.308	0.096	-0.161
-601.098	-200.000	-0.010	0.246
-600.084	-200.000	0.048	0.288
-599.069	-4.648	0.339	0.234
-598.055	800.000	-0.051	0.225
-597.040	-40.214	0.355	-0.184
-596.025	30.308	-0.228	0.195
-595.011	222.793	0.059	-0.095
-593.996	332.577	0.213	-0.410
-592.982	625.908	0.048	0.121
-591.967	56.596	0.189	-0.184
-590.952	-44.858	-0.084	-0.042
-589.938	105.129	-0.117	-0.138
-588.923	278.490	-0.126	0.224
-587.909	-89.946	0.299	0.087
-586.894	329.904	-0.148	-0.284
-585.879	-141.479	-0.223	-0.023
-584.865	-99.509	0.251	-0.063
-583.850	-31.485	-0.226	0.127
-582.836	169.693	-0.136	0.194
-581.821	-200.000	0.021	-0.155
-580.806	-78.805	0.152	0.052
-579.792	-95.603	-0.345	-0.092
-578.777	-120.365	0.173	0.029
-577.763	21.571	-0.112	-0.091
-576.748	-155.564	0.086	0.006
-575.733	125.790	0.168	0.212
-574.719	118.970	-0.231	-0.285
-573.704	-96.589	-0.080	-0.021
-572.690	-57.324	-0.079	-0.035
-571.675	800.000	0.070	0.290
-570.661	-12.893	-0.264	-0.172
-569.646	28.327	-0.288	-0.242
-568.631	-1.112	-0.117	-0.082
-567.617	-200.000	-0.047	0.324
-566.602	-200.000	-0.085	0.386
-565.588	291.758	-0.195	-0.353
-564.573	-97.875	0.096	-0.025
-563.558	5.162	-0.193	-0.142
-562.544	800.000	0.028	0.121
-561.529	800.000	-0.090	-0.317
-560.515	133.480	0.191	0.246
-559.500	-47.340	0.175	-0.085
-558.485	-148.203	0.271	0.022
-557.471	-86.841	-0.241	-0.073
-556.456	149.121	0.117	-0.158
-555.442	-75.378	-0.251	-0.089
-554.427	5.510	0.035	0.026
-553.412	-200.000	-0.010	0.279
-552.398	40.415	0.097	-0.087
-551.383	-165.112	0.370	0.016
-550.369	-81.683	-0.111	-0.036
-549.354	-24.617	0.235	0.139
-548.339	-200.000	-0.013	0.297
-547.325	-200.000	0.041	-0.269
-546.310	-50.223	-0.165	-0.078
-545.296	-200.000	-0.069	-0.393
-544.281	-119.465	-0.252	0.043
-543.266	-59.179	0.206	-0.088
-542.252	-119.288	0.290	0.050
-541.237	-26.850	0.149	-0.087
-540.223	458.229	0.013	0.028
-539.208	13.507	0.062	0.048
-538.193	-84.206	-0.421	0.133
-537.179	297.946	0.155	0.283
-536.164	-74.551	-0.078	-0.028
-535.150	-2.922	-0.188	-0.131
-534.135	222.772	0.050	0.080
-533.121	22.073	0.270	-0.220
-532.106	-158.496	0.343	0.020
-531.091	333.882	-0.221	0.425
-530.077	71.290	0.065	0.067
-529.062	-180.819	-0.280	0.006
-528.048	281.021	0.161	0.286
-527.033	32.730	-0.321	0.276
-526.018	-108.573	0.130	0.028
-525.004	97.819	-0.253	0.289
-523.989	227.087	0.104	-0.168
-522.975	29.268	0.044	-0.037
-521.960	800.000	0.080	-0.290
-520.945	373.898	0.130	-0.263
-519.931	-49.265	0.083	-0.040
-518.916	-200.000	0.072	0.318
-517.902	-200.000	-0.011	-0.077
-516.887	-70.706	-0.185	0.070
-515.872	256.829	-0.027	-0.047
-514.858	488.262	-0.107	-0.244
-513.843	137.173	0.316	-0.412
-512.829	-48.200	-0.179	-0.086
-511.814	-118.311	-0.314	-0.056
-510.799	0.166	0.360	0.255
-509.785	-77.412	-0.097	-0.033
-508.770	-172.619	-0.009	-0.000
-507.756	40.883	0.250	-0.224
-506.741	-99.276	0.180	-0.045
-505.726	75.649	-0.080	0.084
-504.712	-26.652	-0.075	0.044
-503.697	85.765	-0.066	-0.072
-502.683	-27.900	-0.102	0.059
-501.668	800.000	-0.052	-0.187
-500.653	151.165	-0.098	0.132
-499.639	14.330	-0.205	-0.159
-498.624	25.489	0.284	-0.235
-497.610	-200.000	0.023	0.235
-496.595	-88.585	-0.282	-0.083
-495.581	-126.280	0.161	-0.024
-494.566	-200.000	0.046	0.268
-493.551	120.515	-0.059	-0.073
-492.537	532.737	-0.134	0.314
-491.522	-200.000	-0.050	0.311
-490.508	-200.000	-0.069	-0.527
-489.493	-15.516	0.249	-0.158
-488.478	-62.963	0.267	0.110
-487.464	28.533	-0.199	0.167
-486.449	-22.705	-0.183	-0.110
-485.435	-117.548	-0.276	0.050
-484.420	800.000	-0.050	0.152
-483.405	439.906	0.135	-0.294
-482.391	800.000	-0.111	-0.392
-481.376	-200.000	0.033	-0.188
-480.362	-200.000	0.020	0.099
-479.347	-200.000	-0.000	0.234
-478.332	6.033	0.213	0.157
-477.318	-32.220	0.245	-0.136
-476.303	116.019	-0.062	-0.075
-475.289	20.892	0.255	0.205
-474.274	1.936	-0.154	-0.110
-473.259	36.764	-0.076	-0.066
-472.245	-91.976	0.223	-0.063
-471.230	-123.866	-0.173	0.027
-470.216	800.000	-0.040	0.159
-469.201	-19.612	0.074	0.046
-468.186	-18.989	0.053	-0.033
-467.172	-200.000	-0.000	-0.059
-466.157	13.296	-0.296	-0.228
-465.143	612.456	0.067	-0.167
-464.128	-110.945	0.227	0.046
-463.113	-153.978	0.063	-0.004
-462.099	105.535	-0.139	0.163
-461.084	-68.086	-0.378	0.146
-460.070	-177.872	0.123	-0.003
-459.055	130.035	-0.088	0.112
-458.040	800.000	0.103	0.314
-457.026	-104.262	0.251	-0.058
-456.011	37.174	-0.163	0.144
-454.997	7.785	0.078	0.058
-453.982	-66.362	0.488	0.193
-452.968	-200.000	-0.003	-0.061
-451.953	-32.916	-0.054	-0.030
-450.938	-47.077	-0.321	-0.156
-449.924	207.689	-0.062	0.096
-448.909	-15.317	0.088	-0.056
-447.895	-33.062	-0.228	-0.126
-446.880	-101.845	0.162	0.039
-445.865	-200.000	-0.025	0.127
-444.851	-187.945	-0.272	-0.004
-443.836	800.000	0.064	-0.229
-442.822	-200.000	0.034	0.377
-441.807	-54.978	-0.248	-0.111
-440.792	642.802	-0.107	-0.271
-439.778	175.045	0.129	0.185
-438.763	0.345	0.364	0.258
-437.749	-200.000	0.006	0.047
-436.734	-0.657	-0.048	0.034
-435.719	312.949	0.060	-0.111
-434.705	419.421	0.174	-0.370
-433.690	-113.613	0.193	-0.037
-432.676	123.808	0.200	0.250
-431.661	-200.000	-0.014	-0.159
-430.646	-141.110	-0.216	-0.022
-429.632	-13.462	0.183	0.118
-428.617	-125.014	-0.170	-0.026
-427.603	-200.000	-0.004	0.087
-426.588	-23.767	-0.231	0.137
-425.573	-200.000	-0.030	-0.190
-424.559	-77.664	0.236	0.081
-423.544	-176.237	0.222	-0.006
-422.530	-122.651	0.415	-0.067
-421.515	25.996	0.072	0.060
-420.500	349.570	0.133	0.260
-419.486	-73.796	-0.124	0.045
-418.471	394.865	0.079	0.163
-417.457	-47.554	-0.076	0.036
-416.442	194.744	-0.050	0.075
-415.428	-114.118	0.221	-0.042
-414.413	-175.734	-0.091	0.002
-413.398	97.383	-0.118	-0.134
-412.384	-14.920	0.207	-0.132
-411.369	-200.000	0.055	0.317
-410.355	106.607	0.039	-0.045
-409.340	800.000	-0.062	0.209
-408.325	-200.000	-0.065	0.480
-407.311	-200.000	0.026	-0.116
-406.296	12.834	0.194	-0.148
-405.282	18.599	0.161	0.128
-404.267	-7.131	-0.034	-0.023
-403.252	21.031	-0.162	0.130
-402.238	-157.699	-0.248	-0.015
-401.223	-129.074	0.182	0.025
-400.209	-200.000	0.019	-0.164
-399.194	538.193	-0.177	-0.418
-398.179	254.413	-0.151	-0.255
-397.165	199.760	0.116	0.177
-396.150	-200.000	0.016	0.118
-395.136	-156.852	-0.280	-0.017
-394.121	-42.975	-0.079	0.040
-393.106	-103.803	-0.239	-0.055
-392.092	-200.000	0.006	0.066
-391.077	-116.644	0.061	0.011
-390.063	-200.000	0.012	0.167
-389.048	-106.372	0.163	-0.036
-388.033	-112.407	-0.340	-0.067
-387.019	77.139	-0.021	-0.023
-386.004	800.000	-0.063	-0.188
-384.990	-157.082	0.111	0.007
-383.975	99.130	-0.088	0.101
-382.960	482.044	0.078	-0.176
-381.946	-6.371	0.057	-0.039
-380.931	-51.530	0.218	-0.101
-379.917	189.484	0.143	0.212
-378.902	29.702	-0.028	0.024
-377.888	-63.251	-0.459	-0.187
-376.873	76.059	0.140	0.146
-375.858	800.000	-0.029	0.089
-374.844	82.898	0.045	-0.048
-373.829	800.000	0.066	0.216
-372.815	36.964	0.266	-0.233
-371.800	425.386	0.158	-0.337
-370.785	-200.000	0.005	0.223
-369.771	316.385	0.385	0.719
-368.756	186.672	-0.119	0.175
-367.742	293.523	0.156	-0.282
-366.727	800.000	-0.039	0.166
-365.712	800.000	-0.027	0.113
-364.698	800.000	-0.085	-0.247
-363.683	89.470	0.067	0.074
-362.669	-127.467	-0.175	-0.025
-361.654	-76.425	0.349	-0.121
-360.639	-45.146	-0.142	0.070
-359.625	735.970	0.073	-0.192
-358.610	427.515	-0.232	-0.495
-357.596	532.752	0.095	-0.223
-356.581	-96.658	0.561	-0.146
-355.566	-74.875	0.115	-0.041
-354.552	252.748	0.278	-0.469
-353.537	-3.921	0.052	0.035
-352.523	-4.207	0.342	-0.234
-351.508	-200.000	-0.047	0.231
-350.493	380.274	0.084	-0.170
-349.479	293.991	0.151	-0.272
-348.464	800.000	0.070	0.218
-347.450	-26.894	0.212	-0.122
-346.435	256.717	-0.103	0.174
-345.420	-9.849	-0.170	-0.112
-344.406	121.424	0.138	0.170
-343.391	-200.000	0.055	0.322
-342.377	-100.349	-0.410	0.101
-341.362	-200.000	-0.031	-0.326
-340.348	-47.210	-0.347	0.167
-339.333	65.758	0.064	-0.065
-338.318	-172.511	0.195	0.006
-337.304	-87.227	0.186	-0.056
-336.289	167.124	-0.118	-0.166
-335.275	-20.114	0.151	0.092
-334.260	-85.945	0.199	-0.061
-333.245	411.396	-0.098	0.206
-332.231	266.160	0.156	-0.268
-331.216	-55.130	-0.216	0.096
-330.202	24.063	-0.190	0.155
-329.187	694.759	0.119	0.310
-328.172	620.927	0.099	0.245
-327.158	525.334	-0.055	-0.129
-326.143	66.201	0.264	-0.264
-325.129	800.000	0.058	-0.182
-324.114	424.412	-0.053	0.113
-323.099	49.929	-0.157	-0.146
-322.085	-92.273	-0.242	-0.067
-321.070	202.808	-0.077	0.118
-320.056	-1.763	-0.459	-0.319
-319.041	137.758	0.089	0.115
-318.026	-3.032	0.235	0.162
-317.012	-73.722	-0.322	-0.116
-315.997	-155.625	-0.229	0.015
-314.983	-200.000	0.015	-0.431
-313.968	88.323	0.087	0.095
-312.953	-70.412	0.180	0.068
-311.939	800.000	0.120	0.365
-310.924	471.766	0.191	0.424
-309.910	-42.479	-0.100	-0.050
-308.895	-200.000	0.013	-0.224
-307.880	-41.453	-0.325	0.165
-306.866	6.913	-0.191	0.140
-305.851	-69.462	0.209	0.079
-304.837	171.482	0.038	-0.054
-303.822	107.746	-0.150	0.176
-302.807	-41.162	0.378	-0.192
-301.793	66.836	0.110	0.111
-300.778	162.022	0.197	-0.273
-299.764	4.042	0.073	0.053
-298.749	390.798	0.164	-0.336
-297.735	-200.000	0.005	-0.175
-296.720	-200.000	0.027	-0.230
-295.705	371.024	0.118	0.236
-294.691	-200.000	-0.019	-0.385
-293.676	105.084	-0.076	0.088
-292.662	32.544	-0.133	0.114
-291.647	-20.384	0.159	-0.096
-290.632	-38.908	-0.275	0.143
-289.618	-200.000	-0.022	-0.327
-288.603	-200.000	-0.034	0.222
-287.589	-33.453	-0.216	0.118
-286.574	54.964	0.098	-0.093
-285.559	-200.000	0.034	-0.273
-284.545	-90.828	-0.239	0.068
-283.530	-182.280	0.219	0.004
-282.516	21.070	0.210	0.168
-281.501	-187.187	0.197	-0.003
-280.486	76.327	0.192	-0.201
-279.472	117.266	0.088	0.106
-278.457	-200.000	-0.059	0.467
-277.443	444.947	-0.182	0.393
-276.428	345.689	0.131	0.255
-275.413	-199.298	0.166	-0.001
-274.399	230.698	0.162	-0.261
-273.384	-200.000	-0.002	-0.123
-272.370	-42.656	-0.122	0.061
-271.355	800.000	-0.091	-0.280
-270.340	-162.436	-0.362	0.018
-269.326	284.664	-0.042	-0.074
-268.311	144.757	-0.101	0.133
-267.297	-128.481	-0.064	0.009
-266.282	800.000	-0.068	-0.209
-265.267	-125.737	-0.379	0.057
-264.253	-93.677	-0.212	-0.058
-263.238	800.000	-0.074	-0.205
-262.224	7.029	-0.114	0.084
-261.209	31.931	0.363	0.308
-260.195	-95.782	-0.177	0.046
-259.180	-69.208	0.194	0.074
-258.165	286.831	-0.106	-0.188
-257.151	-26.378	-0.050	0.029
-256.136	-200.000	-0.077	-0.357
-255.122	4.685	0.212	-0.154
-254.107	-127.522	-0.128	0.018
-253.092	-24.115	-0.184	0.109
-252.078	-179.072	-0.272	-0.006
-251.063	320.799	-0.089	0.167
-250.049	-68.628	0.118	0.045
-249.034	-157.166	0.314	-0.019
-248.019	-25.697	-0.119	-0.069
-247.005	0.535	0.306	-0.216
-245.990	187.810	-0.195	-0.286
-244.976	-30.682	-0.092	-0.051
-243.961	515.172	-0.105	-0.242
-242.946	312.416	-0.072	-0.134
-241.932	61.710	0.130	-0.127
-240.917	76.537	-0.129	0.134
-239.903	-63.832	-0.368	0.148
-238.888	711.752	0.038	-0.098
-237.873	-122.712	-0.358	-0.057
-236.859	128.548	0.196	0.246
-235.844	800.000	0.088	0.325
-234.830	-21.304	-0.144	0.087
-233.815	800.000	-0.062	-0.178
-232.800	-88.114	-0.182	-0.054
-231.786	-57.931	0.045	0.019
-230.771	-66.849	0.322	0.125
-229.757	-2.731	0.091	-0.063
-228.742	-62.729	-0.137	0.056
-227.727	137.189	-0.256	0.329
-226.713	66.983	-0.056	0.056
-225.698	-200.000	0.043	-0.412
-224.684	-83.262	-0.145	0.046
-223.669	-108.364	0.150	0.032
-222.655	800.000	-0.076	-0.213
-221.640	-8.289	-0.105	0.070
-220.625	240.465	0.073	-0.120
-219.611	800.000	-0.195	-0.631
-218.596	268.356	0.092	0.159
-217.582	-200.000	0.041	0.423
-216.567	20.062	0.266	0.211
-215.552	28.145	0.218	-0.181
-214.538	-94.617	-0.110	-0.029
-213.523	220.661	-0.068	0.107
-212.509	370.205	-0.113	-0.226
-211.494	103.240	0.055	0.063
-210.479	-200.000	0.040	-0.715
-209.465	-150.938	0.264	0.020
-208.450	-75.984	-0.240	-0.084
-207.436	800.000	0.099	0.336
-206.421	506.293	0.101	0.230
-205.406	273.156	-0.109	0.189
-204.392	690.089	-0.067	0.171
-203.377	80.860	-0.164	-0.173
-202.363	-35.075	-0.392	0.210
-201.348	-200.000	0.013	-0.446
-200.333	800.000	-0.094	0.278
-199.319	800.000	0.072	-0.300
-198.304	538.495	0.124	0.291
-197.290	-200.000	-0.029	-0.134
-196.275	-200.000	0.097	-0.487
-195.260	10.014	0.340	-0.254
-194.246	92.092	-0.354	0.392
-193.231	450.946	-0.126	0.273
-192.217	-146.157	-0.136	0.012
-191.202	-42.753	-0.245	0.123
-190.187	187.882	-0.041	-0.061
-189.173	-68.924	-0.081	-0.031
-188.158	57.837	0.053	-0.051
-187.144	11.040	0.139	0.104
-186.129	-59.825	-0.189	0.079
-185.114	-200.000	0.001	-0.154
-184.100	18.309	-0.274	-0.215
-183.085	77.733	-0.116	0.122
-182.071	-150.649	0.263	-0.020
-181.056	-40.828	0.183	0.093
-180.042	1.993	-0.206	-0.146
-179.027	752.062	-0.059	-0.156
-178.012	68.896	0.071	-0.071
-176.998	-63.675	0.275	0.111
-175.983	-117.575	-0.428	0.076
-174.969	-99.852	0.096	-0.024
-173.954	800.000	0.076	-0.231
-172.939	-1.059	-0.261	0.181
-171.925	-177.314	0.170	-0.004
-170.910	-200.000	0.007	0.109
-169.896	-114.411	0.188	0.035
-168.881	45.577	-0.177	0.161
-167.866	-80.470	0.388	-0.127
-166.852	290.069	-0.097	-0.173
-165.837	-54.526	0.534	0.237
-164.823	-1.309	-0.314	0.218
-163.808	800.000	0.044	0.146
-162.793	-110.546	0.420	-0.085
-161.779	155.844	-0.261	0.353
-160.764	508.639	0.168	0.384
-159.750	-200.000	0.004	0.057
-158.735	462.978	-0.113	0.248
-157.720	800.000	-0.159	0.463
-156.706	0.540	0.184	-0.129
-155.691	800.000	-0.063	0.205
-154.677	91.692	-0.190	0.210
-153.662	-200.000	-0.043	0.225
-152.647	-85.807	0.203	-0.062
-151.633	-10.788	-0.403	-0.262
-150.618	-84.361	0.083	0.026
-149.604	81.995	-0.126	-0.134
-148.589	-49.892	-0.165	-0.077
-147.574	-200.000	-0.009	-0.162
-146.560	800.000	0.054	0.161
-145.545	-178.391	-0.265	-0.006
-144.531	41.928	0.139	0.124
-143.516	-200.000	-0.032	-0.233
-142.502	-17.471	-0.124	-0.076
-141.487	-200.000	-0.073	-0.446
-140.472	-97.884	-0.256	-0.065
-139.458	136.591	-0.228	-0.292
-138.443	800.000	-0.035	0.097
-137.429	90.449	-0.277	0.304
-136.414	-70.737	0.134	-0.050
-135.399	213.290	-0.237	0.367
-134.385	-200.000	-0.005	-0.165
-133.370	693.275	-0.048	0.124
-132.356	-196.340	-0.058	-0.000
-131.341	10.974	-0.044	0.033
-130.326	-105.629	0.177	-0.039
-129.312	-200.000	-0.244	0.000
-128.297	800.000	0.071	-0.254
-127.283	800.000	0.084	-0.252
-126.268	57.977	0.270	0.259
-125.253	-200.000	0.030	-0.270
-124.239	381.592	0.089	0.179
-123.224	-119.294	0.236	-0.040
-122.210	-72.473	0.253	-0.092
-121.195	-170.682	-0.183	-0.006
