DTS Sentinel unit serial number:	SN413079Multiplexer serial number:	ORYXHardware model number:	OX4-SRSoftware version number:	ORYX F/W v4.00 Oryx Data Collector v3.7.2.0data status	okinstallation	princeton_trtdifferential loss correction	single-endedforward channel	channel 4reverse channel	N/Adate	2019/09/13time	10:09:34forward acquisition time	60.00reverse acquisition time	0.00gamma	496.2192k internal	0.2309k external	0.2309temperature offset calibration	1.0191default loss term (dB/km)	0.3790temperature slope calibration	1.0000multiplexer offset coefficient	1.0000multiplexer slope coefficient	1.0000fibre end	0.00T internal ref (°C)	30.50T ext. ref 1 (°C)	4.50T ext. ref 2 (°C)	27.80length (m)	temperature (°C)	Stokes	anti-Stokes-747.200	50.851	0.128	-0.123
-746.185	90.184	-0.145	0.165
-745.171	295.361	0.247	-0.459
-744.156	-8.938	-0.215	-0.146
-743.142	212.625	-0.253	-0.406
-742.127	-200.000	-0.059	0.290
-741.112	-115.951	-0.413	0.078
-740.098	182.037	-0.218	0.326
-739.083	121.929	-0.091	0.115
-738.069	320.315	-0.049	0.094
-737.054	386.205	0.060	0.126
-736.039	91.552	-0.177	-0.202
-735.025	-200.000	-0.028	0.249
-734.010	99.954	0.271	-0.319
-732.996	214.239	-0.127	-0.204
-731.981	648.558	-0.056	-0.144
-730.966	1.890	0.072	-0.052
-729.952	-179.178	0.249	-0.006
-728.937	48.876	-0.019	-0.018
-727.923	-127.752	0.079	0.012
-726.908	-146.409	-0.424	0.038
-725.894	-29.173	-0.153	-0.089
-724.879	-157.170	-0.479	-0.030
-723.864	-65.535	-0.242	0.099
-722.850	-29.889	0.063	0.036
-721.835	-97.639	-0.139	-0.037
-720.821	-188.777	-0.137	-0.002
-719.806	562.465	-0.087	0.214
-718.791	-104.477	-0.333	-0.078
-717.777	45.403	-0.243	-0.228
-716.762	800.000	-0.033	0.133
-715.748	101.024	-0.117	0.139
-714.733	-149.338	0.043	0.003
-713.718	77.977	0.275	-0.298
-712.704	-120.314	-0.233	-0.040
-711.689	800.000	0.098	-0.302
-710.675	-200.000	-0.026	-0.373
-709.660	-200.000	0.022	0.147
-708.645	800.000	0.107	0.424
-707.631	39.121	-0.070	-0.063
-706.616	-149.366	-0.172	-0.014
-705.602	-153.317	0.336	-0.024
-704.587	-200.000	-0.056	0.297
-703.572	660.849	-0.095	0.249
-702.558	27.186	0.381	0.325
-701.543	-200.000	-0.094	0.000
-700.529	404.045	0.096	0.205
-699.514	-133.217	-0.424	0.054
-698.499	-200.000	0.024	-0.294
-697.485	-115.104	0.098	-0.019
-696.470	17.320	0.087	0.070
-695.456	800.000	-0.026	0.111
-694.441	-40.767	0.350	0.184
-693.426	-200.000	0.106	0.000
-692.412	744.051	-0.128	-0.348
-691.397	199.320	0.019	-0.029
-690.383	-200.000	0.123	-0.000
-689.368	-70.877	-0.253	-0.097
-688.354	-101.197	-0.354	-0.088
-687.339	800.000	0.112	0.430
-686.324	-43.207	0.407	-0.209
-685.310	-134.274	0.167	-0.021
-684.295	64.780	-0.020	-0.020
-683.281	-100.695	-0.235	0.059
-682.266	-200.000	-0.004	-0.151
-681.251	-12.744	0.083	0.055
-680.237	43.545	0.134	0.124
-679.222	260.180	-0.148	0.260
-678.208	508.583	-0.022	-0.053
-677.193	-200.000	0.050	0.363
-676.178	-84.928	-0.573	-0.182
-675.164	354.591	0.021	0.043
-674.149	250.968	0.090	0.155
-673.135	128.915	-0.198	0.256
-672.120	-25.437	-0.204	0.122
-671.105	800.000	0.048	-0.136
-670.091	170.199	-0.161	0.234
-669.076	-83.686	-0.279	-0.090
-668.062	800.000	-0.091	-0.282
-667.047	-200.000	-0.010	-0.179
-666.032	-58.054	-0.114	-0.050
-665.018	94.720	0.164	-0.189
-664.003	-9.478	-0.051	-0.035
-662.989	-51.938	-0.058	0.027
-661.974	-78.777	-0.288	-0.099
-660.959	207.430	-0.017	-0.027
-659.945	39.374	0.187	0.169
-658.930	-18.193	-0.041	0.026
-657.916	357.715	-0.054	0.109
-656.901	-200.000	-0.011	0.361
-655.886	800.000	0.073	-0.289
-654.872	-200.000	0.094	0.433
-653.857	11.611	0.108	0.084
-652.843	305.199	0.032	0.061
-651.828	-97.917	0.063	0.017
-650.814	56.967	0.049	-0.048
-649.799	59.393	0.130	0.130
-648.784	61.153	0.099	-0.100
-647.770	-66.142	0.177	-0.072
-646.755	78.088	0.057	-0.061
-645.741	-111.233	0.072	-0.015
-644.726	-200.000	-0.010	-0.203
-643.711	-88.238	-0.161	-0.049
-642.697	-200.000	-0.045	0.285
-641.682	-200.000	0.007	-0.145
-640.668	800.000	0.003	0.008
-639.653	-200.000	-0.022	-0.193
-638.638	119.894	-0.344	-0.431
-637.624	264.966	0.203	-0.359
-636.609	-73.774	-0.338	-0.125
-635.595	-200.000	-0.007	-0.087
-634.580	-145.103	-0.303	-0.028
-633.565	696.797	-0.110	0.291
-632.551	-200.000	0.009	-0.194
-631.536	-105.519	0.349	0.080
-630.522	-43.819	0.133	-0.068
-629.507	-146.593	-0.465	-0.041
-628.492	-200.000	0.010	-0.213
-627.478	800.000	0.025	0.109
-626.463	332.578	-0.081	0.158
-625.449	-82.999	0.373	-0.121
-624.434	151.141	-0.273	-0.376
-623.419	257.442	-0.120	-0.208
-622.405	164.043	-0.032	0.046
-621.390	-108.235	-0.408	-0.089
-620.376	516.171	0.175	0.414
-619.361	515.586	-0.023	-0.055
-618.346	-44.149	-0.260	0.132
-617.332	85.208	0.091	0.101
-616.317	466.348	-0.144	0.326
-615.303	191.881	-0.094	0.144
-614.288	251.575	-0.142	0.245
-613.273	-200.000	0.006	-0.272
-612.259	94.870	-0.222	-0.256
-611.244	-93.907	0.197	-0.055
-610.230	-135.023	-0.165	0.020
-609.215	-200.000	0.014	0.176
-608.201	-125.261	-0.253	-0.039
-607.186	-101.569	0.167	0.041
-606.171	138.764	-0.101	0.135
-605.157	226.604	-0.085	-0.140
-604.142	240.438	0.075	-0.127
-603.128	-65.030	0.295	0.120
-602.113	574.476	0.150	-0.369
-601.098	473.956	0.058	-0.131
-600.084	21.469	0.201	0.165
-599.069	-139.760	-0.150	-0.016
-598.055	43.070	0.188	-0.174
-597.040	-13.311	-0.187	-0.123
-596.025	-48.615	-0.190	0.092
-595.011	154.441	0.104	0.144
-593.996	-200.000	-0.010	0.271
-592.982	243.337	0.282	-0.478
-591.967	-142.918	0.136	0.013
-590.952	-73.565	-0.205	0.075
-589.938	-200.000	0.044	-0.412
-588.923	13.648	-0.338	0.265
-587.909	-169.909	-0.213	0.008
-586.894	280.657	-0.145	0.262
-585.879	-56.191	0.226	-0.102
-584.865	-152.965	-0.161	0.011
-583.850	481.110	0.134	-0.308
-582.836	-91.486	-0.092	0.026
-581.821	333.056	-0.055	-0.108
-580.806	-200.000	-0.049	0.267
-579.792	252.088	-0.017	0.028
-578.777	-47.206	-0.153	-0.075
-577.763	-110.199	0.051	-0.011
-576.748	-29.987	0.253	-0.146
-575.733	103.877	0.160	-0.189
-574.719	-57.065	-0.121	0.054
-573.704	-127.241	0.152	-0.022
-572.690	800.000	-0.058	-0.206
-571.675	24.834	-0.136	0.114
-570.661	439.050	0.101	-0.222
-569.646	-150.996	0.314	-0.024
-568.631	800.000	0.065	0.206
-567.617	263.476	0.059	-0.103
-566.602	206.828	-0.135	0.213
-565.588	-104.048	-0.107	-0.025
-564.573	-200.000	0.046	0.228
-563.558	-200.000	0.029	0.340
-562.544	-72.271	-0.516	-0.193
-561.529	-42.959	0.361	-0.185
-560.515	-61.804	0.182	0.077
-559.500	157.330	-0.136	-0.191
-558.485	-65.302	0.382	-0.155
-557.471	-43.547	-0.123	0.063
-556.456	360.981	0.045	0.090
-555.442	-40.262	0.162	0.085
-554.427	-200.000	0.014	-0.193
-553.412	-144.667	-0.434	0.040
-552.398	-200.000	-0.035	-0.187
-551.383	-143.409	0.310	0.030
-550.369	7.178	-0.124	-0.093
-549.354	-42.585	-0.421	0.216
-548.339	-200.000	0.023	-0.107
-547.325	-200.000	-0.008	0.249
-546.310	133.852	0.310	0.405
-545.296	78.775	0.139	-0.150
-544.281	102.535	-0.177	-0.209
-543.266	800.000	-0.073	0.273
-542.252	93.913	0.078	0.089
-541.237	-200.000	-0.007	0.397
-540.223	-101.043	-0.070	-0.017
-539.208	-39.163	-0.093	0.049
-538.193	-113.013	-0.266	-0.053
-537.179	-91.863	0.283	-0.081
-536.164	149.217	-0.072	0.098
-535.150	-19.075	0.080	0.050
-534.135	-13.004	-0.154	0.101
-533.121	-200.000	-0.009	0.087
-532.106	176.908	0.069	-0.102
-531.091	-109.475	0.231	0.049
-530.077	-200.000	-0.019	0.197
-529.062	-200.000	-0.001	0.298
-528.048	-134.092	-0.201	-0.025
-527.033	183.441	-0.061	0.091
-526.018	125.757	-0.073	0.093
-525.004	-6.285	-0.157	0.108
-523.989	-126.112	-0.108	-0.016
-522.975	27.896	0.296	0.252
-521.960	-149.881	-0.174	0.014
-520.945	44.842	0.019	0.018
-519.931	-2.222	0.067	-0.047
-518.916	-65.743	0.293	0.118
-517.902	59.983	-0.210	-0.209
-516.887	-27.224	-0.364	-0.213
-515.872	-200.000	-0.010	0.201
-514.858	-81.231	0.072	-0.024
-513.843	-138.071	0.141	0.016
-512.829	800.000	-0.073	0.207
-511.814	-105.789	-0.151	0.034
-510.799	-200.000	-0.038	0.225
-509.785	88.463	0.276	-0.309
-508.770	-200.000	-0.001	-0.043
-507.756	-154.445	0.357	-0.024
-506.741	56.130	-0.050	0.049
-505.726	161.602	0.088	0.125
-504.712	229.376	-0.196	-0.322
-503.697	88.612	0.062	0.070
-502.683	-200.000	-0.069	-0.414
-501.668	92.726	0.167	-0.190
-500.653	-40.800	0.150	-0.078
-499.639	762.549	-0.110	0.300
-498.624	-56.262	0.048	-0.022
-497.610	49.912	-0.233	0.222
-496.595	40.320	0.082	-0.074
-495.581	250.346	-0.119	0.204
-494.566	800.000	-0.095	0.352
-493.551	265.044	0.071	0.125
-492.537	-39.239	0.174	-0.092
-491.522	-200.000	-0.004	-0.077
-490.508	180.520	0.137	-0.202
-489.493	24.843	-0.128	-0.106
-488.478	39.595	-0.186	0.167
-487.464	-162.144	-0.031	-0.002
-486.449	338.670	0.101	0.197
-485.435	-127.560	0.328	0.048
-484.420	187.598	0.086	0.129
-483.405	-16.176	-0.047	-0.030
-482.391	-140.844	0.389	-0.040
-481.376	300.609	-0.071	-0.132
-480.362	56.754	-0.082	-0.081
-479.347	800.000	0.050	0.195
-478.332	-200.000	-0.022	-0.314
-477.318	-34.164	-0.155	-0.085
-476.303	299.623	0.131	-0.242
-475.289	234.457	-0.241	-0.399
-474.274	335.857	0.119	-0.233
-473.259	146.825	0.146	0.197
-472.245	-86.678	-0.324	-0.100
-471.230	-200.000	-0.066	-0.542
-470.216	-200.000	-0.000	-0.163
-469.201	22.251	0.099	-0.081
-468.186	-94.096	0.266	-0.073
-467.172	-200.000	-0.006	0.058
-466.157	-116.055	-0.474	0.089
-465.143	-200.000	0.031	0.242
-464.128	25.987	0.217	0.182
-463.113	172.521	-0.107	-0.155
-462.099	-48.603	0.082	0.040
-461.084	-127.881	-0.132	-0.019
-460.070	-36.923	-0.122	0.066
-459.055	-200.000	0.012	0.157
-458.040	774.820	-0.003	0.009
-457.026	72.863	-0.225	0.237
-456.011	-162.965	-0.058	-0.003
-454.997	800.000	-0.067	0.192
-453.982	-68.805	0.079	-0.031
-452.968	-153.610	0.097	-0.007
-451.953	259.174	0.069	-0.120
-450.938	270.635	0.113	-0.200
-449.924	-200.000	0.046	0.359
-448.909	73.388	0.182	0.191
-447.895	-4.655	-0.285	-0.198
-446.880	433.958	0.186	0.406
-445.865	62.964	0.148	0.148
-444.851	-13.319	0.325	-0.212
-443.836	-83.757	-0.117	0.038
-442.822	-200.000	-0.002	-0.147
-441.807	111.838	0.075	-0.091
-440.792	-200.000	0.002	-0.117
-439.778	112.830	-0.208	0.253
-438.763	631.779	0.033	-0.085
-437.749	800.000	0.045	-0.131
-436.734	-200.000	-0.011	0.175
-435.719	-193.858	0.210	0.002
-434.705	-170.602	-0.279	-0.010
-433.690	705.859	0.092	-0.243
-432.676	-48.862	-0.045	-0.022
-431.661	800.000	0.088	-0.255
-430.646	-33.922	0.360	-0.199
-429.632	-74.811	0.241	-0.087
-428.617	406.382	-0.130	-0.276
-427.603	-57.634	-0.045	-0.020
-426.588	-103.304	0.328	0.078
-425.573	-200.000	-0.014	0.222
-424.559	16.434	0.154	0.122
-423.544	496.099	0.040	0.091
-422.530	-47.597	0.113	-0.055
-421.515	-56.620	-0.415	-0.184
-420.500	-100.503	-0.283	-0.070
-419.486	-200.000	-0.010	-0.145
-418.471	-84.913	-0.118	-0.037
-417.457	-200.000	0.013	0.358
-416.442	-185.929	0.155	-0.002
-415.428	-112.043	0.309	-0.062
-414.413	75.685	-0.297	0.315
-413.398	-24.341	0.213	-0.128
-412.384	-160.330	0.106	-0.006
-411.369	248.025	-0.006	0.011
-410.355	-86.398	-0.073	-0.022
-409.340	-200.000	-0.053	-0.241
-408.325	-77.418	-0.414	0.144
-407.311	253.191	-0.237	0.406
-406.296	-123.074	-0.151	-0.024
-405.282	13.758	-0.070	-0.055
-404.267	79.895	-0.103	-0.111
-403.252	-152.131	-0.355	-0.026
-402.238	7.694	-0.139	0.104
-401.223	212.933	-0.052	-0.083
-400.209	-15.516	-0.329	0.211
-399.194	242.901	-0.166	0.279
-398.179	-144.772	-0.139	0.013
-397.165	36.714	0.091	0.081
-396.150	359.289	0.049	-0.097
-395.136	-200.000	0.026	-0.162
-394.121	800.000	0.129	-0.365
-393.106	-172.896	-0.228	0.007
-392.092	-200.000	0.005	0.206
-391.077	-146.502	-0.073	0.006
-390.063	-200.000	0.002	-0.010
-389.048	-43.414	-0.202	-0.102
-388.033	-200.000	0.029	-0.132
-387.019	-84.976	0.299	-0.094
-386.004	800.000	0.050	-0.196
-384.990	800.000	-0.053	-0.211
-383.975	434.173	0.038	0.083
-382.960	-47.131	-0.390	0.191
-381.946	547.591	-0.013	-0.030
-380.931	-154.757	0.119	-0.008
-379.917	-129.562	0.182	0.025
-378.902	-167.824	0.142	0.006
-377.888	-10.339	-0.180	0.120
-376.873	306.093	0.159	-0.297
-375.858	148.943	0.133	-0.181
-374.844	-38.047	-0.143	0.076
-373.829	-160.108	0.154	0.008
-372.815	-200.000	0.035	-0.187
-371.800	31.760	-0.100	-0.086
-370.785	-44.770	0.327	0.163
-369.771	33.278	-0.140	-0.122
-368.756	160.492	0.027	-0.038
-367.742	-53.941	0.104	0.048
-366.727	-200.000	-0.006	-0.029
-365.712	182.874	-0.218	-0.322
-364.698	-135.423	-0.132	-0.016
-363.683	90.233	0.218	0.244
-362.669	32.140	-0.225	-0.195
-361.654	800.000	-0.085	-0.240
-360.639	-200.000	-0.033	0.384
-359.625	800.000	-0.101	0.376
-358.610	-200.000	-0.007	-0.188
-357.596	7.241	-0.275	0.206
-356.581	800.000	0.110	0.430
-355.566	-24.911	-0.085	0.051
-354.552	-200.000	0.007	0.279
-353.537	414.693	0.096	-0.205
-352.523	366.764	-0.046	-0.092
-351.508	-200.000	-0.003	-0.057
-350.493	-90.966	-0.222	-0.064
-349.479	-107.969	0.087	-0.019
-348.464	-21.128	0.172	-0.106
-347.450	457.933	0.045	-0.101
-346.435	800.000	-0.076	0.296
-345.420	96.930	-0.278	-0.318
-344.406	-156.563	0.279	0.017
-343.391	-123.974	0.213	-0.034
-342.377	-8.186	0.203	0.137
-341.362	-200.000	-0.013	-0.225
-340.348	-44.404	0.261	-0.131
-339.333	606.392	0.062	0.154
-338.318	358.631	0.138	-0.276
-337.304	108.451	-0.259	0.309
-336.289	800.000	-0.051	-0.195
-335.275	73.847	-0.043	-0.045
-334.260	-200.000	-0.007	-0.277
-333.245	-148.421	-0.435	0.036
-332.231	-56.524	-0.144	0.064
-331.216	96.060	0.007	0.008
-330.202	-108.927	-0.178	0.038
-329.187	-64.294	0.164	-0.067
-328.172	-58.980	0.221	0.096
-327.158	800.000	-0.080	0.247
-326.143	578.253	-0.066	-0.163
-325.129	32.617	0.284	0.246
-324.114	82.331	0.420	0.455
-323.099	1.660	-0.122	-0.088
-322.085	-132.665	0.134	-0.017
-321.070	48.932	-0.084	0.079
-320.056	-86.647	0.123	0.038
-319.041	-200.000	0.015	-0.167
-318.026	728.798	-0.065	-0.173
-317.012	-100.377	0.223	-0.055
-315.997	158.631	0.091	0.127
-314.983	11.710	-0.134	0.103
-313.968	-159.651	0.207	-0.011
-312.953	158.414	-0.143	0.198
-311.939	-200.000	-0.003	0.316
-310.924	109.585	0.065	0.077
-309.910	40.445	-0.289	-0.260
-308.895	-59.644	-0.098	-0.042
-307.880	512.263	0.138	0.321
-306.866	800.000	0.030	0.100
-305.851	800.000	0.036	0.135
-304.837	11.992	-0.343	0.263
-303.822	-200.000	0.017	0.172
-302.807	48.815	0.283	0.265
-301.793	-200.000	0.037	0.426
-300.778	800.000	-0.022	0.087
-299.764	-57.174	0.280	-0.123
-298.749	51.712	0.098	-0.093
-297.735	800.000	0.017	-0.049
-296.720	-37.336	0.441	0.235
-295.705	40.800	0.138	0.124
-294.691	800.000	0.093	-0.279
-293.676	60.564	-0.184	0.182
-292.662	-200.000	-0.039	0.266
-291.647	-107.657	0.085	-0.019
-290.632	-143.310	0.176	-0.017
-289.618	-75.496	-0.201	0.071
-288.603	-153.158	-0.077	0.005
-287.589	17.369	-0.128	0.101
-286.574	-10.111	0.104	-0.069
-285.559	-200.000	-0.065	0.000
-284.545	-95.419	0.087	-0.023
-283.530	-65.472	0.325	-0.130
-282.516	14.466	-0.147	0.114
-281.501	54.696	-0.395	0.380
-280.486	-118.910	-0.066	-0.011
-279.472	-23.983	-0.168	0.100
-278.457	523.244	-0.088	-0.206
-277.443	748.943	-0.146	-0.393
-276.428	-56.776	-0.213	-0.094
-275.413	-124.264	-0.465	-0.073
-274.399	-22.974	-0.141	0.085
-273.384	-48.446	0.315	0.151
-272.370	461.721	0.071	-0.159
-271.355	227.353	-0.146	-0.237
-270.340	515.421	-0.114	-0.266
-269.326	-68.632	0.233	0.090
-268.311	800.000	-0.098	0.288
-267.297	0.653	0.260	0.186
-266.282	393.082	0.206	-0.428
-265.267	694.725	-0.126	-0.330
-264.253	229.441	0.105	0.172
-263.238	-40.922	-0.405	0.209
-262.224	-113.493	0.302	0.059
-261.209	-172.973	-0.562	0.017
-260.195	356.017	-0.116	-0.231
-259.180	-200.000	0.019	-0.250
-258.165	-138.408	-0.322	-0.035
-257.151	262.301	-0.046	-0.080
-256.136	-200.000	0.052	0.353
-255.122	77.828	0.106	-0.113
-254.107	-63.500	-0.270	0.111
-253.092	-200.000	0.012	-0.102
-252.078	-65.093	-0.116	-0.047
-251.063	-200.000	0.001	0.018
-250.049	800.000	0.039	0.151
-249.034	-36.369	-0.397	-0.213
-248.019	31.780	-0.046	0.039
-247.005	800.000	0.000	0.001
-245.990	303.684	0.188	-0.347
-244.976	681.824	0.080	-0.208
-243.961	-200.000	-0.021	0.421
-242.946	89.293	-0.107	-0.118
-241.932	-200.000	0.000	0.002
-240.917	-82.695	0.199	0.064
-239.903	-200.000	-0.025	-0.265
-238.888	-107.766	0.296	-0.064
-237.873	7.810	-0.388	0.290
-236.859	-200.000	-0.015	0.069
-235.844	154.086	0.172	0.235
-234.830	154.081	0.185	-0.253
-233.815	-175.905	0.265	-0.007
-232.800	76.425	-0.070	0.074
-231.786	800.000	-0.056	0.241
-230.771	202.245	-0.087	0.134
-229.757	77.610	0.098	0.104
-228.742	-151.204	-0.081	0.006
-227.727	520.490	0.101	-0.237
-226.713	106.987	-0.238	0.281
-225.698	-78.015	0.212	0.073
-224.684	-64.957	0.069	-0.028
-223.669	-100.730	-0.035	-0.009
-222.655	24.884	-0.220	0.181
-221.640	-200.000	-0.053	0.349
-220.625	-135.681	0.274	-0.032
-219.611	-100.558	-0.109	0.027
-218.596	596.382	0.077	-0.189
-217.582	219.516	0.073	-0.116
-216.567	135.202	0.233	0.302
-215.552	33.159	-0.250	-0.216
-214.538	-13.442	-0.146	-0.094
-213.523	25.318	-0.040	-0.033
-212.509	-139.464	0.017	-0.002
-211.494	-200.000	0.045	-0.246
-210.479	30.137	-0.151	-0.128
-209.465	-177.671	0.114	-0.003
-208.450	-124.118	0.321	-0.050
-207.436	-32.976	-0.318	0.176
-206.421	-200.000	0.026	-0.261
-205.406	262.422	0.171	-0.295
-204.392	232.387	-0.231	0.377
-203.377	27.999	-0.204	-0.172
-202.363	-45.723	0.005	0.003
-201.348	-67.385	0.272	-0.106
-200.333	-200.000	0.033	-0.154
-199.319	800.000	0.040	0.135
-198.304	65.267	-0.316	-0.317
-197.290	800.000	-0.020	0.062
-196.275	-17.261	0.109	-0.068
-195.260	-31.987	0.441	-0.245
-194.246	-200.000	0.043	-0.248
-193.231	-68.935	0.325	0.125
-192.217	300.168	0.096	0.177
-191.202	102.076	-0.108	-0.125
-190.187	-67.004	0.470	-0.185
-189.173	159.719	0.090	0.124
-188.158	800.000	-0.114	-0.382
-187.144	-47.365	0.131	0.063
-186.129	-137.089	0.116	-0.013
-185.114	-121.008	0.448	-0.075
-184.100	-87.834	0.290	-0.087
-183.085	-77.843	0.397	-0.136
-182.071	-200.000	-0.017	-0.147
-181.056	23.009	-0.198	-0.161
-180.042	-35.867	-0.141	0.076
-179.027	-146.806	-0.227	-0.019
-178.012	-200.000	-0.013	0.087
-176.998	-200.000	0.045	0.325
-175.983	-107.521	0.258	-0.056
-174.969	61.286	-0.178	-0.176
-173.954	587.482	0.029	-0.071
-172.939	-7.544	-0.093	0.063
-171.925	-57.784	0.093	-0.041
-170.910	-180.084	0.074	-0.002
-169.896	-9.598	0.154	0.102
-168.881	133.669	0.098	-0.126
-167.866	800.000	0.099	0.425
-166.852	-86.179	0.434	-0.133
-165.837	121.293	0.025	-0.031
-164.823	-200.000	-0.018	0.119
-163.808	168.139	0.089	0.126
-162.793	-70.796	-0.092	-0.034
-161.779	-139.645	-0.318	0.034
-160.764	-55.702	0.082	0.036
-159.750	-30.768	0.202	-0.114
-158.735	-200.000	0.055	0.264
-157.720	481.417	-0.061	0.138
-156.706	-200.000	0.011	0.070
-155.691	-200.000	0.011	0.152
-154.677	-128.448	0.208	-0.029
-153.662	223.715	-0.217	0.348
-152.647	-90.545	0.254	-0.073
-151.633	79.309	-0.042	0.045
-150.618	-105.843	0.247	0.055
-149.604	281.640	-0.235	-0.418
-148.589	12.798	-0.279	0.214
-147.574	181.033	0.083	-0.121
-146.560	-200.000	-0.390	0.001
-145.545	249.342	-0.201	0.337
-144.531	-53.106	0.117	0.054
-143.516	-140.009	-0.205	0.021
-142.502	-69.032	-0.232	-0.089
-141.487	-100.733	-0.187	-0.046
-140.472	201.756	-0.254	0.389
-139.458	-11.763	0.180	-0.118
-138.443	-11.774	0.170	0.111
-137.429	-80.858	0.088	-0.029
-136.414	-54.216	-0.109	-0.049
-135.399	-11.167	-0.341	0.223
-134.385	-73.926	-0.333	-0.120
-133.370	-182.365	-0.122	-0.002
-132.356	-23.074	0.207	0.124
-131.341	-200.000	-0.031	-0.178
-130.326	-33.453	0.068	0.037
-129.312	317.789	-0.058	0.109
-128.297	247.951	0.148	0.248
-127.283	101.284	-0.150	-0.173
-126.268	-83.819	-0.170	0.054
-125.253	800.000	0.031	0.132
-124.239	230.033	-0.094	0.152
-123.224	800.000	0.050	0.158
