DTS Sentinel unit serial number:	SN413079Multiplexer serial number:	ORYXHardware model number:	OX4-SRSoftware version number:	ORYX F/W v4.00 Oryx Data Collector v3.7.2.0data status	okinstallation	princeton_trtdifferential loss correction	single-endedforward channel	channel 4reverse channel	N/Adate	2019/09/18time	19:25:35forward acquisition time	60.00reverse acquisition time	0.00gamma	496.2192k internal	0.2312k external	0.2312temperature offset calibration	1.0034default loss term (dB/km)	0.3790temperature slope calibration	1.0000multiplexer offset coefficient	1.0000multiplexer slope coefficient	1.0000fibre end	0.00T internal ref (°C)	33.36T ext. ref 1 (°C)	1.07T ext. ref 2 (°C)	22.82length (m)	temperature (°C)	Stokes	anti-Stokes-747.200	800.000	0.051	0.193
-746.185	130.270	-0.161	0.209
-745.171	85.156	-0.082	0.092
-744.156	-72.271	0.167	0.063
-743.142	-27.230	0.116	-0.068
-742.127	150.558	0.131	0.180
-741.112	800.000	-0.013	-0.042
-740.098	-200.000	0.010	0.286
-739.083	800.000	-0.061	0.252
-738.069	136.489	-0.167	0.221
-737.054	10.777	-0.178	0.138
-736.039	122.636	-0.202	-0.256
-735.025	71.408	0.275	0.290
-734.010	-118.048	-0.297	0.054
-732.996	294.372	-0.120	-0.222
-731.981	800.000	0.061	-0.226
-730.966	51.509	0.139	0.134
-729.952	-96.289	-0.202	-0.054
-728.937	-29.831	-0.182	-0.105
-727.923	296.740	-0.114	-0.212
-726.908	-46.309	-0.278	0.138
-725.894	114.748	-0.127	0.156
-724.879	49.390	0.291	-0.278
-723.864	285.497	-0.095	0.174
-722.850	-120.893	-0.133	0.023
-721.835	55.130	-0.273	0.268
-720.821	-200.000	0.018	-0.115
-719.806	40.318	-0.115	0.105
-718.791	-200.000	-0.016	-0.180
-717.777	657.043	-0.026	0.068
-716.762	-157.789	0.307	-0.018
-715.748	-200.000	0.019	0.399
-714.733	-200.000	-0.002	0.046
-713.718	-200.000	-0.030	-0.307
-712.704	-55.910	0.171	-0.077
-711.689	-41.728	0.321	-0.167
-710.675	-200.000	-0.037	0.260
-709.660	-200.000	0.072	-0.336
-708.645	49.756	0.255	-0.244
-707.631	159.746	-0.132	0.186
-706.616	108.378	-0.135	0.164
-705.602	-200.000	0.001	0.121
-704.587	-65.167	-0.307	-0.125
-703.572	479.492	0.174	0.400
-702.558	-77.364	-0.245	0.086
-701.543	716.801	0.104	0.279
-700.529	270.065	-0.183	0.326
-699.514	-38.165	0.262	-0.141
-698.499	-46.747	0.240	0.119
-697.485	235.686	0.042	-0.070
-696.470	-64.929	-0.082	-0.034
-695.456	693.268	-0.098	0.261
-694.441	-147.749	-0.048	0.004
-693.426	119.691	-0.179	-0.224
-692.412	-47.166	-0.284	-0.140
-691.397	-75.759	-0.367	0.132
-690.383	-111.785	-0.299	0.061
-689.368	-25.019	-0.133	-0.080
-688.354	33.978	-0.278	-0.245
-687.339	-200.000	-0.032	-0.169
-686.324	232.705	0.225	-0.375
-685.310	-200.000	0.004	0.099
-684.295	178.429	-0.047	0.070
-683.281	-43.353	-0.050	-0.026
-682.266	800.000	-0.043	0.122
-681.251	-200.000	0.025	0.224
-680.237	-200.000	0.002	-0.306
-679.222	-64.422	-0.169	0.070
-678.208	-2.087	-0.065	-0.046
-677.193	-39.686	-0.151	0.080
-676.178	-97.216	-0.330	0.087
-675.164	91.288	0.101	-0.114
-674.149	-41.323	-0.113	-0.059
-673.135	60.239	0.174	0.174
-672.120	132.904	0.341	-0.445
-671.105	-102.443	-0.205	0.050
-670.091	102.006	0.221	-0.261
-669.076	-200.000	0.001	0.283
-668.062	-73.828	-0.247	0.091
-667.047	-200.000	0.009	0.162
-666.032	365.449	-0.115	0.234
-665.018	-114.183	0.093	0.018
-664.003	-49.991	0.297	0.142
-662.989	-76.980	-0.144	-0.051
-661.974	54.591	0.147	-0.143
-660.959	56.635	0.020	0.020
-659.945	517.801	-0.096	-0.228
-658.930	87.500	0.063	0.071
-657.916	-111.105	0.280	-0.058
-656.901	42.594	0.153	0.141
-655.886	-131.018	-0.349	-0.047
-654.872	99.577	-0.133	0.156
-653.857	-77.890	-0.071	-0.025
-652.843	47.479	0.054	0.051
-651.828	800.000	-0.038	-0.106
-650.814	38.983	-0.129	-0.116
-649.799	-67.085	-0.042	-0.017
-648.784	-92.677	0.121	-0.034
-647.770	800.000	-0.036	-0.119
-646.755	596.252	0.138	-0.346
-645.741	13.075	0.048	-0.037
-644.726	123.451	0.179	0.226
-643.711	-200.000	-0.041	-0.196
-642.697	-200.000	-0.004	0.150
-641.682	22.301	-0.201	0.166
-640.668	-66.136	0.283	0.114
-639.653	309.783	-0.040	-0.075
-638.638	-200.000	-0.033	0.209
-637.624	255.630	0.096	0.166
-636.609	34.748	-0.083	0.074
-635.595	562.784	0.150	0.367
-634.580	-95.926	0.061	0.016
-633.565	-65.309	0.168	-0.068
-632.551	-200.000	-0.062	-0.277
-631.536	459.612	-0.208	-0.469
-630.522	-66.903	0.160	0.064
-629.507	-24.656	0.095	0.057
-628.492	-200.000	-0.031	0.207
-627.478	-33.012	0.097	-0.054
-626.463	800.000	-0.067	-0.277
-625.449	-141.515	-0.080	0.008
-624.434	800.000	0.066	0.281
-623.419	-117.207	-0.141	0.026
-622.405	800.000	0.071	-0.214
-621.390	-64.480	0.346	0.142
-620.376	-156.323	-0.162	0.010
-619.361	85.041	0.232	-0.256
-618.346	-57.918	-0.203	-0.089
-617.332	-200.000	0.012	-0.265
-616.317	-200.000	-0.057	-0.260
-615.303	-2.354	-0.378	-0.268
-614.288	-137.682	0.418	-0.047
-613.273	-162.760	-0.121	0.006
-612.259	519.608	-0.093	0.221
-611.244	-51.144	0.090	0.043
-610.230	42.334	-0.236	0.216
-609.215	21.875	0.041	0.034
-608.201	59.139	0.122	-0.121
-607.186	-101.430	-0.170	0.042
-606.171	-112.632	0.504	0.101
-605.157	-44.199	0.124	0.063
-604.142	212.689	-0.321	-0.511
-603.128	-73.017	-0.227	0.084
-602.113	-200.000	0.014	0.083
-601.098	800.000	0.100	-0.287
-600.084	670.201	0.023	-0.060
-599.069	45.765	0.062	0.058
-598.055	155.142	0.183	0.254
-597.040	-200.000	-0.064	-0.497
-596.025	-4.878	-0.169	0.117
-595.011	-147.491	-0.426	-0.036
-593.996	527.175	-0.092	-0.218
-592.982	-146.575	0.192	-0.017
-591.967	-200.000	0.005	0.087
-590.952	-35.634	-0.186	0.102
-589.938	-200.000	0.019	-0.137
-588.923	-41.570	0.222	0.115
-587.909	129.663	-0.256	0.330
-586.894	-23.685	0.209	0.126
-585.879	800.000	-0.066	-0.189
-584.865	-200.000	-0.050	-0.228
-583.850	277.132	0.055	0.100
-582.836	-142.494	0.242	0.024
-581.821	128.858	-0.092	0.118
-580.806	-54.655	0.081	-0.037
-579.792	-90.880	0.167	-0.049
-578.777	-75.866	0.178	-0.064
-577.763	-73.407	-0.247	-0.091
-576.748	-71.553	0.164	-0.062
-575.733	800.000	-0.039	0.155
-574.719	-200.000	0.014	0.100
-573.704	-64.702	-0.079	-0.032
-572.690	-35.757	0.177	-0.097
-571.675	-90.075	-0.126	-0.037
-570.661	-93.233	0.127	0.036
-569.646	337.281	-0.052	-0.102
-568.631	-143.738	0.217	0.021
-567.617	481.649	0.053	-0.122
-566.602	800.000	-0.025	-0.088
-565.588	-95.668	-0.195	0.053
-564.573	-200.000	0.115	0.508
-563.558	256.898	-0.079	-0.136
-562.544	111.436	0.095	0.116
-561.529	53.386	0.200	0.193
-560.515	561.763	-0.058	-0.140
-559.500	143.760	-0.097	-0.130
-558.485	-104.365	-0.236	0.055
-557.471	-15.706	0.006	0.004
-556.456	198.359	-0.188	0.290
-555.442	-21.400	0.217	0.133
-554.427	11.444	-0.081	0.063
-553.412	789.937	-0.088	-0.245
-552.398	-143.796	-0.532	0.051
-551.383	104.366	0.153	0.181
-550.369	-200.000	0.015	-0.089
-549.354	-188.723	0.369	-0.005
-548.339	-5.797	-0.294	0.203
-547.325	65.266	0.261	0.266
-546.310	321.661	-0.108	0.207
-545.296	-44.567	-0.022	-0.011
-544.281	600.871	0.112	-0.281
-543.266	-70.164	0.373	-0.143
-542.252	800.000	-0.011	-0.042
-541.237	-200.000	0.037	-0.207
-540.223	107.631	0.090	0.108
-539.208	-174.612	-0.306	0.009
-538.193	-79.281	0.202	-0.069
-537.179	435.876	-0.103	-0.225
-536.164	-200.000	-0.021	-0.333
-535.150	800.000	0.056	-0.185
-534.135	-112.047	-0.229	0.046
-533.121	410.913	-0.041	-0.088
-532.106	208.559	0.081	0.127
-531.091	152.857	0.255	0.351
-530.077	-152.345	0.213	0.015
-529.062	113.469	-0.154	0.188
-528.048	-200.000	-0.005	-0.040
-527.033	67.828	-0.146	-0.150
-526.018	257.190	-0.112	0.194
-525.004	84.162	-0.132	-0.145
-523.989	-113.129	-0.104	0.021
-522.975	-103.455	-0.108	0.026
-521.960	-200.000	0.000	-0.077
-520.945	656.798	0.036	0.092
-519.931	-195.423	-0.167	0.001
-518.916	-200.000	-0.022	-0.134
-517.902	-200.000	0.077	-0.385
-516.887	-45.547	0.137	-0.068
-515.872	-84.663	0.168	-0.053
-514.858	268.941	0.105	0.184
-513.843	12.088	0.107	0.083
-512.829	800.000	-0.036	-0.107
-511.814	136.687	0.217	-0.285
-510.799	212.380	0.134	-0.213
-509.785	-121.124	-0.375	0.063
-508.770	287.188	-0.160	-0.291
-507.756	-59.155	-0.375	0.162
-506.741	18.371	0.171	0.137
-505.726	354.581	0.171	0.342
-504.712	-86.134	0.170	-0.053
-503.697	56.158	0.301	-0.293
-502.683	4.893	-0.205	-0.151
-501.668	-101.712	0.426	0.104
-500.653	-91.439	-0.228	-0.065
-499.639	-122.183	0.030	-0.005
-498.624	800.000	0.114	-0.387
-497.610	-149.604	-0.219	0.017
-496.595	384.233	0.081	-0.168
-495.581	-93.809	0.467	-0.129
-494.566	-200.000	-0.034	0.221
-493.551	-30.719	0.124	0.070
-492.537	262.458	0.088	0.153
-491.522	51.383	0.229	0.219
-490.508	33.773	-0.344	0.301
-489.493	-195.129	0.168	-0.001
-488.478	-153.526	-0.179	-0.012
-487.464	-45.461	0.262	0.130
-486.449	-200.000	0.038	0.273
-485.435	-134.374	-0.150	-0.018
-484.420	-200.000	0.080	-0.454
-483.405	-149.072	-0.144	0.012
-482.391	-90.657	-0.144	0.042
-481.376	-200.000	-0.000	0.139
-480.362	-200.000	0.005	-0.503
-479.347	-200.000	-0.034	0.219
-478.332	55.831	0.169	0.164
-477.318	-119.817	0.061	-0.010
-476.303	-124.536	-0.388	-0.061
-475.289	-124.509	0.161	-0.025
-474.274	37.345	-0.171	-0.152
-473.259	-200.000	-0.010	0.065
-472.245	-109.676	0.302	0.064
-471.230	-59.221	-0.235	0.101
-470.216	-200.000	0.004	-0.400
-469.201	18.068	0.126	0.101
-468.186	302.441	-0.082	0.152
-467.172	800.000	-0.022	-0.079
-466.157	-200.000	0.030	-0.239
-465.143	439.722	-0.062	-0.136
-464.128	592.252	0.127	0.315
-463.113	-67.847	-0.281	0.110
-462.099	-164.627	0.143	-0.006
-461.084	-53.521	0.101	0.046
-460.070	61.750	-0.140	-0.140
-459.055	800.000	-0.118	-0.447
-458.040	-200.000	-0.005	-0.039
-457.026	552.099	-0.145	-0.350
-456.011	19.899	-0.079	0.063
-454.997	-200.000	-0.081	0.355
-453.982	91.669	-0.194	0.219
-452.968	-44.597	0.050	-0.025
-451.953	355.873	0.138	-0.276
-450.938	-76.017	-0.017	-0.006
-449.924	800.000	0.183	0.564
-448.909	10.385	0.230	0.176
-447.895	125.213	0.065	-0.083
-446.880	-100.589	0.097	-0.024
-445.865	-120.200	0.321	0.055
-444.851	-200.000	0.024	0.111
-443.836	-56.184	-0.283	-0.126
-442.822	-15.184	0.097	0.062
-441.807	-166.264	0.228	0.010
-440.792	-123.664	-0.165	-0.026
-439.778	-79.834	0.240	-0.081
-438.763	-57.467	-0.198	0.087
-437.749	-144.185	0.067	0.006
-436.734	170.549	0.225	0.322
-435.719	-95.259	-0.169	-0.045
-434.705	-200.000	0.012	-0.091
-433.690	175.841	-0.127	-0.185
-432.676	-200.000	0.007	0.056
-431.661	326.647	-0.080	0.154
-430.646	41.787	-0.154	0.140
-429.632	-118.910	-0.212	0.037
-428.617	56.489	0.093	0.091
-427.603	105.810	0.159	-0.188
-426.588	159.398	0.026	0.036
-425.573	-92.260	-0.108	0.031
-424.559	78.643	0.096	-0.103
-423.544	85.816	-0.021	0.023
-422.530	-200.000	0.001	0.358
-421.515	-53.247	-0.320	-0.147
-420.500	-115.451	-0.292	0.055
-419.486	-15.571	-0.136	-0.087
-418.471	800.000	-0.094	-0.388
-417.457	253.546	-0.156	-0.266
-416.442	-7.568	-0.109	0.074
-415.428	-104.937	0.168	-0.039
-414.413	-73.142	-0.087	0.032
-413.398	-19.700	0.262	0.162
-412.384	-43.012	-0.265	-0.135
-411.369	-200.000	0.008	-0.053
-410.355	-200.000	0.039	0.213
-409.340	-200.000	0.021	-0.241
-408.325	383.566	0.164	0.339
-407.311	22.998	-0.297	-0.244
-406.296	-0.906	-0.255	-0.181
-405.282	151.358	0.141	-0.193
-404.267	-200.000	-0.007	-0.061
-403.252	-200.000	-0.011	0.105
-402.238	-200.000	-0.080	0.428
-401.223	-200.000	0.036	0.285
-400.209	-19.972	0.145	0.090
-399.194	95.931	-0.139	0.159
-398.179	-200.000	-0.018	0.231
-397.165	601.512	0.092	0.228
-396.150	61.167	-0.123	-0.122
-395.136	106.990	0.214	0.254
-394.121	9.342	0.076	-0.057
-393.106	-200.000	-0.045	0.297
-392.092	8.003	0.240	0.180
-391.077	237.180	-0.203	0.337
-390.063	-200.000	-0.016	-0.169
-389.048	-46.403	0.128	-0.063
-388.033	800.000	-0.032	-0.136
-387.019	-94.466	-0.396	0.108
-386.004	465.532	-0.047	-0.106
-384.990	569.838	0.048	0.117
-383.975	-14.136	0.199	0.128
-382.960	-166.894	0.115	-0.005
-381.946	715.732	-0.094	-0.250
-380.931	-156.922	0.246	-0.015
-379.917	-85.100	0.099	0.031
-378.902	133.578	-0.035	0.045
-377.888	800.000	-0.018	-0.076
-376.873	-78.700	0.080	0.027
-375.858	-200.000	0.018	-0.190
-374.844	685.336	-0.055	0.143
-373.829	800.000	-0.054	0.153
-372.815	183.461	-0.019	0.028
-371.800	-127.711	-0.285	0.041
-370.785	195.761	-0.020	0.030
-369.771	29.165	-0.110	-0.093
-368.756	-41.240	0.200	0.103
-367.742	793.122	-0.066	0.180
-366.727	-115.256	-0.205	-0.039
-365.712	85.663	0.092	0.101
-364.698	31.060	-0.241	0.207
-363.683	180.957	-0.133	-0.196
-362.669	-18.695	0.323	0.201
-361.654	-80.816	0.218	-0.072
-360.639	800.000	0.065	-0.253
-359.625	-32.890	0.033	0.018
-358.610	-92.879	-0.059	0.016
-357.596	50.096	-0.183	-0.173
-356.581	120.628	0.036	0.045
-355.566	771.655	0.081	0.221
-354.552	-124.446	0.146	0.023
-353.537	-17.906	0.092	0.058
-352.523	265.108	0.082	-0.144
-351.508	800.000	0.063	-0.245
-350.493	-156.573	0.346	-0.021
-349.479	1.082	-0.160	0.115
-348.464	60.444	0.271	0.268
-347.450	-190.726	-0.047	0.000
-346.435	-31.656	0.188	-0.106
-345.420	-200.000	0.027	-0.223
-344.406	-15.944	0.090	0.057
-343.391	398.323	-0.130	0.272
-342.377	800.000	0.036	0.138
-341.362	-200.000	-0.003	0.304
-340.348	-166.399	0.360	-0.015
-339.333	-101.424	0.082	0.020
-338.318	-200.000	-0.004	-0.236
-337.304	-138.894	0.243	0.026
-336.289	23.094	0.185	-0.152
-335.275	-200.000	-0.033	-0.239
-334.260	-200.000	-0.019	-0.347
-333.245	-92.431	-0.090	-0.025
-332.231	-27.994	0.147	0.085
-331.216	-64.297	0.137	0.056
-330.202	-200.000	0.013	-0.100
-329.187	-65.098	-0.064	-0.026
-328.172	283.616	-0.101	0.182
-327.158	81.467	-0.195	-0.210
-326.143	-0.941	0.056	0.039
-325.129	-191.429	-0.083	-0.001
-324.114	-193.143	0.271	0.002
-323.099	33.606	0.154	0.134
-322.085	-145.173	-0.100	-0.009
-321.070	-93.799	-0.070	-0.019
-320.056	-200.000	-0.017	0.082
-319.041	88.672	0.018	0.019
-318.026	-200.000	0.017	0.089
-317.012	166.849	-0.046	0.065
-315.997	-109.082	0.121	-0.026
-314.983	249.109	-0.185	-0.313
-313.968	800.000	-0.094	0.339
-312.953	94.010	0.109	0.124
-311.939	-92.468	-0.167	-0.047
-310.924	13.014	0.014	-0.011
-309.910	129.235	-0.149	0.190
-308.895	48.593	0.052	-0.048
-307.880	-93.232	-0.405	-0.112
-306.866	-104.646	0.100	0.023
-305.851	24.818	0.035	-0.029
-304.837	-74.141	0.217	0.078
-303.822	332.291	0.051	-0.099
-302.807	-200.000	-0.065	-0.293
-301.793	-41.432	-0.306	-0.157
-300.778	79.543	-0.115	-0.123
-299.764	-200.000	-0.022	0.133
-298.749	105.151	0.145	0.171
-297.735	-31.150	-0.260	0.146
-296.720	34.398	0.122	-0.106
-295.705	62.412	-0.319	0.317
-294.691	186.331	0.172	0.256
-293.676	-75.238	-0.264	-0.094
-292.662	-46.234	-0.218	-0.107
-291.647	29.206	-0.210	-0.178
-290.632	409.466	-0.080	0.170
-289.618	499.478	-0.064	0.146
-288.603	-200.000	0.022	-0.223
-287.589	-200.000	-0.001	0.063
-286.574	-79.657	0.228	-0.077
-285.559	96.210	-0.349	0.398
-284.545	163.348	0.065	0.092
-283.530	-159.340	0.357	0.020
-282.516	32.999	-0.044	-0.038
-281.501	29.461	-0.079	0.067
-280.486	-9.719	0.279	0.185
-279.472	113.149	0.104	0.125
-278.457	289.258	-0.206	-0.372
-277.443	-200.000	0.002	0.164
-276.428	-82.109	-0.259	0.084
-275.413	345.434	-0.170	-0.334
-274.399	-91.432	-0.315	-0.090
-273.384	281.482	-0.087	0.154
-272.370	-200.000	0.021	-0.429
-271.355	-200.000	0.006	-0.116
-270.340	-200.000	-0.037	0.299
-269.326	800.000	0.042	0.143
-268.311	111.901	0.380	-0.457
-267.297	489.668	-0.059	0.135
-266.282	-200.000	-0.041	0.288
-265.267	221.364	-0.086	0.137
-264.253	-163.809	-0.116	0.005
-263.238	800.000	-0.042	-0.149
-262.224	800.000	-0.076	-0.215
-261.209	296.198	0.121	-0.221
-260.195	-12.915	-0.225	0.146
-259.180	202.859	-0.112	0.172
-258.165	37.401	-0.073	0.065
-257.151	517.404	-0.030	0.070
-256.136	239.547	0.106	0.176
-255.122	-29.152	-0.254	-0.145
-254.107	-102.866	-0.241	-0.057
-253.092	112.456	-0.225	-0.271
-252.078	-149.926	0.386	-0.030
-251.063	101.731	0.141	-0.163
-250.049	799.298	0.039	0.108
-249.034	738.487	0.060	0.159
-248.019	-65.482	-0.215	-0.086
-247.005	289.054	-0.146	0.263
-245.990	-200.000	-0.002	-0.184
-244.976	800.000	0.085	-0.310
-243.961	-81.408	-0.365	0.120
-242.946	11.096	-0.230	0.175
-241.932	109.259	-0.053	-0.063
-240.917	-64.959	-0.068	0.027
-239.903	-67.912	-0.257	-0.100
-238.888	78.661	0.044	0.047
-237.873	131.280	0.059	0.076
-236.859	551.338	-0.066	0.157
-235.844	313.089	-0.127	0.237
-234.830	-200.000	0.004	0.297
-233.815	101.143	0.048	-0.056
-232.800	-200.000	0.017	-0.177
-231.786	220.420	-0.103	-0.165
-230.771	368.240	-0.131	0.263
-229.757	793.141	-0.034	0.093
-228.742	-200.000	0.021	-0.091
-227.727	-137.904	0.171	0.019
-226.713	-82.340	-0.254	-0.082
-225.698	414.635	0.092	0.194
-224.684	44.802	0.185	0.169
-223.669	354.995	-0.049	-0.096
-222.655	800.000	-0.080	-0.259
-221.640	800.000	-0.091	0.259
-220.625	100.585	-0.127	0.147
-219.611	-200.000	-0.022	-0.267
-218.596	-178.108	0.301	-0.007
-217.582	-15.002	0.103	0.066
-216.567	11.882	0.165	0.126
-215.552	27.940	-0.075	-0.063
-214.538	-60.297	0.158	0.067
-213.523	177.542	0.166	0.240
-212.509	-57.440	0.206	-0.090
-211.494	-30.924	0.282	0.158
-210.479	-73.646	0.396	-0.143
-209.465	482.894	0.074	-0.168
-208.450	-200.000	0.000	-0.181
-207.436	-200.000	0.026	-0.161
-206.421	-102.296	0.042	-0.010
-205.406	-200.000	-0.026	0.155
-204.392	-124.359	-0.226	0.035
-203.377	10.261	0.302	0.228
-202.363	56.218	-0.054	-0.052
-201.348	159.042	-0.130	0.180
-200.333	-62.120	0.095	-0.039
-199.319	-179.271	0.401	-0.009
-198.304	92.664	-0.277	-0.311
-197.290	225.764	-0.155	-0.249
-196.275	17.775	-0.302	-0.239
-195.260	-200.000	-0.023	-0.259
-194.246	-200.000	0.000	-0.064
-193.231	622.832	-0.101	0.252
-192.217	-200.000	0.000	-0.034
-191.202	-41.743	-0.232	0.118
-190.187	-200.000	0.019	0.144
-189.173	-144.399	-0.299	-0.028
-188.158	-200.000	0.018	-0.218
-187.144	-50.901	-0.482	-0.225
-186.129	9.847	0.215	0.162
-185.114	537.560	0.012	-0.028
-184.100	207.419	-0.036	-0.056
-183.085	-9.608	-0.162	-0.107
-182.071	311.985	0.152	0.284
-181.056	-164.911	-0.182	-0.008
-180.042	135.120	-0.243	-0.313
-179.027	254.852	0.195	0.331
-178.012	-86.083	0.183	-0.056
-176.998	-133.596	0.234	-0.029
-175.983	86.608	-0.096	0.106
-174.969	523.198	0.048	0.112
-173.954	-173.979	0.248	-0.007
-172.939	-42.863	0.221	-0.111
-171.925	263.145	0.235	0.406
-170.910	-71.369	0.482	0.179
-169.896	-27.734	-0.212	0.122
-168.881	214.290	0.024	-0.038
-167.866	-53.497	0.202	-0.092
-166.852	115.073	0.202	0.245
-165.837	-120.201	-0.240	-0.041
-164.823	34.176	-0.225	-0.194
-163.808	-0.615	0.081	-0.057
-162.793	60.238	0.356	-0.349
-161.779	-36.982	0.052	-0.028
-160.764	-132.269	-0.242	-0.031
-159.750	-200.000	0.026	0.215
-158.735	800.000	0.015	-0.050
-157.720	-200.000	-0.020	-0.098
-156.706	-15.405	-0.172	0.109
-155.691	68.278	-0.172	-0.175
-154.677	-200.000	-0.026	-0.173
-153.662	275.640	0.093	-0.163
-152.647	-200.000	0.050	-0.314
-151.633	11.208	0.178	-0.135
-150.618	376.715	0.079	-0.160
-149.604	-51.176	-0.188	0.087
-148.589	-200.000	0.091	-0.450
-147.574	-123.963	0.087	-0.014
-146.560	204.739	-0.042	-0.065
-145.545	-83.807	0.150	0.047
-144.531	578.036	0.102	0.247
-143.516	-66.424	-0.354	-0.139
-142.502	800.000	-0.101	0.293
-141.487	18.754	-0.183	-0.145
-140.472	-19.809	0.261	-0.160
-139.458	800.000	0.109	0.345
-138.443	228.399	0.122	0.198
-137.429	-200.000	0.031	0.444
-136.414	39.906	-0.102	0.091
-135.399	-61.309	0.104	-0.044
-134.385	800.000	-0.158	0.448
-133.370	643.775	0.058	0.146
-132.356	-200.000	-0.023	-0.295
-131.341	-43.597	-0.315	0.157
-130.326	241.282	-0.095	-0.157
-129.312	-200.000	0.012	0.119
-128.297	3.228	0.202	-0.145
-127.283	-200.000	-0.077	0.353
-126.268	-130.017	0.143	-0.019
-125.253	-92.206	0.117	0.033
-124.239	-104.934	0.368	0.084
-123.224	-127.454	-0.405	-0.058
-122.210	800.000	0.019	-0.060
-121.195	-98.391	0.219	0.056
