DTS Sentinel unit serial number:	SN413079Multiplexer serial number:	ORYXHardware model number:	OX4-SRSoftware version number:	ORYX F/W v4.00 Oryx Data Collector v3.7.2.0data status	okinstallation	princeton_trtdifferential loss correction	single-endedforward channel	channel 4reverse channel	N/Adate	2019/09/17time	13:17:35forward acquisition time	60.00reverse acquisition time	0.00gamma	496.2192k internal	0.2300k external	0.2300temperature offset calibration	0.9985default loss term (dB/km)	0.3790temperature slope calibration	1.0000multiplexer offset coefficient	1.0000multiplexer slope coefficient	1.0000fibre end	0.00T internal ref (°C)	34.11T ext. ref 1 (°C)	0.41T ext. ref 2 (°C)	31.47length (m)	temperature (°C)	Stokes	anti-Stokes-747.200	-58.835	-0.231	-0.102
-746.185	281.888	-0.085	0.156
-745.171	800.000	0.060	-0.199
-744.156	-200.000	-0.003	0.257
-743.142	367.910	0.108	-0.224
-742.127	236.017	-0.062	0.104
-741.112	96.767	-0.129	0.151
-740.098	-200.000	-0.008	0.234
-739.083	85.307	-0.269	0.301
-738.069	50.512	0.064	0.061
-737.054	-200.000	-0.001	0.035
-736.039	4.462	-0.267	-0.200
-735.025	106.402	0.327	0.395
-734.010	-117.567	-0.318	-0.059
-732.996	-9.607	0.080	0.054
-731.981	800.000	-0.055	0.213
-730.966	-93.712	-0.117	0.033
-729.952	-200.000	0.006	-0.333
-728.937	-200.000	-0.030	-0.161
-727.923	-80.973	-0.134	-0.045
-726.908	21.247	0.131	-0.109
-725.894	534.955	0.103	0.250
-724.879	-67.460	-0.466	-0.186
-723.864	454.512	0.209	-0.472
-722.850	-119.886	0.012	0.002
-721.835	-134.064	-0.175	0.022
-720.821	-10.902	-0.256	0.172
-719.806	214.793	0.229	-0.370
-718.791	800.000	-0.085	-0.295
-717.777	-15.722	-0.163	-0.106
-716.762	78.971	-0.097	-0.105
-715.748	365.892	-0.091	-0.187
-714.733	-200.000	0.040	-0.323
-713.718	588.496	-0.028	-0.072
-712.704	606.349	-0.131	0.333
-711.689	0.825	-0.077	-0.056
-710.675	800.000	-0.062	-0.211
-709.660	-111.124	-0.264	0.055
-708.645	-57.945	0.157	0.070
-707.631	800.000	0.033	0.116
-706.616	-92.963	-0.124	-0.035
-705.602	-117.204	0.224	-0.042
-704.587	-67.265	0.161	-0.065
-703.572	344.736	-0.144	-0.289
-702.558	800.000	0.109	0.394
-701.543	-108.359	-0.298	-0.065
-700.529	26.925	0.219	0.187
-699.514	224.553	0.009	-0.015
-698.499	-21.370	-0.151	-0.094
-697.485	407.334	0.088	-0.189
-696.470	249.396	0.107	0.185
-695.456	38.878	0.133	0.121
-694.441	-137.809	-0.110	0.013
-693.426	-147.773	0.232	0.020
-692.412	-200.000	-0.012	0.167
-691.397	-136.859	-0.214	0.025
-690.383	-87.941	0.385	-0.118
-689.368	-190.709	0.118	0.001
-688.354	-200.000	0.029	0.250
-687.339	-200.000	-0.016	-0.238
-686.324	800.000	0.104	0.314
-685.310	42.577	-0.170	-0.158
-684.295	-41.404	-0.310	-0.163
-683.281	73.512	0.062	-0.066
-682.266	800.000	0.090	-0.296
-681.251	-135.797	-0.304	0.037
-680.237	44.499	0.158	-0.148
-679.222	485.842	0.099	-0.230
-678.208	-200.000	-0.007	-0.215
-677.193	305.987	-0.131	0.247
-676.178	-200.000	-0.004	-0.232
-675.164	-38.401	0.178	-0.096
-674.149	-83.026	0.345	-0.113
-673.135	67.514	-0.093	-0.096
-672.120	-110.682	-0.112	-0.024
-671.105	-200.000	-0.018	-0.156
-670.091	273.440	0.132	-0.238
-669.076	31.508	0.255	-0.223
-668.062	204.884	-0.074	-0.117
-667.047	119.508	0.046	0.057
-666.032	-124.702	0.185	-0.029
-665.018	-200.000	-0.018	0.156
-664.003	-62.729	0.089	0.038
-662.989	-47.707	-0.264	-0.130
-661.974	800.000	0.053	0.182
-660.959	13.400	-0.200	-0.158
-659.945	800.000	0.079	-0.231
-658.930	-200.000	0.032	0.223
-657.916	67.942	-0.160	-0.167
-656.901	345.896	0.088	0.175
-655.886	-95.794	0.224	0.061
-654.872	443.163	0.065	-0.145
-653.857	15.910	-0.236	0.188
-652.843	497.816	-0.177	0.414
-651.828	623.432	0.093	0.238
-650.814	73.120	-0.138	-0.147
-649.799	-106.284	0.202	0.046
-648.784	-129.983	0.252	0.035
-647.770	-129.371	-0.261	-0.037
-646.755	361.027	-0.120	0.244
-645.741	-96.224	0.281	0.076
-644.726	-30.148	0.235	0.136
-643.711	-21.339	0.191	-0.119
-642.697	-150.190	0.053	-0.004
-641.682	263.360	0.081	0.143
-640.668	219.901	0.073	0.118
-639.653	-36.823	0.080	-0.044
-638.638	140.979	-0.203	0.273
-637.624	-8.389	0.127	0.087
-636.609	152.045	-0.185	0.256
-635.595	-35.797	0.035	0.019
-634.580	-128.321	0.150	-0.022
-633.565	800.000	-0.024	-0.105
-632.551	333.781	-0.071	-0.140
-631.536	800.000	-0.046	-0.162
-630.522	-11.130	-0.029	-0.019
-629.507	-93.935	0.236	-0.066
-628.492	-34.143	0.050	0.028
-627.478	-88.409	0.354	-0.107
-626.463	-130.009	0.435	-0.060
-625.449	69.707	0.063	0.066
-624.434	-127.246	-0.180	-0.027
-623.419	-124.377	-0.358	0.057
-622.405	8.935	-0.173	0.133
-621.390	-1.323	-0.066	0.047
-620.376	680.339	0.020	0.054
-619.361	-152.062	-0.173	-0.013
-618.346	-24.263	-0.064	-0.039
-617.332	-3.759	0.239	0.169
-616.317	406.913	-0.153	-0.329
-615.303	-200.000	-0.074	0.349
-614.288	-72.288	-0.365	0.137
-613.273	-33.817	-0.193	-0.108
-612.259	181.471	0.089	-0.132
-611.244	57.543	-0.173	-0.172
-610.230	208.014	0.191	-0.302
-609.215	-122.139	-0.087	0.014
-608.201	-200.000	0.002	-0.152
-607.186	-200.000	0.148	0.001
-606.171	-36.888	-0.197	-0.107
-605.157	197.014	-0.132	-0.205
-604.142	54.051	-0.096	-0.094
-603.128	124.945	0.036	-0.046
-602.113	800.000	0.036	-0.119
-601.098	374.382	0.024	-0.050
-600.084	387.786	0.079	0.165
-599.069	170.225	-0.130	0.188
-598.055	470.516	0.010	0.023
-597.040	-8.102	-0.332	-0.227
-596.025	561.188	0.107	0.262
-595.011	-52.023	0.174	0.082
-593.996	-200.000	-0.137	0.853
-592.982	-43.878	-0.178	-0.091
-591.967	-137.318	0.365	-0.042
-590.952	-71.556	0.169	0.064
-589.938	173.598	-0.031	0.045
-588.923	-3.426	-0.122	-0.086
-587.909	-63.229	-0.411	0.172
-586.894	113.767	0.108	0.134
-585.879	259.555	0.102	-0.179
-584.865	-55.506	-0.132	-0.060
-583.850	-200.000	0.032	-0.198
-582.836	453.694	-0.106	-0.239
-581.821	143.992	-0.173	-0.234
-580.806	-161.109	0.158	-0.008
-579.792	177.290	-0.225	0.333
-578.777	-81.374	0.083	0.028
-577.763	-200.000	-0.019	-0.288
-576.748	-118.041	0.275	0.050
-575.733	-180.906	0.300	-0.006
-574.719	86.918	0.141	-0.158
-573.704	-200.000	0.016	-0.115
-572.690	-55.913	0.362	0.164
-571.675	644.935	-0.112	0.291
-570.661	285.201	0.051	0.093
-569.646	800.000	0.025	-0.105
-568.631	-200.000	-0.042	-0.237
-567.617	-200.000	0.047	0.233
-566.602	-115.096	-0.110	0.021
-565.588	-52.878	0.178	0.083
-564.573	69.177	0.295	0.308
-563.558	-200.000	0.015	0.229
-562.544	800.000	-0.051	0.151
-561.529	-48.771	-0.325	0.158
-560.515	636.645	-0.057	0.147
-559.500	-126.668	0.080	-0.012
-558.485	161.932	-0.169	-0.239
-557.471	213.106	0.055	-0.088
-556.456	800.000	-0.018	-0.055
-555.442	-137.941	0.246	0.028
-554.427	307.748	-0.118	-0.223
-553.412	-65.623	0.212	-0.086
-552.398	-33.012	0.178	0.100
-551.383	-82.852	-0.493	0.161
-550.369	-200.000	-0.016	0.397
-549.354	-200.000	-0.031	-0.510
-548.339	-97.103	-0.225	0.060
-547.325	205.405	0.151	-0.237
-546.310	800.000	-0.058	0.193
-545.296	121.000	0.026	0.032
-544.281	73.811	-0.204	-0.217
-543.266	800.000	0.031	0.099
-542.252	457.212	-0.050	0.112
-541.237	-58.038	0.181	-0.080
-540.223	800.000	-0.082	0.332
-539.208	-200.000	-0.009	-0.181
-538.193	279.771	-0.178	-0.321
-537.179	188.780	0.077	0.116
-536.164	-56.488	0.236	-0.106
-535.150	-57.147	0.323	0.144
-534.135	-200.000	-0.002	0.249
-533.121	-141.416	0.426	-0.044
-532.106	-88.698	-0.306	0.092
-531.091	-68.227	-0.103	-0.041
-530.077	357.960	-0.111	0.224
-529.062	-178.358	0.129	0.003
-528.048	-127.143	-0.191	-0.028
-527.033	374.133	-0.104	0.213
-526.018	-200.000	-0.017	-0.235
-525.004	-200.000	-0.011	-0.270
-523.989	191.415	-0.207	0.316
-522.975	-84.266	-0.175	-0.056
-521.960	-124.842	-0.218	0.034
-520.945	-200.000	0.012	0.246
-519.931	-200.000	-0.020	-0.280
-518.916	-73.194	-0.346	0.128
-517.902	213.741	0.130	-0.208
-516.887	-192.043	-0.252	0.002
-515.872	-108.939	-0.272	-0.059
-514.858	-200.000	0.029	0.176
-513.843	61.764	0.056	-0.056
-512.829	-73.450	-0.172	-0.064
-511.814	-200.000	-0.034	-0.199
-510.799	364.222	-0.027	-0.054
-509.785	290.605	-0.085	-0.157
-508.770	88.057	0.115	-0.128
-507.756	287.910	-0.064	0.117
-506.741	35.619	-0.232	0.206
-505.726	126.089	-0.140	-0.179
-504.712	-197.488	0.368	0.002
-503.697	800.000	0.026	-0.107
-502.683	-200.000	0.012	0.063
-501.668	-92.269	0.165	0.047
-500.653	800.000	0.057	0.209
-499.639	-200.000	0.006	-0.095
-498.624	800.000	-0.082	0.260
-497.610	-61.030	-0.203	0.087
-496.595	800.000	0.023	0.089
-495.581	-122.549	-0.108	0.018
-494.566	30.428	0.088	0.076
-493.551	466.820	0.060	-0.136
-492.537	-71.017	-0.280	0.106
-491.522	-124.472	0.476	0.075
-490.508	177.092	0.144	0.211
-489.493	-190.483	0.289	-0.003
-488.478	194.177	-0.091	-0.139
-487.464	-200.000	0.033	-0.148
-486.449	171.842	-0.114	-0.166
-485.435	-75.364	-0.135	0.049
-484.420	-132.895	-0.034	0.004
-483.405	121.489	-0.052	-0.066
-482.391	-56.899	-0.107	0.048
-481.376	105.360	-0.135	-0.161
-480.362	-200.000	0.032	-0.422
-479.347	74.858	0.107	-0.114
-478.332	763.256	0.156	-0.427
-477.318	-200.000	0.020	0.354
-476.303	-200.000	-0.006	-0.567
-475.289	20.773	0.152	0.124
-474.274	-98.037	0.206	0.053
-473.259	800.000	-0.092	-0.351
-472.245	-200.000	-0.029	-0.165
-471.230	164.562	-0.056	0.080
-470.216	-200.000	0.026	0.243
-469.201	689.768	0.100	0.265
-468.186	-123.104	0.209	0.034
-467.172	-47.483	0.381	-0.187
-466.157	-37.075	0.140	0.076
-465.143	643.732	-0.144	0.371
-464.128	9.642	-0.458	0.350
-463.113	800.000	0.053	-0.210
-462.099	-200.000	0.012	0.204
-461.084	131.498	0.152	-0.197
-460.070	-25.290	0.083	0.049
-459.055	275.540	-0.051	-0.092
-458.040	344.648	-0.064	0.127
-457.026	10.736	-0.123	-0.094
-456.011	11.295	0.175	0.135
-454.997	-60.717	0.076	0.033
-453.982	-147.113	-0.317	-0.027
-452.968	63.474	-0.165	-0.167
-451.953	-200.000	-0.010	0.072
-450.938	800.000	-0.039	0.116
-449.924	654.313	0.105	-0.271
-448.909	800.000	0.052	-0.180
-447.895	-200.000	0.015	-0.255
-446.880	800.000	0.028	-0.120
-445.865	-200.000	0.035	0.185
-444.851	800.000	0.034	0.097
-443.836	11.200	-0.157	0.121
-442.822	-23.247	0.125	-0.076
-441.807	392.473	-0.113	-0.236
-440.792	-35.631	-0.446	0.244
-439.778	222.501	-0.050	-0.080
-438.763	-78.176	-0.384	0.133
-437.749	262.276	0.181	0.316
-436.734	-123.592	0.351	-0.056
-435.719	279.693	-0.096	0.173
-434.705	-200.000	-0.047	0.371
-433.690	-42.924	-0.026	0.013
-432.676	176.403	0.092	0.134
-431.661	-55.349	0.462	0.209
-430.646	202.984	0.108	-0.168
-429.632	-200.000	0.036	0.162
-428.617	-200.000	0.025	0.170
-427.603	51.579	-0.178	-0.171
-426.588	800.000	-0.013	0.053
-425.573	-200.000	-0.025	-0.129
-424.559	-200.000	0.013	-0.078
-423.544	277.627	0.072	-0.129
-422.530	66.911	0.341	-0.350
-421.515	180.120	0.294	-0.434
-420.500	-134.423	0.367	0.045
-419.486	541.794	-0.083	-0.199
-418.471	-200.000	0.014	0.333
-417.457	-200.000	-0.001	0.178
-416.442	-94.094	0.317	-0.088
-415.428	165.857	0.153	-0.218
-414.413	353.008	0.080	-0.160
-413.398	-25.879	0.311	-0.184
-412.384	-93.760	-0.338	0.094
-411.369	-200.000	0.031	0.248
-410.355	-148.233	0.278	0.023
-409.340	233.152	0.115	-0.190
-408.325	-43.367	-0.285	-0.145
-407.311	800.000	-0.006	-0.025
-406.296	-17.250	0.173	0.110
-405.282	-200.000	0.003	0.029
-404.267	226.406	-0.224	0.366
-403.252	20.315	0.142	-0.116
-402.238	347.335	0.094	-0.187
-401.223	-200.000	-0.015	0.099
-400.209	708.857	-0.108	0.287
-399.194	-60.081	0.379	0.163
-398.179	159.189	-0.062	-0.086
-397.165	184.801	0.095	0.142
-396.150	191.953	0.134	0.203
-395.136	160.147	0.124	0.173
-394.121	-200.000	0.005	0.301
-393.106	-200.000	0.027	0.336
-392.092	78.285	0.171	0.184
-391.077	66.949	-0.139	-0.142
-390.063	221.515	0.074	0.120
-389.048	-16.874	0.094	0.060
-388.033	-200.000	0.026	0.146
-387.019	591.024	-0.196	-0.486
-386.004	468.572	0.092	-0.209
-384.990	-27.173	0.263	-0.154
-383.975	128.830	-0.084	-0.108
-382.960	-5.688	-0.183	-0.126
-381.946	163.556	-0.237	-0.335
-380.931	180.726	0.062	-0.092
-379.917	-58.554	0.280	0.122
-378.902	395.383	-0.146	-0.306
-377.888	439.816	-0.027	-0.060
-376.873	30.056	0.120	0.103
-375.858	800.000	0.052	-0.206
-374.844	-60.562	-0.102	0.044
-373.829	-56.629	0.254	0.113
-372.815	-200.000	-0.010	-0.106
-371.800	-200.000	-0.008	0.088
-370.785	-155.030	-0.424	0.028
-369.771	-52.534	0.327	-0.152
-368.756	46.243	0.063	0.059
-367.742	-75.574	-0.366	-0.131
-366.727	-45.870	-0.039	0.019
-365.712	-200.000	0.020	0.395
-364.698	324.105	0.051	-0.099
-363.683	53.574	-0.315	-0.303
-362.669	469.189	-0.196	0.442
-361.654	118.132	-0.113	0.140
-360.639	218.668	0.131	0.210
-359.625	-66.140	-0.173	-0.069
-358.610	441.650	0.026	-0.057
-357.596	116.582	-0.148	0.182
-356.581	800.000	0.012	0.040
-355.566	-61.793	0.082	-0.034
-354.552	9.290	-0.321	0.243
-353.537	70.760	-0.097	-0.101
-352.523	-200.000	-0.005	-0.125
-351.508	-200.000	0.060	-0.266
-350.493	509.278	0.030	-0.070
-349.479	55.451	0.173	-0.168
-348.464	87.727	0.161	-0.179
-347.450	73.569	-0.233	0.245
-346.435	800.000	0.073	-0.221
-345.420	-200.000	0.001	-0.240
-344.406	2.993	-0.374	-0.273
-343.391	45.922	-0.149	0.139
-342.377	-200.000	0.047	-0.247
-341.362	99.595	-0.078	0.091
-340.348	87.581	-0.068	-0.076
-339.333	-200.000	0.037	-0.237
-338.318	5.739	-0.425	-0.316
-337.304	-122.930	0.198	-0.032
-336.289	-64.540	0.424	0.173
-335.275	-115.122	-0.152	-0.029
-334.260	-83.543	-0.208	0.067
-333.245	97.087	0.203	0.234
-332.231	800.000	0.077	-0.222
-331.216	42.865	-0.074	-0.068
-330.202	800.000	0.027	-0.116
-329.187	-200.000	-0.012	-0.261
-328.172	-30.680	0.364	-0.207
-327.158	20.135	0.151	0.122
-326.143	29.998	-0.200	-0.171
-325.129	-6.098	0.042	0.029
-324.114	-200.000	0.054	0.377
-323.099	-119.118	-0.240	0.042
-322.085	-121.964	-0.256	0.042
-321.070	-18.653	-0.127	-0.079
-320.056	-122.621	0.144	0.024
-319.041	19.843	0.126	0.102
-318.026	267.910	-0.163	0.287
-317.012	-90.846	0.128	0.037
-315.997	800.000	0.126	-0.410
-314.983	62.455	0.116	-0.116
-313.968	-80.929	0.161	-0.054
-312.953	656.474	-0.097	0.249
-311.939	-91.038	0.253	0.073
-310.924	-200.000	-0.023	0.134
-309.910	-86.536	-0.266	-0.082
-308.895	49.896	0.026	-0.025
-307.880	-200.000	0.031	0.193
-306.866	309.524	-0.052	0.097
-305.851	-145.410	0.216	-0.019
-304.837	-120.816	-0.109	0.018
-303.822	-200.000	0.030	-0.190
-302.807	-133.925	0.223	-0.028
-301.793	-58.680	0.391	-0.170
-300.778	98.846	-0.055	-0.063
-299.764	-65.223	-0.187	0.076
-298.749	-67.619	-0.171	-0.067
-297.735	-200.000	-0.013	-0.300
-296.720	18.664	0.185	-0.149
-295.705	716.312	0.045	-0.119
-294.691	-92.318	0.329	-0.093
-293.676	-100.625	0.236	-0.058
-292.662	-163.489	-0.291	-0.014
-291.647	72.246	-0.255	0.266
-290.632	133.049	0.089	0.115
-289.618	-136.540	-0.315	0.037
-288.603	-200.000	-0.020	0.147
-287.589	71.968	-0.175	-0.183
-286.574	-7.852	0.429	0.290
-285.559	241.028	0.173	-0.289
-284.545	21.202	-0.016	-0.013
-283.530	99.275	-0.151	0.175
-282.516	-133.665	-0.252	0.032
-281.501	44.569	-0.069	-0.063
-280.486	-16.305	-0.056	-0.036
-279.472	36.792	-0.113	-0.100
-278.457	-110.403	0.060	0.013
-277.443	121.570	0.058	-0.073
-276.428	-44.465	0.095	0.048
-275.413	139.531	-0.067	0.088
-274.399	-106.149	-0.326	0.073
-273.384	163.734	-0.127	0.179
-272.370	33.377	0.053	-0.046
-271.355	9.102	0.123	0.093
-270.340	-33.704	-0.090	-0.050
-269.326	21.338	0.050	-0.040
-268.311	800.000	0.096	-0.337
-267.297	2.207	-0.193	0.140
-266.282	142.558	-0.116	-0.154
-265.267	-95.080	-0.214	0.058
-264.253	261.419	-0.172	0.298
-263.238	-136.294	0.277	0.032
-262.224	300.394	0.054	-0.100
-261.209	-85.246	-0.170	-0.053
-260.195	59.314	0.065	0.064
-259.180	-115.782	0.350	0.066
-258.165	282.986	-0.081	-0.145
-257.151	38.866	0.059	0.053
-256.136	254.907	0.163	0.280
-255.122	93.490	-0.151	0.171
-254.107	800.000	0.043	-0.145
-253.092	440.508	0.085	-0.186
-252.078	-77.166	-0.334	-0.116
-251.063	-200.000	0.046	-0.229
-250.049	-98.654	0.083	-0.021
-249.034	178.004	0.081	-0.119
-248.019	604.000	-0.112	0.278
-247.005	-156.478	0.308	-0.019
-245.990	-21.393	0.181	-0.111
-244.976	419.736	-0.050	0.108
-243.961	-200.000	-0.032	-0.322
-242.946	666.414	0.218	0.562
-241.932	-200.000	-0.032	-0.173
-240.917	-200.000	0.016	-0.142
-239.903	205.032	-0.048	-0.075
-238.888	270.605	0.075	0.131
-237.873	-179.452	-0.117	-0.003
-236.859	56.119	0.211	-0.204
-235.844	-150.496	0.110	0.008
-234.830	-95.890	-0.239	0.064
-233.815	3.696	0.170	-0.124
-232.800	197.188	0.258	-0.393
-231.786	-38.955	0.016	-0.009
-230.771	-168.381	-0.195	0.008
-229.757	-91.651	-0.161	-0.046
-228.742	-135.458	-0.341	0.041
-227.727	-13.049	0.305	-0.198
-226.713	-150.295	-0.245	-0.019
-225.698	-76.752	-0.085	-0.030
-224.684	203.324	-0.053	0.082
-223.669	15.894	0.037	-0.029
-222.655	44.819	-0.069	0.064
-221.640	-37.890	-0.121	0.064
-220.625	-18.883	0.145	0.090
-219.611	254.604	0.018	0.031
-218.596	-180.262	0.151	-0.003
-217.582	-105.417	0.325	0.074
-216.567	-139.120	0.171	0.018
-215.552	275.448	0.009	-0.017
-214.538	-28.629	-0.253	-0.146
-213.523	-200.000	0.032	0.175
-212.509	380.193	-0.047	0.096
-211.494	784.335	-0.056	0.153
-210.479	79.246	0.106	-0.114
-209.465	-118.976	-0.075	0.013
-208.450	-59.357	-0.239	0.103
-207.436	-115.327	0.312	0.059
-206.421	24.038	-0.084	0.069
-205.406	-64.493	0.151	0.061
-204.392	707.469	-0.153	-0.403
-203.377	234.530	-0.066	-0.108
-202.363	413.904	0.026	0.055
-201.348	668.715	-0.119	-0.306
-200.333	22.033	-0.108	-0.088
-199.319	59.506	0.135	0.133
-198.304	-200.000	0.004	0.177
-197.290	-123.480	0.162	0.026
-196.275	-108.340	0.227	-0.049
-195.260	-107.531	-0.393	0.086
-194.246	800.000	-0.026	0.080
-193.231	203.181	0.154	-0.238
-192.217	800.000	0.077	0.217
-191.202	506.418	0.081	0.187
-190.187	194.534	0.099	-0.150
-189.173	-41.842	-0.353	-0.181
-188.158	-148.858	0.142	-0.011
-187.144	-59.651	-0.243	0.104
-186.129	167.986	0.084	-0.119
-185.114	-200.000	0.023	0.178
-184.100	104.337	-0.061	0.071
-183.085	-55.208	0.401	0.180
-182.071	203.647	-0.219	0.337
-181.056	58.637	0.046	0.045
-180.042	-200.000	0.035	-0.234
-179.027	281.793	-0.199	-0.356
-178.012	150.226	-0.093	0.126
-176.998	800.000	0.051	0.206
-175.983	-200.000	0.020	0.384
-174.969	254.471	-0.093	0.158
-173.954	-76.836	-0.267	0.093
-172.939	800.000	-0.076	-0.259
-171.925	405.648	-0.076	0.159
-170.910	-144.134	-0.274	-0.026
-169.896	-200.000	-0.001	0.280
-168.881	-153.794	-0.101	0.007
-167.866	800.000	-0.036	-0.124
-166.852	-95.380	0.303	-0.081
-165.837	-85.767	-0.030	0.009
-164.823	-200.000	0.008	-0.173
-163.808	95.915	-0.331	-0.377
-162.793	-200.000	-0.060	0.375
-161.779	-83.491	-0.278	0.089
-160.764	-84.995	-0.501	0.157
-159.750	-91.449	0.155	-0.044
-158.735	71.039	0.178	0.183
-157.720	-16.170	0.004	0.003
-156.706	203.089	0.116	-0.179
-155.691	800.000	0.036	0.116
-154.677	484.228	-0.101	0.230
-153.662	710.395	0.028	0.073
-152.647	-200.000	-0.022	-0.297
-151.633	83.752	0.108	-0.117
-150.618	232.801	0.108	0.177
-149.604	-200.000	0.050	0.284
-148.589	800.000	-0.077	0.216
-147.574	-71.624	0.122	0.045
-146.560	-200.000	0.005	0.050
-145.545	-167.186	-0.218	-0.009
-144.531	29.335	-0.124	-0.105
-143.516	-111.579	0.198	-0.040
-142.502	-35.210	0.301	0.163
-141.487	-87.909	-0.205	0.061
-140.472	800.000	0.062	0.186
-139.458	-43.739	-0.197	0.099
-138.443	800.000	-0.093	-0.290
-137.429	53.023	0.064	0.061
-136.414	-32.638	-0.120	-0.067
-135.399	28.073	0.144	-0.121
-134.385	-38.913	-0.082	0.043
-133.370	182.391	0.135	-0.198
-132.356	300.035	0.124	-0.228
-131.341	-200.000	-0.066	0.320
-130.326	-165.082	0.250	0.011
-129.312	-10.391	0.257	0.170
-128.297	602.289	0.060	0.148
-127.283	-112.238	0.219	0.044
-126.268	-9.805	0.073	-0.049
-125.253	800.000	-0.029	-0.115
-124.239	800.000	0.051	-0.208
-123.224	800.000	0.083	-0.358
-122.210	-83.452	-0.240	-0.077
-121.195	-76.844	-0.300	0.105
