DTS Sentinel unit serial number:	SN413079Multiplexer serial number:	ORYXHardware model number:	OX4-SRSoftware version number:	ORYX F/W v4.00 Oryx Data Collector v3.7.2.0data status	okinstallation	princeton_trtdifferential loss correction	single-endedforward channel	channel 4reverse channel	N/Adate	2019/09/13time	22:45:35forward acquisition time	60.00reverse acquisition time	0.00gamma	496.2192k internal	0.2321k external	0.2321temperature offset calibration	1.0136default loss term (dB/km)	0.3790temperature slope calibration	1.0000multiplexer offset coefficient	1.0000multiplexer slope coefficient	1.0000fibre end	0.00T internal ref (°C)	27.56T ext. ref 1 (°C)	3.21T ext. ref 2 (°C)	21.63length (m)	temperature (°C)	Stokes	anti-Stokes-747.200	-200.000	0.004	0.095
-746.185	179.035	0.050	-0.074
-745.171	800.000	0.034	0.122
-744.156	-200.000	0.028	0.143
-743.142	184.684	-0.017	-0.025
-742.127	33.333	-0.114	0.100
-741.112	-112.995	0.202	0.040
-740.098	-153.831	-0.285	0.020
-739.083	-92.692	0.203	-0.058
-738.069	-106.366	0.181	0.041
-737.054	26.632	-0.216	-0.183
-736.039	-200.000	-0.001	-0.172
-735.025	-46.169	-0.254	-0.126
-734.010	-135.378	0.419	-0.051
-732.996	-40.359	0.196	0.103
-731.981	17.676	0.071	-0.057
-730.966	800.000	-0.031	-0.114
-729.952	800.000	0.076	-0.321
-728.937	76.088	-0.132	-0.141
-727.923	-37.942	-0.191	0.102
-726.908	41.243	-0.092	0.084
-725.894	39.217	0.101	-0.091
-724.879	-200.000	-0.037	0.193
-723.864	-44.710	-0.185	-0.093
-722.850	-28.161	0.390	-0.228
-721.835	-69.785	-0.341	0.132
-720.821	-94.049	0.410	-0.114
-719.806	-65.129	-0.078	0.032
-718.791	-113.256	0.288	0.057
-717.777	572.309	0.036	0.089
-716.762	-200.000	-0.012	-0.126
-715.748	-82.761	-0.300	0.098
-714.733	48.902	-0.065	0.062
-713.718	324.263	-0.193	0.372
-712.704	-200.000	-0.038	0.181
-711.689	-200.000	0.009	0.122
-710.675	21.148	0.033	-0.027
-709.660	-103.128	-0.091	0.022
-708.645	115.055	-0.162	0.199
-707.631	-196.003	-0.166	-0.001
-706.616	234.032	0.176	0.292
-705.602	-142.718	0.156	-0.015
-704.587	-167.541	-0.292	0.012
-703.572	-200.000	-0.011	0.063
-702.558	-191.556	0.342	0.003
-701.543	-44.543	0.284	-0.143
-700.529	-200.000	0.039	-0.214
-699.514	-58.822	-0.352	-0.154
-698.499	274.956	0.138	-0.247
-697.485	-200.000	0.040	0.213
-696.470	-200.000	-0.003	0.391
-695.456	800.000	-0.065	0.260
-694.441	233.142	0.194	-0.322
-693.426	-138.596	-0.138	0.015
-692.412	-133.228	0.136	-0.017
-691.397	800.000	-0.032	-0.131
-690.383	110.245	0.137	-0.166
-689.368	-200.000	-0.020	-0.220
-688.354	534.461	-0.104	-0.248
-687.339	3.966	-0.295	-0.217
-686.324	-13.643	0.063	-0.041
-685.310	46.626	0.111	-0.103
-684.295	-30.907	0.252	-0.143
-683.281	-28.859	0.135	-0.078
-682.266	135.345	-0.125	-0.164
-681.251	-53.465	-0.273	0.126
-680.237	800.000	-0.085	0.242
-679.222	-200.000	0.024	-0.266
-678.208	-200.000	-0.010	0.212
-677.193	-55.304	-0.171	-0.077
-676.178	-50.470	0.221	-0.105
-675.164	800.000	0.084	0.368
-674.149	557.063	0.083	-0.201
-673.135	-136.120	0.152	0.018
-672.120	-172.238	-0.077	-0.002
-671.105	-200.000	-0.062	-0.289
-670.091	21.037	0.293	-0.240
-669.076	-106.616	-0.066	-0.015
-668.062	-105.168	-0.215	0.050
-667.047	-200.000	-0.108	-0.540
-666.032	-200.000	0.073	-0.351
-665.018	153.957	0.121	-0.167
-664.003	533.879	-0.151	-0.361
-662.989	-200.000	-0.012	0.074
-661.974	323.930	0.111	-0.214
-660.959	-47.217	0.161	-0.079
-659.945	-126.844	-0.152	0.023
-658.930	238.468	-0.062	0.103
-657.916	-200.000	0.014	0.073
-656.901	139.476	0.067	0.088
-655.886	-200.000	-0.007	-0.071
-654.872	-126.990	0.373	-0.055
-653.857	554.715	0.134	0.325
-652.843	736.103	-0.145	0.390
-651.828	-200.000	-0.054	-0.237
-650.814	31.037	0.121	0.105
-649.799	-51.977	0.163	0.076
-648.784	41.804	0.023	-0.021
-647.770	24.946	-0.065	0.054
-646.755	115.525	0.127	-0.156
-645.741	72.163	0.170	0.178
-644.726	-114.056	0.281	0.055
-643.711	228.941	0.086	-0.141
-642.697	29.512	-0.101	0.087
-641.682	33.479	0.060	-0.053
-640.668	244.323	-0.134	-0.226
-639.653	533.321	0.099	0.236
-638.638	375.434	-0.164	-0.337
-637.624	-49.531	0.453	-0.217
-636.609	670.355	-0.028	-0.073
-635.595	-130.647	0.180	-0.024
-634.580	-122.001	-0.198	-0.033
-633.565	-7.529	0.116	0.079
-632.551	-126.822	-0.485	0.072
-631.536	-110.721	0.014	-0.003
-630.522	577.734	-0.073	-0.180
-629.507	367.687	0.069	-0.140
-628.492	19.411	-0.308	0.249
-627.478	154.738	0.101	-0.140
-626.463	-200.000	0.029	-0.297
-625.449	-15.412	0.184	-0.118
-624.434	4.323	-0.195	0.144
-623.419	800.000	0.055	-0.194
-622.405	84.335	0.075	-0.082
-621.390	-200.000	0.006	0.236
-620.376	138.982	0.079	0.105
-619.361	800.000	-0.006	0.020
-618.346	-200.000	0.301	0.001
-617.332	-61.173	-0.129	-0.055
-616.317	-54.877	0.100	-0.046
-615.303	800.000	0.016	0.045
-614.288	93.684	0.108	-0.123
-613.273	363.650	-0.123	0.248
-612.259	132.230	0.120	0.156
-611.244	-80.948	-0.180	-0.060
-610.230	20.432	-0.057	-0.047
-609.215	-158.382	-0.275	0.016
-608.201	21.757	0.056	-0.046
-607.186	-85.950	-0.313	0.097
-606.171	394.843	0.166	0.347
-605.157	800.000	-0.086	-0.275
-604.142	30.926	-0.096	0.082
-603.128	-28.644	0.211	0.122
-602.113	176.193	-0.165	-0.241
-601.098	-6.652	-0.097	0.066
-600.084	-16.910	-0.222	0.141
-599.069	-200.000	0.000	0.153
-598.055	181.479	0.263	0.388
-597.040	800.000	0.042	0.119
-596.025	9.231	-0.202	0.153
-595.011	800.000	-0.024	0.087
-593.996	201.419	0.141	-0.218
-592.982	800.000	-0.103	0.330
-591.967	-200.000	-0.000	-0.034
-590.952	800.000	-0.068	-0.279
-589.938	202.766	0.096	-0.149
-588.923	-200.000	0.006	-0.053
-587.909	66.113	0.072	0.074
-586.894	152.886	-0.085	0.117
-585.879	800.000	-0.021	-0.067
-584.865	-200.000	-0.013	-0.160
-583.850	-44.543	-0.114	-0.057
-582.836	-200.000	0.010	-0.084
-581.821	-74.746	0.017	0.006
-580.806	80.728	0.057	-0.062
-579.792	-82.436	-0.455	0.148
-578.777	466.128	-0.077	0.172
-577.763	34.526	-0.148	0.130
-576.748	407.446	0.072	-0.152
-575.733	-115.431	-0.226	-0.043
-574.719	205.397	0.170	-0.265
-573.704	94.828	0.131	0.149
-572.690	-150.245	-0.093	-0.007
-571.675	16.962	-0.151	0.120
-570.661	11.391	-0.144	-0.110
-569.646	-56.058	0.264	-0.118
-568.631	-200.000	-0.011	0.163
-567.617	12.562	0.171	-0.133
-566.602	193.155	-0.172	-0.261
-565.588	195.352	-0.102	-0.155
-564.573	-180.145	0.089	-0.002
-563.558	136.501	0.188	-0.247
-562.544	592.592	0.096	0.238
-561.529	-47.543	0.370	0.181
-560.515	-8.077	-0.099	0.067
-559.500	451.289	0.086	-0.191
-558.485	721.966	-0.013	-0.035
-557.471	-178.025	-0.087	0.002
-556.456	-134.054	-0.140	0.017
-555.442	183.355	0.117	-0.174
-554.427	-72.547	-0.079	-0.029
-553.412	-3.613	0.269	-0.188
-552.398	-200.000	-0.076	-0.366
-551.383	800.000	-0.038	0.164
-550.369	-105.559	-0.224	-0.051
-549.354	513.415	-0.083	-0.193
-548.339	582.479	-0.068	0.167
-547.325	800.000	0.001	0.004
-546.310	-8.207	0.083	-0.056
-545.296	-173.691	0.168	-0.005
-544.281	28.824	0.232	-0.197
-543.266	44.535	0.126	-0.116
-542.252	-200.000	-0.010	0.254
-541.237	-50.582	-0.254	0.120
-540.223	209.668	-0.128	0.202
-539.208	279.233	-0.070	0.126
-538.193	-200.000	0.029	0.180
-537.179	10.596	-0.095	0.072
-536.164	-18.947	-0.277	-0.173
-535.150	-60.257	0.366	0.156
-534.135	41.753	-0.116	-0.105
-533.121	-80.968	-0.197	-0.065
-532.106	-200.000	-0.040	0.245
-531.091	-73.472	0.381	0.139
-530.077	-43.042	-0.188	-0.096
-529.062	-200.000	0.016	-0.472
-528.048	64.413	-0.098	-0.099
-527.033	-95.462	0.069	-0.019
-526.018	205.182	0.111	0.173
-525.004	63.697	0.104	0.104
-523.989	16.170	0.260	-0.205
-522.975	-26.454	0.242	0.142
-521.960	-200.000	-0.008	0.096
-520.945	800.000	0.052	0.184
-519.931	800.000	-0.015	-0.062
-518.916	519.782	-0.137	0.321
-517.902	383.856	-0.018	0.038
-516.887	260.683	-0.182	0.315
-515.872	-48.539	-0.143	-0.069
-514.858	-200.000	0.208	-0.001
-513.843	160.961	-0.191	-0.267
-512.829	-200.000	-0.013	-0.103
-511.814	-1.611	-0.244	0.172
-510.799	686.777	0.047	-0.123
-509.785	145.715	0.067	-0.090
-508.770	-31.762	0.168	0.094
-507.756	258.627	-0.067	0.116
-506.741	319.675	0.030	0.056
-505.726	-126.042	0.351	0.053
-504.712	-170.592	0.064	-0.002
-503.697	-89.108	-0.236	-0.070
-502.683	800.000	-0.113	-0.330
-501.668	214.683	0.141	0.224
-500.653	800.000	0.151	0.434
-499.639	-200.000	-0.013	0.166
-498.624	-200.000	0.003	-0.132
-497.610	189.684	-0.137	-0.206
-496.595	-200.000	-0.027	-0.165
-495.581	155.123	0.093	0.128
-494.566	-200.000	-0.193	0.000
-493.551	727.860	-0.152	-0.406
-492.537	-105.285	0.349	-0.080
-491.522	-200.000	0.000	-0.215
-490.508	309.082	0.193	0.361
-489.493	-86.644	-0.318	0.097
-488.478	29.618	0.126	0.107
-487.464	-22.614	-0.299	-0.181
-486.449	800.000	-0.132	-0.425
-485.435	-132.546	-0.105	-0.013
-484.420	394.381	0.096	0.201
-483.405	-48.037	-0.375	0.181
-482.391	-188.824	-0.206	-0.003
-481.376	800.000	-0.034	-0.115
-480.362	-200.000	0.007	-0.220
-479.347	288.933	-0.098	0.179
-478.332	-200.000	0.039	-0.304
-477.318	235.178	0.150	-0.248
-476.303	-87.469	0.234	0.071
-475.289	-200.000	-0.018	0.274
-474.274	-128.462	0.054	0.008
-473.259	296.204	0.040	0.074
-472.245	694.374	-0.202	-0.531
-471.230	71.129	-0.098	-0.102
-470.216	-6.010	-0.355	0.243
-469.201	800.000	0.081	0.251
-468.186	-86.840	0.164	-0.050
-467.172	-55.415	-0.243	-0.109
-466.157	-162.868	0.228	-0.011
-465.143	-200.000	0.029	-0.192
-464.128	-126.435	0.187	0.028
-463.113	-92.453	-0.160	-0.045
-462.099	-200.000	-0.023	0.131
-461.084	-47.498	0.065	-0.031
-460.070	-200.000	0.007	-0.114
-459.055	8.767	-0.059	0.045
-458.040	83.326	-0.155	-0.168
-457.026	9.426	0.218	0.165
-456.011	-55.037	0.154	0.069
-454.997	64.810	0.061	0.062
-453.982	800.000	-0.048	-0.187
-452.968	-78.283	-0.095	-0.033
-451.953	-85.418	-0.180	-0.056
-450.938	-200.000	0.008	-0.038
-449.924	-97.505	-0.063	-0.016
-448.909	102.202	0.211	0.247
-447.895	-31.858	0.097	0.054
-446.880	-90.651	-0.170	0.049
-445.865	-200.000	-0.014	0.126
-444.851	-54.129	0.139	0.063
-443.836	-136.642	-0.204	-0.024
-442.822	-104.276	-0.162	-0.037
-441.807	-111.807	-0.082	0.017
-440.792	-200.000	-0.001	-0.194
-439.778	87.667	-0.354	0.391
-438.763	170.022	-0.038	0.055
-437.749	-52.890	0.095	0.044
-436.734	-200.000	-0.019	-0.198
-435.719	800.000	-0.119	-0.422
-434.705	632.244	-0.156	-0.395
-433.690	-200.000	0.047	-0.296
-432.676	-140.291	-0.103	0.011
-431.661	-97.977	-0.196	0.051
-430.646	-120.417	0.230	-0.039
-429.632	-0.328	-0.290	0.206
-428.617	-59.835	0.241	0.103
-427.603	-134.491	0.199	0.024
-426.588	34.571	0.050	-0.044
-425.573	-85.507	-0.147	0.046
-424.559	456.107	-0.059	-0.130
-423.544	800.000	0.078	0.289
-422.530	-76.192	-0.054	0.019
-421.515	-200.000	-0.019	-0.125
-420.500	688.881	-0.033	-0.086
-419.486	-200.000	-0.024	0.220
-418.471	576.134	0.041	-0.100
-417.457	125.298	-0.242	-0.305
-416.442	155.088	0.254	-0.348
-415.428	800.000	0.046	-0.195
-414.413	-200.000	0.006	0.171
-413.398	-50.889	0.146	0.069
-412.384	-99.328	0.164	0.041
-411.369	671.485	-0.012	-0.030
-410.355	-200.000	-0.044	0.203
-409.340	133.111	-0.104	0.134
-408.325	-200.000	0.038	0.227
-407.311	213.125	0.282	0.445
-406.296	-200.000	0.024	0.354
-405.282	-157.267	0.280	-0.017
-404.267	558.794	-0.111	0.266
-403.252	-132.061	0.191	0.025
-402.238	525.279	0.140	-0.329
-401.223	-200.000	-0.007	0.339
-400.209	-74.325	-0.306	0.110
-399.194	-81.987	-0.104	-0.034
-398.179	128.580	-0.130	0.165
-397.165	-54.881	-0.299	0.135
-396.150	75.281	0.142	0.149
-395.136	723.404	-0.157	0.417
-394.121	800.000	0.111	0.362
-393.106	36.132	-0.029	0.025
-392.092	51.627	0.134	-0.127
-391.077	145.522	-0.104	0.139
-390.063	62.748	0.222	0.221
-389.048	-200.000	-0.003	0.166
-388.033	-15.031	0.219	0.140
-387.019	16.113	0.294	-0.231
-386.004	110.465	0.308	-0.369
-384.990	152.477	-0.110	-0.150
-383.975	-200.000	0.042	0.361
-382.960	800.000	-0.039	-0.153
-381.946	-200.000	-0.066	0.297
-380.931	-200.000	-0.006	0.116
-379.917	48.730	-0.112	-0.105
-378.902	323.762	-0.128	0.243
-377.888	361.327	-0.064	0.128
-376.873	-37.779	0.151	0.080
-375.858	461.343	-0.132	-0.293
-374.844	10.098	-0.089	-0.068
-373.829	-72.901	-0.226	-0.083
-372.815	-167.898	-0.235	-0.009
-371.800	32.123	0.178	-0.153
-370.785	113.417	0.218	0.264
-369.771	84.635	0.134	-0.146
-368.756	36.486	-0.187	-0.164
-367.742	-58.476	-0.213	-0.092
-366.727	371.432	-0.177	0.358
-365.712	-156.351	-0.484	-0.030
-364.698	-97.501	0.195	-0.051
-363.683	-147.236	0.311	-0.026
-362.669	345.079	0.020	0.039
-361.654	-200.000	-0.036	-0.225
-360.639	800.000	-0.013	-0.049
-359.625	146.257	-0.145	-0.194
-358.610	-30.070	0.336	-0.190
-357.596	101.092	0.061	-0.070
-356.581	7.803	0.012	0.009
-355.566	31.193	0.091	0.078
-354.552	800.000	-0.028	0.083
-353.537	-200.000	0.001	0.106
-352.523	108.202	0.181	0.215
-351.508	235.718	-0.373	0.613
-350.493	-75.262	0.040	0.014
-349.479	291.424	0.106	-0.191
-348.464	800.000	-0.079	-0.250
-347.450	-99.025	0.177	-0.045
-346.435	48.802	0.079	-0.074
-345.420	-97.672	-0.357	0.092
-344.406	-129.766	-0.289	-0.040
-343.391	-123.755	0.249	-0.039
-342.377	-22.894	0.308	0.185
-341.362	-30.214	-0.183	0.103
-340.348	151.141	0.139	0.188
-339.333	-200.000	-0.088	0.412
-338.318	-118.804	-0.216	-0.038
-337.304	-188.623	-0.141	-0.002
-336.289	-33.517	-0.183	-0.100
-335.275	38.992	0.067	0.060
-334.260	800.000	-0.064	0.219
-333.245	21.560	0.107	-0.087
-332.231	-100.164	-0.112	-0.028
-331.216	-200.000	0.041	-0.225
-330.202	78.220	-0.170	-0.180
-329.187	-55.757	-0.240	0.107
-328.172	-200.000	-0.027	0.232
-327.158	-58.033	0.058	-0.025
-326.143	406.855	-0.083	0.174
-325.129	113.706	0.131	0.159
-324.114	-37.144	-0.314	-0.167
-323.099	-69.078	-0.280	0.107
-322.085	8.420	-0.056	0.042
-321.070	241.137	-0.199	-0.330
-320.056	-64.982	0.254	0.102
-319.041	-125.370	-0.301	0.046
-318.026	625.922	0.157	-0.394
-317.012	7.720	0.105	0.078
-315.997	773.930	-0.064	0.173
-314.983	-18.608	-0.206	-0.128
-313.968	-200.000	0.028	-0.213
-312.953	800.000	-0.033	0.119
-311.939	103.427	-0.277	-0.323
-310.924	800.000	0.056	-0.233
-309.910	800.000	0.046	-0.148
-308.895	48.984	-0.073	0.068
-307.880	-55.994	-0.102	-0.045
-306.866	-150.268	0.125	-0.010
-305.851	-44.166	0.185	-0.092
-304.837	-90.950	0.091	-0.026
-303.822	-24.902	0.145	-0.085
-302.807	-96.052	0.234	0.062
-301.793	124.959	0.177	0.222
-300.778	-200.000	0.004	0.064
-299.764	-92.121	-0.427	-0.120
-298.749	-200.000	-0.003	0.246
-297.735	800.000	-0.032	-0.091
-296.720	-200.000	0.007	-0.279
-295.705	-31.182	0.065	0.036
-294.691	-200.000	0.013	-0.375
-293.676	-200.000	-0.026	-0.194
-292.662	398.593	-0.150	0.312
-291.647	-106.861	0.145	0.032
-290.632	-119.039	0.324	-0.056
-289.618	381.006	0.169	0.345
-288.603	113.626	0.064	0.077
-287.589	-15.712	0.207	0.131
-286.574	79.535	-0.175	0.186
-285.559	800.000	-0.078	-0.270
-284.545	-200.000	-0.015	-0.136
-283.530	243.081	-0.072	-0.120
-282.516	209.391	0.097	0.150
-281.501	-61.240	0.228	-0.095
-280.486	-200.000	-0.012	-0.071
-279.472	-200.000	-0.013	0.462
-278.457	-97.903	-0.154	0.039
-277.443	13.651	-0.145	-0.111
-276.428	15.708	0.182	0.142
-275.413	-74.618	-0.192	0.069
-274.399	170.683	0.222	0.315
-273.384	201.827	0.054	-0.082
-272.370	251.443	0.098	0.166
-271.355	87.901	0.111	0.122
-270.340	-178.140	0.327	-0.008
-269.326	-200.000	0.043	-0.280
-268.311	800.000	0.077	0.222
-267.297	59.751	-0.118	-0.115
-266.282	-155.322	-0.337	0.022
-265.267	-200.000	-0.004	-0.134
-264.253	21.860	0.093	-0.075
-263.238	-200.000	-0.004	0.159
-262.224	-69.794	-0.082	0.031
-261.209	682.246	-0.064	0.165
-260.195	256.445	0.236	-0.402
-259.180	145.029	-0.037	-0.050
-258.165	800.000	0.116	-0.396
-257.151	-40.347	0.135	-0.070
-256.136	78.168	0.198	-0.210
-255.122	800.000	-0.031	0.118
-254.107	-200.000	-0.047	-0.428
-253.092	67.529	0.124	-0.126
-252.078	-3.511	-0.082	0.057
-251.063	53.611	-0.048	-0.045
-250.049	-200.000	-0.051	0.268
-249.034	-47.419	0.110	0.053
-248.019	-200.000	0.046	-0.276
-247.005	174.259	-0.096	0.138
-245.990	-99.264	-0.057	-0.014
-244.976	-146.440	-0.128	-0.011
-243.961	-51.348	0.197	-0.091
-242.946	10.863	0.031	0.023
-241.932	-121.178	-0.186	-0.031
-240.917	-200.000	0.003	0.074
-239.903	273.087	0.135	-0.236
-238.888	224.145	0.073	0.117
-237.873	-116.288	0.159	0.029
-236.859	-80.179	-0.414	-0.137
-235.844	-200.000	-0.009	-0.103
-234.830	800.000	-0.038	0.124
-233.815	148.739	0.144	0.193
-232.800	-200.000	-0.028	0.167
-231.786	186.219	-0.029	0.042
-230.771	-56.190	-0.214	0.094
-229.757	-103.420	-0.274	-0.064
-228.742	-81.193	0.068	0.022
-227.727	-194.732	0.281	-0.002
-226.713	800.000	0.069	0.214
-225.698	800.000	-0.043	0.166
-224.684	-91.348	0.351	0.099
-223.669	177.639	-0.019	-0.027
-222.655	535.417	-0.117	0.275
-221.640	121.528	-0.125	0.154
-220.625	800.000	0.077	-0.311
-219.611	800.000	0.077	-0.320
-218.596	-200.000	-0.009	-0.236
-217.582	23.713	0.141	-0.115
-216.567	217.347	-0.068	0.108
-215.552	24.677	0.306	0.251
-214.538	-74.992	-0.138	0.049
-213.523	-133.236	0.444	0.055
-212.509	-3.329	-0.354	-0.244
-211.494	-33.729	-0.333	-0.182
-210.479	465.214	0.049	0.109
-209.465	0.889	-0.597	0.423
-208.450	-159.653	0.208	-0.011
-207.436	-57.460	0.173	0.075
-206.421	-200.000	-0.014	0.139
-205.406	-200.000	-0.020	0.262
-204.392	800.000	-0.083	0.318
-203.377	45.358	0.213	-0.195
-202.363	-92.838	0.313	-0.087
-201.348	600.553	-0.145	-0.356
-200.333	701.445	-0.154	-0.402
-199.319	783.225	-0.017	-0.046
-198.304	-200.000	-0.025	-0.377
-197.290	-200.000	0.034	-0.220
-196.275	666.076	0.056	-0.144
-195.260	379.876	0.146	-0.297
-194.246	800.000	-0.026	-0.073
-193.231	-200.000	0.036	-0.237
-192.217	-127.759	0.228	-0.033
-191.202	-200.000	0.005	0.298
-190.187	50.653	0.212	0.199
-189.173	-132.149	0.092	-0.012
-188.158	267.889	0.207	-0.358
-187.144	247.772	0.131	0.220
-186.129	-14.918	0.155	0.099
-185.114	509.808	-0.114	0.262
-184.100	446.720	-0.105	0.229
-183.085	54.427	0.214	0.204
-182.071	10.660	0.157	-0.118
-181.056	800.000	-0.073	0.270
-180.042	606.216	-0.133	0.327
-179.027	65.960	0.138	0.138
-178.012	-27.686	-0.097	-0.056
-176.998	-174.686	0.268	-0.008
-175.983	-82.020	0.131	-0.042
-174.969	-32.276	0.105	-0.058
-173.954	272.551	-0.294	-0.513
-172.939	52.100	-0.321	-0.302
-171.925	-200.000	0.020	-0.259
-170.910	123.660	0.218	-0.270
-169.896	800.000	0.046	0.159
-168.881	2.029	-0.240	0.171
-167.866	-84.690	-0.204	-0.064
-166.852	800.000	0.044	-0.159
-165.837	166.881	0.066	-0.093
-164.823	100.814	-0.039	-0.045
-163.808	628.067	-0.113	0.281
-162.793	150.165	0.101	-0.135
-161.779	62.186	-0.109	-0.108
-160.764	-143.233	0.185	0.018
-159.750	-200.000	0.013	0.068
-158.735	800.000	-0.118	0.414
-157.720	-103.804	0.289	-0.067
-156.706	-155.237	0.324	-0.021
-155.691	46.578	-0.165	0.151
-154.677	800.000	-0.032	-0.112
-153.662	360.126	0.064	0.126
-152.647	-200.000	-0.017	-0.094
-151.633	800.000	0.083	-0.245
-150.618	-170.660	-0.354	-0.012
-149.604	-47.058	-0.192	-0.092
-148.589	800.000	-0.066	0.186
-147.574	189.177	0.227	-0.336
-146.560	-200.000	-0.002	-0.136
-145.545	800.000	0.005	-0.018
-144.531	-200.000	0.019	-0.157
-143.516	-200.000	-0.008	-0.183
-142.502	-111.535	0.108	-0.022
-141.487	182.543	0.035	-0.050
-140.472	717.449	-0.048	0.126
-139.458	-200.000	0.235	0.000
-138.443	-16.928	-0.105	-0.065
-137.429	-118.089	0.271	-0.048
-136.414	-102.807	-0.114	-0.027
-135.399	146.296	0.182	-0.241
-134.385	357.228	-0.065	-0.127
-133.370	-200.000	-0.002	0.159
-132.356	3.997	-0.114	-0.082
-131.341	459.808	-0.040	-0.087
-130.326	-81.200	-0.276	-0.090
-129.312	-200.000	-0.131	0.000
-128.297	-26.173	0.193	0.112
-127.283	105.715	-0.195	-0.228
-126.268	219.131	-0.030	-0.048
-125.253	30.746	-0.037	0.031
-124.239	-200.000	0.021	0.232
-123.224	-123.634	0.151	0.024
-122.210	371.135	-0.117	0.235
