DTS Sentinel unit serial number:	SN413079Multiplexer serial number:	ORYXHardware model number:	OX4-SRSoftware version number:	ORYX F/W v4.00 Oryx Data Collector v3.7.2.0data status	okinstallation	princeton_trtdifferential loss correction	single-endedforward channel	channel 4reverse channel	N/Adate	2019/09/10time	23:15:10forward acquisition time	60.00reverse acquisition time	0.00gamma	496.2192k internal	0.2316k external	0.2316temperature offset calibration	0.9951default loss term (dB/km)	0.3790temperature slope calibration	1.0000multiplexer offset coefficient	1.0000multiplexer slope coefficient	1.0000fibre end	0.00T internal ref (°C)	29.87T ext. ref 1 (°C)	-0.30T ext. ref 2 (°C)	23.54length (m)	temperature (°C)	Stokes	anti-Stokes-747.200	76.629	-0.060	-0.065
-746.185	-128.689	-0.210	0.030
-745.171	-126.313	-0.184	-0.028
-744.156	-146.729	0.027	0.002
-743.142	104.431	-0.066	-0.078
-742.127	-9.352	-0.239	-0.161
-741.112	-148.243	0.328	-0.027
-740.098	242.353	0.073	-0.124
-739.083	-7.865	-0.114	-0.078
-738.069	-107.211	0.119	0.027
-737.054	349.023	-0.135	0.269
-736.039	384.023	0.094	0.197
-735.025	-200.000	0.041	-0.231
-734.010	49.172	0.140	-0.133
-732.996	-123.780	-0.426	-0.068
-731.981	800.000	-0.073	0.229
-730.966	134.796	0.139	-0.183
-729.952	-92.507	0.176	0.050
-728.937	-66.232	-0.299	0.120
-727.923	-68.462	-0.248	0.098
-726.908	-89.953	0.112	-0.033
-725.894	-200.000	0.020	-0.099
-724.879	-59.957	0.060	-0.026
-723.864	-75.178	0.085	-0.031
-722.850	-166.027	-0.136	-0.006
-721.835	688.751	0.119	-0.315
-720.821	-120.421	0.218	-0.037
-719.806	374.274	-0.188	0.388
-718.791	-171.562	0.201	0.007
-717.777	-200.000	0.067	-0.408
-716.762	56.450	0.173	-0.171
-715.748	-50.273	-0.353	-0.169
-714.733	5.045	-0.264	-0.196
-713.718	213.031	-0.164	-0.262
-712.704	-200.000	0.060	-0.364
-711.689	-200.000	0.003	-0.124
-710.675	283.474	0.125	-0.228
-709.660	-4.127	0.352	-0.247
-708.645	-200.000	0.024	-0.114
-707.631	392.816	-0.036	0.077
-706.616	14.229	-0.025	-0.020
-705.602	167.002	-0.078	-0.112
-704.587	-200.000	-0.035	-0.213
-703.572	-78.034	0.546	-0.190
-702.558	-54.368	-0.181	-0.083
-701.543	248.571	-0.071	0.122
-700.529	303.053	-0.098	0.184
-699.514	-200.000	-0.015	-0.171
-698.499	209.524	0.104	-0.164
-697.485	-110.065	0.424	-0.090
-696.470	-181.314	0.197	-0.004
-695.456	657.395	-0.023	0.060
-694.441	114.868	-0.346	0.427
-693.426	-200.000	0.028	0.195
-692.412	-81.307	0.072	-0.024
-691.397	38.231	-0.135	-0.121
-690.383	-40.128	0.094	-0.049
-689.368	-200.000	-0.027	0.121
-688.354	-32.371	-0.211	-0.119
-687.339	-200.000	0.042	-0.270
-686.324	152.344	0.178	-0.246
-685.310	-32.549	-0.137	-0.077
-684.295	-138.191	0.115	-0.013
-683.281	15.237	0.158	0.125
-682.266	386.739	-0.090	-0.187
-681.251	-200.000	-0.197	0.001
-680.237	-83.927	-0.159	0.051
-679.222	800.000	-0.047	-0.179
-678.208	-200.000	-0.045	-0.261
-677.193	-200.000	0.026	-0.177
-676.178	-93.115	0.155	0.043
-675.164	118.413	0.232	0.289
-674.149	-67.628	-0.067	0.027
-673.135	800.000	0.031	0.115
-672.120	800.000	0.041	0.162
-671.105	-57.302	0.043	0.019
-670.091	-123.940	0.110	0.018
-669.076	-50.649	-0.105	0.050
-668.062	-16.468	-0.098	0.063
-667.047	40.356	-0.067	0.061
-666.032	-200.000	0.025	0.194
-665.018	-48.922	-0.128	-0.062
-664.003	455.411	-0.027	0.061
-662.989	-200.000	-0.001	-0.083
-661.974	208.077	-0.067	-0.105
-660.959	337.546	-0.077	-0.150
-659.945	-200.000	0.035	0.239
-658.930	-124.414	-0.509	-0.080
-657.916	-5.432	-0.110	0.076
-656.901	-71.264	0.138	0.052
-655.886	-101.352	-0.236	-0.058
-654.872	-82.848	0.117	0.038
-653.857	355.682	-0.179	-0.360
-652.843	800.000	0.085	-0.279
-651.828	-200.000	-0.057	-0.258
-650.814	-48.467	-0.091	0.044
-649.799	-200.000	-0.005	-0.284
-648.784	115.699	0.057	-0.071
-647.770	-200.000	-0.002	0.015
-646.755	-153.284	-0.202	0.014
-645.741	-33.782	-0.102	-0.057
-644.726	57.072	-0.091	-0.090
-643.711	-148.139	-0.161	0.013
-642.697	-52.282	-0.243	0.113
-641.682	-123.999	-0.012	0.002
-640.668	800.000	-0.136	0.412
-639.653	-102.839	0.014	0.003
-638.638	-39.502	0.303	-0.160
-637.624	224.922	-0.141	-0.231
-636.609	38.330	-0.180	0.162
-635.595	112.822	-0.183	-0.223
-634.580	101.247	-0.122	-0.143
-633.565	160.464	-0.100	-0.140
-632.551	16.999	0.063	0.051
-631.536	-118.211	-0.178	0.032
-630.522	-156.595	-0.211	-0.013
-629.507	-200.000	0.026	0.224
-628.492	95.860	0.167	0.193
-627.478	-73.722	-0.108	-0.040
-626.463	48.875	0.201	0.190
-625.449	-59.649	0.280	-0.121
-624.434	-161.829	-0.142	-0.007
-623.419	246.735	-0.073	0.124
-622.405	-14.002	0.226	0.147
-621.390	119.783	0.177	-0.221
-620.376	617.213	0.063	-0.160
-619.361	117.666	-0.249	-0.309
-618.346	800.000	0.012	-0.045
-617.332	734.672	-0.046	-0.125
-616.317	800.000	-0.081	0.227
-615.303	116.748	-0.247	0.305
-614.288	33.190	0.038	0.033
-613.273	-200.000	0.099	0.459
-612.259	-81.526	-0.169	-0.056
-611.244	-130.842	-0.235	-0.032
-610.230	-28.037	-0.139	-0.081
-609.215	154.166	0.104	-0.143
-608.201	-200.000	-0.024	0.238
-607.186	-200.000	0.003	0.018
-606.171	-200.000	0.023	-0.173
-605.157	644.318	-0.117	-0.302
-604.142	-63.125	0.099	-0.041
-603.128	800.000	-0.116	-0.341
-602.113	-79.292	0.328	-0.112
-601.098	5.241	-0.142	-0.105
-600.084	-200.000	0.082	0.400
-599.069	143.913	-0.094	-0.126
-598.055	-64.538	0.353	0.145
-597.040	-200.000	-0.029	0.228
-596.025	800.000	-0.048	-0.133
-595.011	-71.430	0.176	-0.066
-593.996	-1.880	-0.115	-0.082
-592.982	-79.131	0.143	0.049
-591.967	-160.131	0.306	0.017
-590.952	-137.943	-0.267	0.030
-589.938	130.995	-0.165	0.213
-588.923	-16.278	-0.331	0.212
-587.909	11.460	-0.062	-0.048
-586.894	43.227	-0.128	-0.118
-585.879	-69.271	-0.279	-0.108
-584.865	-23.725	0.171	0.103
-583.850	96.365	0.074	0.086
-582.836	21.438	0.130	0.106
-581.821	74.441	-0.143	0.151
-580.806	800.000	0.158	-0.605
-579.792	11.210	0.268	-0.206
-578.777	24.570	-0.124	-0.103
-577.763	564.383	0.064	-0.157
-576.748	32.854	-0.333	-0.290
-575.733	-123.229	0.109	-0.018
-574.719	-115.545	-0.146	0.028
-573.704	97.437	-0.177	0.205
-572.690	123.109	0.140	-0.177
-571.675	-72.814	-0.451	0.167
-570.661	517.344	-0.066	0.156
-569.646	-114.225	0.438	-0.085
-568.631	143.565	-0.119	0.159
-567.617	-200.000	0.037	-0.435
-566.602	-7.218	0.024	-0.017
-565.588	26.161	-0.105	-0.088
-564.573	-200.000	-0.048	0.316
-563.558	6.669	0.075	-0.056
-562.544	-200.000	0.051	0.253
-561.529	-33.720	-0.097	-0.054
-560.515	136.841	0.176	-0.231
-559.500	-61.941	-0.259	0.109
-558.485	381.431	-0.137	0.283
-557.471	83.543	0.172	-0.188
-556.456	-133.348	0.228	-0.029
-555.442	-146.831	-0.346	-0.030
-554.427	-16.979	0.056	0.035
-553.412	-200.000	0.014	0.233
-552.398	49.804	-0.272	0.257
-551.383	800.000	-0.068	-0.222
-550.369	-200.000	-0.034	-0.215
-549.354	256.672	-0.056	0.097
-548.339	-54.806	0.139	-0.063
-547.325	155.273	-0.126	-0.174
-546.310	78.959	-0.482	0.519
-545.296	-96.609	-0.197	0.052
-544.281	-160.520	0.327	0.018
-543.266	481.874	-0.082	0.186
-542.252	11.428	-0.084	0.065
-541.237	-146.348	-0.281	0.025
-540.223	-79.094	-0.193	-0.066
-539.208	-200.000	-0.063	-0.764
-538.193	-44.660	-0.061	0.030
-537.179	45.712	-0.391	0.363
-536.164	800.000	-0.052	-0.187
-535.150	200.522	-0.030	-0.046
-534.135	499.484	0.088	-0.204
-533.121	190.552	-0.115	-0.173
-532.106	-173.723	-0.393	0.012
-531.091	-39.784	-0.060	-0.031
-530.077	625.906	-0.080	0.202
-529.062	-33.492	-0.291	-0.162
-528.048	34.363	0.137	-0.120
-527.033	800.000	-0.034	-0.121
-526.018	-151.768	0.240	0.018
-525.004	-71.582	0.134	-0.050
-523.989	7.984	-0.299	0.225
-522.975	-184.398	0.092	-0.002
-521.960	-200.000	0.006	-0.092
-520.945	-164.531	0.205	-0.009
-519.931	171.739	0.186	-0.268
-518.916	800.000	0.052	-0.189
-517.902	-200.000	0.017	0.308
-516.887	-200.000	-0.005	-0.056
-515.872	-159.434	-0.197	0.011
-514.858	-52.994	0.208	0.096
-513.843	15.720	0.089	0.070
-512.829	158.031	0.138	-0.192
-511.814	-5.671	-0.109	-0.075
-510.799	385.874	0.015	0.031
-509.785	740.611	-0.017	0.046
-508.770	-39.948	-0.236	0.124
-507.756	800.000	0.078	0.261
-506.741	-117.759	-0.088	0.016
-505.726	45.390	-0.030	0.028
-504.712	79.688	0.221	-0.238
-503.697	460.569	0.033	-0.074
-502.683	293.796	-0.019	-0.034
-501.668	759.620	-0.158	-0.430
-500.653	800.000	-0.066	-0.189
-499.639	204.604	-0.139	0.216
-498.624	-110.675	0.054	0.011
-497.610	-200.000	-0.025	0.220
-496.595	800.000	-0.055	-0.172
-495.581	-200.000	0.009	0.049
-494.566	800.000	0.050	-0.171
-493.551	-61.333	0.470	0.199
-492.537	800.000	-0.073	0.242
-491.522	-106.162	-0.052	-0.012
-490.508	-200.000	-0.045	0.300
-489.493	151.745	-0.163	-0.223
-488.478	-93.130	-0.123	0.034
-487.464	366.490	0.107	0.217
-486.449	-200.000	0.002	0.296
-485.435	-153.388	-0.211	0.015
-484.420	-37.774	-0.338	-0.180
-483.405	-143.791	0.157	0.015
-482.391	92.940	-0.147	0.167
-481.376	-200.000	-0.040	0.396
-480.362	-200.000	-0.077	-0.354
-479.347	-169.689	-0.521	0.019
-478.332	800.000	0.036	-0.142
-477.318	-200.000	0.049	0.255
-476.303	-57.981	0.276	-0.121
-475.289	800.000	-0.029	0.118
-474.274	-44.477	-0.061	-0.031
-473.259	13.949	0.235	-0.183
-472.245	-78.170	0.099	-0.034
-471.230	-200.000	0.004	0.156
-470.216	266.765	0.228	0.399
-469.201	-200.000	-0.042	-0.223
-468.186	142.963	-0.243	-0.323
-467.172	482.538	-0.103	-0.235
-466.157	664.919	0.065	0.169
-465.143	34.618	0.190	-0.167
-464.128	-200.000	0.011	-0.222
-463.113	-9.465	0.173	-0.115
-462.099	23.979	-0.160	-0.132
-461.084	-54.059	0.653	0.298
-460.070	-200.000	-0.032	0.143
-459.055	283.871	0.108	-0.194
-458.040	-200.000	0.059	0.421
-457.026	140.216	0.073	0.096
-456.011	-64.038	0.202	-0.082
-454.997	800.000	0.042	-0.122
-453.982	-38.045	-0.238	0.126
-452.968	800.000	0.090	-0.340
-451.953	85.982	0.041	0.045
-450.938	337.748	-0.071	-0.139
-449.924	-60.946	0.254	-0.107
-448.909	-27.645	-0.263	-0.153
-447.895	156.797	0.206	-0.285
-446.880	639.710	0.120	0.305
-445.865	131.635	0.154	0.198
-444.851	-51.704	0.192	-0.089
-443.836	-5.624	-0.169	0.116
-442.822	-65.088	0.016	0.006
-441.807	800.000	-0.078	0.256
-440.792	26.574	0.215	0.180
-439.778	800.000	0.106	-0.364
-438.763	-200.000	-0.002	0.095
-437.749	297.182	-0.047	-0.087
-436.734	-107.359	-0.406	0.089
-435.719	-82.187	-0.452	-0.148
-434.705	285.116	0.093	0.167
-433.690	-126.237	-0.366	-0.055
-432.676	-200.000	-0.033	0.144
-431.661	-35.307	0.259	-0.141
-430.646	-170.197	0.308	-0.011
-429.632	-200.000	0.037	0.269
-428.617	381.620	-0.059	0.121
-427.603	-33.549	0.266	0.147
-426.588	-200.000	-0.023	0.336
-425.573	-150.299	0.179	-0.014
-424.559	-200.000	-0.001	-0.058
-423.544	129.122	0.070	0.090
-422.530	91.731	-0.185	0.208
-421.515	-41.997	0.320	-0.164
-420.500	307.453	0.233	-0.435
-419.486	-127.710	-0.471	-0.068
-418.471	-200.000	-0.016	0.134
-417.457	-45.143	0.184	0.092
-416.442	-200.000	0.028	-0.507
-415.428	-200.000	-0.005	-0.211
-414.413	729.241	0.037	0.098
-413.398	312.132	0.142	-0.267
-412.384	-92.546	0.337	-0.095
-411.369	-41.650	-0.132	-0.068
-410.355	-98.781	-0.073	-0.019
-409.340	-200.000	-0.023	0.240
-408.325	800.000	0.081	-0.257
-407.311	333.366	0.116	0.225
-406.296	-200.000	0.003	-0.204
-405.282	-106.674	0.197	-0.044
-404.267	-142.388	-0.263	0.026
-403.252	-200.000	0.009	-0.217
-402.238	-71.366	0.107	-0.040
-401.223	352.168	0.094	-0.186
-400.209	8.321	0.085	-0.064
-399.194	-137.016	-0.270	-0.031
-398.179	-17.261	0.133	-0.084
-397.165	-109.122	-0.388	0.082
-396.150	488.176	0.113	0.258
-395.136	-200.000	-0.005	0.390
-394.121	-74.535	-0.321	0.116
-393.106	106.437	-0.199	-0.236
-392.092	-200.000	-0.002	0.146
-391.077	567.521	0.031	0.076
-390.063	-79.556	-0.203	-0.069
-389.048	-200.000	0.007	-0.038
-388.033	-50.395	-0.085	-0.040
-387.019	-177.067	-0.124	0.003
-386.004	532.657	-0.122	-0.288
-384.990	-34.586	0.222	0.121
-383.975	187.332	-0.095	0.142
-382.960	-91.488	-0.033	-0.010
-381.946	237.675	-0.105	0.173
-380.931	95.463	0.288	0.328
-379.917	-99.348	-0.140	-0.035
-378.902	100.968	-0.272	0.316
-377.888	800.000	-0.053	-0.214
-376.873	56.213	-0.088	-0.085
-375.858	123.316	0.142	0.178
-374.844	-200.000	0.024	0.170
-373.829	-92.519	0.128	0.036
-372.815	-54.508	-0.271	0.123
-371.800	800.000	-0.095	-0.343
-370.785	-116.162	0.202	0.037
-369.771	800.000	-0.021	-0.076
-368.756	195.807	0.119	-0.180
-367.742	800.000	0.054	0.166
-366.727	-88.477	0.196	0.058
-365.712	32.971	-0.248	-0.215
-364.698	13.615	-0.288	-0.223
-363.683	9.092	-0.040	-0.030
-362.669	55.438	-0.337	-0.326
-361.654	-182.171	-0.345	-0.006
-360.639	434.471	-0.027	-0.059
-359.625	144.202	-0.125	-0.167
-358.610	-12.872	0.221	-0.143
-357.596	458.977	0.081	-0.180
-356.581	352.065	0.012	0.023
-355.566	59.573	0.083	0.082
-354.552	-62.394	0.390	-0.162
-353.537	728.345	-0.077	-0.206
-352.523	567.008	0.126	-0.305
-351.508	144.054	-0.101	-0.134
-350.493	16.234	0.085	0.067
-349.479	800.000	0.018	0.076
-348.464	-136.864	0.192	-0.022
-347.450	-200.000	-0.064	0.340
-346.435	-200.000	0.002	-0.286
-345.420	-110.683	0.163	-0.034
-344.406	-99.252	-0.265	0.067
-343.391	-200.000	-0.024	-0.190
-342.377	153.127	0.215	-0.293
-341.362	-165.889	-0.203	0.009
-340.348	123.480	0.084	-0.105
-339.333	-107.741	-0.167	-0.036
-338.318	202.423	0.079	0.122
-337.304	-200.000	0.002	0.156
-336.289	86.796	-0.146	0.160
-335.275	-200.000	0.007	-0.249
-334.260	181.928	0.020	0.030
-333.245	-117.902	0.137	-0.025
-332.231	-130.894	-0.221	0.029
-331.216	322.726	-0.269	-0.510
-330.202	800.000	0.144	-0.604
-329.187	-163.568	-0.241	-0.011
-328.172	46.745	0.067	-0.062
-327.158	-172.554	0.125	0.004
-326.143	-129.430	0.397	-0.055
-325.129	-200.000	0.021	-0.227
-324.114	49.649	0.262	-0.246
-323.099	14.998	0.195	0.152
-322.085	-105.864	0.032	0.007
-321.070	-76.329	0.424	0.149
-320.056	-45.094	-0.291	-0.144
-319.041	-111.134	0.150	0.031
-318.026	800.000	0.034	-0.125
-317.012	800.000	-0.042	0.173
-315.997	93.211	-0.208	0.235
-314.983	800.000	0.071	0.295
-313.968	-165.746	-0.117	0.005
-312.953	58.750	0.138	-0.135
-311.939	130.632	0.118	0.150
-310.924	-118.316	0.028	-0.005
-309.910	-77.654	0.125	0.043
-308.895	-117.331	0.334	-0.060
-307.880	123.307	-0.039	-0.049
-306.866	-200.000	-0.003	0.084
-305.851	-54.621	0.173	-0.078
-304.837	113.003	-0.120	0.145
-303.822	24.746	-0.130	0.108
-302.807	-40.843	0.162	0.084
-301.793	302.295	0.051	0.094
-300.778	-37.810	0.016	-0.009
-299.764	-137.706	0.153	-0.017
-298.749	-55.827	-0.129	0.057
-297.735	800.000	-0.169	0.483
-296.720	-54.048	0.251	-0.114
-295.705	101.085	0.128	-0.148
-294.691	163.516	0.062	0.087
-293.676	-200.000	-0.026	0.136
-292.662	363.908	0.068	-0.137
-291.647	800.000	0.064	-0.199
-290.632	-148.200	0.237	0.019
-289.618	-200.000	-0.013	0.159
-288.603	34.501	-0.162	0.140
-287.589	0.484	-0.185	0.132
-286.574	800.000	-0.107	-0.400
-285.559	283.857	-0.102	-0.183
-284.545	-156.618	-0.415	0.026
-283.530	-50.049	0.053	-0.025
-282.516	63.257	-0.197	-0.196
-281.501	109.387	0.101	-0.120
-280.486	86.380	-0.068	0.074
-279.472	564.091	0.084	0.202
-278.457	-35.859	-0.359	-0.193
-277.443	-101.686	0.348	0.084
-276.428	-200.000	0.011	0.119
-275.413	-75.899	0.223	-0.078
-274.399	-200.000	0.059	0.448
-273.384	-47.120	0.225	-0.109
-272.370	-200.000	0.018	0.250
-271.355	-77.124	-0.192	-0.066
-270.340	-126.224	0.277	0.041
-269.326	-64.680	0.185	-0.075
-268.311	4.914	0.019	-0.014
-267.297	800.000	-0.031	0.120
-266.282	-200.000	0.011	-0.104
-265.267	-200.000	-0.095	0.423
-264.253	144.118	0.176	0.233
-263.238	-36.702	-0.073	0.039
-262.224	537.492	0.021	-0.049
-261.209	82.348	-0.209	0.226
-260.195	162.233	-0.257	0.358
-259.180	-29.810	0.229	0.130
-258.165	800.000	0.074	-0.249
-257.151	-200.000	-0.020	0.184
-256.136	-141.296	0.200	-0.020
-255.122	-103.001	-0.108	0.025
-254.107	-200.000	0.024	0.120
-253.092	-136.060	-0.239	-0.028
-252.078	-37.905	0.099	-0.052
-251.063	-127.585	-0.205	-0.030
-250.049	-200.000	-0.010	0.078
-249.034	-74.388	0.168	-0.060
-248.019	-91.687	0.264	0.075
-247.005	-116.859	-0.201	-0.036
-245.990	800.000	-0.103	0.365
-244.976	354.143	0.065	0.129
-243.961	594.014	0.071	-0.175
-242.946	-200.000	0.003	0.015
-241.932	800.000	0.066	0.220
-240.917	110.884	-0.008	-0.009
-239.903	-200.000	0.013	0.236
-238.888	173.366	0.107	0.153
-237.873	-200.000	0.014	0.201
-236.859	800.000	-0.060	0.256
-235.844	706.260	-0.117	-0.308
-234.830	475.459	-0.163	-0.366
-233.815	357.928	0.118	-0.233
-232.800	127.189	0.158	-0.200
-231.786	-200.000	0.441	0.000
-230.771	-24.593	0.413	0.244
-229.757	85.011	-0.155	-0.168
-228.742	34.995	-0.209	-0.182
-227.727	122.141	0.251	-0.312
-226.713	-38.284	0.188	-0.099
-225.698	-200.000	0.051	0.242
-224.684	150.523	-0.050	-0.067
-223.669	26.207	0.142	0.118
-222.655	-64.134	-0.457	-0.185
-221.640	800.000	0.066	0.217
-220.625	-45.474	0.028	0.014
-219.611	-62.564	-0.155	-0.064
-218.596	-108.008	-0.162	0.035
-217.582	141.724	0.255	0.336
-216.567	-200.000	-0.008	0.126
-215.552	267.050	-0.149	-0.258
-214.538	301.606	0.071	0.130
-213.523	91.211	0.213	-0.237
-212.509	374.379	0.091	0.183
-211.494	201.114	-0.124	0.190
-210.479	202.328	0.259	0.397
-209.465	199.004	0.108	0.164
-208.450	120.003	-0.012	0.015
-207.436	-58.417	-0.165	0.071
-206.421	-86.310	-0.244	0.074
-205.406	-152.592	0.177	0.013
-204.392	-70.707	0.267	0.100
-203.377	116.937	0.157	0.191
-202.363	-101.666	-0.275	0.066
-201.348	-172.776	-0.309	-0.010
-200.333	800.000	0.041	0.140
-199.319	543.023	-0.079	0.188
-198.304	800.000	0.075	-0.239
-197.290	-200.000	0.370	0.001
-196.275	-200.000	0.303	-0.000
-195.260	-200.000	0.002	-0.195
-194.246	800.000	-0.018	0.054
-193.231	-67.804	0.249	-0.096
-192.217	-200.000	-0.003	-0.142
-191.202	596.421	0.195	-0.478
-190.187	-111.212	0.225	-0.046
-189.173	6.877	-0.259	0.191
-188.158	642.371	-0.084	0.212
-187.144	800.000	0.057	-0.190
-186.129	40.201	-0.124	-0.110
-185.114	-76.729	0.271	0.094
-184.100	41.756	0.209	0.188
-183.085	648.876	-0.076	0.194
-182.071	-116.701	0.410	0.075
-181.056	-33.942	0.060	-0.033
-180.042	-83.509	-0.218	-0.069
-179.027	39.710	-0.129	0.115
-178.012	-40.530	0.234	0.120
-176.998	8.250	-0.087	0.065
-175.983	-181.591	0.179	-0.003
-174.969	-80.658	-0.199	0.065
-173.954	800.000	0.054	0.222
-172.939	-200.000	0.013	0.191
-171.925	113.426	0.183	-0.221
-170.910	-200.000	-0.019	0.119
-169.896	3.458	-0.205	-0.148
-168.881	-200.000	0.007	0.101
-167.866	-8.511	0.118	0.079
-166.852	-84.670	0.189	0.059
-165.837	143.188	-0.187	0.246
-164.823	-200.000	-0.011	-0.323
-163.808	-2.962	-0.150	-0.104
-162.793	-112.961	-0.109	0.021
-161.779	800.000	-0.097	-0.284
-160.764	382.625	0.056	-0.115
-159.750	79.702	0.118	0.125
-158.735	-94.485	0.467	-0.126
-157.720	206.654	-0.039	-0.059
-156.706	-27.919	-0.148	0.085
-155.691	-200.000	-0.024	0.333
-154.677	-102.313	0.247	-0.059
-153.662	702.890	-0.101	0.262
-152.647	-200.000	-0.003	0.025
-151.633	-200.000	-0.019	-0.203
-150.618	-200.000	0.020	0.273
-149.604	399.252	0.098	0.203
-148.589	-155.557	-0.227	-0.014
-147.574	-156.234	0.197	0.012
-146.560	436.123	0.085	0.183
-145.545	-200.000	-0.013	-0.072
-144.531	-23.915	0.263	-0.156
-143.516	-52.615	-0.197	-0.090
-142.502	-96.985	0.194	0.050
-141.487	624.299	0.108	0.270
-140.472	7.008	-0.106	-0.078
-139.458	-52.283	0.061	0.028
-138.443	-85.351	-0.299	0.092
-137.429	12.323	0.144	0.110
-136.414	158.658	0.087	-0.119
-135.399	454.173	0.029	-0.064
-134.385	-0.178	0.186	0.131
-133.370	800.000	0.057	0.197
-132.356	-200.000	-0.018	0.084
-131.341	63.599	-0.243	-0.241
-130.326	-12.956	-0.135	0.087
-129.312	304.145	0.085	-0.157
-128.297	-111.295	0.246	-0.050
-127.283	-200.000	0.056	0.304
-126.268	-200.000	0.046	0.233
-125.253	-200.000	-0.000	0.269
-124.239	-7.976	0.156	0.104
-123.224	68.105	0.138	0.139
-122.210	83.208	-0.144	-0.155
