DTS Sentinel unit serial number:	SN413079Multiplexer serial number:	ORYXHardware model number:	OX4-SRSoftware version number:	ORYX F/W v4.00 Oryx Data Collector v3.7.2.0data status	okinstallation	princeton_trtdifferential loss correction	single-endedforward channel	channel 4reverse channel	N/Adate	2019/09/17time	01:01:35forward acquisition time	60.00reverse acquisition time	0.00gamma	496.2192k internal	0.2313k external	0.2313temperature offset calibration	0.9978default loss term (dB/km)	0.3790temperature slope calibration	1.0000multiplexer offset coefficient	1.0000multiplexer slope coefficient	1.0000fibre end	0.00T internal ref (°C)	29.44T ext. ref 1 (°C)	0.10T ext. ref 2 (°C)	24.12length (m)	temperature (°C)	Stokes	anti-Stokes-747.200	800.000	-0.039	0.126
-746.185	-109.553	-0.109	0.023
-745.171	315.908	-0.122	0.234
-744.156	-25.933	-0.089	0.053
-743.142	23.800	-0.179	0.150
-742.127	96.005	-0.253	0.293
-741.112	355.102	0.161	-0.325
-740.098	-200.000	-0.040	-0.405
-739.083	21.504	0.227	-0.187
-738.069	322.962	-0.192	0.371
-737.054	-200.000	-0.007	-0.239
-736.039	-78.083	-0.262	0.091
-735.025	-48.224	-0.215	-0.105
-734.010	-135.415	-0.323	0.039
-732.996	-53.109	0.027	-0.013
-731.981	-200.000	-0.047	-0.229
-730.966	21.986	-0.041	-0.034
-729.952	-33.538	-0.079	0.044
-728.937	-22.152	-0.184	-0.113
-727.923	24.248	-0.157	0.132
-726.908	12.341	0.246	0.192
-725.894	800.000	-0.198	-0.573
-724.879	-61.357	0.311	-0.133
-723.864	68.169	-0.119	-0.123
-722.850	478.607	-0.040	0.092
-721.835	-13.523	0.037	-0.025
-720.821	-200.000	-0.012	0.399
-719.806	430.081	0.055	0.121
-718.791	-98.615	-0.431	-0.111
-717.777	41.589	-0.200	-0.183
-716.762	62.513	0.124	-0.126
-715.748	-147.893	-0.378	0.032
-714.733	351.486	0.192	-0.385
-713.718	1.005	0.303	-0.220
-712.704	-200.000	0.039	-0.457
-711.689	31.709	0.267	-0.233
-710.675	-50.544	0.311	-0.149
-709.660	800.000	-0.089	-0.374
-708.645	-73.532	0.310	-0.114
-707.631	-65.659	0.093	-0.038
-706.616	800.000	-0.034	0.098
-705.602	800.000	0.044	-0.191
-704.587	-200.000	-0.032	0.330
-703.572	-77.798	-0.433	0.152
-702.558	311.377	0.087	-0.165
-701.543	800.000	0.048	0.201
-700.529	117.583	0.117	-0.145
-699.514	41.703	0.228	-0.209
-698.499	-92.155	-0.227	0.065
-697.485	-16.340	-0.172	-0.110
-696.470	-29.133	0.066	0.039
-695.456	-113.560	-0.058	-0.011
-694.441	-200.000	-0.005	-0.059
-693.426	108.029	0.121	0.146
-692.412	-80.456	-0.323	0.109
-691.397	22.239	-0.305	-0.252
-690.383	57.467	-0.200	-0.198
-689.368	90.159	0.136	-0.154
-688.354	-128.521	0.129	0.019
-687.339	90.893	-0.277	0.315
-686.324	198.659	-0.071	0.110
-685.310	-115.760	-0.100	0.019
-684.295	-200.000	0.008	0.261
-683.281	-200.000	-0.046	0.269
-682.266	115.527	0.124	0.153
-681.251	-13.485	-0.389	-0.255
-680.237	800.000	-0.052	-0.203
-679.222	53.931	-0.214	-0.208
-678.208	-200.000	0.009	0.045
-677.193	74.171	-0.189	-0.201
-676.178	-6.225	0.075	0.052
-675.164	-200.000	0.027	-0.203
-674.149	-20.220	-0.247	-0.154
-673.135	-200.000	0.005	0.103
-672.120	-29.227	0.273	-0.158
-671.105	100.549	-0.088	-0.103
-670.091	-38.433	0.223	-0.119
-669.076	281.050	-0.103	0.187
-668.062	800.000	-0.040	0.170
-667.047	-161.354	-0.420	0.022
-666.032	104.146	0.076	-0.090
-665.018	377.844	0.112	-0.232
-664.003	-200.000	-0.007	-0.161
-662.989	262.637	-0.138	-0.243
-661.974	-7.092	0.215	-0.148
-660.959	61.396	-0.148	-0.149
-659.945	92.959	-0.117	-0.133
-658.930	210.116	0.087	0.138
-657.916	74.401	0.120	-0.127
-656.901	-200.000	0.032	-0.231
-655.886	-189.321	-0.124	0.001
-654.872	-36.754	0.361	-0.196
-653.857	534.430	0.124	0.298
-652.843	273.578	-0.036	-0.064
-651.828	-62.225	-0.243	0.103
-650.814	353.795	-0.188	-0.377
-649.799	-30.366	-0.476	-0.273
-648.784	-81.762	0.230	0.076
-647.770	163.623	0.121	-0.172
-646.755	576.454	-0.085	-0.210
-645.741	194.538	0.197	-0.302
-644.726	-4.665	0.186	-0.130
-643.711	-200.000	0.009	0.049
-642.697	593.875	0.107	-0.267
-641.682	-200.000	-0.015	0.303
-640.668	-200.000	-0.005	-0.105
-639.653	-46.506	-0.075	0.037
-638.638	-164.544	0.098	0.004
-637.624	-153.881	0.251	0.017
-636.609	18.461	-0.310	0.250
-635.595	-72.584	-0.129	-0.048
-634.580	142.089	0.093	-0.125
-633.565	214.584	0.053	0.084
-632.551	-200.000	0.070	0.425
-631.536	-71.517	0.079	-0.030
-630.522	118.747	-0.015	0.018
-629.507	-200.000	-0.105	-0.504
-628.492	-24.928	0.233	-0.139
-627.478	-200.000	0.068	0.312
-626.463	149.908	-0.127	0.173
-625.449	-5.647	0.283	-0.196
-624.434	62.920	-0.101	-0.102
-623.419	-200.000	0.001	-0.107
-622.405	-200.000	-0.039	0.322
-621.390	-200.000	-0.034	-0.229
-620.376	-91.007	0.220	-0.064
-619.361	800.000	-0.045	-0.150
-618.346	206.866	-0.185	-0.291
-617.332	514.930	0.028	-0.066
-616.317	171.240	0.032	0.047
-615.303	-200.000	-0.008	0.066
-614.288	-32.186	-0.083	-0.047
-613.273	129.218	0.050	0.064
-612.259	-99.795	-0.334	-0.084
-611.244	-113.125	-0.266	-0.053
-610.230	-154.314	0.115	-0.008
-609.215	-200.000	0.005	0.059
-608.201	86.757	0.218	0.243
-607.186	533.493	-0.084	0.200
-606.171	800.000	0.024	0.093
-605.157	148.904	-0.170	0.232
-604.142	9.590	0.195	0.149
-603.128	410.574	-0.197	-0.421
-602.113	-200.000	0.056	0.390
-601.098	-200.000	0.073	0.374
-600.084	791.225	-0.077	0.215
-599.069	-139.799	0.108	-0.012
-598.055	27.033	-0.247	0.209
-597.040	33.221	-0.025	-0.022
-596.025	800.000	-0.056	0.204
-595.011	34.344	-0.302	0.266
-593.996	91.103	-0.045	0.051
-592.982	-69.173	-0.349	-0.135
-591.967	31.026	0.026	-0.022
-590.952	-200.000	-0.051	0.000
-589.938	-200.000	0.001	0.322
-588.923	-34.666	-0.100	0.055
-587.909	-130.576	0.137	-0.019
-586.894	60.261	0.246	-0.245
-585.879	-56.258	0.208	0.093
-584.865	-200.000	-0.091	0.459
-583.850	-62.361	-0.114	0.048
-582.836	745.534	0.042	-0.113
-581.821	-200.000	0.069	-0.370
-580.806	248.351	0.051	-0.086
-579.792	-200.000	0.510	0.001
-578.777	89.474	0.035	0.039
-577.763	-126.156	0.161	0.024
-576.748	-175.993	-0.177	0.005
-575.733	220.499	0.064	0.104
-574.719	-200.000	0.022	0.114
-573.704	-76.321	0.130	0.046
-572.690	-163.690	0.269	0.013
-571.675	-9.165	-0.215	-0.145
-570.661	-121.864	-0.257	-0.043
-569.646	79.956	0.044	-0.047
-568.631	-60.921	-0.239	0.102
-567.617	-102.232	0.236	-0.057
-566.602	800.000	-0.046	0.135
-565.588	-106.690	0.130	0.029
-564.573	0.166	-0.295	-0.212
-563.558	45.020	0.251	0.233
-562.544	-159.534	0.247	-0.014
-561.529	-26.545	-0.210	-0.124
-560.515	67.005	0.265	-0.272
-559.500	-29.568	-0.117	-0.067
-558.485	-200.000	0.067	-0.366
-557.471	-137.387	-0.171	-0.020
-556.456	285.415	-0.092	0.167
-555.442	-135.224	-0.505	-0.061
-554.427	-68.306	0.280	0.110
-553.412	23.765	-0.179	0.148
-552.398	-200.000	0.007	-0.079
-551.383	-19.176	-0.426	0.266
-550.369	800.000	-0.044	0.132
-549.354	110.968	-0.027	-0.033
-548.339	-200.000	-0.059	-0.279
-547.325	-200.000	0.007	0.231
-546.310	-60.622	0.444	0.190
-545.296	111.982	-0.104	0.127
-544.281	-200.000	0.036	0.258
-543.266	-136.350	-0.100	-0.012
-542.252	-200.000	-0.023	-0.181
-541.237	797.418	-0.105	-0.291
-540.223	800.000	0.036	-0.103
-539.208	529.338	-0.090	-0.214
-538.193	22.054	-0.081	-0.067
-537.179	-94.315	-0.270	-0.074
-536.164	-200.000	0.099	-0.462
-535.150	419.954	-0.064	-0.138
-534.135	66.508	-0.292	0.298
-533.121	4.425	-0.221	0.163
-532.106	-200.000	-0.010	-0.198
-531.091	-73.755	-0.198	-0.073
-530.077	-157.599	0.101	0.006
-529.062	-76.849	-0.189	-0.066
-528.048	274.615	0.114	-0.204
-527.033	15.393	0.173	0.136
-526.018	800.000	0.064	0.274
-525.004	38.960	0.393	0.353
-523.989	269.512	-0.146	0.257
-522.975	-47.752	-0.285	-0.139
-521.960	-17.444	0.202	0.128
-520.945	172.279	0.291	0.421
-519.931	-200.000	0.003	0.065
-518.916	-45.140	-0.045	0.022
-517.902	-139.528	-0.053	-0.006
-516.887	-200.000	-0.001	0.019
-515.872	800.000	-0.028	-0.101
-514.858	256.157	-0.055	-0.095
-513.843	-23.350	0.255	-0.154
-512.829	651.952	-0.057	-0.147
-511.814	49.354	0.010	0.010
-510.799	-8.258	0.166	0.112
-509.785	-200.000	-0.030	-0.189
-508.770	-200.000	-0.010	0.533
-507.756	-99.307	0.155	0.039
-506.741	-10.484	-0.276	-0.184
-505.726	50.184	0.156	-0.148
-504.712	800.000	-0.111	-0.325
-503.697	-80.494	-0.389	0.130
-502.683	-31.062	-0.137	-0.078
-501.668	-200.000	0.013	-0.205
-500.653	-200.000	0.019	0.152
-499.639	-109.519	0.141	-0.030
-498.624	-200.000	-0.019	-0.284
-497.610	-134.143	-0.193	0.024
-496.595	-145.498	0.111	0.010
-495.581	-133.667	-0.166	-0.021
-494.566	-155.703	-0.038	0.002
-493.551	154.330	-0.077	-0.106
-492.537	800.000	-0.120	-0.422
-491.522	-200.000	0.004	0.020
-490.508	-200.000	-0.007	0.421
-489.493	6.861	-0.213	0.160
-488.478	-8.620	0.213	-0.144
-487.464	-200.000	-0.010	-0.087
-486.449	-200.000	0.011	-0.049
-485.435	-200.000	-0.015	0.099
-484.420	-71.691	-0.177	-0.066
-483.405	17.167	0.354	0.282
-482.391	-70.833	0.155	0.059
-481.376	-15.132	-0.220	0.141
-480.362	-93.143	-0.256	-0.072
-479.347	-110.808	0.182	-0.038
-478.332	-73.622	-0.143	-0.052
-477.318	-200.000	0.007	0.117
-476.303	800.000	0.076	0.222
-475.289	800.000	0.113	-0.350
-474.274	-200.000	-0.063	0.297
-473.259	-111.865	-0.246	-0.050
-472.245	-155.962	-0.203	0.013
-471.230	119.421	0.122	-0.152
-470.216	131.934	0.031	-0.040
-469.201	109.559	-0.186	-0.224
-468.186	217.236	-0.134	0.214
-467.172	4.096	-0.382	0.281
-466.157	132.569	0.139	-0.179
-465.143	-42.457	0.278	-0.142
-464.128	-67.546	0.206	0.081
-463.113	800.000	0.010	0.032
-462.099	800.000	0.060	0.207
-461.084	-177.872	0.142	0.003
-460.070	124.906	-0.227	0.287
-459.055	288.298	0.130	0.235
-458.040	71.015	0.276	-0.287
-457.026	53.972	0.048	-0.047
-456.011	-200.000	-0.040	0.315
-454.997	404.371	0.160	-0.339
-453.982	214.404	-0.114	0.180
-452.968	-154.324	0.159	-0.011
-451.953	-32.071	0.201	-0.113
-450.938	-200.000	-0.035	-0.203
-449.924	-200.000	-0.023	-0.299
-448.909	-200.000	-0.049	-0.389
-447.895	26.486	-0.133	-0.112
-446.880	-2.761	0.149	-0.105
-445.865	-188.194	0.003	0.000
-444.851	-40.144	-0.193	0.101
-443.836	-157.528	0.028	0.002
-442.822	-160.523	-0.124	0.007
-441.807	44.802	-0.136	0.126
-440.792	72.093	0.264	0.276
-439.778	-17.824	-0.090	0.056
-438.763	481.900	0.119	-0.270
-437.749	-118.344	-0.048	0.009
-436.734	94.986	0.245	0.279
-435.719	266.717	-0.228	-0.399
-434.705	-137.091	0.516	0.059
-433.690	301.350	-0.041	-0.077
-432.676	-200.000	-0.055	0.409
-431.661	-9.388	0.238	-0.160
-430.646	685.126	0.030	0.079
-429.632	-84.765	-0.428	-0.135
-428.617	397.681	-0.060	0.126
-427.603	81.696	0.099	-0.108
-426.588	566.880	0.117	0.284
-425.573	-200.000	-0.005	-0.075
-424.559	236.827	0.037	0.062
-423.544	7.785	-0.127	0.095
-422.530	-200.000	-0.003	0.100
-421.515	-119.060	-0.054	-0.009
-420.500	603.885	0.140	-0.348
-419.486	311.837	-0.051	0.097
-418.471	-96.279	-0.138	-0.037
-417.457	480.021	0.108	0.245
-416.442	-200.000	0.042	0.191
-415.428	-167.815	0.112	-0.004
-414.413	265.962	-0.257	0.450
-413.398	184.091	0.164	-0.243
-412.384	-200.000	0.017	-0.205
-411.369	-25.595	-0.134	0.079
-410.355	-200.000	0.115	0.535
-409.340	15.373	-0.348	0.274
-408.325	-138.514	0.093	-0.010
-407.311	13.556	0.157	0.122
-406.296	219.712	0.108	-0.174
-405.282	-42.838	0.374	-0.190
-404.267	-152.075	0.218	-0.016
-403.252	-161.263	-0.252	0.013
-402.238	-9.176	-0.479	0.320
-401.223	-147.044	-0.209	-0.018
-400.209	-111.230	-0.092	0.019
-399.194	-138.176	-0.136	-0.015
-398.179	-142.638	-0.230	0.023
-397.165	800.000	-0.107	0.384
-396.150	800.000	-0.046	-0.129
-395.136	-200.000	0.055	-0.394
-394.121	571.341	0.054	0.132
-393.106	800.000	-0.047	-0.198
-392.092	522.907	-0.104	-0.244
-391.077	-200.000	-0.031	-0.262
-390.063	58.234	-0.216	0.212
-389.048	83.209	-0.102	-0.111
-388.033	-200.000	-0.038	0.368
-387.019	-200.000	0.048	-0.222
-386.004	-200.000	0.030	-0.266
-384.990	279.409	0.024	-0.042
-383.975	448.453	0.109	0.241
-382.960	-163.124	0.247	0.012
-381.946	-3.616	-0.288	0.201
-380.931	-200.000	0.001	-0.314
-379.917	363.723	0.125	-0.251
-378.902	-53.719	0.288	0.132
-377.888	675.237	0.056	0.144
-376.873	-200.000	-0.078	-0.344
-375.858	-90.970	-0.192	0.055
-374.844	64.271	-0.251	-0.252
-373.829	-200.000	0.062	0.274
-372.815	-200.000	-0.010	0.081
-371.800	-200.000	-0.003	0.119
-370.785	-200.000	0.058	-0.334
-369.771	-98.827	0.189	-0.048
-368.756	211.163	0.180	-0.282
-367.742	800.000	0.083	-0.284
-366.727	-34.553	0.052	-0.028
-365.712	800.000	-0.152	0.470
-364.698	-77.814	-0.131	-0.045
-363.683	81.672	-0.156	-0.169
-362.669	94.977	0.264	-0.300
-361.654	426.711	-0.091	-0.196
-360.639	-64.671	0.357	0.144
-359.625	107.999	-0.042	0.050
-358.610	-168.090	0.173	0.007
-357.596	-127.219	-0.461	-0.067
-356.581	-200.000	0.005	0.205
-355.566	-75.730	0.286	-0.102
-354.552	105.277	0.111	-0.131
-353.537	106.356	0.121	0.144
-352.523	-114.843	-0.144	0.028
-351.508	-32.760	0.226	0.126
-350.493	-119.259	0.334	-0.058
-349.479	-47.288	0.522	0.254
-348.464	-94.911	-0.168	0.045
-347.450	-50.813	0.095	0.045
-346.435	-200.000	-0.004	-0.324
-345.420	-200.000	-0.001	0.041
-344.406	14.515	0.034	0.026
-343.391	-131.260	0.321	0.043
-342.377	-81.901	-0.130	-0.042
-341.362	-3.059	0.058	0.041
-340.348	29.112	-0.065	-0.055
-339.333	-200.000	-0.006	-0.112
-338.318	-11.391	0.111	-0.073
-337.304	-200.000	-0.068	-0.323
-336.289	-108.370	0.142	0.030
-335.275	33.029	0.157	-0.136
-334.260	-102.055	-0.149	-0.036
-333.245	800.000	0.046	-0.140
-332.231	224.399	-0.136	0.220
-331.216	-44.253	-0.368	-0.184
-330.202	270.026	-0.108	-0.190
-329.187	155.066	-0.082	0.113
-328.172	255.462	0.161	0.276
-327.158	198.149	0.190	-0.291
-326.143	-113.230	0.121	-0.024
-325.129	-121.066	0.163	-0.027
-324.114	800.000	-0.101	-0.334
-323.099	-141.038	0.383	0.039
-322.085	197.283	0.110	0.168
-321.070	105.021	-0.127	-0.149
-320.056	800.000	-0.080	0.258
-319.041	76.231	-0.087	-0.091
-318.026	-200.000	0.054	-0.301
-317.012	223.852	-0.374	-0.602
-315.997	-160.794	-0.179	-0.009
-314.983	800.000	0.064	-0.247
-313.968	91.001	-0.092	0.103
-312.953	-200.000	0.001	0.175
-311.939	54.826	0.265	0.256
-310.924	107.222	-0.067	0.079
-309.910	-200.000	-0.028	-0.185
-308.895	631.917	0.086	0.217
-307.880	-169.839	-0.395	0.014
-306.866	-109.102	0.136	0.029
-305.851	800.000	-0.081	0.346
-304.837	686.675	-0.032	0.082
-303.822	138.196	0.279	0.364
-302.807	-60.374	0.085	-0.036
-301.793	165.729	0.125	0.177
-300.778	118.363	0.323	0.397
-299.764	-169.191	-0.313	-0.012
-298.749	-200.000	-0.105	-0.524
-297.735	-30.987	0.148	0.083
-296.720	-107.731	-0.171	0.037
-295.705	-22.658	0.020	-0.012
-294.691	-200.000	-0.026	0.158
-293.676	-45.403	0.357	0.176
-292.662	483.034	-0.177	0.401
-291.647	-200.000	-0.025	0.159
-290.632	60.584	-0.084	0.083
-289.618	-200.000	0.015	-0.318
-288.603	-72.442	0.157	-0.058
-287.589	414.094	0.031	0.067
-286.574	-55.597	-0.134	-0.060
-285.559	-67.843	0.180	0.070
-284.545	128.731	-0.190	0.241
-283.530	68.144	0.074	0.075
-282.516	-200.000	-0.148	-0.000
-281.501	-159.553	0.435	0.024
-280.486	-200.000	-0.009	0.116
-279.472	740.517	0.043	-0.115
-278.457	105.916	0.191	-0.225
-277.443	333.559	0.123	-0.236
-276.428	-74.079	-0.037	0.013
-275.413	33.794	0.127	-0.110
-274.399	-48.677	0.277	-0.132
-273.384	-34.340	0.116	-0.063
-272.370	174.051	0.127	-0.182
-271.355	-66.350	-0.221	0.088
-270.340	104.189	0.073	0.085
-269.326	110.792	0.227	-0.272
-268.311	206.309	-0.076	0.118
-267.297	-200.000	0.072	0.316
-266.282	-163.380	0.194	0.009
-265.267	-93.145	-0.236	-0.065
-264.253	-78.991	-0.530	0.179
-263.238	-200.000	-0.004	-0.289
-262.224	-135.689	0.189	-0.022
-261.209	-110.563	-0.154	0.032
-260.195	-110.628	0.304	0.062
-259.180	-127.730	0.161	-0.023
-258.165	-22.780	-0.426	0.256
-257.151	-105.399	-0.072	0.016
-256.136	107.560	-0.227	-0.269
-255.122	75.073	0.126	-0.132
-254.107	200.235	-0.014	-0.021
-253.092	150.088	-0.298	0.402
-252.078	800.000	0.059	-0.204
-251.063	-200.000	-0.063	0.311
-250.049	800.000	-0.116	0.357
-249.034	322.613	0.114	0.216
-248.019	84.486	-0.137	-0.149
-247.005	50.323	-0.138	-0.130
-245.990	-5.909	0.097	0.066
-244.976	198.759	-0.181	0.275
-243.961	336.899	0.056	0.108
-242.946	168.870	0.125	0.177
-241.932	-105.655	0.170	-0.038
-240.917	-200.000	0.037	0.224
-239.903	-13.214	-0.089	-0.057
-238.888	-99.481	-0.392	-0.098
-237.873	703.949	-0.089	-0.232
-236.859	-179.723	-0.078	0.002
-235.844	-82.075	-0.181	-0.059
-234.830	334.982	-0.023	-0.045
-233.815	-172.977	0.367	-0.011
-232.800	-200.000	-0.043	0.260
-231.786	605.632	-0.058	-0.143
-230.771	-133.636	0.141	-0.017
-229.757	800.000	0.064	0.261
-228.742	-142.805	-0.303	0.029
-227.727	109.938	0.267	0.318
-226.713	425.202	0.162	-0.347
-225.698	-65.455	-0.494	-0.197
-224.684	563.200	0.109	-0.261
-223.669	277.873	-0.047	0.084
-222.655	28.654	0.094	0.079
-221.640	-96.976	-0.132	-0.034
-220.625	-150.534	0.120	-0.009
-219.611	20.755	0.165	-0.133
-218.596	800.000	-0.099	-0.351
-217.582	181.999	0.102	0.150
-216.567	-200.000	-0.021	0.132
-215.552	-200.000	0.013	-0.301
-214.538	123.600	0.190	0.237
-213.523	-200.000	0.012	-0.184
-212.509	216.316	0.138	0.218
-211.494	-105.677	-0.304	-0.068
-210.479	58.181	-0.268	-0.261
-209.465	-200.000	0.026	0.134
-208.450	574.087	0.123	0.297
-207.436	800.000	0.076	0.223
-206.421	-73.582	0.143	-0.052
-205.406	-25.725	-0.306	-0.179
-204.392	597.987	0.205	-0.504
-203.377	-157.664	0.306	-0.018
-202.363	-149.080	-0.105	0.008
-201.348	-21.751	0.223	0.135
-200.333	254.199	0.125	0.212
-199.319	800.000	-0.056	-0.173
-198.304	-3.921	0.058	0.040
-197.290	8.848	0.256	-0.192
-196.275	-5.422	-0.137	0.094
-195.260	800.000	-0.017	-0.049
-194.246	-99.973	0.339	-0.084
-193.231	800.000	-0.120	0.389
-192.217	14.103	0.137	0.106
-191.202	440.119	0.141	-0.306
-190.187	196.101	-0.152	-0.229
-189.173	-200.000	-0.009	0.067
-188.158	-156.522	0.210	0.013
-187.144	-200.000	-0.077	0.378
-186.129	455.452	-0.070	0.153
-185.114	142.249	-0.068	-0.090
-184.100	52.353	0.130	-0.123
-183.085	-53.229	-0.184	0.084
-182.071	32.232	-0.232	-0.199
-181.056	-60.636	0.051	0.022
-180.042	-13.837	-0.039	-0.025
-179.027	176.748	0.032	0.046
-178.012	130.039	0.085	0.108
-176.998	-200.000	-0.002	-0.046
-175.983	-72.559	-0.183	-0.067
-174.969	298.865	-0.119	-0.217
-173.954	-200.000	0.001	0.036
-172.939	-146.967	-0.319	0.027
-171.925	-200.000	0.006	-0.059
-170.910	172.190	-0.053	-0.075
-169.896	-200.000	0.002	-0.313
-168.881	-36.684	-0.272	0.145
-167.866	-72.312	-0.036	-0.013
-166.852	-144.315	-0.135	0.012
-165.837	-24.414	0.209	-0.123
-164.823	147.195	0.010	-0.013
-163.808	171.415	-0.079	-0.113
-162.793	-21.502	-0.195	0.118
-161.779	-200.000	0.018	-0.206
-160.764	-67.463	0.300	-0.117
-159.750	128.210	-0.165	0.209
-158.735	101.409	0.122	0.141
-157.720	408.562	0.175	-0.367
-156.706	248.041	0.085	-0.143
-155.691	-200.000	0.035	0.192
-154.677	156.693	-0.029	-0.040
-153.662	-93.620	-0.065	0.018
-152.647	-120.217	0.082	-0.014
-151.633	800.000	0.055	0.155
-150.618	-84.489	0.426	0.133
-149.604	-32.796	-0.105	-0.058
-148.589	27.015	0.099	-0.082
-147.574	730.205	-0.078	-0.207
-146.560	-200.000	0.076	-0.400
-145.545	37.640	0.258	-0.227
-144.531	-99.011	0.106	-0.027
-143.516	-84.508	-0.187	0.059
-142.502	-94.020	0.435	-0.118
-141.487	66.103	-0.058	-0.059
-140.472	113.526	0.308	-0.371
-139.458	436.251	0.091	-0.196
-138.443	-43.313	0.241	-0.121
-137.429	187.013	0.118	0.174
-136.414	-52.082	0.366	0.168
-135.399	-44.343	-0.214	-0.106
-134.385	19.974	-0.071	-0.057
-133.370	71.843	0.042	-0.043
-132.356	-7.267	-0.111	0.075
-131.341	626.588	-0.114	0.284
-130.326	-200.000	0.063	0.341
-129.312	800.000	0.051	-0.145
-128.297	-63.756	-0.306	0.124
-127.283	-25.473	0.164	-0.096
-126.268	63.401	0.039	0.038
-125.253	645.111	-0.180	-0.455
-124.239	-134.290	-0.173	-0.021
-123.224	-56.482	0.160	0.070
-122.210	-76.182	-0.108	0.038
