DTS Sentinel unit serial number:	SN413079Multiplexer serial number:	ORYXHardware model number:	OX4-SRSoftware version number:	ORYX F/W v4.00 Oryx Data Collector v3.7.2.0data status	okinstallation	princeton_trtdifferential loss correction	single-endedforward channel	channel 4reverse channel	N/Adate	2019/09/15time	02:53:35forward acquisition time	60.00reverse acquisition time	0.00gamma	496.2192k internal	0.2309k external	0.2309temperature offset calibration	1.0033default loss term (dB/km)	0.3790temperature slope calibration	1.0000multiplexer offset coefficient	1.0000multiplexer slope coefficient	1.0000fibre end	0.00T internal ref (°C)	31.28T ext. ref 1 (°C)	4.57T ext. ref 2 (°C)	25.66length (m)	temperature (°C)	Stokes	anti-Stokes-747.200	74.766	-0.118	-0.126
-746.185	-200.000	0.036	0.400
-745.171	800.000	-0.026	0.083
-744.156	-17.829	0.358	-0.228
-743.142	-150.348	0.191	-0.015
-742.127	17.919	-0.292	0.236
-741.112	-37.560	0.371	-0.201
-740.098	-98.459	-0.080	0.021
-739.083	-72.341	0.248	0.093
-738.069	-79.962	-0.424	-0.145
-737.054	-112.224	0.047	0.010
-736.039	-70.198	-0.501	-0.193
-735.025	-200.000	0.029	0.267
-734.010	-122.005	-0.348	-0.058
-732.996	-108.023	-0.238	0.052
-731.981	-154.878	-0.038	-0.003
-730.966	47.200	0.128	0.121
-729.952	13.712	0.216	-0.171
-728.937	-175.117	0.178	-0.005
-727.923	-149.624	-0.326	-0.026
-726.908	-200.000	-0.042	-0.191
-725.894	-156.110	-0.322	-0.021
-724.879	579.303	0.098	0.244
-723.864	-28.826	-0.101	0.059
-722.850	252.957	-0.040	-0.069
-721.835	389.830	0.055	0.116
-720.821	385.656	-0.115	0.241
-719.806	31.627	0.046	0.041
-718.791	1.927	-0.094	-0.069
-717.777	-37.782	-0.113	0.061
-716.762	-103.971	-0.206	-0.049
-715.748	-127.696	-0.275	-0.040
-714.733	-200.000	0.027	0.133
-713.718	43.066	0.266	-0.246
-712.704	59.128	-0.054	0.054
-711.689	-140.678	-0.305	-0.032
-710.675	-200.000	0.005	0.104
-709.660	800.000	-0.058	-0.209
-708.645	-177.447	0.096	0.002
-707.631	240.708	-0.163	0.277
-706.616	-84.170	-0.380	0.122
-705.602	168.658	-0.200	-0.289
-704.587	29.562	0.132	-0.114
-703.572	411.729	0.098	0.211
-702.558	-131.518	-0.244	-0.033
-701.543	329.021	0.081	-0.158
-700.529	-200.000	0.037	-0.185
-699.514	-200.000	-0.014	0.128
-698.499	-124.123	0.221	0.035
-697.485	-49.484	0.283	-0.137
-696.470	-118.651	0.540	-0.097
-695.456	193.783	0.088	0.136
-694.441	-156.251	0.032	-0.002
-693.426	358.992	-0.106	0.214
-692.412	-200.000	0.016	0.112
-691.397	-138.892	-0.419	-0.046
-690.383	0.070	-0.362	-0.261
-689.368	-200.000	0.020	-0.106
-688.354	20.582	0.168	-0.138
-687.339	-23.145	0.096	-0.058
-686.324	112.244	-0.108	-0.132
-685.310	-60.178	0.148	-0.064
-684.295	-200.000	0.036	0.375
-683.281	32.898	0.121	-0.106
-682.266	-79.306	0.128	0.044
-681.251	-130.183	0.054	-0.007
-680.237	208.968	-0.051	-0.080
-679.222	-200.000	-0.033	0.179
-678.208	800.000	-0.044	-0.163
-677.193	116.466	-0.204	0.254
-676.178	-53.682	-0.160	0.074
-675.164	36.813	0.210	-0.188
-674.149	50.534	0.293	-0.281
-673.135	141.764	0.081	-0.109
-672.120	34.732	0.067	-0.059
-671.105	-127.809	0.144	-0.021
-670.091	-153.806	-0.352	-0.024
-669.076	30.701	-0.098	0.085
-668.062	-200.000	-0.035	-0.316
-667.047	396.213	-0.077	-0.163
-666.032	-200.000	0.006	-0.108
-665.018	-167.490	-0.159	-0.006
-664.003	-31.110	0.213	0.122
-662.989	-200.000	0.033	-0.360
-661.974	116.828	0.017	-0.022
-660.959	-200.000	0.033	0.236
-659.945	-181.162	-0.176	-0.004
-658.930	800.000	-0.056	-0.203
-657.916	800.000	0.060	-0.175
-656.901	-19.409	-0.229	0.144
-655.886	-140.188	0.169	-0.018
-654.872	800.000	-0.150	-0.482
-653.857	-21.565	0.252	-0.156
-652.843	53.456	0.057	-0.055
-651.828	-68.478	-0.301	0.118
-650.814	-76.389	0.510	0.182
-649.799	9.688	0.050	0.038
-648.784	39.274	-0.131	-0.119
-647.770	259.211	-0.182	0.317
-646.755	15.682	0.059	0.047
-645.741	42.520	-0.127	-0.116
-644.726	-11.256	-0.086	-0.058
-643.711	-91.398	0.466	-0.135
-642.697	3.426	-0.133	-0.098
-641.682	74.051	0.107	0.114
-640.668	-58.790	0.493	0.216
-639.653	-45.918	-0.431	0.215
-638.638	267.111	-0.098	-0.173
-637.624	-130.589	0.059	0.008
-636.609	212.430	0.030	0.048
-635.595	-15.115	0.060	-0.039
-634.580	-200.000	0.025	-0.130
-633.565	116.334	0.080	-0.099
-632.551	800.000	-0.097	-0.286
-631.536	-26.202	0.165	-0.098
-630.522	-128.701	0.299	-0.043
-629.507	-89.299	-0.179	0.053
-628.492	53.141	0.109	-0.105
-627.478	-200.000	0.028	0.242
-626.463	163.197	0.128	-0.183
-625.449	-57.458	0.142	-0.063
-624.434	-35.278	0.321	0.176
-623.419	800.000	-0.019	-0.080
-622.405	-27.901	-0.029	-0.017
-621.390	312.526	0.086	-0.163
-620.376	-161.949	0.135	0.007
-619.361	98.239	-0.051	0.059
-618.346	-29.911	-0.098	0.057
-617.332	209.182	-0.106	0.168
-616.317	800.000	0.068	-0.264
-615.303	-9.095	-0.172	-0.116
-614.288	-129.920	0.219	-0.030
-613.273	-141.331	-0.164	-0.017
-612.259	-55.476	0.066	-0.030
-611.244	111.911	0.043	0.053
-610.230	-117.864	-0.325	-0.059
-609.215	58.319	-0.009	0.008
-608.201	-161.727	-0.131	0.007
-607.186	-100.492	-0.044	-0.011
-606.171	326.869	-0.118	-0.228
-605.157	268.991	-0.177	0.314
-604.142	-74.950	0.150	-0.054
-603.128	800.000	0.092	-0.396
-602.113	800.000	-0.053	-0.173
-601.098	639.896	-0.038	-0.097
-600.084	-117.512	-0.325	0.059
-599.069	173.245	-0.080	-0.116
-598.055	-40.994	-0.279	-0.146
-597.040	-172.844	0.132	0.004
-596.025	-200.000	0.051	-0.313
-595.011	168.141	0.047	-0.067
-593.996	-64.112	-0.249	-0.103
-592.982	-9.978	0.072	-0.048
-591.967	-32.082	-0.529	-0.299
-590.952	800.000	0.022	0.062
-589.938	800.000	0.110	-0.316
-588.923	800.000	0.070	-0.251
-587.909	213.829	-0.060	-0.096
-586.894	-200.000	-0.022	0.098
-585.879	-200.000	-0.020	-0.293
-584.865	13.015	-0.138	0.108
-583.850	-89.276	-0.128	-0.038
-582.836	-34.532	-0.147	0.081
-581.821	-200.000	-0.054	0.244
-580.806	288.345	-0.071	-0.129
-579.792	800.000	-0.034	0.149
-578.777	103.732	-0.148	-0.176
-577.763	800.000	-0.052	-0.153
-576.748	86.542	-0.167	-0.186
-575.733	-169.977	-0.233	0.008
-574.719	5.225	0.314	0.234
-573.704	-123.669	0.078	0.013
-572.690	99.377	0.059	-0.069
-571.675	280.170	-0.174	-0.313
-570.661	35.507	-0.149	0.132
-569.646	52.899	0.124	-0.120
-568.631	272.355	-0.086	0.154
-567.617	800.000	-0.043	0.141
-566.602	-179.701	0.108	-0.002
-565.588	-35.788	0.075	0.041
-564.573	-200.000	0.006	-0.163
-563.558	181.960	0.071	-0.106
-562.544	-200.000	-0.036	-0.295
-561.529	-200.000	-0.068	-0.631
-560.515	-200.000	-0.033	-0.334
-559.500	-42.383	-0.096	0.049
-558.485	-19.577	-0.099	0.062
-557.471	166.612	-0.193	-0.276
-556.456	-200.000	0.002	0.082
-555.442	51.792	0.095	0.091
-554.427	118.848	0.014	0.018
-553.412	10.200	-0.115	-0.088
-552.398	-116.969	0.414	0.076
-551.383	-117.806	0.122	-0.022
-550.369	-49.207	-0.185	0.089
-549.354	-200.000	-0.025	0.360
-548.339	172.582	0.129	-0.187
-547.325	-132.358	-0.388	0.050
-546.310	-80.551	-0.226	0.076
-545.296	119.559	-0.180	-0.224
-544.281	-127.829	-0.369	-0.054
-543.266	191.879	-0.066	-0.101
-542.252	260.518	-0.066	0.115
-541.237	-127.268	-0.161	-0.024
-540.223	-119.706	-0.114	0.020
-539.208	-98.111	-0.256	0.066
-538.193	-96.519	-0.136	0.036
-537.179	490.287	0.200	0.461
-536.164	621.304	0.085	0.215
-535.150	-94.560	0.171	0.047
-534.135	101.930	-0.122	-0.143
-533.121	-151.197	0.265	0.020
-532.106	87.244	0.101	0.113
-531.091	40.563	0.153	-0.139
-530.077	800.000	-0.069	0.216
-529.062	272.886	0.246	-0.437
-528.048	-107.821	-0.334	0.073
-527.033	-200.000	-0.021	0.164
-526.018	-43.434	-0.168	-0.086
-525.004	-200.000	0.020	0.173
-523.989	-60.495	-0.139	-0.059
-522.975	-71.128	0.233	-0.088
-521.960	-79.804	-0.183	0.062
-520.945	-16.017	0.210	0.135
-519.931	186.045	-0.194	0.290
-518.916	52.931	-0.120	0.116
-517.902	115.773	-0.156	0.192
-516.887	800.000	-0.052	-0.201
-515.872	107.878	0.176	0.211
-514.858	1.563	-0.123	-0.089
-513.843	41.984	0.098	0.090
-512.829	-200.000	0.016	-0.284
-511.814	-105.057	0.301	0.069
-510.799	-41.405	-0.161	0.084
-509.785	800.000	0.051	-0.150
-508.770	56.917	0.084	0.082
-507.756	63.031	0.088	0.089
-506.741	-71.689	-0.185	0.070
-505.726	219.179	-0.104	0.168
-504.712	106.132	-0.096	0.114
-503.697	13.888	0.273	-0.213
-502.683	191.802	-0.058	0.088
-501.668	-82.551	-0.119	-0.039
-500.653	800.000	0.104	-0.384
-499.639	179.836	0.087	-0.129
-498.624	-150.826	0.208	-0.016
-497.610	295.906	0.173	-0.319
-496.595	800.000	0.100	-0.304
-495.581	-173.904	-0.109	-0.003
-494.566	-4.319	-0.138	0.096
-493.551	301.861	-0.065	0.120
-492.537	-200.000	0.007	0.296
-491.522	124.929	0.196	0.248
-490.508	-200.000	0.066	0.292
-489.493	175.578	0.207	0.302
-488.478	62.747	0.306	0.308
-487.464	52.071	0.342	0.327
-486.449	17.805	-0.184	-0.148
-485.435	15.507	-0.067	0.053
-484.420	-127.760	-0.169	0.025
-483.405	-22.336	0.138	0.084
-482.391	-146.660	0.244	0.021
-481.376	-13.820	-0.238	-0.154
-480.362	84.746	0.148	-0.163
-479.347	542.693	0.084	-0.202
-478.332	502.221	0.041	-0.095
-477.318	-66.281	0.162	0.065
-476.303	-51.046	-0.338	0.159
-475.289	182.543	-0.072	-0.107
-474.274	-104.625	0.091	0.021
-473.259	-90.686	-0.207	0.060
-472.245	23.037	-0.166	-0.137
-471.230	-200.000	-0.033	0.227
-470.216	-200.000	-0.011	0.330
-469.201	-90.738	0.147	-0.043
-468.186	264.918	0.082	0.143
-467.172	-107.304	0.245	-0.054
-466.157	353.662	-0.019	-0.037
-465.143	91.784	-0.166	-0.188
-464.128	8.740	0.312	-0.236
-463.113	-200.000	0.014	0.072
-462.099	-85.258	0.242	0.076
-461.084	-72.710	-0.083	0.031
-460.070	-20.592	-0.089	-0.055
-459.055	-145.395	0.188	-0.017
-458.040	-200.000	-0.002	-0.082
-457.026	-27.812	-0.130	0.076
-456.011	-200.000	0.033	0.149
-454.997	-200.000	0.013	-0.136
-453.982	-125.726	0.060	-0.009
-452.968	596.444	0.151	-0.375
-451.953	-94.946	0.407	0.111
-450.938	60.957	0.147	-0.146
-449.924	-128.221	-0.595	-0.085
-448.909	-200.000	-0.056	-0.379
-447.895	-90.482	-0.096	-0.028
-446.880	221.312	0.112	-0.181
-445.865	573.225	-0.041	-0.100
-444.851	166.047	-0.199	0.282
-443.836	800.000	-0.066	0.276
-442.822	-59.344	0.211	0.091
-441.807	-163.082	-0.115	0.006
-440.792	-69.929	0.144	-0.055
-439.778	470.671	0.072	0.162
-438.763	40.530	0.214	-0.194
-437.749	154.339	-0.133	0.183
-436.734	-136.109	0.212	0.025
-435.719	-55.832	-0.086	0.039
-434.705	169.280	0.384	0.550
-433.690	514.044	-0.074	0.173
-432.676	-65.291	0.072	-0.029
-431.661	67.292	-0.269	-0.275
-430.646	-12.311	-0.275	0.180
-429.632	-53.459	0.058	-0.027
-428.617	800.000	0.046	-0.141
-427.603	-200.000	0.030	-0.178
-426.588	800.000	0.098	-0.281
-425.573	-3.788	-0.099	0.069
-424.559	-70.988	0.224	0.085
-423.544	-161.232	-0.164	0.009
-422.530	-92.796	0.155	-0.044
-421.515	-200.000	0.032	-0.229
-420.500	-99.845	0.335	0.084
-419.486	27.573	0.252	0.212
-418.471	-70.744	-0.341	0.129
-417.457	95.149	-0.178	-0.203
-416.442	61.635	0.118	-0.118
-415.428	13.246	-0.155	-0.120
-414.413	36.356	-0.056	-0.049
-413.398	141.791	0.156	0.208
-412.384	-66.223	-0.132	0.053
-411.369	411.672	-0.139	0.296
-410.355	800.000	-0.116	0.392
-409.340	-119.096	-0.124	-0.022
-408.325	800.000	-0.134	0.414
-407.311	800.000	0.076	-0.221
-406.296	28.078	0.129	0.109
-405.282	-159.205	0.203	-0.011
-404.267	-133.410	0.148	0.019
-403.252	-58.785	0.125	0.054
-402.238	467.927	0.115	0.258
-401.223	6.575	0.196	0.146
-400.209	-200.000	-0.001	-0.020
-399.194	-47.321	-0.093	0.045
-398.179	-200.000	0.212	0.000
-397.165	46.109	0.278	0.258
-396.150	53.819	-0.403	-0.388
-395.136	-4.163	0.141	0.098
-394.121	84.672	-0.108	0.118
-393.106	-200.000	0.009	-0.071
-392.092	206.605	-0.057	-0.090
-391.077	800.000	-0.085	-0.292
-390.063	59.450	0.051	0.050
-389.048	505.606	0.173	0.402
-388.033	-37.021	-0.219	0.118
-387.019	-110.617	0.081	0.017
-386.004	106.960	-0.147	0.175
-384.990	800.000	0.045	0.140
-383.975	-120.688	-0.255	0.043
-382.960	132.747	0.209	0.270
-381.946	-200.000	-0.029	0.227
-380.931	171.622	0.100	0.143
-379.917	151.534	0.225	0.306
-378.902	518.828	-0.062	-0.144
-377.888	43.933	-0.080	0.073
-376.873	-59.430	0.112	-0.048
-375.858	800.000	0.015	-0.046
-374.844	-137.948	-0.299	0.033
-373.829	-55.400	-0.077	0.034
-372.815	-159.693	-0.151	-0.008
-371.800	22.111	-0.153	-0.125
-370.785	800.000	-0.056	-0.176
-369.771	20.784	-0.427	-0.346
-368.756	46.956	-0.082	-0.076
-367.742	-65.093	-0.184	0.074
-366.727	-200.000	-0.051	0.276
-365.712	-77.601	0.071	-0.025
-364.698	-34.755	-0.239	0.131
-363.683	-70.315	-0.071	-0.027
-362.669	-52.236	-0.179	0.083
-361.654	800.000	0.045	-0.130
-360.639	800.000	0.035	-0.139
-359.625	116.346	0.198	0.242
-358.610	443.225	-0.025	-0.054
-357.596	25.447	0.030	-0.025
-356.581	362.868	-0.075	0.151
-355.566	411.351	0.092	0.195
-354.552	719.190	0.114	-0.304
-353.537	800.000	0.040	0.174
-352.523	672.643	0.051	0.132
-351.508	-200.000	0.000	-0.093
-350.493	-138.912	-0.254	-0.028
-349.479	800.000	0.060	-0.179
-348.464	-200.000	-0.016	-0.091
-347.450	284.500	0.078	-0.141
-346.435	800.000	0.036	0.121
-345.420	-93.339	0.191	-0.053
-344.406	121.306	0.082	0.102
-343.391	-57.697	-0.130	-0.057
-342.377	-195.794	0.221	0.002
-341.362	-64.721	0.351	0.142
-340.348	61.911	-0.088	-0.088
-339.333	-200.000	0.002	0.099
-338.318	-110.287	0.134	0.028
-337.304	208.856	0.076	-0.119
-336.289	-40.954	-0.172	-0.089
-335.275	-200.000	-0.012	-0.353
-334.260	-132.044	-0.113	-0.015
-333.245	-200.000	0.036	-0.212
-332.231	800.000	-0.092	-0.367
-331.216	800.000	-0.080	-0.257
-330.202	-7.912	0.184	0.124
-329.187	-152.790	-0.238	-0.017
-328.172	309.602	0.136	0.254
-327.158	196.285	-0.097	0.148
-326.143	-40.211	0.172	-0.090
-325.129	26.721	-0.339	-0.284
-324.114	-153.756	0.457	0.031
-323.099	-17.653	-0.158	-0.099
-322.085	332.768	-0.076	-0.146
-321.070	138.080	-0.278	-0.364
-320.056	-200.000	0.026	-0.230
-319.041	-100.482	-0.203	-0.050
-318.026	-131.261	-0.149	0.020
-317.012	9.924	-0.206	-0.156
-315.997	217.494	-0.019	-0.031
-314.983	15.028	0.156	-0.122
-313.968	-170.991	-0.503	-0.017
-312.953	-200.000	-0.008	0.279
-311.939	-200.000	0.345	0.001
-310.924	56.073	0.094	-0.092
-309.910	-184.598	0.242	-0.004
-308.895	-151.938	0.191	0.014
-307.880	36.256	-0.116	0.102
-306.866	390.266	0.046	-0.096
-305.851	800.000	0.068	0.293
-304.837	-200.000	0.022	-0.316
-303.822	-0.742	0.160	-0.113
-302.807	28.846	-0.190	0.161
-301.793	-79.144	0.294	-0.100
-300.778	-28.777	0.123	0.070
-299.764	-92.411	0.054	0.015
-298.749	-200.000	-0.035	0.186
-297.735	372.347	0.019	0.039
-296.720	-27.934	0.092	0.053
-295.705	-121.982	-0.143	-0.023
-294.691	312.778	-0.143	-0.268
-293.676	-21.558	-0.102	-0.062
-292.662	-88.481	-0.182	0.054
-291.647	800.000	-0.045	0.194
-290.632	-45.425	0.222	-0.110
-289.618	800.000	0.046	-0.157
-288.603	532.898	0.131	-0.308
-287.589	-141.428	0.395	-0.040
-286.574	-169.419	-0.499	0.018
-285.559	256.368	-0.090	-0.153
-284.545	300.334	0.101	0.186
-283.530	134.725	0.123	0.159
-282.516	-88.633	0.180	-0.053
-281.501	-82.550	0.417	-0.135
-280.486	797.068	-0.078	0.214
-279.472	-86.814	-0.153	-0.047
-278.457	28.375	-0.207	-0.175
-277.443	263.772	-0.167	-0.290
-276.428	-200.000	0.001	-0.007
-275.413	-50.338	0.235	-0.111
-274.399	-200.000	0.046	0.323
-273.384	800.000	0.064	0.230
-272.370	277.095	0.277	-0.492
-271.355	-140.009	0.291	0.031
-270.340	-200.000	0.045	0.405
-269.326	63.464	-0.287	-0.287
-268.311	-67.785	-0.117	-0.046
-267.297	313.704	0.050	-0.093
-266.282	800.000	0.008	-0.021
-265.267	-51.483	-0.201	0.094
-264.253	-89.637	0.379	0.111
-263.238	800.000	-0.091	0.254
-262.224	7.419	-0.046	-0.035
-261.209	800.000	0.085	0.349
-260.195	-45.747	-0.389	0.192
-259.180	-200.000	-0.053	-0.340
-258.165	-200.000	-0.005	-0.038
-257.151	81.294	-0.249	0.268
-256.136	-200.000	-0.030	-0.209
-255.122	-147.183	-0.214	0.018
-254.107	-2.345	0.204	-0.143
-253.092	364.753	-0.111	-0.223
-252.078	-188.007	-0.426	-0.005
-251.063	436.005	-0.155	0.337
-250.049	0.824	0.319	-0.227
-249.034	-162.050	0.575	0.029
-248.019	800.000	-0.011	0.032
-247.005	-113.363	0.221	-0.043
-245.990	55.132	0.244	0.235
-244.976	-122.290	0.111	-0.018
-243.961	3.756	-0.062	-0.045
-242.946	-186.706	-0.204	-0.003
-241.932	-42.422	0.062	0.032
-240.917	364.085	-0.079	0.158
-239.903	-163.743	0.200	0.009
-238.888	-169.702	-0.126	0.005
-237.873	800.000	-0.127	-0.354
-236.859	-200.000	-0.051	0.252
-235.844	68.859	0.082	-0.084
-234.830	27.334	-0.439	0.368
-233.815	421.324	-0.057	-0.121
-232.800	800.000	0.127	0.350
-231.786	311.162	0.201	0.375
-230.771	-37.371	0.102	0.054
-229.757	-200.000	0.009	0.165
-228.742	319.152	-0.090	0.170
-227.727	-23.348	-0.063	0.038
-226.713	-65.118	-0.069	-0.028
-225.698	286.204	-0.251	0.451
-224.684	-200.000	-0.033	-0.188
-223.669	-100.454	0.060	-0.015
-222.655	90.485	0.253	-0.282
-221.640	-200.000	0.021	-0.141
-220.625	-134.611	-0.263	-0.032
-219.611	-137.741	-0.202	0.023
-218.596	-200.000	0.013	-0.185
-217.582	-165.193	0.286	-0.013
-216.567	211.397	0.220	0.345
-215.552	-200.000	0.024	-0.149
-214.538	-200.000	0.011	0.184
-213.523	-91.640	0.303	-0.086
-212.509	-67.756	-0.348	-0.135
-211.494	-17.443	-0.088	-0.055
-210.479	-47.552	-0.299	-0.145
-209.465	325.597	-0.155	0.294
-208.450	-158.064	0.141	0.008
-207.436	72.244	-0.100	-0.103
-206.421	-113.524	-0.082	-0.016
-205.406	800.000	0.029	0.093
-204.392	800.000	0.029	0.100
-203.377	350.003	-0.202	0.397
-202.363	5.449	0.195	0.143
-201.348	8.201	-0.051	-0.038
-200.333	-93.337	0.213	-0.059
-199.319	28.024	0.084	0.070
-198.304	-72.879	-0.173	0.063
-197.290	-55.133	0.096	0.043
-196.275	-200.000	0.029	0.273
-195.260	-57.726	0.196	-0.086
-194.246	-28.144	0.210	0.121
-193.231	58.517	-0.225	-0.219
-192.217	-92.256	-0.102	-0.029
-191.202	108.059	0.181	-0.214
-190.187	-154.387	-0.079	0.005
-189.173	231.257	0.098	0.160
-188.158	74.158	0.125	-0.131
-187.144	86.119	0.227	0.249
-186.129	528.355	-0.115	0.269
-185.114	-116.217	0.237	-0.044
-184.100	520.498	0.045	-0.104
-183.085	-200.000	-0.040	-0.241
-182.071	-0.682	0.156	0.110
-181.056	-24.884	-0.090	0.053
-180.042	53.177	0.273	0.259
-179.027	-46.667	-0.262	-0.128
-178.012	264.377	-0.050	0.087
-176.998	-200.000	0.038	-0.217
-175.983	800.000	-0.100	0.352
-174.969	-147.113	0.163	0.014
-173.954	-200.000	0.005	-0.082
-172.939	361.200	-0.054	-0.107
-171.925	800.000	0.012	0.043
-170.910	20.865	-0.102	0.082
-169.896	-21.477	0.135	-0.082
-168.881	43.156	0.188	-0.170
-167.866	52.965	0.090	-0.086
-166.852	118.529	0.276	0.338
-165.837	-185.715	0.146	0.002
-164.823	179.395	-0.037	-0.053
-163.808	-200.000	-0.037	0.230
-162.793	423.089	0.092	-0.197
-161.779	-74.380	0.032	-0.012
-160.764	70.823	-0.055	0.057
-159.750	155.793	-0.091	-0.124
-158.735	-81.601	0.108	-0.035
-157.720	-19.704	-0.211	-0.130
-156.706	23.993	-0.177	0.145
-155.691	-96.707	0.201	0.053
-154.677	121.001	-0.100	-0.124
-153.662	56.358	-0.138	0.133
-152.647	-87.501	-0.012	-0.004
-151.633	-29.525	0.095	0.054
-150.618	-30.941	0.111	0.062
-149.604	40.435	-0.124	0.111
-148.589	-76.274	-0.255	0.089
-147.574	296.951	0.094	0.171
-146.560	-108.007	0.173	0.037
-145.545	800.000	-0.095	0.356
-144.531	610.328	0.082	0.203
-143.516	73.866	-0.209	0.218
-142.502	-142.583	-0.153	0.015
-141.487	800.000	0.048	0.146
-140.472	92.891	0.230	-0.258
-139.458	-123.654	0.209	0.033
-138.443	41.481	0.231	0.208
-137.429	-200.000	0.015	0.111
-136.414	111.359	0.113	0.135
-135.399	800.000	-0.087	-0.248
-134.385	257.828	-0.035	-0.060
-133.370	-116.489	0.265	-0.049
-132.356	-41.779	-0.129	0.066
-131.341	240.461	-0.047	0.078
-130.326	-90.654	-0.063	0.018
-129.312	-62.041	-0.206	0.085
-128.297	-117.390	0.248	0.044
-127.283	14.852	-0.269	-0.209
-126.268	74.653	0.274	0.286
-125.253	-135.678	0.065	0.008
-124.239	150.019	0.112	-0.151
-123.224	29.980	-0.026	-0.022
-122.210	-105.382	0.085	-0.019
-121.195	92.341	0.159	0.178
