DTS Sentinel unit serial number:	SN413079Multiplexer serial number:	ORYXHardware model number:	OX4-SRSoftware version number:	ORYX F/W v4.00 Oryx Data Collector v3.7.2.0data status	okinstallation	princeton_trtdifferential loss correction	single-endedforward channel	channel 4reverse channel	N/Adate	2019/09/13time	02:37:34forward acquisition time	60.00reverse acquisition time	0.00gamma	496.2192k internal	0.2320k external	0.2320temperature offset calibration	1.0189default loss term (dB/km)	0.3790temperature slope calibration	1.0000multiplexer offset coefficient	1.0000multiplexer slope coefficient	1.0000fibre end	0.00T internal ref (°C)	27.48T ext. ref 1 (°C)	3.97T ext. ref 2 (°C)	22.25length (m)	temperature (°C)	Stokes	anti-Stokes-747.200	-200.000	0.000	-0.010
-746.185	-81.384	-0.077	-0.026
-745.171	-96.757	-0.093	-0.025
-744.156	16.149	-0.372	-0.296
-743.142	338.470	-0.018	0.036
-742.127	-70.649	0.201	0.077
-741.112	-200.000	-0.010	0.072
-740.098	645.259	-0.168	0.434
-739.083	-140.085	0.632	-0.067
-738.069	75.210	-0.154	0.165
-737.054	-200.000	-0.026	-0.147
-736.039	-40.680	-0.351	0.184
-735.025	-200.000	0.004	-0.122
-734.010	604.581	-0.102	0.257
-732.996	-200.000	0.014	0.088
-731.981	-200.000	0.013	-0.114
-730.966	-98.099	-0.223	-0.058
-729.952	180.525	-0.150	-0.222
-728.937	-34.065	0.120	0.067
-727.923	651.992	-0.062	0.160
-726.908	69.722	0.086	0.089
-725.894	778.275	0.032	0.088
-724.879	-0.327	-0.076	0.055
-723.864	158.564	-0.158	-0.222
-722.850	800.000	0.044	0.157
-721.835	-33.632	0.197	-0.110
-720.821	800.000	-0.052	0.179
-719.806	-48.948	0.143	-0.069
-718.791	100.728	-0.136	-0.160
-717.777	-200.000	-0.053	-0.491
-716.762	-41.289	-0.275	-0.143
-715.748	-137.900	0.273	-0.031
-714.733	169.592	-0.112	0.162
-713.718	-55.715	-0.401	0.181
-712.704	-200.000	-0.006	-0.242
-711.689	-89.543	-0.438	-0.130
-710.675	-200.000	-0.017	0.111
-709.660	544.748	-0.025	0.059
-708.645	-200.000	-0.003	-0.037
-707.631	-200.000	0.041	-0.227
-706.616	-200.000	0.003	-0.223
-705.602	712.871	0.047	0.126
-704.587	19.413	-0.178	0.144
-703.572	-52.748	-0.244	0.114
-702.558	253.541	-0.121	0.210
-701.543	-200.000	0.006	0.034
-700.529	11.141	-0.105	-0.081
-699.514	-167.727	0.033	-0.001
-698.499	800.000	-0.051	0.192
-697.485	250.995	-0.025	0.043
-696.470	-200.000	-0.002	-0.297
-695.456	-70.158	0.267	-0.102
-694.441	65.217	0.104	-0.106
-693.426	-81.030	0.142	-0.047
-692.412	800.000	-0.092	-0.348
-691.397	-125.536	-0.165	-0.025
-690.383	-200.000	-0.004	0.041
-689.368	708.856	-0.062	0.166
-688.354	-200.000	-0.047	-0.277
-687.339	145.281	-0.063	0.086
-686.324	800.000	-0.038	0.132
-685.310	438.006	0.047	0.103
-684.295	7.620	-0.333	-0.251
-683.281	785.626	-0.024	-0.066
-682.266	-111.473	-0.172	0.035
-681.251	-48.013	-0.135	0.066
-680.237	-200.000	-0.015	-0.108
-679.222	230.532	0.063	-0.103
-678.208	-153.966	-0.349	-0.024
-677.193	800.000	-0.063	-0.190
-676.178	20.261	0.189	0.154
-675.164	800.000	0.125	-0.411
-674.149	364.659	-0.112	-0.227
-673.135	-88.984	0.243	0.073
-672.120	71.336	0.118	0.124
-671.105	-200.000	-0.056	-0.365
-670.091	-102.561	0.090	0.022
-669.076	662.129	-0.150	0.391
-668.062	-147.665	-0.652	0.055
-667.047	-200.000	-0.012	0.068
-666.032	-79.685	0.279	0.095
-665.018	-81.327	-0.289	0.096
-664.003	-68.326	-0.214	0.084
-662.989	2.547	0.115	-0.084
-661.974	47.137	-0.061	0.057
-660.959	136.380	0.134	0.176
-659.945	-67.087	0.063	-0.025
-658.930	528.655	0.028	0.067
-657.916	359.217	0.009	-0.019
-656.901	-109.002	0.408	-0.088
-655.886	196.319	-0.095	-0.146
-654.872	-85.617	-0.310	0.097
-653.857	227.447	0.167	-0.274
-652.843	-67.770	0.206	0.081
-651.828	-200.000	-0.063	-0.322
-650.814	-108.452	0.118	-0.025
-649.799	800.000	0.005	-0.014
-648.784	-110.907	-0.320	-0.066
-647.770	800.000	-0.029	0.089
-646.755	-41.245	-0.254	0.132
-645.741	110.194	0.033	0.039
-644.726	800.000	-0.091	0.318
-643.711	-18.622	0.279	-0.175
-642.697	-33.869	0.322	-0.179
-641.682	364.358	-0.126	-0.255
-640.668	800.000	-0.038	-0.128
-639.653	-59.886	0.033	0.014
-638.638	-86.875	-0.279	-0.086
-637.624	67.227	0.238	-0.244
-636.609	309.640	0.058	-0.109
-635.595	-170.269	-0.265	0.009
-634.580	495.719	0.075	-0.173
-633.565	8.183	-0.244	0.184
-632.551	87.309	-0.130	-0.145
-631.536	36.272	0.107	0.095
-630.522	-200.000	-0.024	0.148
-629.507	-27.601	-0.304	0.178
-628.492	-200.000	0.045	0.243
-627.478	-54.369	-0.255	-0.116
-626.463	-176.074	0.229	0.006
-625.449	-118.384	0.243	0.043
-624.434	59.160	-0.147	-0.146
-623.419	76.147	-0.176	0.188
-622.405	785.072	-0.067	-0.185
-621.390	-200.000	0.045	-0.226
-620.376	-200.000	0.034	0.152
-619.361	217.047	0.157	-0.252
-618.346	-200.000	0.018	-0.439
-617.332	205.934	-0.094	0.148
-616.317	-29.622	-0.192	-0.111
-615.303	109.259	0.038	0.045
-614.288	197.565	-0.140	0.214
-613.273	-90.478	0.184	-0.054
-612.259	-200.000	0.041	0.243
-611.244	800.000	0.040	0.120
-610.230	-22.736	-0.129	0.079
-609.215	-102.746	-0.240	0.058
-608.201	-32.834	0.246	0.138
-607.186	800.000	0.037	0.146
-606.171	-78.080	0.138	0.048
-605.157	79.116	0.133	-0.143
-604.142	-60.146	0.230	-0.099
-603.128	-112.249	-0.253	-0.051
-602.113	-116.817	0.297	0.055
-601.098	-118.185	-0.146	-0.026
-600.084	-30.833	-0.286	0.162
-599.069	-87.608	-0.250	0.076
-598.055	-200.000	0.009	0.048
-597.040	-200.000	0.045	0.235
-596.025	-110.779	0.150	-0.031
-595.011	-19.537	-0.237	0.148
-593.996	-119.191	-0.264	-0.046
-592.982	139.120	-0.115	-0.152
-591.967	49.510	0.201	0.190
-590.952	800.000	0.086	0.283
-589.938	-159.986	-0.259	-0.014
-588.923	38.044	0.064	-0.057
-587.909	83.155	-0.145	0.158
-586.894	194.746	0.090	-0.137
-585.879	28.733	0.168	-0.143
-584.865	-128.744	0.127	-0.018
-583.850	355.233	-0.074	0.147
-582.836	31.881	-0.134	0.116
-581.821	55.319	-0.107	0.104
-580.806	-129.822	0.124	0.017
-579.792	351.368	0.075	-0.148
-578.777	125.170	-0.181	-0.230
-577.763	-200.000	-0.031	-0.386
-576.748	75.358	-0.118	0.125
-575.733	43.496	-0.079	0.072
-574.719	-73.364	-0.170	0.062
-573.704	166.824	0.166	-0.237
-572.690	-200.000	0.010	-0.080
-571.675	-143.181	0.317	-0.031
-570.661	-20.631	0.078	-0.048
-569.646	67.647	-0.203	0.209
-568.631	30.759	-0.132	-0.114
-567.617	-154.544	-0.183	0.012
-566.602	69.937	0.117	-0.121
-565.588	24.975	-0.188	0.157
-564.573	-146.092	0.140	-0.012
-563.558	348.545	-0.149	0.294
-562.544	765.850	-0.029	0.080
-561.529	800.000	0.054	0.224
-560.515	-200.000	-0.065	-0.318
-559.500	-83.471	-0.214	-0.069
-558.485	68.558	-0.224	0.230
-557.471	42.125	0.298	-0.272
-556.456	-102.812	-0.084	0.020
-555.442	214.661	0.137	-0.217
-554.427	652.093	0.039	-0.101
-553.412	377.601	-0.010	-0.021
-552.398	-152.327	-0.229	-0.017
-551.383	292.746	0.038	-0.069
-550.369	-156.181	0.655	0.041
-549.354	-49.842	0.199	0.095
-548.339	-164.750	-0.140	-0.006
-547.325	-56.650	-0.175	-0.078
-546.310	-200.000	-0.104	0.472
-545.296	-118.883	0.083	-0.015
-544.281	-102.433	-0.543	-0.130
-543.266	-200.000	0.004	-0.404
-542.252	237.318	0.134	-0.222
-541.237	100.166	0.042	-0.049
-540.223	407.377	-0.137	0.291
-539.208	800.000	-0.013	0.045
-538.193	202.893	-0.052	0.080
-537.179	24.759	0.229	-0.190
-536.164	-200.000	-0.006	0.199
-535.150	76.085	-0.241	0.256
-534.135	-200.000	0.007	-0.059
-533.121	-43.675	0.150	-0.076
-532.106	83.059	0.167	0.183
-531.091	-84.421	-0.182	0.058
-530.077	30.616	0.129	-0.111
-529.062	-171.261	-0.163	-0.005
-528.048	-168.117	0.199	0.008
-527.033	-108.783	-0.216	0.046
-526.018	-166.206	-0.146	-0.006
-525.004	9.104	0.049	0.037
-523.989	-200.000	-0.025	-0.242
-522.975	-200.000	-0.066	-0.354
-521.960	-96.143	0.167	-0.045
-520.945	41.106	-0.183	-0.165
-519.931	34.760	0.026	0.023
-518.916	686.445	-0.041	0.108
-517.902	78.748	0.025	-0.027
-516.887	800.000	0.072	-0.216
-515.872	-78.331	0.274	0.094
-514.858	-124.232	0.296	-0.046
-513.843	23.795	-0.189	0.156
-512.829	-70.898	-0.252	-0.095
-511.814	49.503	-0.274	-0.259
-510.799	63.931	0.324	0.326
-509.785	268.794	0.035	-0.062
-508.770	149.061	-0.311	-0.422
-507.756	800.000	0.120	0.373
-506.741	800.000	0.069	-0.212
-505.726	384.262	-0.091	0.188
-504.712	13.277	-0.129	-0.100
-503.697	-102.707	-0.166	-0.040
-502.683	800.000	-0.092	-0.326
-501.668	525.130	-0.123	-0.289
-500.653	-97.761	0.093	0.024
-499.639	-200.000	-0.068	0.349
-498.624	174.202	-0.077	0.112
-497.610	-175.603	0.281	0.008
-496.595	485.462	0.101	-0.231
-495.581	11.210	-0.105	0.081
-494.566	242.999	-0.080	-0.134
-493.551	111.107	-0.108	-0.130
-492.537	-158.326	-0.071	0.004
-491.522	-33.397	0.211	0.117
-490.508	-200.000	0.015	-0.178
-489.493	-200.000	-0.050	-0.400
-488.478	66.027	0.172	-0.175
-487.464	226.794	0.046	0.074
-486.449	-200.000	0.014	0.147
-485.435	-80.521	-0.043	-0.014
-484.420	-133.195	0.215	0.027
-483.405	-126.186	-0.102	0.015
-482.391	800.000	-0.116	0.365
-481.376	703.392	-0.112	-0.297
-480.362	800.000	0.062	0.228
-479.347	-33.835	0.098	0.054
-478.332	-200.000	-0.029	0.228
-477.318	227.200	0.038	0.062
-476.303	7.816	-0.098	-0.074
-475.289	800.000	-0.135	-0.401
-474.274	202.448	-0.150	-0.232
-473.259	-71.982	0.145	-0.054
-472.245	-199.176	-0.222	-0.001
-471.230	-142.483	0.446	-0.044
-470.216	800.000	-0.078	-0.315
-469.201	-81.154	0.117	0.039
-468.186	-200.000	0.025	0.211
-467.172	125.010	-0.199	-0.251
-466.157	8.921	-0.002	0.001
-465.143	564.452	-0.066	-0.160
-464.128	100.605	-0.074	-0.086
-463.113	-68.543	-0.180	-0.070
-462.099	66.315	-0.277	0.281
-461.084	-146.013	0.368	0.033
-460.070	-91.185	0.210	0.060
-459.055	800.000	-0.032	0.113
-458.040	48.227	0.119	0.111
-457.026	-200.000	0.000	0.040
-456.011	800.000	-0.029	-0.123
-454.997	-200.000	-0.014	0.416
-453.982	43.154	0.223	0.204
-452.968	53.158	0.056	0.053
-451.953	-200.000	0.005	0.361
-450.938	-117.222	0.139	0.025
-449.924	548.804	-0.148	0.355
-448.909	800.000	-0.060	0.206
-447.895	-200.000	-0.003	-0.219
-446.880	800.000	0.071	0.198
-445.865	346.003	0.172	-0.338
-444.851	800.000	-0.044	-0.166
-443.836	-78.671	-0.238	-0.081
-442.822	293.930	-0.072	-0.131
-441.807	800.000	-0.059	0.244
-440.792	-7.721	0.060	0.040
-439.778	32.152	-0.091	0.079
-438.763	331.636	-0.020	-0.038
-437.749	800.000	-0.103	-0.322
-436.734	800.000	0.054	-0.179
-435.719	132.712	-0.056	0.072
-434.705	8.627	0.177	0.133
-433.690	-72.195	0.170	-0.063
-432.676	-90.504	0.350	-0.101
-431.661	-79.779	0.253	0.085
-430.646	28.546	-0.273	0.231
-429.632	-200.000	-0.005	0.165
-428.617	368.847	-0.095	0.191
-427.603	-101.795	0.324	-0.078
-426.588	256.535	0.262	0.450
-425.573	661.149	0.031	-0.079
-424.559	-71.730	-0.321	0.120
-423.544	-200.000	-0.028	0.126
-422.530	341.437	-0.109	-0.213
-421.515	245.476	-0.148	-0.248
-420.500	160.117	0.081	-0.113
-419.486	-200.000	0.035	-0.167
-418.471	800.000	0.044	-0.143
-417.457	800.000	-0.087	0.335
-416.442	73.336	0.290	-0.303
-415.428	631.516	0.248	-0.627
-414.413	-200.000	-0.080	0.432
-413.398	-7.423	0.062	-0.042
-412.384	-78.164	0.207	0.071
-411.369	800.000	-0.106	0.355
-410.355	800.000	-0.062	0.223
-409.340	-129.402	0.372	-0.052
-408.325	374.862	-0.028	-0.057
-407.311	-126.930	-0.263	-0.039
-406.296	-116.491	-0.087	-0.016
-405.282	-200.000	0.014	0.077
-404.267	-8.543	-0.360	-0.241
-403.252	-140.456	0.292	0.030
-402.238	74.844	-0.188	-0.197
-401.223	-200.000	-0.041	0.200
-400.209	40.806	-0.264	-0.237
-399.194	149.178	-0.316	-0.427
-398.179	800.000	0.031	-0.121
-397.165	246.242	0.134	0.225
-396.150	246.326	0.043	-0.073
-395.136	96.961	0.103	-0.118
-394.121	-103.569	0.297	-0.069
-393.106	-109.053	-0.043	-0.009
-392.092	-200.000	0.033	0.403
-391.077	-29.864	0.009	0.005
-390.063	-0.751	-0.142	0.101
-389.048	-200.000	-0.008	0.120
-388.033	143.985	-0.136	0.181
-387.019	1.381	0.427	0.306
-386.004	-137.519	0.176	0.020
-384.990	264.945	-0.184	0.320
-383.975	-124.652	-0.285	0.044
-382.960	581.403	-0.124	0.304
-381.946	-51.280	0.240	0.112
-380.931	-149.618	-0.124	-0.010
-379.917	127.745	0.111	-0.141
-378.902	-159.010	0.323	0.018
-377.888	-120.982	0.080	0.013
-376.873	140.939	-0.149	0.196
-375.858	-16.721	0.285	0.180
-374.844	166.826	-0.140	-0.198
-373.829	-174.813	0.077	-0.002
-372.815	800.000	-0.041	0.157
-371.800	-168.483	-0.181	-0.007
-370.785	-54.706	-0.174	0.078
-369.771	-72.688	0.245	-0.090
-368.756	800.000	0.044	-0.138
-367.742	800.000	-0.030	-0.120
-366.727	46.556	-0.142	-0.131
-365.712	-138.869	0.213	-0.023
-364.698	-200.000	-0.028	0.128
-363.683	-200.000	-0.012	0.234
-362.669	-29.128	-0.346	-0.198
-361.654	800.000	-0.066	0.282
-360.639	-137.301	0.068	-0.008
-359.625	-68.518	0.397	-0.153
-358.610	273.294	-0.042	-0.073
-357.596	26.001	-0.102	0.085
-356.581	-137.752	-0.178	-0.020
-355.566	267.468	0.104	-0.181
-354.552	208.194	0.055	-0.085
-353.537	-57.549	-0.179	-0.078
-352.523	-111.653	-0.173	-0.035
-351.508	-54.534	-0.070	-0.032
-350.493	800.000	-0.021	0.069
-349.479	-107.409	0.303	0.066
-348.464	-200.000	0.071	0.456
-347.450	-200.000	-0.005	0.108
-346.435	-200.000	-0.012	-0.194
-345.420	-14.128	-0.068	-0.043
-344.406	-200.000	0.030	0.412
-343.391	53.197	-0.153	-0.146
-342.377	-200.000	-0.002	-0.058
-341.362	800.000	-0.084	-0.350
-340.348	141.804	0.056	-0.074
-339.333	-48.912	-0.123	0.058
-338.318	127.034	-0.260	0.328
-337.304	212.789	0.197	-0.310
-336.289	208.656	-0.216	0.337
-335.275	147.998	0.097	-0.130
-334.260	-200.000	-0.015	0.248
-333.245	-156.779	-0.276	0.017
-332.231	43.114	-0.155	0.141
-331.216	-106.827	-0.230	-0.051
-330.202	800.000	0.060	0.199
-329.187	800.000	-0.041	0.164
-328.172	-200.000	-0.020	-0.347
-327.158	194.376	0.096	0.144
-326.143	263.896	0.076	0.132
-325.129	800.000	0.063	-0.227
-324.114	-38.197	0.344	-0.182
-323.099	80.892	-0.172	0.184
-322.085	800.000	0.025	0.106
-321.070	-200.000	-0.013	0.193
-320.056	-31.115	0.075	-0.042
-319.041	-69.679	-0.314	0.119
-318.026	95.611	-0.141	-0.160
-317.012	-146.223	0.237	-0.021
-315.997	-180.893	-0.501	0.010
-314.983	-60.576	-0.158	-0.067
-313.968	18.019	0.105	0.083
-312.953	-200.000	0.038	0.244
-311.939	-82.863	0.056	0.018
-310.924	-65.000	0.148	0.059
-309.910	179.480	0.055	-0.081
-308.895	-200.000	-0.014	-0.062
-307.880	41.995	-0.034	0.030
-306.866	-80.498	0.141	0.047
-305.851	-137.632	0.358	0.040
-304.837	-2.783	0.126	-0.088
-303.822	800.000	-0.162	-0.462
-302.807	-200.000	0.021	-0.280
-301.793	-107.158	-0.209	-0.046
-300.778	800.000	0.080	-0.232
-299.764	-200.000	-0.040	-0.182
-298.749	110.060	-0.109	-0.130
-297.735	2.132	-0.182	-0.131
-296.720	-157.949	0.405	0.024
-295.705	-116.945	0.481	0.087
-294.691	773.153	-0.078	-0.212
-293.676	491.314	0.166	0.377
-292.662	800.000	0.090	0.366
-291.647	26.318	0.174	0.144
-290.632	-124.272	-0.047	-0.007
-289.618	800.000	-0.087	-0.259
-288.603	146.959	0.219	-0.293
-287.589	106.443	-0.096	-0.113
-286.574	38.524	0.281	0.249
-285.559	-36.821	0.220	-0.117
-284.545	-93.763	-0.109	-0.030
-283.530	-109.819	0.126	-0.026
-282.516	114.096	0.063	0.077
-281.501	800.000	0.050	-0.205
-280.486	-165.131	0.201	-0.009
-279.472	-200.000	-0.052	-0.267
-278.457	156.276	0.033	-0.045
-277.443	29.215	-0.324	-0.273
-276.428	-64.226	-0.141	-0.057
-275.413	800.000	-0.090	0.250
-274.399	-138.852	-0.322	-0.035
-273.384	-10.192	0.402	-0.265
-272.370	-52.253	0.047	-0.021
-271.355	-200.000	-0.016	0.123
-270.340	11.266	-0.254	-0.193
-269.326	-51.542	0.253	-0.117
-268.311	-200.000	0.050	0.405
-267.297	800.000	0.070	0.301
-266.282	17.419	-0.263	-0.207
-265.267	-152.626	-0.370	0.026
-264.253	-194.082	-0.320	-0.003
-263.238	286.082	-0.109	0.196
-262.224	-24.102	-0.124	-0.074
-261.209	233.723	0.034	0.056
-260.195	220.996	0.108	0.171
-259.180	-185.907	-0.342	-0.005
-258.165	-200.000	-0.048	-0.208
-257.151	41.781	0.247	-0.222
-256.136	99.834	0.144	-0.166
-255.122	-103.164	-0.124	0.029
-254.107	-200.000	0.014	0.078
-253.092	495.257	-0.173	0.393
-252.078	214.082	-0.170	-0.268
-251.063	147.808	-0.028	-0.038
-250.049	-200.000	-0.014	0.108
-249.034	800.000	-0.042	-0.140
-248.019	-64.227	-0.206	-0.083
-247.005	-36.729	0.268	-0.143
-245.990	-58.006	0.066	0.029
-244.976	575.448	0.142	0.344
-243.961	93.723	0.120	0.135
-242.946	-34.544	-0.541	0.294
-241.932	61.941	0.298	-0.294
-240.917	-200.000	0.016	0.090
-239.903	334.653	-0.198	-0.381
-238.888	-58.271	0.119	0.051
-237.873	636.276	-0.091	-0.228
-236.859	-101.631	0.122	-0.029
-235.844	-200.000	-0.015	-0.159
-234.830	-38.443	-0.109	-0.057
-233.815	-3.964	-0.135	-0.093
-232.800	-143.229	-0.249	-0.024
-231.786	-171.315	-0.253	-0.008
-230.771	356.874	-0.088	-0.174
-229.757	7.487	-0.122	0.090
-228.742	-28.367	0.366	0.209
-227.727	-15.694	0.068	-0.043
-226.713	-88.257	-0.344	-0.102
-225.698	-112.353	-0.179	0.035
-224.684	-38.864	-0.223	0.116
-223.669	391.366	-0.050	-0.103
-222.655	-15.779	0.302	-0.191
-221.640	-200.000	0.042	0.371
-220.625	20.025	0.287	-0.229
-219.611	-168.437	-0.256	-0.010
-218.596	299.902	0.092	-0.169
-217.582	623.978	0.075	-0.186
-216.567	34.822	-0.108	-0.094
-215.552	-129.037	0.148	0.021
-214.538	-30.206	0.105	0.059
-213.523	97.856	0.183	-0.209
-212.509	-79.137	0.087	0.029
-211.494	465.271	0.055	0.121
-210.479	74.559	0.269	0.280
-209.465	8.683	-0.033	0.025
-208.450	-200.000	0.000	0.016
-207.436	-200.000	0.002	0.152
-206.421	-200.000	-0.011	0.182
-205.406	-94.934	-0.121	-0.033
-204.392	-103.931	-0.400	-0.093
-203.377	554.783	0.122	0.291
-202.363	-148.956	0.189	0.015
-201.348	216.445	0.185	-0.291
-200.333	71.678	0.084	-0.086
-199.319	-74.734	0.275	0.098
-198.304	-200.000	0.006	-0.301
-197.290	371.864	0.118	0.238
-196.275	212.933	-0.252	-0.393
-195.260	386.285	-0.039	-0.079
-194.246	-200.000	0.016	-0.261
-193.231	-87.552	-0.314	-0.094
-192.217	-200.000	-0.053	0.323
-191.202	-179.317	0.336	-0.007
-190.187	84.467	-0.181	-0.196
-189.173	-200.000	0.029	0.147
-188.158	-192.658	-0.032	0.000
-187.144	7.538	0.196	0.145
-186.129	524.473	0.117	0.271
-185.114	-200.000	-0.062	0.310
-184.100	1.712	0.216	-0.154
-183.085	-76.053	-0.138	0.048
-182.071	-200.000	0.044	0.359
-181.056	-171.862	-0.020	0.001
-180.042	-91.103	0.280	-0.080
-179.027	-200.000	-0.024	-0.297
-178.012	-68.937	0.106	0.040
-176.998	-113.270	0.244	-0.047
-175.983	409.487	-0.024	-0.051
-174.969	-75.592	-0.329	-0.116
-173.954	-200.000	-0.007	0.124
-172.939	265.565	0.028	0.049
-171.925	96.528	0.328	0.372
-170.910	-54.215	-0.287	0.129
-169.896	-87.225	0.160	-0.048
-168.881	147.535	0.211	0.281
-167.866	418.105	0.133	0.281
-166.852	-139.954	0.185	-0.019
-165.837	-18.121	0.430	-0.266
-164.823	18.080	0.129	-0.102
-163.808	-200.000	0.027	-0.167
-162.793	-66.313	0.291	0.115
-161.779	152.577	-0.088	-0.119
-160.764	171.249	-0.089	-0.126
-159.750	-200.000	-0.004	0.080
-158.735	-0.156	0.247	0.174
-157.720	486.270	0.138	-0.311
-156.706	206.302	0.042	0.064
-155.691	800.000	0.062	0.205
-154.677	482.372	-0.009	-0.020
-153.662	-88.562	-0.007	-0.002
-152.647	-200.000	-0.004	0.264
-151.633	44.042	0.210	0.191
-150.618	-37.337	-0.055	-0.029
-149.604	109.785	0.202	0.239
-148.589	133.745	-0.126	-0.161
-147.574	123.625	0.129	-0.160
-146.560	800.000	0.022	-0.070
-145.545	-200.000	-0.009	-0.262
-144.531	800.000	0.047	0.170
-143.516	598.557	0.050	-0.122
-142.502	-48.655	0.279	0.132
-141.487	-45.290	0.136	-0.067
-140.472	-200.000	0.023	0.247
-139.458	19.417	-0.148	-0.118
-138.443	173.272	0.135	-0.192
-137.429	-23.228	0.236	0.140
-136.414	422.557	0.036	-0.076
-135.399	-20.082	0.167	0.102
-134.385	-99.013	-0.302	-0.076
-133.370	74.618	-0.176	-0.183
-132.356	-33.813	-0.099	0.054
-131.341	-63.755	0.043	-0.017
-130.326	26.732	0.018	0.015
-129.312	-153.189	-0.332	0.023
-128.297	94.943	-0.301	-0.339
-127.283	-47.820	-0.242	-0.116
-126.268	-164.782	0.348	0.015
-125.253	-91.401	0.101	0.028
-124.239	800.000	-0.096	0.391
-123.224	417.263	-0.108	0.228
-122.210	241.511	0.061	-0.100
