DTS Sentinel unit serial number:	SN413079Multiplexer serial number:	ORYXHardware model number:	OX4-SRSoftware version number:	ORYX F/W v4.00 Oryx Data Collector v3.7.2.0data status	okinstallation	princeton_trtdifferential loss correction	single-endedforward channel	channel 4reverse channel	N/Adate	2019/09/19time	01:45:35forward acquisition time	60.00reverse acquisition time	0.00gamma	496.2192k internal	0.2340k external	0.2340temperature offset calibration	1.0027default loss term (dB/km)	0.3790temperature slope calibration	1.0000multiplexer offset coefficient	1.0000multiplexer slope coefficient	1.0000fibre end	0.00T internal ref (°C)	21.41T ext. ref 1 (°C)	0.69T ext. ref 2 (°C)	14.89length (m)	temperature (°C)	Stokes	anti-Stokes-747.200	31.319	-0.066	0.057
-746.185	265.653	-0.273	0.477
-745.171	800.000	0.074	0.244
-744.156	-26.638	0.259	-0.152
-743.142	376.223	0.020	0.040
-742.127	137.500	0.087	0.115
-741.112	379.189	-0.067	-0.137
-740.098	-129.877	0.147	-0.020
-739.083	800.000	-0.088	-0.254
-738.069	-46.455	-0.222	0.109
-737.054	-200.000	-0.001	-0.195
-736.039	225.251	-0.109	-0.178
-735.025	-153.154	0.291	0.020
-734.010	-18.174	-0.190	-0.119
-732.996	-129.003	-0.080	-0.011
-731.981	494.111	0.104	0.240
-730.966	-200.000	0.241	-0.000
-729.952	-16.438	-0.126	-0.080
-728.937	-117.037	-0.281	0.051
-727.923	-200.000	0.018	0.117
-726.908	11.820	0.212	-0.163
-725.894	45.519	-0.301	-0.279
-724.879	39.089	-0.140	0.125
-723.864	-51.406	0.215	-0.101
-722.850	-200.000	0.006	-0.239
-721.835	-200.000	-0.010	0.244
-720.821	-200.000	0.004	-0.133
-719.806	-200.000	0.066	-0.299
-718.791	467.896	0.196	0.441
-717.777	-19.479	0.140	-0.087
-716.762	-166.762	-0.237	0.010
-715.748	-200.000	0.085	-0.421
-714.733	222.831	-0.153	-0.246
-713.718	800.000	0.130	0.376
-712.704	132.338	0.126	0.163
-711.689	-200.000	0.001	-0.179
-710.675	-80.011	-0.161	-0.054
-709.660	116.887	-0.100	-0.123
-708.645	155.550	0.228	-0.315
-707.631	-96.298	-0.149	0.039
-706.616	617.293	-0.102	-0.256
-705.602	113.698	0.134	0.163
-704.587	-200.000	0.020	-0.196
-703.572	-135.497	0.137	-0.016
-702.558	125.826	-0.184	-0.233
-701.543	-98.023	-0.042	0.011
-700.529	174.485	-0.026	0.037
-699.514	109.254	0.008	-0.010
-698.499	-86.289	-0.171	-0.053
-697.485	122.442	0.056	0.069
-696.470	610.087	0.060	-0.151
-695.456	419.680	0.034	0.073
-694.441	-200.000	-0.025	0.181
-693.426	800.000	-0.053	0.170
-692.412	478.105	0.110	-0.249
-691.397	-125.711	-0.250	-0.038
-690.383	742.500	-0.039	-0.106
-689.368	20.672	0.070	0.056
-688.354	-200.000	-0.386	0.002
-687.339	-158.273	-0.240	-0.014
-686.324	-200.000	0.043	0.272
-685.310	225.891	0.159	0.258
-684.295	148.502	-0.304	-0.411
-683.281	-200.000	0.002	-0.016
-682.266	-44.319	0.315	-0.158
-681.251	-37.722	0.072	0.038
-680.237	-81.778	0.143	0.047
-679.222	15.677	0.160	-0.125
-678.208	-200.000	-0.025	0.327
-677.193	14.377	0.170	-0.133
-676.178	-200.000	0.012	-0.080
-675.164	552.667	0.144	-0.345
-674.149	-63.229	0.057	0.023
-673.135	137.671	-0.094	-0.123
-672.120	-120.080	0.124	-0.021
-671.105	800.000	-0.062	-0.185
-670.091	-200.000	-0.037	-0.189
-669.076	-23.940	0.314	-0.188
-668.062	-57.507	-0.165	0.072
-667.047	461.895	0.128	-0.285
-666.032	-177.537	0.073	-0.002
-665.018	-200.000	-0.018	0.168
-664.003	-95.608	0.120	-0.032
-662.989	104.847	-0.130	0.154
-661.974	-55.657	0.212	-0.095
-660.959	-115.007	-0.181	-0.034
-659.945	-95.435	-0.184	-0.049
-658.930	-84.540	0.183	0.058
-657.916	-200.000	0.037	-0.244
-656.901	34.267	-0.308	0.268
-655.886	-49.752	0.089	0.042
-654.872	401.976	0.036	-0.076
-653.857	-200.000	0.008	-0.172
-652.843	-94.391	0.066	0.018
-651.828	-133.576	0.222	-0.028
-650.814	-123.467	-0.087	-0.014
-649.799	800.000	-0.025	-0.073
-648.784	800.000	-0.055	0.160
-647.770	67.264	-0.290	0.296
-646.755	-200.000	-0.002	-0.293
-645.741	-200.000	-0.013	0.095
-644.726	-40.033	-0.166	0.086
-643.711	-200.000	0.016	-0.296
-642.697	-113.910	0.197	-0.038
-641.682	153.472	-0.159	-0.217
-640.668	-123.065	0.204	-0.033
-639.653	166.069	0.126	0.178
-638.638	-92.237	-0.242	0.068
-637.624	800.000	0.022	0.079
-636.609	-200.000	-0.014	-0.348
-635.595	186.280	0.076	0.114
-634.580	-96.385	-0.094	-0.025
-633.565	800.000	0.083	-0.255
-632.551	96.532	-0.032	0.036
-631.536	172.651	0.170	0.244
-630.522	800.000	0.114	-0.421
-629.507	562.479	0.102	-0.247
-628.492	-155.663	-0.319	0.020
-627.478	643.427	-0.054	-0.136
-626.463	20.098	0.295	0.238
-625.449	53.381	0.199	-0.190
-624.434	-8.572	0.184	0.123
-623.419	1.806	0.195	-0.140
-622.405	179.318	0.089	-0.130
-621.390	179.318	-0.107	-0.156
-620.376	-163.716	-0.171	-0.008
-619.361	-200.000	-0.006	0.338
-618.346	111.303	0.251	0.302
-617.332	-82.261	0.257	-0.083
-616.317	497.000	0.095	-0.217
-615.303	-55.650	-0.167	0.074
-614.288	-95.088	-0.178	0.048
-613.273	516.331	-0.146	-0.341
-612.259	800.000	0.046	0.144
-611.244	236.393	-0.207	0.342
-610.230	-200.000	0.042	-0.225
-609.215	-142.557	-0.143	0.014
-608.201	-200.000	0.007	-0.182
-607.186	-119.185	-0.053	0.009
-606.171	83.839	0.016	-0.017
-605.157	9.637	-0.250	-0.189
-604.142	154.065	-0.300	-0.410
-603.128	-75.725	-0.221	-0.078
-602.113	-115.306	0.264	0.050
-601.098	-24.310	0.277	-0.165
-600.084	-9.278	-0.106	0.070
-599.069	-116.601	0.173	-0.032
-598.055	146.503	-0.112	0.150
-597.040	115.730	-0.146	-0.178
-596.025	-200.000	0.029	0.161
-595.011	752.518	-0.045	0.120
-593.996	-200.000	0.010	-0.215
-592.982	-200.000	-0.028	-0.140
-591.967	101.867	0.117	-0.136
-590.952	-200.000	0.028	-0.216
-589.938	-9.314	-0.095	-0.063
-588.923	-200.000	0.004	0.143
-587.909	-19.776	0.082	0.050
-586.894	-71.425	-0.150	0.056
-585.879	768.301	-0.136	0.367
-584.865	-200.000	-0.011	0.064
-583.850	180.800	-0.084	0.124
-582.836	-5.031	-0.256	-0.175
-581.821	-200.000	0.046	0.389
-580.806	-74.752	0.229	-0.082
-579.792	-82.990	0.119	-0.038
-578.777	-200.000	-0.005	-0.091
-577.763	406.861	-0.108	0.227
-576.748	800.000	0.085	-0.264
-575.733	96.009	0.143	0.162
-574.719	-95.660	-0.013	-0.004
-573.704	-57.552	-0.092	-0.040
-572.690	-50.436	0.346	0.163
-571.675	247.476	0.253	-0.425
-570.661	800.000	0.015	0.054
-569.646	800.000	-0.045	0.179
-568.631	-200.000	0.009	0.150
-567.617	-200.000	0.015	-0.226
-566.602	-104.560	-0.187	0.043
-565.588	-200.000	0.098	0.522
-564.573	22.460	-0.095	0.077
-563.558	597.725	-0.020	0.050
-562.544	-153.343	-0.345	-0.024
-561.529	247.791	-0.053	-0.089
-560.515	-88.533	0.329	0.098
-559.500	-127.236	-0.305	0.044
-558.485	207.699	0.154	0.239
-557.471	69.621	-0.024	-0.025
-556.456	733.858	0.081	-0.216
-555.442	-200.000	-0.041	-0.386
-554.427	311.012	0.054	-0.100
-553.412	800.000	-0.100	0.423
-552.398	654.934	0.101	0.257
-551.383	126.038	-0.062	-0.078
-550.369	63.045	-0.265	-0.264
-549.354	31.898	0.217	0.186
-548.339	800.000	-0.046	-0.136
-547.325	121.564	-0.332	-0.412
-546.310	800.000	-0.048	-0.155
-545.296	800.000	-0.049	0.187
-544.281	-126.844	-0.088	-0.013
-543.266	280.173	0.069	-0.123
-542.252	186.308	-0.137	0.202
-541.237	-200.000	-0.047	0.251
-540.223	-123.892	-0.056	0.009
-539.208	67.818	0.253	0.257
-538.193	662.358	-0.090	-0.230
-537.179	-19.693	-0.228	-0.140
-536.164	-30.404	0.380	-0.214
-535.150	800.000	-0.081	-0.232
-534.135	-200.000	0.005	0.095
-533.121	-135.748	0.088	0.010
-532.106	-56.265	-0.162	0.072
-531.091	-113.727	0.202	-0.039
-530.077	570.996	-0.092	-0.222
-529.062	-107.987	-0.082	0.018
-528.048	-89.798	0.070	-0.020
-527.033	200.443	0.193	-0.295
-526.018	800.000	-0.019	-0.082
-525.004	-45.906	0.194	-0.095
-523.989	278.024	0.126	-0.223
-522.975	10.926	-0.169	-0.128
-521.960	-13.570	-0.290	-0.187
-520.945	-126.893	0.213	0.031
-519.931	-50.286	-0.232	-0.109
-518.916	129.987	0.198	0.252
-517.902	227.966	-0.217	0.351
-516.887	-200.000	0.038	0.314
-515.872	800.000	0.088	-0.266
-514.858	338.003	0.018	0.035
-513.843	96.641	-0.225	0.256
-512.829	800.000	0.149	0.472
-511.814	800.000	-0.030	-0.122
-510.799	11.300	-0.078	-0.059
-509.785	66.779	0.185	0.187
-508.770	-145.886	0.096	0.008
-507.756	-34.510	0.123	-0.067
-506.741	-117.117	0.115	0.021
-505.726	-64.713	0.414	-0.167
-504.712	34.100	0.132	0.114
-503.697	-78.071	-0.182	-0.062
-502.683	104.727	0.164	0.192
-501.668	800.000	-0.065	0.238
-500.653	215.243	0.119	-0.188
-499.639	-52.265	0.323	-0.149
-498.624	-200.000	0.028	-0.365
-497.610	800.000	0.063	-0.200
-496.595	-200.000	-0.009	-0.061
-495.581	-63.073	-0.199	0.081
-494.566	800.000	-0.054	-0.194
-493.551	-27.592	-0.075	-0.043
-492.537	-6.093	-0.218	-0.148
-491.522	-48.574	-0.234	-0.112
-490.508	47.258	0.325	0.300
-489.493	-78.286	-0.296	-0.101
-488.478	-200.000	-0.019	-0.241
-487.464	-85.385	0.347	-0.107
-486.449	82.642	-0.308	0.333
-485.435	-56.627	0.054	-0.024
-484.420	-53.823	-0.406	0.184
-483.405	29.946	0.287	0.243
-482.391	11.733	0.268	-0.204
-481.376	800.000	0.007	0.022
-480.362	201.059	0.218	0.333
-479.347	-89.262	-0.112	0.033
-478.332	153.050	0.196	-0.266
-477.318	-200.000	0.003	0.056
-476.303	-192.268	-0.082	-0.001
-475.289	159.054	0.148	0.204
-474.274	464.931	0.089	-0.199
-473.259	157.555	-0.158	-0.217
-472.245	-129.551	0.145	0.020
-471.230	-111.376	-0.356	0.072
-470.216	148.753	-0.119	0.160
-469.201	25.500	0.136	0.112
-468.186	-165.606	0.399	0.017
-467.172	-10.129	0.214	-0.141
-466.157	-23.411	0.064	0.038
-465.143	152.465	0.083	-0.112
-464.128	273.294	-0.174	-0.305
-463.113	78.017	0.093	0.098
-462.099	800.000	0.063	0.232
-461.084	456.508	0.166	-0.366
-460.070	185.345	-0.149	-0.219
-459.055	-138.031	0.383	0.042
-458.040	-59.437	-0.315	-0.134
-457.026	-69.082	0.152	0.058
-456.011	800.000	-0.051	-0.171
-454.997	-63.336	0.286	-0.117
-453.982	66.997	0.057	0.058
-452.968	96.883	0.246	0.280
-451.953	332.796	0.098	0.188
-450.938	-200.000	-0.039	0.335
-449.924	145.564	-0.078	-0.103
-448.909	-200.000	-0.022	0.103
-447.895	-200.000	0.049	0.247
-446.880	130.636	0.076	0.096
-445.865	49.142	-0.248	-0.231
-444.851	389.163	-0.109	0.224
-443.836	110.706	0.260	0.310
-442.822	459.153	0.057	0.126
-441.807	326.551	-0.076	0.145
-440.792	96.016	0.191	-0.216
-439.778	25.959	0.178	-0.147
-438.763	-74.418	-0.090	-0.032
-437.749	-136.536	-0.418	-0.048
-436.734	-183.392	-0.353	-0.006
-435.719	36.293	0.106	-0.093
-434.705	-200.000	-0.000	-0.166
-433.690	-146.336	-0.125	-0.011
-432.676	-15.921	0.274	0.173
-431.661	-32.378	-0.339	-0.187
-430.646	-43.854	0.046	0.023
-429.632	103.259	0.207	0.240
-428.617	-200.000	-0.038	-0.176
-427.603	-200.000	-0.003	-0.171
-426.588	-200.000	-0.000	-0.337
-425.573	498.670	0.070	0.159
-424.559	103.111	-0.094	0.109
-423.544	-91.471	0.330	0.093
-422.530	-142.056	-0.051	0.005
-421.515	98.579	-0.149	-0.170
-420.500	-151.776	0.169	0.012
-419.486	-124.900	0.325	0.050
-418.471	-109.582	-0.215	-0.045
-417.457	-200.000	-0.022	0.150
-416.442	596.668	-0.172	0.421
-415.428	-200.000	0.031	0.225
-414.413	-200.000	-0.017	0.089
-413.398	800.000	0.064	-0.266
-412.384	-200.000	-0.005	-0.313
-411.369	-101.896	-0.275	0.066
-410.355	45.163	0.181	-0.165
-409.340	93.414	0.253	-0.283
-408.325	115.842	-0.108	0.130
-407.311	-138.980	0.401	0.043
-406.296	-200.000	-0.011	0.244
-405.282	-49.016	0.069	0.033
-404.267	31.631	-0.239	0.204
-403.252	-51.969	0.030	0.014
-402.238	91.324	0.111	0.123
-401.223	-105.668	0.197	0.044
-400.209	-98.811	0.133	0.034
-399.194	-106.714	-0.281	-0.062
-398.179	800.000	-0.058	0.163
-397.165	203.020	-0.104	-0.158
-396.150	-200.000	0.009	0.187
-395.136	215.129	-0.127	-0.199
-394.121	62.835	0.042	-0.041
-393.106	-200.000	-0.007	0.105
-392.092	-3.086	0.051	-0.035
-391.077	519.207	-0.139	0.322
-390.063	-37.341	-0.395	0.209
-389.048	-30.958	0.123	0.069
-388.033	108.269	-0.176	-0.207
-387.019	401.453	0.054	0.113
-386.004	-56.594	-0.050	0.022
-384.990	445.769	-0.090	-0.196
-383.975	-14.344	-0.191	0.122
-382.960	800.000	-0.074	-0.301
-381.946	-200.000	-0.019	-0.171
-380.931	-102.824	-0.136	-0.032
-379.917	800.000	-0.037	0.133
-378.902	169.008	0.093	-0.132
-377.888	-39.914	0.135	-0.070
-376.873	-200.000	0.021	0.368
-375.858	-35.847	0.309	-0.165
-374.844	112.940	0.247	-0.296
-373.829	121.595	-0.124	-0.153
-372.815	-142.452	-0.413	-0.040
-371.800	-200.000	0.029	0.143
-370.785	405.543	-0.144	0.300
-369.771	-200.000	-0.005	-0.126
-368.756	800.000	0.141	-0.418
-367.742	-185.161	-0.212	0.003
-366.727	-200.000	0.010	-0.080
-365.712	224.372	-0.070	0.111
-364.698	130.119	0.142	-0.180
-363.683	-78.741	0.130	-0.044
-362.669	-154.109	0.214	0.014
-361.654	81.476	0.312	-0.333
-360.639	-79.642	0.079	-0.026
-359.625	-76.703	-0.146	0.051
-358.610	-62.765	-0.238	-0.098
-357.596	307.046	0.077	0.141
-356.581	800.000	-0.121	0.411
-355.566	-123.487	-0.190	0.030
-354.552	296.766	-0.100	0.182
-353.537	622.628	-0.063	0.157
-352.523	150.072	-0.135	0.181
-351.508	-200.000	0.019	0.169
-350.493	-104.763	-0.156	-0.036
-349.479	-90.313	0.321	0.092
-348.464	190.761	-0.156	0.231
-347.450	-200.000	0.018	-0.216
-346.435	10.483	0.168	0.126
-345.420	-125.299	-0.024	0.004
-344.406	-162.019	-0.187	0.009
-343.391	-200.000	0.025	-0.126
-342.377	214.794	-0.184	0.287
-341.362	-37.265	-0.120	0.064
-340.348	-110.637	-0.036	-0.007
-339.333	-39.768	-0.102	0.053
-338.318	-200.000	-0.005	-0.046
-337.304	-112.555	0.240	0.047
-336.289	-200.000	-0.030	0.165
-335.275	-146.946	0.224	-0.019
-334.260	611.083	-0.085	-0.209
-333.245	221.098	-0.035	0.056
-332.231	70.838	0.245	0.250
-331.216	800.000	-0.039	0.161
-330.202	-163.753	0.113	-0.005
-329.187	-200.000	-0.015	0.138
-328.172	49.255	-0.385	-0.357
-327.158	-116.214	-0.177	-0.032
-326.143	-91.455	-0.220	0.062
-325.129	-200.000	0.047	-0.440
-324.114	-37.432	-0.110	-0.058
-323.099	-200.000	0.042	0.296
-322.085	-142.849	-0.123	-0.012
-321.070	-103.139	-0.192	0.045
-320.056	-133.479	-0.210	0.026
-319.041	210.532	0.085	-0.132
-318.026	228.469	-0.080	0.129
-317.012	-77.824	-0.095	0.032
-315.997	-200.000	-0.004	-0.340
-314.983	800.000	0.074	-0.243
-313.968	175.469	0.059	-0.085
-312.953	16.159	0.093	0.072
-311.939	-180.285	0.164	0.003
-310.924	34.566	0.126	0.109
-309.910	-200.000	-0.022	0.217
-308.895	-200.000	0.005	-0.431
-307.880	-200.000	-0.007	-0.090
-306.866	-78.110	0.203	0.069
-305.851	272.580	-0.212	-0.369
-304.837	155.089	0.214	0.290
-303.822	-93.678	-0.250	0.068
-302.807	1.154	-0.041	-0.029
-301.793	-71.257	-0.140	0.052
-300.778	99.490	0.169	0.193
-299.764	122.472	0.118	-0.145
-298.749	36.623	-0.130	-0.113
-297.735	372.690	0.180	0.360
-296.720	-200.000	0.005	-0.064
-295.705	-200.000	0.033	-0.315
-294.691	51.171	0.132	-0.123
-293.676	253.595	-0.150	0.252
-292.662	227.372	0.216	-0.346
-291.647	-0.019	0.267	-0.187
-290.632	156.490	-0.195	0.265
-289.618	-200.000	-0.080	-0.459
-288.603	-200.000	-0.064	0.308
-287.589	-109.070	0.339	-0.071
-286.574	689.020	-0.126	0.325
-285.559	398.948	-0.173	0.356
-284.545	62.285	0.130	0.128
-283.530	428.335	0.070	-0.150
-282.516	800.000	0.098	0.275
-281.501	494.273	0.200	0.451
-280.486	-200.000	-0.023	0.163
-279.472	-200.000	-0.031	-0.252
-278.457	40.937	0.156	-0.139
-277.443	-127.457	0.119	-0.017
-276.428	144.143	-0.228	0.300
-275.413	-6.199	-0.186	0.125
-274.399	295.261	-0.104	0.188
-273.384	-152.750	0.087	-0.006
-272.370	-117.426	-0.109	0.019
-271.355	-200.000	0.045	0.283
-270.340	486.040	-0.060	0.135
-269.326	-63.375	-0.255	0.103
-268.311	-77.688	-0.314	0.107
-267.297	-200.000	0.010	0.248
-266.282	-134.803	0.295	0.035
-265.267	-117.254	-0.395	-0.071
-264.253	60.540	0.292	0.285
-263.238	-10.334	-0.443	0.289
-262.224	-160.778	-0.151	0.008
-261.209	-132.099	-0.073	0.009
-260.195	-200.000	-0.000	-0.027
-259.180	-82.034	-0.175	-0.056
-258.165	-41.918	-0.106	-0.053
-257.151	-24.734	-0.239	-0.140
-256.136	-42.106	0.161	0.081
-255.122	-113.602	0.374	0.072
-254.107	-73.560	0.218	-0.078
-253.092	262.445	0.240	-0.409
-252.078	-127.250	0.311	0.045
-251.063	800.000	0.022	-0.088
-250.049	-185.925	-0.132	0.002
-249.034	-92.203	0.281	-0.078
-248.019	21.129	0.298	0.238
-247.005	800.000	-0.075	0.220
-245.990	545.528	0.057	0.134
-244.976	40.037	0.199	0.176
-243.961	241.428	0.053	0.087
-242.946	-7.203	-0.115	0.076
-241.932	-200.000	0.009	-0.195
-240.917	800.000	-0.029	0.110
-239.903	99.985	-0.254	0.290
-238.888	249.688	-0.016	-0.027
-237.873	161.509	0.089	0.122
-236.859	333.010	-0.059	-0.112
-235.844	169.346	0.058	-0.082
-234.830	338.267	0.032	0.062
-233.815	-41.767	-0.201	0.101
-232.800	99.833	-0.099	-0.112
-231.786	298.743	0.080	-0.145
-230.771	-200.000	0.000	-0.045
-229.757	117.157	-0.161	-0.195
-228.742	800.000	-0.075	-0.215
-227.727	45.619	0.096	-0.088
-226.713	-168.755	-0.139	0.005
-225.698	720.279	-0.132	-0.344
-224.684	243.647	0.126	-0.207
-223.669	-200.000	0.031	0.251
-222.655	229.959	-0.099	-0.159
-221.640	-129.001	-0.045	-0.006
-220.625	33.533	0.301	0.257
-219.611	-88.943	0.435	0.127
-218.596	129.947	0.045	-0.056
-217.582	18.278	0.297	-0.233
-216.567	64.499	0.076	0.075
-215.552	-26.632	-0.160	-0.092
-214.538	-45.732	0.022	0.011
-213.523	180.163	0.034	-0.050
-212.509	330.567	0.033	0.062
-211.494	-14.693	0.263	-0.166
-210.479	800.000	-0.009	0.034
-209.465	-110.600	-0.267	-0.054
-208.450	32.694	0.229	-0.195
-207.436	54.649	-0.050	0.048
-206.421	407.776	-0.153	-0.317
-205.406	-200.000	-0.024	-0.140
-204.392	-4.342	0.093	0.063
-203.377	-73.033	-0.026	-0.009
-202.363	611.198	0.073	0.180
-201.348	-78.052	-0.156	0.053
-200.333	406.166	0.157	0.325
-199.319	-8.386	-0.228	0.150
-198.304	800.000	0.086	0.271
-197.290	-81.308	-0.304	0.099
-196.275	-84.166	0.041	-0.013
-195.260	-176.163	-0.334	-0.009
-194.246	91.475	-0.174	-0.191
-193.231	-31.273	-0.042	-0.023
-192.217	-200.000	-0.007	-0.194
-191.202	688.317	-0.053	-0.137
-190.187	323.650	0.200	-0.375
-189.173	-66.232	-0.132	-0.052
-188.158	-200.000	0.006	0.028
-187.144	-200.000	0.004	0.176
-186.129	1.325	-0.221	0.156
-185.114	106.525	-0.146	-0.170
-184.100	-70.607	-0.199	-0.074
-183.085	24.461	0.161	0.131
-182.071	5.423	-0.051	0.037
-181.056	-200.000	-0.054	-0.349
-180.042	-123.404	0.232	-0.036
-179.027	-200.000	-0.054	-0.315
-178.012	-171.811	0.241	-0.008
-176.998	-112.567	-0.272	0.053
-175.983	-27.187	-0.117	0.067
-174.969	800.000	0.019	0.063
-173.954	0.250	0.376	-0.263
-172.939	323.492	-0.076	-0.142
-171.925	800.000	-0.054	0.146
-170.910	-126.614	0.128	0.019
-169.896	22.191	0.129	-0.103
-168.881	449.010	0.120	0.259
-167.866	22.033	0.331	0.265
-166.852	-200.000	-0.194	0.001
-165.837	-81.924	-0.241	0.077
-164.823	377.492	0.139	0.278
-163.808	800.000	-0.030	-0.117
-162.793	800.000	0.081	0.229
-161.779	72.672	-0.203	-0.208
-160.764	709.160	-0.048	-0.123
-159.750	-88.523	-0.152	0.044
-158.735	-200.000	0.017	-0.265
-157.720	69.875	-0.336	-0.339
-156.706	101.283	-0.168	0.192
-155.691	-60.707	0.310	0.129
-154.677	-200.000	0.008	-0.193
-153.662	-147.111	0.047	0.004
-152.647	-200.000	0.017	-0.233
-151.633	724.766	-0.114	0.297
-150.618	-79.223	0.180	0.060
-149.604	-200.000	-0.012	0.307
-148.589	-45.646	0.198	0.096
-147.574	209.074	0.164	-0.251
-146.560	-43.420	0.279	-0.138
-145.545	-200.000	0.010	-0.070
-144.531	468.291	0.082	0.180
-143.516	-200.000	0.082	0.500
-142.502	62.869	-0.097	-0.095
-141.487	74.509	-0.306	-0.315
-140.472	48.328	0.112	-0.103
-139.458	-34.524	0.101	-0.054
-138.443	91.228	-0.196	0.215
-137.429	-200.000	0.033	-0.280
-136.414	-200.000	0.062	-0.371
-135.399	467.770	-0.122	-0.268
-134.385	-94.896	-0.210	0.056
-133.370	-21.310	0.283	0.169
-132.356	-156.530	0.241	0.015
-131.341	-75.172	0.178	0.062
-130.326	-127.356	0.283	-0.040
-129.312	23.170	0.178	0.143
-128.297	216.176	-0.081	-0.126
-127.283	-90.431	-0.145	0.041
-126.268	24.844	0.226	0.183
-125.253	-200.000	0.054	-0.338
-124.239	81.702	-0.175	0.186
-123.224	-56.575	-0.228	0.099
-122.210	-18.766	0.342	-0.208
