DTS Sentinel unit serial number:	SN413079Multiplexer serial number:	ORYXHardware model number:	OX4-SRSoftware version number:	ORYX F/W v4.00 Oryx Data Collector v3.7.2.0data status	okinstallation	princeton_trtdifferential loss correction	single-endedforward channel	channel 4reverse channel	N/Adate	2019/09/18time	19:53:35forward acquisition time	60.00reverse acquisition time	0.00gamma	496.2192k internal	0.2316k external	0.2316temperature offset calibration	1.0030default loss term (dB/km)	0.3790temperature slope calibration	1.0000multiplexer offset coefficient	1.0000multiplexer slope coefficient	1.0000fibre end	0.00T internal ref (°C)	30.87T ext. ref 1 (°C)	0.96T ext. ref 2 (°C)	21.90length (m)	temperature (°C)	Stokes	anti-Stokes-747.200	-68.257	0.185	0.073
-746.185	-97.772	-0.079	0.021
-745.171	-130.340	0.524	-0.072
-744.156	-93.380	-0.301	0.084
-743.142	-143.516	-0.050	0.005
-742.127	76.666	-0.231	0.248
-741.112	27.712	0.124	-0.106
-740.098	321.111	-0.064	-0.124
-739.083	283.210	0.095	0.173
-738.069	800.000	0.091	0.350
-737.054	674.263	-0.129	-0.340
-736.039	-152.590	-0.060	0.004
-735.025	-80.083	0.338	0.115
-734.010	800.000	0.030	-0.107
-732.996	347.231	0.094	-0.188
-731.981	-200.000	-0.033	-0.218
-730.966	-200.000	0.006	-0.104
-729.952	-51.531	-0.145	0.069
-728.937	200.339	-0.276	-0.430
-727.923	-200.000	0.008	-0.224
-726.908	-123.994	-0.105	-0.017
-725.894	110.958	0.096	-0.117
-724.879	174.509	-0.079	-0.115
-723.864	800.000	0.054	0.207
-722.850	-71.329	0.086	0.033
-721.835	122.913	-0.215	0.273
-720.821	-200.000	0.006	-0.042
-719.806	-200.000	0.011	-0.384
-718.791	-200.000	0.004	-0.240
-717.777	-7.021	-0.146	0.100
-716.762	-200.000	-0.006	-0.042
-715.748	104.252	0.340	-0.405
-714.733	115.187	-0.139	0.172
-713.718	-49.570	-0.258	-0.124
-712.704	51.192	-0.069	-0.066
-711.689	263.668	-0.180	0.316
-710.675	-61.375	-0.097	0.041
-709.660	-200.000	0.030	-0.141
-708.645	111.083	0.024	0.030
-707.631	-68.346	0.127	0.050
-706.616	-200.000	-0.030	0.146
-705.602	41.985	-0.176	0.161
-704.587	161.853	-0.128	0.182
-703.572	-200.000	0.003	0.164
-702.558	-94.028	-0.354	0.098
-701.543	-67.752	0.221	-0.087
-700.529	800.000	0.066	-0.251
-699.514	-200.000	0.023	-0.362
-698.499	-184.252	0.254	0.004
-697.485	435.269	0.111	-0.243
-696.470	-63.207	0.049	-0.020
-695.456	-87.411	0.360	0.110
-694.441	-112.996	0.408	0.081
-693.426	111.921	0.189	-0.231
-692.412	229.353	-0.085	0.141
-691.397	68.731	-0.065	-0.067
-690.383	-200.000	0.015	-0.327
-689.368	800.000	-0.017	-0.065
-688.354	761.108	0.118	0.323
-687.339	220.540	0.024	0.039
-686.324	-200.000	0.043	-0.227
-685.310	439.774	0.097	-0.214
-684.295	284.667	-0.123	0.223
-683.281	-200.000	0.032	0.189
-682.266	59.274	-0.167	0.166
-681.251	78.822	0.230	-0.249
-680.237	755.387	0.048	0.132
-679.222	-170.693	-0.192	0.007
-678.208	107.864	-0.164	-0.198
-677.193	-89.022	-0.063	0.019
-676.178	-200.000	0.032	-0.356
-675.164	-200.000	0.063	-0.298
-674.149	289.436	-0.076	-0.139
-673.135	-34.305	-0.206	0.114
-672.120	583.848	0.045	0.111
-671.105	-189.166	0.172	-0.002
-670.091	-71.304	-0.077	-0.029
-669.076	170.607	0.065	-0.094
-668.062	-50.493	-0.025	0.012
-667.047	-200.000	0.003	0.030
-666.032	6.054	-0.106	0.079
-665.018	-8.516	0.087	0.059
-664.003	68.653	-0.217	0.224
-662.989	-200.000	-0.001	-0.030
-661.974	57.761	0.087	-0.086
-660.959	14.642	0.231	-0.182
-659.945	-200.000	0.060	-0.310
-658.930	-200.000	0.073	0.333
-657.916	107.416	-0.097	-0.116
-656.901	-125.657	-0.402	0.062
-655.886	-123.452	-0.276	-0.044
-654.872	-90.680	-0.266	-0.077
-653.857	14.253	0.102	-0.081
-652.843	-116.338	-0.115	0.022
-651.828	-200.000	-0.024	0.294
-650.814	744.185	-0.067	-0.182
-649.799	-137.412	0.116	-0.013
-648.784	-200.000	0.083	-0.426
-647.770	-200.000	-0.030	-0.322
-646.755	544.552	0.226	-0.545
-645.741	800.000	0.128	-0.435
-644.726	-13.978	0.100	0.065
-643.711	111.909	0.069	0.084
-642.697	-200.000	-0.020	-0.305
-641.682	115.779	0.080	-0.098
-640.668	138.918	-0.070	-0.093
-639.653	-138.945	-0.328	0.036
-638.638	296.041	0.028	0.052
-637.624	-75.438	0.095	0.034
-636.609	-2.544	0.174	0.123
-635.595	358.974	0.018	0.037
-634.580	603.017	0.094	-0.237
-633.565	29.220	-0.136	0.116
-632.551	133.904	-0.093	-0.121
-631.536	-200.000	0.000	-0.294
-630.522	-19.357	-0.370	-0.231
-629.507	-49.102	-0.231	0.111
-628.492	36.218	0.226	0.201
-627.478	-200.000	0.009	0.253
-626.463	-75.971	-0.151	-0.054
-625.449	-200.000	-0.006	-0.306
-624.434	1.142	0.195	-0.141
-623.419	-53.162	-0.182	-0.084
-622.405	-135.116	-0.116	-0.014
-621.390	-98.112	0.192	0.050
-620.376	175.145	0.165	-0.241
-619.361	152.190	-0.131	-0.180
-618.346	-59.245	0.219	-0.095
-617.332	-38.427	-0.254	-0.135
-616.317	-7.452	0.125	-0.085
-615.303	329.065	-0.023	-0.045
-614.288	-9.442	0.244	-0.164
-613.273	260.277	0.077	0.134
-612.259	443.947	-0.109	0.241
-611.244	-172.235	-0.168	0.005
-610.230	-60.829	-0.287	-0.122
-609.215	14.513	0.496	0.390
-608.201	-125.589	-0.211	0.032
-607.186	122.545	-0.140	-0.176
-606.171	-200.000	-0.002	-0.221
-605.157	800.000	0.061	-0.183
-604.142	43.052	-0.169	-0.156
-603.128	115.248	0.239	0.294
-602.113	-182.921	0.288	0.005
-601.098	-200.000	-0.077	-0.360
-600.084	-134.463	-0.396	-0.049
-599.069	800.000	0.038	0.112
-598.055	286.286	-0.149	-0.271
-597.040	162.885	0.137	-0.194
-596.025	-32.784	-0.231	0.129
-595.011	-200.000	-0.026	-0.190
-593.996	-200.000	0.034	-0.268
-592.982	-95.695	0.185	-0.050
-591.967	-29.968	-0.066	-0.038
-590.952	-200.000	0.001	-0.258
-589.938	34.700	-0.179	-0.157
-588.923	-200.000	0.067	-0.324
-587.909	-46.369	-0.175	-0.086
-586.894	800.000	0.134	0.531
-585.879	-46.963	-0.096	-0.047
-584.865	-200.000	0.001	-0.124
-583.850	19.199	-0.088	-0.071
-582.836	-50.906	0.229	-0.108
-581.821	206.232	-0.052	-0.082
-580.806	800.000	0.063	-0.232
-579.792	37.220	0.074	-0.066
-578.777	-200.000	0.042	0.520
-577.763	-120.912	0.269	0.046
-576.748	152.077	-0.055	-0.076
-575.733	-54.894	0.255	-0.116
-574.719	14.947	-0.298	-0.235
-573.704	-200.000	-0.012	-0.175
-572.690	-21.576	-0.230	-0.141
-571.675	-200.000	-0.044	-0.251
-570.661	67.171	-0.326	-0.334
-569.646	-131.793	0.194	-0.025
-568.631	10.831	-0.074	0.057
-567.617	60.742	-0.037	-0.037
-566.602	411.448	-0.232	-0.496
-565.588	-200.000	0.058	-0.329
-564.573	54.358	-0.069	0.067
-563.558	800.000	-0.110	-0.325
-562.544	-9.398	0.187	0.126
-561.529	800.000	0.155	0.449
-560.515	-200.000	-0.002	0.114
-559.500	-148.135	-0.351	-0.029
-558.485	-200.000	-0.027	-0.170
-557.471	45.945	0.084	0.078
-556.456	623.452	0.106	0.269
-555.442	800.000	-0.032	-0.101
-554.427	-90.891	-0.416	-0.120
-553.412	-50.348	0.226	0.107
-552.398	-64.338	0.383	-0.157
-551.383	-200.000	-0.038	0.204
-550.369	-36.813	-0.166	-0.090
-549.354	-166.410	0.268	0.011
-548.339	-125.227	-0.403	-0.062
-547.325	800.000	0.024	0.082
-546.310	-132.397	0.255	0.033
-545.296	-39.184	-0.215	-0.113
-544.281	233.244	-0.090	-0.150
-543.266	-51.321	0.160	-0.075
-542.252	-107.417	0.495	0.109
-541.237	-52.746	-0.123	0.057
-540.223	220.024	0.141	-0.227
-539.208	314.578	-0.080	-0.152
-538.193	13.370	0.130	-0.101
-537.179	-200.000	-0.065	-0.382
-536.164	-200.000	0.027	-0.211
-535.150	-200.000	0.012	-0.054
-534.135	-200.000	0.008	0.134
-533.121	257.248	-0.019	-0.033
-532.106	-2.892	-0.081	0.057
-531.091	58.635	-0.105	-0.104
-530.077	158.282	0.148	0.206
-529.062	-200.000	-0.005	0.137
-528.048	-101.160	0.101	0.025
-527.033	130.325	-0.157	-0.201
-526.018	-133.230	-0.234	0.030
-525.004	5.652	0.126	0.093
-523.989	-38.685	0.208	-0.110
-522.975	-200.000	-0.053	-0.258
-521.960	-45.873	0.272	-0.135
-520.945	-200.000	0.002	-0.247
-519.931	800.000	-0.043	0.146
-518.916	-106.942	0.040	0.009
-517.902	-106.509	-0.084	0.019
-516.887	-186.484	0.185	-0.003
-515.872	54.029	0.104	-0.100
-514.858	-146.447	-0.168	-0.015
-513.843	800.000	-0.085	-0.240
-512.829	-94.345	0.213	-0.058
-511.814	327.604	-0.019	0.037
-510.799	-190.339	0.190	0.002
-509.785	129.574	0.063	0.081
-508.770	800.000	0.099	0.298
-507.756	282.444	0.100	-0.180
-506.741	58.051	0.209	0.205
-505.726	732.620	-0.073	0.197
-504.712	-93.760	0.019	-0.005
-503.697	142.899	-0.168	-0.224
-502.683	106.224	0.163	-0.194
-501.668	10.140	-0.181	0.138
-500.653	-93.495	0.425	0.118
-499.639	-79.057	0.090	0.031
-498.624	-85.018	-0.193	-0.061
-497.610	-45.192	-0.296	-0.147
-496.595	9.695	-0.131	-0.100
-495.581	-53.872	-0.111	0.051
-494.566	-200.000	-0.017	0.250
-493.551	-47.312	-0.305	-0.149
-492.537	-92.567	-0.317	0.089
-491.522	-162.562	0.212	0.010
-490.508	224.408	0.214	-0.347
-489.493	-40.241	-0.162	-0.084
-488.478	-118.432	0.236	-0.042
-487.464	-200.000	0.012	-0.092
-486.449	256.594	-0.160	-0.276
-485.435	90.395	-0.128	-0.144
-484.420	-26.617	-0.147	0.086
-483.405	-142.149	-0.378	0.038
-482.391	800.000	0.080	-0.270
-481.376	-85.018	0.344	0.108
-480.362	-200.000	0.040	0.284
-479.347	-112.087	-0.143	-0.029
-478.332	-189.655	-0.154	-0.002
-477.318	295.391	-0.170	-0.311
-476.303	-33.378	0.173	-0.096
-475.289	155.438	-0.198	-0.273
-474.274	-148.145	-0.275	-0.023
-473.259	52.924	0.209	-0.201
-472.245	95.416	-0.140	-0.160
-471.230	58.699	0.191	0.188
-470.216	-200.000	-0.043	0.462
-469.201	-57.722	0.328	0.144
-468.186	390.856	-0.089	0.186
-467.172	5.954	0.047	0.035
-466.157	-29.247	-0.276	0.159
-465.143	59.392	0.200	-0.197
-464.128	-4.331	-0.362	0.251
-463.113	59.482	0.322	0.318
-462.099	-146.197	-0.157	0.014
-461.084	351.916	-0.046	-0.091
-460.070	-90.501	-0.216	0.063
-459.055	99.724	0.125	-0.145
-458.040	46.483	0.133	-0.123
-457.026	16.940	-0.225	-0.178
-456.011	-200.000	0.004	0.177
-454.997	-200.000	-0.046	0.295
-453.982	183.970	-0.118	0.174
-452.968	-97.383	-0.343	0.090
-451.953	800.000	0.104	0.358
-450.938	-56.284	-0.285	0.127
-449.924	163.671	-0.137	-0.192
-448.909	30.700	-0.064	-0.055
-447.895	-200.000	-0.003	0.245
-446.880	-200.000	-0.014	0.263
-445.865	-40.409	-0.089	-0.046
-444.851	-200.000	-0.002	0.065
-443.836	9.011	0.157	-0.119
-442.822	34.566	-0.205	0.179
-441.807	464.578	-0.037	0.083
-440.792	-27.282	-0.019	-0.011
-439.778	60.217	0.091	0.090
-438.763	126.540	0.124	0.157
-437.749	135.949	-0.095	-0.124
-436.734	800.000	0.029	-0.090
-435.719	-200.000	-0.005	0.056
-434.705	-9.910	-0.288	-0.192
-433.690	-100.364	0.208	-0.052
-432.676	15.399	-0.304	0.238
-431.661	282.852	-0.090	0.161
-430.646	-129.116	-0.070	-0.010
-429.632	-101.139	0.229	-0.056
-428.617	-101.934	-0.234	0.057
-427.603	-127.441	-0.225	0.033
-426.588	-200.000	0.011	0.165
-425.573	49.516	-0.179	0.169
-424.559	-152.534	-0.256	0.018
-423.544	-96.105	0.405	0.108
-422.530	67.768	0.184	-0.188
-421.515	-110.647	0.216	-0.045
-420.500	800.000	-0.018	-0.076
-419.486	-125.260	-0.434	0.066
-418.471	-200.000	0.004	0.082
-417.457	-104.252	0.232	0.054
-416.442	116.063	0.133	-0.163
-415.428	44.742	-0.234	-0.215
-414.413	-90.083	0.301	-0.088
-413.398	-48.001	-0.170	-0.082
-412.384	536.359	-0.151	0.359
-411.369	-20.606	-0.175	-0.108
-410.355	23.221	0.127	-0.104
-409.340	800.000	0.052	0.226
-408.325	129.491	-0.014	0.018
-407.311	264.781	0.081	-0.141
-406.296	-78.606	0.363	-0.124
-405.282	443.379	-0.022	-0.049
-404.267	-87.008	0.170	0.052
-403.252	-176.737	0.459	-0.012
-402.238	-178.977	0.063	0.001
-401.223	-165.809	0.124	-0.005
-400.209	185.650	0.064	0.095
-399.194	586.305	-0.140	-0.344
-398.179	-200.000	0.002	-0.029
-397.165	425.436	0.059	0.127
-396.150	-117.264	-0.246	-0.045
-395.136	-125.933	-0.122	0.018
-394.121	352.998	-0.145	-0.287
-393.106	217.837	0.083	-0.132
-392.092	-87.286	0.210	0.064
-391.077	258.719	0.132	-0.227
-390.063	800.000	-0.055	-0.193
-389.048	-92.734	0.193	-0.054
-388.033	-17.653	-0.115	-0.072
-387.019	378.600	-0.101	0.206
-386.004	-169.677	0.101	0.004
-384.990	-167.036	-0.218	-0.009
-383.975	162.296	0.037	0.052
-382.960	-200.000	-0.013	-0.079
-381.946	-52.623	0.266	0.123
-380.931	-25.627	-0.329	0.194
-379.917	171.372	0.090	0.129
-378.902	-114.415	-0.415	-0.080
-377.888	-200.000	-0.008	-0.089
-376.873	571.638	0.064	0.156
-375.858	588.236	0.018	-0.045
-374.844	-200.000	-0.004	0.249
-373.829	-80.776	-0.302	0.100
-372.815	-104.591	0.097	-0.022
-371.800	281.468	-0.160	0.286
-370.785	351.038	-0.085	-0.169
-369.771	-200.000	-0.015	0.151
-368.756	133.520	-0.144	-0.186
-367.742	52.913	0.079	0.076
-366.727	337.631	-0.081	-0.157
-365.712	-11.174	-0.090	-0.059
-364.698	-180.123	0.176	0.004
-363.683	16.327	-0.199	0.156
-362.669	40.398	-0.202	-0.182
-361.654	373.023	0.171	-0.348
-360.639	371.605	-0.094	0.190
-359.625	-13.394	-0.227	0.147
-358.610	800.000	0.085	0.269
-357.596	20.553	0.201	-0.162
-356.581	-82.252	-0.259	0.084
-355.566	800.000	-0.016	-0.060
-354.552	163.203	0.156	0.219
-353.537	-44.948	0.021	-0.011
-352.523	57.453	0.093	0.091
-351.508	-36.747	-0.285	0.153
-350.493	-200.000	-0.014	0.072
-349.479	-58.578	-0.122	0.053
-348.464	-12.747	0.075	0.049
-347.450	-57.970	0.092	-0.040
-346.435	342.050	-0.150	0.293
-345.420	150.461	0.179	-0.242
-344.406	58.736	0.234	0.229
-343.391	341.695	-0.227	0.442
-342.377	800.000	-0.075	0.263
-341.362	-200.000	0.025	0.201
-340.348	793.355	0.050	0.136
-339.333	706.401	-0.141	0.370
-338.318	-4.849	-0.287	0.197
-337.304	-8.590	0.037	0.025
-336.289	52.360	0.016	0.015
-335.275	-200.000	0.001	0.026
-334.260	-110.233	-0.389	0.081
-333.245	-144.278	0.124	-0.011
-332.231	-62.891	0.441	0.182
-331.216	-200.000	-0.015	0.254
-330.202	800.000	0.068	-0.293
-329.187	800.000	0.033	0.142
-328.172	-200.000	-0.012	0.069
-327.158	-0.704	-0.291	-0.205
-326.143	524.417	0.125	-0.293
-325.129	-24.822	0.054	0.032
-324.114	32.940	0.245	-0.211
-323.099	-56.612	-0.174	-0.077
-322.085	-89.058	0.271	0.080
-321.070	-90.242	0.199	0.058
-320.056	-97.267	-0.059	0.015
-319.041	-57.274	0.169	-0.074
-318.026	89.899	-0.215	0.240
-317.012	-111.694	0.171	0.034
-315.997	-200.000	0.007	0.242
-314.983	-200.000	0.029	0.140
-313.968	353.288	0.061	-0.120
-312.953	800.000	0.045	0.196
-311.939	-21.830	0.291	-0.176
-310.924	-200.000	-0.021	-0.096
-309.910	-54.664	0.197	-0.089
-308.895	-158.911	0.261	0.015
-307.880	48.467	-0.096	0.089
-306.866	7.033	-0.273	-0.202
-305.851	800.000	-0.119	-0.347
-304.837	-58.002	0.187	-0.081
-303.822	-200.000	-0.009	0.126
-302.807	800.000	0.118	-0.345
-301.793	47.201	-0.054	-0.050
-300.778	800.000	0.048	-0.151
-299.764	-21.546	0.116	-0.070
-298.749	-73.651	0.286	0.104
-297.735	-47.425	-0.174	0.084
-296.720	-114.539	0.307	0.059
-295.705	616.864	0.066	-0.165
-294.691	501.381	0.078	0.178
-293.676	-27.253	-0.270	-0.157
-292.662	305.998	0.097	-0.179
-291.647	-160.802	-0.180	-0.009
-290.632	-25.090	-0.242	-0.143
-289.618	-153.718	0.256	-0.017
-288.603	359.186	0.161	0.321
-287.589	62.422	0.124	-0.124
-286.574	-166.288	-0.231	-0.010
-285.559	-200.000	0.009	0.350
-284.545	147.302	-0.101	-0.135
-283.530	111.681	0.310	0.372
-282.516	-96.659	-0.062	0.016
-281.501	67.538	0.235	0.238
-280.486	-200.000	-0.011	-0.224
-279.472	-200.000	-0.072	0.388
-278.457	1.068	0.124	-0.089
-277.443	62.359	0.092	-0.091
-276.428	-200.000	0.051	0.226
-275.413	-48.659	0.212	-0.101
-274.399	-72.225	0.128	-0.047
-273.384	544.866	-0.194	0.461
-272.370	-66.385	0.180	0.071
-271.355	-140.729	-0.157	0.016
-270.340	800.000	0.063	0.184
-269.326	-125.549	0.177	0.027
-268.311	378.095	-0.117	0.239
-267.297	-200.000	-0.010	0.120
-266.282	800.000	-0.022	-0.062
-265.267	176.689	-0.033	-0.047
-264.253	426.613	-0.120	0.258
-263.238	-51.649	-0.180	-0.084
-262.224	-36.926	-0.269	-0.144
-261.209	-145.463	0.189	0.017
-260.195	57.698	-0.219	-0.213
-259.180	-140.784	0.067	0.007
-258.165	52.101	0.113	-0.107
-257.151	-56.617	0.428	-0.188
-256.136	115.736	-0.110	-0.134
-255.122	238.798	-0.227	0.374
-254.107	-130.490	-0.366	-0.049
-253.092	-30.212	-0.168	-0.095
-252.078	206.366	-0.106	-0.163
-251.063	-116.449	0.377	-0.069
-250.049	306.122	0.129	0.238
-249.034	-103.347	0.242	0.057
-248.019	-200.000	0.028	0.329
-247.005	-200.000	-0.009	-0.112
-245.990	670.322	-0.128	0.329
-244.976	-56.596	0.089	0.039
-243.961	-200.000	0.027	0.409
-242.946	61.743	0.217	0.214
-241.932	-174.664	-0.113	-0.003
-240.917	-154.525	0.076	0.005
-239.903	-76.007	0.388	-0.136
-238.888	231.915	-0.200	0.326
-237.873	-123.281	0.221	-0.035
-236.859	-183.973	-0.320	-0.005
-235.844	800.000	-0.068	0.194
-234.830	-200.000	0.029	-0.192
-233.815	-200.000	0.029	0.164
-232.800	282.857	0.155	0.276
-231.786	-200.000	0.077	0.458
-230.771	213.730	0.085	-0.133
-229.757	-156.904	-0.340	-0.021
-228.742	-184.727	0.195	-0.003
-227.727	250.021	0.068	0.115
-226.713	-129.928	-0.156	-0.021
-225.698	-175.512	0.129	-0.003
-224.684	319.507	-0.119	-0.224
-223.669	800.000	-0.022	-0.091
-222.655	182.144	0.153	-0.223
-221.640	23.327	0.298	-0.243
-220.625	-52.280	0.085	0.039
-219.611	-32.557	-0.117	0.064
-218.596	426.353	-0.140	-0.299
-217.582	416.162	-0.088	-0.186
-216.567	14.340	-0.123	-0.095
-215.552	-97.278	0.231	0.060
-214.538	37.258	-0.067	-0.059
-213.523	124.987	-0.026	-0.032
-212.509	407.510	0.079	0.166
-211.494	-14.701	-0.208	-0.133
-210.479	48.616	0.123	-0.114
-209.465	-200.000	0.023	-0.179
-208.450	-200.000	-0.048	0.272
-207.436	44.715	-0.200	0.183
-206.421	-41.545	0.190	-0.097
-205.406	-145.136	-0.388	-0.035
-204.392	459.944	0.127	0.281
-203.377	96.348	0.160	-0.181
-202.363	28.706	-0.112	0.094
-201.348	198.034	-0.116	-0.176
-200.333	-72.302	-0.223	-0.082
-199.319	800.000	-0.063	0.229
-198.304	202.282	-0.142	-0.217
-197.290	-158.735	-0.098	0.006
-196.275	-46.290	0.119	0.058
-195.260	327.993	-0.070	-0.133
-194.246	800.000	0.089	0.261
-193.231	416.192	-0.111	0.234
-192.217	-156.018	0.241	0.015
-191.202	-200.000	0.032	0.187
-190.187	-200.000	0.012	0.259
-189.173	-200.000	0.042	0.381
-188.158	526.210	0.062	0.144
-187.144	171.961	0.076	-0.108
-186.129	-42.912	-0.130	0.065
-185.114	-18.946	0.175	-0.108
-184.100	230.518	0.090	0.146
-183.085	356.577	0.294	0.581
-182.071	-200.000	0.118	0.519
-181.056	-200.000	0.010	-0.123
-180.042	-4.030	-0.226	0.155
-179.027	63.786	0.138	-0.137
-178.012	-76.728	0.067	-0.023
-176.998	-106.570	0.170	0.038
-175.983	-88.041	-0.235	-0.070
-174.969	437.560	0.115	0.247
-173.954	573.175	-0.074	0.179
-172.939	-169.405	0.492	0.018
-171.925	168.628	-0.230	0.324
-170.910	-200.000	-0.034	-0.155
-169.896	165.160	-0.116	-0.162
-168.881	-23.525	0.255	-0.151
-167.866	-160.491	0.128	-0.007
-166.852	-166.233	-0.204	0.009
-165.837	-26.204	-0.178	-0.104
-164.823	-30.225	0.274	0.154
-163.808	-62.974	0.097	-0.040
-162.793	187.343	0.069	-0.101
-161.779	-45.310	-0.282	-0.138
-160.764	-200.000	-0.003	0.041
-159.750	121.527	-0.118	0.146
-158.735	40.904	0.173	0.154
-157.720	332.331	-0.042	-0.081
-156.706	-56.637	-0.243	0.107
-155.691	-13.298	0.167	-0.107
-154.677	139.820	-0.150	0.196
-153.662	800.000	0.059	0.179
-152.647	-65.125	-0.075	-0.030
-151.633	-133.068	0.117	0.015
-150.618	90.439	-0.068	-0.075
-149.604	-58.784	0.115	0.049
-148.589	800.000	0.045	0.145
-147.574	-81.430	-0.312	0.102
-146.560	-200.000	-0.017	-0.188
-145.545	74.655	0.141	0.147
-144.531	-115.857	0.358	-0.066
-143.516	231.774	-0.044	0.071
-142.502	397.786	0.013	0.026
-141.487	800.000	-0.034	-0.135
-140.472	116.888	-0.286	-0.347
-139.458	609.172	-0.076	0.189
-138.443	-58.887	0.165	-0.071
-137.429	188.412	-0.035	0.051
-136.414	-200.000	0.043	0.278
-135.399	-169.406	-0.135	0.005
-134.385	753.226	0.091	-0.244
-133.370	135.999	-0.074	-0.095
-132.356	-200.000	-0.042	0.240
-131.341	-144.038	-0.227	0.021
-130.326	-88.966	0.164	-0.048
-129.312	169.622	-0.242	-0.341
-128.297	116.187	0.358	0.434
-127.283	-22.420	0.312	-0.187
-126.268	129.642	0.106	0.134
-125.253	396.603	-0.052	0.107
-124.239	-200.000	0.019	0.084
-123.224	-81.125	-0.293	0.096
-122.210	-38.290	-0.113	0.059
