DTS Sentinel unit serial number:	SN413079Multiplexer serial number:	ORYXHardware model number:	OX4-SRSoftware version number:	ORYX F/W v4.00 Oryx Data Collector v3.7.2.0data status	okinstallation	princeton_trtdifferential loss correction	single-endedforward channel	channel 4reverse channel	N/Adate	2019/09/10time	19:35:11forward acquisition time	60.00reverse acquisition time	0.00gamma	496.2192k internal	0.2309k external	0.2309temperature offset calibration	0.9946default loss term (dB/km)	0.3790temperature slope calibration	1.0000multiplexer offset coefficient	1.0000multiplexer slope coefficient	1.0000fibre end	0.00T internal ref (°C)	33.31T ext. ref 1 (°C)	-0.35T ext. ref 2 (°C)	26.03length (m)	temperature (°C)	Stokes	anti-Stokes-747.200	-60.371	0.272	-0.118
-746.185	-200.000	0.042	0.197
-745.171	-145.988	0.132	0.012
-744.156	-200.000	-0.034	0.400
-743.142	152.722	0.197	0.273
-742.127	90.255	0.179	-0.203
-741.112	235.724	0.119	-0.200
-740.098	-200.000	0.002	0.366
-739.083	800.000	-0.057	-0.168
-738.069	172.574	0.055	0.081
-737.054	-200.000	-0.029	0.356
-736.039	-43.318	-0.110	-0.056
-735.025	-168.732	0.174	-0.007
-734.010	-81.640	-0.039	-0.013
-732.996	110.478	0.205	-0.250
-731.981	-16.913	0.264	0.169
-730.966	-7.094	-0.104	0.072
-729.952	-95.139	-0.313	-0.086
-728.937	-200.000	-0.019	-0.302
-727.923	496.383	0.183	0.427
-726.908	-78.000	0.053	-0.018
-725.894	-123.125	-0.189	0.031
-724.879	546.049	-0.048	0.116
-723.864	-31.755	0.131	-0.075
-722.850	245.252	-0.100	0.170
-721.835	168.569	-0.172	-0.249
-720.821	-26.445	-0.178	-0.106
-719.806	-200.000	-0.013	-0.153
-718.791	-131.868	-0.286	-0.038
-717.777	358.184	-0.079	-0.160
-716.762	68.417	0.070	0.073
-715.748	144.193	-0.131	0.177
-714.733	53.680	-0.166	-0.162
-713.718	-146.231	0.097	0.009
-712.704	-21.924	0.347	-0.214
-711.689	800.000	-0.049	0.155
-710.675	800.000	-0.016	-0.046
-709.660	-10.480	0.119	0.080
-708.645	52.250	0.055	0.053
-707.631	-129.597	0.093	-0.013
-706.616	134.594	-0.156	-0.205
-705.602	63.001	-0.224	0.228
-704.587	-72.403	0.141	0.053
-703.572	800.000	-0.071	-0.262
-702.558	715.636	-0.071	-0.192
-701.543	185.420	-0.063	0.095
-700.529	-4.763	-0.236	0.165
-699.514	-182.735	0.434	-0.008
-698.499	-200.000	0.060	-0.372
-697.485	-70.690	0.135	-0.052
-696.470	407.760	0.046	0.099
-695.456	30.656	0.027	0.024
-694.441	44.141	-0.109	0.101
-693.426	-28.339	0.024	0.014
-692.412	-91.631	-0.115	-0.033
-691.397	-200.000	-0.012	0.199
-690.383	309.258	0.092	0.174
-689.368	800.000	-0.123	0.432
-688.354	800.000	0.135	0.410
-687.339	-200.000	-0.015	0.109
-686.324	-12.944	0.115	-0.076
-685.310	-200.000	-0.037	-0.205
-684.295	-130.942	-0.341	-0.046
-683.281	-19.378	0.050	0.031
-682.266	47.574	-0.197	-0.187
-681.251	-51.615	0.057	-0.027
-680.237	678.820	0.090	-0.237
-679.222	-198.379	0.182	0.001
-678.208	344.075	-0.047	-0.093
-677.193	668.291	-0.147	-0.385
-676.178	3.081	0.304	0.224
-675.164	-56.056	0.287	-0.130
-674.149	175.632	0.080	0.117
-673.135	-200.000	-0.019	-0.126
-672.120	229.176	0.206	-0.341
-671.105	-200.000	0.050	0.337
-670.091	252.883	-0.078	-0.135
-669.076	-133.869	-0.299	-0.038
-668.062	-114.021	-0.217	0.043
-667.047	34.595	-0.150	-0.133
-666.032	-74.860	-0.137	-0.050
-665.018	-166.533	-0.227	-0.010
-664.003	181.634	0.226	-0.336
-662.989	112.772	-0.097	0.119
-661.974	-200.000	0.048	-0.291
-660.959	-79.395	-0.160	0.055
-659.945	-82.130	-0.123	-0.041
-658.930	50.558	0.203	-0.195
-657.916	800.000	0.038	-0.135
-656.901	-143.803	-0.207	-0.020
-655.886	-136.243	-0.233	0.028
-654.872	-200.000	0.028	-0.150
-653.857	26.485	0.170	0.144
-652.843	-84.640	-0.168	0.054
-651.828	266.219	-0.119	0.210
-650.814	-200.000	0.006	-0.067
-649.799	-17.419	0.047	-0.030
-648.784	64.407	0.117	0.119
-647.770	204.664	-0.026	-0.040
-646.755	-110.361	0.189	0.040
-645.741	-72.664	-0.242	0.090
-644.726	-94.682	0.144	0.040
-643.711	-94.295	0.153	-0.042
-642.697	17.133	0.182	-0.146
-641.682	-4.480	0.033	-0.023
-640.668	-34.217	0.240	-0.133
-639.653	83.321	-0.200	0.221
-638.638	34.300	-0.133	-0.118
-637.624	603.189	0.062	-0.157
-636.609	-123.065	-0.221	-0.036
-635.595	-200.000	0.034	-0.203
-634.580	-81.388	0.152	-0.051
-633.565	800.000	-0.020	-0.070
-632.551	-113.257	-0.094	-0.019
-631.536	-66.290	-0.105	0.042
-630.522	17.368	-0.346	-0.278
-629.507	105.932	0.063	-0.076
-628.492	75.187	-0.105	0.111
-627.478	315.019	0.247	-0.471
-626.463	243.652	0.089	-0.151
-625.449	552.801	0.032	-0.077
-624.434	437.394	0.043	-0.094
-623.419	97.689	-0.021	-0.024
-622.405	-200.000	-0.003	0.136
-621.390	-75.590	-0.461	-0.166
-620.376	-103.705	0.229	0.054
-619.361	800.000	-0.022	-0.065
-618.346	631.146	0.042	0.107
-617.332	185.988	0.047	0.070
-616.317	-112.417	-0.279	-0.056
-615.303	-38.046	-0.282	0.151
-614.288	196.902	0.082	0.126
-613.273	-13.670	0.201	0.131
-612.259	31.511	-0.207	0.180
-611.244	-163.495	-0.272	-0.013
-610.230	171.238	-0.091	0.132
-609.215	-200.000	0.027	0.193
-608.201	265.978	-0.066	0.117
-607.186	43.501	0.173	0.160
-606.171	-125.039	-0.090	0.014
-605.157	800.000	0.071	-0.296
-604.142	-84.144	0.117	0.037
-603.128	-199.794	-0.150	-0.001
-602.113	-200.000	0.026	0.147
-601.098	-41.518	0.199	0.103
-600.084	-154.385	0.201	-0.014
-599.069	-200.000	-0.006	-0.085
-598.055	295.648	0.147	-0.271
-597.040	-200.000	0.001	0.190
-596.025	-30.506	-0.587	-0.336
-595.011	-103.657	0.323	0.077
-593.996	40.026	-0.148	-0.135
-592.982	-61.252	-0.320	-0.136
-591.967	-39.611	0.494	0.261
-590.952	0.326	0.219	-0.158
-589.938	-35.344	-0.201	-0.110
-588.923	-63.268	-0.227	-0.095
-587.909	584.562	-0.099	0.247
-586.894	-200.000	0.008	0.095
-585.879	83.439	-0.218	-0.240
-584.865	-200.000	0.005	0.171
-583.850	800.000	-0.052	0.182
-582.836	84.035	0.304	-0.335
-581.821	-119.331	0.338	-0.059
-580.806	800.000	0.021	0.094
-579.792	-200.000	-0.021	0.168
-578.777	578.130	-0.062	0.153
-577.763	-165.828	-0.235	-0.010
-576.748	-126.618	0.120	-0.018
-575.733	-47.819	-0.108	0.053
-574.719	-33.703	0.302	0.168
-573.704	67.141	-0.038	-0.039
-572.690	-103.067	-0.179	0.043
-571.675	-55.860	0.150	-0.068
-570.661	-93.998	0.287	-0.079
-569.646	-200.000	0.016	0.137
-568.631	83.460	-0.159	0.175
-567.617	391.197	0.096	-0.202
-566.602	-107.287	-0.255	-0.057
-565.588	147.455	-0.138	0.188
-564.573	800.000	-0.030	0.096
-563.558	-140.815	0.301	-0.031
-562.544	800.000	-0.056	0.176
-561.529	274.527	0.251	-0.449
-560.515	1.181	0.138	0.100
-559.500	-200.000	-0.003	0.032
-558.485	17.115	-0.236	-0.189
-557.471	301.584	0.104	0.195
-556.456	96.564	-0.087	-0.101
-555.442	-104.770	-0.152	0.035
-554.427	-102.867	0.190	0.045
-553.412	-132.622	-0.179	0.023
-552.398	364.801	0.125	0.253
-551.383	-50.232	0.257	-0.123
-550.369	-174.143	-0.170	0.005
-549.354	18.296	0.166	-0.134
-548.339	-171.582	-0.466	0.016
-547.325	143.559	-0.036	-0.048
-546.310	-157.628	-0.131	-0.008
-545.296	60.731	-0.113	-0.113
-544.281	-200.000	0.009	0.166
-543.266	-10.170	0.211	-0.142
-542.252	800.000	-0.081	-0.238
-541.237	326.183	0.141	0.273
-540.223	-200.000	-0.016	-0.237
-539.208	56.827	0.345	-0.338
-538.193	800.000	0.089	-0.256
-537.179	63.783	0.161	0.163
-536.164	800.000	0.090	0.360
-535.150	686.002	0.077	-0.203
-534.135	284.074	0.159	0.287
-533.121	-53.466	-0.134	0.062
-532.106	103.296	0.242	0.287
-531.091	-49.552	-0.172	-0.082
-530.077	800.000	-0.020	-0.067
-529.062	319.882	0.253	-0.484
-528.048	-200.000	-0.003	0.335
-527.033	-123.347	-0.186	0.030
-526.018	-75.961	0.138	0.049
-525.004	-101.179	0.209	-0.051
-523.989	800.000	0.046	0.129
-522.975	-65.782	-0.195	0.079
-521.960	-200.000	0.022	0.204
-520.945	-119.029	0.177	0.031
-519.931	800.000	-0.057	-0.233
-518.916	-200.000	-0.007	0.176
-517.902	69.029	0.047	0.048
-516.887	522.964	-0.016	0.039
-515.872	800.000	-0.016	-0.058
-514.858	-30.270	-0.158	0.090
-513.843	265.289	0.098	0.171
-512.829	-200.000	0.008	-0.290
-511.814	14.252	0.277	-0.218
-510.799	-182.268	0.117	-0.002
-509.785	-2.480	-0.127	-0.090
-508.770	84.839	-0.263	-0.290
-507.756	44.001	0.218	0.201
-506.741	289.243	0.029	0.053
-505.726	284.534	0.121	-0.219
-504.712	-200.000	0.031	0.169
-503.697	-200.000	-0.048	0.345
-502.683	184.679	-0.023	-0.034
-501.668	199.762	-0.121	0.187
-500.653	333.497	-0.087	0.169
-499.639	-122.107	-0.138	-0.023
-498.624	-64.083	-0.189	-0.078
-497.610	21.867	-0.196	0.161
-496.595	85.776	0.161	-0.178
-495.581	-200.000	-0.006	0.379
-494.566	586.585	-0.079	-0.195
-493.551	217.932	-0.169	0.272
-492.537	489.445	-0.082	0.189
-491.522	231.546	-0.131	0.217
-490.508	-191.119	-0.040	-0.000
-489.493	-10.610	-0.095	-0.063
-488.478	800.000	0.027	0.109
-487.464	-140.781	0.225	0.023
-486.449	-200.000	-0.015	0.069
-485.435	-133.154	0.077	-0.010
-484.420	23.418	-0.195	-0.161
-483.405	-154.035	0.264	0.018
-482.391	484.793	-0.019	-0.045
-481.376	-200.000	0.030	-0.172
-480.362	-125.034	-0.131	-0.020
-479.347	316.747	-0.112	-0.213
-478.332	-78.531	0.298	-0.103
-477.318	-76.775	0.277	0.097
-476.303	115.687	0.266	0.328
-475.289	1.079	0.116	0.084
-474.274	-126.464	0.268	0.040
-473.259	-116.470	0.062	-0.011
-472.245	183.112	-0.090	0.133
-471.230	264.345	0.170	0.297
-470.216	207.420	0.119	-0.187
-469.201	-96.824	-0.052	-0.014
-468.186	445.551	0.127	-0.280
-467.172	-91.328	-0.245	-0.070
-466.157	12.898	-0.087	-0.067
-465.143	800.000	0.036	-0.123
-464.128	-200.000	-0.040	-0.347
-463.113	778.660	0.051	-0.139
-462.099	112.051	0.157	-0.190
-461.084	-200.000	-0.044	0.295
-460.070	30.877	0.246	-0.211
-459.055	140.352	-0.019	-0.025
-458.040	-200.000	0.039	-0.243
-457.026	116.007	0.243	-0.298
-456.011	-89.739	-0.333	0.098
-454.997	-193.278	0.232	0.002
-453.982	109.985	-0.153	0.184
-452.968	33.222	-0.086	-0.075
-451.953	-119.137	-0.102	0.018
-450.938	-45.282	0.176	0.088
-449.924	-31.387	0.158	0.089
-448.909	-200.000	0.020	0.309
-447.895	-200.000	-0.067	0.000
-446.880	-76.755	-0.346	-0.122
-445.865	121.942	0.211	0.264
-444.851	344.529	0.090	0.177
-443.836	800.000	0.108	-0.411
-442.822	-56.438	-0.310	0.138
-441.807	800.000	0.074	0.305
-440.792	31.179	0.199	0.171
-439.778	-176.136	-0.405	0.011
-438.763	279.187	-0.050	0.090
-437.749	256.095	0.120	-0.207
-436.734	-78.347	0.209	-0.072
-435.719	-91.316	0.178	0.051
-434.705	800.000	-0.038	0.113
-433.690	-47.529	-0.274	-0.133
-432.676	-200.000	0.017	-0.150
-431.661	252.755	0.204	0.349
-430.646	18.671	0.035	0.028
-429.632	-80.803	0.059	0.020
-428.617	-111.536	0.142	0.029
-427.603	-174.933	-0.226	-0.006
-426.588	63.882	-0.123	-0.124
-425.573	-55.192	0.237	0.107
-424.559	352.551	0.108	0.216
-423.544	-140.968	-0.046	0.005
-422.530	37.917	-0.067	-0.060
-421.515	-157.745	-0.068	0.004
-420.500	684.284	0.086	-0.224
-419.486	-71.506	-0.110	0.041
-418.471	161.651	0.075	0.105
-417.457	-126.150	0.039	0.006
-416.442	103.617	0.257	0.303
-415.428	161.118	0.100	-0.140
-414.413	3.441	-0.448	0.328
-413.398	-8.736	-0.306	-0.206
-412.384	68.209	-0.264	-0.271
-411.369	24.034	-0.199	-0.165
-410.355	-88.580	-0.166	-0.050
-409.340	32.704	-0.232	-0.201
-408.325	-109.285	-0.438	0.093
-407.311	-10.357	-0.227	0.151
-406.296	4.214	-0.087	0.064
-405.282	188.411	0.101	-0.151
-404.267	-4.419	-0.141	0.098
-403.252	210.777	0.178	0.281
-402.238	-200.000	0.051	-0.353
-401.223	-19.671	0.242	-0.150
-400.209	-200.000	-0.000	-0.039
-399.194	-200.000	0.039	-0.181
-398.179	-200.000	-0.024	-0.110
-397.165	-182.974	-0.214	-0.004
-396.150	466.917	-0.103	-0.231
-395.136	258.847	-0.193	-0.333
-394.121	-104.639	0.130	0.030
-393.106	800.000	0.072	0.313
-392.092	17.451	0.028	-0.022
-391.077	-72.660	0.403	0.149
-390.063	94.635	0.213	0.243
-389.048	6.468	0.232	-0.173
-388.033	-104.279	0.106	-0.025
-387.019	136.303	-0.065	0.085
-386.004	87.668	0.264	0.293
-384.990	-200.000	0.002	0.118
-383.975	-106.837	-0.123	-0.027
-382.960	759.225	-0.090	-0.244
-381.946	-119.856	0.143	0.025
-380.931	34.202	-0.012	-0.011
-379.917	-35.572	0.143	0.077
-378.902	-98.243	-0.269	-0.069
-377.888	488.884	-0.040	-0.091
-376.873	-85.097	0.110	-0.035
-375.858	-103.079	-0.062	-0.015
-374.844	-200.000	-0.037	-0.310
-373.829	-200.000	0.008	0.253
-372.815	-148.369	-0.050	-0.004
-371.800	-200.000	-0.060	0.405
-370.785	-118.507	-0.200	-0.035
-369.771	302.535	-0.101	-0.187
-368.756	453.290	0.058	0.128
-367.742	-200.000	0.003	0.100
-366.727	-200.000	-0.005	0.309
-365.712	29.177	-0.197	-0.168
-364.698	800.000	-0.109	0.329
-363.683	-69.546	-0.156	-0.060
-362.669	73.617	-0.072	-0.075
-361.654	-200.000	-0.043	-0.226
-360.639	55.811	-0.222	-0.216
-359.625	-168.431	0.290	-0.011
-358.610	-68.825	-0.210	0.081
-357.596	-162.123	-0.207	-0.010
-356.581	-200.000	-0.017	-0.121
-355.566	-50.737	-0.180	0.085
-354.552	442.170	0.099	-0.217
-353.537	257.599	0.194	-0.334
-352.523	534.152	-0.094	-0.224
-351.508	179.280	-0.074	-0.108
-350.493	800.000	-0.064	-0.198
-349.479	-52.760	-0.173	0.080
-348.464	-86.674	0.099	0.030
-347.450	-81.013	0.293	0.097
-346.435	19.529	-0.221	0.177
-345.420	-51.463	-0.117	-0.055
-344.406	-161.758	-0.126	0.006
-343.391	243.485	0.127	-0.214
-342.377	-200.000	0.036	-0.239
-341.362	-200.000	-0.009	-0.058
-340.348	319.739	0.074	0.140
-339.333	-78.427	-0.108	0.037
-338.318	390.890	-0.109	0.226
-337.304	-200.000	0.041	-0.335
-336.289	-32.715	-0.347	-0.193
-335.275	-200.000	-0.002	-0.227
-334.260	-6.382	0.270	0.184
-333.245	-92.447	-0.062	0.017
-332.231	19.728	0.366	0.295
-331.216	800.000	0.081	-0.271
-330.202	552.641	-0.115	-0.276
-329.187	39.755	-0.144	-0.129
-328.172	287.861	0.166	0.301
-327.158	-200.000	-0.039	-0.203
-326.143	-200.000	0.006	-0.027
-325.129	-66.640	0.189	0.075
-324.114	-200.000	0.035	-0.220
-323.099	-200.000	0.013	0.086
-322.085	-200.000	-0.003	-0.174
-321.070	-24.144	0.149	-0.089
-320.056	-36.184	-0.155	-0.084
-319.041	-78.144	-0.450	-0.155
-318.026	209.890	0.098	0.153
-317.012	-31.309	-0.094	0.053
-315.997	800.000	0.074	0.206
-314.983	-129.160	-0.100	-0.014
-313.968	263.306	0.012	0.020
-312.953	-200.000	-0.047	-0.338
-311.939	39.188	0.286	0.256
-310.924	104.288	-0.080	0.094
-309.910	-133.927	0.314	-0.039
-308.895	-70.166	0.150	0.057
-307.880	25.240	0.133	0.110
-306.866	800.000	-0.005	0.013
-305.851	209.933	-0.059	-0.093
-304.837	800.000	0.009	-0.027
-303.822	437.359	0.106	-0.230
-302.807	-30.893	0.139	-0.078
-301.793	6.031	0.085	-0.063
-300.778	87.524	-0.072	-0.079
-299.764	800.000	0.055	0.217
-298.749	800.000	0.048	-0.195
-297.735	-200.000	-0.061	-0.566
-296.720	-200.000	-0.007	0.092
-295.705	-120.414	-0.250	-0.042
-294.691	-88.919	0.275	0.081
-293.676	362.553	0.038	0.075
-292.662	665.127	-0.096	-0.247
-291.647	-67.669	0.264	0.103
-290.632	-128.387	-0.371	-0.053
-289.618	-43.181	0.327	-0.165
-288.603	-24.331	-0.204	0.122
-287.589	331.617	0.182	0.350
-286.574	800.000	0.012	-0.046
-285.559	635.266	-0.096	-0.243
-284.545	-100.705	-0.344	0.085
-283.530	-187.574	-0.099	-0.001
-282.516	-28.469	-0.138	0.080
-281.501	281.121	0.055	-0.098
-280.486	-88.090	0.128	-0.038
-279.472	212.740	-0.025	-0.040
-278.457	-61.235	0.064	0.027
-277.443	-173.089	0.202	-0.006
-276.428	-81.445	-0.187	0.061
-275.413	-103.488	-0.187	0.044
-274.399	800.000	-0.062	0.262
-273.384	-200.000	-0.019	0.112
-272.370	-200.000	-0.027	-0.119
-271.355	800.000	-0.111	0.381
-270.340	-200.000	-0.081	0.456
-269.326	394.809	0.046	-0.096
-268.311	500.667	0.084	-0.193
-267.297	-133.916	-0.377	0.047
-266.282	329.902	0.122	0.235
-265.267	28.114	-0.234	0.197
-264.253	-178.492	-0.191	0.004
-263.238	800.000	-0.108	0.343
-262.224	-120.451	-0.150	0.025
-261.209	23.848	-0.231	-0.190
-260.195	800.000	-0.073	-0.203
-259.180	540.199	0.183	0.435
-258.165	-75.669	-0.128	-0.045
-257.151	-112.287	-0.212	0.042
-256.136	736.290	0.045	0.122
-255.122	-200.000	-0.048	0.220
-254.107	32.320	0.233	-0.201
-253.092	-200.000	-0.034	0.196
-252.078	116.009	-0.073	0.089
-251.063	16.832	0.136	0.108
-250.049	-69.861	-0.108	0.041
-249.034	467.521	0.061	0.136
-248.019	92.672	0.324	-0.364
-247.005	-200.000	-0.077	-0.000
-245.990	52.818	0.390	-0.372
-244.976	-58.909	-0.261	-0.112
-243.961	-200.000	-0.001	-0.077
-242.946	800.000	0.031	0.100
-241.932	-105.982	-0.320	0.072
-240.917	-41.124	-0.114	0.059
-239.903	6.147	0.174	-0.128
-238.888	-200.000	-0.056	0.362
-237.873	476.617	0.063	-0.141
-236.859	-106.068	-0.299	0.067
-235.844	479.688	-0.098	-0.222
-234.830	-200.000	0.004	0.239
-233.815	-200.000	0.011	-0.176
-232.800	651.503	-0.037	-0.095
-231.786	-90.680	-0.420	-0.121
-230.771	800.000	-0.032	-0.106
-229.757	-104.258	-0.519	0.120
-228.742	-101.731	-0.067	0.016
-227.727	-200.000	0.037	0.345
-226.713	-169.304	-0.185	-0.007
-225.698	-14.857	-0.269	0.172
-224.684	-124.786	-0.205	0.032
-223.669	20.349	0.286	-0.230
-222.655	-37.152	0.397	-0.211
-221.640	549.001	0.078	-0.185
-220.625	-178.265	0.261	0.006
-219.611	11.542	0.152	-0.116
-218.596	-200.000	-0.006	0.117
-217.582	382.689	-0.106	-0.216
-216.567	7.234	0.117	-0.087
-215.552	-131.150	-0.209	0.028
-214.538	-165.520	0.110	0.005
-213.523	-200.000	-0.058	0.325
-212.509	124.457	0.168	-0.210
-211.494	800.000	-0.040	-0.113
-210.479	-70.899	0.257	0.096
-209.465	-59.207	0.107	-0.046
-208.450	28.064	0.164	0.137
-207.436	-200.000	-0.001	-0.240
-206.421	-200.000	-0.027	-0.134
-205.406	-200.000	-0.012	-0.233
-204.392	143.474	0.061	0.081
-203.377	-22.705	0.131	-0.079
-202.363	212.317	-0.027	0.043
-201.348	-120.190	0.202	0.034
-200.333	-163.669	0.113	-0.005
-199.319	-200.000	0.004	-0.437
-198.304	800.000	0.041	-0.120
-197.290	-149.343	0.294	0.023
-196.275	-11.711	-0.160	0.104
-195.260	42.970	0.129	0.117
-194.246	276.586	-0.035	0.062
-193.231	56.223	0.385	0.372
-192.217	-123.110	-0.157	-0.025
-191.202	-72.871	0.068	-0.025
-190.187	-134.031	0.106	0.013
-189.173	539.519	0.098	-0.231
-188.158	112.026	-0.012	0.015
-187.144	103.098	-0.146	0.170
-186.129	-132.981	0.134	0.017
-185.114	286.879	-0.045	0.081
-184.100	800.000	-0.082	-0.308
-183.085	800.000	0.080	-0.260
-182.071	33.218	-0.128	0.110
-181.056	800.000	-0.153	0.429
-180.042	-200.000	0.095	0.573
-179.027	-160.494	-0.274	-0.015
-178.012	469.245	0.040	0.089
-176.998	-106.595	0.289	-0.064
-175.983	800.000	-0.095	-0.301
-174.969	178.898	-0.232	-0.337
-173.954	-55.887	-0.161	0.072
-172.939	25.501	0.353	0.292
-171.925	314.766	-0.048	0.090
-170.910	-52.264	0.096	0.044
-169.896	42.819	-0.194	0.176
-168.881	-41.341	0.049	0.025
-167.866	70.044	-0.380	-0.390
-166.852	-63.264	0.211	0.086
-165.837	279.274	-0.096	0.169
-164.823	10.301	0.327	0.247
-163.808	-73.200	0.242	-0.088
-162.793	-200.000	0.014	0.255
-161.779	-39.812	-0.166	-0.086
-160.764	74.244	0.156	-0.163
-159.750	44.093	0.269	0.245
-158.735	-168.808	0.361	-0.014
-157.720	-4.558	0.040	-0.027
-156.706	3.387	-0.218	0.158
-155.691	-94.537	0.046	0.012
-154.677	-200.000	0.017	-0.207
-153.662	71.009	0.261	0.268
-152.647	-26.624	-0.169	0.098
-151.633	218.083	-0.150	0.238
-150.618	-200.000	0.010	-0.082
-149.604	115.913	0.151	0.183
-148.589	-86.647	0.385	-0.117
-147.574	98.327	0.301	0.344
-146.560	86.969	0.053	-0.058
-145.545	83.954	-0.247	-0.268
-144.531	800.000	-0.103	-0.402
-143.516	-200.000	-0.068	0.327
-142.502	552.605	-0.082	0.195
-141.487	684.798	-0.138	0.357
-140.472	-160.734	0.301	0.016
-139.458	-74.343	0.291	-0.104
-138.443	-138.678	-0.158	0.017
-137.429	-88.362	-0.271	0.080
-136.414	424.788	0.033	-0.071
-135.399	-139.251	0.162	-0.017
-134.385	398.339	0.081	-0.168
-133.370	148.802	0.138	0.185
-132.356	63.665	0.178	-0.177
-131.341	-71.776	0.366	0.135
-130.326	-200.000	0.016	-0.142
-129.312	-5.898	-0.257	0.174
-128.297	-200.000	-0.010	-0.122
-127.283	389.710	0.143	-0.295
-126.268	-52.388	0.249	-0.114
-125.253	-76.753	0.081	-0.028
-124.239	-109.408	-0.184	0.039
-123.224	589.688	0.049	0.120
-122.210	148.226	-0.083	-0.111
