DTS Sentinel unit serial number:	SN413079Multiplexer serial number:	ORYXHardware model number:	OX4-SRSoftware version number:	ORYX F/W v4.00 Oryx Data Collector v3.7.2.0data status	okinstallation	princeton_trtdifferential loss correction	single-endedforward channel	channel 4reverse channel	N/Adate	2019/09/14time	21:53:34forward acquisition time	60.00reverse acquisition time	0.00gamma	496.2192k internal	0.2306k external	0.2306temperature offset calibration	1.0071default loss term (dB/km)	0.3790temperature slope calibration	1.0000multiplexer offset coefficient	1.0000multiplexer slope coefficient	1.0000fibre end	0.00T internal ref (°C)	32.73T ext. ref 1 (°C)	4.72T ext. ref 2 (°C)	27.71length (m)	temperature (°C)	Stokes	anti-Stokes-747.200	198.587	0.117	-0.181
-746.185	-149.434	0.274	0.022
-745.171	127.070	0.246	-0.317
-744.156	303.248	-0.251	0.474
-743.142	16.028	-0.081	-0.065
-742.127	-115.947	-0.342	0.065
-741.112	-200.000	-0.053	-0.310
-740.098	40.183	-0.084	0.077
-739.083	67.075	0.077	-0.080
-738.069	70.578	-0.138	0.145
-737.054	-67.610	0.207	0.083
-736.039	-118.863	-0.462	-0.083
-735.025	54.182	0.284	-0.278
-734.010	82.023	-0.249	-0.275
-732.996	-200.000	-0.031	-0.424
-731.981	27.188	-0.056	-0.048
-730.966	-120.265	0.275	0.048
-729.952	800.000	-0.045	-0.157
-728.937	103.710	-0.208	0.249
-727.923	-45.814	0.137	-0.069
-726.908	-125.007	-0.392	0.061
-725.894	626.843	0.023	-0.059
-724.879	-149.566	0.244	-0.020
-723.864	177.220	-0.173	-0.255
-722.850	44.236	-0.071	0.066
-721.835	-200.000	0.002	-0.031
-720.821	-7.734	-0.119	0.082
-719.806	-200.000	-0.020	0.170
-718.791	204.472	0.361	-0.568
-717.777	-200.000	-0.009	0.164
-716.762	7.203	0.227	0.172
-715.748	99.416	-0.185	0.217
-714.733	-200.000	-0.062	0.282
-713.718	-85.773	0.251	-0.079
-712.704	800.000	-0.078	-0.267
-711.689	800.000	-0.032	0.094
-710.675	-55.817	-0.221	-0.100
-709.660	683.557	-0.051	-0.136
-708.645	19.800	0.202	-0.165
-707.631	-200.000	0.025	0.255
-706.616	165.810	-0.043	0.061
-705.602	355.310	-0.061	0.123
-704.587	-122.800	-0.069	-0.011
-703.572	414.987	0.183	0.397
-702.558	-20.358	0.201	0.126
-701.543	137.411	0.098	-0.130
-700.529	-45.503	0.400	0.201
-699.514	800.000	0.068	-0.273
-698.499	173.020	0.081	0.119
-697.485	-200.000	-0.007	0.111
-696.470	64.906	0.053	-0.055
-695.456	31.364	0.120	0.105
-694.441	-200.000	0.007	0.186
-693.426	-200.000	0.027	0.276
-692.412	-3.129	-0.349	0.247
-691.397	-126.799	0.264	-0.040
-690.383	-147.379	-0.180	-0.015
-689.368	-7.343	0.098	0.067
-688.354	73.354	-0.192	0.204
-687.339	-200.000	-0.003	0.128
-686.324	35.841	-0.158	-0.141
-685.310	174.758	0.190	0.280
-684.295	9.390	0.128	0.098
-683.281	-200.000	0.014	-0.282
-682.266	-97.366	0.079	0.021
-681.251	-200.000	-0.103	-0.000
-680.237	7.156	-0.181	0.137
-679.222	-200.000	-0.004	-0.275
-678.208	672.342	0.083	0.218
-677.193	-44.273	-0.123	-0.063
-676.178	-200.000	-0.034	-0.278
-675.164	27.513	-0.231	0.197
-674.149	-9.865	0.159	-0.108
-673.135	-200.000	-0.025	-0.189
-672.120	-140.887	-0.208	0.022
-671.105	-142.451	0.443	0.044
-670.091	800.000	-0.056	-0.244
-669.076	24.418	-0.048	-0.040
-668.062	-121.355	-0.120	-0.020
-667.047	156.969	-0.079	0.110
-666.032	-98.385	-0.442	-0.115
-665.018	19.609	-0.311	-0.254
-664.003	-47.370	0.224	-0.110
-662.989	-200.000	-0.024	0.218
-661.974	157.105	-0.096	0.134
-660.959	800.000	-0.043	-0.153
-659.945	87.268	0.208	0.233
-658.930	177.060	-0.107	0.157
-657.916	338.289	-0.080	-0.159
-656.901	-132.269	-0.635	0.083
-655.886	477.231	0.200	-0.459
-654.872	-200.000	0.013	-0.474
-653.857	-90.014	-0.439	0.130
-652.843	14.191	0.151	-0.120
-651.828	-24.248	0.106	-0.064
-650.814	53.456	0.184	-0.178
-649.799	-132.070	-0.384	-0.051
-648.784	570.461	-0.107	0.265
-647.770	200.835	-0.061	0.096
-646.755	-68.687	0.294	0.115
-645.741	671.520	0.039	-0.101
-644.726	227.012	-0.094	0.155
-643.711	-81.879	-0.171	0.057
-642.697	-79.015	-0.070	-0.024
-641.682	800.000	0.025	0.086
-640.668	-114.286	0.153	-0.030
-639.653	41.966	-0.038	-0.035
-638.638	-64.842	-0.324	-0.133
-637.624	591.752	0.090	0.225
-636.609	678.155	-0.108	-0.284
-635.595	289.369	-0.095	-0.175
-634.580	226.390	-0.064	-0.105
-633.565	800.000	0.033	-0.098
-632.551	800.000	-0.038	0.136
-631.536	-200.000	-0.025	-0.191
-630.522	800.000	0.027	0.077
-629.507	-48.498	-0.474	0.231
-628.492	-200.000	-0.002	0.021
-627.478	-41.733	0.072	0.037
-626.463	12.645	-0.161	0.126
-625.449	-36.236	-0.174	0.095
-624.434	35.032	-0.254	-0.226
-623.419	800.000	-0.060	0.184
-622.405	-77.814	0.222	0.078
-621.390	206.860	0.091	0.144
-620.376	-200.000	0.017	0.135
-619.361	800.000	-0.061	-0.254
-618.346	800.000	-0.052	-0.176
-617.332	-129.611	0.331	-0.046
-616.317	-200.000	0.010	-0.121
-615.303	-200.000	-0.091	-0.616
-614.288	648.778	0.046	-0.119
-613.273	307.990	-0.087	-0.164
-612.259	675.286	-0.084	-0.220
-611.244	241.000	-0.038	-0.065
-610.230	129.739	0.180	0.232
-609.215	-200.000	0.027	-0.152
-608.201	-109.161	-0.044	-0.009
-607.186	-200.000	0.021	-0.096
-606.171	-200.000	0.014	-0.286
-605.157	-106.865	-0.416	-0.093
-604.142	93.452	0.383	0.438
-603.128	-130.050	-0.342	0.047
-602.113	240.076	0.047	0.080
-601.098	-137.880	-0.136	0.015
-600.084	119.160	-0.064	-0.080
-599.069	800.000	-0.028	-0.122
-598.055	-122.411	0.231	-0.038
-597.040	364.594	-0.154	0.313
-596.025	0.439	-0.367	-0.265
-595.011	-178.421	-0.128	-0.003
-593.996	-200.000	-0.008	0.298
-592.982	-200.000	-0.008	0.146
-591.967	533.298	-0.126	0.301
-590.952	11.927	0.370	0.287
-589.938	65.718	-0.095	-0.097
-588.923	-60.866	0.267	-0.114
-587.909	-200.000	-0.020	0.216
-586.894	-200.000	-0.010	-0.299
-585.879	36.552	-0.095	-0.085
-584.865	-200.000	0.032	0.166
-583.850	157.181	-0.284	0.397
-582.836	-30.414	0.131	-0.075
-581.821	-200.000	0.029	0.175
-580.806	-106.679	-0.132	0.030
-579.792	-185.671	0.308	-0.005
-578.777	55.124	0.121	-0.118
-577.763	-122.092	0.090	0.015
-576.748	369.330	0.140	0.287
-575.733	247.598	0.129	-0.220
-574.719	292.283	0.107	-0.198
-573.704	-200.000	-0.040	0.215
-572.690	101.648	-0.098	-0.115
-571.675	66.489	-0.075	-0.077
-570.661	-80.367	0.117	0.040
-569.646	-24.801	0.258	0.155
-568.631	800.000	-0.070	-0.290
-567.617	118.858	0.104	-0.130
-566.602	160.513	-0.167	0.235
-565.588	-155.260	0.154	0.010
-564.573	-22.203	-0.111	-0.068
-563.558	-200.000	-0.004	-0.222
-562.544	-80.388	-0.287	0.097
-561.529	80.685	0.287	0.313
-560.515	80.529	0.060	0.065
-559.500	90.700	-0.025	0.029
-558.485	349.168	0.074	-0.147
-557.471	-200.000	0.011	0.094
-556.456	166.457	0.173	0.247
-555.442	-57.323	0.141	0.063
-554.427	10.224	0.105	0.081
-553.412	213.596	0.070	0.112
-552.398	-102.938	-0.279	0.067
-551.383	71.435	-0.084	0.089
-550.369	-49.114	-0.171	-0.083
-549.354	197.869	-0.180	0.278
-548.339	-11.629	-0.073	-0.048
-547.325	-76.237	0.192	0.068
-546.310	306.933	0.060	-0.112
-545.296	7.029	-0.098	-0.074
-544.281	39.561	0.157	0.142
-543.266	110.593	0.181	-0.220
-542.252	-88.853	0.193	-0.058
-541.237	-58.322	0.244	0.107
-540.223	500.203	0.118	-0.275
-539.208	-155.279	0.202	-0.013
-538.193	-137.059	0.110	-0.013
-537.179	-137.997	0.224	-0.025
-536.164	-128.347	0.128	0.018
-535.150	221.105	0.016	0.025
-534.135	170.023	-0.128	0.184
-533.121	10.261	-0.059	-0.045
-532.106	-97.964	-0.203	-0.053
-531.091	61.099	0.100	0.100
-530.077	-200.000	-0.006	0.230
-529.062	-109.610	-0.281	-0.060
-528.048	54.094	0.144	-0.140
-527.033	-25.166	-0.167	-0.100
-526.018	-134.495	-0.188	-0.023
-525.004	8.800	0.132	-0.100
-523.989	-158.536	0.116	0.007
-522.975	-115.935	-0.235	-0.044
-521.960	-117.704	-0.181	-0.033
-520.945	-200.000	0.036	-0.319
-519.931	738.746	0.090	0.243
-518.916	-95.276	-0.291	0.079
-517.902	3.428	0.200	0.147
-516.887	800.000	0.098	-0.334
-515.872	-200.000	-0.263	0.000
-514.858	-101.052	-0.493	0.122
-513.843	-43.299	-0.173	0.088
-512.829	-200.000	-0.022	0.230
-511.814	-200.000	-0.022	-0.164
-510.799	-122.590	-0.259	-0.042
-509.785	-200.000	0.036	-0.262
-508.770	-114.921	-0.265	0.051
-507.756	-200.000	0.010	-0.082
-506.741	-12.356	0.222	0.146
-505.726	-104.111	0.391	-0.092
-504.712	-200.000	-0.020	0.098
-503.697	-108.490	-0.261	0.057
-502.683	-5.821	-0.134	0.092
-501.668	-173.410	-0.099	-0.003
-500.653	-200.000	0.032	-0.164
-499.639	-66.051	0.042	-0.017
-498.624	-18.724	-0.204	-0.128
-497.610	800.000	-0.024	0.096
-496.595	137.158	-0.132	-0.173
-495.581	453.493	0.126	-0.281
-494.566	195.209	0.052	0.080
-493.551	-200.000	0.024	0.184
-492.537	800.000	-0.036	-0.119
-491.522	-200.000	-0.056	-0.276
-490.508	171.564	0.085	0.123
-489.493	800.000	0.022	-0.079
-488.478	-141.627	0.268	-0.027
-487.464	180.454	-0.148	-0.219
-486.449	141.519	-0.082	0.109
-485.435	-15.639	0.428	-0.275
-484.420	-200.000	0.093	-0.560
-483.405	-59.521	-0.347	-0.150
-482.391	-14.816	-0.172	-0.111
-481.376	83.281	0.113	0.124
-480.362	-200.000	-0.029	0.163
-479.347	-141.610	0.182	0.018
-478.332	42.022	-0.551	0.504
-477.318	800.000	-0.116	0.333
-476.303	419.222	-0.156	-0.337
-475.289	800.000	0.064	-0.256
-474.274	-70.093	-0.413	0.158
-473.259	200.818	0.218	-0.337
-472.245	-154.407	-0.016	0.001
-471.230	90.347	0.077	0.087
-470.216	51.099	-0.083	0.080
-469.201	-12.400	0.101	-0.067
-468.186	-95.638	0.299	-0.080
-467.172	7.128	0.062	0.046
-466.157	-65.480	-0.273	-0.110
-465.143	-86.188	-0.106	0.033
-464.128	413.751	-0.130	-0.279
-463.113	38.503	0.177	-0.159
-462.099	-93.623	0.239	0.066
-461.084	-200.000	-0.007	-0.095
-460.070	800.000	-0.022	-0.067
-459.055	564.796	-0.104	-0.254
-458.040	75.910	0.082	0.087
-457.026	318.506	0.097	-0.186
-456.011	-200.000	0.021	0.199
-454.997	-51.564	0.226	0.106
-453.982	-87.566	0.164	0.050
-452.968	48.566	-0.154	-0.145
-451.953	216.145	0.093	0.148
-450.938	55.992	-0.280	-0.274
-449.924	-84.305	-0.148	0.047
-448.909	195.780	0.128	0.195
-447.895	800.000	-0.131	0.377
-446.880	-2.110	0.193	0.136
-445.865	-200.000	0.015	-0.287
-444.851	76.707	-0.152	-0.162
-443.836	-166.521	0.108	-0.005
-442.822	3.371	0.166	-0.122
-441.807	-64.025	0.176	0.072
-440.792	-73.312	0.189	0.070
-439.778	-200.000	0.024	0.171
-438.763	-38.182	-0.185	0.099
-437.749	185.128	-0.209	-0.311
-436.734	800.000	0.076	0.283
-435.719	2.044	0.324	-0.235
-434.705	574.010	-0.135	0.331
-433.690	-130.925	-0.110	0.015
-432.676	-200.000	0.002	-0.313
-431.661	112.210	-0.073	-0.089
-430.646	-200.000	-0.033	0.159
-429.632	55.297	0.161	-0.157
-428.617	-21.841	-0.257	-0.157
-427.603	679.157	0.063	0.165
-426.588	800.000	-0.039	0.152
-425.573	-55.131	-0.157	-0.071
-424.559	33.544	-0.273	-0.238
-423.544	800.000	-0.086	0.261
-422.530	-200.000	-0.018	0.181
-421.515	-86.800	-0.210	0.065
-420.500	-200.000	-0.042	0.271
-419.486	-88.266	0.268	-0.080
-418.471	-128.435	0.297	0.042
-417.457	-59.501	0.223	0.096
-416.442	-129.895	0.289	0.040
-415.428	-6.816	0.114	0.078
-414.413	407.140	0.130	-0.276
-413.398	-181.911	0.331	-0.006
-412.384	127.854	-0.102	0.131
-411.369	2.009	0.149	-0.108
-410.355	-7.138	0.265	-0.181
-409.340	389.123	0.156	-0.325
-408.325	38.562	0.117	0.105
-407.311	-51.025	0.150	0.071
-406.296	-143.233	-0.454	0.044
-405.282	-148.881	-0.189	0.015
-404.267	184.763	0.097	0.144
-403.252	-99.427	0.293	-0.074
-402.238	398.025	0.072	0.150
-401.223	-170.969	-0.283	0.010
-400.209	-200.000	0.042	0.209
-399.194	19.138	0.084	0.068
-398.179	-200.000	0.008	-0.107
-397.165	-102.620	0.148	-0.036
-396.150	-5.235	-0.090	0.062
-395.136	62.598	-0.214	0.215
-394.121	-137.988	0.220	-0.025
-393.106	-200.000	-0.012	0.149
-392.092	15.883	-0.134	-0.106
-391.077	83.275	0.047	-0.052
-390.063	185.249	0.195	-0.290
-389.048	800.000	0.018	-0.066
-388.033	-200.000	0.031	-0.164
-387.019	38.755	0.235	-0.211
-386.004	399.251	-0.088	0.184
-384.990	107.841	0.236	0.282
-383.975	3.557	0.201	-0.147
-382.960	19.849	0.159	-0.128
-381.946	-200.000	0.027	-0.200
-380.931	-162.241	0.055	-0.003
-379.917	-200.000	0.052	0.344
-378.902	-24.615	-0.291	-0.174
-377.888	28.180	0.051	0.043
-376.873	800.000	-0.026	0.095
-375.858	-154.831	-0.231	-0.015
-374.844	-37.397	-0.329	-0.176
-373.829	122.527	0.172	-0.215
-372.815	-140.859	0.346	-0.036
-371.800	-73.506	-0.277	0.101
-370.785	-200.000	0.004	-0.075
-369.771	-200.000	-0.010	-0.063
-368.756	187.667	-0.063	0.094
-367.742	436.383	0.094	-0.205
-366.727	-31.147	0.144	0.081
-365.712	436.245	-0.126	-0.274
-364.698	50.174	-0.073	-0.069
-363.683	-200.000	0.003	0.133
-362.669	800.000	-0.100	0.324
-361.654	111.500	-0.182	0.220
-360.639	-77.958	0.153	0.053
-359.625	116.000	0.138	0.170
-358.610	-67.865	0.232	-0.091
-357.596	-21.318	0.299	0.183
-356.581	177.974	0.056	-0.082
-355.566	293.932	-0.158	-0.288
-354.552	-179.382	-0.049	0.001
-353.537	-117.551	0.037	0.007
-352.523	-200.000	-0.013	0.252
-351.508	-58.609	-0.041	-0.018
-350.493	-109.900	0.124	-0.026
-349.479	-200.000	0.033	-0.197
-348.464	-110.182	-0.342	-0.072
-347.450	256.033	-0.090	0.154
-346.435	-200.000	-0.007	-0.047
-345.420	-76.987	-0.220	-0.077
-344.406	25.457	0.141	-0.117
-343.391	-57.349	-0.227	-0.100
-342.377	12.288	-0.157	-0.121
-341.362	201.243	0.179	-0.276
-340.348	-200.000	-0.098	-0.479
-339.333	-157.124	0.128	0.008
-338.318	-59.743	-0.103	0.044
-337.304	143.043	-0.100	0.134
-336.289	105.384	-0.070	-0.083
-335.275	-145.367	-0.261	-0.024
-334.260	-64.503	-0.187	-0.076
-333.245	-130.855	0.076	0.010
-332.231	-124.020	0.035	-0.006
-331.216	800.000	-0.075	-0.221
-330.202	50.894	0.218	0.207
-329.187	249.406	-0.094	0.160
-328.172	-131.909	0.205	-0.027
-327.158	-133.682	-0.103	0.013
-326.143	245.581	0.184	0.311
-325.129	-200.000	-0.046	0.344
-324.114	-4.755	0.173	0.119
-323.099	800.000	0.115	0.345
-322.085	-200.000	-0.007	0.083
-321.070	-79.458	-0.280	0.095
-320.056	78.702	-0.107	-0.115
-319.041	-200.000	-0.091	-0.000
-318.026	182.175	0.026	-0.039
-317.012	362.909	-0.095	0.191
-315.997	28.573	0.199	-0.169
-314.983	-200.000	-0.006	-0.056
-313.968	43.392	0.172	-0.157
-312.953	95.994	-0.103	0.117
-311.939	179.048	0.161	0.236
-310.924	800.000	0.043	-0.156
-309.910	-200.000	0.039	-0.317
-308.895	-13.456	-0.095	-0.061
-307.880	123.630	-0.071	-0.089
-306.866	-200.000	0.029	-0.210
-305.851	-62.076	-0.267	0.112
-304.837	-11.478	0.254	-0.167
-303.822	-104.084	0.198	0.046
-302.807	-103.728	0.405	0.095
-301.793	-200.000	-0.033	0.229
-300.778	-200.000	-0.013	0.310
-299.764	-111.109	-0.173	0.035
-298.749	163.570	0.186	-0.262
-297.735	4.369	0.149	0.109
-296.720	5.673	-0.234	0.173
-295.705	800.000	0.024	0.067
-294.691	258.168	0.191	0.329
-293.676	-156.751	-0.617	-0.038
-292.662	423.325	0.083	-0.178
-291.647	-200.000	0.005	0.155
-290.632	-200.000	-0.049	0.332
-289.618	118.526	0.114	0.141
-288.603	-114.375	-0.191	0.037
-287.589	14.221	0.268	-0.209
-286.574	800.000	0.096	0.266
-285.559	49.288	0.280	0.263
-284.545	-138.106	0.177	-0.020
-283.530	-57.878	0.244	-0.106
-282.516	-88.462	-0.147	0.044
-281.501	405.422	-0.138	0.290
-280.486	-15.767	0.266	0.170
-279.472	32.417	-0.089	-0.077
-278.457	-12.698	0.398	-0.259
-277.443	53.600	0.131	-0.125
-276.428	-93.045	-0.175	-0.049
-275.413	-24.513	0.274	-0.163
-274.399	-200.000	0.015	0.390
-273.384	246.975	0.207	-0.349
-272.370	610.219	0.055	-0.137
-271.355	800.000	0.014	-0.050
-270.340	-127.681	-0.097	0.014
-269.326	-200.000	-0.025	-0.285
-268.311	-114.472	-0.288	-0.055
-267.297	-3.409	-0.125	-0.087
-266.282	39.357	0.169	0.151
-265.267	560.942	-0.083	0.200
-264.253	800.000	0.090	-0.380
-263.238	324.993	0.129	0.247
-262.224	-199.025	-0.102	0.001
-261.209	231.600	-0.119	0.195
-260.195	319.588	-0.187	0.354
-259.180	-35.687	-0.064	-0.034
-258.165	-70.609	-0.295	0.111
-257.151	299.653	-0.036	0.067
-256.136	800.000	-0.054	-0.189
-255.122	-93.928	-0.109	-0.030
-254.107	136.694	-0.148	0.192
-253.092	-57.064	-0.126	-0.055
-252.078	-76.672	0.187	-0.065
-251.063	-200.000	-0.055	0.373
-250.049	86.785	0.050	0.056
-249.034	50.404	0.179	-0.169
-248.019	-80.493	0.170	0.057
-247.005	740.367	0.065	0.174
-245.990	-64.471	-0.101	-0.041
-244.976	-200.000	0.036	-0.225
-243.961	-17.881	0.070	0.044
-242.946	-7.809	-0.108	0.073
-241.932	-200.000	-0.024	-0.114
-240.917	9.522	-0.169	0.128
-239.903	-42.733	0.216	-0.110
-238.888	-148.052	0.282	0.023
-237.873	800.000	0.040	0.166
-236.859	16.565	0.463	-0.365
-235.844	51.239	0.280	-0.265
-234.830	-36.250	-0.140	0.075
-233.815	-24.187	-0.098	0.058
-232.800	-129.148	-0.103	-0.014
-231.786	-39.717	0.164	-0.085
-230.771	48.763	-0.156	-0.146
-229.757	80.917	0.133	-0.143
-228.742	308.650	-0.089	-0.166
-227.727	-145.502	-0.248	0.022
-226.713	-200.000	0.026	-0.117
-225.698	-112.928	-0.070	0.014
-224.684	-200.000	-0.007	-0.239
-223.669	-26.476	-0.221	0.129
-222.655	-118.527	0.380	0.067
-221.640	800.000	0.033	-0.123
-220.625	-91.262	0.306	0.087
-219.611	800.000	0.031	-0.111
-218.596	543.091	0.054	-0.129
-217.582	33.391	-0.078	-0.067
-216.567	-108.619	-0.154	-0.033
-215.552	-81.945	0.252	0.082
-214.538	144.800	0.063	-0.084
-213.523	-57.146	0.247	-0.109
-212.509	89.100	-0.113	-0.126
-211.494	43.519	-0.229	-0.209
-210.479	-78.615	-0.041	-0.014
-209.465	228.310	-0.086	-0.140
-208.450	-37.755	0.093	-0.049
-207.436	-22.021	0.150	0.091
-206.421	-77.800	0.031	-0.011
-205.406	-200.000	0.010	0.144
-204.392	75.184	-0.111	-0.117
-203.377	232.009	-0.046	-0.076
-202.363	21.864	-0.335	0.272
-201.348	800.000	-0.104	-0.385
-200.333	-60.911	0.210	0.089
-199.319	-125.566	-0.420	-0.063
-198.304	-61.162	-0.141	-0.059
-197.290	199.230	0.070	0.107
-196.275	-12.615	-0.164	0.107
-195.260	800.000	0.020	-0.055
-194.246	-169.958	-0.043	0.002
-193.231	-200.000	-0.005	0.159
-192.217	321.302	0.097	-0.183
-191.202	119.540	-0.129	0.159
-190.187	-157.516	-0.376	0.022
-189.173	-76.234	0.475	0.167
-188.158	298.472	0.145	-0.266
-187.144	-70.985	0.110	0.041
-186.129	225.424	0.123	0.198
-185.114	199.339	-0.094	0.144
-184.100	331.943	-0.247	-0.475
-183.085	682.599	0.016	-0.042
-182.071	-127.343	-0.303	-0.044
-181.056	-10.188	0.278	0.183
-180.042	-145.705	-0.032	0.003
-179.027	-200.000	0.047	-0.237
-178.012	-200.000	0.021	0.095
-176.998	3.118	0.292	0.211
-175.983	1.423	-0.143	-0.102
-174.969	-200.000	-0.024	-0.366
-173.954	-120.095	-0.161	0.027
-172.939	800.000	0.030	0.094
-171.925	634.073	-0.034	0.086
-170.910	350.416	-0.130	0.256
-169.896	-200.000	-0.009	-0.092
-168.881	-47.570	-0.269	-0.130
-167.866	-200.000	0.055	0.285
-166.852	-200.000	-0.014	0.229
-165.837	-146.575	0.302	0.026
-164.823	-43.816	0.142	-0.071
-163.808	-152.292	0.220	0.016
-162.793	-200.000	0.008	0.463
-161.779	-53.128	0.042	0.019
-160.764	99.425	-0.132	0.152
-159.750	139.325	-0.045	-0.058
-158.735	-200.000	0.042	0.188
-157.720	-39.754	-0.243	0.126
-156.706	-87.718	-0.047	0.014
-155.691	139.301	-0.218	0.285
-154.677	18.659	0.098	0.078
-153.662	91.716	0.131	-0.147
-152.647	-27.528	0.322	0.186
-151.633	-159.318	-0.637	0.035
-150.618	800.000	-0.039	0.140
-149.604	-200.000	0.023	0.363
-148.589	-69.325	0.024	-0.009
-147.574	178.729	0.282	-0.410
-146.560	-135.722	-0.012	-0.001
-145.545	-200.000	0.058	-0.300
-144.531	-120.115	0.209	0.036
-143.516	67.021	-0.065	0.066
-142.502	287.598	-0.234	0.420
-141.487	-75.957	-0.246	-0.087
-140.472	341.180	0.062	0.121
-139.458	19.501	-0.149	0.119
-138.443	-160.735	0.176	0.009
-137.429	800.000	0.058	-0.166
-136.414	-89.886	0.141	-0.041
-135.399	-200.000	0.014	0.072
-134.385	800.000	0.044	-0.174
-133.370	116.287	0.101	0.123
-132.356	800.000	0.043	-0.169
-131.341	18.271	-0.114	-0.090
-130.326	106.474	-0.183	0.215
-129.312	-200.000	0.065	-0.318
-128.297	-99.350	-0.334	0.084
-127.283	-200.000	-0.002	0.279
-126.268	-200.000	-0.008	0.124
-125.253	-109.243	0.146	-0.031
-124.239	49.972	0.111	0.104
-123.224	-52.633	-0.256	0.117
-122.210	-143.141	0.143	-0.014
-121.195	128.054	-0.108	0.137
