DTS Sentinel unit serial number:	SN413079Multiplexer serial number:	ORYXHardware model number:	OX4-SRSoftware version number:	ORYX F/W v4.00 Oryx Data Collector v3.7.2.0data status	okinstallation	princeton_trtdifferential loss correction	single-endedforward channel	channel 4reverse channel	N/Adate	2019/09/19time	04:05:35forward acquisition time	60.00reverse acquisition time	0.00gamma	496.2192k internal	0.2340k external	0.2340temperature offset calibration	1.0030default loss term (dB/km)	0.3790temperature slope calibration	1.0000multiplexer offset coefficient	1.0000multiplexer slope coefficient	1.0000fibre end	0.00T internal ref (°C)	20.37T ext. ref 1 (°C)	0.63T ext. ref 2 (°C)	13.98length (m)	temperature (°C)	Stokes	anti-Stokes-747.200	20.533	-0.062	-0.050
-746.185	-200.000	-0.020	0.176
-745.171	49.630	-0.133	0.125
-744.156	87.055	-0.251	0.278
-743.142	82.459	0.173	0.188
-742.127	-134.236	-0.313	0.039
-741.112	-200.000	-0.011	0.209
-740.098	3.161	-0.213	0.155
-739.083	800.000	0.078	0.222
-738.069	-41.170	0.182	0.094
-737.054	17.279	0.091	-0.072
-736.039	-200.000	-0.281	-0.001
-735.025	35.764	0.042	0.037
-734.010	-52.519	-0.166	-0.077
-732.996	-72.588	-0.211	0.078
-731.981	800.000	0.013	-0.046
-730.966	1.165	0.121	0.087
-729.952	800.000	-0.120	-0.348
-728.937	428.235	-0.096	-0.208
-727.923	40.089	0.301	-0.271
-726.908	-200.000	-0.055	0.279
-725.894	-90.830	-0.435	-0.126
-724.879	12.364	0.024	-0.019
-723.864	-157.154	0.265	-0.016
-722.850	-200.000	0.048	0.314
-721.835	111.271	-0.084	0.102
-720.821	-200.000	-0.049	-0.237
-719.806	-117.369	0.091	-0.016
-718.791	-65.183	0.366	0.148
-717.777	124.724	-0.235	-0.296
-716.762	800.000	-0.061	-0.171
-715.748	-155.252	-0.034	0.002
-714.733	-85.768	-0.096	-0.030
-713.718	59.663	0.181	0.179
-712.704	-179.236	-0.287	0.006
-711.689	590.264	-0.053	0.132
-710.675	800.000	-0.047	0.156
-709.660	-200.000	0.009	-0.130
-708.645	-138.193	-0.191	0.021
-707.631	-172.953	0.110	0.003
-706.616	-144.694	0.171	0.016
-705.602	-38.571	-0.173	-0.092
-704.587	800.000	-0.045	-0.126
-703.572	800.000	0.038	-0.147
-702.558	-112.545	-0.433	-0.086
-701.543	7.321	-0.114	0.085
-700.529	41.753	0.265	-0.241
-699.514	800.000	0.039	0.152
-698.499	110.538	-0.157	0.189
-697.485	55.416	0.135	-0.130
-696.470	8.780	-0.357	-0.269
-695.456	-149.786	0.240	0.019
-694.441	8.004	-0.206	0.154
-693.426	-200.000	-0.015	0.168
-692.412	34.717	-0.083	-0.072
-691.397	38.145	0.027	0.024
-690.383	150.997	0.074	0.100
-689.368	64.205	-0.160	0.161
-688.354	-200.000	0.014	0.143
-687.339	688.680	0.148	0.387
-686.324	-36.970	-0.428	-0.229
-685.310	14.470	0.106	0.083
-684.295	81.767	-0.149	0.161
-683.281	-145.630	0.409	0.037
-682.266	-103.972	0.057	0.013
-681.251	144.000	0.054	-0.072
-680.237	68.175	0.055	0.057
-679.222	-56.980	0.147	0.065
-678.208	-138.645	-0.273	-0.030
-677.193	-39.543	0.192	-0.100
-676.178	-84.941	0.181	0.057
-675.164	-85.243	-0.164	0.051
-674.149	-200.000	-0.020	-0.328
-673.135	57.004	-0.113	0.110
-672.120	-200.000	0.064	-0.382
-671.105	171.128	0.089	-0.128
-670.091	-27.173	-0.147	-0.086
-669.076	319.341	-0.207	-0.393
-668.062	-136.964	-0.256	0.029
-667.047	-200.000	0.027	0.289
-666.032	800.000	-0.016	-0.059
-665.018	69.012	0.078	0.080
-664.003	-166.836	0.129	-0.005
-662.989	124.418	0.140	0.176
-661.974	-161.887	0.410	0.021
-660.959	276.579	-0.163	-0.289
-659.945	172.668	-0.131	0.189
-658.930	-89.451	0.231	0.068
-657.916	750.194	-0.047	0.127
-656.901	-52.379	0.211	0.098
-655.886	9.319	-0.062	0.047
-654.872	-112.981	-0.347	-0.069
-653.857	-4.409	-0.173	0.119
-652.843	83.140	0.160	0.174
-651.828	64.978	0.113	-0.114
-650.814	32.682	-0.115	0.099
-649.799	800.000	-0.027	0.084
-648.784	800.000	0.053	0.173
-647.770	46.596	-0.193	0.179
-646.755	557.457	0.170	-0.410
-645.741	-27.451	-0.338	-0.196
-644.726	-60.259	0.492	0.209
-643.711	800.000	0.019	-0.063
-642.697	440.401	0.048	-0.106
-641.682	-40.385	-0.144	-0.075
-640.668	634.535	-0.136	0.344
-639.653	24.858	-0.083	-0.068
-638.638	-44.687	0.182	-0.091
-637.624	-3.473	0.180	-0.125
-636.609	800.000	-0.026	-0.088
-635.595	-108.500	0.173	-0.037
-634.580	-200.000	-0.026	0.292
-633.565	800.000	0.059	0.206
-632.551	-200.000	-0.063	0.313
-631.536	-126.330	-0.228	-0.034
-630.522	-145.917	0.176	0.016
-629.507	651.457	-0.120	-0.306
-628.492	259.156	-0.217	0.374
-627.478	-200.000	-0.009	0.149
-626.463	-200.000	0.002	-0.091
-625.449	-200.000	0.019	-0.268
-624.434	70.040	0.165	0.170
-623.419	-200.000	0.026	-0.169
-622.405	-98.034	-0.118	0.030
-621.390	-36.439	0.081	-0.043
-620.376	-49.556	-0.219	0.104
-619.361	300.707	-0.098	0.180
-618.346	-33.690	0.440	0.242
-617.332	-58.090	-0.351	0.153
-616.317	72.707	-0.244	-0.254
-615.303	800.000	-0.108	-0.399
-614.288	-200.000	-0.042	-0.278
-613.273	-200.000	0.037	0.163
-612.259	-22.689	-0.249	0.150
-611.244	58.536	0.099	0.097
-610.230	800.000	0.049	0.140
-609.215	516.526	-0.049	0.114
-608.201	675.293	0.088	0.228
-607.186	800.000	-0.025	0.090
-606.171	646.801	0.063	-0.161
-605.157	-200.000	0.070	0.477
-604.142	9.537	-0.250	-0.189
-603.128	-74.472	-0.214	0.077
-602.113	130.561	0.160	-0.204
-601.098	-200.000	-0.017	0.147
-600.084	162.988	0.076	-0.106
-599.069	-125.610	-0.274	-0.041
-598.055	255.226	-0.054	0.092
-597.040	-1.376	-0.107	-0.075
-596.025	800.000	-0.142	-0.457
-595.011	-200.000	0.047	0.266
-593.996	-94.624	0.159	0.043
-592.982	419.774	0.161	0.344
-591.967	26.196	-0.144	0.119
-590.952	-106.693	0.268	0.059
-589.938	-200.000	-0.047	-0.208
-588.923	-63.960	-0.488	-0.199
-587.909	-200.000	-0.003	0.187
-586.894	-14.927	0.287	-0.183
-585.879	-91.466	-0.217	-0.062
-584.865	-200.000	0.010	-0.045
-583.850	-100.801	0.218	0.054
-582.836	-108.903	-0.062	-0.013
-581.821	-200.000	0.000	0.025
-580.806	11.598	0.087	-0.067
-579.792	-73.616	-0.289	0.105
-578.777	-200.000	-0.014	0.170
-577.763	179.308	0.243	0.355
-576.748	95.455	0.013	-0.015
-575.733	161.327	0.039	-0.054
-574.719	-66.402	0.236	0.093
-573.704	-194.770	-0.058	-0.000
-572.690	87.167	-0.347	-0.382
-571.675	52.012	0.189	-0.180
-570.661	-101.354	-0.449	-0.109
-569.646	-26.299	0.073	0.043
-568.631	445.981	0.089	0.194
-567.617	-200.000	-0.002	-0.414
-566.602	88.030	-0.195	0.215
-565.588	23.527	0.196	0.160
-564.573	-127.028	-0.169	-0.025
-563.558	132.224	-0.167	0.214
-562.544	-200.000	-0.043	-0.557
-561.529	188.222	0.097	-0.145
-560.515	-200.000	-0.038	-0.444
-559.500	-137.978	0.199	-0.022
-558.485	-200.000	-0.038	0.217
-557.471	800.000	0.046	0.172
-556.456	-123.132	0.156	-0.025
-555.442	-165.104	0.155	-0.007
-554.427	-121.911	-0.246	-0.040
-553.412	-177.554	-0.226	0.005
-552.398	94.358	-0.226	0.255
-551.383	226.475	-0.119	-0.193
-550.369	506.126	-0.055	0.127
-549.354	-10.024	-0.045	0.030
-548.339	27.731	-0.295	0.247
-547.325	-200.000	-0.053	0.287
-546.310	-189.918	0.093	0.001
-545.296	800.000	0.042	-0.130
-544.281	800.000	0.142	0.431
-543.266	800.000	-0.166	-0.549
-542.252	66.658	-0.025	-0.025
-541.237	114.012	0.168	-0.203
-540.223	77.641	0.103	0.109
-539.208	-116.246	-0.309	0.057
-538.193	2.704	0.150	-0.108
-537.179	-63.862	-0.162	0.066
-536.164	800.000	-0.113	-0.474
-535.150	-132.661	-0.178	0.023
-534.135	205.079	0.204	-0.315
-533.121	-200.000	-0.015	-0.112
-532.106	18.870	0.237	-0.189
-531.091	28.756	-0.102	0.086
-530.077	800.000	-0.099	-0.359
-529.062	-200.000	-0.033	0.231
-528.048	368.019	0.226	0.455
-527.033	129.553	-0.126	-0.160
-526.018	12.791	0.199	0.153
-525.004	498.815	-0.067	-0.154
-523.989	-117.099	-0.134	-0.024
-522.975	-47.154	0.220	-0.107
-521.960	-126.335	-0.267	0.040
-520.945	262.083	-0.065	0.111
-519.931	186.241	0.151	-0.223
-518.916	-65.445	0.249	-0.099
-517.902	28.812	-0.144	0.121
-516.887	-200.000	-0.021	0.205
-515.872	343.476	0.057	-0.111
-514.858	-155.866	-0.150	0.009
-513.843	171.407	-0.085	-0.121
-512.829	800.000	0.087	0.251
-511.814	4.723	0.271	-0.198
-510.799	141.876	-0.088	-0.116
-509.785	-63.685	-0.168	0.068
-508.770	-19.608	-0.195	-0.120
-507.756	800.000	0.052	-0.207
-506.741	800.000	-0.096	0.358
-505.726	-19.282	0.060	-0.037
-504.712	-168.075	0.195	0.008
-503.697	-200.000	0.069	0.477
-502.683	-135.762	0.105	-0.012
-501.668	12.745	-0.250	0.192
-500.653	-84.337	-0.184	-0.058
-499.639	-200.000	0.013	0.067
-498.624	800.000	0.111	-0.408
-497.610	-58.881	-0.475	-0.204
-496.595	297.997	-0.197	-0.360
-495.581	-118.792	-0.344	-0.060
-494.566	-105.309	0.227	0.051
-493.551	130.832	0.182	0.232
-492.537	-31.235	-0.198	-0.111
-491.522	274.558	0.169	0.297
-490.508	-200.000	-0.025	0.125
-489.493	-105.716	-0.139	0.031
-488.478	15.679	0.235	0.184
-487.464	-69.217	-0.233	-0.089
-486.449	800.000	-0.150	0.511
-485.435	-163.265	0.063	0.003
-484.420	190.068	0.261	-0.389
-483.405	-74.326	0.100	-0.036
-482.391	223.691	-0.248	-0.398
-481.376	0.670	0.379	0.269
-480.362	-154.264	0.485	0.032
-479.347	-180.302	-0.143	0.003
-478.332	-77.157	-0.158	0.055
-477.318	58.243	0.109	-0.106
-476.303	-89.298	-0.160	0.047
-475.289	232.808	0.104	-0.170
-474.274	-68.983	-0.471	-0.180
-473.259	-56.582	0.144	-0.063
-472.245	5.101	0.153	0.112
-471.230	-7.859	0.135	0.091
-470.216	36.765	0.255	-0.224
-469.201	800.000	-0.090	-0.274
-468.186	-172.788	-0.177	-0.005
-467.172	277.718	-0.109	-0.192
-466.157	-126.766	0.102	-0.015
-465.143	688.128	-0.084	-0.219
-464.128	-169.017	0.260	-0.010
-463.113	763.274	-0.131	0.352
-462.099	-93.486	0.228	-0.063
-461.084	-91.598	0.323	0.091
-460.070	-66.356	-0.232	-0.091
-459.055	459.193	-0.050	-0.111
-458.040	-73.681	0.165	-0.060
-457.026	-5.973	-0.092	0.063
-456.011	-200.000	-0.042	0.311
-454.997	-24.182	0.382	0.226
-453.982	243.661	0.106	-0.176
-452.968	800.000	0.103	-0.327
-451.953	-38.127	-0.231	-0.122
-450.938	-22.611	-0.096	0.058
-449.924	-110.067	-0.233	0.048
-448.909	-73.590	-0.287	0.104
-447.895	-200.000	-0.005	0.074
-446.880	-78.363	-0.228	0.077
-445.865	-60.543	0.186	0.078
-444.851	146.238	-0.138	0.183
-443.836	-45.413	0.399	-0.196
-442.822	44.701	0.124	-0.113
-441.807	102.510	-0.057	-0.066
-440.792	800.000	-0.124	0.353
-439.778	-142.012	0.161	-0.016
-438.763	-156.102	-0.273	0.017
-437.749	-200.000	0.012	0.480
-436.734	-134.433	0.569	0.069
-435.719	22.810	-0.105	0.085
-434.705	-150.013	0.089	0.007
-433.690	-112.952	0.092	-0.018
-432.676	139.520	-0.090	0.117
-431.661	237.067	-0.147	-0.242
-430.646	27.802	0.278	-0.232
-429.632	73.135	0.073	-0.075
-428.617	20.610	0.357	0.286
-427.603	-137.533	0.093	-0.010
-426.588	173.432	-0.115	0.165
-425.573	-200.000	0.009	0.078
-424.559	187.610	0.191	0.283
-423.544	377.606	-0.194	0.393
-422.530	-200.000	0.084	0.453
-421.515	-87.368	-0.170	0.051
-420.500	-200.000	0.009	-0.239
-419.486	-104.629	0.308	0.070
-418.471	-151.338	-0.036	-0.003
-417.457	-45.313	0.390	0.192
-416.442	-69.282	0.242	0.092
-415.428	-107.372	0.292	0.063
-414.413	87.261	0.215	-0.235
-413.398	-46.821	0.077	-0.038
-412.384	-63.677	0.133	0.054
-411.369	-200.000	-0.007	-0.229
-410.355	0.849	-0.256	-0.182
-409.340	313.302	0.079	0.147
-408.325	106.772	-0.071	-0.083
-407.311	676.242	-0.057	0.146
-406.296	-14.375	0.288	0.184
-405.282	77.230	0.195	-0.206
-404.267	8.296	-0.272	0.202
-403.252	514.316	0.064	-0.148
-402.238	800.000	0.037	0.149
-401.223	-119.073	-0.386	0.067
-400.209	-121.085	0.235	0.039
-399.194	-200.000	-0.012	0.169
-398.179	94.371	-0.143	0.161
-397.165	228.730	0.031	-0.050
-396.150	48.941	-0.282	0.261
-395.136	800.000	0.054	0.186
-394.121	414.169	0.065	0.136
-393.106	-153.489	-0.262	-0.018
-392.092	-97.963	0.184	0.047
-391.077	7.621	0.245	0.181
-390.063	-78.605	0.205	-0.069
-389.048	606.354	0.169	-0.417
-388.033	11.393	0.119	0.090
-387.019	229.648	0.158	0.256
-386.004	-111.044	0.251	-0.051
-384.990	-49.680	0.246	0.116
-383.975	-200.000	0.001	-0.061
-382.960	-200.000	0.002	0.056
-381.946	22.195	0.203	0.164
-380.931	800.000	0.100	-0.283
-379.917	-156.288	0.304	0.019
-378.902	150.880	-0.077	0.104
-377.888	18.178	-0.233	-0.183
-376.873	490.351	0.133	0.300
-375.858	-11.536	-0.215	0.140
-374.844	-8.053	0.016	-0.011
-373.829	-43.637	0.443	0.221
-372.815	-72.298	-0.439	-0.161
-371.800	-200.000	0.013	0.287
-370.785	67.845	-0.240	-0.243
-369.771	-9.580	-0.272	-0.179
-368.756	-200.000	0.040	-0.212
-367.742	26.069	0.300	-0.247
-366.727	-112.692	-0.341	0.067
-365.712	800.000	-0.021	-0.083
-364.698	45.033	0.256	-0.233
-363.683	800.000	-0.061	0.220
-362.669	253.333	-0.113	-0.191
-361.654	25.959	-0.214	-0.176
-360.639	-50.601	-0.220	0.102
-359.625	-17.606	-0.184	-0.114
-358.610	0.758	-0.082	0.058
-357.596	-61.137	0.110	-0.046
-356.581	116.453	0.328	0.397
-355.566	-49.117	-0.198	-0.094
-354.552	-2.654	-0.381	0.263
-353.537	200.615	0.094	0.143
-352.523	-156.267	0.134	0.008
-351.508	211.982	-0.087	0.136
-350.493	-41.293	-0.222	0.113
-349.479	800.000	-0.080	0.276
-348.464	-40.541	-0.177	0.091
-347.450	99.311	0.166	0.189
-346.435	510.849	0.126	0.289
-345.420	-46.612	-0.147	-0.071
-344.406	800.000	-0.069	0.194
-343.391	-106.106	0.158	0.035
-342.377	800.000	-0.020	0.083
-341.362	-28.436	-0.136	0.078
-340.348	-103.418	0.269	0.063
-339.333	-159.810	-0.396	-0.021
-338.318	228.877	-0.096	0.155
-337.304	140.981	0.118	-0.154
-336.289	249.990	0.162	-0.271
-335.275	-142.153	-0.295	0.029
-334.260	-30.244	0.363	-0.203
-333.245	115.521	-0.155	-0.187
-332.231	-200.000	-0.011	-0.105
-331.216	-200.000	0.261	-0.001
-330.202	-49.524	-0.105	0.049
-329.187	-103.507	-0.196	0.046
-328.172	-119.070	-0.189	0.033
-327.158	-60.349	0.151	-0.063
-326.143	-178.535	-0.039	0.001
-325.129	-29.213	-0.103	0.058
-324.114	93.135	-0.154	-0.172
-323.099	159.678	-0.127	-0.174
-322.085	163.882	-0.202	-0.280
-321.070	-85.687	0.156	0.048
-320.056	78.963	0.257	-0.271
-319.041	83.566	-0.051	-0.055
-318.026	-60.603	0.114	-0.048
-317.012	307.055	-0.223	0.410
-315.997	-200.000	0.052	0.411
-314.983	-117.003	0.470	0.085
-313.968	-200.000	-0.114	-0.000
-312.953	800.000	0.021	0.078
-311.939	-55.888	-0.090	0.039
-310.924	1.519	-0.195	-0.138
-309.910	354.269	-0.081	0.159
-308.895	257.552	-0.166	-0.282
-307.880	140.700	-0.141	-0.184
-306.866	-50.415	-0.171	0.079
-305.851	541.581	-0.050	-0.118
-304.837	477.713	-0.060	-0.134
-303.822	-82.059	-0.216	0.069
-302.807	419.174	0.162	0.342
-301.793	-200.000	0.004	-0.302
-300.778	40.157	0.042	-0.037
-299.764	46.055	0.199	0.181
-298.749	800.000	0.029	0.114
-297.735	-200.000	-0.024	0.264
-296.720	213.789	0.152	-0.237
-295.705	220.247	-0.072	0.114
-294.691	-153.772	-0.141	0.009
-293.676	-200.000	0.019	0.117
-292.662	771.594	0.015	0.041
-291.647	-200.000	-0.007	-0.154
-290.632	-72.667	-0.289	-0.105
-289.618	41.807	-0.149	-0.133
-288.603	800.000	0.059	-0.227
-287.589	82.049	0.034	-0.036
-286.574	566.652	0.155	-0.371
-285.559	-200.000	0.048	-0.339
-284.545	176.674	0.043	0.061
-283.530	-170.116	-0.187	-0.007
-282.516	9.645	0.095	-0.071
-281.501	-200.000	-0.065	0.411
-280.486	-76.130	0.186	-0.065
-279.472	-96.348	0.386	-0.101
-278.457	-62.657	-0.314	0.128
-277.443	800.000	-0.060	-0.216
-276.428	-72.608	0.260	-0.095
-275.413	-200.000	-0.023	0.109
-274.399	800.000	0.047	-0.156
-273.384	-39.557	-0.170	0.088
-272.370	-130.169	0.147	0.020
-271.355	66.646	0.039	0.039
-270.340	55.944	-0.154	-0.147
-269.326	800.000	-0.049	-0.208
-268.311	-41.277	0.240	-0.122
-267.297	-140.335	0.383	0.039
-266.282	48.909	-0.142	-0.131
-265.267	-200.000	0.001	-0.024
-264.253	159.708	0.151	-0.207
-263.238	-31.139	0.256	-0.142
-262.224	-61.572	-0.239	0.099
-261.209	157.347	0.031	-0.042
-260.195	-37.905	0.238	-0.125
-259.180	-66.254	-0.292	0.114
-258.165	-17.254	-0.084	0.052
-257.151	129.063	-0.093	0.117
-256.136	49.717	-0.221	-0.205
-255.122	204.708	0.069	-0.106
-254.107	800.000	-0.110	-0.408
-253.092	800.000	0.018	-0.055
-252.078	447.418	-0.069	0.149
-251.063	382.649	-0.177	0.357
-250.049	-121.027	0.181	-0.030
-249.034	-106.906	-0.212	0.046
-248.019	-5.597	-0.286	0.193
-247.005	-200.000	-0.022	0.141
-245.990	-118.291	0.149	-0.026
-244.976	341.395	-0.086	0.166
-243.961	33.862	0.137	-0.117
-242.946	17.846	0.088	0.069
-241.932	337.919	-0.111	-0.213
-240.917	247.702	0.095	-0.157
-239.903	-100.751	-0.390	-0.095
-238.888	-200.000	0.020	-0.297
-237.873	255.593	-0.096	0.162
-236.859	47.087	0.050	0.046
-235.844	-200.000	-0.054	-0.245
-234.830	67.630	0.271	0.272
-233.815	-53.148	0.131	0.059
-232.800	-1.209	-0.077	-0.054
-231.786	-103.586	-0.345	-0.080
-230.771	136.807	0.085	0.109
-229.757	-200.000	-0.002	0.278
-228.742	-200.000	0.079	0.530
-227.727	-131.633	0.162	0.021
-226.713	-200.000	0.005	0.183
-225.698	279.447	-0.136	0.238
-224.684	381.673	0.115	-0.233
-223.669	800.000	0.121	-0.391
-222.655	-40.220	0.152	0.078
-221.640	400.049	0.042	0.086
-220.625	129.536	0.199	-0.250
-219.611	-159.585	-0.188	0.010
-218.596	800.000	-0.077	-0.211
-217.582	89.169	-0.090	0.099
-216.567	198.273	-0.140	0.211
-215.552	440.323	0.091	-0.195
-214.538	-75.255	-0.294	-0.103
-213.523	-52.819	0.063	-0.028
-212.509	800.000	-0.032	0.114
-211.494	262.584	-0.108	-0.183
-210.479	-136.146	-0.106	-0.012
-209.465	56.713	0.128	-0.122
-208.450	14.064	0.069	0.053
-207.436	481.666	0.089	0.197
-206.421	-200.000	-0.046	-0.310
-205.406	213.224	0.113	-0.176
-204.392	427.538	-0.050	0.107
-203.377	-172.090	0.168	-0.005
-202.363	-124.084	0.215	-0.033
-201.348	-200.000	-0.036	0.165
-200.333	-115.903	-0.354	-0.065
-199.319	-109.324	0.145	0.030
-198.304	-81.347	0.104	-0.034
-197.290	-83.925	0.036	-0.011
-196.275	26.292	-0.217	-0.178
-195.260	800.000	0.049	-0.185
-194.246	800.000	0.011	0.045
-193.231	800.000	0.104	0.440
-192.217	-200.000	0.045	0.194
-191.202	-200.000	0.064	0.295
-190.187	-200.000	0.042	-0.233
-189.173	10.089	0.315	-0.235
-188.158	272.013	0.047	0.082
-187.144	-78.549	-0.253	-0.085
-186.129	103.897	-0.145	0.167
-185.114	-200.000	0.006	-0.132
-184.100	34.588	0.361	-0.310
-183.085	723.959	0.115	0.301
-182.071	302.040	-0.047	0.085
-181.056	-118.296	-0.280	0.049
-180.042	-52.153	-0.155	-0.071
-179.027	128.658	0.219	0.274
-178.012	-97.351	-0.241	0.062
-176.998	526.949	0.163	-0.378
-175.983	800.000	-0.120	-0.337
-174.969	320.310	-0.209	-0.390
-173.954	-120.895	-0.141	-0.023
-172.939	54.658	-0.078	0.074
-171.925	-43.304	-0.008	0.004
-170.910	58.503	0.334	-0.321
-169.896	-200.000	0.007	-0.193
-168.881	-123.374	-0.186	0.029
-167.866	-78.242	0.076	0.025
-166.852	-4.299	0.115	0.078
-165.837	-200.000	0.027	0.201
-164.823	-200.000	-0.067	-0.310
-163.808	714.738	0.077	-0.201
-162.793	21.491	0.302	0.240
-161.779	-45.489	0.163	0.079
-160.764	101.078	0.116	0.133
-159.750	-145.910	-0.399	-0.035
-158.735	519.576	0.092	0.211
-157.720	800.000	0.093	-0.329
-156.706	348.490	0.209	-0.405
-155.691	104.428	-0.065	0.075
-154.677	-56.856	0.230	0.099
-153.662	131.356	0.142	-0.178
-152.647	307.006	0.109	-0.198
-151.633	-110.614	0.072	-0.015
-150.618	-35.204	0.137	-0.073
-149.604	172.568	-0.164	-0.232
-148.589	800.000	-0.024	0.093
-147.574	5.901	-0.086	0.063
-146.560	-169.265	-0.062	0.002
-145.545	372.439	0.062	0.124
-144.531	198.784	-0.083	0.124
-143.516	189.735	0.076	-0.112
-142.502	-164.847	0.253	0.011
-141.487	42.524	0.273	-0.243
-140.472	563.024	0.068	-0.162
-139.458	-48.335	-0.318	0.150
-138.443	-78.098	-0.133	-0.045
-137.429	-200.000	0.001	0.171
-136.414	57.214	-0.155	0.148
-135.399	-200.000	0.081	-0.524
-134.385	-34.966	-0.213	0.114
-133.370	598.320	-0.038	0.091
-132.356	-200.000	-0.005	0.136
-131.341	700.257	0.099	0.255
-130.326	-200.000	0.017	-0.253
-129.312	-151.838	-0.198	-0.014
-128.297	37.654	0.103	-0.090
-127.283	29.477	-0.112	-0.094
-126.268	-200.000	-0.015	-0.178
-125.253	-53.739	0.198	-0.089
-124.239	375.046	0.029	0.058
-123.224	120.569	0.230	0.280
-122.210	-63.979	-0.039	-0.016
-121.195	444.785	-0.072	0.155
-120.180	-77.174	-0.240	0.082
