DTS Sentinel unit serial number:	SN413079Multiplexer serial number:	ORYXHardware model number:	OX4-SRSoftware version number:	ORYX F/W v4.00 Oryx Data Collector v3.7.2.0data status	okinstallation	princeton_trtdifferential loss correction	single-endedforward channel	channel 4reverse channel	N/Adate	2019/09/13time	23:37:34forward acquisition time	60.00reverse acquisition time	0.00gamma	496.2192k internal	0.2323k external	0.2323temperature offset calibration	1.0133default loss term (dB/km)	0.3790temperature slope calibration	1.0000multiplexer offset coefficient	1.0000multiplexer slope coefficient	1.0000fibre end	0.00T internal ref (°C)	26.75T ext. ref 1 (°C)	3.18T ext. ref 2 (°C)	21.03length (m)	temperature (°C)	Stokes	anti-Stokes-747.200	-80.770	0.123	-0.041
-746.185	78.919	0.047	-0.051
-745.171	-89.317	-0.237	-0.070
-744.156	-200.000	-0.048	0.451
-743.142	-79.554	0.107	-0.036
-742.127	-28.635	-0.201	0.117
-741.112	21.031	0.113	-0.093
-740.098	-19.741	0.071	0.044
-739.083	-77.692	0.261	-0.091
-738.069	-19.620	-0.379	0.237
-737.054	226.959	-0.122	0.200
-736.039	-97.045	-0.084	-0.022
-735.025	-66.836	0.280	0.112
-734.010	-200.000	-0.075	0.345
-732.996	800.000	-0.145	-0.589
-731.981	-112.778	-0.112	0.022
-730.966	-12.919	-0.126	0.083
-729.952	31.584	0.207	-0.179
-728.937	-200.000	-0.028	-0.138
-727.923	71.608	0.043	0.045
-726.908	-113.092	-0.208	0.041
-725.894	-200.000	0.024	-0.113
-724.879	-69.693	0.106	0.041
-723.864	87.175	0.144	-0.160
-722.850	-113.118	-0.199	-0.040
-721.835	39.053	-0.307	-0.277
-720.821	-33.772	-0.308	-0.171
-719.806	211.512	-0.072	-0.114
-718.791	-147.782	-0.200	0.017
-717.777	800.000	0.099	-0.338
-716.762	99.044	-0.143	0.167
-715.748	-56.335	-0.176	-0.079
-714.733	-85.392	-0.195	-0.061
-713.718	-200.000	-0.019	0.358
-712.704	101.691	0.084	0.099
-711.689	125.549	-0.102	-0.130
-710.675	-36.830	-0.206	-0.111
-709.660	-100.486	-0.294	-0.073
-708.645	9.356	-0.145	-0.111
-707.631	15.990	0.114	-0.090
-706.616	-200.000	0.010	-0.061
-705.602	-200.000	0.008	0.086
-704.587	649.672	0.110	-0.283
-703.572	-200.000	-0.078	0.355
-702.558	47.441	-0.237	0.223
-701.543	-200.000	-0.049	0.229
-700.529	800.000	0.009	-0.028
-699.514	-66.569	-0.095	-0.038
-698.499	800.000	0.036	0.113
-697.485	-96.567	-0.508	-0.135
-696.470	81.478	-0.236	-0.257
-695.456	-68.329	-0.343	0.134
-694.441	-125.591	-0.120	-0.018
-693.426	-8.975	-0.238	-0.161
-692.412	-3.089	-0.182	-0.128
-691.397	80.081	0.198	0.215
-690.383	152.372	-0.253	-0.348
-689.368	-200.000	0.006	-0.096
-688.354	-72.064	-0.231	0.087
-687.339	-200.000	-0.017	-0.278
-686.324	25.066	-0.091	0.076
-685.310	800.000	0.074	-0.208
-684.295	186.810	0.051	0.076
-683.281	579.953	0.123	-0.304
-682.266	45.503	0.068	0.063
-681.251	-200.000	0.007	0.037
-680.237	-94.656	0.120	0.033
-679.222	-197.799	-0.208	0.001
-678.208	-41.342	-0.278	0.144
-677.193	-76.712	-0.329	0.116
-676.178	534.283	-0.038	-0.091
-675.164	-139.965	0.556	-0.059
-674.149	582.261	-0.131	0.324
-673.135	-72.793	-0.249	0.092
-672.120	74.711	-0.177	-0.187
-671.105	104.721	0.057	-0.068
-670.091	-200.000	-0.011	-0.109
-669.076	-200.000	-0.004	0.046
-668.062	660.668	0.031	0.081
-667.047	-107.784	0.318	-0.070
-666.032	-128.314	-0.187	-0.027
-665.018	388.078	-0.161	-0.336
-664.003	-163.292	-0.275	-0.013
-662.989	-26.360	0.113	0.067
-661.974	340.847	0.028	0.055
-660.959	-144.910	0.122	-0.011
-659.945	-168.575	-0.496	-0.019
-658.930	271.319	-0.115	0.203
-657.916	800.000	0.032	0.139
-656.901	-200.000	0.034	-0.289
-655.886	348.876	0.030	-0.059
-654.872	800.000	-0.059	-0.200
-653.857	-106.495	-0.176	-0.039
-652.843	800.000	0.102	0.424
-651.828	73.622	-0.097	0.102
-650.814	-110.153	0.142	-0.030
-649.799	-200.000	-0.051	0.233
-648.784	275.482	0.146	-0.260
-647.770	633.522	0.064	0.164
-646.755	-188.036	0.497	-0.006
-645.741	-200.000	-0.034	-0.352
-644.726	84.283	0.027	0.029
-643.711	558.353	-0.176	-0.426
-642.697	-200.000	-0.004	-0.134
-641.682	800.000	-0.136	0.465
-640.668	-200.000	0.010	0.163
-639.653	-92.132	-0.210	-0.060
-638.638	-200.000	-0.044	0.334
-637.624	384.514	0.020	0.040
-636.609	313.792	0.004	-0.007
-635.595	800.000	0.013	0.057
-634.580	-200.000	-0.004	0.036
-633.565	202.899	0.034	0.053
-632.551	184.688	0.214	-0.318
-631.536	-116.662	0.047	-0.009
-630.522	-49.551	-0.145	-0.069
-629.507	-101.349	-0.178	-0.044
-628.492	-104.446	-0.302	-0.070
-627.478	-65.474	0.152	-0.061
-626.463	-200.000	0.048	-0.357
-625.449	49.120	-0.309	-0.292
-624.434	-200.000	0.055	-0.299
-623.419	41.641	-0.218	0.198
-622.405	800.000	-0.062	-0.229
-621.390	800.000	0.092	-0.270
-620.376	-125.213	-0.173	0.027
-619.361	-200.000	0.006	-0.073
-618.346	-28.796	0.134	0.077
-617.332	-132.633	-0.373	-0.048
-616.317	-78.509	-0.216	0.074
-615.303	-200.000	0.080	-0.474
-614.288	267.249	0.041	-0.072
-613.273	-200.000	0.011	-0.268
-612.259	800.000	-0.123	-0.451
-611.244	-5.345	0.329	0.227
-610.230	-200.000	-0.023	-0.168
-609.215	388.066	0.023	-0.048
-608.201	441.226	-0.042	0.092
-607.186	-200.000	-0.031	0.189
-606.171	-200.000	0.004	-0.237
-605.157	483.501	-0.083	-0.189
-604.142	-34.159	-0.203	-0.112
-603.128	-200.000	-0.069	-0.309
-602.113	497.975	-0.025	0.057
-601.098	-1.229	0.281	-0.199
-600.084	6.712	0.048	0.036
-599.069	-110.330	0.245	-0.051
-598.055	-149.098	-0.150	0.012
-597.040	-26.581	0.345	-0.203
-596.025	-200.000	0.008	-0.423
-595.011	-195.312	-0.244	-0.002
-593.996	538.511	0.065	0.155
-592.982	-200.000	0.206	0.001
-591.967	439.617	0.153	-0.335
-590.952	-74.913	0.269	0.097
-589.938	67.455	0.083	-0.085
-588.923	800.000	0.073	-0.260
-587.909	-200.000	0.016	-0.414
-586.894	86.792	-0.194	0.215
-585.879	-65.195	0.199	-0.081
-584.865	-200.000	0.003	-0.159
-583.850	-89.724	0.270	0.079
-582.836	-200.000	-0.003	-0.129
-581.821	8.406	0.039	-0.029
-580.806	-62.641	0.057	-0.024
-579.792	132.150	0.085	-0.109
-578.777	800.000	-0.056	0.165
-577.763	-43.028	-0.215	-0.109
-576.748	206.464	0.124	-0.194
-575.733	9.183	-0.068	-0.052
-574.719	128.029	0.161	-0.206
-573.704	800.000	0.097	-0.304
-572.690	-2.833	0.122	-0.086
-571.675	426.301	0.092	-0.198
-570.661	-83.280	-0.185	0.060
-569.646	-165.006	-0.084	-0.004
-568.631	800.000	0.038	0.152
-567.617	198.006	0.138	-0.211
-566.602	-200.000	-0.015	0.310
-565.588	91.865	0.031	0.035
-564.573	-88.377	0.106	0.032
-563.558	-115.148	-0.335	0.064
-562.544	241.488	-0.148	0.248
-561.529	-200.000	-0.019	0.375
-560.515	-135.643	0.436	0.052
-559.500	-113.257	-0.249	0.049
-558.485	138.323	-0.210	0.277
-557.471	-104.923	-0.403	0.093
-556.456	589.007	0.148	0.365
-555.442	567.085	-0.039	-0.094
-554.427	800.000	0.012	-0.036
-553.412	138.434	0.094	-0.124
-552.398	-101.361	-0.164	0.040
-551.383	40.972	0.136	-0.123
-550.369	-139.865	-0.064	0.007
-549.354	-139.240	0.300	0.032
-548.339	-200.000	0.029	-0.292
-547.325	800.000	-0.083	-0.287
-546.310	-23.403	-0.111	-0.067
-545.296	272.348	0.042	-0.074
-544.281	37.722	0.214	-0.190
-543.266	-90.197	-0.321	-0.093
-542.252	-200.000	-0.062	0.326
-541.237	207.852	-0.063	-0.099
-540.223	231.518	-0.210	-0.345
-539.208	63.781	-0.075	0.075
-538.193	-105.169	-0.171	0.039
-537.179	-49.352	-0.035	-0.017
-536.164	-63.073	-0.090	-0.037
-535.150	-176.120	0.120	-0.003
-534.135	-200.000	-0.082	0.386
-533.121	-200.000	-0.023	0.236
-532.106	-14.024	-0.061	-0.039
-531.091	-188.467	-0.350	0.004
-530.077	-89.601	0.263	-0.077
-529.062	8.113	-0.303	0.228
-528.048	4.754	0.175	-0.129
-527.033	-200.000	-0.031	-0.271
-526.018	800.000	-0.021	-0.083
-525.004	-200.000	0.013	-0.325
-523.989	-28.249	-0.093	0.054
-522.975	-67.701	-0.156	0.061
-521.960	250.751	-0.128	-0.217
-520.945	-54.753	-0.136	-0.061
-519.931	557.201	0.165	0.399
-518.916	-60.234	0.249	-0.106
-517.902	0.300	-0.192	0.137
-516.887	-108.559	0.179	0.038
-515.872	258.913	0.074	0.127
-514.858	-123.348	-0.262	-0.042
-513.843	144.486	-0.023	0.030
-512.829	-133.290	-0.018	-0.002
-511.814	19.552	0.071	-0.057
-510.799	28.853	-0.318	0.270
-509.785	28.589	-0.136	-0.115
-508.770	-77.699	-0.171	0.059
-507.756	-106.059	-0.170	-0.038
-506.741	-97.179	0.177	-0.046
-505.726	-81.555	-0.137	-0.045
-504.712	25.348	-0.039	-0.033
-503.697	-141.750	-0.263	-0.026
-502.683	-200.000	-0.042	0.388
-501.668	-19.310	0.048	0.030
-500.653	-88.464	0.025	-0.007
-499.639	33.000	-0.219	-0.190
-498.624	74.606	0.094	0.099
-497.610	-200.000	-0.030	0.232
-496.595	174.679	-0.311	0.450
-495.581	50.043	0.047	0.045
-494.566	-86.044	0.566	0.175
-493.551	36.042	0.032	0.028
-492.537	-21.974	0.191	0.116
-491.522	800.000	-0.147	0.502
-490.508	155.589	-0.037	-0.052
-489.493	-9.864	-0.064	-0.042
-488.478	-200.000	0.009	0.160
-487.464	-55.882	0.247	0.110
-486.449	-200.000	-0.055	0.292
-485.435	800.000	-0.049	-0.197
-484.420	154.084	0.022	-0.030
-483.405	-3.019	-0.351	-0.245
-482.391	49.275	0.348	-0.327
-481.376	355.516	-0.121	0.241
-480.362	-200.000	0.052	-0.228
-479.347	-94.192	0.334	-0.091
-478.332	-33.745	-0.290	-0.160
-477.318	140.927	0.018	0.023
-476.303	-78.250	0.348	-0.119
-475.289	35.435	-0.106	0.093
-474.274	-200.000	-0.044	-0.269
-473.259	-89.179	-0.163	-0.048
-472.245	-200.000	-0.032	-0.275
-471.230	-99.204	0.118	0.030
-470.216	66.333	-0.271	-0.275
-469.201	-92.358	0.292	-0.082
-468.186	-200.000	-0.022	-0.558
-467.172	-200.000	0.020	-0.183
-466.157	-143.176	-0.061	0.006
-465.143	59.293	-0.110	-0.108
-464.128	672.168	0.064	0.166
-463.113	-164.504	0.197	-0.009
-462.099	-76.988	-0.258	0.090
-461.084	142.742	0.190	0.253
-460.070	123.395	-0.322	0.403
-459.055	103.648	-0.311	0.365
-458.040	91.330	0.133	-0.149
-457.026	-69.092	0.390	0.150
-456.011	50.770	0.204	0.193
-454.997	-92.768	0.285	-0.080
-453.982	76.862	-0.122	-0.129
-452.968	800.000	0.052	0.158
-451.953	-200.000	0.070	0.370
-450.938	269.086	0.056	0.099
-449.924	509.670	-0.065	-0.151
-448.909	-40.747	0.142	0.073
-447.895	-103.947	-0.098	0.023
-446.880	-200.000	0.021	-0.147
-445.865	88.897	-0.105	-0.116
-444.851	157.237	-0.175	-0.242
-443.836	179.409	-0.091	-0.133
-442.822	-200.000	0.010	-0.156
-441.807	73.473	0.132	0.138
-440.792	-200.000	0.016	0.096
-439.778	72.786	0.420	0.437
-438.763	-200.000	-0.031	0.394
-437.749	79.438	0.245	-0.262
-436.734	-137.252	-0.250	-0.028
-435.719	-200.000	0.025	-0.314
-434.705	10.594	0.256	-0.195
-433.690	139.858	0.143	-0.188
-432.676	-66.659	0.257	0.102
-431.661	-60.939	0.071	-0.030
-430.646	-200.000	0.010	0.056
-429.632	97.237	-0.085	0.098
-428.617	188.862	0.163	0.243
-427.603	55.504	0.172	0.166
-426.588	487.118	0.140	-0.319
-425.573	511.333	-0.097	0.226
-424.559	-15.622	0.354	0.225
-423.544	-94.228	-0.279	-0.076
-422.530	169.748	-0.055	0.079
-421.515	55.994	-0.141	-0.136
-420.500	14.005	0.105	-0.081
-419.486	-47.188	-0.283	-0.137
-418.471	-65.558	0.111	-0.044
-417.457	150.233	0.048	0.065
-416.442	87.153	0.255	-0.282
-415.428	-128.225	-0.089	-0.013
-414.413	551.343	-0.073	-0.174
-413.398	800.000	-0.015	-0.057
-412.384	171.680	0.080	0.115
-411.369	-121.597	0.166	0.027
-410.355	-13.797	-0.212	0.136
-409.340	148.656	0.140	-0.188
-408.325	800.000	0.035	0.140
-407.311	-113.271	0.058	0.011
-406.296	-75.346	-0.150	0.053
-405.282	-200.000	0.012	0.071
-404.267	800.000	-0.059	0.170
-403.252	184.114	-0.068	-0.101
-402.238	21.521	0.095	-0.077
-401.223	-52.037	-0.247	0.115
-400.209	104.925	0.200	0.235
-399.194	17.735	-0.201	-0.159
-398.179	-106.859	0.260	0.057
-397.165	-175.272	-0.284	0.008
-396.150	-200.000	-0.006	-0.170
-395.136	7.998	-0.107	-0.080
-394.121	256.691	0.017	-0.029
-393.106	-118.966	-0.371	0.065
-392.092	-92.541	0.308	-0.086
-391.077	-89.352	0.107	0.032
-390.063	-73.216	0.166	-0.061
-389.048	239.172	-0.048	0.080
-388.033	43.844	-0.184	-0.167
-387.019	800.000	0.105	0.305
-386.004	-2.930	0.183	0.128
-384.990	-32.249	-0.214	0.119
-383.975	617.675	0.142	-0.355
-382.960	-79.549	-0.110	0.037
-381.946	800.000	-0.063	-0.196
-380.931	-8.231	0.159	0.106
-379.917	-31.737	-0.257	-0.143
-378.902	-200.000	-0.004	0.181
-377.888	-42.666	0.336	0.170
-376.873	-131.163	0.291	0.038
-375.858	-117.358	-0.073	0.013
-374.844	-28.156	-0.358	0.206
-373.829	473.032	0.059	0.132
-372.815	307.427	-0.035	0.065
-371.800	-55.150	-0.124	-0.056
-370.785	123.797	-0.061	0.076
-369.771	-30.698	0.097	-0.055
-368.756	81.833	-0.125	0.135
-367.742	-91.226	-0.126	0.036
-366.727	-142.740	0.340	0.033
-365.712	698.068	0.056	-0.146
-364.698	49.492	0.187	-0.175
-363.683	62.452	-0.212	-0.211
-362.669	-166.054	0.260	-0.011
-361.654	-95.099	-0.082	-0.022
-360.639	32.135	-0.403	0.346
-359.625	-11.172	-0.139	0.091
-358.610	137.247	0.216	-0.281
-357.596	-200.000	-0.003	-0.404
-356.581	20.409	0.136	-0.109
-355.566	-200.000	0.037	0.171
-354.552	-51.252	0.327	0.152
-353.537	62.285	0.085	-0.084
-352.523	351.246	-0.149	0.294
-351.508	-200.000	0.024	0.199
-350.493	-140.133	-0.113	-0.012
-349.479	-155.509	-0.124	0.008
-348.464	129.921	0.125	0.159
-347.450	-29.993	-0.212	-0.120
-346.435	800.000	-0.034	0.095
-345.420	142.598	-0.187	0.246
-344.406	-42.970	-0.209	-0.105
-343.391	-72.367	0.215	0.079
-342.377	226.307	-0.206	0.332
-341.362	-197.326	-0.110	0.001
-340.348	-129.885	0.153	0.021
-339.333	-110.288	-0.142	0.029
-338.318	-136.513	0.084	-0.010
-337.304	162.602	0.285	0.397
-336.289	778.793	0.054	-0.147
-335.275	-0.101	-0.256	-0.181
-334.260	-154.474	0.086	0.006
-333.245	-132.281	-0.439	0.056
-332.231	800.000	0.146	0.528
-331.216	41.802	-0.062	0.056
-330.202	53.187	-0.119	-0.113
-329.187	800.000	-0.056	0.205
-328.172	76.510	-0.151	-0.159
-327.158	15.294	-0.202	-0.157
-326.143	295.024	0.169	-0.307
-325.129	-107.254	-0.297	-0.065
-324.114	17.072	0.116	-0.091
-323.099	-33.193	0.370	-0.204
-322.085	-10.812	-0.087	0.057
-321.070	-26.629	0.148	-0.086
-320.056	800.000	-0.076	0.241
-319.041	-129.826	0.183	-0.025
-318.026	101.393	0.120	0.139
-317.012	51.718	0.185	-0.175
-315.997	-200.000	0.004	0.158
-314.983	298.841	-0.168	0.308
-313.968	-162.435	-0.390	-0.019
-312.953	84.625	0.182	-0.198
-311.939	-134.058	0.285	-0.035
-310.924	-104.634	-0.353	-0.081
-309.910	-200.000	0.016	0.235
-308.895	-84.029	-0.286	-0.090
-307.880	-40.943	-0.177	0.091
-306.866	-78.814	-0.286	-0.097
-305.851	-77.650	0.154	0.053
-304.837	14.637	0.263	0.204
-303.822	800.000	0.057	0.199
-302.807	-120.563	-0.194	0.033
-301.793	-200.000	-0.025	0.268
-300.778	-35.899	0.318	0.171
-299.764	164.301	0.108	-0.151
-298.749	29.628	-0.049	0.042
-297.735	142.849	-0.102	0.134
-296.720	121.751	-0.126	-0.156
-295.705	37.245	0.089	0.079
-294.691	-116.456	-0.236	-0.043
-293.676	800.000	-0.014	-0.056
-292.662	800.000	0.102	0.288
-291.647	234.224	0.161	0.264
-290.632	-62.211	-0.208	-0.086
-289.618	323.345	-0.043	-0.081
-288.603	-200.000	0.005	-0.089
-287.589	38.740	-0.214	0.190
-286.574	-59.300	-0.228	-0.097
-285.559	-200.000	0.012	-0.131
-284.545	800.000	-0.074	0.221
-283.530	-95.111	0.186	0.050
-282.516	-30.212	0.221	-0.124
-281.501	-200.000	-0.008	-0.238
-280.486	691.301	0.117	0.303
-279.472	137.301	-0.090	0.117
-278.457	-37.501	0.246	-0.130
-277.443	105.000	-0.161	0.188
-276.428	-200.000	0.031	0.232
-275.413	-65.075	-0.137	-0.055
-274.399	139.886	0.085	-0.112
-273.384	-18.519	-0.202	0.125
-272.370	-59.246	-0.007	0.003
-271.355	-79.381	-0.124	0.042
-270.340	127.686	-0.139	-0.176
-269.326	-200.000	0.003	0.136
-268.311	-5.990	0.092	-0.062
-267.297	-189.356	0.249	0.003
-266.282	121.705	-0.066	0.082
-265.267	-118.721	0.138	0.024
-264.253	54.224	-0.191	0.182
-263.238	-200.000	-0.004	0.091
-262.224	458.013	-0.046	0.101
-261.209	-179.506	0.270	0.006
-260.195	-165.280	-0.328	0.014
-259.180	25.383	0.267	-0.220
-258.165	-54.973	-0.083	-0.037
-257.151	-27.066	0.234	-0.135
-256.136	129.938	-0.109	-0.138
-255.122	-128.769	-0.048	0.007
-254.107	-147.735	-0.137	0.011
-253.092	2.454	0.187	-0.134
-252.078	-200.000	-0.042	0.324
-251.063	-47.224	-0.086	0.042
-250.049	-140.711	-0.212	0.022
-249.034	-110.101	-0.239	0.049
-248.019	63.929	0.110	-0.110
-247.005	796.400	0.107	0.291
-245.990	110.343	-0.118	0.141
-244.976	800.000	0.133	0.395
-243.961	800.000	0.054	0.222
-242.946	-200.000	-0.007	-0.043
-241.932	-116.370	0.448	-0.082
-240.917	-81.697	-0.163	-0.053
-239.903	1.480	0.186	-0.132
-238.888	95.026	-0.113	0.128
-237.873	-200.000	0.016	0.105
-236.859	-57.764	0.133	0.057
-235.844	-200.000	-0.042	-0.249
-234.830	4.524	0.113	-0.082
-233.815	-200.000	-0.034	-0.151
-232.800	587.450	-0.087	-0.212
-231.786	20.227	0.244	-0.195
-230.771	-33.057	-0.274	0.150
-229.757	-101.600	-0.303	0.073
-228.742	-200.000	0.080	-0.488
-227.727	-175.494	0.178	-0.005
-226.713	-200.000	0.028	-0.276
-225.698	-28.607	-0.209	-0.119
-224.684	45.321	-0.288	0.263
-223.669	714.687	-0.051	-0.135
-222.655	147.795	0.170	0.226
-221.640	-200.000	0.017	-0.206
-220.625	320.770	0.084	-0.157
-219.611	-63.369	0.149	-0.061
-218.596	11.839	-0.189	0.143
-217.582	344.681	-0.187	0.364
-216.567	-2.150	0.221	0.153
-215.552	646.202	-0.134	0.339
-214.538	-157.425	-0.141	0.008
-213.523	-74.463	-0.144	-0.051
-212.509	20.124	0.057	0.045
-211.494	-148.154	0.077	0.006
-210.479	477.257	0.059	-0.132
-209.465	98.368	-0.053	0.061
-208.450	800.000	0.103	0.371
-207.436	13.515	0.181	-0.139
-206.421	126.141	0.138	0.172
-205.406	5.206	-0.086	-0.063
-204.392	800.000	0.065	-0.209
-203.377	-37.111	-0.230	0.122
-202.363	49.783	0.220	-0.205
-201.348	-200.000	0.002	-0.126
-200.333	-200.000	-0.005	-0.275
-199.319	-120.923	0.108	-0.018
-198.304	-200.000	0.063	0.298
-197.290	52.062	-0.216	-0.204
-196.275	224.386	-0.129	-0.205
-195.260	-15.798	-0.105	-0.066
-194.246	328.739	-0.056	0.106
-193.231	-179.264	0.164	-0.004
-192.217	800.000	0.060	0.164
-191.202	79.523	-0.082	0.087
-190.187	-200.000	0.090	0.499
-189.173	24.615	0.200	-0.163
-188.158	32.577	0.112	0.096
-187.144	102.533	-0.196	0.226
-186.129	-38.646	0.073	-0.038
-185.114	800.000	0.040	0.128
-184.100	-121.567	-0.036	0.006
-183.085	-127.370	0.226	0.033
-182.071	-18.831	-0.071	-0.044
-181.056	-200.000	-0.007	-0.096
-180.042	-122.269	0.077	0.012
-179.027	-76.530	0.213	0.074
-178.012	-200.000	0.057	0.283
-176.998	-8.775	-0.146	0.096
-175.983	34.406	0.105	-0.091
-174.969	800.000	0.014	0.039
-173.954	800.000	0.053	-0.160
-172.939	-200.000	0.042	0.197
-171.925	-200.000	-0.012	-0.080
-170.910	-200.000	-0.027	-0.129
-169.896	223.131	0.080	0.128
-168.881	6.513	0.166	0.122
-167.866	-54.703	-0.193	-0.086
-166.852	-50.077	-0.098	-0.046
-165.837	-200.000	-0.033	0.612
-164.823	13.569	0.075	0.057
-163.808	121.078	0.028	-0.035
-162.793	-200.000	0.029	0.186
-161.779	528.142	-0.077	-0.179
-160.764	233.380	0.029	-0.047
-159.750	-33.682	0.142	-0.077
-158.735	185.508	-0.079	-0.116
-157.720	-89.750	0.246	-0.071
-156.706	-79.794	0.232	0.077
-155.691	95.518	0.216	-0.243
-154.677	800.000	0.031	-0.125
-153.662	465.964	-0.104	-0.230
-152.647	-145.944	0.137	0.012
-151.633	-87.599	0.073	0.022
-150.618	-129.403	0.202	-0.028
-149.604	-200.000	-0.046	0.213
-148.589	-91.031	0.100	-0.028
-147.574	289.642	0.159	-0.284
-146.560	252.215	0.116	0.195
-145.545	-200.000	-0.003	0.387
-144.531	800.000	-0.015	-0.061
-143.516	-129.128	0.322	-0.044
-142.502	-35.351	0.263	0.141
-141.487	75.630	-0.217	-0.226
-140.472	578.362	-0.039	-0.095
-139.458	800.000	0.058	-0.191
-138.443	89.406	-0.217	0.238
-137.429	-52.556	0.185	0.084
-136.414	124.674	-0.311	0.386
-135.399	70.758	0.121	0.124
-134.385	-49.088	-0.171	0.080
-133.370	-105.779	0.106	-0.024
-132.356	-99.852	-0.291	-0.072
-131.341	-200.000	-0.003	0.205
-130.326	-200.000	-0.001	0.097
-129.312	174.221	-0.034	-0.048
-128.297	38.909	0.159	-0.140
-127.283	800.000	0.085	0.289
-126.268	103.790	-0.013	0.016
-125.253	-142.472	0.261	0.025
-124.239	297.696	-0.056	0.101
-123.224	-200.000	0.032	0.225
-122.210	-123.806	0.285	-0.044
-121.195	800.000	0.014	0.062
