DTS Sentinel unit serial number:	SN413079Multiplexer serial number:	ORYXHardware model number:	OX4-SRSoftware version number:	ORYX F/W v4.00 Oryx Data Collector v3.7.2.0data status	okinstallation	princeton_trtdifferential loss correction	single-endedforward channel	channel 4reverse channel	N/Adate	2019/09/12time	15:39:11forward acquisition time	60.00reverse acquisition time	0.00gamma	496.2192k internal	0.2292k external	0.2292temperature offset calibration	1.0098default loss term (dB/km)	0.3790temperature slope calibration	1.0000multiplexer offset coefficient	1.0000multiplexer slope coefficient	1.0000fibre end	0.00T internal ref (°C)	40.20T ext. ref 1 (°C)	2.43T ext. ref 2 (°C)	32.96length (m)	temperature (°C)	Stokes	anti-Stokes-747.200	800.000	-0.085	-0.263
-746.185	77.658	-0.026	0.028
-745.171	-40.217	0.288	-0.153
-744.156	-109.464	-0.284	0.062
-743.142	-30.656	0.106	0.061
-742.127	130.227	-0.263	0.345
-741.112	-93.009	0.231	-0.066
-740.098	-200.000	0.016	0.476
-739.083	22.327	0.139	0.116
-738.069	-200.000	0.001	0.068
-737.054	-36.629	0.320	-0.176
-736.039	248.777	-0.146	0.253
-735.025	21.362	0.104	-0.086
-734.010	90.597	-0.101	-0.115
-732.996	97.056	-0.147	-0.172
-731.981	-169.808	-0.346	0.013
-730.966	-103.826	0.028	-0.007
-729.952	219.678	-0.063	0.104
-728.937	-32.248	-0.332	0.190
-727.923	-37.281	-0.162	-0.089
-726.908	800.000	-0.087	-0.258
-725.894	-122.114	-0.229	-0.038
-724.879	549.442	0.055	0.134
-723.864	339.292	-0.022	-0.043
-722.850	-75.259	0.226	0.082
-721.835	-200.000	-0.043	-0.234
-720.821	-42.312	-0.117	-0.061
-719.806	-50.892	-0.217	0.104
-718.791	322.083	-0.052	-0.101
-717.777	-200.000	0.012	0.204
-716.762	800.000	-0.073	-0.218
-715.748	-138.506	0.052	-0.006
-714.733	23.165	-0.128	0.107
-713.718	-200.000	-0.003	-0.174
-712.704	-200.000	-0.011	-0.134
-711.689	798.906	0.093	-0.262
-710.675	-47.197	0.116	-0.058
-709.660	270.652	-0.076	-0.137
-708.645	-153.341	-0.389	0.028
-707.631	-125.037	-0.212	0.033
-706.616	54.050	-0.083	-0.082
-705.602	800.000	-0.024	0.092
-704.587	514.071	-0.121	-0.288
-703.572	800.000	0.062	0.219
-702.558	71.211	0.074	0.078
-701.543	-67.699	0.166	0.066
-700.529	-141.710	0.362	-0.037
-699.514	-33.838	0.306	-0.172
-698.499	46.098	-0.311	0.294
-697.485	-70.236	0.171	-0.066
-696.470	800.000	0.041	-0.132
-695.456	-102.082	-0.250	0.062
-694.441	800.000	0.053	-0.197
-693.426	-144.552	0.058	-0.005
-692.412	-50.373	-0.262	0.126
-691.397	83.360	0.057	-0.063
-690.383	41.616	0.233	0.216
-689.368	359.818	-0.045	-0.091
-688.354	37.520	0.230	0.208
-687.339	213.292	0.237	0.383
-686.324	622.911	0.079	0.203
-685.310	-200.000	0.063	-0.288
-684.295	-200.000	-0.013	-0.166
-683.281	47.974	-0.248	-0.236
-682.266	53.778	-0.255	0.250
-681.251	-58.588	0.187	-0.083
-680.237	-51.664	0.113	0.054
-679.222	726.065	0.030	0.081
-678.208	-184.573	-0.481	0.008
-677.193	-57.748	0.160	-0.071
-676.178	-200.000	-0.003	0.076
-675.164	-160.873	-0.050	-0.003
-674.149	100.541	-0.176	-0.208
-673.135	291.179	0.062	-0.114
-672.120	-54.205	-0.354	0.164
-671.105	218.136	0.145	-0.236
-670.091	-90.260	-0.132	0.039
-669.076	275.452	0.038	-0.069
-668.062	800.000	-0.011	0.046
-667.047	800.000	0.044	-0.139
-666.032	139.868	-0.043	-0.057
-665.018	88.684	-0.166	-0.188
-664.003	-19.173	-0.236	-0.149
-662.989	298.362	-0.055	-0.103
-661.974	-85.225	-0.217	-0.069
-660.959	-35.904	-0.224	0.123
-659.945	-200.000	-0.006	0.049
-658.930	-200.000	0.011	0.120
-657.916	-76.387	0.187	0.067
-656.901	-200.000	0.008	-0.130
-655.886	2.807	-0.142	0.105
-654.872	210.250	0.043	0.070
-653.857	800.000	-0.090	0.321
-652.843	-200.000	0.004	-0.274
-651.828	-123.625	-0.416	0.067
-650.814	-200.000	-0.000	-0.198
-649.799	-109.109	-0.353	0.077
-648.784	-122.115	-0.216	-0.036
-647.770	-200.000	-0.019	0.359
-646.755	-200.000	0.024	-0.150
-645.741	-23.661	0.274	-0.167
-644.726	15.892	-0.275	-0.220
-643.711	-107.944	0.140	0.031
-642.697	308.813	0.075	0.144
-641.682	280.238	0.040	0.073
-640.668	491.495	-0.121	0.283
-639.653	-200.000	0.010	-0.180
-638.638	769.168	0.039	0.109
-637.624	-113.508	0.119	0.024
-636.609	-109.958	-0.182	0.039
-635.595	34.394	-0.187	-0.167
-634.580	-40.342	0.028	-0.015
-633.565	66.255	0.041	-0.042
-632.551	-137.833	-0.462	0.053
-631.536	-91.537	-0.234	-0.068
-630.522	-152.192	0.269	-0.020
-629.507	608.115	-0.078	-0.198
-628.492	-64.001	-0.273	-0.114
-627.478	-196.471	-0.184	0.001
-626.463	-110.531	-0.296	0.062
-625.449	0.346	-0.114	0.083
-624.434	-200.000	0.001	0.197
-623.419	241.723	-0.122	-0.208
-622.405	80.012	-0.186	0.203
-621.390	-174.770	-0.193	-0.006
-620.376	-129.451	0.110	0.016
-619.361	-35.789	-0.191	-0.105
-618.346	-167.140	-0.366	-0.015
-617.332	-37.053	-0.357	-0.195
-616.317	-200.000	-0.015	0.150
-615.303	-88.229	-0.318	0.097
-614.288	-147.679	-0.286	0.024
-613.273	-128.054	0.160	-0.023
-612.259	158.455	0.120	-0.169
-611.244	6.597	-0.095	0.072
-610.230	-141.149	-0.094	0.010
-609.215	-110.238	0.284	0.060
-608.201	177.587	-0.193	0.286
-607.186	-33.354	0.119	0.067
-606.171	-52.918	0.156	0.073
-605.157	372.335	-0.016	-0.032
-604.142	-200.000	-0.013	0.280
-603.128	-95.403	0.414	-0.113
-602.113	751.751	0.025	0.069
-601.098	-167.226	-0.020	-0.001
-600.084	11.291	-0.017	-0.013
-599.069	-156.015	0.399	0.026
-598.055	-64.714	-0.073	0.030
-597.040	-63.986	-0.057	0.024
-596.025	-200.000	0.030	-0.291
-595.011	-200.000	-0.187	-0.001
-593.996	-94.337	0.102	0.028
-592.982	463.005	0.097	0.221
-591.967	346.862	0.226	-0.452
-590.952	-200.000	0.014	-0.093
-589.938	800.000	0.120	-0.477
-588.923	434.843	0.121	0.267
-587.909	180.945	0.227	-0.339
-586.894	800.000	-0.138	0.430
-585.879	-154.652	-0.383	0.026
-584.865	-200.000	0.003	0.039
-583.850	-34.800	0.054	-0.030
-582.836	170.921	-0.078	0.113
-581.821	-65.166	-0.135	-0.055
-580.806	-200.000	0.019	-0.267
-579.792	66.597	0.148	0.153
-578.777	65.329	0.055	-0.057
-577.763	-149.202	0.116	0.009
-576.748	165.873	-0.099	0.143
-575.733	-63.241	0.424	-0.178
-574.719	28.703	0.378	-0.325
-573.704	-124.378	-0.023	0.004
-572.690	-200.000	-0.016	0.136
-571.675	-200.000	0.089	-0.476
-570.661	-38.206	-0.295	-0.159
-569.646	-50.288	0.179	0.086
-568.631	-57.509	-0.262	0.117
-567.617	-153.604	-0.072	-0.005
-566.602	203.098	0.155	0.244
-565.588	-18.190	-0.184	0.117
-564.573	31.467	0.174	-0.152
-563.558	7.136	0.214	-0.162
-562.544	-200.000	-0.013	-0.188
-561.529	380.196	-0.107	0.222
-560.515	-200.000	-0.005	0.129
-559.500	-68.296	0.190	-0.075
-558.485	-128.595	0.186	0.027
-557.471	58.368	0.199	-0.198
-556.456	-15.653	-0.161	-0.104
-555.442	-137.753	-0.306	0.035
-554.427	-49.173	0.081	0.039
-553.412	-200.000	0.069	0.457
-552.398	262.757	0.113	-0.200
-551.383	-109.992	-0.043	-0.009
-550.369	-65.421	-0.091	0.037
-549.354	93.006	-0.098	-0.113
-548.339	574.866	0.094	0.232
-547.325	800.000	0.006	0.026
-546.310	-9.001	0.205	0.140
-545.296	800.000	-0.033	0.110
-544.281	-61.943	-0.327	-0.139
-543.266	-19.990	0.234	-0.146
-542.252	559.982	-0.085	0.208
-541.237	146.121	-0.090	0.123
-540.223	-40.276	0.466	0.246
-539.208	6.615	-0.016	-0.012
-538.193	-200.000	-0.019	0.120
-537.179	-115.544	0.177	0.034
-536.164	166.537	0.333	0.480
-535.150	163.339	-0.114	-0.162
-534.135	-128.021	-0.114	0.017
-533.121	-24.833	-0.117	-0.070
-532.106	-135.538	-0.170	-0.021
-531.091	-127.386	-0.433	-0.064
-530.077	-86.849	-0.046	-0.014
-529.062	-89.121	-0.160	0.048
-528.048	-86.680	0.206	-0.064
-527.033	-123.321	0.205	-0.033
-526.018	522.553	-0.098	0.234
-525.004	114.053	-0.115	-0.141
-523.989	-200.000	0.027	-0.186
-522.975	4.934	0.295	0.220
-521.960	-193.992	0.098	0.001
-520.945	211.920	0.104	0.167
-519.931	360.418	-0.139	-0.283
-518.916	338.200	0.039	0.078
-517.902	-125.161	0.278	-0.043
-516.887	-79.072	-0.188	-0.065
-515.872	-65.558	0.145	-0.059
-514.858	-200.000	0.056	0.437
-513.843	800.000	0.058	0.209
-512.829	-200.000	-0.006	-0.282
-511.814	414.278	-0.103	-0.222
-510.799	407.761	0.121	-0.259
-509.785	791.622	-0.126	-0.351
-508.770	-90.985	0.230	-0.067
-507.756	-200.000	-0.029	-0.192
-506.741	-43.264	-0.284	-0.146
-505.726	-88.947	-0.228	-0.068
-504.712	62.634	0.077	0.078
-503.697	-197.932	-0.133	-0.001
-502.683	-77.012	-0.356	0.126
-501.668	246.011	-0.102	0.174
-500.653	2.382	0.106	0.078
-499.639	-15.866	0.098	0.063
-498.624	160.786	0.184	0.260
-497.610	-90.971	0.298	-0.087
-496.595	-13.310	-0.305	-0.201
-495.581	-105.762	-0.153	-0.035
-494.566	-86.486	0.214	0.067
-493.551	-116.747	-0.182	-0.034
-492.537	242.005	0.094	0.159
-491.522	-45.673	-0.435	0.218
-490.508	247.591	0.023	-0.039
-489.493	-174.792	-0.059	-0.002
-488.478	-3.281	0.301	-0.213
-487.464	133.652	-0.037	0.049
-486.449	-200.000	0.040	0.315
-485.435	-128.686	-0.184	0.026
-484.420	-200.000	0.023	-0.129
-483.405	-200.000	0.044	-0.265
-482.391	-96.733	-0.283	0.075
-481.376	381.915	-0.107	0.222
-480.362	-46.038	-0.306	0.153
-479.347	66.718	0.125	0.129
-478.332	-35.710	0.091	0.050
-477.318	352.740	-0.182	-0.366
-476.303	-22.032	0.094	0.058
-475.289	-19.544	0.181	-0.114
-474.274	52.182	-0.145	-0.140
-473.259	-115.451	-0.186	-0.035
-472.245	-48.026	-0.179	0.087
-471.230	800.000	0.103	-0.292
-470.216	154.993	-0.209	0.291
-469.201	-39.752	0.345	0.183
-468.186	191.252	-0.112	-0.171
-467.172	-81.071	-0.399	-0.134
-466.157	382.638	-0.139	-0.288
-465.143	800.000	0.099	-0.282
-464.128	-175.760	0.099	-0.003
-463.113	84.490	0.099	0.110
-462.099	-148.444	0.025	-0.002
-461.084	-200.000	0.014	0.119
-460.070	-122.921	0.434	0.071
-459.055	-187.075	0.038	0.001
-458.040	131.846	-0.188	0.245
-457.026	-99.314	0.076	-0.019
-456.011	-3.977	-0.109	-0.076
-454.997	-200.000	0.005	-0.215
-453.982	-200.000	-0.044	0.331
-452.968	36.063	-0.215	-0.192
-451.953	-84.586	0.551	-0.176
-450.938	250.177	0.176	-0.303
-449.924	-118.855	-0.165	-0.029
-448.909	36.012	-0.105	-0.094
-447.895	141.239	0.177	0.237
-446.880	537.375	-0.059	0.143
-445.865	227.548	0.094	0.154
-444.851	-180.951	-0.091	0.002
-443.836	111.208	0.070	-0.085
-442.822	-200.000	-0.004	-0.068
-441.807	31.177	0.210	0.182
-440.792	589.308	0.099	0.246
-439.778	694.304	-0.189	-0.501
-438.763	-106.668	0.149	-0.034
-437.749	214.348	-0.175	-0.280
-436.734	743.628	-0.023	0.062
-435.719	-93.604	0.161	0.045
-434.705	-200.000	0.007	0.044
-433.690	-96.563	-0.067	-0.018
-432.676	128.902	0.081	-0.104
-431.661	-42.951	-0.163	0.084
-430.646	149.155	0.153	-0.210
-429.632	7.224	0.062	-0.047
-428.617	-45.036	0.155	0.078
-427.603	10.719	0.028	0.021
-426.588	800.000	-0.099	-0.410
-425.573	-66.431	-0.330	-0.133
-424.559	-48.660	-0.160	0.077
-423.544	800.000	-0.015	-0.050
-422.530	464.413	0.140	0.316
-421.515	-200.000	0.000	-0.062
-420.500	-72.767	-0.026	-0.010
-419.486	-200.000	-0.037	-0.182
-418.471	107.997	0.069	0.083
-417.457	142.721	0.079	-0.106
-416.442	-200.000	-0.001	-0.234
-415.428	-140.287	-0.083	-0.009
-414.413	-200.000	-0.044	-0.412
-413.398	-89.513	0.116	-0.034
-412.384	66.486	0.280	-0.287
-411.369	39.939	0.093	0.084
-410.355	-94.075	0.036	-0.010
-409.340	0.172	0.201	-0.145
-408.325	-4.203	0.028	-0.020
-407.311	527.604	-0.181	-0.431
-406.296	252.025	-0.130	-0.223
-405.282	-84.134	-0.093	0.030
-404.267	221.953	-0.219	-0.355
-403.252	-149.552	0.124	0.010
-402.238	211.363	-0.189	0.301
-401.223	800.000	0.082	0.231
-400.209	-121.959	0.067	0.011
-399.194	-200.000	-0.003	-0.062
-398.179	-116.293	0.239	-0.045
-397.165	-61.029	-0.132	-0.056
-396.150	96.343	0.132	0.152
-395.136	-48.975	-0.212	0.103
-394.121	800.000	-0.031	-0.129
-393.106	-152.848	-0.375	0.027
-392.092	-200.000	-0.021	-0.235
-391.077	-87.580	0.186	-0.057
-390.063	277.302	0.058	-0.104
-389.048	-153.798	0.128	0.009
-388.033	-200.000	-0.009	0.392
-387.019	64.744	-0.057	-0.058
-386.004	-62.007	0.193	-0.081
-384.990	66.541	0.052	-0.054
-383.975	263.378	0.154	-0.270
-382.960	118.507	0.222	0.276
-381.946	-200.000	-0.070	-0.321
-380.931	-31.544	-0.413	0.234
-379.917	-21.785	-0.215	0.132
-378.902	92.314	0.148	-0.169
-377.888	-144.005	0.129	-0.012
-376.873	-200.000	-0.003	-0.032
-375.858	90.148	-0.188	0.212
-374.844	189.212	0.101	0.152
-373.829	430.298	-0.124	0.271
-372.815	-31.243	0.229	-0.130
-371.800	800.000	0.079	-0.285
-370.785	107.063	0.161	0.193
-369.771	-51.831	-0.134	-0.063
-368.756	800.000	0.030	-0.098
-367.742	319.144	0.081	-0.155
-366.727	-134.579	-0.098	-0.012
-365.712	-108.426	0.128	-0.028
-364.698	334.479	0.074	-0.144
-363.683	-15.444	0.255	-0.164
-362.669	-111.635	0.178	-0.036
-361.654	-171.991	0.419	0.014
-360.639	-81.734	0.220	0.073
-359.625	-51.616	0.134	-0.063
-358.610	-7.118	-0.187	0.128
-357.596	-125.892	0.068	0.010
-356.581	800.000	0.018	-0.068
-355.566	501.986	0.131	-0.306
-354.552	-147.144	-0.244	0.021
-353.537	-200.000	0.021	-0.218
-352.523	-89.578	0.330	-0.098
-351.508	46.963	0.135	-0.127
-350.493	-42.678	-0.068	0.035
-349.479	-45.315	0.184	0.092
-348.464	-125.086	0.135	0.021
-347.450	252.404	-0.082	-0.141
-346.435	-200.000	0.037	0.190
-345.420	-74.059	0.171	0.062
-344.406	180.937	-0.175	-0.259
-343.391	584.844	-0.142	0.351
-342.377	-200.000	0.017	-0.249
-341.362	-124.855	-0.255	0.040
-340.348	-74.624	0.135	0.049
-339.333	-200.000	-0.051	-0.290
-338.318	-40.253	0.307	0.161
-337.304	-200.000	0.008	0.116
-336.289	-200.000	-0.022	0.282
-335.275	26.225	-0.155	-0.130
-334.260	-131.179	0.045	-0.006
-333.245	-45.334	0.433	0.216
-332.231	800.000	-0.038	-0.123
-331.216	-21.950	-0.483	0.296
-330.202	-148.925	-0.031	0.003
-329.187	-50.012	-0.180	0.086
-328.172	227.106	-0.109	0.179
-327.158	-114.145	-0.246	0.048
-326.143	120.186	0.105	0.131
-325.129	-114.029	-0.375	0.073
-324.114	-200.000	0.007	-0.086
-323.099	-200.000	0.015	0.341
-322.085	-200.000	0.017	-0.134
-321.070	-155.192	0.349	0.023
-320.056	-47.190	-0.333	0.163
-319.041	-3.708	0.462	-0.323
-318.026	42.621	-0.060	-0.055
-317.012	193.420	0.091	-0.139
-315.997	-44.857	-0.185	-0.093
-314.983	-55.314	0.072	0.033
-313.968	29.024	0.269	0.230
-312.953	633.833	-0.111	0.282
-311.939	-189.101	0.368	0.004
-310.924	21.154	0.261	0.213
-309.910	-200.000	0.034	0.335
-308.895	-73.456	0.133	0.049
-307.880	-200.000	0.044	0.279
-306.866	-200.000	0.016	0.164
-305.851	800.000	-0.028	-0.119
-304.837	47.992	-0.123	0.115
-303.822	394.734	0.088	0.184
-302.807	468.769	0.108	0.244
-301.793	-200.000	0.042	0.414
-300.778	105.395	-0.084	-0.100
-299.764	-156.467	0.227	0.014
-298.749	800.000	-0.111	0.323
-297.735	101.299	-0.195	-0.228
-296.720	-51.057	-0.471	-0.222
-295.705	216.587	-0.070	0.113
-294.691	-105.949	-0.186	0.042
-293.676	-102.773	0.191	-0.046
-292.662	800.000	-0.065	0.246
-291.647	761.901	-0.045	-0.123
-290.632	19.066	-0.186	0.150
-289.618	-63.387	-0.346	-0.143
-288.603	-126.241	-0.224	-0.034
-287.589	800.000	-0.085	-0.280
-286.574	-49.500	0.056	-0.027
-285.559	-200.000	0.019	0.362
-284.545	334.550	-0.124	0.241
-283.530	344.323	-0.094	-0.186
-282.516	-90.164	-0.168	0.049
-281.501	-182.184	-0.072	-0.001
-280.486	-37.546	0.118	0.063
-279.472	-182.204	-0.330	0.006
-278.457	-85.386	-0.281	-0.088
-277.443	149.173	0.034	0.046
-276.428	-118.674	0.251	-0.045
-275.413	303.389	-0.185	-0.345
-274.399	38.155	0.183	-0.163
-273.384	-39.748	-0.191	-0.101
-272.370	-82.662	0.163	-0.053
-271.355	-136.563	0.433	0.050
-270.340	-144.238	-0.085	-0.008
-269.326	-200.000	-0.019	-0.176
-268.311	-79.307	-0.243	-0.083
-267.297	-45.888	-0.086	-0.043
-266.282	18.753	0.018	0.015
-265.267	-200.000	0.049	0.309
-264.253	-65.000	0.189	0.077
-263.238	1.978	-0.148	-0.107
-262.224	55.924	0.014	-0.013
-261.209	107.181	-0.128	-0.153
-260.195	-156.531	-0.184	-0.011
-259.180	-37.874	0.236	0.126
-258.165	77.921	0.027	0.029
-257.151	-49.162	-0.192	-0.092
-256.136	24.690	0.184	-0.153
-255.122	-0.645	0.098	0.070
-254.107	258.869	0.091	-0.157
-253.092	-200.000	0.021	-0.147
-252.078	167.232	-0.118	-0.168
-251.063	188.995	0.026	0.039
-250.049	-4.573	-0.399	0.277
-249.034	199.545	0.061	-0.094
-248.019	800.000	-0.032	-0.102
-247.005	-31.880	0.162	0.091
-245.990	-32.002	0.221	-0.124
-244.976	800.000	-0.043	-0.148
-243.961	75.822	-0.155	0.164
-242.946	66.588	-0.049	0.050
-241.932	372.087	-0.048	-0.097
-240.917	-88.364	0.313	0.094
-239.903	356.759	0.109	-0.218
-238.888	-91.852	0.115	0.033
-237.873	155.268	-0.056	-0.078
-236.859	-28.479	0.227	-0.131
-235.844	199.008	0.031	-0.048
-234.830	-128.702	0.061	0.009
-233.815	8.854	-0.064	-0.049
-232.800	29.853	0.279	0.239
-231.786	-160.601	0.237	0.013
-230.771	8.833	0.292	-0.221
-229.757	34.169	0.089	-0.078
-228.742	-102.283	0.319	0.077
-227.727	-18.274	0.291	0.183
-226.713	-70.968	0.069	0.026
-225.698	-120.006	-0.181	-0.031
-224.684	800.000	-0.081	0.352
-223.669	-129.784	-0.263	0.036
-222.655	212.227	-0.187	0.296
-221.640	14.341	0.064	-0.050
-220.625	397.212	0.123	0.257
-219.611	-33.816	-0.069	-0.038
-218.596	225.047	0.109	-0.176
-217.582	50.688	0.117	-0.111
-216.567	-155.636	-0.394	-0.025
-215.552	-126.437	0.134	0.020
-214.538	-200.000	-0.085	0.378
-213.523	-160.075	-0.083	0.005
-212.509	516.868	0.110	0.257
-211.494	388.575	0.040	0.082
-210.479	98.557	0.143	-0.165
-209.465	374.211	0.166	0.338
-208.450	800.000	-0.072	-0.227
-207.436	-200.000	-0.011	0.179
-206.421	-127.332	-0.146	0.021
-205.406	-200.000	0.040	-0.213
-204.392	55.962	-0.111	-0.108
-203.377	-200.000	0.003	-0.145
-202.363	-78.130	0.435	0.150
-201.348	-184.761	-0.208	-0.003
-200.333	133.822	-0.079	0.103
-199.319	-200.000	-0.011	0.081
-198.304	5.858	-0.050	-0.037
-197.290	29.661	0.254	0.217
-196.275	64.786	0.182	-0.184
-195.260	-45.225	0.051	0.026
-194.246	-163.490	-0.106	-0.005
-193.231	4.108	0.051	-0.038
-192.217	327.961	0.055	-0.105
-191.202	15.720	-0.222	0.175
-190.187	-17.357	-0.333	-0.210
-189.173	-200.000	-0.046	0.411
-188.158	-92.845	0.147	0.041
-187.144	337.724	-0.089	0.174
-186.129	-89.209	0.111	0.033
-185.114	-10.455	-0.046	-0.031
-184.100	-168.091	-0.179	-0.007
-183.085	684.974	-0.032	0.084
-182.071	-175.951	-0.194	0.005
-181.056	-75.143	-0.102	0.036
-180.042	-101.987	-0.095	-0.023
-179.027	243.769	0.154	0.258
-178.012	800.000	-0.068	-0.291
-176.998	800.000	0.067	0.245
-175.983	23.781	-0.011	0.009
-174.969	669.228	0.059	0.154
-173.954	-116.229	0.174	0.032
-172.939	121.535	0.078	0.097
-171.925	-200.000	0.027	-0.161
-170.910	-200.000	0.053	0.306
-169.896	-51.949	-0.088	0.041
-168.881	-93.041	-0.048	0.013
-167.866	-55.068	0.268	-0.121
-166.852	-200.000	-0.075	0.469
-165.837	800.000	-0.086	0.277
-164.823	-200.000	0.004	0.223
-163.808	384.195	-0.031	0.064
-162.793	-200.000	0.025	-0.438
-161.779	-97.345	-0.237	0.062
-160.764	189.683	-0.249	-0.374
-159.750	30.606	0.043	0.037
-158.735	-63.621	0.153	-0.063
-157.720	-200.000	0.013	-0.288
-156.706	59.381	0.185	0.182
-155.691	-179.128	-0.186	-0.004
-154.677	26.117	0.082	-0.068
-153.662	91.542	0.072	-0.081
-152.647	800.000	-0.078	-0.296
-151.633	43.649	0.200	-0.183
-150.618	-86.701	0.136	0.042
-149.604	-59.683	0.138	-0.059
-148.589	-25.208	-0.344	-0.204
-147.574	94.598	0.033	0.037
-146.560	64.402	-0.133	0.134
-145.545	-160.273	-0.156	0.008
-144.531	-120.448	-0.157	-0.027
-143.516	72.548	-0.119	-0.124
-142.502	-124.133	-0.269	0.042
-141.487	188.837	-0.038	-0.057
-140.472	35.454	0.067	-0.059
-139.458	616.787	-0.028	-0.070
-138.443	-108.448	0.126	0.027
-137.429	138.993	0.095	0.125
-136.414	-70.206	-0.122	0.046
-135.399	46.412	0.360	-0.333
-134.385	-200.000	-0.047	-0.311
-133.370	161.548	-0.047	-0.065
-132.356	-200.000	0.062	0.307
-131.341	-200.000	0.004	0.067
-130.326	95.131	0.265	-0.302
-129.312	-91.300	0.396	0.113
-128.297	512.821	-0.052	0.122
-127.283	125.935	-0.087	-0.110
-126.268	-136.254	0.285	0.033
-125.253	770.958	-0.172	-0.469
-124.239	220.733	0.008	-0.012
-123.224	175.094	-0.159	0.229
-122.210	-70.127	0.340	-0.129
