DTS Sentinel unit serial number:	SN413079Multiplexer serial number:	ORYXHardware model number:	OX4-SRSoftware version number:	ORYX F/W v4.00 Oryx Data Collector v3.7.2.0data status	okinstallation	princeton_trtdifferential loss correction	single-endedforward channel	channel 4reverse channel	N/Adate	2019/09/13time	07:13:35forward acquisition time	60.00reverse acquisition time	0.00gamma	496.2192k internal	0.2323k external	0.2323temperature offset calibration	1.0199default loss term (dB/km)	0.3790temperature slope calibration	1.0000multiplexer offset coefficient	1.0000multiplexer slope coefficient	1.0000fibre end	0.00T internal ref (°C)	26.03T ext. ref 1 (°C)	4.15T ext. ref 2 (°C)	21.40length (m)	temperature (°C)	Stokes	anti-Stokes-747.200	800.000	0.023	0.083
-746.185	31.022	-0.134	0.116
-745.171	20.214	-0.083	0.068
-744.156	101.000	-0.252	0.296
-743.142	124.047	0.109	0.138
-742.127	50.602	-0.188	0.179
-741.112	130.411	0.173	-0.224
-740.098	253.738	-0.252	0.435
-739.083	9.459	-0.204	0.156
-738.069	-200.000	-0.001	0.283
-737.054	177.994	-0.133	0.196
-736.039	508.144	-0.134	-0.314
-735.025	752.295	0.044	-0.120
-734.010	-188.830	-0.306	0.004
-732.996	372.551	-0.086	-0.177
-731.981	70.597	-0.086	0.090
-730.966	-159.662	-0.170	-0.009
-729.952	171.873	-0.146	0.212
-728.937	697.046	0.030	0.080
-727.923	198.006	-0.112	0.173
-726.908	79.457	0.116	-0.126
-725.894	-200.000	-0.011	-0.210
-724.879	-61.079	0.179	-0.076
-723.864	122.465	-0.176	0.222
-722.850	105.521	0.117	0.139
-721.835	516.062	-0.039	-0.091
-720.821	232.938	-0.069	0.114
-719.806	324.856	-0.076	-0.146
-718.791	800.000	0.062	-0.187
-717.777	71.704	-0.088	-0.093
-716.762	-200.000	-0.016	-0.130
-715.748	-0.621	0.170	-0.122
-714.733	438.233	-0.054	0.118
-713.718	-200.000	0.027	-0.130
-712.704	-200.000	-0.026	0.183
-711.689	119.197	-0.080	-0.099
-710.675	-176.579	0.148	0.004
-709.660	-200.000	-0.054	0.442
-708.645	45.106	-0.047	-0.044
-707.631	-200.000	0.035	-0.215
-706.616	77.443	-0.236	0.253
-705.602	75.124	-0.231	-0.245
-704.587	382.499	-0.130	0.268
-703.572	800.000	-0.098	-0.355
-702.558	644.663	0.058	0.149
-701.543	800.000	0.076	-0.237
-700.529	-30.246	0.237	0.136
-699.514	-28.840	0.155	0.090
-698.499	-200.000	0.002	0.138
-697.485	264.863	0.180	-0.316
-696.470	-200.000	-0.008	-0.117
-695.456	24.221	0.104	0.086
-694.441	-40.580	-0.291	0.152
-693.426	43.335	0.027	-0.025
-692.412	800.000	0.079	0.241
-691.397	168.271	0.188	0.270
-690.383	211.822	-0.121	-0.192
-689.368	-93.053	0.112	0.031
-688.354	159.659	-0.067	-0.094
-687.339	-119.422	-0.160	-0.028
-686.324	107.620	0.099	-0.119
-685.310	-200.000	0.005	-0.052
-684.295	-88.760	0.079	-0.024
-683.281	410.557	0.061	-0.130
-682.266	343.053	-0.106	-0.209
-681.251	245.234	0.116	-0.197
-680.237	-64.919	0.032	0.013
-679.222	800.000	0.080	-0.244
-678.208	-68.837	0.060	0.023
-677.193	17.969	0.110	-0.088
-676.178	135.116	0.033	-0.043
-675.164	-200.000	0.007	-0.076
-674.149	230.333	-0.056	-0.091
-673.135	102.175	-0.034	0.040
-672.120	682.328	-0.100	0.264
-671.105	221.053	-0.198	-0.321
-670.091	162.183	-0.028	-0.040
-669.076	-200.000	0.061	-0.299
-668.062	-200.000	-0.014	0.229
-667.047	-74.185	-0.255	-0.093
-666.032	88.471	0.190	0.212
-665.018	-78.740	-0.132	0.045
-664.003	800.000	0.037	0.136
-662.989	-200.000	0.230	0.000
-661.974	-28.578	0.276	-0.160
-660.959	-109.727	0.055	-0.012
-659.945	-124.195	0.332	-0.052
-658.930	-200.000	-0.049	-0.413
-657.916	-106.716	-0.228	0.051
-656.901	300.101	0.101	-0.187
-655.886	-0.493	0.196	-0.140
-654.872	-155.090	-0.134	0.009
-653.857	-78.169	-0.558	-0.193
-652.843	290.449	0.049	0.089
-651.828	-133.616	-0.383	0.048
-650.814	172.971	0.199	-0.288
-649.799	-103.978	0.075	-0.018
-648.784	-91.972	0.126	-0.036
-647.770	800.000	0.107	0.334
-646.755	-200.000	0.009	-0.059
-645.741	-96.589	-0.109	0.029
-644.726	-89.504	0.188	0.055
-643.711	-146.565	-0.327	-0.029
-642.697	-129.647	-0.301	-0.042
-641.682	66.239	0.164	-0.167
-640.668	-114.734	-0.308	0.059
-639.653	800.000	0.064	0.189
-638.638	-46.748	0.097	-0.048
-637.624	-67.647	-0.140	0.055
-636.609	-200.000	-0.035	0.238
-635.595	800.000	0.073	0.224
-634.580	206.459	-0.117	-0.184
-633.565	236.348	-0.201	-0.335
-632.551	800.000	0.022	-0.074
-631.536	-4.699	-0.242	-0.168
-630.522	32.235	0.226	-0.196
-629.507	-200.000	0.011	-0.048
-628.492	-200.000	0.039	0.229
-627.478	-133.819	-0.368	0.046
-626.463	255.523	-0.192	0.330
-625.449	-132.703	-0.408	0.052
-624.434	-200.000	0.034	-0.508
-623.419	314.609	-0.099	-0.187
-622.405	-40.943	-0.194	-0.101
-621.390	286.669	-0.160	-0.291
-620.376	800.000	0.057	-0.162
-619.361	297.428	0.044	0.081
-618.346	-69.502	-0.040	-0.016
-617.332	132.419	0.133	-0.173
-616.317	-11.543	0.163	-0.108
-615.303	271.471	0.144	-0.254
-614.288	185.555	0.086	-0.128
-613.273	-51.406	0.212	0.099
-612.259	-23.773	0.140	0.084
-611.244	-134.534	0.196	0.024
-610.230	201.902	0.145	-0.224
-609.215	-12.182	0.171	0.112
-608.201	-22.615	0.004	0.002
-607.186	208.665	-0.070	-0.109
-606.171	-19.813	0.112	-0.069
-605.157	81.541	-0.254	0.276
-604.142	800.000	0.059	-0.214
-603.128	210.694	0.046	0.073
-602.113	-181.479	-0.065	-0.001
-601.098	22.796	0.175	-0.144
-600.084	404.545	-0.089	-0.187
-599.069	-200.000	-0.026	-0.127
-598.055	-200.000	-0.045	-0.218
-597.040	800.000	0.065	-0.211
-596.025	348.265	-0.108	-0.214
-595.011	203.308	-0.136	0.212
-593.996	113.341	0.274	-0.334
-592.982	402.493	-0.052	0.109
-591.967	-200.000	-0.047	-0.326
-590.952	-107.754	0.299	-0.065
-589.938	-12.009	0.087	-0.057
-588.923	800.000	-0.108	-0.384
-587.909	-141.693	-0.099	0.010
-586.894	800.000	0.019	-0.076
-585.879	51.262	0.269	0.257
-584.865	-52.837	-0.234	0.108
-583.850	-200.000	0.006	0.362
-582.836	800.000	0.127	-0.427
-581.821	-86.007	0.190	0.059
-580.806	-101.795	-0.086	-0.021
-579.792	234.241	0.220	0.363
-578.777	225.841	0.061	-0.099
-577.763	-69.514	0.151	-0.058
-576.748	-147.448	0.157	-0.013
-575.733	76.323	0.121	-0.129
-574.719	-95.036	-0.079	0.021
-573.704	51.099	-0.269	-0.256
-572.690	-137.812	-0.220	-0.025
-571.675	73.645	-0.055	-0.058
-570.661	800.000	0.066	-0.203
-569.646	656.758	0.137	0.352
-568.631	-11.181	-0.184	0.122
-567.617	85.559	-0.174	-0.192
-566.602	674.174	0.152	0.396
-565.588	394.925	0.019	0.040
-564.573	80.522	0.112	0.121
-563.558	-102.045	-0.086	-0.021
-562.544	9.014	-0.198	-0.150
-561.529	-166.523	0.091	-0.004
-560.515	-76.359	-0.160	-0.056
-559.500	-111.164	-0.193	-0.040
-558.485	-200.000	-0.028	0.188
-557.471	36.096	0.297	-0.262
-556.456	228.565	0.100	-0.164
-555.442	3.280	-0.025	-0.018
-554.427	29.251	-0.235	0.200
-553.412	175.668	-0.043	-0.063
-552.398	800.000	-0.069	-0.225
-551.383	-73.548	-0.079	0.029
-550.369	46.847	0.022	-0.021
-549.354	-31.419	0.282	-0.159
-548.339	-200.000	0.357	0.000
-547.325	-200.000	-0.014	0.112
-546.310	641.107	-0.103	-0.262
-545.296	517.717	-0.088	-0.207
-544.281	-162.579	-0.117	0.006
-543.266	-200.000	-0.012	0.224
-542.252	-17.576	-0.073	-0.046
-541.237	800.000	-0.019	0.074
-540.223	-200.000	0.020	-0.099
-539.208	-200.000	-0.010	-0.184
-538.193	188.725	-0.091	0.136
-537.179	-200.000	0.039	0.242
-536.164	66.238	0.125	0.128
-535.150	-133.908	-0.280	-0.035
-534.135	800.000	-0.020	-0.060
-533.121	208.842	-0.143	0.225
-532.106	-200.000	0.001	0.195
-531.091	-200.000	0.036	-0.166
-530.077	-200.000	0.026	-0.303
-529.062	-25.899	0.099	0.058
-528.048	72.840	0.155	-0.162
-527.033	179.989	0.147	-0.215
-526.018	-6.223	0.293	0.200
-525.004	-97.259	-0.347	-0.091
-523.989	213.602	0.171	-0.270
-522.975	-97.647	-0.077	0.020
-521.960	12.266	0.057	-0.044
-520.945	-148.065	-0.217	0.018
-519.931	800.000	-0.027	-0.095
-518.916	-200.000	-0.012	0.154
-517.902	-58.099	0.271	0.118
-516.887	-131.321	-0.052	0.007
-515.872	496.924	0.066	-0.153
-514.858	103.516	-0.091	0.107
-513.843	-200.000	-0.002	0.304
-512.829	-149.724	-0.067	-0.005
-511.814	526.177	0.018	-0.042
-510.799	-108.418	-0.281	0.061
-509.785	800.000	0.049	0.183
-508.770	45.694	-0.107	-0.099
-507.756	-200.000	0.013	0.071
-506.741	-139.477	-0.308	0.033
-505.726	338.251	-0.135	-0.263
-504.712	10.920	-0.160	0.122
-503.697	-88.296	-0.090	0.027
-502.683	65.524	0.236	-0.239
-501.668	103.584	-0.171	-0.201
-500.653	-133.580	0.291	-0.036
-499.639	-126.402	-0.484	0.072
-498.624	800.000	-0.024	-0.096
-497.610	-51.694	-0.221	0.103
-496.595	-200.000	0.026	-0.189
-495.581	115.137	-0.045	-0.054
-494.566	144.435	-0.074	-0.099
-493.551	-174.993	-0.276	-0.008
-492.537	178.359	0.088	-0.129
-491.522	800.000	0.043	-0.169
-490.508	138.851	-0.179	0.236
-489.493	-200.000	-0.014	0.090
-488.478	-5.113	0.184	0.127
-487.464	164.030	0.146	-0.205
-486.449	131.557	-0.128	0.164
-485.435	240.598	-0.099	0.165
-484.420	-185.348	0.129	0.002
-483.405	-74.907	-0.395	-0.141
-482.391	-200.000	0.037	-0.308
-481.376	-153.337	0.042	0.003
-480.362	-41.970	-0.136	0.070
-479.347	89.987	-0.116	0.129
-478.332	226.720	0.204	-0.331
-477.318	-81.754	0.336	0.110
-476.303	-2.714	-0.247	0.173
-475.289	800.000	0.064	-0.203
-474.274	-132.754	0.294	0.038
-473.259	800.000	0.068	0.257
-472.245	-200.000	-0.009	0.294
-471.230	-2.840	0.141	0.098
-470.216	57.075	0.338	-0.329
-469.201	-200.000	0.008	-0.215
-468.186	33.403	-0.184	0.159
-467.172	-200.000	-0.004	0.200
-466.157	-97.800	0.169	0.044
-465.143	-200.000	0.018	0.208
-464.128	78.504	-0.134	-0.143
-463.113	256.012	-0.065	-0.112
-462.099	-167.333	-0.128	-0.005
-461.084	-200.000	0.003	-0.087
-460.070	46.089	0.173	0.160
-459.055	149.072	0.086	-0.116
-458.040	-118.412	-0.258	0.046
-457.026	-94.478	-0.694	0.189
-456.011	800.000	-0.068	-0.271
-454.997	54.473	0.111	-0.107
-453.982	-200.000	0.020	0.281
-452.968	-126.473	0.312	-0.046
-451.953	7.189	0.087	0.065
-450.938	237.641	-0.074	-0.122
-449.924	-12.027	-0.112	-0.073
-448.909	-200.000	0.033	0.193
-447.895	-99.453	-0.250	0.063
-446.880	800.000	-0.157	0.512
-445.865	119.636	0.176	-0.218
-444.851	-200.000	0.053	-0.316
-443.836	590.321	0.053	-0.130
-442.822	-200.000	0.024	0.270
-441.807	287.952	0.010	0.018
-440.792	-200.000	0.048	0.286
-439.778	142.036	-0.153	0.202
-438.763	125.821	0.141	-0.178
-437.749	302.496	0.081	-0.150
-436.734	-200.000	0.015	-0.254
-435.719	471.239	0.196	-0.440
-434.705	800.000	-0.065	0.198
-433.690	221.870	-0.084	0.134
-432.676	800.000	0.048	-0.157
-431.661	-200.000	0.007	-0.211
-430.646	119.682	0.056	0.069
-429.632	-9.812	-0.144	-0.096
-428.617	16.271	0.371	0.292
-427.603	-142.821	0.340	0.033
-426.588	-91.890	-0.349	0.099
-425.573	417.512	-0.108	0.230
-424.559	800.000	-0.020	0.054
-423.544	-200.000	0.030	-0.134
-422.530	-145.786	0.045	0.004
-421.515	-127.496	0.493	-0.071
-420.500	68.662	-0.022	-0.022
-419.486	151.513	0.191	-0.259
-418.471	-200.000	0.030	-0.479
-417.457	3.820	-0.178	-0.130
-416.442	-4.803	0.038	0.026
-415.428	-105.735	-0.248	0.056
-414.413	501.193	0.050	-0.116
-413.398	97.991	0.107	0.123
-412.384	-32.352	0.143	-0.080
-411.369	706.434	0.009	0.024
-410.355	336.280	0.143	0.276
-409.340	-200.000	-0.011	0.085
-408.325	20.092	0.258	-0.208
-407.311	-150.104	0.319	0.025
-406.296	-200.000	-0.092	0.495
-405.282	-97.952	-0.119	0.031
-404.267	477.548	0.032	-0.071
-403.252	447.097	-0.226	0.497
-402.238	-21.247	-0.206	-0.125
-401.223	-16.416	0.163	-0.103
-400.209	53.821	0.213	0.204
-399.194	-200.000	-0.014	0.214
-398.179	663.914	0.069	0.178
-397.165	-57.681	-0.140	0.061
-396.150	50.201	-0.325	0.306
-395.136	-200.000	-0.020	0.624
-394.121	218.393	-0.210	-0.335
-393.106	-200.000	-0.037	-0.342
-392.092	800.000	0.043	0.134
-391.077	71.779	-0.212	0.219
-390.063	29.249	-0.088	0.075
-389.048	37.102	0.240	-0.212
-388.033	339.312	-0.156	0.304
-387.019	-123.671	-0.419	-0.066
-386.004	444.109	-0.133	-0.291
-384.990	78.305	0.162	-0.173
-383.975	211.560	0.121	0.189
-382.960	377.515	0.159	0.324
-381.946	-200.000	-0.470	0.000
-380.931	210.169	0.153	-0.239
-379.917	-76.323	-0.086	0.030
-378.902	279.284	0.074	0.131
-377.888	-86.703	-0.151	-0.046
-376.873	141.270	-0.079	0.104
-375.858	-86.417	0.305	-0.093
-374.844	46.672	-0.035	-0.033
-373.829	13.228	-0.344	0.265
-372.815	364.147	-0.092	-0.185
-371.800	800.000	-0.088	-0.255
-370.785	665.254	0.079	-0.203
-369.771	-200.000	0.009	-0.275
-368.756	187.741	0.134	-0.200
-367.742	800.000	0.033	0.095
-366.727	800.000	-0.019	-0.079
-365.712	153.380	0.065	-0.088
-364.698	-151.740	0.252	0.018
-363.683	-200.000	0.013	-0.213
-362.669	21.930	0.254	-0.206
-361.654	-94.223	-0.401	0.109
-360.639	-114.563	-0.082	-0.016
-359.625	-12.099	0.096	-0.062
-358.610	-200.000	0.034	0.297
-357.596	-166.787	-0.090	0.004
-356.581	34.610	-0.155	-0.135
-355.566	-52.441	0.181	0.083
-354.552	-5.456	-0.085	0.058
-353.537	554.092	0.115	0.276
-352.523	-100.985	0.412	-0.101
-351.508	-48.844	-0.378	-0.180
-350.493	800.000	-0.099	0.292
-349.479	40.289	-0.126	-0.113
-348.464	247.135	0.062	-0.105
-347.450	311.463	0.100	0.187
-346.435	-107.794	-0.182	-0.039
-345.420	800.000	-0.016	0.055
-344.406	29.678	-0.073	-0.062
-343.391	-200.000	-0.025	0.129
-342.377	-133.555	-0.312	0.039
-341.362	504.741	-0.093	0.214
-340.348	-135.885	-0.236	0.028
-339.333	486.150	-0.034	-0.077
-338.318	-65.648	-0.146	-0.058
-337.304	26.908	0.170	0.142
-336.289	51.091	0.307	0.290
-335.275	587.867	0.094	0.231
-334.260	-118.837	-0.268	0.047
-333.245	-14.796	0.185	-0.118
-332.231	-83.675	0.388	-0.123
-331.216	635.998	0.079	-0.200
-330.202	-113.981	0.303	-0.058
-329.187	-3.405	-0.263	0.182
-328.172	-138.395	-0.300	0.033
-327.158	-200.000	0.013	0.130
-326.143	86.121	-0.129	0.141
-325.129	-200.000	-0.010	0.192
-324.114	-172.483	0.318	-0.010
-323.099	30.115	0.196	-0.166
-322.085	2.800	-0.275	0.198
-321.070	-116.076	0.166	-0.031
-320.056	800.000	-0.095	0.330
-319.041	150.401	-0.105	-0.142
-318.026	378.934	-0.028	-0.057
-317.012	-200.000	0.035	0.391
-315.997	800.000	0.020	0.054
-314.983	-43.211	-0.243	0.122
-313.968	37.842	0.145	0.128
-312.953	-50.632	-0.103	-0.048
-311.939	210.837	0.122	0.190
-310.924	98.330	0.172	0.197
-309.910	-132.666	-0.287	0.037
-308.895	-94.495	0.385	0.104
-307.880	-200.000	0.025	0.136
-306.866	148.823	-0.030	0.040
-305.851	600.937	0.049	0.121
-304.837	404.834	-0.017	0.036
-303.822	129.815	0.142	-0.180
-302.807	-150.668	0.266	0.020
-301.793	-9.020	-0.259	0.172
-300.778	-35.448	0.069	0.037
-299.764	-200.000	-0.013	0.259
-298.749	-25.780	0.045	-0.026
-297.735	-200.000	-0.037	-0.347
-296.720	-124.845	0.222	-0.034
-295.705	20.172	-0.222	0.178
-294.691	228.966	0.054	0.088
-293.676	3.135	0.364	-0.263
-292.662	-85.725	-0.213	-0.066
-291.647	194.932	0.151	-0.227
-290.632	-105.953	-0.105	0.023
-289.618	242.054	0.051	-0.085
-288.603	-18.561	-0.337	-0.209
-287.589	-200.000	0.108	0.478
-286.574	-200.000	0.056	0.408
-285.559	-90.052	0.356	0.103
-284.545	-91.777	-0.231	-0.065
-283.530	-82.169	0.344	-0.111
-282.516	-200.000	0.014	-0.100
-281.501	-200.000	0.001	0.283
-280.486	-28.682	0.112	-0.064
-279.472	-53.396	-0.156	-0.071
-278.457	7.081	-0.250	0.185
-277.443	-187.222	-0.444	0.006
-276.428	800.000	-0.110	-0.351
-275.413	-200.000	-0.005	0.278
-274.399	-153.687	0.167	-0.011
-273.384	399.527	0.096	-0.198
-272.370	-100.661	0.264	-0.064
-271.355	-113.498	-0.164	-0.032
-270.340	-7.387	-0.197	-0.132
-269.326	188.199	0.116	-0.172
-268.311	-140.458	-0.059	0.006
-267.297	-35.781	0.076	-0.041
-266.282	266.621	-0.013	-0.022
-265.267	-200.000	-0.005	0.176
-264.253	800.000	0.014	-0.043
-263.238	76.961	0.201	0.211
-262.224	-200.000	-0.009	0.131
-261.209	800.000	0.015	0.060
-260.195	800.000	0.093	0.263
-259.180	431.291	-0.067	-0.144
-258.165	-55.825	0.100	0.044
-257.151	55.739	-0.240	0.231
-256.136	-200.000	-0.022	-0.108
-255.122	-18.775	-0.065	0.040
-254.107	-200.000	0.014	-0.146
-253.092	273.388	0.127	0.222
-252.078	162.640	-0.208	-0.289
-251.063	423.844	-0.088	-0.188
-250.049	-197.921	0.374	0.002
-249.034	-127.516	0.097	0.014
-248.019	-80.886	-0.236	0.078
-247.005	-200.000	-0.004	0.311
-245.990	800.000	-0.034	0.102
-244.976	55.555	-0.207	0.199
-243.961	420.339	0.176	-0.373
-242.946	-101.270	0.159	0.038
-241.932	-86.448	0.257	0.078
-240.917	185.071	-0.140	0.206
-239.903	-75.434	-0.302	0.106
-238.888	-200.000	-0.006	-0.051
-237.873	-150.687	-0.244	-0.018
-236.859	759.117	0.042	-0.112
-235.844	-81.057	0.184	-0.060
-234.830	116.902	0.092	0.111
-233.815	93.451	0.230	0.257
-232.800	265.315	0.058	0.100
-231.786	-2.225	0.214	-0.149
-230.771	338.043	-0.150	0.289
-229.757	225.883	-0.043	0.069
-228.742	179.705	-0.244	0.353
-227.727	2.244	0.183	-0.131
-226.713	777.958	-0.115	0.312
-225.698	-105.002	0.340	0.077
-224.684	-200.000	0.007	0.044
-223.669	-12.214	0.141	0.091
-222.655	800.000	0.078	0.232
-221.640	-180.324	0.200	0.004
-220.625	-12.054	-0.123	0.080
-219.611	-200.000	-0.003	0.150
-218.596	-35.728	-0.250	0.134
-217.582	-117.617	0.308	-0.055
-216.567	800.000	-0.035	-0.104
-215.552	-8.461	0.279	0.186
-214.538	-83.406	0.219	0.070
-213.523	359.761	0.096	-0.190
-212.509	-92.908	-0.236	0.065
-211.494	-80.964	-0.270	-0.088
-210.479	-200.000	0.027	0.235
-209.465	-200.000	0.061	0.321
-208.450	-63.101	0.281	-0.115
-207.436	117.585	0.054	-0.066
-206.421	800.000	-0.068	-0.191
-205.406	-21.884	0.489	0.294
-204.392	-85.093	0.165	0.051
-203.377	11.851	0.288	0.219
-202.363	-74.506	0.268	-0.095
-201.348	-130.161	0.091	-0.012
-200.333	-200.000	-0.013	0.153
-199.319	180.131	-0.261	-0.379
-198.304	259.402	-0.146	-0.249
-197.290	420.984	-0.062	0.131
-196.275	-43.318	0.269	-0.135
-195.260	-200.000	0.009	0.057
-194.246	62.410	-0.288	-0.284
-193.231	-200.000	-0.075	-0.427
-192.217	78.393	-0.325	-0.343
-191.202	403.325	0.066	-0.137
-190.187	380.233	-0.131	-0.266
-189.173	-159.171	-0.155	-0.009
-188.158	-178.862	-0.379	0.009
-187.144	-129.721	0.182	0.025
-186.129	-106.736	0.140	-0.031
-185.114	453.826	0.102	0.223
-184.100	138.880	-0.055	0.071
-183.085	-182.272	-0.234	-0.004
-182.071	800.000	0.127	-0.377
-181.056	77.431	0.347	-0.365
-180.042	-65.255	-0.337	-0.134
-179.027	-14.934	-0.252	-0.160
-178.012	26.133	-0.097	0.080
-176.998	800.000	0.039	0.145
-175.983	-75.469	0.231	-0.081
-174.969	-77.759	-0.070	-0.024
-173.954	233.749	0.100	0.163
-172.939	-138.736	0.142	-0.015
-171.925	-169.839	-0.078	-0.003
-170.910	-124.009	0.148	-0.023
-169.896	-150.357	0.098	0.007
-168.881	-200.000	0.003	0.086
-167.866	29.799	0.111	-0.093
-166.852	-125.001	-0.251	-0.038
-165.837	-80.203	-0.190	-0.063
-164.823	76.607	0.220	-0.230
-163.808	-181.563	-0.422	-0.008
-162.793	20.273	-0.161	0.128
-161.779	50.973	0.087	-0.081
-160.764	409.876	-0.168	-0.351
-159.750	-109.386	0.214	0.045
-158.735	-20.204	0.088	-0.054
-157.720	-92.519	0.246	-0.068
-156.706	-108.069	-0.076	0.016
-155.691	-134.637	0.321	0.039
-154.677	191.900	-0.137	-0.204
-153.662	-127.250	-0.093	-0.013
-152.647	177.402	0.219	0.315
-151.633	179.978	0.064	0.092
-150.618	-28.372	0.262	0.149
-149.604	-35.217	-0.034	0.018
-148.589	-200.000	0.027	-0.199
-147.574	215.872	-0.090	-0.140
-146.560	-200.000	0.022	-0.279
-145.545	-102.741	-0.211	0.050
-144.531	-142.183	-0.181	-0.018
-143.516	52.120	0.118	-0.111
-142.502	341.379	-0.091	0.175
-141.487	800.000	0.063	0.201
-140.472	353.124	0.023	0.046
-139.458	-74.997	-0.043	-0.015
-138.443	323.429	0.132	-0.248
-137.429	-117.472	-0.314	0.056
-136.414	-3.793	0.263	0.180
-135.399	80.888	0.128	-0.137
-134.385	335.040	-0.129	0.246
-133.370	-200.000	-0.021	-0.163
-132.356	-121.015	-0.097	-0.016
-131.341	119.000	0.293	0.357
-130.326	-92.898	0.174	0.048
-129.312	101.286	-0.244	0.280
-128.297	-42.853	0.046	0.023
-127.283	-67.476	-0.244	-0.094
-126.268	262.928	0.106	-0.181
-125.253	24.070	0.028	0.023
-124.239	-117.113	-0.185	-0.033
-123.224	800.000	0.040	-0.164
-122.210	365.404	0.100	0.199
-121.195	-105.110	0.362	-0.082
