DTS Sentinel unit serial number:	SN413079Multiplexer serial number:	ORYXHardware model number:	OX4-SRSoftware version number:	ORYX F/W v4.00 Oryx Data Collector v3.7.2.0data status	okinstallation	princeton_trtdifferential loss correction	single-endedforward channel	channel 4reverse channel	N/Adate	2019/09/16time	17:57:35forward acquisition time	60.00reverse acquisition time	0.00gamma	496.2192k internal	0.2298k external	0.2298temperature offset calibration	0.9943default loss term (dB/km)	0.3790temperature slope calibration	1.0000multiplexer offset coefficient	1.0000multiplexer slope coefficient	1.0000fibre end	0.00T internal ref (°C)	37.72T ext. ref 1 (°C)	15.63T ext. ref 2 (°C)	31.50length (m)	temperature (°C)	Stokes	anti-Stokes-747.200	585.234	0.068	0.171
-746.185	-200.000	-0.037	0.343
-745.171	-83.853	-0.020	-0.006
-744.156	89.878	0.125	0.142
-743.142	-79.320	-0.123	-0.043
-742.127	800.000	-0.076	0.283
-741.112	-53.918	0.132	0.061
-740.098	-200.000	-0.039	0.206
-739.083	117.598	0.050	0.063
-738.069	-200.000	0.002	0.296
-737.054	-39.083	0.206	0.111
-736.039	99.121	0.090	0.106
-735.025	104.726	0.056	0.067
-734.010	-127.450	-0.424	-0.063
-732.996	-41.648	-0.378	0.198
-731.981	800.000	-0.072	0.254
-730.966	-65.614	-0.084	0.034
-729.952	-200.000	-0.012	-0.081
-728.937	-96.836	-0.107	-0.029
-727.923	-12.397	-0.113	-0.075
-726.908	-41.362	-0.146	-0.077
-725.894	-108.713	-0.313	0.069
-724.879	712.788	-0.121	-0.327
-723.864	-33.696	-0.146	0.082
-722.850	111.955	0.144	0.177
-721.835	442.331	-0.051	0.114
-720.821	-200.000	0.002	-0.271
-719.806	-200.000	-0.003	0.164
-718.791	-97.067	-0.279	-0.074
-717.777	-19.510	-0.107	0.067
-716.762	165.628	0.180	-0.259
-715.748	-124.922	-0.176	0.028
-714.733	-200.000	-0.044	-0.198
-713.718	23.480	-0.259	-0.217
-712.704	-14.393	-0.316	0.207
-711.689	-200.000	0.019	-0.126
-710.675	64.853	-0.201	-0.207
-709.660	800.000	0.045	-0.167
-708.645	28.821	0.187	-0.161
-707.631	-125.976	0.228	-0.035
-706.616	46.513	-0.243	-0.229
-705.602	-200.000	-0.065	0.422
-704.587	-82.765	0.272	0.090
-703.572	800.000	0.047	0.138
-702.558	-168.193	0.255	-0.010
-701.543	281.994	-0.086	-0.157
-700.529	319.146	-0.166	-0.321
-699.514	-200.000	-0.053	-0.345
-698.499	-115.652	0.140	-0.027
-697.485	-200.000	-0.023	-0.114
-696.470	-192.018	-0.109	0.001
-695.456	-20.596	0.198	-0.124
-694.441	-88.586	0.415	-0.126
-693.426	-45.504	0.159	-0.080
-692.412	800.000	0.048	-0.203
-691.397	113.039	-0.134	-0.166
-690.383	472.782	-0.080	-0.184
-689.368	-27.742	-0.276	-0.163
-688.354	-200.000	-0.019	-0.129
-687.339	265.792	0.068	0.121
-686.324	-53.525	-0.111	-0.052
-685.310	75.512	-0.126	-0.135
-684.295	-56.794	-0.200	0.090
-683.281	69.840	0.186	-0.195
-682.266	133.504	0.087	0.115
-681.251	259.627	-0.009	0.017
-680.237	-140.724	0.150	0.016
-679.222	93.625	-0.308	-0.355
-678.208	-200.000	0.034	-0.278
-677.193	-57.780	0.111	-0.050
-676.178	800.000	-0.074	-0.281
-675.164	32.401	-0.076	0.066
-674.149	-88.421	-0.259	0.079
-673.135	69.058	0.224	-0.234
-672.120	165.160	-0.118	0.170
-671.105	-16.094	0.339	-0.219
-670.091	-67.713	0.194	0.077
-669.076	18.992	-0.024	-0.019
-668.062	-186.241	0.199	-0.003
-667.047	-200.000	-0.048	0.303
-666.032	193.871	-0.126	0.195
-665.018	-56.298	-0.311	-0.141
-664.003	-111.823	-0.110	-0.023
-662.989	-84.448	0.085	-0.027
-661.974	43.463	-0.185	0.172
-660.959	92.281	-0.151	0.174
-659.945	800.000	-0.092	0.288
-658.930	-105.316	0.134	-0.031
-657.916	800.000	0.073	-0.284
-656.901	-200.000	-0.028	-0.138
-655.886	-57.873	0.228	0.101
-654.872	-167.708	0.389	0.016
-653.857	-177.007	0.466	0.012
-652.843	-200.000	0.030	-0.170
-651.828	-71.589	-0.135	-0.051
-650.814	-200.000	-0.030	-0.272
-649.799	-148.323	-0.415	-0.035
-648.784	800.000	0.021	0.071
-647.770	-25.722	0.209	-0.125
-646.755	-56.131	0.236	-0.107
-645.741	-21.755	0.185	-0.114
-644.726	550.056	-0.081	-0.199
-643.711	-7.513	-0.105	-0.072
-642.697	71.102	-0.051	0.054
-641.682	-149.761	0.255	0.020
-640.668	34.176	-0.041	0.036
-639.653	-81.619	-0.161	-0.054
-638.638	-39.518	-0.219	-0.117
-637.624	-200.000	-0.002	0.320
-636.609	-200.000	-0.020	0.110
-635.595	800.000	-0.051	-0.205
-634.580	-200.000	-0.007	-0.184
-633.565	-152.212	-0.214	0.016
-632.551	600.264	0.078	-0.196
-631.536	15.573	-0.174	-0.139
-630.522	-33.544	-0.197	-0.111
-629.507	-119.447	-0.035	0.006
-628.492	98.889	0.109	-0.127
-627.478	294.961	0.058	-0.107
-626.463	83.806	-0.099	0.110
-625.449	-9.271	0.385	-0.261
-624.434	-154.561	0.224	-0.015
-623.419	-67.218	-0.127	-0.051
-622.405	418.481	-0.151	-0.329
-621.390	-200.000	0.002	-0.056
-620.376	-15.292	-0.118	-0.076
-619.361	47.831	0.028	-0.026
-618.346	128.070	-0.096	-0.124
-617.332	-200.000	0.035	-0.601
-616.317	-92.238	-0.010	0.003
-615.303	-200.000	0.017	0.298
-614.288	-173.841	-0.348	0.010
-613.273	-140.636	-0.283	-0.030
-612.259	453.740	0.040	-0.091
-611.244	475.249	-0.040	-0.091
-610.230	-121.001	-0.146	0.025
-609.215	800.000	0.111	-0.385
-608.201	-100.239	-0.145	0.037
-607.186	-77.444	-0.051	-0.018
-606.171	-200.000	-0.021	0.133
-605.157	-53.769	-0.190	0.088
-604.142	-89.241	-0.258	0.077
-603.128	-200.000	-0.016	-0.166
-602.113	-144.973	0.270	-0.025
-601.098	-200.000	0.013	0.103
-600.084	-15.086	0.337	0.219
-599.069	101.539	-0.101	0.120
-598.055	264.781	-0.194	-0.343
-597.040	55.897	0.153	0.150
-596.025	-200.000	-0.048	0.263
-595.011	-106.426	0.190	-0.043
-593.996	-200.000	-0.020	-0.153
-592.982	-200.000	0.019	-0.307
-591.967	-92.996	0.082	0.023
-590.952	87.226	0.100	0.112
-589.938	-14.486	-0.023	0.015
-588.923	-86.482	-0.057	-0.018
-587.909	153.589	0.150	0.208
-586.894	-95.306	-0.400	-0.109
-585.879	-53.867	-0.146	-0.068
-584.865	76.839	0.103	-0.111
-583.850	99.974	0.097	0.114
-582.836	58.216	-0.111	0.110
-581.821	800.000	0.054	0.192
-580.806	344.096	-0.046	-0.091
-579.792	-37.690	0.087	-0.047
-578.777	53.924	0.276	0.269
-577.763	-150.170	0.197	-0.016
-576.748	27.354	0.369	-0.315
-575.733	-41.708	0.147	0.077
-574.719	110.998	0.063	-0.077
-573.704	283.602	-0.059	-0.107
-572.690	352.383	-0.201	0.404
-571.675	-134.332	0.007	0.001
-570.661	39.319	0.067	-0.061
-569.646	800.000	-0.030	0.125
-568.631	800.000	-0.057	0.250
-567.617	-103.993	-0.185	0.044
-566.602	232.510	0.085	0.141
-565.588	5.166	-0.091	-0.068
-564.573	-104.114	0.097	-0.023
-563.558	338.328	-0.035	0.069
-562.544	-124.714	-0.053	-0.008
-561.529	48.836	-0.104	-0.099
-560.515	288.605	-0.092	0.169
-559.500	569.156	0.023	0.056
-558.485	-200.000	-0.010	-0.214
-557.471	-123.885	-0.091	0.014
-556.456	-30.129	0.155	0.089
-555.442	800.000	0.056	0.162
-554.427	-200.000	-0.010	0.324
-553.412	-4.906	-0.179	0.125
-552.398	-133.208	-0.157	-0.020
-551.383	-200.000	0.111	0.000
-550.369	219.366	0.072	-0.116
-549.354	154.486	0.165	0.229
-548.339	289.152	-0.087	0.160
-547.325	-111.819	0.211	0.043
-546.310	-145.123	0.343	-0.032
-545.296	-29.763	0.390	-0.225
-544.281	800.000	-0.077	-0.232
-543.266	343.710	-0.074	-0.147
-542.252	-200.000	0.032	-0.338
-541.237	-200.000	0.064	-0.342
-540.223	-23.313	-0.091	-0.056
-539.208	-128.163	-0.259	0.037
-538.193	421.703	-0.209	0.453
-537.179	-95.423	-0.342	-0.093
-536.164	108.640	-0.240	-0.290
-535.150	-200.000	-0.028	-0.356
-534.135	74.280	-0.068	-0.073
-533.121	-38.301	0.291	0.156
-532.106	-107.260	-0.020	0.004
-531.091	196.281	-0.316	-0.487
-530.077	-200.000	0.028	-0.354
-529.062	186.738	-0.079	-0.119
-528.048	-155.608	-0.121	0.008
-527.033	553.273	0.039	-0.094
-526.018	54.707	0.097	-0.095
-525.004	-75.126	0.316	0.115
-523.989	-139.704	0.157	-0.017
-522.975	-166.550	0.340	-0.014
-521.960	330.095	0.105	-0.205
-520.945	-200.000	-0.027	-0.297
-519.931	-194.956	-0.405	0.003
-518.916	607.372	0.060	0.152
-517.902	800.000	-0.032	-0.099
-516.887	83.790	0.165	-0.182
-515.872	-39.358	0.217	0.115
-514.858	777.028	0.194	0.537
-513.843	757.632	-0.092	0.251
-512.829	-138.308	0.260	-0.029
-511.814	73.052	-0.132	0.139
-510.799	395.051	0.042	-0.088
-509.785	585.159	0.065	-0.162
-508.770	97.617	0.163	0.190
-507.756	566.174	-0.131	-0.322
-506.741	-69.585	-0.183	0.071
-505.726	-122.916	-0.294	0.048
-504.712	-89.317	-0.353	0.105
-503.697	-58.709	-0.181	0.079
-502.683	-67.274	-0.210	0.083
-501.668	93.853	-0.025	-0.028
-500.653	-74.393	0.084	-0.031
-499.639	-59.156	0.042	0.018
-498.624	380.837	0.163	-0.338
-497.610	-200.000	-0.026	-0.242
-496.595	-112.401	0.077	-0.016
-495.581	800.000	-0.010	0.031
-494.566	169.286	0.126	-0.182
-493.551	-21.362	0.183	-0.113
-492.537	-95.012	0.369	0.101
-491.522	-129.844	0.084	0.012
-490.508	363.522	-0.160	-0.325
-489.493	-200.000	-0.007	0.197
-488.478	33.998	-0.198	0.174
-487.464	-54.223	0.175	-0.080
-486.449	-200.000	-0.048	0.258
-485.435	183.330	-0.118	-0.176
-484.420	-200.000	0.008	0.179
-483.405	20.028	0.188	0.153
-482.391	-135.972	0.143	0.017
-481.376	-20.639	-0.027	-0.016
-480.362	-188.313	-0.203	0.003
-479.347	42.107	-0.094	0.086
-478.332	160.297	-0.179	-0.252
-477.318	17.458	-0.294	0.236
-476.303	800.000	-0.046	-0.180
-475.289	800.000	0.069	-0.222
-474.274	-70.083	-0.046	-0.018
-473.259	-200.000	0.001	-0.315
-472.245	-125.315	-0.155	0.024
-471.230	307.273	0.116	0.219
-470.216	250.980	-0.208	0.357
-469.201	402.660	0.072	0.152
-468.186	-42.858	0.155	0.079
-467.172	-109.195	0.036	0.008
-466.157	-133.098	0.375	0.048
-465.143	134.719	-0.166	0.218
-464.128	800.000	-0.057	0.166
-463.113	-141.645	-0.233	0.024
-462.099	-109.959	0.500	0.106
-461.084	577.302	-0.119	0.294
-460.070	-79.657	-0.236	-0.080
-459.055	110.498	0.254	-0.308
-458.040	-178.269	-0.429	0.010
-457.026	10.217	0.136	0.105
-456.011	27.012	-0.176	-0.149
-454.997	-51.787	0.314	0.148
-453.982	800.000	0.048	0.144
-452.968	-62.512	0.184	-0.077
-451.953	-102.862	-0.243	0.058
-450.938	-9.828	-0.170	-0.114
-449.924	209.619	0.206	-0.326
-448.909	472.685	-0.149	-0.338
-447.895	-200.000	-0.025	0.127
-446.880	-160.841	0.221	0.012
-445.865	182.487	-0.132	0.196
-444.851	68.712	0.157	-0.163
-443.836	105.922	0.112	-0.134
-442.822	-45.602	0.186	-0.093
-441.807	800.000	-0.022	0.066
-440.792	800.000	-0.011	0.046
-439.778	328.241	-0.078	-0.151
-438.763	-58.479	-0.123	-0.054
-437.749	-200.000	0.010	0.146
-436.734	-85.208	0.019	-0.006
-435.719	-32.593	0.099	0.055
-434.705	-200.000	0.010	-0.393
-433.690	267.932	-0.128	-0.227
-432.676	-113.748	0.381	0.075
-431.661	-116.499	0.141	-0.026
-430.646	315.769	-0.160	0.303
-429.632	400.945	0.052	0.110
-428.617	98.302	-0.076	0.088
-427.603	-200.000	0.053	0.263
-426.588	800.000	-0.084	-0.257
-425.573	-200.000	-0.014	0.087
-424.559	220.303	0.118	-0.191
-423.544	550.001	0.062	-0.149
-422.530	-157.835	-0.095	0.006
-421.515	-49.340	0.168	0.081
-420.500	-92.382	-0.219	-0.062
-419.486	-200.000	0.021	0.133
-418.471	-23.357	0.373	-0.226
-417.457	560.598	-0.159	0.387
-416.442	24.509	0.022	0.018
-415.428	800.000	0.042	-0.144
-414.413	51.812	-0.229	0.219
-413.398	-139.672	0.174	0.019
-412.384	-200.000	-0.056	0.416
-411.369	-26.103	-0.218	-0.129
-410.355	-200.000	0.040	-0.202
-409.340	800.000	-0.035	0.150
-408.325	-156.948	-0.264	-0.016
-407.311	-200.000	-0.015	-0.364
-406.296	-200.000	-0.034	0.155
-405.282	800.000	-0.068	0.223
-404.267	219.268	0.179	0.289
-403.252	51.490	0.116	0.111
-402.238	-200.000	-0.042	-0.237
-401.223	-200.000	0.326	0.002
-400.209	-200.000	-0.005	-0.353
-399.194	477.121	0.150	0.342
-398.179	-68.301	-0.191	0.075
-397.165	-159.239	0.369	-0.021
-396.150	-200.000	0.023	-0.327
-395.136	240.526	0.113	0.190
-394.121	-21.402	-0.070	0.043
-393.106	178.973	0.021	-0.031
-392.092	198.828	0.088	0.136
-391.077	-200.000	-0.015	0.095
-390.063	197.403	-0.075	-0.115
-389.048	204.661	0.181	-0.282
-388.033	800.000	0.103	0.317
-387.019	306.710	-0.070	0.132
-386.004	-82.898	0.116	0.038
-384.990	-200.000	-0.043	-0.232
-383.975	112.744	0.185	0.226
-382.960	-9.374	0.198	-0.133
-381.946	-4.858	-0.325	-0.225
-380.931	659.428	0.040	0.105
-379.917	47.188	-0.086	-0.081
-378.902	54.291	-0.230	0.223
-377.888	-200.000	-0.014	-0.068
-376.873	800.000	-0.057	-0.183
-375.858	800.000	0.044	0.166
-374.844	56.825	0.144	-0.141
-373.829	-16.290	-0.084	0.054
-372.815	800.000	0.034	0.102
-371.800	800.000	0.048	0.141
-370.785	-200.000	0.001	0.157
-369.771	-90.931	0.251	0.073
-368.756	-124.095	0.200	-0.032
-367.742	117.505	-0.106	0.131
-366.727	224.045	0.154	0.250
-365.712	-87.151	-0.151	0.046
-364.698	-30.332	-0.261	-0.149
-363.683	-137.152	0.013	-0.001
-362.669	225.162	-0.097	-0.158
-361.654	1.013	0.294	0.212
-360.639	52.467	-0.297	0.285
-359.625	15.136	0.359	0.283
-358.610	444.189	0.027	0.060
-357.596	13.001	-0.168	-0.130
-356.581	-200.000	0.040	0.216
-355.566	-72.191	0.248	0.093
-354.552	-200.000	0.044	0.269
-353.537	-77.211	-0.118	-0.041
-352.523	114.740	0.133	0.163
-351.508	-74.138	-0.217	-0.079
-350.493	-200.000	-0.029	0.344
-349.479	102.121	-0.170	-0.200
-348.464	-28.088	-0.016	-0.010
-347.450	40.462	-0.035	0.032
-346.435	71.820	-0.038	0.040
-345.420	-120.837	0.326	0.055
-344.406	-200.000	0.001	0.067
-343.391	-33.189	0.410	-0.228
-342.377	369.116	0.060	-0.123
-341.362	283.985	0.104	0.188
-340.348	-154.856	-0.263	-0.017
-339.333	-200.000	0.024	-0.176
-338.318	375.285	-0.119	0.245
-337.304	450.589	0.076	-0.168
-336.289	-200.000	-0.009	-0.102
-335.275	366.421	0.137	-0.278
-334.260	800.000	0.019	0.060
-333.245	-200.000	0.062	-0.286
-332.231	138.930	0.143	0.189
-331.216	-93.372	0.097	-0.027
-330.202	-109.752	-0.163	0.035
-329.187	-200.000	0.015	0.409
-328.172	-200.000	-0.034	-0.196
-327.158	800.000	0.083	-0.301
-326.143	281.596	-0.212	-0.381
-325.129	-200.000	0.047	-0.331
-324.114	367.347	-0.111	0.225
-323.099	-77.066	-0.170	0.060
-322.085	-200.000	0.022	0.117
-321.070	-200.000	-0.018	0.207
-320.056	-178.638	0.338	-0.008
-319.041	299.063	-0.093	-0.172
-318.026	-134.024	0.219	-0.027
-317.012	-160.194	-0.338	-0.018
-315.997	714.155	-0.045	0.119
-314.983	-200.000	-0.006	0.137
-313.968	800.000	-0.071	0.244
-312.953	-103.959	0.212	0.050
-311.939	104.558	-0.235	-0.278
-310.924	800.000	0.115	-0.469
-309.910	-200.000	-0.034	-0.198
-308.895	46.680	0.172	0.161
-307.880	770.846	-0.062	-0.170
-306.866	800.000	0.078	-0.281
-305.851	-76.814	-0.190	0.067
-304.837	697.290	-0.123	0.323
-303.822	-142.294	0.122	0.012
-302.807	-200.000	0.033	-0.232
-301.793	800.000	0.034	-0.122
-300.778	-153.712	0.192	0.013
-299.764	49.296	0.098	-0.093
-298.749	800.000	0.078	0.273
-297.735	212.592	0.120	-0.190
-296.720	91.713	0.165	0.186
-295.705	-69.735	-0.114	0.044
-294.691	139.929	0.151	0.200
-293.676	-200.000	-0.059	-0.526
-292.662	74.940	-0.206	-0.218
-291.647	-200.000	-0.065	-0.463
-290.632	285.663	-0.122	0.221
-289.618	800.000	0.056	-0.183
-288.603	-62.128	-0.179	-0.075
-287.589	-70.980	0.306	0.115
-286.574	-98.683	0.222	0.057
-285.559	-130.084	0.170	0.023
-284.545	-58.880	-0.301	0.131
-283.530	247.981	0.139	0.235
-282.516	800.000	0.070	-0.207
-281.501	199.730	0.207	0.318
-280.486	-12.936	0.187	0.122
-279.472	-159.398	-0.126	0.007
-278.457	-84.739	0.154	-0.049
-277.443	-119.294	-0.285	0.050
-276.428	100.174	-0.305	-0.354
-275.413	800.000	0.011	-0.033
-274.399	435.312	-0.046	-0.100
-273.384	-27.858	0.175	-0.101
-272.370	128.233	-0.267	0.340
-271.355	23.882	-0.047	0.039
-270.340	-181.299	-0.216	-0.004
-269.326	2.217	0.223	0.162
-268.311	-119.443	-0.094	0.016
-267.297	-2.875	0.133	0.093
-266.282	-11.727	0.463	-0.305
-265.267	222.238	-0.097	0.157
-264.253	318.144	-0.103	0.196
-263.238	-46.348	0.106	0.052
-262.224	11.085	-0.140	0.108
-261.209	-87.618	-0.046	0.014
-260.195	-154.610	-0.238	0.016
-259.180	-200.000	0.013	-0.173
-258.165	800.000	0.027	0.084
-257.151	800.000	-0.029	0.096
-256.136	-200.000	0.006	0.124
-255.122	55.973	0.284	0.276
-254.107	213.809	0.158	0.250
-253.092	-88.138	0.014	-0.004
-252.078	-200.000	0.025	-0.137
-251.063	-150.553	0.158	-0.012
-250.049	432.227	0.045	-0.098
-249.034	-200.000	-0.004	0.182
-248.019	57.224	0.180	0.176
-247.005	157.661	-0.074	-0.103
-245.990	-27.387	-0.237	0.138
-244.976	-109.634	0.162	0.034
-243.961	-105.417	0.125	0.029
-242.946	684.828	-0.117	0.307
-241.932	301.326	-0.122	0.225
-240.917	-63.051	0.063	0.026
-239.903	-109.746	-0.377	-0.079
-238.888	-162.862	-0.163	-0.008
-237.873	-53.656	-0.200	0.091
-236.859	47.311	0.163	-0.152
-235.844	334.626	0.214	0.415
-234.830	-200.000	0.059	0.319
-233.815	696.783	0.024	0.063
-232.800	28.120	0.110	-0.093
-231.786	268.569	0.164	-0.288
-230.771	-34.520	-0.212	-0.116
-229.757	653.397	0.010	-0.025
-228.742	31.248	-0.053	-0.046
-227.727	316.075	-0.088	0.165
-226.713	-200.000	-0.005	0.084
-225.698	-200.000	-0.025	0.121
-224.684	12.128	-0.025	-0.019
-223.669	105.754	-0.266	0.315
-222.655	74.489	0.027	-0.029
-221.640	46.972	0.136	0.127
-220.625	-59.530	-0.283	0.121
-219.611	-67.356	0.216	0.085
-218.596	-200.000	-0.008	-0.305
-217.582	243.928	-0.218	-0.366
-216.567	-106.114	0.155	0.035
-215.552	440.117	-0.089	0.195
-214.538	800.000	-0.052	-0.210
-213.523	416.259	-0.093	0.198
-212.509	-152.627	0.249	-0.018
-211.494	197.067	-0.215	0.329
-210.479	-200.000	-0.051	-0.272
-209.465	-200.000	0.024	0.115
-208.450	800.000	-0.088	-0.321
-207.436	114.650	-0.109	0.132
-206.421	-68.311	0.156	0.060
-205.406	-15.015	-0.060	-0.039
-204.392	501.058	-0.049	-0.113
-203.377	-158.920	-0.160	0.009
-202.363	-107.414	-0.139	0.031
-201.348	87.418	0.085	0.094
-200.333	20.130	-0.134	0.108
-199.319	-69.278	0.132	0.051
-198.304	-200.000	0.062	-0.288
-197.290	262.036	0.097	0.169
-196.275	-200.000	-0.034	-0.170
-195.260	-9.148	0.212	-0.142
-194.246	98.445	-0.234	-0.269
-193.231	-167.356	0.333	0.013
-192.217	-57.992	0.243	-0.106
-191.202	60.181	-0.118	-0.117
-190.187	-53.138	-0.270	-0.124
-189.173	800.000	0.052	0.157
-188.158	521.720	-0.054	-0.126
-187.144	-180.228	0.115	0.002
-186.129	800.000	0.090	0.264
-185.114	-200.000	-0.025	-0.254
-184.100	-200.000	-0.000	0.074
-183.085	-200.000	0.010	0.105
-182.071	180.055	0.072	0.105
-181.056	-200.000	-0.010	-0.076
-180.042	-61.010	-0.332	-0.140
-179.027	-200.000	0.014	-0.277
-178.012	-200.000	0.045	0.266
-176.998	-200.000	0.048	0.461
-175.983	134.747	-0.114	0.148
-174.969	-74.356	-0.338	-0.122
-173.954	-133.443	-0.272	0.034
-172.939	21.449	-0.117	-0.095
-171.925	-115.946	-0.110	-0.021
-170.910	-148.286	0.108	-0.009
-169.896	-106.380	0.323	-0.072
-168.881	-189.209	-0.085	-0.001
-167.866	-44.910	-0.214	0.106
-166.852	-39.795	0.035	-0.018
-165.837	-152.262	-0.227	0.016
-164.823	2.624	-0.140	0.101
-163.808	44.749	-0.203	-0.187
-162.793	150.737	-0.005	0.007
-161.779	-200.000	-0.036	0.173
-160.764	603.888	0.135	0.334
-159.750	-127.158	-0.336	0.049
-158.735	44.092	0.056	0.051
-157.720	251.051	0.115	-0.195
-156.706	-64.663	-0.019	0.008
-155.691	-200.000	-0.014	-0.088
-154.677	109.523	0.180	-0.215
-153.662	-150.808	-0.099	0.007
-152.647	-200.000	0.001	0.265
-151.633	-27.503	0.176	0.102
-150.618	440.963	-0.166	0.361
-149.604	-165.400	-0.121	-0.005
-148.589	-200.000	0.013	0.090
-147.574	276.087	0.115	0.204
-146.560	776.485	0.053	-0.144
-145.545	598.223	-0.048	0.118
-144.531	48.934	0.115	-0.108
-143.516	800.000	-0.072	0.243
-142.502	222.826	-0.168	0.270
-141.487	488.891	-0.083	0.189
-140.472	204.030	-0.081	-0.124
-139.458	56.456	0.152	-0.147
-138.443	-124.813	-0.231	0.036
-137.429	49.990	0.323	-0.303
-136.414	-64.561	-0.075	-0.031
-135.399	26.426	0.157	-0.131
-134.385	800.000	0.067	-0.199
-133.370	-31.186	-0.321	-0.180
-132.356	-8.207	-0.209	0.140
-131.341	31.872	0.267	-0.230
-130.326	-109.805	0.407	0.085
-129.312	-200.000	-0.045	0.255
-128.297	-120.285	0.139	-0.024
-127.283	800.000	0.023	0.097
-126.268	-1.776	-0.282	0.198
-125.253	-12.900	-0.151	-0.098
-124.239	-78.887	-0.197	0.067
-123.224	800.000	0.033	0.120
-122.210	30.402	0.220	-0.187
