DTS Sentinel unit serial number:	SN413079Multiplexer serial number:	ORYXHardware model number:	OX4-SRSoftware version number:	ORYX F/W v4.00 Oryx Data Collector v3.7.2.0data status	okinstallation	princeton_trtdifferential loss correction	single-endedforward channel	channel 4reverse channel	N/Adate	2019/09/13time	09:49:34forward acquisition time	60.00reverse acquisition time	0.00gamma	496.2192k internal	0.2311k external	0.2311temperature offset calibration	1.0188default loss term (dB/km)	0.3790temperature slope calibration	1.0000multiplexer offset coefficient	1.0000multiplexer slope coefficient	1.0000fibre end	0.00T internal ref (°C)	29.94T ext. ref 1 (°C)	4.46T ext. ref 2 (°C)	26.88length (m)	temperature (°C)	Stokes	anti-Stokes-747.200	-49.403	0.219	0.106
-746.185	708.848	-0.169	0.453
-745.171	274.392	-0.068	0.121
-744.156	85.315	-0.068	-0.076
-743.142	-77.279	0.026	0.009
-742.127	740.422	-0.076	0.208
-741.112	13.225	-0.316	0.249
-740.098	800.000	0.066	0.203
-739.083	-74.200	0.168	0.062
-738.069	-200.000	-0.024	0.157
-737.054	-30.836	-0.108	0.062
-736.039	35.282	-0.262	-0.233
-735.025	-53.180	0.215	-0.100
-734.010	-175.699	0.201	-0.005
-732.996	-123.566	-0.173	0.028
-731.981	-93.140	-0.123	-0.035
-730.966	-86.882	-0.178	0.055
-729.952	-53.294	-0.007	-0.003
-728.937	323.901	0.146	0.283
-727.923	-200.000	0.001	-0.066
-726.908	-54.822	0.338	0.155
-725.894	232.747	0.058	-0.096
-724.879	-200.000	0.043	-0.226
-723.864	-200.000	0.009	-0.217
-722.850	-200.000	0.004	-0.111
-721.835	800.000	0.054	-0.172
-720.821	55.830	-0.280	-0.275
-719.806	16.287	-0.189	-0.151
-718.791	-200.000	0.055	-0.314
-717.777	386.077	-0.060	0.126
-716.762	158.870	-0.184	0.259
-715.748	366.878	0.174	-0.355
-714.733	209.417	-0.021	0.033
-713.718	-97.007	-0.102	-0.027
-712.704	-6.946	-0.184	-0.126
-711.689	5.403	-0.163	-0.122
-710.675	-200.000	0.108	-0.534
-709.660	135.615	0.069	-0.091
-708.645	-200.000	0.009	0.168
-707.631	-47.219	0.249	-0.123
-706.616	112.070	-0.101	-0.124
-705.602	424.060	-0.081	0.178
-704.587	190.541	0.153	0.233
-703.572	-27.298	-0.329	0.194
-702.558	-200.000	-0.030	-0.246
-701.543	283.455	0.102	0.187
-700.529	277.480	-0.214	-0.386
-699.514	800.000	0.115	-0.505
-698.499	110.501	-0.139	0.169
-697.485	47.373	-0.113	0.107
-696.470	800.000	-0.065	-0.232
-695.456	155.500	0.224	-0.312
-694.441	124.814	-0.124	-0.158
-693.426	-200.000	-0.003	-0.043
-692.412	800.000	-0.023	0.084
-691.397	513.627	-0.078	-0.185
-690.383	-81.625	-0.247	-0.082
-689.368	454.512	-0.073	0.165
-688.354	-144.026	0.260	0.025
-687.339	-104.156	-0.163	0.038
-686.324	-177.103	0.200	-0.005
-685.310	143.190	0.039	0.052
-684.295	-67.561	0.154	-0.061
-683.281	-77.566	-0.559	-0.196
-682.266	-200.000	0.037	0.239
-681.251	88.527	0.133	0.150
-680.237	-11.261	-0.152	0.101
-679.222	-173.199	-0.143	0.004
-678.208	800.000	0.036	0.103
-677.193	-134.553	-0.258	0.032
-676.178	-93.781	-0.267	0.075
-675.164	800.000	0.027	0.093
-674.149	513.266	0.057	0.135
-673.135	160.911	0.144	-0.204
-672.120	800.000	-0.095	-0.273
-671.105	355.190	-0.021	-0.043
-670.091	-65.454	-0.071	0.029
-669.076	533.982	-0.107	-0.256
-668.062	-96.854	-0.080	-0.021
-667.047	800.000	0.007	-0.022
-666.032	644.139	-0.047	0.121
-665.018	-188.498	0.306	-0.004
-664.003	162.747	0.208	-0.296
-662.989	-62.397	-0.212	0.089
-661.974	800.000	-0.092	0.333
-660.959	33.872	-0.203	0.179
-659.945	640.464	-0.034	-0.089
-658.930	-75.406	-0.403	0.145
-657.916	526.214	-0.101	0.240
-656.901	800.000	0.085	-0.275
-655.886	-7.410	0.183	0.125
-654.872	42.492	-0.176	-0.162
-653.857	-186.072	0.049	0.001
-652.843	-76.215	0.195	0.070
-651.828	-200.000	-0.025	0.129
-650.814	-19.970	0.351	0.219
-649.799	-200.000	-0.029	-0.184
-648.784	-18.481	-0.057	0.036
-647.770	289.018	0.071	0.130
-646.755	800.000	-0.038	0.163
-645.741	-47.570	-0.335	-0.165
-644.726	560.584	-0.137	-0.335
-643.711	-55.998	-0.174	-0.078
-642.697	120.341	-0.051	-0.064
-641.682	-7.180	-0.324	-0.222
-640.668	-17.346	0.210	0.133
-639.653	505.187	0.024	0.057
-638.638	-200.000	-0.001	0.284
-637.624	-200.000	0.017	0.228
-636.609	-15.601	-0.122	0.079
-635.595	-142.446	0.435	0.043
-634.580	125.313	-0.180	0.230
-633.565	-145.099	0.152	-0.014
-632.551	149.858	0.278	0.382
-631.536	-200.000	0.015	0.271
-630.522	-200.000	-0.030	0.344
-629.507	245.041	-0.047	-0.080
-628.492	11.798	-0.044	0.034
-627.478	-200.000	0.098	-0.436
-626.463	124.059	-0.022	-0.028
-625.449	-200.000	0.033	-0.177
-624.434	-122.381	0.061	0.010
-623.419	29.763	-0.067	-0.058
-622.405	-142.604	-0.237	0.023
-621.390	-89.670	-0.075	0.022
-620.376	172.660	0.139	0.201
-619.361	-31.328	-0.266	0.151
-618.346	800.000	0.040	0.126
-617.332	147.073	0.101	0.137
-616.317	-60.193	0.581	0.250
-615.303	22.559	-0.214	0.177
-614.288	143.605	0.050	0.067
-613.273	800.000	0.030	0.084
-612.259	-66.132	0.121	0.049
-611.244	391.941	-0.016	0.033
-610.230	-200.000	-0.019	-0.109
-609.215	93.775	0.105	0.120
-608.201	-38.897	0.147	0.078
-607.186	800.000	-0.041	-0.176
-606.171	-72.267	-0.389	0.146
-605.157	52.997	0.141	-0.136
-604.142	9.985	0.011	-0.008
-603.128	111.691	-0.040	0.048
-602.113	-145.289	-0.104	0.009
-601.098	-81.126	0.119	-0.040
-600.084	-96.080	-0.376	-0.101
-599.069	-200.000	-0.028	-0.363
-598.055	-119.395	-0.139	0.024
-597.040	400.788	0.083	0.176
-596.025	276.730	-0.152	-0.273
-595.011	-102.415	0.072	0.017
-593.996	47.682	0.110	-0.104
-592.982	-52.814	-0.126	-0.059
-591.967	-35.589	-0.196	-0.107
-590.952	-200.000	-0.056	0.282
-589.938	31.460	0.060	0.052
-588.923	30.442	-0.082	-0.071
-587.909	237.278	0.213	-0.357
-586.894	-113.088	0.123	-0.024
-585.879	-200.000	-0.035	-0.218
-584.865	-122.923	-0.202	-0.033
-583.850	-200.000	-0.013	-0.286
-582.836	800.000	-0.045	0.171
-581.821	-200.000	-0.041	-0.186
-580.806	-100.000	0.070	0.018
-579.792	-40.079	-0.125	0.066
-578.777	-105.090	-0.407	0.094
-577.763	-97.121	0.310	0.082
-576.748	-98.436	0.060	0.015
-575.733	58.319	-0.195	0.193
-574.719	-200.000	0.010	0.136
-573.704	29.366	0.321	0.275
-572.690	-21.329	-0.235	0.145
-571.675	121.602	-0.034	-0.043
-570.661	-106.650	0.164	0.037
-569.646	29.650	-0.175	-0.150
-568.631	-200.000	0.023	0.250
-567.617	100.745	0.254	0.297
-566.602	173.770	-0.250	0.364
-565.588	-96.963	-0.320	-0.085
-564.573	746.535	-0.093	0.251
-563.558	222.887	-0.113	0.183
-562.544	-56.970	-0.137	0.061
-561.529	-1.135	-0.125	-0.089
-560.515	-200.000	-0.091	-0.457
-559.500	-128.250	0.091	-0.013
-558.485	-49.287	0.050	0.024
-557.471	19.540	-0.168	-0.137
-556.456	149.513	0.121	-0.165
-555.442	-179.789	0.157	-0.003
-554.427	399.818	-0.073	-0.153
-553.412	-128.323	0.068	0.010
-552.398	129.930	-0.169	0.218
-551.383	-76.969	0.062	0.022
-550.369	-122.263	0.212	0.035
-549.354	-200.000	-0.001	-0.011
-548.339	394.917	0.101	0.212
-547.325	-10.476	0.132	0.088
-546.310	-16.583	-0.170	0.109
-545.296	-57.858	0.186	0.082
-544.281	-35.326	-0.120	0.065
-543.266	-35.235	-0.222	-0.122
-542.252	-68.269	0.298	-0.117
-541.237	-22.743	0.052	0.031
-540.223	140.332	0.056	-0.075
-539.208	800.000	-0.044	0.130
-538.193	800.000	0.135	0.408
-537.179	800.000	-0.067	-0.193
-536.164	-200.000	-0.009	0.118
-535.150	107.551	0.086	-0.104
-534.135	476.131	0.039	0.088
-533.121	800.000	0.050	0.152
-532.106	301.588	-0.057	-0.107
-531.091	-172.605	-0.378	0.012
-530.077	-200.000	0.034	-0.295
-529.062	152.620	-0.150	0.206
-528.048	-7.921	-0.072	-0.049
-527.033	800.000	0.097	-0.373
-526.018	800.000	0.090	-0.387
-525.004	-101.235	0.172	0.042
-523.989	-47.424	-0.077	0.037
-522.975	338.453	0.058	0.113
-521.960	-29.598	-0.133	-0.077
-520.945	-200.000	-0.014	0.092
-519.931	-19.719	0.260	0.162
-518.916	-96.788	-0.195	0.052
-517.902	-80.059	-0.248	-0.084
-516.887	566.111	0.105	-0.256
-515.872	-68.843	-0.051	-0.020
-514.858	800.000	-0.155	0.584
-513.843	24.390	-0.170	-0.141
-512.829	2.049	-0.113	-0.082
-511.814	-117.660	0.303	-0.055
-510.799	108.140	0.107	0.129
-509.785	19.357	0.293	-0.237
-508.770	-200.000	0.006	-0.237
-507.756	630.010	0.084	0.214
-506.741	443.601	0.219	-0.483
-505.726	-15.895	0.181	-0.116
-504.712	800.000	0.062	0.219
-503.697	-200.000	-0.023	-0.170
-502.683	-200.000	0.069	0.367
-501.668	415.962	0.021	-0.045
-500.653	800.000	-0.080	-0.295
-499.639	800.000	0.072	0.231
-498.624	548.970	0.061	0.146
-497.610	346.607	0.045	-0.088
-496.595	-200.000	0.062	-0.399
-495.581	247.944	-0.206	0.349
-494.566	-48.780	-0.226	0.109
-493.551	268.778	-0.043	-0.076
-492.537	48.163	0.162	-0.152
-491.522	-33.585	0.195	-0.108
-490.508	-19.421	0.285	0.178
-489.493	-30.090	0.109	0.062
-488.478	-87.075	-0.308	0.094
-487.464	-34.275	0.121	0.067
-486.449	-200.000	0.010	-0.089
-485.435	-80.958	0.298	-0.099
-484.420	143.748	0.115	-0.154
-483.405	-152.820	-0.219	-0.016
-482.391	-110.376	0.302	-0.063
-481.376	703.720	0.018	-0.048
-480.362	-200.000	0.009	-0.217
-479.347	107.431	-0.098	-0.117
-478.332	-134.999	0.386	0.047
-477.318	-124.052	-0.207	-0.033
-476.303	-84.823	-0.067	0.021
-475.289	24.862	0.207	-0.172
-474.274	121.802	0.071	0.089
-473.259	-175.295	-0.071	-0.002
-472.245	27.723	-0.278	-0.235
-471.230	392.275	0.128	-0.266
-470.216	32.182	0.177	-0.153
-469.201	20.319	0.209	-0.170
-468.186	-200.000	0.012	-0.127
-467.172	-95.509	-0.049	0.013
-466.157	-48.027	-0.284	0.138
-465.143	-200.000	-0.013	-0.190
-464.128	-135.312	0.174	0.021
-463.113	57.842	-0.164	-0.161
-462.099	205.289	-0.076	0.119
-461.084	17.566	-0.185	-0.147
-460.070	67.249	-0.115	-0.118
-459.055	-200.000	-0.002	0.094
-458.040	-25.066	-0.228	-0.136
-457.026	-166.268	0.153	0.007
-456.011	-19.792	0.095	0.059
-454.997	-46.751	-0.068	0.033
-453.982	108.461	-0.044	0.052
-452.968	11.982	-0.320	0.247
-451.953	276.739	0.096	0.171
-450.938	275.071	0.070	-0.125
-449.924	800.000	0.043	-0.139
-448.909	144.381	-0.078	0.105
-447.895	-93.597	0.319	-0.089
-446.880	-19.926	-0.086	0.053
-445.865	96.967	-0.011	0.013
-444.851	-14.184	-0.044	0.029
-443.836	207.368	-0.040	0.063
-442.822	-51.910	0.089	-0.042
-441.807	96.062	0.199	0.228
-440.792	800.000	-0.061	-0.193
-439.778	-80.988	-0.348	-0.115
-438.763	-161.242	-0.278	0.015
-437.749	-200.000	-0.047	0.238
-436.734	167.917	-0.129	0.183
-435.719	-67.354	0.218	-0.086
-434.705	-174.818	-0.314	0.009
-433.690	-57.250	-0.321	0.142
-432.676	86.257	-0.115	0.127
-431.661	-200.000	-0.020	-0.130
-430.646	-150.319	0.305	0.024
-429.632	-80.488	-0.123	-0.041
-428.617	223.557	-0.032	0.052
-427.603	-8.053	-0.100	0.068
-426.588	770.406	0.060	0.164
-425.573	-133.951	0.162	-0.020
-424.559	114.835	-0.101	-0.123
-423.544	78.012	-0.158	-0.169
-422.530	-200.000	0.000	0.243
-421.515	-102.867	-0.128	-0.030
-420.500	-137.344	0.196	-0.022
-419.486	397.951	-0.038	0.080
-418.471	738.608	-0.075	-0.202
-417.457	-60.070	-0.061	-0.026
-416.442	161.336	-0.217	0.304
-415.428	-138.519	0.097	-0.011
-414.413	-158.206	0.473	0.028
-413.398	800.000	-0.029	-0.103
-412.384	-200.000	-0.028	-0.230
-411.369	-82.769	-0.150	-0.049
-410.355	-55.993	-0.206	0.092
-409.340	52.118	-0.087	0.083
-408.325	-0.777	0.122	-0.086
-407.311	8.156	-0.126	-0.095
-406.296	-200.000	0.018	0.421
-405.282	321.440	-0.066	0.126
-404.267	-153.496	-0.248	-0.017
-403.252	-65.158	0.164	-0.066
-402.238	-173.212	-0.169	0.005
-401.223	-60.406	0.111	-0.047
-400.209	-14.084	-0.165	-0.107
-399.194	-162.753	-0.254	-0.012
-398.179	92.378	-0.126	-0.142
-397.165	-67.144	0.080	-0.031
-396.150	96.044	-0.119	-0.136
-395.136	-47.646	0.144	-0.070
-394.121	800.000	-0.164	-0.469
-393.106	-44.432	0.111	-0.055
-392.092	66.844	0.167	-0.170
-391.077	-200.000	-0.014	0.679
-390.063	-27.286	0.027	-0.016
-389.048	89.463	0.132	0.147
-388.033	800.000	-0.124	0.455
-387.019	51.500	0.396	-0.377
-386.004	-68.204	0.330	0.128
-384.990	-169.323	0.370	-0.014
-383.975	648.231	0.132	-0.337
-382.960	-95.237	0.142	0.038
-381.946	63.815	0.046	-0.047
-380.931	-200.000	-0.023	0.181
-379.917	48.777	0.204	0.192
-378.902	-52.229	-0.163	-0.076
-377.888	-18.240	0.270	-0.169
-376.873	30.258	-0.196	0.167
-375.858	406.222	0.056	0.118
-374.844	-85.222	-0.185	-0.058
-373.829	-73.537	0.143	0.052
-372.815	-126.776	0.191	0.028
-371.800	-108.351	0.278	-0.060
-370.785	-200.000	0.005	0.263
-369.771	0.820	0.245	-0.175
-368.756	36.954	0.124	0.110
-367.742	79.508	-0.130	0.140
-366.727	347.186	0.068	0.133
-365.712	-65.747	-0.216	0.087
-364.698	254.287	0.020	0.034
-363.683	652.377	-0.109	0.280
-362.669	-200.000	0.025	-0.297
-361.654	415.735	-0.081	-0.172
-360.639	-75.984	0.120	0.042
-359.625	-132.099	0.189	0.025
-358.610	147.552	-0.172	0.232
-357.596	-57.732	0.120	-0.053
-356.581	390.771	0.181	-0.375
-355.566	800.000	0.039	0.127
-354.552	172.087	-0.125	0.179
-353.537	-130.563	-0.141	-0.019
-352.523	-80.623	-0.122	-0.041
-351.508	82.203	-0.080	-0.087
-350.493	-105.663	-0.213	0.048
-349.479	800.000	0.134	-0.375
-348.464	-200.000	-0.038	-0.233
-347.450	-94.984	0.364	-0.098
-346.435	-74.174	0.224	0.081
-345.420	-200.000	-0.022	-0.241
-344.406	800.000	0.086	-0.277
-343.391	-39.057	-0.052	0.027
-342.377	-4.878	0.213	0.147
-341.362	212.890	0.151	-0.238
-340.348	158.223	-0.110	0.152
-339.333	208.897	0.031	0.048
-338.318	10.676	-0.066	-0.051
-337.304	-145.550	0.215	-0.019
-336.289	800.000	0.032	0.092
-335.275	412.466	0.098	0.208
-334.260	-26.485	-0.183	-0.107
-333.245	333.609	0.075	-0.146
-332.231	-200.000	-0.002	0.062
-331.216	247.977	-0.143	0.242
-330.202	401.249	0.012	0.026
-329.187	-45.111	0.170	0.084
-328.172	462.045	-0.101	0.225
-327.158	53.672	-0.053	0.051
-326.143	-45.984	-0.093	-0.046
-325.129	105.423	0.175	-0.206
-324.114	114.328	-0.218	-0.265
-323.099	-78.691	-0.179	-0.061
-322.085	800.000	0.052	-0.178
-321.070	-100.521	0.302	0.075
-320.056	113.928	-0.280	-0.340
-319.041	-200.000	0.012	-0.184
-318.026	338.607	0.057	-0.112
-317.012	452.903	-0.038	-0.083
-315.997	71.496	0.201	-0.209
-314.983	27.069	-0.116	0.097
-313.968	200.525	-0.111	-0.171
-312.953	-28.825	-0.048	0.028
-311.939	98.669	-0.154	0.177
-310.924	-200.000	-0.014	0.156
-309.910	-103.683	-0.203	0.047
-308.895	326.736	-0.142	0.272
-307.880	76.384	0.253	-0.267
-306.866	193.244	0.105	0.159
-305.851	-77.493	0.146	-0.050
-304.837	752.130	0.128	-0.345
-303.822	175.746	-0.067	-0.097
-302.807	-76.502	-0.063	0.022
-301.793	-19.317	0.222	0.137
-300.778	-162.124	-0.062	0.003
-299.764	-5.656	-0.026	-0.018
-298.749	800.000	-0.120	-0.501
-297.735	-188.310	0.317	0.004
-296.720	-75.788	-0.099	-0.035
-295.705	-127.172	0.137	0.020
-294.691	-45.245	-0.047	0.023
-293.676	44.694	-0.338	-0.310
-292.662	-142.748	0.145	-0.014
-291.647	-115.370	-0.111	-0.021
-290.632	-31.696	0.181	0.101
-289.618	53.853	-0.066	0.063
-288.603	-34.528	0.168	0.092
-287.589	119.994	0.066	-0.082
-286.574	97.170	-0.215	0.246
-285.559	-173.062	-0.174	-0.005
-284.545	-200.000	-0.018	0.356
-283.530	-61.974	0.028	0.012
-282.516	-36.396	0.309	-0.166
-281.501	-107.608	0.275	-0.060
-280.486	-69.404	-0.170	-0.065
-279.472	40.806	-0.170	-0.153
-278.457	-11.856	-0.447	-0.292
-277.443	-200.000	0.002	-0.036
-276.428	-200.000	-0.033	0.395
-275.413	385.140	0.089	-0.184
-274.399	-51.407	-0.243	0.113
-273.384	-94.527	-0.099	0.027
-272.370	800.000	0.064	0.190
-271.355	8.101	-0.100	-0.075
-270.340	-200.000	-0.020	0.284
-269.326	-30.226	-0.274	0.155
-268.311	-49.662	-0.063	0.030
-267.297	35.718	-0.071	0.062
-266.282	29.988	-0.090	-0.077
-265.267	-200.000	-0.025	0.311
-264.253	-200.000	0.007	0.345
-263.238	-165.307	0.210	0.009
-262.224	-148.951	-0.209	-0.017
-261.209	-119.057	-0.212	-0.037
-260.195	-200.000	0.046	0.241
-259.180	-131.662	0.282	0.037
-258.165	800.000	-0.062	0.174
-257.151	-150.239	0.452	-0.035
-256.136	-115.951	-0.219	0.041
-255.122	-200.000	0.063	0.331
-254.107	216.581	0.316	0.501
-253.092	-152.424	-0.114	0.008
-252.078	800.000	-0.010	-0.044
-251.063	-200.000	-0.033	0.175
-250.049	-200.000	0.032	-0.401
-249.034	621.118	-0.016	0.040
-248.019	77.617	-0.068	-0.072
-247.005	-200.000	-0.023	0.360
-245.990	-200.000	-0.058	-0.314
-244.976	-94.215	0.176	-0.048
-243.961	192.739	0.121	0.182
-242.946	483.437	0.086	-0.194
-241.932	800.000	-0.042	0.170
-240.917	29.877	0.073	-0.062
-239.903	6.403	-0.151	0.112
-238.888	-62.862	-0.156	0.064
-237.873	-150.675	-0.094	-0.007
-236.859	168.408	-0.180	-0.255
-235.844	-78.861	0.181	-0.061
-234.830	463.177	-0.081	0.180
-233.815	62.817	0.139	-0.138
-232.800	-24.601	-0.017	-0.010
-231.786	-200.000	0.025	-0.124
-230.771	-118.788	-0.274	-0.048
-229.757	800.000	-0.090	-0.300
-228.742	63.986	0.187	0.188
-227.727	-26.028	-0.431	0.252
-226.713	-93.017	0.127	-0.035
-225.698	800.000	0.043	-0.177
-224.684	-200.000	-0.056	0.308
-223.669	240.993	0.125	-0.208
-222.655	-131.554	-0.320	0.042
-221.640	-21.689	0.074	0.045
-220.625	-200.000	0.008	0.147
-219.611	-200.000	0.013	0.225
-218.596	-58.978	-0.148	-0.063
-217.582	800.000	-0.031	-0.127
-216.567	800.000	-0.007	-0.030
-215.552	-200.000	0.010	-0.142
-214.538	5.070	0.198	0.145
-213.523	800.000	0.085	0.259
-212.509	122.669	0.022	-0.028
-211.494	-200.000	-0.024	0.203
-210.479	352.604	-0.057	-0.112
-209.465	323.263	0.121	-0.230
-208.450	235.141	-0.193	-0.316
-207.436	184.089	0.110	0.161
-206.421	800.000	-0.033	0.109
-205.406	-183.284	-0.197	-0.003
-204.392	-17.112	0.413	0.259
-203.377	-5.478	0.035	0.024
-202.363	-81.782	0.053	-0.017
-201.348	12.533	-0.093	0.071
-200.333	-25.539	-0.190	0.112
-199.319	-145.164	0.309	0.028
-198.304	75.299	-0.322	-0.337
-197.290	-200.000	-0.006	0.176
-196.275	293.086	-0.059	0.106
-195.260	-91.375	-0.173	-0.049
-194.246	688.544	0.123	-0.319
-193.231	-200.000	0.043	-0.562
-192.217	-109.630	0.076	-0.016
-191.202	-12.091	-0.180	-0.117
-190.187	-200.000	-0.009	-0.338
-189.173	-200.000	-0.086	0.000
-188.158	-36.146	0.330	-0.177
-187.144	-96.039	0.189	-0.050
-186.129	-156.954	0.261	0.016
-185.114	800.000	-0.083	0.331
-184.100	67.411	-0.115	-0.116
-183.085	-9.211	0.222	-0.148
-182.071	-147.800	0.296	-0.025
-181.056	-72.884	0.230	-0.084
-180.042	145.368	-0.255	0.339
-179.027	-164.593	-0.164	0.007
-178.012	-17.465	-0.022	-0.014
-176.998	-118.509	-0.077	0.014
-175.983	800.000	0.093	0.266
-174.969	-51.174	0.212	0.099
-173.954	-200.000	0.005	0.025
-172.939	-200.000	0.063	-0.302
-171.925	433.535	-0.088	0.189
-170.910	453.446	0.133	0.291
-169.896	150.652	-0.158	-0.213
-168.881	342.087	-0.089	0.174
-167.866	-59.789	-0.164	0.070
-166.852	-82.117	0.155	-0.050
-165.837	-200.000	-0.002	-0.010
-164.823	-8.929	-0.128	-0.085
-163.808	-45.923	-0.111	-0.054
-162.793	-110.876	-0.139	-0.028
-161.779	253.217	0.150	-0.254
-160.764	-125.367	0.201	-0.030
-159.750	800.000	0.057	-0.174
-158.735	204.645	0.104	-0.160
-157.720	-200.000	0.019	-0.188
-156.706	-200.000	-0.008	-0.044
-155.691	5.842	-0.067	0.049
-154.677	-141.782	0.159	0.016
-153.662	-39.106	0.379	0.198
-152.647	-128.496	-0.242	-0.034
-151.633	47.904	-0.110	-0.102
-150.618	-200.000	0.010	-0.058
-149.604	314.913	0.173	-0.323
-148.589	-200.000	-0.005	-0.132
-147.574	349.819	-0.052	0.101
-146.560	709.883	-0.126	0.330
-145.545	-186.381	0.094	-0.001
-144.531	62.790	-0.051	0.050
-143.516	-133.256	0.360	0.045
-142.502	192.423	0.172	0.258
-141.487	-159.308	0.160	0.009
-140.472	47.555	-0.184	0.170
-139.458	390.454	-0.086	-0.178
-138.443	-39.479	0.089	0.046
-137.429	-22.634	-0.157	0.094
-136.414	14.924	0.163	0.126
-135.399	196.960	0.114	0.172
-134.385	-200.000	-0.014	0.183
-133.370	-143.873	-0.209	-0.020
-132.356	800.000	-0.027	0.075
-131.341	-164.182	-0.204	-0.009
-130.326	97.128	0.219	0.249
-129.312	98.524	-0.160	-0.182
-128.297	800.000	-0.017	0.055
-127.283	177.418	0.106	-0.153
-126.268	800.000	-0.091	0.306
-125.253	-20.874	-0.126	0.076
-124.239	68.916	-0.214	-0.218
-123.224	20.071	-0.203	0.163
-122.210	-7.749	-0.312	0.209
