DTS Sentinel unit serial number:	SN413079Multiplexer serial number:	ORYXHardware model number:	OX4-SRSoftware version number:	ORYX F/W v4.00 Oryx Data Collector v3.7.2.0data status	okinstallation	princeton_trtdifferential loss correction	single-endedforward channel	channel 4reverse channel	N/Adate	2019/09/16time	18:41:35forward acquisition time	60.00reverse acquisition time	0.00gamma	496.2192k internal	0.2303k external	0.2303temperature offset calibration	0.9965default loss term (dB/km)	0.3790temperature slope calibration	1.0000multiplexer offset coefficient	1.0000multiplexer slope coefficient	1.0000fibre end	0.00T internal ref (°C)	36.25T ext. ref 1 (°C)	0.05T ext. ref 2 (°C)	29.68length (m)	temperature (°C)	Stokes	anti-Stokes-747.200	-53.188	0.103	0.048
-746.185	-200.000	0.021	0.127
-745.171	-49.448	0.237	0.115
-744.156	18.819	0.191	0.156
-743.142	0.926	0.318	0.232
-742.127	-200.000	0.052	0.332
-741.112	-47.918	0.191	-0.094
-740.098	512.285	0.031	0.073
-739.083	556.354	0.008	0.019
-738.069	-133.976	0.354	0.045
-737.054	-33.626	-0.140	-0.078
-736.039	341.052	-0.173	-0.344
-735.025	-200.000	0.027	-0.355
-734.010	11.592	-0.183	0.143
-732.996	-149.296	-0.289	0.023
-731.981	-89.480	-0.400	-0.120
-730.966	336.021	0.135	-0.266
-729.952	-15.291	-0.285	-0.185
-728.937	133.358	0.032	-0.041
-727.923	-104.219	0.479	-0.113
-726.908	-54.399	0.477	-0.220
-725.894	-31.231	-0.467	0.268
-724.879	-200.000	0.076	0.441
-723.864	-150.776	-0.159	-0.012
-722.850	-60.072	0.225	-0.098
-721.835	335.753	0.063	-0.124
-720.821	-84.486	0.126	0.040
-719.806	-4.462	0.316	0.222
-718.791	-12.305	-0.150	-0.100
-717.777	-157.139	-0.168	-0.010
-716.762	113.503	-0.140	-0.173
-715.748	-200.000	0.049	-0.247
-714.733	599.191	0.019	0.048
-713.718	322.384	-0.147	-0.285
-712.704	-86.919	-0.376	-0.117
-711.689	-132.756	-0.122	0.016
-710.675	-45.906	0.443	0.222
-709.660	-140.716	0.277	-0.029
-708.645	-5.938	-0.221	-0.154
-707.631	240.684	-0.017	-0.030
-706.616	222.672	0.037	-0.061
-705.602	-176.302	-0.325	-0.009
-704.587	401.840	0.091	0.193
-703.572	-200.000	-0.005	-0.159
-702.558	-200.000	-0.043	0.427
-701.543	-160.277	0.257	-0.014
-700.529	684.220	-0.048	0.129
-699.514	-112.946	-0.277	0.056
-698.499	-59.289	-0.172	-0.075
-697.485	-78.721	-0.231	-0.080
-696.470	-146.940	-0.238	0.021
-695.456	-196.057	-0.185	0.001
-694.441	58.829	-0.159	-0.159
-693.426	-200.000	0.025	0.302
-692.412	-100.356	-0.350	0.088
-691.397	139.763	-0.081	-0.108
-690.383	-68.368	0.115	0.046
-689.368	624.830	0.071	-0.181
-688.354	776.423	-0.134	-0.372
-687.339	23.862	-0.202	-0.169
-686.324	-75.147	0.377	0.137
-685.310	39.870	-0.279	0.255
-684.295	-95.459	-0.145	-0.040
-683.281	231.501	0.175	0.291
-682.266	295.551	0.067	0.124
-681.251	-153.505	-0.135	0.009
-680.237	-200.000	-0.050	-0.305
-679.222	-200.000	0.013	0.107
-678.208	800.000	-0.073	-0.252
-677.193	-90.495	0.139	-0.041
-676.178	-9.544	-0.118	0.080
-675.164	21.459	0.303	-0.250
-674.149	770.518	0.044	-0.123
-673.135	800.000	-0.106	0.329
-672.120	-163.260	0.081	-0.004
-671.105	-113.108	0.038	-0.008
-670.091	672.371	-0.047	-0.124
-669.076	298.669	-0.135	-0.252
-668.062	-173.197	-0.017	-0.001
-667.047	-200.000	-0.047	0.348
-666.032	68.186	-0.234	0.243
-665.018	-192.360	0.045	0.000
-664.003	438.109	0.083	-0.183
-662.989	40.257	0.193	-0.177
-661.974	-43.593	0.290	-0.148
-660.959	-25.169	-0.156	0.094
-659.945	-14.967	0.207	-0.135
-658.930	162.177	0.252	-0.358
-657.916	741.150	-0.211	-0.577
-656.901	253.938	0.044	0.077
-655.886	47.496	-0.152	-0.144
-654.872	-132.589	0.035	0.005
-653.857	19.640	0.219	0.179
-652.843	-88.593	-0.034	-0.010
-651.828	-33.101	0.072	0.041
-650.814	439.563	-0.197	0.436
-649.799	51.334	0.166	-0.160
-648.784	-111.791	0.086	-0.018
-647.770	800.000	0.037	-0.124
-646.755	160.590	-0.067	0.095
-645.741	-44.741	0.107	0.054
-644.726	800.000	-0.080	-0.321
-643.711	79.551	0.231	-0.251
-642.697	98.562	-0.061	-0.072
-641.682	800.000	-0.016	0.072
-640.668	212.380	-0.101	0.162
-639.653	-16.875	-0.083	-0.053
-638.638	800.000	-0.094	-0.276
-637.624	-64.543	-0.041	-0.017
-636.609	-188.364	0.092	0.001
-635.595	309.484	-0.111	-0.210
-634.580	32.628	0.095	-0.084
-633.565	-64.269	0.075	-0.031
-632.551	120.665	0.118	0.148
-631.536	800.000	0.080	-0.224
-630.522	10.755	0.436	-0.337
-629.507	213.602	0.088	-0.142
-628.492	-86.711	-0.297	0.092
-627.478	-200.000	0.003	-0.206
-626.463	-121.959	0.092	-0.015
-625.449	800.000	0.091	0.257
-624.434	-35.329	0.392	0.216
-623.419	62.781	-0.212	-0.215
-622.405	425.948	-0.217	-0.475
-621.390	-30.362	-0.170	-0.098
-620.376	-57.106	0.402	-0.180
-619.361	-123.651	-0.167	0.027
-618.346	800.000	0.028	-0.116
-617.332	-200.000	0.008	0.114
-616.317	774.883	0.060	-0.165
-615.303	-3.286	-0.169	-0.119
-614.288	-1.930	-0.108	0.077
-613.273	800.000	0.030	-0.105
-612.259	106.504	-0.214	0.257
-611.244	-90.450	-0.140	-0.041
-610.230	110.788	0.135	-0.164
-609.215	101.393	-0.161	0.190
-608.201	-97.944	-0.353	0.092
-607.186	-31.904	0.283	-0.161
-606.171	191.021	0.076	0.115
-605.157	-43.643	-0.036	0.018
-604.142	800.000	0.031	0.130
-603.128	-68.111	0.171	-0.067
-602.113	800.000	0.091	-0.308
-601.098	-77.225	-0.230	-0.081
-600.084	-99.755	-0.396	0.100
-599.069	11.828	-0.109	-0.085
-598.055	-200.000	0.058	-0.307
-597.040	-87.578	0.131	0.040
-596.025	30.060	-0.154	-0.133
-595.011	-143.968	-0.134	0.013
-593.996	-50.317	0.124	-0.059
-592.982	-138.111	0.184	0.021
-591.967	491.284	0.036	-0.084
-590.952	280.066	-0.060	-0.109
-589.938	-118.427	0.263	0.047
-588.923	230.198	0.154	0.255
-587.909	-200.000	-0.016	-0.220
-586.894	800.000	0.126	-0.362
-585.879	50.201	-0.270	-0.258
-584.865	-115.247	0.081	-0.016
-583.850	-200.000	-0.078	-0.459
-582.836	-200.000	-0.008	-0.363
-581.821	69.224	0.203	-0.211
-580.806	-200.000	0.016	0.122
-579.792	-200.000	0.022	0.382
-578.777	-200.000	-0.002	-0.047
-577.763	800.000	0.069	-0.284
-576.748	-200.000	0.086	0.397
-575.733	339.711	-0.077	0.152
-574.719	-65.880	0.140	0.057
-573.704	-134.856	-0.261	-0.032
-572.690	-36.659	-0.091	-0.049
-571.675	-67.390	0.212	0.084
-570.661	-200.000	0.020	0.166
-569.646	-200.000	0.025	-0.116
-568.631	800.000	0.028	-0.091
-567.617	-200.000	0.018	0.303
-566.602	59.389	-0.097	0.097
-565.588	-41.280	0.089	0.046
-564.573	417.073	0.132	-0.284
-563.558	-53.911	-0.183	-0.085
-562.544	-200.000	-0.011	0.218
-561.529	800.000	0.074	0.235
-560.515	-126.713	-0.186	0.028
-559.500	-158.997	-0.196	0.011
-558.485	613.144	-0.067	0.169
-557.471	32.474	0.102	0.089
-556.456	-7.377	0.228	-0.156
-555.442	-75.017	-0.127	0.046
-554.427	-49.430	0.262	-0.126
-553.412	-13.276	0.220	-0.144
-552.398	-70.616	0.183	-0.070
-551.383	-126.565	-0.454	-0.068
-550.369	245.895	-0.154	-0.262
-549.354	273.817	-0.186	-0.332
-548.339	-136.336	0.230	-0.027
-547.325	51.126	-0.143	-0.138
-546.310	259.146	-0.024	0.041
-545.296	200.561	0.033	-0.052
-544.281	-63.514	-0.331	0.138
-543.266	674.592	-0.129	-0.338
-542.252	67.961	-0.223	0.231
-541.237	800.000	0.131	0.387
-540.223	228.324	0.068	-0.113
-539.208	-200.000	0.002	-0.125
-538.193	622.640	0.051	0.129
-537.179	135.112	-0.222	0.291
-536.164	-11.532	0.378	0.251
-535.150	1.121	0.135	-0.098
-534.135	364.474	0.078	0.159
-533.121	-39.748	0.251	-0.132
-532.106	-30.646	0.137	-0.078
-531.091	800.000	0.029	0.119
-530.077	-200.000	-0.003	-0.314
-529.062	-172.528	-0.153	0.005
-528.048	-44.514	0.349	0.176
-527.033	-58.535	0.179	-0.078
-526.018	-200.000	-0.036	-0.256
-525.004	-77.425	0.107	0.038
-523.989	800.000	-0.046	-0.195
-522.975	-200.000	-0.001	0.070
-521.960	66.183	-0.152	0.156
-520.945	800.000	0.043	0.132
-519.931	273.751	0.084	0.150
-518.916	-187.235	-0.088	-0.001
-517.902	221.608	-0.161	-0.262
-516.887	800.000	-0.076	-0.251
-515.872	800.000	-0.047	0.155
-514.858	19.304	0.250	-0.203
-513.843	47.327	-0.199	0.187
-512.829	-63.402	0.159	0.066
-511.814	-40.748	-0.129	-0.067
-510.799	-69.073	-0.038	-0.015
-509.785	766.265	0.042	0.115
-508.770	-200.000	0.060	0.351
-507.756	-2.367	0.067	0.047
-506.741	616.159	-0.106	0.267
-505.726	-119.860	-0.161	0.028
-504.712	800.000	0.070	-0.202
-503.697	-64.781	0.295	0.121
-502.683	-200.000	0.018	-0.209
-501.668	-5.627	0.396	0.274
-500.653	-200.000	0.000	-0.055
-499.639	140.540	0.088	-0.117
-498.624	-64.706	-0.289	0.118
-497.610	800.000	0.019	0.060
-496.595	-39.230	0.163	0.086
-495.581	-54.357	0.297	-0.136
-494.566	308.110	0.096	-0.180
-493.551	-22.123	0.257	-0.157
-492.537	-86.130	0.185	-0.058
-491.522	-114.694	-0.323	-0.062
-490.508	800.000	0.066	-0.227
-489.493	-125.558	-0.347	0.053
-488.478	-16.781	0.234	0.149
-487.464	-38.180	0.141	-0.075
-486.449	-52.683	-0.314	-0.146
-485.435	51.310	0.202	0.193
-484.420	290.515	0.165	0.303
-483.405	800.000	0.037	0.113
-482.391	-200.000	-0.079	0.367
-481.376	-200.000	-0.037	-0.187
-480.362	203.100	-0.035	-0.054
-479.347	141.957	0.092	0.123
-478.332	-127.211	-0.048	0.007
-477.318	-40.779	0.176	0.092
-476.303	-122.114	0.247	0.041
-475.289	-10.284	0.145	0.097
-474.274	-69.537	-0.109	0.042
-473.259	-200.000	-0.032	0.196
-472.245	800.000	0.046	0.176
-471.230	-151.450	-0.116	0.009
-470.216	800.000	-0.025	-0.071
-469.201	-32.500	0.402	0.226
-468.186	-95.358	-0.127	0.034
-467.172	800.000	0.052	-0.151
-466.157	-200.000	0.058	0.302
-465.143	-52.471	-0.053	-0.025
-464.128	800.000	-0.041	0.151
-463.113	-115.369	-0.244	-0.046
-462.099	800.000	0.119	-0.331
-461.084	764.497	-0.122	0.333
-460.070	-200.000	-0.026	0.127
-459.055	-200.000	0.003	-0.098
-458.040	-200.000	0.017	-0.234
-457.026	66.361	0.166	-0.170
-456.011	340.408	-0.142	-0.278
-454.997	-42.692	0.198	0.102
-453.982	-108.267	0.119	-0.026
-452.968	27.233	0.163	-0.138
-451.953	276.150	-0.118	0.211
-450.938	-44.567	-0.084	-0.042
-449.924	-43.895	-0.309	-0.156
-448.909	-80.711	-0.083	-0.028
-447.895	-85.619	0.118	-0.037
-446.880	288.367	0.248	-0.451
-445.865	409.721	-0.072	-0.153
-444.851	-143.719	0.103	0.010
-443.836	-23.552	-0.106	-0.064
-442.822	4.308	-0.287	0.212
-441.807	-88.331	0.153	0.046
-440.792	-136.592	0.200	0.023
-439.778	-144.445	0.109	0.010
-438.763	7.823	-0.124	0.093
-437.749	-25.132	-0.068	-0.041
-436.734	-126.156	0.043	-0.006
-435.719	161.888	-0.179	0.253
-434.705	94.428	0.177	-0.203
-433.690	447.613	0.035	0.078
-432.676	143.495	-0.073	-0.098
-431.661	-200.000	-0.026	-0.454
-430.646	800.000	-0.063	0.192
-429.632	800.000	0.085	0.334
-428.617	-133.511	-0.178	0.022
-427.603	800.000	-0.062	0.256
-426.588	129.518	-0.177	0.227
-425.573	-200.000	0.069	0.385
-424.559	-111.889	-0.363	-0.074
-423.544	-65.841	0.116	-0.047
-422.530	800.000	0.131	0.387
-421.515	-200.000	-0.010	-0.159
-420.500	34.816	-0.107	-0.094
-419.486	115.442	0.108	-0.132
-418.471	48.562	0.056	-0.053
-417.457	-16.456	0.224	-0.143
-416.442	72.438	0.240	-0.252
-415.428	41.927	-0.336	0.307
-414.413	419.401	-0.064	-0.138
-413.398	-200.000	0.005	0.239
-412.384	165.163	-0.100	-0.141
-411.369	-38.170	-0.184	-0.098
-410.355	212.251	-0.248	0.393
-409.340	128.229	0.035	0.045
-408.325	-200.000	0.007	0.050
-407.311	115.680	0.143	0.176
-406.296	-88.843	-0.147	0.044
-405.282	-200.000	0.037	-0.256
-404.267	-200.000	0.041	0.313
-403.252	-82.559	0.497	0.162
-402.238	446.448	-0.132	-0.292
-401.223	22.825	-0.142	-0.117
-400.209	41.622	-0.182	0.166
-399.194	262.115	0.243	-0.423
-398.179	180.398	0.072	0.106
-397.165	800.000	-0.121	-0.516
-396.150	-200.000	0.020	0.203
-395.136	800.000	-0.035	-0.099
-394.121	-200.000	0.005	0.106
-393.106	-200.000	-0.043	0.308
-392.092	118.694	-0.041	0.050
-391.077	-34.820	-0.063	-0.034
-390.063	800.000	0.086	-0.261
-389.048	-172.847	0.398	0.012
-388.033	-200.000	-0.006	-0.118
-387.019	-200.000	-0.013	-0.140
-386.004	-58.807	-0.251	-0.109
-384.990	486.946	0.157	0.361
-383.975	-60.013	0.215	0.092
-382.960	-54.480	-0.288	0.131
-381.946	-104.103	0.330	0.077
-380.931	-124.486	-0.224	-0.035
-379.917	800.000	0.066	-0.182
-378.902	91.623	0.055	0.062
-377.888	-168.222	0.318	0.012
-376.873	52.517	-0.140	0.134
-375.858	196.295	0.127	0.194
-374.844	265.296	-0.093	0.162
-373.829	40.003	-0.268	-0.241
-372.815	-19.623	-0.460	0.286
-371.800	-200.000	0.006	0.509
-370.785	634.191	0.167	0.424
-369.771	617.310	0.070	0.177
-368.756	-131.990	0.131	-0.017
-367.742	-200.000	-0.029	-0.259
-366.727	355.972	0.023	0.045
-365.712	556.647	-0.138	-0.334
-364.698	149.090	-0.030	0.041
-363.683	800.000	0.056	-0.164
-362.669	-47.758	-0.083	0.040
-361.654	49.686	-0.192	-0.182
-360.639	-200.000	-0.001	-0.134
-359.625	-127.648	0.009	0.001
-358.610	478.037	-0.117	-0.265
-357.596	800.000	0.070	-0.292
-356.581	-200.000	0.002	0.127
-355.566	7.296	-0.290	0.218
-354.552	-71.947	0.241	-0.090
-353.537	646.786	0.142	-0.364
-352.523	159.915	0.193	-0.269
-351.508	286.160	0.084	0.152
-350.493	-65.706	-0.182	0.073
-349.479	-200.000	-0.019	0.088
-348.464	-200.000	-0.045	-0.237
-347.450	248.072	0.038	0.064
-346.435	800.000	-0.061	-0.194
-345.420	41.830	-0.147	0.134
-344.406	290.278	-0.161	-0.293
-343.391	104.153	-0.178	0.209
-342.377	-200.000	0.053	0.346
-341.362	246.180	-0.112	-0.189
-340.348	800.000	-0.055	0.153
-339.333	-43.228	0.149	0.076
-338.318	-97.997	0.252	0.065
-337.304	-34.718	-0.297	-0.163
-336.289	800.000	0.015	0.065
-335.275	-18.477	0.015	-0.009
-334.260	2.190	0.101	-0.073
-333.245	-103.496	0.221	0.052
-332.231	150.611	-0.092	-0.125
-331.216	-97.622	0.258	-0.067
-330.202	-200.000	0.062	0.288
-329.187	-200.000	0.034	0.209
-328.172	-163.806	0.249	0.012
-327.158	-113.400	-0.172	0.034
-326.143	2.025	0.160	0.116
-325.129	-6.563	-0.246	0.168
-324.114	-157.845	-0.425	0.025
-323.099	-115.888	-0.320	0.060
-322.085	-200.000	0.013	0.111
-321.070	-137.010	-0.206	0.024
-320.056	-200.000	-0.073	0.376
-319.041	-71.330	-0.172	-0.064
-318.026	-104.931	0.237	0.055
-317.012	-200.000	-0.082	0.499
-315.997	-200.000	0.023	-0.216
-314.983	181.285	0.171	0.252
-313.968	-200.000	0.000	0.121
-312.953	-50.579	0.045	0.021
-311.939	57.281	0.133	0.130
-310.924	8.990	-0.169	0.128
-309.910	-31.597	-0.077	0.043
-308.895	94.411	-0.038	0.043
-307.880	236.219	0.091	-0.151
-306.866	800.000	-0.043	0.126
-305.851	153.344	0.192	0.263
-304.837	-15.134	-0.107	-0.068
-303.822	800.000	-0.037	0.130
-302.807	-200.000	0.284	-0.001
-301.793	-200.000	0.004	-0.256
-300.778	-80.780	-0.160	-0.053
-299.764	-103.556	0.221	0.052
-298.749	-191.473	-0.314	0.003
-297.735	25.930	0.063	-0.052
-296.720	182.077	-0.197	0.291
-295.705	146.368	-0.145	-0.194
-294.691	-130.045	0.322	-0.044
-293.676	-200.000	-0.047	-0.279
-292.662	-123.102	0.112	-0.018
-291.647	173.865	-0.087	-0.126
-290.632	-200.000	-0.010	0.082
-289.618	144.892	-0.094	-0.125
-288.603	800.000	-0.037	0.137
-287.589	-122.360	-0.095	-0.015
-286.574	-119.140	-0.172	0.030
-285.559	-77.592	-0.396	-0.137
-284.545	-7.438	0.107	-0.072
-283.530	291.617	0.061	0.112
-282.516	800.000	0.025	-0.069
-281.501	346.061	0.081	0.160
-280.486	800.000	0.127	0.476
-279.472	-88.324	-0.106	-0.032
-278.457	-84.227	-0.147	-0.047
-277.443	-98.237	-0.166	0.043
-276.428	-3.197	0.233	-0.162
-275.413	292.341	0.089	0.163
-274.399	-64.338	0.324	0.132
-273.384	-184.205	0.073	-0.001
-272.370	-200.000	-0.045	0.217
-271.355	544.604	-0.055	0.131
-270.340	158.855	-0.195	-0.271
-269.326	-159.044	0.155	-0.009
-268.311	721.493	-0.091	-0.241
-267.297	171.329	0.081	0.116
-266.282	-95.629	-0.275	0.074
-265.267	-45.315	0.354	0.176
-264.253	800.000	-0.064	0.197
-263.238	274.200	0.082	0.145
-262.224	-110.979	0.235	-0.048
-261.209	-172.128	0.069	0.002
-260.195	800.000	-0.039	0.122
-259.180	800.000	-0.077	-0.239
-258.165	-200.000	-0.004	-0.408
-257.151	39.344	-0.173	-0.155
-256.136	-11.418	0.486	0.320
-255.122	-200.000	-0.221	-0.001
-254.107	-101.408	-0.315	0.077
-253.092	-83.883	0.250	-0.080
-252.078	21.740	-0.311	-0.253
-251.063	-45.409	-0.223	-0.111
-250.049	-86.639	-0.149	0.046
-249.034	-59.781	-0.311	0.133
-248.019	-200.000	-0.019	-0.239
-247.005	-167.051	0.110	-0.004
-245.990	208.733	0.071	0.111
-244.976	-77.675	-0.179	0.062
-243.961	-200.000	-0.001	-0.170
-242.946	-97.921	-0.250	0.065
-241.932	-200.000	0.035	-0.246
-240.917	-127.014	-0.267	0.039
-239.903	106.132	-0.098	-0.115
-238.888	-35.888	-0.189	0.102
-237.873	271.022	-0.129	0.227
-236.859	285.163	0.155	0.279
-235.844	-75.612	-0.160	-0.057
-234.830	-12.482	0.251	0.164
-233.815	-200.000	-0.038	0.374
-232.800	-42.648	-0.292	-0.149
-231.786	86.693	0.203	-0.224
-230.771	-200.000	0.015	-0.096
-229.757	195.123	0.212	-0.322
-228.742	4.809	0.169	-0.124
-227.727	113.186	0.340	-0.412
-226.713	-106.796	-0.159	-0.035
-225.698	-57.359	-0.147	-0.064
-224.684	-148.171	-0.183	0.015
-223.669	93.851	0.119	-0.134
-222.655	-200.000	0.021	-0.162
-221.640	-200.000	-0.032	0.229
-220.625	-187.407	0.098	0.001
-219.611	-57.369	-0.168	-0.074
-218.596	95.133	0.185	-0.210
-217.582	554.058	-0.128	-0.308
-216.567	-58.698	0.163	-0.070
-215.552	33.339	0.254	-0.220
-214.538	-59.732	0.316	0.135
-213.523	-62.818	0.037	-0.015
-212.509	-117.429	0.135	0.024
-211.494	-3.997	0.055	0.038
-210.479	131.003	-0.089	0.114
-209.465	62.133	0.152	0.151
-208.450	800.000	0.005	-0.018
-207.436	-47.209	-0.060	-0.029
-206.421	800.000	-0.088	-0.321
-205.406	2.345	0.103	-0.074
-204.392	-112.657	-0.204	0.040
-203.377	179.695	-0.279	0.408
-202.363	432.423	0.105	0.226
-201.348	-200.000	-0.005	-0.114
-200.333	76.924	0.071	-0.075
-199.319	189.759	-0.186	0.279
-198.304	-22.244	0.208	0.126
-197.290	-90.295	0.161	-0.047
-196.275	-98.982	-0.272	-0.069
-195.260	19.183	-0.102	-0.082
-194.246	-200.000	-0.021	-0.205
-193.231	67.652	-0.272	0.277
-192.217	100.490	-0.179	-0.207
-191.202	-200.000	-0.016	0.119
-190.187	728.659	0.087	-0.232
-189.173	17.820	0.141	-0.112
-188.158	-200.000	0.063	-0.290
-187.144	185.492	-0.068	-0.101
-186.129	25.622	0.185	0.153
-185.114	165.308	0.194	0.274
-184.100	520.765	0.068	0.158
-183.085	-139.323	-0.409	-0.044
-182.071	-200.000	0.001	0.185
-181.056	-21.640	-0.154	-0.094
-180.042	70.029	0.174	-0.178
-179.027	-200.000	0.015	-0.065
-178.012	-200.000	0.054	0.310
-176.998	-200.000	-0.011	0.137
-175.983	-150.974	-0.284	0.021
-174.969	404.587	0.125	-0.263
-173.954	-200.000	0.057	0.340
-172.939	-92.876	0.107	0.030
-171.925	25.809	-0.335	0.278
-170.910	-33.010	0.095	0.052
-169.896	201.909	-0.159	0.244
-168.881	-91.263	0.269	-0.077
-167.866	-200.000	0.029	0.150
-166.852	112.130	0.157	-0.190
-165.837	-82.978	-0.324	0.104
-164.823	334.461	0.168	0.325
-163.808	14.469	0.148	-0.115
-162.793	120.244	0.138	-0.171
-161.779	-200.000	0.028	0.144
-160.764	-179.315	-0.312	0.007
-159.750	-45.596	-0.228	0.112
-158.735	-200.000	-0.007	0.299
-157.720	-200.000	0.004	-0.281
-156.706	800.000	0.085	-0.318
-155.691	18.390	0.317	0.252
-154.677	16.176	-0.162	-0.127
-153.662	800.000	0.073	-0.257
-152.647	-98.540	-0.436	0.111
-151.633	268.381	0.175	0.306
-150.618	262.742	0.078	0.134
-149.604	-67.015	0.267	-0.105
-148.589	800.000	0.030	-0.105
-147.574	-166.255	0.237	-0.010
-146.560	238.208	0.066	0.110
-145.545	231.457	-0.149	-0.244
-144.531	800.000	0.048	-0.201
-143.516	28.883	0.251	0.211
-142.502	800.000	0.099	0.383
-141.487	318.061	0.029	-0.055
-140.472	53.417	0.321	-0.306
-139.458	-145.465	0.215	0.019
-138.443	-1.312	0.291	0.204
-137.429	69.753	0.210	0.215
-136.414	-45.099	0.081	0.040
-135.399	688.361	0.018	-0.046
-134.385	-132.224	-0.254	-0.033
-133.370	-200.000	-0.011	0.109
-132.356	-145.412	-0.550	0.049
-131.341	-15.381	0.113	-0.072
-130.326	800.000	-0.086	-0.252
-129.312	240.132	0.129	-0.214
-128.297	659.842	0.095	-0.244
-127.283	800.000	0.025	0.074
-126.268	-84.495	-0.091	-0.028
-125.253	-92.184	-0.295	0.083
-124.239	41.059	0.022	-0.019
-123.224	-86.787	0.327	-0.099
-122.210	126.691	-0.065	-0.082
-121.195	567.569	0.074	0.178
