DTS Sentinel unit serial number:	SN413079Multiplexer serial number:	ORYXHardware model number:	OX4-SRSoftware version number:	ORYX F/W v4.00 Oryx Data Collector v3.7.2.0data status	okinstallation	princeton_trtdifferential loss correction	single-endedforward channel	channel 4reverse channel	N/Adate	2019/09/17time	23:57:35forward acquisition time	60.00reverse acquisition time	0.00gamma	496.2192k internal	0.2332k external	0.2332temperature offset calibration	0.9998default loss term (dB/km)	0.3790temperature slope calibration	1.0000multiplexer offset coefficient	1.0000multiplexer slope coefficient	1.0000fibre end	0.00T internal ref (°C)	23.89T ext. ref 1 (°C)	0.17T ext. ref 2 (°C)	17.27length (m)	temperature (°C)	Stokes	anti-Stokes-747.200	-29.941	0.218	-0.125
-746.185	800.000	0.135	0.446
-745.171	-48.827	-0.190	0.092
-744.156	-200.000	0.008	0.220
-743.142	-155.438	-0.407	0.027
-742.127	-35.965	-0.159	0.086
-741.112	-3.300	0.156	0.110
-740.098	-31.099	-0.087	0.050
-739.083	269.576	0.083	0.147
-738.069	-72.356	-0.052	-0.019
-737.054	800.000	-0.030	0.100
-736.039	-161.667	-0.211	0.011
-735.025	70.544	0.272	0.283
-734.010	-180.294	-0.127	0.003
-732.996	558.972	-0.060	0.145
-731.981	-69.149	0.094	-0.036
-730.966	-48.265	-0.260	0.126
-729.952	238.042	0.173	-0.288
-728.937	51.753	0.212	-0.203
-727.923	331.195	-0.140	-0.271
-726.908	800.000	-0.060	0.210
-725.894	164.609	-0.119	0.169
-724.879	-102.622	-0.166	-0.040
-723.864	-200.000	0.007	-0.369
-722.850	800.000	0.033	-0.104
-721.835	-169.785	-0.442	0.016
-720.821	258.247	0.140	-0.243
-719.806	800.000	-0.061	0.239
-718.791	-200.000	0.001	-0.080
-717.777	37.297	-0.078	-0.070
-716.762	800.000	0.031	0.101
-715.748	800.000	0.052	-0.215
-714.733	-200.000	-0.078	-0.419
-713.718	177.146	-0.115	0.169
-712.704	800.000	-0.056	-0.204
-711.689	-200.000	-0.032	-0.173
-710.675	265.257	-0.162	0.283
-709.660	125.203	0.115	0.146
-708.645	-105.405	-0.078	0.018
-707.631	769.567	-0.056	0.152
-706.616	94.613	-0.233	0.265
-705.602	38.074	0.114	0.102
-704.587	624.164	0.111	-0.281
-703.572	-167.826	0.318	-0.013
-702.558	122.507	-0.066	0.083
-701.543	-200.000	-0.021	-0.148
-700.529	596.231	-0.122	-0.303
-699.514	-60.429	-0.068	0.029
-698.499	223.860	0.063	0.102
-697.485	-108.149	-0.434	0.094
-696.470	-200.000	0.008	-0.375
-695.456	558.148	-0.045	-0.108
-694.441	800.000	-0.026	-0.112
-693.426	42.993	-0.251	-0.229
-692.412	-89.831	0.046	-0.014
-691.397	-182.515	-0.225	0.004
-690.383	-37.946	-0.125	0.067
-689.368	-6.709	0.123	-0.084
-688.354	-109.115	0.075	-0.016
-687.339	131.191	-0.170	-0.219
-686.324	346.168	-0.024	0.047
-685.310	8.835	-0.161	-0.122
-684.295	181.238	-0.194	-0.286
-683.281	61.537	0.190	-0.190
-682.266	-200.000	0.040	-0.189
-681.251	-127.095	-0.174	-0.026
-680.237	800.000	0.069	0.301
-679.222	-200.000	-0.084	-0.471
-678.208	800.000	-0.089	-0.326
-677.193	311.269	0.176	-0.330
-676.178	389.796	-0.093	-0.194
-675.164	51.322	0.125	0.119
-674.149	273.635	-0.145	-0.258
-673.135	800.000	-0.080	0.236
-672.120	-200.000	-0.014	0.248
-671.105	-21.327	-0.229	-0.140
-670.091	-200.000	-0.076	-0.444
-669.076	36.554	-0.227	-0.201
-668.062	-125.174	0.180	-0.028
-667.047	352.697	0.133	0.265
-666.032	132.142	-0.036	-0.047
-665.018	-200.000	0.042	0.287
-664.003	-200.000	-0.011	-0.112
-662.989	-106.970	-0.121	-0.027
-661.974	-26.474	0.100	-0.059
-660.959	-200.000	0.022	-0.302
-659.945	800.000	-0.026	-0.077
-658.930	295.314	-0.058	0.107
-657.916	-105.066	-0.222	0.051
-656.901	273.264	0.090	-0.159
-655.886	34.723	0.169	-0.149
-654.872	-31.155	0.244	-0.138
-653.857	-42.332	-0.303	-0.155
-652.843	62.803	0.099	-0.100
-651.828	776.343	-0.067	-0.183
-650.814	-117.643	-0.071	0.013
-649.799	215.159	0.118	-0.188
-648.784	-42.129	-0.042	-0.021
-647.770	4.850	-0.338	0.249
-646.755	-59.285	0.216	0.093
-645.741	267.430	-0.040	0.071
-644.726	140.704	0.091	-0.120
-643.711	42.637	0.048	0.044
-642.697	-1.945	-0.216	-0.152
-641.682	-139.717	0.228	0.024
-640.668	-103.968	-0.313	-0.073
-639.653	-116.344	0.433	-0.080
-638.638	-143.269	-0.244	0.023
-637.624	-72.472	-0.111	-0.041
-636.609	800.000	0.129	0.383
-635.595	-200.000	0.000	-0.007
-634.580	-40.372	0.147	0.076
-633.565	74.507	0.094	-0.099
-632.551	-100.813	-0.063	-0.016
-631.536	-148.084	-0.107	-0.009
-630.522	-101.720	-0.404	-0.098
-629.507	-141.826	0.575	-0.058
-628.492	-200.000	0.019	0.221
-627.478	-24.978	0.273	-0.162
-626.463	-66.492	-0.119	-0.047
-625.449	-1.409	-0.152	0.107
-624.434	-87.179	0.585	0.178
-623.419	-200.000	-0.002	-0.235
-622.405	132.005	-0.022	-0.028
-621.390	769.673	0.055	-0.150
-620.376	-114.926	0.265	-0.051
-619.361	-200.000	-0.003	0.074
-618.346	6.108	0.111	0.083
-617.332	800.000	-0.059	-0.172
-616.317	-117.013	-0.417	-0.076
-615.303	-121.225	0.210	-0.035
-614.288	598.248	0.047	-0.117
-613.273	800.000	0.038	-0.164
-612.259	19.652	-0.173	0.140
-611.244	-55.546	-0.192	-0.086
-610.230	-39.346	0.201	-0.105
-609.215	23.993	-0.281	-0.232
-608.201	417.086	0.091	0.194
-607.186	714.353	0.094	0.248
-606.171	-86.138	0.220	0.068
-605.157	194.247	-0.085	-0.130
-604.142	-200.000	0.002	-0.144
-603.128	800.000	0.067	-0.218
-602.113	-200.000	-0.015	0.530
-601.098	-48.263	0.122	0.059
-600.084	-81.690	0.319	0.105
-599.069	52.869	-0.134	-0.129
-598.055	65.061	-0.159	0.160
-597.040	15.471	-0.285	-0.224
-596.025	-200.000	-0.004	-0.504
-595.011	312.938	0.230	-0.433
-593.996	-29.132	-0.310	-0.178
-592.982	-96.652	-0.273	0.072
-591.967	48.881	-0.060	0.056
-590.952	170.436	-0.176	-0.253
-589.938	-200.000	0.020	0.319
-588.923	-200.000	-0.056	-0.283
-587.909	-28.065	0.230	0.133
-586.894	-137.416	0.165	-0.019
-585.879	800.000	0.052	0.144
-584.865	-200.000	0.001	0.021
-583.850	-200.000	0.033	-0.245
-582.836	-142.250	0.291	0.029
-581.821	-55.121	0.239	0.108
-580.806	-88.581	-0.130	0.039
-579.792	42.282	-0.058	-0.053
-578.777	-83.221	-0.171	-0.055
-577.763	142.365	-0.191	0.253
-576.748	-66.453	-0.260	0.103
-575.733	30.184	-0.115	-0.098
-574.719	-200.000	-0.021	-0.519
-573.704	-200.000	-0.014	-0.073
-572.690	-200.000	-0.039	-0.210
-571.675	-49.367	-0.095	-0.045
-570.661	800.000	-0.119	0.463
-569.646	425.804	-0.103	0.221
-568.631	-200.000	0.094	-0.479
-567.617	800.000	-0.012	0.043
-566.602	-200.000	-0.007	-0.101
-565.588	-3.697	0.214	-0.149
-564.573	27.266	-0.049	0.041
-563.558	-41.524	0.253	-0.130
-562.544	-73.823	-0.128	0.047
-561.529	-115.808	-0.163	0.031
-560.515	117.293	-0.182	-0.223
-559.500	800.000	-0.050	-0.164
-558.485	-200.000	-0.001	0.012
-557.471	-70.717	0.082	-0.031
-556.456	21.921	0.302	-0.245
-555.442	-93.143	-0.063	0.017
-554.427	-172.877	-0.397	-0.012
-553.412	800.000	0.078	0.319
-552.398	-3.380	-0.197	0.137
-551.383	18.495	0.299	0.238
-550.369	-200.000	-0.035	0.242
-549.354	79.318	0.274	0.294
-548.339	455.036	0.027	-0.061
-547.325	-128.056	0.199	0.028
-546.310	-126.941	-0.183	0.027
-545.296	-77.951	0.217	-0.075
-544.281	800.000	-0.146	-0.409
-543.266	-200.000	-0.011	-0.236
-542.252	-143.563	0.267	-0.025
-541.237	800.000	-0.051	-0.155
-540.223	-200.000	0.030	-0.215
-539.208	173.745	0.111	-0.160
-538.193	-200.000	-0.010	0.153
-537.179	800.000	-0.057	-0.210
-536.164	-126.674	0.418	-0.062
-535.150	-200.000	0.011	-0.184
-534.135	-83.953	-0.108	0.034
-533.121	-152.278	0.072	0.005
-532.106	-135.179	-0.049	0.006
-531.091	-73.526	0.218	0.079
-530.077	-33.918	-0.102	-0.056
-529.062	537.960	-0.092	-0.217
-528.048	-139.261	-0.120	-0.013
-527.033	-120.686	0.075	0.013
-526.018	502.770	-0.050	0.115
-525.004	-200.000	-0.031	0.326
-523.989	48.589	0.060	-0.056
-522.975	-12.795	0.086	-0.056
-521.960	26.724	-0.166	-0.138
-520.945	-111.949	-0.026	-0.005
-519.931	23.952	-0.295	-0.242
-518.916	8.602	0.070	-0.052
-517.902	-98.217	0.122	-0.031
-516.887	9.328	0.260	0.196
-515.872	800.000	-0.023	-0.084
-514.858	-200.000	-0.001	-0.117
-513.843	323.044	-0.012	-0.022
-512.829	38.487	-0.239	0.213
-511.814	113.893	0.207	0.250
-510.799	372.981	-0.103	-0.209
-509.785	514.013	-0.038	-0.088
-508.770	-200.000	-0.004	-0.208
-507.756	-144.311	0.136	0.013
-506.741	203.682	-0.128	0.198
-505.726	-182.184	0.253	0.005
-504.712	221.437	0.162	-0.260
-503.697	-118.279	0.214	0.038
-502.683	2.635	-0.161	0.116
-501.668	-138.191	0.278	0.031
-500.653	-93.088	-0.262	-0.073
-499.639	24.241	-0.125	0.103
-498.624	134.065	-0.117	-0.151
-497.610	-105.095	-0.338	0.077
-496.595	0.625	-0.079	-0.056
-495.581	-141.562	0.174	0.017
-494.566	-157.633	-0.222	0.013
-493.551	-135.462	0.127	0.015
-492.537	-200.000	-0.057	0.350
-491.522	51.184	-0.063	-0.060
-490.508	-17.238	-0.279	0.175
-489.493	-163.070	-0.064	0.003
-488.478	-200.000	0.008	-0.085
-487.464	40.222	0.182	-0.163
-486.449	106.811	0.150	-0.178
-485.435	-112.780	0.266	-0.053
-484.420	-84.066	0.177	0.056
-483.405	5.474	-0.336	-0.247
-482.391	30.401	0.270	0.230
-481.376	38.186	0.190	0.168
-480.362	-200.000	0.047	0.242
-479.347	800.000	-0.060	0.210
-478.332	164.801	0.173	-0.243
-477.318	-79.850	-0.165	-0.055
-476.303	-90.537	-0.112	0.032
-475.289	-200.000	0.015	-0.088
-474.274	-59.358	-0.136	-0.058
-473.259	-58.741	0.320	0.138
-472.245	-44.687	-0.142	-0.071
-471.230	74.439	0.059	0.062
-470.216	358.697	-0.071	0.141
-469.201	56.722	0.022	0.021
-468.186	-94.146	0.169	0.046
-467.172	-34.750	-0.101	-0.055
-466.157	34.535	0.231	0.201
-465.143	-200.000	-0.018	0.117
-464.128	800.000	0.057	-0.179
-463.113	-75.852	0.286	-0.101
-462.099	800.000	-0.128	-0.426
-461.084	2.316	-0.106	0.076
-460.070	-62.097	0.231	-0.096
-459.055	-39.512	0.325	-0.170
-458.040	-189.868	0.118	-0.001
-457.026	68.683	0.211	0.216
-456.011	-200.000	-0.034	0.235
-454.997	-200.000	0.010	-0.151
-453.982	-65.229	-0.185	-0.074
-452.968	800.000	0.127	0.454
-451.953	-200.000	0.013	0.288
-450.938	226.207	-0.054	0.088
-449.924	800.000	-0.023	-0.084
-448.909	800.000	-0.054	0.163
-447.895	189.928	-0.173	-0.258
-446.880	-28.727	-0.126	0.072
-445.865	65.399	0.170	-0.171
-444.851	31.002	-0.208	0.178
-443.836	-67.624	-0.319	-0.124
-442.822	-29.326	-0.149	0.085
-441.807	20.736	0.091	-0.074
-440.792	-104.601	0.138	-0.032
-439.778	150.441	-0.041	-0.055
-438.763	534.237	-0.108	-0.255
-437.749	742.213	0.194	-0.519
-436.734	800.000	-0.064	-0.239
-435.719	16.296	-0.175	-0.137
-434.705	-159.282	0.245	-0.014
-433.690	-56.357	-0.028	0.012
-432.676	-118.425	-0.219	0.039
-431.661	7.955	-0.217	0.162
-430.646	-69.540	0.235	-0.090
-429.632	-93.491	-0.209	-0.058
-428.617	-49.647	0.199	-0.094
-427.603	297.925	0.100	0.182
-426.588	800.000	0.057	-0.221
-425.573	-200.000	-0.029	-0.148
-424.559	188.920	0.160	0.238
-423.544	-3.880	0.148	-0.102
-422.530	800.000	-0.041	-0.113
-421.515	174.977	0.025	-0.035
-420.500	45.578	0.151	-0.139
-419.486	42.479	0.129	0.117
-418.471	-25.523	-0.136	0.080
-417.457	16.930	0.034	0.027
-416.442	800.000	-0.107	-0.348
-415.428	-28.489	0.309	0.177
-414.413	-200.000	0.003	-0.322
-413.398	244.515	-0.090	0.150
-412.384	316.186	-0.010	0.018
-411.369	-11.776	-0.296	-0.193
-410.355	-21.425	0.268	-0.162
-409.340	-200.000	-0.004	-0.277
-408.325	106.715	0.101	-0.119
-407.311	264.980	-0.132	-0.228
-406.296	378.268	-0.105	0.214
-405.282	-63.564	-0.135	0.055
-404.267	40.078	0.098	0.088
-403.252	10.219	-0.154	-0.116
-402.238	-43.776	-0.127	-0.063
-401.223	-200.000	-0.040	0.173
-400.209	70.504	0.166	0.170
-399.194	-82.803	-0.220	-0.070
-398.179	800.000	-0.054	0.169
-397.165	79.383	0.182	0.194
-396.150	-200.000	-0.022	-0.443
-395.136	800.000	-0.111	0.364
-394.121	-13.897	0.065	0.041
-393.106	-200.000	-0.037	0.338
-392.092	-107.355	0.117	0.025
-391.077	41.998	0.298	-0.268
-390.063	-200.000	-0.042	-0.234
-389.048	-8.265	0.134	0.089
-388.033	142.025	0.114	0.150
-387.019	-200.000	0.046	-0.304
-386.004	76.524	0.263	0.277
-384.990	-83.038	0.395	-0.126
-383.975	61.590	0.343	-0.338
-382.960	-148.814	-0.197	-0.016
-381.946	-200.000	-0.005	0.021
-380.931	142.568	0.044	0.058
-379.917	151.019	0.092	0.124
-378.902	30.900	-0.271	0.230
-377.888	-64.426	0.304	0.122
-376.873	800.000	-0.052	-0.150
-375.858	232.609	-0.173	-0.282
-374.844	480.414	0.103	-0.231
-373.829	-90.142	-0.203	0.059
-372.815	800.000	0.097	-0.288
-371.800	74.013	-0.082	0.086
-370.785	369.943	0.145	0.291
-369.771	-119.248	-0.179	-0.031
-368.756	-200.000	-0.028	-0.233
-367.742	0.163	0.236	-0.167
-366.727	-72.664	0.232	0.085
-365.712	26.921	-0.164	-0.137
-364.698	-200.000	-0.027	0.291
-363.683	-200.000	0.038	0.406
-362.669	63.165	-0.080	0.079
-361.654	-200.000	0.014	0.144
-360.639	800.000	-0.021	0.080
-359.625	-28.273	-0.123	-0.070
-358.610	-34.081	0.089	0.049
-357.596	-200.000	0.010	0.054
-356.581	55.177	-0.185	-0.177
-355.566	72.205	-0.188	0.194
-354.552	-200.000	0.001	0.014
-353.537	800.000	-0.041	-0.149
-352.523	-200.000	-0.025	0.299
-351.508	-200.000	-0.020	-0.093
-350.493	-38.342	0.197	0.103
-349.479	154.988	-0.072	-0.097
-348.464	-90.149	-0.446	0.129
-347.450	700.151	0.090	0.235
-346.435	-105.803	-0.213	-0.048
-345.420	-36.655	0.434	0.231
-344.406	150.334	0.141	0.190
-343.391	800.000	0.082	0.245
-342.377	207.295	-0.224	-0.345
-341.362	-163.874	0.257	-0.012
-340.348	275.825	0.232	-0.408
-339.333	164.477	0.058	0.081
-338.318	-200.000	0.048	0.260
-337.304	39.239	0.219	0.194
-336.289	44.727	0.126	0.115
-335.275	-36.873	-0.365	0.194
-334.260	692.618	0.100	0.259
-333.245	594.954	-0.225	0.550
-332.231	-94.224	0.136	-0.037
-331.216	-23.153	-0.167	0.100
-330.202	34.216	0.080	0.069
-329.187	-200.000	0.008	0.077
-328.172	800.000	0.075	0.219
-327.158	39.698	0.081	0.072
-326.143	92.577	-0.205	-0.229
-325.129	-73.499	0.222	0.080
-324.114	-57.626	0.170	0.074
-323.099	800.000	0.028	0.102
-322.085	-200.000	-0.037	0.238
-321.070	-23.765	0.111	0.065
-320.056	193.973	-0.122	-0.182
-319.041	33.390	0.269	0.231
-318.026	180.267	0.061	0.089
-317.012	-200.000	0.011	0.066
-315.997	-74.567	0.060	0.021
-314.983	-75.982	-0.308	-0.108
-313.968	-200.000	0.040	0.246
-312.953	11.956	-0.320	0.243
-311.939	-47.280	-0.072	-0.035
-310.924	294.999	0.120	-0.216
-309.910	-162.300	0.535	-0.026
-308.895	162.366	0.066	0.092
-307.880	-158.108	0.232	-0.013
-306.866	380.420	-0.095	0.192
-305.851	238.281	-0.187	-0.306
-304.837	79.528	-0.189	-0.200
-303.822	-100.048	-0.238	0.059
-302.807	22.038	0.108	-0.087
-301.793	-51.938	-0.163	-0.075
-300.778	30.424	0.221	0.187
-299.764	-200.000	0.002	-0.451
-298.749	113.008	0.076	0.091
-297.735	-50.832	0.202	0.094
-296.720	800.000	0.037	-0.120
-295.705	387.696	-0.035	0.071
-294.691	109.215	0.094	0.112
-293.676	49.360	-0.173	-0.160
-292.662	-86.708	0.117	0.035
-291.647	800.000	0.032	-0.119
-290.632	-25.292	0.109	0.064
-289.618	-123.829	0.282	-0.044
-288.603	-200.000	-0.057	0.282
-287.589	800.000	0.003	0.012
-286.574	800.000	-0.044	-0.135
-285.559	148.480	-0.172	-0.229
-284.545	-4.285	0.182	0.124
-283.530	-3.479	-0.191	0.132
-282.516	-200.000	-0.002	0.138
-281.501	62.436	-0.153	0.151
-280.486	-22.863	0.256	0.152
-279.472	32.016	-0.172	-0.147
-278.457	-143.490	-0.260	-0.024
-277.443	-200.000	-0.031	-0.209
-276.428	192.154	0.108	-0.161
-275.413	12.565	-0.162	0.124
-274.399	182.331	0.106	0.155
-273.384	-25.821	-0.196	0.114
-272.370	-31.020	-0.137	0.076
-271.355	91.273	-0.158	-0.176
-270.340	-28.572	-0.373	0.212
-269.326	-25.053	0.254	-0.149
-268.311	-13.787	-0.226	-0.144
-267.297	149.789	0.123	-0.164
-266.282	-200.000	0.057	0.248
-265.267	-72.407	-0.061	0.022
-264.253	-97.034	-0.412	-0.107
-263.238	-200.000	-0.065	0.324
-262.224	135.346	-0.111	0.142
-261.209	-99.333	-0.178	-0.044
-260.195	-127.102	0.240	-0.035
-259.180	-168.874	0.072	0.003
-258.165	-59.435	-0.360	-0.153
-257.151	-200.000	0.015	-0.382
-256.136	159.669	-0.168	0.231
-255.122	-51.096	-0.171	-0.079
-254.107	449.717	-0.053	-0.115
-253.092	-41.683	0.218	0.111
-252.078	-200.000	0.034	0.245
-251.063	-150.936	-0.060	0.004
-250.049	-48.244	-0.217	-0.103
-249.034	88.435	-0.085	-0.093
-248.019	-150.772	0.113	-0.008
-247.005	-200.000	-0.004	0.242
-245.990	-200.000	-0.049	0.229
-244.976	800.000	0.044	0.187
-243.961	50.565	-0.276	-0.258
-242.946	241.240	0.219	-0.361
-241.932	-200.000	0.015	-0.216
-240.917	149.071	-0.153	0.204
-239.903	270.087	0.143	0.248
-238.888	613.970	-0.057	0.141
-237.873	219.721	0.080	-0.126
-236.859	-34.275	-0.040	-0.021
-235.844	-186.728	-0.258	-0.004
-234.830	321.806	0.094	0.176
-233.815	-200.000	-0.003	0.109
-232.800	-133.176	-0.290	0.036
-231.786	275.779	-0.147	0.258
-230.771	-22.218	-0.233	0.139
-229.757	-33.666	-0.224	-0.122
-228.742	74.194	-0.102	0.106
-227.727	332.644	0.158	0.300
-226.713	800.000	0.158	0.454
-225.698	48.929	-0.225	-0.208
-224.684	102.036	0.309	-0.355
-223.669	-200.000	-0.038	0.195
-222.655	-200.000	0.000	0.147
-221.640	-39.583	-0.305	-0.157
-220.625	264.938	0.014	-0.024
-219.611	275.688	0.277	-0.484
-218.596	800.000	-0.020	0.086
-217.582	179.762	0.152	-0.220
-216.567	1.644	-0.265	-0.188
-215.552	-135.434	0.199	0.023
-214.538	90.259	-0.105	0.116
-213.523	800.000	-0.046	0.151
-212.509	125.392	-0.090	-0.112
-211.494	-200.000	0.008	0.451
-210.479	-85.521	-0.164	0.050
-209.465	-60.872	-0.234	-0.098
-208.450	79.667	-0.024	-0.025
-207.436	-200.000	-0.004	-0.022
-206.421	-200.000	0.007	-0.117
-205.406	-200.000	-0.027	-0.351
-204.392	-24.079	0.280	0.165
-203.377	185.276	0.082	-0.119
-202.363	459.959	0.166	0.363
-201.348	-200.000	-0.021	0.418
-200.333	-200.000	0.031	-0.144
-199.319	-200.000	-0.009	-0.069
-198.304	722.786	0.111	-0.290
-197.290	144.714	0.082	-0.109
-196.275	73.600	0.241	0.249
-195.260	-200.000	-0.065	0.434
-194.246	96.227	0.117	-0.131
-193.231	-73.864	-0.201	-0.072
-192.217	208.430	-0.209	0.321
-191.202	344.646	0.120	0.231
-190.187	-103.344	-0.225	-0.052
-189.173	-32.421	0.107	-0.059
-188.158	639.561	0.021	-0.053
-187.144	91.772	0.215	0.238
-186.129	208.611	-0.140	0.215
-185.114	-25.525	-0.079	-0.046
-184.100	65.472	0.192	-0.191
-183.085	-200.000	0.029	-0.213
-182.071	66.750	-0.224	-0.224
-181.056	-200.000	0.035	-0.230
-180.042	800.000	0.048	0.158
-179.027	-104.393	-0.157	-0.036
-178.012	783.671	0.133	-0.358
-176.998	800.000	-0.102	0.283
-175.983	54.955	-0.103	0.098
-174.969	79.626	0.222	-0.234
-173.954	-6.185	0.053	-0.036
-172.939	302.344	-0.093	-0.169
-171.925	-115.456	-0.147	-0.027
-170.910	-200.000	0.038	0.306
-169.896	-200.000	0.003	0.169
-168.881	-26.390	-0.179	0.103
-167.866	-200.000	-0.007	-0.205
-166.852	-92.557	-0.075	0.021
-165.837	-97.241	0.139	-0.036
-164.823	-2.731	0.095	-0.065
-163.808	353.166	-0.156	-0.305
-162.793	23.542	-0.313	0.253
-161.779	-117.335	0.249	-0.044
-160.764	-200.000	-0.065	-0.298
-159.750	-107.031	-0.114	0.025
-158.735	-200.000	-0.017	-0.240
-157.720	-200.000	-0.012	0.250
-156.706	800.000	0.149	0.416
-155.691	-72.449	0.067	-0.024
-154.677	-97.978	-0.204	-0.052
-153.662	-75.745	-0.168	0.059
-152.647	62.763	-0.207	0.204
-151.633	52.227	0.048	-0.045
-150.618	4.831	0.395	0.285
-149.604	444.133	-0.119	0.257
-148.589	-200.000	-0.048	-0.337
-147.574	-164.627	-0.133	0.006
-146.560	424.595	0.187	-0.395
-145.545	58.867	-0.369	0.356
-144.531	-146.341	-0.107	-0.009
-143.516	-110.394	0.158	0.032
-142.502	800.000	0.033	-0.101
-141.487	150.970	0.150	-0.200
-140.472	349.378	-0.108	-0.210
-139.458	-108.218	-0.186	0.040
-138.443	-150.487	0.291	-0.022
-137.429	195.214	-0.162	-0.241
-136.414	-25.307	-0.099	-0.058
-135.399	800.000	0.046	0.137
-134.385	-200.000	0.032	-0.239
-133.370	-92.784	0.119	-0.033
-132.356	-200.000	0.048	0.219
-131.341	31.619	0.330	-0.279
-130.326	13.934	0.152	-0.116
-129.312	21.621	-0.152	0.121
-128.297	-64.851	0.310	-0.123
-127.283	153.655	-0.107	0.145
-126.268	-10.110	0.193	0.126
-125.253	-200.000	0.027	0.150
-124.239	-85.613	0.224	-0.069
-123.224	-155.695	-0.273	-0.017
-122.210	742.041	0.040	0.107
