DTS Sentinel unit serial number:	SN413079Multiplexer serial number:	ORYXHardware model number:	OX4-SRSoftware version number:	ORYX F/W v4.00 Oryx Data Collector v3.7.2.0data status	okinstallation	princeton_trtdifferential loss correction	single-endedforward channel	channel 4reverse channel	N/Adate	2019/09/15time	07:09:35forward acquisition time	60.00reverse acquisition time	0.00gamma	496.2192k internal	0.2311k external	0.2311temperature offset calibration	1.0032default loss term (dB/km)	0.3790temperature slope calibration	1.0000multiplexer offset coefficient	1.0000multiplexer slope coefficient	1.0000fibre end	0.00T internal ref (°C)	30.50T ext. ref 1 (°C)	4.87T ext. ref 2 (°C)	25.71length (m)	temperature (°C)	Stokes	anti-Stokes-747.200	-42.671	0.229	0.118
-746.185	150.701	0.088	-0.122
-745.171	29.726	-0.043	0.037
-744.156	-123.109	-0.263	-0.043
-743.142	367.930	0.199	0.408
-742.127	-29.386	-0.229	0.133
-741.112	-153.860	0.299	-0.021
-740.098	-153.903	0.216	-0.015
-739.083	71.055	0.130	0.136
-738.069	800.000	-0.060	0.208
-737.054	60.413	0.174	0.174
-736.039	487.748	-0.034	-0.078
-735.025	-30.945	0.219	0.126
-734.010	-111.362	0.334	0.069
-732.996	-200.000	-0.011	-0.081
-731.981	-91.265	-0.253	-0.073
-730.966	-4.639	0.104	-0.073
-729.952	800.000	-0.112	-0.443
-728.937	-28.085	-0.201	-0.118
-727.923	-186.033	0.078	-0.001
-726.908	-19.426	0.134	-0.084
-725.894	267.777	-0.217	-0.385
-724.879	-96.819	-0.182	0.048
-723.864	574.730	-0.036	0.089
-722.850	-137.483	0.230	-0.026
-721.835	-1.014	-0.071	-0.051
-720.821	800.000	-0.078	0.286
-719.806	356.271	-0.086	-0.173
-718.791	-131.432	0.167	0.022
-717.777	-28.848	-0.369	-0.215
-716.762	800.000	-0.071	-0.228
-715.748	266.801	0.116	-0.206
-714.733	251.582	0.040	0.069
-713.718	-84.286	0.148	-0.048
-712.704	-128.418	-0.134	-0.019
-711.689	-9.728	-0.365	-0.247
-710.675	-59.092	-0.457	0.200
-709.660	-45.100	0.234	-0.118
-708.645	-200.000	0.011	-0.199
-707.631	-148.332	-0.393	-0.033
-706.616	-70.694	-0.035	-0.013
-705.602	-200.000	-0.012	-0.108
-704.587	-96.399	-0.223	0.060
-703.572	152.083	0.133	0.184
-702.558	-30.980	0.103	0.059
-701.543	-200.000	-0.037	-0.303
-700.529	330.802	-0.112	0.218
-699.514	80.263	-0.231	-0.252
-698.499	800.000	-0.079	-0.234
-697.485	-30.995	0.094	0.054
-696.470	175.133	0.038	0.056
-695.456	-154.773	0.150	0.010
-694.441	98.945	0.123	-0.144
-693.426	1.782	-0.362	0.264
-692.412	661.663	0.022	0.058
-691.397	-38.275	-0.181	0.097
-690.383	800.000	-0.047	-0.157
-689.368	81.306	0.175	-0.191
-688.354	-23.710	-0.225	0.137
-687.339	124.436	-0.142	-0.181
-686.324	-24.251	0.214	-0.130
-685.310	-122.712	0.180	0.030
-684.295	-76.816	0.176	-0.062
-683.281	34.331	0.131	-0.115
-682.266	27.434	0.193	0.165
-681.251	800.000	-0.044	-0.176
-680.237	-85.917	-0.307	-0.096
-679.222	-147.161	0.271	0.023
-678.208	-99.266	-0.229	-0.059
-677.193	-200.000	-0.006	0.058
-676.178	-200.000	0.013	0.298
-675.164	283.014	0.049	0.090
-674.149	-143.473	-0.307	-0.030
-673.135	-133.883	-0.401	-0.050
-672.120	-157.418	-0.457	-0.028
-671.105	77.004	0.021	-0.022
-670.091	-6.121	0.117	0.081
-669.076	-113.000	0.029	-0.006
-668.062	-118.791	-0.072	0.013
-667.047	-200.000	0.001	0.162
-666.032	-169.514	-0.180	-0.007
-665.018	383.612	0.052	-0.108
-664.003	800.000	0.114	-0.361
-662.989	197.541	-0.158	-0.243
-661.974	161.022	-0.118	-0.167
-660.959	-116.803	-0.453	-0.084
-659.945	-87.413	-0.149	-0.046
-658.930	67.949	-0.192	-0.198
-657.916	-102.262	-0.207	0.050
-656.901	-153.543	-0.087	-0.006
-655.886	-200.000	0.036	-0.347
-654.872	-200.000	0.012	-0.221
-653.857	294.662	0.123	-0.227
-652.843	-13.521	-0.135	-0.089
-651.828	-200.000	0.024	0.321
-650.814	-34.430	0.089	-0.049
-649.799	-9.128	0.228	0.154
-648.784	328.585	-0.167	-0.324
-647.770	-200.000	0.023	0.106
-646.755	-92.680	-0.051	0.014
-645.741	210.700	-0.066	0.105
-644.726	396.715	0.015	-0.031
-643.711	311.070	0.130	0.247
-642.697	-73.776	0.272	-0.100
-641.682	-77.340	-0.185	0.065
-640.668	-67.320	-0.231	0.092
-639.653	723.265	-0.070	-0.190
-638.638	15.932	0.369	0.294
-637.624	218.549	-0.073	-0.119
-636.609	-93.136	-0.091	-0.026
-635.595	800.000	0.032	-0.112
-634.580	-123.708	-0.288	0.046
-633.565	-200.000	0.024	0.113
-632.551	800.000	-0.064	-0.273
-631.536	-98.679	-0.251	0.065
-630.522	61.243	0.088	-0.089
-629.507	360.398	0.163	0.329
-628.492	-17.604	0.131	-0.083
-627.478	47.043	0.209	0.197
-626.463	-177.425	0.186	0.005
-625.449	237.411	0.082	-0.138
-624.434	-7.909	0.156	-0.106
-623.419	169.866	-0.208	0.300
-622.405	-119.370	0.255	0.045
-621.390	76.025	0.119	-0.127
-620.376	-200.000	-0.023	-0.330
-619.361	800.000	0.073	-0.311
-618.346	1.332	-0.220	0.160
-617.332	-73.520	0.216	-0.080
-616.317	101.380	0.063	-0.075
-615.303	-38.960	-0.294	-0.156
-614.288	253.952	0.097	0.167
-613.273	-13.801	-0.001	0.001
-612.259	-60.647	-0.166	-0.071
-611.244	-148.521	0.352	-0.029
-610.230	-165.477	-0.148	-0.007
-609.215	-200.000	0.013	-0.111
-608.201	103.556	-0.149	-0.177
-607.186	74.012	0.255	0.270
-606.171	-119.405	-0.096	0.017
-605.157	-9.006	-0.229	0.155
-604.142	-200.000	-0.002	0.061
-603.128	89.598	0.041	-0.047
-602.113	-171.766	-0.223	-0.007
-601.098	302.795	-0.019	-0.036
-600.084	258.569	-0.188	-0.327
-599.069	82.720	-0.047	0.052
-598.055	-200.000	-0.050	0.425
-597.040	384.202	0.048	-0.100
-596.025	-176.467	-0.370	0.010
-595.011	800.000	0.089	-0.251
-593.996	24.709	0.226	-0.189
-592.982	-55.392	-0.280	0.127
-591.967	800.000	-0.047	0.157
-590.952	623.382	0.086	0.218
-589.938	-102.899	0.444	-0.107
-588.923	322.468	-0.144	0.276
-587.909	23.745	-0.074	-0.062
-586.894	-27.642	0.335	0.196
-585.879	-200.000	-0.010	-0.455
-584.865	628.490	0.045	0.114
-583.850	202.177	0.113	-0.175
-582.836	54.184	-0.185	-0.179
-581.821	-78.939	0.279	0.096
-580.806	-200.000	-0.019	0.136
-579.792	-20.968	0.173	0.107
-578.777	72.457	0.015	-0.016
-577.763	20.228	-0.188	-0.153
-576.748	87.882	-0.261	-0.291
-575.733	-76.642	-0.111	0.039
-574.719	-99.069	0.425	-0.108
-573.704	-78.694	-0.302	0.104
-572.690	-40.152	-0.099	0.052
-571.675	251.780	0.101	-0.173
-570.661	-97.495	0.052	-0.014
-569.646	-33.961	0.137	-0.076
-568.631	19.984	0.158	0.129
-567.617	599.046	-0.129	-0.322
-566.602	12.077	-0.177	-0.138
-565.588	-200.000	0.048	0.310
-564.573	800.000	-0.035	0.149
-563.558	-146.027	-0.183	0.016
-562.544	-64.064	-0.272	0.112
-561.529	390.384	0.133	0.277
-560.515	800.000	0.038	0.138
-559.500	800.000	0.069	0.295
-558.485	-200.000	0.014	-0.198
-557.471	-77.737	-0.136	0.047
-556.456	800.000	0.049	-0.163
-555.442	149.550	-0.254	-0.347
-554.427	-19.156	0.118	-0.074
-553.412	-100.602	-0.233	-0.058
-552.398	-200.000	0.001	0.146
-551.383	245.185	-0.109	-0.186
-550.369	91.469	0.128	0.145
-549.354	-200.000	0.011	0.302
-548.339	-103.372	-0.295	0.070
-547.325	-194.543	0.076	0.001
-546.310	189.959	-0.055	-0.083
-545.296	-200.000	0.038	-0.285
-544.281	298.355	0.079	0.145
-543.266	800.000	0.038	0.151
-542.252	179.503	-0.065	-0.096
-541.237	-200.000	0.001	-0.161
-540.223	127.157	-0.146	-0.187
-539.208	711.686	-0.123	-0.327
-538.193	-49.337	-0.223	0.107
-537.179	396.835	0.110	-0.231
-536.164	155.561	-0.145	0.201
-535.150	-112.704	0.155	-0.031
-534.135	82.836	-0.248	-0.272
-533.121	4.491	0.194	-0.143
-532.106	-66.264	0.151	-0.060
-531.091	-200.000	-0.002	0.118
-530.077	-134.479	-0.346	-0.043
-529.062	-200.000	0.019	0.126
-528.048	-200.000	0.006	-0.285
-527.033	681.764	0.133	-0.348
-526.018	-200.000	0.002	0.336
-525.004	91.495	0.246	-0.278
-523.989	-193.495	-0.155	0.001
-522.975	660.277	0.103	0.266
-521.960	-42.992	-0.115	-0.059
-520.945	264.678	-0.071	0.124
-519.931	46.530	0.167	0.156
-518.916	-100.553	0.113	-0.028
-517.902	800.000	0.073	0.227
-516.887	-172.408	-0.237	0.008
-515.872	-14.911	-0.144	-0.093
-514.858	348.736	-0.070	0.140
-513.843	43.858	-0.112	-0.103
-512.829	-49.843	-0.135	0.064
-511.814	-64.163	-0.132	0.054
-510.799	800.000	-0.062	-0.267
-509.785	71.048	0.029	0.031
-508.770	40.277	0.207	-0.187
-507.756	512.553	-0.063	-0.147
-506.741	-13.656	0.188	-0.123
-505.726	235.047	-0.099	0.165
-504.712	-30.982	-0.355	0.201
-503.697	14.641	-0.283	0.223
-502.683	-52.345	0.344	0.160
-501.668	-72.017	-0.126	0.047
-500.653	386.389	0.024	0.049
-499.639	-5.547	-0.155	0.107
-498.624	-59.985	-0.329	0.141
-497.610	-153.396	0.278	-0.019
-496.595	131.600	0.356	-0.460
-495.581	-12.246	0.179	-0.118
-494.566	171.988	-0.128	-0.185
-493.551	184.388	-0.088	0.131
-492.537	-69.131	-0.172	-0.066
-491.522	-21.603	-0.250	0.153
-490.508	114.027	0.174	0.213
-489.493	800.000	-0.052	0.184
-488.478	-177.453	0.174	-0.004
-487.464	-200.000	-0.006	-0.266
-486.449	95.255	0.215	0.246
-485.435	-8.656	-0.185	0.125
-484.420	-63.060	-0.205	-0.085
-483.405	800.000	-0.025	0.086
-482.391	114.030	0.152	0.186
-481.376	-14.484	-0.104	0.067
-480.362	-59.156	-0.205	-0.089
-479.347	459.991	0.167	0.374
-478.332	-178.941	0.216	0.005
-477.318	58.476	0.058	0.057
-476.303	800.000	0.124	0.440
-475.289	-115.604	-0.262	0.049
-474.274	-95.761	-0.058	0.016
-473.259	-200.000	0.016	0.178
-472.245	-24.883	0.229	-0.137
-471.230	163.269	0.133	0.188
-470.216	126.927	-0.051	-0.064
-469.201	3.474	0.192	-0.140
-468.186	-170.164	-0.350	-0.012
-467.172	182.773	-0.149	-0.220
-466.157	4.513	-0.169	-0.124
-465.143	366.814	-0.047	0.096
-464.128	-61.688	0.166	-0.070
-463.113	26.849	-0.110	-0.092
-462.099	-65.140	0.082	-0.033
-461.084	18.853	0.049	0.039
-460.070	-103.284	0.171	0.040
-459.055	311.819	0.073	-0.138
-458.040	60.320	-0.322	0.320
-457.026	-5.311	0.252	0.174
-456.011	-6.874	-0.221	0.151
-454.997	800.000	-0.125	-0.370
-453.982	560.339	0.099	0.240
-452.968	-107.878	0.249	-0.054
-451.953	-25.686	0.078	0.046
-450.938	-25.952	-0.231	-0.136
-449.924	-137.032	0.186	-0.021
-448.909	-58.459	0.370	-0.161
-447.895	-200.000	0.039	0.247
-446.880	141.805	-0.125	-0.166
-445.865	-87.678	0.238	0.072
-444.851	-200.000	-0.026	0.204
-443.836	86.812	-0.111	0.123
-442.822	-200.000	-0.007	-0.148
-441.807	55.219	-0.330	-0.320
-440.792	173.759	0.184	0.267
-439.778	614.359	0.066	-0.166
-438.763	52.435	0.023	0.022
-437.749	-190.252	0.135	0.001
-436.734	219.694	0.072	0.116
-435.719	-141.313	-0.247	0.025
-434.705	22.932	-0.164	-0.135
-433.690	-185.963	0.191	0.003
-432.676	-200.000	-0.016	0.317
-431.661	92.689	0.256	0.290
-430.646	-200.000	-0.001	0.163
-429.632	-200.000	-0.043	-0.535
-428.617	7.628	0.052	-0.039
-427.603	-51.913	0.223	0.104
-426.588	60.961	0.169	-0.168
-425.573	-55.150	-0.124	-0.056
-424.559	751.209	0.018	0.048
-423.544	25.696	-0.325	0.271
-422.530	339.562	-0.038	-0.075
-421.515	707.347	0.091	0.240
-420.500	38.860	0.119	-0.106
-419.486	-88.590	0.290	0.087
-418.471	-158.267	-0.241	-0.014
-417.457	-117.586	0.251	0.045
-416.442	481.152	0.089	-0.203
-415.428	-65.202	0.187	0.075
-414.413	-39.413	0.116	-0.061
-413.398	220.474	-0.126	0.203
-412.384	-151.474	-0.406	-0.030
-411.369	233.314	-0.286	-0.472
-410.355	-82.087	-0.029	-0.009
-409.340	-96.612	0.271	-0.072
-408.325	519.650	0.068	-0.161
-407.311	800.000	-0.073	0.217
-406.296	-75.716	-0.334	-0.119
-405.282	-25.373	0.343	-0.203
-404.267	-103.359	0.391	-0.092
-403.252	-125.380	-0.247	-0.038
-402.238	-144.382	0.378	0.035
-401.223	-97.623	0.357	-0.093
-400.209	401.384	-0.087	0.182
-399.194	-160.732	0.240	0.013
-398.179	800.000	0.058	0.238
-397.165	-95.260	0.232	-0.063
-396.150	295.233	-0.131	0.240
-395.136	-200.000	-0.003	0.175
-394.121	-97.283	-0.316	0.083
-393.106	-22.975	0.234	0.141
-392.092	594.779	0.137	-0.339
-391.077	-119.665	-0.077	-0.013
-390.063	800.000	-0.060	0.200
-389.048	1.685	0.134	0.096
-388.033	-192.984	0.463	0.004
-387.019	208.511	0.060	-0.095
-386.004	-70.588	-0.264	0.100
-384.990	-125.612	-0.409	-0.062
-383.975	-200.000	-0.007	-0.061
-382.960	-2.673	0.087	0.061
-381.946	800.000	-0.102	0.297
-380.931	800.000	0.052	-0.152
-379.917	77.174	0.020	0.021
-378.902	-117.178	0.197	-0.036
-377.888	-200.000	0.019	0.119
-376.873	132.065	0.062	-0.080
-375.858	6.126	0.097	0.072
-374.844	800.000	0.078	0.333
-373.829	183.631	0.124	-0.183
-372.815	-58.561	-0.087	0.038
-371.800	139.985	-0.116	-0.154
-370.785	16.239	-0.227	-0.179
-369.771	-93.618	0.140	-0.039
-368.756	304.621	0.026	-0.048
-367.742	-137.760	-0.247	-0.028
-366.727	110.881	-0.089	-0.107
-365.712	800.000	0.093	-0.394
-364.698	481.327	-0.114	-0.260
-363.683	581.818	-0.061	0.149
-362.669	-108.390	-0.273	-0.059
-361.654	64.885	0.034	-0.035
-360.639	800.000	-0.027	-0.077
-359.625	57.975	0.189	0.185
-358.610	570.850	0.034	0.082
-357.596	209.891	0.120	0.189
-356.581	-135.862	0.088	-0.010
-355.566	-200.000	-0.072	0.323
-354.552	158.192	-0.059	0.082
-353.537	619.019	-0.056	-0.140
-352.523	65.845	-0.247	0.250
-351.508	148.001	0.182	0.246
-350.493	275.737	0.147	0.261
-349.479	-187.203	-0.458	0.006
-348.464	800.000	0.024	-0.098
-347.450	239.264	0.094	0.156
-346.435	-200.000	0.003	-0.149
-345.420	-200.000	0.007	-0.111
-344.406	320.078	0.138	0.262
-343.391	-119.952	0.213	0.036
-342.377	-10.325	-0.240	-0.159
-341.362	284.154	-0.055	0.099
-340.348	-73.908	0.114	-0.041
-339.333	-35.060	0.239	0.130
-338.318	-21.043	0.080	0.049
-337.304	-150.906	-0.074	-0.006
-336.289	184.061	-0.202	0.299
-335.275	120.127	0.146	0.181
-334.260	-112.029	-0.141	0.028
-333.245	-65.138	-0.121	0.049
-332.231	603.061	0.059	-0.147
-331.216	25.918	0.034	0.028
-330.202	-173.953	-0.252	0.007
-329.187	86.862	-0.176	-0.195
-328.172	-142.941	-0.364	-0.035
-327.158	-9.875	-0.169	-0.112
-326.143	-200.000	-0.071	0.327
-325.129	350.007	-0.089	-0.175
-324.114	-129.408	0.310	-0.043
-323.099	775.278	0.082	-0.224
-322.085	15.558	-0.189	-0.148
-321.070	363.571	-0.130	-0.261
-320.056	337.793	-0.100	-0.195
-319.041	7.671	-0.123	-0.092
-318.026	99.291	0.157	0.181
-317.012	-200.000	-0.010	-0.315
-315.997	-168.677	0.141	0.005
-314.983	-97.628	-0.217	0.056
-313.968	-154.274	0.093	0.006
-312.953	800.000	-0.063	-0.254
-311.939	789.905	0.050	0.138
-310.924	-199.294	0.199	0.001
-309.910	-167.164	-0.142	-0.006
-308.895	-50.227	0.255	-0.120
-307.880	-200.000	-0.003	-0.350
-306.866	-67.355	0.402	0.158
-305.851	-71.948	-0.190	-0.071
-304.837	-3.688	0.154	-0.107
-303.822	-91.233	0.164	0.047
-302.807	-200.000	0.005	-0.059
-301.793	565.025	-0.086	0.209
-300.778	45.167	-0.152	-0.140
-299.764	-45.054	0.171	0.085
-298.749	221.184	-0.065	-0.104
-297.735	359.728	0.032	-0.064
-296.720	153.798	-0.141	0.193
-295.705	207.564	-0.248	0.386
-294.691	29.411	-0.196	0.166
-293.676	44.717	-0.058	0.054
-292.662	-200.000	-0.004	-0.167
-291.647	-28.130	0.206	-0.119
-290.632	-157.142	0.240	0.015
-289.618	175.405	0.040	-0.058
-288.603	800.000	-0.041	0.150
-287.589	800.000	-0.056	-0.215
-286.574	-138.599	-0.272	-0.030
-285.559	53.373	-0.113	0.108
-284.545	-57.667	0.098	-0.043
-283.530	800.000	-0.048	0.188
-282.516	-44.522	-0.221	0.110
-281.501	-31.324	-0.144	-0.081
-280.486	-106.436	0.209	0.047
-279.472	800.000	0.120	0.363
-278.457	-34.218	-0.115	0.063
-277.443	-200.000	-0.020	0.153
-276.428	504.197	0.041	-0.094
-275.413	159.961	-0.063	0.088
-274.399	-200.000	0.034	0.192
-273.384	-43.606	-0.113	-0.057
-272.370	119.786	0.165	-0.203
-271.355	-110.951	0.291	-0.060
-270.340	512.418	0.081	-0.188
-269.326	-200.000	0.011	-0.105
-268.311	-52.821	-0.264	0.121
-267.297	641.749	0.060	0.153
-266.282	-91.760	-0.194	-0.055
-265.267	-47.864	-0.349	0.168
-264.253	-113.174	0.178	0.035
-263.238	87.268	-0.054	-0.060
-262.224	-130.433	-0.063	0.008
-261.209	-59.633	-0.195	0.083
-260.195	-200.000	-0.037	0.190
-259.180	-90.955	0.200	-0.057
-258.165	-200.000	-0.048	0.254
-257.151	71.572	-0.208	0.215
-256.136	678.348	-0.032	0.083
-255.122	326.913	-0.062	-0.119
-254.107	-22.884	-0.085	0.051
-253.092	22.833	0.163	0.133
-252.078	-46.817	-0.061	-0.030
-251.063	800.000	0.018	-0.049
-250.049	-123.679	0.065	-0.010
-249.034	-95.587	-0.236	0.063
-248.019	-119.091	-0.323	-0.056
-247.005	-49.078	-0.097	-0.046
-245.990	-101.463	0.084	0.020
-244.976	304.794	-0.045	-0.084
-243.961	263.319	-0.064	-0.111
-242.946	-200.000	-0.003	0.078
-241.932	-11.787	0.295	-0.193
-240.917	-200.000	-0.046	-0.465
-239.903	-200.000	-0.001	-0.305
-238.888	215.522	0.070	0.111
-237.873	-200.000	-0.025	-0.177
-236.859	-149.303	0.211	0.017
-235.844	-200.000	0.038	-0.302
-234.830	752.553	-0.138	-0.372
-233.815	246.986	0.149	0.250
-232.800	-200.000	-0.026	0.133
-231.786	22.589	-0.281	-0.229
-230.771	800.000	-0.050	-0.189
-229.757	-108.212	0.290	0.062
-228.742	-31.841	0.239	0.133
-227.727	-200.000	0.004	0.064
-226.713	144.310	-0.157	0.209
-225.698	-100.167	0.597	0.148
-224.684	800.000	0.039	0.148
-223.669	-146.569	0.288	-0.025
-222.655	-70.286	0.353	0.133
-221.640	-111.678	-0.368	-0.074
-220.625	517.003	0.008	-0.018
-219.611	165.734	0.193	-0.271
-218.596	514.825	-0.083	0.194
-217.582	-141.754	0.116	0.012
-216.567	-146.182	-0.392	0.034
-215.552	-1.551	-0.257	-0.180
-214.538	-200.000	0.016	-0.104
-213.523	-127.678	0.080	-0.012
-212.509	-19.532	-0.371	-0.228
-211.494	-32.147	0.268	0.149
-210.479	-200.000	-0.046	-0.366
-209.465	498.974	-0.087	-0.200
-208.450	-27.841	-0.308	-0.178
-207.436	20.548	-0.044	0.035
-206.421	-200.000	0.007	-0.102
-205.406	-200.000	-0.023	-0.144
-204.392	421.648	0.081	-0.172
-203.377	-49.426	0.115	0.055
-202.363	-103.409	0.249	-0.058
-201.348	9.951	-0.163	-0.123
-200.333	-106.442	-0.123	-0.027
-199.319	217.305	0.099	-0.156
-198.304	-200.000	0.013	-0.297
-197.290	-30.893	-0.087	0.049
-196.275	312.609	0.097	0.182
-195.260	70.110	-0.027	0.028
-194.246	396.247	0.060	-0.124
-193.231	-16.746	-0.182	0.114
-192.217	304.576	0.068	0.126
-191.202	-200.000	-0.040	-0.425
-190.187	-19.178	0.119	-0.074
-189.173	-51.804	0.176	-0.081
-188.158	119.108	-0.159	0.196
-187.144	49.956	0.030	-0.028
-186.129	-122.136	0.261	0.043
-185.114	-3.854	-0.041	-0.028
-184.100	81.004	0.137	0.147
-183.085	-57.663	0.406	-0.177
-182.071	-30.002	-0.325	0.184
-181.056	-200.000	-0.207	0.000
-180.042	800.000	-0.046	-0.136
-179.027	800.000	-0.025	-0.091
-178.012	-111.430	0.066	-0.013
-176.998	154.629	-0.131	0.178
-175.983	241.847	0.212	0.351
-174.969	114.313	-0.103	-0.124
-173.954	-14.552	0.159	0.101
-172.939	58.741	-0.400	-0.390
-171.925	-200.000	-0.044	0.261
-170.910	-24.097	0.504	0.299
-169.896	-153.996	0.283	-0.019
-168.881	-195.486	0.262	-0.002
-167.866	323.091	0.097	0.184
-166.852	-48.023	0.053	0.026
-165.837	-200.000	0.015	-0.149
-164.823	800.000	-0.071	0.253
-163.808	-200.000	-0.009	0.132
-162.793	-102.404	0.243	-0.058
-161.779	-15.180	-0.225	-0.143
-160.764	-16.259	0.207	-0.131
-159.750	-155.765	-0.215	0.014
-158.735	-200.000	0.023	0.140
-157.720	-104.157	0.318	-0.073
-156.706	205.910	0.093	0.144
-155.691	47.863	-0.227	-0.211
-154.677	282.350	-0.037	-0.066
-153.662	-200.000	0.005	0.095
-152.647	-71.004	0.031	-0.012
-151.633	-200.000	-0.040	0.338
-150.618	-88.945	0.326	-0.096
-149.604	451.739	-0.062	0.135
-148.589	-168.874	0.497	-0.019
-147.574	-32.003	0.155	-0.086
-146.560	-122.503	0.279	0.045
-145.545	-60.937	-0.127	-0.053
-144.531	-89.705	0.226	-0.066
-143.516	-183.661	-0.183	-0.003
-142.502	-200.000	0.057	0.319
-141.487	-94.844	0.133	-0.036
-140.472	-104.923	0.112	0.026
-139.458	158.442	-0.112	-0.154
-138.443	-200.000	-0.005	-0.273
-137.429	308.520	0.021	-0.039
-136.414	-138.476	-0.317	-0.035
-135.399	-200.000	0.003	0.156
-134.385	-65.783	-0.171	-0.068
-133.370	70.898	0.130	-0.134
-132.356	-73.959	0.210	-0.076
-131.341	-51.195	0.156	0.073
-130.326	-166.499	0.412	0.017
-129.312	22.108	-0.010	0.008
-128.297	-200.000	-0.059	-0.495
-127.283	-66.257	0.138	0.054
-126.268	90.649	-0.130	0.145
-125.253	-124.793	0.387	-0.059
-124.239	-133.605	-0.076	-0.009
-123.224	-44.089	0.200	-0.099
-122.210	96.820	0.061	0.069
