DTS Sentinel unit serial number:	SN413079Multiplexer serial number:	ORYXHardware model number:	OX4-SRSoftware version number:	ORYX F/W v4.00 Oryx Data Collector v3.7.2.0data status	okinstallation	princeton_trtdifferential loss correction	single-endedforward channel	channel 4reverse channel	N/Adate	2019/09/11time	19:39:10forward acquisition time	60.00reverse acquisition time	0.00gamma	496.2192k internal	0.2297k external	0.2297temperature offset calibration	1.0045default loss term (dB/km)	0.3790temperature slope calibration	1.0000multiplexer offset coefficient	1.0000multiplexer slope coefficient	1.0000fibre end	0.00T internal ref (°C)	39.87T ext. ref 1 (°C)	1.34T ext. ref 2 (°C)	32.42length (m)	temperature (°C)	Stokes	anti-Stokes-747.200	370.741	0.083	0.173
-746.185	-185.857	-0.192	0.003
-745.171	464.642	0.123	0.282
-744.156	372.301	-0.111	0.230
-743.142	98.318	-0.084	0.099
-742.127	-200.000	-0.027	0.134
-741.112	-200.000	-0.004	-0.129
-740.098	-68.333	-0.284	0.113
-739.083	-56.161	0.296	-0.135
-738.069	-164.334	-0.138	0.006
-737.054	72.693	0.103	-0.110
-736.039	-89.288	0.230	-0.069
-735.025	-85.461	0.184	-0.058
-734.010	-77.498	-0.069	-0.024
-732.996	-60.929	-0.158	0.068
-731.981	800.000	0.014	0.056
-730.966	-145.820	-0.390	0.035
-729.952	800.000	0.037	0.145
-728.937	150.024	0.141	0.195
-727.923	19.436	0.185	0.152
-726.908	-111.634	-0.137	0.028
-725.894	64.690	0.156	-0.160
-724.879	-102.844	-0.438	-0.106
-723.864	291.289	-0.178	-0.331
-722.850	144.826	-0.195	-0.266
-721.835	-200.000	0.027	-0.133
-720.821	-113.829	0.164	-0.033
-719.806	557.984	-0.046	0.112
-718.791	-55.849	-0.034	-0.016
-717.777	-93.881	-0.131	-0.037
-716.762	-137.480	0.093	0.011
-715.748	281.681	0.077	0.141
-714.733	-51.607	0.224	-0.107
-713.718	800.000	0.094	-0.339
-712.704	-44.915	0.039	0.020
-711.689	-110.075	-0.342	-0.073
-710.675	-132.592	0.195	0.026
-709.660	-88.442	0.441	-0.134
-708.645	-35.149	-0.196	0.109
-707.631	-198.246	-0.357	-0.002
-706.616	281.082	0.110	0.202
-705.602	10.171	-0.155	-0.120
-704.587	-13.613	-0.146	0.097
-703.572	-164.368	-0.142	0.007
-702.558	-200.000	0.017	-0.371
-701.543	164.659	-0.143	-0.206
-700.529	-5.323	-0.281	-0.197
-699.514	-122.725	-0.313	-0.052
-698.499	505.970	-0.165	-0.390
-697.485	800.000	0.044	-0.137
-696.470	400.427	-0.013	0.028
-695.456	20.597	-0.214	0.177
-694.441	800.000	0.096	-0.358
-693.426	-66.927	0.251	-0.101
-692.412	800.000	0.013	-0.050
-691.397	710.870	-0.072	0.195
-690.383	-13.633	-0.242	-0.160
-689.368	-200.000	0.020	-0.174
-688.354	-95.799	-0.268	0.073
-687.339	83.848	0.163	0.181
-686.324	1.273	-0.238	-0.174
-685.310	800.000	-0.053	-0.196
-684.295	41.661	-0.100	0.092
-683.281	26.200	0.145	-0.124
-682.266	538.147	-0.104	-0.252
-681.251	-123.734	-0.279	-0.045
-680.237	800.000	-0.048	-0.138
-679.222	143.073	0.235	-0.318
-678.208	-81.358	-0.325	-0.109
-677.193	-62.700	0.215	0.091
-676.178	800.000	-0.125	-0.395
-675.164	440.265	0.042	0.094
-674.149	-200.000	0.007	-0.068
-673.135	124.167	0.225	0.288
-672.120	538.856	0.071	-0.173
-671.105	800.000	0.020	-0.089
-670.091	-94.866	-0.127	0.035
-669.076	-200.000	-0.015	-0.118
-668.062	10.187	-0.108	0.083
-667.047	645.526	-0.134	-0.349
-666.032	-177.020	-0.219	-0.006
-665.018	-200.000	-0.109	-0.603
-664.003	218.622	-0.112	-0.182
-662.989	-68.262	-0.253	-0.100
-661.974	-126.721	-0.117	-0.018
-660.959	4.435	0.250	0.187
-659.945	-51.015	-0.283	0.135
-658.930	31.683	-0.107	-0.094
-657.916	5.950	0.116	-0.087
-656.901	-168.847	0.061	0.002
-655.886	6.746	0.296	0.224
-654.872	295.517	-0.150	-0.279
-653.857	38.266	0.123	0.112
-652.843	510.751	-0.045	-0.107
-651.828	-200.000	-0.037	-0.374
-650.814	464.305	-0.104	-0.237
-649.799	-90.232	-0.137	-0.040
-648.784	-200.000	-0.023	-0.177
-647.770	-49.195	-0.100	-0.049
-646.755	173.498	0.042	-0.061
-645.741	-200.000	-0.012	0.164
-644.726	-55.560	0.207	-0.094
-643.711	155.755	0.208	-0.292
-642.697	148.010	0.165	-0.226
-641.682	516.904	0.168	-0.400
-640.668	-4.127	0.200	-0.141
-639.653	-33.641	-0.064	0.036
-638.638	-200.000	-0.002	0.054
-637.624	-119.040	-0.264	0.047
-636.609	-200.000	0.008	-0.262
-635.595	238.758	0.056	-0.094
-634.580	56.589	0.063	0.063
-633.565	-140.099	-0.478	0.051
-632.551	-106.962	0.259	0.058
-631.536	-114.942	0.097	-0.019
-630.522	-74.158	0.263	0.097
-629.507	163.928	-0.152	-0.218
-628.492	800.000	-0.132	0.395
-627.478	625.356	-0.216	0.554
-626.463	-98.815	-0.074	-0.019
-625.449	78.804	-0.251	-0.273
-624.434	31.782	0.128	0.112
-623.419	4.692	0.219	-0.164
-622.405	-157.548	0.171	-0.010
-621.390	84.830	0.047	-0.052
-620.376	800.000	-0.048	0.153
-619.361	107.208	0.245	-0.296
-618.346	246.766	-0.095	0.163
-617.332	704.240	0.070	-0.188
-616.317	-107.111	-0.319	-0.072
-615.303	-75.091	0.267	0.097
-614.288	142.811	-0.095	-0.128
-613.273	-27.574	0.210	-0.124
-612.259	59.265	0.211	-0.212
-611.244	-200.000	-0.020	-0.282
-610.230	-72.172	0.250	-0.094
-609.215	-162.071	-0.323	0.016
-608.201	-200.000	-0.035	-0.269
-607.186	-143.473	0.423	-0.041
-606.171	-143.447	-0.317	-0.031
-605.157	-17.685	-0.287	0.183
-604.142	-39.082	-0.148	0.079
-603.128	67.147	0.095	-0.098
-602.113	800.000	-0.056	0.220
-601.098	-182.761	0.268	0.005
-600.084	-5.265	-0.275	0.192
-599.069	8.580	0.153	0.117
-598.055	-19.118	0.170	-0.107
-597.040	-7.592	0.289	-0.199
-596.025	-48.297	0.365	-0.179
-595.011	493.452	0.171	0.398
-593.996	37.616	-0.098	0.088
-592.982	121.716	0.121	0.154
-591.967	-89.236	-0.123	0.037
-590.952	-64.750	-0.262	-0.108
-589.938	-176.108	-0.123	-0.003
-588.923	-170.678	0.092	-0.003
-587.909	-10.971	0.189	0.127
-586.894	800.000	0.053	-0.186
-585.879	-200.000	0.055	0.263
-584.865	-200.000	0.018	0.129
-583.850	-200.000	-0.030	0.202
-582.836	96.511	0.058	0.067
-581.821	-200.000	0.040	-0.439
-580.806	-18.893	-0.327	-0.207
-579.792	321.307	0.111	0.215
-578.777	-200.000	-0.021	-0.147
-577.763	-162.080	-0.245	-0.012
-576.748	123.762	0.071	0.090
-575.733	-41.485	-0.153	0.080
-574.719	225.843	-0.066	-0.109
-573.704	-132.060	-0.214	0.028
-572.690	421.243	-0.149	0.323
-571.675	800.000	-0.052	-0.222
-570.661	189.680	0.060	-0.091
-569.646	-88.091	-0.148	0.045
-568.631	-68.295	0.270	-0.106
-567.617	-88.493	-0.146	-0.044
-566.602	-8.899	0.149	0.102
-565.588	171.575	-0.205	-0.299
-564.573	457.606	-0.074	-0.167
-563.558	63.548	0.309	0.314
-562.544	67.960	-0.123	0.128
-561.529	-92.740	-0.129	0.037
-560.515	-136.668	-0.591	0.069
-559.500	51.223	0.224	-0.216
-558.485	40.580	-0.151	0.138
-557.471	-133.021	0.047	0.006
-556.456	-200.000	-0.005	0.322
-555.442	293.132	0.198	-0.367
-554.427	290.930	-0.038	-0.070
-553.412	800.000	-0.051	-0.197
-552.398	-44.219	0.424	-0.216
-551.383	-25.543	0.073	-0.044
-550.369	-87.843	-0.252	-0.077
-549.354	800.000	-0.075	-0.269
-548.339	-8.725	-0.157	0.107
-547.325	47.766	0.227	0.215
-546.310	248.273	0.148	-0.253
-545.296	20.105	0.153	0.125
-544.281	41.162	-0.142	0.130
-543.266	-200.000	-0.027	-0.136
-542.252	-91.024	0.187	-0.055
-541.237	-189.660	-0.347	-0.004
-540.223	211.102	-0.058	0.093
-539.208	800.000	0.017	-0.062
-538.193	-200.000	0.012	-0.081
-537.179	-98.726	-0.164	0.042
-536.164	-3.117	0.222	0.157
-535.150	-200.000	-0.035	0.243
-534.135	43.459	-0.214	0.198
-533.121	223.678	0.001	0.002
-532.106	-81.276	0.184	0.062
-531.091	18.842	-0.280	0.227
-530.077	-61.334	-0.161	0.069
-529.062	190.645	-0.016	0.025
-528.048	-100.125	-0.152	0.038
-527.033	-162.311	-0.277	-0.014
-526.018	800.000	0.080	-0.302
-525.004	-65.531	0.027	-0.011
-523.989	-200.000	-0.034	-0.178
-522.975	130.502	-0.209	0.272
-521.960	8.285	-0.165	0.126
-520.945	-149.672	0.227	-0.018
-519.931	800.000	0.097	-0.314
-518.916	-115.749	0.291	0.055
-517.902	-200.000	-0.035	-0.201
-516.887	-153.348	0.263	-0.019
-515.872	-200.000	-0.014	-0.206
-514.858	-61.623	-0.216	0.092
-513.843	-87.994	0.229	0.070
-512.829	-128.112	-0.414	0.060
-511.814	45.651	-0.225	-0.210
-510.799	-200.000	0.243	-0.000
-509.785	-137.216	-0.537	-0.062
-508.770	99.350	0.217	0.254
-507.756	-34.357	0.247	0.137
-506.741	-200.000	-0.052	0.441
-505.726	-115.450	0.114	0.022
-504.712	-30.926	-0.169	-0.097
-503.697	800.000	0.045	-0.151
-502.683	-40.194	0.257	0.136
-501.668	125.526	-0.206	0.263
-500.653	564.294	0.109	0.267
-499.639	96.694	0.227	-0.264
-498.624	-49.582	0.477	0.230
-497.610	-169.298	0.269	-0.010
-496.595	11.221	-0.062	0.048
-495.581	1.644	-0.310	0.226
-494.566	163.664	0.074	-0.106
-493.551	-60.152	0.146	-0.063
-492.537	-72.611	0.082	0.030
-491.522	800.000	-0.011	0.035
-490.508	-200.000	0.010	0.045
-489.493	99.984	0.294	0.344
-488.478	-16.742	0.183	-0.117
-487.464	102.111	0.291	-0.343
-486.449	187.094	-0.306	-0.461
-485.435	75.022	-0.258	-0.275
-484.420	37.924	-0.309	-0.277
-483.405	32.400	0.259	-0.226
-482.391	436.398	0.033	-0.073
-481.376	-200.000	0.003	-0.033
-480.362	800.000	-0.044	-0.184
-479.347	-19.378	-0.208	0.130
-478.332	-88.672	-0.515	-0.155
-477.318	-123.359	0.453	-0.073
-476.303	-148.199	0.105	-0.009
-475.289	717.450	0.051	-0.138
-474.274	-88.115	0.087	-0.026
-473.259	735.084	0.059	-0.161
-472.245	-39.539	-0.191	-0.101
-471.230	70.937	0.142	0.149
-470.216	300.574	0.056	-0.104
-469.201	-48.669	-0.223	0.108
-468.186	169.432	-0.152	-0.219
-467.172	-200.000	-0.046	0.225
-466.157	29.992	-0.228	0.197
-465.143	-5.870	0.094	0.065
-464.128	-200.000	-0.039	0.220
-463.113	36.591	0.339	0.302
-462.099	-21.422	0.095	0.059
-461.084	-20.972	-0.344	-0.213
-460.070	-200.000	0.017	-0.359
-459.055	109.652	0.076	-0.092
-458.040	420.625	0.180	-0.390
-457.026	-32.993	0.240	0.135
-456.011	-200.000	0.062	-0.380
-454.997	-200.000	-0.020	-0.224
-453.982	-96.433	-0.076	0.020
-452.968	800.000	-0.122	-0.382
-451.953	519.401	0.050	0.118
-450.938	435.287	-0.076	0.166
-449.924	-200.000	-0.012	0.118
-448.909	-121.569	-0.023	-0.004
-447.895	-146.536	0.181	-0.016
-446.880	134.152	-0.097	0.127
-445.865	-44.306	0.041	0.021
-444.851	152.801	0.078	-0.107
-443.836	92.049	-0.299	0.340
-442.822	91.172	0.069	-0.078
-441.807	172.818	0.072	0.105
-440.792	108.156	0.154	0.185
-439.778	-10.772	-0.085	-0.057
-438.763	95.032	-0.101	-0.116
-437.749	-175.081	-0.125	0.004
-436.734	-197.205	0.318	-0.002
-435.719	19.048	0.184	-0.149
-434.705	800.000	-0.106	-0.330
-433.690	144.927	-0.085	-0.114
-432.676	26.638	0.371	-0.313
-431.661	30.335	0.212	-0.183
-430.646	-25.149	-0.121	0.072
-429.632	-200.000	-0.030	0.266
-428.617	158.295	-0.145	-0.203
-427.603	455.702	-0.062	-0.139
-426.588	-16.150	-0.059	0.038
-425.573	-200.000	0.029	0.148
-424.559	306.508	-0.123	-0.230
-423.544	578.030	0.167	0.413
-422.530	70.887	0.067	0.070
-421.515	-1.029	-0.316	0.226
-420.500	-200.000	0.022	-0.143
-419.486	753.135	-0.045	0.123
-418.471	-200.000	0.003	0.323
-417.457	-7.864	0.107	-0.073
-416.442	-11.824	-0.224	-0.148
-415.428	76.458	-0.113	-0.121
-414.413	-200.000	0.055	0.358
-413.398	337.078	-0.127	0.250
-412.384	326.811	-0.158	-0.304
-411.369	-41.812	0.191	-0.099
-410.355	800.000	0.095	0.316
-409.340	64.065	0.241	-0.245
-408.325	28.701	0.129	-0.110
-407.311	176.117	0.155	-0.227
-406.296	-200.000	0.061	0.302
-405.282	716.531	-0.094	0.251
-404.267	515.250	-0.094	0.222
-403.252	49.911	0.054	-0.051
-402.238	63.686	0.135	0.137
-401.223	63.940	0.318	0.322
-400.209	721.977	-0.044	-0.119
-399.194	189.771	0.063	-0.096
-398.179	315.452	0.054	0.102
-397.165	13.802	0.303	0.238
-396.150	-200.000	0.031	0.244
-395.136	87.207	-0.348	0.388
-394.121	-147.952	0.102	-0.009
-393.106	-200.000	-0.004	0.092
-392.092	275.463	-0.091	-0.163
-391.077	-113.807	0.216	0.042
-390.063	-51.726	0.147	-0.069
-389.048	-11.292	0.070	-0.047
-388.033	352.640	-0.174	-0.348
-387.019	607.805	-0.219	-0.551
-386.004	67.985	-0.169	-0.174
-384.990	800.000	-0.063	-0.202
-383.975	-29.488	-0.084	0.049
-382.960	-137.971	0.326	0.037
-381.946	-112.915	0.158	0.032
-380.931	-70.406	-0.549	-0.210
-379.917	219.674	0.172	0.277
-378.902	-110.612	0.345	-0.072
-377.888	147.992	0.106	-0.144
-376.873	26.632	-0.270	-0.228
-375.858	800.000	0.006	0.027
-374.844	138.301	-0.163	0.215
-373.829	-4.262	-0.054	0.037
-372.815	-81.969	0.094	0.031
-371.800	38.979	0.095	-0.085
-370.785	21.717	0.183	0.150
-369.771	272.795	-0.224	0.397
-368.756	-105.824	-0.292	0.066
-367.742	120.369	-0.192	0.240
-366.727	-40.788	-0.251	-0.131
-365.712	6.047	-0.162	-0.120
-364.698	-200.000	-0.045	0.208
-363.683	-113.223	-0.296	0.059
-362.669	800.000	0.098	0.384
-361.654	137.592	0.179	-0.236
-360.639	800.000	-0.064	-0.243
-359.625	-32.323	0.391	0.220
-358.610	-73.623	-0.253	0.093
-357.596	-129.545	0.189	0.026
-356.581	417.349	0.169	-0.364
-355.566	174.037	0.165	0.240
-354.552	-169.735	0.244	0.009
-353.537	-200.000	-0.000	0.157
-352.523	651.540	0.022	0.056
-351.508	-46.572	-0.248	0.122
-350.493	-200.000	-0.024	0.356
-349.479	-84.145	0.193	0.062
-348.464	182.578	-0.269	-0.399
-347.450	-61.538	-0.242	0.102
-346.435	79.614	0.195	0.210
-345.420	21.981	0.032	0.026
-344.406	23.774	-0.151	-0.125
-343.391	-171.907	-0.173	0.006
-342.377	-116.750	-0.101	-0.019
-341.362	-30.839	-0.107	-0.061
-340.348	-187.008	0.409	-0.006
-339.333	-77.415	0.149	0.052
-338.318	-37.746	-0.098	-0.053
-337.304	138.606	-0.106	-0.139
-336.289	60.651	-0.177	-0.176
-335.275	18.361	-0.175	-0.141
-334.260	234.492	-0.165	-0.273
-333.245	-200.000	-0.010	0.101
-332.231	-41.967	-0.188	-0.097
-331.216	218.061	-0.090	0.145
-330.202	56.338	0.108	-0.105
-329.187	-18.394	-0.127	0.079
-328.172	197.476	-0.151	0.232
-327.158	800.000	0.126	0.408
-326.143	-200.000	-0.062	-0.474
-325.129	800.000	0.150	0.508
-324.114	-88.115	-0.037	-0.011
-323.099	111.965	0.126	-0.153
-322.085	139.835	0.045	0.060
-321.070	800.000	0.123	0.483
-320.056	390.638	0.104	0.217
-319.041	800.000	-0.056	-0.214
-318.026	40.961	-0.102	0.093
-317.012	127.037	0.132	-0.168
-315.997	-125.151	-0.289	0.045
-314.983	-200.000	0.073	-0.337
-313.968	-200.000	0.010	0.102
-312.953	190.801	0.110	0.166
-311.939	-76.055	0.247	-0.087
-310.924	-162.059	-0.123	-0.006
-309.910	-81.494	-0.080	0.026
-308.895	68.983	-0.144	-0.148
-307.880	-122.354	-0.261	-0.043
-306.866	-144.852	-0.122	-0.011
-305.851	7.068	-0.230	-0.172
-304.837	88.021	0.278	0.310
-303.822	59.006	0.130	-0.129
-302.807	1.930	-0.212	-0.154
-301.793	43.246	0.348	0.319
-300.778	-178.800	-0.213	-0.005
-299.764	-57.710	-0.124	-0.055
-298.749	-39.901	0.109	-0.057
-297.735	172.845	-0.206	0.298
-296.720	57.129	-0.161	0.157
-295.705	515.037	-0.129	0.302
-294.691	-66.257	0.085	-0.034
-293.676	800.000	-0.060	0.227
-292.662	-74.672	-0.375	0.136
-291.647	-129.895	-0.257	-0.035
-290.632	131.071	0.071	0.091
-289.618	68.972	0.230	-0.237
-288.603	123.435	-0.168	0.212
-287.589	224.129	0.097	0.157
-286.574	-118.114	-0.072	0.013
-285.559	-200.000	-0.014	0.195
-284.545	487.671	0.023	0.052
-283.530	247.640	-0.045	0.076
-282.516	146.389	0.056	0.075
-281.501	-57.174	-0.135	0.060
-280.486	800.000	0.136	-0.426
-279.472	-120.922	0.171	-0.029
-278.457	-179.486	0.359	0.008
-277.443	-12.750	0.173	-0.113
-276.428	798.278	0.043	0.119
-275.413	-58.057	0.091	0.040
-274.399	235.175	-0.138	0.229
-273.384	88.208	-0.043	0.048
-272.370	7.971	-0.106	0.080
-271.355	-109.577	0.194	0.041
-270.340	-42.103	-0.174	0.089
-269.326	-174.252	-0.049	0.001
-268.311	-62.935	-0.169	0.070
-267.297	-43.951	0.257	0.130
-266.282	-200.000	0.032	-0.329
-265.267	139.921	0.132	-0.174
-264.253	132.904	0.022	0.029
-263.238	-46.275	0.186	-0.092
-262.224	-138.291	0.297	-0.033
-261.209	-90.388	-0.350	-0.102
-260.195	117.502	0.147	-0.182
-259.180	800.000	-0.072	0.229
-258.165	-154.187	-0.275	-0.019
-257.151	-98.814	0.150	-0.038
-256.136	472.008	-0.099	-0.224
-255.122	-143.044	0.219	-0.021
-254.107	-147.515	-0.115	-0.010
-253.092	537.263	0.079	-0.187
-252.078	101.703	0.107	0.126
-251.063	-118.970	0.163	-0.029
-250.049	800.000	-0.056	-0.195
-249.034	-29.170	-0.280	-0.161
-248.019	-45.474	0.073	-0.036
-247.005	23.583	0.154	-0.127
-245.990	-200.000	0.002	0.128
-244.976	-114.330	0.239	-0.046
-243.961	-152.233	0.244	0.018
-242.946	800.000	-0.108	0.446
-241.932	-148.726	0.109	-0.009
-240.917	210.329	-0.075	-0.117
-239.903	-200.000	0.013	0.235
-238.888	-200.000	-0.037	-0.205
-237.873	-40.808	0.322	0.167
-236.859	155.705	-0.131	0.181
-235.844	-200.000	-0.041	0.300
-234.830	-124.090	-0.034	-0.005
-233.815	-17.590	-0.331	0.208
-232.800	-77.695	-0.083	-0.029
-231.786	-200.000	0.016	0.141
-230.771	-101.159	0.252	-0.062
-229.757	-31.176	-0.072	-0.041
-228.742	-198.621	-0.440	0.002
-227.727	-59.702	-0.223	0.096
-226.713	-200.000	0.008	-0.044
-225.698	247.241	-0.163	-0.275
-224.684	-136.569	0.083	-0.010
-223.669	-103.117	0.221	-0.052
-222.655	395.847	0.087	0.183
-221.640	40.699	0.099	-0.089
-220.625	495.857	-0.083	-0.192
-219.611	-140.949	-0.349	0.036
-218.596	-139.020	-0.114	0.012
-217.582	202.555	0.152	0.235
-216.567	13.591	0.141	0.110
-215.552	325.497	0.039	0.075
-214.538	-33.037	-0.208	0.115
-213.523	-144.719	0.269	0.025
-212.509	-37.897	-0.127	0.068
-211.494	800.000	0.051	-0.204
-210.479	-13.331	0.145	0.094
-209.465	-76.770	-0.069	0.024
-208.450	-200.000	-0.009	-0.092
-207.436	140.006	-0.041	0.054
-206.421	-68.855	0.107	0.041
-205.406	79.349	-0.105	0.113
-204.392	172.301	-0.127	0.182
-203.377	-51.313	0.154	0.072
-202.363	-140.881	-0.011	-0.001
-201.348	-200.000	0.014	-0.067
-200.333	-12.380	0.094	0.062
-199.319	-133.178	-0.269	-0.034
-198.304	-47.746	0.241	-0.117
-197.290	-61.783	0.221	0.092
-196.275	800.000	0.063	-0.243
-195.260	800.000	-0.085	0.345
-194.246	495.113	0.147	0.337
-193.231	-101.839	-0.026	-0.006
-192.217	393.696	-0.118	-0.245
-191.202	122.502	-0.183	-0.228
-190.187	-86.224	0.090	0.028
-189.173	27.575	0.075	-0.063
-188.158	17.169	0.086	0.068
-187.144	-200.000	0.008	0.079
-186.129	800.000	-0.089	0.264
-185.114	-81.318	-0.205	-0.068
-184.100	-132.168	0.321	0.042
-183.085	204.089	-0.103	-0.159
-182.071	15.180	0.245	-0.192
-181.056	-194.416	0.226	0.002
-180.042	-77.685	0.071	0.025
-179.027	-200.000	0.018	0.225
-178.012	648.297	0.094	0.240
-176.998	-182.590	-0.291	-0.005
-175.983	-200.000	0.067	-0.512
-174.969	800.000	0.044	-0.177
-173.954	-110.748	-0.186	-0.038
-172.939	-6.239	0.233	-0.159
-171.925	-200.000	0.012	-0.088
-170.910	12.520	0.028	0.022
-169.896	68.616	-0.027	-0.027
-168.881	-200.000	0.026	-0.230
-167.866	-200.000	-0.027	-0.194
-166.852	415.310	0.135	0.288
-165.837	-200.000	0.021	-0.114
-164.823	800.000	0.111	-0.484
-163.808	-162.079	-0.085	0.004
-162.793	41.801	-0.121	-0.109
-161.779	-79.878	-0.111	0.037
-160.764	287.119	-0.139	-0.252
-159.750	-7.812	0.249	0.168
-158.735	-120.520	-0.128	0.022
-157.720	-55.810	0.258	0.115
-156.706	-200.000	0.024	0.310
-155.691	-177.776	-0.183	0.004
-154.677	-200.000	-0.021	0.266
-153.662	-19.217	-0.229	0.142
-152.647	98.399	-0.225	-0.258
-151.633	162.126	-0.143	-0.199
-150.618	464.932	0.147	0.327
-149.604	-147.123	-0.471	0.040
-148.589	-65.876	-0.091	0.036
-147.574	-62.459	0.138	0.057
-146.560	-85.359	-0.102	0.032
-145.545	-3.896	0.286	-0.198
-144.531	-200.000	-0.036	0.222
-143.516	-200.000	0.011	-0.121
-142.502	19.561	0.130	0.105
-141.487	545.272	0.094	-0.224
-140.472	98.691	-0.096	0.111
-139.458	60.736	0.025	-0.025
-138.443	-62.232	0.419	0.174
-137.429	88.331	-0.246	-0.272
-136.414	-134.190	-0.087	-0.011
-135.399	-5.150	0.139	0.095
-134.385	-44.150	-0.221	-0.111
-133.370	0.043	-0.235	-0.167
-132.356	-200.000	0.029	0.425
-131.341	-31.026	0.148	0.083
-130.326	136.708	0.135	0.176
-129.312	-160.899	0.263	-0.014
-128.297	56.826	-0.339	0.329
-127.283	450.176	-0.033	-0.073
-126.268	800.000	-0.077	0.303
-125.253	32.072	0.034	0.029
-124.239	-200.000	-0.039	-0.335
-123.224	800.000	-0.024	0.103
-122.210	-200.000	0.026	-0.194
-121.195	800.000	0.132	0.392
