DTS Sentinel unit serial number:	SN413079Multiplexer serial number:	ORYXHardware model number:	OX4-SRSoftware version number:	ORYX F/W v4.00 Oryx Data Collector v3.7.2.0data status	okinstallation	princeton_trtdifferential loss correction	single-endedforward channel	channel 4reverse channel	N/Adate	2019/09/13time	12:57:35forward acquisition time	60.00reverse acquisition time	0.00gamma	496.2192k internal	0.2297k external	0.2297temperature offset calibration	1.0210default loss term (dB/km)	0.3790temperature slope calibration	1.0000multiplexer offset coefficient	1.0000multiplexer slope coefficient	1.0000fibre end	0.00T internal ref (°C)	34.77T ext. ref 1 (°C)	4.58T ext. ref 2 (°C)	30.71length (m)	temperature (°C)	Stokes	anti-Stokes-747.200	-51.989	-0.227	-0.108
-746.185	-117.659	-0.292	-0.054
-745.171	345.188	-0.047	-0.094
-744.156	205.022	0.093	-0.148
-743.142	-69.838	-0.229	0.089
-742.127	-8.620	-0.185	0.127
-741.112	-86.949	0.258	0.080
-740.098	-200.000	0.014	0.242
-739.083	-108.753	-0.216	-0.047
-738.069	53.598	-0.213	0.209
-737.054	211.480	-0.196	-0.314
-736.039	242.016	-0.172	-0.293
-735.025	244.873	-0.207	0.355
-734.010	-52.714	-0.256	-0.121
-732.996	800.000	-0.091	-0.322
-731.981	323.616	-0.019	0.038
-730.966	-121.442	0.188	-0.032
-729.952	-200.000	0.004	0.148
-728.937	255.511	-0.097	-0.170
-727.923	-101.901	0.191	0.047
-726.908	-97.033	-0.158	-0.042
-725.894	-113.014	0.090	-0.018
-724.879	-159.543	-0.189	0.011
-723.864	163.666	0.082	-0.118
-722.850	13.149	-0.124	0.098
-721.835	48.821	0.108	-0.103
-720.821	800.000	-0.113	-0.475
-719.806	-7.297	-0.198	-0.137
-718.791	-120.844	-0.361	-0.062
-717.777	-200.000	-0.061	-0.408
-716.762	-107.475	0.193	0.043
-715.748	-39.184	-0.098	-0.053
-714.733	-62.909	0.224	-0.094
-713.718	97.050	0.298	-0.349
-712.704	85.541	-0.041	0.046
-711.689	84.912	0.083	0.092
-710.675	800.000	0.018	-0.063
-709.660	-200.000	0.071	-0.342
-708.645	800.000	0.122	-0.402
-707.631	481.170	-0.067	-0.156
-706.616	800.000	-0.040	-0.164
-705.602	20.966	0.162	0.134
-704.587	9.390	-0.068	-0.052
-703.572	800.000	0.018	-0.055
-702.558	-46.295	-0.380	-0.191
-701.543	443.994	0.098	0.219
-700.529	-200.000	-0.041	-0.230
-699.514	11.866	-0.196	-0.154
-698.499	-102.189	0.087	0.021
-697.485	800.000	0.036	0.137
-696.470	-61.674	-0.101	-0.043
-695.456	-200.000	-0.024	-0.426
-694.441	-31.403	-0.083	-0.047
-693.426	-24.457	0.224	-0.136
-692.412	324.126	0.121	-0.235
-691.397	131.343	0.178	0.233
-690.383	-67.317	-0.125	-0.050
-689.368	213.594	-0.166	0.267
-688.354	800.000	0.057	0.206
-687.339	4.724	0.149	-0.111
-686.324	416.907	-0.049	-0.107
-685.310	582.511	-0.173	-0.432
-684.295	245.882	0.097	0.166
-683.281	508.947	0.115	-0.273
-682.266	-116.324	0.073	0.014
-681.251	-200.000	0.038	-0.244
-680.237	-76.315	-0.273	0.098
-679.222	-41.811	-0.138	-0.072
-678.208	666.523	0.082	0.216
-677.193	-11.067	-0.133	-0.089
-676.178	179.061	-0.195	-0.290
-675.164	319.490	-0.081	-0.157
-674.149	69.906	0.123	-0.129
-673.135	74.029	-0.127	0.136
-672.120	800.000	-0.043	-0.176
-671.105	114.880	0.206	-0.256
-670.091	378.923	-0.045	-0.094
-669.076	-166.058	-0.061	0.003
-668.062	129.764	-0.194	-0.252
-667.047	-1.917	-0.160	-0.114
-666.032	-200.000	-0.011	0.115
-665.018	800.000	0.044	-0.171
-664.003	335.349	0.268	0.530
-662.989	800.000	-0.028	0.099
-661.974	-200.000	0.021	-0.111
-660.959	162.905	-0.164	-0.234
-659.945	260.484	0.096	0.170
-658.930	-200.000	0.005	-0.219
-657.916	173.897	-0.068	0.100
-656.901	-193.346	0.563	0.005
-655.886	202.262	-0.240	-0.378
-654.872	-184.472	0.105	0.002
-653.857	289.517	0.055	-0.102
-652.843	24.576	0.085	0.072
-651.828	273.960	0.291	-0.524
-650.814	11.022	0.023	-0.018
-649.799	166.838	-0.100	0.145
-648.784	61.315	0.107	-0.108
-647.770	-74.247	0.118	0.044
-646.755	330.733	-0.094	-0.184
-645.741	-200.000	0.080	-0.498
-644.726	-16.282	-0.044	0.028
-643.711	291.949	0.133	0.247
-642.697	-4.949	0.145	0.102
-641.682	-87.742	-0.287	-0.088
-640.668	800.000	0.050	-0.205
-639.653	-200.000	0.008	-0.057
-638.638	-200.000	0.017	0.141
-637.624	54.543	-0.099	-0.097
-636.609	800.000	0.058	0.242
-635.595	-156.506	-0.404	0.026
-634.580	-163.078	-0.282	-0.014
-633.565	800.000	0.097	-0.389
-632.551	-65.388	-0.233	-0.095
-631.536	-104.568	-0.322	-0.076
-630.522	-122.155	-0.376	0.063
-629.507	800.000	-0.038	0.145
-628.492	-11.459	0.241	-0.161
-627.478	636.085	-0.094	0.242
-626.463	-200.000	-0.073	-0.386
-625.449	3.175	-0.099	0.073
-624.434	329.383	0.153	0.299
-623.419	142.275	-0.129	0.174
-622.405	150.379	0.080	0.110
-621.390	-200.000	0.065	0.394
-620.376	78.069	0.124	0.135
-619.361	-136.778	-0.179	0.021
-618.346	395.587	-0.025	0.053
-617.332	-200.000	0.048	-0.481
-616.317	-41.915	0.155	0.081
-615.303	-71.883	0.188	0.071
-614.288	120.391	-0.193	0.244
-613.273	12.259	-0.222	0.174
-612.259	474.743	-0.111	-0.254
-611.244	149.885	-0.061	0.084
-610.230	177.670	0.197	0.291
-609.215	-200.000	0.006	0.160
-608.201	261.898	-0.210	-0.371
-607.186	362.765	0.022	-0.045
-606.171	-13.481	-0.400	-0.264
-605.157	-23.723	0.229	-0.140
-604.142	-90.880	-0.190	-0.056
-603.128	172.999	-0.165	0.242
-602.113	-56.747	-0.268	0.120
-601.098	800.000	0.065	0.221
-600.084	146.668	0.127	0.174
-599.069	-5.188	-0.204	-0.142
-598.055	-200.000	-0.037	-0.264
-597.040	800.000	0.043	0.123
-596.025	800.000	-0.058	-0.209
-595.011	48.549	0.220	-0.209
-593.996	297.062	-0.116	-0.217
-592.982	-200.000	-0.069	-0.355
-591.967	148.705	0.100	0.138
-590.952	-148.123	0.296	-0.025
-589.938	-44.799	0.075	-0.038
-588.923	-44.035	-0.077	0.039
-587.909	-41.519	0.307	0.160
-586.894	141.668	-0.028	-0.038
-585.879	56.422	-0.262	-0.259
-584.865	132.701	0.212	0.277
-583.850	-41.783	0.069	0.036
-582.836	-100.313	-0.292	0.074
-581.821	800.000	0.041	0.130
-580.806	-86.402	-0.255	-0.080
-579.792	-200.000	0.034	0.222
-578.777	83.803	-0.180	-0.199
-577.763	227.765	0.076	-0.126
-576.748	-83.278	-0.167	-0.054
-575.733	417.205	0.022	-0.048
-574.719	-139.765	-0.230	-0.025
-573.704	-60.715	-0.211	0.091
-572.690	586.336	0.119	0.298
-571.675	-15.383	0.215	-0.139
-570.661	183.196	0.068	0.102
-569.646	49.655	0.146	-0.140
-568.631	154.597	0.123	-0.171
-567.617	235.853	0.024	-0.040
-566.602	60.399	0.305	-0.306
-565.588	679.190	0.064	0.168
-564.573	-200.000	0.027	0.174
-563.558	195.192	-0.218	0.336
-562.544	800.000	0.057	-0.186
-561.529	800.000	0.065	-0.224
-560.515	800.000	0.033	-0.108
-559.500	252.419	-0.091	-0.157
-558.485	-164.673	-0.315	0.014
-557.471	800.000	-0.035	0.104
-556.456	781.151	-0.054	0.149
-555.442	-92.057	-0.248	-0.071
-554.427	683.662	-0.117	-0.308
-553.412	-49.954	-0.183	-0.088
-552.398	-200.000	0.020	-0.120
-551.383	-113.697	0.212	0.042
-550.369	-200.000	0.013	0.232
-549.354	-47.634	-0.258	-0.127
-548.339	336.282	0.113	-0.223
-547.325	-105.509	0.105	0.024
-546.310	310.945	0.173	-0.329
-545.296	800.000	-0.120	0.339
-544.281	-43.351	0.134	0.069
-543.266	-11.334	0.328	-0.219
-542.252	-64.664	-0.172	0.071
-541.237	-200.000	-0.020	-0.108
-540.223	37.438	-0.255	0.229
-539.208	-200.000	0.058	0.449
-538.193	126.317	-0.092	-0.117
-537.179	174.629	-0.118	0.173
-536.164	-200.000	0.003	-0.039
-535.150	102.135	-0.103	-0.122
-534.135	-200.000	0.008	0.228
-533.121	122.264	-0.124	0.157
-532.106	-200.000	-0.015	-0.188
-531.091	800.000	-0.049	0.152
-530.077	-17.121	0.286	0.182
-529.062	-200.000	0.020	-0.376
-528.048	407.785	-0.035	0.075
-527.033	-35.864	0.196	0.108
-526.018	-68.962	0.213	0.083
-525.004	-1.235	0.119	-0.085
-523.989	55.894	-0.215	-0.211
-522.975	45.793	-0.229	-0.214
-521.960	473.012	-0.121	-0.277
-520.945	-200.000	0.043	0.236
-519.931	-17.966	-0.139	-0.088
-518.916	56.296	0.072	-0.071
-517.902	-200.000	-0.039	0.237
-516.887	383.724	0.135	-0.280
-515.872	12.482	0.270	0.211
-514.858	-145.639	-0.205	-0.019
-513.843	40.729	-0.182	-0.166
-512.829	-139.161	0.398	-0.044
-511.814	800.000	0.047	0.200
-510.799	138.587	-0.062	0.083
-509.785	-200.000	-0.094	0.503
-508.770	50.181	0.464	-0.443
-507.756	800.000	0.139	-0.467
-506.741	-28.952	-0.251	0.146
-505.726	101.027	0.137	0.161
-504.712	-139.666	-0.040	-0.004
-503.697	-200.000	0.038	-0.217
-502.683	-200.000	0.006	-0.231
-501.668	-200.000	-0.065	-0.348
-500.653	293.884	0.072	-0.133
-499.639	-0.632	-0.034	0.024
-498.624	800.000	0.048	-0.136
-497.610	-78.498	-0.261	-0.091
-496.595	-125.173	0.226	0.035
-495.581	-76.288	-0.018	-0.007
-494.566	-184.409	-0.110	-0.002
-493.551	65.830	0.224	-0.229
-492.537	-84.147	0.032	0.010
-491.522	-200.000	0.016	-0.077
-490.508	409.837	0.013	0.027
-489.493	-103.918	0.175	-0.041
-488.478	340.652	-0.090	0.178
-487.464	-44.340	-0.153	0.077
-486.449	707.916	-0.038	-0.101
-485.435	-200.000	-0.027	0.175
-484.420	-200.000	0.045	-0.224
-483.405	2.542	0.390	-0.285
-482.391	-61.506	-0.100	0.042
-481.376	-152.423	0.110	-0.008
-480.362	800.000	-0.078	-0.235
-479.347	-93.404	-0.219	0.061
-478.332	-166.976	0.033	-0.001
-477.318	129.972	-0.103	0.133
-476.303	-200.000	0.029	0.134
-475.289	217.180	-0.299	0.481
-474.274	101.453	-0.255	0.301
-473.259	-145.695	0.312	-0.028
-472.245	-111.114	0.277	-0.057
-471.230	-158.834	-0.054	0.003
-470.216	2.461	-0.247	-0.181
-469.201	-99.429	0.257	0.065
-468.186	430.295	0.156	0.342
-467.172	-36.324	0.162	0.088
-466.157	-78.548	0.312	-0.108
-465.143	-71.056	0.096	0.037
-464.128	-94.914	-0.030	0.008
-463.113	220.601	-0.021	-0.034
-462.099	-160.122	0.061	0.003
-461.084	-165.088	-0.195	-0.009
-460.070	-184.413	0.124	0.002
-459.055	800.000	-0.054	0.169
-458.040	-80.368	-0.013	-0.004
-457.026	166.303	0.101	0.145
-456.011	-91.366	0.236	0.068
-454.997	-75.129	-0.574	0.207
-453.982	-200.000	0.000	0.062
-452.968	361.195	0.075	-0.152
-451.953	252.402	0.097	-0.168
-450.938	107.606	-0.118	0.142
-449.924	94.381	-0.077	-0.089
-448.909	400.217	-0.068	-0.145
-447.895	-133.226	0.115	0.015
-446.880	31.007	0.218	0.189
-445.865	58.533	-0.201	-0.199
-444.851	-59.071	0.086	0.037
-443.836	312.708	0.246	-0.466
-442.822	-200.000	0.031	-0.150
-441.807	322.188	0.087	-0.168
-440.792	-124.579	0.179	-0.028
-439.778	-142.773	-0.279	0.027
-438.763	414.186	0.137	0.293
-437.749	-35.158	0.334	0.184
-436.734	-87.980	0.239	-0.072
-435.719	257.380	0.098	-0.170
-434.705	800.000	-0.098	-0.285
-433.690	-200.000	0.008	0.125
-432.676	-5.802	0.206	-0.142
-431.661	20.829	0.268	-0.219
-430.646	-44.893	-0.045	-0.023
-429.632	800.000	0.100	0.300
-428.617	128.582	-0.134	-0.172
-427.603	-80.161	-0.176	-0.059
-426.588	-28.260	0.283	-0.165
-425.573	-82.622	0.154	-0.050
-424.559	291.345	0.109	0.201
-423.544	345.441	-0.145	-0.287
-422.530	103.129	0.072	-0.085
-421.515	-200.000	-0.010	0.181
-420.500	-166.876	0.165	0.007
-419.486	12.344	0.287	-0.223
-418.471	190.556	0.164	-0.248
-417.457	-200.000	-0.020	0.112
-416.442	-64.047	0.007	0.003
-415.428	-105.455	0.196	-0.045
-414.413	614.297	0.060	0.151
-413.398	641.744	-0.043	0.111
-412.384	-72.869	-0.287	-0.107
-411.369	-82.371	0.186	0.061
-410.355	-166.595	0.091	-0.004
-409.340	-157.367	0.216	-0.013
-408.325	-200.000	-0.010	0.161
-407.311	28.309	-0.077	0.066
-406.296	-51.056	-0.247	-0.117
-405.282	-7.447	0.028	0.019
-404.267	-200.000	0.008	-0.172
-403.252	-95.459	-0.057	-0.015
-402.238	147.031	0.203	-0.275
-401.223	-51.449	-0.036	0.017
-400.209	-142.623	-0.131	0.013
-399.194	-200.000	-0.064	0.341
-398.179	-200.000	0.007	-0.078
-397.165	800.000	0.029	0.115
-396.150	79.385	-0.062	-0.068
-395.136	-65.850	0.092	0.037
-394.121	6.240	0.240	-0.179
-393.106	150.827	-0.162	-0.222
-392.092	800.000	-0.125	0.402
-391.077	-200.000	0.044	0.376
-390.063	34.385	0.131	0.115
-389.048	-15.312	0.034	-0.022
-388.033	-43.628	-0.097	0.049
-387.019	260.295	0.061	-0.107
-386.004	8.887	-0.225	-0.171
-384.990	-15.116	-0.161	-0.104
-383.975	-40.482	0.257	0.135
-382.960	108.251	0.086	0.103
-381.946	-200.000	-0.016	0.324
-380.931	2.413	-0.150	-0.109
-379.917	185.741	-0.121	-0.181
-378.902	-200.000	-0.016	0.094
-377.888	182.019	-0.253	0.376
-376.873	-167.877	0.168	0.007
-375.858	-67.294	0.116	-0.046
-374.844	-200.000	-0.046	0.363
-373.829	-131.909	0.168	0.022
-372.815	-141.197	0.452	0.046
-371.800	800.000	0.085	-0.291
-370.785	119.074	-0.139	-0.173
-369.771	-111.586	-0.448	0.092
-368.756	-96.025	-0.109	0.029
-367.742	-200.000	0.007	-0.118
-366.727	139.889	0.042	-0.056
-365.712	186.710	0.295	-0.442
-364.698	8.264	0.199	0.151
-363.683	800.000	0.034	-0.117
-362.669	337.726	-0.076	-0.149
-361.654	-200.000	-0.052	0.306
-360.639	66.019	0.177	0.180
-359.625	-8.401	-0.159	0.108
-358.610	212.505	-0.133	-0.211
-357.596	-158.645	0.352	0.020
-356.581	22.962	0.117	0.096
-355.566	-26.031	0.246	-0.145
-354.552	-150.067	-0.042	-0.003
-353.537	-22.704	0.230	-0.140
-352.523	405.258	-0.136	0.288
-351.508	800.000	0.053	-0.210
-350.493	-200.000	-0.056	-0.488
-349.479	-123.554	0.079	-0.013
-348.464	-79.457	0.104	0.035
-347.450	-88.697	0.188	-0.056
-346.435	-48.166	0.146	-0.071
-345.420	-68.195	-0.191	-0.075
-344.406	-200.000	0.052	0.296
-343.391	-91.507	-0.096	-0.028
-342.377	-119.399	-0.079	0.014
-341.362	-174.076	-0.095	-0.003
-340.348	-91.102	-0.171	-0.049
-339.333	-63.991	0.335	0.137
-338.318	168.002	0.190	-0.272
-337.304	-200.000	0.041	0.238
-336.289	166.623	0.049	-0.069
-335.275	-163.541	-0.390	0.019
-334.260	23.117	-0.221	-0.182
-333.245	-125.084	0.423	0.065
-332.231	-200.000	0.131	0.578
-331.216	-200.000	0.089	0.484
-330.202	-48.651	-0.213	-0.103
-329.187	549.095	0.061	0.147
-328.172	780.217	-0.093	-0.257
-327.158	126.634	0.084	0.107
-326.143	30.797	0.105	-0.090
-325.129	800.000	0.114	-0.360
-324.114	157.408	-0.180	0.250
-323.099	-122.068	0.097	0.016
-322.085	800.000	0.073	-0.252
-321.070	3.578	-0.142	-0.104
-320.056	110.554	0.040	0.049
-319.041	-200.000	0.004	-0.355
-318.026	800.000	-0.047	-0.187
-317.012	68.055	-0.218	-0.224
-315.997	-104.497	0.264	-0.061
-314.983	470.274	-0.209	-0.471
-313.968	-182.078	0.284	-0.005
-312.953	318.045	-0.028	0.054
-311.939	18.237	-0.140	0.112
-310.924	780.723	0.016	0.045
-309.910	-200.000	0.008	0.157
-308.895	-93.997	-0.592	-0.163
-307.880	-11.700	0.058	-0.038
-306.866	-111.071	0.251	-0.052
-305.851	-141.935	-0.270	-0.027
-304.837	-25.882	-0.217	0.129
-303.822	-163.856	-0.042	-0.002
-302.807	-3.332	0.147	-0.103
-301.793	800.000	0.074	0.279
-300.778	436.653	-0.013	-0.028
-299.764	398.200	-0.072	0.150
-298.749	67.503	0.150	-0.153
-297.735	20.048	0.238	-0.193
-296.720	465.556	-0.091	0.203
-295.705	-200.000	-0.024	-0.167
-294.691	-200.000	0.021	0.251
-293.676	117.410	-0.035	0.043
-292.662	-200.000	-0.024	-0.335
-291.647	-200.000	0.023	0.274
-290.632	234.883	0.093	0.154
-289.618	65.988	0.046	0.047
-288.603	-200.000	0.048	0.212
-287.589	800.000	-0.112	-0.398
-286.574	136.858	-0.171	-0.224
-285.559	155.643	-0.101	0.140
-284.545	-65.886	0.346	-0.139
-283.530	226.053	0.221	-0.359
-282.516	-200.000	-0.010	0.091
-281.501	62.584	0.032	0.032
-280.486	-86.249	-0.299	0.092
-279.472	136.753	-0.062	0.082
-278.457	137.764	-0.136	0.178
-277.443	-200.000	0.057	0.334
-276.428	-200.000	-0.039	-0.248
-275.413	-200.000	0.010	0.337
-274.399	-14.000	0.091	0.059
-273.384	273.693	0.199	-0.352
-272.370	-39.630	-0.116	-0.061
-271.355	-200.000	0.023	-0.260
-270.340	100.906	0.048	-0.056
-269.326	-200.000	-0.018	0.147
-268.311	-200.000	-0.006	-0.078
-267.297	189.266	-0.129	-0.194
-266.282	-167.262	-0.201	-0.008
-265.267	667.723	-0.056	-0.146
-264.253	-173.713	0.175	0.005
-263.238	-31.728	0.106	-0.060
-262.224	-150.492	-0.269	0.021
-261.209	-48.686	0.286	0.138
-260.195	-159.471	0.341	0.019
-259.180	-78.301	-0.295	0.101
-258.165	55.506	0.282	0.273
-257.151	39.861	-0.098	-0.088
-256.136	-200.000	0.040	-0.228
-255.122	-19.851	-0.237	0.147
-254.107	-107.717	-0.553	0.121
-253.092	61.712	-0.029	-0.029
-252.078	800.000	0.091	0.371
-251.063	-200.000	-0.012	-0.150
-250.049	-200.000	0.018	-0.179
-249.034	-38.244	0.133	0.071
-248.019	745.010	-0.098	-0.263
-247.005	-0.242	0.129	-0.092
-245.990	-28.699	-0.144	-0.083
-244.976	-134.875	-0.287	-0.035
-243.961	-200.000	-0.217	0.001
-242.946	-19.403	0.124	-0.077
-241.932	257.980	-0.149	0.257
-240.917	51.169	-0.354	0.336
-239.903	278.318	0.026	-0.046
-238.888	-11.201	0.180	-0.119
-237.873	18.818	0.104	-0.084
-236.859	-32.833	-0.360	0.200
-235.844	160.361	0.075	0.105
-234.830	-200.000	0.054	0.266
-233.815	599.694	-0.120	-0.298
-232.800	223.308	-0.085	-0.137
-231.786	-35.534	0.072	0.039
-230.771	-200.000	-0.026	-0.185
-229.757	-85.130	0.127	0.040
-228.742	274.309	-0.056	-0.099
-227.727	-136.595	0.442	-0.051
-226.713	-92.993	-0.095	0.026
-225.698	-102.231	-0.243	0.059
-224.684	-41.530	-0.272	-0.140
-223.669	-127.360	0.428	0.062
-222.655	800.000	0.077	0.289
-221.640	-89.853	-0.121	-0.035
-220.625	-31.879	-0.061	0.034
-219.611	281.980	0.137	0.246
-218.596	68.460	-0.101	-0.104
-217.582	-96.325	-0.483	0.128
-216.567	-154.748	0.325	-0.022
-215.552	-36.737	-0.138	0.074
-214.538	-31.398	-0.221	0.124
-213.523	54.808	0.260	0.251
-212.509	-200.000	0.025	-0.204
-211.494	-136.278	0.142	-0.017
-210.479	46.248	0.181	0.168
-209.465	-200.000	-0.006	0.378
-208.450	317.699	-0.070	0.132
-207.436	-133.297	-0.225	0.028
-206.421	365.729	0.077	-0.154
-205.406	135.287	0.075	-0.098
-204.392	95.815	-0.158	-0.180
-203.377	-0.157	0.325	-0.231
-202.363	553.919	0.123	0.296
-201.348	-83.520	0.298	-0.095
-200.333	648.110	-0.131	-0.336
-199.319	-55.961	0.073	-0.033
-198.304	169.948	-0.176	0.252
-197.290	115.492	-0.117	0.143
-196.275	324.479	0.139	0.264
-195.260	-123.616	-0.285	0.045
-194.246	81.501	-0.132	0.143
-193.231	-124.758	-0.295	-0.046
-192.217	-200.000	-0.005	0.132
-191.202	22.906	0.190	0.156
-190.187	800.000	-0.050	-0.163
-189.173	-200.000	-0.006	0.217
-188.158	800.000	-0.045	-0.147
-187.144	-49.640	0.158	-0.075
-186.129	-49.288	0.174	-0.083
-185.114	135.371	0.110	-0.143
-184.100	182.957	-0.148	0.218
-183.085	800.000	0.079	0.335
-182.071	22.123	-0.474	0.386
-181.056	-118.979	-0.175	-0.031
-180.042	248.294	0.178	0.301
-179.027	800.000	0.106	0.305
-178.012	5.180	0.166	0.122
-176.998	140.514	-0.223	-0.293
-175.983	20.234	-0.150	0.121
-174.969	-137.334	-0.315	-0.036
-173.954	-78.133	-0.219	0.075
-172.939	-200.000	-0.041	0.283
-171.925	249.584	0.124	0.210
-170.910	260.415	-0.213	0.367
-169.896	-200.000	-0.005	-0.109
-168.881	-200.000	-0.032	0.315
-167.866	-32.470	0.082	-0.045
-166.852	225.951	0.084	0.136
-165.837	-39.838	-0.130	0.068
-164.823	107.541	0.204	0.242
-163.808	800.000	-0.067	0.275
-162.793	-103.774	-0.226	-0.053
-161.779	47.583	0.256	-0.238
-160.764	184.584	0.133	-0.197
-159.750	-200.000	0.001	0.213
-158.735	360.985	-0.124	-0.248
-157.720	737.031	-0.051	-0.137
-156.706	-19.106	0.180	-0.112
-155.691	-130.179	-0.159	0.022
-154.677	50.075	0.156	-0.147
-153.662	52.898	-0.176	0.168
-152.647	-109.927	0.212	-0.044
-151.633	800.000	0.112	-0.360
-150.618	705.039	0.016	0.043
-149.604	18.172	0.254	0.202
-148.589	31.886	-0.250	-0.215
-147.574	-155.182	0.364	0.024
-146.560	-9.823	0.162	-0.107
-145.545	-124.582	-0.152	-0.023
-144.531	228.132	0.228	0.371
-143.516	-114.862	0.259	-0.049
-142.502	-140.058	0.376	-0.039
-141.487	-200.000	-0.021	-0.127
-140.472	80.301	-0.137	-0.147
-139.458	-137.409	0.191	-0.022
-138.443	-200.000	-0.016	-0.075
-137.429	656.604	-0.089	-0.227
-136.414	-119.982	0.137	0.023
-135.399	-108.566	-0.261	-0.056
-134.385	-33.204	0.149	0.082
-133.370	135.325	-0.150	-0.194
-132.356	-85.846	0.307	0.095
-131.341	-86.260	-0.491	0.151
-130.326	-200.000	-0.004	-0.071
-129.312	-78.595	0.392	0.134
-128.297	-4.778	0.141	-0.097
-127.283	-68.413	0.089	-0.034
-126.268	800.000	-0.081	-0.276
-125.253	6.189	-0.238	-0.176
-124.239	81.723	0.038	0.041
-123.224	-130.995	0.251	0.033
-122.210	-168.076	0.087	-0.003
