DTS Sentinel unit serial number:	SN413079Multiplexer serial number:	ORYXHardware model number:	OX4-SRSoftware version number:	ORYX F/W v4.00 Oryx Data Collector v3.7.2.0data status	okinstallation	princeton_trtdifferential loss correction	single-endedforward channel	channel 4reverse channel	N/Adate	2019/09/16time	21:41:35forward acquisition time	60.00reverse acquisition time	0.00gamma	496.2192k internal	0.2313k external	0.2313temperature offset calibration	0.9968default loss term (dB/km)	0.3790temperature slope calibration	1.0000multiplexer offset coefficient	1.0000multiplexer slope coefficient	1.0000fibre end	0.00T internal ref (°C)	31.36T ext. ref 1 (°C)	0.06T ext. ref 2 (°C)	25.58length (m)	temperature (°C)	Stokes	anti-Stokes-747.200	-200.000	-0.007	-0.398
-746.185	64.766	-0.148	0.152
-745.171	-200.000	0.039	0.248
-744.156	-90.417	-0.113	0.033
-743.142	-148.392	0.201	-0.017
-742.127	52.806	-0.149	0.144
-741.112	-60.533	0.132	0.057
-740.098	-88.050	0.227	0.069
-739.083	169.607	-0.118	-0.170
-738.069	135.154	0.237	0.312
-737.054	26.108	0.141	-0.120
-736.039	-51.882	-0.381	0.180
-735.025	-63.955	-0.070	-0.029
-734.010	-38.120	-0.226	0.121
-732.996	-49.349	0.387	-0.187
-731.981	132.721	-0.187	0.244
-730.966	261.722	-0.044	0.077
-729.952	57.011	-0.058	0.057
-728.937	-90.836	-0.458	0.134
-727.923	19.743	-0.171	0.140
-726.908	107.214	0.168	0.203
-725.894	-51.368	-0.281	0.133
-724.879	-200.000	-0.038	0.218
-723.864	411.763	-0.167	-0.359
-722.850	65.851	0.099	0.101
-721.835	211.439	-0.092	-0.147
-720.821	141.901	0.055	-0.074
-719.806	-200.000	-0.052	0.313
-718.791	266.963	-0.163	0.288
-717.777	79.894	-0.027	0.030
-716.762	-41.811	0.215	-0.112
-715.748	-125.050	-0.127	0.020
-714.733	21.310	0.053	0.043
-713.718	-159.807	-0.295	0.016
-712.704	-95.489	-0.141	0.038
-711.689	-101.231	0.084	0.021
-710.675	256.938	0.209	-0.364
-709.660	-200.000	0.043	-0.298
-708.645	430.537	0.012	0.027
-707.631	277.935	-0.125	-0.226
-706.616	-200.000	0.005	-0.107
-705.602	-200.000	-0.032	0.345
-704.587	42.667	0.119	0.110
-703.572	269.162	0.145	0.258
-702.558	-200.000	0.008	-0.036
-701.543	188.468	0.073	-0.110
-700.529	-200.000	0.001	0.125
-699.514	208.260	-0.125	0.198
-698.499	-200.000	0.007	-0.144
-697.485	204.159	0.202	0.316
-696.470	-133.804	-0.268	-0.034
-695.456	107.995	0.120	-0.145
-694.441	-200.000	-0.003	-0.186
-693.426	-125.617	0.165	-0.025
-692.412	216.515	-0.131	-0.210
-691.397	-143.272	0.649	0.063
-690.383	-7.205	-0.294	-0.202
-689.368	-43.806	-0.157	0.080
-688.354	-173.407	-0.608	-0.019
-687.339	184.877	0.110	-0.165
-686.324	61.484	-0.085	0.086
-685.310	-200.000	0.017	0.144
-684.295	-139.981	0.345	0.037
-683.281	-200.000	-0.005	0.156
-682.266	-160.827	0.215	-0.012
-681.251	8.026	-0.123	0.094
-680.237	-64.208	-0.175	-0.072
-679.222	-200.000	-0.045	0.232
-678.208	800.000	-0.024	-0.106
-677.193	-71.358	0.313	-0.119
-676.178	800.000	0.039	0.156
-675.164	800.000	-0.036	-0.154
-674.149	39.103	0.094	-0.085
-673.135	-200.000	0.060	0.487
-672.120	238.547	-0.311	0.522
-671.105	23.013	-0.023	0.019
-670.091	794.781	-0.061	-0.169
-669.076	78.803	0.191	0.206
-668.062	-131.934	-0.218	-0.029
-667.047	119.656	0.046	0.058
-666.032	-114.408	0.193	-0.037
-665.018	-75.360	0.199	-0.072
-664.003	95.606	0.120	-0.139
-662.989	-87.353	-0.557	0.171
-661.974	401.546	0.122	-0.259
-660.959	800.000	0.108	-0.450
-659.945	-97.048	-0.228	0.060
-658.930	376.391	-0.065	-0.133
-657.916	-170.532	-0.036	-0.001
-656.901	-158.500	-0.207	0.012
-655.886	-91.597	-0.314	-0.090
-654.872	-200.000	0.003	-0.058
-653.857	-4.641	0.349	-0.244
-652.843	245.260	-0.127	-0.216
-651.828	-38.487	-0.333	0.178
-650.814	-166.506	-0.238	0.010
-649.799	-47.323	-0.122	-0.060
-648.784	-16.811	0.247	0.158
-647.770	156.786	-0.179	0.250
-646.755	-200.000	0.015	-0.228
-645.741	-200.000	0.054	0.332
-644.726	45.513	0.195	-0.181
-643.711	-41.386	0.015	-0.008
-642.697	-94.457	-0.228	-0.063
-641.682	-105.954	-0.013	-0.003
-640.668	530.330	0.077	0.183
-639.653	800.000	-0.049	0.154
-638.638	-200.000	-0.010	0.052
-637.624	351.681	-0.103	0.206
-636.609	9.156	-0.082	-0.063
-635.595	-200.000	-0.016	0.261
-634.580	-200.000	0.006	0.075
-633.565	-57.255	0.210	-0.093
-632.551	-200.000	-0.023	0.305
-631.536	52.161	-0.139	0.134
-630.522	194.274	0.127	0.195
-629.507	-91.776	-0.157	0.045
-628.492	-49.356	-0.186	0.090
-627.478	761.835	-0.044	0.119
-626.463	-125.320	0.332	0.051
-625.449	646.209	0.088	-0.227
-624.434	-200.000	-0.053	0.370
-623.419	249.983	-0.118	-0.202
-622.405	-120.027	-0.266	0.046
-621.390	800.000	-0.211	-0.615
-620.376	-139.418	-0.203	-0.022
-619.361	-200.000	0.005	0.169
-618.346	800.000	-0.040	0.165
-617.332	-72.574	0.213	-0.079
-616.317	-115.902	0.460	-0.087
-615.303	-120.584	0.169	-0.029
-614.288	-200.000	-0.010	-0.306
-613.273	-200.000	-0.009	-0.119
-612.259	-28.474	-0.211	-0.122
-611.244	225.844	-0.095	0.156
-610.230	-31.985	0.128	-0.072
-609.215	100.814	0.091	-0.107
-608.201	-38.733	0.078	-0.042
-607.186	800.000	-0.102	0.307
-606.171	206.898	0.075	0.118
-605.157	175.594	-0.063	-0.092
-604.142	-109.419	-0.249	0.053
-603.128	168.314	0.125	-0.179
-602.113	100.380	-0.153	0.179
-601.098	-111.048	-0.248	0.051
-600.084	800.000	-0.051	0.149
-599.069	-24.608	-0.046	-0.027
-598.055	211.037	0.089	0.141
-597.040	5.813	0.176	0.131
-596.025	140.325	-0.186	-0.248
-595.011	-200.000	-0.046	-0.287
-593.996	-29.668	-0.093	-0.054
-592.982	2.261	0.108	-0.078
-591.967	417.620	-0.107	0.231
-590.952	-155.819	0.315	-0.020
-589.938	85.003	0.086	-0.095
-588.923	663.576	0.076	-0.198
-587.909	146.252	-0.209	-0.282
-586.894	318.815	-0.166	-0.316
-585.879	800.000	-0.113	-0.380
-584.865	126.028	0.070	0.089
-583.850	-9.646	-0.098	-0.066
-582.836	-35.260	-0.257	0.141
-581.821	-196.384	0.102	0.001
-580.806	800.000	0.132	0.386
-579.792	-87.139	-0.430	0.132
-578.777	-200.000	0.015	-0.190
-577.763	800.000	-0.052	-0.183
-576.748	256.718	-0.198	-0.342
-575.733	6.226	0.064	0.048
-574.719	800.000	0.045	-0.130
-573.704	-200.000	-0.012	0.224
-572.690	-200.000	0.020	-0.196
-571.675	-34.322	0.297	-0.164
-570.661	77.688	-0.222	-0.238
-569.646	800.000	0.032	0.130
-568.631	261.921	-0.187	0.326
-567.617	800.000	-0.068	0.240
-566.602	93.553	-0.134	-0.153
-565.588	-200.000	0.010	0.256
-564.573	239.583	-0.084	0.141
-563.558	180.135	-0.163	0.240
-562.544	-107.373	-0.185	0.041
-561.529	-48.905	0.320	0.154
-560.515	800.000	-0.101	-0.347
-559.500	-200.000	-0.007	-0.547
-558.485	-84.597	-0.511	-0.162
-557.471	408.066	0.042	0.089
-556.456	-63.921	0.226	-0.093
-555.442	-33.369	-0.059	0.033
-554.427	39.798	-0.067	0.060
-553.412	226.075	0.106	0.173
-552.398	-200.000	0.020	-0.284
-551.383	56.860	0.086	-0.084
-550.369	399.736	0.179	0.377
-549.354	-200.000	0.019	-0.203
-548.339	177.150	-0.003	0.004
-547.325	26.160	0.100	0.084
-546.310	-49.322	-0.152	-0.073
-545.296	-123.773	-0.062	-0.010
-544.281	-40.006	-0.172	-0.090
-543.266	66.975	-0.270	0.276
-542.252	406.615	0.092	-0.195
-541.237	-20.084	0.214	-0.133
-540.223	-200.000	0.009	0.421
-539.208	432.745	0.088	-0.192
-538.193	112.384	-0.135	-0.165
-537.179	-200.000	-0.013	-0.480
-536.164	-155.613	0.212	0.014
-535.150	146.458	-0.195	0.263
-534.135	247.642	-0.208	-0.353
-533.121	257.740	-0.084	-0.145
-532.106	12.388	-0.064	-0.050
-531.091	-105.962	-0.343	-0.078
-530.077	782.943	-0.107	0.294
-529.062	800.000	-0.093	0.274
-528.048	-200.000	0.031	0.162
-527.033	-170.932	0.152	-0.005
-526.018	151.476	0.129	-0.177
-525.004	-9.364	-0.128	0.086
-523.989	-71.565	-0.138	0.052
-522.975	205.138	-0.050	-0.078
-521.960	-57.723	-0.195	-0.086
-520.945	728.318	-0.027	-0.073
-519.931	-83.512	-0.233	-0.075
-518.916	-200.000	0.003	-0.095
-517.902	800.000	0.046	-0.168
-516.887	141.498	-0.186	0.247
-515.872	12.521	-0.212	-0.164
-514.858	72.963	-0.172	-0.180
-513.843	800.000	0.039	0.169
-512.829	-200.000	-0.046	-0.479
-511.814	233.975	-0.126	-0.209
-510.799	-61.710	0.073	0.031
-509.785	-200.000	-0.007	-0.153
-508.770	800.000	0.009	0.037
-507.756	-200.000	0.056	-0.303
-506.741	-200.000	-0.085	-0.418
-505.726	230.822	0.166	-0.274
-504.712	-200.000	-0.011	0.123
-503.697	-0.930	-0.177	-0.126
-502.683	136.021	-0.151	0.197
-501.668	-48.716	-0.114	0.055
-500.653	37.695	-0.086	0.077
-499.639	-160.196	-0.094	-0.005
-498.624	260.511	0.078	0.135
-497.610	-117.467	0.128	-0.023
-496.595	800.000	0.059	-0.184
-495.581	-200.000	-0.021	0.211
-494.566	-200.000	-0.006	-0.054
-493.551	470.397	0.035	-0.079
-492.537	-200.000	0.002	-0.231
-491.522	27.533	-0.073	0.062
-490.508	800.000	0.066	-0.224
-489.493	-81.715	0.153	-0.050
-488.478	-200.000	-0.018	0.079
-487.464	-200.000	0.019	0.328
-486.449	6.650	-0.236	0.176
-485.435	-5.280	0.205	0.141
-484.420	-200.000	0.234	0.000
-483.405	-156.497	0.023	-0.001
-482.391	1.153	0.193	0.139
-481.376	-172.985	0.121	0.004
-480.362	489.380	0.117	-0.270
-479.347	-133.260	0.187	-0.024
-478.332	32.222	-0.104	-0.090
-477.318	250.424	0.124	0.211
-476.303	-59.179	-0.310	-0.134
-475.289	145.461	0.057	0.076
-474.274	-150.436	-0.056	-0.004
-473.259	643.881	0.065	-0.166
-472.245	-103.784	-0.247	-0.058
-471.230	-76.469	0.178	0.063
-470.216	412.417	-0.092	-0.195
-469.201	-200.000	-0.001	-0.061
-468.186	-200.000	-0.025	-0.216
-467.172	125.154	-0.144	0.183
-466.157	254.043	-0.220	0.377
-465.143	-167.786	-0.114	0.004
-464.128	-76.394	-0.191	0.068
-463.113	-4.236	0.079	-0.055
-462.099	-28.606	0.313	0.181
-461.084	-177.348	0.166	-0.004
-460.070	-136.198	0.175	-0.020
-459.055	-127.456	0.291	0.042
-458.040	-147.836	0.123	-0.010
-457.026	23.134	-0.268	0.220
-456.011	800.000	-0.092	0.322
-454.997	-200.000	-0.040	-0.278
-453.982	468.057	0.153	-0.344
-452.968	-150.375	-0.574	-0.044
-451.953	-200.000	-0.025	-0.357
-450.938	62.259	-0.275	-0.275
-449.924	-153.562	-0.207	0.014
-448.909	-166.390	0.213	0.009
-447.895	800.000	-0.105	0.410
-446.880	140.549	0.207	0.274
-445.865	-105.996	0.189	-0.043
-444.851	87.674	-0.140	-0.155
-443.836	800.000	0.095	0.312
-442.822	-162.385	0.329	0.016
-441.807	644.757	-0.077	-0.196
-440.792	-120.779	0.116	-0.020
-439.778	304.234	-0.085	0.159
-438.763	175.022	-0.147	-0.213
-437.749	-88.301	-0.175	0.052
-436.734	175.256	0.102	-0.148
-435.719	-3.462	-0.158	-0.110
-434.705	104.128	0.037	0.043
-433.690	800.000	-0.062	0.249
-432.676	-175.120	0.334	-0.009
-431.661	-118.092	0.172	-0.031
-430.646	-3.907	-0.167	0.116
-429.632	-126.224	-0.367	0.055
-428.617	150.971	0.238	-0.324
-427.603	41.585	0.111	-0.100
-426.588	-41.188	-0.084	0.043
-425.573	-59.092	-0.325	-0.140
-424.559	27.563	0.432	-0.364
-423.544	-200.000	-0.015	0.217
-422.530	-52.918	0.087	0.040
-421.515	-111.769	0.277	0.056
-420.500	5.559	0.389	-0.287
-419.486	633.267	-0.131	-0.331
-418.471	223.214	0.244	0.394
-417.457	310.147	0.152	0.285
-416.442	800.000	-0.092	0.340
-415.428	226.901	0.056	-0.091
-414.413	-16.108	-0.113	-0.072
-413.398	-130.383	-0.245	-0.033
-412.384	86.364	-0.050	0.055
-411.369	-18.674	-0.191	-0.119
-410.355	-59.443	0.102	0.044
-409.340	-8.393	-0.212	0.143
-408.325	-200.000	0.006	-0.186
-407.311	800.000	-0.108	-0.421
-406.296	-40.689	-0.111	0.058
-405.282	-25.930	0.224	0.132
-404.267	-118.134	-0.088	0.016
-403.252	-39.664	0.132	0.069
-402.238	653.144	-0.048	0.124
-401.223	-118.932	0.152	-0.027
-400.209	-79.718	0.179	-0.060
-399.194	-48.193	-0.264	0.128
-398.179	-200.000	0.024	0.147
-397.165	-200.000	-0.007	-0.256
-396.150	-200.000	0.010	-0.050
-395.136	164.062	-0.049	0.070
-394.121	37.262	0.096	0.085
-393.106	-145.834	0.135	-0.012
-392.092	167.178	-0.114	-0.162
-391.077	-200.000	0.013	-0.212
-390.063	800.000	0.157	-0.457
-389.048	289.479	0.201	-0.364
-388.033	-64.112	-0.141	0.058
-387.019	-200.000	-0.010	-0.386
-386.004	-42.030	0.358	0.183
-384.990	-16.268	-0.218	-0.138
-383.975	-130.237	0.359	-0.049
-382.960	-0.557	0.190	-0.134
-381.946	-200.000	-0.002	0.217
-380.931	21.245	0.104	-0.085
-379.917	-200.000	0.087	-0.435
-378.902	-200.000	-0.007	-0.269
-377.888	-161.165	0.249	-0.013
-376.873	70.734	0.112	0.116
-375.858	-155.381	-0.127	-0.008
-374.844	33.021	-0.048	-0.041
-373.829	447.489	0.029	0.063
-372.815	-200.000	0.003	-0.192
-371.800	-13.562	0.341	0.220
-370.785	-139.254	0.093	0.010
-369.771	49.662	0.199	-0.187
-368.756	800.000	0.094	0.357
-367.742	800.000	-0.021	-0.067
-366.727	304.120	-0.102	-0.189
-365.712	18.784	-0.205	0.164
-364.698	-200.000	0.011	-0.161
-363.683	-127.990	-0.214	-0.031
-362.669	-156.611	0.143	0.009
-361.654	-43.249	-0.290	0.147
-360.639	673.001	0.137	0.355
-359.625	-103.997	0.298	-0.069
-358.610	337.790	0.154	0.299
-357.596	-6.750	0.044	0.030
-356.581	-21.800	0.393	0.239
-355.566	45.766	0.139	0.128
-354.552	800.000	0.056	-0.188
-353.537	150.954	-0.235	-0.320
-352.523	56.504	-0.212	-0.206
-351.508	-104.992	0.199	0.046
-350.493	286.790	-0.203	0.366
-349.479	183.740	-0.091	0.134
-348.464	469.585	-0.116	-0.260
-347.450	-119.499	-0.173	0.030
-346.435	-200.000	0.038	-0.431
-345.420	-200.000	0.002	0.311
-344.406	800.000	0.082	0.226
-343.391	14.628	-0.261	-0.203
-342.377	-168.205	0.296	-0.011
-341.362	-71.975	-0.080	0.030
-340.348	-59.658	-0.161	-0.069
-339.333	-200.000	0.008	0.199
-338.318	110.211	0.203	0.244
-337.304	595.113	-0.078	-0.194
-336.289	32.146	-0.298	-0.257
-335.275	721.152	-0.040	0.107
-334.260	31.947	-0.229	0.197
-333.245	356.868	-0.066	-0.131
-332.231	-200.000	0.015	0.159
-331.216	60.066	-0.261	0.258
-330.202	-101.538	0.344	0.083
-329.187	19.975	-0.284	0.228
-328.172	691.089	0.070	-0.183
-327.158	159.252	-0.093	0.129
-326.143	800.000	-0.060	0.230
-325.129	400.663	-0.088	-0.184
-324.114	-130.810	-0.148	0.020
-323.099	64.005	-0.030	0.030
-322.085	-112.687	0.217	0.043
-321.070	770.929	-0.028	0.075
-320.056	800.000	0.068	-0.224
-319.041	-37.644	-0.041	-0.022
-318.026	-157.245	0.376	-0.023
-317.012	401.103	0.083	-0.173
-315.997	745.520	0.076	0.204
-314.983	74.450	-0.144	-0.151
-313.968	800.000	0.129	-0.444
-312.953	-200.000	-0.078	-0.426
-311.939	-200.000	-0.064	-0.286
-310.924	-89.583	0.146	-0.043
-309.910	-200.000	-0.019	-0.091
-308.895	31.688	-0.143	-0.123
-307.880	121.803	0.034	0.042
-306.866	-197.991	-0.141	-0.001
-305.851	94.748	0.113	-0.128
-304.837	-10.951	0.126	-0.083
-303.822	-17.234	0.126	0.079
-302.807	108.461	0.060	-0.071
-301.793	232.938	-0.041	0.068
-300.778	-200.000	0.014	-0.165
-299.764	-115.261	0.241	0.045
-298.749	-200.000	0.025	0.142
-297.735	187.646	-0.070	-0.104
-296.720	800.000	-0.104	-0.375
-295.705	-26.317	0.277	0.162
-294.691	-77.150	-0.126	0.044
-293.676	159.655	-0.139	0.193
-292.662	800.000	-0.021	0.081
-291.647	64.124	0.071	0.071
-290.632	29.381	0.098	0.083
-289.618	-200.000	0.010	0.101
-288.603	42.236	-0.203	-0.184
-287.589	-200.000	-0.002	0.043
-286.574	269.664	-0.050	0.087
-285.559	-189.410	0.150	0.002
-284.545	477.103	-0.091	-0.205
-283.530	138.906	0.190	0.248
-282.516	-1.911	0.283	0.199
-281.501	225.002	-0.122	0.196
-280.486	-126.280	-0.343	0.051
-279.472	-38.419	-0.210	-0.110
-278.457	434.405	0.275	-0.595
-277.443	-200.000	-0.005	0.210
-276.428	-200.000	-0.008	0.086
-275.413	-66.898	-0.111	-0.044
-274.399	-38.484	-0.123	0.065
-273.384	-48.478	-0.256	-0.123
-272.370	459.355	0.100	0.222
-271.355	-200.000	0.080	0.399
-270.340	800.000	-0.058	-0.182
-269.326	-143.139	0.234	0.022
-268.311	-30.955	-0.199	-0.112
-267.297	-115.549	-0.435	0.081
-266.282	42.585	0.049	0.044
-265.267	-200.000	0.046	-0.220
-264.253	-5.412	-0.206	0.141
-263.238	-43.532	-0.255	-0.128
-262.224	128.703	-0.056	0.071
-261.209	68.423	-0.184	-0.188
-260.195	-6.038	0.089	0.061
-259.180	800.000	0.162	0.465
-258.165	-200.000	0.038	-0.193
-257.151	370.617	0.111	0.223
-256.136	-200.000	-0.040	-0.269
-255.122	800.000	-0.093	0.255
-254.107	-122.068	0.135	-0.022
-253.092	-200.000	-0.024	-0.319
-252.078	-200.000	0.002	0.318
-251.063	364.882	0.216	0.432
-250.049	129.012	0.272	0.345
-249.034	-146.864	-0.141	-0.012
-248.019	63.768	-0.246	0.246
-247.005	800.000	0.044	0.173
-245.990	269.170	-0.115	0.201
-244.976	-85.127	0.267	0.083
-243.961	800.000	-0.032	0.122
-242.946	365.330	-0.046	0.092
-241.932	-108.921	0.181	-0.038
-240.917	800.000	-0.084	0.303
-239.903	-117.594	0.129	-0.023
-238.888	-140.028	-0.196	-0.020
-237.873	218.331	0.061	0.097
-236.859	76.390	-0.057	0.060
-235.844	-112.338	0.109	0.022
-234.830	800.000	-0.058	0.210
-233.815	-71.824	-0.223	-0.083
-232.800	28.376	0.124	-0.104
-231.786	-200.000	0.085	0.396
-230.771	-128.521	0.302	-0.043
-229.757	-200.000	0.001	-0.168
-228.742	-103.024	-0.014	-0.003
-227.727	-151.486	0.114	-0.008
-226.713	-42.434	0.511	0.259
-225.698	-200.000	-0.001	0.356
-224.684	73.427	0.136	-0.141
-223.669	-200.000	-0.025	0.186
-222.655	280.156	-0.039	0.069
-221.640	800.000	-0.003	0.010
-220.625	-200.000	0.012	-0.256
-219.611	-84.166	0.131	-0.041
-218.596	40.956	-0.214	0.191
-217.582	-7.562	-0.156	0.105
-216.567	270.886	-0.066	-0.115
-215.552	57.558	0.205	-0.199
-214.538	-200.000	-0.031	-0.183
-213.523	134.123	0.070	-0.091
-212.509	-67.747	0.182	-0.071
-211.494	-200.000	-0.047	0.246
-210.479	97.354	-0.045	-0.052
-209.465	-23.514	0.161	0.096
-208.450	-52.180	0.156	0.072
-207.436	84.271	-0.218	0.236
-206.421	470.224	-0.041	-0.090
-205.406	46.073	0.209	-0.192
-204.392	800.000	0.074	0.284
-203.377	275.795	0.112	0.197
-202.363	544.381	-0.178	-0.421
-201.348	108.121	-0.102	-0.121
-200.333	-200.000	-0.064	-0.314
-199.319	-5.795	0.114	-0.078
-198.304	11.821	0.263	0.201
-197.290	-200.000	-0.033	0.212
-196.275	51.510	-0.294	0.277
-195.260	-200.000	0.062	0.388
-194.246	-146.333	-0.133	-0.012
-193.231	-186.411	0.256	-0.004
-192.217	-124.466	0.142	-0.022
-191.202	27.014	-0.097	0.081
-190.187	62.307	0.225	-0.223
-189.173	-200.000	0.011	0.480
-188.158	-200.000	-0.023	0.372
-187.144	32.966	0.088	-0.076
-186.129	-44.570	0.184	-0.091
-185.114	-49.475	0.321	0.152
-184.100	127.162	0.131	0.165
-183.085	800.000	0.084	-0.231
-182.071	-138.328	0.116	0.013
-181.056	3.669	0.040	0.029
-180.042	81.176	-0.158	-0.169
-179.027	106.488	0.039	-0.046
-178.012	12.121	0.107	-0.082
-176.998	102.268	-0.136	0.157
-175.983	-1.417	-0.189	-0.132
-174.969	10.452	-0.127	-0.096
-173.954	-19.106	0.162	-0.100
-172.939	-200.000	0.014	0.143
-171.925	-200.000	-0.018	-0.169
-170.910	-157.494	-0.166	-0.010
-169.896	33.212	-0.188	0.162
-168.881	-81.882	-0.149	0.048
-167.866	-60.687	0.108	-0.045
-166.852	178.224	0.102	0.148
-165.837	-200.000	0.029	0.392
-164.823	353.528	0.185	0.364
-163.808	618.467	-0.055	0.136
-162.793	232.298	0.190	-0.309
-161.779	-200.000	-0.008	0.132
-160.764	-200.000	0.009	0.106
-159.750	303.939	-0.052	0.096
-158.735	800.000	-0.006	0.021
-157.720	-65.636	-0.316	-0.125
-156.706	-119.987	0.191	-0.033
-155.691	800.000	0.065	-0.231
-154.677	-129.855	-0.007	0.001
-153.662	-8.923	0.305	-0.203
-152.647	258.462	-0.102	0.174
-151.633	214.241	0.156	-0.244
-150.618	-200.000	-0.008	0.090
-149.604	226.186	0.043	0.069
-148.589	800.000	-0.023	-0.068
-147.574	394.382	-0.040	-0.083
-146.560	-76.419	-0.142	0.049
-145.545	33.878	0.138	-0.119
-144.531	-148.339	0.010	-0.001
-143.516	557.866	0.098	0.235
-142.502	87.894	-0.142	0.156
-141.487	800.000	0.100	0.286
-140.472	169.491	-0.054	-0.076
-139.458	-96.808	0.117	-0.031
-138.443	377.474	-0.057	-0.115
-137.429	-129.228	-0.157	-0.022
-136.414	-28.775	0.655	0.373
-135.399	-200.000	0.035	-0.501
-134.385	-63.988	0.037	-0.015
-133.370	-138.848	-0.303	0.033
-132.356	-167.790	0.078	-0.003
-131.341	179.296	0.045	-0.065
-130.326	-144.672	-0.066	-0.006
-129.312	-77.551	-0.246	0.084
-128.297	-132.830	-0.370	0.047
-127.283	146.567	-0.144	0.192
-126.268	-102.142	0.160	0.038
-125.253	86.337	-0.058	0.063
-124.239	-104.857	0.351	0.080
-123.224	23.124	0.361	-0.293
-122.210	-133.984	-0.257	0.031
