DTS Sentinel unit serial number:	SN413079Multiplexer serial number:	ORYXHardware model number:	OX4-SRSoftware version number:	ORYX F/W v4.00 Oryx Data Collector v3.7.2.0data status	okinstallation	princeton_trtdifferential loss correction	single-endedforward channel	channel 4reverse channel	N/Adate	2019/09/15time	08:33:34forward acquisition time	60.00reverse acquisition time	0.00gamma	496.2192k internal	0.2305k external	0.2305temperature offset calibration	1.0025default loss term (dB/km)	0.3790temperature slope calibration	1.0000multiplexer offset coefficient	1.0000multiplexer slope coefficient	1.0000fibre end	0.00T internal ref (°C)	31.70T ext. ref 1 (°C)	4.97T ext. ref 2 (°C)	28.91length (m)	temperature (°C)	Stokes	anti-Stokes-747.200	85.246	-0.078	0.087
-746.185	507.440	0.135	0.319
-745.171	66.701	0.100	0.104
-744.156	120.955	-0.141	0.179
-743.142	-59.966	-0.109	-0.047
-742.127	800.000	0.048	0.140
-741.112	-160.713	-0.426	0.023
-740.098	58.160	-0.213	0.212
-739.083	-37.723	0.295	0.160
-738.069	75.443	-0.096	0.103
-737.054	800.000	-0.074	-0.274
-736.039	472.425	-0.112	-0.258
-735.025	295.688	-0.074	0.138
-734.010	-200.000	0.001	-0.219
-732.996	-186.110	0.414	-0.006
-731.981	-60.571	0.156	-0.067
-730.966	-200.000	0.016	-0.263
-729.952	-79.070	-0.278	0.096
-728.937	-88.458	-0.324	0.098
-727.923	66.302	-0.183	0.189
-726.908	-105.834	-0.218	0.050
-725.894	17.375	-0.171	-0.138
-724.879	-85.566	-0.160	-0.051
-723.864	-200.000	0.012	-0.090
-722.850	5.573	-0.207	-0.155
-721.835	98.343	0.114	-0.133
-720.821	-200.000	-0.088	-0.462
-719.806	-41.892	0.274	-0.143
-718.791	199.241	-0.038	-0.059
-717.777	-200.000	0.034	0.193
-716.762	-200.000	-0.046	0.354
-715.748	-61.421	0.195	0.083
-714.733	24.568	-0.319	-0.268
-713.718	44.559	0.081	-0.076
-712.704	168.423	-0.026	-0.037
-711.689	262.616	0.061	-0.107
-710.675	1.410	0.201	-0.147
-709.660	116.031	-0.211	0.263
-708.645	-158.694	0.319	0.019
-707.631	-52.773	0.185	-0.087
-706.616	-200.000	0.004	0.296
-705.602	-86.320	0.218	-0.068
-704.587	26.474	0.073	0.062
-703.572	337.756	0.077	0.152
-702.558	-34.210	0.348	-0.194
-701.543	800.000	0.054	-0.169
-700.529	800.000	-0.142	-0.444
-699.514	-200.000	0.034	-0.334
-698.499	211.707	0.074	-0.119
-697.485	-200.000	0.009	-0.122
-696.470	-91.479	0.198	0.057
-695.456	-15.189	-0.300	0.195
-694.441	-200.000	0.042	-0.229
-693.426	-172.539	-0.340	-0.011
-692.412	-200.000	0.006	0.147
-691.397	78.449	-0.155	0.168
-690.383	-81.451	0.142	0.047
-689.368	26.707	-0.191	0.163
-688.354	-111.253	0.132	0.027
-687.339	-200.000	-0.023	-0.106
-686.324	102.131	0.063	-0.075
-685.310	-200.000	-0.042	0.347
-684.295	-200.000	-0.050	0.243
-683.281	153.250	-0.106	0.148
-682.266	-144.124	0.101	-0.010
-681.251	-124.522	-0.243	0.038
-680.237	-200.000	0.042	-0.208
-679.222	-77.248	0.159	-0.056
-678.208	333.046	-0.043	0.085
-677.193	9.539	0.128	-0.099
-676.178	-110.583	0.299	-0.063
-675.164	-64.539	0.022	0.009
-674.149	68.117	-0.196	-0.204
-673.135	92.191	-0.319	-0.365
-672.120	73.740	0.152	-0.161
-671.105	361.481	0.056	-0.114
-670.091	-200.000	-0.014	0.231
-669.076	16.017	-0.192	0.154
-668.062	-104.014	0.082	-0.020
-667.047	110.737	-0.149	-0.182
-666.032	-200.000	0.022	0.109
-665.018	668.915	-0.149	0.392
-664.003	219.294	-0.131	-0.212
-662.989	-89.185	-0.355	-0.106
-661.974	-200.000	-0.008	-0.037
-660.959	-48.741	-0.210	0.102
-659.945	118.292	-0.028	0.034
-658.930	-200.000	0.061	-0.279
-657.916	39.798	-0.163	0.148
-656.901	370.858	0.081	-0.167
-655.886	-103.053	-0.381	0.092
-654.872	-200.000	0.076	-0.456
-653.857	-147.432	0.267	0.023
-652.843	18.559	0.249	-0.202
-651.828	-200.000	-0.003	-0.175
-650.814	-44.536	-0.366	-0.186
-649.799	-113.660	-0.182	0.036
-648.784	-123.691	-0.406	-0.065
-647.770	-147.269	-0.120	-0.010
-646.755	-50.852	-0.225	0.107
-645.741	800.000	0.018	-0.068
-644.726	-36.465	-0.143	0.078
-643.711	30.592	0.190	0.164
-642.697	-14.540	-0.411	0.268
-641.682	-58.188	0.290	0.128
-640.668	-98.446	0.312	0.081
-639.653	144.307	0.089	-0.121
-638.638	83.312	0.141	-0.156
-637.624	-4.113	-0.072	0.050
-636.609	52.101	-0.337	-0.326
-635.595	-38.489	-0.081	0.043
-634.580	-34.143	-0.150	0.084
-633.565	800.000	0.011	-0.030
-632.551	-80.958	0.298	0.100
-631.536	800.000	0.106	0.354
-630.522	587.954	0.089	-0.221
-629.507	-200.000	-0.003	-0.019
-628.492	-200.000	-0.035	0.179
-627.478	-157.364	-0.173	0.011
-626.463	96.022	0.147	-0.170
-625.449	-68.638	-0.216	0.085
-624.434	-58.443	0.027	0.012
-623.419	-107.113	0.141	0.031
-622.405	-200.000	0.016	-0.075
-621.390	-171.228	0.462	0.016
-620.376	-41.998	-0.107	-0.056
-619.361	-63.026	0.166	-0.070
-618.346	-120.585	0.105	0.018
-617.332	52.216	0.081	0.079
-616.317	780.202	-0.041	-0.115
-615.303	800.000	0.051	0.155
-614.288	-200.000	0.000	-0.049
-613.273	123.779	0.025	0.032
-612.259	-106.206	0.302	0.069
-611.244	-105.062	0.115	0.027
-610.230	800.000	0.020	0.066
-609.215	-26.158	-0.293	0.174
-608.201	-40.443	0.193	-0.101
-607.186	-200.000	0.011	0.165
-606.171	239.358	0.064	-0.108
-605.157	-39.697	0.156	-0.082
-604.142	-32.576	-0.027	0.015
-603.128	-200.000	0.004	-0.117
-602.113	-17.683	0.049	-0.031
-601.098	-20.465	-0.221	0.138
-600.084	-128.880	0.365	-0.052
-599.069	-38.674	0.352	-0.188
-598.055	800.000	0.008	0.030
-597.040	-153.531	-0.376	0.026
-596.025	-200.000	0.014	0.078
-595.011	-61.833	-0.254	0.108
-593.996	42.671	-0.137	0.127
-592.982	110.233	-0.061	-0.074
-591.967	88.181	-0.191	-0.215
-590.952	300.956	-0.122	-0.228
-589.938	800.000	0.035	-0.141
-588.923	-103.088	-0.267	0.064
-587.909	-200.000	-0.010	0.077
-586.894	-48.435	-0.257	-0.125
-585.879	65.674	-0.362	-0.371
-584.865	397.134	0.010	0.022
-583.850	134.897	-0.249	0.327
-582.836	-101.427	-0.282	-0.070
-581.821	773.319	-0.089	-0.245
-580.806	-53.608	-0.058	-0.027
-579.792	-169.890	0.251	0.009
-578.777	800.000	-0.093	-0.272
-577.763	-200.000	-0.030	-0.172
-576.748	105.755	0.018	0.022
-575.733	-200.000	-0.304	0.001
-574.719	-82.807	0.246	-0.080
-573.704	-126.258	-0.137	-0.021
-572.690	-68.944	-0.088	-0.034
-571.675	-34.633	-0.240	-0.133
-570.661	-70.728	0.142	0.054
-569.646	263.099	0.222	-0.389
-568.631	-93.653	0.127	0.035
-567.617	-110.069	-0.050	-0.011
-566.602	-41.993	0.154	0.080
-565.588	509.132	0.092	-0.217
-564.573	-106.186	0.296	-0.067
-563.558	15.518	0.175	0.139
-562.544	603.033	0.043	-0.107
-561.529	13.576	0.157	-0.123
-560.515	-64.795	-0.135	0.055
-559.500	-26.848	-0.179	0.106
-558.485	-50.749	-0.190	-0.090
-557.471	25.645	0.247	0.208
-556.456	26.102	0.250	0.211
-555.442	-9.978	0.186	0.125
-554.427	-124.312	-0.163	-0.026
-553.412	-139.412	-0.150	0.016
-552.398	146.311	0.220	-0.298
-551.383	69.564	0.152	0.158
-550.369	86.511	-0.057	-0.064
-549.354	81.063	0.157	-0.171
-548.339	-115.677	0.054	-0.010
-547.325	-0.041	0.213	0.153
-546.310	-131.647	0.237	0.031
-545.296	-52.652	0.119	-0.056
-544.281	800.000	-0.044	-0.157
-543.266	-140.959	0.454	0.047
-542.252	186.019	0.047	0.071
-541.237	-200.000	0.013	0.242
-540.223	-149.720	0.152	0.012
-539.208	-200.000	0.008	0.059
-538.193	84.701	-0.085	-0.094
-537.179	49.753	-0.350	-0.333
-536.164	-123.269	0.390	0.063
-535.150	-102.609	0.191	-0.046
-534.135	326.411	0.151	-0.293
-533.121	-164.796	-0.370	0.017
-532.106	-89.230	0.184	0.055
-531.091	-161.842	0.177	0.009
-530.077	800.000	0.007	0.020
-529.062	277.659	-0.202	0.363
-528.048	800.000	0.085	-0.246
-527.033	100.794	-0.192	-0.225
-526.018	-61.506	0.367	-0.156
-525.004	544.849	0.053	0.129
-523.989	491.064	-0.241	0.557
-522.975	80.252	0.155	0.168
-521.960	188.921	0.208	0.314
-520.945	-84.346	-0.229	-0.073
-519.931	158.062	-0.033	-0.046
-518.916	-68.278	-0.139	-0.054
-517.902	-95.356	0.407	0.110
-516.887	-58.794	-0.038	0.017
-515.872	-200.000	0.010	-0.213
-514.858	-185.420	-0.425	0.007
-513.843	504.298	0.016	0.037
-512.829	-2.150	0.134	-0.095
-511.814	48.205	0.123	0.116
-510.799	150.804	0.211	0.289
-509.785	121.859	0.107	-0.135
-508.770	800.000	-0.009	-0.032
-507.756	125.103	0.060	0.077
-506.741	48.116	-0.176	-0.166
-505.726	-61.091	0.417	-0.177
-504.712	800.000	-0.025	-0.073
-503.697	-69.628	-0.198	-0.076
-502.683	-71.272	-0.086	0.032
-501.668	124.063	0.074	0.094
-500.653	305.316	0.201	-0.377
-499.639	169.896	0.110	0.158
-498.624	-177.128	0.179	0.004
-497.610	-146.307	-0.336	0.030
-496.595	-136.022	-0.311	0.037
-495.581	18.292	-0.038	0.031
-494.566	-83.172	-0.146	-0.047
-493.551	239.193	-0.133	-0.223
-492.537	-200.000	0.007	0.226
-491.522	490.700	0.145	-0.334
-490.508	-113.602	0.040	0.008
-489.493	5.876	-0.305	-0.228
-488.478	201.321	-0.010	-0.015
-487.464	-200.000	0.037	0.260
-486.449	-86.377	0.155	0.048
-485.435	-200.000	0.043	-0.206
-484.420	800.000	-0.029	-0.129
-483.405	-92.928	-0.289	-0.081
-482.391	-92.522	0.288	-0.082
-481.376	800.000	0.064	0.259
-480.362	800.000	-0.051	-0.172
-479.347	-85.978	0.136	0.042
-478.332	449.337	-0.155	-0.344
-477.318	-200.000	-0.036	-0.365
-476.303	42.708	-0.207	-0.190
-475.289	527.576	-0.091	0.215
-474.274	800.000	-0.073	0.220
-473.259	147.106	0.190	0.257
-472.245	800.000	-0.064	0.262
-471.230	-200.000	0.023	0.336
-470.216	531.501	0.059	-0.141
-469.201	-200.000	-0.018	0.154
-468.186	-36.784	-0.409	-0.221
-467.172	359.024	0.058	0.117
-466.157	-74.844	0.195	0.070
-465.143	800.000	-0.095	-0.343
-464.128	-200.000	-0.006	0.041
-463.113	421.322	0.129	-0.278
-462.099	-31.270	0.078	-0.044
-461.084	9.097	0.027	-0.021
-460.070	81.770	-0.270	-0.294
-459.055	90.241	0.123	-0.138
-458.040	59.385	-0.010	-0.010
-457.026	-22.641	0.177	0.108
-456.011	139.013	-0.207	-0.273
-454.997	-200.000	0.017	0.127
-453.982	60.277	-0.031	0.031
-452.968	84.222	-0.090	-0.099
-451.953	-200.000	-0.038	0.193
-450.938	-169.930	0.393	0.014
-449.924	261.119	-0.091	0.159
-448.909	-82.959	0.221	-0.072
-447.895	29.241	0.200	0.171
-446.880	800.000	-0.079	0.298
-445.865	-13.381	-0.164	0.107
-444.851	769.434	0.083	0.227
-443.836	-200.000	0.031	0.172
-442.822	-1.514	-0.136	0.097
-441.807	166.372	-0.068	-0.097
-440.792	65.373	-0.149	0.151
-439.778	-158.504	0.054	0.003
-438.763	-200.000	-0.030	0.135
-437.749	-146.425	0.014	0.001
-436.734	-72.877	-0.143	-0.053
-435.719	170.381	0.251	0.361
-434.705	141.515	-0.278	0.370
-433.690	98.119	0.147	-0.171
-432.676	48.230	-0.201	-0.189
-431.661	-200.000	-0.045	0.345
-430.646	351.162	-0.072	-0.143
-429.632	27.046	-0.103	0.087
-428.617	-138.079	-0.072	0.008
-427.603	52.857	0.036	0.035
-426.588	-200.000	0.031	0.181
-425.573	-200.000	-0.028	-0.247
-424.559	-200.000	0.454	0.001
-423.544	-168.354	0.286	-0.011
-422.530	-130.429	0.149	0.020
-421.515	-200.000	-0.016	-0.296
-420.500	-70.832	-0.121	0.046
-419.486	-200.000	-0.007	0.041
-418.471	-11.784	-0.229	-0.151
-417.457	-1.623	-0.177	-0.125
-416.442	-200.000	0.045	0.212
-415.428	-94.060	0.160	-0.044
-414.413	359.150	-0.084	0.169
-413.398	737.889	-0.014	-0.038
-412.384	248.447	0.055	-0.093
-411.369	-167.779	0.139	0.006
-410.355	-128.134	-0.341	-0.049
-409.340	-108.955	0.158	-0.034
-408.325	94.821	0.026	-0.030
-407.311	-173.448	0.285	0.009
-406.296	39.290	0.066	-0.059
-405.282	33.776	0.225	0.197
-404.267	-49.284	-0.057	-0.027
-403.252	-59.763	0.387	0.167
-402.238	639.784	-0.063	0.161
-401.223	-200.000	0.051	0.377
-400.209	-28.544	0.238	-0.138
-399.194	-140.381	-0.175	-0.018
-398.179	450.234	0.130	-0.289
-397.165	800.000	0.080	-0.277
-396.150	121.629	0.102	-0.128
-395.136	-170.810	-0.156	0.005
-394.121	-106.059	-0.129	-0.029
-393.106	50.500	-0.016	-0.016
-392.092	237.729	0.184	-0.307
-391.077	-200.000	0.015	0.177
-390.063	173.029	0.130	0.188
-389.048	268.470	0.069	0.122
-388.033	356.598	-0.058	-0.117
-387.019	800.000	0.030	0.102
-386.004	84.975	0.051	-0.056
-384.990	81.314	0.091	-0.099
-383.975	19.502	-0.094	-0.076
-382.960	174.561	-0.057	-0.083
-381.946	-124.663	-0.282	0.044
-380.931	15.011	0.157	0.124
-379.917	154.586	0.238	-0.329
-378.902	20.882	-0.411	-0.335
-377.888	24.641	0.139	-0.115
-376.873	68.296	0.047	-0.049
-375.858	-144.310	-0.177	0.017
-374.844	77.787	0.013	-0.014
-373.829	303.277	-0.079	-0.146
-372.815	800.000	-0.031	0.106
-371.800	-43.058	-0.149	-0.076
-370.785	-53.020	-0.068	0.031
-369.771	166.426	0.082	-0.116
-368.756	61.924	0.147	0.147
-367.742	-200.000	-0.034	-0.181
-366.727	-28.379	-0.142	0.082
-365.712	-87.975	-0.097	0.029
-364.698	113.472	0.202	-0.246
-363.683	-80.292	-0.313	0.105
-362.669	-3.205	-0.258	-0.181
-361.654	137.677	0.081	-0.107
-360.639	-200.000	-0.014	0.072
-359.625	800.000	0.060	0.202
-358.610	683.404	0.035	0.091
-357.596	596.684	-0.078	-0.193
-356.581	800.000	-0.044	-0.189
-355.566	22.306	-0.330	-0.271
-354.552	33.329	0.342	0.297
-353.537	800.000	0.033	-0.114
-352.523	242.851	0.017	0.028
-351.508	-166.711	0.255	0.011
-350.493	46.110	-0.073	-0.068
-349.479	-112.370	0.136	-0.027
-348.464	421.123	0.068	-0.146
-347.450	64.919	0.251	0.254
-346.435	-34.288	0.189	-0.104
-345.420	76.252	-0.065	-0.069
-344.406	-200.000	-0.002	-0.126
-343.391	-102.152	-0.163	0.039
-342.377	-4.798	0.227	-0.157
-341.362	-29.354	-0.194	-0.111
-340.348	-25.359	-0.181	0.107
-339.333	-61.058	-0.249	0.105
-338.318	419.484	0.086	-0.185
-337.304	-200.000	-0.014	0.196
-336.289	-158.354	-0.200	-0.012
-335.275	5.347	0.245	-0.181
-334.260	-135.708	-0.252	-0.030
-333.245	58.635	-0.066	0.065
-332.231	-20.590	-0.070	0.043
-331.216	-60.797	0.198	-0.084
-330.202	-31.923	0.272	-0.152
-329.187	-2.790	0.201	-0.141
-328.172	2.445	-0.089	0.065
-327.158	800.000	0.122	-0.415
-326.143	208.062	-0.231	0.361
-325.129	-30.124	0.226	-0.129
-324.114	30.008	0.221	0.189
-323.099	800.000	-0.058	0.171
-322.085	232.052	-0.077	0.127
-321.070	800.000	0.100	0.349
-320.056	-200.000	0.002	0.084
-319.041	-200.000	-0.002	-0.183
-318.026	-124.386	-0.197	-0.031
-317.012	-0.492	0.304	-0.216
-315.997	-200.000	-0.229	-0.001
-314.983	115.726	0.140	-0.171
-313.968	800.000	0.042	0.155
-312.953	-96.996	0.132	0.035
-311.939	-77.878	0.066	-0.023
-310.924	294.910	0.059	0.108
-309.910	42.631	-0.192	-0.175
-308.895	81.452	-0.105	-0.113
-307.880	-200.000	0.003	-0.062
-306.866	-154.312	-0.261	0.018
-305.851	363.716	0.144	-0.290
-304.837	117.494	0.155	-0.191
-303.822	514.870	-0.189	-0.441
-302.807	108.996	-0.165	-0.198
-301.793	-200.000	-0.027	0.361
-300.778	105.328	-0.079	-0.093
-299.764	46.355	0.023	-0.021
-298.749	-27.471	-0.036	0.021
-297.735	236.982	0.167	0.276
-296.720	419.519	-0.047	0.101
-295.705	-58.916	-0.085	-0.037
-294.691	353.229	0.076	-0.151
-293.676	-35.342	0.201	0.109
-292.662	-4.372	-0.374	0.258
-291.647	800.000	-0.117	-0.362
-290.632	800.000	0.043	0.169
-289.618	-200.000	-0.010	-0.230
-288.603	51.029	0.165	0.156
-287.589	1.128	0.231	-0.166
-286.574	800.000	-0.015	0.046
-285.559	-200.000	-0.000	0.447
-284.545	-200.000	0.019	-0.199
-283.530	37.870	-0.203	-0.180
-282.516	510.805	-0.046	0.108
-281.501	-200.000	0.002	-0.220
-280.486	272.686	-0.117	-0.207
-279.472	25.101	0.191	-0.159
-278.457	-74.709	-0.249	0.089
-277.443	106.428	0.114	-0.135
-276.428	183.631	-0.031	0.046
-275.413	125.705	0.209	-0.264
-274.399	-200.000	-0.013	-0.075
-273.384	313.589	0.111	0.209
-272.370	56.703	-0.306	0.298
-271.355	35.523	-0.064	0.056
-270.340	418.432	0.023	0.049
-269.326	-108.439	0.376	0.081
-268.311	800.000	-0.095	0.270
-267.297	-121.222	-0.198	-0.033
-266.282	-36.281	0.235	-0.127
-265.267	600.895	-0.049	0.122
-264.253	347.658	0.028	0.056
-263.238	-200.000	-0.006	0.208
-262.224	-200.000	-0.031	0.173
-261.209	83.390	-0.066	-0.072
-260.195	258.825	0.047	-0.081
-259.180	368.340	0.045	0.091
-258.165	282.522	0.093	0.167
-257.151	288.852	0.073	0.131
-256.136	528.782	-0.067	-0.157
-255.122	167.694	0.071	-0.101
-254.107	7.474	-0.480	0.358
-253.092	-200.000	-0.028	0.405
-252.078	80.704	0.165	0.178
-251.063	-200.000	0.041	0.208
-250.049	83.563	0.042	-0.046
-249.034	123.526	-0.054	0.067
-248.019	-162.480	-0.088	0.004
-247.005	-133.856	-0.078	-0.010
-245.990	-200.000	-0.040	0.203
-244.976	-107.416	-0.397	-0.087
-243.961	800.000	-0.016	-0.064
-242.946	-200.000	-0.013	0.205
-241.932	533.994	-0.058	0.137
-240.917	43.339	0.066	-0.060
-239.903	-46.282	0.115	0.057
-238.888	-200.000	0.006	0.417
-237.873	-200.000	-0.010	0.304
-236.859	-130.576	0.095	-0.013
-235.844	-61.795	-0.304	-0.127
-234.830	36.298	0.147	0.129
-233.815	60.512	-0.201	-0.199
-232.800	347.755	-0.108	-0.212
-231.786	238.355	0.148	0.246
-230.771	-200.000	-0.030	0.187
-229.757	332.827	-0.124	-0.240
-228.742	-114.349	-0.205	0.039
-227.727	-161.977	-0.343	0.017
-226.713	-163.329	0.074	-0.004
-225.698	-143.430	0.125	-0.012
-224.684	347.915	-0.066	0.129
-223.669	664.051	-0.129	0.332
-222.655	-59.814	-0.245	0.105
-221.640	-11.978	-0.182	0.119
-220.625	-149.682	-0.082	-0.006
-219.611	800.000	-0.060	-0.177
-218.596	36.270	0.301	-0.265
-217.582	-200.000	0.041	-0.297
-216.567	451.556	-0.197	-0.435
-215.552	-200.000	-0.007	-0.146
-214.538	-200.000	-0.033	-0.257
-213.523	377.788	-0.059	-0.119
-212.509	56.414	-0.153	0.149
-211.494	264.653	-0.079	0.137
-210.479	16.643	-0.064	-0.050
-209.465	-20.942	0.316	0.193
-208.450	-181.312	0.033	0.001
-207.436	800.000	0.040	0.167
-206.421	29.103	-0.157	0.133
-205.406	-200.000	-0.033	-0.219
-204.392	-75.667	0.096	0.034
-203.377	83.295	-0.139	-0.151
-202.363	17.768	0.179	0.142
-201.348	-102.948	-0.136	-0.032
-200.333	-69.444	0.397	0.152
-199.319	-112.972	-0.170	0.033
-198.304	-4.414	0.045	0.031
-197.290	800.000	-0.038	-0.155
-196.275	100.099	-0.157	0.181
-195.260	800.000	0.092	0.261
-194.246	-200.000	-0.057	0.338
-193.231	-143.532	-0.120	-0.011
-192.217	-200.000	-0.051	-0.271
-191.202	-72.190	0.181	-0.067
-190.187	694.748	0.085	0.223
-189.173	-75.582	0.095	0.034
-188.158	-200.000	0.001	-0.105
-187.144	77.738	-0.182	0.193
-186.129	-200.000	0.062	0.353
-185.114	-200.000	0.030	0.130
-184.100	-200.000	0.058	-0.434
-183.085	83.912	0.276	-0.300
-182.071	593.202	-0.047	-0.115
-181.056	-200.000	-0.026	-0.159
-180.042	800.000	-0.047	-0.174
-179.027	-78.135	0.240	-0.082
-178.012	172.027	0.111	0.159
-176.998	515.771	0.058	-0.136
-175.983	-200.000	-0.022	0.153
-174.969	-200.000	-0.011	0.355
-173.954	244.727	0.078	0.131
-172.939	132.526	0.042	-0.054
-171.925	55.163	-0.069	-0.066
-170.910	-82.151	-0.149	0.048
-169.896	-197.908	0.116	-0.001
-168.881	-200.000	0.038	-0.219
-167.866	800.000	0.047	0.194
-166.852	-200.000	-0.002	0.171
-165.837	-200.000	-0.018	-0.185
-164.823	1.582	0.072	-0.052
-163.808	-99.979	-0.154	0.038
-162.793	77.942	0.171	0.181
-161.779	-80.531	-0.235	-0.078
-160.764	-118.954	-0.122	-0.021
-159.750	-44.426	0.260	0.130
-158.735	105.708	-0.198	-0.233
-157.720	-200.000	-0.020	-0.090
-156.706	11.881	-0.174	0.133
-155.691	-40.122	0.088	-0.045
-154.677	-35.426	-0.445	0.240
-153.662	-200.000	0.009	0.116
-152.647	-200.000	-0.043	0.196
-151.633	-200.000	-0.006	0.200
-150.618	-155.094	0.167	0.011
-149.604	409.757	-0.136	0.286
-148.589	-17.275	0.304	-0.191
-147.574	3.938	-0.211	0.153
-146.560	65.835	-0.068	0.069
-145.545	-127.193	-0.312	0.045
-144.531	238.477	0.146	0.240
-143.516	66.062	0.250	-0.252
-142.502	55.841	0.300	0.289
-141.487	-1.319	-0.087	0.061
-140.472	-29.985	0.059	0.033
-139.458	-28.182	0.214	-0.123
-138.443	578.639	0.030	0.073
-137.429	-137.712	-0.301	-0.034
-136.414	-85.785	0.193	0.059
-135.399	438.142	-0.018	0.038
-134.385	-200.000	0.120	-0.603
-133.370	69.178	-0.246	-0.251
-132.356	202.536	-0.132	-0.202
-131.341	85.317	0.307	-0.335
-130.326	-200.000	0.011	0.102
-129.312	-2.728	0.275	0.191
-128.297	241.522	0.073	-0.121
-127.283	86.592	0.078	0.086
-126.268	-28.347	-0.237	0.136
-125.253	26.657	-0.146	-0.121
-124.239	217.318	0.023	-0.036
-123.224	-139.589	0.262	-0.028
-122.210	-51.809	0.160	-0.074
-121.195	-200.000	0.004	0.174
-120.180	449.305	0.086	-0.188
