DTS Sentinel unit serial number:	SN413079Multiplexer serial number:	ORYXHardware model number:	OX4-SRSoftware version number:	ORYX F/W v4.00 Oryx Data Collector v3.7.2.0data status	okinstallation	princeton_trtdifferential loss correction	single-endedforward channel	channel 4reverse channel	N/Adate	2019/09/14time	19:41:35forward acquisition time	60.00reverse acquisition time	0.00gamma	496.2192k internal	0.2304k external	0.2304temperature offset calibration	1.0099default loss term (dB/km)	0.3790temperature slope calibration	1.0000multiplexer offset coefficient	1.0000multiplexer slope coefficient	1.0000fibre end	0.00T internal ref (°C)	34.50T ext. ref 1 (°C)	4.87T ext. ref 2 (°C)	28.76length (m)	temperature (°C)	Stokes	anti-Stokes-747.200	-200.000	-0.021	-0.154
-746.185	-128.385	-0.208	0.030
-745.171	800.000	-0.088	-0.286
-744.156	-54.279	-0.046	0.021
-743.142	40.144	-0.117	0.107
-742.127	800.000	-0.116	0.412
-741.112	-90.486	0.133	0.039
-740.098	381.122	-0.060	0.125
-739.083	-183.047	0.324	-0.006
-738.069	-73.790	-0.168	0.062
-737.054	-90.873	-0.090	-0.026
-736.039	-68.178	-0.242	0.096
-735.025	413.122	0.066	0.143
-734.010	-111.303	-0.312	-0.065
-732.996	34.420	-0.215	0.191
-731.981	-200.000	-0.016	-0.207
-730.966	-94.676	0.148	-0.041
-729.952	-200.000	-0.032	-0.247
-728.937	353.574	0.046	-0.092
-727.923	-1.591	-0.119	-0.085
-726.908	74.095	0.346	-0.370
-725.894	-200.000	-0.007	0.278
-724.879	-21.419	0.035	-0.021
-723.864	800.000	-0.119	-0.446
-722.850	258.104	-0.165	-0.289
-721.835	800.000	0.103	0.372
-720.821	186.543	0.031	-0.046
-719.806	113.518	-0.039	-0.048
-718.791	24.693	0.260	-0.219
-717.777	-165.912	0.343	-0.015
-716.762	165.375	-0.016	-0.022
-715.748	82.418	0.078	0.086
-714.733	742.585	-0.050	-0.137
-713.718	-200.000	0.065	-0.322
-712.704	800.000	0.068	-0.207
-711.689	-52.172	-0.179	-0.084
-710.675	719.928	-0.098	-0.266
-709.660	-37.912	-0.060	0.032
-708.645	-200.000	0.013	-0.115
-707.631	-200.000	-0.170	0.000
-706.616	85.368	-0.135	-0.151
-705.602	-200.000	0.013	-0.107
-704.587	169.673	0.052	-0.075
-703.572	254.626	0.049	-0.084
-702.558	16.590	-0.157	-0.126
-701.543	61.385	-0.160	-0.161
-700.529	604.476	-0.046	-0.117
-699.514	-53.425	0.040	-0.019
-698.499	222.736	-0.138	-0.225
-697.485	283.617	0.128	-0.233
-696.470	-180.628	0.252	-0.005
-695.456	17.600	-0.172	0.139
-694.441	580.253	-0.049	0.121
-693.426	-200.000	-0.029	-0.306
-692.412	23.273	0.494	-0.412
-691.397	149.702	-0.341	-0.470
-690.383	800.000	0.078	0.340
-689.368	-141.162	-0.320	-0.033
-688.354	196.733	0.156	0.242
-687.339	-59.008	-0.159	0.070
-686.324	-200.000	0.024	-0.135
-685.310	331.777	-0.140	-0.275
-684.295	64.179	-0.061	0.062
-683.281	-200.000	-0.045	-0.290
-682.266	-124.288	0.319	-0.051
-681.251	800.000	0.057	0.231
-680.237	560.826	-0.149	-0.367
-679.222	-45.587	-0.466	0.234
-678.208	71.963	-0.301	-0.318
-677.193	-27.513	-0.102	0.060
-676.178	97.682	-0.344	-0.402
-675.164	482.669	-0.108	-0.248
-674.149	142.295	-0.082	-0.111
-673.135	51.789	-0.210	0.203
-672.120	-165.161	0.401	-0.018
-671.105	800.000	0.037	-0.115
-670.091	-200.000	0.027	-0.147
-669.076	-75.094	-0.167	0.061
-668.062	462.658	-0.098	-0.223
-667.047	-157.659	0.219	0.013
-666.032	800.000	0.023	0.094
-665.018	185.672	-0.033	-0.050
-664.003	800.000	-0.062	-0.184
-662.989	-200.000	0.013	0.196
-661.974	211.973	0.132	-0.211
-660.959	-148.937	-0.191	0.016
-659.945	-200.000	-0.016	0.192
-658.930	466.219	-0.134	-0.304
-657.916	54.263	-0.108	0.106
-656.901	219.627	-0.143	-0.232
-655.886	54.491	-0.100	-0.098
-654.872	-88.665	-0.230	0.069
-653.857	31.183	0.261	-0.227
-652.843	-162.897	-0.109	0.005
-651.828	-104.552	0.417	-0.098
-650.814	-8.119	-0.133	-0.091
-649.799	-200.000	-0.008	-0.075
-648.784	800.000	-0.035	-0.144
-647.770	-36.775	0.017	0.009
-646.755	-66.758	-0.132	-0.053
-645.741	-5.014	-0.221	0.154
-644.726	-200.000	-0.011	-0.114
-643.711	-200.000	-0.021	-0.122
-642.697	-160.118	-0.166	-0.009
-641.682	256.099	0.031	0.054
-640.668	-200.000	-0.047	0.308
-639.653	-103.508	0.134	-0.032
-638.638	800.000	-0.041	0.142
-637.624	-0.936	-0.074	-0.053
-636.609	-72.008	0.091	0.034
-635.595	800.000	0.057	0.224
-634.580	-85.274	-0.087	-0.028
-633.565	569.549	-0.055	0.137
-632.551	116.063	-0.067	-0.083
-631.536	800.000	-0.006	-0.022
-630.522	-65.917	-0.066	0.027
-629.507	-200.000	-0.031	-0.168
-628.492	-126.312	0.225	0.034
-627.478	83.894	-0.135	0.150
-626.463	206.048	0.217	0.341
-625.449	466.762	0.056	-0.128
-624.434	14.823	0.112	0.089
-623.419	-90.652	-0.154	-0.045
-622.405	-28.282	0.203	0.119
-621.390	-200.000	-0.020	-0.230
-620.376	-71.705	-0.152	0.058
-619.361	-9.742	-0.238	-0.161
-618.346	-200.000	-0.012	-0.270
-617.332	-181.813	-0.104	0.002
-616.317	45.647	-0.122	-0.114
-615.303	645.837	0.048	-0.125
-614.288	-200.000	-0.004	0.185
-613.273	-168.432	0.216	-0.008
-612.259	-27.753	0.066	0.039
-611.244	-166.513	0.226	0.010
-610.230	-107.693	0.464	0.103
-609.215	53.649	-0.139	-0.135
-608.201	-80.947	-0.160	-0.054
-607.186	53.539	-0.088	0.086
-606.171	16.958	-0.136	-0.109
-605.157	-108.238	0.319	-0.070
-604.142	-80.877	-0.112	0.038
-603.128	-65.541	0.116	0.047
-602.113	-67.300	0.079	-0.032
-601.098	28.580	-0.104	-0.089
-600.084	397.108	-0.113	-0.239
-599.069	43.970	-0.405	0.376
-598.055	800.000	-0.044	-0.137
-597.040	514.718	0.088	-0.208
-596.025	-183.730	0.218	0.004
-595.011	143.771	0.065	-0.088
-593.996	-33.241	-0.168	-0.094
-592.982	800.000	0.031	0.093
-591.967	-55.568	0.273	-0.124
-590.952	125.326	-0.281	0.359
-589.938	-123.626	0.099	0.016
-588.923	-167.746	-0.080	-0.003
-587.909	-200.000	-0.024	-0.361
-586.894	-143.701	-0.377	-0.036
-585.879	250.541	0.106	-0.183
-584.865	120.986	-0.284	-0.358
-583.850	-74.568	0.158	0.058
-582.836	-92.815	-0.228	-0.064
-581.821	423.912	-0.108	-0.236
-580.806	-15.270	-0.257	0.167
-579.792	-125.458	-0.174	0.027
-578.777	-200.000	0.005	0.087
-577.763	561.711	0.042	-0.102
-576.748	-113.250	-0.175	0.035
-575.733	-91.342	-0.163	0.047
-574.719	800.000	0.018	0.077
-573.704	-200.000	-0.015	-0.085
-572.690	-102.799	0.142	0.034
-571.675	60.342	-0.036	0.036
-570.661	72.720	0.304	-0.321
-569.646	800.000	0.018	0.075
-568.631	145.254	-0.069	0.093
-567.617	-200.000	-0.010	-0.047
-566.602	265.608	-0.133	-0.235
-565.588	11.220	0.210	-0.163
-564.573	-79.952	0.203	-0.069
-563.558	438.626	-0.085	-0.188
-562.544	-34.273	-0.029	0.016
-561.529	-118.066	-0.212	-0.038
-560.515	800.000	-0.133	-0.375
-559.500	-13.789	0.083	0.054
-558.485	-200.000	-0.002	0.348
-557.471	-32.195	-0.530	-0.299
-556.456	-200.000	0.032	-0.193
-555.442	-200.000	-0.047	-0.225
-554.427	516.335	-0.093	0.219
-553.412	48.247	0.324	0.306
-552.398	51.764	0.116	0.112
-551.383	-200.000	-0.066	-0.443
-550.369	10.395	-0.013	0.010
-549.354	233.920	-0.200	-0.333
-548.339	-56.121	0.090	0.040
-547.325	-161.234	-0.329	-0.017
-546.310	153.500	-0.144	-0.200
-545.296	446.931	0.138	-0.307
-544.281	-200.000	-0.013	-0.270
-543.266	-172.154	-0.257	0.008
-542.252	-200.000	-0.056	-0.369
-541.237	-200.000	0.034	0.254
-540.223	-75.246	-0.215	-0.078
-539.208	73.426	0.222	-0.235
-538.193	-200.000	-0.043	0.226
-537.179	-44.983	-0.257	-0.129
-536.164	245.904	-0.171	-0.290
-535.150	21.699	0.285	-0.234
-534.135	800.000	0.084	-0.252
-533.121	551.795	-0.082	0.199
-532.106	628.808	0.127	0.324
-531.091	-200.000	-0.008	0.150
-530.077	581.582	-0.027	0.067
-529.062	-99.986	0.050	-0.013
-528.048	-94.216	0.119	0.033
-527.033	-200.000	0.030	-0.280
-526.018	-200.000	-0.011	-0.279
-525.004	-108.646	0.125	0.027
-523.989	-40.188	0.123	0.064
-522.975	-74.814	0.235	-0.085
-521.960	-200.000	-0.008	-0.079
-520.945	-181.381	-0.147	-0.003
-519.931	-93.205	0.240	-0.067
-518.916	-119.926	-0.180	-0.031
-517.902	800.000	-0.037	0.124
-516.887	800.000	-0.082	0.311
-515.872	-30.952	0.272	0.155
-514.858	-139.762	0.156	0.017
-513.843	-59.628	-0.076	-0.033
-512.829	1.144	0.160	0.116
-511.814	-164.110	0.195	-0.009
-510.799	-113.750	0.148	0.029
-509.785	-139.094	-0.360	-0.039
-508.770	388.434	0.149	0.312
-507.756	195.242	0.114	-0.175
-506.741	220.364	0.189	-0.306
-505.726	-200.000	-0.002	-0.080
-504.712	399.264	0.114	-0.241
-503.697	34.226	-0.307	-0.270
-502.683	18.814	0.186	-0.150
-501.668	-120.159	0.582	-0.100
-500.653	493.510	-0.118	-0.274
-499.639	800.000	0.117	-0.464
-498.624	180.109	0.057	-0.084
-497.610	800.000	0.083	-0.262
-496.595	-200.000	-0.064	0.506
-495.581	800.000	-0.158	0.583
-494.566	-3.998	0.340	-0.237
-493.551	283.352	0.114	-0.206
-492.537	526.097	-0.124	0.295
-491.522	-200.000	-0.015	0.083
-490.508	39.484	-0.434	-0.392
-489.493	381.401	0.020	-0.040
-488.478	-200.000	-0.021	-0.144
-487.464	64.793	0.016	0.017
-486.449	-60.638	0.151	0.064
-485.435	-22.571	0.146	-0.089
-484.420	-22.416	0.216	-0.132
-483.405	-200.000	0.022	0.170
-482.391	-61.973	-0.082	-0.035
-481.376	192.152	0.100	0.152
-480.362	-32.738	0.061	-0.034
-479.347	-118.426	0.202	0.036
-478.332	-101.472	0.114	-0.028
-477.318	-200.000	0.017	0.197
-476.303	-108.772	0.133	-0.029
-475.289	144.767	-0.003	-0.005
-474.274	26.281	-0.131	-0.110
-473.259	-126.265	0.231	0.035
-472.245	59.474	0.182	0.181
-471.230	-64.359	-0.223	-0.091
-470.216	-37.599	0.022	0.012
-469.201	190.642	0.314	-0.475
-468.186	-200.000	-0.008	0.045
-467.172	134.008	-0.189	-0.246
-466.157	395.993	-0.076	-0.159
-465.143	20.763	0.027	0.022
-464.128	-64.949	-0.191	0.078
-463.113	-21.541	-0.176	0.108
-462.099	800.000	0.048	0.188
-461.084	13.265	-0.092	0.072
-460.070	32.643	-0.117	0.102
-459.055	-200.000	-0.027	0.171
-458.040	-44.905	0.383	0.192
-457.026	-22.531	-0.075	-0.046
-456.011	-200.000	0.000	-0.370
-454.997	188.418	-0.026	0.039
-453.982	-151.104	-0.289	0.022
-452.968	110.388	0.121	-0.146
-451.953	800.000	0.113	-0.333
-450.938	-200.000	-0.049	-0.287
-449.924	32.322	-0.181	-0.157
-448.909	-122.053	-0.271	0.045
-447.895	-200.000	-0.071	0.332
-446.880	-103.197	0.138	-0.033
-445.865	-104.689	-0.102	-0.024
-444.851	-200.000	0.012	0.074
-443.836	-7.495	-0.198	-0.135
-442.822	-65.932	-0.242	-0.097
-441.807	-17.782	-0.296	-0.187
-440.792	-74.571	0.359	-0.130
-439.778	235.539	0.070	-0.117
-438.763	-118.612	-0.116	0.021
-437.749	586.336	-0.086	0.213
-436.734	194.173	-0.154	-0.234
-435.719	228.720	0.090	-0.147
-434.705	36.060	0.247	0.219
-433.690	800.000	0.038	-0.122
-432.676	-200.000	-0.009	-0.048
-431.661	436.429	-0.192	0.420
-430.646	-200.000	-0.001	0.059
-429.632	800.000	0.092	-0.305
-428.617	-0.308	0.229	0.163
-427.603	495.157	-0.120	0.276
-426.588	-48.577	0.316	-0.153
-425.573	-176.663	0.442	-0.011
-424.559	595.549	-0.112	0.279
-423.544	-114.212	0.095	-0.018
-422.530	-200.000	-0.019	-0.126
-421.515	-133.724	-0.473	-0.059
-420.500	138.258	-0.038	-0.050
-419.486	68.516	-0.159	0.164
-418.471	11.535	0.157	0.121
-417.457	-12.202	-0.359	0.236
-416.442	-199.177	-0.291	0.002
-415.428	283.229	0.122	0.219
-414.413	800.000	-0.056	0.177
-413.398	28.635	0.134	-0.114
-412.384	-54.691	-0.121	-0.055
-411.369	-24.727	-0.248	0.148
-410.355	-65.994	-0.035	-0.014
-409.340	-158.680	-0.169	-0.010
-408.325	112.424	0.252	0.307
-407.311	-200.000	0.012	0.208
-406.296	-51.783	-0.291	0.136
-405.282	-150.051	0.183	0.014
-404.267	189.452	-0.189	-0.285
-403.252	160.506	-0.084	-0.118
-402.238	-92.756	-0.071	0.020
-401.223	-118.123	-0.062	-0.011
-400.209	57.992	0.230	-0.226
-399.194	800.000	-0.092	-0.290
-398.179	286.137	0.067	-0.122
-397.165	-18.768	0.248	0.155
-396.150	-129.384	0.126	0.018
-395.136	-200.000	-0.014	-0.334
-394.121	62.763	-0.195	-0.196
-393.106	-106.624	-0.391	0.087
-392.092	158.909	0.261	-0.364
-391.077	14.388	-0.244	-0.191
-390.063	-200.000	0.059	0.283
-389.048	-107.699	0.096	0.021
-388.033	-200.000	-0.019	0.205
-387.019	800.000	-0.090	-0.329
-386.004	-200.000	-0.003	0.334
-384.990	800.000	-0.054	0.201
-383.975	37.193	0.306	-0.272
-382.960	-157.039	0.219	0.013
-381.946	47.316	-0.206	-0.192
-380.931	549.864	0.021	-0.052
-379.917	27.160	-0.153	0.129
-378.902	209.528	0.050	0.078
-377.888	174.507	-0.091	0.132
-376.873	91.975	-0.130	-0.146
-375.858	139.841	0.130	-0.172
-374.844	-20.810	0.049	-0.030
-373.829	-104.461	0.163	-0.038
-372.815	800.000	0.024	-0.097
-371.800	800.000	0.080	-0.310
-370.785	-135.291	-0.198	0.024
-369.771	-200.000	-0.020	0.199
-368.756	-200.000	0.020	-0.103
-367.742	119.630	0.100	0.124
-366.727	800.000	-0.042	0.141
-365.712	800.000	-0.105	0.425
-364.698	-34.443	0.147	0.081
-363.683	-153.802	-0.083	0.006
-362.669	-75.429	0.295	-0.105
-361.654	-103.496	0.262	0.062
-360.639	-94.562	-0.105	0.029
-359.625	-200.000	0.020	0.496
-358.610	-116.586	-0.258	-0.048
-357.596	418.373	-0.113	0.242
-356.581	-107.957	0.387	0.084
-355.566	111.759	-0.152	0.184
-354.552	170.420	-0.215	0.309
-353.537	-200.000	-0.012	-0.082
-352.523	-200.000	-0.007	-0.353
-351.508	96.844	-0.135	-0.156
-350.493	243.769	0.097	-0.163
-349.479	37.390	-0.113	0.101
-348.464	-7.910	0.228	0.154
-347.450	-55.096	0.051	0.023
-346.435	-28.255	-0.275	-0.159
-345.420	91.625	0.274	0.309
-344.406	800.000	0.084	0.300
-343.391	252.449	0.123	0.210
-342.377	-130.847	0.198	-0.027
-341.362	297.519	0.066	0.121
-340.348	-200.000	-0.002	-0.113
-339.333	800.000	0.015	0.043
-338.318	-91.365	0.379	0.109
-337.304	228.251	0.005	0.008
-336.289	205.368	-0.123	0.192
-335.275	720.146	-0.096	0.256
-334.260	-200.000	0.093	-0.421
-333.245	-54.279	-0.196	0.089
-332.231	-11.888	0.149	-0.098
-331.216	-183.506	-0.193	-0.003
-330.202	-141.971	0.476	-0.048
-329.187	-16.807	-0.341	-0.216
-328.172	21.786	-0.150	-0.122
-327.158	86.421	-0.184	0.203
-326.143	-155.510	0.274	0.018
-325.129	-34.258	0.106	0.058
-324.114	800.000	-0.108	0.346
-323.099	-200.000	0.043	0.387
-322.085	73.395	-0.090	0.094
-321.070	133.652	-0.044	-0.057
-320.056	-78.453	-0.211	-0.072
-319.041	265.979	0.045	0.078
-318.026	-39.679	0.109	0.057
-317.012	800.000	-0.027	-0.089
-315.997	800.000	0.084	0.318
-314.983	-185.142	-0.318	-0.005
-313.968	-169.287	0.396	-0.015
-312.953	800.000	0.043	0.174
-311.939	-121.664	-0.013	-0.002
-310.924	-26.251	0.114	-0.067
-309.910	-136.223	-0.235	0.028
-308.895	35.580	0.126	-0.110
-307.880	240.033	-0.124	-0.206
-306.866	38.246	0.204	0.181
-305.851	800.000	0.073	0.287
-304.837	-173.134	0.205	-0.006
-303.822	158.337	0.357	-0.495
-302.807	-200.000	0.065	-0.287
-301.793	76.254	0.042	-0.044
-300.778	-200.000	0.062	-0.279
-299.764	-44.229	-0.285	-0.143
-298.749	16.543	-0.189	0.149
-297.735	374.633	-0.090	0.182
-296.720	220.697	0.095	0.152
-295.705	-80.474	-0.119	0.040
-294.691	-200.000	0.022	0.181
-293.676	118.761	0.435	0.538
-292.662	-114.826	-0.276	-0.053
-291.647	-73.485	-0.195	-0.071
-290.632	109.697	0.161	0.193
-289.618	-123.509	0.305	0.049
-288.603	669.267	-0.044	-0.113
-287.589	186.596	0.149	-0.221
-286.574	-100.804	-0.270	-0.066
-285.559	-147.968	-0.283	-0.024
-284.545	654.361	0.049	-0.125
-283.530	116.606	-0.096	0.118
-282.516	-200.000	0.006	0.101
-281.501	-71.308	-0.168	-0.063
-280.486	83.931	0.223	-0.243
-279.472	800.000	0.014	0.044
-278.457	-25.595	0.169	0.100
-277.443	800.000	0.077	0.272
-276.428	-200.000	0.018	-0.214
-275.413	-32.278	0.153	-0.086
-274.399	386.590	-0.167	0.344
-273.384	-6.120	0.134	0.092
-272.370	606.637	-0.026	0.064
-271.355	262.626	0.140	-0.243
-270.340	287.023	0.182	-0.329
-269.326	-200.000	-0.031	-0.269
-268.311	428.472	0.064	-0.137
-267.297	-82.103	0.176	0.057
-266.282	13.500	-0.286	-0.222
-265.267	20.464	0.110	0.089
-264.253	-42.801	0.162	-0.082
-263.238	800.000	-0.080	0.222
-262.224	31.092	0.181	0.155
-261.209	327.638	0.076	0.145
-260.195	169.495	-0.033	-0.047
-259.180	-200.000	0.020	0.223
-258.165	59.621	0.297	0.293
-257.151	-200.000	0.036	0.314
-256.136	-200.000	0.008	0.146
-255.122	-150.406	-0.235	-0.018
-254.107	-22.595	0.135	-0.082
-253.092	399.512	0.078	-0.163
-252.078	29.469	-0.093	-0.079
-251.063	-3.068	0.229	0.160
-250.049	261.629	0.271	-0.469
-249.034	-22.496	-0.481	0.291
-248.019	-109.517	0.409	0.086
-247.005	77.799	0.045	0.048
-245.990	708.157	-0.058	0.153
-244.976	-153.754	-0.068	-0.005
-243.961	-200.000	-0.029	-0.205
-242.946	-114.100	0.200	-0.039
-241.932	-115.587	0.055	0.010
-240.917	-200.000	-0.028	-0.183
-239.903	-73.594	-0.398	-0.145
-238.888	1.405	-0.047	0.034
-237.873	-39.388	-0.030	0.016
-236.859	-200.000	-0.000	-0.135
-235.844	-166.663	0.117	0.005
-234.830	611.572	0.123	0.308
-233.815	-70.057	0.253	0.096
-232.800	129.725	-0.096	-0.122
-231.786	800.000	0.107	0.301
-230.771	256.830	-0.158	-0.271
-229.757	1.815	-0.241	0.173
-228.742	746.563	-0.151	0.405
-227.727	237.943	0.074	-0.122
-226.713	-36.460	-0.369	0.198
-225.698	307.739	0.146	0.271
-224.684	112.882	0.230	0.279
-223.669	800.000	-0.073	0.232
-222.655	256.780	0.069	0.118
-221.640	-138.643	0.105	0.012
-220.625	-200.000	-0.012	-0.153
-219.611	800.000	0.060	0.197
-218.596	-125.092	-0.273	-0.042
-217.582	-72.460	-0.420	-0.155
-216.567	30.031	0.015	-0.013
-215.552	-150.905	0.082	-0.006
-214.538	-200.000	0.017	0.223
-213.523	-59.059	-0.071	-0.030
-212.509	63.385	-0.254	-0.254
-211.494	-37.143	-0.074	0.040
-210.479	800.000	-0.135	-0.404
-209.465	-200.000	-0.012	-0.103
-208.450	800.000	0.079	0.240
-207.436	-53.806	0.162	-0.074
-206.421	800.000	0.044	0.138
-205.406	-179.236	-0.191	-0.004
-204.392	48.898	-0.131	0.123
-203.377	53.914	0.149	-0.143
-202.363	-63.258	0.274	0.113
-201.348	-117.106	0.170	-0.031
-200.333	800.000	0.008	0.028
-199.319	-60.786	0.314	0.133
-198.304	457.974	-0.130	-0.289
-197.290	800.000	-0.004	0.017
-196.275	109.426	0.171	0.204
-195.260	-200.000	-0.040	0.359
-194.246	139.033	-0.198	-0.260
-193.231	-200.000	-0.022	-0.109
-192.217	77.557	0.255	0.271
-191.202	-200.000	0.013	0.409
-190.187	800.000	-0.042	0.177
-189.173	184.688	-0.223	-0.330
-188.158	661.032	-0.163	0.419
-187.144	-131.986	-0.047	-0.006
-186.129	33.719	0.189	-0.164
-185.114	-101.397	-0.214	-0.052
-184.100	-200.000	-0.008	0.451
-183.085	625.240	-0.007	-0.017
-182.071	800.000	-0.028	0.096
-181.056	124.877	0.311	-0.390
-180.042	-29.541	0.296	0.168
-179.027	-61.602	-0.171	-0.071
-178.012	67.877	-0.130	0.132
-176.998	78.437	-0.116	0.124
-175.983	54.135	-0.299	-0.287
-174.969	113.263	-0.161	0.195
-173.954	-171.384	0.119	-0.004
-172.939	-120.388	0.191	0.032
-171.925	-53.630	0.233	0.106
-170.910	132.203	-0.109	0.140
-169.896	20.611	-0.013	-0.010
-168.881	202.663	0.127	-0.195
-167.866	-80.092	-0.191	-0.064
-166.852	800.000	0.055	0.224
-165.837	-200.000	-0.011	0.328
-164.823	-21.155	-0.201	0.122
-163.808	-92.772	-0.224	0.062
-162.793	636.611	0.058	-0.147
-161.779	295.159	0.126	-0.229
-160.764	107.788	-0.110	-0.130
-159.750	-90.589	0.101	0.029
-158.735	-101.322	0.226	0.055
-157.720	18.210	-0.095	0.075
-156.706	800.000	-0.043	0.131
-155.691	-34.490	-0.039	0.021
-154.677	-18.024	-0.108	-0.067
-153.662	261.361	0.142	0.245
-152.647	-23.202	-0.163	-0.098
-151.633	-57.023	-0.095	0.042
-150.618	86.694	0.161	-0.176
-149.604	-200.000	-0.029	0.196
-148.589	-200.000	-0.011	-0.198
-147.574	370.802	0.024	0.048
-146.560	347.760	-0.046	-0.089
-145.545	-81.256	-0.191	-0.063
-144.531	644.860	-0.056	-0.143
-143.516	800.000	-0.117	-0.345
-142.502	-36.701	0.176	0.094
-141.487	-200.000	-0.044	0.199
-140.472	-41.988	0.146	-0.074
-139.458	-200.000	-0.021	-0.290
-138.443	520.682	0.200	-0.467
-137.429	457.235	0.119	-0.262
-136.414	800.000	-0.111	-0.382
-135.399	800.000	-0.073	0.281
-134.385	-68.917	-0.180	0.069
-133.370	-133.945	-0.398	0.049
-132.356	744.096	-0.096	-0.257
-131.341	-200.000	0.054	-0.294
-130.326	800.000	0.150	-0.548
-129.312	-99.942	0.217	0.054
-128.297	149.913	-0.092	0.124
-127.283	148.440	-0.140	0.188
-126.268	27.165	-0.246	0.205
-125.253	-99.112	-0.216	0.054
-124.239	-200.000	-0.031	0.212
-123.224	-200.000	-0.048	0.301
