DTS Sentinel unit serial number:	SN413079Multiplexer serial number:	ORYXHardware model number:	OX4-SRSoftware version number:	ORYX F/W v4.00 Oryx Data Collector v3.7.2.0data status	okinstallation	princeton_trtdifferential loss correction	single-endedforward channel	channel 4reverse channel	N/Adate	2019/09/17time	13:13:35forward acquisition time	60.00reverse acquisition time	0.00gamma	496.2192k internal	0.2301k external	0.2301temperature offset calibration	0.9986default loss term (dB/km)	0.3790temperature slope calibration	1.0000multiplexer offset coefficient	1.0000multiplexer slope coefficient	1.0000fibre end	0.00T internal ref (°C)	33.94T ext. ref 1 (°C)	0.41T ext. ref 2 (°C)	31.64length (m)	temperature (°C)	Stokes	anti-Stokes-747.200	-56.592	0.182	-0.082
-746.185	71.521	-0.250	-0.265
-745.171	-166.213	0.174	0.008
-744.156	-110.973	-0.068	-0.014
-743.142	-76.528	0.223	-0.080
-742.127	-152.046	-0.352	-0.026
-741.112	-200.000	-0.006	0.299
-740.098	116.983	-0.020	0.025
-739.083	-56.942	0.170	0.077
-738.069	191.874	0.117	0.180
-737.054	-6.788	0.318	0.221
-736.039	-81.414	-0.260	-0.087
-735.025	-43.586	0.144	-0.074
-734.010	-200.000	-0.034	-0.412
-732.996	35.385	0.176	-0.157
-731.981	0.318	-0.151	-0.110
-730.966	800.000	0.052	-0.176
-729.952	-200.000	-0.024	0.148
-728.937	-87.833	0.424	-0.130
-727.923	-200.000	0.009	-0.122
-726.908	800.000	0.116	-0.503
-725.894	-48.248	-0.174	0.086
-724.879	4.598	-0.325	-0.243
-723.864	20.578	0.165	-0.136
-722.850	-97.599	-0.277	0.073
-721.835	-78.899	0.171	0.059
-720.821	396.905	-0.150	-0.320
-719.806	-200.000	0.021	-0.133
-718.791	-42.804	0.093	0.048
-717.777	-28.029	0.301	0.177
-716.762	320.714	0.070	0.135
-715.748	-45.742	-0.196	0.098
-714.733	-200.000	-0.017	-0.127
-713.718	109.731	0.048	-0.058
-712.704	800.000	-0.097	-0.402
-711.689	375.439	0.047	-0.097
-710.675	-200.000	-0.038	-0.306
-709.660	-200.000	-0.030	-0.167
-708.645	-4.965	-0.158	-0.111
-707.631	-200.000	0.002	-0.032
-706.616	800.000	0.030	-0.116
-705.602	-134.795	-0.355	-0.044
-704.587	139.412	-0.102	0.137
-703.572	53.687	-0.041	-0.040
-702.558	-78.377	-0.248	-0.086
-701.543	-40.309	-0.252	0.133
-700.529	-102.500	0.220	-0.054
-699.514	129.270	0.005	-0.007
-698.499	369.536	-0.059	-0.122
-697.485	-29.369	-0.224	-0.130
-696.470	-61.815	-0.241	-0.103
-695.456	67.079	-0.090	0.094
-694.441	-128.591	0.040	0.006
-693.426	-200.000	-0.028	-0.256
-692.412	-127.775	0.209	0.031
-691.397	292.679	0.060	0.112
-690.383	-38.102	-0.372	-0.201
-689.368	-43.895	-0.226	0.116
-688.354	-92.598	0.120	-0.034
-687.339	-44.534	0.192	-0.098
-686.324	-84.683	0.062	0.020
-685.310	416.305	-0.078	-0.170
-684.295	146.714	-0.203	-0.277
-683.281	-200.000	-0.020	-0.219
-682.266	-200.000	0.014	0.111
-681.251	-33.222	-0.156	0.088
-680.237	156.217	0.246	0.345
-679.222	-151.358	-0.134	0.010
-678.208	17.966	-0.201	-0.163
-677.193	-63.439	-0.287	-0.120
-676.178	229.223	-0.106	0.177
-675.164	144.029	0.179	-0.243
-674.149	229.172	-0.156	0.259
-673.135	82.200	-0.344	0.380
-672.120	307.564	0.140	-0.266
-671.105	42.978	0.034	0.032
-670.091	-166.117	-0.317	-0.014
-669.076	-120.720	0.085	0.015
-668.062	-106.332	-0.039	0.009
-667.047	-129.829	0.205	-0.029
-666.032	146.929	0.044	-0.060
-665.018	-48.495	0.140	0.068
-664.003	-60.073	-0.317	-0.138
-662.989	-200.000	0.009	-0.120
-661.974	800.000	-0.057	-0.170
-660.959	56.565	-0.110	0.108
-659.945	-172.845	-0.518	0.016
-658.930	-200.000	-0.019	0.103
-657.916	-200.000	-0.071	0.000
-656.901	-200.000	0.026	0.206
-655.886	-104.591	0.393	-0.092
-654.872	-2.378	-0.117	0.083
-653.857	-200.000	-0.073	-0.389
-652.843	-107.899	0.085	0.019
-651.828	265.131	0.066	-0.118
-650.814	-200.000	-0.003	-0.150
-649.799	274.406	-0.046	-0.083
-648.784	629.659	-0.160	0.410
-647.770	-83.358	-0.177	-0.058
-646.755	-56.621	0.165	-0.074
-645.741	-200.000	-0.024	-0.422
-644.726	-29.329	-0.160	-0.093
-643.711	-19.203	-0.212	0.133
-642.697	-137.499	-0.094	0.011
-641.682	-168.634	-0.302	0.012
-640.668	-115.190	-0.241	-0.046
-639.653	144.280	-0.157	-0.212
-638.638	175.696	-0.138	-0.203
-637.624	280.859	0.135	-0.245
-636.609	-33.015	0.094	-0.053
-635.595	-200.000	0.004	0.190
-634.580	-91.652	0.335	-0.097
-633.565	371.863	0.018	0.038
-632.551	142.952	-0.188	0.254
-631.536	497.527	0.092	-0.215
-630.522	-84.198	-0.126	-0.041
-629.507	-200.000	-0.003	0.160
-628.492	-108.413	-0.091	0.020
-627.478	380.653	0.032	0.066
-626.463	92.969	-0.139	0.159
-625.449	-3.017	-0.193	0.137
-624.434	800.000	-0.025	-0.086
-623.419	68.684	-0.080	-0.083
-622.405	-8.782	0.064	-0.044
-621.390	-23.949	0.171	0.104
-620.376	-200.000	-0.031	-0.185
-619.361	185.980	0.170	0.256
-618.346	-85.345	0.280	0.089
-617.332	0.946	-0.231	-0.168
-616.317	368.597	0.051	-0.106
-615.303	119.094	0.194	0.243
-614.288	17.777	-0.049	0.039
-613.273	-90.486	0.140	-0.041
-612.259	98.288	0.124	0.145
-611.244	-37.887	0.129	0.069
-610.230	-50.121	-0.222	-0.107
-609.215	-133.279	-0.118	0.015
-608.201	116.599	0.091	0.113
-607.186	538.143	0.057	0.138
-606.171	5.537	-0.125	-0.093
-605.157	-76.981	-0.098	-0.035
-604.142	-104.258	0.287	-0.068
-603.128	-200.000	0.003	-0.092
-602.113	-77.517	0.160	0.056
-601.098	-89.350	0.259	-0.077
-600.084	-113.695	-0.150	-0.030
-599.069	-32.061	-0.116	0.066
-598.055	-98.424	0.510	0.132
-597.040	-129.989	-0.240	-0.033
-596.025	1.079	-0.189	-0.137
-595.011	-104.315	-0.460	-0.108
-593.996	-153.551	0.193	0.014
-592.982	800.000	0.144	0.493
-591.967	-200.000	-0.021	0.252
-590.952	-200.000	0.052	0.434
-589.938	-36.536	-0.348	-0.190
-588.923	118.318	-0.088	-0.110
-587.909	-200.000	0.046	0.275
-586.894	-72.659	-0.371	0.139
-585.879	747.342	0.032	0.088
-584.865	-73.683	-0.142	-0.052
-583.850	-200.000	0.016	0.113
-582.836	800.000	0.084	0.342
-581.821	142.094	0.183	0.246
-580.806	-122.692	0.196	-0.032
-579.792	699.441	0.017	-0.045
-578.777	-108.230	-0.207	-0.045
-577.763	-177.716	-0.348	0.009
-576.748	-33.651	0.124	-0.069
-575.733	239.361	-0.075	-0.126
-574.719	1.720	-0.292	0.213
-573.704	171.725	-0.063	-0.091
-572.690	341.680	0.079	-0.157
-571.675	-200.000	0.015	-0.068
-570.661	551.927	0.025	0.061
-569.646	-98.957	0.230	-0.059
-568.631	-35.008	0.587	-0.324
-567.617	69.314	-0.165	-0.172
-566.602	-34.730	0.228	-0.126
-565.588	-158.773	-0.226	-0.013
-564.573	-200.000	-0.004	-0.217
-563.558	-72.792	0.241	-0.090
-562.544	43.793	0.115	0.106
-561.529	-142.151	-0.170	0.017
-560.515	533.548	0.094	0.226
-559.500	-104.043	0.343	-0.081
-558.485	-66.885	0.503	-0.201
-557.471	-133.456	-0.357	0.045
-556.456	351.705	0.081	0.163
-555.442	-143.338	0.135	0.013
-554.427	81.008	0.114	-0.125
-553.412	73.266	-0.294	0.312
-552.398	325.692	0.158	-0.305
-551.383	331.906	-0.132	0.258
-550.369	61.031	-0.118	0.118
-549.354	47.981	0.087	-0.082
-548.339	269.469	-0.115	-0.205
-547.325	-62.075	0.161	0.068
-546.310	47.101	0.143	0.135
-545.296	-8.289	0.166	0.113
-544.281	198.420	-0.068	-0.105
-543.266	-141.041	-0.190	-0.020
-542.252	-116.871	-0.068	-0.013
-541.237	-175.348	0.200	0.006
-540.223	172.640	-0.180	-0.262
-539.208	-50.981	0.143	0.068
-538.193	-197.476	-0.085	0.001
-537.179	15.579	0.071	0.056
-536.164	-200.000	-0.035	0.302
-535.150	-21.394	0.313	-0.193
-534.135	170.867	-0.103	-0.149
-533.121	-34.135	-0.125	-0.070
-532.106	101.739	0.090	-0.106
-531.091	-200.000	-0.046	-0.252
-530.077	-70.661	-0.231	0.088
-529.062	215.287	0.116	-0.186
-528.048	-141.353	-0.264	0.027
-527.033	416.715	-0.071	0.154
-526.018	105.702	0.081	-0.097
-525.004	9.870	0.052	-0.040
-523.989	-173.137	-0.088	-0.003
-522.975	-34.364	0.085	-0.047
-521.960	-21.582	-0.328	-0.202
-520.945	-200.000	0.011	0.113
-519.931	-49.283	0.222	0.107
-518.916	-13.875	0.107	-0.070
-517.902	800.000	-0.043	0.166
-516.887	-37.542	0.019	-0.010
-515.872	39.417	0.258	-0.233
-514.858	-200.000	-0.024	-0.214
-513.843	-100.580	-0.072	0.018
-512.829	-200.000	0.047	0.312
-511.814	372.371	0.026	-0.054
-510.799	52.891	0.118	0.114
-509.785	-200.000	-0.036	-0.189
-508.770	611.380	0.075	0.190
-507.756	-2.757	0.477	-0.337
-506.741	-200.000	-0.010	-0.541
-505.726	-200.000	-0.014	-0.352
-504.712	-200.000	-0.023	-0.259
-503.697	-112.926	-0.223	-0.045
-502.683	-32.530	0.174	-0.098
-501.668	219.099	-0.115	0.186
-500.653	256.999	-0.092	-0.160
-499.639	-200.000	0.035	0.364
-498.624	-154.679	0.131	0.009
-497.610	565.239	0.055	-0.135
-496.595	-21.288	0.139	-0.086
-495.581	-81.578	0.062	-0.021
-494.566	-5.388	0.079	-0.055
-493.551	25.829	-0.213	0.179
-492.537	123.170	-0.082	-0.104
-491.522	-114.482	-0.195	-0.038
-490.508	549.443	0.205	-0.497
-489.493	334.528	0.032	-0.062
-488.478	-200.000	0.058	-0.421
-487.464	-199.448	0.349	-0.002
-486.449	-90.623	-0.279	-0.081
-485.435	98.149	0.106	-0.124
-484.420	-122.301	-0.133	-0.022
-483.405	-107.354	-0.270	0.060
-482.391	373.413	0.092	0.190
-481.376	211.736	0.086	0.137
-480.362	-43.978	-0.063	0.032
-479.347	128.497	0.088	0.113
-478.332	-200.000	0.012	-0.137
-477.318	133.223	-0.327	0.427
-476.303	-0.853	0.108	-0.077
-475.289	108.789	-0.100	-0.120
-474.274	-94.637	-0.207	0.057
-473.259	57.112	-0.273	0.268
-472.245	-200.000	-0.015	0.083
-471.230	-200.000	0.031	0.159
-470.216	-142.175	-0.235	-0.023
-469.201	-93.944	0.129	-0.036
-468.186	-200.000	0.047	-0.364
-467.172	537.913	0.011	0.026
-466.157	360.438	-0.068	0.137
-465.143	800.000	-0.032	0.134
-464.128	677.293	0.126	0.329
-463.113	-114.008	0.192	-0.038
-462.099	-115.642	0.359	-0.068
-461.084	-27.436	-0.200	0.117
-460.070	800.000	0.127	-0.422
-459.055	-200.000	-0.013	-0.188
-458.040	-200.000	0.000	-0.135
-457.026	-5.436	0.253	-0.175
-456.011	-34.175	-0.307	0.170
-454.997	10.740	0.141	-0.109
-453.982	800.000	-0.024	-0.090
-452.968	287.926	0.270	-0.492
-451.953	-105.600	0.211	0.048
-450.938	306.856	-0.092	0.174
-449.924	-132.030	-0.206	-0.027
-448.909	4.175	0.150	0.110
-447.895	-128.218	0.142	0.020
-446.880	37.474	0.188	0.168
-445.865	-36.107	0.063	-0.034
-444.851	800.000	-0.059	0.257
-443.836	-30.325	-0.153	-0.088
-442.822	-75.368	-0.198	0.071
-441.807	-200.000	0.006	-0.163
-440.792	-46.413	0.366	-0.181
-439.778	279.059	0.097	0.175
-438.763	-49.464	-0.133	-0.064
-437.749	129.769	-0.137	-0.177
-436.734	800.000	0.036	-0.151
-435.719	-66.938	-0.044	0.018
-434.705	-193.638	-0.493	0.004
-433.690	181.876	-0.077	-0.114
-432.676	-87.855	-0.183	0.055
-431.661	-57.331	-0.151	-0.067
-430.646	188.859	-0.159	-0.239
-429.632	-200.000	0.005	0.239
-428.617	-200.000	-0.119	0.672
-427.603	204.485	-0.068	-0.107
-426.588	101.119	0.164	0.192
-425.573	-200.000	-0.080	0.438
-424.559	800.000	0.021	0.073
-423.544	-200.000	0.007	-0.152
-422.530	132.861	-0.088	-0.115
-421.515	-105.967	-0.217	-0.049
-420.500	-200.000	-0.001	0.275
-419.486	-69.724	-0.098	0.038
-418.471	201.009	-0.128	-0.198
-417.457	82.590	0.142	0.155
-416.442	220.445	-0.117	-0.188
-415.428	-49.622	0.263	-0.126
-414.413	-45.542	0.164	-0.082
-413.398	800.000	-0.030	0.121
-412.384	-73.132	-0.158	-0.058
-411.369	266.679	-0.073	0.128
-410.355	-200.000	0.001	0.194
-409.340	232.434	0.162	-0.267
-408.325	-155.651	-0.159	-0.010
-407.311	-139.051	-0.111	0.012
-406.296	-38.115	0.232	0.124
-405.282	-99.040	0.175	-0.045
-404.267	171.425	0.090	0.130
-403.252	-200.000	0.065	0.338
-402.238	-200.000	-0.008	-0.094
-401.223	-172.070	-0.335	-0.011
-400.209	-200.000	-0.034	0.206
-399.194	138.825	0.105	0.139
-398.179	32.123	-0.108	0.094
-397.165	-61.377	0.105	-0.044
-396.150	-7.920	-0.033	-0.023
-395.136	-31.317	-0.218	-0.124
-394.121	-29.227	-0.240	-0.138
-393.106	11.783	0.264	0.204
-392.092	-200.000	0.019	-0.101
-391.077	-200.000	0.014	0.204
-390.063	-99.455	-0.112	-0.028
-389.048	-200.000	-0.024	-0.139
-388.033	536.289	0.127	-0.304
-387.019	800.000	0.137	0.409
-386.004	27.109	0.150	-0.126
-384.990	183.819	-0.108	-0.160
-383.975	513.422	0.030	0.071
-382.960	-43.503	-0.176	-0.090
-381.946	569.936	-0.023	0.056
-380.931	38.306	-0.351	0.314
-379.917	156.515	0.135	0.188
-378.902	-200.000	-0.042	-0.322
-377.888	-19.508	0.386	0.240
-376.873	-84.953	-0.492	-0.155
-375.858	15.025	-0.442	0.348
-374.844	-200.000	0.012	-0.066
-373.829	272.540	-0.229	-0.406
-372.815	210.755	-0.166	0.262
-371.800	-29.053	0.092	-0.053
-370.785	-200.000	0.007	0.154
-369.771	86.624	-0.036	0.040
-368.756	218.122	0.079	0.127
-367.742	-200.000	-0.009	0.236
-366.727	283.705	-0.181	0.327
-365.712	-200.000	0.003	-0.138
-364.698	73.375	0.128	0.134
-363.683	-51.269	-0.159	0.075
-362.669	-200.000	-0.015	0.092
-361.654	5.928	0.145	-0.108
-360.639	155.562	0.018	0.025
-359.625	-125.982	0.310	-0.047
-358.610	-200.000	0.038	0.231
-357.596	-200.000	0.080	-0.377
-356.581	800.000	-0.167	-0.507
-355.566	-178.240	-0.161	0.004
-354.552	-52.197	0.091	0.043
-353.537	-50.216	-0.126	-0.060
-352.523	-150.907	-0.110	0.008
-351.508	132.180	-0.191	-0.247
-350.493	179.201	-0.216	-0.317
-349.479	-133.309	0.249	-0.031
-348.464	-150.426	0.199	0.015
-347.450	140.736	0.064	-0.085
-346.435	-33.634	0.231	0.128
-345.420	-200.000	-0.011	-0.056
-344.406	124.839	-0.071	-0.089
-343.391	-15.297	-0.097	0.062
-342.377	-122.276	0.565	0.093
-341.362	-200.000	0.002	0.101
-340.348	-179.335	-0.357	0.008
-339.333	6.336	0.109	0.081
-338.318	63.046	0.094	-0.094
-337.304	189.329	-0.023	0.034
-336.289	-200.000	-0.091	0.419
-335.275	-200.000	0.022	0.128
-334.260	9.509	0.102	-0.078
-333.245	29.115	0.228	0.194
-332.231	-10.041	-0.410	0.273
-331.216	-164.079	0.247	-0.011
-330.202	-34.133	0.114	-0.063
-329.187	-20.270	0.101	0.063
-328.172	-200.000	0.020	0.313
-327.158	-86.744	0.300	-0.092
-326.143	81.482	-0.094	0.102
-325.129	384.738	0.109	0.225
-324.114	-200.000	-0.017	-0.109
-323.099	-200.000	0.021	0.145
-322.085	-116.834	-0.479	-0.088
-321.070	-87.733	-0.199	0.060
-320.056	-112.420	0.361	0.072
-319.041	-95.070	-0.104	0.028
-318.026	800.000	-0.049	0.148
-317.012	336.142	0.029	-0.057
-315.997	167.095	-0.120	-0.171
-314.983	-28.925	0.276	-0.159
-313.968	-200.000	0.075	-0.334
-312.953	800.000	0.061	-0.189
-311.939	-200.000	-0.168	0.001
-310.924	62.854	0.156	-0.157
-309.910	-200.000	0.012	-0.138
-308.895	-7.592	0.162	-0.110
-307.880	-103.817	0.182	0.043
-306.866	108.079	0.177	-0.211
-305.851	6.125	0.079	0.059
-304.837	519.876	0.047	-0.111
-303.822	-200.000	-0.006	-0.087
-302.807	568.415	-0.104	0.253
-301.793	800.000	0.101	0.289
-300.778	218.209	-0.220	0.351
-299.764	-94.827	0.249	-0.068
-298.749	-200.000	-0.054	-0.369
-297.735	-81.426	-0.137	-0.045
-296.720	-200.000	-0.003	-0.023
-295.705	553.678	0.073	-0.175
-294.691	-200.000	0.027	-0.200
-293.676	-61.847	0.214	-0.090
-292.662	61.306	0.253	0.252
-291.647	198.562	-0.044	-0.068
-290.632	531.698	0.071	-0.169
-289.618	-39.560	-0.293	0.154
-288.603	-200.000	-0.001	0.070
-287.589	16.561	0.051	-0.040
-286.574	-99.094	-0.362	-0.092
-285.559	157.228	0.103	0.142
-284.545	-200.000	0.041	0.222
-283.530	173.896	0.121	0.175
-282.516	-200.000	0.023	0.176
-281.501	195.297	0.122	0.186
-280.486	-200.000	0.011	-0.213
-279.472	-62.229	-0.167	-0.070
-278.457	-93.167	0.332	0.092
-277.443	-35.525	0.059	0.032
-276.428	-133.628	-0.080	0.010
-275.413	-200.000	0.021	-0.249
-274.399	24.750	-0.097	-0.080
-273.384	-31.047	-0.149	0.084
-272.370	1.557	0.132	-0.095
-271.355	33.106	0.218	0.190
-270.340	488.115	-0.115	0.263
-269.326	-180.545	-0.377	-0.008
-268.311	70.077	0.083	0.086
-267.297	-7.420	0.112	-0.076
-266.282	-168.577	0.123	0.005
-265.267	208.904	0.066	0.103
-264.253	-200.000	-0.043	0.195
-263.238	-61.367	-0.048	0.020
-262.224	-173.745	-0.381	0.011
-261.209	349.335	-0.153	0.302
-260.195	-88.166	-0.207	0.062
-259.180	-33.380	0.180	0.100
-258.165	239.297	-0.105	0.175
-257.151	-56.623	0.150	0.067
-256.136	-126.006	-0.149	0.022
-255.122	554.917	-0.005	0.013
-254.107	-14.916	-0.217	-0.139
-253.092	99.736	0.053	-0.061
-252.078	420.975	0.128	0.274
-251.063	-200.000	0.074	-0.474
-250.049	-21.165	-0.153	-0.093
-249.034	800.000	-0.061	0.173
-248.019	115.339	0.049	-0.060
-247.005	10.744	0.227	0.173
-245.990	779.969	0.055	-0.150
-244.976	-82.343	-0.264	-0.086
-243.961	-200.000	-0.029	-0.301
-242.946	105.442	-0.105	0.124
-241.932	-161.792	-0.319	-0.016
-240.917	800.000	0.032	0.099
-239.903	-24.833	-0.160	-0.095
-238.888	702.810	0.078	-0.206
-237.873	-133.594	0.184	-0.023
-236.859	126.941	0.188	0.238
-235.844	49.388	-0.021	0.020
-234.830	-200.000	0.025	-0.157
-233.815	800.000	-0.134	-0.372
-232.800	-127.631	0.392	-0.057
-231.786	79.414	0.292	0.313
-230.771	36.980	0.102	-0.090
-229.757	105.771	-0.166	0.196
-228.742	-158.645	-0.154	-0.009
-227.727	138.743	0.076	-0.100
-226.713	800.000	0.041	-0.177
-225.698	-59.767	-0.208	-0.089
-224.684	-134.476	-0.289	0.035
-223.669	-155.809	0.243	0.016
-222.655	45.720	0.184	-0.169
-221.640	71.009	-0.149	-0.154
-220.625	-159.753	0.187	0.010
-219.611	-16.810	0.143	0.090
-218.596	-12.343	-0.051	-0.033
-217.582	-28.560	0.195	0.112
-216.567	-15.400	-0.257	0.164
-215.552	-97.063	-0.232	0.061
-214.538	-200.000	0.055	-0.536
-213.523	24.986	0.171	-0.141
-212.509	800.000	-0.024	0.074
-211.494	27.449	0.075	0.063
-210.479	333.688	-0.104	-0.201
-209.465	-74.186	-0.418	0.151
-208.450	800.000	0.017	-0.061
-207.436	-36.476	-0.067	0.036
-206.421	93.050	0.141	0.159
-205.406	-200.000	0.002	0.212
-204.392	14.971	0.128	-0.100
-203.377	112.735	0.205	0.247
-202.363	800.000	-0.086	-0.274
-201.348	-192.312	-0.041	0.000
-200.333	300.112	-0.094	-0.173
-199.319	-200.000	-0.029	0.258
-198.304	68.924	-0.110	0.112
-197.290	-108.636	0.310	0.066
-196.275	241.431	-0.126	-0.210
-195.260	-152.986	0.195	0.014
-194.246	33.055	0.184	0.159
-193.231	-200.000	-0.015	-0.337
-192.217	22.325	0.454	-0.370
-191.202	-92.100	-0.210	0.059
-190.187	800.000	0.109	0.390
-189.173	785.448	-0.076	0.208
-188.158	-200.000	-0.012	0.239
-187.144	582.391	-0.091	0.222
-186.129	272.998	-0.163	0.287
-185.114	-99.284	0.249	0.063
-184.100	-72.297	-0.245	-0.091
-183.085	-200.000	0.015	-0.188
-182.071	-116.722	-0.498	0.091
-181.056	-90.309	0.322	0.093
-180.042	-29.982	0.253	0.144
-179.027	52.277	0.111	0.105
-178.012	211.111	0.052	-0.082
-176.998	13.458	0.326	-0.252
-175.983	-67.780	-0.018	0.007
-174.969	-132.682	0.121	0.016
-173.954	-77.255	0.257	0.089
-172.939	322.380	-0.173	-0.328
-171.925	-80.895	0.262	0.086
-170.910	-161.970	-0.399	0.020
-169.896	97.332	0.202	0.231
-168.881	-200.000	-0.009	-0.257
-167.866	-87.540	-0.306	-0.092
-166.852	32.009	0.093	0.080
-165.837	-94.020	-0.229	0.063
-164.823	115.305	-0.084	-0.102
-163.808	-116.384	0.124	-0.023
-162.793	-37.512	-0.320	0.170
-161.779	46.885	-0.114	0.105
-160.764	60.956	-0.157	-0.155
-159.750	-47.826	0.174	0.084
-158.735	-146.913	0.212	-0.018
-157.720	-100.606	-0.171	0.042
-156.706	-73.442	0.391	-0.142
-155.691	-200.000	0.042	-0.396
-154.677	-200.000	-0.048	-0.224
-153.662	-79.485	0.162	0.054
-152.647	-200.000	0.009	-0.216
-151.633	-33.226	-0.369	0.204
-150.618	431.150	0.024	0.052
-149.604	163.173	0.160	-0.224
-148.589	-25.779	0.128	-0.075
-147.574	-200.000	-0.053	-0.280
-146.560	-127.729	-0.189	0.027
-145.545	629.353	0.082	0.207
-144.531	-200.000	-0.021	-0.207
-143.516	-84.206	-0.254	0.080
-142.502	30.546	0.107	-0.091
-141.487	401.381	-0.089	-0.187
-140.472	367.209	-0.005	-0.011
-139.458	-102.209	-0.223	-0.053
-138.443	147.962	-0.193	0.259
-137.429	-200.000	-0.038	-0.187
-136.414	-200.000	-0.055	0.340
-135.399	-146.080	0.345	0.030
-134.385	245.183	0.195	0.327
-133.370	-34.061	0.196	0.107
-132.356	-160.104	-0.363	0.020
-131.341	-164.059	-0.339	-0.016
-130.326	-200.000	0.014	0.159
-129.312	-200.000	-0.016	-0.147
-128.297	643.923	0.163	0.415
-127.283	22.206	0.373	0.303
-126.268	28.830	0.125	0.106
-125.253	-29.240	-0.153	-0.087
-124.239	-147.061	0.048	0.004
-123.224	-174.291	0.147	-0.004
-122.210	427.593	-0.040	-0.087
