DTS Sentinel unit serial number:	SN413079Multiplexer serial number:	ORYXHardware model number:	OX4-SRSoftware version number:	ORYX F/W v4.00 Oryx Data Collector v3.7.2.0data status	okinstallation	princeton_trtdifferential loss correction	single-endedforward channel	channel 4reverse channel	N/Adate	2019/09/12time	18:41:18forward acquisition time	15.00reverse acquisition time	0.00gamma	496.2192k internal	0.2307k external	0.2307temperature offset calibration	1.0137default loss term (dB/km)	0.3790temperature slope calibration	1.0000multiplexer offset coefficient	1.0000multiplexer slope coefficient	1.0000fibre end	0.00T internal ref (°C)	33.06T ext. ref 1 (°C)	2.97T ext. ref 2 (°C)	27.63length (m)	temperature (°C)	Stokes	anti-Stokes-747.200	208.058	0.126	0.199
-746.185	-200.000	0.128	0.751
-745.171	-122.745	-0.520	-0.085
-744.156	-200.000	-0.001	-0.224
-743.142	-30.097	-0.460	0.266
-742.127	800.000	-0.133	0.386
-741.112	260.545	-0.211	-0.371
-740.098	-200.000	-0.037	0.396
-739.083	-114.378	0.384	0.075
-738.069	-31.139	-0.381	0.218
-737.054	742.433	0.229	0.626
-736.039	69.575	-0.513	0.537
-735.025	-153.033	0.513	-0.037
-734.010	324.432	0.333	-0.646
-732.996	24.610	-0.632	0.531
-731.981	-200.000	-0.056	0.302
-730.966	428.760	-0.127	0.279
-729.952	293.500	-0.389	0.721
-728.937	135.031	-0.355	0.468
-727.923	-6.031	0.433	-0.301
-726.908	295.307	0.184	0.343
-725.894	-5.876	0.499	0.347
-724.879	30.561	-0.500	-0.434
-723.864	-51.699	-0.971	-0.460
-722.850	-159.041	0.292	-0.017
-721.835	42.973	-0.048	-0.045
-720.821	235.374	0.334	-0.561
-719.806	148.321	0.357	-0.490
-718.791	-119.206	0.437	0.078
-717.777	-200.000	0.028	0.569
-716.762	-0.202	0.654	0.473
-715.748	151.037	-0.447	0.617
-714.733	39.774	0.438	0.399
-713.718	-200.000	-0.083	0.376
-712.704	39.854	-0.554	-0.505
-711.689	-200.000	0.090	0.576
-710.675	-200.000	0.070	-0.443
-709.660	110.705	0.239	0.292
-708.645	45.982	0.273	0.256
-707.631	117.169	-0.213	0.265
-706.616	-65.210	-0.628	0.257
-705.602	-186.256	-0.759	0.011
-704.587	-13.149	0.196	-0.130
-703.572	-200.000	0.017	-0.412
-702.558	-146.142	0.743	-0.066
-701.543	-134.866	-0.854	0.105
-700.529	-200.000	-0.006	0.162
-699.514	-23.614	-0.889	0.542
-698.499	93.823	0.382	0.439
-697.485	-3.894	-0.295	0.207
-696.470	108.279	-0.379	-0.459
-695.456	413.062	-0.431	-0.929
-694.441	194.220	-0.305	0.469
-693.426	204.498	0.385	0.605
-692.412	-22.858	-0.187	-0.115
-691.397	254.230	0.366	0.636
-690.383	-143.710	-0.644	0.062
-689.368	-200.000	-0.114	1.201
-688.354	800.000	-0.090	-0.325
-687.339	800.000	0.172	-0.679
-686.324	-200.000	0.073	-0.588
-685.310	-200.000	0.008	0.047
-684.295	-95.189	0.763	0.209
-683.281	-200.000	-0.042	0.662
-682.266	2.078	-0.156	-0.114
-681.251	-1.503	-0.262	0.188
-680.237	-113.435	0.943	0.188
-679.222	-30.683	-0.402	-0.231
-678.208	47.350	0.132	-0.125
-677.193	-200.000	-0.018	0.283
-676.178	-121.607	0.525	-0.088
-675.164	-109.419	0.324	-0.070
-674.149	800.000	0.063	-0.191
-673.135	-200.000	-0.041	0.184
-672.120	-87.725	0.428	0.131
-671.105	-200.000	0.017	0.443
-670.091	107.162	0.081	-0.097
-669.076	69.530	0.585	0.610
-668.062	-34.496	-0.901	0.501
-667.047	-200.000	-0.122	0.643
-666.032	-200.000	0.067	0.642
-665.018	40.593	-0.231	-0.211
-664.003	502.264	0.282	0.660
-662.989	38.347	0.362	-0.327
-661.974	-26.682	-0.477	-0.283
-660.959	-200.000	0.022	0.115
-659.945	355.393	-0.170	0.343
-658.930	-71.475	0.335	0.127
-657.916	389.436	0.149	-0.313
-656.901	-37.648	-0.602	-0.325
-655.886	-200.000	0.017	-0.392
-654.872	-122.633	0.599	0.098
-653.857	-15.138	0.543	-0.353
-652.843	-46.129	0.491	-0.245
-651.828	321.898	0.128	0.247
-650.814	18.798	-0.477	0.387
-649.799	306.346	-0.108	-0.204
-648.784	-159.124	-0.952	-0.054
-647.770	-129.913	0.530	-0.074
-646.755	116.650	0.446	-0.554
-645.741	-200.000	-0.006	0.707
-644.726	-56.981	-0.453	-0.202
-643.711	218.018	-0.134	0.217
-642.697	77.523	0.441	-0.476
-641.682	-200.000	0.084	-0.408
-640.668	81.665	0.103	-0.112
-639.653	733.597	0.125	-0.338
-638.638	-88.453	-0.673	0.203
-637.624	-86.276	-0.322	0.100
-636.609	-32.760	-0.178	0.100
-635.595	188.430	-0.501	-0.759
-634.580	800.000	-0.335	-1.218
-633.565	443.990	-0.307	0.681
-632.551	31.077	0.267	-0.232
-631.536	-15.040	0.084	-0.055
-630.522	126.982	0.189	0.243
-629.507	-120.327	-0.977	0.169
-628.492	-73.849	-0.325	-0.120
-627.478	56.025	-0.689	0.676
-626.463	-200.000	0.000	-0.027
-625.449	-17.752	0.429	0.272
-624.434	50.133	-0.520	-0.497
-623.419	-200.000	0.083	0.682
-622.405	-157.252	0.871	0.053
-621.390	206.990	-0.199	-0.313
-620.376	180.324	-0.609	-0.903
-619.361	-148.332	-0.593	-0.049
-618.346	226.013	-0.308	-0.506
-617.332	-200.000	-0.089	-0.590
-616.317	-128.623	-0.470	0.067
-615.303	-103.752	-1.022	-0.242
-614.288	-200.000	-0.073	-0.744
-613.273	61.433	0.208	-0.209
-612.259	23.906	-0.138	-0.115
-611.244	-200.000	-0.011	-0.266
-610.230	206.278	-0.152	-0.239
-609.215	-43.025	0.582	-0.298
-608.201	-200.000	-0.131	-0.787
-607.186	800.000	-0.227	-0.775
-606.171	800.000	-0.168	0.682
-605.157	-74.594	1.268	0.462
-604.142	-122.698	-0.761	-0.125
-603.128	-69.931	0.190	0.073
-602.113	800.000	-0.158	-0.518
-601.098	-87.339	-0.413	-0.127
-600.084	800.000	0.119	0.406
-599.069	26.254	-0.235	0.198
-598.055	161.008	-0.266	-0.376
-597.040	362.106	0.189	-0.383
-596.025	25.485	0.673	0.566
-595.011	-200.000	-0.029	-0.435
-593.996	263.193	-0.066	0.116
-592.982	-200.000	-0.091	0.404
-591.967	242.681	0.388	-0.656
-590.952	24.054	0.170	-0.142
-589.938	-200.000	-0.144	0.979
-588.923	-144.587	0.723	-0.068
-587.909	-102.792	0.364	0.088
-586.894	-130.956	-0.671	0.091
-585.879	-141.091	-0.347	0.036
-584.865	-154.251	-0.705	0.048
-583.850	-87.965	1.036	-0.315
-582.836	800.000	-0.131	-0.425
-581.821	229.019	0.134	-0.222
-580.806	-99.810	-0.597	-0.151
-579.792	-142.060	0.573	-0.058
-578.777	89.934	0.444	-0.501
-577.763	-56.707	-0.857	0.383
-576.748	-125.630	0.735	-0.113
-575.733	798.669	-0.238	-0.664
-574.719	163.334	0.281	-0.398
-573.704	193.614	-0.068	-0.104
-572.690	-200.000	-0.150	0.798
-571.675	-129.047	-0.774	0.109
-570.661	-200.000	-0.179	-0.963
-569.646	-6.154	-0.221	0.152
-568.631	-200.000	0.078	0.803
-567.617	-86.132	0.436	-0.136
-566.602	5.474	0.231	0.172
-565.588	-5.351	0.350	0.243
-564.573	-134.383	0.926	0.115
-563.558	303.860	0.100	-0.187
-562.544	-0.286	-0.450	-0.323
-561.529	-78.841	-0.465	-0.160
-560.515	-75.379	0.289	-0.104
-559.500	406.662	0.426	-0.909
-558.485	-200.000	-0.064	-1.025
-557.471	101.878	-0.792	-0.933
-556.456	-126.734	-0.991	0.148
-555.442	46.758	0.847	0.795
-554.427	-97.100	0.488	0.129
-553.412	-124.420	-0.633	-0.100
-552.398	-200.000	0.051	-0.320
-551.383	-116.952	-0.558	-0.103
-550.369	457.513	-0.225	0.505
-549.354	800.000	0.246	0.808
-548.339	-200.000	-0.046	0.386
-547.325	-143.376	0.120	0.012
-546.310	-51.115	-0.360	-0.170
-545.296	207.327	-0.172	0.271
-544.281	-96.316	-0.491	-0.131
-543.266	774.962	0.129	0.355
-542.252	-90.458	0.512	-0.150
-541.237	-148.837	0.751	0.061
-540.223	271.896	0.529	-0.940
-539.208	-26.005	-0.215	-0.128
-538.193	263.442	0.329	0.576
-537.179	800.000	0.095	-0.287
-536.164	800.000	-0.135	-0.399
-535.150	-200.000	0.032	0.346
-534.135	-19.804	-0.562	-0.350
-533.121	-57.901	-0.568	-0.250
-532.106	65.892	0.763	-0.780
-531.091	-200.000	0.070	-0.863
-530.077	73.541	-0.189	0.200
-529.062	800.000	0.296	0.995
-528.048	800.000	-0.064	-0.271
-527.033	-59.896	-0.584	0.252
-526.018	-30.476	0.992	-0.567
-525.004	-98.756	0.107	0.027
-523.989	800.000	0.205	0.780
-522.975	800.000	-0.090	-0.282
-521.960	40.695	0.808	0.734
-520.945	-200.000	-0.079	0.548
-519.931	-103.168	0.631	-0.150
-518.916	149.597	0.178	-0.244
-517.902	257.677	0.281	-0.487
-516.887	72.904	0.042	-0.044
-515.872	-136.535	-0.748	0.087
-514.858	800.000	0.246	-0.785
-513.843	-34.287	0.152	0.084
-512.829	28.434	0.401	0.341
-511.814	245.307	-0.199	0.338
-510.799	112.837	-0.649	0.792
-509.785	-79.367	-0.257	-0.088
-508.770	39.241	0.698	-0.630
-507.756	800.000	-0.248	-0.856
-506.741	1.155	0.661	0.478
-505.726	-141.929	0.359	-0.036
-504.712	-38.842	0.298	-0.158
-503.697	-161.684	-0.416	0.021
-502.683	-132.050	-0.233	0.031
-501.668	-107.088	0.093	0.021
-500.653	-170.602	0.742	-0.026
-499.639	-200.000	0.002	0.165
-498.624	-200.000	-0.022	0.271
-497.610	404.437	-0.094	-0.199
-496.595	141.346	-0.274	-0.365
-495.581	60.815	-0.208	-0.208
-494.566	-200.000	0.038	-0.373
-493.551	67.738	0.257	0.265
-492.537	800.000	-0.145	0.568
-491.522	-200.000	-0.053	0.372
-490.508	47.510	0.443	-0.416
-489.493	-103.095	-0.256	-0.061
-488.478	-200.000	-0.002	-0.749
-487.464	-200.000	-0.846	0.001
-486.449	-129.213	0.703	-0.099
-485.435	116.092	-0.360	-0.444
-484.420	-131.370	0.167	0.022
-483.405	67.194	-0.572	0.587
-482.391	177.611	0.410	0.602
-481.376	-200.000	0.019	0.202
-480.362	-2.403	-0.571	-0.403
-479.347	-126.769	-0.313	-0.047
-478.332	-34.573	0.347	-0.191
-477.318	-109.634	-0.856	-0.181
-476.303	428.812	0.242	-0.526
-475.289	-32.502	0.545	-0.306
-474.274	-82.348	-0.374	0.122
-473.259	-115.773	0.709	0.134
-472.245	-82.113	-0.370	-0.121
-471.230	31.409	-0.579	0.500
-470.216	-87.937	-0.648	0.196
-469.201	487.182	0.198	0.455
-468.186	410.437	0.458	0.977
-467.172	800.000	-0.363	-1.092
-466.157	254.754	-0.265	0.457
-465.143	201.924	0.514	0.796
-464.128	193.743	-0.069	-0.106
-463.113	111.458	-0.166	-0.201
-462.099	87.848	0.254	-0.283
-461.084	502.711	0.439	-1.020
-460.070	-39.667	-1.516	-0.798
-459.055	174.100	-0.176	0.255
-458.040	331.499	-0.215	0.416
-457.026	-29.532	0.153	0.088
-456.011	205.749	-0.496	0.776
-454.997	61.626	-0.152	0.152
-453.982	800.000	0.196	0.707
-452.968	-200.000	-0.086	0.494
-451.953	549.185	-0.397	-0.956
-450.938	-80.871	-0.947	-0.316
-449.924	45.491	-0.469	-0.436
-448.909	647.683	-0.039	0.101
-447.895	-107.194	0.650	0.144
-446.880	142.127	0.454	-0.605
-445.865	-63.789	-0.323	-0.133
-444.851	432.363	0.238	0.519
-443.836	-101.907	-0.560	0.136
-442.822	-131.694	-0.153	-0.020
-441.807	-69.164	-0.510	0.197
-440.792	-83.955	-0.402	-0.129
-439.778	800.000	-0.293	0.957
-438.763	-145.024	0.457	-0.042
-437.749	-77.258	0.161	0.056
-436.734	276.204	0.263	0.469
-435.719	488.467	0.147	-0.338
-434.705	-200.000	0.012	0.112
-433.690	-60.947	0.400	0.170
-432.676	-200.000	0.166	1.150
-431.661	-88.277	0.117	-0.035
-430.646	134.640	-0.239	0.311
-429.632	23.617	0.676	0.559
-428.617	210.398	-0.172	0.272
-427.603	85.251	-0.365	0.403
-426.588	-29.181	-0.402	0.232
-425.573	-187.393	0.926	0.013
-424.559	65.178	-0.340	-0.345
-423.544	-200.000	0.091	-0.421
-422.530	-86.010	0.453	0.141
-421.515	-200.000	0.015	0.593
-420.500	202.222	0.435	-0.674
-419.486	-119.243	-0.969	-0.170
-418.471	85.449	0.372	-0.410
-417.457	736.195	-0.342	-0.921
-416.442	671.071	-0.277	-0.721
-415.428	-200.000	0.087	-0.626
-414.413	40.018	-0.402	-0.363
-413.398	-104.559	-0.403	0.093
-412.384	-109.723	-0.628	-0.133
-411.369	-200.000	-0.097	0.717
-410.355	72.756	-0.373	-0.390
-409.340	-200.000	-0.249	-1.113
-408.325	-39.648	-0.985	0.517
-407.311	-71.718	-0.196	-0.073
-406.296	310.387	-0.018	0.034
-405.282	-200.000	-0.131	0.748
-404.267	72.052	-0.256	-0.267
-403.252	-200.000	-0.220	1.003
-402.238	-156.370	0.386	-0.024
-401.223	800.000	0.182	0.682
-400.209	225.134	-0.505	0.821
-399.194	-2.563	0.493	0.346
-398.179	-95.202	0.486	-0.131
-397.165	-117.892	0.409	-0.074
-396.150	-200.000	0.128	0.605
-395.136	29.894	1.020	0.872
-394.121	-120.483	-0.041	-0.007
-393.106	20.017	0.200	0.162
-392.092	-167.743	0.510	-0.020
-391.077	-200.000	0.005	1.151
-390.063	800.000	0.065	-0.268
-389.048	-91.924	0.863	-0.245
-388.033	-141.635	0.316	0.032
-387.019	-18.774	0.258	0.161
-386.004	355.377	0.065	0.130
-384.990	-113.511	0.742	0.146
-383.975	-56.880	-0.221	0.098
-382.960	-15.741	0.586	0.375
-381.946	-120.729	0.584	-0.099
-380.931	-200.000	0.028	-0.583
-379.917	-6.892	0.248	-0.169
-378.902	-96.650	-1.083	0.286
-377.888	7.859	0.315	0.237
-376.873	-125.447	-0.716	0.109
-375.858	-175.915	-0.937	-0.025
-374.844	-200.000	-0.308	1.585
-373.829	800.000	0.332	0.960
-372.815	-92.802	0.628	0.176
-371.800	13.855	-0.376	0.293
-370.785	-116.842	0.911	0.167
-369.771	102.181	-0.417	0.489
-368.756	-200.000	-0.090	-0.436
-367.742	-156.251	0.302	-0.019
-366.727	46.691	-0.358	-0.333
-365.712	-90.594	0.941	0.273
-364.698	69.235	-0.375	0.386
-363.683	800.000	-0.012	-0.045
-362.669	-37.150	-0.383	0.205
-361.654	-46.447	-0.371	0.183
-360.639	-114.341	0.394	0.076
-359.625	71.566	-0.593	-0.617
-358.610	-25.978	-0.496	-0.293
-357.596	-197.945	0.338	0.002
-356.581	-200.000	0.172	-0.791
-355.566	-200.000	-0.128	-0.620
-354.552	-200.000	-0.152	-0.990
-353.537	-3.422	-0.413	-0.288
-352.523	36.780	-0.599	-0.530
-351.508	-123.270	-0.752	-0.120
-350.493	-46.179	-0.449	0.222
-349.479	132.136	-0.460	-0.594
-348.464	-133.117	0.422	-0.054
-347.450	-2.701	-0.233	0.163
-346.435	0.362	0.448	-0.320
-345.420	-4.790	0.327	-0.226
-344.406	127.735	-0.449	-0.571
-343.391	-200.000	0.007	0.681
-342.377	-9.417	0.392	0.262
-341.362	97.986	-0.278	-0.320
-340.348	-97.314	0.781	0.204
-339.333	-0.733	0.665	0.472
-338.318	-45.195	-0.183	0.091
-337.304	229.365	0.194	0.317
-336.289	-200.000	0.044	0.342
-335.275	76.888	-0.066	-0.070
-334.260	235.936	-0.265	0.438
-333.245	-200.000	-0.188	1.280
-332.231	210.284	0.280	-0.439
-331.216	28.349	0.186	-0.157
-330.202	119.692	0.476	-0.590
-329.187	78.253	0.888	0.949
-328.172	0.008	0.556	0.396
-327.158	-102.400	0.357	0.086
-326.143	-72.727	0.147	-0.054
-325.129	198.086	-0.359	-0.549
-324.114	-180.582	0.075	0.002
-323.099	492.767	0.325	-0.744
-322.085	428.056	0.066	0.143
-321.070	107.238	-0.215	0.256
-320.056	-172.369	-0.914	0.029
-319.041	-138.316	0.354	0.039
-318.026	186.236	-0.412	0.613
-317.012	-46.616	-0.404	-0.198
-315.997	-200.000	0.132	0.858
-314.983	303.304	-0.249	0.461
-313.968	13.499	0.992	0.770
-312.953	-4.952	0.782	0.539
-311.939	-200.000	-0.004	-0.120
-310.924	-168.323	0.149	-0.006
-309.910	-62.181	-0.719	-0.300
-308.895	-162.945	0.962	-0.047
-307.880	-187.589	0.384	-0.005
-306.866	123.599	0.180	0.226
-305.851	-143.737	0.123	-0.012
-304.837	-129.721	0.055	0.008
-303.822	91.473	-0.350	-0.393
-302.807	171.369	0.194	-0.278
-301.793	117.593	0.401	0.493
-300.778	-200.000	-0.042	0.665
-299.764	-110.892	-0.656	0.135
-298.749	374.974	-0.437	-0.889
-297.735	-197.056	0.258	0.002
-296.720	-200.000	-0.024	0.672
-295.705	-146.303	-0.804	0.070
-294.691	-38.918	-0.082	0.043
-293.676	-75.187	-0.259	0.093
-292.662	-200.000	0.036	0.588
-291.647	190.858	0.182	-0.274
-290.632	163.092	-0.425	-0.596
-289.618	800.000	0.153	0.571
-288.603	-23.272	-0.466	-0.280
-287.589	-39.695	0.449	0.234
-286.574	-178.565	0.100	-0.002
-285.559	800.000	-0.235	-0.770
-284.545	37.089	0.263	0.232
-283.530	-200.000	-0.080	0.876
-282.516	85.511	0.129	0.141
-281.501	-124.683	-0.506	-0.078
-280.486	86.135	-0.286	0.314
-279.472	204.754	-0.475	-0.736
-278.457	-14.213	0.854	0.550
-277.443	-200.000	-0.025	-0.995
-276.428	-200.000	-0.066	0.365
-275.413	546.580	0.161	0.384
-274.399	-128.029	0.715	0.102
-273.384	418.089	-0.071	0.150
-272.370	-78.193	-0.868	-0.298
-271.355	231.942	-0.630	-1.032
-270.340	-200.000	-0.064	-0.390
-269.326	164.022	-0.237	0.333
-268.311	163.719	0.497	0.698
-267.297	-200.000	0.109	1.107
-266.282	-127.721	-0.391	-0.056
-265.267	501.457	0.104	-0.240
-264.253	800.000	0.232	0.678
-263.238	800.000	0.161	0.531
-262.224	253.267	-0.159	-0.270
-261.209	-178.330	0.688	-0.016
-260.195	-189.217	-0.765	-0.009
-259.180	-116.720	-0.752	-0.138
-258.165	-200.000	0.016	0.532
-257.151	-99.749	-0.338	0.085
-256.136	-8.448	0.277	0.186
-255.122	-66.324	0.536	0.213
-254.107	-200.000	-0.021	0.095
-253.092	126.102	-0.431	-0.543
-252.078	800.000	0.043	0.159
-251.063	-175.922	1.013	-0.027
-250.049	-67.026	0.423	-0.167
-249.034	163.747	0.290	-0.407
-248.019	-80.668	-0.374	0.124
-247.005	-51.356	-0.988	0.461
-245.990	-22.058	-0.433	0.262
-244.976	9.613	-0.403	-0.305
-243.961	-141.828	0.841	0.084
-242.946	5.412	0.326	0.240
-241.932	-97.131	0.610	-0.159
-240.917	44.723	0.561	-0.514
-239.903	352.288	0.046	0.090
-238.888	-89.346	0.233	0.068
-237.873	-31.682	1.039	0.581
-236.859	39.551	-0.627	-0.560
-235.844	283.191	0.114	-0.204
-234.830	-200.000	0.044	-0.256
-233.815	-200.000	-0.067	0.718
-232.800	-200.000	-0.140	0.841
-231.786	-83.230	-0.287	0.092
-230.771	-200.000	-0.051	0.462
-229.757	-200.000	-0.085	0.604
-228.742	-130.788	0.522	0.070
-227.727	800.000	-0.293	-0.930
-226.713	-125.375	0.265	-0.040
-225.698	50.888	-0.323	0.305
-224.684	800.000	0.177	-0.654
-223.669	-19.143	0.325	-0.201
-222.655	114.702	0.259	-0.314
-221.640	170.344	-0.194	0.277
-220.625	-44.958	0.617	0.306
-219.611	-24.110	0.636	0.379
-218.596	66.440	0.391	-0.396
-217.582	800.000	-0.264	0.862
-216.567	260.484	-0.177	-0.305
-215.552	-19.436	-0.222	0.137
-214.538	201.006	0.219	0.336
-213.523	510.045	-0.190	-0.440
-212.509	-83.780	0.635	0.202
-211.494	-47.570	-0.412	-0.199
-210.479	-71.692	-0.434	0.161
-209.465	-200.000	0.100	-0.679
-208.450	430.815	-0.099	0.214
-207.436	-200.000	0.942	0.003
-206.421	-80.325	0.527	0.175
-205.406	-200.000	-0.101	-0.899
-204.392	-200.000	0.793	-0.003
-203.377	407.884	0.234	-0.494
-202.363	266.936	0.331	-0.576
-201.348	-170.342	-0.362	0.013
-200.333	-123.804	-0.576	-0.091
-199.319	-109.985	-0.985	0.205
-198.304	-200.000	0.075	0.333
-197.290	359.627	0.120	0.240
-196.275	800.000	-0.277	0.919
-195.260	-51.773	0.497	0.230
-194.246	77.442	0.505	0.535
-193.231	170.267	-0.080	-0.114
-192.217	17.061	-0.387	0.305
-191.202	-72.569	0.473	0.174
-190.187	800.000	-0.135	0.467
-189.173	118.018	-0.246	0.302
-188.158	76.791	0.097	-0.102
-187.144	800.000	-0.287	-1.083
-186.129	507.837	0.273	-0.630
-185.114	309.906	0.202	-0.376
-184.100	45.801	-0.452	-0.415
-183.085	2.139	-0.085	0.061
-182.071	-111.570	-0.470	-0.095
-181.056	800.000	0.183	-0.617
-180.042	312.759	0.144	-0.269
-179.027	-29.843	-0.241	0.137
-178.012	40.331	-0.315	-0.282
-176.998	412.884	0.280	0.593
-175.983	-46.204	-0.125	-0.061
-174.969	405.400	0.641	-1.344
-173.954	-65.272	0.872	-0.349
-172.939	-143.643	-0.223	0.021
-171.925	-132.349	-0.166	-0.021
-170.910	291.607	0.258	-0.468
-169.896	-19.198	0.153	0.094
-168.881	-125.055	-0.791	-0.121
-167.866	-108.653	-0.398	0.085
-166.852	-167.191	-0.295	0.012
-165.837	23.881	-0.351	-0.288
-164.823	-46.604	-0.435	0.212
-163.808	-27.394	0.595	-0.344
-162.793	-58.864	0.655	-0.282
-161.779	-147.170	-0.272	-0.023
-160.764	-56.204	0.469	0.208
-159.750	-37.654	0.439	0.233
-158.735	42.207	-0.960	0.867
-157.720	223.089	0.515	0.826
-156.706	-43.814	0.730	-0.365
-155.691	-178.574	-0.415	0.010
-154.677	83.128	0.831	-0.898
-153.662	-58.917	-0.233	-0.100
-152.647	800.000	0.119	-0.332
-151.633	-54.277	0.530	-0.239
-150.618	334.991	0.210	0.404
-149.604	-88.572	-0.428	0.127
-148.589	355.806	0.287	0.567
-147.574	376.854	0.115	-0.233
-146.560	800.000	0.069	-0.299
-145.545	800.000	0.239	0.861
-144.531	699.141	-0.299	-0.781
-143.516	-200.000	-0.067	0.441
-142.502	-200.000	0.042	-0.347
-141.487	-120.030	-0.097	0.016
-140.472	-58.819	0.866	0.372
-139.458	147.657	0.450	0.602
-138.443	-83.479	1.223	0.389
-137.429	-124.042	0.722	0.113
-136.414	224.614	-0.352	-0.565
-135.399	-53.566	-0.317	-0.144
-134.385	410.310	-0.384	0.808
-133.370	800.000	0.096	0.323
-132.356	-200.000	0.108	0.666
-131.341	-200.000	0.047	-0.322
-130.326	515.115	-0.156	-0.362
-129.312	-200.000	0.031	0.144
-128.297	-150.967	-0.224	-0.017
-127.283	305.239	-0.118	-0.217
-126.268	800.000	-0.026	-0.074
-125.253	89.443	0.468	0.518
-124.239	-68.493	0.461	-0.178
-123.224	98.884	-0.250	0.286
-122.210	-10.388	0.794	-0.522
