DTS Sentinel unit serial number:	SN413079Multiplexer serial number:	ORYXHardware model number:	OX4-SRSoftware version number:	ORYX F/W v4.00 Oryx Data Collector v3.7.2.0data status	okinstallation	princeton_trtdifferential loss correction	single-endedforward channel	channel 4reverse channel	N/Adate	2019/09/11time	21:19:11forward acquisition time	60.00reverse acquisition time	0.00gamma	496.2192k internal	0.2305k external	0.2305temperature offset calibration	1.0064default loss term (dB/km)	0.3790temperature slope calibration	1.0000multiplexer offset coefficient	1.0000multiplexer slope coefficient	1.0000fibre end	0.00T internal ref (°C)	36.25T ext. ref 1 (°C)	1.59T ext. ref 2 (°C)	30.17length (m)	temperature (°C)	Stokes	anti-Stokes-747.200	-200.000	-0.051	0.239
-746.185	-136.729	0.312	0.037
-745.171	245.134	0.208	0.356
-744.156	800.000	-0.027	0.118
-743.142	-40.950	0.146	-0.077
-742.127	9.993	-0.255	-0.197
-741.112	-144.390	-0.253	-0.024
-740.098	43.348	0.174	0.161
-739.083	-120.375	0.113	0.020
-738.069	-35.996	-0.074	0.041
-737.054	800.000	0.045	-0.146
-736.039	0.149	-0.124	-0.090
-735.025	229.400	-0.148	0.245
-734.010	-66.432	-0.164	-0.066
-732.996	210.475	0.140	-0.224
-731.981	23.836	-0.182	0.152
-730.966	-200.000	0.007	0.078
-729.952	-200.000	0.020	0.101
-728.937	340.807	0.095	0.189
-727.923	270.078	0.072	-0.128
-726.908	-36.153	-0.356	0.195
-725.894	-84.444	-0.055	-0.018
-724.879	-108.401	-0.109	-0.024
-723.864	70.498	0.059	0.062
-722.850	-200.000	-0.007	-0.148
-721.835	4.606	0.126	0.094
-720.821	2.401	-0.150	0.110
-719.806	-200.000	-0.021	-0.144
-718.791	800.000	-0.069	-0.275
-717.777	93.736	-0.126	0.145
-716.762	-75.858	-0.368	0.132
-715.748	40.417	0.226	0.207
-714.733	800.000	-0.064	0.215
-713.718	148.805	-0.140	-0.193
-712.704	259.791	0.148	-0.260
-711.689	-200.000	-0.022	0.144
-710.675	17.549	0.327	0.265
-709.660	-200.000	-0.044	-0.323
-708.645	-20.175	0.302	-0.189
-707.631	-142.335	0.224	0.022
-706.616	-14.357	-0.376	-0.246
-705.602	-91.386	-0.143	-0.042
-704.587	-188.506	-0.260	-0.003
-703.572	-78.634	0.086	0.030
-702.558	-200.000	0.043	-0.329
-701.543	-149.156	-0.099	0.008
-700.529	-200.000	0.028	-0.164
-699.514	538.945	0.137	0.332
-698.499	-200.000	-0.059	0.283
-697.485	46.962	0.091	-0.086
-696.470	114.322	-0.152	-0.188
-695.456	55.326	0.163	-0.160
-694.441	-49.080	-0.250	-0.121
-693.426	99.964	-0.068	-0.080
-692.412	-200.000	-0.026	-0.186
-691.397	89.103	-0.084	0.094
-690.383	377.578	-0.012	0.025
-689.368	800.000	0.088	-0.276
-688.354	63.343	0.129	0.131
-687.339	-80.364	-0.155	0.053
-686.324	10.498	-0.270	-0.209
-685.310	338.704	0.059	0.116
-684.295	-98.873	-0.100	0.026
-683.281	11.820	-0.092	0.071
-682.266	-200.000	0.025	-0.283
-681.251	-31.358	0.160	-0.092
-680.237	-116.404	-0.104	0.020
-679.222	20.881	0.113	0.093
-678.208	206.071	-0.148	-0.233
-677.193	800.000	0.025	-0.082
-676.178	-134.896	0.359	0.044
-675.164	100.537	0.145	-0.171
-674.149	-137.541	-0.372	-0.043
-673.135	636.267	0.082	-0.211
-672.120	6.570	-0.149	0.113
-671.105	800.000	-0.044	-0.180
-670.091	147.733	-0.197	-0.269
-669.076	800.000	-0.043	-0.142
-668.062	-105.951	0.163	-0.037
-667.047	233.761	0.097	-0.163
-666.032	138.158	0.191	-0.254
-665.018	106.056	0.249	0.299
-664.003	-200.000	-0.098	0.474
-662.989	-106.011	0.365	0.083
-661.974	-58.201	0.086	-0.038
-660.959	-149.957	-0.034	0.003
-659.945	800.000	0.075	-0.235
-658.930	-32.204	-0.139	-0.079
-657.916	-130.250	-0.363	-0.050
-656.901	-200.000	-0.054	-0.346
-655.886	106.226	-0.060	-0.072
-654.872	800.000	0.105	0.308
-653.857	32.153	-0.296	-0.259
-652.843	-162.503	0.280	-0.014
-651.828	-97.722	-0.078	-0.020
-650.814	9.427	-0.090	-0.069
-649.799	151.718	0.075	0.103
-648.784	-114.706	-0.276	0.054
-647.770	158.544	-0.113	0.158
-646.755	-118.527	0.295	-0.053
-645.741	-20.681	-0.199	-0.124
-644.726	56.030	0.249	-0.245
-643.711	288.937	-0.113	-0.208
-642.697	1.171	0.138	0.100
-641.682	98.882	-0.253	-0.296
-640.668	739.505	-0.039	0.105
-639.653	-118.775	-0.086	-0.015
-638.638	-106.885	-0.279	0.063
-637.624	84.319	0.270	-0.299
-636.609	42.680	-0.125	0.116
-635.595	146.216	0.160	0.218
-634.580	-10.372	-0.122	-0.082
-633.565	-139.507	0.202	0.022
-632.551	105.100	-0.129	0.155
-631.536	-99.826	-0.350	-0.089
-630.522	28.623	0.143	-0.122
-629.507	-200.000	0.020	-0.304
-628.492	133.841	-0.109	0.143
-627.478	-200.000	0.274	0.001
-626.463	-8.260	0.067	-0.046
-625.449	13.264	0.097	0.076
-624.434	-200.000	0.019	0.258
-623.419	800.000	-0.083	-0.307
-622.405	-71.016	0.170	-0.065
-621.390	-34.838	0.354	0.196
-620.376	72.517	-0.117	-0.123
-619.361	-6.448	0.193	-0.133
-618.346	537.302	0.164	0.394
-617.332	-142.760	-0.549	0.054
-616.317	543.529	0.033	0.081
-615.303	128.338	0.114	0.147
-614.288	-200.000	-0.027	-0.147
-613.273	274.907	0.118	-0.212
-612.259	-119.199	-0.299	-0.053
-611.244	253.897	0.058	-0.100
-610.230	-80.750	0.131	0.044
-609.215	-29.003	0.182	-0.106
-608.201	-35.923	-0.239	0.131
-607.186	-128.619	-0.316	-0.045
-606.171	309.164	-0.034	-0.065
-605.157	-43.091	0.336	-0.173
-604.142	-7.444	0.349	0.239
-603.128	265.866	0.057	-0.101
-602.113	21.659	0.162	0.133
-601.098	-11.309	-0.150	0.100
-600.084	121.767	-0.152	-0.191
-599.069	-84.800	0.415	-0.132
-598.055	117.822	0.096	-0.120
-597.040	23.710	0.422	-0.351
-596.025	-10.059	0.015	-0.010
-595.011	71.390	0.144	0.152
-593.996	10.577	-0.129	-0.100
-592.982	-29.307	-0.134	-0.077
-591.967	-69.462	-0.089	-0.035
-590.952	445.070	0.093	-0.206
-589.938	-46.981	0.308	-0.152
-588.923	-23.226	0.166	0.101
-587.909	0.603	0.142	0.103
-586.894	-0.310	-0.066	-0.047
-585.879	85.640	0.253	-0.282
-584.865	129.635	0.061	0.079
-583.850	-200.000	-0.028	0.225
-582.836	122.281	-0.094	-0.119
-581.821	-134.022	-0.185	-0.023
-580.806	-71.894	0.117	-0.044
-579.792	13.433	-0.176	-0.138
-578.777	-200.000	0.011	-0.092
-577.763	-101.376	-0.439	-0.108
-576.748	692.300	-0.004	-0.012
-575.733	32.936	0.138	-0.121
-574.719	-91.020	0.084	0.024
-573.704	11.517	0.084	-0.065
-572.690	-38.061	-0.020	-0.011
-571.675	21.996	0.289	-0.238
-570.661	-200.000	0.045	-0.208
-569.646	-55.020	-0.392	-0.179
-568.631	-56.256	-0.233	0.105
-567.617	270.877	0.179	0.319
-566.602	235.033	-0.096	0.160
-565.588	-106.404	0.452	0.102
-564.573	-7.463	0.135	0.092
-563.558	74.314	0.214	-0.227
-562.544	38.353	0.127	-0.115
-561.529	-151.955	-0.050	-0.004
-560.515	78.657	-0.112	-0.121
-559.500	-69.190	-0.308	-0.120
-558.485	178.638	-0.152	-0.224
-557.471	-132.933	-0.258	-0.033
-556.456	731.520	0.142	-0.383
-555.442	-200.000	-0.022	-0.305
-554.427	-119.215	-0.542	0.096
-553.412	15.214	0.086	-0.068
-552.398	-200.000	0.044	-0.329
-551.383	353.656	-0.093	0.186
-550.369	-143.922	-0.240	0.023
-549.354	-170.571	0.208	0.007
-548.339	26.425	0.101	0.085
-547.325	485.423	0.049	0.113
-546.310	-175.801	-0.152	0.004
-545.296	340.609	0.055	-0.109
-544.281	121.085	0.319	0.400
-543.266	-56.607	0.118	0.053
-542.252	66.829	0.143	0.147
-541.237	800.000	0.145	-0.462
-540.223	315.760	0.131	0.249
-539.208	800.000	0.047	-0.153
-538.193	-200.000	0.000	-0.072
-537.179	28.891	0.110	0.094
-536.164	-102.715	0.118	-0.028
-535.150	-37.456	-0.262	0.141
-534.135	37.595	-0.182	-0.163
-533.121	-65.328	0.499	-0.203
-532.106	136.055	0.010	0.013
-531.091	79.789	0.355	0.385
-530.077	52.899	-0.082	-0.079
-529.062	-138.604	-0.550	-0.061
-528.048	112.583	0.069	0.084
-527.033	800.000	0.077	-0.263
-526.018	-34.328	-0.046	0.025
-525.004	-47.626	-0.153	-0.075
-523.989	33.618	-0.197	0.173
-522.975	-21.478	-0.038	-0.024
-521.960	-200.000	-0.006	-0.051
-520.945	178.891	-0.180	0.266
-519.931	129.231	0.104	0.135
-518.916	-200.000	-0.005	-0.333
-517.902	800.000	0.026	0.084
-516.887	4.242	0.191	-0.141
-515.872	-122.675	-0.099	-0.016
-514.858	302.813	-0.171	-0.320
-513.843	-95.835	0.200	0.054
-512.829	701.935	-0.124	0.331
-511.814	800.000	-0.114	0.411
-510.799	162.272	-0.188	0.266
-509.785	182.950	-0.155	0.231
-508.770	-132.184	0.159	-0.021
-507.756	-117.014	0.093	-0.017
-506.741	229.366	0.161	-0.265
-505.726	-152.468	-0.254	-0.018
-504.712	-200.000	-0.022	-0.098
-503.697	-200.000	0.040	0.201
-502.683	2.676	0.017	0.012
-501.668	-200.000	0.058	0.315
-500.653	-77.239	-0.308	0.108
-499.639	180.643	-0.240	-0.355
-498.624	-200.000	-0.058	-0.298
-497.610	-200.000	-0.057	0.303
-496.595	800.000	0.043	0.167
-495.581	-20.605	0.162	0.100
-494.566	-117.715	0.316	-0.057
-493.551	-200.000	0.000	0.146
-492.537	800.000	-0.033	0.114
-491.522	-200.000	-0.006	0.060
-490.508	32.431	-0.018	-0.016
-489.493	506.845	-0.071	-0.165
-488.478	-200.000	0.001	0.163
-487.464	561.157	0.100	0.243
-486.449	-56.867	-0.309	0.138
-485.435	70.040	-0.133	-0.139
-484.420	152.197	0.236	0.324
-483.405	-200.000	0.032	-0.301
-482.391	-200.000	0.041	-0.252
-481.376	-172.207	0.180	-0.006
-480.362	3.760	0.196	0.144
-479.347	-96.170	0.364	-0.097
-478.332	178.420	0.159	-0.234
-477.318	181.851	0.134	0.199
-476.303	553.703	0.134	0.325
-475.289	800.000	0.112	-0.318
-474.274	-200.000	-0.053	-0.409
-473.259	-200.000	-0.064	0.286
-472.245	-14.588	0.302	-0.196
-471.230	-200.000	0.003	-0.025
-470.216	800.000	0.094	-0.262
-469.201	-101.779	0.239	0.058
-468.186	-200.000	-0.011	-0.062
-467.172	800.000	0.061	0.251
-466.157	87.011	-0.168	-0.187
-465.143	-124.109	-0.312	0.049
-464.128	-162.426	-0.162	-0.008
-463.113	527.275	0.139	0.330
-462.099	-81.575	0.091	-0.030
-461.084	483.076	0.102	-0.234
-460.070	734.164	0.051	-0.136
-459.055	12.549	0.059	-0.046
-458.040	-200.000	-0.043	0.262
-457.026	-99.195	-0.154	-0.039
-456.011	15.645	-0.136	0.108
-454.997	-198.934	0.437	-0.002
-453.982	-113.599	0.311	0.061
-452.968	360.091	-0.171	0.345
-451.953	-200.000	-0.054	0.272
-450.938	800.000	0.099	0.303
-449.924	-200.000	0.002	-0.096
-448.909	-55.988	-0.258	-0.116
-447.895	70.119	-0.260	0.270
-446.880	160.563	0.034	0.048
-445.865	800.000	0.030	-0.103
-444.851	-115.383	-0.381	-0.072
-443.836	17.570	0.377	-0.302
-442.822	307.177	0.046	-0.087
-441.807	324.773	-0.092	0.177
-440.792	-114.343	-0.143	0.028
-439.778	455.027	0.100	0.223
-438.763	173.776	-0.110	-0.160
-437.749	-128.523	-0.243	0.035
-436.734	38.492	-0.089	-0.080
-435.719	800.000	0.076	0.217
-434.705	457.739	-0.160	-0.357
-433.690	-200.000	-0.057	0.444
-432.676	-112.070	0.127	0.026
-431.661	-61.475	-0.094	-0.040
-430.646	311.061	-0.204	-0.384
-429.632	638.743	0.043	0.109
-428.617	800.000	0.044	-0.163
-427.603	-200.000	0.044	0.462
-426.588	-132.592	-0.216	0.028
-425.573	114.979	0.081	-0.100
-424.559	-58.098	-0.264	0.116
-423.544	-200.000	0.056	-0.387
-422.530	-103.724	0.252	-0.059
-421.515	589.105	-0.050	-0.125
-420.500	-47.777	-0.166	-0.081
-419.486	44.327	-0.263	0.242
-418.471	-120.138	-0.124	0.021
-417.457	7.681	0.166	0.125
-416.442	-151.854	0.126	0.009
-415.428	-14.721	-0.246	0.159
-414.413	800.000	-0.015	0.068
-413.398	238.629	0.131	-0.218
-412.384	-16.330	-0.283	0.180
-411.369	-54.878	-0.429	0.195
-410.355	-84.571	-0.054	0.017
-409.340	-92.340	0.109	0.031
-408.325	74.850	0.077	0.082
-407.311	-83.066	0.129	-0.042
-406.296	52.686	-0.024	0.023
-405.282	-84.088	0.236	0.075
-404.267	518.249	-0.069	-0.162
-403.252	368.908	0.103	0.209
-402.238	-49.011	-0.290	-0.140
-401.223	517.062	-0.199	0.467
-400.209	-188.680	0.458	-0.006
-399.194	158.270	-0.090	0.125
-398.179	-162.561	-0.279	-0.014
-397.165	-72.825	0.226	-0.083
-396.150	-109.023	-0.139	-0.030
-395.136	800.000	-0.099	0.405
-394.121	-73.994	-0.295	0.107
-393.106	-54.027	-0.392	0.179
-392.092	-114.830	-0.133	-0.026
-391.077	-200.000	0.016	-0.159
-390.063	779.002	0.108	-0.296
-389.048	149.563	-0.370	-0.503
-388.033	-131.823	-0.426	0.056
-387.019	158.720	0.069	-0.096
-386.004	598.970	0.051	0.128
-384.990	41.606	0.106	-0.096
-383.975	-37.735	0.181	0.097
-382.960	-200.000	-0.001	0.161
-381.946	-119.022	0.348	-0.061
-380.931	75.622	0.257	0.272
-379.917	611.127	-0.087	0.220
-378.902	202.911	-0.059	-0.092
-377.888	800.000	0.072	0.242
-376.873	-31.079	-0.182	0.103
-375.858	495.933	0.027	0.062
-374.844	-124.218	0.184	0.029
-373.829	-200.000	-0.011	0.168
-372.815	-200.000	-0.024	0.211
-371.800	8.570	0.033	-0.025
-370.785	-100.777	0.318	0.078
-369.771	131.470	0.104	-0.134
-368.756	265.543	0.073	0.127
-367.742	-200.000	-0.047	0.262
-366.727	-36.498	0.474	-0.256
-365.712	773.664	-0.022	0.061
-364.698	-101.166	0.232	-0.057
-363.683	32.668	-0.309	0.268
-362.669	674.231	-0.099	-0.259
-361.654	664.914	0.138	0.356
-360.639	800.000	-0.045	0.137
-359.625	501.038	-0.074	-0.171
-358.610	-127.242	-0.641	0.094
-357.596	-200.000	-0.004	-0.238
-356.581	282.223	0.105	-0.189
-355.566	543.490	-0.064	0.153
-354.552	-38.961	-0.073	0.038
-353.537	300.900	-0.090	-0.166
-352.523	655.185	-0.169	-0.436
-351.508	-39.986	0.067	-0.035
-350.493	181.819	0.154	-0.227
-349.479	-200.000	0.033	-0.172
-348.464	-137.196	0.463	-0.053
-347.450	178.513	0.177	0.259
-346.435	328.298	0.107	-0.206
-345.420	-131.669	0.316	-0.042
-344.406	-133.889	0.250	-0.031
-343.391	800.000	0.031	-0.094
-342.377	16.069	-0.349	0.276
-341.362	-73.494	0.057	0.021
-340.348	340.530	-0.052	0.101
-339.333	-115.788	-0.122	0.023
-338.318	-50.402	-0.336	-0.159
-337.304	-23.672	-0.197	0.118
-336.289	628.594	0.060	0.151
-335.275	111.757	0.053	0.064
-334.260	-100.137	-0.283	0.071
-333.245	-101.310	0.174	-0.043
-332.231	418.006	-0.120	0.256
-331.216	-200.000	-0.041	-0.329
-330.202	-45.457	-0.186	-0.092
-329.187	-200.000	-0.038	-0.363
-328.172	-60.724	-0.221	-0.094
-327.158	51.495	0.142	-0.136
-326.143	171.116	0.299	0.429
-325.129	614.056	0.072	-0.181
-324.114	-51.478	0.140	0.066
-323.099	-66.047	-0.334	0.134
-322.085	800.000	0.134	-0.418
-321.070	766.932	0.093	0.252
-320.056	-200.000	0.020	-0.301
-319.041	316.936	-0.052	0.098
-318.026	800.000	-0.096	-0.330
-317.012	77.109	-0.173	0.185
-315.997	304.003	0.136	0.253
-314.983	-101.771	0.156	-0.038
-313.968	800.000	0.089	-0.280
-312.953	60.758	-0.047	0.047
-311.939	-200.000	0.010	-0.335
-310.924	594.021	0.082	-0.202
-309.910	-200.000	-0.020	0.095
-308.895	519.623	-0.114	0.267
-307.880	197.035	-0.050	0.076
-306.866	-200.000	0.014	-0.082
-305.851	419.052	-0.061	-0.131
-304.837	800.000	-0.103	-0.414
-303.822	80.524	-0.183	0.197
-302.807	96.646	0.272	0.311
-301.793	468.298	-0.091	-0.204
-300.778	-200.000	0.029	0.234
-299.764	82.769	-0.160	0.174
-298.749	800.000	-0.092	0.278
-297.735	163.994	-0.076	0.107
-296.720	327.710	0.082	0.157
-295.705	-125.971	-0.068	-0.010
-294.691	-82.711	-0.107	0.035
-293.676	598.220	-0.042	-0.104
-292.662	-196.082	-0.301	-0.002
-291.647	-200.000	0.017	0.159
-290.632	-103.884	-0.310	-0.073
-289.618	-200.000	0.009	-0.096
-288.603	-56.483	0.129	0.057
-287.589	96.694	0.119	0.136
-286.574	-136.695	-0.121	-0.014
-285.559	-0.648	0.079	-0.056
-284.545	105.401	-0.157	0.185
-283.530	800.000	-0.101	-0.340
-282.516	800.000	0.078	0.299
-281.501	377.944	-0.123	0.251
-280.486	274.028	-0.097	0.171
-279.472	-200.000	0.018	-0.290
-278.457	-118.159	0.298	-0.053
-277.443	800.000	0.074	0.216
-276.428	467.948	-0.065	0.145
-275.413	-76.174	0.060	0.021
-274.399	184.337	-0.113	-0.168
-273.384	15.422	0.124	-0.097
-272.370	-85.815	0.166	0.051
-271.355	-89.207	-0.412	0.122
-270.340	75.822	0.123	-0.129
-269.326	-88.233	-0.187	0.056
-268.311	152.318	0.209	-0.285
-267.297	-26.742	0.260	-0.152
-266.282	800.000	-0.084	-0.234
-265.267	-134.462	-0.263	0.032
-264.253	22.616	-0.148	-0.121
-263.238	251.149	0.068	-0.115
-262.224	800.000	-0.047	0.148
-261.209	42.295	0.116	-0.105
-260.195	366.504	-0.198	-0.400
-259.180	75.910	-0.069	-0.073
-258.165	48.176	0.280	-0.262
-257.151	-129.718	-0.523	0.072
-256.136	-200.000	-0.004	-0.183
-255.122	-23.577	0.218	0.130
-254.107	-200.000	-0.022	0.299
-253.092	439.277	0.044	0.095
-252.078	400.467	-0.168	0.353
-251.063	-200.000	0.035	0.296
-250.049	-48.331	0.222	0.107
-249.034	85.062	0.099	-0.108
-248.019	-200.000	-0.025	-0.434
-247.005	136.708	-0.151	0.197
-245.990	800.000	-0.018	0.066
-244.976	195.494	-0.053	-0.080
-243.961	196.300	-0.025	-0.038
-242.946	-112.375	-0.104	-0.021
-241.932	92.408	0.270	-0.304
-240.917	568.601	-0.222	-0.538
-239.903	800.000	0.075	0.314
-238.888	510.862	0.173	0.402
-237.873	156.082	0.025	-0.034
-236.859	215.317	-0.215	-0.340
-235.844	-45.178	0.114	-0.057
-234.830	139.978	-0.233	0.306
-233.815	-14.834	0.187	-0.120
-232.800	-33.955	0.291	-0.160
-231.786	-85.162	0.087	0.027
-230.771	46.649	0.141	-0.130
-229.757	-64.024	0.192	0.078
-228.742	182.032	-0.162	-0.238
-227.727	-180.734	-0.195	0.004
-226.713	-52.967	0.472	-0.217
-225.698	800.000	-0.125	0.462
-224.684	800.000	-0.034	0.096
-223.669	800.000	-0.051	0.191
-222.655	-200.000	-0.038	0.245
-221.640	648.140	-0.105	-0.268
-220.625	35.824	-0.132	-0.116
-219.611	119.920	-0.153	0.190
-218.596	110.760	0.102	0.123
-217.582	54.242	0.018	0.017
-216.567	-15.512	0.145	0.093
-215.552	800.000	-0.055	0.179
-214.538	800.000	-0.116	0.329
-213.523	277.909	0.075	0.133
-212.509	-79.925	-0.138	0.046
-211.494	362.450	-0.107	-0.214
-210.479	341.258	-0.015	0.030
-209.465	-150.728	-0.143	-0.011
-208.450	293.019	0.063	0.114
-207.436	-78.718	0.168	0.057
-206.421	-200.000	-0.109	-0.492
-205.406	111.683	-0.110	0.132
-204.392	-126.317	-0.172	0.026
-203.377	119.778	0.120	0.149
-202.363	98.963	0.134	0.155
-201.348	507.755	-0.098	0.226
-200.333	348.846	0.100	0.197
-199.319	-26.730	-0.181	-0.105
-198.304	-73.177	0.186	-0.068
-197.290	800.000	0.073	0.299
-196.275	62.085	0.159	-0.158
-195.260	-200.000	-0.018	0.132
-194.246	21.104	0.135	0.109
-193.231	-17.911	0.077	0.048
-192.217	3.793	-0.177	0.129
-191.202	800.000	0.095	-0.280
-190.187	8.564	-0.174	0.130
-189.173	800.000	0.068	0.276
-188.158	-200.000	0.009	0.078
-187.144	-48.399	0.159	-0.076
-186.129	-40.663	0.062	-0.032
-185.114	331.108	-0.152	-0.291
-184.100	475.993	-0.066	0.149
-183.085	-17.457	-0.280	0.175
-182.071	-37.735	-0.225	0.119
-181.056	800.000	0.118	-0.398
-180.042	-181.503	0.270	0.005
-179.027	-200.000	0.009	-0.166
-178.012	-200.000	-0.026	-0.231
-176.998	-56.654	0.078	-0.034
-175.983	287.029	-0.101	-0.182
-174.969	13.100	0.169	0.130
-173.954	563.031	-0.199	0.480
-172.939	-33.060	-0.371	-0.205
-171.925	1.486	0.228	-0.163
-170.910	-66.900	0.179	0.071
-169.896	800.000	-0.052	-0.202
-168.881	52.340	0.092	-0.088
-167.866	-200.000	-0.045	-0.238
-166.852	165.091	0.038	-0.054
-165.837	139.255	-0.060	-0.079
-164.823	-1.921	0.253	-0.177
-163.808	139.672	0.090	-0.118
-162.793	-200.000	0.015	0.069
-161.779	800.000	0.065	0.264
-160.764	-61.813	-0.296	-0.123
-159.750	-200.000	-0.018	-0.104
-158.735	-200.000	0.019	0.292
-157.720	800.000	-0.041	0.154
-156.706	-55.656	0.233	-0.104
-155.691	-67.942	0.126	-0.049
-154.677	58.378	0.125	-0.122
-153.662	63.187	0.148	0.148
-152.647	8.937	0.132	-0.099
-151.633	-101.796	0.110	0.026
-150.618	-16.916	-0.250	-0.157
-149.604	-96.786	-0.125	-0.033
-148.589	42.739	-0.110	-0.100
-147.574	130.545	0.222	-0.284
-146.560	800.000	-0.073	-0.223
-145.545	178.797	-0.028	0.040
-144.531	697.283	-0.095	0.248
-143.516	28.106	-0.173	0.145
-142.502	-156.746	-0.112	-0.007
-141.487	-200.000	-0.093	-0.437
-140.472	-97.795	-0.083	0.021
-139.458	-200.000	0.014	0.223
-138.443	-26.394	0.152	0.089
-137.429	800.000	0.064	-0.189
-136.414	32.623	0.174	-0.149
-135.399	49.971	-0.111	-0.104
-134.385	-122.410	0.326	-0.053
-133.370	123.828	-0.195	-0.243
-132.356	-200.000	0.002	-0.155
-131.341	-56.012	0.254	0.112
-130.326	800.000	-0.130	0.380
-129.312	800.000	-0.091	0.303
-128.297	-50.057	0.342	-0.161
-127.283	-58.991	-0.100	-0.043
-126.268	22.664	0.194	-0.158
-125.253	-73.308	-0.080	-0.029
-124.239	-109.925	-0.439	-0.091
-123.224	-200.000	-0.011	0.062
-122.210	365.628	-0.058	-0.117
-121.195	151.987	-0.253	-0.343
