DTS Sentinel unit serial number:	SN413079Multiplexer serial number:	ORYXHardware model number:	OX4-SRSoftware version number:	ORYX F/W v4.00 Oryx Data Collector v3.7.2.0data status	okinstallation	princeton_trtdifferential loss correction	single-endedforward channel	channel 4reverse channel	N/Adate	2019/09/12time	06:59:11forward acquisition time	60.00reverse acquisition time	0.00gamma	496.2192k internal	0.2307k external	0.2307temperature offset calibration	1.0062default loss term (dB/km)	0.3790temperature slope calibration	1.0000multiplexer offset coefficient	1.0000multiplexer slope coefficient	1.0000fibre end	0.00T internal ref (°C)	32.17T ext. ref 1 (°C)	1.62T ext. ref 2 (°C)	27.41length (m)	temperature (°C)	Stokes	anti-Stokes-747.200	201.733	0.103	-0.161
-746.185	-44.202	-0.422	0.215
-745.171	1.464	-0.041	-0.030
-744.156	-200.000	0.061	0.342
-743.142	333.625	0.271	0.533
-742.127	310.456	0.181	0.345
-741.112	-107.818	-0.292	0.065
-740.098	-40.752	-0.257	0.135
-739.083	-36.953	0.324	-0.177
-738.069	-44.766	-0.042	0.021
-737.054	117.010	-0.212	-0.264
-736.039	28.426	-0.251	-0.216
-735.025	3.433	0.333	0.246
-734.010	-166.474	-0.300	0.013
-732.996	-102.607	0.383	-0.093
-731.981	-54.386	-0.263	-0.121
-730.966	3.557	0.248	-0.184
-729.952	-154.443	-0.307	0.021
-728.937	150.181	-0.181	0.250
-727.923	733.159	0.042	-0.113
-726.908	-200.000	-0.016	-0.118
-725.894	-200.000	0.060	-0.391
-724.879	800.000	0.145	-0.493
-723.864	28.491	-0.302	0.260
-722.850	800.000	0.091	0.341
-721.835	-124.247	-0.352	-0.056
-720.821	800.000	0.037	-0.107
-719.806	26.182	-0.139	0.118
-718.791	262.942	-0.064	-0.113
-717.777	226.639	0.111	0.183
-716.762	-62.158	-0.057	0.024
-715.748	-113.673	0.126	0.025
-714.733	-54.907	0.063	-0.029
-713.718	58.024	0.373	0.371
-712.704	-200.000	-0.032	-0.176
-711.689	-91.963	0.237	-0.068
-710.675	-59.655	-0.181	-0.079
-709.660	62.928	-0.163	-0.166
-708.645	-200.000	0.037	-0.212
-707.631	-138.586	0.317	-0.035
-706.616	95.070	0.146	0.169
-705.602	686.222	-0.035	-0.092
-704.587	366.181	0.081	0.165
-703.572	58.931	0.241	-0.241
-702.558	391.154	-0.095	0.200
-701.543	800.000	0.130	0.372
-700.529	301.183	0.153	0.287
-699.514	-200.000	0.063	0.361
-698.499	-71.296	-0.147	-0.056
-697.485	-40.667	-0.113	-0.060
-696.470	-200.000	0.004	-0.159
-695.456	-78.477	0.216	-0.075
-694.441	127.018	0.277	0.357
-693.426	-169.330	-0.199	0.007
-692.412	-130.610	-0.321	0.044
-691.397	-194.844	0.321	0.003
-690.383	-200.000	0.069	-0.323
-689.368	-200.000	0.016	-0.136
-688.354	296.992	0.066	-0.123
-687.339	137.285	-0.214	-0.284
-686.324	59.956	-0.174	0.175
-685.310	88.290	-0.098	0.110
-684.295	-109.206	-0.181	0.039
-683.281	24.209	0.205	-0.172
-682.266	200.359	0.093	0.145
-681.251	-13.083	-0.123	-0.081
-680.237	218.131	0.101	-0.164
-679.222	-110.964	-0.282	0.059
-678.208	-70.168	0.142	-0.055
-677.193	-59.056	0.204	0.089
-676.178	175.224	0.207	-0.304
-675.164	6.609	0.084	-0.063
-674.149	-116.341	-0.262	-0.049
-673.135	299.256	-0.175	-0.327
-672.120	59.355	-0.197	0.197
-671.105	-104.804	-0.097	-0.023
-670.091	177.001	0.199	0.294
-669.076	-200.000	-0.027	-0.127
-668.062	-97.734	-0.403	-0.106
-667.047	800.000	-0.118	-0.343
-666.032	353.963	0.094	-0.189
-665.018	-104.540	-0.233	0.054
-664.003	47.489	-0.252	0.238
-662.989	800.000	0.031	0.101
-661.974	-30.829	0.234	0.134
-660.959	-200.000	-0.007	-0.051
-659.945	293.228	0.080	0.148
-658.930	800.000	0.086	-0.335
-657.916	800.000	0.064	-0.182
-656.901	-200.000	-0.083	0.450
-655.886	147.907	-0.280	-0.382
-654.872	130.668	0.254	-0.331
-653.857	217.171	0.131	-0.212
-652.843	-64.565	-0.134	-0.055
-651.828	-200.000	0.012	-0.207
-650.814	-3.445	-0.337	0.237
-649.799	412.045	-0.032	-0.069
-648.784	-35.885	0.112	-0.062
-647.770	-81.469	0.091	0.030
-646.755	156.124	0.168	0.234
-645.741	148.518	-0.041	-0.056
-644.726	104.518	-0.046	-0.055
-643.711	800.000	0.134	-0.429
-642.697	-144.091	0.450	0.043
-641.682	800.000	-0.048	0.162
-640.668	21.157	-0.098	-0.081
-639.653	579.401	0.137	-0.340
-638.638	800.000	-0.080	0.280
-637.624	196.842	0.092	-0.142
-636.609	15.514	-0.075	-0.060
-635.595	-109.292	0.360	-0.077
-634.580	222.895	0.101	-0.164
-633.565	-200.000	-0.045	-0.339
-632.551	-133.064	-0.340	0.044
-631.536	-162.030	0.373	0.019
-630.522	-200.000	0.037	-0.183
-629.507	800.000	-0.143	-0.411
-628.492	-200.000	0.005	-0.053
-627.478	-59.924	0.170	0.073
-626.463	-146.822	0.161	-0.014
-625.449	167.337	0.199	0.286
-624.434	-115.219	0.220	0.042
-623.419	800.000	-0.097	0.274
-622.405	-200.000	0.028	0.189
-621.390	47.254	-0.076	0.072
-620.376	34.222	-0.161	-0.142
-619.361	55.501	0.146	0.143
-618.346	35.117	-0.213	-0.189
-617.332	552.661	-0.015	-0.036
-616.317	800.000	0.039	0.147
-615.303	229.430	-0.074	-0.122
-614.288	-170.530	-0.147	-0.005
-613.273	36.905	0.194	0.174
-612.259	-133.138	0.089	-0.011
-611.244	-200.000	0.057	0.306
-610.230	-122.079	0.115	-0.019
-609.215	276.524	0.229	0.411
-608.201	-2.502	-0.066	-0.047
-607.186	-200.000	0.005	-0.231
-606.171	104.787	0.097	-0.115
-605.157	-51.732	0.188	0.089
-604.142	-108.092	-0.078	-0.017
-603.128	-85.659	-0.211	-0.066
-602.113	-74.376	0.239	0.087
-601.098	-187.127	-0.141	0.002
-600.084	360.857	-0.094	0.190
-599.069	-143.187	0.190	-0.019
-598.055	-200.000	0.055	-0.243
-597.040	78.767	-0.232	-0.251
-596.025	322.067	0.190	0.365
-595.011	256.650	-0.035	-0.061
-593.996	235.386	0.064	0.106
-592.982	-66.079	-0.233	0.094
-591.967	-11.084	-0.231	0.154
-590.952	713.815	0.060	-0.159
-589.938	34.265	0.238	0.210
-588.923	188.497	0.266	-0.402
-587.909	-200.000	0.036	0.301
-586.894	464.469	0.089	-0.202
-585.879	-139.691	-0.148	-0.016
-584.865	24.148	0.154	0.129
-583.850	-162.763	-0.099	-0.005
-582.836	-200.000	0.009	0.074
-581.821	-94.216	0.123	0.034
-580.806	42.575	-0.082	-0.076
-579.792	-195.652	0.080	-0.001
-578.777	156.938	0.053	-0.074
-577.763	-200.000	0.035	0.186
-576.748	-200.000	0.017	0.231
-575.733	-68.331	-0.438	-0.172
-574.719	176.918	0.055	0.081
-573.704	-200.000	0.032	-0.229
-572.690	227.859	0.024	0.039
-571.675	-88.273	-0.107	-0.032
-570.661	-200.000	-0.030	-0.206
-569.646	-136.376	0.250	-0.029
-568.631	-116.571	-0.124	-0.023
-567.617	800.000	-0.045	0.172
-566.602	-200.000	-0.051	0.259
-565.588	-200.000	-0.000	-0.178
-564.573	800.000	0.030	0.093
-563.558	-200.000	0.047	0.252
-562.544	-200.000	-0.047	-0.326
-561.529	-200.000	0.003	-0.260
-560.515	-200.000	0.021	0.137
-559.500	-3.897	0.193	0.135
-558.485	-200.000	-0.016	0.083
-557.471	159.499	-0.177	-0.249
-556.456	-150.273	0.479	-0.037
-555.442	-4.304	-0.300	-0.210
-554.427	-111.075	0.255	-0.053
-553.412	14.862	0.115	0.091
-552.398	96.888	0.172	-0.199
-551.383	-200.000	0.057	0.358
-550.369	-0.279	-0.286	0.206
-549.354	-200.000	-0.039	-0.484
-548.339	-166.109	-0.236	0.010
-547.325	-200.000	0.011	-0.300
-546.310	288.922	0.120	-0.219
-545.296	-200.000	0.034	0.151
-544.281	565.180	0.169	0.414
-543.266	800.000	0.030	0.093
-542.252	-70.417	0.331	-0.126
-541.237	-50.834	-0.133	-0.063
-540.223	-33.490	-0.058	-0.032
-539.208	800.000	0.084	0.317
-538.193	-74.606	0.105	0.038
-537.179	223.655	0.172	0.279
-536.164	-78.731	-0.259	-0.089
-535.150	-183.819	-0.408	-0.007
-534.135	7.585	0.055	-0.042
-533.121	32.184	0.123	-0.107
-532.106	800.000	-0.137	-0.409
-531.091	132.047	0.257	-0.333
-530.077	800.000	0.023	-0.088
-529.062	47.061	0.153	0.143
-528.048	-107.769	0.162	0.036
-527.033	-8.270	0.327	0.222
-526.018	611.096	-0.114	0.287
-525.004	8.674	-0.289	-0.220
-523.989	28.498	-0.178	0.151
-522.975	-200.000	0.029	0.187
-521.960	-3.278	-0.112	0.079
-520.945	-32.455	0.220	0.124
-519.931	9.707	0.278	0.213
-518.916	37.813	0.115	-0.103
-517.902	-37.403	-0.135	-0.072
-516.887	111.827	0.210	0.256
-515.872	514.593	-0.061	-0.144
-514.858	329.046	-0.106	-0.205
-513.843	-53.140	-0.165	-0.077
-512.829	-34.037	0.337	0.187
-511.814	-4.746	0.161	-0.112
-510.799	41.343	-0.109	0.099
-509.785	-51.000	0.214	0.101
-508.770	-21.663	-0.207	0.127
-507.756	-35.974	-0.148	0.081
-506.741	-200.000	-0.011	-0.117
-505.726	-200.000	0.041	0.217
-504.712	399.507	-0.135	-0.286
-503.697	30.272	-0.205	0.176
-502.683	175.538	-0.179	0.262
-501.668	81.558	0.222	-0.242
-500.653	800.000	0.095	0.375
-499.639	121.907	-0.136	0.171
-498.624	-66.881	-0.138	-0.055
-497.610	395.016	-0.068	0.143
-496.595	321.014	-0.028	-0.053
-495.581	-200.000	-0.001	-0.625
-494.566	655.533	-0.055	0.143
-493.551	22.282	-0.104	0.086
-492.537	176.244	-0.149	0.218
-491.522	-200.000	-0.014	-0.155
-490.508	-77.599	-0.241	0.084
-489.493	-34.638	-0.270	-0.149
-488.478	-200.000	-0.026	-0.534
-487.464	-92.765	-0.376	-0.106
-486.449	-200.000	-0.056	-0.283
-485.435	-200.000	0.060	0.302
-484.420	-164.034	0.499	0.023
-483.405	614.475	0.154	-0.389
-482.391	-200.000	-0.047	-0.241
-481.376	192.958	0.003	-0.005
-480.362	800.000	0.097	-0.271
-479.347	33.283	0.334	-0.291
-478.332	-37.919	-0.254	-0.136
-477.318	-19.838	-0.085	-0.053
-476.303	-200.000	0.016	0.371
-475.289	-23.833	0.293	0.176
-474.274	-128.763	0.207	-0.029
-473.259	-2.915	-0.298	-0.210
-472.245	782.807	-0.116	0.321
-471.230	800.000	0.132	-0.512
-470.216	-74.036	-0.181	-0.066
-469.201	-178.002	0.199	0.005
-468.186	512.165	-0.119	-0.279
-467.172	195.706	-0.066	0.101
-466.157	7.070	0.257	-0.193
-465.143	207.182	-0.060	0.094
-464.128	800.000	-0.077	-0.301
-463.113	-200.000	0.038	0.239
-462.099	169.715	-0.186	0.267
-461.084	62.776	0.046	0.047
-460.070	-54.969	-0.273	-0.124
-459.055	-200.000	0.022	-0.145
-458.040	-129.685	-0.117	-0.016
-457.026	800.000	-0.067	0.207
-456.011	561.499	-0.124	0.302
-454.997	2.590	-0.410	-0.298
-453.982	7.970	0.145	0.110
-452.968	-200.000	0.044	0.247
-451.953	116.377	0.162	0.200
-450.938	364.647	0.075	0.151
-449.924	-46.688	-0.259	0.128
-448.909	-37.635	-0.161	-0.086
-447.895	-187.882	0.329	-0.004
-446.880	-50.745	0.332	0.157
-445.865	362.022	0.122	0.246
-444.851	-93.643	-0.300	0.083
-443.836	-112.095	0.184	0.037
-442.822	800.000	-0.087	-0.264
-441.807	456.949	-0.146	-0.326
-440.792	134.660	-0.204	0.266
-439.778	-200.000	0.001	-0.101
-438.763	710.824	0.043	0.114
-437.749	-200.000	-0.021	0.168
-436.734	-22.292	0.079	0.048
-435.719	-24.417	0.060	0.036
-434.705	-25.240	-0.137	0.081
-433.690	20.078	-0.045	-0.037
-432.676	461.072	-0.009	0.020
-431.661	-81.176	0.171	-0.057
-430.646	-20.239	-0.213	0.132
-429.632	-65.236	0.090	-0.036
-428.617	15.549	-0.292	-0.230
-427.603	-52.035	-0.181	0.085
-426.588	76.498	-0.100	0.107
-425.573	-200.000	0.050	0.245
-424.559	800.000	-0.075	0.313
-423.544	-86.713	-0.216	-0.066
-422.530	283.544	0.166	0.300
-421.515	-151.133	-0.230	0.017
-420.500	-158.396	0.314	0.018
-419.486	134.489	-0.014	0.019
-418.471	-0.794	0.068	0.049
-417.457	-122.662	-0.069	-0.011
-416.442	97.693	0.105	0.121
-415.428	-68.783	-0.115	0.045
-414.413	800.000	0.098	0.277
-413.398	-16.414	0.142	0.091
-412.384	-115.260	-0.294	0.056
-411.369	-132.244	0.328	0.043
-410.355	-200.000	0.024	-0.228
-409.340	152.192	-0.108	-0.149
-408.325	-59.877	0.276	-0.119
-407.311	-10.545	-0.245	0.163
-406.296	-110.662	-0.187	-0.039
-405.282	-91.865	-0.075	0.021
-404.267	-106.943	-0.321	0.071
-403.252	-122.309	-0.219	-0.036
-402.238	-29.215	0.361	0.207
-401.223	-137.799	-0.286	-0.032
-400.209	-24.005	-0.254	-0.152
-399.194	-41.426	0.140	-0.072
-398.179	10.198	-0.152	-0.116
-397.165	-48.898	0.239	-0.115
-396.150	800.000	-0.114	0.316
-395.136	-200.000	0.009	-0.314
-394.121	254.204	0.088	-0.151
-393.106	19.787	-0.178	-0.144
-392.092	-170.844	-0.215	-0.007
-391.077	305.711	-0.058	0.108
-390.063	612.084	-0.151	0.378
-389.048	15.162	0.067	-0.053
-388.033	-200.000	0.006	0.370
-387.019	-163.987	-0.115	0.005
-386.004	-200.000	0.012	-0.164
-384.990	344.180	0.061	0.120
-383.975	-76.141	-0.161	0.057
-382.960	-90.493	0.172	0.050
-381.946	-169.572	0.476	0.017
-380.931	-45.894	0.181	0.090
-379.917	-122.233	0.168	0.028
-378.902	-200.000	-0.050	0.357
-377.888	-200.000	0.318	0.002
-376.873	-117.779	-0.068	-0.012
-375.858	5.413	-0.179	-0.132
-374.844	21.351	-0.153	-0.124
-373.829	-200.000	-0.034	-0.319
-372.815	263.537	0.092	0.161
-371.800	472.992	-0.068	-0.154
-370.785	-25.779	-0.034	0.020
-369.771	-157.651	-0.139	-0.008
-368.756	133.093	0.119	-0.153
-367.742	-59.276	0.283	0.122
-366.727	-20.312	-0.236	-0.145
-365.712	-34.564	-0.194	0.106
-364.698	38.778	0.265	-0.237
-363.683	800.000	-0.060	0.222
-362.669	-17.309	-0.072	0.045
-361.654	390.497	0.131	0.271
-360.639	66.162	-0.124	-0.126
-359.625	800.000	0.058	0.202
-358.610	25.670	0.228	-0.190
-357.596	-40.204	-0.280	0.146
-356.581	-97.031	-0.560	0.147
-355.566	-173.787	0.075	0.002
-354.552	64.213	0.262	-0.265
-353.537	53.119	0.102	-0.098
-352.523	-200.000	0.025	0.121
-351.508	800.000	-0.060	-0.202
-350.493	-200.000	-0.012	0.125
-349.479	-35.672	-0.321	0.175
-348.464	-200.000	-0.024	-0.272
-347.450	-1.375	-0.404	0.286
-346.435	-49.245	-0.334	-0.160
-345.420	-103.792	-0.165	0.039
-344.406	-200.000	-0.054	-0.280
-343.391	-17.726	0.315	-0.198
-342.377	-200.000	-0.046	0.246
-341.362	-200.000	0.042	0.249
-340.348	509.803	0.071	0.166
-339.333	-52.829	0.175	-0.081
-338.318	-200.000	-0.013	-0.070
-337.304	-62.672	-0.250	-0.104
-336.289	-148.465	0.217	-0.018
-335.275	782.305	0.148	0.404
-334.260	53.746	0.227	0.218
-333.245	-92.934	-0.261	-0.073
-332.231	-200.000	0.012	-0.145
-331.216	-19.722	-0.028	0.017
-330.202	47.923	0.197	0.184
-329.187	-94.550	-0.419	-0.114
-328.172	-21.568	0.255	-0.155
-327.158	408.889	-0.090	-0.192
-326.143	800.000	-0.055	-0.157
-325.129	119.440	-0.313	-0.388
-324.114	-200.000	-0.005	-0.157
-323.099	-111.629	0.300	-0.061
-322.085	189.689	-0.081	-0.122
-321.070	97.588	-0.194	0.223
-320.056	304.927	0.124	0.231
-319.041	-200.000	0.039	0.197
-318.026	247.103	-0.118	0.200
-317.012	251.238	-0.010	0.017
-315.997	289.169	0.205	0.372
-314.983	-132.274	0.207	-0.027
-313.968	-93.801	-0.425	-0.117
-312.953	-200.000	0.018	-0.125
-311.939	-152.810	-0.111	0.008
-310.924	369.684	0.059	0.118
-309.910	721.767	0.048	0.127
-308.895	303.407	-0.235	0.435
-307.880	-200.000	0.010	0.070
-306.866	800.000	-0.074	0.318
-305.851	-50.964	-0.343	0.161
-304.837	-133.029	-0.538	-0.068
-303.822	125.616	0.026	-0.032
-302.807	-200.000	0.007	0.239
-301.793	-199.160	-0.165	-0.001
-300.778	-50.119	0.169	0.080
-299.764	-200.000	-0.001	-0.131
-298.749	205.829	-0.108	-0.167
-297.735	-85.950	0.122	0.038
-296.720	-41.976	-0.099	0.050
-295.705	-200.000	-0.058	-0.308
-294.691	-82.136	-0.193	0.063
-293.676	-200.000	0.022	0.254
-292.662	479.905	0.063	-0.143
-291.647	175.992	-0.118	0.172
-290.632	-9.276	-0.325	-0.217
-289.618	520.965	-0.115	0.269
-288.603	162.950	0.189	0.265
-287.589	34.900	-0.064	-0.056
-286.574	-78.616	0.178	0.061
-285.559	12.008	-0.331	-0.254
-284.545	-146.335	-0.304	0.027
-283.530	-86.430	0.323	-0.099
-282.516	-164.236	-0.255	0.012
-281.501	139.824	-0.148	0.195
-280.486	319.932	-0.167	-0.317
-279.472	800.000	-0.055	0.181
-278.457	208.907	0.280	0.437
-277.443	274.317	0.187	0.331
-276.428	-200.000	0.006	0.247
-275.413	179.963	0.128	-0.188
-274.399	126.812	0.022	0.028
-273.384	-90.160	0.243	-0.070
-272.370	88.158	0.028	-0.031
-271.355	-55.938	0.028	0.013
-270.340	-200.000	0.031	-0.151
-269.326	218.813	0.055	0.088
-268.311	-62.946	0.061	0.025
-267.297	52.763	0.026	0.024
-266.282	-80.036	0.274	0.092
-265.267	300.587	-0.132	-0.243
-264.253	48.610	0.129	0.120
-263.238	-116.341	-0.269	-0.050
-262.224	-47.320	-0.137	0.067
-261.209	480.972	0.099	-0.224
-260.195	-200.000	-0.028	-0.267
-259.180	-113.203	0.257	0.050
-258.165	209.112	-0.124	-0.193
-257.151	-48.983	0.173	0.083
-256.136	-200.000	-0.015	0.083
-255.122	-148.562	0.353	-0.029
-254.107	-0.891	0.195	0.137
-253.092	-128.918	0.188	0.026
-252.078	336.580	0.102	-0.198
-251.063	143.041	0.182	0.241
-250.049	234.395	0.039	-0.063
-249.034	-200.000	-0.007	-0.331
-248.019	800.000	0.032	0.118
-247.005	-11.900	-0.175	-0.114
-245.990	-200.000	0.030	-0.201
-244.976	-54.254	0.033	0.015
-243.961	220.194	0.133	-0.212
-242.946	800.000	-0.115	-0.355
-241.932	499.031	-0.080	0.184
-240.917	424.969	-0.161	-0.345
-239.903	169.694	0.116	-0.165
-238.888	-200.000	0.000	-0.004
-237.873	628.786	0.140	0.354
-236.859	-21.296	0.245	0.149
-235.844	590.543	-0.029	0.071
-234.830	50.558	0.151	-0.142
-233.815	-195.515	0.099	-0.001
-232.800	-23.995	-0.104	-0.062
-231.786	147.716	-0.071	-0.095
-230.771	119.624	0.092	-0.114
-229.757	-67.803	-0.199	0.078
-228.742	800.000	0.026	0.084
-227.727	800.000	0.110	-0.406
-226.713	800.000	0.052	0.212
-225.698	353.349	0.133	0.263
-224.684	-200.000	0.002	-0.144
-223.669	-27.622	0.121	-0.070
-222.655	-49.195	0.229	0.109
-221.640	-200.000	-0.053	-0.240
-220.625	108.511	-0.300	-0.357
-219.611	-200.000	-0.024	-0.372
-218.596	-124.676	-0.343	-0.053
-217.582	253.997	-0.063	0.108
-216.567	236.744	-0.110	-0.181
-215.552	-200.000	-0.037	-0.297
-214.538	800.000	-0.028	0.084
-213.523	24.506	0.059	0.049
-212.509	24.498	0.348	0.287
-211.494	-5.752	-0.097	-0.066
-210.479	-32.230	-0.280	-0.155
-209.465	800.000	0.016	-0.055
-208.450	246.750	-0.037	-0.062
-207.436	112.912	0.100	-0.120
-206.421	255.214	0.115	0.197
-205.406	-200.000	0.050	0.322
-204.392	-41.618	0.205	-0.105
-203.377	35.466	-0.192	-0.168
-202.363	-200.000	-0.050	0.342
-201.348	-119.733	0.226	0.039
-200.333	337.330	0.154	-0.298
-199.319	-11.632	-0.274	-0.179
-198.304	-126.084	0.450	-0.067
-197.290	-200.000	0.061	-0.318
-196.275	75.668	0.324	-0.341
-195.260	-200.000	0.024	-0.138
-194.246	-107.461	0.252	0.055
-193.231	-200.000	-0.009	-0.075
-192.217	296.294	-0.054	-0.099
-191.202	0.095	0.192	-0.136
-190.187	-200.000	0.028	0.201
-189.173	73.863	0.150	-0.156
-188.158	-21.783	-0.174	-0.105
-187.144	-87.388	-0.162	0.049
-186.129	-169.759	0.215	0.008
-185.114	-161.096	0.114	0.006
-184.100	119.157	-0.041	0.051
-183.085	-48.904	-0.086	-0.041
-182.071	-106.047	-0.391	-0.087
-181.056	-200.000	0.035	0.169
-180.042	594.715	-0.076	-0.188
-179.027	-21.810	-0.207	-0.125
-178.012	-200.000	-0.020	-0.123
-176.998	181.175	-0.101	-0.148
-175.983	44.047	0.186	0.170
-174.969	23.171	0.390	-0.318
-173.954	800.000	-0.054	0.189
-172.939	800.000	0.103	0.292
-171.925	116.489	0.069	0.084
-170.910	-85.620	0.217	-0.067
-169.896	-163.232	-0.168	0.008
-168.881	-200.000	0.006	0.152
-167.866	-200.000	0.007	0.066
-166.852	51.831	0.185	0.175
-165.837	-200.000	-0.029	-0.268
-164.823	-156.125	0.064	0.004
-163.808	800.000	0.141	0.597
-162.793	-84.973	0.260	0.081
-161.779	-200.000	0.024	-0.244
-160.764	-119.425	0.029	-0.005
-159.750	225.856	-0.062	-0.100
-158.735	-151.609	-0.196	-0.014
-157.720	800.000	-0.046	-0.131
-156.706	132.095	-0.056	0.072
-155.691	22.196	-0.306	0.248
-154.677	58.360	-0.277	-0.270
-153.662	-148.912	-0.322	0.026
-152.647	2.739	0.150	0.108
-151.633	-99.569	-0.264	0.066
-150.618	-66.223	0.034	0.014
-149.604	-114.664	0.164	0.031
-148.589	-200.000	0.043	-0.223
-147.574	178.015	0.059	-0.086
-146.560	-93.050	-0.431	-0.119
-145.545	-122.047	-0.130	0.021
-144.531	-124.730	0.152	0.023
-143.516	9.423	0.139	-0.105
-142.502	54.389	0.192	-0.184
-141.487	243.024	0.216	0.359
-140.472	-121.790	-0.224	-0.037
-139.458	113.337	0.111	0.134
-138.443	438.821	-0.059	0.129
-137.429	-200.000	0.052	-0.547
-136.414	-200.000	0.062	0.304
-135.399	91.308	0.197	0.219
-134.385	87.168	-0.060	0.066
-133.370	150.980	0.237	-0.320
-132.356	-88.964	0.162	-0.048
-131.341	199.981	0.075	-0.114
-130.326	800.000	0.080	-0.225
-129.312	-50.425	-0.267	-0.125
-128.297	30.448	-0.189	-0.160
-127.283	157.693	0.080	-0.111
-126.268	385.277	-0.049	-0.101
-125.253	-200.000	-0.022	-0.292
-124.239	-63.949	0.183	0.074
-123.224	15.947	0.073	-0.057
-122.210	800.000	0.090	-0.268
-121.195	37.628	-0.192	-0.169
