DTS Sentinel unit serial number:	SN413079Multiplexer serial number:	ORYXHardware model number:	OX4-SRSoftware version number:	ORYX F/W v4.00 Oryx Data Collector v3.7.2.0data status	okinstallation	princeton_trtdifferential loss correction	single-endedforward channel	channel 4reverse channel	N/Adate	2019/09/17time	02:01:35forward acquisition time	60.00reverse acquisition time	0.00gamma	496.2192k internal	0.2312k external	0.2312temperature offset calibration	0.9974default loss term (dB/km)	0.3790temperature slope calibration	1.0000multiplexer offset coefficient	1.0000multiplexer slope coefficient	1.0000fibre end	0.00T internal ref (°C)	29.67T ext. ref 1 (°C)	0.11T ext. ref 2 (°C)	24.53length (m)	temperature (°C)	Stokes	anti-Stokes-747.200	-84.933	0.196	-0.062
-746.185	203.083	-0.218	0.342
-745.171	3.101	-0.129	0.096
-744.156	-200.000	-0.094	0.512
-743.142	488.679	0.149	0.344
-742.127	-200.000	-0.028	0.182
-741.112	499.346	0.170	-0.398
-740.098	413.456	0.043	0.092
-739.083	245.316	-0.084	-0.144
-738.069	78.887	-0.383	0.416
-737.054	222.809	0.089	-0.145
-736.039	-68.918	-0.219	-0.086
-735.025	-39.765	0.540	0.286
-734.010	559.695	0.031	0.076
-732.996	800.000	-0.022	0.071
-731.981	249.360	0.151	0.260
-730.966	33.069	0.201	-0.176
-729.952	-111.321	0.004	-0.001
-728.937	800.000	-0.060	-0.187
-727.923	0.192	0.044	0.031
-726.908	-85.613	-0.336	0.106
-725.894	-113.126	-0.122	-0.024
-724.879	-67.724	-0.265	-0.105
-723.864	643.933	0.052	-0.134
-722.850	-0.477	-0.284	0.204
-721.835	-121.215	0.136	0.023
-720.821	-200.000	-0.044	0.272
-719.806	88.357	0.139	-0.156
-718.791	757.961	-0.142	0.389
-717.777	-41.944	-0.358	0.186
-716.762	-88.561	-0.047	0.014
-715.748	-94.513	0.059	-0.016
-714.733	31.846	-0.161	-0.140
-713.718	128.031	0.190	-0.245
-712.704	800.000	0.026	0.074
-711.689	64.937	0.204	0.209
-710.675	-136.862	-0.331	0.039
-709.660	290.706	0.183	-0.337
-708.645	-68.630	-0.070	0.027
-707.631	114.063	0.072	-0.089
-706.616	-75.275	0.322	-0.117
-705.602	-200.000	-0.005	0.079
-704.587	-34.086	0.332	-0.185
-703.572	93.906	-0.319	0.366
-702.558	-12.644	0.244	0.161
-701.543	-200.000	0.002	-0.172
-700.529	-200.000	-0.094	0.000
-699.514	-183.390	-0.237	0.004
-698.499	371.722	0.037	0.076
-697.485	64.248	0.265	0.270
-696.470	157.363	0.128	0.180
-695.456	800.000	0.113	0.348
-694.441	-58.764	0.235	-0.103
-693.426	475.472	-0.143	-0.328
-692.412	800.000	0.099	-0.284
-691.397	-200.000	-0.009	0.199
-690.383	7.045	-0.106	-0.080
-689.368	-181.680	-0.098	-0.002
-688.354	1.432	0.209	-0.152
-687.339	800.000	-0.056	-0.178
-686.324	749.918	-0.043	0.116
-685.310	-84.261	0.043	0.014
-684.295	164.802	-0.194	-0.278
-683.281	-200.000	-0.005	-0.075
-682.266	69.964	0.118	-0.123
-681.251	-111.978	-0.265	0.054
-680.237	-21.029	-0.267	0.165
-679.222	-200.000	0.044	0.330
-678.208	-33.030	0.204	0.114
-677.193	-171.015	-0.181	-0.006
-676.178	66.694	-0.085	-0.087
-675.164	-200.000	0.018	0.089
-674.149	-84.084	-0.368	0.118
-673.135	-200.000	0.017	-0.235
-672.120	-71.500	-0.073	-0.028
-671.105	331.559	-0.080	-0.156
-670.091	155.979	0.075	0.105
-669.076	-75.187	-0.437	0.158
-668.062	686.563	0.064	-0.169
-667.047	67.937	0.184	0.190
-666.032	133.870	-0.152	0.200
-665.018	-117.050	-0.117	-0.022
-664.003	-189.110	-0.189	-0.002
-662.989	586.278	-0.009	-0.022
-661.974	-88.424	0.155	-0.047
-660.959	800.000	-0.110	0.377
-659.945	-32.917	0.021	-0.012
-658.930	-200.000	-0.029	-0.259
-657.916	-97.990	0.181	0.047
-656.901	-68.262	-0.121	-0.048
-655.886	800.000	0.041	-0.128
-654.872	1.921	0.175	0.128
-653.857	635.439	0.019	-0.049
-652.843	-85.105	-0.173	-0.055
-651.828	800.000	-0.082	0.236
-650.814	-200.000	0.000	0.214
-649.799	11.218	0.166	0.129
-648.784	-111.248	0.224	-0.046
-647.770	800.000	0.017	-0.054
-646.755	-20.616	0.059	-0.037
-645.741	194.501	0.219	0.336
-644.726	-59.826	-0.260	0.112
-643.711	-200.000	-0.039	-0.184
-642.697	322.385	0.101	0.195
-641.682	-96.622	0.067	-0.018
-640.668	94.591	0.202	-0.233
-639.653	-1.419	-0.064	-0.046
-638.638	175.972	0.113	-0.166
-637.624	446.651	0.072	-0.160
-636.609	-67.755	0.280	0.111
-635.595	-82.679	0.120	-0.039
-634.580	99.678	-0.181	-0.212
-633.565	-200.000	0.085	-0.398
-632.551	-29.215	-0.443	-0.257
-631.536	774.742	0.059	0.164
-630.522	-41.742	-0.403	-0.209
-629.507	134.380	-0.064	0.083
-628.492	-31.468	-0.109	-0.062
-627.478	800.000	0.027	-0.111
-626.463	800.000	0.065	-0.260
-625.449	-158.804	-0.294	-0.017
-624.434	86.583	0.073	0.081
-623.419	277.630	0.036	-0.065
-622.405	591.037	-0.047	-0.118
-621.390	53.397	0.204	-0.197
-620.376	-1.565	0.248	-0.177
-619.361	-180.366	-0.237	0.005
-618.346	53.462	-0.288	-0.278
-617.332	-200.000	-0.114	-0.001
-616.317	31.069	-0.041	-0.035
-615.303	233.473	0.036	0.059
-614.288	128.956	0.191	-0.246
-613.273	-106.490	0.042	0.009
-612.259	313.044	0.138	-0.261
-611.244	533.936	-0.152	-0.364
-610.230	-200.000	-0.004	0.130
-609.215	-96.912	-0.078	-0.021
-608.201	-142.472	-0.345	-0.034
-607.186	-200.000	0.024	0.132
-606.171	-27.750	-0.114	-0.067
-605.157	800.000	0.049	-0.194
-604.142	-200.000	0.003	-0.109
-603.128	-200.000	0.006	-0.284
-602.113	-200.000	-0.058	0.414
-601.098	-121.415	-0.151	-0.025
-600.084	-138.098	0.218	-0.024
-599.069	-111.120	-0.147	-0.030
-598.055	-85.172	-0.436	0.137
-597.040	60.916	-0.178	-0.178
-596.025	-10.816	0.117	-0.078
-595.011	-88.304	-0.129	-0.039
-593.996	559.064	-0.103	0.250
-592.982	471.818	-0.109	-0.248
-591.967	-200.000	-0.043	-0.388
-590.952	-200.000	0.007	-0.122
-589.938	-200.000	-0.036	-0.180
-588.923	64.266	0.224	-0.228
-587.909	-137.517	0.333	-0.038
-586.894	-200.000	-0.032	-0.177
-585.879	-83.309	0.039	-0.013
-584.865	-63.461	-0.133	-0.055
-583.850	-200.000	0.052	0.320
-582.836	281.108	-0.051	0.093
-581.821	-15.377	-0.227	-0.146
-580.806	-43.162	0.300	0.153
-579.792	-81.158	-0.261	-0.087
-578.777	-200.000	-0.024	0.252
-577.763	-95.409	0.156	0.042
-576.748	-200.000	-0.025	0.199
-575.733	-92.772	0.120	0.034
-574.719	-200.000	-0.009	-0.177
-573.704	-64.501	-0.307	-0.126
-572.690	-45.356	0.258	0.129
-571.675	-101.804	-0.086	-0.021
-570.661	-200.000	-0.019	-0.417
-569.646	800.000	-0.034	0.143
-568.631	-110.823	0.130	0.027
-567.617	41.810	-0.214	-0.195
-566.602	75.387	-0.103	-0.110
-565.588	800.000	-0.046	-0.165
-564.573	-200.000	0.024	0.191
-563.558	-200.000	0.017	-0.258
-562.544	350.902	-0.075	0.149
-561.529	-21.254	0.111	-0.069
-560.515	63.922	-0.118	0.120
-559.500	800.000	0.119	-0.378
-558.485	-11.732	-0.192	-0.127
-557.471	800.000	-0.069	0.198
-556.456	-200.000	0.022	-0.210
-555.442	-200.000	0.003	0.202
-554.427	163.836	-0.156	-0.222
-553.412	-3.921	-0.028	-0.020
-552.398	134.623	0.200	-0.262
-551.383	800.000	0.074	0.230
-550.369	-95.487	-0.383	0.103
-549.354	-69.353	0.150	-0.058
-548.339	13.775	0.150	-0.117
-547.325	379.730	0.033	-0.069
-546.310	15.033	-0.149	-0.117
-545.296	-73.357	-0.058	0.021
-544.281	2.150	-0.216	0.157
-543.266	734.579	0.078	0.211
-542.252	-200.000	-0.023	-0.161
-541.237	-77.104	0.149	0.052
-540.223	-66.733	0.345	0.137
-539.208	98.108	-0.160	-0.186
-538.193	-37.100	-0.069	-0.037
-537.179	800.000	-0.039	0.159
-536.164	113.766	-0.073	0.090
-535.150	19.055	-0.138	0.111
-534.135	-76.808	-0.245	0.086
-533.121	-53.834	-0.104	-0.048
-532.106	44.514	-0.147	0.136
-531.091	22.155	0.097	0.079
-530.077	-21.296	0.175	0.107
-529.062	-105.918	-0.173	-0.039
-528.048	-102.388	-0.326	0.079
-527.033	300.274	0.071	0.132
-526.018	-89.119	0.083	-0.025
-525.004	-68.595	0.241	-0.094
-523.989	-17.880	0.047	0.030
-522.975	-142.730	0.218	-0.021
-521.960	234.832	-0.093	0.154
-520.945	35.856	-0.242	0.214
-519.931	64.506	0.123	0.124
-518.916	-73.754	-0.271	0.099
-517.902	-200.000	-0.036	0.323
-516.887	-59.492	-0.153	0.066
-515.872	68.797	-0.151	-0.156
-514.858	232.150	0.201	0.331
-513.843	-200.000	-0.202	-0.001
-512.829	-54.950	0.337	-0.153
-511.814	-200.000	-0.002	0.195
-510.799	-200.000	0.014	0.202
-509.785	347.691	-0.014	-0.027
-508.770	324.057	-0.165	-0.317
-507.756	-200.000	0.008	-0.212
-506.741	17.079	-0.285	-0.227
-505.726	-12.698	-0.269	-0.176
-504.712	-26.625	0.152	-0.090
-503.697	800.000	-0.052	-0.197
-502.683	30.381	-0.208	-0.178
-501.668	332.811	-0.108	0.210
-500.653	-93.061	-0.104	-0.029
-499.639	106.877	-0.156	0.186
-498.624	63.707	-0.133	-0.134
-497.610	-200.000	-0.037	-0.427
-496.595	-200.000	-0.045	0.473
-495.581	-200.000	0.076	0.343
-494.566	-200.000	0.006	-0.282
-493.551	-121.780	0.371	-0.061
-492.537	23.799	-0.257	0.213
-491.522	-78.615	0.135	0.046
-490.508	65.919	-0.068	0.069
-489.493	420.777	0.079	0.171
-488.478	85.867	-0.131	0.145
-487.464	-68.817	0.359	0.139
-486.449	81.623	0.068	-0.074
-485.435	-200.000	0.018	0.259
-484.420	26.340	0.067	0.056
-483.405	144.081	0.181	-0.243
-482.391	-148.049	-0.152	0.013
-481.376	69.669	-0.039	0.040
-480.362	276.379	0.037	0.065
-479.347	139.925	0.118	0.156
-478.332	-174.844	-0.194	-0.005
-477.318	-71.721	-0.022	-0.008
-476.303	-47.206	-0.117	-0.057
-475.289	-67.907	-0.079	-0.031
-474.274	35.574	-0.321	0.283
-473.259	-200.000	-0.032	0.167
-472.245	-88.953	0.219	0.065
-471.230	159.932	-0.042	0.059
-470.216	167.395	-0.200	-0.285
-469.201	168.376	0.064	0.091
-468.186	-85.431	-0.310	0.097
-467.172	-135.208	0.111	-0.013
-466.157	-200.000	-0.010	0.370
-465.143	-86.429	0.317	0.098
-464.128	423.065	0.204	-0.440
-463.113	-200.000	0.014	-0.235
-462.099	-22.417	0.440	-0.268
-461.084	650.860	-0.099	-0.255
-460.070	98.128	-0.083	0.096
-459.055	213.884	0.173	-0.274
-458.040	114.291	-0.131	0.160
-457.026	-180.007	0.122	0.003
-456.011	381.818	0.210	0.432
-454.997	-200.000	-0.002	0.067
-453.982	-200.000	-0.018	0.188
-452.968	82.659	0.187	-0.204
-451.953	-151.626	0.072	-0.005
-450.938	141.683	-0.076	-0.101
-449.924	75.926	0.161	0.171
-448.909	96.956	0.161	0.185
-447.895	274.301	-0.086	-0.153
-446.880	-200.000	-0.035	-0.167
-445.865	-114.037	0.285	-0.055
-444.851	34.863	-0.151	0.133
-443.836	244.107	0.049	0.083
-442.822	-133.644	0.082	0.010
-441.807	101.202	0.052	-0.061
-440.792	132.088	0.114	0.148
-439.778	-36.619	-0.200	-0.108
-438.763	-174.233	0.257	-0.007
-437.749	27.289	-0.069	0.058
-436.734	-200.000	0.019	-0.293
-435.719	800.000	0.049	0.145
-434.705	-66.989	-0.206	0.081
-433.690	800.000	-0.187	-0.581
-432.676	166.602	0.136	0.193
-431.661	59.674	-0.207	-0.205
-430.646	800.000	0.129	-0.509
-429.632	86.517	-0.147	-0.163
-428.617	354.495	-0.149	0.297
-427.603	-72.875	0.080	-0.030
-426.588	244.981	0.096	-0.161
-425.573	800.000	-0.119	-0.401
-424.559	-21.890	0.483	-0.294
-423.544	709.568	0.078	-0.207
-422.530	37.432	-0.171	0.152
-421.515	85.457	-0.219	0.240
-420.500	-159.315	-0.343	0.019
-419.486	-200.000	0.018	0.293
-418.471	-95.329	0.170	-0.046
-417.457	-157.645	-0.101	-0.006
-416.442	102.932	-0.197	0.231
-415.428	-112.454	0.097	0.019
-414.413	409.574	-0.075	0.159
-413.398	34.520	-0.227	-0.199
-412.384	-179.135	0.229	0.005
-411.369	138.460	-0.116	-0.153
-410.355	-200.000	-0.039	0.182
-409.340	-200.000	-0.013	0.062
-408.325	188.231	-0.078	0.116
-407.311	-80.227	0.318	0.107
-406.296	800.000	0.061	0.241
-405.282	297.034	-0.045	-0.083
-404.267	-200.000	-0.022	0.131
-403.252	800.000	-0.047	0.172
-402.238	115.309	-0.066	0.081
-401.223	-119.748	-0.159	-0.027
-400.209	-163.573	0.155	0.007
-399.194	800.000	-0.045	0.160
-398.179	-100.573	-0.111	-0.027
-397.165	800.000	-0.044	-0.166
-396.150	5.307	-0.152	-0.112
-395.136	476.776	0.033	-0.076
-394.121	-200.000	0.015	0.131
-393.106	-200.000	0.006	-0.124
-392.092	185.272	-0.141	-0.209
-391.077	-81.095	0.355	0.117
-390.063	167.624	-0.017	-0.024
-389.048	159.057	0.135	-0.187
-388.033	-84.974	0.334	-0.105
-387.019	800.000	0.041	0.115
-386.004	19.887	-0.149	0.120
-384.990	523.054	-0.067	0.157
-383.975	-200.000	0.071	0.357
-382.960	-27.890	0.308	0.178
-381.946	-1.151	0.085	-0.060
-380.931	-200.000	0.002	-0.135
-379.917	0.882	0.136	-0.098
-378.902	-17.220	-0.184	0.116
-377.888	-88.400	-0.110	0.033
-376.873	-137.236	0.339	0.039
-375.858	472.401	0.129	-0.290
-374.844	10.724	0.088	0.067
-373.829	261.442	-0.089	0.154
-372.815	-59.138	0.167	-0.072
-371.800	-30.218	0.151	0.086
-370.785	337.914	0.053	-0.104
-369.771	-36.278	-0.041	0.022
-368.756	-139.920	-0.214	0.023
-367.742	487.842	0.146	0.334
-366.727	-19.717	0.120	-0.074
-365.712	-169.631	-0.194	-0.007
-364.698	800.000	0.032	0.094
-363.683	74.492	-0.172	0.181
-362.669	165.974	0.034	-0.048
-361.654	-200.000	-0.030	0.147
-360.639	-25.313	-0.159	-0.094
-359.625	413.240	-0.156	-0.331
-358.610	-71.105	-0.192	0.072
-357.596	-146.773	0.190	0.016
-356.581	-95.406	-0.086	-0.023
-355.566	-78.141	0.142	-0.049
-354.552	800.000	-0.040	0.141
-353.537	-200.000	0.012	0.353
-352.523	-123.486	-0.143	-0.023
-351.508	-130.772	0.147	0.020
-350.493	-200.000	-0.047	-0.215
-349.479	56.731	0.204	0.198
-348.464	44.061	0.226	0.207
-347.450	800.000	-0.040	-0.141
-346.435	-77.342	-0.293	-0.102
-345.420	800.000	0.147	0.577
-344.406	53.354	0.189	0.180
-343.391	293.699	0.022	0.040
-342.377	-138.388	0.104	0.011
-341.362	-200.000	-0.043	-0.269
-340.348	117.141	-0.064	-0.079
-339.333	-200.000	0.017	-0.264
-338.318	-7.714	0.197	-0.133
-337.304	113.503	0.093	0.113
-336.289	-116.258	-0.525	0.097
-335.275	-57.126	0.022	0.010
-334.260	14.209	0.189	-0.147
-333.245	113.287	-0.096	-0.116
-332.231	-25.825	0.256	0.150
-331.216	27.659	0.154	0.129
-330.202	-61.317	0.171	0.072
-329.187	-21.106	-0.165	0.101
-328.172	260.591	-0.053	0.091
-327.158	440.800	0.038	-0.083
-326.143	65.298	-0.067	-0.068
-325.129	-79.954	-0.192	0.064
-324.114	-13.217	0.185	-0.120
-323.099	-200.000	-0.013	-0.131
-322.085	399.652	0.178	-0.371
-321.070	109.485	-0.169	-0.201
-320.056	-84.455	-0.273	-0.086
-319.041	-73.801	-0.182	0.066
-318.026	292.817	0.142	0.258
-317.012	-200.000	0.008	0.035
-315.997	-59.257	0.205	-0.088
-314.983	1.497	-0.299	-0.214
-313.968	-121.408	0.137	-0.023
-312.953	-50.970	-0.103	-0.048
-311.939	66.356	-0.102	-0.104
-310.924	168.930	-0.215	0.306
-309.910	-139.961	-0.218	-0.023
-308.895	162.183	0.312	0.435
-307.880	38.143	-0.121	0.107
-306.866	124.127	-0.099	0.124
-305.851	-120.199	0.109	0.019
-304.837	169.883	0.171	-0.244
-303.822	800.000	-0.111	0.330
-302.807	800.000	-0.041	0.151
-301.793	-200.000	-0.026	-0.294
-300.778	-30.600	-0.220	0.124
-299.764	169.373	-0.147	0.209
-298.749	-18.808	-0.152	-0.095
-297.735	298.720	-0.059	-0.107
-296.720	178.829	-0.096	0.140
-295.705	-141.118	-0.227	0.023
-294.691	-98.054	0.270	0.069
-293.676	462.853	0.131	0.292
-292.662	139.275	-0.192	0.251
-291.647	142.571	0.124	0.164
-290.632	-109.715	-0.194	-0.041
-289.618	592.227	-0.060	-0.148
-288.603	-200.000	0.018	-0.118
-287.589	672.426	-0.036	0.092
-286.574	-20.483	0.084	0.052
-285.559	132.515	0.250	-0.321
-284.545	-200.000	0.015	0.295
-283.530	-188.627	-0.122	0.002
-282.516	-47.256	-0.315	0.153
-281.501	156.962	0.104	-0.143
-280.486	-73.002	0.074	0.027
-279.472	-11.816	-0.171	0.112
-278.457	-195.976	-0.244	0.002
-277.443	-163.073	0.246	-0.012
-276.428	800.000	0.082	-0.257
-275.413	-59.683	-0.130	0.056
-274.399	-39.995	-0.284	0.147
-273.384	-200.000	0.344	-0.001
-272.370	110.841	-0.032	-0.038
-271.355	-90.662	-0.114	0.033
-270.340	800.000	0.064	0.207
-269.326	800.000	-0.054	0.193
-268.311	800.000	0.036	0.148
-267.297	-200.000	0.006	-0.318
-266.282	436.976	0.151	-0.328
-265.267	234.044	0.019	-0.031
-264.253	-49.290	-0.128	0.061
-263.238	502.585	-0.040	0.092
-262.224	800.000	0.056	-0.175
-261.209	800.000	0.073	0.223
-260.195	-200.000	-0.006	-0.231
-259.180	-114.762	0.273	0.052
-258.165	203.710	-0.072	0.111
-257.151	-200.000	0.057	-0.298
-256.136	-157.654	0.384	0.023
-255.122	28.767	0.094	-0.079
-254.107	30.208	0.215	-0.183
-253.092	87.026	0.166	-0.183
-252.078	-14.469	0.170	-0.109
-251.063	219.974	-0.117	-0.187
-250.049	-135.606	-0.259	0.031
-249.034	47.810	0.187	0.173
-248.019	-200.000	-0.005	0.056
-247.005	395.966	0.097	-0.202
-245.990	-122.833	0.094	-0.015
-244.976	800.000	-0.096	0.375
-243.961	18.989	-0.098	0.078
-242.946	103.025	-0.145	-0.169
-241.932	14.595	-0.012	-0.009
-240.917	-200.000	0.035	0.206
-239.903	77.426	0.196	-0.208
-238.888	-106.631	0.172	-0.038
-237.873	800.000	-0.028	0.108
-236.859	35.656	-0.160	-0.139
-235.844	-10.938	0.149	0.098
-234.830	-97.856	-0.069	0.018
-233.815	-144.443	-0.175	0.016
-232.800	7.828	-0.124	-0.093
-231.786	-200.000	0.007	-0.092
-230.771	-96.656	0.119	-0.031
-229.757	128.335	0.172	0.218
-228.742	91.320	0.085	0.095
-227.727	-8.180	0.161	-0.108
-226.713	-62.527	0.432	-0.178
-225.698	800.000	0.024	-0.091
-224.684	105.051	0.107	-0.125
-223.669	8.826	0.209	0.157
-222.655	-200.000	0.195	-0.000
-221.640	100.585	-0.133	-0.154
-220.625	29.265	0.151	-0.127
-219.611	-144.056	-0.364	-0.034
-218.596	304.889	-0.121	-0.224
-217.582	83.842	0.095	-0.103
-216.567	-25.457	0.112	-0.066
-215.552	-86.003	-0.079	0.024
-214.538	-132.617	-0.130	-0.017
-213.523	-200.000	-0.004	-0.043
-212.509	-116.105	-0.239	0.044
-211.494	307.523	0.135	0.250
-210.479	-26.027	0.152	-0.089
-209.465	800.000	-0.085	-0.288
-208.450	-64.732	-0.300	0.121
-207.436	-200.000	0.041	-0.302
-206.421	-94.288	0.298	0.081
-205.406	1.926	0.074	0.053
-204.392	431.016	0.099	0.212
-203.377	44.185	-0.023	0.021
-202.363	72.721	-0.171	-0.178
-201.348	63.570	0.182	0.181
-200.333	70.829	-0.175	0.180
-199.319	-200.000	0.027	0.134
-198.304	271.646	0.137	0.240
-197.290	303.030	-0.065	-0.120
-196.275	-200.000	0.004	0.058
-195.260	137.462	-0.040	-0.051
-194.246	-42.982	-0.051	0.026
-193.231	-52.600	0.301	0.138
-192.217	440.197	-0.109	0.237
-191.202	-2.555	0.091	-0.063
-190.187	81.510	0.131	0.140
-189.173	419.578	-0.031	-0.066
-188.158	-200.000	-0.009	0.234
-187.144	265.914	0.077	0.133
-186.129	205.235	-0.021	-0.033
-185.114	-183.383	-0.278	-0.005
-184.100	349.301	0.058	-0.114
-183.085	-33.873	0.173	0.095
-182.071	56.474	0.256	0.247
-181.056	-71.369	0.104	-0.039
-180.042	-200.000	-0.048	-0.219
-179.027	62.560	-0.057	-0.056
-178.012	255.235	0.129	-0.220
-176.998	35.564	-0.241	-0.210
-175.983	-200.000	0.031	0.354
-174.969	648.660	0.101	0.256
-173.954	264.237	0.114	0.196
-172.939	-200.000	0.015	-0.097
-171.925	800.000	0.109	0.365
-170.910	800.000	-0.096	0.323
-169.896	-66.565	-0.027	-0.011
-168.881	-59.667	0.359	-0.153
-167.866	-109.816	-0.326	0.068
-166.852	-137.251	-0.272	0.031
-165.837	-200.000	-0.005	0.072
-164.823	13.182	0.282	-0.217
-163.808	9.795	0.433	0.325
-162.793	-71.702	0.283	-0.105
-161.779	-123.010	0.283	0.045
-160.764	269.884	-0.070	-0.122
-159.750	59.304	0.249	0.243
-158.735	-119.631	-0.418	0.072
-157.720	-200.000	0.046	0.266
-156.706	39.028	-0.187	0.165
-155.691	87.496	-0.126	0.138
-154.677	165.884	0.222	-0.312
-153.662	2.402	-0.183	-0.131
-152.647	-78.335	-0.347	-0.118
-151.633	-200.000	-0.034	0.230
-150.618	-67.412	-0.268	0.104
-149.604	109.748	-0.052	0.061
-148.589	-88.358	0.242	0.072
-147.574	207.622	-0.056	0.086
-146.560	-115.574	0.042	0.008
-145.545	79.404	0.093	-0.099
-144.531	69.987	0.140	0.143
-143.516	-200.000	0.036	-0.205
-142.502	3.373	0.184	-0.133
-141.487	717.583	-0.091	0.240
-140.472	800.000	-0.026	0.102
-139.458	800.000	0.049	0.196
-138.443	241.690	0.063	-0.104
-137.429	194.233	-0.153	-0.230
-136.414	104.287	0.185	0.215
-135.399	108.637	-0.125	-0.148
-134.385	527.804	0.095	0.222
-133.370	121.306	0.075	-0.093
-132.356	-119.156	0.169	0.029
-131.341	524.587	-0.115	0.267
-130.326	-119.089	0.268	-0.046
-129.312	-200.000	-0.055	0.288
-128.297	-96.721	0.189	0.049
-127.283	459.410	-0.068	-0.150
-126.268	-66.824	-0.289	0.113
-125.253	14.103	0.141	-0.109
-124.239	-200.000	-0.003	-0.129
-123.224	-36.286	-0.426	-0.228
-122.210	-200.000	-0.034	0.161
-121.195	-82.888	0.140	-0.045
-120.180	-200.000	-0.002	0.036
