DTS Sentinel unit serial number:	SN413079Multiplexer serial number:	ORYXHardware model number:	OX4-SRSoftware version number:	ORYX F/W v4.00 Oryx Data Collector v3.7.2.0data status	okinstallation	princeton_trtdifferential loss correction	single-endedforward channel	channel 4reverse channel	N/Adate	2019/09/18time	05:57:35forward acquisition time	60.00reverse acquisition time	0.00gamma	496.2192k internal	0.2333k external	0.2333temperature offset calibration	0.9998default loss term (dB/km)	0.3790temperature slope calibration	1.0000multiplexer offset coefficient	1.0000multiplexer slope coefficient	1.0000fibre end	0.00T internal ref (°C)	23.19T ext. ref 1 (°C)	0.18T ext. ref 2 (°C)	17.60length (m)	temperature (°C)	Stokes	anti-Stokes-747.200	-33.598	-0.035	0.019
-746.185	-200.000	-0.115	0.586
-745.171	11.061	0.151	0.116
-744.156	800.000	-0.084	0.346
-743.142	-178.286	0.423	-0.010
-742.127	77.716	0.154	-0.165
-741.112	-143.358	-0.017	-0.002
-740.098	800.000	0.082	0.265
-739.083	-44.850	0.233	-0.117
-738.069	-200.000	-0.006	0.059
-737.054	800.000	-0.029	-0.086
-736.039	140.231	-0.205	-0.273
-735.025	214.968	0.123	0.197
-734.010	-109.324	-0.206	-0.044
-732.996	-39.188	-0.430	-0.227
-731.981	-148.489	-0.189	-0.016
-730.966	-72.507	-0.159	0.059
-729.952	-169.212	-0.247	0.009
-728.937	73.993	-0.080	-0.085
-727.923	13.794	-0.254	0.198
-726.908	285.245	-0.279	-0.504
-725.894	-148.965	0.146	0.012
-724.879	800.000	-0.030	0.088
-723.864	-106.823	-0.156	-0.035
-722.850	-63.248	-0.242	-0.100
-721.835	173.694	-0.111	0.161
-720.821	-74.209	-0.383	0.139
-719.806	-60.519	-0.179	0.076
-718.791	57.900	-0.406	-0.400
-717.777	800.000	-0.042	-0.158
-716.762	-75.478	-0.124	-0.044
-715.748	54.183	-0.061	-0.059
-714.733	-200.000	-0.001	-0.004
-713.718	503.839	-0.084	0.196
-712.704	26.249	-0.151	0.127
-711.689	27.616	0.237	0.201
-710.675	137.421	0.073	0.096
-709.660	800.000	0.018	0.076
-708.645	136.316	0.037	-0.049
-707.631	239.736	0.124	0.207
-706.616	-200.000	0.047	0.226
-705.602	603.211	-0.019	-0.048
-704.587	94.255	0.121	-0.137
-703.572	204.605	-0.023	-0.036
-702.558	-56.958	0.288	0.128
-701.543	-200.000	0.053	-0.283
-700.529	-131.665	0.381	0.050
-699.514	800.000	0.073	-0.311
-698.499	-34.808	-0.122	-0.067
-697.485	800.000	-0.083	-0.287
-696.470	309.497	0.034	-0.064
-695.456	-57.535	-0.118	-0.052
-694.441	17.032	0.186	-0.148
-693.426	-87.050	-0.151	-0.046
-692.412	-40.952	-0.285	0.148
-691.397	77.670	0.228	-0.243
-690.383	-48.735	-0.197	0.095
-689.368	-15.588	0.123	-0.079
-688.354	-128.637	0.088	0.012
-687.339	-120.728	0.155	0.026
-686.324	-14.842	-0.131	0.084
-685.310	800.000	0.068	-0.223
-684.295	-200.000	-0.004	-0.207
-683.281	72.158	-0.359	-0.375
-682.266	775.895	0.147	-0.404
-681.251	32.085	-0.044	-0.038
-680.237	-200.000	-0.009	-0.066
-679.222	372.734	0.071	-0.145
-678.208	-81.154	0.254	0.084
-677.193	355.182	0.084	0.168
-676.178	-200.000	0.007	-0.389
-675.164	-200.000	-0.004	0.106
-674.149	56.570	-0.201	0.197
-673.135	-84.692	0.176	0.056
-672.120	-107.590	0.128	0.028
-671.105	800.000	-0.024	0.082
-670.091	0.352	-0.025	0.018
-669.076	81.131	0.216	-0.234
-668.062	-121.290	-0.161	-0.027
-667.047	-200.000	0.239	0.001
-666.032	56.211	-0.096	0.093
-665.018	-63.586	-0.241	0.099
-664.003	-155.160	-0.207	-0.014
-662.989	63.421	0.069	0.069
-661.974	93.093	0.044	-0.050
-660.959	-200.000	-0.024	-0.230
-659.945	-60.121	-0.221	0.095
-658.930	375.450	0.015	0.030
-657.916	-145.276	-0.267	-0.024
-656.901	-200.000	-0.033	-0.185
-655.886	131.530	0.247	-0.318
-654.872	-82.381	0.253	0.083
-653.857	800.000	-0.109	0.368
-652.843	347.618	-0.124	-0.245
-651.828	800.000	-0.091	-0.263
-650.814	100.315	-0.038	0.045
-649.799	56.926	-0.226	0.221
-648.784	3.383	-0.086	-0.063
-647.770	-200.000	0.014	-0.127
-646.755	48.645	0.193	-0.182
-645.741	450.926	-0.209	-0.463
-644.726	-112.089	0.117	0.024
-643.711	-156.453	0.052	0.003
-642.697	184.580	0.099	-0.147
-641.682	-68.895	-0.345	-0.133
-640.668	-200.000	0.049	0.260
-639.653	38.336	0.331	-0.295
-638.638	754.496	0.060	-0.163
-637.624	-104.107	-0.049	0.012
-636.609	293.539	-0.102	0.186
-635.595	208.587	0.072	0.113
-634.580	-200.000	-0.013	-0.081
-633.565	-200.000	-0.107	-0.622
-632.551	800.000	0.118	-0.337
-631.536	-99.232	-0.166	0.042
-630.522	174.818	0.078	-0.113
-629.507	68.864	-0.192	-0.198
-628.492	-200.000	0.010	-0.071
-627.478	-100.406	0.142	0.035
-626.463	109.538	0.122	-0.146
-625.449	-200.000	0.035	0.265
-624.434	-101.028	0.072	0.018
-623.419	33.430	-0.196	0.170
-622.405	-200.000	-0.004	-0.210
-621.390	168.572	-0.056	0.079
-620.376	-63.103	-0.442	-0.182
-619.361	800.000	0.097	-0.380
-618.346	475.546	0.073	-0.164
-617.332	103.807	0.055	0.065
-616.317	800.000	0.014	0.051
-615.303	276.438	0.040	-0.070
-614.288	169.457	-0.032	0.046
-613.273	-45.327	-0.438	-0.217
-612.259	-200.000	-0.007	-0.213
-611.244	-28.902	-0.265	-0.152
-610.230	504.451	0.091	0.211
-609.215	-104.372	-0.284	-0.066
-608.201	291.752	-0.192	-0.349
-607.186	-52.871	0.047	0.022
-606.171	-103.925	0.236	0.055
-605.157	-23.809	0.092	-0.055
-604.142	271.123	-0.162	-0.286
-603.128	493.776	0.079	-0.182
-602.113	19.662	0.263	-0.212
-601.098	-200.000	0.021	0.199
-600.084	54.121	-0.194	-0.187
-599.069	-53.198	0.293	-0.135
-598.055	16.214	-0.175	0.138
-597.040	-141.449	-0.108	0.011
-596.025	-174.388	-0.128	0.004
-595.011	-39.132	0.171	0.090
-593.996	800.000	-0.069	-0.294
-592.982	800.000	0.031	-0.099
-591.967	-99.898	-0.072	-0.018
-590.952	-98.478	0.348	0.089
-589.938	-200.000	0.051	0.242
-588.923	-14.271	0.245	-0.158
-587.909	-69.690	-0.082	-0.031
-586.894	-9.379	0.177	-0.118
-585.879	-118.124	-0.369	-0.066
-584.865	-56.403	0.162	0.072
-583.850	196.349	-0.111	-0.169
-582.836	-105.990	0.210	-0.047
-581.821	-200.000	-0.068	-0.303
-580.806	-73.659	-0.111	-0.041
-579.792	-69.742	-0.059	-0.022
-578.777	-2.469	-0.206	-0.144
-577.763	800.000	0.071	-0.266
-576.748	-27.671	0.166	0.096
-575.733	-8.188	-0.094	-0.063
-574.719	-4.227	0.112	0.077
-573.704	-18.993	-0.171	-0.106
-572.690	202.036	0.015	0.024
-571.675	-80.362	0.140	-0.047
-570.661	20.316	0.253	0.204
-569.646	300.867	-0.096	0.176
-568.631	800.000	0.131	0.485
-567.617	-86.128	-0.230	0.071
-566.602	-105.799	-0.206	0.047
-565.588	-126.050	0.261	0.039
-564.573	106.800	0.150	0.178
-563.558	-71.968	-0.157	0.058
-562.544	-98.192	0.110	0.028
-561.529	-113.034	0.238	-0.047
-560.515	130.409	-0.247	-0.315
-559.500	18.993	0.029	0.023
-558.485	-200.000	0.021	-0.210
-557.471	48.417	0.224	-0.209
-556.456	-104.561	-0.129	0.030
-555.442	209.219	-0.087	-0.136
-554.427	176.881	-0.167	-0.243
-553.412	-184.378	-0.453	0.007
-552.398	-200.000	0.011	-0.182
-551.383	-166.271	0.345	-0.015
-550.369	120.688	-0.120	0.149
-549.354	-32.403	-0.205	0.114
-548.339	-200.000	-0.014	-0.100
-547.325	368.776	-0.092	-0.185
-546.310	-140.271	0.110	-0.011
-545.296	403.497	0.035	0.073
-544.281	-116.748	0.167	0.031
-543.266	19.069	-0.236	0.189
-542.252	-7.053	-0.255	-0.173
-541.237	-200.000	0.042	0.275
-540.223	532.410	0.074	0.174
-539.208	-200.000	0.109	0.485
-538.193	-101.692	-0.146	0.035
-537.179	-200.000	-0.022	0.130
-536.164	-200.000	0.001	0.314
-535.150	-98.497	-0.334	0.085
-534.135	800.000	-0.053	0.172
-533.121	800.000	0.018	0.065
-532.106	-75.214	-0.129	0.046
-531.091	-89.674	0.198	-0.058
-530.077	-60.834	-0.120	-0.051
-529.062	154.510	0.213	0.291
-528.048	-200.000	-0.030	0.138
-527.033	118.036	-0.113	0.139
-526.018	454.865	0.167	0.368
-525.004	800.000	-0.037	0.122
-523.989	-61.785	0.302	-0.126
-522.975	13.393	-0.174	0.135
-521.960	-148.801	-0.249	0.020
-520.945	-9.592	0.231	0.154
-519.931	-23.321	0.213	0.127
-518.916	38.003	-0.185	0.164
-517.902	-94.275	0.169	0.046
-516.887	-128.650	-0.298	0.042
-515.872	213.150	0.118	0.186
-514.858	-18.536	-0.094	-0.059
-513.843	-200.000	-0.072	0.602
-512.829	-15.304	-0.191	-0.122
-511.814	-200.000	0.014	-0.073
-510.799	800.000	-0.002	0.008
-509.785	-60.007	0.222	-0.095
-508.770	134.471	-0.285	0.369
-507.756	-41.348	-0.315	0.162
-506.741	84.188	0.269	0.293
-505.726	264.930	0.156	0.271
-504.712	-143.508	-0.281	-0.027
-503.697	-67.646	-0.206	0.080
-502.683	-200.000	0.026	-0.353
-501.668	-93.211	0.403	-0.112
-500.653	-15.978	-0.157	0.099
-499.639	800.000	0.042	0.146
-498.624	800.000	-0.049	0.173
-497.610	-200.000	-0.070	-0.333
-496.595	800.000	-0.093	0.269
-495.581	205.056	0.084	-0.130
-494.566	-200.000	0.004	0.130
-493.551	242.119	0.195	-0.326
-492.537	-171.189	-0.164	-0.006
-491.522	132.030	-0.223	-0.285
-490.508	-57.539	0.254	-0.111
-489.493	94.221	0.084	0.094
-488.478	-200.000	-0.003	-0.167
-487.464	185.545	-0.100	-0.149
-486.449	-125.689	-0.349	0.053
-485.435	-110.205	0.140	-0.029
-484.420	-136.806	0.070	-0.008
-483.405	-200.000	-0.042	0.316
-482.391	484.962	0.097	-0.220
-481.376	524.817	-0.079	-0.186
-480.362	283.787	-0.088	-0.157
-479.347	-37.706	0.264	-0.140
-478.332	-76.363	-0.188	-0.066
-477.318	-141.106	-0.144	0.015
-476.303	84.474	-0.046	-0.050
-475.289	551.168	0.130	-0.310
-474.274	800.000	0.056	-0.205
-473.259	212.875	-0.032	0.050
-472.245	385.526	-0.071	0.146
-471.230	91.264	-0.068	0.076
-470.216	54.892	-0.017	-0.017
-469.201	-11.619	0.256	0.167
-468.186	-119.011	-0.058	-0.010
-467.172	176.035	-0.062	-0.089
-466.157	48.077	0.064	-0.059
-465.143	-91.103	0.207	-0.059
-464.128	800.000	0.023	0.071
-463.113	-136.516	-0.082	0.009
-462.099	800.000	0.059	-0.237
-461.084	800.000	0.067	-0.219
-460.070	156.737	-0.088	-0.121
-459.055	-200.000	0.012	-0.092
-458.040	-2.804	0.308	-0.214
-457.026	-146.545	0.091	-0.008
-456.011	448.535	-0.055	-0.120
-454.997	136.594	0.126	0.164
-453.982	474.417	-0.140	0.313
-452.968	-200.000	0.029	0.330
-451.953	-105.381	0.331	-0.075
-450.938	586.292	-0.084	-0.207
-449.924	146.177	0.272	0.363
-448.909	230.908	0.051	0.084
-447.895	45.949	-0.125	-0.115
-446.880	800.000	-0.058	-0.250
-445.865	800.000	0.050	0.216
-444.851	-68.058	0.277	-0.107
-443.836	-163.825	0.313	-0.015
-442.822	9.717	-0.093	0.070
-441.807	177.007	-0.019	-0.028
-440.792	192.287	0.093	0.140
-439.778	37.411	0.107	0.094
-438.763	800.000	-0.064	0.176
-437.749	-200.000	-0.025	-0.232
-436.734	-32.855	0.081	-0.045
-435.719	87.771	-0.168	-0.185
-434.705	-37.364	-0.291	-0.155
-433.690	109.861	0.043	-0.051
-432.676	-92.808	-0.187	0.052
-431.661	-21.108	0.161	0.098
-430.646	-22.706	0.219	0.131
-429.632	800.000	0.193	0.534
-428.617	-137.837	0.428	0.048
-427.603	149.643	0.143	0.192
-426.588	800.000	-0.068	0.249
-425.573	-44.134	0.128	0.064
-424.559	659.579	0.095	-0.244
-423.544	304.452	-0.058	-0.107
-422.530	101.970	-0.365	-0.423
-421.515	-31.958	-0.095	0.053
-420.500	-3.873	0.041	0.028
-419.486	-200.000	0.019	0.160
-418.471	606.563	0.043	-0.106
-417.457	-62.983	-0.217	0.089
-416.442	751.324	-0.023	-0.062
-415.428	366.775	0.059	0.117
-414.413	-107.647	0.194	-0.042
-413.398	76.831	0.145	0.153
-412.384	45.594	-0.144	-0.132
-411.369	-170.158	0.328	0.012
-410.355	-111.479	0.136	0.028
-409.340	800.000	-0.095	0.318
-408.325	74.689	-0.212	-0.222
-407.311	-94.335	-0.203	0.055
-406.296	800.000	-0.045	-0.158
-405.282	243.599	-0.062	-0.103
-404.267	91.667	-0.188	0.210
-403.252	578.086	0.055	-0.134
-402.238	291.793	0.049	-0.089
-401.223	-105.084	0.614	-0.139
-400.209	-125.261	-0.293	-0.045
-399.194	-139.345	0.175	-0.019
-398.179	491.612	0.146	0.332
-397.165	-49.981	0.147	0.069
-396.150	-130.488	-0.252	0.034
-395.136	217.104	-0.194	0.307
-394.121	-119.891	-0.043	0.007
-393.106	-141.482	0.217	-0.022
-392.092	195.383	0.167	0.252
-391.077	-80.961	-0.183	0.060
-390.063	-39.880	0.356	0.184
-389.048	-130.868	-0.269	0.036
-388.033	800.000	-0.074	0.267
-387.019	49.584	-0.155	0.144
-386.004	103.380	-0.166	-0.193
-384.990	98.111	0.023	-0.026
-383.975	800.000	0.047	-0.202
-382.960	-107.632	-0.243	0.053
-381.946	-200.000	0.020	0.201
-380.931	111.920	0.188	0.225
-379.917	28.171	-0.100	-0.084
-378.902	800.000	0.035	0.133
-377.888	366.375	0.172	-0.343
-376.873	-200.000	-0.020	0.337
-375.858	44.545	0.246	0.224
-374.844	311.033	0.039	0.073
-373.829	800.000	0.062	0.262
-372.815	-136.401	0.167	-0.019
-371.800	-200.000	0.003	-0.119
-370.785	-200.000	-0.140	-0.000
-369.771	216.931	0.019	-0.031
-368.756	74.454	0.162	0.169
-367.742	272.772	0.076	0.133
-366.727	-97.121	0.099	0.026
-365.712	-81.540	-0.198	-0.064
-364.698	-200.000	-0.001	0.117
-363.683	35.588	-0.076	0.067
-362.669	-200.000	-0.027	-0.369
-361.654	800.000	0.135	0.439
-360.639	143.356	-0.080	0.106
-359.625	-172.924	0.199	-0.006
-358.610	-197.407	-0.165	0.001
-357.596	186.350	0.131	0.193
-356.581	15.114	-0.117	0.090
-355.566	-200.000	-0.004	-0.200
-354.552	-57.446	-0.264	-0.115
-353.537	506.898	0.201	0.462
-352.523	3.641	-0.195	0.141
-351.508	-200.000	-0.010	-0.203
-350.493	542.110	-0.100	0.237
-349.479	-83.385	0.118	-0.037
-348.464	-161.995	0.193	-0.010
-347.450	-200.000	-0.043	0.272
-346.435	800.000	0.006	0.019
-345.420	-200.000	0.015	-0.211
-344.406	201.470	-0.025	0.038
-343.391	-80.871	-0.270	0.089
-342.377	101.296	-0.200	-0.231
-341.362	-88.983	0.221	-0.065
-340.348	-90.972	-0.148	0.042
-339.333	-23.421	-0.029	0.017
-338.318	141.817	-0.112	0.147
-337.304	-76.643	-0.106	0.037
-336.289	742.086	-0.045	-0.119
-335.275	-85.289	-0.094	0.029
-334.260	-200.000	0.001	0.192
-333.245	-200.000	-0.019	-0.106
-332.231	-200.000	-0.003	-0.078
-331.216	-19.565	-0.314	-0.193
-330.202	255.480	0.170	-0.288
-329.187	-54.039	0.055	-0.025
-328.172	-37.047	-0.333	0.177
-327.158	22.229	0.199	0.161
-326.143	-161.528	-0.440	0.022
-325.129	24.454	-0.093	0.076
-324.114	34.885	0.222	-0.192
-323.099	35.348	0.060	0.052
-322.085	-200.000	-0.032	0.608
-321.070	80.136	-0.101	-0.107
-320.056	-200.000	0.045	-0.271
-319.041	-128.601	-0.184	-0.026
-318.026	800.000	-0.040	-0.111
-317.012	-137.004	-0.252	-0.029
-315.997	-111.259	-0.395	-0.080
-314.983	-75.267	0.216	0.076
-313.968	-154.082	0.108	0.007
-312.953	-57.362	-0.438	0.190
-311.939	-37.778	0.256	0.134
-310.924	248.726	0.075	0.125
-309.910	-145.172	0.444	0.040
-308.895	800.000	0.063	0.200
-307.880	-200.000	0.326	-0.000
-306.866	-200.000	-0.027	-0.324
-305.851	-23.662	0.219	-0.130
-304.837	-200.000	-0.059	-0.361
-303.822	265.380	-0.076	0.131
-302.807	-36.217	0.164	0.088
-301.793	201.265	0.095	0.145
-300.778	-37.849	-0.167	-0.088
-299.764	-2.792	-0.187	-0.129
-298.749	-72.928	-0.160	0.058
-297.735	-154.823	-0.046	-0.003
-296.720	-200.000	-0.070	0.328
-295.705	198.083	0.038	-0.057
-294.691	103.652	0.436	-0.505
-293.676	-200.000	-0.000	0.003
-292.662	232.784	0.109	0.177
-291.647	-200.000	0.004	-0.044
-290.632	-200.000	-0.017	-0.188
-289.618	188.993	-0.022	-0.032
-288.603	-200.000	0.024	0.271
-287.589	-200.000	-0.002	0.027
-286.574	-131.243	-0.152	0.020
-285.559	-200.000	-0.072	0.379
-284.545	-46.863	0.152	0.074
-283.530	-200.000	-0.009	0.177
-282.516	132.506	0.008	0.011
-281.501	-178.345	0.463	-0.011
-280.486	38.461	0.063	-0.056
-279.472	351.123	0.035	0.068
-278.457	-192.592	0.045	0.000
-277.443	-159.512	0.489	-0.027
-276.428	-200.000	-0.017	-0.110
-275.413	1.432	-0.237	0.168
-274.399	100.606	0.142	-0.163
-273.384	123.427	-0.239	-0.296
-272.370	-139.536	0.095	0.010
-271.355	-155.552	-0.101	-0.006
-270.340	277.061	0.104	0.183
-269.326	-200.000	-0.083	0.381
-268.311	203.561	0.060	-0.092
-267.297	-147.496	0.048	-0.004
-266.282	141.012	-0.162	0.212
-265.267	572.707	0.066	0.158
-264.253	186.256	0.145	-0.213
-263.238	800.000	-0.049	0.180
-262.224	198.828	-0.095	0.144
-261.209	-200.000	-0.005	0.183
-260.195	15.397	0.232	-0.180
-259.180	-127.721	0.258	-0.037
-258.165	-98.008	-0.097	0.025
-257.151	695.239	-0.031	-0.080
-256.136	800.000	0.042	-0.143
-255.122	592.369	-0.091	-0.222
-254.107	221.710	-0.060	-0.095
-253.092	42.955	0.260	-0.234
-252.078	39.088	-0.216	0.191
-251.063	-200.000	0.000	-0.432
-250.049	144.526	-0.091	-0.120
-249.034	-114.454	0.065	0.012
-248.019	315.475	0.058	0.109
-247.005	397.612	0.068	-0.140
-245.990	214.220	0.100	0.156
-244.976	552.001	-0.044	0.104
-243.961	-42.521	-0.194	-0.098
-242.946	-16.377	0.129	-0.081
-241.932	92.050	-0.043	0.048
-240.917	-143.174	-0.234	-0.022
-239.903	-200.000	0.049	-0.349
-238.888	800.000	-0.144	-0.429
-237.873	60.935	0.076	-0.074
-236.859	-43.171	-0.445	-0.222
-235.844	-74.460	0.128	-0.045
-234.830	92.443	-0.207	-0.231
-233.815	800.000	0.148	0.415
-232.800	-200.000	-0.004	-0.050
-231.786	-200.000	-0.102	0.468
-230.771	-200.000	-0.065	-0.296
-229.757	-119.021	-0.144	0.025
-228.742	800.000	-0.072	0.280
-227.727	41.067	0.109	0.097
-226.713	32.502	0.168	0.143
-225.698	-24.243	-0.161	0.095
-224.684	-25.418	-0.191	0.111
-223.669	328.293	0.016	-0.030
-222.655	371.790	0.120	0.240
-221.640	-200.000	-0.034	-0.345
-220.625	230.968	-0.103	-0.166
-219.611	-75.566	-0.254	0.089
-218.596	-104.640	-0.486	0.110
-217.582	-15.908	0.209	0.131
-216.567	-147.500	0.135	0.011
-215.552	-172.164	-0.251	0.008
-214.538	-56.517	-0.124	-0.054
-213.523	303.076	0.229	-0.418
-212.509	761.522	0.144	-0.385
-211.494	1.850	0.203	0.145
-210.479	-134.086	0.063	0.008
-209.465	-133.888	-0.701	0.086
-208.450	-200.000	-0.045	0.253
-207.436	-17.335	-0.336	-0.209
-206.421	-142.190	-0.258	0.025
-205.406	-1.011	0.051	-0.035
-204.392	109.878	0.172	0.204
-203.377	88.839	0.156	0.171
-202.363	800.000	0.061	-0.183
-201.348	800.000	0.018	0.049
-200.333	-27.667	0.228	-0.130
-199.319	800.000	-0.036	0.102
-198.304	-40.965	0.198	-0.101
-197.290	82.597	0.108	0.115
-196.275	176.865	0.174	-0.249
-195.260	177.277	0.135	0.194
-194.246	-103.339	0.327	-0.076
-193.231	-37.963	0.230	0.120
-192.217	306.204	0.169	-0.310
-191.202	800.000	0.069	0.255
-190.187	-161.982	-0.209	0.010
-189.173	800.000	-0.040	-0.114
-188.158	-37.037	0.162	0.086
-187.144	124.320	0.213	0.263
-186.129	-77.269	0.194	0.066
-185.114	30.248	0.094	0.079
-184.100	31.180	-0.152	0.129
-183.085	-85.337	0.242	-0.074
-182.071	-101.771	-0.137	0.033
-181.056	-165.877	-0.296	-0.012
-180.042	-147.196	0.265	0.022
-179.027	-162.948	-0.227	-0.011
-178.012	248.948	0.081	0.134
-176.998	-86.205	0.163	-0.050
-175.983	415.277	-0.071	0.150
-174.969	176.496	-0.238	0.341
-173.954	177.707	0.114	0.164
-172.939	76.801	0.061	-0.063
-171.925	-33.632	0.197	-0.107
-170.910	5.081	0.220	0.159
-169.896	71.228	-0.129	-0.131
-168.881	-53.185	-0.294	-0.133
-167.866	-200.000	-0.096	-0.465
-166.852	-200.000	0.012	-0.222
-165.837	435.759	0.038	-0.081
-164.823	27.592	-0.141	-0.117
-163.808	-14.474	0.231	-0.146
-162.793	50.547	0.193	-0.180
-161.779	61.057	-0.029	-0.028
-160.764	-108.197	-0.391	-0.083
-159.750	65.514	0.034	-0.034
-158.735	-76.768	-0.267	0.092
-157.720	-32.527	0.209	0.114
-156.706	687.543	-0.055	-0.140
-155.691	-62.638	-0.130	-0.053
-154.677	800.000	-0.089	-0.270
-153.662	81.175	0.275	-0.292
-152.647	-55.844	-0.356	-0.156
-151.633	-72.512	0.378	0.137
-150.618	-77.360	-0.122	-0.042
-149.604	93.318	0.160	-0.178
-148.589	173.137	0.147	-0.209
-147.574	800.000	-0.035	-0.151
-146.560	-35.695	-0.277	-0.147
-145.545	-5.166	0.240	0.162
-144.531	679.042	0.101	-0.258
-143.516	-129.591	-0.154	0.021
-142.502	-200.000	-0.002	-0.046
-141.487	800.000	-0.056	0.165
-140.472	800.000	-0.039	-0.122
-139.458	-165.450	0.128	-0.006
-138.443	-112.878	0.130	0.025
-137.429	3.546	0.208	0.149
-136.414	-188.685	-0.040	-0.000
-135.399	27.728	0.292	0.241
-134.385	-200.000	0.043	0.187
-133.370	0.504	0.083	-0.058
-132.356	77.386	0.136	-0.142
-131.341	138.971	-0.034	-0.044
-130.326	800.000	0.039	-0.137
-129.312	-200.000	-0.028	-0.376
-128.297	797.235	0.083	0.226
-127.283	-104.400	-0.200	-0.045
-126.268	-26.941	-0.116	-0.067
-125.253	335.463	0.097	-0.185
-124.239	407.212	-0.033	0.068
-123.224	52.442	0.137	0.129
-122.210	-146.677	-0.033	0.003
-121.195	716.133	0.121	0.315
