DTS Sentinel unit serial number:	SN413079Multiplexer serial number:	ORYXHardware model number:	OX4-SRSoftware version number:	ORYX F/W v4.00 Oryx Data Collector v3.7.2.0data status	okinstallation	princeton_trtdifferential loss correction	single-endedforward channel	channel 4reverse channel	N/Adate	2019/09/16time	17:37:35forward acquisition time	60.00reverse acquisition time	0.00gamma	496.2192k internal	0.2297k external	0.2297temperature offset calibration	0.9943default loss term (dB/km)	0.3790temperature slope calibration	1.0000multiplexer offset coefficient	1.0000multiplexer slope coefficient	1.0000fibre end	0.00T internal ref (°C)	38.28T ext. ref 1 (°C)	15.52T ext. ref 2 (°C)	32.26length (m)	temperature (°C)	Stokes	anti-Stokes-747.200	-49.270	0.329	-0.160
-746.185	46.777	-0.145	0.138
-745.171	82.454	-0.188	-0.208
-744.156	800.000	0.113	0.331
-743.142	203.210	0.041	0.064
-742.127	-200.000	-0.050	0.253
-741.112	-18.442	0.177	-0.113
-740.098	36.982	0.188	0.170
-739.083	27.756	-0.205	0.176
-738.069	-51.715	-0.207	0.098
-737.054	-79.802	-0.081	-0.028
-736.039	-68.005	-0.407	-0.162
-735.025	-101.230	0.303	-0.076
-734.010	-9.993	0.079	-0.053
-732.996	377.910	0.106	-0.221
-731.981	800.000	-0.070	-0.208
-730.966	-200.000	-0.032	-0.160
-729.952	63.899	-0.239	0.245
-728.937	34.101	-0.220	0.195
-727.923	309.779	-0.074	-0.142
-726.908	253.770	0.008	-0.015
-725.894	-47.562	-0.111	-0.055
-724.879	-23.226	0.242	-0.149
-723.864	800.000	0.107	0.424
-722.850	285.811	-0.055	-0.101
-721.835	124.641	-0.097	-0.124
-720.821	-68.590	-0.106	-0.042
-719.806	14.498	-0.046	-0.037
-718.791	4.673	-0.177	0.133
-717.777	-119.845	-0.163	-0.029
-716.762	800.000	0.070	-0.209
-715.748	-200.000	-0.002	0.071
-714.733	-91.922	0.199	0.058
-713.718	28.183	-0.208	-0.179
-712.704	165.475	-0.076	-0.110
-711.689	-131.250	-0.174	-0.024
-710.675	-57.192	0.307	-0.138
-709.660	171.549	0.260	-0.380
-708.645	-51.340	-0.065	0.031
-707.631	-166.545	-0.156	0.007
-706.616	20.068	-0.204	0.168
-705.602	-4.376	0.168	-0.119
-704.587	182.376	-0.123	-0.184
-703.572	800.000	0.077	0.282
-702.558	509.226	-0.344	0.816
-701.543	479.823	0.092	-0.212
-700.529	518.553	-0.059	-0.142
-699.514	455.008	0.062	0.141
-698.499	202.072	-0.045	0.071
-697.485	298.745	0.066	0.124
-696.470	-67.996	0.145	-0.058
-695.456	5.467	-0.219	0.165
-694.441	76.721	0.128	-0.139
-693.426	274.492	0.100	-0.181
-692.412	-200.000	-0.015	-0.078
-691.397	-69.571	-0.285	0.111
-690.383	1.112	-0.130	0.095
-689.368	-200.000	-0.010	-0.097
-688.354	-63.807	0.048	0.020
-687.339	800.000	0.045	0.151
-686.324	222.841	-0.106	0.174
-685.310	-105.615	-0.131	-0.030
-684.295	800.000	0.052	-0.146
-683.281	38.115	-0.254	-0.230
-682.266	-200.000	-0.047	-0.280
-681.251	-140.751	-0.171	-0.018
-680.237	375.832	0.054	0.111
-679.222	-116.326	-0.250	-0.047
-678.208	-200.000	-0.001	0.028
-677.193	-4.169	-0.216	-0.153
-676.178	-67.595	-0.114	-0.045
-675.164	10.370	-0.415	-0.322
-674.149	487.806	-0.125	0.290
-673.135	-74.067	-0.329	0.121
-672.120	-112.190	0.184	0.038
-671.105	-200.000	0.024	-0.157
-670.091	-113.344	0.227	0.045
-669.076	-168.696	0.124	-0.005
-668.062	337.993	-0.103	-0.205
-667.047	267.186	0.056	-0.099
-666.032	-200.000	-0.002	-0.272
-665.018	-78.177	0.143	-0.050
-664.003	-79.884	0.175	-0.060
-662.989	800.000	0.060	-0.177
-661.974	268.552	0.162	0.289
-660.959	-200.000	-0.036	-0.223
-659.945	-184.217	0.331	-0.006
-658.930	-96.708	-0.172	-0.046
-657.916	17.626	0.043	0.034
-656.901	-26.281	0.127	0.076
-655.886	177.301	-0.091	0.135
-654.872	-145.849	-0.410	0.037
-653.857	568.854	-0.064	0.158
-652.843	6.879	-0.052	-0.039
-651.828	-82.405	0.092	0.030
-650.814	14.855	-0.223	-0.178
-649.799	-8.942	-0.159	-0.108
-648.784	-200.000	-0.009	-0.302
-647.770	800.000	-0.060	-0.179
-646.755	-200.000	-0.053	-0.240
-645.741	-19.960	-0.032	-0.020
-644.726	-28.496	0.390	-0.229
-643.711	85.960	-0.083	0.093
-642.697	-83.458	0.348	-0.113
-641.682	112.790	-0.169	-0.208
-640.668	800.000	0.049	0.193
-639.653	356.904	0.061	-0.124
-638.638	800.000	0.092	0.317
-637.624	-200.000	-0.001	0.205
-636.609	-72.673	0.156	-0.058
-635.595	-47.426	0.177	-0.088
-634.580	-59.618	-0.080	-0.035
-633.565	472.389	-0.060	-0.138
-632.551	-162.064	0.327	0.017
-631.536	225.102	0.098	0.161
-630.522	-74.755	-0.266	0.097
-629.507	-200.000	-0.031	0.173
-628.492	711.645	-0.009	0.025
-627.478	-51.956	-0.252	-0.119
-626.463	646.678	-0.166	-0.432
-625.449	-120.057	-0.038	0.007
-624.434	-112.211	0.241	0.049
-623.419	777.839	0.096	-0.267
-622.405	136.682	-0.173	-0.230
-621.390	-127.516	-0.425	-0.063
-620.376	-200.000	-0.019	-0.324
-619.361	465.708	-0.120	0.273
-618.346	48.756	0.060	-0.057
-617.332	-16.132	-0.236	-0.152
-616.317	-57.963	-0.123	0.055
-615.303	453.001	0.071	0.160
-614.288	-95.183	-0.126	0.035
-613.273	-200.000	-0.006	0.134
-612.259	30.188	0.180	0.156
-611.244	800.000	-0.062	0.190
-610.230	800.000	-0.024	0.099
-609.215	237.905	0.049	-0.083
-608.201	-19.166	-0.147	-0.093
-607.186	613.941	0.082	-0.208
-606.171	8.627	-0.207	0.158
-605.157	-112.163	-0.342	-0.070
-604.142	-44.838	-0.205	0.104
-603.128	-59.466	-0.347	0.151
-602.113	-77.762	-0.110	0.039
-601.098	642.383	-0.085	-0.219
-600.084	454.082	-0.084	-0.190
-599.069	-61.038	-0.158	-0.068
-598.055	-200.000	0.000	0.173
-597.040	98.860	-0.157	-0.183
-596.025	173.726	0.145	-0.213
-595.011	-21.147	-0.256	-0.159
-593.996	-74.723	-0.112	-0.041
-592.982	-88.567	0.217	-0.066
-591.967	800.000	0.088	-0.313
-590.952	18.462	-0.056	0.046
-589.938	-162.238	0.084	0.004
-588.923	35.406	-0.127	-0.113
-587.909	157.623	0.265	-0.373
-586.894	25.455	0.032	-0.027
-585.879	210.927	-0.067	-0.106
-584.865	319.534	0.039	0.076
-583.850	54.648	0.132	-0.130
-582.836	227.745	-0.118	-0.196
-581.821	-34.425	0.163	0.090
-580.806	-200.000	0.001	0.107
-579.792	55.783	-0.137	0.134
-578.777	125.652	0.084	-0.108
-577.763	-22.075	-0.106	-0.065
-576.748	-169.893	0.170	-0.006
-575.733	-200.000	0.041	0.291
-574.719	-200.000	0.023	0.113
-573.704	-121.275	0.395	-0.067
-572.690	294.186	0.188	-0.349
-571.675	-67.671	0.070	-0.028
-570.661	-63.617	0.200	0.083
-569.646	521.591	0.071	-0.168
-568.631	50.483	-0.242	-0.232
-567.617	-98.895	0.263	-0.068
-566.602	290.385	-0.160	-0.295
-565.588	-43.413	-0.145	-0.074
-564.573	800.000	0.034	-0.110
-563.558	379.451	-0.114	-0.237
-562.544	-34.049	-0.083	-0.046
-561.529	-64.791	0.025	0.010
-560.515	71.056	0.045	0.047
-559.500	-98.996	0.440	0.113
-558.485	-5.296	0.238	0.166
-557.471	800.000	0.053	-0.170
-556.456	292.228	0.059	-0.109
-555.442	21.316	0.104	-0.086
-554.427	-22.677	0.328	-0.201
-553.412	285.031	-0.087	-0.160
-552.398	-138.075	-0.135	-0.015
-551.383	800.000	0.037	-0.106
-550.369	359.881	-0.019	0.039
-549.354	203.237	-0.136	-0.213
-548.339	-108.191	-0.054	-0.012
-547.325	4.153	-0.124	0.092
-546.310	80.473	0.049	0.054
-545.296	267.540	-0.221	-0.392
-544.281	-200.000	0.011	0.098
-543.266	-64.783	-0.359	-0.148
-542.252	-186.853	0.174	-0.002
-541.237	38.783	0.183	0.165
-540.223	157.740	-0.219	0.307
-539.208	375.299	0.090	0.185
-538.193	93.786	-0.091	0.104
-537.179	800.000	-0.067	-0.266
-536.164	22.360	0.074	-0.061
-535.150	-68.676	-0.051	-0.020
-534.135	800.000	0.042	-0.156
-533.121	-10.299	0.141	0.095
-532.106	618.972	0.127	-0.323
-531.091	15.206	-0.086	0.068
-530.077	-43.628	0.156	0.080
-529.062	-153.632	-0.089	0.006
-528.048	-200.000	-0.018	-0.310
-527.033	-200.000	0.007	0.114
-526.018	-2.872	0.264	0.187
-525.004	-180.522	-0.434	-0.009
-523.989	-44.799	0.114	0.057
-522.975	161.408	0.119	0.168
-521.960	655.110	0.129	-0.335
-520.945	-200.000	-0.038	0.204
-519.931	143.072	-0.181	0.244
-518.916	244.104	-0.217	-0.368
-517.902	-103.393	-0.069	-0.017
-516.887	115.877	0.008	0.011
-515.872	-46.118	-0.343	-0.171
-514.858	-80.610	-0.359	-0.121
-513.843	23.356	-0.158	0.132
-512.829	414.449	0.054	0.116
-511.814	383.027	0.055	0.114
-510.799	36.197	-0.188	0.167
-509.785	594.394	0.167	0.418
-508.770	800.000	-0.053	0.213
-507.756	800.000	0.079	0.230
-506.741	123.097	-0.073	0.092
-505.726	-37.812	0.112	0.060
-504.712	-200.000	-0.009	0.076
-503.697	143.100	0.058	0.079
-502.683	800.000	-0.076	-0.222
-501.668	800.000	-0.015	0.057
-500.653	-200.000	0.076	-0.438
-499.639	42.196	0.354	-0.325
-498.624	49.210	0.217	-0.207
-497.610	-49.664	0.071	-0.034
-496.595	-200.000	0.013	-0.139
-495.581	395.273	-0.080	-0.168
-494.566	-80.396	-0.223	-0.075
-493.551	-91.445	-0.341	0.099
-492.537	-20.046	-0.142	-0.089
-491.522	54.443	-0.250	-0.243
-490.508	92.028	0.048	0.054
-489.493	-60.617	-0.277	0.119
-488.478	-159.320	0.460	0.026
-487.464	-28.445	0.113	-0.066
-486.449	25.135	0.115	0.096
-485.435	69.504	0.149	0.155
-484.420	56.620	-0.201	0.198
-483.405	569.282	-0.152	-0.374
-482.391	800.000	0.124	0.381
-481.376	44.879	0.127	0.119
-480.362	-200.000	-0.005	0.187
-479.347	15.389	0.152	0.121
-478.332	142.578	0.139	0.186
-477.318	-12.042	0.189	-0.125
-476.303	-200.000	-0.052	-0.317
-475.289	-45.814	0.088	-0.044
-474.274	-92.679	-0.299	-0.085
-473.259	800.000	-0.059	0.212
-472.245	-0.018	-0.060	0.043
-471.230	-48.578	-0.137	0.067
-470.216	800.000	0.029	-0.123
-469.201	-7.234	-0.077	0.052
-468.186	-177.511	-0.179	0.004
-467.172	-72.753	-0.198	0.074
-466.157	36.814	0.138	0.123
-465.143	33.018	-0.247	0.216
-464.128	-189.271	0.425	-0.005
-463.113	-132.563	0.199	0.026
-462.099	-200.000	-0.021	0.189
-461.084	-200.000	-0.060	0.325
-460.070	-108.932	0.047	0.010
-459.055	82.494	0.061	-0.067
-458.040	-73.154	-0.319	-0.118
-457.026	118.865	-0.075	-0.093
-456.011	-79.077	0.137	0.047
-454.997	-165.002	0.061	-0.003
-453.982	-200.000	-0.022	-0.109
-452.968	-10.439	-0.528	-0.353
-451.953	298.410	0.103	-0.191
-450.938	23.973	0.264	-0.220
-449.924	-40.957	0.275	0.143
-448.909	-101.987	0.323	0.079
-447.895	292.546	0.175	-0.321
-446.880	-95.870	-0.225	0.061
-445.865	577.709	-0.056	0.138
-444.851	38.455	0.250	0.225
-443.836	119.310	-0.079	0.098
-442.822	-13.505	0.067	0.044
-441.807	-111.110	0.292	-0.060
-440.792	555.202	0.111	-0.269
-439.778	-126.257	0.175	-0.026
-438.763	-111.721	0.139	0.028
-437.749	-91.731	-0.191	-0.055
-436.734	628.511	0.114	0.291
-435.719	209.751	-0.088	0.140
-434.705	124.304	-0.228	-0.290
-433.690	-200.000	-0.002	-0.185
-432.676	-109.364	-0.154	0.033
-431.661	195.053	-0.193	-0.295
-430.646	31.653	0.170	0.148
-429.632	-200.000	-0.020	-0.337
-428.617	-24.615	0.174	-0.104
-427.603	800.000	0.025	0.098
-426.588	-200.000	0.027	0.181
-425.573	202.395	0.122	0.189
-424.559	-21.334	-0.214	-0.132
-423.544	67.383	0.152	-0.157
-422.530	-45.441	-0.185	0.093
-421.515	83.889	-0.045	-0.049
-420.500	800.000	0.114	-0.384
-419.486	-58.320	0.156	0.068
-418.471	175.946	0.119	0.174
-417.457	-59.941	0.076	-0.033
-416.442	-127.570	-0.184	0.027
-415.428	800.000	0.028	-0.089
-414.413	70.190	-0.399	-0.415
-413.398	800.000	0.048	0.138
-412.384	800.000	0.132	-0.385
-411.369	-200.000	-0.062	-0.339
-410.355	-50.668	-0.326	-0.155
-409.340	-151.026	0.161	-0.012
-408.325	323.491	0.099	0.191
-407.311	181.839	0.171	0.254
-406.296	800.000	-0.077	-0.320
-405.282	-160.810	-0.125	0.007
-404.267	-200.000	-0.002	0.036
-403.252	-148.229	0.440	0.037
-402.238	118.937	0.133	0.166
-401.223	-118.425	-0.407	-0.073
-400.209	-200.000	0.006	-0.090
-399.194	-10.718	-0.049	0.033
-398.179	-3.808	-0.202	0.141
-397.165	2.072	-0.216	0.157
-396.150	-16.026	-0.148	-0.095
-395.136	195.276	0.129	0.198
-394.121	351.547	0.193	0.385
-393.106	800.000	-0.041	-0.179
-392.092	18.441	0.261	-0.210
-391.077	161.931	-0.181	0.255
-390.063	-116.006	0.374	-0.070
-389.048	-200.000	-0.039	0.173
-388.033	18.451	0.089	-0.071
-387.019	-200.000	0.003	0.150
-386.004	21.678	0.244	-0.200
-384.990	-200.000	0.016	0.207
-383.975	-200.000	0.039	-0.324
-382.960	-200.000	-0.027	0.136
-381.946	86.350	0.090	-0.100
-380.931	-200.000	-0.016	0.109
-379.917	-179.170	-0.090	-0.002
-378.902	-200.000	-0.016	-0.073
-377.888	10.852	0.108	0.083
-376.873	-200.000	-0.033	0.313
-375.858	25.515	0.076	0.064
-374.844	75.824	0.233	0.248
-373.829	430.831	0.052	-0.112
-372.815	109.011	-0.090	-0.109
-371.800	-111.900	-0.166	0.034
-370.785	-200.000	0.072	-0.358
-369.771	-64.782	0.093	-0.038
-368.756	149.453	0.051	0.070
-367.742	-200.000	0.026	0.216
-366.727	-3.050	-0.173	-0.122
-365.712	-200.000	-0.025	0.174
-364.698	194.248	0.166	0.253
-363.683	-200.000	-0.028	-0.142
-362.669	191.803	0.040	-0.061
-361.654	554.685	0.072	-0.174
-360.639	-102.608	-0.356	0.085
-359.625	-200.000	-0.048	-0.386
-358.610	-200.000	-0.038	-0.182
-357.596	-62.111	-0.337	0.141
-356.581	-200.000	0.000	-0.088
-355.566	-46.720	0.189	-0.093
-354.552	-200.000	-0.033	-0.327
-353.537	-200.000	-0.009	-0.043
-352.523	148.354	-0.115	-0.156
-351.508	63.551	-0.071	0.071
-350.493	-33.362	-0.275	0.153
-349.479	-47.269	0.053	0.026
-348.464	800.000	0.013	0.054
-347.450	-112.325	-0.404	0.081
-346.435	-110.186	0.381	0.080
-345.420	-200.000	0.003	0.238
-344.406	800.000	-0.029	0.104
-343.391	800.000	0.021	-0.069
-342.377	96.660	-0.157	-0.181
-341.362	-200.000	-0.028	0.516
-340.348	104.429	0.213	0.252
-339.333	-159.879	0.168	0.009
-338.318	-200.000	0.019	-0.229
-337.304	742.591	0.066	0.178
-336.289	-63.705	-0.222	-0.092
-335.275	-200.000	-0.005	0.047
-334.260	-200.000	-0.040	0.581
-333.245	-200.000	0.068	0.504
-332.231	-159.608	0.248	-0.014
-331.216	800.000	0.067	-0.224
-330.202	301.885	0.165	0.307
-329.187	-95.159	0.290	0.079
-328.172	280.653	0.167	0.299
-327.158	5.164	-0.196	-0.145
-326.143	-89.688	-0.380	0.112
-325.129	-106.228	0.214	-0.048
-324.114	637.157	-0.142	0.363
-323.099	123.172	0.065	0.082
-322.085	-200.000	0.007	-0.472
-321.070	222.226	0.060	0.096
-320.056	154.039	-0.164	0.226
-319.041	-91.371	-0.292	-0.084
-318.026	154.388	-0.011	-0.015
-317.012	10.287	-0.215	-0.165
-315.997	-200.000	0.002	-0.154
-314.983	-200.000	0.023	0.243
-313.968	504.948	-0.131	0.304
-312.953	-200.000	-0.004	-0.179
-311.939	24.799	-0.205	0.171
-310.924	-200.000	-0.027	0.241
-309.910	615.085	0.007	-0.017
-308.895	-98.364	-0.136	0.035
-307.880	800.000	-0.096	-0.288
-306.866	-200.000	-0.018	0.109
-305.851	800.000	-0.033	0.095
-304.837	139.321	-0.264	0.349
-303.822	78.368	-0.058	-0.062
-302.807	-46.900	0.185	0.091
-301.793	800.000	-0.059	0.180
-300.778	21.378	0.138	0.113
-299.764	121.424	0.174	0.217
-298.749	173.756	-0.123	0.178
-297.735	-200.000	-0.014	0.074
-296.720	7.302	-0.026	-0.019
-295.705	-75.842	0.347	0.123
-294.691	-31.726	0.115	0.065
-293.676	408.222	-0.021	0.044
-292.662	-200.000	-0.008	-0.319
-291.647	-48.700	-0.177	0.085
-290.632	-200.000	0.003	-0.230
-289.618	407.014	-0.119	-0.251
-288.603	434.174	-0.089	-0.194
-287.589	122.258	-0.001	0.001
-286.574	60.967	-0.312	0.311
-285.559	-121.090	0.126	0.021
-284.545	190.250	-0.271	-0.408
-283.530	300.509	-0.160	0.296
-282.516	89.345	0.253	0.283
-281.501	800.000	0.121	0.531
-280.486	-21.604	-0.165	0.101
-279.472	-112.054	-0.437	0.088
-278.457	-50.944	0.023	-0.011
-277.443	-82.050	-0.028	-0.009
-276.428	-137.981	0.153	0.017
-275.413	-53.077	-0.220	0.102
-274.399	184.294	0.070	-0.104
-273.384	256.126	0.018	-0.031
-272.370	535.753	-0.008	-0.019
-271.355	-100.660	0.235	-0.058
-270.340	800.000	0.051	-0.168
-269.326	-155.622	0.283	0.018
-268.311	-200.000	-0.007	0.176
-267.297	-39.945	-0.149	-0.078
-266.282	27.429	0.258	0.218
-265.267	-200.000	0.006	-0.281
-264.253	329.150	-0.078	0.150
-263.238	-53.880	0.318	0.145
-262.224	333.269	-0.186	0.361
-261.209	-200.000	-0.036	0.188
-260.195	3.621	0.188	-0.137
-259.180	-122.412	-0.196	0.032
-258.165	-200.000	-0.014	-0.212
-257.151	-68.273	0.222	-0.086
-256.136	-35.717	0.315	-0.171
-255.122	-88.086	0.104	-0.031
-254.107	800.000	0.077	0.267
-253.092	328.814	-0.074	-0.143
-252.078	-111.357	-0.244	0.050
-251.063	91.146	-0.228	-0.257
-250.049	-64.413	0.377	-0.154
-249.034	-113.060	-0.322	0.064
-248.019	-200.000	-0.057	-0.257
-247.005	-200.000	0.047	-0.442
-245.990	332.096	-0.085	0.165
-244.976	-136.190	0.393	-0.046
-243.961	48.802	0.070	0.066
-242.946	289.700	0.164	-0.298
-241.932	800.000	-0.046	0.201
-240.917	107.059	0.217	-0.259
-239.903	21.522	0.404	0.329
-238.888	-32.451	0.175	0.098
-237.873	-134.331	0.433	-0.053
-236.859	-92.492	0.228	0.064
-235.844	209.769	0.067	0.106
-234.830	589.196	0.062	0.153
-233.815	-70.347	-0.080	0.030
-232.800	570.031	-0.075	0.183
-231.786	-164.341	-0.261	-0.012
-230.771	22.824	0.176	-0.144
-229.757	689.126	0.106	0.278
-228.742	49.099	-0.362	-0.341
-227.727	-75.182	0.153	0.055
-226.713	-109.380	-0.315	-0.067
-225.698	650.521	-0.046	-0.117
-224.684	-112.061	0.222	0.045
-223.669	-43.348	-0.061	0.031
-222.655	800.000	0.164	-0.516
-221.640	169.094	-0.050	0.072
-220.625	4.683	-0.182	-0.134
-219.611	-200.000	-0.505	-0.002
-218.596	51.687	0.084	0.080
-217.582	-147.812	0.271	-0.023
-216.567	-84.292	0.408	-0.129
-215.552	65.887	-0.255	-0.259
-214.538	-200.000	0.035	-0.201
-213.523	195.250	0.079	-0.120
-212.509	461.660	0.027	-0.060
-211.494	-200.000	0.010	0.127
-210.479	197.088	-0.090	0.137
-209.465	223.487	-0.072	-0.115
-208.450	-52.613	-0.055	0.025
-207.436	-152.964	-0.020	-0.001
-206.421	107.706	-0.241	0.287
-205.406	-150.521	0.270	-0.021
-204.392	376.366	0.005	0.011
-203.377	655.261	0.143	-0.366
-202.363	321.653	-0.071	0.135
-201.348	139.945	0.033	0.043
-200.333	800.000	0.064	0.274
-199.319	-38.444	0.082	-0.044
-198.304	-110.091	-0.231	0.048
-197.290	524.229	-0.035	-0.082
-196.275	-200.000	0.056	0.264
-195.260	-99.034	-0.126	-0.032
-194.246	60.850	-0.046	-0.045
-193.231	-123.265	0.208	0.033
-192.217	800.000	-0.057	-0.247
-191.202	800.000	0.104	0.304
-190.187	596.648	-0.110	0.272
-189.173	3.619	-0.320	0.233
-188.158	18.128	0.118	0.094
-187.144	-136.400	-0.433	-0.050
-186.129	51.535	0.145	-0.137
-185.114	57.052	-0.032	0.031
-184.100	-66.725	-0.093	0.037
-183.085	800.000	-0.115	0.344
-182.071	48.393	-0.099	0.093
-181.056	14.482	0.463	0.361
-180.042	-94.641	0.337	-0.092
-179.027	28.943	-0.144	0.122
-178.012	800.000	-0.029	0.093
-176.998	-95.717	0.019	0.005
-175.983	19.855	0.083	-0.067
-174.969	56.188	-0.135	-0.131
-173.954	420.292	0.092	0.197
-172.939	29.924	-0.091	0.078
-171.925	97.530	-0.384	0.440
-170.910	-163.476	-0.290	-0.014
-169.896	-132.803	0.054	0.007
-168.881	-123.511	0.486	-0.077
-167.866	800.000	-0.064	0.194
-166.852	-147.573	-0.271	-0.023
-165.837	203.399	-0.172	0.266
-164.823	-117.787	0.571	-0.102
-163.808	-106.098	-0.239	0.054
-162.793	800.000	0.045	0.186
-161.779	800.000	-0.064	-0.234
-160.764	405.539	0.180	-0.380
-159.750	-187.875	0.238	0.003
-158.735	-71.254	-0.128	0.048
-157.720	-121.406	-0.104	0.017
-156.706	-55.213	0.139	0.063
-155.691	-191.028	-0.188	-0.002
-154.677	36.984	0.177	0.156
-153.662	-41.917	0.198	0.101
-152.647	-125.613	0.104	-0.016
-151.633	325.762	-0.051	0.097
-150.618	114.930	-0.095	0.116
-149.604	105.556	-0.181	-0.214
-148.589	228.876	0.142	-0.232
-147.574	-200.000	-0.191	0.000
-146.560	323.606	-0.096	-0.182
-145.545	-14.792	-0.063	0.040
-144.531	208.128	0.130	0.203
-143.516	-89.082	-0.138	-0.041
-142.502	599.148	-0.034	0.085
-141.487	800.000	0.035	-0.114
-140.472	800.000	-0.061	0.240
-139.458	24.742	-0.172	0.142
-138.443	-84.844	-0.283	-0.089
-137.429	-130.833	-0.286	0.038
-136.414	800.000	-0.024	0.092
-135.399	-27.584	0.184	0.107
-134.385	279.305	0.170	-0.303
-133.370	-74.916	-0.204	-0.073
-132.356	800.000	0.055	-0.172
-131.341	24.722	-0.302	-0.250
-130.326	-200.000	0.040	-0.206
-129.312	-181.100	-0.282	0.006
-128.297	800.000	0.115	0.323
-127.283	599.019	-0.035	-0.087
-126.268	-13.901	-0.232	-0.149
-125.253	267.599	0.126	-0.220
-124.239	-148.812	0.214	-0.017
-123.224	-97.818	0.036	-0.009
-122.210	-200.000	0.009	-0.103
-121.195	261.117	-0.080	0.139
