DTS Sentinel unit serial number:	SN413079Multiplexer serial number:	ORYXHardware model number:	OX4-SRSoftware version number:	ORYX F/W v4.00 Oryx Data Collector v3.7.2.0data status	okinstallation	princeton_trtdifferential loss correction	single-endedforward channel	channel 4reverse channel	N/Adate	2019/09/12time	22:29:35forward acquisition time	60.00reverse acquisition time	0.00gamma	496.2192k internal	0.2315k external	0.2315temperature offset calibration	1.0177default loss term (dB/km)	0.3790temperature slope calibration	1.0000multiplexer offset coefficient	1.0000multiplexer slope coefficient	1.0000fibre end	0.00T internal ref (°C)	29.70T ext. ref 1 (°C)	3.73T ext. ref 2 (°C)	24.29length (m)	temperature (°C)	Stokes	anti-Stokes-747.200	-200.000	-0.026	0.143
-746.185	-35.719	-0.370	0.203
-745.171	800.000	0.019	0.072
-744.156	-34.389	-0.187	0.104
-743.142	800.000	0.025	0.071
-742.127	-4.980	-0.093	0.065
-741.112	20.833	0.312	0.256
-740.098	-102.822	-0.449	0.108
-739.083	-144.833	0.347	-0.032
-738.069	-63.138	-0.341	0.142
-737.054	361.370	0.162	0.330
-736.039	87.309	-0.137	0.154
-735.025	41.969	-0.049	0.045
-734.010	793.674	-0.012	0.033
-732.996	106.085	-0.162	-0.195
-731.981	-111.495	-0.339	0.070
-730.966	800.000	-0.033	-0.107
-729.952	171.520	-0.114	-0.166
-728.937	136.523	-0.228	0.301
-727.923	456.329	-0.113	-0.254
-726.908	0.350	-0.140	0.101
-725.894	-103.865	0.081	-0.019
-724.879	113.129	-0.206	-0.253
-723.864	292.232	0.196	0.362
-722.850	-50.959	-0.132	-0.063
-721.835	-200.000	0.007	-0.180
-720.821	-78.923	0.203	0.070
-719.806	800.000	-0.079	-0.268
-718.791	-32.319	-0.218	0.123
-717.777	13.943	-0.078	-0.061
-716.762	140.393	0.153	-0.205
-715.748	-200.000	-0.007	0.040
-714.733	-184.170	-0.166	0.003
-713.718	317.645	-0.055	-0.105
-712.704	-8.395	0.244	-0.166
-711.689	-78.066	0.075	-0.026
-710.675	7.422	0.200	0.151
-709.660	-40.764	-0.075	0.039
-708.645	-24.949	0.137	-0.082
-707.631	-24.676	-0.186	-0.112
-706.616	167.686	-0.091	0.130
-705.602	-200.000	-0.024	-0.156
-704.587	-200.000	0.053	-0.252
-703.572	-121.257	-0.174	-0.029
-702.558	-57.609	0.034	0.015
-701.543	-103.088	-0.195	0.047
-700.529	800.000	0.025	0.103
-699.514	-85.719	0.273	0.086
-698.499	43.595	0.126	-0.116
-697.485	-200.000	-0.002	-0.101
-696.470	-102.020	-0.123	0.030
-695.456	-88.664	0.308	0.093
-694.441	-110.762	0.046	-0.010
-693.426	800.000	0.090	-0.322
-692.412	-200.000	0.001	0.104
-691.397	-24.544	0.136	0.082
-690.383	-136.444	-0.364	-0.043
-689.368	33.102	-0.256	-0.224
-688.354	723.766	0.021	0.058
-687.339	290.955	0.148	-0.272
-686.324	76.881	0.128	0.137
-685.310	-45.395	0.208	-0.104
-684.295	-42.069	0.201	0.104
-683.281	107.337	-0.009	0.011
-682.266	-200.000	0.001	0.012
-681.251	-200.000	-0.020	0.217
-680.237	762.760	0.133	0.364
-679.222	-176.223	-0.353	-0.009
-678.208	95.323	0.072	0.083
-677.193	800.000	-0.056	-0.201
-676.178	276.242	0.095	0.171
-675.164	-123.312	0.185	0.030
-674.149	-88.446	0.285	-0.086
-673.135	233.241	-0.067	0.111
-672.120	-123.238	0.213	-0.034
-671.105	800.000	0.068	0.286
-670.091	369.047	-0.137	-0.280
-669.076	-62.086	0.408	-0.172
-668.062	-200.000	0.064	0.306
-667.047	49.112	0.287	-0.272
-666.032	83.696	0.053	-0.059
-665.018	-38.808	0.223	-0.119
-664.003	800.000	0.039	-0.133
-662.989	-121.245	-0.252	-0.042
-661.974	-80.125	0.339	-0.115
-660.959	-200.000	0.054	0.316
-659.945	243.699	-0.150	-0.254
-658.930	-26.396	-0.051	0.030
-657.916	46.163	-0.091	0.085
-656.901	-200.000	-0.027	0.198
-655.886	83.723	0.135	-0.149
-654.872	-200.000	0.047	-0.213
-653.857	-47.567	-0.083	0.040
-652.843	-200.000	0.041	0.255
-651.828	-130.998	-0.294	-0.040
-650.814	325.222	0.061	0.117
-649.799	54.197	0.049	-0.048
-648.784	-200.000	0.010	-0.190
-647.770	-200.000	-0.018	-0.457
-646.755	61.468	0.145	-0.146
-645.741	-53.677	-0.009	-0.004
-644.726	-8.942	-0.119	0.080
-643.711	-45.103	0.223	0.112
-642.697	-200.000	0.009	-0.528
-641.682	-200.000	0.052	-0.328
-640.668	23.860	-0.074	0.061
-639.653	248.372	0.138	0.235
-638.638	231.421	0.020	-0.034
-637.624	-84.650	0.061	-0.019
-636.609	-112.175	0.264	0.054
-635.595	6.475	-0.068	-0.051
-634.580	-42.932	-0.124	-0.064
-633.565	51.436	0.064	0.061
-632.551	-73.648	0.358	0.131
-631.536	-128.949	0.262	-0.037
-630.522	301.880	0.123	-0.229
-629.507	-143.214	-0.168	0.016
-628.492	-200.000	0.050	0.251
-627.478	-132.667	-0.109	0.014
-626.463	-60.632	-0.094	0.040
-625.449	-108.392	-0.066	-0.014
-624.434	2.716	0.232	-0.170
-623.419	-200.000	-0.003	0.302
-622.405	-105.207	0.194	0.045
-621.390	-48.024	0.186	-0.091
-620.376	177.016	-0.177	-0.260
-619.361	320.037	-0.095	-0.183
-618.346	-125.715	0.412	-0.063
-617.332	-200.000	-0.012	0.338
-616.317	800.000	0.049	-0.175
-615.303	-200.000	0.004	-0.384
-614.288	322.612	-0.057	-0.109
-613.273	-99.239	0.178	0.045
-612.259	-200.000	-0.061	-0.392
-611.244	-122.326	-0.194	0.032
-610.230	-102.531	0.190	-0.046
-609.215	800.000	-0.029	-0.101
-608.201	-68.116	0.408	-0.160
-607.186	124.941	0.020	-0.025
-606.171	393.016	-0.099	0.208
-605.157	381.952	-0.126	-0.261
-604.142	209.415	0.084	0.132
-603.128	269.724	-0.147	-0.260
-602.113	-24.817	0.163	-0.098
-601.098	800.000	-0.060	-0.247
-600.084	317.058	-0.125	0.238
-599.069	-56.567	-0.127	-0.057
-598.055	11.496	-0.108	0.083
-597.040	800.000	0.073	-0.306
-596.025	24.589	0.106	-0.089
-595.011	800.000	-0.066	0.219
-593.996	-91.708	-0.416	0.119
-592.982	30.991	0.146	0.126
-591.967	800.000	0.010	0.039
-590.952	-103.737	0.065	-0.015
-589.938	181.627	-0.054	-0.080
-588.923	124.361	-0.160	-0.203
-587.909	181.370	0.070	0.103
-586.894	-57.028	-0.402	0.179
-585.879	559.904	-0.103	0.251
-584.865	71.397	0.166	-0.174
-583.850	-109.093	0.053	0.011
-582.836	-89.961	0.233	0.068
-581.821	391.036	-0.112	-0.233
-580.806	800.000	-0.147	-0.445
-579.792	-21.632	-0.215	-0.132
-578.777	-66.414	-0.125	0.050
-577.763	-200.000	-0.014	0.074
-576.748	391.410	-0.092	0.193
-575.733	190.809	-0.323	0.488
-574.719	275.169	-0.015	-0.027
-573.704	-200.000	0.018	0.146
-572.690	157.351	0.258	-0.359
-571.675	67.668	0.119	0.123
-570.661	-0.692	0.319	-0.228
-569.646	800.000	-0.051	0.162
-568.631	-152.236	0.294	-0.021
-567.617	38.919	0.131	0.118
-566.602	373.885	-0.032	0.065
-565.588	-51.227	0.091	0.043
-564.573	365.037	0.050	-0.102
-563.558	24.756	-0.100	-0.083
-562.544	326.463	-0.110	-0.212
-561.529	-3.981	-0.167	-0.117
-560.515	-92.261	-0.140	0.040
-559.500	-200.000	-0.013	0.087
-558.485	240.495	0.160	0.268
-557.471	2.789	-0.142	0.103
-556.456	161.056	-0.188	0.264
-555.442	-53.431	-0.090	0.041
-554.427	-151.803	-0.329	0.024
-553.412	-200.000	-0.182	0.000
-552.398	-200.000	-0.023	-0.329
-551.383	61.828	-0.114	-0.114
-550.369	-180.076	0.054	0.001
-549.354	-128.392	-0.375	-0.054
-548.339	285.506	-0.098	-0.177
-547.325	-94.842	0.171	-0.047
-546.310	-114.428	-0.075	-0.015
-545.296	-200.000	0.032	0.298
-544.281	800.000	-0.098	-0.346
-543.266	97.647	-0.088	0.102
-542.252	-131.142	-0.344	-0.046
-541.237	800.000	0.066	0.255
-540.223	92.527	-0.115	0.130
-539.208	-200.000	-0.006	-0.461
-538.193	-200.000	0.005	-0.137
-537.179	177.377	0.119	0.174
-536.164	-200.000	0.013	-0.070
-535.150	-55.696	0.214	0.096
-534.135	285.485	-0.087	0.158
-533.121	-0.616	0.185	-0.132
-532.106	-97.469	-0.266	0.070
-531.091	-200.000	0.048	0.323
-530.077	-55.535	0.287	0.129
-529.062	800.000	0.047	-0.149
-528.048	-154.352	0.118	0.008
-527.033	22.200	-0.129	-0.106
-526.018	-97.700	0.150	0.039
-525.004	-127.971	-0.465	0.067
-523.989	-1.992	0.214	-0.151
-522.975	184.833	-0.248	-0.369
-521.960	-150.346	-0.427	0.033
-520.945	-21.976	-0.074	0.045
-519.931	-200.000	-0.011	-0.059
-518.916	-83.072	0.270	-0.087
-517.902	-22.881	-0.264	-0.160
-516.887	132.367	-0.127	-0.164
-515.872	-200.000	-0.093	0.617
-514.858	251.265	0.080	0.136
-513.843	116.855	0.059	0.073
-512.829	-34.540	0.308	0.169
-511.814	-34.781	0.174	-0.095
-510.799	-200.000	-0.001	-0.101
-509.785	800.000	0.022	0.094
-508.770	7.400	0.187	0.140
-507.756	21.298	0.288	-0.235
-506.741	-92.485	-0.205	0.058
-505.726	-200.000	0.071	0.349
-504.712	82.795	0.078	0.085
-503.697	800.000	0.021	0.066
-502.683	800.000	0.092	0.402
-501.668	-90.328	0.173	-0.051
-500.653	376.214	0.122	0.250
-499.639	122.295	0.111	-0.140
-498.624	800.000	-0.064	-0.190
-497.610	63.870	-0.052	-0.052
-496.595	-58.583	-0.183	-0.080
-495.581	800.000	0.066	-0.195
-494.566	800.000	0.069	0.214
-493.551	-200.000	0.029	0.312
-492.537	80.903	0.036	0.038
-491.522	20.208	0.199	-0.161
-490.508	-130.537	-0.359	0.049
-489.493	308.642	0.085	0.160
-488.478	800.000	0.130	0.403
-487.464	114.059	0.272	-0.332
-486.449	-124.835	-0.368	-0.057
-485.435	-102.780	-0.176	0.042
-484.420	351.934	0.063	0.125
-483.405	617.758	-0.072	-0.180
-482.391	-161.046	-0.167	0.009
-481.376	-7.572	0.231	-0.157
-480.362	-200.000	0.001	0.101
-479.347	-137.833	-0.171	-0.019
-478.332	366.495	0.036	-0.072
-477.318	93.645	0.082	0.093
-476.303	-126.639	0.234	-0.035
-475.289	734.299	0.011	-0.029
-474.274	-200.000	0.029	-0.189
-473.259	-37.347	-0.222	0.119
-472.245	116.645	-0.309	0.380
-471.230	182.042	-0.182	-0.269
-470.216	-200.000	-0.019	-0.255
-469.201	800.000	-0.022	0.075
-468.186	-57.869	-0.350	-0.153
-467.172	-200.000	-0.026	-0.324
-466.157	133.648	-0.011	-0.014
-465.143	-200.000	-0.002	0.128
-464.128	26.015	-0.149	0.125
-463.113	97.461	-0.058	0.066
-462.099	-200.000	0.023	-0.341
-461.084	146.357	0.028	-0.038
-460.070	-88.734	0.060	0.018
-459.055	-200.000	0.030	-0.257
-458.040	-159.725	-0.046	-0.003
-457.026	28.388	0.182	-0.154
-456.011	-200.000	0.000	0.223
-454.997	800.000	0.062	0.202
-453.982	-32.282	0.266	-0.149
-452.968	108.885	0.075	-0.090
-451.953	-70.188	-0.328	0.125
-450.938	-66.920	0.074	0.029
-449.924	-126.918	-0.224	-0.033
-448.909	452.917	-0.031	-0.068
-447.895	588.795	0.058	-0.144
-446.880	-200.000	0.034	0.175
-445.865	317.071	0.085	0.162
-444.851	310.647	0.116	-0.217
-443.836	-28.101	0.315	0.182
-442.822	-91.365	-0.272	0.078
-441.807	-31.814	-0.035	-0.020
-440.792	-200.000	0.024	0.443
-439.778	-141.971	-0.161	-0.016
-438.763	-200.000	-0.008	-0.323
-437.749	-105.569	-0.059	0.014
-436.734	-200.000	0.015	-0.067
-435.719	50.956	0.126	-0.119
-434.705	-56.433	-0.034	0.015
-433.690	-200.000	-0.038	-0.228
-432.676	-128.488	-0.151	0.021
-431.661	-200.000	-0.005	-0.086
-430.646	-200.000	0.055	0.305
-429.632	-63.749	0.137	-0.056
-428.617	-9.794	-0.178	0.119
-427.603	-105.818	0.296	0.067
-426.588	216.040	-0.156	0.249
-425.573	-200.000	-0.001	-0.166
-424.559	68.739	0.151	-0.155
-423.544	326.203	0.056	-0.106
-422.530	800.000	-0.058	-0.174
-421.515	-109.879	-0.350	-0.073
-420.500	-153.696	0.270	-0.019
-419.486	35.763	0.264	0.232
-418.471	28.179	0.262	-0.221
-417.457	-65.396	0.258	0.104
-416.442	-62.001	-0.035	0.015
-415.428	331.426	-0.132	-0.255
-414.413	173.799	-0.065	0.094
-413.398	164.742	0.335	0.473
-412.384	-121.796	0.247	-0.041
-411.369	-102.843	-0.182	-0.043
-410.355	40.391	0.210	0.189
-409.340	159.029	0.160	0.222
-408.325	261.113	0.078	-0.135
-407.311	-68.706	-0.183	-0.071
-406.296	420.706	0.070	0.150
-405.282	-43.220	0.152	0.077
-404.267	63.294	-0.061	-0.062
-403.252	-6.737	-0.163	0.111
-402.238	-96.665	0.062	-0.016
-401.223	-63.346	-0.087	-0.036
-400.209	-100.707	-0.340	0.084
-399.194	-200.000	0.008	-0.042
-398.179	118.037	-0.072	-0.089
-397.165	166.888	0.151	-0.214
-396.150	457.609	-0.111	-0.247
-395.136	92.333	0.157	0.177
-394.121	-172.456	-0.128	-0.004
-393.106	13.758	-0.108	0.084
-392.092	-82.387	-0.297	0.096
-391.077	14.004	-0.147	-0.114
-390.063	800.000	0.074	-0.229
-389.048	-0.392	0.168	0.119
-388.033	-200.000	0.043	-0.209
-387.019	263.896	-0.058	0.101
-386.004	311.786	-0.026	-0.049
-384.990	-88.590	-0.293	0.087
-383.975	15.459	-0.271	-0.213
-382.960	370.978	-0.106	0.215
-381.946	800.000	-0.048	0.176
-380.931	-194.382	-0.129	-0.001
-379.917	-200.000	0.027	0.226
-378.902	-60.399	0.416	0.177
-377.888	94.379	-0.154	-0.174
-376.873	-53.304	-0.265	0.121
-375.858	-124.073	0.119	0.019
-374.844	800.000	0.042	-0.182
-373.829	800.000	0.160	0.450
-372.815	-200.000	-0.010	0.266
-371.800	66.724	-0.180	0.182
-370.785	-74.191	0.286	0.103
-369.771	176.081	-0.161	-0.234
-368.756	-67.279	0.233	-0.091
-367.742	15.829	-0.038	0.030
-366.727	-6.597	-0.189	0.129
-365.712	-14.149	-0.235	-0.151
-364.698	800.000	-0.035	-0.117
-363.683	30.271	-0.130	0.111
-362.669	-39.847	0.107	-0.056
-361.654	-130.956	0.080	0.011
-360.639	-81.456	0.428	-0.140
-359.625	800.000	0.120	0.452
-358.610	-65.339	0.064	0.026
-357.596	-44.290	0.312	-0.156
-356.581	-173.515	-0.247	0.007
-355.566	15.607	-0.322	0.252
-354.552	800.000	0.107	0.355
-353.537	-107.878	-0.299	0.065
-352.523	-124.919	-0.045	-0.007
-351.508	-62.281	-0.133	-0.055
-350.493	-56.878	-0.151	-0.067
-349.479	-200.000	0.320	-0.001
-348.464	-200.000	-0.001	-0.080
-347.450	-194.227	0.233	0.002
-346.435	-16.089	-0.397	-0.252
-345.420	800.000	-0.049	0.137
-344.406	-35.132	0.224	0.121
-343.391	-37.829	-0.052	-0.027
-342.377	-200.000	-0.011	-0.076
-341.362	-110.722	0.215	0.044
-340.348	252.832	0.114	-0.194
-339.333	39.348	-0.184	0.164
-338.318	-24.610	0.279	-0.165
-337.304	-89.492	-0.065	0.019
-336.289	-200.000	0.001	0.102
-335.275	-87.354	0.256	0.077
-334.260	239.263	-0.017	0.028
-333.245	-82.217	0.212	0.069
-332.231	21.088	0.106	-0.086
-331.216	-172.183	0.129	0.004
-330.202	203.165	0.279	-0.431
-329.187	385.623	-0.111	0.228
-328.172	-136.179	0.365	-0.043
-327.158	-157.525	-0.377	0.023
-326.143	-200.000	0.020	-0.262
-325.129	-135.481	-0.070	0.008
-324.114	-200.000	-0.049	0.231
-323.099	6.994	0.272	-0.202
-322.085	-110.095	0.078	0.016
-321.070	92.811	0.140	0.157
-320.056	311.390	0.059	0.111
-319.041	11.546	-0.351	-0.268
-318.026	-126.967	0.334	0.049
-317.012	-80.771	-0.248	-0.082
-315.997	159.980	0.051	0.071
-314.983	800.000	0.095	0.273
-313.968	329.617	0.031	0.060
-312.953	611.779	0.099	0.247
-311.939	-156.367	-0.136	-0.008
-310.924	198.201	0.212	0.322
-309.910	769.408	-0.040	-0.108
-308.895	800.000	0.087	0.322
-307.880	5.887	-0.233	-0.172
-306.866	204.607	-0.219	-0.338
-305.851	800.000	0.012	0.034
-304.837	460.578	0.049	-0.108
-303.822	-200.000	-0.005	-0.322
-302.807	-200.000	0.003	0.016
-301.793	-141.297	-0.406	0.041
-300.778	-51.233	0.327	0.152
-299.764	-54.786	-0.399	-0.180
-298.749	87.424	0.078	-0.086
-297.735	51.428	0.141	0.133
-296.720	-168.513	-0.305	-0.012
-295.705	-121.249	0.169	-0.028
-294.691	342.115	-0.049	-0.095
-293.676	679.848	0.072	-0.186
-292.662	-45.868	0.202	-0.099
-291.647	85.322	-0.113	-0.123
-290.632	-0.993	0.172	0.121
-289.618	800.000	-0.120	0.432
-288.603	-200.000	-0.012	0.103
-287.589	-200.000	0.006	0.031
-286.574	-32.053	0.125	-0.070
-285.559	-10.608	-0.302	0.199
-284.545	-113.305	0.050	-0.010
-283.530	344.273	-0.079	-0.154
-282.516	394.294	0.053	0.111
-281.501	-52.517	0.069	-0.032
-280.486	194.270	-0.099	0.149
-279.472	-62.711	0.177	0.073
-278.457	-200.000	-0.009	-0.393
-277.443	184.321	-0.129	-0.190
-276.428	800.000	-0.050	-0.190
-275.413	132.779	0.136	0.174
-274.399	-200.000	-0.024	0.254
-273.384	-21.615	-0.158	0.096
-272.370	-18.275	0.171	-0.107
-271.355	-44.407	0.226	-0.113
-270.340	-81.095	-0.297	0.098
-269.326	55.810	0.283	-0.273
-268.311	-36.681	0.105	-0.056
-267.297	-83.302	-0.280	-0.089
-266.282	12.663	0.142	0.109
-265.267	374.064	0.064	0.130
-264.253	800.000	-0.028	0.085
-263.238	-145.861	-0.092	-0.008
-262.224	-200.000	-0.022	-0.132
-261.209	234.634	-0.096	0.158
-260.195	-167.272	0.080	0.003
-259.180	-133.420	0.216	0.027
-258.165	-99.630	-0.259	-0.065
-257.151	-153.808	-0.253	0.017
-256.136	-179.359	-0.144	-0.003
-255.122	-200.000	0.035	0.162
-254.107	-24.875	0.221	-0.131
-253.092	-200.000	0.188	0.000
-252.078	-200.000	-0.022	0.278
-251.063	-51.232	0.031	-0.014
-250.049	-86.988	0.205	-0.062
-249.034	-200.000	0.022	-0.272
-248.019	67.345	-0.075	-0.076
-247.005	42.418	0.019	-0.017
-245.990	-27.789	0.142	-0.082
-244.976	-137.516	-0.324	-0.036
-243.961	-110.543	0.158	0.032
-242.946	-102.791	-0.170	-0.040
-241.932	-179.730	0.299	-0.006
-240.917	-64.526	-0.194	-0.078
-239.903	-129.262	-0.329	-0.045
-238.888	-200.000	-0.059	0.348
-237.873	292.433	0.036	0.065
-236.859	800.000	-0.045	-0.162
-235.844	46.730	-0.055	0.050
-234.830	-200.000	0.034	0.297
-233.815	-12.427	-0.168	-0.109
-232.800	-200.000	0.012	0.247
-231.786	-71.091	0.412	-0.154
-230.771	-32.614	-0.371	0.205
-229.757	-18.735	0.262	0.162
-228.742	188.850	-0.044	-0.066
-227.727	-95.412	0.198	0.053
-226.713	800.000	-0.034	0.104
-225.698	9.947	-0.137	0.103
-224.684	-200.000	-0.057	-0.342
-223.669	-179.198	0.059	0.001
-222.655	389.336	0.158	-0.325
-221.640	800.000	-0.075	-0.214
-220.625	-78.477	0.267	-0.091
-219.611	-57.201	0.020	0.009
-218.596	-84.062	-0.018	-0.006
-217.582	3.406	0.010	-0.007
-216.567	-200.000	0.000	-0.127
-215.552	-153.003	-0.261	0.018
-214.538	-78.807	0.240	0.081
-213.523	-139.141	0.185	0.020
-212.509	-112.117	0.211	-0.042
-211.494	213.550	-0.049	0.078
-210.479	-68.080	0.200	-0.077
-209.465	-144.788	0.381	0.035
-208.450	-87.423	-0.080	-0.024
-207.436	52.732	-0.217	0.205
-206.421	115.852	-0.216	0.262
-205.406	-200.000	0.002	-0.092
-204.392	-200.000	0.019	-0.094
-203.377	800.000	-0.088	-0.273
-202.363	800.000	0.115	-0.350
-201.348	-132.697	-0.175	0.022
-200.333	602.204	-0.103	0.253
-199.319	-55.625	0.097	-0.043
-198.304	-60.263	0.065	0.028
-197.290	3.995	0.125	-0.090
-196.275	56.531	0.249	0.240
-195.260	325.324	-0.072	-0.137
-194.246	-181.951	-0.197	-0.004
-193.231	3.438	-0.097	-0.070
-192.217	-66.477	0.169	0.067
-191.202	-10.252	-0.304	0.200
-190.187	800.000	-0.041	-0.134
-189.173	-130.278	-0.169	-0.023
-188.158	-5.637	0.272	-0.185
-187.144	-200.000	0.020	-0.222
-186.129	-86.280	-0.323	-0.099
-185.114	-4.703	-0.103	-0.071
-184.100	73.632	-0.186	0.194
-183.085	95.801	-0.158	0.179
-182.071	258.598	-0.012	-0.021
-181.056	24.485	0.009	-0.008
-180.042	146.016	0.112	-0.148
-179.027	800.000	-0.089	0.309
-178.012	256.268	-0.050	-0.085
-176.998	-26.675	-0.313	0.182
-175.983	-78.248	-0.191	-0.065
-174.969	-57.544	0.143	0.062
-173.954	125.024	0.116	0.144
-172.939	-200.000	-0.003	0.145
-171.925	26.147	0.073	-0.061
-170.910	-26.083	0.147	0.086
-169.896	-200.000	0.031	-0.375
-168.881	-200.000	0.005	0.319
-167.866	-200.000	0.014	-0.086
-166.852	51.041	-0.196	-0.184
-165.837	403.629	0.183	-0.381
-164.823	-109.454	-0.136	-0.028
-163.808	61.107	-0.195	0.192
-162.793	-129.986	0.159	0.021
-161.779	-198.801	-0.135	0.001
-160.764	-200.000	-0.031	0.202
-159.750	122.595	-0.050	0.062
-158.735	-200.000	0.039	0.201
-157.720	-34.149	0.126	-0.068
-156.706	-85.206	0.018	0.005
-155.691	96.759	-0.104	-0.118
-154.677	-128.607	0.374	-0.052
-153.662	144.618	0.238	0.314
-152.647	-200.000	-0.008	0.762
-151.633	-155.551	-0.270	-0.017
-150.618	-47.017	-0.030	-0.015
-149.604	-200.000	0.072	0.390
-148.589	-16.774	0.158	-0.099
-147.574	265.482	0.042	-0.073
-146.560	-65.051	0.326	0.130
-145.545	-200.000	-0.020	0.203
-144.531	12.650	-0.125	0.095
-143.516	-97.072	0.260	-0.067
-142.502	-151.454	-0.278	0.020
-141.487	-46.974	-0.106	0.051
-140.472	-200.000	0.004	0.030
-139.458	-200.000	0.009	-0.231
-138.443	-138.188	0.100	-0.011
-137.429	-129.288	-0.197	-0.027
-136.414	-39.090	0.163	0.085
-135.399	-76.614	0.268	0.093
-134.385	177.923	-0.048	0.070
-133.370	-200.000	-0.017	0.123
-132.356	140.480	0.035	-0.045
-131.341	-200.000	-0.031	-0.190
-130.326	-4.202	0.181	0.124
-129.312	253.007	0.161	0.272
-128.297	100.648	-0.321	0.369
-127.283	-200.000	-0.035	0.221
-126.268	-13.533	-0.063	-0.040
-125.253	4.473	0.110	0.080
-124.239	-186.297	0.195	0.003
-123.224	-5.504	0.301	0.204
-122.210	-107.225	0.322	-0.070
-121.195	-200.000	0.021	-0.431
