DTS Sentinel unit serial number:	SN413079Multiplexer serial number:	ORYXHardware model number:	OX4-SRSoftware version number:	ORYX F/W v4.00 Oryx Data Collector v3.7.2.0data status	okinstallation	princeton_trtdifferential loss correction	single-endedforward channel	channel 4reverse channel	N/Adate	2019/09/18time	00:29:35forward acquisition time	60.00reverse acquisition time	0.00gamma	496.2192k internal	0.2333k external	0.2333temperature offset calibration	0.9995default loss term (dB/km)	0.3790temperature slope calibration	1.0000multiplexer offset coefficient	1.0000multiplexer slope coefficient	1.0000fibre end	0.00T internal ref (°C)	23.55T ext. ref 1 (°C)	0.17T ext. ref 2 (°C)	17.11length (m)	temperature (°C)	Stokes	anti-Stokes-747.200	-123.921	0.366	0.058
-746.185	-132.228	-0.367	-0.048
-745.171	14.396	0.045	0.035
-744.156	63.271	0.100	0.100
-743.142	-136.757	0.186	0.022
-742.127	660.693	-0.055	0.141
-741.112	800.000	0.026	0.097
-740.098	630.860	0.100	0.254
-739.083	800.000	0.031	-0.103
-738.069	436.979	-0.057	-0.125
-737.054	800.000	-0.019	0.055
-736.039	-65.166	-0.111	0.045
-735.025	-60.531	0.074	-0.032
-734.010	-2.293	-0.281	-0.198
-732.996	-98.945	-0.182	-0.046
-731.981	-17.188	0.078	-0.049
-730.966	239.471	-0.046	0.077
-729.952	800.000	-0.113	0.331
-728.937	800.000	-0.041	0.117
-727.923	-200.000	0.020	-0.429
-726.908	35.235	-0.123	-0.109
-725.894	45.138	-0.163	-0.151
-724.879	192.344	-0.085	-0.128
-723.864	-63.933	-0.258	0.106
-722.850	127.379	0.103	0.131
-721.835	-43.897	0.170	-0.086
-720.821	-200.000	-0.036	-0.164
-719.806	800.000	0.054	0.219
-718.791	-152.892	0.022	0.002
-717.777	-173.687	0.051	-0.002
-716.762	-19.391	-0.105	-0.065
-715.748	369.516	0.066	0.135
-714.733	28.945	0.075	0.064
-713.718	42.683	0.131	0.120
-712.704	107.191	0.106	0.126
-711.689	-1.698	-0.339	-0.240
-710.675	-26.415	0.086	-0.051
-709.660	-200.000	-0.030	-0.205
-708.645	-42.634	-0.272	-0.139
-707.631	-4.589	0.131	0.090
-706.616	-104.324	-0.226	-0.052
-705.602	189.497	0.095	-0.142
-704.587	-84.557	-0.228	-0.072
-703.572	-35.836	0.150	0.082
-702.558	-156.920	0.072	-0.004
-701.543	121.134	-0.112	0.140
-700.529	-131.049	-0.163	-0.022
-699.514	65.140	0.361	-0.366
-698.499	-36.125	-0.319	-0.173
-697.485	129.551	-0.084	-0.108
-696.470	107.972	-0.161	-0.193
-695.456	-135.196	-0.174	-0.021
-694.441	107.804	0.119	-0.142
-693.426	32.603	0.066	-0.057
-692.412	-13.931	-0.256	-0.166
-691.397	237.822	0.076	0.127
-690.383	65.310	-0.208	0.211
-689.368	-86.832	0.121	-0.037
-688.354	-17.962	-0.411	0.259
-687.339	78.697	-0.066	0.070
-686.324	23.158	-0.121	0.099
-685.310	-84.943	0.200	0.063
-684.295	-200.000	0.038	-0.270
-683.281	-100.123	0.550	-0.137
-682.266	204.450	-0.105	0.163
-681.251	-68.537	0.291	-0.113
-680.237	800.000	0.130	0.468
-679.222	-35.227	0.194	0.106
-678.208	-82.227	0.150	-0.049
-677.193	-49.827	-0.256	-0.122
-676.178	-56.954	-0.116	0.052
-675.164	-68.994	-0.266	0.103
-674.149	197.470	-0.042	-0.064
-673.135	-78.272	-0.123	-0.042
-672.120	-200.000	-0.090	0.443
-671.105	779.027	0.129	0.353
-670.091	696.723	-0.029	-0.077
-669.076	-51.164	-0.243	-0.114
-668.062	247.146	-0.122	0.207
-667.047	-2.197	0.137	0.096
-666.032	-18.007	0.310	0.194
-665.018	-75.829	-0.118	-0.042
-664.003	-142.525	0.249	-0.024
-662.989	94.936	-0.042	0.048
-661.974	106.362	0.086	-0.102
-660.959	-200.000	0.233	-0.001
-659.945	-153.634	0.370	0.026
-658.930	-170.099	-0.176	-0.006
-657.916	-4.156	0.258	-0.179
-656.901	71.646	-0.140	-0.146
-655.886	-151.544	-0.553	0.041
-654.872	241.131	0.137	-0.229
-653.857	-48.886	0.138	0.066
-652.843	80.271	-0.058	-0.063
-651.828	-173.232	0.236	-0.007
-650.814	-200.000	0.086	0.437
-649.799	-200.000	0.090	0.475
-648.784	-89.729	-0.271	-0.079
-647.770	800.000	0.018	0.069
-646.755	-68.781	-0.193	-0.075
-645.741	349.397	0.161	0.318
-644.726	14.047	-0.102	-0.079
-643.711	-200.000	0.033	-0.158
-642.697	-41.586	-0.210	0.108
-641.682	-146.143	-0.215	-0.019
-640.668	-200.000	0.040	0.357
-639.653	-200.000	-0.024	-0.287
-638.638	373.630	-0.201	-0.410
-637.624	-26.560	-0.349	0.205
-636.609	438.129	-0.017	0.038
-635.595	28.248	-0.141	-0.119
-634.580	81.364	0.142	0.153
-633.565	800.000	0.028	0.100
-632.551	800.000	0.089	-0.269
-631.536	-7.631	0.071	0.048
-630.522	-99.203	-0.045	-0.011
-629.507	50.765	-0.273	-0.259
-628.492	240.830	0.087	0.145
-627.478	26.524	-0.291	0.244
-626.463	-171.030	0.121	0.004
-625.449	107.847	0.269	-0.321
-624.434	-86.284	-0.168	0.052
-623.419	28.616	-0.236	0.200
-622.405	-8.487	0.122	0.082
-621.390	-33.215	-0.200	0.111
-620.376	582.575	-0.116	-0.284
-619.361	800.000	-0.088	-0.324
-618.346	-8.931	-0.136	-0.091
-617.332	-200.000	0.036	0.163
-616.317	-25.778	0.190	-0.112
-615.303	-156.883	-0.229	-0.014
-614.288	-72.683	-0.167	0.062
-613.273	-119.985	-0.178	0.031
-612.259	-86.457	0.082	0.025
-611.244	190.379	-0.228	0.342
-610.230	-69.505	0.201	-0.077
-609.215	565.883	-0.077	-0.187
-608.201	-200.000	0.018	-0.093
-607.186	-4.624	-0.160	-0.110
-606.171	-200.000	-0.037	0.218
-605.157	-9.005	-0.097	-0.065
-604.142	157.946	0.116	-0.161
-603.128	728.190	-0.107	-0.287
-602.113	-65.169	0.295	-0.119
-601.098	-111.039	-0.250	0.051
-600.084	655.708	-0.071	-0.183
-599.069	-141.592	0.074	0.007
-598.055	-23.402	-0.229	0.138
-597.040	49.789	-0.226	-0.213
-596.025	-93.275	0.156	-0.043
-595.011	-162.543	0.218	0.011
-593.996	-200.000	-0.012	-0.133
-592.982	-16.526	0.020	-0.013
-591.967	-172.752	0.111	-0.003
-590.952	313.178	-0.135	0.253
-589.938	-152.931	0.109	0.008
-588.923	-200.000	-0.029	-0.136
-587.909	800.000	0.071	-0.220
-586.894	-168.633	0.103	0.004
-585.879	243.882	-0.197	0.331
-584.865	-178.281	-0.186	0.004
-583.850	-200.000	0.059	-0.428
-582.836	800.000	0.036	-0.100
-581.821	-104.127	-0.229	0.053
-580.806	-173.567	0.132	-0.004
-579.792	-200.000	-0.035	0.197
-578.777	-16.109	-0.229	0.145
-577.763	-200.000	-0.041	-0.183
-576.748	-173.493	0.250	-0.008
-575.733	800.000	-0.052	0.225
-574.719	324.784	-0.099	-0.188
-573.704	411.997	0.167	0.353
-572.690	267.832	0.090	-0.157
-571.675	159.761	-0.136	-0.189
-570.661	-72.750	-0.227	0.083
-569.646	-27.587	-0.197	0.115
-568.631	-26.571	0.253	-0.148
-567.617	104.521	-0.122	0.143
-566.602	-200.000	-0.013	0.337
-565.588	218.017	0.100	0.159
-564.573	300.000	0.093	0.172
-563.558	-200.000	0.037	-0.165
-562.544	-142.582	-0.444	0.043
-561.529	-14.232	0.315	0.203
-560.515	-76.968	-0.279	0.097
-559.500	41.781	0.264	-0.239
-558.485	800.000	-0.089	0.381
-557.471	-9.228	0.372	-0.248
-556.456	320.425	-0.112	-0.212
-555.442	41.681	-0.067	-0.061
-554.427	-45.066	-0.218	-0.108
-553.412	283.888	-0.109	-0.196
-552.398	-36.051	0.070	-0.038
-551.383	-14.596	0.275	0.176
-550.369	-200.000	-0.031	-0.253
-549.354	-66.728	0.225	-0.089
-548.339	-52.748	0.172	0.079
-547.325	800.000	-0.082	-0.234
-546.310	12.800	-0.176	0.136
-545.296	-57.934	0.090	0.039
-544.281	-14.975	-0.254	0.163
-543.266	113.149	-0.013	-0.015
-542.252	-64.641	0.480	-0.194
-541.237	-200.000	0.020	0.129
-540.223	-44.005	0.263	0.132
-539.208	35.108	0.215	0.188
-538.193	-50.447	0.113	0.053
-537.179	800.000	-0.103	0.323
-536.164	-62.122	0.189	-0.079
-535.150	84.164	0.132	-0.144
-534.135	-164.083	0.089	-0.004
-533.121	-147.454	-0.177	-0.015
-532.106	-34.417	-0.202	-0.110
-531.091	326.663	0.070	0.133
-530.077	42.828	-0.104	-0.094
-529.062	-200.000	-0.027	0.143
-528.048	-107.308	0.172	-0.038
-527.033	305.313	-0.019	-0.035
-526.018	679.661	0.035	-0.091
-525.004	-119.236	-0.094	-0.016
-523.989	-200.000	0.004	-0.233
-522.975	-18.325	-0.220	0.137
-521.960	-200.000	0.070	-0.332
-520.945	-90.091	0.279	-0.081
-519.931	10.216	-0.063	-0.048
-518.916	-78.986	0.325	-0.110
-517.902	800.000	0.025	0.078
-516.887	-154.814	-0.276	0.018
-515.872	-200.000	0.031	0.230
-514.858	-132.451	-0.071	-0.009
-513.843	-200.000	0.048	0.240
-512.829	-197.224	0.265	-0.002
-511.814	623.122	0.049	0.123
-510.799	-151.319	-0.682	0.051
-509.785	-46.246	0.208	-0.102
-508.770	-200.000	-0.013	0.118
-507.756	-39.192	0.238	-0.125
-506.741	4.423	-0.133	-0.097
-505.726	800.000	0.121	-0.364
-504.712	252.971	-0.013	0.021
-503.697	-126.885	-0.244	0.036
-502.683	43.433	0.070	-0.063
-501.668	5.955	-0.128	-0.095
-500.653	659.100	0.045	0.116
-499.639	-80.707	0.362	-0.120
-498.624	800.000	0.139	-0.395
-497.610	-114.114	0.232	0.045
-496.595	-132.026	-0.232	-0.030
-495.581	800.000	0.070	-0.245
-494.566	3.478	-0.255	0.185
-493.551	-200.000	0.019	-0.184
-492.537	-8.410	-0.050	-0.034
-491.522	800.000	0.151	0.493
-490.508	-143.513	0.045	0.004
-489.493	-200.000	-0.004	-0.253
-488.478	104.709	-0.031	-0.036
-487.464	-110.642	0.368	-0.076
-486.449	-92.565	0.399	0.112
-485.435	34.416	0.040	-0.035
-484.420	-153.733	-0.196	-0.013
-483.405	-156.646	0.281	-0.017
-482.391	-44.409	0.247	0.123
-481.376	-3.517	0.059	0.041
-480.362	-9.130	-0.158	-0.105
-479.347	800.000	0.018	0.065
-478.332	-37.325	0.234	0.125
-477.318	224.286	0.132	0.212
-476.303	158.814	-0.342	-0.472
-475.289	-200.000	-0.014	0.082
-474.274	-113.148	0.068	-0.013
-473.259	800.000	-0.080	0.335
-472.245	22.499	0.073	-0.060
-471.230	-200.000	-0.022	0.226
-470.216	19.959	0.271	-0.217
-469.201	4.553	0.281	-0.205
-468.186	-110.107	0.188	-0.039
-467.172	217.790	0.161	-0.255
-466.157	-200.000	-0.007	0.159
-465.143	-22.981	0.330	-0.198
-464.128	88.405	-0.220	0.243
-463.113	-111.704	-0.365	0.074
-462.099	800.000	-0.036	-0.118
-461.084	-88.467	0.134	-0.040
-460.070	800.000	0.077	0.307
-459.055	800.000	0.044	0.162
-458.040	-200.000	-0.058	-0.316
-457.026	-38.299	-0.111	0.059
-456.011	800.000	0.055	-0.214
-454.997	-200.000	0.056	-0.265
-453.982	613.189	0.043	0.107
-452.968	64.437	0.199	0.200
-451.953	-5.047	-0.284	-0.194
-450.938	-133.704	-0.273	0.034
-449.924	-10.744	0.126	-0.083
-448.909	91.295	-0.082	-0.091
-447.895	-59.375	0.297	-0.127
-446.880	-200.000	-0.019	0.340
-445.865	-85.447	0.303	0.094
-444.851	407.226	-0.080	0.169
-443.836	-200.000	-0.030	-0.379
-442.822	63.595	-0.256	0.255
-441.807	-200.000	0.045	0.300
-440.792	573.851	0.095	-0.230
-439.778	-71.964	-0.325	0.120
-438.763	19.157	-0.241	0.192
-437.749	800.000	-0.189	-0.622
-436.734	-200.000	0.028	0.307
-435.719	-200.000	0.008	0.309
-434.705	-159.181	-0.386	-0.022
-433.690	-124.043	0.352	0.055
-432.676	-120.091	0.063	-0.011
-431.661	-58.221	-0.369	-0.160
-430.646	23.343	-0.191	-0.156
-429.632	-61.857	0.281	0.117
-428.617	454.889	-0.086	0.188
-427.603	89.701	0.118	-0.130
-426.588	-102.916	0.192	0.045
-425.573	64.833	-0.119	-0.119
-424.559	-33.787	-0.324	-0.177
-423.544	135.702	-0.050	-0.065
-422.530	2.991	0.287	-0.207
-421.515	800.000	0.157	0.482
-420.500	69.947	-0.049	-0.050
-419.486	-114.863	-0.130	-0.025
-418.471	626.580	0.108	0.271
-417.457	157.809	-0.231	0.318
-416.442	-76.063	-0.234	-0.082
-415.428	-44.884	0.084	0.041
-414.413	-200.000	-0.056	-0.268
-413.398	-35.298	0.086	-0.046
-412.384	-67.542	0.152	-0.059
-411.369	-200.000	-0.002	-0.094
-410.355	332.867	-0.030	-0.058
-409.340	-200.000	-0.011	-0.245
-408.325	38.862	0.078	0.069
-407.311	-78.039	0.297	0.102
-406.296	-132.158	0.392	-0.050
-405.282	102.356	-0.087	0.100
-404.267	-158.432	0.538	0.031
-403.252	-132.594	-0.189	-0.024
-402.238	-92.787	-0.430	-0.119
-401.223	-25.714	-0.205	0.120
-400.209	-120.485	0.327	-0.055
-399.194	-65.964	0.366	0.145
-398.179	364.258	0.196	0.390
-397.165	-80.310	0.120	0.040
-396.150	248.496	0.094	0.158
-395.136	101.882	0.199	0.230
-394.121	-40.243	-0.152	0.078
-393.106	158.399	-0.079	0.108
-392.092	-167.274	0.091	-0.004
-391.077	95.547	-0.248	0.281
-390.063	800.000	-0.058	-0.249
-389.048	-200.000	-0.004	0.166
-388.033	800.000	-0.122	0.474
-387.019	57.202	-0.092	-0.089
-386.004	113.175	0.158	0.190
-384.990	-87.358	0.384	0.115
-383.975	800.000	0.034	0.135
-382.960	93.965	-0.227	-0.255
-381.946	-59.483	-0.076	0.032
-380.931	-105.217	0.119	-0.027
-379.917	-19.845	-0.166	-0.102
-378.902	800.000	0.076	-0.310
-377.888	-88.272	-0.320	-0.095
-376.873	-55.061	-0.068	-0.030
-375.858	-40.757	0.168	-0.086
-374.844	-60.729	-0.132	-0.055
-373.829	15.635	0.015	0.011
-372.815	-90.371	0.120	0.035
-371.800	-148.172	-0.083	-0.007
-370.785	-94.242	-0.198	-0.054
-369.771	28.242	0.049	-0.041
-368.756	-144.533	-0.088	-0.008
-367.742	-0.204	-0.473	-0.333
-366.727	800.000	0.056	-0.226
-365.712	486.655	-0.144	0.325
-364.698	-200.000	0.047	0.257
-363.683	675.122	-0.038	-0.098
-362.669	-51.410	-0.203	-0.094
-361.654	-200.000	-0.028	0.202
-360.639	196.231	0.108	-0.163
-359.625	-65.748	-0.150	-0.059
-358.610	-162.116	0.410	-0.020
-357.596	93.223	-0.110	0.123
-356.581	277.618	-0.110	0.194
-355.566	-103.215	-0.131	0.031
-354.552	128.810	-0.226	0.286
-353.537	298.339	0.100	0.183
-352.523	-200.000	-0.078	0.376
-351.508	-6.330	0.221	-0.149
-350.493	628.403	0.092	0.231
-349.479	58.236	0.053	-0.052
-348.464	518.091	0.170	0.395
-347.450	778.806	0.077	0.209
-346.435	-90.968	0.178	0.051
-345.420	447.181	0.116	-0.253
-344.406	38.059	-0.135	0.119
-343.391	110.414	0.123	0.146
-342.377	-69.997	0.158	-0.060
-341.362	-27.425	-0.433	-0.249
-340.348	50.144	-0.091	-0.085
-339.333	-200.000	-0.011	0.104
-338.318	7.517	-0.117	-0.087
-337.304	8.262	-0.136	0.101
-336.289	236.903	0.087	0.143
-335.275	-173.029	-0.060	0.002
-334.260	121.745	-0.131	-0.161
-333.245	479.300	-0.053	-0.119
-332.231	-200.000	-0.008	-0.051
-331.216	237.403	-0.170	-0.279
-330.202	96.634	-0.227	-0.257
-329.187	800.000	-0.038	0.125
-328.172	-200.000	-0.045	0.366
-327.158	-163.479	0.225	0.011
-326.143	-93.494	0.368	0.101
-325.129	27.270	-0.164	0.137
-324.114	29.632	0.096	0.081
-323.099	232.334	0.028	0.046
-322.085	-16.977	-0.057	-0.035
-321.070	-200.000	0.226	-0.001
-320.056	-160.681	-0.097	-0.005
-319.041	-60.617	-0.153	-0.064
-318.026	800.000	0.085	-0.332
-317.012	-35.722	-0.115	-0.062
-315.997	654.374	-0.067	0.170
-314.983	132.701	0.075	0.096
-313.968	233.179	0.096	-0.156
-312.953	148.861	-0.064	-0.085
-311.939	-16.270	0.086	-0.054
-310.924	530.651	-0.104	-0.244
-309.910	56.903	0.083	0.080
-308.895	156.597	0.139	0.190
-307.880	77.538	0.061	0.064
-306.866	-153.466	0.142	-0.010
-305.851	-200.000	0.020	0.272
-304.837	2.483	0.228	0.163
-303.822	-164.907	-0.163	0.007
-302.807	800.000	-0.031	0.103
-301.793	291.933	0.174	0.313
-300.778	333.552	-0.048	-0.092
-299.764	38.460	-0.216	0.191
-298.749	76.169	-0.055	-0.057
-297.735	68.599	-0.251	-0.255
-296.720	800.000	0.046	0.163
-295.705	-200.000	0.020	0.105
-294.691	-200.000	0.017	-0.266
-293.676	28.430	-0.239	-0.199
-292.662	-57.334	0.235	-0.102
-291.647	220.090	0.148	0.235
-290.632	-78.185	-0.273	-0.093
-289.618	327.464	0.143	0.272
-288.603	-168.809	-0.233	0.009
-287.589	-200.000	-0.030	0.133
-286.574	-200.000	-0.016	0.117
-285.559	174.284	-0.047	0.067
-284.545	-44.953	0.268	0.132
-283.530	384.457	-0.110	0.225
-282.516	-152.694	-0.326	0.023
-281.501	94.415	-0.093	0.104
-280.486	613.466	0.085	-0.209
-279.472	623.348	-0.041	-0.103
-278.457	-102.352	0.324	-0.077
-277.443	55.431	-0.111	-0.106
-276.428	21.140	0.087	0.069
-275.413	-200.000	0.016	-0.230
-274.399	-200.000	0.064	-0.288
-273.384	-39.541	-0.078	0.040
-272.370	-200.000	-0.047	0.274
-271.355	-200.000	-0.009	0.272
-270.340	82.687	0.069	-0.074
-269.326	36.207	0.107	0.093
-268.311	800.000	0.160	0.467
-267.297	-200.000	0.001	-0.199
-266.282	800.000	-0.036	0.141
-265.267	-200.000	-0.009	-0.076
-264.253	-200.000	0.053	0.353
-263.238	-46.888	0.273	0.132
-262.224	-127.607	-0.181	0.026
-261.209	800.000	-0.082	0.235
-260.195	-49.124	0.128	0.060
-259.180	-172.788	0.081	0.002
-258.165	-86.837	-0.270	0.081
-257.151	800.000	-0.031	-0.112
-256.136	104.946	0.224	0.260
-255.122	95.588	-0.155	0.175
-254.107	-200.000	-0.019	0.284
-253.092	559.613	-0.122	-0.291
-252.078	184.679	0.129	-0.189
-251.063	-200.000	0.042	-0.265
-250.049	800.000	-0.053	-0.164
-249.034	94.914	0.211	0.236
-248.019	-105.029	-0.243	0.055
-247.005	94.131	-0.258	-0.289
-245.990	-67.481	-0.461	-0.178
-244.976	321.890	-0.186	-0.349
-243.961	-200.000	-0.018	-0.202
-242.946	-200.000	-0.031	-0.332
-241.932	107.228	0.109	0.128
-240.917	220.893	-0.097	0.154
-239.903	69.915	0.260	-0.264
-238.888	800.000	0.081	0.308
-237.873	-92.831	0.070	0.019
-236.859	-72.700	-0.191	-0.069
-235.844	184.682	-0.197	0.287
-234.830	800.000	-0.015	-0.043
-233.815	-30.863	-0.087	-0.048
-232.800	408.394	0.075	0.156
-231.786	157.440	-0.039	0.053
-230.771	52.929	-0.124	0.117
-229.757	-200.000	-0.043	-0.271
-228.742	113.926	-0.028	-0.034
-227.727	-88.986	-0.329	0.096
-226.713	-133.465	0.284	0.035
-225.698	-16.427	0.225	0.141
-224.684	58.660	-0.091	0.088
-223.669	112.321	0.032	-0.038
-222.655	-35.548	0.159	-0.085
-221.640	760.512	0.084	0.226
-220.625	-95.425	-0.433	-0.114
-219.611	-200.000	0.007	-0.036
-218.596	-116.904	-0.188	0.034
-217.582	-72.576	0.126	-0.046
-216.567	-170.902	0.208	-0.007
-215.552	116.190	-0.294	-0.355
-214.538	-27.580	-0.098	0.056
-213.523	800.000	-0.034	-0.143
-212.509	-172.954	0.339	0.010
-211.494	800.000	0.051	0.161
-210.479	-200.000	-0.051	-0.221
-209.465	-200.000	0.025	-0.324
-208.450	90.860	0.098	0.108
-207.436	-115.213	0.193	0.036
-206.421	-200.000	0.010	-0.196
-205.406	553.638	0.022	0.052
-204.392	-10.444	-0.338	0.221
-203.377	-200.000	0.000	0.010
-202.363	-13.279	-0.231	0.147
-201.348	25.607	-0.396	0.324
-200.333	93.067	-0.101	-0.113
-199.319	-97.073	0.131	-0.034
-198.304	-11.078	0.366	-0.237
-197.290	800.000	0.117	-0.359
-196.275	-200.000	0.010	-0.167
-195.260	94.354	-0.008	-0.008
-194.246	-115.207	-0.321	-0.060
-193.231	800.000	0.033	-0.139
-192.217	181.968	0.161	-0.234
-191.202	-88.257	0.237	0.070
-190.187	-67.432	-0.180	0.069
-189.173	-156.681	0.264	0.016
-188.158	-4.622	0.195	0.132
-187.144	800.000	-0.037	0.156
-186.129	-200.000	0.026	-0.324
-185.114	-142.342	0.249	-0.024
-184.100	800.000	-0.040	0.165
-183.085	-200.000	0.031	-0.334
-182.071	38.510	-0.210	-0.184
-181.056	77.786	0.217	0.227
-180.042	-30.835	0.276	-0.154
-179.027	30.287	0.099	-0.083
-178.012	-66.662	-0.079	-0.031
-176.998	87.135	0.134	-0.146
-175.983	22.986	-0.166	-0.134
-174.969	-200.000	0.023	-0.214
-173.954	16.449	-0.187	0.145
-172.939	-191.686	0.294	0.003
-171.925	-131.364	0.370	-0.048
-170.910	247.060	0.112	-0.187
-169.896	-113.971	0.092	0.018
-168.881	-139.879	0.131	-0.014
-167.866	800.000	0.064	0.216
-166.852	-42.866	0.271	0.135
-165.837	-102.497	0.375	-0.088
-164.823	107.993	-0.266	-0.311
-163.808	800.000	-0.117	0.382
-162.793	64.498	0.155	0.154
-161.779	-200.000	0.010	-0.262
-160.764	800.000	-0.143	-0.513
-159.750	-165.179	0.091	0.004
-158.735	800.000	0.055	-0.219
-157.720	-80.137	0.247	-0.081
-156.706	428.852	-0.147	0.312
-155.691	-111.381	-0.161	-0.032
-154.677	800.000	-0.029	-0.123
-153.662	111.096	-0.147	-0.174
-152.647	-7.672	0.122	0.081
-151.633	-89.551	-0.130	-0.037
-150.618	-59.802	0.279	-0.117
-149.604	-150.426	0.113	0.009
-148.589	63.933	0.102	-0.101
-147.574	101.316	-0.340	-0.389
-146.560	-77.722	-0.283	-0.096
-145.545	399.177	-0.103	0.211
-144.531	535.936	0.185	0.431
-143.516	-54.564	0.217	0.096
-142.502	-43.829	0.129	-0.064
-141.487	289.599	-0.030	-0.053
-140.472	-20.645	-0.453	-0.273
-139.458	-200.000	0.002	-0.137
-138.443	5.547	0.283	0.205
-137.429	800.000	-0.058	0.223
-136.414	135.707	0.317	0.405
-135.399	216.986	0.067	0.105
-134.385	188.117	0.135	0.198
-133.370	13.572	0.143	0.109
-132.356	-200.000	-0.045	-0.338
-131.341	-200.000	0.079	0.376
-130.326	800.000	-0.089	-0.271
-129.312	-65.130	0.167	0.066
-128.297	699.907	0.153	-0.395
-127.283	189.062	-0.241	-0.354
-126.268	-97.949	-0.163	-0.041
-125.253	-155.042	0.382	0.025
-124.239	-40.374	-0.064	-0.032
-123.224	206.102	-0.166	0.253
-122.210	800.000	0.093	0.336
-121.195	31.534	0.278	0.234
