DTS Sentinel unit serial number:	SN413079Multiplexer serial number:	ORYXHardware model number:	OX4-SRSoftware version number:	ORYX F/W v4.00 Oryx Data Collector v3.7.2.0data status	okinstallation	princeton_trtdifferential loss correction	single-endedforward channel	channel 4reverse channel	N/Adate	2019/09/12time	02:43:11forward acquisition time	60.00reverse acquisition time	0.00gamma	496.2192k internal	0.2309k external	0.2309temperature offset calibration	1.0092default loss term (dB/km)	0.3790temperature slope calibration	1.0000multiplexer offset coefficient	1.0000multiplexer slope coefficient	1.0000fibre end	0.00T internal ref (°C)	32.37T ext. ref 1 (°C)	2.09T ext. ref 2 (°C)	27.12length (m)	temperature (°C)	Stokes	anti-Stokes-747.200	-116.295	0.266	0.050
-746.185	-200.000	0.066	-0.311
-745.171	660.772	0.120	-0.315
-744.156	-83.536	-0.313	0.102
-743.142	-125.897	-0.107	0.016
-742.127	249.949	-0.089	0.154
-741.112	-11.831	0.194	-0.129
-740.098	-129.181	-0.345	-0.049
-739.083	-40.460	-0.140	-0.074
-738.069	-200.000	-0.008	0.135
-737.054	-16.991	-0.110	-0.070
-736.039	-200.000	0.014	0.081
-735.025	762.471	-0.058	-0.161
-734.010	800.000	-0.027	-0.092
-732.996	-144.831	-0.260	-0.024
-731.981	-50.510	-0.029	-0.014
-730.966	-75.948	-0.194	-0.070
-729.952	-75.702	-0.096	-0.034
-728.937	68.977	-0.123	0.129
-727.923	-119.848	0.218	0.038
-726.908	26.441	-0.202	0.172
-725.894	-10.101	-0.236	0.159
-724.879	120.078	-0.042	-0.053
-723.864	-200.000	0.002	-0.230
-722.850	-85.801	-0.307	0.097
-721.835	14.878	-0.174	0.138
-720.821	-86.229	-0.099	-0.031
-719.806	394.852	0.165	-0.349
-718.791	-94.057	-0.204	0.057
-717.777	140.156	-0.037	-0.049
-716.762	800.000	-0.025	-0.085
-715.748	800.000	0.023	-0.084
-714.733	-73.108	0.399	0.148
-713.718	52.343	0.005	0.005
-712.704	455.915	0.102	0.229
-711.689	-200.000	0.033	0.276
-710.675	-34.233	0.338	-0.188
-709.660	14.640	-0.159	0.126
-708.645	-2.478	-0.044	0.031
-707.631	-158.238	0.014	-0.001
-706.616	-111.993	-0.013	0.003
-705.602	12.502	-0.249	-0.194
-704.587	6.915	-0.207	-0.156
-703.572	-56.608	-0.171	0.077
-702.558	485.369	0.190	0.439
-701.543	-112.453	0.104	0.021
-700.529	329.987	0.052	0.101
-699.514	-117.253	-0.157	-0.029
-698.499	556.891	0.112	-0.273
-697.485	-161.712	-0.194	-0.010
-696.470	-133.866	0.091	-0.011
-695.456	-59.839	-0.131	-0.057
-694.441	-200.000	0.002	0.040
-693.426	-82.561	-0.277	0.091
-692.412	-200.000	0.009	0.105
-691.397	-45.278	0.115	0.058
-690.383	630.101	-0.123	-0.314
-689.368	-46.607	0.284	0.141
-688.354	-200.000	0.010	-0.056
-687.339	-81.605	0.213	0.071
-686.324	-14.119	0.186	0.122
-685.310	-200.000	0.063	-0.405
-684.295	800.000	-0.062	0.207
-683.281	-104.283	-0.202	0.047
-682.266	800.000	-0.027	-0.116
-681.251	-87.756	0.122	-0.037
-680.237	220.686	-0.092	0.149
-679.222	29.304	-0.173	0.149
-678.208	11.159	0.241	-0.186
-677.193	334.190	-0.220	0.432
-676.178	487.038	0.077	0.178
-675.164	-40.727	-0.255	-0.134
-674.149	157.280	-0.226	-0.317
-673.135	-50.810	-0.182	0.087
-672.120	800.000	-0.034	-0.146
-671.105	449.027	0.123	0.274
-670.091	24.398	0.146	0.122
-669.076	-36.623	0.206	-0.112
-668.062	334.999	-0.139	-0.274
-667.047	-56.917	0.311	-0.139
-666.032	-122.498	0.312	0.051
-665.018	184.292	-0.112	-0.168
-664.003	800.000	-0.051	-0.218
-662.989	-85.920	-0.113	0.035
-661.974	-200.000	-0.009	0.146
-660.959	800.000	0.020	0.084
-659.945	-79.927	-0.200	-0.068
-658.930	12.470	-0.079	0.062
-657.916	800.000	0.076	-0.314
-656.901	800.000	-0.060	0.169
-655.886	163.985	0.131	-0.187
-654.872	800.000	-0.095	0.291
-653.857	711.647	-0.024	-0.064
-652.843	-117.991	-0.335	-0.061
-651.828	-39.543	0.121	-0.064
-650.814	-200.000	0.007	0.175
-649.799	800.000	-0.054	-0.170
-648.784	800.000	0.020	0.067
-647.770	259.590	0.203	0.354
-646.755	-65.024	0.375	0.153
-645.741	-180.062	-0.338	0.007
-644.726	-123.654	0.204	-0.033
-643.711	800.000	0.084	-0.351
-642.697	-58.417	-0.087	0.038
-641.682	-105.482	0.281	0.065
-640.668	16.720	-0.137	0.110
-639.653	-60.781	0.256	-0.110
-638.638	651.616	0.148	-0.383
-637.624	-200.000	0.004	0.368
-636.609	17.952	0.139	-0.112
-635.595	125.758	-0.125	-0.160
-634.580	-200.000	0.004	-0.028
-633.565	-135.924	-0.474	0.056
-632.551	117.142	0.167	0.208
-631.536	-164.656	-0.042	-0.002
-630.522	24.894	0.085	0.071
-629.507	57.188	-0.168	0.165
-628.492	-107.604	-0.315	0.070
-627.478	284.314	-0.170	0.309
-626.463	-162.833	-0.113	-0.006
-625.449	-47.123	-0.197	-0.097
-624.434	65.605	0.057	-0.058
-623.419	343.261	-0.040	0.078
-622.405	238.717	-0.023	-0.038
-621.390	428.366	0.006	0.013
-620.376	-76.168	0.218	-0.078
-619.361	-200.000	0.064	-0.283
-618.346	-200.000	0.022	-0.278
-617.332	-200.000	0.043	-0.233
-616.317	-200.000	0.019	-0.181
-615.303	-118.083	-0.200	0.036
-614.288	-71.633	0.450	-0.170
-613.273	-91.009	0.014	-0.004
-612.259	23.296	-0.048	-0.040
-611.244	800.000	0.051	-0.163
-610.230	-194.874	0.069	-0.001
-609.215	-158.164	0.103	-0.006
-608.201	95.581	0.049	-0.056
-607.186	-65.486	0.197	-0.080
-606.171	86.781	-0.178	-0.198
-605.157	800.000	0.005	-0.020
-604.142	309.398	-0.147	-0.278
-603.128	-125.000	-0.211	-0.033
-602.113	-143.131	0.183	0.018
-601.098	415.502	-0.216	-0.466
-600.084	41.772	0.211	0.193
-599.069	-97.766	-0.137	0.036
-598.055	418.892	0.073	-0.157
-597.040	-35.199	-0.160	-0.088
-596.025	116.974	0.100	-0.124
-595.011	800.000	0.031	-0.105
-593.996	362.692	0.100	-0.202
-592.982	800.000	0.037	0.121
-591.967	-59.548	0.197	0.085
-590.952	-58.517	-0.233	0.102
-589.938	800.000	-0.120	0.514
-588.923	416.922	0.054	0.115
-587.909	-2.985	-0.230	0.162
-586.894	-200.000	-0.009	0.198
-585.879	168.111	-0.098	-0.140
-584.865	800.000	0.098	-0.305
-583.850	-200.000	0.005	0.222
-582.836	417.589	-0.054	-0.116
-581.821	389.947	0.105	-0.219
-580.806	-98.716	-0.082	-0.021
-579.792	392.433	-0.055	-0.116
-578.777	301.558	-0.109	-0.203
-577.763	738.157	0.084	0.227
-576.748	800.000	-0.110	-0.398
-575.733	-200.000	0.032	0.247
-574.719	-37.638	-0.072	-0.039
-573.704	290.749	0.025	0.045
-572.690	-60.394	0.110	0.047
-571.675	-43.158	-0.251	-0.128
-570.661	45.095	0.217	-0.202
-569.646	-89.620	-0.208	0.062
-568.631	-26.370	-0.165	0.098
-567.617	-200.000	0.007	0.235
-566.602	-31.383	-0.042	-0.024
-565.588	-73.947	-0.337	-0.123
-564.573	152.547	-0.034	0.047
-563.558	555.345	-0.025	-0.061
-562.544	-62.491	0.390	0.163
-561.529	183.776	-0.149	-0.223
-560.515	-161.663	-0.287	-0.015
-559.500	-200.000	-0.026	-0.178
-558.485	-11.286	0.229	-0.152
-557.471	-69.271	-0.325	-0.126
-556.456	0.578	-0.203	-0.146
-555.442	88.101	-0.110	0.123
-554.427	800.000	-0.115	-0.371
-553.412	-39.143	-0.182	-0.096
-552.398	319.638	0.090	-0.172
-551.383	-200.000	0.006	0.042
-550.369	-6.380	-0.195	0.134
-549.354	-200.000	-0.011	0.111
-548.339	-200.000	-0.003	0.264
-547.325	800.000	-0.076	0.325
-546.310	-200.000	-0.008	-0.253
-545.296	800.000	-0.056	-0.243
-544.281	125.908	-0.054	-0.069
-543.266	-200.000	-0.015	0.110
-542.252	388.479	-0.067	0.139
-541.237	-132.884	-0.120	0.015
-540.223	138.956	0.038	0.050
-539.208	800.000	0.102	-0.288
-538.193	659.223	-0.209	-0.543
-537.179	158.048	-0.300	-0.419
-536.164	-200.000	0.017	-0.252
-535.150	374.783	0.105	0.216
-534.135	800.000	0.020	-0.071
-533.121	128.099	-0.072	0.092
-532.106	105.291	-0.200	-0.238
-531.091	-112.292	-0.096	0.019
-530.077	-80.721	0.128	0.043
-529.062	-91.278	-0.407	-0.117
-528.048	-102.054	-0.124	0.030
-527.033	800.000	0.097	-0.378
-526.018	-31.033	0.169	0.096
-525.004	-135.529	-0.119	0.014
-523.989	44.716	0.058	-0.054
-522.975	-2.920	0.116	0.081
-521.960	-51.912	-0.324	-0.152
-520.945	2.093	-0.198	-0.144
-519.931	-145.385	0.283	0.026
-518.916	-22.707	0.134	-0.081
-517.902	-105.322	-0.372	0.085
-516.887	-180.908	0.068	0.001
-515.872	249.178	0.027	-0.046
-514.858	-200.000	-0.064	0.343
-513.843	-28.487	0.245	0.142
-512.829	-3.691	0.116	-0.081
-511.814	-60.846	0.369	0.157
-510.799	30.761	-0.264	-0.227
-509.785	-124.731	0.136	-0.021
-508.770	-105.379	0.195	-0.045
-507.756	800.000	-0.045	-0.172
-506.741	-74.642	0.204	0.074
-505.726	-6.604	-0.161	0.110
-504.712	-29.790	-0.171	-0.098
-503.697	176.716	-0.114	0.167
-502.683	-7.670	-0.222	-0.151
-501.668	-163.173	0.175	0.008
-500.653	800.000	-0.074	0.250
-499.639	4.786	-0.242	-0.179
-498.624	-200.000	0.033	0.185
-497.610	800.000	0.016	0.063
-496.595	-136.322	0.169	-0.020
-495.581	-200.000	0.010	0.104
-494.566	-200.000	-0.034	0.162
-493.551	-97.408	0.160	-0.042
-492.537	-200.000	-0.008	0.070
-491.522	-200.000	0.038	-0.192
-490.508	-125.714	0.102	-0.016
-489.493	-160.233	0.313	0.017
-488.478	-200.000	-0.011	-0.195
-487.464	800.000	-0.009	0.032
-486.449	800.000	0.083	0.276
-485.435	-61.744	0.254	0.107
-484.420	42.774	0.218	0.199
-483.405	17.426	0.183	0.146
-482.391	800.000	-0.092	-0.352
-481.376	-200.000	-0.003	0.138
-480.362	-101.230	0.193	0.047
-479.347	57.115	-0.100	0.098
-478.332	156.247	-0.019	-0.027
-477.318	93.344	-0.093	0.105
-476.303	-33.472	-0.231	-0.129
-475.289	800.000	-0.091	0.288
-474.274	-130.207	0.229	-0.031
-473.259	-34.385	0.327	0.180
-472.245	-200.000	-0.060	0.342
-471.230	106.324	0.088	0.105
-470.216	-73.493	0.219	0.080
-469.201	-200.000	0.016	-0.088
-468.186	96.738	0.208	-0.239
-467.172	-200.000	0.010	0.154
-466.157	271.829	0.120	-0.212
-465.143	-114.654	-0.078	-0.015
-464.128	-1.794	-0.090	-0.064
-463.113	-6.045	0.159	0.109
-462.099	154.248	-0.085	0.117
-461.084	-14.656	0.148	0.095
-460.070	169.293	-0.081	0.116
-459.055	-200.000	-0.042	0.215
-458.040	7.057	-0.090	0.067
-457.026	-38.393	0.337	-0.179
-456.011	320.917	0.038	-0.073
-454.997	-143.680	-0.129	0.012
-453.982	311.420	0.124	-0.233
-452.968	-52.197	0.076	-0.035
-451.953	157.713	-0.086	0.120
-450.938	-102.750	0.282	-0.067
-449.924	800.000	0.080	-0.237
-448.909	-137.387	0.043	-0.005
-447.895	139.359	0.087	-0.115
-446.880	25.839	-0.074	-0.062
-445.865	800.000	-0.084	0.280
-444.851	-46.052	-0.173	0.086
-443.836	1.053	-0.289	0.208
-442.822	-36.421	0.115	-0.062
-441.807	222.234	-0.088	-0.142
-440.792	124.308	0.053	-0.066
-439.778	-17.333	-0.183	-0.115
-438.763	-200.000	0.035	0.610
-437.749	800.000	0.092	0.261
-436.734	-116.340	-0.184	-0.034
-435.719	145.783	-0.074	0.099
-434.705	-200.000	-0.001	0.198
-433.690	315.823	-0.065	-0.123
-432.676	-200.000	-0.025	-0.323
-431.661	-200.000	0.007	0.180
-430.646	155.440	-0.063	-0.087
-429.632	-200.000	-0.060	-0.402
-428.617	79.390	-0.095	-0.103
-427.603	-196.452	-0.225	0.002
-426.588	7.221	0.206	-0.154
-425.573	-200.000	0.055	-0.333
-424.559	-200.000	0.004	-0.343
-423.544	221.920	0.153	-0.248
-422.530	105.955	0.081	0.096
-421.515	-66.640	-0.053	0.021
-420.500	-80.958	0.158	0.052
-419.486	82.636	-0.113	-0.123
-418.471	-200.000	-0.027	0.236
-417.457	66.075	0.026	-0.027
-416.442	175.522	-0.076	-0.111
-415.428	172.616	-0.034	0.049
-414.413	157.319	-0.106	0.147
-413.398	93.407	-0.053	0.060
-412.384	-200.000	0.014	0.257
-411.369	-200.000	-0.021	-0.096
-410.355	-1.789	0.459	-0.324
-409.340	-9.613	-0.081	-0.054
-408.325	79.453	0.128	-0.137
-407.311	-200.000	0.006	-0.048
-406.296	-12.146	0.151	-0.099
-405.282	-188.169	0.263	-0.003
-404.267	-133.197	-0.084	-0.011
-403.252	58.421	0.189	0.186
-402.238	209.475	-0.118	0.185
-401.223	631.931	-0.148	-0.376
-400.209	-161.179	-0.403	-0.021
-399.194	-91.168	0.150	-0.043
-398.179	27.253	-0.089	0.075
-397.165	406.401	0.081	0.172
-396.150	272.745	-0.051	0.090
-395.136	-73.643	0.065	0.024
-394.121	109.223	0.074	-0.088
-393.106	-114.100	-0.288	-0.056
-392.092	800.000	0.101	-0.357
-391.077	65.516	0.209	-0.212
-390.063	800.000	-0.066	0.183
-389.048	416.978	-0.077	0.165
-388.033	-131.259	0.117	0.016
-387.019	-10.569	-0.250	-0.166
-386.004	398.264	-0.026	-0.054
-384.990	12.606	0.191	0.148
-383.975	212.744	0.064	0.101
-382.960	-30.516	-0.211	-0.120
-381.946	-200.000	-0.005	0.188
-380.931	-165.124	-0.263	-0.012
-379.917	462.438	-0.123	-0.274
-378.902	-70.034	0.131	-0.050
-377.888	630.418	0.135	0.341
-376.873	-111.379	0.093	0.019
-375.858	308.822	-0.190	-0.355
-374.844	-200.000	-0.065	-0.327
-373.829	162.996	-0.213	0.300
-372.815	648.735	-0.114	0.293
-371.800	-55.348	0.122	-0.055
-370.785	486.501	0.117	0.266
-369.771	-200.000	-0.020	0.094
-368.756	-200.000	-0.026	0.154
-367.742	-134.862	0.282	-0.034
-366.727	56.534	0.190	-0.185
-365.712	-106.774	-0.148	0.033
-364.698	311.575	-0.088	0.165
-363.683	-112.673	0.573	0.114
-362.669	23.280	-0.187	-0.154
-361.654	-63.181	-0.166	0.068
-360.639	122.342	0.234	0.292
-359.625	800.000	0.090	0.358
-358.610	350.386	0.126	-0.249
-357.596	150.421	-0.227	0.308
-356.581	124.546	0.021	0.026
-355.566	122.402	-0.134	0.168
-354.552	-175.446	0.172	-0.005
-353.537	-200.000	0.028	-0.161
-352.523	367.613	-0.162	-0.326
-351.508	-200.000	-0.036	0.230
-350.493	-72.803	0.128	0.047
-349.479	-42.579	0.079	0.040
-348.464	-41.537	0.207	0.106
-347.450	45.486	-0.246	0.227
-346.435	-137.710	0.589	-0.066
-345.420	-200.000	0.012	-0.168
-344.406	-125.418	0.207	0.031
-343.391	515.874	-0.087	-0.203
-342.377	41.907	-0.050	0.045
-341.362	800.000	0.029	0.098
-340.348	-191.492	-0.201	-0.002
-339.333	-105.007	0.126	-0.029
-338.318	104.755	-0.147	0.173
-337.304	310.990	0.160	-0.300
-336.289	800.000	0.133	-0.405
-335.275	800.000	0.004	-0.017
-334.260	-133.030	-0.142	-0.018
-333.245	-200.000	0.012	-0.123
-332.231	-200.000	-0.014	-0.143
-331.216	-37.953	0.155	-0.082
-330.202	85.695	-0.184	0.203
-329.187	-200.000	-0.068	0.389
-328.172	87.016	-0.089	0.099
-327.158	-182.095	0.150	0.003
-326.143	-5.036	-0.118	-0.081
-325.129	800.000	-0.092	-0.295
-324.114	-85.413	0.164	0.051
-323.099	-3.256	-0.035	0.024
-322.085	-200.000	-0.010	0.172
-321.070	-200.000	0.389	0.001
-320.056	-60.411	-0.248	-0.105
-319.041	-200.000	0.031	0.187
-318.026	800.000	0.011	0.039
-317.012	-200.000	0.015	0.346
-315.997	-200.000	0.116	0.609
-314.983	525.166	0.071	0.168
-313.968	800.000	-0.016	0.062
-312.953	-26.097	0.198	0.116
-311.939	-130.896	0.510	0.068
-310.924	-26.175	-0.238	-0.140
-309.910	6.220	-0.057	0.042
-308.895	146.168	0.270	-0.362
-307.880	270.518	-0.072	-0.127
-306.866	-134.528	-0.169	-0.021
-305.851	-180.267	-0.210	-0.004
-304.837	-126.775	0.293	0.043
-303.822	800.000	0.059	-0.188
-302.807	111.011	-0.083	-0.100
-301.793	-78.978	0.546	-0.186
-300.778	-97.299	-0.248	0.065
-299.764	-104.706	0.251	-0.058
-298.749	800.000	-0.059	-0.257
-297.735	785.292	-0.059	0.161
-296.720	302.265	-0.273	0.503
-295.705	-200.000	0.007	-0.083
-294.691	-200.000	0.007	-0.143
-293.676	57.207	-0.404	0.393
-292.662	-40.688	-0.008	0.004
-291.647	315.688	0.126	0.237
-290.632	-200.000	-0.089	0.417
-289.618	588.378	0.083	0.204
-288.603	543.998	-0.076	-0.181
-287.589	800.000	-0.038	-0.129
-286.574	-200.000	-0.031	0.190
-285.559	67.702	-0.052	0.053
-284.545	-160.499	-0.380	0.020
-283.530	-1.896	0.203	0.142
-282.516	151.115	0.103	-0.140
-281.501	747.086	-0.088	0.238
-280.486	233.651	0.202	0.332
-279.472	-157.504	-0.231	0.014
-278.457	800.000	0.177	-0.540
-277.443	3.545	0.259	-0.188
-276.428	205.950	-0.204	-0.317
-275.413	-32.205	0.062	0.035
-274.399	-200.000	-0.001	0.241
-273.384	163.751	0.127	0.179
-272.370	112.303	0.109	0.132
-271.355	-162.331	0.174	0.009
-270.340	105.901	0.084	0.099
-269.326	-66.706	-0.371	0.147
-268.311	-28.311	0.139	-0.080
-267.297	94.895	-0.153	-0.174
-266.282	211.233	-0.034	-0.054
-265.267	-12.750	0.038	-0.025
-264.253	-81.870	-0.475	-0.155
-263.238	-141.062	0.297	0.030
-262.224	29.940	0.184	-0.157
-261.209	1.381	-0.233	0.167
-260.195	-200.000	0.072	-0.000
-259.180	-12.056	0.136	0.089
-258.165	114.769	-0.138	-0.168
-257.151	800.000	-0.064	0.195
-256.136	-31.013	0.057	-0.032
-255.122	410.298	-0.048	-0.102
-254.107	463.024	-0.037	-0.083
-253.092	-40.572	0.134	-0.069
-252.078	-95.555	0.280	-0.075
-251.063	-38.539	-0.325	0.171
-250.049	-136.570	-0.402	-0.046
-249.034	110.318	0.252	-0.302
-248.019	24.241	-0.152	0.125
-247.005	800.000	-0.097	0.301
-245.990	800.000	-0.107	0.296
-244.976	-72.715	0.096	0.035
-243.961	-64.491	-0.136	-0.055
-242.946	-200.000	-0.026	0.240
-241.932	800.000	0.088	0.261
-240.917	800.000	0.032	-0.090
-239.903	800.000	-0.081	-0.237
-238.888	-200.000	0.060	0.303
-237.873	195.786	-0.165	0.250
-236.859	-200.000	-0.016	-0.193
-235.844	114.692	0.086	0.104
-234.830	266.145	-0.047	0.082
-233.815	-78.984	-0.136	0.046
-232.800	-92.763	-0.083	-0.023
-231.786	139.949	0.139	-0.183
-230.771	-200.000	0.013	-0.198
-229.757	103.062	0.219	-0.255
-228.742	-200.000	0.067	-0.409
-227.727	-85.328	0.371	0.115
-226.713	-200.000	0.026	0.157
-225.698	44.142	0.092	0.084
-224.684	-200.000	-0.034	0.192
-223.669	28.129	-0.293	0.246
-222.655	-200.000	-0.044	-0.233
-221.640	158.050	0.179	0.247
-220.625	-41.590	0.171	-0.088
-219.611	-136.233	0.245	0.028
-218.596	-200.000	0.020	-0.210
-217.582	117.701	0.302	-0.370
-216.567	-108.119	0.077	-0.017
-215.552	67.850	0.068	0.070
-214.538	-200.000	-0.057	0.391
-213.523	800.000	0.059	-0.203
-212.509	800.000	-0.094	-0.320
-211.494	-7.906	0.474	0.319
-210.479	553.761	-0.023	-0.055
-209.465	-7.533	0.039	-0.027
-208.450	610.621	0.114	-0.282
-207.436	-200.000	-0.010	-0.137
-206.421	-78.301	-0.277	0.094
-205.406	33.367	0.218	0.188
-204.392	-95.012	0.296	0.080
-203.377	69.502	-0.104	-0.106
-202.363	-49.404	0.184	0.088
-201.348	-142.039	-0.105	-0.010
-200.333	800.000	-0.018	-0.065
-199.319	-49.715	-0.164	0.078
-198.304	87.753	0.379	0.417
-197.290	427.645	0.050	-0.107
-196.275	392.301	0.094	-0.195
-195.260	-200.000	-0.045	0.297
-194.246	29.188	-0.204	0.173
-193.231	523.929	-0.088	0.205
-192.217	287.414	-0.107	0.192
-191.202	496.594	-0.072	0.164
-190.187	-122.502	0.121	-0.020
-189.173	-103.405	-0.175	0.041
-188.158	-75.540	-0.106	0.038
-187.144	179.716	-0.044	-0.064
-186.129	-50.403	-0.297	0.140
-185.114	800.000	-0.100	-0.342
-184.100	502.913	-0.022	-0.050
-183.085	630.921	0.176	0.444
-182.071	-47.403	-0.242	-0.117
-181.056	-60.495	-0.124	-0.052
-180.042	-94.028	0.277	-0.076
-179.027	27.628	-0.054	0.046
-178.012	795.194	-0.073	-0.200
-176.998	-62.534	0.486	-0.200
-175.983	-200.000	0.018	0.120
-174.969	1.754	0.068	0.049
-173.954	252.923	-0.113	0.191
-172.939	85.930	-0.129	0.141
-171.925	800.000	-0.044	-0.151
-170.910	-42.103	-0.307	-0.156
-169.896	87.555	-0.113	-0.124
-168.881	-124.950	0.074	0.011
-167.866	18.488	-0.113	0.090
-166.852	109.469	-0.235	-0.280
-165.837	-200.000	0.014	-0.114
-164.823	22.037	0.181	-0.147
-163.808	-4.951	-0.244	0.167
-162.793	-200.000	0.008	-0.095
-161.779	34.887	-0.148	-0.129
-160.764	-144.346	-0.343	-0.032
-159.750	-200.000	-0.056	0.382
-158.735	-111.351	-0.308	-0.062
-157.720	144.016	-0.059	0.079
-156.706	198.507	0.028	0.043
-155.691	235.308	0.223	0.365
-154.677	-200.000	0.012	0.168
-153.662	-65.447	-0.132	-0.053
-152.647	24.982	-0.162	-0.133
-151.633	-155.813	0.271	-0.017
-150.618	-4.268	0.188	-0.129
-149.604	90.784	-0.157	-0.175
-148.589	-102.174	-0.096	0.023
-147.574	-7.342	0.305	0.205
-146.560	-113.429	0.190	0.037
-145.545	-200.000	-0.000	-0.068
-144.531	693.238	0.074	-0.192
-143.516	82.552	0.109	-0.118
-142.502	-200.000	-0.021	-0.277
-141.487	657.835	-0.035	0.089
-140.472	-135.982	0.244	-0.028
-139.458	-21.528	0.046	-0.028
-138.443	430.448	0.094	-0.201
-137.429	377.689	0.230	0.466
-136.414	355.143	-0.039	0.078
-135.399	-111.922	0.109	-0.022
-134.385	-62.305	-0.197	0.081
-133.370	-164.938	-0.570	0.025
-132.356	116.778	0.139	0.169
-131.341	-41.944	0.084	0.043
-130.326	133.092	-0.048	0.062
-129.312	-200.000	0.011	0.228
-128.297	-131.672	-0.247	0.032
-127.283	-200.000	0.007	-0.121
-126.268	-110.023	0.207	-0.043
-125.253	327.089	0.150	-0.285
-124.239	-178.159	0.127	0.003
-123.224	-80.310	0.116	0.038
-122.210	-200.000	-0.024	-0.195
