DTS Sentinel unit serial number:	SN413079Multiplexer serial number:	ORYXHardware model number:	OX4-SRSoftware version number:	ORYX F/W v4.00 Oryx Data Collector v3.7.2.0data status	okinstallation	princeton_trtdifferential loss correction	single-endedforward channel	channel 4reverse channel	N/Adate	2019/09/12time	20:37:34forward acquisition time	60.00reverse acquisition time	0.00gamma	496.2192k internal	0.2312k external	0.2312temperature offset calibration	1.0167default loss term (dB/km)	0.3790temperature slope calibration	1.0000multiplexer offset coefficient	1.0000multiplexer slope coefficient	1.0000fibre end	0.00T internal ref (°C)	31.19T ext. ref 1 (°C)	3.62T ext. ref 2 (°C)	25.71length (m)	temperature (°C)	Stokes	anti-Stokes-747.200	-66.228	0.279	0.113
-746.185	-103.766	-0.303	0.072
-745.171	211.072	-0.172	-0.274
-744.156	800.000	-0.054	0.224
-743.142	-85.242	-0.460	-0.146
-742.127	75.160	0.096	0.103
-741.112	554.253	-0.070	-0.171
-740.098	-79.543	-0.319	0.109
-739.083	-9.217	0.218	0.148
-738.069	194.815	-0.044	0.068
-737.054	-63.775	-0.267	-0.111
-736.039	-66.909	-0.431	0.173
-735.025	-25.206	0.349	-0.209
-734.010	-109.892	-0.213	0.045
-732.996	-6.009	-0.095	0.066
-731.981	-3.067	-0.364	-0.258
-730.966	-108.256	-0.174	0.038
-729.952	33.144	-0.287	-0.252
-728.937	190.237	-0.127	0.194
-727.923	-53.110	0.044	-0.020
-726.908	-88.827	-0.262	-0.079
-725.894	458.370	-0.039	-0.088
-724.879	800.000	-0.035	-0.141
-723.864	389.644	-0.031	-0.065
-722.850	-200.000	0.006	-0.111
-721.835	-94.605	0.051	-0.014
-720.821	-63.955	-0.197	0.082
-719.806	-45.018	-0.146	0.074
-718.791	-89.225	-0.306	-0.091
-717.777	530.557	-0.069	-0.165
-716.762	88.736	-0.155	0.174
-715.748	119.528	0.062	0.078
-714.733	-200.000	-0.049	0.401
-713.718	-19.364	0.065	0.041
-712.704	-27.550	-0.302	-0.178
-711.689	6.763	0.079	0.060
-710.675	362.503	0.040	-0.081
-709.660	531.800	0.071	0.170
-708.645	800.000	0.070	0.240
-707.631	246.977	0.108	0.185
-706.616	-118.877	0.097	-0.017
-705.602	208.696	-0.182	-0.289
-704.587	-18.944	0.228	0.144
-703.572	-104.825	-0.160	-0.037
-702.558	220.130	0.213	0.346
-701.543	-99.666	0.299	-0.076
-700.529	-174.874	-0.192	-0.005
-699.514	-66.984	-0.141	-0.056
-698.499	55.629	0.070	-0.069
-697.485	67.349	-0.106	0.109
-696.470	-200.000	0.018	-0.124
-695.456	23.596	0.314	-0.261
-694.441	-200.000	-0.019	-0.148
-693.426	-142.121	0.103	0.010
-692.412	-164.620	0.288	0.013
-691.397	-200.000	-0.004	0.319
-690.383	70.750	0.077	0.081
-689.368	8.858	-0.307	-0.234
-688.354	-23.354	-0.148	-0.090
-687.339	-99.103	-0.227	-0.058
-686.324	-111.160	-0.410	-0.085
-685.310	-200.000	-0.007	0.056
-684.295	-16.360	0.165	-0.106
-683.281	-107.385	-0.234	0.052
-682.266	-64.254	-0.207	0.086
-681.251	-43.300	-0.290	-0.148
-680.237	800.000	0.045	0.127
-679.222	-82.780	0.271	0.089
-678.208	-122.574	-0.112	-0.018
-677.193	372.153	-0.134	-0.276
-676.178	-31.708	0.169	-0.096
-675.164	100.816	0.109	-0.128
-674.149	70.718	0.169	-0.177
-673.135	21.649	0.114	-0.094
-672.120	2.334	-0.131	0.096
-671.105	800.000	-0.123	-0.353
-670.091	-200.000	0.018	-0.617
-669.076	100.057	-0.263	-0.309
-668.062	0.951	0.225	0.164
-667.047	-6.829	0.060	-0.041
-666.032	-56.504	0.039	-0.017
-665.018	-200.000	-0.009	-0.051
-664.003	800.000	-0.027	0.100
-662.989	225.457	0.039	-0.064
-661.974	8.546	0.025	0.019
-660.959	62.131	0.106	0.107
-659.945	-200.000	0.024	-0.309
-658.930	-200.000	-0.052	-0.436
-657.916	-79.577	0.214	-0.073
-656.901	-113.733	0.205	0.040
-655.886	-38.584	-0.216	0.115
-654.872	-53.046	-0.118	-0.055
-653.857	79.992	-0.059	-0.064
-652.843	-116.886	0.550	-0.102
-651.828	-156.843	0.162	0.010
-650.814	204.426	0.128	-0.200
-649.799	380.896	-0.055	0.114
-648.784	-200.000	-0.005	-0.325
-647.770	-83.741	0.145	0.047
-646.755	-39.827	0.357	0.189
-645.741	-58.799	0.230	-0.101
-644.726	127.889	-0.175	0.225
-643.711	-70.133	0.444	-0.171
-642.697	-200.000	-0.008	-0.109
-641.682	800.000	-0.023	-0.069
-640.668	-27.792	-0.034	0.020
-639.653	-31.709	0.211	-0.120
-638.638	-200.000	0.014	-0.382
-637.624	-200.000	0.004	-0.268
-636.609	497.740	0.097	-0.226
-635.595	559.351	-0.085	-0.207
-634.580	-44.467	-0.081	0.041
-633.565	208.771	-0.151	-0.239
-632.551	-200.000	-0.015	-0.069
-631.536	-75.344	-0.185	0.067
-630.522	-9.379	0.135	-0.091
-629.507	-114.538	-0.175	-0.034
-628.492	261.802	0.238	-0.417
-627.478	800.000	-0.109	-0.350
-626.463	800.000	-0.052	0.146
-625.449	225.388	0.058	0.094
-624.434	-87.693	0.203	0.062
-623.419	-45.841	-0.264	-0.132
-622.405	-122.459	0.193	-0.032
-621.390	70.428	0.135	-0.141
-620.376	78.757	-0.200	-0.217
-619.361	-100.123	0.037	0.009
-618.346	561.888	-0.071	0.172
-617.332	-47.827	-0.117	0.057
-616.317	17.153	0.067	0.053
-615.303	-200.000	-0.019	-0.238
-614.288	-30.088	-0.302	0.173
-613.273	21.834	-0.287	-0.236
-612.259	216.124	-0.206	-0.330
-611.244	28.187	-0.078	-0.066
-610.230	-121.792	0.110	-0.018
-609.215	-26.308	-0.151	0.090
-608.201	184.257	0.152	-0.228
-607.186	283.407	-0.028	0.051
-606.171	-183.117	-0.134	0.002
-605.157	-171.038	0.268	0.009
-604.142	-31.479	-0.155	-0.088
-603.128	800.000	0.110	-0.409
-602.113	-123.103	-0.389	-0.063
-601.098	-200.000	-0.034	-0.204
-600.084	479.763	0.104	0.239
-599.069	695.673	-0.065	-0.171
-598.055	-148.698	-0.276	-0.023
-597.040	-161.702	-0.121	-0.006
-596.025	19.815	0.203	-0.165
-595.011	-155.981	-0.060	-0.004
-593.996	606.824	-0.114	-0.286
-592.982	165.890	0.130	0.186
-591.967	-177.829	-0.109	-0.003
-590.952	19.328	0.093	0.075
-589.938	-18.384	-0.092	0.058
-588.923	-200.000	0.084	0.460
-587.909	-143.291	-0.160	0.015
-586.894	-146.953	0.342	-0.030
-585.879	-171.893	-0.100	0.003
-584.865	-9.192	0.292	0.197
-583.850	148.565	-0.124	0.168
-582.836	-52.522	-0.269	0.126
-581.821	-106.401	0.293	0.066
-580.806	-18.427	-0.412	0.260
-579.792	-13.538	0.167	-0.109
-578.777	-200.000	-0.081	-0.456
-577.763	49.106	0.174	-0.165
-576.748	-98.709	-0.110	-0.028
-575.733	-200.000	-0.005	-0.042
-574.719	-59.868	0.228	0.098
-573.704	319.741	-0.078	-0.148
-572.690	-99.849	0.183	0.046
-571.675	-200.000	0.026	-0.323
-570.661	220.967	0.207	0.334
-569.646	114.663	0.013	-0.016
-568.631	-64.043	-0.105	0.043
-567.617	-78.022	0.173	0.060
-566.602	12.842	-0.048	0.038
-565.588	-108.178	-0.176	0.038
-564.573	-108.930	-0.411	-0.088
-563.558	9.665	0.142	-0.109
-562.544	-170.126	0.074	-0.003
-561.529	-114.365	0.195	-0.038
-560.515	-192.902	-0.211	-0.002
-559.500	-71.254	-0.296	-0.112
-558.485	-200.000	0.038	0.234
-557.471	115.749	0.095	0.117
-556.456	145.876	0.104	-0.141
-555.442	100.614	0.159	-0.186
-554.427	-198.891	0.213	-0.001
-553.412	800.000	-0.063	-0.192
-552.398	28.991	0.045	0.039
-551.383	-200.000	0.028	0.191
-550.369	25.586	-0.114	0.095
-549.354	-22.780	0.207	0.126
-548.339	-73.720	0.184	0.067
-547.325	-200.000	-0.015	0.160
-546.310	-97.446	-0.126	-0.033
-545.296	-30.697	0.158	-0.090
-544.281	74.672	-0.149	0.158
-543.266	-66.876	-0.230	0.092
-542.252	-200.000	-0.052	-0.398
-541.237	-200.000	-0.006	0.061
-540.223	-43.192	-0.309	0.157
-539.208	26.118	-0.222	0.187
-538.193	-37.394	0.192	0.103
-537.179	800.000	-0.015	-0.057
-536.164	286.290	-0.021	-0.039
-535.150	368.042	-0.097	-0.197
-534.135	-46.948	-0.246	-0.121
-533.121	-88.809	-0.230	-0.069
-532.106	27.260	0.244	-0.207
-531.091	-119.876	-0.335	-0.058
-530.077	2.556	0.074	-0.054
-529.062	25.223	0.150	0.126
-528.048	4.981	0.016	0.012
-527.033	506.585	-0.194	-0.453
-526.018	-53.929	0.080	-0.037
-525.004	-28.185	-0.183	0.106
-523.989	1.155	-0.063	0.046
-522.975	578.771	0.083	0.205
-521.960	42.864	0.262	0.240
-520.945	-65.202	-0.440	0.178
-519.931	-58.074	-0.311	-0.137
-518.916	140.955	0.065	-0.087
-517.902	399.973	-0.042	0.088
-516.887	-44.106	0.172	0.087
-515.872	800.000	-0.112	-0.334
-514.858	301.216	0.145	-0.270
-513.843	-46.308	0.262	0.130
-512.829	608.471	0.130	0.327
-511.814	-122.905	0.168	-0.027
-510.799	129.410	0.136	0.175
-509.785	-169.844	-0.045	0.002
-508.770	-159.277	0.182	0.010
-507.756	-200.000	-0.025	0.181
-506.741	-29.672	-0.110	0.063
-505.726	128.322	-0.093	-0.118
-504.712	176.146	-0.019	-0.027
-503.697	182.917	-0.131	0.195
-502.683	125.994	-0.195	0.248
-501.668	48.211	0.129	-0.121
-500.653	31.282	-0.236	-0.204
-499.639	211.033	-0.132	-0.209
-498.624	800.000	0.056	-0.198
-497.610	259.182	-0.043	-0.074
-496.595	-66.969	-0.240	0.095
-495.581	-200.000	-0.008	0.205
-494.566	28.464	0.257	-0.219
-493.551	-111.075	-0.283	-0.058
-492.537	-109.732	-0.175	-0.037
-491.522	-191.973	0.227	-0.002
-490.508	-200.000	-0.014	0.178
-489.493	-12.815	0.227	-0.149
-488.478	71.990	0.186	-0.195
-487.464	-200.000	-0.032	0.224
-486.449	-18.897	-0.173	-0.108
-485.435	-145.710	-0.146	0.013
-484.420	-57.476	-0.139	0.061
-483.405	-200.000	-0.037	0.170
-482.391	89.252	0.211	-0.237
-481.376	168.787	-0.252	0.361
-480.362	429.573	-0.049	-0.107
-479.347	-35.351	0.076	0.042
-478.332	-200.000	0.022	0.213
-477.318	800.000	0.067	0.236
-476.303	-162.211	-0.499	0.025
-475.289	800.000	0.058	-0.186
-474.274	800.000	0.132	-0.387
-473.259	-80.990	0.252	0.084
-472.245	800.000	0.038	0.118
-471.230	83.596	0.240	-0.262
-470.216	267.284	-0.232	0.408
-469.201	55.269	0.136	0.132
-468.186	321.827	0.123	0.235
-467.172	-200.000	0.038	-0.247
-466.157	-39.278	0.284	0.150
-465.143	46.109	-0.122	0.114
-464.128	-200.000	0.061	-0.328
-463.113	754.288	-0.166	-0.451
-462.099	278.982	0.168	-0.301
-461.084	44.219	0.026	0.024
-460.070	800.000	-0.055	0.227
-459.055	127.152	-0.209	-0.266
-458.040	86.968	-0.056	0.062
-457.026	267.746	-0.167	0.294
-456.011	-8.809	0.136	-0.092
-454.997	-10.651	-0.139	-0.092
-453.982	333.749	-0.111	0.216
-452.968	-131.905	0.353	-0.046
-451.953	-98.505	0.147	0.038
-450.938	-35.659	0.168	-0.092
-449.924	-108.591	0.149	0.032
-448.909	138.871	-0.126	0.166
-447.895	209.439	-0.163	-0.256
-446.880	-200.000	0.027	-0.328
-445.865	-45.492	0.282	0.140
-444.851	-74.013	0.177	-0.064
-443.836	351.760	-0.084	-0.166
-442.822	-24.295	0.250	0.149
-441.807	131.178	0.265	0.342
-440.792	-200.000	0.008	-0.146
-439.778	-0.040	-0.306	0.219
-438.763	461.892	0.019	-0.042
-437.749	800.000	-0.081	-0.280
-436.734	-159.358	-0.256	0.014
-435.719	-35.510	-0.085	0.046
-434.705	306.753	-0.024	0.044
-433.690	-200.000	0.008	0.053
-432.676	-56.174	0.435	0.194
-431.661	225.070	0.159	0.258
-430.646	-200.000	-0.018	-0.288
-429.632	70.895	0.153	0.158
-428.617	-200.000	0.056	-0.268
-427.603	383.263	0.128	0.263
-426.588	-75.827	0.199	-0.071
-425.573	186.789	0.064	0.095
-424.559	672.898	-0.083	-0.216
-423.544	-200.000	0.010	-0.322
-422.530	66.606	-0.230	0.235
-421.515	-101.183	-0.118	0.029
-420.500	11.714	0.069	0.053
-419.486	-200.000	-0.006	-0.117
-418.471	-145.832	-0.341	-0.030
-417.457	-4.346	0.021	0.014
-416.442	26.763	-0.281	-0.236
-415.428	-121.327	-0.212	0.035
-414.413	-41.238	-0.218	0.113
-413.398	487.471	-0.061	-0.139
-412.384	-200.000	-0.018	0.093
-411.369	-97.151	0.310	-0.081
-410.355	800.000	-0.045	-0.163
-409.340	800.000	0.040	0.165
-408.325	-41.879	0.072	-0.037
-407.311	268.803	0.086	0.151
-406.296	782.515	-0.073	0.201
-405.282	-144.403	0.053	0.005
-404.267	-26.096	-0.095	-0.056
-403.252	-200.000	-0.014	-0.107
-402.238	-200.000	-0.019	0.202
-401.223	-111.476	0.282	-0.057
-400.209	668.330	-0.056	0.146
-399.194	-64.414	0.163	0.066
-398.179	-105.256	-0.124	-0.028
-397.165	103.214	-0.167	-0.196
-396.150	444.491	-0.086	0.188
-395.136	93.720	-0.153	0.174
-394.121	800.000	-0.075	-0.225
-393.106	16.208	0.112	-0.088
-392.092	39.957	0.073	0.066
-391.077	12.094	0.205	-0.158
-390.063	-200.000	0.056	-0.349
-389.048	-47.508	0.214	0.104
-388.033	330.810	0.039	-0.075
-387.019	-168.132	-0.123	0.005
-386.004	-173.334	0.059	0.002
-384.990	144.682	-0.191	0.255
-383.975	-200.000	-0.066	0.343
-382.960	97.950	-0.168	-0.194
-381.946	-200.000	-0.007	-0.031
-380.931	341.870	-0.033	-0.064
-379.917	414.026	0.277	0.589
-378.902	800.000	-0.068	0.257
-377.888	-113.158	0.131	0.026
-376.873	-117.261	-0.294	-0.053
-375.858	-200.000	-0.025	0.119
-374.844	-200.000	-0.042	-0.213
-373.829	76.663	0.136	-0.145
-372.815	-200.000	-0.066	0.306
-371.800	270.820	0.222	0.390
-370.785	800.000	0.066	0.204
-369.771	-56.665	0.067	0.030
-368.756	-200.000	0.031	0.198
-367.742	182.947	0.117	-0.173
-366.727	86.680	0.032	0.035
-365.712	-88.684	0.212	-0.063
-364.698	44.265	-0.110	-0.101
-363.683	-124.772	-0.290	-0.045
-362.669	-200.000	0.029	0.214
-361.654	0.189	0.390	0.278
-360.639	-100.387	-0.270	-0.067
-359.625	-116.903	-0.288	0.053
-358.610	7.482	0.037	0.028
-357.596	-12.477	-0.054	0.035
-356.581	-55.239	-0.156	-0.070
-355.566	-93.274	0.190	0.053
-354.552	-12.125	0.245	0.160
-353.537	-71.769	-0.327	0.122
-352.523	20.410	0.148	0.120
-351.508	-115.527	0.309	-0.058
-350.493	800.000	0.068	-0.297
-349.479	-200.000	0.029	-0.268
-348.464	81.798	-0.068	-0.074
-347.450	800.000	0.149	0.474
-346.435	225.185	-0.063	0.102
-345.420	800.000	0.026	0.104
-344.406	-54.286	0.062	-0.028
-343.391	116.481	-0.260	0.319
-342.377	-153.240	-0.302	0.021
-341.362	210.635	-0.173	-0.272
-340.348	-47.665	0.157	0.076
-339.333	193.200	-0.055	0.083
-338.318	-153.622	0.114	-0.008
-337.304	48.340	0.319	-0.298
-336.289	-84.675	0.195	-0.061
-335.275	-200.000	0.074	0.423
-334.260	-200.000	0.021	0.206
-333.245	107.451	-0.043	-0.051
-332.231	-42.745	-0.269	-0.137
-331.216	-200.000	-0.035	-0.219
-330.202	680.528	-0.091	-0.237
-329.187	-200.000	0.009	0.064
-328.172	208.366	0.245	0.383
-327.158	5.106	0.225	0.165
-326.143	356.086	0.059	-0.117
-325.129	158.733	-0.099	0.137
-324.114	573.320	0.115	0.280
-323.099	-112.869	0.209	-0.041
-322.085	-64.093	0.207	-0.084
-321.070	-52.148	0.100	-0.047
-320.056	66.663	0.042	0.043
-319.041	-72.066	-0.166	0.062
-318.026	-0.957	0.029	0.020
-317.012	-69.626	-0.200	0.076
-315.997	26.925	0.016	0.013
-314.983	-27.381	0.272	0.158
-313.968	48.779	-0.271	0.254
-312.953	192.018	0.155	0.233
-311.939	201.128	-0.167	0.257
-310.924	-95.841	-0.287	-0.076
-309.910	800.000	0.099	0.287
-308.895	-158.137	0.188	0.011
-307.880	-200.000	0.003	-0.307
-306.866	-31.504	-0.267	-0.150
-305.851	-200.000	0.053	-0.354
-304.837	-107.335	-0.055	-0.012
-303.822	1.020	0.144	0.103
-302.807	-75.282	-0.366	-0.130
-301.793	-200.000	-0.019	-0.101
-300.778	306.910	-0.112	0.208
-299.764	369.169	0.111	0.223
-298.749	-11.640	0.047	-0.031
-297.735	-200.000	-0.035	0.322
-296.720	5.921	-0.138	-0.102
-295.705	800.000	0.027	-0.104
-294.691	435.631	0.024	0.052
-293.676	-29.370	0.159	0.091
-292.662	-82.412	-0.250	-0.081
-291.647	77.994	0.141	-0.150
-290.632	63.603	-0.149	0.149
-289.618	-200.000	-0.013	-0.118
-288.603	-71.376	0.120	0.045
-287.589	-8.264	0.206	-0.138
-286.574	-178.652	-0.214	0.005
-285.559	46.604	0.034	-0.031
-284.545	63.409	-0.082	0.082
-283.530	-37.285	-0.284	-0.151
-282.516	-200.000	0.003	0.118
-281.501	-125.320	0.109	-0.017
-280.486	393.574	0.078	-0.162
-279.472	22.306	0.071	-0.058
-278.457	-115.113	-0.402	0.076
-277.443	117.761	0.129	-0.159
-276.428	800.000	-0.107	0.296
-275.413	167.086	0.155	-0.219
-274.399	-144.749	0.102	0.009
-273.384	-63.459	-0.271	0.111
-272.370	756.093	0.064	0.174
-271.355	-39.452	-0.177	0.093
-270.340	90.641	-0.027	-0.030
-269.326	-74.659	-0.040	-0.014
-268.311	-103.489	-0.300	-0.070
-267.297	800.000	-0.107	0.304
-266.282	127.648	0.162	0.204
-265.267	21.245	-0.124	-0.101
-264.253	177.163	-0.196	-0.284
-263.238	-165.361	0.091	-0.004
-262.224	113.541	0.066	-0.080
-261.209	-54.413	-0.375	0.169
-260.195	107.205	0.103	0.122
-259.180	-200.000	0.037	0.241
-258.165	-169.060	0.036	-0.001
-257.151	156.112	0.029	-0.040
-256.136	-136.988	0.168	0.019
-255.122	-61.053	-0.066	0.028
-254.107	127.166	-0.243	-0.307
-253.092	293.653	-0.117	-0.212
-252.078	118.381	0.092	-0.113
-251.063	-44.872	0.181	0.090
-250.049	42.633	-0.139	-0.126
-249.034	88.657	0.077	0.085
-248.019	192.048	-0.027	-0.041
-247.005	-12.854	0.157	0.102
-245.990	79.733	-0.157	0.168
-244.976	172.120	-0.091	-0.130
-243.961	-118.346	-0.301	0.053
-242.946	800.000	0.039	0.132
-241.932	-34.154	-0.147	-0.080
-240.917	-38.010	0.276	-0.146
-239.903	-200.000	-0.005	-0.308
-238.888	102.431	-0.055	-0.064
-237.873	-126.551	0.125	-0.019
-236.859	-6.992	0.209	0.141
-235.844	-77.272	0.176	0.061
-234.830	365.214	-0.072	0.144
-233.815	138.007	0.281	-0.366
-232.800	195.926	0.141	-0.214
-231.786	-182.183	-0.151	-0.003
-230.771	-37.929	0.261	0.138
-229.757	140.262	0.156	-0.204
-228.742	11.340	0.049	0.037
-227.727	366.090	0.012	0.025
-226.713	-200.000	0.027	-0.221
-225.698	800.000	-0.076	0.298
-224.684	-44.891	-0.093	-0.046
-223.669	394.685	0.029	0.061
-222.655	55.406	0.247	-0.237
-221.640	56.942	0.281	-0.272
-220.625	-60.834	-0.284	0.119
-219.611	18.411	0.317	0.252
-218.596	-15.246	-0.126	0.080
-217.582	-200.000	0.001	0.127
-216.567	108.819	-0.227	0.270
-215.552	-74.615	0.227	-0.081
-214.538	647.805	-0.096	-0.245
-213.523	-200.000	-0.020	0.145
-212.509	-53.566	0.229	0.104
-211.494	-150.211	-0.081	-0.006
-210.479	2.599	-0.300	-0.216
-209.465	-193.834	0.232	0.002
-208.450	104.771	-0.118	0.138
-207.436	-200.000	0.002	-0.049
-206.421	-200.000	-0.017	-0.082
-205.406	155.649	-0.060	-0.082
-204.392	79.507	-0.177	0.189
-203.377	152.589	0.148	-0.201
-202.363	800.000	0.094	-0.290
-201.348	50.513	-0.187	-0.176
-200.333	800.000	-0.065	-0.212
-199.319	800.000	0.031	-0.130
-198.304	532.674	-0.019	0.044
-197.290	-56.284	-0.054	-0.024
-196.275	393.668	-0.071	0.148
-195.260	-26.164	0.073	0.043
-194.246	-200.000	0.001	0.015
-193.231	-103.007	-0.255	-0.060
-192.217	-200.000	-0.004	0.240
-191.202	-10.657	0.168	0.110
-190.187	-200.000	-0.028	0.283
-189.173	159.164	-0.137	0.189
-188.158	-17.090	-0.038	0.024
-187.144	-46.515	0.115	-0.056
-186.129	-99.278	-0.246	0.062
-185.114	210.251	-0.077	0.119
-184.100	-167.277	0.192	-0.008
-183.085	-4.185	0.081	-0.056
-182.071	-18.407	0.148	0.092
-181.056	-10.775	-0.170	-0.111
-180.042	-200.000	0.052	-0.257
-179.027	-67.603	0.652	0.254
-178.012	487.199	-0.111	0.251
-176.998	-187.316	0.189	0.003
-175.983	166.248	-0.169	0.238
-174.969	137.230	0.084	0.109
-173.954	-200.000	-0.020	0.147
-172.939	-105.620	-0.267	0.060
-171.925	-111.666	0.142	0.029
-170.910	-200.000	-0.002	-0.024
-169.896	117.319	0.180	-0.220
-168.881	-200.000	-0.030	0.150
-167.866	16.140	-0.149	-0.117
-166.852	187.544	-0.064	-0.094
-165.837	800.000	0.053	0.169
-164.823	-130.982	0.095	-0.013
-163.808	-128.540	0.089	0.012
-162.793	204.413	0.195	-0.300
-161.779	334.126	0.236	-0.454
-160.764	602.538	-0.035	0.085
-159.750	-26.531	-0.132	0.077
-158.735	-150.812	0.075	0.006
-157.720	-52.779	0.300	-0.137
-156.706	-200.000	-0.025	0.198
-155.691	-52.970	-0.127	0.058
-154.677	365.293	0.033	0.067
-153.662	-28.865	0.026	0.015
-152.647	-26.115	-0.200	0.117
-151.633	-36.333	0.135	-0.072
-150.618	367.964	-0.111	0.223
-149.604	-185.419	0.109	0.002
-148.589	-200.000	0.018	-0.141
-147.574	195.678	0.263	-0.397
-146.560	-9.514	-0.239	-0.158
-145.545	12.424	-0.169	0.129
-144.531	-84.873	-0.182	0.057
-143.516	216.457	0.160	0.252
-142.502	-112.330	-0.288	-0.057
-141.487	-27.685	0.021	-0.012
-140.472	-76.308	0.280	0.098
-139.458	-116.150	-0.109	-0.020
-138.443	15.093	-0.143	-0.111
-137.429	-200.000	0.003	-0.243
-136.414	2.127	0.257	-0.184
-135.399	-169.445	0.285	-0.010
-134.385	800.000	0.044	0.186
-133.370	-52.164	0.221	-0.102
-132.356	-23.504	0.108	-0.064
-131.341	768.199	-0.124	0.333
-130.326	800.000	0.052	-0.178
-129.312	-127.458	-0.128	0.018
-128.297	-145.366	0.134	-0.012
-127.283	29.854	0.142	0.120
-126.268	-98.271	0.429	-0.109
-125.253	-200.000	0.008	0.129
-124.239	177.265	0.220	0.317
-123.224	78.169	-0.067	0.071
-122.210	-183.143	-0.297	0.005
-121.195	2.789	-0.097	-0.070
