DTS Sentinel unit serial number:	SN413079Multiplexer serial number:	ORYXHardware model number:	OX4-SRSoftware version number:	ORYX F/W v4.00 Oryx Data Collector v3.7.2.0data status	okinstallation	princeton_trtdifferential loss correction	single-endedforward channel	channel 4reverse channel	N/Adate	2019/09/13time	03:29:34forward acquisition time	60.00reverse acquisition time	0.00gamma	496.2192k internal	0.2320k external	0.2320temperature offset calibration	1.0196default loss term (dB/km)	0.3790temperature slope calibration	1.0000multiplexer offset coefficient	1.0000multiplexer slope coefficient	1.0000fibre end	0.00T internal ref (°C)	27.31T ext. ref 1 (°C)	4.09T ext. ref 2 (°C)	21.79length (m)	temperature (°C)	Stokes	anti-Stokes-747.200	-61.294	0.216	-0.092
-746.185	800.000	-0.067	0.267
-745.171	-43.562	-0.174	-0.089
-744.156	-21.017	-0.163	-0.101
-743.142	477.038	0.128	0.292
-742.127	-200.000	0.061	0.336
-741.112	-79.168	-0.337	-0.116
-740.098	276.950	0.160	0.288
-739.083	39.104	0.087	-0.078
-738.069	800.000	-0.130	0.449
-737.054	-200.000	0.004	0.107
-736.039	-200.000	-0.029	0.138
-735.025	-24.313	-0.290	-0.175
-734.010	800.000	-0.111	-0.366
-732.996	140.938	-0.275	-0.367
-731.981	1.995	-0.196	-0.143
-730.966	-200.000	0.001	-0.151
-729.952	800.000	0.023	-0.065
-728.937	-119.484	-0.387	-0.068
-727.923	123.735	-0.269	-0.341
-726.908	800.000	-0.053	-0.184
-725.894	111.056	0.162	-0.197
-724.879	42.474	-0.265	-0.244
-723.864	-16.111	0.042	-0.027
-722.850	-19.251	-0.157	0.099
-721.835	-183.160	0.116	-0.002
-720.821	-33.117	-0.231	0.129
-719.806	67.044	-0.163	0.168
-718.791	-200.000	-0.018	-0.222
-717.777	-200.000	-0.030	-0.313
-716.762	98.403	-0.077	-0.090
-715.748	484.861	0.105	0.242
-714.733	133.541	-0.110	-0.143
-713.718	-200.000	-0.123	0.000
-712.704	800.000	-0.029	-0.126
-711.689	-49.891	-0.067	0.032
-710.675	800.000	0.016	0.059
-709.660	120.683	-0.076	-0.096
-708.645	-62.981	0.173	0.072
-707.631	-200.000	-0.002	-0.024
-706.616	134.189	0.200	-0.262
-705.602	-139.898	-0.118	-0.013
-704.587	224.750	-0.133	0.218
-703.572	-200.000	-0.367	-0.002
-702.558	-46.423	0.345	0.171
-701.543	-200.000	0.029	0.197
-700.529	502.611	-0.049	-0.115
-699.514	123.703	0.151	0.192
-698.499	15.295	-0.333	-0.264
-697.485	564.815	0.062	0.153
-696.470	415.417	0.075	-0.160
-695.456	800.000	-0.098	-0.367
-694.441	-82.160	0.086	-0.028
-693.426	-200.000	0.005	-0.040
-692.412	3.291	-0.076	-0.056
-691.397	102.109	-0.135	0.159
-690.383	-162.670	-0.209	-0.010
-689.368	-100.333	0.246	-0.062
-688.354	43.493	-0.109	0.101
-687.339	-200.000	-0.001	0.422
-686.324	267.302	-0.103	0.182
-685.310	408.164	0.208	-0.444
-684.295	-200.000	-0.015	0.069
-683.281	69.291	-0.119	0.123
-682.266	-146.167	0.266	0.024
-681.251	-180.154	0.139	-0.003
-680.237	-182.711	0.112	-0.002
-679.222	800.000	-0.070	-0.199
-678.208	800.000	0.025	0.093
-677.193	-141.431	-0.241	-0.025
-676.178	-174.423	0.152	-0.004
-675.164	-200.000	-0.014	0.286
-674.149	-200.000	-0.017	-0.241
-673.135	297.980	-0.115	0.212
-672.120	800.000	0.055	-0.165
-671.105	274.581	0.014	0.024
-670.091	-32.952	0.124	-0.069
-669.076	-191.979	-0.242	-0.002
-668.062	-83.684	-0.181	0.058
-667.047	-200.000	0.032	0.300
-666.032	162.208	0.059	0.083
-665.018	18.016	-0.176	-0.142
-664.003	132.557	0.277	-0.360
-662.989	-97.392	0.273	-0.072
-661.974	-200.000	-0.035	-0.333
-660.959	-19.469	-0.104	-0.065
-659.945	473.167	-0.023	-0.053
-658.930	-30.472	0.252	0.144
-657.916	-162.313	0.129	-0.006
-656.901	-115.692	-0.112	-0.021
-655.886	313.324	0.082	0.156
-654.872	-200.000	0.032	0.217
-653.857	20.966	-0.236	-0.193
-652.843	413.299	0.062	-0.134
-651.828	108.813	0.265	-0.320
-650.814	-87.321	-0.265	0.081
-649.799	800.000	0.033	0.094
-648.784	167.986	-0.169	0.242
-647.770	115.057	0.253	0.311
-646.755	147.608	0.120	0.163
-645.741	-200.000	-0.064	0.424
-644.726	-102.889	-0.302	0.072
-643.711	-12.023	-0.259	-0.171
-642.697	-200.000	0.006	-0.041
-641.682	-200.000	-0.017	0.334
-640.668	-124.727	0.100	-0.016
-639.653	-166.260	-0.637	-0.027
-638.638	297.986	0.088	-0.164
-637.624	-1.022	-0.171	-0.122
-636.609	141.686	0.143	0.190
-635.595	-161.330	-0.097	0.005
-634.580	301.113	-0.179	-0.332
-633.565	-147.319	-0.227	0.019
-632.551	-75.248	-0.233	-0.084
-631.536	-200.000	-0.007	0.107
-630.522	117.254	0.162	0.200
-629.507	-36.797	-0.153	-0.083
-628.492	498.547	0.037	0.086
-627.478	-200.000	-0.021	-0.145
-626.463	-200.000	0.029	0.217
-625.449	-125.427	-0.177	-0.027
-624.434	-154.894	-0.228	0.015
-623.419	-38.069	-0.230	-0.123
-622.405	-74.852	0.056	0.020
-621.390	-141.041	0.212	0.022
-620.376	117.897	0.174	-0.216
-619.361	-101.790	0.132	-0.032
-618.346	800.000	0.066	0.220
-617.332	101.913	0.116	-0.137
-616.317	112.772	0.045	0.055
-615.303	800.000	0.080	-0.334
-614.288	15.983	0.053	0.042
-613.273	800.000	-0.040	-0.138
-612.259	800.000	-0.022	0.060
-611.244	-79.444	-0.282	-0.096
-610.230	90.651	-0.218	-0.245
-609.215	14.557	-0.240	-0.189
-608.201	17.515	0.268	-0.214
-607.186	343.974	0.182	-0.358
-606.171	274.211	-0.130	-0.231
-605.157	-25.252	0.140	0.083
-604.142	-200.000	0.038	-0.321
-603.128	29.362	0.071	0.061
-602.113	5.807	0.267	0.199
-601.098	214.223	0.186	0.296
-600.084	43.153	0.077	-0.070
-599.069	-200.000	0.003	-0.396
-598.055	-200.000	0.006	0.391
-597.040	-24.577	-0.251	0.150
-596.025	800.000	-0.077	-0.232
-595.011	44.875	-0.353	-0.327
-593.996	-165.661	0.334	0.015
-592.982	6.664	0.206	-0.154
-591.967	-100.822	0.161	0.040
-590.952	-53.021	0.272	0.126
-589.938	-27.181	0.339	0.199
-588.923	800.000	-0.060	0.219
-587.909	21.876	0.246	0.201
-586.894	32.031	-0.146	-0.126
-585.879	686.006	-0.114	-0.300
-584.865	-200.000	-0.015	-0.095
-583.850	-102.844	-0.305	0.073
-582.836	632.772	0.100	-0.255
-581.821	264.843	0.113	-0.198
-580.806	-144.345	-0.120	-0.011
-579.792	-119.575	0.300	0.052
-578.777	565.367	0.048	0.118
-577.763	250.801	0.186	-0.317
-576.748	800.000	-0.085	-0.257
-575.733	-200.000	-0.003	0.076
-574.719	173.270	-0.147	0.213
-573.704	-25.552	0.340	0.202
-572.690	21.896	0.173	-0.141
-571.675	-38.126	0.044	0.024
-570.661	800.000	-0.026	0.110
-569.646	82.560	-0.120	-0.131
-568.631	-152.356	0.338	-0.024
-567.617	325.154	0.035	0.067
-566.602	-42.807	0.210	0.107
-565.588	-200.000	-0.031	0.143
-564.573	-200.000	0.056	0.306
-563.558	-115.612	0.378	-0.071
-562.544	24.733	0.033	-0.028
-561.529	-200.000	0.011	-0.093
-560.515	84.978	-0.154	-0.170
-559.500	-40.139	-0.136	-0.071
-558.485	-200.000	0.003	-0.034
-557.471	683.769	0.097	-0.254
-556.456	-87.877	0.206	0.062
-555.442	-87.070	-0.297	-0.091
-554.427	-71.760	-0.215	0.081
-553.412	800.000	-0.068	-0.235
-552.398	371.893	0.099	-0.201
-551.383	800.000	-0.055	-0.214
-550.369	-98.450	0.254	0.065
-549.354	-9.128	0.232	0.156
-548.339	-143.062	-0.122	-0.012
-547.325	695.661	0.104	-0.275
-546.310	96.143	-0.286	0.328
-545.296	480.234	-0.022	-0.051
-544.281	334.406	0.044	-0.085
-543.266	537.109	-0.115	-0.274
-542.252	51.236	-0.301	0.287
-541.237	800.000	-0.043	0.125
-540.223	-200.000	0.040	0.296
-539.208	-52.465	-0.199	-0.092
-538.193	82.011	0.094	-0.102
-537.179	-200.000	0.005	-0.163
-536.164	161.749	-0.147	0.207
-535.150	-200.000	-0.042	0.287
-534.135	423.572	-0.085	-0.183
-533.121	-33.251	-0.382	0.212
-532.106	60.855	0.103	0.102
-531.091	-200.000	-0.004	0.146
-530.077	-200.000	-0.177	-0.001
-529.062	122.397	-0.193	0.242
-528.048	-200.000	-0.018	0.326
-527.033	64.458	0.037	0.038
-526.018	-14.808	-0.159	-0.102
-525.004	-21.154	-0.222	-0.136
-523.989	53.149	-0.258	-0.248
-522.975	98.133	0.231	-0.267
-521.960	800.000	-0.051	-0.178
-520.945	-200.000	0.027	-0.170
-519.931	-95.689	0.189	-0.051
-518.916	-163.128	0.187	0.009
-517.902	108.547	-0.060	-0.072
-516.887	235.243	0.068	-0.112
-515.872	-56.152	0.060	0.027
-514.858	20.189	-0.159	-0.129
-513.843	-66.427	0.297	0.118
-512.829	-153.789	0.173	0.012
-511.814	-200.000	-0.009	0.050
-510.799	-59.321	-0.127	-0.055
-509.785	800.000	0.050	0.175
-508.770	-81.625	0.226	0.074
-507.756	107.236	0.181	-0.215
-506.741	-118.297	0.083	0.015
-505.726	-47.925	0.236	-0.115
-504.712	-40.688	-0.347	-0.180
-503.697	-200.000	-0.014	-0.624
-502.683	532.672	0.229	-0.543
-501.668	-200.000	-0.009	0.179
-500.653	309.486	0.035	0.065
-499.639	416.196	-0.148	0.317
-498.624	-44.261	0.053	-0.027
-497.610	99.559	0.055	-0.064
-496.595	-51.059	-0.102	0.048
-495.581	36.270	0.045	0.040
-494.566	-80.358	-0.174	-0.058
-493.551	-200.000	0.028	0.535
-492.537	47.029	-0.068	-0.064
-491.522	-39.164	-0.147	0.077
-490.508	-16.046	-0.189	-0.121
-489.493	-96.788	-0.433	-0.114
-488.478	153.382	-0.240	-0.329
-487.464	178.602	-0.032	-0.046
-486.449	402.072	0.092	-0.193
-485.435	70.115	-0.153	-0.158
-484.420	800.000	-0.010	-0.045
-483.405	-48.893	0.594	-0.285
-482.391	58.210	0.098	-0.096
-481.376	-122.844	0.254	0.041
-480.362	-34.317	-0.285	-0.157
-479.347	-5.781	-0.234	0.160
-478.332	-4.672	0.216	0.149
-477.318	30.601	-0.009	-0.007
-476.303	175.347	-0.065	0.095
-475.289	-32.986	0.207	0.115
-474.274	-61.963	-0.138	0.058
-473.259	-200.000	-0.000	0.005
-472.245	242.837	0.133	-0.222
-471.230	-21.360	-0.042	0.025
-470.216	266.505	-0.116	-0.203
-469.201	408.134	-0.194	0.410
-468.186	296.710	0.046	-0.084
-467.172	-28.057	-0.042	0.024
-466.157	-48.657	0.113	0.054
-465.143	282.486	0.098	-0.176
-464.128	800.000	-0.135	-0.387
-463.113	176.465	0.158	0.230
-462.099	-62.432	-0.072	-0.030
-461.084	-200.000	0.013	0.094
-460.070	-161.201	-0.199	-0.010
-459.055	-4.939	0.197	-0.136
-458.040	381.212	-0.148	-0.304
-457.026	-200.000	-0.024	0.245
-456.011	173.387	0.110	0.159
-454.997	-200.000	-0.036	-0.176
-453.982	-10.269	-0.203	0.135
-452.968	-1.219	0.173	0.122
-451.953	227.875	0.105	-0.171
-450.938	429.497	0.060	0.130
-449.924	800.000	0.028	-0.085
-448.909	-200.000	0.010	0.058
-447.895	-107.213	0.368	0.081
-446.880	-132.003	-0.367	0.048
-445.865	-127.203	0.226	-0.033
-444.851	131.552	-0.145	-0.186
-443.836	-200.000	-0.013	-0.151
-442.822	-200.000	-0.011	-0.448
-441.807	-119.578	-0.312	-0.054
-440.792	-79.102	-0.124	0.042
-439.778	-171.061	-0.035	0.001
-438.763	-66.528	0.092	-0.036
-437.749	546.672	0.147	0.351
-436.734	461.265	-0.034	-0.076
-435.719	-200.000	0.014	0.107
-434.705	13.903	-0.055	-0.043
-433.690	47.112	-0.197	0.184
-432.676	-66.088	-0.107	-0.043
-431.661	-62.708	-0.267	-0.111
-430.646	800.000	-0.044	0.179
-429.632	-200.000	-0.001	-0.139
-428.617	213.352	-0.161	-0.254
-427.603	-111.690	-0.146	-0.029
-426.588	153.091	-0.031	0.043
-425.573	10.584	0.103	-0.079
-424.559	-200.000	-0.058	-0.284
-423.544	33.758	0.061	0.053
-422.530	474.216	0.180	0.405
-421.515	198.806	-0.187	0.286
-420.500	-78.707	-0.390	-0.133
-419.486	48.623	-0.353	-0.331
-418.471	-61.941	-0.402	0.168
-417.457	398.169	0.039	0.081
-416.442	605.050	0.062	-0.155
-415.428	-12.541	-0.366	0.238
-414.413	35.621	0.036	0.031
-413.398	-58.992	0.145	-0.062
-412.384	-200.000	-0.013	0.193
-411.369	-13.352	-0.370	0.240
-410.355	177.094	0.047	0.069
-409.340	-94.670	0.313	0.085
-408.325	278.727	-0.049	0.088
-407.311	-200.000	0.022	-0.146
-406.296	119.777	-0.075	-0.093
-405.282	-33.970	-0.107	-0.059
-404.267	-120.691	0.501	-0.084
-403.252	49.710	0.378	0.356
-402.238	-24.276	0.126	0.075
-401.223	146.282	0.077	0.103
-400.209	-200.000	-0.018	0.352
-399.194	46.026	0.142	0.131
-398.179	800.000	0.037	0.123
-397.165	417.241	0.101	0.216
-396.150	1.383	-0.156	0.112
-395.136	-200.000	-0.007	0.195
-394.121	66.698	-0.085	-0.087
-393.106	-200.000	-0.014	0.181
-392.092	541.407	0.012	-0.029
-391.077	47.054	0.032	0.029
-390.063	-83.774	-0.297	-0.095
-389.048	-179.489	0.122	-0.003
-388.033	-200.000	-0.006	0.379
-387.019	-192.629	-0.418	-0.004
-386.004	-48.442	-0.234	-0.112
-384.990	362.578	0.091	-0.181
-383.975	-200.000	0.006	0.226
-382.960	-200.000	-0.013	0.146
-381.946	-16.767	0.099	-0.063
-380.931	-110.536	0.012	0.003
-379.917	35.457	-0.087	-0.076
-378.902	-24.203	-0.245	0.146
-377.888	155.425	0.207	-0.284
-376.873	-12.718	-0.232	0.151
-375.858	180.527	-0.136	-0.199
-374.844	-110.749	0.341	0.070
-373.829	83.060	-0.075	-0.081
-372.815	-3.464	-0.115	-0.080
-371.800	-200.000	0.043	-0.244
-370.785	1.782	0.144	-0.104
-369.771	204.836	-0.056	0.086
-368.756	165.333	-0.111	-0.156
-367.742	-200.000	0.011	0.446
-366.727	191.321	-0.115	0.172
-365.712	119.541	-0.115	-0.142
-364.698	-200.000	0.002	-0.103
-363.683	104.749	0.116	-0.137
-362.669	-126.397	0.318	0.047
-361.654	249.773	0.138	0.233
-360.639	-46.782	0.163	0.079
-359.625	-72.514	0.165	-0.061
-358.610	378.098	-0.090	-0.184
-357.596	233.480	0.182	0.298
-356.581	151.690	-0.059	0.080
-355.566	-11.968	-0.207	-0.135
-354.552	38.831	0.317	0.282
-353.537	-200.000	0.003	-0.121
-352.523	51.146	0.103	-0.098
-351.508	47.934	-0.080	-0.074
-350.493	800.000	0.054	0.182
-349.479	-181.705	-0.130	-0.002
-348.464	21.199	0.158	-0.128
-347.450	-151.392	0.240	0.018
-346.435	-150.433	0.056	0.004
-345.420	-200.000	0.049	0.261
-344.406	-49.960	0.028	-0.013
-343.391	-54.439	0.251	-0.113
-342.377	43.429	-0.136	-0.124
-341.362	-121.943	-0.213	-0.035
-340.348	-48.836	-0.025	-0.012
-339.333	-200.000	-0.018	0.092
-338.318	202.849	-0.104	-0.160
-337.304	91.636	0.252	-0.281
-336.289	224.042	0.141	0.227
-335.275	800.000	-0.020	0.059
-334.260	243.153	0.122	0.204
-333.245	-163.069	-0.324	0.016
-332.231	404.028	0.132	-0.277
-331.216	-29.509	0.024	0.014
-330.202	-200.000	-0.005	-0.506
-329.187	14.119	0.179	-0.139
-328.172	133.314	-0.028	-0.036
-327.158	-134.851	0.364	0.044
-326.143	-168.297	0.147	-0.006
-325.129	230.435	-0.112	-0.183
-324.114	-2.457	0.041	-0.028
-323.099	-89.528	0.158	0.046
-322.085	800.000	0.064	-0.186
-321.070	800.000	0.061	-0.248
-320.056	233.841	-0.137	0.224
-319.041	800.000	0.083	0.337
-318.026	800.000	0.089	-0.302
-317.012	47.515	-0.117	-0.108
-315.997	-33.476	-0.223	0.123
-314.983	57.195	0.068	0.066
-313.968	-200.000	-0.030	-0.211
-312.953	135.921	0.184	0.239
-311.939	-130.537	-0.210	-0.028
-310.924	82.465	-0.172	0.185
-309.910	224.046	0.201	0.322
-308.895	-81.794	-0.404	0.132
-307.880	240.212	0.052	-0.086
-306.866	476.460	0.101	-0.227
-305.851	-71.348	-0.269	0.100
-304.837	-58.338	-0.015	0.007
-303.822	-200.000	-0.007	0.192
-302.807	-200.000	0.013	-0.088
-301.793	331.763	-0.114	0.218
-300.778	210.023	0.102	0.159
-299.764	800.000	0.050	-0.198
-298.749	800.000	0.170	-0.577
-297.735	-106.799	0.161	0.036
-296.720	-200.000	-0.013	0.087
-295.705	-17.284	0.129	-0.081
-294.691	-10.203	-0.210	0.139
-293.676	-200.000	0.034	0.174
-292.662	-200.000	0.010	0.230
-291.647	507.272	0.007	-0.016
-290.632	800.000	0.010	0.040
-289.618	-200.000	-0.019	0.099
-288.603	41.819	-0.233	0.210
-287.589	23.629	0.239	0.196
-286.574	-68.266	0.140	-0.054
-285.559	-66.721	0.107	-0.042
-284.545	-14.563	0.149	-0.095
-283.530	800.000	0.010	0.036
-282.516	-200.000	0.033	-0.170
-281.501	800.000	0.017	-0.058
-280.486	335.908	0.053	0.103
-279.472	-38.404	0.155	-0.082
-278.457	13.098	-0.163	0.125
-277.443	141.318	-0.179	0.235
-276.428	11.344	-0.100	0.076
-275.413	62.766	0.117	0.116
-274.399	-102.743	0.209	0.050
-273.384	800.000	0.018	-0.079
-272.370	414.326	0.082	-0.174
-271.355	-177.449	0.274	0.007
-270.340	-200.000	0.041	0.377
-269.326	112.201	-0.146	0.176
-268.311	3.282	-0.169	-0.122
-267.297	105.093	0.076	0.089
-266.282	88.399	-0.297	0.327
-265.267	240.967	0.118	0.195
-264.253	-157.637	0.348	0.021
-263.238	-65.982	-0.126	-0.050
-262.224	169.553	-0.155	-0.219
-261.209	-200.000	-0.007	0.189
-260.195	-200.000	-0.000	-0.122
-259.180	179.055	-0.310	-0.449
-258.165	523.153	-0.080	-0.186
-257.151	106.754	-0.282	0.333
-256.136	93.785	-0.102	-0.115
-255.122	-161.400	-0.023	-0.001
-254.107	190.664	0.024	-0.036
-253.092	-122.582	0.317	0.051
-252.078	-106.912	-0.161	0.035
-251.063	-200.000	0.078	0.370
-250.049	-66.045	-0.190	-0.075
-249.034	-92.873	-0.111	0.031
-248.019	-73.462	-0.134	-0.049
-247.005	-200.000	0.009	0.162
-245.990	134.066	0.147	0.189
-244.976	-40.204	0.261	-0.135
-243.961	61.782	0.128	0.126
-242.946	-200.000	-0.022	0.446
-241.932	-136.343	0.173	-0.020
-240.917	800.000	0.015	0.055
-239.903	30.220	0.221	0.187
-238.888	-19.965	-0.205	0.126
-237.873	-200.000	-0.023	0.316
-236.859	53.389	0.088	0.084
-235.844	-169.319	0.214	-0.008
-234.830	-106.993	0.417	-0.091
-233.815	-144.218	0.435	-0.040
-232.800	-200.000	-0.028	0.386
-231.786	-172.966	-0.267	0.008
-230.771	72.425	0.159	-0.164
-229.757	39.007	0.417	0.369
-228.742	-200.000	0.233	0.001
-227.727	-200.000	0.000	0.019
-226.713	320.262	-0.207	0.390
-225.698	437.120	0.069	-0.149
-224.684	70.601	-0.120	0.123
-223.669	394.404	0.114	0.234
-222.655	-192.424	-0.256	0.002
-221.640	34.327	0.036	0.031
-220.625	-200.000	-0.079	-0.379
-219.611	-83.695	0.248	0.078
-218.596	722.040	0.150	0.396
-217.582	-29.741	0.142	-0.080
-216.567	-26.761	-0.254	-0.147
-215.552	-15.291	-0.331	-0.210
-214.538	-133.880	-0.320	0.039
-213.523	163.065	0.030	-0.042
-212.509	-89.349	0.057	0.017
-211.494	52.874	0.079	-0.075
-210.479	-200.000	0.000	-0.242
-209.465	-97.746	-0.234	-0.060
-208.450	-150.096	0.241	-0.019
-207.436	-76.044	0.020	0.007
-206.421	800.000	-0.047	-0.179
-205.406	-200.000	0.003	0.083
-204.392	-180.068	-0.276	0.006
-203.377	180.556	0.260	-0.378
-202.363	-34.609	0.369	0.200
-201.348	-63.108	0.294	0.120
-200.333	800.000	0.050	-0.209
-199.319	268.915	-0.195	-0.338
-198.304	31.719	-0.293	-0.249
-197.290	-200.000	-0.019	-0.183
-196.275	-55.235	0.075	-0.033
-195.260	-200.000	-0.033	0.261
-194.246	51.887	-0.459	-0.432
-193.231	-51.858	0.236	0.109
-192.217	-163.635	-0.070	0.003
-191.202	-129.315	-0.269	0.037
-190.187	30.543	0.126	-0.106
-189.173	-42.729	0.124	0.063
-188.158	10.571	-0.142	0.107
-187.144	-34.535	-0.156	0.085
-186.129	-186.678	0.244	0.003
-185.114	67.957	0.268	-0.271
-184.100	-200.000	-0.005	-0.032
-183.085	800.000	0.092	-0.297
-182.071	155.114	0.134	0.183
-181.056	-43.587	-0.153	0.077
-180.042	27.659	0.039	0.033
-179.027	-36.383	0.143	0.076
-178.012	-200.000	0.028	0.287
-176.998	34.170	-0.089	-0.076
-175.983	223.361	-0.155	0.247
-174.969	368.166	-0.089	-0.178
-173.954	-200.000	-0.013	-0.104
-172.939	192.513	-0.261	-0.390
-171.925	-103.932	-0.440	-0.102
-170.910	-45.081	0.258	-0.127
-169.896	4.603	-0.169	-0.123
-168.881	-62.450	0.129	-0.053
-167.866	107.776	-0.205	-0.241
-166.852	-49.452	-0.188	0.089
-165.837	-124.742	-0.239	-0.037
-164.823	800.000	0.030	0.099
-163.808	19.178	-0.041	0.033
-162.793	-12.186	0.050	0.032
-161.779	-73.576	0.377	-0.136
-160.764	39.879	0.215	-0.191
-159.750	-200.000	0.006	-0.183
-158.735	-155.718	0.348	-0.022
-157.720	-200.000	-0.057	0.298
-156.706	800.000	-0.067	-0.188
-155.691	124.883	-0.293	0.364
-154.677	-200.000	0.010	0.210
-153.662	107.220	0.092	-0.108
-152.647	158.955	-0.080	-0.110
-151.633	143.038	0.252	0.331
-150.618	-10.769	-0.158	0.103
-149.604	-35.393	-0.183	-0.098
-148.589	52.734	0.264	-0.249
-147.574	254.575	-0.083	0.140
-146.560	249.105	0.105	-0.176
-145.545	163.242	0.085	-0.117
-144.531	62.012	-0.111	-0.109
-143.516	-60.708	-0.117	0.049
-142.502	433.585	-0.138	0.296
-141.487	-200.000	-0.019	0.104
-140.472	-89.356	0.162	0.047
-139.458	-10.577	0.169	0.111
-138.443	-27.050	-0.047	0.027
-137.429	187.551	0.117	-0.172
-136.414	466.203	-0.141	0.313
-135.399	76.688	-0.266	0.279
-134.385	39.091	-0.164	-0.145
-133.370	190.118	0.047	-0.070
-132.356	-160.063	0.439	0.024
-131.341	23.549	0.072	-0.059
-130.326	767.613	-0.107	-0.287
-129.312	-106.634	-0.383	0.084
-128.297	-86.371	0.557	0.169
-127.283	800.000	0.058	0.209
-126.268	-78.030	-0.282	0.096
-125.253	114.050	-0.187	0.225
-124.239	-200.000	0.026	-0.265
-123.224	-103.283	-0.206	-0.048
-122.210	800.000	-0.077	0.234
-121.195	800.000	0.076	-0.210
