DTS Sentinel unit serial number:	SN413079Multiplexer serial number:	ORYXHardware model number:	OX4-SRSoftware version number:	ORYX F/W v4.00 Oryx Data Collector v3.7.2.0data status	okinstallation	princeton_trtdifferential loss correction	single-endedforward channel	channel 4reverse channel	N/Adate	2019/09/12time	10:31:11forward acquisition time	60.00reverse acquisition time	0.00gamma	496.2192k internal	0.2296k external	0.2296temperature offset calibration	1.0067default loss term (dB/km)	0.3790temperature slope calibration	1.0000multiplexer offset coefficient	1.0000multiplexer slope coefficient	1.0000fibre end	0.00T internal ref (°C)	37.11T ext. ref 1 (°C)	1.86T ext. ref 2 (°C)	34.98length (m)	temperature (°C)	Stokes	anti-Stokes-747.200	-200.000	-0.025	0.383
-746.185	537.817	0.194	0.471
-745.171	-59.693	0.297	-0.130
-744.156	-200.000	0.009	0.072
-743.142	-200.000	-0.036	0.245
-742.127	205.941	0.126	0.201
-741.112	-30.031	-0.335	0.195
-740.098	-174.378	0.353	-0.010
-739.083	-200.000	0.036	0.187
-738.069	43.871	-0.304	0.284
-737.054	10.860	-0.134	0.104
-736.039	120.156	-0.347	-0.440
-735.025	-86.565	-0.115	-0.036
-734.010	-2.939	-0.343	-0.245
-732.996	550.774	0.054	0.133
-731.981	-200.000	0.029	0.168
-730.966	334.015	-0.094	0.187
-729.952	-77.493	-0.614	0.217
-728.937	-61.488	-0.147	-0.063
-727.923	15.967	0.154	-0.124
-726.908	427.563	0.032	-0.070
-725.894	243.731	-0.164	0.281
-724.879	-113.921	-0.187	0.037
-723.864	182.296	-0.140	0.210
-722.850	555.406	-0.075	-0.183
-721.835	-184.423	-0.187	-0.003
-720.821	614.583	-0.094	0.240
-719.806	800.000	0.037	0.108
-718.791	-0.835	-0.098	-0.071
-717.777	-79.759	-0.248	0.085
-716.762	-48.799	-0.040	-0.019
-715.748	-110.078	-0.095	-0.020
-714.733	298.769	0.154	0.289
-713.718	53.282	0.329	0.321
-712.704	410.279	-0.137	0.296
-711.689	800.000	0.073	0.214
-710.675	-150.852	0.047	0.004
-709.660	349.532	0.161	0.325
-708.645	81.245	-0.065	-0.072
-707.631	-135.286	-0.087	0.011
-706.616	-97.345	0.239	-0.064
-705.602	-151.996	-0.026	-0.002
-704.587	-175.001	0.148	0.004
-703.572	188.495	0.084	-0.128
-702.558	-91.031	-0.094	-0.028
-701.543	261.219	-0.096	-0.169
-700.529	-145.049	0.189	0.018
-699.514	-89.936	0.156	0.046
-698.499	-158.512	0.304	-0.018
-697.485	31.136	-0.359	0.314
-696.470	-200.000	0.028	0.332
-695.456	-62.119	0.153	-0.065
-694.441	-121.398	0.381	-0.065
-693.426	-25.503	-0.167	0.100
-692.412	-74.629	0.226	0.083
-691.397	77.129	-0.185	0.201
-690.383	124.990	-0.243	0.312
-689.368	112.433	-0.208	-0.257
-688.354	163.308	-0.014	0.019
-687.339	-64.733	-0.126	0.052
-686.324	218.840	0.097	-0.158
-685.310	328.858	-0.152	-0.299
-684.295	116.602	-0.132	-0.165
-683.281	-136.683	-0.240	-0.028
-682.266	162.684	-0.176	-0.252
-681.251	231.041	-0.051	-0.085
-680.237	86.838	-0.045	0.050
-679.222	-176.127	0.116	-0.003
-678.208	-77.103	-0.324	0.115
-677.193	-120.192	-0.342	-0.060
-676.178	-200.000	0.013	-0.108
-675.164	-54.324	0.082	-0.038
-674.149	186.570	0.076	0.115
-673.135	93.723	-0.118	0.137
-672.120	-177.722	-0.388	0.010
-671.105	645.629	0.023	-0.060
-670.091	16.313	0.287	0.231
-669.076	800.000	0.117	0.358
-668.062	-39.588	0.107	0.057
-667.047	22.636	0.172	-0.143
-666.032	-20.094	0.230	-0.145
-665.018	-200.000	-0.031	-0.462
-664.003	-161.350	-0.075	-0.004
-662.989	83.334	0.116	-0.128
-661.974	800.000	-0.054	-0.200
-660.959	-183.518	-0.313	-0.005
-659.945	-80.333	-0.205	-0.070
-658.930	-7.942	-0.169	0.116
-657.916	65.375	0.186	0.191
-656.901	61.878	0.196	0.199
-655.886	181.104	-0.063	-0.094
-654.872	-68.134	0.082	0.033
-653.857	-131.404	0.209	-0.028
-652.843	-200.000	0.010	0.104
-651.828	103.713	0.050	0.060
-650.814	15.724	0.093	-0.075
-649.799	-200.000	-0.045	-0.270
-648.784	85.346	-0.141	-0.157
-647.770	1.182	0.223	-0.163
-646.755	133.645	-0.070	-0.092
-645.741	-173.523	-0.336	0.010
-644.726	139.329	0.343	-0.459
-643.711	77.182	-0.147	-0.159
-642.697	126.764	-0.132	0.171
-641.682	-140.495	0.103	-0.011
-640.668	266.165	-0.074	-0.131
-639.653	800.000	-0.094	-0.392
-638.638	-200.000	0.086	-0.397
-637.624	-134.729	-0.065	0.008
-636.609	800.000	-0.081	0.324
-635.595	-91.437	-0.270	-0.079
-634.580	277.895	-0.148	-0.268
-633.565	-5.071	0.081	-0.057
-632.551	-153.956	0.284	0.020
-631.536	333.486	-0.090	-0.177
-630.522	593.452	0.038	-0.096
-629.507	-91.454	-0.180	-0.052
-628.492	-76.493	-0.339	0.121
-627.478	180.077	-0.058	-0.087
-626.463	-172.300	-0.187	-0.006
-625.449	114.227	-0.111	0.137
-624.434	-49.927	-0.215	-0.104
-623.419	35.391	-0.214	-0.191
-622.405	5.022	-0.196	-0.147
-621.390	-106.755	0.249	-0.056
-620.376	28.112	0.083	0.072
-619.361	-200.000	-0.017	-0.148
-618.346	-136.371	0.323	0.038
-617.332	-94.869	-0.225	0.062
-616.317	-97.018	-0.182	-0.048
-615.303	174.020	-0.170	-0.250
-614.288	355.403	0.096	0.194
-613.273	-200.000	-0.009	0.255
-612.259	-5.977	0.272	-0.189
-611.244	387.309	-0.087	-0.182
-610.230	32.574	-0.162	-0.142
-609.215	-71.666	0.410	-0.156
-608.201	-200.000	-0.015	0.264
-607.186	140.011	0.033	-0.044
-606.171	-99.215	-0.193	-0.050
-605.157	23.659	0.303	0.253
-604.142	58.759	-0.162	0.162
-603.128	-78.313	-0.307	-0.107
-602.113	-57.121	0.140	-0.063
-601.098	-63.239	-0.246	-0.103
-600.084	-69.671	-0.184	-0.072
-599.069	-200.000	-0.073	-0.374
-598.055	78.206	-0.261	-0.283
-597.040	-92.252	0.209	-0.060
-596.025	137.125	0.068	-0.090
-595.011	40.175	-0.399	0.364
-593.996	-150.676	0.264	0.020
-592.982	758.508	-0.049	0.134
-591.967	-15.004	0.246	0.160
-590.952	-52.899	0.173	-0.081
-589.938	447.164	-0.042	-0.093
-588.923	-83.081	0.389	-0.127
-587.909	-200.000	0.005	0.036
-586.894	30.000	-0.083	0.072
-585.879	800.000	-0.106	0.354
-584.865	49.293	-0.169	0.161
-583.850	-108.868	0.091	0.020
-582.836	29.549	0.221	0.191
-581.821	185.843	0.082	0.123
-580.806	800.000	0.024	0.069
-579.792	44.000	0.140	-0.130
-578.777	800.000	0.031	0.089
-577.763	9.426	0.160	-0.123
-576.748	800.000	0.070	-0.230
-575.733	-171.571	0.071	-0.002
-574.719	-136.140	0.471	0.056
-573.704	-17.489	-0.453	-0.289
-572.690	102.271	0.121	-0.144
-571.675	800.000	-0.062	-0.264
-570.661	311.208	-0.061	0.116
-569.646	48.858	-0.082	-0.078
-568.631	178.605	-0.172	0.255
-567.617	800.000	0.067	0.238
-566.602	-200.000	-0.015	-0.121
-565.588	102.068	0.147	-0.174
-564.573	-10.105	-0.078	0.053
-563.558	-6.700	0.046	-0.032
-562.544	51.930	0.070	0.068
-561.529	69.083	0.029	-0.031
-560.515	157.840	-0.155	0.218
-559.500	306.000	-0.102	-0.193
-558.485	-200.000	-0.017	-0.110
-557.471	60.979	0.100	-0.100
-556.456	-200.000	0.020	-0.125
-555.442	-200.000	-0.012	0.070
-554.427	-200.000	0.071	-0.394
-553.412	197.271	-0.270	-0.417
-552.398	-125.128	0.115	-0.018
-551.383	-133.672	0.121	-0.015
-550.369	-200.000	-0.006	-0.399
-549.354	-87.746	0.326	0.100
-548.339	-141.341	0.079	-0.008
-547.325	428.291	-0.074	0.162
-546.310	-200.000	0.055	0.296
-545.296	46.506	-0.086	-0.081
-544.281	-79.792	-0.009	0.003
-543.266	-185.479	0.528	-0.008
-542.252	558.707	0.122	-0.297
-541.237	39.463	0.282	-0.257
-540.223	-200.000	-0.044	-0.354
-539.208	-169.403	0.224	-0.008
-538.193	119.877	0.065	0.082
-537.179	-149.878	0.221	-0.018
-536.164	180.975	-0.189	0.281
-535.150	360.110	-0.063	-0.127
-534.135	160.826	0.089	-0.126
-533.121	-200.000	0.021	-0.136
-532.106	87.766	0.009	0.010
-531.091	-54.077	0.357	0.165
-530.077	74.170	-0.151	-0.160
-529.062	-124.378	0.110	-0.017
-528.048	25.788	0.132	0.112
-527.033	250.129	0.104	0.179
-526.018	-200.000	-0.043	-0.254
-525.004	-83.916	0.204	0.066
-523.989	-163.329	0.173	-0.008
-522.975	-70.719	0.041	0.016
-521.960	609.333	0.070	0.177
-520.945	-200.000	-0.005	-0.152
-519.931	4.909	0.126	-0.094
-518.916	120.622	0.192	-0.242
-517.902	520.915	-0.074	0.175
-516.887	-104.937	-0.330	-0.077
-515.872	137.335	-0.173	0.229
-514.858	-200.000	0.035	0.331
-513.843	-200.000	0.031	-0.233
-512.829	-69.513	-0.125	-0.049
-511.814	-20.548	-0.084	-0.052
-510.799	-200.000	0.010	-0.114
-509.785	-112.176	-0.370	0.075
-508.770	-35.583	0.176	0.097
-507.756	-84.856	0.122	-0.039
-506.741	-200.000	-0.001	-0.327
-505.726	132.679	-0.141	0.184
-504.712	128.022	0.093	-0.120
-503.697	800.000	0.003	-0.010
-502.683	-104.015	-0.272	-0.064
-501.668	-58.554	0.300	-0.132
-500.653	462.529	0.039	0.089
-499.639	117.453	-0.178	0.221
-498.624	-128.987	0.313	0.044
-497.610	228.893	-0.071	0.117
-496.595	38.756	0.041	0.037
-495.581	451.208	0.097	-0.217
-494.566	298.540	0.134	-0.249
-493.551	-81.815	0.247	0.082
-492.537	-200.000	-0.012	-0.087
-491.522	223.495	-0.087	-0.143
-490.508	-200.000	-0.047	-0.264
-489.493	-138.102	0.224	-0.025
-488.478	-158.085	-0.172	-0.010
-487.464	-200.000	0.026	-0.125
-486.449	-200.000	-0.023	0.167
-485.435	160.164	0.108	0.152
-484.420	562.067	-0.073	0.180
-483.405	-89.617	-0.323	0.096
-482.391	-40.158	-0.034	0.018
-481.376	-139.984	0.564	0.060
-480.362	-147.522	-0.322	-0.027
-479.347	-26.156	-0.273	-0.162
-478.332	-98.868	0.035	-0.009
-477.318	10.254	-0.158	-0.122
-476.303	800.000	-0.007	-0.026
-475.289	-200.000	0.027	-0.132
-474.274	388.691	0.070	0.146
-473.259	-102.976	0.302	-0.072
-472.245	120.139	0.254	0.318
-471.230	-200.000	0.050	0.292
-470.216	-200.000	0.000	-0.165
-469.201	-78.771	-0.160	0.055
-468.186	-200.000	-0.005	0.245
-467.172	-200.000	-0.001	-0.032
-466.157	125.974	-0.125	-0.159
-465.143	-6.770	0.341	-0.235
-464.128	800.000	0.040	0.174
-463.113	-200.000	-0.001	0.047
-462.099	196.427	0.091	-0.141
-461.084	106.363	0.166	-0.199
-460.070	-200.000	-0.169	-0.000
-459.055	304.411	-0.096	-0.180
-458.040	-117.363	-0.183	0.034
-457.026	-200.000	-0.006	-0.167
-456.011	-24.698	0.127	-0.076
-454.997	800.000	-0.162	0.669
-453.982	31.391	-0.286	0.248
-452.968	274.560	-0.230	0.412
-451.953	-109.816	0.217	0.046
-450.938	-200.000	0.040	-0.466
-449.924	-47.268	0.097	-0.048
-448.909	318.727	0.238	-0.456
-447.895	-114.731	-0.078	-0.015
-446.880	-69.455	-0.101	0.039
-445.865	-200.000	0.008	-0.287
-444.851	-200.000	0.021	-0.287
-443.836	402.383	-0.179	-0.379
-442.822	-200.000	0.029	0.287
-441.807	-200.000	-0.037	0.178
-440.792	-39.050	0.177	-0.094
-439.778	-132.146	-0.113	0.015
-438.763	260.494	0.182	0.318
-437.749	-107.755	-0.128	0.028
-436.734	54.521	-0.276	-0.268
-435.719	-104.911	0.078	-0.018
-434.705	-104.716	0.129	0.030
-433.690	-139.207	0.139	-0.015
-432.676	4.530	-0.046	0.034
-431.661	366.597	0.053	-0.107
-430.646	-115.868	0.110	0.021
-429.632	150.441	0.054	-0.074
-428.617	80.742	-0.114	-0.124
-427.603	-32.570	-0.146	-0.082
-426.588	-103.180	0.094	0.022
-425.573	122.695	-0.301	0.380
-424.559	-200.000	-0.038	-0.268
-423.544	-3.105	-0.082	0.058
-422.530	-54.301	0.333	0.153
-421.515	140.076	-0.074	0.099
-420.500	800.000	-0.070	0.245
-419.486	-13.083	-0.105	-0.069
-418.471	800.000	0.100	-0.324
-417.457	-164.586	-0.240	-0.011
-416.442	-200.000	-0.004	0.255
-415.428	-200.000	0.025	0.205
-414.413	-77.350	-0.118	-0.041
-413.398	299.930	-0.014	0.026
-412.384	-99.338	0.085	-0.022
-411.369	-57.777	0.212	0.094
-410.355	800.000	-0.036	-0.102
-409.340	26.550	0.226	-0.191
-408.325	274.838	-0.063	0.113
-407.311	-200.000	0.013	-0.101
-406.296	-139.392	-0.193	0.021
-405.282	-56.394	-0.383	-0.171
-404.267	-104.284	0.166	0.039
-403.252	-75.731	-0.140	0.050
-402.238	-89.461	-0.285	-0.084
-401.223	-200.000	0.213	0.000
-400.209	-200.000	0.003	0.046
-399.194	800.000	0.046	-0.176
-398.179	-80.471	0.242	-0.082
-397.165	800.000	0.027	-0.113
-396.150	-200.000	-0.021	-0.213
-395.136	515.389	-0.031	-0.072
-394.121	-200.000	-0.005	-0.169
-393.106	539.092	-0.060	0.145
-392.092	50.449	0.170	-0.162
-391.077	32.989	-0.142	0.124
-390.063	-152.567	0.114	0.008
-389.048	-200.000	-0.078	0.345
-388.033	100.021	0.080	0.094
-387.019	-200.000	-0.007	0.085
-386.004	2.572	-0.163	0.119
-384.990	755.119	0.078	0.211
-383.975	137.460	-0.182	0.241
-382.960	317.454	0.181	-0.345
-381.946	65.360	0.195	-0.199
-380.931	-200.000	-0.022	0.184
-379.917	-54.299	-0.069	0.032
-378.902	89.934	-0.235	0.264
-377.888	-70.821	-0.169	0.064
-376.873	322.754	0.076	0.145
-375.858	-8.877	-0.235	0.159
-374.844	58.260	-0.160	0.158
-373.829	-200.000	0.011	-0.079
-372.815	-69.076	0.244	0.095
-371.800	34.627	-0.208	-0.183
-370.785	-106.408	-0.167	-0.038
-369.771	-23.040	0.213	0.129
-368.756	800.000	0.015	0.042
-367.742	-55.833	-0.077	0.034
-366.727	-200.000	0.045	0.207
-365.712	64.261	-0.205	-0.207
-364.698	83.692	-0.214	-0.235
-363.683	-136.797	0.076	-0.009
-362.669	-101.857	-0.311	0.076
-361.654	-200.000	0.007	0.422
-360.639	-124.924	0.299	0.046
-359.625	-55.159	-0.204	0.092
-358.610	-200.000	0.012	0.112
-357.596	71.912	-0.113	-0.119
-356.581	75.490	0.191	-0.203
-355.566	-51.612	0.477	0.224
-354.552	-59.213	-0.055	0.024
-353.537	-84.135	-0.200	0.064
-352.523	732.043	-0.070	0.187
-351.508	-103.659	0.288	0.068
-350.493	-88.348	0.132	0.040
-349.479	-163.677	-0.277	0.013
-348.464	-73.154	0.090	-0.033
-347.450	263.954	-0.155	-0.272
-346.435	-71.003	-0.052	0.020
-345.420	718.403	0.070	0.186
-344.406	-200.000	0.007	0.370
-343.391	229.472	-0.197	-0.324
-342.377	-125.243	-0.091	0.014
-341.362	-89.590	0.153	0.045
-340.348	435.311	0.121	-0.264
-339.333	-134.884	-0.085	-0.010
-338.318	424.450	-0.088	-0.190
-337.304	20.757	0.093	-0.076
-336.289	268.463	-0.143	-0.253
-335.275	-33.462	0.174	0.097
-334.260	-200.000	-0.026	0.195
-333.245	-200.000	-0.188	0.000
-332.231	163.250	-0.157	0.222
-331.216	378.314	-0.141	0.289
-330.202	800.000	-0.024	-0.094
-329.187	800.000	0.079	0.290
-328.172	-200.000	0.026	0.147
-327.158	61.506	0.200	0.200
-326.143	187.168	0.035	-0.052
-325.129	22.530	0.247	-0.203
-324.114	-192.189	0.324	0.003
-323.099	-136.740	0.100	0.012
-322.085	-53.508	-0.214	0.099
-321.070	11.581	0.134	-0.103
-320.056	298.350	0.059	-0.108
-319.041	-61.454	-0.054	0.023
-318.026	-200.000	0.003	-0.397
-317.012	-200.000	-0.024	-0.201
-315.997	-25.871	0.136	0.080
-314.983	62.025	0.182	-0.182
-313.968	-43.631	-0.029	-0.015
-312.953	-184.992	0.250	-0.004
-311.939	-47.617	-0.196	-0.095
-310.924	800.000	0.038	0.155
-309.910	-102.723	0.008	-0.002
-308.895	-85.580	0.164	0.051
-307.880	-61.525	-0.274	0.115
-306.866	-64.760	-0.377	0.153
-305.851	800.000	-0.050	-0.220
-304.837	343.264	-0.092	0.181
-303.822	351.644	0.082	-0.163
-302.807	72.531	-0.115	0.120
-301.793	215.207	0.141	0.225
-300.778	88.274	0.052	-0.058
-299.764	-107.432	0.127	0.028
-298.749	-131.043	-0.280	-0.037
-297.735	-200.000	0.019	0.142
-296.720	800.000	-0.021	0.090
-295.705	677.445	-0.045	-0.119
-294.691	-76.656	-0.309	-0.109
-293.676	-90.335	0.167	-0.049
-292.662	-200.000	-0.006	-0.166
-291.647	800.000	0.041	0.120
-290.632	44.192	-0.071	-0.066
-289.618	617.298	0.088	0.222
-288.603	-200.000	-0.361	-0.000
-287.589	-91.244	0.124	-0.036
-286.574	-17.373	0.196	0.124
-285.559	-88.946	-0.148	0.044
-284.545	-200.000	-0.023	-0.266
-283.530	-79.132	-0.356	-0.121
-282.516	70.301	0.249	0.259
-281.501	523.898	-0.048	0.114
-280.486	-56.911	0.037	-0.016
-279.472	-18.187	-0.159	0.100
-278.457	-173.482	0.183	0.006
-277.443	800.000	0.050	0.158
-276.428	-200.000	0.017	0.273
-275.413	131.320	-0.114	-0.147
-274.399	-42.407	0.106	-0.054
-273.384	161.497	-0.242	0.340
-272.370	788.175	-0.064	-0.175
-271.355	-77.328	-0.060	-0.021
-270.340	90.645	0.054	0.061
-269.326	800.000	0.084	-0.252
-268.311	213.018	0.181	-0.286
-267.297	-126.424	0.267	-0.040
-266.282	117.134	0.038	0.047
-265.267	-2.127	0.371	-0.261
-264.253	-200.000	0.007	-0.103
-263.238	157.611	0.128	0.178
-262.224	-19.639	0.271	-0.168
-261.209	800.000	-0.063	0.178
-260.195	-78.300	0.086	0.029
-259.180	-85.016	0.115	-0.036
-258.165	-200.000	0.031	0.141
-257.151	-18.996	0.153	-0.096
-256.136	25.062	0.164	-0.136
-255.122	139.781	-0.245	-0.323
-254.107	347.489	-0.217	0.428
-253.092	177.367	-0.047	-0.069
-252.078	-200.000	0.003	-0.065
-251.063	129.067	-0.047	0.059
-250.049	23.394	0.239	-0.197
-249.034	799.174	-0.096	0.266
-248.019	-64.592	0.134	-0.054
-247.005	-200.000	-0.007	-0.130
-245.990	-74.218	0.387	0.140
-244.976	137.050	0.095	-0.124
-243.961	131.064	-0.072	0.093
-242.946	-57.385	0.090	-0.040
-241.932	800.000	-0.033	0.114
-240.917	-85.749	-0.063	0.020
-239.903	-200.000	0.026	0.389
-238.888	-200.000	0.013	-0.164
-237.873	124.798	-0.177	0.223
-236.859	-100.472	-0.270	0.067
-235.844	474.357	0.039	0.087
-234.830	800.000	0.062	0.202
-233.815	-9.417	0.107	0.072
-232.800	800.000	0.087	0.246
-231.786	-43.611	-0.206	-0.104
-230.771	-200.000	-0.008	0.296
-229.757	405.005	-0.107	0.225
-228.742	-190.851	0.266	0.003
-227.727	173.123	0.250	-0.361
-226.713	52.426	-0.149	0.143
-225.698	40.404	-0.163	-0.147
-224.684	-20.098	0.239	-0.148
-223.669	78.365	0.009	0.009
-222.655	18.605	0.126	0.101
-221.640	-200.000	0.040	0.380
-220.625	698.400	0.051	0.135
-219.611	14.547	-0.367	-0.287
-218.596	75.210	-0.015	0.015
-217.582	16.896	-0.153	0.122
-216.567	54.145	0.147	0.142
-215.552	-149.502	-0.166	-0.013
-214.538	-179.835	-0.282	0.006
-213.523	514.161	0.119	-0.279
-212.509	-200.000	-0.017	0.180
-211.494	-147.159	-0.077	0.007
-210.479	-99.340	0.204	0.051
-209.465	800.000	-0.054	0.162
-208.450	-113.800	-0.251	-0.049
-207.436	-106.558	0.204	0.046
-206.421	13.850	-0.216	0.168
-205.406	224.891	0.109	0.177
-204.392	205.590	0.155	0.242
-203.377	374.236	-0.101	0.205
-202.363	-200.000	0.049	-0.308
-201.348	-122.387	0.297	0.048
-200.333	-47.818	-0.259	0.126
-199.319	-174.696	-0.239	-0.007
-198.304	48.328	-0.120	-0.112
-197.290	-91.154	0.376	0.108
-196.275	442.693	-0.046	0.100
-195.260	39.980	-0.234	0.210
-194.246	595.935	0.067	0.167
-193.231	132.126	0.068	0.088
-192.217	-200.000	-0.023	0.448
-191.202	-124.951	-0.287	0.044
-190.187	159.927	-0.223	0.310
-189.173	-87.280	-0.152	-0.046
-188.158	-27.283	-0.142	-0.083
-187.144	-200.000	0.001	0.052
-186.129	-150.044	0.191	0.015
-185.114	-147.103	-0.044	-0.004
-184.100	-177.642	-0.251	-0.006
-183.085	85.171	-0.141	-0.155
-182.071	15.627	-0.092	-0.073
-181.056	-100.456	-0.479	-0.119
-180.042	130.792	0.271	-0.347
-179.027	-178.038	-0.110	-0.003
-178.012	691.041	-0.049	0.130
-176.998	168.783	-0.184	0.262
-175.983	442.390	0.087	-0.191
-174.969	-33.426	0.074	0.041
-173.954	800.000	-0.083	0.278
-172.939	314.238	0.269	0.506
-171.925	0.103	-0.072	0.052
-170.910	337.855	0.080	0.155
-169.896	-153.634	-0.086	-0.006
-168.881	-64.615	0.410	0.166
-167.866	-47.650	-0.086	0.042
-166.852	106.041	-0.142	0.168
-165.837	800.000	-0.114	-0.321
-164.823	-57.541	-0.181	-0.079
-163.808	800.000	0.085	0.298
-162.793	-38.196	0.060	-0.032
-161.779	-47.099	0.295	-0.144
-160.764	-120.931	-0.381	-0.064
-159.750	502.928	0.026	0.061
-158.735	39.452	0.089	0.079
-157.720	-200.000	-0.047	0.240
-156.706	-200.000	-0.004	-0.024
-155.691	-31.476	0.211	-0.118
-154.677	-64.201	0.215	0.088
-153.662	-200.000	-0.004	-0.185
-152.647	-94.621	-0.178	-0.048
-151.633	-61.845	0.214	-0.089
-150.618	-28.959	-0.163	0.093
-149.604	-72.133	0.265	0.098
-148.589	167.983	0.046	0.065
-147.574	32.986	-0.193	-0.167
-146.560	-200.000	-0.018	0.257
-145.545	-125.747	0.233	0.035
-144.531	363.845	0.062	-0.124
-143.516	-89.586	0.182	0.053
-142.502	162.556	0.242	0.339
-141.487	-160.792	-0.233	-0.012
-140.472	-55.856	0.108	-0.048
-139.458	139.539	0.199	-0.262
-138.443	-12.682	-0.115	0.075
-137.429	-64.644	0.408	-0.165
-136.414	-200.000	-0.039	0.201
-135.399	-25.654	-0.096	-0.056
-134.385	93.921	0.186	0.211
-133.370	-137.582	-0.219	-0.025
-132.356	800.000	-0.043	-0.165
-131.341	-200.000	-0.013	0.224
-130.326	800.000	-0.046	0.166
-129.312	-77.988	0.177	-0.061
-128.297	-84.494	-0.032	-0.010
-127.283	214.936	0.173	0.274
-126.268	-200.000	-0.019	-0.247
-125.253	-100.561	-0.232	0.057
-124.239	195.019	0.165	0.249
-123.224	-53.984	0.258	0.117
-122.210	312.358	-0.119	0.222
