DTS Sentinel unit serial number:	SN413079Multiplexer serial number:	ORYXHardware model number:	OX4-SRSoftware version number:	ORYX F/W v4.00 Oryx Data Collector v3.7.2.0data status	okinstallation	princeton_trtdifferential loss correction	single-endedforward channel	channel 4reverse channel	N/Adate	2019/09/18time	09:49:35forward acquisition time	60.00reverse acquisition time	0.00gamma	496.2192k internal	0.2320k external	0.2320temperature offset calibration	0.9985default loss term (dB/km)	0.3790temperature slope calibration	1.0000multiplexer offset coefficient	1.0000multiplexer slope coefficient	1.0000fibre end	0.00T internal ref (°C)	27.06T ext. ref 1 (°C)	0.29T ext. ref 2 (°C)	23.69length (m)	temperature (°C)	Stokes	anti-Stokes-747.200	-200.000	0.005	-0.133
-746.185	-103.323	-0.123	-0.029
-745.171	15.292	-0.185	0.147
-744.156	175.308	0.183	0.268
-743.142	-200.000	0.003	-0.170
-742.127	74.040	-0.209	0.222
-741.112	-70.057	-0.105	-0.040
-740.098	-200.000	0.017	0.231
-739.083	220.149	0.093	-0.151
-738.069	800.000	0.053	-0.208
-737.054	-200.000	-0.048	0.392
-736.039	78.712	0.185	-0.200
-735.025	-88.007	0.265	-0.080
-734.010	-90.818	-0.419	-0.122
-732.996	-129.879	-0.403	-0.056
-731.981	347.829	-0.108	-0.215
-730.966	133.324	-0.090	0.117
-729.952	293.263	-0.052	-0.097
-728.937	-200.000	0.029	0.149
-727.923	-61.189	-0.350	0.149
-726.908	-200.000	-0.198	-0.001
-725.894	212.779	-0.120	-0.191
-724.879	195.333	-0.058	-0.090
-723.864	-81.644	0.211	-0.070
-722.850	28.406	-0.362	-0.309
-721.835	50.977	0.294	-0.281
-720.821	101.297	-0.195	-0.229
-719.806	800.000	-0.045	0.142
-718.791	36.518	0.280	0.250
-717.777	-74.809	0.317	-0.115
-716.762	-200.000	-0.056	-0.268
-715.748	-95.636	0.202	-0.054
-714.733	-200.000	0.069	0.361
-713.718	-29.360	0.105	0.061
-712.704	-68.277	-0.189	-0.074
-711.689	800.000	-0.056	0.173
-710.675	369.369	0.095	0.193
-709.660	137.965	0.180	-0.238
-708.645	-200.000	-0.068	-0.392
-707.631	286.767	-0.217	-0.396
-706.616	-200.000	-0.000	0.039
-705.602	-116.293	0.127	-0.024
-704.587	-18.105	0.180	-0.114
-703.572	-126.076	0.086	0.013
-702.558	-3.642	0.120	-0.084
-701.543	-200.000	0.014	0.227
-700.529	25.865	-0.098	-0.082
-699.514	82.613	0.234	-0.256
-698.499	800.000	0.046	-0.153
-697.485	800.000	0.078	-0.319
-696.470	800.000	-0.090	-0.351
-695.456	-200.000	0.006	-0.073
-694.441	-200.000	0.088	0.441
-693.426	252.669	-0.024	0.041
-692.412	-200.000	0.001	0.110
-691.397	-5.683	-0.304	-0.210
-690.383	-45.811	0.156	-0.078
-689.368	-200.000	-0.011	-0.342
-688.354	-200.000	-0.006	-0.146
-687.339	-70.855	0.395	0.150
-686.324	101.633	0.156	0.184
-685.310	45.354	0.169	-0.157
-684.295	-29.951	-0.129	0.074
-683.281	261.997	-0.117	-0.204
-682.266	3.115	0.101	0.074
-681.251	-134.950	-0.094	-0.011
-680.237	800.000	-0.027	-0.107
-679.222	-200.000	-0.008	0.060
-678.208	-12.849	0.124	-0.081
-677.193	-33.900	0.217	0.121
-676.178	-200.000	0.054	0.312
-675.164	58.111	0.076	0.075
-674.149	102.716	0.123	0.145
-673.135	159.455	0.175	0.246
-672.120	-100.726	0.165	0.041
-671.105	-171.844	0.128	0.004
-670.091	-55.088	-0.136	-0.062
-669.076	55.267	-0.146	-0.143
-668.062	187.943	-0.109	-0.165
-667.047	49.063	-0.215	0.203
-666.032	118.895	0.167	0.209
-665.018	-195.343	-0.285	0.002
-664.003	800.000	-0.051	-0.193
-662.989	-95.987	0.254	-0.068
-661.974	-141.997	-0.133	-0.013
-660.959	-200.000	-0.091	-0.417
-659.945	-136.051	-0.194	0.023
-658.930	182.936	-0.083	-0.124
-657.916	-51.402	-0.296	-0.139
-656.901	-200.000	0.001	0.063
-655.886	800.000	0.036	0.112
-654.872	169.551	0.054	0.077
-653.857	15.341	0.181	0.143
-652.843	-67.160	0.077	0.031
-651.828	-41.095	-0.119	0.062
-650.814	-90.634	-0.267	-0.078
-649.799	-46.209	0.196	-0.097
-648.784	-200.000	0.047	0.298
-647.770	-70.234	0.113	0.043
-646.755	-7.235	0.123	-0.084
-645.741	602.742	-0.041	-0.102
-644.726	13.542	0.137	0.107
-643.711	-138.686	0.296	-0.033
-642.697	-78.227	0.434	0.150
-641.682	800.000	-0.058	-0.179
-640.668	196.366	0.166	0.255
-639.653	-200.000	0.340	-0.002
-638.638	-5.409	-0.113	0.078
-637.624	-200.000	0.028	0.167
-636.609	800.000	0.087	0.289
-635.595	-61.415	0.177	-0.075
-634.580	-200.000	-0.012	-0.111
-633.565	-200.000	-0.030	-0.333
-632.551	-13.741	0.083	0.054
-631.536	-107.701	-0.177	0.039
-630.522	-138.529	-0.171	0.019
-629.507	-103.725	0.080	0.019
-628.492	-123.009	0.083	-0.013
-627.478	-200.000	0.041	-0.278
-626.463	29.263	0.066	0.057
-625.449	265.278	-0.086	-0.150
-624.434	137.947	-0.181	0.239
-623.419	8.663	-0.109	-0.083
-622.405	-14.170	0.018	-0.012
-621.390	-200.000	0.013	0.094
-620.376	-200.000	0.038	0.167
-619.361	-200.000	-0.012	-0.153
-618.346	-200.000	-0.005	-0.196
-617.332	-145.826	-0.292	-0.026
-616.317	284.387	-0.130	0.235
-615.303	-200.000	0.018	0.266
-614.288	-57.784	0.123	-0.054
-613.273	-57.266	0.395	-0.175
-612.259	800.000	0.168	-0.578
-611.244	-129.154	-0.276	-0.039
-610.230	92.767	0.130	-0.148
-609.215	-200.000	-0.312	0.000
-608.201	-92.711	0.186	-0.052
-607.186	326.366	-0.042	-0.081
-606.171	-26.778	0.049	-0.029
-605.157	800.000	-0.042	-0.155
-604.142	-111.992	-0.138	-0.028
-603.128	-54.795	0.099	0.045
-602.113	67.461	-0.225	0.231
-601.098	79.784	-0.196	-0.211
-600.084	-56.869	-0.152	-0.067
-599.069	112.265	0.157	0.191
-598.055	-200.000	-0.002	-0.188
-597.040	87.307	-0.279	-0.310
-596.025	-104.877	-0.198	0.046
-595.011	-39.553	0.240	0.126
-593.996	125.569	-0.194	-0.246
-592.982	-200.000	0.004	-0.043
-591.967	-200.000	-0.015	0.163
-590.952	719.798	0.091	-0.244
-589.938	-100.222	-0.125	0.031
-588.923	336.004	0.240	0.467
-587.909	-200.000	0.021	0.136
-586.894	-5.173	0.105	0.072
-585.879	124.663	0.136	-0.172
-584.865	-200.000	-0.031	-0.294
-583.850	503.652	0.038	0.088
-582.836	5.986	-0.053	-0.039
-581.821	-112.205	-0.295	0.059
-580.806	318.964	-0.045	-0.085
-579.792	-91.541	0.235	0.067
-578.777	-27.257	0.209	-0.122
-577.763	-89.939	0.225	0.066
-576.748	118.231	-0.166	0.206
-575.733	-102.379	0.158	-0.038
-574.719	-106.687	-0.334	-0.075
-573.704	-157.077	-0.156	0.010
-572.690	39.286	-0.120	0.108
-571.675	628.079	-0.062	-0.157
-570.661	-200.000	0.027	0.136
-569.646	800.000	0.048	0.134
-568.631	182.548	-0.146	-0.216
-567.617	131.325	0.007	0.009
-566.602	304.171	0.124	-0.231
-565.588	-119.161	-0.151	-0.026
-564.573	-46.591	0.156	-0.077
-563.558	800.000	0.090	-0.358
-562.544	789.210	-0.058	-0.159
-561.529	800.000	0.058	0.212
-560.515	-1.540	0.155	-0.110
-559.500	-90.823	-0.328	-0.095
-558.485	-200.000	-0.038	0.209
-557.471	-98.640	0.319	0.082
-556.456	-27.457	-0.429	0.251
-555.442	431.233	-0.038	-0.083
-554.427	64.905	-0.118	-0.119
-553.412	-200.000	-0.027	0.270
-552.398	800.000	0.056	0.239
-551.383	-200.000	-0.035	-0.226
-550.369	133.527	-0.131	0.170
-549.354	-118.840	0.256	0.045
-548.339	-200.000	-0.005	-0.139
-547.325	-46.416	-0.209	0.103
-546.310	255.959	-0.254	-0.438
-545.296	-38.111	-0.348	-0.185
-544.281	35.941	0.195	-0.172
-543.266	-200.000	0.035	-0.166
-542.252	-200.000	0.019	0.229
-541.237	-200.000	-0.030	0.311
-540.223	-100.929	-0.240	-0.059
-539.208	97.044	0.092	0.105
-538.193	-145.189	-0.352	-0.032
-537.179	-41.259	0.170	0.088
-536.164	-200.000	0.011	-0.130
-535.150	-200.000	0.001	0.094
-534.135	-22.465	-0.261	-0.158
-533.121	308.149	-0.146	0.274
-532.106	-5.330	0.093	0.064
-531.091	35.485	-0.089	0.078
-530.077	108.376	-0.285	-0.341
-529.062	-2.714	0.139	0.097
-528.048	-200.000	0.009	-0.080
-527.033	800.000	0.010	0.045
-526.018	158.492	-0.077	-0.108
-525.004	-24.325	-0.168	0.100
-523.989	800.000	0.027	0.091
-522.975	-24.152	0.066	-0.039
-521.960	800.000	-0.092	0.304
-520.945	-200.000	-0.001	-0.212
-519.931	-200.000	-0.097	0.494
-518.916	21.566	-0.057	0.046
-517.902	344.716	-0.086	0.168
-516.887	-92.995	-0.193	0.054
-515.872	-106.821	0.220	0.049
-514.858	575.006	-0.037	0.091
-513.843	-33.593	0.221	-0.122
-512.829	800.000	0.027	-0.099
-511.814	-200.000	0.014	-0.154
-510.799	22.831	0.146	-0.120
-509.785	-188.837	-0.207	-0.003
-508.770	51.613	0.057	0.054
-507.756	-150.761	0.014	-0.001
-506.741	238.819	0.026	0.043
-505.726	75.992	-0.153	-0.162
-504.712	507.371	-0.077	0.179
-503.697	-147.935	0.295	-0.025
-502.683	213.584	-0.112	0.177
-501.668	57.943	-0.140	-0.137
-500.653	-200.000	-0.007	-0.223
-499.639	129.256	0.156	0.200
-498.624	-22.418	0.283	-0.172
-497.610	-23.742	-0.270	0.162
-496.595	-71.419	0.101	0.038
-495.581	12.540	0.339	0.262
-494.566	199.831	0.065	0.100
-493.551	-80.960	-0.109	-0.036
-492.537	-200.000	0.001	-0.131
-491.522	-126.129	0.222	-0.033
-490.508	-23.673	-0.154	0.093
-489.493	800.000	-0.063	0.181
-488.478	-76.700	-0.206	0.072
-487.464	-200.000	0.012	0.198
-486.449	-78.911	0.283	-0.097
-485.435	-130.725	-0.140	0.019
-484.420	-200.000	0.008	0.179
-483.405	-140.915	0.331	0.034
-482.391	39.860	-0.210	0.189
-481.376	44.654	0.129	-0.119
-480.362	-82.317	-0.115	0.038
-479.347	237.878	-0.067	-0.112
-478.332	362.349	-0.048	0.097
-477.318	-83.851	0.199	0.063
-476.303	-200.000	0.024	-0.219
-475.289	-168.885	-0.165	0.006
-474.274	294.584	-0.016	0.029
-473.259	-144.791	0.195	0.018
-472.245	-41.233	0.217	-0.112
-471.230	-200.000	0.024	-0.117
-470.216	785.729	0.087	0.238
-469.201	800.000	0.038	-0.158
-468.186	-158.821	-0.310	-0.018
-467.172	110.933	-0.082	-0.098
-466.157	-77.286	0.247	0.086
-465.143	389.752	-0.051	-0.105
-464.128	248.808	-0.075	-0.127
-463.113	358.955	0.102	0.205
-462.099	-85.604	0.314	-0.098
-461.084	15.759	0.266	0.209
-460.070	-131.764	-0.249	-0.033
-459.055	800.000	-0.031	-0.103
-458.040	-200.000	-0.023	-0.174
-457.026	-79.114	-0.058	0.020
-456.011	227.652	-0.161	-0.261
-454.997	-200.000	0.001	-0.355
-453.982	552.675	-0.057	0.138
-452.968	62.347	-0.116	0.116
-451.953	-100.614	-0.107	-0.026
-450.938	-25.585	-0.025	-0.015
-449.924	-24.857	-0.046	0.027
-448.909	-95.176	0.037	0.010
-447.895	-157.968	-0.180	-0.011
-446.880	-129.670	0.216	-0.030
-445.865	449.031	0.026	0.058
-444.851	-61.944	-0.149	0.062
-443.836	800.000	-0.010	0.042
-442.822	34.073	0.122	0.106
-441.807	791.190	0.101	0.279
-440.792	-59.655	0.218	0.093
-439.778	800.000	0.042	-0.162
-438.763	800.000	0.127	-0.439
-437.749	-200.000	0.034	0.192
-436.734	-200.000	0.008	0.073
-435.719	800.000	0.032	0.105
-434.705	53.678	-0.031	-0.029
-433.690	113.159	0.035	0.042
-432.676	-65.138	-0.292	0.118
-431.661	-9.199	-0.385	-0.257
-430.646	-87.227	0.109	-0.033
-429.632	74.381	0.092	0.097
-428.617	281.627	0.114	0.205
-427.603	800.000	-0.070	0.195
-426.588	208.526	0.151	0.235
-425.573	-200.000	0.020	-0.215
-424.559	97.271	-0.264	-0.303
-423.544	-70.397	0.151	0.057
-422.530	132.945	-0.125	0.162
-421.515	-162.533	-0.134	0.007
-420.500	-27.405	-0.196	-0.114
-419.486	19.710	-0.331	-0.266
-418.471	154.530	-0.182	-0.249
-417.457	-179.091	0.255	0.006
-416.442	91.047	-0.071	0.080
-415.428	-72.530	0.271	0.100
-414.413	-30.960	0.009	0.005
-413.398	800.000	-0.050	-0.142
-412.384	-200.000	-0.045	0.223
-411.369	326.474	0.115	-0.220
-410.355	-16.054	0.179	-0.113
-409.340	25.199	-0.051	-0.042
-408.325	-128.899	-0.281	-0.039
-407.311	-51.524	-0.258	0.120
-406.296	31.262	0.124	-0.107
-405.282	-116.702	0.300	-0.055
-404.267	3.101	0.331	-0.240
-403.252	800.000	-0.044	-0.171
-402.238	-88.942	-0.273	0.081
-401.223	-13.507	0.258	0.167
-400.209	30.552	0.216	-0.185
-399.194	-52.262	-0.209	-0.097
-398.179	-200.000	0.068	-0.351
-397.165	-113.975	0.276	-0.053
-396.150	58.375	0.256	0.251
-395.136	800.000	-0.063	0.192
-394.121	249.954	-0.110	0.186
-393.106	304.141	-0.203	0.375
-392.092	266.203	-0.190	-0.331
-391.077	59.723	-0.286	-0.282
-390.063	7.604	-0.282	-0.210
-389.048	-147.624	-0.227	0.019
-388.033	-200.000	-0.042	0.217
-387.019	111.185	0.288	-0.346
-386.004	223.864	0.035	-0.056
-384.990	18.130	-0.066	-0.052
-383.975	-76.535	-0.122	-0.043
-382.960	331.409	0.129	0.249
-381.946	256.518	0.118	0.202
-380.931	65.519	0.244	-0.247
-379.917	543.720	-0.114	-0.271
-378.902	115.778	-0.035	-0.042
-377.888	800.000	-0.033	-0.114
-376.873	800.000	0.027	0.116
-375.858	-200.000	0.025	-0.181
-374.844	0.635	-0.451	0.321
-373.829	681.684	0.055	-0.143
-372.815	-58.800	0.199	0.086
-371.800	-167.121	-0.179	0.007
-370.785	-200.000	0.009	-0.153
-369.771	-137.836	-0.195	0.022
-368.756	248.580	-0.114	-0.192
-367.742	800.000	-0.062	-0.247
-366.727	-200.000	0.020	-0.236
-365.712	-200.000	-0.017	-0.130
-364.698	88.465	-0.174	-0.192
-363.683	800.000	-0.089	-0.373
-362.669	161.751	-0.139	-0.194
-361.654	-83.039	-0.387	-0.124
-360.639	-88.247	0.128	-0.038
-359.625	-200.000	-0.026	-0.177
-358.610	357.482	-0.116	0.230
-357.596	-196.554	0.198	0.001
-356.581	-200.000	-0.117	0.000
-355.566	-134.329	-0.290	-0.035
-354.552	800.000	0.046	0.176
-353.537	-200.000	-0.031	0.301
-352.523	-91.499	-0.099	-0.028
-351.508	-50.060	0.303	-0.143
-350.493	-44.264	-0.378	0.189
-349.479	195.120	0.141	0.213
-348.464	-200.000	0.023	-0.130
-347.450	187.797	-0.123	-0.183
-346.435	105.994	-0.349	0.411
-345.420	-200.000	-0.029	0.211
-344.406	-172.875	0.251	0.008
-343.391	-49.464	-0.164	-0.078
-342.377	56.268	-0.103	0.100
-341.362	800.000	0.036	0.105
-340.348	-200.000	0.001	-0.183
-339.333	-82.856	-0.251	0.081
-338.318	800.000	0.056	-0.174
-337.304	-101.958	-0.115	-0.028
-336.289	288.573	-0.130	-0.234
-335.275	-200.000	0.029	0.152
-334.260	245.891	-0.114	0.190
-333.245	108.928	0.443	0.527
-332.231	114.385	0.140	0.170
-331.216	479.385	0.097	0.218
-330.202	-21.355	0.298	-0.181
-329.187	-200.000	-0.011	0.271
-328.172	114.961	-0.173	-0.210
-327.158	284.452	-0.073	-0.130
-326.143	-70.322	0.151	-0.057
-325.129	353.038	0.082	-0.162
-324.114	-60.680	-0.158	0.066
-323.099	-59.846	0.096	0.041
-322.085	-159.705	0.441	0.024
-321.070	631.290	-0.070	-0.176
-320.056	800.000	-0.058	-0.184
-319.041	-200.000	-0.017	0.202
-318.026	-110.733	-0.419	-0.086
-317.012	-155.457	0.353	0.023
-315.997	340.414	-0.058	0.113
-314.983	189.404	-0.049	-0.073
-313.968	503.107	0.077	-0.176
-312.953	-71.843	-0.301	-0.112
-311.939	-149.596	-0.116	-0.009
-310.924	178.749	0.103	0.149
-309.910	219.211	0.061	-0.097
-308.895	86.894	-0.142	0.156
-307.880	-58.353	0.099	0.043
-306.866	193.872	0.242	0.365
-305.851	130.998	0.090	-0.115
-304.837	132.661	0.137	0.175
-303.822	-35.265	-0.141	-0.076
-302.807	122.288	0.210	-0.261
-301.793	-14.119	0.320	-0.205
-300.778	-200.000	-0.003	-0.082
-299.764	-82.856	-0.036	0.012
-298.749	377.557	0.226	0.459
-297.735	-154.503	-0.090	0.006
-296.720	661.083	-0.145	-0.372
-295.705	-112.857	0.228	0.045
-294.691	800.000	-0.041	0.152
-293.676	-64.284	0.149	0.060
-292.662	61.870	0.237	0.235
-291.647	-18.049	-0.370	-0.230
-290.632	-102.422	-0.287	-0.068
-289.618	-54.089	0.241	0.109
-288.603	-91.595	0.302	-0.086
-287.589	-200.000	-0.045	-0.270
-286.574	-132.734	-0.560	0.071
-285.559	-85.155	-0.284	0.088
-284.545	-40.278	0.136	-0.070
-283.530	-109.124	0.252	0.053
-282.516	342.050	-0.200	0.388
-281.501	-95.378	-0.185	0.049
-280.486	800.000	-0.019	0.075
-279.472	-56.811	0.221	-0.097
-278.457	-75.250	-0.256	0.091
-277.443	651.279	0.093	-0.236
-276.428	800.000	-0.055	-0.184
-275.413	-7.635	-0.044	-0.029
-274.399	-200.000	-0.019	-0.362
-273.384	112.994	0.088	0.106
-272.370	-85.020	-0.125	-0.039
-271.355	500.875	0.077	-0.177
-270.340	47.462	0.187	0.173
-269.326	45.584	-0.229	-0.210
-268.311	800.000	0.101	0.391
-267.297	-8.362	-0.091	0.061
-266.282	-151.590	0.061	-0.004
-265.267	-104.593	-0.218	0.050
-264.253	57.346	0.121	-0.117
-263.238	-34.108	0.257	0.140
-262.224	800.000	0.082	0.323
-261.209	-91.979	0.109	0.031
-260.195	-76.479	0.204	0.071
-259.180	800.000	0.018	0.064
-258.165	-27.169	0.268	-0.155
-257.151	-163.745	0.418	-0.020
-256.136	-200.000	-0.009	0.094
-255.122	-65.722	0.284	-0.113
-254.107	-50.296	-0.225	0.106
-253.092	-69.406	-0.267	-0.102
-252.078	90.436	0.099	-0.110
-251.063	800.000	-0.105	0.299
-250.049	800.000	-0.042	0.150
-249.034	53.017	0.134	0.128
-248.019	100.155	0.112	0.129
-247.005	-200.000	0.002	-0.137
-245.990	143.046	-0.177	0.233
-244.976	-200.000	0.044	-0.396
-243.961	70.278	0.187	-0.191
-242.946	-93.317	0.227	-0.062
-241.932	-70.135	0.140	0.053
-240.917	761.625	-0.043	-0.116
-239.903	-131.752	0.109	0.014
-238.888	531.486	-0.111	0.260
-237.873	-79.915	0.282	-0.094
-236.859	-140.508	-0.152	-0.016
-235.844	214.854	0.256	-0.403
-234.830	420.599	0.097	-0.207
-233.815	603.964	-0.094	0.232
-232.800	-200.000	0.010	-0.054
-231.786	-27.348	0.121	-0.070
-230.771	800.000	-0.070	0.251
-229.757	-88.319	-0.273	-0.081
-228.742	254.918	0.226	-0.383
-227.727	-99.135	0.336	-0.084
-226.713	59.603	-0.135	-0.132
-225.698	32.524	-0.091	-0.078
-224.684	50.870	0.029	0.028
-223.669	98.863	-0.096	0.110
-222.655	-70.171	-0.250	0.094
-221.640	-0.192	0.307	0.217
-220.625	204.889	-0.115	0.177
-219.611	-16.266	0.385	0.242
-218.596	30.095	0.239	-0.202
-217.582	-167.483	-0.120	-0.005
-216.567	9.682	-0.103	-0.078
-215.552	-98.364	0.280	-0.071
-214.538	48.388	0.230	-0.214
-213.523	-200.000	-0.047	0.244
-212.509	21.050	0.228	-0.183
-211.494	-0.948	-0.224	-0.157
-210.479	-200.000	-0.012	0.281
-209.465	800.000	-0.054	-0.163
-208.450	800.000	0.052	0.207
-207.436	-200.000	0.014	0.172
-206.421	800.000	0.074	-0.314
-205.406	-200.000	0.030	-0.295
-204.392	89.521	-0.036	0.039
-203.377	10.964	-0.264	0.200
-202.363	-4.791	-0.287	0.196
-201.348	-78.090	0.170	0.058
-200.333	23.864	-0.276	0.225
-199.319	-168.982	0.080	-0.003
-198.304	800.000	-0.028	-0.106
-197.290	-100.204	0.081	0.020
-196.275	-200.000	-0.011	-0.399
-195.260	64.018	-0.330	0.329
-194.246	-27.590	-0.271	-0.156
-193.231	405.614	0.133	0.277
-192.217	-171.915	-0.113	-0.004
-191.202	-52.078	-0.138	0.063
-190.187	146.767	0.088	0.116
-189.173	-200.000	0.020	0.381
-188.158	19.398	0.242	0.192
-187.144	800.000	0.094	0.391
-186.129	-91.752	0.371	-0.104
-185.114	-52.229	-0.143	0.065
-184.100	-173.398	-0.369	-0.011
-183.085	-74.525	-0.235	-0.084
-182.071	800.000	0.068	0.248
-181.056	123.102	-0.094	-0.117
-180.042	35.748	-0.024	0.021
-179.027	800.000	0.069	0.222
-178.012	-5.786	-0.263	0.178
-176.998	-200.000	-0.015	-0.265
-175.983	-200.000	0.295	0.001
-174.969	-85.325	0.021	-0.006
-173.954	-200.000	-0.031	0.337
-172.939	103.849	-0.254	-0.296
-171.925	-50.578	0.045	-0.021
-170.910	187.489	0.219	0.324
-169.896	-200.000	0.071	0.315
-168.881	-200.000	0.010	-0.057
-167.866	21.973	-0.235	0.189
-166.852	-120.268	0.420	-0.071
-165.837	-37.986	0.196	0.103
-164.823	-122.700	-0.241	0.039
-163.808	-33.474	0.076	-0.042
-162.793	-200.000	-0.053	-0.522
-161.779	-200.000	0.007	-0.060
-160.764	-82.051	0.124	0.040
-159.750	51.660	-0.177	0.166
-158.735	800.000	0.096	0.297
-157.720	-84.120	0.150	-0.047
-156.706	76.571	-0.216	-0.226
-155.691	-18.024	0.319	-0.198
-154.677	-132.871	-0.221	0.028
-153.662	117.891	0.069	0.084
-152.647	14.590	0.235	0.182
-151.633	-157.567	0.032	-0.002
-150.618	-128.917	0.158	0.022
-149.604	-119.025	-0.245	-0.042
-148.589	50.623	-0.190	-0.177
-147.574	95.841	0.163	-0.184
-146.560	-9.279	-0.068	0.045
-145.545	198.750	-0.047	0.071
-144.531	800.000	0.061	0.175
-143.516	-70.072	0.059	-0.022
-142.502	-14.728	-0.200	0.127
-141.487	-112.024	0.131	-0.026
-140.472	-6.774	-0.269	-0.181
-139.458	-56.460	-0.203	0.089
-138.443	800.000	0.034	0.131
-137.429	92.914	0.215	-0.239
-136.414	182.138	0.108	-0.158
-135.399	143.368	-0.342	-0.449
-134.385	-200.000	0.038	-0.320
-133.370	539.097	-0.047	-0.110
-132.356	-27.749	0.152	-0.087
-131.341	-73.181	0.376	0.136
-130.326	-144.603	-0.213	0.019
-129.312	-164.540	0.325	0.015
-128.297	-121.615	0.054	0.009
-127.283	-109.912	0.384	-0.079
-126.268	-24.243	-0.085	-0.050
-125.253	141.131	-0.130	-0.170
-124.239	-200.000	-0.000	-0.304
-123.224	800.000	0.079	-0.225
-122.210	-98.677	-0.179	-0.045
