DTS Sentinel unit serial number:	SN413079Multiplexer serial number:	ORYXHardware model number:	OX4-SRSoftware version number:	ORYX F/W v4.00 Oryx Data Collector v3.7.2.0data status	okinstallation	princeton_trtdifferential loss correction	single-endedforward channel	channel 4reverse channel	N/Adate	2019/09/12time	09:43:11forward acquisition time	60.00reverse acquisition time	0.00gamma	496.2192k internal	0.2296k external	0.2296temperature offset calibration	1.0066default loss term (dB/km)	0.3790temperature slope calibration	1.0000multiplexer offset coefficient	1.0000multiplexer slope coefficient	1.0000fibre end	0.00T internal ref (°C)	35.87T ext. ref 1 (°C)	1.81T ext. ref 2 (°C)	32.72length (m)	temperature (°C)	Stokes	anti-Stokes-747.200	800.000	0.136	0.492
-746.185	800.000	0.040	0.157
-745.171	-128.998	-0.119	-0.017
-744.156	16.487	-0.225	0.181
-743.142	-148.522	-0.314	-0.026
-742.127	-200.000	-0.007	0.318
-741.112	73.500	-0.196	0.209
-740.098	800.000	-0.056	0.235
-739.083	-4.737	0.221	0.156
-738.069	52.185	0.145	-0.141
-737.054	800.000	0.101	-0.316
-736.039	-144.171	-0.355	-0.034
-735.025	-76.675	-0.220	0.079
-734.010	203.319	-0.039	0.062
-732.996	-136.517	-0.271	-0.032
-731.981	92.737	0.109	-0.126
-730.966	65.205	0.226	-0.233
-729.952	57.332	0.236	0.235
-728.937	105.396	-0.171	-0.206
-727.923	-100.854	-0.283	0.071
-726.908	-24.530	-0.209	-0.127
-725.894	497.636	0.127	-0.299
-724.879	-138.167	-0.144	0.016
-723.864	800.000	-0.060	-0.230
-722.850	4.537	0.140	-0.105
-721.835	-126.100	-0.246	0.038
-720.821	-98.855	0.202	0.052
-719.806	24.184	-0.135	-0.114
-718.791	-182.251	-0.110	0.002
-717.777	-12.062	-0.252	-0.168
-716.762	-200.000	0.010	-0.325
-715.748	39.026	0.192	-0.175
-714.733	0.939	0.137	0.100
-713.718	-9.670	-0.279	-0.190
-712.704	-165.049	-0.411	-0.019
-711.689	305.434	-0.198	-0.375
-710.675	-88.086	-0.169	0.052
-709.660	4.018	0.060	0.045
-708.645	116.870	-0.078	0.098
-707.631	465.230	-0.072	0.165
-706.616	62.891	-0.182	-0.186
-705.602	344.272	0.144	-0.287
-704.587	-200.000	0.020	-0.106
-703.572	265.430	0.083	0.147
-702.558	-163.236	0.176	0.009
-701.543	-122.723	-0.227	0.038
-700.529	-200.000	0.026	-0.163
-699.514	459.994	-0.060	0.136
-698.499	800.000	-0.034	0.134
-697.485	-126.157	-0.411	0.063
-696.470	-94.037	0.100	0.028
-695.456	-102.502	-0.174	-0.043
-694.441	178.992	-0.089	-0.133
-693.426	467.291	-0.029	-0.066
-692.412	800.000	-0.133	-0.458
-691.397	477.752	-0.133	0.308
-690.383	800.000	0.086	0.334
-689.368	-183.742	-0.049	-0.001
-688.354	77.836	-0.140	-0.152
-687.339	-100.414	0.154	0.039
-686.324	-79.643	-0.289	0.099
-685.310	151.149	0.021	-0.029
-684.295	-200.000	0.030	0.181
-683.281	800.000	-0.091	-0.375
-682.266	671.400	-0.018	-0.047
-681.251	39.276	-0.260	-0.237
-680.237	-200.000	0.004	0.024
-679.222	-200.000	-0.012	0.124
-678.208	-113.177	0.144	-0.029
-677.193	95.199	0.206	-0.239
-676.178	-42.598	0.244	-0.127
-675.164	292.255	-0.007	-0.012
-674.149	-57.803	0.122	0.054
-673.135	800.000	-0.044	0.175
-672.120	-200.000	0.032	0.143
-671.105	-24.000	-0.227	-0.138
-670.091	24.111	-0.205	-0.173
-669.076	-133.122	-0.099	-0.013
-668.062	-116.157	0.135	-0.026
-667.047	-53.375	-0.227	0.106
-666.032	800.000	0.027	0.089
-665.018	800.000	-0.011	0.035
-664.003	-39.110	-0.120	-0.064
-662.989	800.000	-0.032	-0.138
-661.974	-42.519	-0.284	-0.147
-660.959	613.013	0.022	-0.056
-659.945	135.480	0.145	-0.192
-658.930	-200.000	-0.025	-0.141
-657.916	-38.554	-0.063	-0.034
-656.901	-200.000	-0.056	0.298
-655.886	218.377	-0.110	-0.179
-654.872	669.963	0.047	-0.123
-653.857	-53.384	-0.178	-0.083
-652.843	-200.000	-0.030	-0.155
-651.828	-137.965	0.197	-0.022
-650.814	471.299	0.069	-0.159
-649.799	-88.493	0.290	0.088
-648.784	800.000	0.048	-0.185
-647.770	-56.933	-0.266	-0.119
-646.755	-200.000	0.028	0.199
-645.741	-27.946	-0.193	-0.114
-644.726	25.214	0.105	-0.089
-643.711	87.632	0.129	-0.145
-642.697	800.000	-0.065	0.255
-641.682	32.747	-0.159	-0.140
-640.668	-164.591	0.261	0.012
-639.653	23.940	-0.231	-0.194
-638.638	-154.416	0.302	0.021
-637.624	149.594	0.139	0.191
-636.609	-182.975	-0.479	-0.009
-635.595	-137.986	-0.219	-0.025
-634.580	-200.000	-0.007	0.060
-633.565	-140.396	-0.283	-0.030
-632.551	185.867	0.113	-0.171
-631.536	-115.997	0.307	0.058
-630.522	67.529	0.115	0.119
-629.507	-151.072	-0.505	-0.039
-628.492	-23.356	-0.163	-0.100
-627.478	56.417	0.064	-0.063
-626.463	-175.514	0.259	0.007
-625.449	240.852	0.116	0.196
-624.434	-47.514	-0.151	0.074
-623.419	-13.327	-0.187	-0.123
-622.405	398.960	0.176	0.375
-621.390	29.367	-0.148	0.128
-620.376	-53.833	-0.231	0.107
-619.361	249.765	0.093	-0.160
-618.346	208.690	-0.227	-0.362
-617.332	-108.845	-0.414	-0.090
-616.317	-62.452	-0.394	0.166
-615.303	-14.178	0.151	0.099
-614.288	-114.235	0.052	-0.010
-613.273	800.000	0.069	0.255
-612.259	-200.000	0.008	-0.063
-611.244	74.366	0.132	0.141
-610.230	17.521	0.130	0.105
-609.215	-44.371	-0.041	0.021
-608.201	75.759	0.126	0.135
-607.186	722.747	-0.044	0.119
-606.171	139.246	-0.074	-0.098
-605.157	435.671	-0.041	0.091
-604.142	-70.328	-0.190	0.073
-603.128	138.675	0.197	-0.263
-602.113	153.881	-0.054	-0.075
-601.098	347.564	0.278	-0.556
-600.084	129.474	-0.063	-0.081
-599.069	800.000	-0.050	0.216
-598.055	294.357	0.046	-0.085
-597.040	71.302	0.103	0.108
-596.025	800.000	0.075	0.290
-595.011	-7.046	0.164	0.113
-593.996	94.873	0.061	-0.071
-592.982	279.799	-0.098	-0.179
-591.967	214.715	-0.152	-0.244
-590.952	-134.837	-0.273	-0.034
-589.938	243.775	-0.050	-0.085
-588.923	212.411	-0.204	0.326
-587.909	-146.449	-0.149	0.013
-586.894	120.687	0.101	0.127
-585.879	-84.196	0.135	-0.043
-584.865	118.375	0.171	-0.215
-583.850	-107.078	0.101	-0.023
-582.836	-38.991	-0.358	0.191
-581.821	-10.998	-0.316	0.212
-580.806	464.337	0.087	0.197
-579.792	534.556	-0.115	-0.276
-578.777	800.000	-0.048	0.204
-577.763	-200.000	0.017	-0.298
-576.748	85.416	-0.091	-0.102
-575.733	-200.000	0.015	-0.082
-574.719	-61.632	-0.274	0.117
-573.704	141.125	0.245	0.328
-572.690	-158.790	0.051	-0.003
-571.675	320.138	-0.064	0.124
-570.661	-1.857	-0.050	-0.036
-569.646	-11.732	0.163	-0.109
-568.631	-200.000	0.037	-0.320
-567.617	-51.306	-0.374	-0.177
-566.602	-76.575	0.316	0.112
-565.588	28.976	0.136	-0.117
-564.573	57.634	0.225	0.224
-563.558	-70.664	-0.119	0.046
-562.544	-21.559	-0.343	-0.212
-561.529	115.523	0.212	-0.262
-560.515	800.000	-0.020	0.073
-559.500	-3.353	-0.162	-0.114
-558.485	-142.261	-0.328	-0.033
-557.471	258.146	-0.143	-0.249
-556.456	-200.000	-0.051	0.351
-555.442	-200.000	-0.027	-0.186
-554.427	-100.705	-0.238	0.060
-553.412	-93.016	0.232	0.066
-552.398	88.704	-0.141	-0.159
-551.383	800.000	0.011	-0.046
-550.369	48.073	-0.183	-0.173
-549.354	-51.198	0.355	-0.169
-548.339	-187.055	0.086	0.001
-547.325	59.921	-0.079	0.079
-546.310	-56.427	0.122	0.055
-545.296	-70.486	-0.249	-0.096
-544.281	-200.000	0.010	-0.113
-543.266	-53.223	-0.213	0.099
-542.252	-8.412	0.100	-0.068
-541.237	-158.740	-0.264	0.015
-540.223	51.402	0.182	-0.175
-539.208	-47.435	-0.269	-0.132
-538.193	-158.979	-0.304	0.018
-537.179	203.623	0.090	0.142
-536.164	-28.561	-0.191	-0.112
-535.150	-200.000	0.009	0.315
-534.135	-200.000	0.005	0.072
-533.121	-79.808	-0.360	-0.123
-532.106	342.647	-0.058	-0.115
-531.091	-200.000	-0.022	-0.284
-530.077	176.213	-0.141	0.207
-529.062	800.000	-0.028	0.120
-528.048	107.820	-0.076	-0.091
-527.033	251.496	0.085	0.146
-526.018	188.371	-0.153	-0.232
-525.004	-12.949	0.102	-0.068
-523.989	124.086	0.024	0.031
-522.975	-13.764	-0.259	0.170
-521.960	-69.873	-0.172	-0.066
-520.945	0.433	-0.211	-0.152
-519.931	-75.684	0.446	-0.161
-518.916	-0.083	0.318	0.229
-517.902	282.849	0.079	0.144
-516.887	800.000	-0.116	0.329
-515.872	110.470	0.039	0.047
-514.858	-69.996	0.112	-0.043
-513.843	-22.304	0.268	0.165
-512.829	283.664	-0.125	-0.228
-511.814	800.000	0.089	0.388
-510.799	321.855	-0.087	0.167
-509.785	170.637	0.185	0.268
-508.770	-37.763	0.096	0.052
-507.756	157.770	-0.107	0.150
-506.741	-200.000	-0.019	-0.257
-505.726	660.481	0.191	-0.499
-504.712	115.792	0.175	0.217
-503.697	-200.000	0.110	-0.519
-502.683	-200.000	0.416	0.001
-501.668	-200.000	-0.044	-0.349
-500.653	-19.193	-0.366	-0.230
-499.639	107.684	-0.106	-0.128
-498.624	-67.840	0.151	-0.060
-497.610	107.108	0.090	-0.108
-496.595	-27.563	-0.342	-0.201
-495.581	-82.188	-0.118	-0.039
-494.566	-41.187	-0.182	0.095
-493.551	5.468	-0.187	0.140
-492.537	-200.000	-0.014	-0.084
-491.522	-200.000	0.005	0.446
-490.508	79.744	0.061	-0.066
-489.493	-53.151	0.084	-0.039
-488.478	-12.970	0.104	0.069
-487.464	-93.500	-0.081	-0.023
-486.449	369.325	0.041	-0.083
-485.435	20.349	0.301	0.246
-484.420	-113.377	-0.230	-0.046
-483.405	-177.378	0.126	0.003
-482.391	-135.828	0.354	0.042
-481.376	-82.788	0.110	0.036
-480.362	800.000	0.075	0.242
-479.347	-25.733	0.124	-0.074
-478.332	-135.791	-0.270	-0.032
-477.318	-105.983	0.373	0.085
-476.303	-200.000	-0.028	-0.209
-475.289	-71.652	-0.041	-0.015
-474.274	-99.373	0.190	0.048
-473.259	88.488	0.141	-0.158
-472.245	-166.667	0.176	-0.007
-471.230	43.800	0.113	0.104
-470.216	-18.042	0.198	0.125
-469.201	141.752	-0.223	0.298
-468.186	240.715	-0.174	0.293
-467.172	-33.638	0.039	0.022
-466.157	41.894	-0.342	-0.314
-465.143	800.000	-0.091	-0.273
-464.128	-6.790	0.155	-0.106
-463.113	-43.785	0.067	-0.034
-462.099	-200.000	0.033	-0.270
-461.084	-144.833	0.246	-0.023
-460.070	14.929	-0.134	0.106
-459.055	606.827	-0.089	-0.225
-458.040	311.167	0.267	-0.506
-457.026	-55.376	0.168	0.076
-456.011	800.000	0.062	0.192
-454.997	101.209	0.071	0.084
-453.982	207.289	-0.148	-0.233
-452.968	-15.651	0.119	0.077
-451.953	-200.000	0.023	0.122
-450.938	-55.937	0.168	-0.076
-449.924	-55.026	-0.192	-0.088
-448.909	-35.725	-0.122	0.067
-447.895	579.609	0.048	0.118
-446.880	648.932	-0.103	0.267
-445.865	-94.183	0.306	0.085
-444.851	-113.930	-0.169	0.033
-443.836	318.553	0.310	-0.593
-442.822	16.348	0.223	0.178
-441.807	22.952	-0.156	0.129
-440.792	-19.016	-0.067	-0.042
-439.778	-200.000	0.019	0.175
-438.763	21.354	-0.026	0.021
-437.749	109.915	0.127	-0.154
-436.734	5.680	-0.088	-0.066
-435.719	-87.183	-0.287	-0.088
-434.705	7.722	0.303	-0.229
-433.690	549.169	0.104	0.250
-432.676	13.644	-0.061	0.048
-431.661	-200.000	-0.007	-0.154
-430.646	236.067	-0.130	-0.217
-429.632	72.811	-0.179	0.189
-428.617	-200.000	-0.026	-0.221
-427.603	-172.922	0.269	-0.008
-426.588	-68.138	-0.185	0.073
-425.573	-173.064	0.299	-0.009
-424.559	-74.269	-0.231	-0.084
-423.544	-63.466	0.274	0.113
-422.530	254.533	0.063	-0.109
-421.515	-200.000	-0.003	-0.352
-420.500	5.007	0.161	0.119
-419.486	294.454	0.138	-0.254
-418.471	800.000	-0.054	0.206
-417.457	209.129	-0.065	-0.103
-416.442	250.888	-0.145	0.249
-415.428	130.595	-0.184	0.238
-414.413	-47.227	-0.323	-0.159
-413.398	147.412	0.207	0.281
-412.384	256.089	0.142	-0.245
-411.369	-200.000	-0.011	0.061
-410.355	665.570	-0.058	-0.151
-409.340	-134.456	-0.055	-0.007
-408.325	44.647	-0.272	0.253
-407.311	126.462	0.235	-0.300
-406.296	356.243	-0.030	0.060
-405.282	39.282	-0.058	0.053
-404.267	228.828	-0.247	-0.406
-403.252	405.387	-0.006	0.013
-402.238	-165.331	-0.277	-0.012
-401.223	-200.000	0.004	0.043
-400.209	-61.677	0.104	-0.044
-399.194	116.456	-0.148	-0.183
-398.179	-200.000	-0.002	-0.289
-397.165	35.365	-0.352	0.311
-396.150	62.750	0.156	0.157
-395.136	-26.354	-0.253	0.149
-394.121	-200.000	0.008	0.277
-393.106	62.237	0.222	-0.224
-392.092	800.000	-0.051	0.160
-391.077	327.777	0.082	-0.159
-390.063	-44.186	-0.149	0.075
-389.048	-35.787	0.180	-0.098
-388.033	-200.000	-0.031	-0.278
-387.019	-98.026	0.293	0.076
-386.004	-129.513	0.150	0.021
-384.990	41.256	-0.200	0.182
-383.975	203.989	-0.031	0.049
-382.960	302.844	0.075	0.140
-381.946	33.661	0.351	0.308
-380.931	395.113	0.114	0.240
-379.917	800.000	-0.092	-0.397
-378.902	210.793	-0.307	-0.486
-377.888	357.127	-0.062	-0.125
-376.873	-81.878	0.175	-0.058
-375.858	-200.000	0.054	0.411
-374.844	135.542	-0.134	0.175
-373.829	-76.367	-0.153	-0.054
-372.815	-86.061	-0.302	0.094
-371.800	377.254	-0.059	0.121
-370.785	-13.318	-0.070	-0.046
-369.771	155.436	0.221	-0.306
-368.756	638.106	0.089	-0.227
-367.742	-41.359	-0.132	0.068
-366.727	800.000	0.054	-0.200
-365.712	784.741	0.089	0.247
-364.698	797.252	0.071	0.197
-363.683	34.674	0.213	-0.187
-362.669	-181.516	-0.229	0.004
-361.654	87.630	-0.094	0.105
-360.639	-112.110	0.263	-0.053
-359.625	63.588	0.150	0.152
-358.610	-79.595	-0.065	0.022
-357.596	800.000	0.039	-0.124
-356.581	-123.234	-0.380	-0.061
-355.566	-41.285	0.095	-0.049
-354.552	-129.290	-0.119	0.017
-353.537	-36.159	0.100	-0.054
-352.523	-1.048	0.176	-0.125
-351.508	-42.133	0.271	-0.139
-350.493	-20.700	-0.195	0.120
-349.479	-200.000	0.022	-0.099
-348.464	-85.776	-0.143	0.045
-347.450	-151.668	-0.388	0.029
-346.435	-78.762	0.232	0.080
-345.420	-137.478	0.142	-0.016
-344.406	157.673	-0.060	-0.083
-343.391	436.304	0.136	-0.297
-342.377	-10.312	0.112	0.075
-341.362	800.000	-0.041	0.137
-340.348	800.000	-0.103	0.314
-339.333	-53.429	-0.285	0.131
-338.318	-200.000	-0.039	0.359
-337.304	800.000	-0.112	0.351
-336.289	800.000	0.102	-0.299
-335.275	800.000	-0.126	-0.356
-334.260	-200.000	0.025	-0.114
-333.245	-123.785	0.237	-0.038
-332.231	-86.616	-0.108	-0.033
-331.216	-200.000	-0.040	0.246
-330.202	800.000	0.095	-0.353
-329.187	4.261	-0.176	0.130
-328.172	-200.000	-0.233	0.001
-327.158	11.116	0.332	0.255
-326.143	-117.659	0.180	0.033
-325.129	403.897	0.077	0.164
-324.114	800.000	0.029	-0.103
-323.099	458.291	-0.131	0.294
-322.085	566.440	0.061	0.148
-321.070	-51.471	-0.045	-0.021
-320.056	-157.540	0.297	-0.018
-319.041	-200.000	0.187	-0.001
-318.026	347.071	-0.154	0.305
-317.012	-15.436	0.143	-0.092
-315.997	6.709	-0.069	0.051
-314.983	800.000	0.025	-0.079
-313.968	410.989	-0.154	-0.329
-312.953	-154.211	0.123	0.008
-311.939	-200.000	-0.068	0.403
-310.924	-46.978	-0.059	-0.029
-309.910	18.748	0.272	0.218
-308.895	800.000	-0.046	-0.134
-307.880	-129.123	-0.311	0.044
-306.866	52.189	-0.245	-0.234
-305.851	329.865	0.086	-0.166
-304.837	91.552	-0.107	-0.120
-303.822	-92.816	-0.121	-0.034
-302.807	8.301	-0.343	-0.259
-301.793	-200.000	-0.042	0.199
-300.778	-108.899	0.207	0.044
-299.764	-200.000	-0.009	0.164
-298.749	108.833	-0.135	-0.162
-297.735	-27.424	0.111	-0.065
-296.720	235.739	0.086	0.143
-295.705	53.321	-0.120	-0.116
-294.691	281.005	-0.202	-0.363
-293.676	-46.133	-0.144	-0.071
-292.662	-1.305	0.064	-0.045
-291.647	57.521	-0.068	-0.066
-290.632	-40.935	0.084	0.043
-289.618	193.707	0.218	0.331
-288.603	-93.142	-0.179	0.050
-287.589	-200.000	0.014	-0.284
-286.574	310.495	-0.058	0.109
-285.559	307.364	0.103	-0.193
-284.545	261.202	0.085	0.148
-283.530	89.559	0.434	-0.486
-282.516	-81.222	0.271	-0.090
-281.501	800.000	-0.062	0.236
-280.486	800.000	0.031	0.125
-279.472	411.593	0.164	0.349
-278.457	-200.000	-0.040	-0.358
-277.443	191.851	-0.110	0.167
-276.428	800.000	-0.045	0.143
-275.413	179.605	-0.153	-0.224
-274.399	97.609	0.156	-0.180
-273.384	451.318	0.077	-0.171
-272.370	800.000	-0.044	-0.128
-271.355	70.735	0.062	0.064
-270.340	375.326	-0.179	-0.365
-269.326	-200.000	0.021	-0.123
-268.311	800.000	0.024	0.075
-267.297	63.542	0.276	0.278
-266.282	136.672	0.158	0.207
-265.267	50.703	-0.185	0.175
-264.253	800.000	0.040	-0.130
-263.238	265.683	-0.234	0.410
-262.224	743.636	0.072	-0.195
-261.209	800.000	0.081	-0.240
-260.195	-11.722	0.170	0.112
-259.180	-37.205	-0.227	-0.122
-258.165	734.987	-0.114	-0.307
-257.151	-200.000	0.016	0.164
-256.136	-84.144	0.140	0.044
-255.122	-109.161	-0.188	0.040
-254.107	-26.022	-0.235	-0.138
-253.092	175.615	-0.045	-0.065
-252.078	-174.270	0.536	0.016
-251.063	20.430	0.375	0.304
-250.049	217.464	0.175	0.280
-249.034	123.718	-0.060	-0.075
-248.019	-159.342	0.248	-0.014
-247.005	-200.000	-0.037	0.288
-245.990	-24.261	-0.169	-0.101
-244.976	-80.601	0.258	0.086
-243.961	-23.761	-0.109	-0.066
-242.946	-147.004	0.085	0.007
-241.932	-79.524	0.195	-0.066
-240.917	179.311	0.073	0.107
-239.903	10.793	0.210	0.161
-238.888	-200.000	0.001	-0.110
-237.873	97.535	-0.090	-0.104
-236.859	-37.597	0.147	0.078
-235.844	82.497	-0.161	0.175
-234.830	-17.417	0.295	0.186
-233.815	312.417	-0.079	-0.148
-232.800	-78.364	0.092	-0.032
-231.786	-154.848	0.280	-0.019
-230.771	62.627	-0.193	-0.193
-229.757	800.000	-0.033	-0.123
-228.742	-66.727	-0.153	-0.061
-227.727	-175.849	0.311	0.008
-226.713	800.000	-0.069	-0.209
-225.698	321.482	-0.081	0.154
-224.684	-141.476	0.284	0.029
-223.669	-142.215	0.218	-0.022
-222.655	158.934	0.195	0.271
-221.640	-53.466	-0.195	0.089
-220.625	800.000	-0.041	-0.175
-219.611	-18.822	0.136	0.085
-218.596	-126.490	-0.220	-0.033
-217.582	100.531	-0.208	0.242
-216.567	-200.000	0.051	-0.392
-215.552	-200.000	0.000	0.295
-214.538	627.735	0.138	0.349
-213.523	40.192	-0.094	-0.084
-212.509	4.531	-0.032	-0.024
-211.494	640.368	0.036	0.091
-210.479	264.563	-0.052	-0.091
-209.465	-12.513	0.394	-0.257
-208.450	-114.971	-0.181	0.034
-207.436	-122.269	0.167	-0.027
-206.421	-200.000	-0.029	0.140
-205.406	-13.317	0.187	0.121
-204.392	-24.247	0.164	0.098
-203.377	492.345	0.014	-0.032
-202.363	-128.753	0.271	0.038
-201.348	-200.000	0.024	0.110
-200.333	246.988	0.078	0.132
-199.319	7.892	-0.239	0.179
-198.304	-200.000	-0.025	0.115
-197.290	-200.000	0.072	0.408
-196.275	800.000	-0.029	-0.098
-195.260	-200.000	0.007	0.062
-194.246	-169.057	-0.279	0.010
-193.231	26.125	-0.168	0.140
-192.217	2.861	0.408	0.296
-191.202	-200.000	0.009	-0.173
-190.187	41.985	-0.149	0.135
-189.173	-200.000	-0.048	-0.235
-188.158	101.793	-0.171	0.200
-187.144	411.944	0.032	0.068
-186.129	-128.060	-0.224	0.032
-185.114	-200.000	-0.018	0.136
-184.100	203.973	0.100	0.154
-183.085	31.321	-0.208	0.179
-182.071	-126.277	-0.326	0.049
-181.056	-200.000	0.031	0.408
-180.042	246.455	0.089	-0.151
-179.027	-56.102	0.210	-0.094
-178.012	-84.267	0.162	-0.051
-176.998	93.525	-0.056	-0.063
-175.983	4.101	0.065	0.048
-174.969	-162.115	0.024	0.001
-173.954	794.317	0.118	-0.325
-172.939	181.463	-0.163	-0.239
-171.925	-96.335	-0.226	-0.060
-170.910	310.451	0.010	0.018
-169.896	612.032	0.035	-0.087
-168.881	-35.022	-0.250	0.136
-167.866	-200.000	-0.009	-0.231
-166.852	-134.725	0.216	0.026
-165.837	426.912	-0.078	-0.169
-164.823	-47.167	0.107	-0.052
-163.808	0.287	-0.218	0.156
-162.793	-154.768	-0.227	0.015
-161.779	-16.422	0.110	0.069
-160.764	45.720	-0.106	-0.098
-159.750	-13.360	0.445	-0.288
-158.735	-141.219	-0.118	0.012
-157.720	44.030	-0.313	0.287
-156.706	-112.688	0.087	0.017
-155.691	71.607	0.147	0.153
-154.677	-200.000	0.004	0.173
-153.662	800.000	0.066	0.232
-152.647	-124.409	-0.013	-0.002
-151.633	-97.601	0.246	-0.064
-150.618	800.000	-0.014	0.058
-149.604	130.347	-0.232	0.297
-148.589	-122.528	-0.229	0.037
-147.574	-200.000	0.002	0.186
-146.560	28.060	0.079	-0.066
-145.545	800.000	-0.063	0.191
-144.531	-164.389	0.332	0.015
-143.516	800.000	-0.043	-0.154
-142.502	800.000	0.015	0.057
-141.487	-34.597	-0.268	0.146
-140.472	800.000	0.065	-0.187
-139.458	208.008	-0.054	0.084
-138.443	-4.629	-0.166	-0.114
-137.429	402.844	0.032	0.068
-136.414	217.309	-0.087	0.138
-135.399	-0.985	-0.289	0.204
-134.385	656.048	-0.062	0.158
-133.370	327.730	-0.057	-0.110
-132.356	-67.499	-0.186	0.073
-131.341	123.905	-0.032	-0.040
-130.326	52.259	-0.174	-0.165
-129.312	340.010	-0.088	-0.171
-128.297	241.680	-0.120	0.200
-127.283	404.749	0.180	0.379
-126.268	-10.482	0.026	0.017
-125.253	800.000	0.128	-0.364
-124.239	-119.148	-0.220	-0.038
-123.224	30.064	-0.247	-0.210
-122.210	-164.758	0.182	0.008
-121.195	425.190	0.135	0.290
-120.180	-148.838	-0.059	-0.005
