DTS Sentinel unit serial number:	SN413079Multiplexer serial number:	ORYXHardware model number:	OX4-SRSoftware version number:	ORYX F/W v4.00 Oryx Data Collector v3.7.2.0data status	okinstallation	princeton_trtdifferential loss correction	single-endedforward channel	channel 4reverse channel	N/Adate	2019/09/19time	07:45:35forward acquisition time	60.00reverse acquisition time	0.00gamma	496.2192k internal	0.2340k external	0.2340temperature offset calibration	1.0021default loss term (dB/km)	0.3790temperature slope calibration	1.0000multiplexer offset coefficient	1.0000multiplexer slope coefficient	1.0000fibre end	0.00T internal ref (°C)	19.50T ext. ref 1 (°C)	0.55T ext. ref 2 (°C)	14.65length (m)	temperature (°C)	Stokes	anti-Stokes-747.200	-200.000	-0.033	-0.260
-746.185	-64.134	-0.216	-0.088
-745.171	-22.547	0.097	0.059
-744.156	800.000	0.088	0.291
-743.142	-200.000	0.013	0.173
-742.127	-51.621	-0.100	-0.047
-741.112	-72.637	0.239	-0.088
-740.098	484.614	-0.229	0.524
-739.083	73.528	-0.209	0.220
-738.069	800.000	0.076	0.233
-737.054	-19.465	-0.352	0.218
-736.039	-155.695	-0.232	-0.015
-735.025	-200.000	0.032	-0.243
-734.010	-128.087	-0.268	-0.038
-732.996	-200.000	-0.018	-0.162
-731.981	168.323	-0.196	-0.279
-730.966	-200.000	-0.024	0.227
-729.952	800.000	0.072	-0.215
-728.937	78.498	-0.139	-0.149
-727.923	-21.737	-0.069	-0.042
-726.908	39.498	-0.187	0.168
-725.894	74.732	-0.100	-0.105
-724.879	-122.238	0.007	-0.001
-723.864	82.689	-0.158	0.172
-722.850	-146.972	-0.063	0.005
-721.835	-71.584	-0.137	0.051
-720.821	-56.526	-0.185	-0.082
-719.806	454.976	0.045	-0.100
-718.791	-200.000	0.085	-0.388
-717.777	-122.107	-0.021	0.003
-716.762	349.694	0.107	0.212
-715.748	-46.324	-0.240	0.118
-714.733	-200.000	0.019	-0.090
-713.718	164.658	0.241	-0.341
-712.704	-200.000	-0.085	0.000
-711.689	-135.559	-0.231	0.027
-710.675	-98.445	-0.377	-0.097
-709.660	-200.000	0.011	-0.142
-708.645	237.425	-0.089	-0.147
-707.631	-125.558	-0.224	0.034
-706.616	-200.000	-0.036	-0.262
-705.602	800.000	-0.052	0.147
-704.587	18.311	0.120	0.096
-703.572	15.211	0.214	-0.168
-702.558	-200.000	0.022	0.301
-701.543	10.051	0.252	0.192
-700.529	800.000	-0.105	-0.327
-699.514	-200.000	0.018	-0.090
-698.499	-23.938	-0.322	-0.193
-697.485	-162.480	0.313	-0.015
-696.470	120.523	-0.204	0.253
-695.456	135.629	-0.247	0.322
-694.441	463.987	-0.050	0.111
-693.426	-77.525	0.369	0.128
-692.412	-28.580	0.119	0.069
-691.397	268.130	0.111	0.195
-690.383	-200.000	-0.013	0.112
-689.368	800.000	0.107	0.339
-688.354	-10.723	-0.286	-0.189
-687.339	800.000	0.015	-0.047
-686.324	-7.509	-0.088	-0.060
-685.310	-57.210	-0.220	0.097
-684.295	-8.163	0.224	0.151
-683.281	-90.430	-0.368	-0.107
-682.266	-200.000	0.007	-0.283
-681.251	800.000	0.107	0.377
-680.237	-127.567	-0.104	-0.015
-679.222	-200.000	0.007	0.045
-678.208	-200.000	-0.054	0.264
-677.193	-200.000	-0.013	-0.168
-676.178	322.580	0.168	-0.320
-675.164	-200.000	-0.000	0.200
-674.149	-45.174	-0.249	0.124
-673.135	-35.286	-0.224	0.122
-672.120	-200.000	-0.030	0.323
-671.105	242.777	0.167	-0.279
-670.091	122.922	0.096	0.120
-669.076	-200.000	0.014	0.079
-668.062	-87.893	0.166	0.050
-667.047	52.428	-0.149	-0.143
-666.032	-200.000	0.007	-0.060
-665.018	105.748	-0.087	-0.103
-664.003	800.000	-0.099	0.321
-662.989	-55.996	-0.131	0.058
-661.974	206.668	0.117	-0.183
-660.959	12.906	-0.130	-0.100
-659.945	-57.430	-0.214	-0.094
-658.930	-200.000	0.046	-0.264
-657.916	-81.567	0.188	0.062
-656.901	-145.976	0.354	-0.031
-655.886	81.895	-0.220	0.239
-654.872	800.000	-0.053	0.162
-653.857	800.000	0.024	-0.068
-652.843	-200.000	0.025	-0.283
-651.828	76.924	0.186	0.198
-650.814	-200.000	-0.025	-0.125
-649.799	346.654	-0.029	0.057
-648.784	29.927	-0.040	-0.034
-647.770	-160.017	0.135	-0.007
-646.755	-87.420	-0.298	-0.090
-645.741	-200.000	0.000	-0.118
-644.726	226.381	-0.138	0.224
-643.711	82.291	0.322	-0.349
-642.697	330.190	0.167	-0.321
-641.682	-200.000	0.015	-0.147
-640.668	730.140	0.117	0.313
-639.653	800.000	-0.035	0.144
-638.638	9.750	-0.119	0.090
-637.624	800.000	-0.020	-0.078
-636.609	-200.000	-0.033	0.255
-635.595	-200.000	-0.050	0.309
-634.580	222.243	0.124	0.200
-633.565	11.424	-0.096	0.073
-632.551	800.000	-0.021	0.082
-631.536	74.877	-0.169	0.178
-630.522	-200.000	0.005	0.035
-629.507	-160.703	-0.203	0.011
-628.492	15.986	0.157	-0.124
-627.478	-200.000	0.002	0.117
-626.463	-200.000	-0.112	-0.000
-625.449	414.605	0.159	0.338
-624.434	-37.396	-0.113	0.060
-623.419	61.468	0.268	0.266
-622.405	121.602	0.183	0.228
-621.390	800.000	0.131	0.379
-620.376	41.014	0.209	-0.189
-619.361	-138.601	0.281	-0.031
-618.346	-42.323	0.218	0.111
-617.332	-180.999	-0.521	0.010
-616.317	-55.962	0.141	0.063
-615.303	565.092	0.154	0.371
-614.288	446.450	0.199	0.437
-613.273	-200.000	0.037	0.330
-612.259	291.575	-0.218	-0.397
-611.244	449.883	-0.062	-0.136
-610.230	-200.000	0.024	0.138
-609.215	358.393	-0.123	-0.245
-608.201	800.000	-0.136	0.401
-607.186	-50.337	0.175	-0.083
-606.171	342.101	-0.172	0.336
-605.157	800.000	0.113	0.373
-604.142	-23.531	0.020	-0.012
-603.128	-177.730	0.262	-0.006
-602.113	211.638	-0.067	-0.104
-601.098	139.180	0.021	-0.027
-600.084	-112.923	0.195	0.038
-599.069	676.807	0.073	-0.190
-598.055	221.608	-0.007	-0.011
-597.040	49.000	-0.046	0.043
-596.025	205.994	-0.233	-0.362
-595.011	453.060	0.041	0.092
-593.996	72.357	0.054	0.056
-592.982	-200.000	-0.054	-0.284
-591.967	-200.000	0.010	-0.204
-590.952	-6.585	0.258	-0.175
-589.938	800.000	-0.032	0.105
-588.923	479.203	0.029	0.066
-587.909	-116.094	0.200	-0.037
-586.894	-7.570	0.204	0.137
-585.879	-13.709	0.252	-0.162
-584.865	206.724	0.109	0.169
-583.850	-139.535	-0.414	0.044
-582.836	9.104	-0.052	0.039
-581.821	-157.092	-0.209	0.013
-580.806	-44.063	-0.152	0.076
-579.792	226.288	-0.079	-0.127
-578.777	79.041	0.123	0.131
-577.763	129.913	-0.215	-0.274
-576.748	800.000	-0.060	-0.189
-575.733	-29.833	0.205	-0.116
-574.719	65.489	-0.097	0.098
-573.704	19.770	0.302	0.243
-572.690	279.896	-0.041	-0.074
-571.675	800.000	-0.066	-0.224
-570.661	278.975	-0.015	-0.027
-569.646	80.232	-0.175	0.188
-568.631	-200.000	0.011	-0.287
-567.617	386.466	-0.115	0.237
-566.602	275.778	0.003	0.005
-565.588	-92.854	0.168	-0.047
-564.573	-200.000	0.031	0.339
-563.558	281.504	-0.047	-0.083
-562.544	198.223	-0.098	0.149
-561.529	-61.211	-0.477	-0.200
-560.515	-127.608	-0.066	0.010
-559.500	-59.752	0.386	0.165
-558.485	-154.943	0.248	-0.016
-557.471	-200.000	-0.007	-0.154
-556.456	304.795	-0.041	-0.075
-555.442	-7.331	-0.063	0.042
-554.427	800.000	-0.034	-0.119
-553.412	-200.000	0.010	-0.064
-552.398	76.076	0.267	0.281
-551.383	-159.031	0.359	0.020
-550.369	-9.174	-0.288	0.192
-549.354	-114.520	0.176	-0.034
-548.339	-108.512	-0.074	0.016
-547.325	-55.050	-0.287	-0.128
-546.310	-49.628	-0.165	-0.078
-545.296	-9.435	-0.273	-0.181
-544.281	800.000	0.042	-0.124
-543.266	-106.232	0.304	0.068
-542.252	-155.585	0.082	-0.005
-541.237	800.000	0.039	-0.152
-540.223	-101.884	-0.043	0.010
-539.208	298.239	-0.149	0.273
-538.193	-200.000	-0.018	0.246
-537.179	-123.144	0.271	-0.043
-536.164	141.298	-0.069	0.090
-535.150	102.467	-0.063	0.074
-534.135	-200.000	0.004	0.179
-533.121	-56.858	0.022	0.010
-532.106	-86.690	0.159	-0.049
-531.091	68.592	-0.013	-0.013
-530.077	-95.340	-0.374	-0.100
-529.062	74.127	0.153	0.160
-528.048	-200.000	0.045	-0.506
-527.033	-132.210	-0.190	-0.025
-526.018	263.519	-0.035	0.060
-525.004	66.796	-0.059	-0.060
-523.989	139.215	-0.207	-0.271
-522.975	-150.472	-0.065	-0.005
-521.960	49.741	-0.144	0.135
-520.945	187.072	0.060	0.089
-519.931	617.119	-0.031	0.077
-518.916	800.000	-0.114	-0.471
-517.902	98.225	-0.207	-0.237
-516.887	-32.119	-0.093	-0.052
-515.872	23.989	-0.199	-0.163
-514.858	-200.000	0.073	-0.404
-513.843	197.674	0.168	-0.255
-512.829	-75.261	-0.337	-0.120
-511.814	349.704	0.014	0.027
-510.799	-200.000	0.009	0.076
-509.785	229.790	-0.130	0.212
-508.770	-193.499	-0.302	0.003
-507.756	-115.528	0.127	-0.024
-506.741	10.133	0.294	0.222
-505.726	-49.966	-0.288	-0.136
-504.712	-200.000	0.033	-0.247
-503.697	-129.641	0.168	0.023
-502.683	800.000	0.056	-0.232
-501.668	-79.762	0.466	-0.156
-500.653	-200.000	-0.004	-0.022
-499.639	-165.062	0.018	0.001
-498.624	132.196	-0.108	-0.138
-497.610	0.461	-0.106	-0.076
-496.595	-200.000	0.056	-0.279
-495.581	800.000	-0.084	0.302
-494.566	35.983	0.084	0.074
-493.551	-1.022	-0.061	0.043
-492.537	-11.154	0.313	0.205
-491.522	-200.000	-0.001	-0.141
-490.508	-120.205	-0.180	-0.030
-489.493	-29.674	-0.262	0.148
-488.478	473.006	0.023	-0.050
-487.464	705.243	0.095	-0.249
-486.449	-200.000	-0.016	0.157
-485.435	191.998	-0.072	0.108
-484.420	-98.060	-0.372	-0.095
-483.405	800.000	0.049	0.191
-482.391	678.759	0.041	-0.105
-481.376	20.653	0.261	-0.210
-480.362	-150.674	-0.256	-0.019
-479.347	-13.896	-0.124	0.080
-478.332	104.392	-0.212	-0.248
-477.318	233.606	0.179	-0.292
-476.303	800.000	-0.097	-0.416
-475.289	-68.658	0.180	0.069
-474.274	-21.930	-0.085	0.051
-473.259	194.320	-0.243	-0.366
-472.245	800.000	0.079	0.304
-471.230	-200.000	0.036	0.170
-470.216	-5.000	0.234	0.160
-469.201	386.716	0.141	0.288
-468.186	-99.771	-0.247	-0.061
-467.172	-56.221	0.266	0.117
-466.157	-103.526	-0.147	0.034
-465.143	93.039	-0.399	-0.447
-464.128	22.256	0.134	-0.109
-463.113	-46.700	0.197	0.096
-462.099	-126.335	-0.329	0.049
-461.084	800.000	0.157	-0.454
-460.070	-77.711	-0.212	0.073
-459.055	579.244	0.068	-0.166
-458.040	800.000	0.123	0.363
-457.026	34.879	0.121	-0.105
-456.011	-98.528	0.185	-0.047
-454.997	-147.844	-0.318	0.026
-453.982	-74.830	0.150	-0.053
-452.968	160.269	-0.102	0.141
-451.953	-68.440	0.350	-0.135
-450.938	126.774	0.143	0.180
-449.924	-200.000	-0.012	0.102
-448.909	-200.000	-0.035	-0.499
-447.895	-169.466	-0.252	-0.009
-446.880	-200.000	0.042	0.269
-445.865	87.621	0.013	-0.014
-444.851	800.000	0.056	0.190
-443.836	538.472	-0.043	0.102
-442.822	-187.451	-0.151	-0.002
-441.807	-200.000	-0.040	0.305
-440.792	-36.442	-0.333	-0.178
-439.778	335.045	0.137	-0.263
-438.763	-200.000	0.017	0.297
-437.749	106.810	0.168	0.197
-436.734	-44.255	0.158	0.078
-435.719	370.880	0.134	-0.268
-434.705	-35.232	-0.217	0.117
-433.690	-56.755	-0.217	-0.095
-432.676	267.176	-0.086	0.149
-431.661	-200.000	0.008	-0.327
-430.646	91.905	-0.347	-0.387
-429.632	-105.824	-0.157	0.035
-428.617	-102.788	-0.216	-0.051
-427.603	-28.142	-0.190	-0.109
-426.588	275.662	0.242	-0.426
-425.573	-200.000	-0.002	-0.225
-424.559	-11.482	0.111	-0.072
-423.544	311.904	-0.031	0.058
-422.530	535.353	-0.078	-0.183
-421.515	-38.248	-0.202	-0.106
-420.500	-29.145	-0.114	0.065
-419.486	-2.626	-0.180	0.125
-418.471	42.746	-0.132	-0.119
-417.457	77.054	-0.182	0.192
-416.442	-58.470	0.381	-0.164
-415.428	-90.049	-0.418	0.121
-414.413	131.317	0.087	0.111
-413.398	800.000	0.045	0.162
-412.384	-152.915	-0.219	0.015
-411.369	333.564	0.048	-0.092
-410.355	0.253	-0.202	0.142
-409.340	627.733	0.077	-0.193
-408.325	800.000	-0.065	-0.199
-407.311	-166.977	-0.277	-0.011
-406.296	-175.832	-0.053	-0.001
-405.282	664.816	-0.076	0.195
-404.267	-200.000	-0.046	0.265
-403.252	-11.260	-0.251	0.164
-402.238	212.716	0.210	-0.327
-401.223	-200.000	-0.023	0.128
-400.209	398.105	0.067	-0.139
-399.194	301.074	-0.053	-0.097
-398.179	115.187	-0.117	0.142
-397.165	204.489	0.113	0.173
-396.150	-85.953	0.265	0.081
-395.136	-200.000	-0.010	0.045
-394.121	-57.254	-0.101	-0.044
-393.106	-54.008	0.057	0.026
-392.092	-191.270	0.169	-0.002
-391.077	140.025	0.066	-0.086
-390.063	-4.029	0.295	-0.202
-389.048	-200.000	0.018	-0.255
-388.033	390.984	0.069	0.142
-387.019	58.666	-0.115	0.111
-386.004	-118.211	-0.341	0.060
-384.990	217.304	0.094	0.148
-383.975	52.054	-0.144	-0.136
-382.960	649.040	0.027	0.069
-381.946	116.784	0.128	-0.156
-380.931	-9.141	-0.176	0.116
-379.917	-13.138	0.074	-0.048
-378.902	-160.216	-0.187	0.010
-377.888	614.004	-0.025	-0.062
-376.873	-103.229	0.283	-0.066
-375.858	-41.786	-0.290	0.147
-374.844	-1.735	0.272	0.189
-373.829	-59.466	-0.032	0.013
-372.815	-200.000	0.513	0.001
-371.800	357.570	-0.076	0.151
-370.785	207.289	0.101	-0.155
-369.771	-200.000	0.003	-0.149
-368.756	-55.791	0.473	-0.209
-367.742	605.303	0.131	0.322
-366.727	-144.501	0.139	-0.013
-365.712	-95.065	-0.141	-0.038
-364.698	-61.593	0.310	0.129
-363.683	-90.229	-0.351	0.101
-362.669	181.912	0.024	0.035
-361.654	52.666	0.255	0.240
-360.639	-200.000	0.013	-0.119
-359.625	800.000	-0.020	0.071
-358.610	-200.000	-0.064	0.321
-357.596	-200.000	-0.048	0.250
-356.581	-128.312	-0.312	0.044
-355.566	209.691	0.245	-0.379
-354.552	-200.000	-0.039	0.292
-353.537	462.981	-0.166	-0.367
-352.523	-30.110	-0.260	0.146
-351.508	-200.000	0.004	-0.134
-350.493	800.000	0.051	0.143
-349.479	170.100	0.194	0.274
-348.464	56.798	0.226	-0.217
-347.450	111.240	-0.184	-0.219
-346.435	-200.000	0.048	0.253
-345.420	336.710	0.078	0.149
-344.406	800.000	-0.079	0.216
-343.391	156.585	0.197	-0.269
-342.377	164.120	0.101	0.140
-341.362	-122.589	0.167	-0.027
-340.348	-200.000	-0.050	0.306
-339.333	-73.823	-0.358	0.129
-338.318	-42.331	0.129	0.065
-337.304	800.000	-0.054	-0.162
-336.289	116.067	0.199	-0.240
-335.275	-41.408	0.183	0.093
-334.260	20.547	0.336	0.268
-333.245	478.175	-0.081	0.180
-332.231	-88.879	0.123	-0.036
-331.216	47.767	-0.117	-0.108
-330.202	-174.371	-0.242	0.007
-329.187	35.724	0.266	-0.231
-328.172	391.959	-0.136	0.279
-327.158	117.121	0.175	0.212
-326.143	40.429	-0.117	-0.104
-325.129	-30.926	-0.149	0.083
-324.114	695.423	-0.052	0.135
-323.099	-200.000	0.068	0.386
-322.085	280.358	0.161	-0.284
-321.070	148.578	0.171	-0.227
-320.056	213.548	-0.025	-0.039
-319.041	-137.567	-0.201	0.022
-318.026	-47.471	-0.261	-0.125
-317.012	-31.462	0.188	-0.104
-315.997	51.199	-0.173	-0.162
-314.983	-158.548	0.212	-0.012
-313.968	-79.486	0.285	-0.095
-312.953	15.292	-0.084	-0.065
-311.939	-156.307	0.270	0.017
-310.924	-103.782	-0.200	0.046
-309.910	-43.203	-0.152	-0.076
-308.895	54.404	-0.043	0.041
-307.880	80.738	0.340	0.362
-306.866	393.077	0.060	0.123
-305.851	87.180	0.243	0.265
-304.837	61.070	-0.162	-0.159
-303.822	149.890	0.303	-0.405
-302.807	-125.512	-0.175	-0.026
-301.793	-67.838	-0.166	-0.064
-300.778	65.057	0.084	0.084
-299.764	288.363	0.073	-0.130
-298.749	111.291	-0.184	-0.219
-297.735	-108.928	0.216	-0.045
-296.720	800.000	0.049	0.161
-295.705	-71.000	0.314	0.116
-294.691	-139.752	0.137	0.014
-293.676	190.969	-0.092	0.137
-292.662	-200.000	0.062	-0.295
-291.647	-175.095	-0.512	-0.014
-290.632	-200.000	0.017	-0.212
-289.618	-143.393	0.314	-0.030
-288.603	800.000	0.041	0.120
-287.589	-200.000	-0.057	0.329
-286.574	-200.000	-0.007	-0.128
-285.559	-71.950	-0.107	-0.039
-284.545	-73.537	-0.477	0.171
-283.530	305.168	0.072	0.132
-282.516	45.242	-0.114	0.103
-281.501	257.289	-0.153	-0.258
-280.486	-45.128	0.185	-0.090
-279.472	-92.553	-0.251	-0.069
-278.457	317.751	0.130	0.243
-277.443	28.803	0.121	0.101
-276.428	800.000	-0.118	0.354
-275.413	-200.000	-0.026	0.111
-274.399	42.266	-0.085	-0.076
-273.384	-69.047	-0.058	0.022
-272.370	800.000	-0.043	0.181
-271.355	-200.000	0.013	0.549
-270.340	-200.000	0.041	0.409
-269.326	-35.490	-0.103	0.055
-268.311	-45.332	0.109	0.053
-267.297	89.286	-0.134	-0.147
-266.282	213.582	-0.134	-0.208
-265.267	-200.000	-0.041	-0.293
-264.253	40.894	0.280	-0.249
-263.238	-44.994	-0.168	0.082
-262.224	145.017	0.193	-0.253
-261.209	339.633	0.149	0.286
-260.195	75.675	0.145	-0.151
-259.180	41.141	0.176	0.156
-258.165	-200.000	-0.022	0.112
-257.151	-200.000	0.007	0.156
-256.136	50.771	0.116	0.108
-255.122	-153.198	-0.154	0.011
-254.107	-17.949	0.289	0.178
-253.092	-159.280	-0.152	0.008
-252.078	74.419	-0.164	0.170
-251.063	71.520	0.029	0.030
-250.049	101.534	-0.169	0.193
-249.034	800.000	-0.097	-0.299
-248.019	269.645	-0.201	-0.348
-247.005	-62.332	0.411	-0.168
-245.990	75.479	-0.080	-0.083
-244.976	57.399	0.275	-0.264
-243.961	383.269	0.125	0.254
-242.946	331.236	-0.027	0.051
-241.932	-50.657	-0.177	0.082
-240.917	-110.357	0.539	0.110
-239.903	-144.945	-0.182	0.016
-238.888	-16.631	-0.134	0.084
-237.873	90.054	0.295	0.324
-236.859	-14.932	-0.207	-0.131
-235.844	-15.143	-0.160	-0.101
-234.830	353.584	-0.137	-0.267
-233.815	33.527	-0.152	-0.130
-232.800	800.000	-0.129	-0.397
-231.786	510.737	0.035	-0.080
-230.771	-70.803	-0.274	-0.102
-229.757	-112.612	0.302	-0.059
-228.742	-32.282	-0.464	-0.255
-227.727	-200.000	-0.029	0.203
-226.713	62.190	-0.123	-0.120
-225.698	176.974	-0.094	-0.134
-224.684	-200.000	-0.015	-0.211
-223.669	294.554	-0.007	-0.013
-222.655	775.803	-0.148	0.398
-221.640	353.503	-0.195	-0.380
-220.625	-158.567	0.224	-0.013
-219.611	-200.000	0.054	0.254
-218.596	-28.183	-0.254	0.144
-217.582	-40.608	0.063	-0.032
-216.567	150.957	-0.026	0.035
-215.552	-200.000	-0.022	-0.392
-214.538	-83.326	0.089	-0.028
-213.523	-200.000	0.005	-0.153
-212.509	-80.635	0.249	-0.081
-211.494	-50.874	0.149	0.069
-210.479	348.590	0.064	0.123
-209.465	-121.884	0.210	0.034
-208.450	-93.072	0.192	0.052
-207.436	64.693	-0.117	-0.116
-206.421	-200.000	0.011	-0.135
-205.406	475.457	0.030	-0.066
-204.392	800.000	0.043	-0.148
-203.377	375.281	-0.044	0.087
-202.363	-41.257	0.166	-0.084
-201.348	-15.598	0.085	-0.053
-200.333	-67.947	-0.196	0.075
-199.319	22.641	0.049	-0.040
-198.304	-155.893	0.163	-0.010
-197.290	133.276	0.070	0.089
-196.275	96.780	0.066	-0.074
-195.260	-200.000	-0.005	-0.147
-194.246	-200.000	-0.030	0.162
-193.231	229.983	-0.135	-0.216
-192.217	766.898	0.139	-0.370
-191.202	142.670	0.091	0.118
-190.187	800.000	-0.052	0.199
-189.173	-51.141	-0.089	-0.041
-188.158	173.496	0.114	-0.161
-187.144	-41.996	0.123	0.062
-186.129	-0.549	0.217	-0.151
-185.114	95.583	-0.081	0.091
-184.100	144.572	-0.142	0.186
-183.085	-124.461	0.276	-0.042
-182.071	114.933	0.299	-0.358
-181.056	-200.000	0.007	-0.069
-180.042	-200.000	-0.020	-0.164
-179.027	-81.289	0.347	0.112
-178.012	-169.894	0.149	0.005
-176.998	-200.000	0.008	0.101
-175.983	537.912	-0.055	0.127
-174.969	219.853	-0.208	0.327
-173.954	-132.014	-0.519	0.066
-172.939	-60.358	0.197	0.082
-171.925	-9.806	-0.149	-0.097
-170.910	-12.901	-0.160	0.102
-169.896	800.000	-0.123	0.367
-168.881	-200.000	0.002	-0.083
-167.866	427.833	-0.053	-0.113
-166.852	-200.000	-0.032	0.152
-165.837	-200.000	-0.012	-0.219
-164.823	66.557	-0.209	-0.208
-163.808	-200.000	-0.012	0.058
-162.793	-100.024	0.279	-0.068
-161.779	-195.624	0.261	-0.002
-160.764	117.677	-0.272	-0.329
-159.750	-200.000	0.037	0.370
-158.735	57.969	-0.090	0.086
-157.720	42.308	0.185	-0.165
-156.706	-106.434	-0.130	-0.028
-155.691	-162.620	0.124	0.006
-154.677	85.084	0.297	0.319
-153.662	-200.000	-0.010	-0.125
-152.647	-98.161	-0.152	0.038
-151.633	202.686	0.036	-0.055
-150.618	800.000	0.038	-0.111
-149.604	55.943	-0.138	0.131
-148.589	-5.021	0.118	-0.080
-147.574	196.269	-0.158	-0.235
-146.560	-82.573	0.140	0.044
-145.545	-138.392	-0.275	-0.030
-144.531	70.570	0.029	-0.030
-143.516	280.181	0.121	-0.212
-142.502	10.185	0.245	-0.182
-141.487	-117.086	-0.076	-0.014
-140.472	321.605	-0.156	0.290
-139.458	360.720	0.034	-0.067
-138.443	-34.007	0.465	0.250
-137.429	282.337	0.055	0.097
-136.414	-73.140	-0.336	0.121
-135.399	26.503	0.109	-0.089
-134.385	-117.798	-0.110	-0.019
-133.370	230.142	-0.090	-0.144
-132.356	-83.177	-0.327	-0.103
-131.341	-200.000	-0.011	-0.119
-130.326	-88.700	0.360	0.105
-129.312	-53.918	-0.285	-0.127
-128.297	22.468	0.266	0.213
-127.283	-2.648	-0.254	-0.174
-126.268	120.402	-0.213	0.259
-125.253	800.000	0.043	-0.124
-124.239	60.189	0.135	-0.131
-123.224	703.737	0.118	-0.305
-122.210	-129.685	-0.314	-0.042
