DTS Sentinel unit serial number:	SN413079Multiplexer serial number:	ORYXHardware model number:	OX4-SRSoftware version number:	ORYX F/W v4.00 Oryx Data Collector v3.7.2.0data status	okinstallation	princeton_trtdifferential loss correction	single-endedforward channel	channel 4reverse channel	N/Adate	2019/09/16time	18:05:35forward acquisition time	60.00reverse acquisition time	0.00gamma	496.2192k internal	0.2299k external	0.2299temperature offset calibration	0.9948default loss term (dB/km)	0.3790temperature slope calibration	1.0000multiplexer offset coefficient	1.0000multiplexer slope coefficient	1.0000fibre end	0.00T internal ref (°C)	37.44T ext. ref 1 (°C)	15.69T ext. ref 2 (°C)	31.13length (m)	temperature (°C)	Stokes	anti-Stokes-747.200	-138.842	-0.311	-0.035
-746.185	540.265	-0.090	0.219
-745.171	-97.452	-0.390	-0.103
-744.156	-81.750	-0.531	-0.178
-743.142	-200.000	0.013	-0.167
-742.127	800.000	0.042	0.136
-741.112	216.376	0.192	0.311
-740.098	129.269	0.196	0.255
-739.083	-62.476	-0.140	-0.060
-738.069	800.000	0.045	-0.133
-737.054	-116.595	0.114	-0.021
-736.039	689.463	-0.018	0.049
-735.025	331.824	0.078	0.154
-734.010	-67.442	-0.239	-0.096
-732.996	-200.000	0.024	-0.296
-731.981	126.519	-0.058	0.075
-730.966	270.029	-0.057	-0.103
-729.952	-34.519	-0.500	0.279
-728.937	486.590	0.057	-0.133
-727.923	113.728	-0.150	-0.186
-726.908	-42.339	0.421	-0.219
-725.894	349.907	-0.181	-0.364
-724.879	-135.165	-0.177	-0.022
-723.864	800.000	0.036	-0.112
-722.850	800.000	0.033	-0.122
-721.835	557.031	-0.201	-0.493
-720.821	-36.094	0.318	-0.175
-719.806	-200.000	0.002	-0.461
-718.791	111.100	0.251	0.309
-717.777	349.594	0.155	0.312
-716.762	15.707	0.155	-0.124
-715.748	-162.112	-0.097	-0.005
-714.733	47.214	0.141	-0.134
-713.718	363.125	-0.119	-0.243
-712.704	15.096	0.138	-0.110
-711.689	-24.014	-0.278	-0.169
-710.675	-51.586	-0.136	-0.065
-709.660	-73.444	-0.245	-0.091
-708.645	245.751	-0.229	-0.394
-707.631	-200.000	0.002	0.092
-706.616	-105.914	-0.090	0.021
-705.602	-68.771	-0.317	0.125
-704.587	800.000	-0.099	-0.349
-703.572	445.869	-0.045	-0.100
-702.558	-200.000	0.057	0.286
-701.543	-81.623	0.226	0.076
-700.529	31.204	0.023	-0.020
-699.514	61.185	-0.134	-0.136
-698.499	577.773	0.022	-0.055
-697.485	800.000	-0.099	0.375
-696.470	-11.523	0.113	-0.076
-695.456	-200.000	-0.019	0.251
-694.441	249.265	-0.160	-0.277
-693.426	-200.000	0.033	0.241
-692.412	-22.775	-0.112	-0.069
-691.397	410.051	0.078	0.168
-690.383	157.942	-0.123	0.173
-689.368	82.348	-0.080	-0.089
-688.354	-200.000	-0.006	-0.182
-687.339	-54.726	-0.231	0.106
-686.324	380.550	-0.049	-0.101
-685.310	-41.401	-0.346	-0.181
-684.295	-104.145	-0.308	-0.073
-683.281	91.023	-0.092	0.105
-682.266	-5.554	0.144	-0.100
-681.251	353.281	-0.142	-0.286
-680.237	317.979	-0.098	0.189
-679.222	380.853	-0.007	-0.014
-678.208	-111.166	-0.127	-0.026
-677.193	-5.717	0.121	0.085
-676.178	-14.111	-0.109	0.071
-675.164	244.572	-0.111	-0.191
-674.149	-108.225	0.219	-0.048
-673.135	160.145	0.059	0.084
-672.120	11.648	-0.132	-0.103
-671.105	800.000	0.045	0.134
-670.091	-124.724	-0.260	0.041
-669.076	800.000	0.038	-0.108
-668.062	199.644	0.130	0.202
-667.047	-169.494	-0.289	-0.011
-666.032	100.142	0.041	-0.048
-665.018	448.613	0.073	-0.163
-664.003	-58.217	-0.122	0.054
-662.989	-95.085	-0.248	-0.068
-661.974	9.891	-0.334	-0.258
-660.959	-86.417	-0.165	0.052
-659.945	613.495	0.045	-0.115
-658.930	-98.964	-0.273	-0.071
-657.916	333.012	-0.131	0.257
-656.901	-125.792	-0.180	-0.028
-655.886	-136.418	0.333	-0.039
-654.872	222.998	0.078	-0.128
-653.857	-200.000	0.119	-0.573
-652.843	-22.389	-0.370	-0.228
-651.828	13.854	-0.164	-0.129
-650.814	-56.571	0.118	-0.053
-649.799	59.441	0.030	-0.030
-648.784	103.697	-0.088	0.105
-647.770	-141.489	-0.062	0.006
-646.755	91.845	0.046	0.052
-645.741	-44.090	-0.038	0.020
-644.726	-200.000	0.030	-0.410
-643.711	-40.931	-0.198	0.104
-642.697	56.513	-0.043	-0.043
-641.682	-10.318	0.364	-0.245
-640.668	-60.404	0.291	-0.126
-639.653	-142.433	-0.073	-0.007
-638.638	163.476	0.137	-0.195
-637.624	34.102	-0.091	0.081
-636.609	-200.000	-0.048	-0.395
-635.595	-200.000	0.016	-0.088
-634.580	97.353	-0.153	-0.178
-633.565	800.000	-0.015	-0.054
-632.551	-33.429	0.130	-0.073
-631.536	-200.000	-0.081	-0.397
-630.522	-123.584	-0.147	-0.024
-629.507	800.000	-0.072	0.315
-628.492	252.117	0.121	-0.209
-627.478	-55.001	0.462	-0.211
-626.463	800.000	0.079	-0.300
-625.449	333.625	0.050	0.097
-624.434	9.943	0.068	0.052
-623.419	-110.149	0.117	0.025
-622.405	-116.434	-0.086	-0.016
-621.390	-200.000	-0.001	0.195
-620.376	-73.077	-0.125	-0.047
-619.361	507.887	0.031	-0.073
-618.346	-152.189	-0.318	0.023
-617.332	800.000	-0.034	0.123
-616.317	-177.844	0.296	0.007
-615.303	-200.000	0.032	0.263
-614.288	-14.886	0.189	-0.123
-613.273	-14.236	-0.302	-0.197
-612.259	-74.307	0.150	-0.055
-611.244	-33.640	-0.291	-0.163
-610.230	444.213	0.086	-0.191
-609.215	119.644	0.094	-0.118
-608.201	-67.925	-0.263	0.104
-607.186	-66.130	-0.232	0.094
-606.171	-36.806	0.254	-0.138
-605.157	-108.701	0.211	0.046
-604.142	-108.598	0.268	-0.058
-603.128	345.626	-0.105	-0.209
-602.113	42.926	-0.108	-0.100
-601.098	-51.756	-0.102	0.048
-600.084	397.690	-0.104	0.221
-599.069	96.167	0.035	-0.040
-598.055	82.472	-0.127	-0.140
-597.040	114.120	0.131	-0.162
-596.025	60.023	-0.218	-0.218
-595.011	-200.000	0.118	0.000
-593.996	800.000	0.193	0.612
-592.982	106.359	-0.078	-0.094
-591.967	-200.000	0.062	-0.346
-590.952	-128.267	-0.366	0.053
-589.938	-38.478	-0.228	0.122
-588.923	609.968	0.051	-0.130
-587.909	7.098	-0.271	-0.205
-586.894	-67.956	-0.350	-0.139
-585.879	80.238	0.277	0.302
-584.865	57.989	-0.281	0.279
-583.850	-62.432	0.295	-0.125
-582.836	-16.583	-0.121	-0.078
-581.821	-99.960	0.188	-0.048
-580.806	314.296	0.095	-0.182
-579.792	-98.172	0.323	0.084
-578.777	-91.866	-0.111	0.032
-577.763	-100.898	-0.484	0.121
-576.748	15.561	0.086	0.069
-575.733	248.871	0.103	0.176
-574.719	-200.000	-0.008	0.156
-573.704	-97.907	0.298	-0.078
-572.690	800.000	0.024	-0.092
-571.675	71.472	-0.173	0.182
-570.661	355.051	0.119	-0.239
-569.646	-121.379	-0.194	-0.033
-568.631	321.556	0.251	0.483
-567.617	-200.000	0.022	0.164
-566.602	79.175	0.367	0.398
-565.588	634.394	0.040	0.102
-564.573	-200.000	-0.007	-0.036
-563.558	800.000	0.058	0.174
-562.544	-200.000	0.036	0.180
-561.529	-200.000	-0.022	-0.122
-560.515	-83.630	-0.363	-0.118
-559.500	-43.073	0.056	-0.029
-558.485	-169.794	0.241	-0.009
-557.471	34.592	-0.262	0.232
-556.456	-79.305	0.110	-0.038
-555.442	-200.000	0.014	0.141
-554.427	-79.837	-0.115	0.039
-553.412	727.125	0.052	0.139
-552.398	448.524	-0.163	0.364
-551.383	13.089	-0.212	0.166
-550.369	66.754	0.244	-0.251
-549.354	-48.099	-0.069	-0.034
-548.339	83.830	0.078	0.086
-547.325	217.941	-0.053	-0.086
-546.310	766.870	-0.134	-0.370
-545.296	-200.000	-0.016	-0.161
-544.281	-94.948	0.229	0.063
-543.266	-200.000	-0.013	-0.188
-542.252	-19.279	-0.114	-0.072
-541.237	614.012	-0.185	-0.469
-540.223	-76.832	0.355	0.126
-539.208	37.638	-0.228	0.205
-538.193	-200.000	-0.020	0.166
-537.179	-84.136	0.364	-0.117
-536.164	-40.984	0.143	0.075
-535.150	541.182	-0.201	-0.485
-534.135	49.383	-0.060	0.057
-533.121	-28.112	0.146	-0.086
-532.106	83.502	-0.050	-0.056
-531.091	214.221	0.200	0.320
-530.077	800.000	-0.049	0.205
-529.062	100.028	-0.109	0.128
-528.048	318.215	-0.036	0.069
-527.033	533.292	0.083	0.199
-526.018	25.245	-0.159	0.134
-525.004	-143.180	-0.044	0.004
-523.989	-200.000	0.027	-0.155
-522.975	-200.000	-0.036	0.167
-521.960	-116.307	0.464	0.087
-520.945	61.047	0.084	0.084
-519.931	363.738	-0.166	0.337
-518.916	-78.038	-0.122	-0.043
-517.902	-147.558	-0.318	0.027
-516.887	192.163	-0.057	-0.087
-515.872	-152.255	-0.263	0.019
-514.858	-93.630	-0.153	-0.043
-513.843	-87.380	-0.121	0.037
-512.829	135.439	0.098	0.128
-511.814	800.000	0.040	-0.178
-510.799	-86.198	0.410	0.128
-509.785	800.000	0.100	-0.347
-508.770	149.582	0.055	-0.075
-507.756	-200.000	0.042	0.308
-506.741	-16.571	0.009	-0.006
-505.726	800.000	0.043	-0.134
-504.712	-137.407	-0.147	-0.017
-503.697	301.251	0.145	0.271
-502.683	800.000	0.036	-0.133
-501.668	-160.408	-0.238	-0.013
-500.653	-154.673	-0.261	-0.018
-499.639	400.117	-0.103	0.217
-498.624	-139.211	-0.302	0.033
-497.610	-46.661	0.296	-0.147
-496.595	168.449	0.123	-0.177
-495.581	477.442	0.024	-0.055
-494.566	-200.000	0.018	0.233
-493.551	-161.930	0.091	-0.005
-492.537	-200.000	-0.020	-0.162
-491.522	-115.672	0.147	0.028
-490.508	-90.005	0.290	-0.085
-489.493	-200.000	-0.012	-0.185
-488.478	-200.000	0.038	-0.501
-487.464	136.974	0.324	0.428
-486.449	-32.266	0.366	-0.206
-485.435	-61.305	0.460	-0.196
-484.420	-103.261	-0.172	-0.041
-483.405	28.229	-0.236	-0.201
-482.391	800.000	0.141	0.400
-481.376	-124.636	-0.256	-0.040
-480.362	116.148	-0.070	0.086
-479.347	-200.000	0.025	-0.172
-478.332	-12.886	-0.212	-0.139
-477.318	-116.122	0.395	-0.074
-476.303	785.094	0.087	-0.241
-475.289	25.065	0.062	0.052
-474.274	-47.352	-0.131	0.064
-473.259	-200.000	0.019	0.224
-472.245	-200.000	-0.013	0.095
-471.230	181.974	-0.158	0.235
-470.216	29.289	-0.088	-0.075
-469.201	722.973	0.054	-0.145
-468.186	374.220	0.184	-0.379
-467.172	-22.918	-0.314	-0.191
-466.157	-52.194	-0.270	-0.126
-465.143	-40.137	-0.009	-0.005
-464.128	518.174	0.122	-0.288
-463.113	176.750	0.124	-0.182
-462.099	-140.549	0.199	0.021
-461.084	1.301	-0.192	-0.139
-460.070	-86.804	0.219	0.067
-459.055	-151.626	0.306	0.023
-458.040	-53.457	-0.080	-0.037
-457.026	-200.000	0.010	0.081
-456.011	-47.697	0.215	-0.105
-454.997	800.000	-0.092	-0.280
-453.982	121.497	-0.174	-0.219
-452.968	-200.000	-0.001	0.017
-451.953	-7.670	0.235	0.160
-450.938	-80.290	-0.118	-0.040
-449.924	-200.000	0.236	0.001
-448.909	800.000	-0.112	0.336
-447.895	33.680	-0.037	0.033
-446.880	34.793	0.362	-0.319
-445.865	-200.000	-0.001	0.140
-444.851	-139.787	-0.169	-0.018
-443.836	-9.888	-0.064	-0.043
-442.822	-108.687	-0.219	-0.047
-441.807	49.748	0.045	-0.043
-440.792	350.323	0.157	0.313
-439.778	800.000	-0.039	0.126
-438.763	76.141	0.256	0.273
-437.749	260.484	-0.120	0.209
-436.734	23.725	0.147	0.122
-435.719	188.404	0.170	0.256
-434.705	43.691	0.307	0.283
-433.690	800.000	0.033	0.115
-432.676	-88.695	-0.089	-0.027
-431.661	800.000	0.032	-0.142
-430.646	21.185	0.220	0.180
-429.632	156.803	0.085	-0.119
-428.617	-69.292	-0.200	0.078
-427.603	-200.000	-0.037	0.208
-426.588	-47.799	0.085	-0.042
-425.573	2.364	0.276	-0.201
-424.559	-200.000	-0.004	0.166
-423.544	-51.367	-0.013	-0.006
-422.530	-200.000	0.001	-0.046
-421.515	-127.988	0.077	0.011
-420.500	-1.379	-0.037	0.026
-419.486	738.557	0.108	-0.292
-418.471	-112.386	-0.129	0.026
-417.457	102.435	0.202	-0.238
-416.442	625.599	0.124	0.316
-415.428	-0.218	0.038	0.027
-414.413	-123.887	-0.142	-0.023
-413.398	-200.000	0.095	0.462
-412.384	800.000	-0.033	0.097
-411.369	65.993	-0.128	-0.130
-410.355	97.992	0.219	-0.253
-409.340	-33.168	-0.068	-0.038
-408.325	289.717	-0.087	-0.159
-407.311	95.494	-0.204	0.234
-406.296	91.845	-0.205	-0.232
-405.282	-131.043	-0.290	0.039
-404.267	-116.088	0.327	0.061
-403.252	-43.099	0.244	0.125
-402.238	76.237	-0.147	0.157
-401.223	-74.802	-0.190	-0.069
-400.209	406.249	-0.122	-0.259
-399.194	-200.000	0.040	-0.186
-398.179	100.609	0.232	-0.272
-397.165	6.039	0.189	0.141
-396.150	7.765	0.183	0.138
-395.136	-42.472	0.394	0.202
-394.121	-97.591	0.104	0.027
-393.106	5.808	-0.287	-0.213
-392.092	-13.183	0.305	-0.199
-391.077	488.517	-0.053	0.123
-390.063	-86.347	-0.305	-0.094
-389.048	-200.000	-0.009	-0.238
-388.033	-25.363	-0.337	0.201
-387.019	113.142	-0.058	0.071
-386.004	-24.052	0.235	0.141
-384.990	135.236	-0.173	0.226
-383.975	-200.000	0.070	-0.710
-382.960	87.817	-0.232	-0.258
-381.946	-200.000	0.011	0.119
-380.931	-123.947	0.080	-0.013
-379.917	-60.649	0.044	-0.019
-378.902	-69.121	-0.109	0.042
-377.888	800.000	0.114	-0.422
-376.873	92.770	-0.059	-0.067
-375.858	-5.519	-0.097	0.067
-374.844	82.604	-0.146	0.160
-373.829	-200.000	0.002	0.021
-372.815	663.244	0.036	0.093
-371.800	196.961	-0.093	0.143
-370.785	800.000	0.067	0.213
-369.771	-29.081	-0.073	0.042
-368.756	-200.000	0.012	-0.294
-367.742	23.868	0.041	0.034
-366.727	334.753	-0.068	-0.132
-365.712	-17.714	-0.065	0.041
-364.698	232.059	-0.184	0.304
-363.683	59.354	0.258	-0.255
-362.669	-84.318	-0.159	-0.051
-361.654	-200.000	-0.036	0.328
-360.639	-13.446	0.314	0.205
-359.625	-200.000	-0.021	-0.175
-358.610	800.000	-0.145	0.448
-357.596	-116.964	0.259	-0.048
-356.581	-200.000	-0.021	-0.203
-355.566	85.020	0.179	0.197
-354.552	-181.222	-0.072	0.001
-353.537	-200.000	0.025	-0.117
-352.523	800.000	0.018	-0.061
-351.508	-75.631	0.087	-0.031
-350.493	-188.667	0.392	0.005
-349.479	33.881	-0.193	0.169
-348.464	80.120	0.093	0.100
-347.450	-90.696	0.217	-0.063
-346.435	623.806	-0.151	0.381
-345.420	-200.000	-0.039	-0.267
-344.406	-62.747	-0.144	-0.060
-343.391	-200.000	-0.026	-0.258
-342.377	-66.826	0.461	0.183
-341.362	-126.305	-0.236	0.035
-340.348	569.627	0.039	-0.095
-339.333	304.814	0.145	-0.271
-338.318	-60.492	-0.329	-0.140
-337.304	-130.487	0.238	-0.032
-336.289	149.550	0.199	0.270
-335.275	-99.943	-0.034	-0.008
-334.260	-200.000	0.025	-0.365
-333.245	-200.000	-0.058	-0.278
-332.231	-124.825	0.154	0.024
-331.216	-200.000	-0.041	-0.253
-330.202	-200.000	-0.080	-0.000
-329.187	203.728	-0.126	-0.196
-328.172	-200.000	-0.016	0.125
-327.158	-99.833	-0.161	0.040
-326.143	-200.000	0.040	0.281
-325.129	-200.000	-0.034	0.253
-324.114	-200.000	-0.085	-0.387
-323.099	7.405	0.207	0.155
-322.085	-200.000	0.014	-0.064
-321.070	-23.440	-0.181	0.109
-320.056	301.838	-0.083	-0.154
-319.041	-200.000	-0.019	-0.125
-318.026	7.120	-0.154	-0.115
-317.012	254.743	0.137	-0.236
-315.997	-170.138	0.141	0.005
-314.983	291.110	-0.114	-0.209
-313.968	80.141	-0.162	-0.175
-312.953	-13.177	-0.269	-0.176
-311.939	683.841	0.045	-0.119
-310.924	49.841	-0.374	0.354
-309.910	-77.352	-0.350	0.122
-308.895	-141.911	0.299	-0.030
-307.880	208.857	0.124	0.195
-306.866	-93.762	-0.284	0.079
-305.851	-75.151	0.246	0.088
-304.837	-44.177	0.151	-0.076
-303.822	-200.000	-0.025	-0.451
-302.807	-79.000	0.297	-0.101
-301.793	-25.004	-0.223	-0.133
-300.778	-200.000	0.008	-0.222
-299.764	779.862	0.064	0.176
-298.749	800.000	0.036	0.125
-297.735	34.066	0.284	0.248
-296.720	-200.000	0.019	-0.124
-295.705	-14.784	0.196	-0.126
-294.691	42.046	-0.120	-0.110
-293.676	-200.000	0.063	0.373
-292.662	-179.521	-0.431	0.009
-291.647	-28.528	-0.182	-0.105
-290.632	-200.000	-0.008	-0.104
-289.618	-126.764	0.331	-0.049
-288.603	-61.035	0.097	-0.041
-287.589	-120.936	0.197	-0.033
-286.574	70.341	0.008	0.008
-285.559	127.889	-0.120	0.153
-284.545	199.460	-0.026	-0.040
-283.530	172.175	0.113	0.163
-282.516	551.341	0.109	0.261
-281.501	530.239	-0.236	0.558
-280.486	-145.669	0.133	-0.012
-279.472	-176.225	-0.179	0.005
-278.457	-109.502	-0.312	0.066
-277.443	224.886	-0.064	-0.104
-276.428	-13.816	-0.145	0.094
-275.413	-152.050	-0.404	0.029
-274.399	-133.701	0.209	0.026
-273.384	-200.000	-0.018	-0.179
-272.370	-107.479	0.173	0.038
-271.355	-26.255	-0.122	0.072
-270.340	41.913	-0.117	-0.106
-269.326	-52.875	-0.148	0.068
-268.311	-121.392	0.222	-0.037
-267.297	212.500	0.039	-0.061
-266.282	-200.000	-0.038	0.206
-265.267	593.582	-0.113	-0.280
-264.253	-82.535	-0.081	0.026
-263.238	445.426	-0.190	-0.417
-262.224	800.000	0.076	0.293
-261.209	-200.000	0.054	0.275
-260.195	120.398	-0.084	-0.105
-259.180	351.137	0.131	-0.260
-258.165	-139.076	-0.347	-0.038
-257.151	6.016	-0.207	-0.153
-256.136	-200.000	0.004	0.331
-255.122	234.633	0.069	-0.113
-254.107	800.000	0.068	0.266
-253.092	-200.000	-0.060	-0.376
-252.078	553.133	-0.108	-0.260
-251.063	-72.224	-0.173	-0.064
-250.049	-200.000	-0.039	0.180
-249.034	-200.000	-0.026	0.361
-248.019	-200.000	0.006	0.311
-247.005	-62.029	-0.056	0.024
-245.990	-147.452	-0.081	-0.007
-244.976	20.475	0.144	-0.116
-243.961	273.533	-0.097	-0.172
-242.946	-40.228	-0.068	-0.035
-241.932	117.453	0.102	-0.126
-240.917	-39.423	-0.145	-0.076
-239.903	-120.189	0.217	0.037
-238.888	-16.702	0.143	-0.090
-237.873	-200.000	-0.004	-0.294
-236.859	-48.364	-0.113	0.054
-235.844	615.449	0.004	0.011
-234.830	-200.000	0.011	0.105
-233.815	-67.383	0.118	0.046
-232.800	-74.309	-0.259	0.093
-231.786	105.699	0.133	-0.158
-230.771	-33.446	0.140	0.078
-229.757	-88.565	0.173	0.051
-228.742	47.519	0.160	-0.150
-227.727	348.966	-0.138	0.272
-226.713	-123.341	-0.347	-0.055
-225.698	72.233	-0.143	-0.149
-224.684	-143.539	-0.183	0.017
-223.669	-200.000	-0.033	-0.200
-222.655	-200.000	-0.032	0.253
-221.640	800.000	-0.014	-0.056
-220.625	67.211	-0.176	0.179
-219.611	85.556	-0.221	0.243
-218.596	-90.372	0.075	0.022
-217.582	185.638	0.089	0.132
-216.567	391.260	-0.158	0.328
-215.552	88.915	-0.139	-0.154
-214.538	-200.000	-0.019	-0.124
-213.523	142.223	0.075	0.100
-212.509	-200.000	0.005	-0.023
-211.494	-88.817	-0.203	0.060
-210.479	-18.698	0.372	0.232
-209.465	-130.617	0.055	-0.007
-208.450	25.921	-0.059	-0.049
-207.436	142.765	0.072	0.095
-206.421	800.000	0.060	-0.218
-205.406	34.646	-0.077	-0.067
-204.392	-95.575	0.192	0.051
-203.377	-200.000	-0.014	-0.120
-202.363	342.410	0.097	-0.189
-201.348	-76.472	0.071	0.025
-200.333	32.422	0.140	0.121
-199.319	-13.840	-0.163	0.106
-198.304	-87.695	-0.270	0.081
-197.290	-134.911	-0.078	-0.009
-196.275	-200.000	0.038	0.326
-195.260	744.218	0.054	-0.144
-194.246	360.649	-0.037	-0.074
-193.231	512.808	0.020	0.047
-192.217	-200.000	-0.042	0.312
-191.202	-38.419	-0.061	0.032
-190.187	800.000	-0.135	0.393
-189.173	7.891	0.204	0.153
-188.158	76.892	0.211	0.224
-187.144	103.752	-0.259	-0.304
-186.129	-64.472	0.108	0.044
-185.114	-135.975	0.206	0.024
-184.100	-200.000	0.161	0.000
-183.085	-57.785	0.140	-0.061
-182.071	-6.095	-0.293	0.200
-181.056	-57.928	-0.447	-0.195
-180.042	74.086	0.230	-0.241
-179.027	-40.233	-0.230	0.119
-178.012	112.101	0.054	0.065
-176.998	174.797	-0.151	0.218
-175.983	702.456	0.040	-0.105
-174.969	334.689	-0.169	0.327
-173.954	-200.000	0.002	-0.118
-172.939	-200.000	-0.013	-0.166
-171.925	100.221	0.137	-0.158
-170.910	800.000	0.079	0.340
-169.896	400.521	-0.018	-0.037
-168.881	26.006	-0.037	-0.031
-167.866	800.000	-0.090	0.362
-166.852	-200.000	0.018	0.128
-165.837	-200.000	0.008	-0.069
-164.823	-200.000	0.017	-0.164
-163.808	-189.569	0.300	-0.003
-162.793	416.332	0.041	-0.088
-161.779	800.000	-0.064	0.204
-160.764	-200.000	0.036	0.298
-159.750	-128.467	-0.240	-0.034
-158.735	-200.000	-0.067	-0.518
-157.720	27.729	-0.163	0.137
-156.706	181.973	-0.204	0.299
-155.691	12.915	0.160	0.123
-154.677	-123.570	0.105	0.017
-153.662	219.131	-0.095	0.151
-152.647	54.916	0.135	0.130
-151.633	-119.963	-0.164	-0.028
-150.618	-123.723	-0.215	-0.034
-149.604	19.787	0.083	-0.067
-148.589	-148.998	0.159	0.013
-147.574	54.972	0.124	-0.119
-146.560	166.141	0.155	-0.219
-145.545	-187.556	0.209	0.003
-144.531	128.847	-0.117	0.149
-143.516	-26.351	0.218	-0.127
-142.502	800.000	0.136	-0.376
-141.487	-40.347	0.393	-0.203
-140.472	-200.000	-0.070	-0.454
-139.458	40.155	0.234	-0.210
-138.443	800.000	-0.060	-0.188
-137.429	800.000	0.061	-0.196
-136.414	82.561	-0.114	-0.123
-135.399	186.386	0.098	-0.145
-134.385	-38.148	0.197	0.104
-133.370	12.098	-0.155	-0.119
-132.356	80.934	-0.237	0.254
-131.341	-54.687	-0.239	0.108
-130.326	29.847	0.319	-0.271
-129.312	-200.000	-0.021	-0.156
-128.297	385.785	0.114	-0.234
-127.283	-31.748	-0.197	0.110
-126.268	-200.000	0.017	0.271
-125.253	390.145	0.069	-0.143
-124.239	24.842	0.017	0.014
-123.224	-154.356	0.108	0.007
-122.210	18.594	0.087	0.070
