DTS Sentinel unit serial number:	SN413079Multiplexer serial number:	ORYXHardware model number:	OX4-SRSoftware version number:	ORYX F/W v4.00 Oryx Data Collector v3.7.2.0data status	okinstallation	princeton_trtdifferential loss correction	single-endedforward channel	channel 4reverse channel	N/Adate	2019/09/12time	03:55:11forward acquisition time	60.00reverse acquisition time	0.00gamma	496.2192k internal	0.2309k external	0.2309temperature offset calibration	1.0095default loss term (dB/km)	0.3790temperature slope calibration	1.0000multiplexer offset coefficient	1.0000multiplexer slope coefficient	1.0000fibre end	0.00T internal ref (°C)	32.12T ext. ref 1 (°C)	2.15T ext. ref 2 (°C)	25.86length (m)	temperature (°C)	Stokes	anti-Stokes-747.200	53.446	-0.202	0.197
-746.185	150.448	-0.151	0.208
-745.171	118.758	0.206	0.258
-744.156	800.000	0.192	0.550
-743.142	211.658	0.138	-0.221
-742.127	-200.000	0.084	0.386
-741.112	-183.817	0.175	-0.003
-740.098	800.000	-0.019	0.054
-739.083	-58.037	0.254	0.112
-738.069	-39.703	-0.110	-0.058
-737.054	155.825	-0.069	-0.096
-736.039	-63.893	-0.191	0.079
-735.025	24.479	0.171	0.144
-734.010	800.000	0.091	-0.267
-732.996	137.375	-0.137	-0.181
-731.981	-54.098	-0.087	-0.040
-730.966	68.450	-0.088	0.091
-729.952	-91.921	-0.048	0.014
-728.937	800.000	-0.084	-0.268
-727.923	331.365	-0.115	-0.225
-726.908	-28.110	-0.113	-0.066
-725.894	-58.846	-0.213	0.094
-724.879	42.097	0.254	0.234
-723.864	-47.484	0.469	0.231
-722.850	280.817	0.053	0.096
-721.835	-127.214	-0.151	-0.022
-720.821	-43.078	-0.309	0.159
-719.806	100.094	-0.167	0.196
-718.791	282.352	-0.089	0.163
-717.777	2.407	-0.076	0.056
-716.762	-200.000	-0.013	0.148
-715.748	24.863	0.284	0.239
-714.733	25.561	-0.096	-0.081
-713.718	-51.980	0.278	-0.131
-712.704	-200.000	0.006	-0.076
-711.689	-113.979	-0.211	-0.042
-710.675	53.372	-0.145	0.141
-709.660	-83.724	-0.409	-0.132
-708.645	-200.000	0.078	-0.486
-707.631	-200.000	-0.001	0.059
-706.616	-163.528	0.251	-0.012
-705.602	-168.634	-0.234	0.009
-704.587	-79.096	-0.396	0.137
-703.572	74.295	0.139	0.149
-702.558	-56.943	0.145	0.065
-701.543	-111.690	0.307	0.063
-700.529	-177.834	0.369	0.009
-699.514	-200.000	-0.016	0.230
-698.499	-25.884	0.026	-0.015
-697.485	-171.880	0.148	0.005
-696.470	-42.363	0.227	0.117
-695.456	-125.318	-0.280	-0.043
-694.441	113.530	0.211	-0.260
-693.426	-84.667	-0.245	0.078
-692.412	-200.000	0.030	-0.223
-691.397	-156.802	0.164	-0.010
-690.383	471.742	0.190	-0.433
-689.368	41.006	0.141	-0.129
-688.354	798.482	-0.089	0.249
-687.339	800.000	-0.040	0.169
-686.324	-51.644	-0.191	0.090
-685.310	-178.532	-0.196	0.005
-684.295	800.000	0.082	-0.244
-683.281	-60.386	0.349	0.151
-682.266	-57.287	0.109	-0.049
-681.251	-53.107	0.044	0.020
-680.237	-172.913	0.336	-0.011
-679.222	-60.829	0.186	-0.080
-678.208	-69.283	0.242	0.094
-677.193	159.871	0.051	-0.072
-676.178	698.454	0.062	0.165
-675.164	-90.043	0.081	-0.024
-674.149	22.548	-0.395	-0.327
-673.135	-90.884	-0.207	0.060
-672.120	-200.000	0.014	-0.231
-671.105	-99.500	0.248	0.063
-670.091	-200.000	-0.078	-0.368
-669.076	197.567	0.061	-0.094
-668.062	30.682	-0.254	-0.220
-667.047	778.639	-0.036	0.099
-666.032	800.000	-0.063	0.227
-665.018	344.779	0.144	0.287
-664.003	-200.000	0.022	0.109
-662.989	-200.000	0.012	0.237
-661.974	-179.256	-0.088	-0.002
-660.959	384.892	-0.109	0.227
-659.945	-99.777	-0.314	0.080
-658.930	-200.000	0.015	-0.133
-657.916	23.666	0.206	-0.172
-656.901	145.790	0.202	0.274
-655.886	246.366	0.092	-0.156
-654.872	-132.754	-0.241	-0.031
-653.857	88.491	-0.090	-0.101
-652.843	132.532	-0.127	-0.165
-651.828	-55.960	0.127	-0.057
-650.814	158.175	-0.116	-0.163
-649.799	75.487	0.104	0.111
-648.784	800.000	0.041	0.151
-647.770	-176.069	-0.251	-0.007
-646.755	43.293	0.322	-0.298
-645.741	52.860	0.126	-0.122
-644.726	-200.000	-0.022	0.138
-643.711	-116.967	-0.295	-0.055
-642.697	90.497	-0.032	0.037
-641.682	235.404	0.188	-0.314
-640.668	800.000	-0.084	0.245
-639.653	-143.558	-0.107	0.010
-638.638	96.029	-0.126	-0.146
-637.624	-200.000	-0.017	-0.199
-636.609	50.288	-0.242	0.232
-635.595	254.122	0.043	0.075
-634.580	-200.000	-0.030	-0.157
-633.565	96.752	-0.051	0.059
-632.551	242.834	-0.062	-0.106
-631.536	-29.168	-0.180	0.104
-630.522	58.056	-0.205	-0.203
-629.507	145.214	-0.093	-0.126
-628.492	38.434	-0.159	-0.143
-627.478	-92.099	0.062	0.018
-626.463	305.633	-0.042	0.079
-625.449	-200.000	-0.006	0.067
-624.434	800.000	-0.054	-0.168
-623.419	-47.481	0.370	0.182
-622.405	-103.287	0.276	0.066
-621.390	66.153	0.146	0.150
-620.376	800.000	0.062	0.222
-619.361	-200.000	0.039	0.225
-618.346	-200.000	-0.346	0.000
-617.332	-83.970	-0.342	-0.110
-616.317	113.937	0.052	0.064
-615.303	-48.807	0.144	-0.070
-614.288	-23.835	-0.178	-0.107
-613.273	679.107	-0.100	-0.264
-612.259	-2.544	-0.075	-0.053
-611.244	800.000	0.050	-0.177
-610.230	-27.451	-0.258	0.152
-609.215	14.112	0.238	0.187
-608.201	-76.594	-0.244	-0.086
-607.186	-200.000	-0.005	0.288
-606.171	800.000	-0.031	0.130
-605.157	-83.162	0.039	0.013
-604.142	-67.207	0.347	0.138
-603.128	-18.929	0.156	0.098
-602.113	322.751	-0.055	-0.106
-601.098	1.903	-0.386	0.282
-600.084	-46.995	0.060	0.029
-599.069	-200.000	-0.020	0.177
-598.055	800.000	-0.088	-0.275
-597.040	-131.128	-0.032	0.004
-596.025	-200.000	0.027	0.169
-595.011	132.239	-0.127	-0.165
-593.996	66.222	-0.463	-0.475
-592.982	19.648	0.121	-0.098
-591.967	-40.062	0.307	-0.162
-590.952	74.694	-0.340	-0.361
-589.938	-108.488	0.084	-0.018
-588.923	-200.000	-0.007	-0.137
-587.909	346.121	-0.017	-0.033
-586.894	590.740	0.014	0.034
-585.879	-159.040	0.129	0.007
-584.865	-81.900	-0.076	-0.025
-583.850	-59.323	0.053	-0.023
-582.836	-185.230	-0.135	-0.002
-581.821	-69.850	-0.454	-0.175
-580.806	79.301	-0.165	-0.179
-579.792	-32.444	-0.372	-0.210
-578.777	164.743	0.060	-0.085
-577.763	800.000	0.052	0.218
-576.748	15.089	-0.229	0.181
-575.733	119.308	0.212	0.264
-574.719	-200.000	0.000	0.193
-573.704	-200.000	0.010	0.045
-572.690	-200.000	-0.033	-0.265
-571.675	-73.432	0.326	-0.120
-570.661	-19.312	-0.345	-0.216
-569.646	800.000	-0.096	0.293
-568.631	90.807	-0.092	0.104
-567.617	-90.435	-0.296	0.087
-566.602	-177.579	0.183	-0.004
-565.588	504.279	-0.076	0.177
-564.573	169.150	0.169	-0.243
-563.558	-145.071	-0.186	0.017
-562.544	11.910	0.213	-0.165
-561.529	-91.791	0.286	0.082
-560.515	74.476	-0.419	-0.444
-559.500	380.803	0.072	-0.149
-558.485	-6.608	0.022	0.015
-557.471	64.603	-0.150	-0.152
-556.456	-146.961	0.285	0.025
-555.442	-22.912	-0.304	-0.185
-554.427	50.869	0.153	0.146
-553.412	-200.000	0.016	0.262
-552.398	32.118	0.153	-0.133
-551.383	-82.907	0.050	-0.016
-550.369	605.059	-0.042	0.105
-549.354	800.000	-0.077	0.244
-548.339	-115.932	-0.042	0.008
-547.325	-109.128	0.331	0.071
-546.310	-111.320	-0.300	-0.062
-545.296	312.992	0.141	0.268
-544.281	-118.458	-0.182	-0.033
-543.266	-190.851	0.306	0.003
-542.252	-68.385	0.423	-0.165
-541.237	800.000	0.048	-0.200
-540.223	238.307	0.075	0.125
-539.208	-56.129	0.157	0.070
-538.193	-74.817	-0.215	0.078
-537.179	800.000	-0.045	0.152
-536.164	61.747	-0.328	-0.329
-535.150	109.220	0.118	0.142
-534.135	91.276	0.197	0.223
-533.121	120.986	0.103	-0.129
-532.106	196.980	0.165	-0.254
-531.091	-48.094	-0.383	0.186
-530.077	800.000	-0.047	-0.194
-529.062	292.546	-0.067	-0.122
-528.048	16.083	-0.257	-0.204
-527.033	-200.000	-0.023	-0.108
-526.018	-200.000	-0.034	-0.316
-525.004	331.787	-0.196	-0.381
-523.989	-36.177	-0.168	0.091
-522.975	-151.735	-0.332	-0.025
-521.960	45.577	0.100	0.093
-520.945	-121.165	0.108	0.018
-519.931	-116.333	0.118	0.022
-518.916	686.001	0.127	0.334
-517.902	42.409	0.202	0.185
-516.887	249.561	0.151	0.259
-515.872	54.807	0.078	0.076
-514.858	800.000	-0.061	-0.198
-513.843	410.310	0.107	-0.228
-512.829	-133.207	0.166	0.021
-511.814	41.508	0.195	-0.177
-510.799	144.298	0.108	0.145
-509.785	-68.297	0.147	0.057
-508.770	-42.383	0.195	-0.100
-507.756	-55.559	0.219	0.099
-506.741	116.342	-0.131	0.162
-505.726	566.672	-0.024	-0.058
-504.712	36.758	0.268	-0.239
-503.697	207.434	-0.117	0.183
-502.683	-163.718	-0.135	-0.006
-501.668	-200.000	0.013	0.082
-500.653	800.000	0.042	0.181
-499.639	245.063	0.137	-0.232
-498.624	-55.927	0.070	0.032
-497.610	-200.000	0.013	0.086
-496.595	-200.000	-0.009	-0.059
-495.581	800.000	0.032	0.116
-494.566	-121.257	-0.361	0.061
-493.551	44.589	0.205	0.190
-492.537	51.694	0.252	-0.241
-491.522	-184.041	0.056	-0.001
-490.508	49.062	0.062	-0.059
-489.493	800.000	0.066	-0.260
-488.478	62.587	0.295	0.296
-487.464	70.227	-0.123	0.128
-486.449	161.926	-0.099	-0.139
-485.435	774.834	0.154	0.423
-484.420	27.528	-0.099	-0.084
-483.405	-149.462	-0.487	-0.039
-482.391	800.000	0.127	0.414
-481.376	-200.000	-0.003	0.100
-480.362	-68.629	-0.131	0.051
-479.347	690.501	-0.024	0.062
-478.332	-200.000	-0.058	0.557
-477.318	-72.972	-0.150	0.056
-476.303	431.342	-0.105	-0.229
-475.289	-131.669	-0.339	0.045
-474.274	35.980	0.214	-0.189
-473.259	439.026	0.079	-0.172
-472.245	-76.526	-0.090	0.032
-471.230	329.105	0.267	-0.517
-470.216	-200.000	0.001	-0.311
-469.201	800.000	-0.133	-0.484
-468.186	-83.855	-0.196	0.063
-467.172	295.064	0.104	-0.191
-466.157	378.673	-0.058	0.119
-465.143	800.000	-0.076	-0.244
-464.128	113.027	-0.130	0.159
-463.113	-178.214	0.284	-0.007
-462.099	731.294	0.120	-0.322
-461.084	37.450	0.056	0.050
-460.070	-200.000	-0.016	0.119
-459.055	-99.743	-0.336	-0.085
-458.040	431.698	0.055	-0.119
-457.026	-150.415	-0.306	-0.024
-456.011	-69.212	-0.131	-0.051
-454.997	375.339	0.094	0.193
-453.982	84.623	-0.046	0.051
-452.968	-169.473	0.245	0.009
-451.953	120.276	-0.108	-0.134
-450.938	305.062	0.117	0.218
-449.924	-70.225	-0.087	-0.033
-448.909	800.000	-0.111	-0.386
-447.895	-99.668	0.182	0.046
-446.880	33.802	0.258	-0.225
-445.865	90.132	0.117	0.131
-444.851	149.638	0.043	0.058
-443.836	-23.951	-0.048	0.029
-442.822	23.052	-0.095	-0.078
-441.807	36.549	-0.142	0.126
-440.792	-2.057	-0.324	-0.228
-439.778	-200.000	0.045	-0.282
-438.763	-105.560	0.310	0.071
-437.749	56.503	0.227	-0.222
-436.734	-97.631	0.239	-0.062
-435.719	505.931	-0.059	0.137
-434.705	800.000	-0.037	0.117
-433.690	800.000	-0.088	0.284
-432.676	118.958	0.081	0.100
-431.661	112.865	0.182	-0.222
-430.646	-200.000	-0.007	0.110
-429.632	-200.000	-0.010	0.067
-428.617	135.969	0.271	-0.355
-427.603	-115.182	-0.313	-0.059
-426.588	15.805	-0.156	0.123
-425.573	48.968	-0.076	-0.072
-424.559	-200.000	-0.050	-0.242
-423.544	515.750	-0.032	0.076
-422.530	-25.772	0.270	0.159
-421.515	-127.622	-0.432	-0.063
-420.500	140.842	0.184	-0.243
-419.486	-170.501	0.369	-0.013
-418.471	-29.092	-0.158	0.091
-417.457	-200.000	0.003	0.061
-416.442	739.303	-0.053	-0.143
-415.428	800.000	0.077	-0.245
-414.413	800.000	0.048	0.139
-413.398	-200.000	0.011	-0.121
-412.384	134.220	-0.056	-0.073
-411.369	-44.395	-0.139	0.070
-410.355	264.054	0.109	0.191
-409.340	-200.000	-0.006	0.175
-408.325	-51.361	-0.124	-0.058
-407.311	-25.347	0.223	-0.132
-406.296	-200.000	0.008	-0.051
-405.282	-200.000	0.044	-0.344
-404.267	118.958	0.147	0.182
-403.252	-98.445	0.161	0.041
-402.238	-200.000	0.082	-0.491
-401.223	58.256	0.087	-0.086
-400.209	-53.203	-0.197	-0.091
-399.194	85.378	-0.111	-0.122
-398.179	66.962	0.085	0.087
-397.165	-95.251	-0.188	-0.051
-396.150	250.993	0.067	0.115
-395.136	-61.912	0.229	0.096
-394.121	158.020	-0.009	0.013
-393.106	257.796	0.252	-0.435
-392.092	26.976	-0.116	-0.098
-391.077	-200.000	-0.026	0.326
-390.063	192.380	-0.207	-0.314
-389.048	-200.000	-0.068	-0.490
-388.033	-122.110	0.152	0.025
-387.019	-142.387	0.033	0.003
-386.004	53.440	-0.143	0.137
-384.990	4.694	-0.136	0.100
-383.975	-80.613	0.296	-0.099
-382.960	-189.270	0.276	-0.003
-381.946	6.032	0.296	-0.220
-380.931	-66.169	0.154	-0.061
-379.917	-105.626	0.411	-0.093
-378.902	-200.000	-0.017	0.119
-377.888	800.000	-0.114	0.445
-376.873	-42.014	-0.081	0.042
-375.858	117.887	0.318	0.393
-374.844	-8.638	0.182	-0.123
-373.829	-130.639	-0.247	0.033
-372.815	800.000	-0.026	-0.072
-371.800	12.063	0.118	-0.091
-370.785	-68.069	-0.212	-0.083
-369.771	-200.000	0.015	0.274
-368.756	66.235	0.017	-0.017
-367.742	311.420	-0.152	0.286
-366.727	-200.000	-0.001	-0.111
-365.712	39.308	0.279	-0.250
-364.698	118.052	0.204	0.252
-363.683	152.369	-0.173	0.236
-362.669	46.999	-0.053	0.050
-361.654	-200.000	0.013	0.297
-360.639	-16.445	-0.089	-0.056
-359.625	-200.000	-0.003	0.217
-358.610	-76.362	0.297	-0.105
-357.596	-65.313	-0.312	0.126
-356.581	-200.000	-0.089	-0.433
-355.566	47.820	0.206	0.192
-354.552	-116.563	-0.090	-0.017
-353.537	-200.000	-0.019	0.104
-352.523	-159.004	0.387	-0.022
-351.508	87.622	-0.187	0.207
-350.493	407.352	-0.136	-0.289
-349.479	-200.000	0.003	-0.101
-348.464	-72.131	-0.335	0.125
-347.450	406.789	0.072	0.151
-346.435	-110.978	0.088	0.018
-345.420	408.420	-0.099	-0.209
-344.406	-48.817	-0.117	-0.056
-343.391	104.488	-0.075	-0.088
-342.377	800.000	-0.018	-0.072
-341.362	115.714	-0.103	0.126
-340.348	-200.000	0.070	0.484
-339.333	507.869	0.043	-0.100
-338.318	-49.071	-0.218	0.104
-337.304	-34.495	-0.112	-0.061
-336.289	133.976	-0.239	0.309
-335.275	-80.433	-0.217	0.072
-334.260	-37.450	-0.066	0.035
-333.245	-200.000	0.072	-0.431
-332.231	238.763	-0.144	-0.239
-331.216	2.097	-0.141	-0.102
-330.202	-200.000	-0.033	0.178
-329.187	-122.854	-0.190	0.031
-328.172	-18.947	0.111	-0.069
-327.158	-200.000	0.006	0.045
-326.143	-26.874	-0.091	-0.053
-325.129	800.000	-0.019	-0.062
-324.114	-7.738	0.028	-0.019
-323.099	800.000	0.116	0.347
-322.085	-136.344	0.149	0.017
-321.070	10.439	0.095	-0.072
-320.056	49.144	-0.143	-0.134
-319.041	498.428	0.072	-0.166
-318.026	44.505	-0.311	0.286
-317.012	-200.000	-0.065	-0.404
-315.997	242.780	0.088	0.147
-314.983	800.000	0.115	0.423
-313.968	-80.522	-0.280	-0.093
-312.953	653.268	0.055	0.142
-311.939	-116.506	0.142	0.026
-310.924	800.000	-0.068	0.231
-309.910	545.777	-0.034	-0.081
-308.895	16.351	-0.308	-0.243
-307.880	657.135	-0.056	0.143
-306.866	-47.261	-0.329	-0.160
-305.851	74.113	-0.172	-0.180
-304.837	800.000	-0.031	-0.085
-303.822	-88.324	-0.169	-0.050
-302.807	172.808	0.129	0.185
-301.793	-119.035	-0.156	0.027
-300.778	11.877	0.147	-0.113
-299.764	115.008	0.138	-0.169
-298.749	-41.292	-0.131	0.068
-297.735	35.414	-0.173	-0.152
-296.720	-200.000	-0.011	0.199
-295.705	-200.000	-0.011	-0.189
-294.691	7.699	0.162	0.121
-293.676	-200.000	-0.014	0.114
-292.662	-200.000	-0.022	0.197
-291.647	-200.000	0.000	0.020
-290.632	800.000	0.041	-0.115
-289.618	-9.470	0.194	-0.129
-288.603	464.679	0.102	0.227
-287.589	-134.351	0.229	0.028
-286.574	56.524	0.055	0.054
-285.559	-72.605	0.113	-0.042
-284.545	-142.966	0.392	0.038
-283.530	-96.081	0.146	-0.039
-282.516	621.926	0.099	-0.249
-281.501	-200.000	0.007	-0.128
-280.486	-5.316	0.148	0.102
-279.472	-49.585	-0.079	-0.038
-278.457	-200.000	-0.017	-0.287
-277.443	-61.097	0.121	0.051
-276.428	-122.586	0.275	-0.045
-275.413	432.643	-0.078	0.169
-274.399	800.000	0.070	0.246
-273.384	-50.536	-0.032	-0.015
-272.370	-200.000	-0.008	-0.068
-271.355	150.485	0.095	0.129
-270.340	-120.545	-0.358	-0.061
-269.326	-31.918	0.151	0.084
-268.311	28.504	-0.095	0.080
-267.297	747.315	0.035	0.094
-266.282	-82.904	-0.416	-0.134
-265.267	-200.000	0.033	0.147
-264.253	-200.000	0.011	0.070
-263.238	-123.791	-0.214	-0.034
-262.224	-46.365	-0.197	-0.097
-261.209	-106.520	0.271	-0.060
-260.195	-185.023	0.234	0.004
-259.180	2.989	-0.293	-0.212
-258.165	-100.126	-0.177	0.044
-257.151	277.655	-0.275	0.488
-256.136	115.881	0.184	-0.225
-255.122	-181.469	0.137	-0.003
-254.107	-200.000	-0.040	-0.175
-253.092	119.515	0.106	0.131
-252.078	-112.608	0.206	-0.041
-251.063	24.867	-0.065	-0.053
-250.049	-200.000	-0.055	0.395
-249.034	-200.000	0.044	0.307
-248.019	-200.000	0.019	0.191
-247.005	-159.170	-0.238	-0.013
-245.990	-200.000	-0.022	0.190
-244.976	-132.739	-0.234	-0.030
-243.961	8.065	-0.049	-0.037
-242.946	-7.303	0.281	0.190
-241.932	-5.070	-0.159	0.109
-240.917	-39.687	0.143	0.074
-239.903	115.507	-0.042	-0.051
-238.888	489.889	-0.071	-0.162
-237.873	-85.531	-0.161	0.050
-236.859	377.438	-0.138	0.281
-235.844	-200.000	-0.052	0.321
-234.830	-123.041	0.312	0.050
-233.815	-200.000	0.057	-0.289
-232.800	-129.724	0.253	0.035
-231.786	-91.932	-0.540	0.152
-230.771	-200.000	-0.011	-0.415
-229.757	170.796	-0.154	-0.219
-228.742	110.356	-0.179	-0.214
-227.727	-200.000	0.055	0.288
-226.713	445.435	-0.136	-0.297
-225.698	-200.000	0.034	-0.237
-224.684	-32.398	-0.083	0.046
-223.669	-2.817	-0.144	-0.100
-222.655	-200.000	-0.012	-0.150
-221.640	130.599	-0.241	0.308
-220.625	-25.247	0.080	0.047
-219.611	-175.220	-0.171	0.005
-218.596	-68.222	-0.103	0.040
-217.582	-24.737	-0.095	0.056
-216.567	-170.246	-0.093	0.003
-215.552	-19.702	-0.303	-0.186
-214.538	-91.000	0.254	-0.073
-213.523	131.504	0.208	0.266
-212.509	404.003	-0.128	-0.268
-211.494	800.000	0.031	0.112
-210.479	-91.913	0.323	0.091
-209.465	-138.579	0.235	-0.026
-208.450	5.065	0.094	-0.069
-207.436	-39.357	0.283	-0.148
-206.421	-100.532	0.046	-0.011
-205.406	-117.236	0.238	-0.043
-204.392	800.000	0.107	0.386
-203.377	30.518	0.037	-0.031
-202.363	67.047	0.182	0.184
-201.348	-200.000	0.008	0.063
-200.333	-200.000	0.015	-0.185
-199.319	-45.731	-0.304	0.149
-198.304	291.803	0.127	-0.230
-197.290	-180.276	-0.090	0.002
-196.275	-135.315	0.133	0.016
-195.260	124.900	0.113	-0.142
-194.246	-93.389	0.248	-0.068
-193.231	346.126	0.043	-0.084
-192.217	-20.969	0.102	0.062
-191.202	-56.028	-0.193	0.086
-190.187	21.348	-0.134	-0.108
-189.173	-172.054	-0.278	-0.009
-188.158	-75.925	0.263	-0.093
-187.144	99.656	0.211	-0.243
-186.129	-116.927	0.105	0.019
-185.114	-10.047	0.058	0.039
-184.100	438.499	0.081	-0.175
-183.085	152.570	-0.019	0.026
-182.071	630.598	-0.008	0.021
-181.056	15.283	-0.138	-0.108
-180.042	247.645	0.150	0.251
-179.027	-82.778	0.043	0.014
-178.012	-66.678	-0.284	0.112
-176.998	36.362	0.301	0.264
-175.983	-45.981	0.181	0.089
-174.969	2.672	0.352	0.254
-173.954	394.241	-0.183	0.378
-172.939	-108.950	0.381	0.081
-171.925	-200.000	0.020	0.280
-170.910	208.466	0.206	0.321
-169.896	227.815	-0.108	0.175
-168.881	275.042	0.125	-0.220
-167.866	754.468	-0.025	-0.066
-166.852	800.000	-0.014	-0.048
-165.837	-100.884	-0.176	-0.043
-164.823	800.000	0.166	0.605
-163.808	-200.000	-0.009	0.208
-162.793	-200.000	-0.032	-0.286
-161.779	-17.087	0.310	0.194
-160.764	-200.000	-0.002	0.187
-159.750	-200.000	-0.022	-0.171
-158.735	225.179	-0.165	0.266
-157.720	305.351	0.088	0.162
-156.706	-120.144	-0.160	0.027
-155.691	800.000	-0.023	0.076
-154.677	255.023	0.079	-0.134
-153.662	138.976	0.113	-0.147
-152.647	800.000	-0.067	0.261
-151.633	58.980	0.189	-0.185
-150.618	339.369	-0.043	0.084
-149.604	-24.684	-0.093	-0.055
-148.589	75.460	-0.065	-0.068
-147.574	631.102	-0.052	0.130
-146.560	29.443	-0.121	0.102
-145.545	-153.904	0.227	0.015
-144.531	17.757	-0.083	-0.065
-143.516	-200.000	0.004	0.098
-142.502	800.000	-0.149	0.417
-141.487	230.526	0.048	0.078
-140.472	-107.534	-0.076	0.016
-139.458	-117.214	-0.100	0.018
-138.443	-200.000	0.027	0.361
-137.429	445.240	-0.041	-0.089
-136.414	108.733	-0.090	-0.107
-135.399	-200.000	0.052	-0.378
-134.385	129.607	-0.141	0.179
-133.370	221.611	-0.161	0.257
-132.356	215.248	-0.106	0.166
-131.341	86.616	-0.129	-0.141
-130.326	800.000	0.100	0.393
-129.312	490.809	0.126	0.286
-128.297	-200.000	0.022	-0.321
-127.283	-101.743	0.326	-0.078
-126.268	191.138	0.130	-0.194
-125.253	-40.335	-0.175	0.090
-124.239	399.817	0.086	0.178
-123.224	15.485	0.194	0.151
-122.210	800.000	0.014	-0.056
-121.195	65.250	0.050	-0.050
-120.180	-8.525	0.234	-0.156
