DTS Sentinel unit serial number:	SN413079Multiplexer serial number:	ORYXHardware model number:	OX4-SRSoftware version number:	ORYX F/W v4.00 Oryx Data Collector v3.7.2.0data status	okinstallation	princeton_trtdifferential loss correction	single-endedforward channel	channel 4reverse channel	N/Adate	2019/09/16time	23:13:34forward acquisition time	60.00reverse acquisition time	0.00gamma	496.2192k internal	0.2314k external	0.2314temperature offset calibration	0.9976default loss term (dB/km)	0.3790temperature slope calibration	1.0000multiplexer offset coefficient	1.0000multiplexer slope coefficient	1.0000fibre end	0.00T internal ref (°C)	30.12T ext. ref 1 (°C)	0.09T ext. ref 2 (°C)	23.77length (m)	temperature (°C)	Stokes	anti-Stokes-747.200	-30.437	0.340	-0.195
-746.185	-147.250	0.146	0.013
-745.171	-41.044	0.141	0.074
-744.156	-150.099	-0.315	0.025
-743.142	-95.716	0.302	0.082
-742.127	800.000	-0.046	0.201
-741.112	-192.105	0.130	0.001
-740.098	800.000	0.101	0.400
-739.083	-200.000	0.005	-0.091
-738.069	-73.655	-0.214	0.079
-737.054	-200.000	0.008	0.045
-736.039	-200.000	0.033	0.172
-735.025	-200.000	0.000	0.120
-734.010	18.744	0.247	-0.201
-732.996	-200.000	0.020	-0.369
-731.981	-164.117	0.136	0.006
-730.966	-200.000	-0.041	-0.305
-729.952	-200.000	0.022	-0.340
-728.937	60.102	0.162	-0.163
-727.923	11.377	-0.339	-0.263
-726.908	-117.359	-0.193	0.035
-725.894	54.029	-0.301	-0.293
-724.879	53.779	-0.101	0.098
-723.864	-143.369	0.164	0.016
-722.850	-91.691	-0.380	0.109
-721.835	133.617	-0.163	0.214
-720.821	-75.938	-0.249	-0.089
-719.806	248.041	-0.313	-0.537
-718.791	-200.000	-0.009	0.210
-717.777	-58.670	0.147	-0.064
-716.762	18.980	-0.218	0.177
-715.748	-26.214	-0.152	-0.090
-714.733	3.065	-0.231	0.170
-713.718	300.578	0.048	0.091
-712.704	330.165	-0.028	-0.054
-711.689	87.416	0.137	-0.153
-710.675	105.967	0.116	0.139
-709.660	93.497	-0.072	-0.083
-708.645	175.283	0.073	0.107
-707.631	-200.000	-0.002	0.206
-706.616	800.000	-0.073	-0.238
-705.602	-143.203	-0.105	-0.010
-704.587	-200.000	-0.024	-0.183
-703.572	-99.785	-0.207	-0.052
-702.558	-103.274	-0.131	-0.031
-701.543	-200.000	0.035	0.176
-700.529	800.000	0.026	0.091
-699.514	-200.000	0.008	0.261
-698.499	-79.991	0.081	-0.028
-697.485	-60.724	0.119	-0.051
-696.470	-113.998	0.204	0.040
-695.456	800.000	-0.089	0.390
-694.441	-143.180	0.081	-0.008
-693.426	-200.000	-0.034	0.284
-692.412	-17.030	-0.195	-0.124
-691.397	61.021	0.253	-0.254
-690.383	214.908	0.151	-0.242
-689.368	-200.000	-0.008	0.152
-688.354	122.988	-0.262	-0.332
-687.339	705.286	-0.053	0.142
-686.324	-200.000	-0.032	0.189
-685.310	-127.671	-0.115	-0.017
-684.295	800.000	-0.126	-0.459
-683.281	-154.890	0.218	0.015
-682.266	-87.662	-0.493	0.151
-681.251	460.464	0.037	-0.083
-680.237	170.420	-0.195	-0.282
-679.222	117.026	-0.072	-0.089
-678.208	-101.050	-0.226	-0.056
-677.193	-123.698	-0.284	0.046
-676.178	-89.022	-0.161	0.048
-675.164	-170.078	0.091	0.003
-674.149	371.588	-0.047	-0.097
-673.135	23.574	0.082	-0.068
-672.120	-200.000	0.090	-0.575
-671.105	-28.647	0.089	0.052
-670.091	-200.000	-0.014	-0.188
-669.076	8.946	-0.225	0.172
-668.062	-200.000	0.001	0.301
-667.047	-200.000	0.012	-0.394
-666.032	-99.661	0.294	-0.074
-665.018	77.340	0.214	0.230
-664.003	-4.820	0.103	-0.072
-662.989	759.492	-0.042	0.114
-661.974	148.905	0.058	0.079
-660.959	-85.542	0.087	-0.027
-659.945	-200.000	0.011	0.314
-658.930	666.832	0.107	0.280
-657.916	800.000	0.121	0.347
-656.901	-200.000	-0.019	-0.145
-655.886	-151.606	-0.285	0.021
-654.872	-104.492	-0.102	0.024
-653.857	-72.146	0.134	-0.050
-652.843	800.000	-0.062	0.197
-651.828	24.849	0.021	0.018
-650.814	-110.302	0.071	0.015
-649.799	-81.137	-0.037	-0.012
-648.784	-200.000	-0.043	0.298
-647.770	-1.511	0.121	-0.086
-646.755	800.000	-0.075	0.294
-645.741	-109.081	0.071	0.015
-644.726	-4.520	-0.219	-0.153
-643.711	191.167	0.160	-0.243
-642.697	800.000	-0.048	-0.204
-641.682	340.298	-0.082	0.161
-640.668	800.000	0.044	0.132
-639.653	-128.674	-0.107	0.015
-638.638	-200.000	0.035	-0.256
-637.624	-63.016	-0.261	0.109
-636.609	-3.416	0.122	0.086
-635.595	415.490	-0.122	0.262
-634.580	228.692	-0.128	-0.211
-633.565	-81.523	0.119	0.039
-632.551	-130.010	-0.139	0.019
-631.536	577.569	-0.133	0.328
-630.522	-71.394	-0.169	0.064
-629.507	-39.318	0.286	0.151
-628.492	123.667	0.129	-0.164
-627.478	-174.653	-0.096	0.003
-626.463	-191.220	-0.214	-0.002
-625.449	111.975	-0.149	-0.181
-624.434	-103.524	-0.074	0.018
-623.419	-22.408	-0.126	0.077
-622.405	-56.839	0.165	-0.073
-621.390	366.380	-0.075	0.153
-620.376	-72.716	0.198	-0.074
-619.361	-200.000	-0.056	-0.391
-618.346	-92.514	-0.093	0.026
-617.332	-67.608	0.392	-0.155
-616.317	800.000	0.097	-0.291
-615.303	436.455	0.046	0.101
-614.288	-170.588	-0.326	0.011
-613.273	-200.000	-0.007	0.209
-612.259	800.000	0.042	0.143
-611.244	-200.000	0.005	-0.113
-610.230	-6.974	0.103	0.071
-609.215	-100.089	0.187	-0.047
-608.201	-200.000	-0.119	-0.000
-607.186	83.594	0.334	0.367
-606.171	-85.621	0.184	-0.058
-605.157	-144.230	-0.357	-0.034
-604.142	65.197	-0.017	0.017
-603.128	-200.000	0.042	0.258
-602.113	-109.516	0.301	-0.064
-601.098	208.663	0.056	-0.088
-600.084	-200.000	0.003	0.074
-599.069	321.700	-0.163	0.312
-598.055	-132.304	-0.051	0.007
-597.040	-131.177	-0.195	-0.026
-596.025	-23.820	-0.244	0.148
-595.011	-200.000	-0.013	-0.239
-593.996	249.407	-0.106	-0.181
-592.982	-77.329	0.322	-0.113
-591.967	516.650	0.150	-0.352
-590.952	62.230	0.343	0.345
-589.938	-10.322	-0.168	0.112
-588.923	-74.308	-0.262	0.095
-587.909	-4.955	0.160	-0.111
-586.894	-23.779	0.320	-0.193
-585.879	8.152	0.223	-0.169
-584.865	-57.370	-0.296	-0.131
-583.850	-30.341	-0.114	-0.065
-582.836	10.415	-0.148	-0.113
-581.821	-105.799	-0.521	-0.119
-580.806	-28.018	0.164	0.095
-579.792	-200.000	0.015	-0.136
-578.777	-85.163	-0.172	-0.054
-577.763	-200.000	-0.009	0.069
-576.748	-200.000	0.047	0.245
-575.733	191.749	-0.188	-0.286
-574.719	800.000	-0.077	0.293
-573.704	93.392	0.083	-0.094
-572.690	-127.818	-0.193	0.028
-571.675	-174.307	-0.341	-0.010
-570.661	182.136	0.177	0.263
-569.646	87.261	-0.089	0.099
-568.631	214.204	-0.158	-0.251
-567.617	-200.000	0.007	0.097
-566.602	-70.970	0.301	0.114
-565.588	-94.253	0.346	-0.095
-564.573	450.089	-0.117	0.259
-563.558	346.407	-0.130	0.256
-562.544	-200.000	0.060	0.369
-561.529	-200.000	-0.013	-0.058
-560.515	340.489	0.060	-0.118
-559.500	93.579	0.222	-0.253
-558.485	-200.000	0.056	0.283
-557.471	-200.000	0.002	0.385
-556.456	-108.746	0.236	-0.051
-555.442	-17.963	-0.238	0.150
-554.427	-92.926	-0.205	-0.058
-553.412	77.679	-0.197	-0.211
-552.398	-76.067	-0.166	-0.059
-551.383	-55.503	0.390	-0.176
-550.369	800.000	-0.102	-0.411
-549.354	-52.968	0.150	-0.070
-548.339	-125.240	0.293	0.045
-547.325	-168.848	-0.278	0.011
-546.310	58.257	-0.196	0.193
-545.296	-200.000	-0.011	-0.076
-544.281	800.000	-0.051	0.182
-543.266	-6.851	-0.016	0.011
-542.252	-12.004	-0.228	-0.151
-541.237	-182.801	-0.294	-0.005
-540.223	-71.435	-0.371	-0.140
-539.208	-108.046	0.396	0.086
-538.193	-200.000	0.033	0.181
-537.179	-200.000	-0.049	0.219
-536.164	-139.778	0.451	-0.048
-535.150	-108.014	0.264	0.058
-534.135	-200.000	-0.000	-0.027
-533.121	573.679	0.091	-0.224
-532.106	249.097	-0.093	0.158
-531.091	-59.592	0.087	-0.037
-530.077	-200.000	-0.030	0.146
-529.062	722.173	0.101	0.269
-528.048	246.559	0.151	0.256
-527.033	237.170	-0.049	0.081
-526.018	-125.926	0.220	-0.033
-525.004	630.604	-0.018	-0.046
-523.989	-80.423	-0.132	0.044
-522.975	0.896	0.172	-0.124
-521.960	-137.257	-0.101	-0.011
-520.945	-200.000	-0.034	-0.206
-519.931	189.866	-0.098	0.148
-518.916	72.876	0.310	0.325
-517.902	-96.681	0.331	-0.088
-516.887	800.000	0.064	-0.224
-515.872	-91.211	-0.076	0.022
-514.858	-200.000	0.025	0.187
-513.843	-57.609	0.091	-0.040
-512.829	-72.511	0.052	-0.019
-511.814	17.834	-0.213	-0.170
-510.799	84.390	0.137	0.150
-509.785	-69.165	-0.266	-0.103
-508.770	-200.000	0.009	0.050
-507.756	143.432	-0.082	-0.110
-506.741	-83.694	0.301	-0.096
-505.726	-67.479	-0.140	-0.055
-504.712	-56.575	-0.193	-0.086
-503.697	669.555	0.084	-0.218
-502.683	290.368	0.039	0.071
-501.668	69.416	-0.175	-0.180
-500.653	194.678	0.114	-0.173
-499.639	17.045	-0.046	-0.037
-498.624	-126.668	0.152	-0.023
-497.610	-53.341	0.073	-0.033
-496.595	-78.172	-0.033	-0.011
-495.581	551.948	-0.032	0.078
-494.566	-200.000	0.019	-0.165
-493.551	320.837	-0.204	-0.390
-492.537	174.222	-0.030	-0.043
-491.522	143.228	0.239	0.320
-490.508	138.127	0.103	0.135
-489.493	-18.105	-0.264	0.166
-488.478	-102.606	0.119	-0.029
-487.464	-104.219	0.156	-0.036
-486.449	677.600	0.093	-0.242
-485.435	-0.849	-0.174	0.124
-484.420	65.892	0.102	0.104
-483.405	-200.000	-0.026	0.327
-482.391	395.226	-0.106	0.223
-481.376	-200.000	-0.040	0.431
-480.362	-200.000	-0.005	-0.106
-479.347	-200.000	-0.033	-0.188
-478.332	9.656	0.133	0.101
-477.318	172.239	-0.168	0.242
-476.303	-60.451	0.276	-0.118
-475.289	-78.490	0.184	0.063
-474.274	-177.822	-0.209	0.005
-473.259	-61.230	0.508	-0.215
-472.245	-50.781	-0.321	-0.151
-471.230	-76.606	-0.316	0.111
-470.216	-69.934	0.283	0.108
-469.201	-200.000	-0.039	-0.183
-468.186	197.016	-0.181	-0.276
-467.172	-22.053	-0.381	0.232
-466.157	-200.000	0.035	-0.221
-465.143	-138.423	0.323	-0.036
-464.128	-113.582	-0.291	0.057
-463.113	235.328	-0.122	-0.202
-462.099	177.807	0.064	0.094
-461.084	-48.900	0.255	-0.123
-460.070	74.227	-0.011	-0.012
-459.055	341.689	-0.215	0.421
-458.040	-200.000	-0.022	-0.267
-457.026	800.000	0.024	-0.069
-456.011	2.380	0.232	0.168
-454.997	-200.000	-0.021	-0.222
-453.982	800.000	0.017	-0.048
-452.968	-48.554	-0.127	0.061
-451.953	-28.453	-0.223	-0.129
-450.938	-89.655	-0.122	0.036
-449.924	83.754	0.161	0.176
-448.909	-110.937	0.160	0.033
-447.895	-22.328	0.014	-0.008
-446.880	-70.014	-0.180	-0.069
-445.865	-77.987	0.197	-0.068
-444.851	326.582	-0.144	-0.276
-443.836	-43.363	-0.160	-0.081
-442.822	-71.466	-0.305	-0.114
-441.807	29.223	0.173	0.147
-440.792	-28.656	-0.079	0.046
-439.778	-200.000	-0.014	0.290
-438.763	-200.000	-0.049	-0.353
-437.749	-200.000	-0.013	0.138
-436.734	-200.000	-0.007	0.120
-435.719	70.967	-0.197	-0.205
-434.705	-200.000	-0.009	-0.181
-433.690	444.755	-0.048	-0.106
-432.676	-125.669	-0.033	0.005
-431.661	314.714	-0.190	-0.359
-430.646	-46.866	-0.035	0.017
-429.632	-200.000	-0.027	0.174
-428.617	800.000	0.032	0.093
-427.603	-71.872	-0.210	0.078
-426.588	6.162	-0.130	-0.097
-425.573	-200.000	0.038	-0.188
-424.559	-146.078	0.298	-0.026
-423.544	-50.538	-0.207	-0.098
-422.530	511.795	0.009	-0.021
-421.515	-9.274	0.402	0.269
-420.500	-121.655	-0.169	-0.028
-419.486	290.916	0.187	-0.340
-418.471	800.000	0.020	-0.070
-417.457	9.916	0.177	-0.135
-416.442	-53.022	-0.276	0.127
-415.428	99.070	-0.201	-0.232
-414.413	74.704	0.416	-0.438
-413.398	800.000	0.014	0.061
-412.384	-33.651	0.112	0.062
-411.369	800.000	0.014	-0.047
-410.355	-42.735	-0.127	0.064
-409.340	-200.000	-0.021	0.440
-408.325	-47.329	0.319	-0.155
-407.311	800.000	-0.039	-0.116
-406.296	-54.702	-0.317	0.143
-405.282	230.832	0.118	-0.193
-404.267	800.000	0.028	0.118
-403.252	-46.806	0.083	0.041
-402.238	-49.626	-0.235	-0.112
-401.223	80.316	-0.178	-0.192
-400.209	-85.670	-0.260	-0.081
-399.194	95.994	0.088	-0.101
-398.179	390.690	-0.145	-0.301
-397.165	-79.192	0.206	-0.070
-396.150	-200.000	0.015	0.084
-395.136	-105.635	-0.213	-0.048
-394.121	-95.541	-0.208	0.056
-393.106	-200.000	-0.004	-0.053
-392.092	115.017	0.128	-0.157
-391.077	153.541	-0.198	-0.271
-390.063	527.442	-0.062	0.146
-389.048	-71.882	-0.165	0.061
-388.033	348.527	-0.149	0.293
-387.019	-79.656	0.395	-0.133
-386.004	-200.000	-0.034	-0.186
-384.990	-161.978	0.170	-0.009
-383.975	-59.700	0.309	-0.132
-382.960	800.000	-0.105	-0.304
-381.946	49.122	-0.295	0.277
-380.931	-189.766	0.324	-0.004
-379.917	-200.000	-0.003	0.276
-378.902	244.524	-0.087	-0.146
-377.888	-83.355	-0.036	0.012
-376.873	-133.381	-0.094	0.012
-375.858	800.000	-0.028	-0.118
-374.844	46.010	0.093	0.086
-373.829	-50.323	0.045	-0.021
-372.815	-49.291	-0.119	-0.057
-371.800	-200.000	-0.006	-0.142
-370.785	-165.655	0.257	0.011
-369.771	-108.681	-0.095	0.020
-368.756	219.946	0.191	0.306
-367.742	51.414	0.042	-0.040
-366.727	-11.397	-0.138	-0.090
-365.712	723.175	-0.106	0.282
-364.698	-60.488	-0.270	0.115
-363.683	281.988	0.054	0.097
-362.669	-123.843	-0.133	0.021
-361.654	-200.000	0.006	0.261
-360.639	86.770	0.209	0.230
-359.625	-124.296	-0.235	-0.037
-358.610	-74.610	-0.147	0.053
-357.596	66.680	0.221	-0.224
-356.581	800.000	-0.034	0.143
-355.566	-200.000	-0.012	0.064
-354.552	62.307	-0.203	0.203
-353.537	296.231	0.053	0.096
-352.523	330.603	0.039	0.074
-351.508	800.000	0.046	-0.143
-350.493	-82.721	0.114	0.037
-349.479	-200.000	-0.027	-0.184
-348.464	43.125	-0.104	0.095
-347.450	8.860	-0.193	-0.145
-346.435	800.000	-0.026	-0.092
-345.420	53.289	0.059	0.057
-344.406	-200.000	0.016	0.075
-343.391	7.274	0.182	-0.135
-342.377	-36.163	-0.242	0.130
-341.362	561.735	0.049	-0.119
-340.348	-33.518	0.156	0.086
-339.333	437.243	-0.109	-0.236
-338.318	-47.981	0.136	0.066
-337.304	23.296	0.090	0.074
-336.289	800.000	-0.050	-0.193
-335.275	89.932	-0.051	-0.057
-334.260	-79.045	0.095	0.032
-333.245	-35.973	0.113	-0.061
-332.231	-121.359	0.282	0.047
-331.216	-83.947	0.581	0.184
-330.202	72.456	-0.072	0.074
-329.187	800.000	0.040	-0.143
-328.172	377.661	-0.117	0.238
-327.158	-200.000	-0.015	0.108
-326.143	150.412	-0.114	0.154
-325.129	-6.251	-0.174	-0.118
-324.114	-100.701	-0.149	0.037
-323.099	202.244	0.041	-0.062
-322.085	-200.000	-0.021	-0.405
-321.070	-200.000	-0.007	0.069
-320.056	-200.000	0.015	0.344
-319.041	-46.556	-0.220	0.108
-318.026	-39.774	0.124	0.064
-317.012	-55.442	0.350	0.156
-315.997	-105.535	-0.217	-0.049
-314.983	-51.930	-0.382	-0.177
-313.968	-153.368	-0.254	-0.018
-312.953	39.759	0.236	-0.211
-311.939	-111.702	-0.219	-0.044
-310.924	800.000	0.046	-0.173
-309.910	227.048	-0.083	-0.134
-308.895	800.000	0.073	0.251
-307.880	-63.756	-0.218	0.089
-306.866	237.777	0.034	0.056
-305.851	-72.079	-0.053	0.020
-304.837	-200.000	-0.022	-0.336
-303.822	-197.393	0.022	-0.000
-302.807	68.561	0.113	0.115
-301.793	800.000	0.042	-0.165
-300.778	-8.506	-0.028	0.019
-299.764	-62.142	0.073	-0.030
-298.749	772.472	0.135	-0.367
-297.735	-84.260	-0.161	-0.051
-296.720	-78.462	-0.154	-0.052
-295.705	800.000	0.070	-0.269
-294.691	147.495	0.046	-0.061
-293.676	186.742	0.068	0.101
-292.662	178.281	0.197	0.286
-291.647	-23.180	0.034	-0.020
-290.632	60.857	0.101	0.100
-289.618	-148.805	0.256	0.021
-288.603	-100.165	-0.325	0.080
-287.589	135.227	0.138	0.179
-286.574	-6.838	0.200	-0.136
-285.559	-200.000	0.017	0.201
-284.545	102.127	0.099	-0.115
-283.530	711.412	0.042	0.111
-282.516	-31.937	0.184	0.103
-281.501	532.432	-0.023	-0.055
-280.486	-6.191	0.171	-0.116
-279.472	-35.801	-0.088	0.047
-278.457	-200.000	-0.017	-0.133
-277.443	-63.323	-0.330	0.135
-276.428	-200.000	-0.045	-0.240
-275.413	-42.860	-0.013	-0.007
-274.399	-97.126	-0.154	0.040
-273.384	-200.000	0.037	-0.249
-272.370	128.480	0.083	-0.105
-271.355	101.781	-0.101	-0.117
-270.340	-200.000	-0.033	0.158
-269.326	493.143	0.037	-0.085
-268.311	-18.240	-0.127	-0.079
-267.297	-76.547	-0.145	-0.051
-266.282	34.457	0.182	-0.158
-265.267	181.820	-0.223	-0.327
-264.253	-200.000	-0.015	0.285
-263.238	-21.213	-0.287	-0.174
-262.224	164.609	0.160	0.224
-261.209	-58.448	-0.017	0.007
-260.195	800.000	-0.049	-0.157
-259.180	-166.366	0.121	0.005
-258.165	208.288	0.064	-0.099
-257.151	119.721	0.108	-0.134
-256.136	-132.217	-0.285	0.037
-255.122	142.501	-0.091	-0.120
-254.107	800.000	0.033	-0.093
-253.092	100.940	-0.176	-0.204
-252.078	-25.043	0.340	0.201
-251.063	-75.238	-0.365	-0.129
-250.049	627.335	0.111	-0.278
-249.034	-127.813	0.200	0.029
-248.019	-200.000	-0.002	-0.132
-247.005	188.558	0.060	-0.089
-245.990	106.630	0.136	0.160
-244.976	38.201	-0.284	-0.252
-243.961	-123.102	0.141	0.022
-242.946	549.203	-0.119	0.283
-241.932	-70.127	0.174	0.066
-240.917	63.023	0.218	0.217
-239.903	-200.000	0.005	0.030
-238.888	-145.832	-0.205	-0.018
-237.873	800.000	0.064	0.236
-236.859	-200.000	-0.018	0.172
-235.844	-200.000	-0.073	0.424
-234.830	-120.184	0.175	-0.030
-233.815	701.442	0.117	0.305
-232.800	-162.154	-0.086	-0.004
-231.786	-200.000	-0.020	0.109
-230.771	-3.759	-0.227	-0.157
-229.757	560.806	-0.087	0.208
-228.742	800.000	0.109	0.309
-227.727	-200.000	-0.051	-0.313
-226.713	10.869	-0.134	0.101
-225.698	425.568	-0.054	-0.115
-224.684	-88.687	-0.085	-0.025
-223.669	-90.851	-0.233	-0.067
-222.655	-105.008	0.210	-0.048
-221.640	77.139	0.218	-0.230
-220.625	165.645	0.091	0.128
-219.611	339.965	-0.175	0.339
-218.596	-63.835	0.117	-0.047
-217.582	39.718	-0.274	-0.244
-216.567	-14.861	-0.302	-0.193
-215.552	233.840	0.074	-0.120
-214.538	800.000	-0.166	0.533
-213.523	-13.349	0.216	-0.139
-212.509	-200.000	-0.009	0.067
-211.494	3.344	0.102	-0.074
-210.479	-74.727	0.202	-0.072
-209.465	-200.000	0.003	0.047
-208.450	800.000	0.071	0.223
-207.436	-150.057	0.279	0.022
-206.421	-110.066	-0.133	0.028
-205.406	570.478	0.064	-0.156
-204.392	-67.206	0.153	-0.060
-203.377	-200.000	0.026	-0.328
-202.363	-200.000	0.031	0.140
-201.348	-200.000	-0.057	0.516
-200.333	409.955	0.128	0.269
-199.319	65.939	0.296	0.298
-198.304	235.784	0.076	0.125
-197.290	82.916	-0.275	-0.297
-196.275	82.407	0.251	-0.270
-195.260	-93.927	0.235	-0.064
-194.246	-92.439	0.224	0.062
-193.231	-177.963	-0.342	0.008
-192.217	72.616	0.153	0.158
-191.202	-53.490	-0.187	-0.085
-190.187	103.179	0.237	0.275
-189.173	116.176	0.146	-0.177
-188.158	34.927	0.081	0.070
-187.144	-200.000	-0.006	0.299
-186.129	800.000	0.072	0.210
-185.114	37.000	0.172	-0.151
-184.100	110.255	-0.046	0.055
-183.085	-200.000	0.086	-0.415
-182.071	510.296	-0.024	-0.056
-181.056	-88.385	0.084	0.025
-180.042	-61.608	-0.229	0.095
-179.027	116.781	-0.244	0.297
-178.012	2.928	-0.060	-0.043
-176.998	48.375	0.236	0.219
-175.983	273.379	-0.220	0.385
-174.969	-68.658	0.137	0.053
-173.954	614.359	0.077	0.191
-172.939	-24.974	-0.141	-0.083
-171.925	-36.734	-0.160	-0.085
-170.910	482.849	0.027	-0.061
-169.896	-82.092	0.204	0.066
-168.881	203.015	0.143	-0.219
-167.866	800.000	0.033	0.103
-166.852	54.506	-0.449	-0.429
-165.837	-29.275	0.110	0.062
-164.823	-16.423	-0.047	-0.030
-163.808	-76.657	0.301	0.105
-162.793	-200.000	-0.033	-0.207
-161.779	-200.000	-0.024	-0.186
-160.764	571.395	0.094	0.226
-159.750	-64.269	-0.283	0.114
-158.735	-35.069	0.111	0.060
-157.720	48.964	-0.110	0.102
-156.706	-86.718	0.238	-0.072
-155.691	-130.168	0.327	0.044
-154.677	800.000	0.056	0.156
-153.662	-114.285	0.146	-0.028
-152.647	-200.000	-0.022	-0.215
-151.633	86.699	0.180	0.197
-150.618	46.466	0.015	0.014
-149.604	-66.493	-0.198	0.078
-148.589	-200.000	0.036	-0.242
-147.574	800.000	0.063	0.175
-146.560	-139.477	0.199	0.021
-145.545	-144.548	0.143	0.013
-144.531	800.000	0.100	-0.377
-143.516	-150.088	-0.233	-0.018
-142.502	-200.000	0.019	-0.260
-141.487	98.102	0.245	-0.279
-140.472	-66.362	-0.101	-0.040
-139.458	-200.000	-0.066	0.334
-138.443	-130.928	-0.227	-0.030
-137.429	272.109	-0.016	0.028
-136.414	227.149	0.071	-0.114
-135.399	-147.716	0.073	-0.006
-134.385	27.774	0.221	0.184
-133.370	140.375	0.135	0.176
-132.356	-10.094	0.137	-0.090
-131.341	-151.350	-0.078	-0.006
-130.326	800.000	0.098	0.281
-129.312	-102.120	-0.096	0.023
-128.297	-200.000	-0.018	0.113
-127.283	230.742	-0.033	0.053
-126.268	-79.630	-0.170	-0.057
-125.253	-117.668	0.292	-0.052
-124.239	-135.205	0.170	-0.020
-123.224	665.934	0.101	0.258
-122.210	297.043	-0.068	0.123
