DTS Sentinel unit serial number:	SN413079Multiplexer serial number:	ORYXHardware model number:	OX4-SRSoftware version number:	ORYX F/W v4.00 Oryx Data Collector v3.7.2.0data status	okinstallation	princeton_trtdifferential loss correction	single-endedforward channel	channel 4reverse channel	N/Adate	2019/09/16time	08:41:35forward acquisition time	60.00reverse acquisition time	0.00gamma	496.2192k internal	0.2312k external	0.2312temperature offset calibration	0.9973default loss term (dB/km)	0.3790temperature slope calibration	1.0000multiplexer offset coefficient	1.0000multiplexer slope coefficient	1.0000fibre end	0.00T internal ref (°C)	29.69T ext. ref 1 (°C)	11.95T ext. ref 2 (°C)	26.53length (m)	temperature (°C)	Stokes	anti-Stokes-747.200	-200.000	0.067	-0.301
-746.185	498.018	-0.044	0.102
-745.171	150.617	0.267	0.368
-744.156	-65.386	0.295	-0.120
-743.142	5.846	-0.117	0.088
-742.127	-200.000	0.000	0.074
-741.112	-114.405	0.147	0.029
-740.098	-200.000	0.040	0.551
-739.083	362.878	0.030	0.062
-738.069	-0.107	0.107	-0.077
-737.054	-36.166	-0.223	-0.122
-736.039	-23.551	-0.193	0.118
-735.025	-200.000	-0.072	0.374
-734.010	-200.000	0.016	0.407
-732.996	523.937	0.085	-0.202
-731.981	185.493	-0.203	0.306
-730.966	147.882	-0.084	0.115
-729.952	-75.367	-0.077	0.028
-728.937	-200.000	-0.044	-0.200
-727.923	27.183	-0.238	0.203
-726.908	-94.331	-0.258	0.072
-725.894	-158.947	0.148	0.009
-724.879	-31.493	-0.367	-0.209
-723.864	227.942	0.149	-0.247
-722.850	21.484	-0.366	0.302
-721.835	-23.396	-0.384	-0.234
-720.821	-119.597	0.045	-0.008
-719.806	-84.945	-0.247	0.079
-718.791	1.104	-0.241	0.175
-717.777	-99.902	0.158	0.040
-716.762	-35.241	-0.151	0.083
-715.748	-137.432	-0.432	-0.050
-714.733	-193.206	-0.351	0.003
-713.718	35.052	-0.061	0.054
-712.704	252.223	-0.152	0.263
-711.689	-200.000	0.019	-0.348
-710.675	-200.000	0.007	0.118
-709.660	-200.000	-0.039	0.273
-708.645	268.253	0.111	-0.197
-707.631	105.620	0.061	-0.073
-706.616	106.255	0.222	0.267
-705.602	141.326	0.228	-0.305
-704.587	-125.835	0.262	0.040
-703.572	400.630	-0.098	0.208
-702.558	-200.000	0.023	0.106
-701.543	-155.671	0.316	0.021
-700.529	609.658	0.144	-0.364
-699.514	-77.330	0.240	0.085
-698.499	191.320	-0.244	0.373
-697.485	178.260	-0.096	-0.141
-696.470	-134.571	0.233	-0.029
-695.456	509.966	0.049	0.114
-694.441	499.069	0.085	0.199
-693.426	-39.678	0.069	-0.036
-692.412	341.931	0.051	-0.101
-691.397	-148.465	0.133	-0.011
-690.383	-4.915	-0.100	0.070
-689.368	-62.460	0.281	-0.118
-688.354	-62.900	0.258	0.108
-687.339	-86.346	0.424	0.132
-686.324	258.886	0.124	-0.216
-685.310	602.185	-0.220	-0.553
-684.295	22.768	-0.279	-0.232
-683.281	148.132	0.279	-0.381
-682.266	-200.000	-0.017	-0.258
-681.251	800.000	0.120	-0.347
-680.237	188.983	-0.155	-0.234
-679.222	-34.504	0.318	-0.176
-678.208	61.777	-0.091	0.091
-677.193	5.601	-0.154	0.115
-676.178	-153.899	-0.166	0.011
-675.164	-152.323	-0.054	-0.004
-674.149	-129.506	-0.145	-0.020
-673.135	15.051	-0.142	-0.112
-672.120	178.669	0.213	-0.315
-671.105	-73.298	0.320	-0.119
-670.091	768.650	-0.083	-0.227
-669.076	-75.549	0.198	0.071
-668.062	-28.740	-0.112	-0.065
-667.047	-200.000	0.002	0.046
-666.032	-200.000	0.005	0.056
-665.018	144.445	-0.191	-0.258
-664.003	800.000	-0.098	-0.276
-662.989	-50.277	-0.064	0.030
-661.974	-200.000	0.067	-0.416
-660.959	62.348	0.377	-0.381
-659.945	800.000	0.024	0.066
-658.930	258.937	-0.034	0.059
-657.916	-89.596	-0.327	0.097
-656.901	-200.000	0.010	-0.101
-655.886	27.354	0.172	0.146
-654.872	47.849	-0.091	0.086
-653.857	-100.267	0.411	0.103
-652.843	-70.560	0.207	-0.079
-651.828	-39.919	0.074	-0.039
-650.814	-37.858	-0.295	-0.159
-649.799	-200.000	-0.045	0.211
-648.784	-77.140	0.074	0.026
-647.770	260.891	0.102	-0.178
-646.755	-9.046	0.031	0.021
-645.741	-55.438	-0.184	-0.083
-644.726	10.476	0.430	0.331
-643.711	110.152	0.192	-0.233
-642.697	-65.274	-0.213	-0.087
-641.682	624.544	0.046	0.116
-640.668	106.738	-0.108	-0.129
-639.653	123.576	-0.062	-0.079
-638.638	800.000	-0.009	0.030
-637.624	571.319	0.074	0.182
-636.609	-7.203	-0.133	0.091
-635.595	-154.080	0.128	0.009
-634.580	33.871	-0.190	-0.167
-633.565	800.000	-0.065	0.242
-632.551	-14.232	-0.124	-0.081
-631.536	-93.798	-0.270	0.075
-630.522	-25.294	0.107	-0.064
-629.507	-36.143	-0.070	0.038
-628.492	224.696	0.200	0.327
-627.478	-114.957	-0.093	0.018
-626.463	-200.000	0.000	0.031
-625.449	46.350	-0.188	-0.176
-624.434	288.154	-0.112	0.206
-623.419	103.834	0.093	0.110
-622.405	-138.718	0.042	0.005
-621.390	87.365	0.145	-0.163
-620.376	173.775	-0.125	-0.182
-619.361	-175.699	0.015	-0.000
-618.346	-119.834	-0.204	0.036
-617.332	-62.831	-0.088	0.037
-616.317	-200.000	-0.040	-0.182
-615.303	-106.130	0.229	-0.052
-614.288	-200.000	0.011	-0.126
-613.273	2.026	-0.282	-0.206
-612.259	-200.000	-0.043	0.328
-611.244	-129.365	-0.045	-0.006
-610.230	70.313	0.146	0.152
-609.215	-14.688	-0.366	-0.237
-608.201	278.324	0.216	-0.388
-607.186	800.000	0.094	0.300
-606.171	404.816	0.073	-0.156
-605.157	800.000	0.077	-0.299
-604.142	-60.744	-0.143	0.061
-603.128	119.440	-0.106	0.133
-602.113	-142.794	-0.263	-0.026
-601.098	-14.941	-0.220	-0.143
-600.084	-121.974	0.169	0.028
-599.069	-61.338	0.103	-0.044
-598.055	-17.577	0.066	-0.042
-597.040	54.831	-0.252	-0.245
-596.025	-121.587	0.225	-0.038
-595.011	445.808	0.121	-0.267
-593.996	15.112	-0.147	0.117
-592.982	-12.777	-0.260	-0.171
-591.967	-200.000	0.015	0.203
-590.952	304.490	0.105	0.196
-589.938	241.893	-0.082	-0.139
-588.923	-11.447	-0.328	-0.218
-587.909	8.638	-0.096	0.073
-586.894	-95.402	0.017	-0.005
-585.879	164.471	-0.192	-0.273
-584.865	64.736	-0.132	-0.134
-583.850	-124.173	0.182	-0.029
-582.836	35.418	-0.089	0.079
-581.821	48.631	0.183	0.173
-580.806	-166.063	-0.279	-0.012
-579.792	5.826	-0.157	-0.117
-578.777	-200.000	-0.190	0.000
-577.763	-172.768	0.177	0.006
-576.748	252.379	0.239	0.410
-575.733	-200.000	-0.027	-0.260
-574.719	174.194	0.089	-0.129
-573.704	-84.681	-0.383	0.122
-572.690	15.552	-0.128	-0.101
-571.675	-81.185	-0.257	-0.086
-570.661	-79.785	-0.251	0.085
-569.646	722.573	0.050	-0.135
-568.631	-43.872	0.414	-0.210
-567.617	44.471	0.304	-0.281
-566.602	-54.104	-0.315	0.144
-565.588	-94.770	0.147	0.040
-564.573	187.345	-0.177	0.267
-563.558	103.690	-0.135	-0.160
-562.544	168.954	0.136	0.195
-561.529	-116.870	-0.348	-0.064
-560.515	-118.639	-0.246	-0.044
-559.500	-89.852	-0.056	0.017
-558.485	-200.000	-0.005	0.187
-557.471	-200.000	0.020	0.367
-556.456	-24.153	0.172	0.103
-555.442	494.734	-0.106	-0.245
-554.427	-200.000	-0.025	-0.246
-553.412	-108.235	0.075	0.016
-552.398	-200.000	-0.010	0.070
-551.383	800.000	-0.037	0.154
-550.369	757.241	-0.066	-0.179
-549.354	-127.570	0.314	0.046
-548.339	-116.409	0.265	0.049
-547.325	345.327	-0.049	-0.097
-546.310	129.928	0.247	0.318
-545.296	-128.617	0.318	-0.045
-544.281	45.720	0.150	-0.139
-543.266	-200.000	-0.055	0.248
-542.252	800.000	-0.065	0.194
-541.237	800.000	-0.024	0.098
-540.223	800.000	0.095	-0.342
-539.208	14.946	0.200	0.157
-538.193	800.000	-0.037	-0.109
-537.179	124.748	-0.152	0.192
-536.164	-84.963	-0.199	-0.063
-535.150	51.487	-0.260	-0.249
-534.135	-130.776	-0.371	0.050
-533.121	785.786	0.212	-0.586
-532.106	-44.420	-0.216	0.109
-531.091	530.071	0.042	-0.101
-530.077	-120.746	-0.147	-0.025
-529.062	-14.726	-0.085	0.055
-528.048	225.156	0.004	0.007
-527.033	34.671	-0.143	0.126
-526.018	52.196	-0.215	0.207
-525.004	-132.885	0.304	0.039
-523.989	114.041	-0.184	0.225
-522.975	37.026	-0.108	0.097
-521.960	-48.217	0.099	0.048
-520.945	-125.207	-0.448	-0.069
-519.931	800.000	-0.035	-0.111
-518.916	247.556	0.046	0.079
-517.902	121.064	0.105	0.132
-516.887	-186.000	0.294	-0.004
-515.872	-103.329	-0.077	0.018
-514.858	79.898	-0.099	0.107
-513.843	153.890	0.091	0.126
-512.829	64.555	-0.028	-0.028
-511.814	36.148	0.114	0.101
-510.799	30.136	0.165	0.141
-509.785	-200.000	0.010	-0.105
-508.770	-200.000	0.014	0.180
-507.756	-153.869	0.140	-0.010
-506.741	800.000	-0.100	-0.282
-505.726	408.618	-0.155	0.331
-504.712	33.507	-0.116	0.102
-503.697	800.000	-0.099	0.315
-502.683	800.000	0.008	-0.031
-501.668	800.000	0.075	-0.214
-500.653	29.545	0.324	-0.277
-499.639	800.000	-0.086	-0.302
-498.624	-60.692	0.213	-0.091
-497.610	-166.410	-0.177	0.007
-496.595	-200.000	-0.032	-0.356
-495.581	-136.015	-0.191	-0.023
-494.566	-87.294	0.124	-0.038
-493.551	104.226	0.070	0.082
-492.537	65.662	0.318	0.324
-491.522	-186.016	-0.362	0.005
-490.508	202.660	0.087	0.135
-489.493	-67.284	0.461	0.182
-488.478	-197.421	-0.246	-0.002
-487.464	-200.000	0.007	0.299
-486.449	-83.765	-0.058	0.018
-485.435	-69.964	0.218	-0.084
-484.420	120.180	-0.059	-0.074
-483.405	-173.782	-0.158	-0.005
-482.391	-140.979	0.324	-0.033
-481.376	-182.823	-0.116	0.002
-480.362	65.384	0.350	-0.356
-479.347	460.046	0.031	0.068
-478.332	-101.047	0.350	-0.086
-477.318	93.631	0.135	-0.153
-476.303	-69.853	0.200	-0.077
-475.289	-51.564	0.383	0.179
-474.274	800.000	0.060	-0.221
-473.259	-49.553	0.155	0.074
-472.245	-89.758	-0.129	-0.038
-471.230	84.458	0.283	-0.311
-470.216	800.000	-0.046	0.199
-469.201	800.000	0.047	0.187
-468.186	405.450	0.090	0.191
-467.172	84.456	0.121	0.133
-466.157	-200.000	0.025	0.253
-465.143	720.044	0.082	-0.219
-464.128	800.000	0.093	0.287
-463.113	-133.610	0.060	-0.008
-462.099	-160.750	-0.306	0.016
-461.084	-2.263	0.269	0.189
-460.070	-0.895	-0.105	0.074
-459.055	27.055	0.162	-0.137
-458.040	337.014	-0.089	-0.174
-457.026	23.135	-0.120	-0.099
-456.011	800.000	0.071	-0.207
-454.997	73.709	0.194	0.204
-453.982	-134.719	0.274	0.033
-452.968	-200.000	-0.025	-0.467
-451.953	11.729	0.208	-0.160
-450.938	-72.846	-0.118	0.043
-449.924	104.040	-0.169	0.200
-448.909	-200.000	-0.002	0.048
-447.895	-107.684	-0.021	-0.005
-446.880	-200.000	-0.000	0.071
-445.865	-78.136	0.329	-0.114
-444.851	-48.540	0.137	0.066
-443.836	-167.894	-0.228	0.009
-442.822	421.307	0.027	0.059
-441.807	95.315	-0.128	0.147
-440.792	-130.673	-0.108	0.015
-439.778	36.378	-0.160	-0.141
-438.763	324.397	0.063	0.122
-437.749	-52.752	-0.187	-0.087
-436.734	-71.850	-0.244	-0.091
-435.719	163.207	-0.043	0.061
-434.705	-104.637	0.158	-0.037
-433.690	-200.000	0.012	-0.139
-432.676	346.717	-0.166	0.327
-431.661	-11.759	-0.132	0.087
-430.646	-32.177	0.264	-0.148
-429.632	-15.015	-0.292	0.187
-428.617	-90.974	0.260	0.075
-427.603	146.673	0.051	0.069
-426.588	-123.343	-0.323	0.052
-425.573	106.139	-0.125	-0.148
-424.559	90.531	-0.070	-0.078
-423.544	-147.269	-0.184	0.016
-422.530	257.939	-0.115	0.198
-421.515	-74.961	-0.354	-0.127
-420.500	800.000	0.056	-0.196
-419.486	-145.068	0.250	0.023
-418.471	-0.715	0.180	0.128
-417.457	54.324	0.255	0.246
-416.442	-97.901	-0.320	-0.083
-415.428	264.171	0.087	-0.152
-414.413	-200.000	0.012	0.088
-413.398	-200.000	-0.013	0.079
-412.384	4.894	-0.315	-0.232
-411.369	-68.425	-0.291	0.113
-410.355	-51.121	-0.263	0.124
-409.340	183.051	-0.188	0.278
-408.325	202.160	-0.046	-0.071
-407.311	-150.759	-0.135	-0.010
-406.296	104.410	0.228	0.269
-405.282	800.000	0.032	-0.105
-404.267	-98.563	0.163	-0.042
-403.252	800.000	0.065	-0.227
-402.238	35.177	-0.345	-0.302
-401.223	-76.923	0.194	-0.068
-400.209	20.913	0.038	0.031
-399.194	800.000	0.044	-0.148
-398.179	800.000	-0.050	0.144
-397.165	-200.000	-0.014	-0.158
-396.150	800.000	0.046	-0.178
-395.136	22.982	-0.193	0.158
-394.121	-3.161	0.041	0.029
-393.106	800.000	0.165	-0.488
-392.092	-56.145	-0.130	-0.058
-391.077	5.672	-0.044	0.033
-390.063	-2.435	-0.343	-0.241
-389.048	-43.051	-0.059	-0.030
-388.033	800.000	-0.049	0.197
-387.019	-200.000	0.033	-0.309
-386.004	-91.678	-0.315	-0.090
-384.990	124.903	0.119	-0.150
-383.975	-200.000	-0.012	0.216
-382.960	8.748	0.288	0.217
-381.946	140.336	-0.044	0.058
-380.931	307.070	-0.066	-0.122
-379.917	654.795	0.057	0.147
-378.902	513.043	-0.070	0.163
-377.888	-57.158	0.184	-0.081
-376.873	39.789	0.043	-0.039
-375.858	-200.000	0.028	-0.210
-374.844	-91.434	-0.144	0.041
-373.829	13.293	0.150	-0.117
-372.815	582.163	-0.029	-0.071
-371.800	-165.916	0.228	-0.010
-370.785	743.121	0.068	0.184
-369.771	-94.304	0.324	0.089
-368.756	19.380	0.114	-0.091
-367.742	-103.780	0.321	-0.075
-366.727	624.728	0.118	-0.299
-365.712	24.867	-0.112	0.093
-364.698	-144.719	0.286	-0.026
-363.683	-123.969	-0.240	0.038
-362.669	589.546	0.023	-0.057
-361.654	-89.700	-0.191	-0.056
-360.639	-182.285	0.203	-0.004
-359.625	5.354	0.168	-0.124
-358.610	68.324	-0.433	-0.443
-357.596	111.677	0.163	-0.196
-356.581	287.215	0.251	0.453
-355.566	-17.456	-0.260	-0.163
-354.552	17.967	0.081	-0.064
-353.537	-30.666	0.411	-0.233
-352.523	800.000	0.061	-0.176
-351.508	-141.704	0.412	0.041
-350.493	-200.000	-0.045	0.302
-349.479	-61.971	-0.289	0.121
-348.464	800.000	0.061	0.176
-347.450	-33.925	0.476	0.262
-346.435	-85.409	-0.174	0.054
-345.420	-126.397	0.238	0.035
-344.406	-200.000	0.044	0.349
-343.391	-53.403	-0.146	-0.067
-342.377	-200.000	-0.080	0.409
-341.362	-129.758	0.118	-0.016
-340.348	4.052	0.250	0.183
-339.333	-200.000	-0.032	0.249
-338.318	439.022	-0.136	0.297
-337.304	800.000	-0.062	0.216
-336.289	-74.833	-0.150	-0.054
-335.275	-200.000	-0.056	-0.263
-334.260	43.078	-0.271	0.247
-333.245	-193.289	-0.223	0.002
-332.231	542.596	-0.141	-0.336
-331.216	-43.172	-0.198	-0.100
-330.202	-200.000	0.063	0.292
-329.187	62.390	-0.022	-0.022
-328.172	-157.635	-0.178	0.011
-327.158	-140.480	0.330	-0.034
-326.143	536.286	-0.052	0.123
-325.129	-117.652	-0.291	0.052
-324.114	-200.000	-0.049	0.241
-323.099	10.025	-0.062	0.047
-322.085	53.608	0.056	-0.053
-321.070	48.268	0.070	-0.065
-320.056	-200.000	-0.003	-0.308
-319.041	120.444	0.203	0.252
-318.026	568.494	0.082	0.199
-317.012	89.528	0.065	0.072
-315.997	-102.700	0.187	0.044
-314.983	-102.279	-0.081	0.019
-313.968	-12.966	0.306	0.199
-312.953	328.049	0.106	-0.204
-311.939	70.947	-0.205	-0.212
-310.924	-111.636	-0.189	-0.038
-309.910	800.000	-0.073	-0.206
-308.895	98.084	-0.287	-0.330
-307.880	-13.081	0.118	-0.077
-306.866	2.176	0.222	0.160
-305.851	-200.000	-0.027	0.136
-304.837	501.324	-0.146	0.337
-303.822	-77.106	-0.121	-0.042
-302.807	-157.655	0.270	0.016
-301.793	40.947	-0.066	0.059
-300.778	55.701	-0.098	0.094
-299.764	-200.000	-0.018	-0.165
-298.749	-22.531	0.343	-0.207
-297.735	-159.883	0.259	0.014
-296.720	223.787	0.157	0.254
-295.705	-103.231	0.037	-0.009
-294.691	-129.525	0.611	0.084
-293.676	268.449	-0.166	-0.290
-292.662	-68.246	-0.174	0.068
-291.647	597.095	0.087	-0.215
-290.632	-132.712	-0.230	0.029
-289.618	258.838	-0.129	0.221
-288.603	183.355	0.104	0.154
-287.589	-39.075	0.087	-0.046
-286.574	63.456	0.157	-0.157
-285.559	608.171	-0.048	-0.119
-284.545	43.056	0.049	-0.044
-283.530	-160.080	-0.294	0.016
-282.516	596.889	0.056	0.137
-281.501	33.840	0.264	-0.229
-280.486	117.805	-0.025	-0.030
-279.472	-200.000	0.025	0.116
-278.457	158.692	0.233	-0.323
-277.443	-156.468	-0.125	-0.008
-276.428	-18.937	-0.304	-0.188
-275.413	412.243	-0.135	-0.285
-274.399	-29.686	-0.104	-0.059
-273.384	42.729	-0.029	0.026
-272.370	-153.336	0.174	0.012
-271.355	-37.014	0.078	-0.042
-270.340	-200.000	0.040	-0.217
-269.326	-200.000	0.001	-0.140
-268.311	-135.811	-0.211	0.025
-267.297	-35.261	0.062	0.033
-266.282	197.192	0.099	0.150
-265.267	-128.643	0.165	0.023
-264.253	653.372	-0.039	-0.099
-263.238	61.007	-0.221	0.218
-262.224	505.313	-0.088	0.204
-261.209	-200.000	-0.023	0.182
-260.195	134.243	0.085	-0.110
-259.180	58.190	-0.063	0.061
-258.165	-54.219	0.155	0.070
-257.151	-128.186	-0.219	-0.031
-256.136	640.141	-0.137	-0.346
-255.122	103.353	-0.112	0.131
-254.107	247.984	0.103	-0.173
-253.092	255.576	0.052	0.089
-252.078	-200.000	0.037	0.264
-251.063	800.000	0.078	0.263
-250.049	3.400	0.141	0.102
-249.034	102.307	0.155	-0.180
-248.019	-154.829	-0.190	0.012
-247.005	-160.553	0.161	0.009
-245.990	-98.889	-0.168	-0.043
-244.976	-25.320	0.501	-0.295
-243.961	-126.814	-0.215	-0.032
-242.946	420.812	-0.022	-0.047
-241.932	-200.000	0.253	0.001
-240.917	-200.000	-0.025	0.324
-239.903	300.062	0.086	0.158
-238.888	-200.000	-0.029	-0.193
-237.873	-200.000	-0.006	0.080
-236.859	-200.000	0.018	-0.167
-235.844	-200.000	0.001	0.191
-234.830	-28.570	-0.032	-0.019
-233.815	-107.392	0.117	-0.025
-232.800	-160.371	-0.070	-0.004
-231.786	-200.000	-0.011	0.111
-230.771	800.000	0.067	0.265
-229.757	-4.677	0.123	0.084
-228.742	-16.443	-0.066	-0.042
-227.727	-200.000	-0.023	-0.215
-226.713	800.000	-0.032	-0.134
-225.698	800.000	-0.032	-0.122
-224.684	-200.000	0.012	0.307
-223.669	590.082	-0.057	-0.139
-222.655	-58.162	-0.425	-0.184
-221.640	45.413	0.317	-0.291
-220.625	-123.569	-0.153	-0.024
-219.611	6.628	-0.096	-0.071
-218.596	128.948	0.091	0.115
-217.582	-64.542	0.214	0.086
-216.567	136.705	-0.093	0.121
-215.552	-119.518	0.351	-0.060
-214.538	38.957	-0.172	0.152
-213.523	-25.961	-0.059	0.035
-212.509	90.385	-0.182	-0.202
-211.494	-18.090	-0.313	0.195
-210.479	-200.000	-0.022	0.216
-209.465	99.267	-0.140	0.161
-208.450	-107.847	-0.442	0.096
-207.436	-200.000	0.038	-0.211
-206.421	-101.446	-0.093	-0.023
-205.406	-91.109	0.376	0.107
-204.392	-200.000	0.089	-0.395
-203.377	-135.676	-0.312	-0.037
-202.363	90.787	0.068	-0.076
-201.348	462.525	-0.110	-0.244
-200.333	6.128	0.192	0.142
-199.319	-168.587	0.129	-0.005
-198.304	-154.551	-0.028	0.002
-197.290	480.773	-0.123	0.276
-196.275	69.425	0.214	0.219
-195.260	-4.686	0.226	-0.155
-194.246	11.458	-0.106	0.080
-193.231	-163.221	0.131	0.006
-192.217	-163.704	-0.487	-0.023
-191.202	543.168	0.055	0.131
-190.187	318.831	0.088	-0.165
-189.173	64.404	-0.201	-0.201
-188.158	800.000	-0.030	-0.106
-187.144	627.016	-0.032	0.080
-186.129	-24.481	-0.227	0.134
-185.114	188.976	0.153	-0.228
-184.100	119.050	0.091	-0.112
-183.085	31.000	-0.050	0.042
-182.071	800.000	0.079	0.325
-181.056	388.499	0.094	0.193
-180.042	84.712	0.307	0.334
-179.027	-200.000	-0.007	0.054
-178.012	-151.791	-0.170	0.012
-176.998	-200.000	-0.013	0.314
-175.983	-24.741	0.120	0.071
-174.969	170.264	0.229	0.325
-173.954	-54.392	0.126	0.057
-172.939	-39.325	-0.329	-0.171
-171.925	-98.280	0.283	-0.072
-170.910	-200.000	-0.050	-0.223
-169.896	800.000	0.078	0.340
-168.881	154.808	-0.045	0.061
-167.866	-133.825	-0.244	-0.030
-166.852	-119.278	0.141	-0.024
-165.837	313.927	0.139	-0.260
-164.823	-108.618	0.320	0.068
-163.808	-151.819	0.197	0.014
-162.793	37.594	-0.225	-0.198
-161.779	200.600	-0.067	-0.102
-160.764	201.497	0.139	-0.213
-159.750	62.775	-0.197	-0.195
-158.735	-13.074	0.100	0.064
-157.720	204.734	0.199	0.307
-156.706	349.156	0.094	-0.183
-155.691	142.125	-0.266	-0.350
-154.677	-77.008	-0.447	-0.155
-153.662	-200.000	0.003	0.147
-152.647	-85.301	-0.305	0.095
-151.633	-160.601	0.414	-0.022
-150.618	79.493	0.242	-0.258
-149.604	116.344	-0.211	-0.257
-148.589	63.635	0.161	-0.160
-147.574	-200.000	-0.025	-0.238
-146.560	-12.485	-0.343	-0.222
-145.545	21.403	-0.132	-0.106
-144.531	800.000	-0.029	0.083
-143.516	-48.497	0.129	0.062
-142.502	-200.000	-0.027	-0.178
-141.487	-91.115	-0.416	-0.118
-140.472	-57.134	0.221	-0.097
-139.458	380.969	0.155	0.314
-138.443	387.639	-0.059	0.121
-137.429	800.000	-0.118	-0.388
-136.414	144.188	0.186	-0.246
-135.399	-99.255	0.198	-0.050
-134.385	-200.000	0.042	-0.260
-133.370	20.255	-0.152	0.121
-132.356	-117.831	0.214	0.038
-131.341	-50.044	-0.072	0.034
-130.326	-76.442	0.108	0.038
-129.312	-63.218	-0.225	0.092
-128.297	-83.669	-0.075	0.024
-127.283	-19.977	0.175	0.107
-126.268	-49.586	0.094	-0.044
-125.253	-200.000	0.002	0.318
-124.239	467.209	0.019	0.041
-123.224	117.439	-0.261	0.319
-122.210	-110.913	0.332	0.068
-121.195	-200.000	0.064	0.419
