DTS Sentinel unit serial number:	SN413079Multiplexer serial number:	ORYXHardware model number:	OX4-SRSoftware version number:	ORYX F/W v4.00 Oryx Data Collector v3.7.2.0data status	okinstallation	princeton_trtdifferential loss correction	single-endedforward channel	channel 4reverse channel	N/Adate	2019/09/18time	15:25:35forward acquisition time	60.00reverse acquisition time	0.00gamma	496.2192k internal	0.2296k external	0.2296temperature offset calibration	1.0004default loss term (dB/km)	0.3790temperature slope calibration	1.0000multiplexer offset coefficient	1.0000multiplexer slope coefficient	1.0000fibre end	0.00T internal ref (°C)	36.00T ext. ref 1 (°C)	0.76T ext. ref 2 (°C)	34.44length (m)	temperature (°C)	Stokes	anti-Stokes-747.200	32.901	-0.164	0.145
-746.185	-200.000	0.061	0.279
-745.171	-200.000	-0.006	0.139
-744.156	114.105	0.112	0.139
-743.142	-60.455	-0.266	0.115
-742.127	209.279	0.113	0.181
-741.112	71.409	-0.181	0.192
-740.098	-200.000	0.017	0.525
-739.083	-200.000	0.024	0.140
-738.069	-200.000	-0.044	0.450
-737.054	-33.768	-0.293	0.165
-736.039	280.828	-0.098	-0.179
-735.025	54.065	0.028	0.027
-734.010	-95.116	-0.293	-0.081
-732.996	-200.000	0.059	0.293
-731.981	-48.006	0.139	0.068
-730.966	59.056	-0.151	0.151
-729.952	-124.451	0.084	0.013
-728.937	39.390	0.106	-0.097
-727.923	243.167	0.112	-0.192
-726.908	-4.073	0.200	-0.142
-725.894	-200.000	-0.015	0.165
-724.879	780.629	-0.084	-0.234
-723.864	-17.826	-0.129	-0.083
-722.850	-15.761	0.257	0.167
-721.835	-97.857	-0.081	-0.021
-720.821	633.376	-0.095	0.246
-719.806	-200.000	-0.030	-0.259
-718.791	25.712	0.157	-0.134
-717.777	-26.645	0.390	-0.233
-716.762	-19.712	-0.121	-0.076
-715.748	262.986	-0.099	-0.176
-714.733	800.000	-0.122	-0.369
-713.718	-200.000	0.013	0.428
-712.704	-141.461	-0.104	-0.011
-711.689	-114.762	0.026	-0.005
-710.675	-76.911	0.242	0.086
-709.660	-200.000	0.016	-0.186
-708.645	-200.000	-0.025	-0.120
-707.631	-49.768	0.342	0.166
-706.616	163.099	0.166	-0.238
-705.602	-200.000	-0.013	-0.069
-704.587	-200.000	0.027	-0.255
-703.572	97.035	-0.076	0.089
-702.558	295.876	-0.209	-0.391
-701.543	-137.818	0.116	-0.013
-700.529	-200.000	0.029	-0.272
-699.514	502.239	0.054	0.128
-698.499	-2.648	0.130	0.093
-697.485	41.863	0.208	-0.192
-696.470	135.155	0.128	-0.170
-695.456	157.484	-0.019	0.028
-694.441	-200.000	-0.004	0.508
-693.426	-200.000	-0.006	0.327
-692.412	292.239	-0.094	-0.176
-691.397	108.103	-0.047	-0.058
-690.383	800.000	0.162	0.517
-689.368	-200.000	0.015	0.084
-688.354	34.697	0.057	-0.051
-687.339	93.816	0.137	0.159
-686.324	-200.000	-0.037	0.465
-685.310	-71.764	-0.369	-0.140
-684.295	800.000	0.059	0.213
-683.281	800.000	0.066	-0.284
-682.266	-174.093	0.094	0.003
-681.251	-95.988	-0.078	0.021
-680.237	-200.000	-0.053	-0.239
-679.222	-54.524	0.419	0.194
-678.208	155.675	0.096	-0.135
-677.193	33.294	0.143	-0.126
-676.178	175.268	0.131	-0.193
-675.164	266.058	0.131	0.232
-674.149	-7.006	-0.130	0.090
-673.135	-78.343	-0.151	-0.053
-672.120	-31.272	-0.317	0.182
-671.105	-89.126	0.310	0.093
-670.091	-200.000	0.018	0.270
-669.076	155.515	-0.069	0.097
-668.062	237.523	-0.050	0.085
-667.047	-31.643	0.182	0.104
-666.032	213.443	-0.142	-0.229
-665.018	-161.976	-0.284	-0.015
-664.003	535.149	0.023	-0.056
-662.989	53.067	-0.125	-0.122
-661.974	459.766	0.089	-0.201
-660.959	-128.526	-0.214	-0.031
-659.945	-105.971	-0.477	-0.109
-658.930	136.078	-0.038	-0.050
-657.916	483.687	-0.090	0.209
-656.901	149.476	-0.233	-0.321
-655.886	-82.100	-0.208	-0.069
-654.872	158.344	0.065	-0.092
-653.857	88.649	-0.186	0.211
-652.843	-200.000	-0.056	0.370
-651.828	-156.850	-0.135	0.008
-650.814	-155.659	0.081	0.005
-649.799	-200.000	0.428	0.001
-648.784	-2.452	-0.142	0.101
-647.770	-86.941	0.357	0.111
-646.755	-200.000	-0.083	0.525
-645.741	-60.996	0.074	0.032
-644.726	210.296	-0.143	-0.229
-643.711	-118.357	-0.074	0.013
-642.697	-42.659	0.232	-0.120
-641.682	-128.565	-0.162	0.023
-640.668	-200.000	-0.002	-0.018
-639.653	-97.278	-0.288	-0.077
-638.638	-2.050	-0.105	-0.075
-637.624	298.740	0.039	0.073
-636.609	199.391	0.094	-0.147
-635.595	800.000	0.078	-0.284
-634.580	3.180	-0.176	0.130
-633.565	-91.830	0.283	0.082
-632.551	437.029	0.150	0.332
-631.536	-66.798	0.185	-0.075
-630.522	-200.000	-0.017	-0.255
-629.507	-103.584	0.213	0.051
-628.492	1.718	0.226	-0.165
-627.478	358.190	-0.055	-0.111
-626.463	-94.603	0.276	-0.076
-625.449	-40.670	0.058	0.031
-624.434	800.000	0.121	0.346
-623.419	401.896	-0.099	-0.212
-622.405	-54.572	-0.158	-0.073
-621.390	-80.348	-0.081	0.028
-620.376	-43.918	-0.242	-0.124
-619.361	-64.883	-0.292	0.120
-618.346	-47.973	-0.340	0.167
-617.332	-54.992	-0.261	0.120
-616.317	-4.710	0.336	-0.236
-615.303	-170.385	-0.600	-0.021
-614.288	265.465	0.112	-0.199
-613.273	-39.308	-0.096	-0.051
-612.259	99.611	-0.149	-0.175
-611.244	75.558	-0.283	-0.304
-610.230	-159.198	-0.138	-0.008
-609.215	243.135	0.068	0.116
-608.201	85.499	0.093	-0.104
-607.186	315.681	-0.050	-0.095
-606.171	-147.860	-0.445	0.038
-605.157	16.549	-0.243	0.195
-604.142	60.032	-0.103	-0.103
-603.128	-200.000	0.012	-0.105
-602.113	278.230	0.159	0.288
-601.098	-98.976	-0.298	-0.077
-600.084	153.593	0.047	-0.065
-599.069	-187.839	-0.278	0.004
-598.055	4.567	-0.214	-0.159
-597.040	106.877	-0.144	-0.174
-596.025	-9.391	0.077	-0.052
-595.011	-172.746	-0.202	-0.006
-593.996	-74.678	-0.295	-0.108
-592.982	-200.000	0.014	0.161
-591.967	-182.576	0.331	-0.006
-590.952	112.955	-0.098	0.121
-589.938	10.659	-0.112	-0.087
-588.923	-42.289	-0.347	-0.180
-587.909	-129.359	-0.106	-0.015
-586.894	123.983	0.104	0.132
-585.879	800.000	-0.041	-0.151
-584.865	-127.547	-0.373	-0.055
-583.850	-200.000	0.021	-0.092
-582.836	95.642	0.049	0.057
-581.821	312.714	0.088	-0.167
-580.806	-200.000	-0.061	-0.277
-579.792	-92.101	-0.096	-0.028
-578.777	86.524	-0.149	0.167
-577.763	-111.243	0.210	-0.044
-576.748	-7.665	0.054	-0.037
-575.733	-200.000	-0.049	0.644
-574.719	-83.605	-0.270	-0.088
-573.704	800.000	0.022	0.084
-572.690	62.831	-0.162	0.164
-571.675	381.885	0.103	-0.216
-570.661	-85.035	0.092	-0.029
-569.646	-62.613	-0.084	0.035
-568.631	103.306	0.183	-0.218
-567.617	78.431	-0.079	-0.086
-566.602	-150.560	-0.091	0.007
-565.588	23.092	-0.364	0.303
-564.573	29.174	0.188	0.162
-563.558	-179.863	-0.052	0.001
-562.544	800.000	-0.051	0.215
-561.529	800.000	-0.023	0.071
-560.515	90.115	0.167	0.189
-559.500	-200.000	0.024	0.390
-558.485	669.225	-0.093	0.244
-557.471	-98.498	-0.123	-0.032
-556.456	-200.000	-0.056	0.259
-555.442	108.408	-0.084	0.102
-554.427	133.790	0.092	0.121
-553.412	-200.000	0.028	0.143
-552.398	275.449	-0.111	-0.200
-551.383	86.224	-0.126	0.140
-550.369	-66.559	0.160	-0.064
-549.354	-200.000	-0.052	0.260
-548.339	455.484	-0.125	-0.282
-547.325	261.117	-0.023	0.040
-546.310	-132.414	-0.415	-0.054
-545.296	120.149	0.041	-0.051
-544.281	12.578	-0.149	-0.117
-543.266	83.486	0.011	0.013
-542.252	-200.000	-0.043	-0.328
-541.237	-65.680	-0.399	0.162
-540.223	800.000	-0.043	0.143
-539.208	31.170	0.107	0.093
-538.193	1.747	0.305	-0.223
-537.179	-49.725	0.241	-0.116
-536.164	-30.683	-0.141	0.081
-535.150	524.628	-0.118	0.281
-534.135	-200.000	0.007	-0.139
-533.121	800.000	0.069	-0.253
-532.106	-32.960	-0.337	-0.190
-531.091	-163.408	0.349	-0.017
-530.077	-160.716	0.293	-0.016
-529.062	800.000	-0.063	0.250
-528.048	800.000	0.010	0.030
-527.033	-74.490	-0.269	0.098
-526.018	82.906	0.151	0.167
-525.004	68.271	-0.122	0.127
-523.989	84.583	-0.260	0.288
-522.975	18.973	-0.218	0.177
-521.960	-43.627	0.219	-0.112
-520.945	-6.658	0.055	0.038
-519.931	165.838	0.106	0.152
-518.916	-71.523	-0.221	-0.084
-517.902	74.529	0.095	0.101
-516.887	-23.286	0.236	-0.144
-515.872	-153.931	0.414	0.029
-514.858	62.046	-0.091	-0.091
-513.843	-62.690	0.413	0.173
-512.829	132.085	-0.175	-0.228
-511.814	379.904	0.112	-0.232
-510.799	383.259	0.092	0.191
-509.785	128.275	-0.107	0.138
-508.770	56.300	0.248	-0.244
-507.756	-82.119	0.174	0.058
-506.741	-42.849	-0.169	0.087
-505.726	339.904	-0.110	0.218
-504.712	514.545	0.061	0.144
-503.697	637.010	-0.051	0.132
-502.683	12.319	0.137	0.107
-501.668	-144.548	-0.147	0.014
-500.653	-113.423	-0.243	0.048
-499.639	800.000	0.006	0.020
-498.624	52.197	-0.114	0.110
-497.610	-84.992	0.181	0.058
-496.595	564.076	-0.048	0.117
-495.581	-108.947	0.158	0.034
-494.566	55.351	0.213	-0.208
-493.551	-200.000	0.011	-0.254
-492.537	-52.061	-0.269	0.127
-491.522	184.228	0.084	-0.126
-490.508	784.264	-0.082	-0.228
-489.493	401.289	0.144	-0.307
-488.478	-122.787	-0.178	-0.029
-487.464	-134.296	0.306	-0.038
-486.449	-200.000	0.020	0.214
-485.435	92.356	0.074	-0.084
-484.420	-121.969	0.283	-0.047
-483.405	163.678	0.372	-0.529
-482.391	-200.000	-0.051	-0.246
-481.376	-200.000	0.029	0.167
-480.362	-105.638	-0.281	0.064
-479.347	238.205	0.118	-0.198
-478.332	-19.642	-0.080	0.050
-477.318	-35.315	-0.311	0.171
-476.303	-173.888	-0.162	0.005
-475.289	135.006	0.068	0.089
-474.274	-59.937	0.065	-0.028
-473.259	800.000	-0.023	-0.099
-472.245	55.293	0.274	0.268
-471.230	-40.024	-0.337	0.178
-470.216	50.355	0.167	-0.160
-469.201	-34.381	0.139	-0.077
-468.186	-143.984	-0.130	0.012
-467.172	-50.181	0.218	0.104
-466.157	-200.000	-0.005	0.032
-465.143	-200.000	-0.081	0.386
-464.128	-66.452	-0.143	-0.057
-463.113	800.000	-0.060	0.183
-462.099	-138.998	0.189	0.021
-461.084	-200.000	0.064	-0.429
-460.070	235.540	0.134	-0.224
-459.055	-31.417	-0.162	0.092
-458.040	-97.031	-0.064	-0.017
-457.026	90.685	0.078	-0.088
-456.011	-200.000	-0.019	0.137
-454.997	-167.038	-0.332	-0.014
-453.982	261.437	0.089	0.155
-452.968	156.533	-0.128	0.179
-451.953	-140.348	0.186	0.020
-450.938	458.013	0.111	-0.250
-449.924	135.395	0.047	0.061
-448.909	-160.611	0.223	0.012
-447.895	-200.000	0.056	-0.331
-446.880	-161.507	-0.331	0.017
-445.865	106.816	-0.277	0.333
-444.851	-200.000	0.047	0.356
-443.836	57.260	0.154	0.152
-442.822	-200.000	-0.027	0.175
-441.807	24.415	-0.199	0.167
-440.792	-200.000	0.054	0.295
-439.778	-161.355	-0.303	0.016
-438.763	-72.194	0.146	-0.055
-437.749	90.773	0.055	-0.062
-436.734	-84.483	0.135	0.043
-435.719	605.085	0.111	0.280
-434.705	-200.000	0.012	-0.203
-433.690	-200.000	0.060	-0.457
-432.676	-128.833	-0.217	0.031
-431.661	-189.632	0.110	0.001
-430.646	80.641	0.132	-0.143
-429.632	265.384	-0.082	0.144
-428.617	175.417	-0.115	-0.168
-427.603	-61.727	-0.192	-0.081
-426.588	42.811	0.114	-0.105
-425.573	-173.817	0.340	0.010
-424.559	-93.072	-0.099	-0.028
-423.544	11.943	0.106	0.083
-422.530	800.000	0.027	-0.076
-421.515	-200.000	0.026	-0.246
-420.500	-42.952	-0.168	-0.086
-419.486	-31.645	-0.162	-0.092
-418.471	-173.157	0.057	0.002
-417.457	50.960	0.282	-0.270
-416.442	-200.000	-0.011	-0.300
-415.428	800.000	-0.093	-0.279
-414.413	-38.256	-0.109	0.058
-413.398	78.838	-0.211	0.228
-412.384	218.747	0.132	0.212
-411.369	-121.937	-0.155	0.026
-410.355	-70.836	0.056	0.021
-409.340	-133.285	0.269	0.034
-408.325	-75.490	-0.111	0.040
-407.311	515.187	0.076	0.179
-406.296	800.000	-0.027	0.119
-405.282	434.698	-0.048	-0.104
-404.267	-49.049	0.310	0.149
-403.252	-200.000	-0.025	0.238
-402.238	21.081	0.283	0.232
-401.223	-92.294	-0.336	-0.096
-400.209	-200.000	-0.020	-0.282
-399.194	-72.690	0.066	0.025
-398.179	247.776	-0.098	0.167
-397.165	-91.256	-0.074	0.021
-396.150	800.000	-0.092	0.389
-395.136	-42.853	-0.078	0.040
-394.121	477.499	0.122	-0.277
-393.106	20.401	0.209	0.170
-392.092	-53.602	-0.012	-0.006
-391.077	800.000	-0.180	0.545
-390.063	-162.838	0.194	-0.010
-389.048	291.574	0.094	0.173
-388.033	-200.000	-0.040	-0.269
-387.019	246.445	-0.236	-0.402
-386.004	-51.991	0.042	-0.019
-384.990	-32.851	-0.123	-0.069
-383.975	-2.656	-0.221	0.156
-382.960	-195.096	0.202	-0.002
-381.946	-60.000	0.129	-0.055
-380.931	-105.357	0.205	-0.047
-379.917	-200.000	-0.011	-0.201
-378.902	128.175	-0.195	-0.250
-377.888	-200.000	-0.027	0.243
-376.873	516.528	-0.056	-0.133
-375.858	-123.215	0.341	-0.055
-374.844	800.000	-0.079	0.263
-373.829	-51.634	0.127	-0.060
-372.815	-200.000	0.060	0.287
-371.800	-44.147	0.304	-0.154
-370.785	61.261	0.211	-0.211
-369.771	-91.873	-0.206	-0.059
-368.756	-200.000	0.038	0.262
-367.742	-76.436	-0.166	-0.059
-366.727	-23.675	-0.110	0.066
-365.712	-200.000	0.023	-0.192
-364.698	-171.706	0.146	0.005
-363.683	-82.454	-0.197	0.064
-362.669	346.654	0.098	-0.195
-361.654	-200.000	-0.046	0.226
-360.639	-200.000	-0.016	-0.172
-359.625	-18.495	-0.071	-0.045
-358.610	-159.628	-0.185	-0.010
-357.596	-200.000	0.022	0.239
-356.581	-67.281	0.375	0.149
-355.566	-200.000	-0.060	-0.321
-354.552	73.921	-0.208	-0.220
-353.537	-102.500	0.318	-0.077
-352.523	328.562	0.094	0.182
-351.508	67.911	-0.088	-0.091
-350.493	-55.801	0.088	-0.040
-349.479	40.855	-0.151	-0.137
-348.464	219.790	-0.108	-0.174
-347.450	800.000	0.054	0.164
-346.435	800.000	0.051	0.204
-345.420	-200.000	-0.014	0.203
-344.406	800.000	-0.044	0.124
-343.391	-86.645	0.054	0.017
-342.377	-133.350	0.297	-0.038
-341.362	800.000	-0.034	0.100
-340.348	-23.932	-0.242	-0.146
-339.333	-200.000	-0.002	-0.109
-338.318	800.000	0.062	0.237
-337.304	-200.000	0.012	0.156
-336.289	-80.349	-0.347	-0.117
-335.275	-84.589	-0.263	-0.083
-334.260	800.000	-0.046	-0.203
-333.245	28.432	-0.170	0.145
-332.231	74.959	-0.096	0.101
-331.216	-200.000	0.010	-0.062
-330.202	2.969	-0.184	-0.135
-329.187	-80.218	0.333	0.112
-328.172	134.512	0.148	0.193
-327.158	-200.000	0.006	0.080
-326.143	121.007	0.074	0.092
-325.129	-3.519	-0.272	0.190
-324.114	-58.583	0.118	0.051
-323.099	233.197	0.106	0.175
-322.085	72.101	0.048	0.050
-321.070	-144.560	-0.090	-0.008
-320.056	-30.926	0.155	0.088
-319.041	-200.000	-0.025	0.261
-318.026	-11.719	-0.096	0.063
-317.012	-200.000	-0.029	-0.185
-315.997	-19.362	-0.162	-0.101
-314.983	-162.687	0.184	-0.009
-313.968	-200.000	-0.043	-0.212
-312.953	800.000	-0.097	-0.372
-311.939	94.827	0.104	0.119
-310.924	-185.280	-0.304	0.005
-309.910	-200.000	0.019	0.229
-308.895	46.750	0.127	0.119
-307.880	-200.000	-0.020	0.282
-306.866	77.665	-0.056	-0.060
-305.851	-82.285	0.084	0.027
-304.837	-111.104	-0.387	-0.080
-303.822	-141.872	0.249	-0.025
-302.807	-200.000	-0.003	0.205
-301.793	683.666	0.032	0.085
-300.778	-46.644	0.099	0.049
-299.764	9.751	-0.167	-0.127
-298.749	-59.420	0.390	0.168
-297.735	266.045	0.135	-0.237
-296.720	800.000	0.030	-0.102
-295.705	-200.000	-0.005	0.185
-294.691	277.490	-0.139	-0.249
-293.676	-200.000	-0.003	0.319
-292.662	-110.683	0.274	-0.057
-291.647	-200.000	-0.040	-0.228
-290.632	54.095	-0.104	0.100
-289.618	800.000	-0.045	-0.141
-288.603	-137.904	-0.242	0.027
-287.589	-70.115	0.307	0.117
-286.574	-176.477	0.075	-0.002
-285.559	800.000	0.080	-0.311
-284.545	176.831	0.150	-0.219
-283.530	-172.833	0.377	-0.012
-282.516	-200.000	0.005	0.232
-281.501	41.585	0.176	0.160
-280.486	385.192	-0.112	0.231
-279.472	-97.589	0.050	-0.013
-278.457	-75.137	0.244	-0.088
-277.443	22.460	-0.262	-0.215
-276.428	100.482	0.127	-0.148
-275.413	134.203	-0.068	-0.089
-274.399	178.515	0.115	-0.169
-273.384	-113.441	-0.084	0.017
-272.370	285.892	-0.228	-0.412
-271.355	460.973	0.059	0.133
-270.340	25.709	-0.233	0.195
-269.326	-51.482	-0.089	-0.042
-268.311	-38.343	-0.237	-0.126
-267.297	197.784	0.040	-0.061
-266.282	-5.016	-0.068	-0.047
-265.267	450.591	-0.103	0.228
-264.253	800.000	0.020	0.081
-263.238	800.000	0.101	-0.335
-262.224	69.334	0.054	0.056
-261.209	317.736	-0.207	0.392
-260.195	-180.851	-0.064	0.001
-259.180	-46.030	0.087	-0.043
-258.165	-200.000	-0.026	0.288
-257.151	-89.061	0.187	-0.056
-256.136	-36.474	-0.154	0.083
-255.122	800.000	0.028	0.094
-254.107	-132.052	0.175	-0.023
-253.092	41.835	-0.215	-0.195
-252.078	136.291	-0.095	0.124
-251.063	-126.705	-0.224	-0.033
-250.049	-72.536	0.065	0.024
-249.034	183.077	0.085	-0.125
-248.019	-108.282	-0.358	-0.077
-247.005	128.654	0.042	0.053
-245.990	531.329	-0.014	-0.034
-244.976	800.000	-0.034	0.115
-243.961	147.939	-0.038	0.052
-242.946	-200.000	0.000	-0.061
-241.932	-200.000	0.002	0.184
-240.917	-60.812	0.232	-0.098
-239.903	-47.046	0.262	-0.128
-238.888	-18.133	0.136	0.085
-237.873	800.000	-0.085	-0.293
-236.859	-200.000	0.052	0.283
-235.844	-20.220	0.127	-0.079
-234.830	-163.389	-0.014	-0.001
-233.815	-200.000	0.024	0.154
-232.800	493.868	-0.157	-0.362
-231.786	-129.563	-0.118	0.016
-230.771	-29.280	-0.119	0.068
-229.757	34.463	-0.149	0.130
-228.742	351.535	0.093	-0.184
-227.727	-170.601	-0.179	0.006
-226.713	-118.333	0.151	0.027
-225.698	800.000	-0.019	0.065
-224.684	47.980	0.249	0.233
-223.669	-200.000	0.002	0.081
-222.655	-200.000	-0.032	0.348
-221.640	-125.325	0.054	0.008
-220.625	-61.021	0.148	0.062
-219.611	689.724	0.083	0.218
-218.596	800.000	0.034	0.112
-217.582	139.095	0.075	-0.099
-216.567	-200.000	-0.012	-0.224
-215.552	-141.885	-0.283	0.028
-214.538	-200.000	-0.003	0.147
-213.523	41.565	0.279	0.253
-212.509	-200.000	-0.003	-0.147
-211.494	-135.290	0.202	-0.024
-210.479	-111.176	0.155	0.032
-209.465	-200.000	0.045	-0.248
-208.450	302.083	0.180	-0.334
-207.436	-119.146	-0.113	-0.020
-206.421	25.258	-0.138	0.115
-205.406	175.057	0.097	-0.141
-204.392	800.000	0.036	0.122
-203.377	-135.045	0.193	0.023
-202.363	-33.669	0.109	0.060
-201.348	-80.681	-0.036	0.012
-200.333	7.396	0.095	0.071
-199.319	51.871	0.262	0.249
-198.304	72.923	-0.298	-0.311
-197.290	-21.909	0.207	-0.126
-196.275	-17.758	0.213	-0.134
-195.260	-200.000	0.035	-0.319
-194.246	766.777	-0.039	-0.106
-193.231	562.532	-0.099	-0.240
-192.217	-89.135	-0.178	-0.053
-191.202	52.191	0.071	0.068
-190.187	-85.714	0.287	-0.089
-189.173	170.827	-0.032	-0.046
-188.158	374.557	-0.189	-0.386
-187.144	-77.098	0.153	0.053
-186.129	25.282	-0.184	-0.153
-185.114	800.000	-0.027	0.100
-184.100	-59.784	-0.264	-0.113
-183.085	-77.377	-0.109	-0.038
-182.071	-200.000	0.046	-0.257
-181.056	21.700	0.193	-0.157
-180.042	2.387	0.040	-0.029
-179.027	273.657	0.107	-0.188
-178.012	-160.617	0.266	-0.014
-176.998	-144.968	0.035	0.003
-175.983	-92.981	0.336	-0.094
-174.969	45.049	0.156	0.143
-173.954	218.848	-0.027	0.044
-172.939	-200.000	-0.008	0.077
-171.925	-141.689	-0.311	-0.031
-170.910	800.000	-0.034	-0.111
-169.896	-136.425	0.325	0.038
-168.881	556.984	-0.058	0.139
-167.866	-200.000	0.157	-0.746
-166.852	-16.516	-0.096	0.061
-165.837	-22.700	-0.261	0.158
-164.823	139.787	-0.078	0.102
-163.808	-200.000	0.003	-0.062
-162.793	-107.079	0.166	0.037
-161.779	-69.631	-0.068	0.026
-160.764	148.981	0.051	0.068
-159.750	275.995	0.139	0.246
-158.735	377.294	0.080	-0.163
-157.720	136.763	0.280	-0.365
-156.706	-52.607	0.084	-0.039
-155.691	-61.459	0.112	0.047
-154.677	-175.297	0.201	-0.006
-153.662	-140.017	0.088	0.009
-152.647	-38.093	0.168	0.089
-151.633	-200.000	-0.020	-0.104
-150.618	-64.954	-0.239	-0.096
-149.604	687.415	0.064	0.167
-148.589	152.615	0.216	-0.294
-147.574	-80.238	0.298	0.100
-146.560	196.875	0.207	0.316
-145.545	800.000	0.138	0.449
-144.531	85.430	-0.139	0.152
-143.516	-183.580	0.055	-0.001
-142.502	309.171	0.145	-0.271
-141.487	-154.921	0.312	-0.021
-140.472	373.729	0.082	-0.166
-139.458	-122.537	0.252	-0.041
-138.443	-38.859	-0.468	-0.246
-137.429	-200.000	0.008	-0.047
-136.414	800.000	-0.038	0.125
-135.399	124.657	-0.188	0.237
-134.385	174.880	-0.111	-0.160
-133.370	-22.130	-0.175	-0.106
-132.356	356.263	-0.162	0.322
-131.341	-71.172	0.225	0.084
-130.326	-29.044	0.134	-0.077
-129.312	146.896	0.096	0.129
-128.297	800.000	-0.020	-0.079
-127.283	187.530	0.236	0.351
-126.268	4.164	-0.089	0.065
-125.253	-200.000	0.004	-0.325
-124.239	-93.343	0.306	0.085
-123.224	-200.000	-0.027	-0.250
-122.210	395.137	-0.049	-0.102
-121.195	800.000	-0.033	0.144
