DTS Sentinel unit serial number:	SN413079Multiplexer serial number:	ORYXHardware model number:	OX4-SRSoftware version number:	ORYX F/W v4.00 Oryx Data Collector v3.7.2.0data status	okinstallation	princeton_trtdifferential loss correction	single-endedforward channel	channel 4reverse channel	N/Adate	2019/09/11time	13:07:11forward acquisition time	60.00reverse acquisition time	0.00gamma	496.2192k internal	0.2283k external	0.2283temperature offset calibration	0.9988default loss term (dB/km)	0.3790temperature slope calibration	1.0000multiplexer offset coefficient	1.0000multiplexer slope coefficient	1.0000fibre end	0.00T internal ref (°C)	41.78T ext. ref 1 (°C)	0.59T ext. ref 2 (°C)	39.10length (m)	temperature (°C)	Stokes	anti-Stokes-747.200	30.568	0.020	0.018
-746.185	-70.282	-0.269	-0.105
-745.171	-200.000	0.009	-0.191
-744.156	255.583	-0.252	0.443
-743.142	-0.273	-0.063	0.046
-742.127	26.103	-0.243	0.208
-741.112	-200.000	-0.020	0.122
-740.098	26.845	-0.095	-0.082
-739.083	325.719	-0.085	0.168
-738.069	540.404	-0.057	0.139
-737.054	-200.000	-0.060	0.376
-736.039	-113.465	0.054	-0.011
-735.025	292.003	0.148	0.276
-734.010	-200.000	-0.005	-0.087
-732.996	140.346	-0.317	-0.430
-731.981	-153.892	-0.500	0.035
-730.966	119.416	0.031	0.040
-729.952	-200.000	0.049	0.251
-728.937	-38.480	-0.215	0.117
-727.923	-32.859	-0.442	-0.252
-726.908	-149.815	-0.127	0.010
-725.894	139.595	-0.097	-0.131
-724.879	-43.830	-0.383	-0.198
-723.864	-50.597	0.272	-0.132
-722.850	-129.099	-0.162	0.023
-721.835	-111.304	-0.069	0.015
-720.821	-200.000	0.034	0.154
-719.806	-182.762	-0.103	0.002
-718.791	-50.492	0.095	-0.046
-717.777	-200.000	0.007	0.096
-716.762	-182.466	-0.228	-0.004
-715.748	-200.000	0.008	0.061
-714.733	543.357	-0.122	0.298
-713.718	216.862	-0.116	0.189
-712.704	-13.891	-0.033	-0.022
-711.689	230.757	-0.171	0.287
-710.675	310.986	0.181	0.348
-709.660	800.000	0.035	-0.134
-708.645	-200.000	-0.161	-0.000
-707.631	800.000	0.086	0.320
-706.616	-72.529	-0.067	-0.025
-705.602	-161.251	-0.114	0.006
-704.587	-83.295	0.113	-0.037
-703.572	587.216	-0.143	-0.360
-702.558	-103.214	-0.110	-0.027
-701.543	-29.623	-0.020	0.012
-700.529	-94.195	-0.034	-0.010
-699.514	-135.840	-0.175	0.021
-698.499	-11.160	0.052	0.035
-697.485	259.729	-0.034	0.060
-696.470	-139.300	-0.117	0.013
-695.456	800.000	0.088	-0.277
-694.441	-16.981	-0.361	-0.234
-693.426	-139.500	0.130	0.014
-692.412	-111.526	0.073	-0.015
-691.397	-52.494	0.063	-0.030
-690.383	-169.772	-0.317	-0.012
-689.368	-95.857	-0.306	0.084
-688.354	157.456	-0.043	-0.061
-687.339	-34.980	0.027	-0.015
-686.324	52.701	0.320	0.313
-685.310	-52.738	0.246	0.116
-684.295	-42.460	-0.105	-0.055
-683.281	-84.099	0.188	-0.061
-682.266	40.740	0.159	-0.147
-681.251	-153.443	0.281	-0.020
-680.237	-50.524	0.086	-0.042
-679.222	-75.727	0.301	-0.109
-678.208	-8.042	-0.225	0.156
-677.193	57.802	-0.098	-0.098
-676.178	-198.243	0.400	-0.002
-675.164	-127.776	-0.291	-0.043
-674.149	552.987	0.191	-0.470
-673.135	-159.600	0.274	-0.016
-672.120	-90.379	-0.215	0.064
-671.105	-32.250	-0.185	-0.106
-670.091	205.939	0.128	-0.204
-669.076	800.000	0.041	-0.121
-668.062	800.000	-0.077	-0.237
-667.047	29.391	0.210	0.183
-666.032	-75.898	0.162	0.059
-665.018	-168.294	-0.270	-0.011
-664.003	-126.812	0.115	0.017
-662.989	432.668	0.225	0.500
-661.974	-200.000	-0.019	-0.144
-660.959	800.000	0.064	-0.227
-659.945	-190.897	-0.469	-0.005
-658.930	-200.000	-0.011	0.071
-657.916	63.896	0.249	0.256
-656.901	-109.256	-0.326	0.071
-655.886	-79.342	-0.274	-0.095
-654.872	800.000	-0.059	-0.194
-653.857	189.886	-0.169	0.260
-652.843	-92.488	-0.186	0.054
-651.828	-154.735	0.183	0.012
-650.814	-68.916	0.139	0.055
-649.799	234.378	0.014	-0.024
-648.784	26.505	-0.127	-0.109
-647.770	54.825	-0.133	-0.131
-646.755	800.000	0.077	-0.252
-645.741	-73.852	0.179	-0.067
-644.726	-159.589	-0.279	0.016
-643.711	264.154	0.131	0.234
-642.697	-125.548	0.094	-0.015
-641.682	-200.000	-0.060	-0.275
-640.668	-62.919	-0.185	0.078
-639.653	-20.902	0.247	-0.155
-638.638	451.798	-0.161	-0.364
-637.624	-41.233	-0.158	-0.084
-636.609	-200.000	-0.011	-0.155
-635.595	-63.936	0.089	0.037
-634.580	-93.989	-0.342	-0.096
-633.565	289.517	0.147	0.273
-632.551	48.939	-0.087	0.084
-631.536	201.122	-0.079	-0.125
-630.522	466.546	0.193	-0.442
-629.507	214.159	0.160	-0.259
-628.492	65.879	-0.023	0.024
-627.478	-111.978	0.072	-0.015
-626.463	-179.889	-0.189	0.004
-625.449	38.016	-0.091	-0.083
-624.434	-46.138	0.085	-0.043
-623.419	800.000	-0.094	-0.373
-622.405	800.000	-0.073	0.214
-621.390	800.000	0.092	0.322
-620.376	15.626	0.137	0.110
-619.361	-200.000	0.010	-0.352
-618.346	-7.364	-0.102	-0.071
-617.332	800.000	-0.096	-0.291
-616.317	-200.000	0.031	-0.582
-615.303	-82.781	0.451	-0.149
-614.288	-112.471	0.155	0.032
-613.273	-97.726	-0.316	-0.084
-612.259	800.000	-0.014	-0.044
-611.244	-200.000	0.064	-0.362
-610.230	800.000	0.071	-0.241
-609.215	787.101	0.072	0.203
-608.201	-64.683	-0.102	-0.042
-607.186	800.000	-0.076	-0.246
-606.171	-167.594	0.102	-0.004
-605.157	-46.427	-0.325	-0.163
-604.142	800.000	0.111	-0.400
-603.128	-200.000	0.010	0.097
-602.113	268.018	0.100	-0.179
-601.098	-200.000	0.010	-0.267
-600.084	795.811	-0.117	0.331
-599.069	-200.000	0.078	-0.377
-598.055	-200.000	0.011	-0.248
-597.040	-200.000	0.004	0.132
-596.025	-200.000	-0.085	0.424
-595.011	-43.283	0.331	-0.171
-593.996	387.261	0.073	0.155
-592.982	-41.329	-0.377	-0.198
-591.967	376.024	0.071	-0.148
-590.952	-11.562	0.451	-0.303
-589.938	-152.727	0.314	0.023
-588.923	-200.000	0.048	0.392
-587.909	125.252	0.075	0.096
-586.894	288.106	-0.109	0.202
-585.879	800.000	-0.044	0.190
-584.865	-200.000	-0.011	0.207
-583.850	51.496	0.039	-0.038
-582.836	-138.658	-0.155	0.017
-581.821	-121.406	-0.078	0.013
-580.806	-126.130	0.191	0.029
-579.792	76.736	0.212	-0.229
-578.777	-200.000	0.236	0.001
-577.763	-200.000	-0.034	-0.338
-576.748	-36.547	0.399	0.219
-575.733	-146.263	0.227	0.020
-574.719	-18.984	0.201	-0.128
-573.704	92.345	-0.087	-0.101
-572.690	-200.000	0.003	-0.093
-571.675	169.667	0.081	-0.118
-570.661	-200.000	0.015	-0.221
-569.646	-200.000	0.015	-0.223
-568.631	-200.000	-0.003	-0.163
-567.617	-43.265	-0.039	0.020
-566.602	-164.360	0.295	0.014
-565.588	-57.597	-0.294	0.131
-564.573	296.217	-0.104	0.194
-563.558	360.328	0.088	-0.179
-562.544	-200.000	-0.007	0.059
-561.529	240.766	-0.099	0.169
-560.515	83.936	0.026	0.028
-559.500	-177.490	0.368	0.009
-558.485	-40.109	0.220	-0.117
-557.471	4.860	-0.233	0.175
-556.456	-44.454	0.105	-0.054
-555.442	-39.169	-0.299	-0.160
-554.427	-50.729	0.146	-0.070
-553.412	-200.000	0.004	-0.289
-552.398	-200.000	-0.036	-0.316
-551.383	-200.000	-0.015	-0.109
-550.369	-129.294	-0.238	-0.034
-549.354	-200.000	-0.044	0.349
-548.339	-116.257	0.412	-0.078
-547.325	-106.290	-0.162	0.037
-546.310	-123.600	0.343	0.056
-545.296	-200.000	0.044	0.211
-544.281	-61.967	-0.069	-0.029
-543.266	-83.983	-0.207	-0.067
-542.252	800.000	0.026	-0.073
-541.237	11.909	0.121	-0.095
-540.223	-35.093	0.170	0.094
-539.208	-48.239	-0.139	0.068
-538.193	-178.576	-0.163	0.004
-537.179	-29.502	-0.249	-0.145
-536.164	800.000	-0.005	-0.017
-535.150	-63.384	0.198	0.083
-534.135	-84.612	-0.144	0.046
-533.121	136.746	0.047	-0.062
-532.106	397.094	0.063	-0.135
-531.091	-200.000	0.012	-0.282
-530.077	53.145	0.100	-0.097
-529.062	-63.558	-0.216	-0.091
-528.048	-157.887	0.116	-0.007
-527.033	61.299	0.178	-0.180
-526.018	-200.000	-0.041	0.212
-525.004	-81.249	0.197	0.066
-523.989	-200.000	0.035	0.427
-522.975	500.152	-0.076	0.178
-521.960	-200.000	-0.016	0.135
-520.945	483.498	-0.079	-0.183
-519.931	627.376	-0.022	-0.056
-518.916	-200.000	-0.003	-0.039
-517.902	-71.745	-0.140	0.053
-516.887	157.744	0.049	0.069
-515.872	23.514	-0.100	0.084
-514.858	-200.000	0.036	0.233
-513.843	79.981	-0.335	-0.367
-512.829	-145.116	-0.200	0.019
-511.814	52.033	0.086	0.084
-510.799	-34.300	0.193	0.108
-509.785	242.338	-0.185	0.315
-508.770	39.557	0.122	0.111
-507.756	135.803	-0.085	-0.113
-506.741	153.104	-0.035	0.049
-505.726	-200.000	0.041	-0.213
-504.712	-142.609	-0.436	0.043
-503.697	-88.601	-0.204	-0.062
-502.683	13.072	-0.179	0.141
-501.668	263.737	-0.142	-0.252
-500.653	-96.767	0.231	0.062
-499.639	-66.959	-0.045	-0.018
-498.624	23.571	-0.102	0.086
-497.610	-200.000	0.016	0.237
-496.595	-200.000	0.012	0.138
-495.581	-116.551	-0.201	-0.038
-494.566	-33.439	0.211	-0.119
-493.551	800.000	-0.036	-0.119
-492.537	117.448	-0.105	0.132
-491.522	-200.000	-0.036	-0.248
-490.508	-26.658	0.196	-0.117
-489.493	-33.040	-0.179	0.101
-488.478	-200.000	0.010	-0.332
-487.464	-42.946	0.124	0.064
-486.449	-200.000	0.034	-0.210
-485.435	50.256	0.104	0.100
-484.420	64.940	0.262	-0.269
-483.405	-158.286	0.120	-0.007
-482.391	-84.283	-0.094	0.030
-481.376	-171.283	-0.260	0.009
-480.362	361.913	-0.076	0.155
-479.347	-83.840	0.144	-0.047
-478.332	737.487	-0.065	0.176
-477.318	800.000	-0.013	-0.052
-476.303	-51.640	-0.154	0.073
-475.289	-176.236	-0.401	-0.011
-474.274	164.354	-0.150	0.215
-473.259	19.697	-0.139	-0.113
-472.245	-96.046	-0.290	-0.078
-471.230	131.620	0.032	-0.042
-470.216	-200.000	0.011	-0.050
-469.201	344.068	-0.110	0.220
-468.186	330.377	-0.131	0.257
-467.172	-87.924	0.130	0.040
-466.157	-149.302	-0.258	-0.021
-465.143	-3.393	-0.131	0.093
-464.128	-80.626	-0.184	0.062
-463.113	136.712	0.035	0.047
-462.099	-8.530	0.041	-0.028
-461.084	58.043	-0.315	-0.313
-460.070	-34.920	-0.346	0.192
-459.055	-142.813	0.451	0.045
-458.040	473.165	0.085	0.194
-457.026	226.098	0.116	0.191
-456.011	-161.629	0.080	-0.004
-454.997	-122.827	0.215	-0.035
-453.982	-177.164	-0.392	0.010
-452.968	-105.368	0.188	-0.043
-451.953	800.000	-0.151	0.477
-450.938	188.037	0.158	-0.241
-449.924	117.981	0.056	0.070
-448.909	-96.323	-0.327	0.088
-447.895	-200.000	0.029	-0.151
-446.880	-13.761	0.243	0.159
-445.865	30.475	0.196	-0.170
-444.851	-53.224	-0.152	-0.071
-443.836	-200.000	0.008	-0.149
-442.822	800.000	-0.074	0.263
-441.807	-200.000	0.008	-0.131
-440.792	-59.030	-0.173	-0.076
-439.778	44.137	0.257	-0.239
-438.763	-48.276	0.131	-0.064
-437.749	-94.040	0.239	-0.067
-436.734	800.000	-0.096	-0.405
-435.719	-127.891	-0.101	0.015
-434.705	201.143	0.065	0.102
-433.690	-82.338	0.255	0.084
-432.676	-29.310	-0.225	0.131
-431.661	-80.928	-0.361	0.122
-430.646	-200.000	0.024	0.200
-429.632	-200.000	0.009	-0.289
-428.617	-119.807	0.307	0.054
-427.603	177.929	-0.070	-0.104
-426.588	5.017	-0.282	-0.210
-425.573	-121.706	-0.229	0.038
-424.559	-200.000	0.004	0.170
-423.544	-200.000	-0.004	0.512
-422.530	138.458	-0.131	-0.175
-421.515	73.783	-0.185	-0.197
-420.500	238.145	0.019	-0.032
-419.486	348.631	0.200	-0.401
-418.471	51.054	0.220	-0.212
-417.457	-200.000	-0.070	0.337
-416.442	88.562	0.137	-0.154
-415.428	-200.000	0.012	0.146
-414.413	-70.817	0.246	-0.094
-413.398	800.000	0.011	0.040
-412.384	-200.000	0.015	0.432
-411.369	235.186	0.190	0.319
-410.355	-50.687	-0.189	0.090
-409.340	2.833	-0.170	-0.125
-408.325	388.553	-0.165	-0.346
-407.311	-193.336	0.235	-0.002
-406.296	800.000	-0.059	0.248
-405.282	-89.497	0.384	0.114
-404.267	96.208	0.106	0.122
-403.252	-41.507	-0.273	0.142
-402.238	-66.680	-0.357	0.144
-401.223	66.470	0.146	-0.150
-400.209	133.355	-0.093	0.121
-399.194	-200.000	0.033	0.221
-398.179	-103.427	0.276	-0.066
-397.165	71.186	-0.288	0.303
-396.150	113.293	0.035	-0.043
-395.136	-40.282	0.222	-0.117
-394.121	-200.000	0.028	0.126
-393.106	800.000	0.044	-0.134
-392.092	-200.000	-0.030	0.315
-391.077	137.168	0.191	-0.254
-390.063	-200.000	-0.037	-0.203
-389.048	68.581	0.109	-0.114
-388.033	-78.927	-0.417	0.144
-387.019	-64.324	-0.226	-0.093
-386.004	78.176	0.221	0.239
-384.990	-15.729	0.191	0.123
-383.975	-59.522	-0.127	-0.055
-382.960	-72.322	-0.408	0.153
-381.946	-53.781	0.363	0.168
-380.931	720.384	0.022	0.059
-379.917	147.459	0.143	-0.195
-378.902	140.351	-0.056	0.075
-377.888	129.105	-0.188	0.244
-376.873	-200.000	0.063	-0.290
-375.858	-87.812	-0.441	-0.134
-374.844	-46.273	0.313	-0.156
-373.829	-37.821	-0.164	0.088
-372.815	800.000	0.074	0.294
-371.800	-93.081	-0.340	0.096
-370.785	81.111	0.198	-0.217
-369.771	-196.535	0.193	0.001
-368.756	352.171	-0.123	-0.247
-367.742	-200.000	-0.014	-0.190
-366.727	-200.000	0.037	0.305
-365.712	18.023	-0.350	0.282
-364.698	645.961	0.024	-0.062
-363.683	-200.000	-0.004	0.207
-362.669	800.000	0.167	0.469
-361.654	-94.071	-0.215	0.060
-360.639	800.000	0.086	0.252
-359.625	-97.226	-0.343	0.091
-358.610	-200.000	0.012	0.197
-357.596	150.241	-0.108	-0.148
-356.581	800.000	-0.079	0.273
-355.566	31.146	0.017	-0.015
-354.552	66.918	0.159	0.164
-353.537	-168.310	0.216	0.008
-352.523	800.000	0.107	-0.376
-351.508	-89.262	0.418	-0.125
-350.493	-164.394	-0.212	-0.010
-349.479	86.283	0.089	0.099
-348.464	-200.000	-0.100	0.530
-347.450	-17.907	0.207	0.132
-346.435	-200.000	-0.005	0.293
-345.420	213.448	-0.107	0.171
-344.406	665.318	0.045	0.117
-343.391	800.000	0.033	0.114
-342.377	-103.915	-0.323	0.076
-341.362	428.170	-0.104	0.227
-340.348	-61.398	0.487	0.207
-339.333	-9.792	-0.157	-0.106
-338.318	-200.000	-0.005	-0.253
-337.304	-14.400	-0.153	0.100
-336.289	203.304	-0.084	-0.131
-335.275	-40.500	-0.304	0.160
-334.260	55.438	-0.099	-0.097
-333.245	-109.812	-0.095	-0.020
-332.231	159.356	-0.119	0.167
-331.216	5.497	0.299	0.223
-330.202	-73.777	0.040	0.015
-329.187	172.382	-0.210	0.305
-328.172	-32.926	0.194	-0.109
-327.158	714.088	0.130	-0.347
-326.143	-111.097	0.443	0.092
-325.129	-70.344	-0.289	0.111
-324.114	212.558	0.070	-0.112
-323.099	-36.764	-0.138	0.075
-322.085	297.777	0.132	0.244
-321.070	-200.000	-0.012	0.209
-320.056	-158.833	-0.316	0.018
-319.041	267.933	0.191	0.338
-318.026	-149.278	0.051	0.004
-317.012	329.429	-0.125	0.243
-315.997	626.341	-0.098	-0.250
-314.983	81.212	-0.261	-0.285
-313.968	-173.006	0.409	-0.013
-312.953	800.000	-0.118	0.403
-311.939	-70.952	0.446	-0.170
-310.924	800.000	-0.053	0.220
-309.910	800.000	0.058	-0.201
-308.895	-76.690	0.180	-0.064
-307.880	-40.700	0.189	-0.099
-306.866	800.000	0.084	0.324
-305.851	362.780	-0.107	-0.217
-304.837	-97.089	0.121	0.032
-303.822	81.717	0.385	-0.421
-302.807	266.753	-0.137	-0.241
-301.793	1.200	-0.242	-0.175
-300.778	70.732	-0.151	0.157
-299.764	-28.481	0.177	-0.103
-298.749	-128.273	-0.083	0.012
-297.735	-200.000	-0.089	0.483
-296.720	447.884	0.059	-0.131
-295.705	-132.247	0.169	-0.022
-294.691	107.450	-0.113	-0.136
-293.676	800.000	-0.061	0.205
-292.662	234.018	-0.070	0.116
-291.647	28.266	-0.119	0.102
-290.632	-68.699	0.389	0.152
-289.618	19.778	-0.249	-0.202
-288.603	-43.207	-0.246	0.126
-287.589	-73.813	0.442	-0.162
-286.574	-200.000	0.004	0.171
-285.559	543.526	-0.074	0.179
-284.545	800.000	0.012	0.037
-283.530	102.263	-0.060	-0.071
-282.516	583.923	-0.117	-0.290
-281.501	-146.546	0.213	0.019
-280.486	-39.407	0.346	0.183
-279.472	442.058	-0.083	0.184
-278.457	79.383	-0.062	0.067
-277.443	-65.635	-0.149	0.060
-276.428	55.410	0.204	0.199
-275.413	-200.000	0.053	0.292
-274.399	-41.514	0.197	0.102
-273.384	91.129	0.359	-0.406
-272.370	392.289	-0.062	0.129
-271.355	800.000	-0.018	-0.075
-270.340	800.000	0.021	-0.074
-269.326	-45.888	0.172	-0.086
-268.311	-107.278	0.413	0.092
-267.297	-200.000	-0.022	0.417
-266.282	62.243	0.329	0.331
-265.267	800.000	-0.055	-0.164
-264.253	-146.362	-0.195	-0.017
-263.238	97.315	0.237	0.274
-262.224	50.811	-0.121	-0.116
-261.209	-200.000	-0.136	-0.001
-260.195	-37.858	-0.172	-0.093
-259.180	800.000	-0.060	-0.179
-258.165	-50.794	0.335	-0.159
-257.151	407.095	-0.128	0.273
-256.136	-200.000	-0.037	0.204
-255.122	16.009	-0.107	0.085
-254.107	-109.240	0.191	0.041
-253.092	-38.141	-0.117	-0.063
-252.078	144.979	0.233	-0.314
-251.063	64.067	0.160	-0.162
-250.049	-200.000	-0.045	-0.260
-249.034	-200.000	0.003	0.067
-248.019	98.631	-0.290	-0.337
-247.005	8.238	0.173	-0.131
-245.990	96.790	-0.095	-0.110
-244.976	-86.884	0.265	-0.082
-243.961	-11.372	-0.064	-0.042
-242.946	-44.991	0.182	-0.091
-241.932	-96.109	0.213	-0.057
-240.917	-72.685	-0.110	0.041
-239.903	-59.414	-0.163	-0.070
-238.888	800.000	0.078	0.286
-237.873	65.081	-0.379	0.386
-236.859	800.000	0.125	0.406
-235.844	157.955	0.189	0.265
-234.830	-84.175	0.117	-0.037
-233.815	-160.192	-0.307	0.017
-232.800	-107.128	-0.270	-0.060
-231.786	397.798	-0.091	0.191
-230.771	387.075	-0.110	0.229
-229.757	-200.000	-0.027	0.121
-228.742	-49.163	0.312	-0.150
-227.727	-200.000	0.048	-0.235
-226.713	-96.494	-0.255	-0.068
-225.698	33.118	-0.155	0.135
-224.684	18.702	-0.076	0.061
-223.669	-102.791	-0.181	-0.043
-222.655	800.000	0.013	0.046
-221.640	390.392	0.054	0.113
-220.625	73.844	-0.326	0.345
-219.611	-200.000	0.009	0.060
-218.596	-33.312	-0.355	-0.198
-217.582	688.246	-0.054	0.143
-216.567	-24.885	0.061	0.036
-215.552	102.276	0.135	0.159
-214.538	-149.950	0.128	-0.010
-213.523	197.496	0.153	0.235
-212.509	608.588	0.138	-0.346
-211.494	650.100	0.080	0.206
-210.479	-84.554	-0.138	-0.044
-209.465	263.284	0.177	-0.309
-208.450	148.047	-0.094	-0.128
-207.436	29.800	-0.099	0.085
-206.421	-20.409	-0.288	-0.178
-205.406	-11.904	-0.277	-0.183
-204.392	-200.000	0.049	-0.000
-203.377	-200.000	0.060	0.317
-202.363	-16.177	0.203	0.130
-201.348	-64.942	0.244	-0.099
-200.333	36.284	-0.125	0.111
-199.319	-94.999	0.223	0.061
-198.304	11.120	0.169	0.130
-197.290	-70.635	0.104	0.039
-196.275	800.000	0.055	-0.227
-195.260	-80.724	0.234	-0.078
-194.246	36.126	0.176	-0.156
-193.231	-124.847	-0.169	-0.026
-192.217	15.540	-0.134	0.106
-191.202	-200.000	0.004	-0.421
-190.187	-118.115	-0.291	-0.052
-189.173	-104.661	0.085	-0.020
-188.158	301.076	-0.041	0.076
-187.144	126.546	0.192	0.245
-186.129	-44.987	-0.089	0.044
-185.114	-19.511	-0.128	-0.079
-184.100	361.631	0.114	0.229
-183.085	-200.000	0.057	-0.313
-182.071	216.207	0.102	0.162
-181.056	167.148	-0.156	-0.223
-180.042	-5.395	-0.212	-0.146
-179.027	47.404	0.320	0.299
-178.012	-83.253	-0.143	0.046
-176.998	800.000	-0.057	-0.184
-175.983	-200.000	0.013	-0.111
-174.969	-29.444	0.262	-0.151
-173.954	-194.087	-0.357	0.003
-172.939	307.100	-0.134	-0.251
-171.925	-116.777	-0.244	-0.045
-170.910	-86.527	-0.005	-0.001
-169.896	-200.000	0.044	0.237
-168.881	112.764	0.192	-0.234
-167.866	800.000	-0.056	0.184
-166.852	-165.259	-0.131	-0.006
-165.837	391.365	0.155	0.323
-164.823	-73.934	-0.336	0.122
-163.808	26.637	0.203	-0.171
-162.793	3.417	-0.018	-0.013
-161.779	160.212	0.192	-0.269
-160.764	0.564	-0.036	0.026
-159.750	170.537	-0.045	0.065
-158.735	214.652	-0.278	-0.442
-157.720	6.545	0.186	-0.139
-156.706	36.668	0.120	-0.106
-155.691	-116.319	-0.324	0.060
-154.677	-40.117	0.025	-0.013
-153.662	49.067	-0.063	-0.060
-152.647	-200.000	0.057	-0.253
-151.633	800.000	0.091	-0.253
-150.618	661.705	-0.130	0.337
-149.604	-66.288	0.263	-0.105
-148.589	-49.940	0.202	0.096
-147.574	41.361	-0.171	-0.156
-146.560	7.740	-0.245	0.185
-145.545	-42.038	0.284	-0.146
-144.531	-72.914	0.344	0.127
-143.516	158.870	0.123	0.171
-142.502	108.890	-0.021	-0.025
-141.487	-49.798	-0.270	0.129
-140.472	203.654	0.160	-0.249
-139.458	-31.258	0.046	-0.026
-138.443	72.118	-0.298	-0.312
-137.429	79.824	0.198	-0.213
-136.414	-114.947	0.252	0.048
-135.399	-54.764	0.388	0.176
-134.385	42.976	0.255	0.234
-133.370	-200.000	-0.029	0.234
-132.356	297.205	-0.087	0.160
-131.341	-89.586	0.361	0.106
-130.326	-200.000	-0.010	-0.054
-129.312	32.166	-0.246	-0.213
-128.297	800.000	0.020	0.069
-127.283	-200.000	0.007	-0.298
-126.268	11.245	-0.053	0.041
-125.253	136.684	-0.100	0.131
-124.239	-66.550	-0.282	-0.112
-123.224	437.479	0.095	-0.208
-122.210	-46.820	-0.404	0.198
-121.195	-71.392	-0.411	-0.154
