DTS Sentinel unit serial number:	SN413079Multiplexer serial number:	ORYXHardware model number:	OX4-SRSoftware version number:	ORYX F/W v4.00 Oryx Data Collector v3.7.2.0data status	okinstallation	princeton_trtdifferential loss correction	single-endedforward channel	channel 4reverse channel	N/Adate	2019/09/17time	23:13:35forward acquisition time	60.00reverse acquisition time	0.00gamma	496.2192k internal	0.2331k external	0.2331temperature offset calibration	0.9995default loss term (dB/km)	0.3790temperature slope calibration	1.0000multiplexer offset coefficient	1.0000multiplexer slope coefficient	1.0000fibre end	0.00T internal ref (°C)	24.56T ext. ref 1 (°C)	0.17T ext. ref 2 (°C)	17.74length (m)	temperature (°C)	Stokes	anti-Stokes-747.200	-151.686	-0.240	0.018
-746.185	4.196	-0.031	0.023
-745.171	-49.832	0.243	-0.116
-744.156	-118.627	-0.335	0.059
-743.142	-85.840	0.198	-0.062
-742.127	-200.000	-0.048	0.286
-741.112	31.216	-0.246	-0.212
-740.098	24.234	-0.176	0.147
-739.083	-165.227	0.454	-0.020
-738.069	-64.373	-0.117	0.048
-737.054	800.000	0.035	0.120
-736.039	-7.600	-0.497	-0.338
-735.025	-110.148	-0.227	0.048
-734.010	-99.341	-0.191	0.048
-732.996	740.568	0.140	0.377
-731.981	53.135	-0.184	-0.178
-730.966	-200.000	0.004	0.228
-729.952	-44.070	-0.235	0.119
-728.937	-97.013	-0.222	0.059
-727.923	-148.147	-0.099	0.008
-726.908	670.399	0.023	-0.059
-725.894	62.908	-0.181	0.183
-724.879	800.000	-0.067	-0.202
-723.864	-27.363	-0.281	-0.164
-722.850	3.423	0.208	-0.152
-721.835	-165.145	-0.135	-0.006
-720.821	-3.683	-0.215	-0.150
-719.806	-200.000	0.004	-0.022
-718.791	-45.019	-0.110	-0.055
-717.777	60.327	0.394	0.392
-716.762	125.475	-0.149	0.189
-715.748	-111.680	0.127	0.026
-714.733	-130.179	-0.259	-0.035
-713.718	-146.437	0.247	0.022
-712.704	-200.000	-0.093	0.552
-711.689	59.454	-0.112	0.111
-710.675	159.821	-0.085	-0.120
-709.660	655.095	0.078	-0.200
-708.645	-141.324	0.171	0.017
-707.631	-6.275	-0.206	0.141
-706.616	-88.855	0.234	0.070
-705.602	800.000	0.087	-0.273
-704.587	-200.000	-0.054	-0.253
-703.572	48.044	-0.127	0.119
-702.558	160.116	-0.070	0.098
-701.543	54.243	-0.122	0.118
-700.529	-27.933	0.154	-0.089
-699.514	-85.350	0.160	0.050
-698.499	-45.412	-0.251	-0.125
-697.485	800.000	0.063	-0.246
-696.470	132.761	-0.200	-0.260
-695.456	128.700	-0.042	-0.054
-694.441	-92.184	0.244	-0.069
-693.426	-200.000	-0.019	-0.114
-692.412	-131.777	0.169	-0.022
-691.397	70.324	-0.322	0.335
-690.383	270.016	-0.190	0.336
-689.368	17.151	-0.240	-0.191
-688.354	152.443	-0.064	-0.088
-687.339	800.000	-0.133	-0.441
-686.324	767.857	-0.071	-0.194
-685.310	144.674	-0.090	-0.121
-684.295	-200.000	0.020	-0.197
-683.281	-200.000	0.007	-0.204
-682.266	800.000	0.109	-0.351
-681.251	226.881	-0.046	0.074
-680.237	191.899	0.004	-0.006
-679.222	455.935	0.110	-0.245
-678.208	-200.000	-0.001	-0.017
-677.193	238.346	-0.094	-0.158
-676.178	-200.000	-0.016	0.509
-675.164	684.068	0.102	-0.266
-674.149	210.007	-0.130	0.204
-673.135	-115.898	0.400	-0.075
-672.120	107.264	0.113	-0.134
-671.105	-200.000	-0.047	-0.491
-670.091	800.000	-0.095	0.313
-669.076	-48.300	0.227	0.110
-668.062	-146.147	-0.133	-0.012
-667.047	99.762	-0.135	0.157
-666.032	-49.012	-0.383	0.184
-665.018	-118.735	0.155	-0.027
-664.003	672.985	0.081	-0.210
-662.989	140.742	0.104	0.138
-661.974	11.794	-0.086	0.066
-660.959	-200.000	0.010	-0.225
-659.945	-78.141	-0.209	0.072
-658.930	620.262	0.125	-0.316
-657.916	398.970	0.064	0.134
-656.901	142.757	0.161	-0.214
-655.886	-200.000	-0.017	-0.102
-654.872	0.479	-0.166	0.119
-653.857	-74.420	0.239	0.086
-652.843	51.733	0.173	-0.165
-651.828	800.000	0.054	-0.180
-650.814	-42.906	-0.145	-0.074
-649.799	124.642	0.227	0.286
-648.784	-51.593	0.261	-0.122
-647.770	-145.184	0.194	0.018
-646.755	-136.602	-0.434	0.050
-645.741	800.000	0.034	-0.115
-644.726	462.647	-0.141	-0.315
-643.711	65.198	0.117	0.119
-642.697	-38.132	-0.203	-0.108
-641.682	112.244	-0.293	-0.355
-640.668	142.973	0.215	0.287
-639.653	-200.000	-0.030	0.252
-638.638	800.000	-0.061	-0.259
-637.624	367.505	-0.093	-0.188
-636.609	-200.000	-0.028	-0.211
-635.595	-157.431	-0.214	0.013
-634.580	-86.192	0.135	-0.042
-633.565	-200.000	-0.011	-0.083
-632.551	-200.000	-0.009	-0.442
-631.536	-200.000	-0.015	-0.243
-630.522	-16.513	0.337	0.214
-629.507	-200.000	0.013	0.136
-628.492	800.000	0.083	0.334
-627.478	-200.000	-0.087	-0.402
-626.463	521.627	0.046	-0.109
-625.449	-113.816	-0.225	0.044
-624.434	300.419	0.065	-0.119
-623.419	-200.000	0.007	-0.046
-622.405	-161.469	0.056	-0.003
-621.390	-61.650	0.084	0.035
-620.376	800.000	-0.071	0.278
-619.361	-56.904	-0.184	0.082
-618.346	39.358	-0.124	0.111
-617.332	-200.000	-0.048	-0.222
-616.317	164.893	-0.133	-0.189
-615.303	-200.000	-0.024	0.193
-614.288	-200.000	-0.002	0.214
-613.273	48.051	0.204	-0.191
-612.259	-125.374	-0.297	0.045
-611.244	-60.946	-0.400	-0.169
-610.230	46.141	-0.238	0.221
-609.215	-111.922	-0.097	-0.020
-608.201	502.461	-0.139	-0.320
-607.186	279.705	-0.097	0.173
-606.171	-162.536	0.139	0.007
-605.157	670.507	0.038	0.097
-604.142	448.070	0.043	-0.096
-603.128	-200.000	0.019	-0.124
-602.113	800.000	0.052	-0.182
-601.098	-200.000	0.033	0.158
-600.084	-91.330	0.114	0.033
-599.069	222.399	-0.210	-0.338
-598.055	-21.772	-0.061	0.037
-597.040	3.253	-0.233	0.170
-596.025	9.448	-0.228	0.173
-595.011	-89.200	-0.181	-0.054
-593.996	-175.320	0.473	-0.013
-592.982	-18.326	-0.391	-0.244
-591.967	-38.036	-0.153	0.081
-590.952	-200.000	0.001	-0.016
-589.938	800.000	0.036	-0.136
-588.923	356.338	-0.138	-0.274
-587.909	4.484	-0.032	0.023
-586.894	8.930	0.200	-0.151
-585.879	-73.535	0.103	0.038
-584.865	304.422	-0.166	0.307
-583.850	-28.157	0.024	0.014
-582.836	6.014	0.089	-0.066
-581.821	-136.909	0.213	-0.024
-580.806	800.000	0.100	0.323
-579.792	10.642	0.036	0.027
-578.777	198.803	0.100	0.153
-577.763	-70.830	0.097	-0.036
-576.748	-36.185	0.369	0.199
-575.733	105.932	-0.317	-0.375
-574.719	-93.676	-0.145	0.040
-573.704	-21.890	-0.238	-0.144
-572.690	800.000	0.056	-0.169
-571.675	800.000	0.081	0.227
-570.661	-129.054	0.199	0.028
-569.646	10.418	0.248	0.188
-568.631	-66.980	-0.206	-0.081
-567.617	580.069	-0.148	-0.363
-566.602	-138.037	0.095	-0.011
-565.588	-200.000	-0.010	0.207
-564.573	-40.250	0.147	-0.076
-563.558	800.000	0.062	0.261
-562.544	-43.656	-0.224	0.113
-561.529	32.270	0.109	0.094
-560.515	-200.000	-0.029	0.379
-559.500	-62.574	-0.184	0.076
-558.485	-200.000	0.017	-0.173
-557.471	800.000	-0.066	-0.185
-556.456	-106.548	0.478	0.106
-555.442	163.949	-0.136	-0.192
-554.427	9.759	-0.200	-0.151
-553.412	399.873	0.112	-0.234
-552.398	-200.000	0.017	-0.088
-551.383	255.422	-0.102	0.175
-550.369	378.035	0.060	0.122
-549.354	229.496	0.076	0.123
-548.339	193.821	0.128	-0.194
-547.325	-111.002	-0.365	-0.075
-546.310	411.702	-0.169	-0.359
-545.296	-119.115	0.026	-0.005
-544.281	-122.686	-0.203	0.033
-543.266	-128.160	0.233	-0.033
-542.252	59.903	-0.270	-0.266
-541.237	-24.812	0.238	-0.141
-540.223	-19.293	-0.250	-0.155
-539.208	800.000	-0.112	-0.327
-538.193	190.356	0.038	-0.058
-537.179	-13.621	0.085	-0.055
-536.164	-200.000	-0.055	-0.280
-535.150	92.284	0.186	0.210
-534.135	-200.000	-0.034	-0.179
-533.121	-118.616	-0.083	-0.015
-532.106	389.580	0.042	-0.086
-531.091	149.201	0.144	0.195
-530.077	800.000	-0.040	-0.121
-529.062	-83.553	0.169	0.054
-528.048	800.000	-0.006	0.019
-527.033	103.437	-0.164	-0.192
-526.018	-7.988	-0.174	0.117
-525.004	-126.737	0.174	0.026
-523.989	277.979	-0.135	-0.241
-522.975	-125.236	-0.082	-0.013
-521.960	-200.000	0.016	-0.114
-520.945	85.767	-0.037	0.040
-519.931	-177.098	0.190	-0.005
-518.916	800.000	-0.025	0.102
-517.902	157.681	-0.117	-0.162
-516.887	94.363	-0.062	-0.070
-515.872	-20.012	-0.231	0.142
-514.858	-127.620	-0.256	-0.037
-513.843	-53.624	0.044	-0.020
-512.829	-4.802	-0.120	-0.083
-511.814	800.000	-0.037	-0.119
-510.799	800.000	-0.108	0.365
-509.785	-200.000	-0.037	-0.183
-508.770	-200.000	0.009	-0.196
-507.756	-144.039	0.268	0.025
-506.741	196.403	0.189	-0.287
-505.726	242.868	-0.114	-0.190
-504.712	-200.000	0.004	-0.124
-503.697	-34.511	-0.352	-0.192
-502.683	-50.074	0.158	-0.075
-501.668	269.007	0.130	-0.227
-500.653	-74.531	0.101	0.036
-499.639	-200.000	0.025	-0.248
-498.624	800.000	-0.028	0.080
-497.610	-89.474	-0.175	-0.051
-496.595	-200.000	-0.010	-0.186
-495.581	74.913	-0.175	-0.184
-494.566	733.410	0.009	0.025
-493.551	-52.015	0.061	-0.028
-492.537	800.000	0.056	0.183
-491.522	-130.474	-0.146	0.020
-490.508	106.035	-0.164	-0.193
-489.493	-67.626	-0.261	-0.102
-488.478	721.631	-0.009	0.024
-487.464	282.153	-0.120	0.214
-486.449	155.362	0.159	-0.219
-485.435	-162.623	0.294	-0.014
-484.420	137.701	0.040	-0.052
-483.405	-200.000	-0.020	-0.091
-482.391	427.639	0.171	0.367
-481.376	-87.558	0.227	-0.068
-480.362	-19.006	0.361	0.224
-479.347	448.762	-0.148	0.324
-478.332	-71.789	0.105	0.039
-477.318	12.236	-0.270	-0.207
-476.303	-73.951	0.405	0.146
-475.289	-200.000	-0.005	0.122
-474.274	-84.517	-0.507	-0.159
-473.259	-137.476	-0.321	0.036
-472.245	-200.000	-0.004	-0.092
-471.230	13.912	0.192	0.148
-470.216	386.822	-0.058	0.120
-469.201	659.431	-0.050	0.129
-468.186	66.414	0.142	-0.143
-467.172	-53.342	0.187	-0.085
-466.157	71.260	-0.177	0.183
-465.143	-45.815	0.049	0.024
-464.128	-200.000	-0.003	0.250
-463.113	90.586	-0.262	0.292
-462.099	-101.282	0.059	0.014
-461.084	-200.000	-0.028	0.241
-460.070	387.947	0.102	0.210
-459.055	-200.000	0.018	-0.431
-458.040	-76.270	0.119	0.042
-457.026	148.644	0.142	0.191
-456.011	40.334	-0.206	0.184
-454.997	-86.824	0.407	0.124
-453.982	-200.000	-0.074	-0.418
-452.968	-200.000	-0.020	-0.293
-451.953	-200.000	-0.065	-0.393
-450.938	64.493	-0.082	0.082
-449.924	-86.801	0.176	-0.054
-448.909	181.335	0.100	0.147
-447.895	-59.512	0.029	0.013
-446.880	-42.552	0.436	0.221
-445.865	27.434	0.196	-0.164
-444.851	-21.428	0.136	-0.082
-443.836	-153.290	0.330	-0.023
-442.822	-75.689	0.320	-0.113
-441.807	800.000	0.092	0.335
-440.792	-158.269	0.102	-0.006
-439.778	0.227	-0.242	0.172
-438.763	13.286	0.230	-0.177
-437.749	278.014	0.057	-0.101
-436.734	24.832	0.357	-0.295
-435.719	-105.724	-0.128	-0.029
-434.705	29.851	-0.105	0.089
-433.690	-200.000	-0.021	-0.095
-432.676	800.000	0.032	0.105
-431.661	-64.805	0.307	-0.124
-430.646	212.387	-0.171	0.268
-429.632	-82.472	-0.527	0.170
-428.617	-69.609	0.124	-0.047
-427.603	-53.177	0.183	0.084
-426.588	-118.601	0.183	0.032
-425.573	5.706	0.126	-0.093
-424.559	193.275	0.098	-0.147
-423.544	2.290	-0.180	-0.129
-422.530	-102.940	0.380	-0.090
-421.515	800.000	0.102	0.353
-420.500	-20.006	-0.161	0.099
-419.486	-59.367	0.086	0.037
-418.471	-41.859	0.178	-0.091
-417.457	-79.776	-0.104	-0.035
-416.442	-52.651	-0.132	-0.060
-415.428	800.000	0.039	0.128
-414.413	-26.589	0.229	-0.133
-413.398	17.608	0.067	-0.053
-412.384	115.756	-0.142	-0.172
-411.369	36.289	0.084	0.073
-410.355	39.311	-0.057	-0.051
-409.340	-38.319	-0.332	0.174
-408.325	6.189	0.026	0.019
-407.311	-200.000	-0.012	0.181
-406.296	74.954	0.121	-0.127
-405.282	800.000	-0.035	-0.109
-404.267	-78.539	-0.178	0.061
-403.252	-67.557	-0.243	0.095
-402.238	-152.686	-0.061	-0.004
-401.223	800.000	-0.080	-0.248
-400.209	15.757	0.144	-0.112
-399.194	18.601	0.168	-0.134
-398.179	-200.000	-0.005	-0.175
-397.165	-136.007	0.104	-0.012
-396.150	29.510	0.077	0.065
-395.136	-200.000	-0.000	0.193
-394.121	-9.550	-0.053	-0.035
-393.106	456.786	0.050	0.110
-392.092	-91.076	0.213	-0.061
-391.077	-122.418	-0.110	0.018
-390.063	-27.582	0.258	-0.149
-389.048	-129.490	0.063	-0.009
-388.033	-103.838	-0.166	0.039
-387.019	307.987	-0.089	0.165
-386.004	-85.023	0.030	0.009
-384.990	100.653	0.035	-0.040
-383.975	-200.000	0.016	0.392
-382.960	195.041	-0.265	-0.399
-381.946	-156.848	0.117	0.007
-380.931	-200.000	0.018	-0.188
-379.917	-70.548	-0.098	0.037
-378.902	-200.000	0.025	-0.144
-377.888	165.300	0.036	-0.051
-376.873	-66.620	-0.153	-0.060
-375.858	-200.000	-0.045	0.198
-374.844	59.978	-0.220	-0.216
-373.829	116.056	-0.186	0.226
-372.815	-52.012	0.201	-0.093
-371.800	-41.523	0.291	-0.149
-370.785	54.577	-0.215	-0.206
-369.771	-92.294	-0.160	-0.045
-368.756	-11.347	-0.129	0.084
-367.742	800.000	-0.020	0.082
-366.727	36.162	0.053	-0.046
-365.712	-24.083	-0.152	-0.090
-364.698	-108.752	0.391	-0.083
-363.683	77.363	-0.248	0.262
-362.669	-200.000	-0.007	-0.228
-361.654	-200.000	-0.004	-0.028
-360.639	18.615	-0.079	-0.062
-359.625	-200.000	-0.034	-0.242
-358.610	-200.000	0.017	0.254
-357.596	80.129	-0.167	0.178
-356.581	-0.585	-0.096	0.067
-355.566	-200.000	-0.018	0.201
-354.552	-200.000	0.006	0.189
-353.537	244.016	-0.181	-0.301
-352.523	-157.097	0.240	-0.014
-351.508	53.533	0.122	0.116
-350.493	-38.471	-0.263	0.138
-349.479	421.119	0.039	0.084
-348.464	-102.326	-0.187	0.045
-347.450	646.015	0.019	-0.048
-346.435	-16.852	0.194	0.122
-345.420	-91.889	-0.203	0.057
-344.406	59.628	-0.136	-0.132
-343.391	-25.466	0.262	0.153
-342.377	316.153	0.043	-0.080
-341.362	105.545	0.208	-0.244
-340.348	-70.220	-0.192	0.072
-339.333	22.119	-0.062	0.050
-338.318	-200.000	-0.004	0.062
-337.304	229.240	-0.215	0.348
-336.289	75.362	0.106	-0.111
-335.275	105.610	0.206	0.241
-334.260	17.295	0.138	0.108
-333.245	44.631	-0.125	-0.114
-332.231	-185.966	-0.077	-0.001
-331.216	141.231	-0.240	0.315
-330.202	800.000	-0.099	0.402
-329.187	-18.334	-0.260	-0.161
-328.172	-70.076	0.171	0.065
-327.158	779.341	0.016	-0.044
-326.143	-200.000	0.035	-0.193
-325.129	-200.000	0.021	0.296
-324.114	-200.000	-0.039	-0.469
-323.099	-200.000	-0.028	-0.130
-322.085	123.041	0.163	0.202
-321.070	-130.655	0.087	-0.012
-320.056	17.875	-0.178	-0.141
-319.041	-200.000	0.002	0.117
-318.026	392.338	0.027	-0.057
-317.012	-66.776	0.056	-0.022
-315.997	-122.241	-0.195	0.032
-314.983	203.964	0.125	0.191
-313.968	-129.350	-0.175	-0.024
-312.953	-40.161	0.104	0.054
-311.939	-112.506	-0.215	-0.042
-310.924	-4.134	-0.127	-0.087
-309.910	-99.819	-0.076	0.019
-308.895	800.000	0.079	-0.258
-307.880	-129.555	0.168	0.023
-306.866	-200.000	-0.105	0.555
-305.851	-94.490	0.246	0.066
-304.837	39.671	0.060	-0.053
-303.822	54.166	-0.211	-0.201
-302.807	-200.000	0.067	0.295
-301.793	23.712	-0.208	0.169
-300.778	-137.177	0.082	-0.009
-299.764	141.835	-0.022	-0.029
-298.749	-200.000	0.045	0.327
-297.735	259.107	0.089	0.153
-296.720	-20.826	0.148	0.090
-295.705	231.523	0.094	-0.153
-294.691	-101.790	-0.120	-0.029
-293.676	-31.420	0.157	0.088
-292.662	162.690	-0.102	0.141
-291.647	11.605	0.031	-0.024
-290.632	-200.000	-0.006	0.174
-289.618	66.002	0.098	0.099
-288.603	-200.000	-0.045	0.284
-287.589	-197.773	0.133	0.001
-286.574	-19.103	-0.037	-0.023
-285.559	54.646	-0.127	0.121
-284.545	143.888	-0.076	-0.100
-283.530	-46.332	0.194	-0.094
-282.516	-119.487	-0.292	0.050
-281.501	657.803	0.086	-0.219
-280.486	35.070	-0.200	0.173
-279.472	-82.717	-0.144	-0.046
-278.457	-200.000	-0.002	-0.181
-277.443	451.860	0.050	-0.109
-276.428	192.067	0.092	0.137
-275.413	-62.463	0.253	-0.104
-274.399	800.000	0.093	-0.302
-273.384	562.369	-0.151	-0.360
-272.370	188.188	0.098	-0.145
-271.355	-53.064	-0.132	0.060
-270.340	-200.000	0.014	-0.324
-269.326	-26.751	0.399	-0.230
-268.311	20.150	-0.246	-0.196
-267.297	800.000	-0.030	-0.122
-266.282	241.097	0.053	-0.088
-265.267	674.880	-0.044	-0.112
-264.253	-53.749	-0.008	-0.004
-263.238	700.899	0.069	-0.179
-262.224	-98.131	-0.200	-0.051
-261.209	-26.669	-0.235	0.136
-260.195	174.958	-0.099	-0.141
-259.180	-200.000	-0.032	0.312
-258.165	107.449	0.096	0.112
-257.151	-72.117	0.388	-0.142
-256.136	-121.346	0.075	-0.012
-255.122	324.982	-0.116	-0.219
-254.107	-19.232	0.133	0.082
-253.092	150.380	0.086	0.116
-252.078	-64.005	-0.125	0.050
-251.063	38.461	-0.063	0.055
-250.049	-200.000	0.004	0.114
-249.034	80.948	0.027	0.029
-248.019	-95.982	-0.383	-0.101
-247.005	150.471	0.063	-0.085
-245.990	-200.000	0.009	0.057
-244.976	-22.220	0.249	0.149
-243.961	-38.175	0.069	-0.036
-242.946	91.366	-0.145	-0.161
-241.932	800.000	0.025	-0.080
-240.917	-200.000	-0.005	-0.064
-239.903	743.227	0.047	0.124
-238.888	389.927	-0.175	-0.359
-237.873	266.515	-0.272	0.469
-236.859	-122.175	-0.142	0.023
-235.844	654.574	-0.052	-0.132
-234.830	-8.341	-0.335	0.222
-233.815	800.000	-0.103	0.289
-232.800	-82.939	0.253	0.080
-231.786	-38.125	0.352	0.184
-230.771	39.461	-0.057	-0.050
-229.757	43.169	0.200	0.180
-228.742	54.058	0.144	0.137
-227.727	-12.725	0.484	0.311
-226.713	332.800	-0.056	0.106
-225.698	-78.603	-0.263	0.089
-224.684	-4.506	-0.490	0.334
-223.669	-8.645	0.422	0.280
-222.655	105.382	0.137	0.159
-221.640	65.114	0.097	-0.097
-220.625	-200.000	-0.032	0.154
-219.611	-200.000	-0.013	-0.138
-218.596	-200.000	-0.046	0.246
-217.582	120.688	-0.209	-0.256
-216.567	146.972	-0.033	-0.044
-215.552	-148.449	0.163	-0.013
-214.538	381.515	0.054	-0.108
-213.523	1.672	-0.187	0.133
-212.509	-200.000	-0.136	0.615
-211.494	66.229	0.322	-0.323
-210.479	-107.183	0.298	-0.065
-209.465	-143.074	-0.202	0.019
-208.450	-125.265	0.176	0.027
-207.436	-200.000	0.001	0.244
-206.421	153.301	-0.085	0.114
-205.406	444.799	0.147	0.317
-204.392	-200.000	-0.006	-0.182
-203.377	210.673	0.052	-0.081
-202.363	-13.183	-0.124	0.079
-201.348	26.191	0.037	-0.031
-200.333	-200.000	-0.059	-0.307
-199.319	133.485	0.184	-0.235
-198.304	58.682	0.104	-0.101
-197.290	3.480	0.163	0.117
-196.275	87.651	-0.160	0.174
-195.260	19.039	0.280	0.221
-194.246	257.940	0.293	-0.496
-193.231	174.210	0.108	-0.154
-192.217	43.420	0.172	-0.155
-191.202	110.513	-0.171	0.202
-190.187	-200.000	0.028	0.415
-189.173	-200.000	0.020	0.273
-188.158	137.349	-0.264	0.340
-187.144	-57.503	-0.291	0.126
-186.129	93.346	-0.211	0.235
-185.114	133.831	-0.023	0.029
-184.100	-105.068	-0.258	-0.058
-183.085	-32.876	-0.168	-0.092
-182.071	148.367	-0.010	0.014
-181.056	52.993	0.060	-0.056
-180.042	-200.000	-0.017	0.132
-179.027	-56.392	0.474	-0.207
-178.012	160.497	-0.029	0.039
-176.998	-179.425	0.075	0.002
-175.983	800.000	0.078	0.223
-174.969	109.654	0.304	-0.359
-173.954	0.092	-0.207	-0.146
-172.939	-113.704	-0.219	0.042
-171.925	800.000	0.168	0.461
-170.910	800.000	0.058	-0.184
-169.896	67.150	0.055	-0.055
-168.881	-200.000	0.008	0.215
-167.866	146.175	0.229	0.302
-166.852	-102.141	0.186	-0.044
-165.837	-101.427	0.219	0.052
-164.823	331.092	0.016	0.030
-163.808	-54.931	-0.306	0.136
-162.793	-57.711	0.143	0.062
-161.779	-113.139	0.116	0.022
-160.764	-24.095	-0.078	-0.046
-159.750	289.822	0.195	0.348
-158.735	-200.000	-0.024	0.241
-157.720	184.683	-0.046	-0.067
-156.706	122.693	-0.096	-0.118
-155.691	-200.000	-0.007	-0.146
-154.677	-146.068	-0.082	0.007
-153.662	-128.935	-0.211	-0.029
-152.647	800.000	0.050	0.158
-151.633	365.385	0.163	-0.323
-150.618	800.000	-0.058	-0.231
-149.604	449.427	-0.141	-0.306
-148.589	-200.000	-0.086	-0.496
-147.574	-194.019	0.134	0.001
-146.560	262.847	0.069	0.117
-145.545	-181.447	-0.182	-0.004
-144.531	112.349	-0.353	-0.419
-143.516	-81.030	0.109	0.035
-142.502	31.776	0.060	-0.051
-141.487	-200.000	0.002	-0.119
-140.472	800.000	-0.058	0.206
-139.458	-200.000	-0.013	0.315
-138.443	394.712	0.089	0.183
-137.429	-95.751	-0.139	-0.036
-136.414	-200.000	-0.004	0.299
-135.399	179.690	0.127	0.182
-134.385	-200.000	0.017	-0.122
-133.370	-81.289	-0.105	-0.034
-132.356	136.648	0.226	0.290
-131.341	-51.669	0.101	-0.046
-130.326	-12.882	-0.148	0.095
-129.312	192.386	-0.262	0.388
-128.297	-200.000	-0.019	-0.116
-127.283	-154.909	0.145	0.009
-126.268	-200.000	0.063	0.382
-125.253	18.577	-0.191	-0.150
-124.239	800.000	0.065	-0.279
-123.224	-60.794	-0.062	-0.026
-122.210	-53.167	0.218	-0.098
-121.195	-23.644	0.248	0.146
