DTS Sentinel unit serial number:	SN413079Multiplexer serial number:	ORYXHardware model number:	OX4-SRSoftware version number:	ORYX F/W v4.00 Oryx Data Collector v3.7.2.0data status	okinstallation	princeton_trtdifferential loss correction	single-endedforward channel	channel 4reverse channel	N/Adate	2019/09/19time	06:37:35forward acquisition time	60.00reverse acquisition time	0.00gamma	496.2192k internal	0.2340k external	0.2340temperature offset calibration	1.0027default loss term (dB/km)	0.3790temperature slope calibration	1.0000multiplexer offset coefficient	1.0000multiplexer slope coefficient	1.0000fibre end	0.00T internal ref (°C)	19.02T ext. ref 1 (°C)	0.56T ext. ref 2 (°C)	12.81length (m)	temperature (°C)	Stokes	anti-Stokes-747.200	-112.903	0.375	0.074
-746.185	-190.397	0.347	-0.004
-745.171	51.010	0.202	-0.192
-744.156	-45.167	-0.245	-0.122
-743.142	359.238	-0.042	-0.084
-742.127	-200.000	0.003	0.051
-741.112	-186.808	0.093	0.001
-740.098	-200.000	-0.037	-0.177
-739.083	47.399	-0.109	-0.101
-738.069	468.663	-0.060	-0.135
-737.054	14.391	-0.195	-0.153
-736.039	22.720	0.081	0.066
-735.025	132.276	-0.193	0.249
-734.010	69.295	-0.276	-0.285
-732.996	68.670	0.049	0.050
-731.981	-57.409	-0.131	-0.058
-730.966	-49.153	0.192	-0.092
-729.952	800.000	-0.071	0.265
-728.937	-5.431	0.206	-0.142
-727.923	445.658	0.108	0.238
-726.908	394.961	0.070	0.145
-725.894	-176.070	0.036	0.001
-724.879	-81.100	-0.349	-0.116
-723.864	-158.932	-0.248	0.014
-722.850	800.000	-0.132	-0.405
-721.835	64.223	0.288	-0.291
-720.821	118.426	-0.049	0.060
-719.806	118.976	0.037	0.046
-718.791	-200.000	0.020	-0.094
-717.777	126.253	0.132	0.167
-716.762	-200.000	-0.045	-0.316
-715.748	-200.000	0.013	-0.289
-714.733	-200.000	-0.017	0.079
-713.718	-200.000	-0.007	-0.319
-712.704	80.138	-0.256	0.276
-711.689	-200.000	-0.030	0.235
-710.675	-142.578	-0.249	0.024
-709.660	100.721	-0.122	-0.142
-708.645	800.000	0.088	-0.262
-707.631	-46.197	-0.260	-0.128
-706.616	-200.000	0.024	-0.180
-705.602	-109.654	-0.211	-0.044
-704.587	17.101	0.061	-0.048
-703.572	101.310	-0.063	-0.074
-702.558	-200.000	0.034	0.166
-701.543	39.680	0.163	-0.147
-700.529	-200.000	0.015	-0.301
-699.514	-200.000	-0.009	0.102
-698.499	-200.000	-0.028	-0.277
-697.485	-200.000	0.027	-0.261
-696.470	800.000	-0.053	-0.219
-695.456	108.647	0.024	-0.028
-694.441	-123.790	0.047	-0.007
-693.426	-54.525	0.296	-0.134
-692.412	-73.794	0.254	0.092
-691.397	-200.000	0.034	0.155
-690.383	281.519	0.073	0.131
-689.368	-112.985	-0.243	0.048
-688.354	331.808	0.159	-0.307
-687.339	-161.705	0.265	0.014
-686.324	-200.000	0.007	-0.088
-685.310	-200.000	0.004	-0.268
-684.295	-195.769	0.140	0.001
-683.281	800.000	-0.129	-0.379
-682.266	22.518	0.086	0.071
-681.251	-81.993	0.221	0.072
-680.237	-122.076	0.432	-0.071
-679.222	365.002	-0.089	-0.179
-678.208	800.000	-0.028	-0.093
-677.193	-189.891	-0.189	0.002
-676.178	-8.454	-0.223	-0.150
-675.164	146.144	-0.154	-0.207
-674.149	-200.000	0.051	-0.241
-673.135	-147.564	-0.395	-0.033
-672.120	41.239	0.137	0.124
-671.105	29.219	0.267	0.226
-670.091	800.000	0.052	-0.164
-669.076	154.604	0.206	-0.283
-668.062	368.068	0.116	0.233
-667.047	-100.201	0.169	0.042
-666.032	-114.252	0.127	0.024
-665.018	-97.264	0.221	-0.058
-664.003	400.701	0.173	-0.363
-662.989	85.459	0.211	0.232
-661.974	348.394	-0.106	-0.208
-660.959	-66.025	0.268	-0.107
-659.945	-200.000	0.003	0.067
-658.930	-27.580	-0.171	0.100
-657.916	-51.732	0.170	-0.079
-656.901	153.453	-0.155	-0.211
-655.886	-181.909	0.157	-0.003
-654.872	648.974	-0.066	-0.168
-653.857	-105.980	-0.097	0.022
-652.843	-42.795	-0.289	-0.147
-651.828	-96.456	-0.208	-0.055
-650.814	-151.990	-0.192	0.014
-649.799	800.000	0.057	-0.189
-648.784	315.483	0.106	-0.199
-647.770	-117.682	-0.108	-0.019
-646.755	-71.379	-0.217	0.081
-645.741	-200.000	-0.057	-0.493
-644.726	-200.000	-0.017	-0.116
-643.711	108.704	-0.134	-0.160
-642.697	-142.736	-0.141	0.014
-641.682	-92.730	0.269	-0.075
-640.668	-85.659	-0.160	-0.050
-639.653	-118.287	0.266	-0.047
-638.638	-61.994	0.444	-0.185
-637.624	-109.975	0.303	-0.063
-636.609	800.000	0.054	-0.153
-635.595	21.285	0.067	0.055
-634.580	-200.000	-0.044	0.196
-633.565	289.654	-0.088	0.160
-632.551	9.343	-0.098	0.074
-631.536	-200.000	0.052	-0.347
-630.522	167.561	-0.096	-0.136
-629.507	-200.000	0.023	-0.129
-628.492	-55.604	-0.313	-0.140
-627.478	-134.971	0.116	-0.014
-626.463	2.045	-0.194	-0.140
-625.449	-134.078	-0.358	-0.044
-624.434	-84.712	-0.141	-0.044
-623.419	1.012	-0.161	0.115
-622.405	203.179	0.138	-0.213
-621.390	-30.947	0.213	-0.120
-620.376	275.490	0.101	-0.179
-619.361	-45.537	-0.140	-0.069
-618.346	-89.520	-0.278	0.082
-617.332	210.349	0.030	-0.047
-616.317	-18.794	-0.326	-0.202
-615.303	-200.000	-0.008	-0.125
-614.288	-110.206	-0.284	0.059
-613.273	-200.000	0.017	0.229
-612.259	-175.898	0.181	0.005
-611.244	-130.813	0.360	-0.048
-610.230	-121.843	0.238	-0.039
-609.215	800.000	0.037	-0.152
-608.201	800.000	-0.092	-0.384
-607.186	-85.177	0.357	-0.111
-606.171	783.802	0.053	0.146
-605.157	-109.519	-0.355	0.075
-604.142	9.703	-0.177	0.134
-603.128	-94.403	0.041	0.011
-602.113	114.268	-0.132	0.160
-601.098	-122.167	-0.042	0.007
-600.084	-122.094	-0.169	0.028
-599.069	-36.914	0.182	-0.097
-598.055	85.149	0.058	-0.063
-597.040	114.568	0.275	-0.334
-596.025	39.802	0.202	0.181
-595.011	-74.629	-0.407	0.146
-593.996	-117.488	-0.335	0.060
-592.982	68.287	-0.185	0.189
-591.967	700.381	-0.056	-0.146
-590.952	-111.921	0.190	0.038
-589.938	-101.271	-0.221	-0.054
-588.923	-200.000	-0.024	-0.345
-587.909	800.000	0.084	-0.336
-586.894	417.300	0.079	-0.168
-585.879	17.165	-0.170	-0.135
-584.865	-162.663	0.199	0.010
-583.850	-8.648	-0.134	0.090
-582.836	125.940	-0.129	-0.162
-581.821	10.862	-0.073	-0.056
-580.806	-41.045	0.197	-0.101
-579.792	-87.316	-0.341	0.103
-578.777	506.259	0.109	0.252
-577.763	800.000	-0.066	0.257
-576.748	-200.000	0.060	-0.272
-575.733	-200.000	0.049	-0.244
-574.719	336.601	0.234	0.453
-573.704	207.608	0.107	0.167
-572.690	-65.300	0.294	0.118
-571.675	-200.000	-0.022	-0.101
-570.661	800.000	-0.034	-0.117
-569.646	-200.000	-0.017	-0.112
-568.631	572.506	-0.085	-0.205
-567.617	53.300	-0.188	-0.179
-566.602	-91.824	0.288	0.081
-565.588	-200.000	-0.001	-0.058
-564.573	800.000	0.097	-0.286
-563.558	340.909	0.062	0.120
-562.544	14.148	-0.024	0.019
-561.529	7.904	0.224	-0.167
-560.515	-17.414	-0.180	-0.113
-559.500	88.936	-0.064	-0.071
-558.485	-200.000	0.002	0.040
-557.471	62.729	0.188	0.187
-556.456	302.337	0.137	0.253
-555.442	-50.310	-0.244	-0.115
-554.427	25.992	-0.083	0.069
-553.412	-27.763	0.301	0.174
-552.398	-75.711	-0.428	0.151
-551.383	-74.053	0.057	-0.021
-550.369	-81.551	0.317	-0.104
-549.354	108.117	0.193	-0.230
-548.339	-73.237	0.175	0.064
-547.325	214.780	-0.136	-0.215
-546.310	-125.309	0.147	-0.022
-545.296	800.000	-0.066	-0.187
-544.281	-200.000	-0.067	-0.482
-543.266	-92.499	-0.135	0.038
-542.252	792.565	-0.055	-0.149
-541.237	170.858	0.020	0.028
-540.223	26.096	0.242	-0.201
-539.208	1.551	0.176	0.126
-538.193	-2.753	0.042	0.029
-537.179	-107.471	-0.239	0.052
-536.164	-200.000	0.032	-0.203
-535.150	-68.683	0.118	0.045
-534.135	-113.895	-0.281	0.054
-533.121	342.989	-0.070	0.137
-532.106	-200.000	0.021	-0.143
-531.091	450.555	-0.072	0.159
-530.077	213.715	0.251	0.394
-529.062	-172.656	0.140	-0.004
-528.048	-6.137	-0.235	-0.160
-527.033	-50.970	-0.278	-0.130
-526.018	-24.352	-0.166	0.099
-525.004	800.000	-0.118	-0.326
-523.989	-103.113	-0.248	0.058
-522.975	-200.000	-0.038	-0.238
-521.960	-24.602	-0.040	-0.023
-520.945	-93.119	-0.227	-0.063
-519.931	-36.235	0.247	-0.133
-518.916	-139.635	-0.240	0.025
-517.902	-200.000	0.027	0.359
-516.887	-90.920	-0.119	0.034
-515.872	-200.000	0.560	-0.002
-514.858	189.424	0.035	0.052
-513.843	80.139	-0.201	0.215
-512.829	-86.604	0.407	-0.124
-511.814	-200.000	0.060	0.286
-510.799	-68.381	-0.162	-0.062
-509.785	-118.830	0.429	-0.075
-508.770	636.335	-0.067	0.168
-507.756	-200.000	-0.012	0.243
-506.741	-61.772	-0.196	0.082
-505.726	-66.869	-0.399	-0.157
-504.712	237.667	0.105	-0.172
-503.697	-200.000	-0.011	-0.056
-502.683	-105.162	-0.220	0.050
-501.668	-128.962	0.240	0.033
-500.653	-67.208	-0.140	0.055
-499.639	800.000	0.021	0.062
-498.624	20.142	0.261	0.209
-497.610	-27.939	-0.096	0.055
-496.595	-123.213	-0.295	-0.047
-495.581	-200.000	-0.002	-0.017
-494.566	-147.944	-0.293	0.024
-493.551	28.104	-0.078	0.066
-492.537	77.013	0.071	0.075
-491.522	-200.000	0.018	-0.156
-490.508	239.600	-0.114	0.188
-489.493	-46.913	0.239	0.116
-488.478	307.869	-0.111	0.205
-487.464	-200.000	-0.001	0.263
-486.449	-108.032	-0.210	-0.045
-485.435	-0.184	0.226	-0.160
-484.420	231.691	0.146	0.238
-483.405	-44.467	-0.238	-0.118
-482.391	-51.438	-0.096	0.045
-481.376	-96.254	0.427	-0.112
-480.362	82.861	-0.133	-0.144
-479.347	44.258	0.155	-0.141
-478.332	14.224	-0.102	-0.079
-477.318	289.004	0.087	0.156
-476.303	800.000	-0.075	0.257
-475.289	399.798	-0.155	-0.323
-474.274	-117.192	-0.505	-0.091
-473.259	124.208	0.172	0.214
-472.245	603.990	-0.075	0.186
-471.230	33.641	-0.132	0.114
-470.216	27.968	-0.142	0.118
-469.201	-92.357	0.220	-0.062
-468.186	-91.600	0.330	0.093
-467.172	230.136	0.123	0.200
-466.157	-60.680	0.170	-0.071
-465.143	-90.499	0.251	-0.072
-464.128	-111.106	0.260	0.053
-463.113	71.047	-0.068	-0.070
-462.099	16.621	0.105	-0.083
-461.084	-143.529	0.185	0.017
-460.070	-200.000	0.051	0.242
-459.055	183.817	-0.069	0.101
-458.040	63.374	-0.265	-0.263
-457.026	-200.000	0.006	-0.039
-456.011	-200.000	-0.004	0.336
-454.997	116.137	-0.185	-0.224
-453.982	-12.377	-0.298	-0.193
-452.968	-26.280	-0.444	0.258
-451.953	27.249	0.187	-0.155
-450.938	361.619	0.116	-0.230
-449.924	-45.166	-0.146	-0.072
-448.909	800.000	-0.088	-0.301
-447.895	-116.526	-0.194	-0.035
-446.880	693.217	0.112	0.291
-445.865	-47.443	0.111	-0.053
-444.851	243.525	-0.114	0.189
-443.836	-200.000	0.020	0.336
-442.822	-129.145	-0.166	-0.023
-441.807	-200.000	-0.009	0.204
-440.792	-56.353	-0.092	-0.040
-439.778	-102.716	0.280	0.066
-438.763	-5.665	0.077	0.052
-437.749	-200.000	-0.002	0.198
-436.734	427.341	-0.035	-0.074
-435.719	-25.362	0.290	0.170
-434.705	33.112	-0.034	0.029
-433.690	272.784	0.051	-0.090
-432.676	800.000	0.109	-0.327
-431.661	23.242	-0.038	0.031
-430.646	-200.000	0.055	0.307
-429.632	-66.297	-0.203	0.080
-428.617	391.170	-0.042	0.086
-427.603	172.397	0.200	0.285
-426.588	-61.612	-0.120	-0.050
-425.573	-23.915	-0.381	-0.226
-424.559	228.966	-0.209	-0.337
-423.544	109.910	-0.118	-0.140
-422.530	800.000	-0.034	-0.095
-421.515	210.452	0.131	0.204
-420.500	-71.035	-0.306	-0.114
-419.486	-97.186	0.301	0.078
-418.471	273.827	-0.106	-0.186
-417.457	-178.625	-0.432	0.010
-416.442	201.243	0.087	0.133
-415.428	276.372	0.077	0.136
-414.413	-200.000	0.032	-0.239
-413.398	-110.203	0.195	0.040
-412.384	5.082	0.310	-0.226
-411.369	-40.926	0.029	0.015
-410.355	-24.585	-0.446	0.262
-409.340	-105.582	0.195	-0.044
-408.325	-200.000	0.002	0.060
-407.311	-133.256	-0.453	0.057
-406.296	-24.376	0.213	0.126
-405.282	800.000	-0.065	-0.245
-404.267	77.050	0.007	0.007
-403.252	9.765	-0.245	-0.184
-402.238	-7.711	-0.120	0.080
-401.223	-152.268	-0.113	-0.008
-400.209	-200.000	-0.022	0.145
-399.194	-126.935	-0.213	0.031
-398.179	-0.779	0.241	0.169
-397.165	-200.000	0.006	0.138
-396.150	-200.000	-0.058	0.445
-395.136	192.893	-0.168	-0.251
-394.121	-191.799	0.293	-0.003
-393.106	10.610	-0.180	-0.135
-392.092	-1.177	0.087	-0.061
-391.077	15.795	0.039	-0.030
-390.063	224.195	-0.084	0.134
-389.048	363.231	0.088	-0.174
-388.033	135.325	0.152	-0.195
-387.019	-141.058	0.301	-0.030
-386.004	-141.615	-0.138	0.014
-384.990	800.000	-0.045	0.178
-383.975	142.842	-0.099	0.130
-382.960	-200.000	0.239	0.000
-381.946	-61.081	-0.204	0.085
-380.931	202.880	-0.242	0.369
-379.917	-128.431	-0.174	-0.024
-378.902	-5.532	0.260	-0.176
-377.888	800.000	0.011	-0.039
-376.873	68.643	0.258	-0.262
-375.858	-18.876	0.066	-0.040
-374.844	-200.000	0.017	-0.111
-373.829	-97.394	0.183	0.047
-372.815	-28.646	0.155	0.088
-371.800	-200.000	-0.019	-0.105
-370.785	386.881	-0.115	-0.235
-369.771	107.759	-0.263	0.309
-368.756	800.000	-0.010	-0.035
-367.742	-2.682	0.116	0.080
-366.727	-14.780	-0.042	-0.027
-365.712	142.462	0.079	0.104
-364.698	-200.000	-0.063	0.284
-363.683	123.891	0.220	0.273
-362.669	508.295	0.112	-0.257
-361.654	29.619	-0.059	-0.049
-360.639	463.267	0.122	0.270
-359.625	-17.615	-0.390	0.242
-358.610	-112.718	0.291	0.057
-357.596	-200.000	-0.015	0.319
-356.581	414.552	-0.095	-0.200
-355.566	-197.669	0.177	-0.001
-354.552	256.305	-0.121	-0.206
-353.537	577.491	-0.104	0.250
-352.523	-40.079	0.307	0.158
-351.508	-16.930	-0.248	-0.155
-350.493	-24.825	0.232	-0.136
-349.479	-200.000	-0.059	0.299
-348.464	-94.478	-0.184	0.050
-347.450	800.000	0.090	-0.267
-346.435	28.895	0.121	-0.101
-345.420	-174.616	0.342	0.010
-344.406	181.024	0.042	0.061
-343.391	800.000	-0.042	-0.118
-342.377	-200.000	0.029	0.285
-341.362	-17.677	-0.213	-0.132
-340.348	-200.000	0.030	-0.337
-339.333	-200.000	0.031	-0.181
-338.318	119.612	-0.115	0.141
-337.304	-200.000	0.211	0.000
-336.289	283.271	0.093	0.164
-335.275	-45.477	-0.437	-0.213
-334.260	-200.000	0.087	-0.490
-333.245	-117.061	-0.357	-0.064
-332.231	-173.832	0.130	-0.004
-331.216	-63.062	0.153	0.062
-330.202	-146.747	0.361	-0.031
-329.187	48.214	-0.100	-0.093
-328.172	-120.417	-0.308	0.052
-327.158	-73.159	-0.212	-0.077
-326.143	-79.337	-0.259	0.086
-325.129	66.276	-0.235	-0.236
-324.114	800.000	-0.040	0.165
-323.099	-192.603	-0.208	0.002
-322.085	299.368	0.079	-0.144
-321.070	800.000	0.074	-0.209
-320.056	-69.245	0.220	-0.083
-319.041	279.579	0.180	0.317
-318.026	-200.000	0.047	0.421
-317.012	-26.200	0.175	0.101
-315.997	11.701	0.228	-0.173
-314.983	746.224	-0.014	-0.037
-313.968	-6.975	0.145	0.097
-312.953	-73.179	-0.586	0.212
-311.939	-200.000	0.030	-0.262
-310.924	-26.243	0.197	-0.114
-309.910	-39.825	0.305	0.157
-308.895	4.306	0.246	0.178
-307.880	-153.046	0.194	-0.013
-306.866	-200.000	-0.055	-0.252
-305.851	35.289	-0.149	-0.128
-304.837	-83.643	0.153	0.048
-303.822	-80.228	-0.202	0.067
-302.807	-78.055	-0.346	-0.117
-301.793	800.000	0.047	0.173
-300.778	332.395	0.096	0.183
-299.764	43.706	0.039	0.035
-298.749	800.000	-0.026	-0.093
-297.735	800.000	0.026	-0.093
-296.720	-19.707	0.087	-0.053
-295.705	-71.277	0.106	0.039
-294.691	187.785	0.013	0.019
-293.676	-200.000	-0.004	0.158
-292.662	265.219	0.246	-0.422
-291.647	-44.036	-0.201	0.099
-290.632	-200.000	0.022	0.267
-289.618	160.443	0.338	0.464
-288.603	-121.915	0.088	0.014
-287.589	800.000	-0.049	0.170
-286.574	800.000	0.070	-0.248
-285.559	370.994	0.114	0.227
-284.545	-69.488	-0.417	-0.157
-283.530	83.257	0.074	0.080
-282.516	670.169	-0.084	0.214
-281.501	12.244	-0.375	-0.284
-280.486	-63.030	-0.217	0.088
-279.472	800.000	0.061	0.208
-278.457	-200.000	0.005	-0.161
-277.443	-85.353	-0.183	-0.056
-276.428	-200.000	0.007	0.369
-275.413	29.730	0.100	-0.083
-274.399	-98.008	-0.156	0.040
-273.384	83.552	-0.154	-0.165
-272.370	480.532	-0.185	-0.413
-271.355	-72.433	0.298	0.109
-270.340	76.735	-0.063	-0.066
-269.326	260.651	0.093	-0.158
-268.311	35.676	-0.066	-0.057
-267.297	24.207	0.130	0.106
-266.282	114.162	-0.195	0.233
-265.267	121.772	0.207	0.254
-264.253	-52.464	0.069	-0.032
-263.238	-122.334	0.178	0.029
-262.224	800.000	0.057	0.187
-261.209	63.515	0.057	0.056
-260.195	-25.041	-0.036	-0.021
-259.180	-200.000	0.015	-0.397
-258.165	-45.484	-0.088	0.043
-257.151	800.000	0.028	-0.115
-256.136	-88.417	0.144	-0.042
-255.122	800.000	0.089	-0.272
-254.107	732.955	0.093	-0.244
-253.092	800.000	0.052	0.150
-252.078	800.000	-0.088	-0.247
-251.063	-47.485	0.509	-0.243
-250.049	-28.749	-0.258	-0.146
-249.034	-0.906	0.171	-0.119
-248.019	-87.080	0.214	0.064
-247.005	-200.000	-0.009	-0.041
-245.990	-200.000	0.027	-0.313
-244.976	800.000	0.046	0.128
-243.961	-119.767	-0.140	0.024
-242.946	139.285	-0.037	0.047
-241.932	9.537	0.125	0.093
-240.917	-200.000	0.024	0.226
-239.903	293.952	0.157	0.283
-238.888	-200.000	0.043	0.207
-237.873	109.199	-0.031	0.037
-236.859	112.470	0.118	0.141
-235.844	-67.922	0.484	0.186
-234.830	40.518	-0.300	0.266
-233.815	-165.435	0.379	0.016
-232.800	-94.415	0.280	-0.075
-231.786	-135.145	-0.146	-0.017
-230.771	72.006	-0.228	0.233
-229.757	-96.141	0.327	0.085
-228.742	-75.194	0.441	0.155
-227.727	27.731	0.067	0.055
-226.713	-105.698	0.448	0.100
-225.698	635.143	-0.072	0.178
-224.684	68.143	0.259	0.261
-223.669	-98.344	-0.332	-0.084
-222.655	800.000	-0.066	0.202
-221.640	-200.000	0.010	0.181
-220.625	440.255	-0.134	-0.289
-219.611	-75.036	-0.246	-0.087
-218.596	-200.000	-0.015	-0.267
-217.582	-200.000	-0.027	0.329
-216.567	-106.939	-0.193	0.042
-215.552	-53.629	0.352	-0.158
-214.538	767.873	-0.071	-0.189
-213.523	86.663	-0.089	0.097
-212.509	-45.452	0.112	-0.055
-211.494	53.518	-0.230	-0.217
-210.479	-59.776	0.279	0.117
-209.465	800.000	-0.078	0.293
-208.450	65.990	0.286	0.285
-207.436	-101.860	-0.358	0.085
-206.421	88.047	0.107	-0.117
-205.406	-99.807	0.203	-0.050
-204.392	248.873	0.176	-0.292
-203.377	88.783	-0.196	-0.215
-202.363	800.000	-0.074	-0.254
-201.348	196.896	-0.125	0.186
-200.333	-81.511	-0.045	0.014
-199.319	-200.000	-0.071	-0.472
-198.304	160.420	-0.175	-0.240
-197.290	-43.319	0.224	0.111
-196.275	55.785	0.076	0.072
-195.260	-62.874	-0.196	-0.080
-194.246	-200.000	0.010	-0.095
-193.231	-56.900	0.243	-0.105
-192.217	-54.693	0.149	0.066
-191.202	54.244	0.236	0.223
-190.187	728.898	-0.029	0.076
-189.173	-174.186	-0.316	0.009
-188.158	-6.397	0.381	-0.255
-187.144	-159.284	0.426	-0.023
-186.129	800.000	0.084	0.324
-185.114	-44.299	-0.149	0.073
-184.100	37.251	0.209	0.182
-183.085	-170.518	-0.307	0.010
-182.071	-165.833	0.019	0.001
-181.056	309.372	-0.153	0.281
-180.042	-99.726	-0.477	-0.117
-179.027	75.544	0.147	0.153
-178.012	19.180	-0.273	-0.215
-176.998	800.000	-0.050	0.149
-175.983	-116.716	-0.031	0.006
-174.969	-147.514	-0.215	0.018
-173.954	563.868	-0.151	-0.359
-172.939	-21.817	0.158	0.094
-171.925	163.739	-0.098	-0.135
-170.910	-131.698	-0.263	-0.034
-169.896	150.732	0.114	-0.152
-168.881	166.838	-0.106	0.147
-167.866	466.511	0.074	-0.163
-166.852	-200.000	0.047	0.389
-165.837	-83.271	0.083	0.026
-164.823	-120.152	-0.412	0.069
-163.808	800.000	-0.082	0.244
-162.793	27.166	-0.382	0.314
-161.779	503.489	-0.153	0.348
-160.764	183.252	0.118	-0.170
-159.750	-169.369	0.208	-0.007
-158.735	800.000	-0.042	0.122
-157.720	-53.942	0.312	0.139
-156.706	-72.854	0.139	-0.050
-155.691	-28.104	-0.320	0.181
-154.677	-26.385	0.087	-0.050
-153.662	-200.000	-0.007	0.144
-152.647	-39.682	0.243	-0.125
-151.633	-200.000	-0.002	-0.060
-150.618	-177.665	0.345	-0.008
-149.604	-103.629	0.075	-0.017
-148.589	-69.306	-0.133	0.050
-147.574	266.857	-0.098	-0.167
-146.560	426.926	0.089	0.189
-145.545	-105.300	0.148	-0.033
-144.531	153.705	-0.143	-0.191
-143.516	-74.853	-0.041	-0.014
-142.502	-80.165	-0.427	0.140
-141.487	342.731	0.136	0.261
-140.472	-25.077	0.284	0.165
-139.458	584.258	-0.098	-0.236
-138.443	-107.765	-0.130	0.028
-137.429	-37.092	-0.126	0.066
-136.414	-29.517	0.184	0.103
-135.399	-87.796	0.317	0.093
-134.385	531.274	0.107	0.248
-133.370	104.935	0.204	0.236
-132.356	-163.659	0.148	-0.007
-131.341	-38.935	-0.246	-0.127
-130.326	-40.124	-0.298	0.152
-129.312	-46.257	-0.103	0.050
-128.297	-173.862	0.098	-0.003
-127.283	-200.000	0.018	0.221
-126.268	-200.000	-0.093	0.413
-125.253	-28.745	-0.264	0.148
-124.239	508.154	0.080	0.182
-123.224	-41.268	-0.415	0.209
-122.210	352.305	0.167	0.323
-121.195	-158.937	0.036	-0.002
