DTS Sentinel unit serial number:	SN413079Multiplexer serial number:	ORYXHardware model number:	OX4-SRSoftware version number:	ORYX F/W v4.00 Oryx Data Collector v3.7.2.0data status	okinstallation	princeton_trtdifferential loss correction	single-endedforward channel	channel 4reverse channel	N/Adate	2019/09/14time	08:25:35forward acquisition time	60.00reverse acquisition time	0.00gamma	496.2192k internal	0.2314k external	0.2314temperature offset calibration	1.0131default loss term (dB/km)	0.3790temperature slope calibration	1.0000multiplexer offset coefficient	1.0000multiplexer slope coefficient	1.0000fibre end	0.00T internal ref (°C)	28.19T ext. ref 1 (°C)	3.62T ext. ref 2 (°C)	25.92length (m)	temperature (°C)	Stokes	anti-Stokes-747.200	-97.144	-0.322	-0.085
-746.185	-99.256	-0.199	0.051
-745.171	-200.000	-0.006	0.117
-744.156	15.246	-0.231	0.183
-743.142	-91.970	-0.031	0.009
-742.127	87.744	0.259	0.291
-741.112	-161.987	0.181	0.009
-740.098	33.358	-0.060	0.053
-739.083	-72.579	0.175	0.066
-738.069	-52.704	-0.154	0.072
-737.054	261.079	0.077	0.135
-736.039	139.884	0.188	0.251
-735.025	800.000	0.065	-0.187
-734.010	-198.263	-0.347	0.002
-732.996	-200.000	-0.028	-0.370
-731.981	-5.572	-0.188	-0.131
-730.966	95.747	-0.179	-0.207
-729.952	-58.708	-0.299	-0.131
-728.937	-123.221	-0.131	-0.021
-727.923	161.677	-0.052	-0.074
-726.908	-200.000	-0.057	0.358
-725.894	-84.108	-0.395	-0.127
-724.879	295.358	0.170	-0.315
-723.864	-200.000	0.000	-0.327
-722.850	-200.000	-0.084	-0.452
-721.835	52.031	-0.069	-0.066
-720.821	133.510	0.100	-0.130
-719.806	133.139	0.076	0.099
-718.791	-146.962	0.213	-0.018
-717.777	416.242	0.238	-0.514
-716.762	-200.000	-0.048	-0.349
-715.748	325.219	-0.052	0.100
-714.733	-99.466	-0.145	-0.037
-713.718	78.413	-0.165	-0.178
-712.704	-42.442	0.046	0.024
-711.689	99.093	-0.026	-0.030
-710.675	800.000	0.033	-0.126
-709.660	628.344	0.059	-0.152
-708.645	98.665	0.097	-0.113
-707.631	220.925	0.040	-0.065
-706.616	-147.690	0.307	-0.026
-705.602	-126.189	-0.258	0.039
-704.587	-106.808	0.126	-0.028
-703.572	800.000	-0.039	-0.162
-702.558	5.546	0.131	-0.098
-701.543	-42.250	-0.118	0.061
-700.529	-92.595	-0.018	-0.005
-699.514	671.278	-0.108	0.284
-698.499	-9.971	0.192	-0.130
-697.485	800.000	0.061	0.198
-696.470	800.000	-0.134	0.411
-695.456	-83.081	0.038	-0.013
-694.441	555.053	0.124	-0.302
-693.426	-168.802	0.143	0.005
-692.412	800.000	-0.034	-0.130
-691.397	105.422	0.157	-0.188
-690.383	194.295	-0.289	-0.443
-689.368	-149.185	-0.299	-0.024
-688.354	-200.000	-0.010	0.307
-687.339	-143.822	0.302	-0.029
-686.324	43.813	0.101	0.094
-685.310	-2.833	0.258	0.183
-684.295	36.767	0.165	-0.147
-683.281	708.168	-0.082	-0.218
-682.266	152.702	0.197	-0.273
-681.251	146.619	0.088	-0.120
-680.237	-200.000	-0.029	0.161
-679.222	-120.787	0.236	0.040
-678.208	-200.000	0.036	-0.341
-677.193	-106.531	-0.300	0.068
-676.178	-169.788	0.254	0.009
-675.164	-49.666	0.234	0.113
-674.149	4.224	-0.079	0.058
-673.135	-200.000	-0.038	0.206
-672.120	-55.237	0.165	-0.075
-671.105	-94.007	-0.165	-0.046
-670.091	-81.952	0.186	0.061
-669.076	28.865	0.066	-0.056
-668.062	330.541	-0.056	-0.109
-667.047	-152.717	-0.346	0.025
-666.032	-0.119	-0.209	-0.151
-665.018	259.010	0.010	-0.018
-664.003	-200.000	0.022	0.158
-662.989	800.000	-0.046	-0.175
-661.974	169.865	-0.108	0.155
-660.959	90.355	0.075	-0.084
-659.945	800.000	0.076	0.215
-658.930	178.729	-0.171	-0.252
-657.916	-7.308	-0.053	-0.036
-656.901	-171.384	0.190	-0.006
-655.886	-5.407	0.250	0.173
-654.872	-200.000	0.005	0.039
-653.857	-138.000	-0.201	-0.023
-652.843	-200.000	0.048	-0.249
-651.828	-21.459	-0.164	0.101
-650.814	248.914	0.141	0.242
-649.799	-145.066	-0.080	0.007
-648.784	123.799	-0.200	-0.254
-647.770	-200.000	0.005	-0.068
-646.755	800.000	0.098	-0.328
-645.741	-123.834	-0.048	0.008
-644.726	-12.200	0.257	-0.170
-643.711	-32.748	0.181	-0.102
-642.697	-70.579	-0.286	-0.109
-641.682	-200.000	-0.035	-0.246
-640.668	570.863	-0.085	-0.210
-639.653	-200.000	0.024	0.157
-638.638	-75.949	-0.255	-0.091
-637.624	452.015	-0.033	-0.074
-636.609	15.519	-0.128	-0.102
-635.595	125.640	-0.066	-0.084
-634.580	-3.465	0.152	0.107
-633.565	216.574	-0.121	-0.194
-632.551	-43.731	0.233	-0.118
-631.536	-157.537	-0.327	0.020
-630.522	-71.151	-0.199	-0.075
-629.507	800.000	0.047	-0.151
-628.492	-200.000	0.027	-0.160
-627.478	800.000	-0.020	0.069
-626.463	227.919	0.042	0.069
-625.449	800.000	0.084	-0.324
-624.434	-84.772	0.119	0.038
-623.419	195.578	-0.029	-0.044
-622.405	134.352	0.169	-0.221
-621.390	800.000	-0.088	-0.344
-620.376	148.834	-0.027	0.036
-619.361	-200.000	0.008	0.241
-618.346	-144.409	0.215	0.020
-617.332	-76.347	-0.204	0.072
-616.317	764.139	-0.067	0.184
-615.303	756.862	0.092	0.250
-614.288	-116.380	0.482	0.090
-613.273	160.086	-0.084	-0.118
-612.259	-74.815	-0.229	0.083
-611.244	-55.382	0.189	-0.085
-610.230	141.466	-0.244	0.326
-609.215	187.450	-0.220	0.331
-608.201	304.784	0.084	-0.157
-607.186	-200.000	0.024	-0.222
-606.171	-27.081	-0.304	0.179
-605.157	-174.360	-0.355	-0.010
-604.142	800.000	0.088	0.342
-603.128	-19.762	0.426	0.266
-602.113	132.397	0.174	-0.226
-601.098	-50.361	0.244	0.116
-600.084	-165.070	0.176	-0.008
-599.069	763.806	-0.114	-0.313
-598.055	796.734	0.149	-0.415
-597.040	-12.647	-0.158	0.104
-596.025	-132.092	0.310	0.041
-595.011	385.555	-0.114	0.237
-593.996	-148.786	-0.337	-0.027
-592.982	213.151	0.056	-0.089
-591.967	-80.568	-0.182	0.061
-590.952	-200.000	0.018	-0.189
-589.938	-190.133	-0.408	0.005
-588.923	-200.000	-0.007	0.101
-587.909	-78.757	-0.204	-0.070
-586.894	327.951	0.177	0.343
-585.879	-193.110	0.327	0.003
-584.865	-70.193	0.481	-0.184
-583.850	-177.758	-0.231	0.006
-582.836	292.900	0.129	-0.237
-581.821	-82.975	-0.030	0.010
-580.806	338.728	-0.067	0.131
-579.792	8.766	-0.251	0.191
-578.777	61.023	0.202	0.202
-577.763	425.280	0.059	-0.128
-576.748	-123.473	0.121	-0.019
-575.733	103.520	0.248	-0.293
-574.719	16.786	-0.249	0.198
-573.704	81.105	-0.187	0.204
-572.690	-200.000	-0.022	-0.116
-571.675	652.314	0.025	-0.065
-570.661	-99.816	-0.432	-0.109
-569.646	800.000	0.073	-0.256
-568.631	-119.380	-0.443	0.078
-567.617	-76.005	-0.253	0.090
-566.602	-54.688	-0.135	0.061
-565.588	231.929	-0.048	-0.079
-564.573	183.912	-0.065	0.097
-563.558	26.861	0.149	0.126
-562.544	800.000	0.106	-0.320
-561.529	107.154	-0.229	-0.274
-560.515	-105.995	0.450	0.102
-559.500	-200.000	-0.006	-0.400
-558.485	-200.000	0.013	-0.060
-557.471	800.000	-0.014	0.057
-556.456	-24.029	0.141	-0.085
-555.442	-15.384	-0.288	0.185
-554.427	252.852	-0.080	0.137
-553.412	513.208	-0.244	0.573
-552.398	-137.927	-0.213	0.024
-551.383	-200.000	0.033	0.203
-550.369	0.240	-0.027	-0.020
-549.354	276.128	0.112	-0.201
-548.339	-200.000	-0.006	0.056
-547.325	-107.981	-0.143	0.031
-546.310	800.000	-0.044	-0.188
-545.296	153.878	0.147	-0.202
-544.281	-40.824	-0.161	-0.084
-543.266	628.007	-0.123	-0.312
-542.252	-200.000	0.074	0.424
-541.237	322.747	0.063	0.120
-540.223	1.249	-0.127	-0.092
-539.208	-200.000	0.005	0.100
-538.193	286.900	-0.088	-0.161
-537.179	-71.749	-0.375	-0.141
-536.164	-183.833	-0.066	-0.001
-535.150	800.000	0.095	0.287
-534.135	349.910	0.056	0.111
-533.121	59.723	0.159	-0.158
-532.106	353.581	-0.046	0.091
-531.091	-200.000	0.007	-0.140
-530.077	9.279	0.176	-0.134
-529.062	108.511	-0.132	-0.158
-528.048	-111.395	0.254	-0.052
-527.033	-108.469	0.242	-0.052
-526.018	544.454	-0.007	0.016
-525.004	-122.687	-0.203	0.033
-523.989	-200.000	-0.075	0.410
-522.975	800.000	0.073	0.213
-521.960	54.536	-0.302	-0.292
-520.945	-29.580	-0.066	0.038
-519.931	70.636	-0.203	-0.211
-518.916	22.743	-0.130	-0.107
-517.902	-152.805	0.174	-0.012
-516.887	64.719	0.062	-0.062
-515.872	7.511	0.432	0.325
-514.858	-53.738	-0.368	0.169
-513.843	800.000	-0.034	0.129
-512.829	57.790	-0.153	0.150
-511.814	-200.000	-0.003	-0.020
-510.799	-14.408	-0.085	-0.055
-509.785	-105.524	-0.272	-0.062
-508.770	-88.221	-0.303	0.091
-507.756	109.976	0.150	0.181
-506.741	171.885	0.204	-0.295
-505.726	-66.853	0.169	0.067
-504.712	-38.791	-0.113	-0.060
-503.697	-72.207	-0.267	0.099
-502.683	-128.716	-0.413	0.059
-501.668	105.381	-0.159	0.189
-500.653	-200.000	0.009	0.084
-499.639	-8.071	0.150	0.102
-498.624	800.000	0.047	0.145
-497.610	661.849	-0.105	-0.272
-496.595	800.000	-0.090	-0.288
-495.581	84.518	0.082	0.090
-494.566	-82.389	-0.245	-0.080
-493.551	82.283	0.097	-0.105
-492.537	-200.000	0.048	-0.311
-491.522	-171.179	-0.269	0.009
-490.508	116.502	-0.152	-0.187
-489.493	-163.732	-0.127	0.006
-488.478	-39.987	0.138	0.072
-487.464	-200.000	0.020	0.088
-486.449	-200.000	0.011	-0.212
-485.435	4.974	0.205	0.151
-484.420	8.342	0.087	0.066
-483.405	386.456	0.183	0.379
-482.391	-85.368	-0.296	-0.093
-481.376	-200.000	-0.069	0.440
-480.362	-27.070	-0.076	0.044
-479.347	-118.229	0.150	0.027
-478.332	800.000	-0.054	0.219
-477.318	128.698	0.254	0.325
-476.303	128.071	0.149	-0.190
-475.289	-8.709	-0.196	0.132
-474.274	-77.867	0.290	-0.101
-473.259	-77.151	-0.036	0.013
-472.245	-13.849	-0.347	0.225
-471.230	-85.087	0.186	0.059
-470.216	-91.971	0.064	0.018
-469.201	800.000	0.044	0.191
-468.186	-200.000	-0.003	0.016
-467.172	-84.413	-0.113	0.036
-466.157	-92.764	-0.158	0.044
-465.143	-58.988	0.174	-0.075
-464.128	800.000	-0.126	0.500
-463.113	-55.065	0.053	0.024
-462.099	-41.261	-0.188	-0.097
-461.084	720.954	0.061	-0.162
-460.070	242.901	0.183	0.308
-459.055	799.578	-0.145	0.401
-458.040	658.033	-0.033	-0.086
-457.026	800.000	0.062	-0.198
-456.011	-168.889	-0.334	0.013
-454.997	-53.589	-0.061	-0.028
-453.982	119.098	-0.161	0.199
-452.968	-101.660	-0.114	-0.028
-451.953	271.658	0.127	-0.224
-450.938	-23.120	-0.310	0.187
-449.924	206.194	0.098	-0.153
-448.909	-88.859	-0.243	0.072
-447.895	-62.903	0.091	0.038
-446.880	-5.464	-0.022	0.015
-445.865	-104.166	-0.229	0.053
-444.851	-1.534	0.295	0.209
-443.836	-58.941	-0.170	-0.074
-442.822	-200.000	-0.008	-0.229
-441.807	-200.000	0.105	0.000
-440.792	-16.210	-0.222	-0.141
-439.778	-200.000	0.036	0.249
-438.763	-172.152	-0.052	0.002
-437.749	-75.967	0.179	-0.063
-436.734	221.523	0.060	0.097
-435.719	-151.315	-0.195	-0.015
-434.705	-75.035	0.321	0.115
-433.690	430.554	-0.094	-0.204
-432.676	35.935	0.088	0.077
-431.661	800.000	0.065	0.253
-430.646	148.678	-0.240	0.325
-429.632	-73.897	-0.277	0.101
-428.617	-70.813	0.142	-0.054
-427.603	-151.521	0.062	0.005
-426.588	-39.074	-0.614	-0.324
-425.573	-79.772	0.049	0.016
-424.559	41.597	0.116	-0.105
-423.544	123.992	0.139	0.175
-422.530	-48.759	0.286	0.137
-421.515	-200.000	0.273	-0.001
-420.500	800.000	-0.046	0.166
-419.486	-106.932	0.237	-0.053
-418.471	800.000	-0.004	-0.018
-417.457	-200.000	0.046	-0.276
-416.442	-80.998	-0.085	0.028
-415.428	-115.248	0.063	0.012
-414.413	189.530	0.116	0.174
-413.398	73.476	0.212	0.222
-412.384	111.901	0.161	-0.195
-411.369	81.988	0.051	0.056
-410.355	26.715	0.201	-0.168
-409.340	-106.990	-0.053	0.012
-408.325	-71.398	-0.084	-0.032
-407.311	800.000	-0.036	-0.144
-406.296	-46.024	-0.045	-0.022
-405.282	40.729	-0.060	0.054
-404.267	800.000	0.168	-0.476
-403.252	70.329	0.091	-0.094
-402.238	345.993	-0.014	0.028
-401.223	-59.648	0.094	0.040
-400.209	-200.000	0.043	0.192
-399.194	-200.000	0.056	0.278
-398.179	72.747	-0.031	0.032
-397.165	-70.020	0.153	0.058
-396.150	-200.000	-0.018	-0.219
-395.136	800.000	0.048	0.186
-394.121	-200.000	0.004	0.171
-393.106	-54.994	0.186	0.084
-392.092	-117.899	-0.102	0.018
-391.077	800.000	-0.036	0.109
-390.063	-160.198	0.015	0.001
-389.048	-108.168	0.097	-0.021
-388.033	800.000	0.074	-0.219
-387.019	-200.000	-0.041	0.319
-386.004	800.000	0.147	0.422
-384.990	52.293	-0.071	-0.068
-383.975	-200.000	0.002	0.197
-382.960	-200.000	0.086	0.468
-381.946	66.317	-0.235	-0.238
-380.931	-140.350	0.273	-0.029
-379.917	-134.259	0.142	0.017
-378.902	-77.002	-0.118	-0.041
-377.888	283.278	0.140	-0.251
-376.873	598.079	-0.065	-0.161
-375.858	800.000	0.080	0.250
-374.844	-200.000	-0.022	0.275
-373.829	145.463	-0.071	0.095
-372.815	-200.000	0.016	0.306
-371.800	-154.582	-0.460	0.031
-370.785	19.374	0.109	-0.088
-369.771	207.537	-0.053	-0.082
-368.756	43.443	-0.175	-0.159
-367.742	800.000	0.055	-0.169
-366.727	-91.676	-0.203	-0.058
-365.712	-200.000	-0.043	-0.231
-364.698	-167.595	0.449	-0.018
-363.683	79.276	-0.254	0.272
-362.669	560.777	0.141	-0.339
-361.654	-104.623	-0.134	-0.031
-360.639	-56.077	0.279	0.124
-359.625	301.486	0.152	-0.281
-358.610	-133.492	-0.039	0.005
-357.596	-49.335	-0.172	-0.082
-356.581	751.130	0.089	0.240
-355.566	796.464	-0.092	0.252
-354.552	11.627	-0.300	0.230
-353.537	-200.000	0.009	0.258
-352.523	122.370	0.216	0.270
-351.508	-145.220	-0.230	0.021
-350.493	8.668	0.173	0.130
-349.479	800.000	0.105	-0.298
-348.464	-91.713	-0.175	-0.050
-347.450	800.000	0.068	0.232
-346.435	21.446	-0.099	-0.080
-345.420	42.990	-0.157	-0.143
-344.406	299.445	-0.201	-0.369
-343.391	70.702	0.130	0.134
-342.377	-121.332	0.128	-0.021
-341.362	27.600	0.224	0.188
-340.348	93.237	0.238	-0.269
-339.333	-56.071	-0.110	-0.049
-338.318	100.822	0.113	-0.131
-337.304	-164.359	-0.434	-0.020
-336.289	-135.537	0.132	0.016
-335.275	800.000	-0.087	-0.363
-334.260	800.000	0.039	-0.114
-333.245	516.419	0.190	-0.443
-332.231	101.612	0.130	-0.151
-331.216	-89.238	-0.250	-0.074
-330.202	-200.000	0.012	0.252
-329.187	-82.981	-0.146	-0.047
-328.172	97.311	-0.260	0.298
-327.158	58.339	0.308	0.301
-326.143	-200.000	0.042	0.413
-325.129	91.738	-0.038	0.043
-324.114	-124.859	0.201	0.031
-323.099	148.341	-0.083	0.112
-322.085	-34.492	-0.402	-0.220
-321.070	97.228	0.095	-0.108
-320.056	-59.551	0.277	-0.119
-319.041	-200.000	-0.037	-0.170
-318.026	52.670	-0.193	0.184
-317.012	208.259	0.103	0.160
-315.997	23.863	-0.096	-0.079
-314.983	-200.000	0.037	-0.171
-313.968	-72.583	-0.273	-0.101
-312.953	320.735	0.076	0.143
-311.939	-2.030	0.077	-0.054
-310.924	800.000	-0.021	0.062
-309.910	12.455	0.215	0.165
-308.895	-92.036	-0.074	0.021
-307.880	681.772	0.110	-0.285
-306.866	800.000	0.057	-0.213
-305.851	470.997	-0.217	0.486
-304.837	178.064	0.088	-0.128
-303.822	40.888	0.069	0.062
-302.807	-92.550	-0.148	-0.042
-301.793	-200.000	0.025	-0.236
-300.778	-73.990	-0.253	-0.091
-299.764	-188.156	-0.137	0.002
-298.749	800.000	-0.035	0.107
-297.735	800.000	-0.048	0.184
-296.720	-165.253	-0.168	-0.007
-295.705	-200.000	0.003	0.283
-294.691	-200.000	0.019	0.267
-293.676	-102.512	0.298	0.071
-292.662	-80.591	0.119	-0.039
-291.647	71.195	0.183	-0.189
-290.632	-5.724	-0.055	0.038
-289.618	-200.000	-0.034	0.190
-288.603	1.278	-0.203	0.146
-287.589	22.879	-0.104	-0.085
-286.574	-112.495	0.190	-0.038
-285.559	-86.734	-0.373	0.114
-284.545	29.769	0.212	-0.180
-283.530	-190.562	0.128	-0.001
-282.516	78.637	-0.169	-0.179
-281.501	77.453	0.099	-0.105
-280.486	800.000	-0.132	0.388
-279.472	-4.708	0.523	0.359
-278.457	800.000	-0.123	-0.380
-277.443	650.985	-0.084	-0.214
-276.428	-200.000	0.015	0.114
-275.413	181.875	-0.129	-0.190
-274.399	-52.052	0.251	-0.116
-273.384	543.065	0.109	-0.259
-272.370	-95.572	0.122	-0.032
-271.355	77.646	-0.188	-0.199
-270.340	211.288	0.080	0.125
-269.326	-200.000	0.032	0.279
-268.311	-200.000	-0.070	0.327
-267.297	-80.908	0.367	-0.121
-266.282	-136.423	0.139	-0.016
-265.267	-200.000	-0.029	-0.253
-264.253	-134.443	0.568	-0.069
-263.238	-136.792	0.054	0.006
-262.224	-124.666	0.094	0.014
-261.209	-200.000	-0.016	-0.226
-260.195	-72.921	-0.241	-0.088
-259.180	800.000	-0.012	-0.036
-258.165	138.681	0.049	-0.065
-257.151	37.153	-0.052	0.046
-256.136	189.099	-0.222	-0.331
-255.122	-87.663	-0.192	-0.058
-254.107	-145.701	0.161	0.014
-253.092	-7.043	0.114	-0.077
-252.078	282.318	-0.205	0.366
-251.063	-47.707	0.218	0.105
-250.049	482.835	0.034	-0.076
-249.034	191.034	0.021	0.032
-248.019	-200.000	0.006	-0.208
-247.005	281.917	0.113	0.201
-245.990	-124.153	-0.369	0.058
-244.976	-102.409	0.081	-0.019
-243.961	-94.781	0.066	0.018
-242.946	-200.000	0.003	-0.342
-241.932	-33.645	0.252	0.138
-240.917	-151.422	0.119	-0.009
-239.903	594.232	-0.132	-0.323
-238.888	-142.148	-0.205	-0.020
-237.873	-166.447	0.462	-0.019
-236.859	-134.993	-0.150	-0.018
-235.844	8.054	-0.084	-0.063
-234.830	-79.819	0.241	-0.081
-233.815	51.426	0.064	0.061
-232.800	79.056	-0.060	-0.063
-231.786	-127.439	0.147	-0.021
-230.771	-45.964	0.181	-0.089
-229.757	-115.046	0.170	0.032
-228.742	-104.209	-0.242	0.056
-227.727	91.126	-0.031	-0.035
-226.713	-114.810	0.167	0.032
-225.698	-71.155	0.124	-0.046
-224.684	-200.000	-0.041	0.313
-223.669	800.000	0.080	0.327
-222.655	-43.764	-0.228	-0.114
-221.640	800.000	0.062	-0.218
-220.625	-107.985	-0.315	-0.068
-219.611	-110.376	0.145	-0.030
-218.596	-200.000	0.021	0.143
-217.582	-154.960	0.239	0.016
-216.567	329.774	0.037	0.071
-215.552	-105.115	0.249	-0.057
-214.538	-200.000	-0.010	0.274
-213.523	230.835	0.108	-0.175
-212.509	73.199	0.233	0.242
-211.494	127.389	-0.170	-0.214
-210.479	-68.461	-0.223	0.086
-209.465	746.860	-0.096	-0.257
-208.450	-182.264	0.126	0.002
-207.436	422.801	-0.029	-0.062
-206.421	-103.688	-0.213	-0.050
-205.406	66.691	0.147	-0.149
-204.392	-150.458	0.213	-0.016
-203.377	-200.000	-0.053	0.349
-202.363	-200.000	0.029	-0.200
-201.348	794.250	0.045	0.124
-200.333	-53.662	0.139	0.063
-199.319	-76.144	0.197	0.069
-198.304	43.434	0.058	-0.053
-197.290	-200.000	-0.049	-0.221
-196.275	-170.387	0.080	0.003
-195.260	-200.000	0.000	-0.032
-194.246	-52.761	0.243	-0.111
-193.231	112.319	0.128	-0.154
-192.217	20.136	-0.234	0.188
-191.202	-104.056	-0.160	0.037
-190.187	230.581	-0.113	-0.184
-189.173	800.000	0.064	-0.179
-188.158	-115.187	-0.182	-0.034
-187.144	-54.670	-0.237	0.106
-186.129	-173.446	0.370	0.011
-185.114	-200.000	-0.059	-0.269
-184.100	142.164	-0.103	0.136
-183.085	-77.614	0.216	0.074
-182.071	-26.765	0.065	0.038
-181.056	786.510	0.018	-0.048
-180.042	760.854	-0.187	0.503
-179.027	-200.000	-0.002	-0.100
-178.012	-200.000	-0.020	-0.283
-176.998	-57.513	-0.185	0.080
-175.983	755.288	-0.099	-0.266
-174.969	26.871	0.041	-0.034
-173.954	-149.167	-0.308	0.024
-172.939	23.805	-0.327	-0.267
-171.925	-111.393	0.255	0.052
-170.910	513.615	0.162	0.375
-169.896	-128.285	0.289	-0.041
-168.881	-153.781	-0.385	0.026
-167.866	453.288	0.168	0.369
-166.852	-200.000	0.024	0.356
-165.837	-48.934	0.267	-0.127
-164.823	-133.848	-0.152	-0.019
-163.808	-200.000	0.018	-0.487
-162.793	-60.128	0.250	-0.106
-161.779	-9.831	-0.177	-0.117
-160.764	-33.363	0.036	0.020
-159.750	237.748	0.211	0.348
-158.735	231.185	0.110	-0.178
-157.720	151.725	0.285	-0.384
-156.706	284.271	0.066	0.118
-155.691	-200.000	-0.023	0.172
-154.677	580.511	-0.041	-0.100
-153.662	-38.885	0.074	0.039
-152.647	43.502	0.390	-0.354
-151.633	249.447	0.124	-0.208
-150.618	-43.250	0.117	0.059
-149.604	-200.000	-0.021	0.346
-148.589	-177.003	0.235	0.006
-147.574	-66.945	-0.318	-0.125
-146.560	-32.918	0.170	-0.093
-145.545	-139.880	0.231	-0.024
-144.531	314.838	-0.275	0.513
-143.516	800.000	0.067	0.213
-142.502	54.852	-0.046	-0.044
-141.487	81.073	-0.039	0.042
-140.472	688.430	0.031	0.080
-139.458	800.000	0.042	-0.150
-138.443	800.000	-0.091	-0.308
-137.429	42.789	0.148	0.134
-136.414	624.920	0.004	-0.010
-135.399	-22.554	-0.089	0.053
-134.385	595.579	0.084	-0.205
-133.370	-143.305	0.454	-0.043
-132.356	-119.518	0.246	-0.042
-131.341	800.000	-0.113	-0.451
-130.326	-82.548	-0.266	0.085
-129.312	188.741	0.087	0.129
-128.297	800.000	-0.067	-0.201
-127.283	-135.287	0.151	0.018
-126.268	-35.042	0.168	-0.091
-125.253	120.564	0.278	0.342
-124.239	24.694	0.364	0.298
-123.224	-148.163	0.150	0.012
-122.210	-70.359	0.147	0.055
-121.195	134.789	0.150	-0.192
