DTS Sentinel unit serial number:	SN413079Multiplexer serial number:	ORYXHardware model number:	OX4-SRSoftware version number:	ORYX F/W v4.00 Oryx Data Collector v3.7.2.0data status	okinstallation	princeton_trtdifferential loss correction	single-endedforward channel	channel 4reverse channel	N/Adate	2019/09/19time	14:17:34forward acquisition time	60.00reverse acquisition time	0.00gamma	496.2192k internal	0.2307k external	0.2307temperature offset calibration	1.0021default loss term (dB/km)	0.3790temperature slope calibration	1.0000multiplexer offset coefficient	1.0000multiplexer slope coefficient	1.0000fibre end	0.00T internal ref (°C)	31.73T ext. ref 1 (°C)	1.04T ext. ref 2 (°C)	29.09length (m)	temperature (°C)	Stokes	anti-Stokes-747.200	181.415	-0.082	-0.122
-746.185	-200.000	0.074	0.402
-745.171	-78.966	0.229	-0.079
-744.156	800.000	-0.104	0.300
-743.142	-80.269	0.601	0.205
-742.127	-200.000	0.050	0.228
-741.112	-200.000	0.036	-0.206
-740.098	-58.064	-0.160	0.071
-739.083	-163.428	0.413	-0.020
-738.069	-115.450	-0.212	0.041
-737.054	-98.247	-0.111	0.029
-736.039	-58.755	-0.122	-0.054
-735.025	-140.752	-0.079	0.008
-734.010	246.199	-0.253	-0.434
-732.996	153.442	-0.063	-0.088
-731.981	-200.000	0.022	0.193
-730.966	485.998	-0.070	0.162
-729.952	427.748	0.190	-0.416
-728.937	-68.977	-0.280	-0.110
-727.923	138.011	-0.133	0.177
-726.908	-200.000	0.126	-0.000
-725.894	49.111	-0.380	-0.363
-724.879	34.826	-0.125	0.111
-723.864	-71.223	-0.369	0.141
-722.850	423.717	-0.061	0.134
-721.835	-154.963	-0.163	-0.011
-720.821	153.286	0.049	0.068
-719.806	-200.000	-0.001	-0.405
-718.791	59.959	0.053	-0.054
-717.777	800.000	0.037	-0.123
-716.762	176.181	-0.200	-0.294
-715.748	24.151	-0.187	-0.156
-714.733	-127.194	-0.168	0.025
-713.718	-85.518	0.218	-0.069
-712.704	208.999	0.116	-0.184
-711.689	800.000	0.130	0.490
-710.675	139.492	-0.130	0.173
-709.660	-200.000	-0.426	0.002
-708.645	-36.522	0.194	0.106
-707.631	198.608	0.174	-0.270
-706.616	-10.592	-0.193	-0.130
-705.602	800.000	0.068	0.295
-704.587	532.182	-0.073	0.175
-703.572	216.003	0.159	-0.256
-702.558	-135.226	0.174	0.021
-701.543	-102.483	-0.293	0.071
-700.529	-124.131	-0.276	0.044
-699.514	-88.569	-0.224	0.068
-698.499	360.476	0.213	0.433
-697.485	636.591	-0.065	-0.167
-696.470	-32.574	-0.098	0.056
-695.456	-200.000	0.018	0.149
-694.441	167.086	-0.158	-0.228
-693.426	-200.000	-0.008	-0.204
-692.412	262.716	0.154	0.271
-691.397	-110.416	0.324	0.068
-690.383	159.599	0.167	-0.235
-689.368	20.000	-0.134	-0.109
-688.354	-92.731	-0.210	-0.060
-687.339	-142.258	-0.382	-0.038
-686.324	26.343	0.139	0.118
-685.310	163.505	0.178	0.254
-684.295	-126.386	-0.054	0.008
-683.281	718.509	-0.163	-0.440
-682.266	-200.000	0.025	0.120
-681.251	40.996	-0.134	-0.123
-680.237	-200.000	-0.027	0.238
-679.222	-200.000	0.000	-0.104
-678.208	-200.000	-0.021	0.535
-677.193	392.249	0.084	0.177
-676.178	-200.000	-0.108	-0.487
-675.164	101.461	-0.153	0.180
-674.149	635.085	0.126	0.324
-673.135	-200.000	0.022	0.273
-672.120	800.000	0.099	0.283
-671.105	-200.000	-0.028	-0.164
-670.091	-63.827	0.240	-0.100
-669.076	-200.000	0.060	-0.361
-668.062	-186.729	-0.376	0.005
-667.047	-159.947	0.071	0.004
-666.032	28.574	0.057	-0.049
-665.018	468.332	-0.119	-0.270
-664.003	-100.551	-0.300	0.075
-662.989	-200.000	0.022	-0.118
-661.974	800.000	0.027	0.095
-660.959	800.000	0.040	0.149
-659.945	280.878	0.133	-0.241
-658.930	800.000	0.036	0.109
-657.916	-200.000	-0.015	-0.129
-656.901	61.509	-0.258	-0.260
-655.886	5.327	-0.229	-0.171
-654.872	800.000	-0.088	-0.301
-653.857	-200.000	0.000	0.173
-652.843	-200.000	-0.063	0.457
-651.828	-61.277	-0.091	0.039
-650.814	-43.953	0.300	0.153
-649.799	421.274	0.157	0.341
-648.784	18.308	-0.174	0.141
-647.770	-38.745	-0.027	-0.014
-646.755	496.005	-0.118	-0.275
-645.741	-18.683	-0.176	-0.111
-644.726	-75.518	-0.126	0.045
-643.711	-73.882	0.338	0.124
-642.697	-173.884	-0.151	0.005
-641.682	-200.000	0.006	0.113
-640.668	51.102	-0.079	-0.075
-639.653	165.276	-0.144	0.206
-638.638	334.147	-0.102	0.200
-637.624	27.174	0.099	0.084
-636.609	-136.201	-0.229	-0.027
-635.595	-186.031	-0.288	-0.004
-634.580	220.352	0.208	-0.338
-633.565	-179.776	-0.388	0.008
-632.551	182.563	-0.045	-0.067
-631.536	359.003	0.105	-0.212
-630.522	2.940	-0.036	0.027
-629.507	-114.325	-0.155	0.030
-628.492	-195.804	-0.523	-0.004
-627.478	-67.182	0.318	0.127
-626.463	74.626	-0.162	0.173
-625.449	332.885	0.010	0.020
-624.434	78.151	-0.107	0.116
-623.419	365.617	-0.072	0.147
-622.405	586.978	0.040	-0.100
-621.390	86.369	0.061	0.068
-620.376	-96.908	0.359	0.095
-619.361	0.167	0.108	0.078
-618.346	23.286	0.180	-0.149
-617.332	-200.000	0.010	-0.286
-616.317	387.881	-0.111	-0.233
-615.303	-200.000	-0.010	0.186
-614.288	-85.666	0.363	-0.114
-613.273	-44.950	-0.215	-0.108
-612.259	800.000	0.052	0.191
-611.244	-52.900	0.321	-0.150
-610.230	-92.592	-0.182	0.052
-609.215	-143.022	-0.106	0.010
-608.201	-75.781	0.120	0.043
-607.186	-159.666	0.321	-0.018
-606.171	133.894	-0.016	-0.021
-605.157	537.353	-0.070	-0.169
-604.142	401.202	0.086	-0.182
-603.128	-200.000	-0.028	-0.217
-602.113	-6.254	0.077	0.053
-601.098	59.437	-0.248	-0.247
-600.084	-134.865	0.252	0.031
-599.069	704.411	-0.041	-0.109
-598.055	-163.548	0.271	-0.013
-597.040	-37.368	0.004	-0.002
-596.025	-14.903	-0.230	-0.149
-595.011	183.615	0.140	0.209
-593.996	33.175	-0.155	-0.136
-592.982	-200.000	-0.004	-0.060
-591.967	-183.513	-0.224	0.004
-590.952	-134.869	0.107	0.013
-589.938	285.358	-0.065	0.119
-588.923	550.458	0.023	0.057
-587.909	-63.573	0.213	-0.088
-586.894	-79.660	0.305	-0.104
-585.879	-67.369	-0.293	0.117
-584.865	88.024	-0.193	-0.217
-583.850	-198.572	0.353	-0.002
-582.836	162.971	-0.122	0.174
-581.821	-124.575	-0.487	0.076
-580.806	-53.443	-0.479	-0.221
-579.792	109.441	-0.086	0.104
-578.777	-63.455	0.045	0.019
-577.763	289.134	0.050	0.092
-576.748	535.809	0.147	0.353
-575.733	-200.000	0.002	-0.343
-574.719	-148.258	-0.046	0.004
-573.704	-48.552	0.434	-0.211
-572.690	-185.880	0.276	-0.004
-571.675	61.153	-0.234	0.234
-570.661	-200.000	-0.027	0.183
-569.646	-152.760	-0.363	0.026
-568.631	800.000	-0.036	-0.136
-567.617	34.977	0.057	0.050
-566.602	213.445	-0.105	0.167
-565.588	-200.000	-0.053	-0.314
-564.573	-53.157	0.067	-0.031
-563.558	-200.000	0.000	0.036
-562.544	382.047	0.099	-0.205
-561.529	-88.616	0.447	-0.134
-560.515	246.815	-0.171	-0.291
-559.500	-200.000	0.007	-0.161
-558.485	-112.151	-0.340	0.069
-557.471	9.778	0.213	-0.163
-556.456	588.633	0.102	0.254
-555.442	11.937	-0.130	-0.101
-554.427	800.000	0.089	0.277
-553.412	-200.000	0.005	0.216
-552.398	-60.472	-0.114	-0.049
-551.383	800.000	-0.087	0.292
-550.369	-200.000	0.013	-0.332
-549.354	-86.017	0.319	0.100
-548.339	583.230	-0.112	-0.278
-547.325	777.874	0.047	0.129
-546.310	162.472	0.143	-0.202
-545.296	2.008	-0.062	-0.045
-544.281	-158.875	0.062	-0.004
-543.266	-200.000	0.009	0.449
-542.252	126.082	0.254	0.324
-541.237	-107.985	-0.030	-0.007
-540.223	36.407	0.021	0.019
-539.208	285.552	-0.045	-0.082
-538.193	-127.412	0.041	-0.006
-537.179	-200.000	-0.019	-0.175
-536.164	-32.543	0.212	-0.119
-535.150	-120.475	0.363	-0.062
-534.135	-151.126	0.278	-0.021
-533.121	219.498	-0.086	-0.138
-532.106	800.000	0.041	0.178
-531.091	-22.229	-0.250	0.153
-530.077	429.925	-0.013	-0.029
-529.062	497.044	0.040	-0.092
-528.048	-15.132	0.380	0.245
-527.033	447.006	0.060	-0.133
-526.018	-27.433	0.219	-0.128
-525.004	-30.736	-0.459	-0.262
-523.989	51.596	-0.058	0.056
-522.975	-24.719	-0.222	-0.133
-521.960	800.000	-0.019	-0.057
-520.945	77.280	-0.060	-0.064
-519.931	-81.530	0.187	-0.062
-518.916	-37.339	-0.076	-0.041
-517.902	-9.677	-0.044	0.030
-516.887	432.449	-0.146	0.318
-515.872	-6.938	-0.185	-0.127
-514.858	-100.337	-0.267	0.067
-513.843	-106.959	0.146	-0.032
-512.829	-139.620	-0.144	-0.016
-511.814	52.791	0.128	0.123
-510.799	-200.000	0.013	-0.247
-509.785	-171.165	-0.309	-0.011
-508.770	-11.548	-0.230	0.152
-507.756	196.139	-0.092	-0.140
-506.741	-120.726	0.082	-0.014
-505.726	800.000	0.125	-0.495
-504.712	77.905	0.162	-0.174
-503.697	-27.812	0.250	0.146
-502.683	-107.013	0.172	-0.038
-501.668	57.512	-0.201	0.197
-500.653	-24.445	0.397	-0.238
-499.639	-114.280	0.129	-0.025
-498.624	-200.000	-0.002	0.263
-497.610	800.000	-0.094	0.337
-496.595	261.764	0.040	-0.070
-495.581	800.000	-0.068	-0.230
-494.566	567.830	-0.015	0.037
-493.551	-192.650	-0.098	0.001
-492.537	-99.848	-0.297	-0.075
-491.522	-44.558	0.231	0.116
-490.508	-24.940	-0.259	0.155
-489.493	60.076	-0.164	0.163
-488.478	-70.323	-0.130	0.050
-487.464	568.116	-0.033	0.080
-486.449	-57.142	-0.149	-0.066
-485.435	17.388	0.286	-0.229
-484.420	-140.842	-0.092	0.010
-483.405	-5.033	-0.187	-0.130
-482.391	21.468	0.273	0.224
-481.376	249.612	-0.061	-0.104
-480.362	121.240	0.210	0.263
-479.347	-200.000	-0.063	0.322
-478.332	-47.228	-0.234	-0.115
-477.318	-200.000	0.022	-0.405
-476.303	188.137	-0.057	-0.085
-475.289	144.587	-0.234	-0.315
-474.274	1.654	-0.311	0.226
-473.259	-200.000	-0.037	0.198
-472.245	800.000	-0.071	-0.309
-471.230	-200.000	0.028	-0.152
-470.216	-200.000	-0.011	0.243
-469.201	-200.000	0.021	-0.126
-468.186	173.135	-0.079	0.115
-467.172	110.335	0.079	-0.096
-466.157	-198.596	0.587	0.003
-465.143	55.384	0.247	0.241
-464.128	-200.000	-0.032	0.483
-463.113	800.000	0.120	0.383
-462.099	-200.000	-0.005	-0.060
-461.084	6.336	-0.213	-0.159
-460.070	155.628	-0.189	-0.261
-459.055	800.000	-0.081	0.297
-458.040	-112.243	-0.401	-0.081
-457.026	28.137	-0.343	-0.291
-456.011	-154.968	-0.326	0.022
-454.997	-196.590	-0.288	0.002
-453.982	800.000	0.031	-0.134
-452.968	-17.107	-0.222	-0.141
-451.953	-119.602	-0.349	0.061
-450.938	800.000	-0.027	0.091
-449.924	-142.618	0.332	-0.033
-448.909	-111.475	-0.205	0.042
-447.895	55.825	0.211	-0.206
-446.880	-200.000	-0.042	0.323
-445.865	232.801	-0.042	0.069
-444.851	186.938	0.019	0.029
-443.836	131.649	0.154	-0.199
-442.822	40.303	-0.221	-0.200
-441.807	190.807	0.048	-0.073
-440.792	314.824	0.067	-0.127
-439.778	-200.000	-0.010	0.121
-438.763	-102.430	0.227	-0.055
-437.749	-158.550	-0.083	0.005
-436.734	128.685	0.178	0.228
-435.719	-4.784	-0.259	0.179
-434.705	-104.310	-0.111	-0.026
-433.690	75.333	-0.109	-0.116
-432.676	67.476	0.164	-0.168
-431.661	363.251	0.067	-0.135
-430.646	-200.000	-0.040	0.249
-429.632	38.457	0.263	0.235
-428.617	-200.000	0.024	0.143
-427.603	-59.808	0.078	0.034
-426.588	-63.349	-0.210	-0.087
-425.573	177.907	-0.192	0.281
-424.559	740.547	-0.018	0.048
-423.544	-200.000	-0.034	-0.253
-422.530	438.289	0.143	0.313
-421.515	800.000	0.111	0.316
-420.500	-121.149	-0.385	-0.065
-419.486	-200.000	0.016	-0.444
-418.471	-19.514	-0.115	-0.072
-417.457	-152.103	-0.233	-0.017
-416.442	44.748	-0.168	-0.155
-415.428	-197.358	0.316	0.002
-414.413	-142.213	0.376	-0.037
-413.398	13.607	0.104	-0.081
-412.384	-130.109	-0.169	0.023
-411.369	800.000	0.049	0.153
-410.355	159.235	-0.180	0.251
-409.340	-106.594	-0.227	-0.051
-408.325	90.340	-0.097	-0.109
-407.311	-200.000	0.004	0.265
-406.296	38.867	-0.163	-0.146
-405.282	360.377	-0.155	0.312
-404.267	402.944	-0.042	0.088
-403.252	-113.922	-0.176	-0.034
-402.238	-185.123	-0.397	-0.006
-401.223	800.000	-0.037	0.127
-400.209	-200.000	0.039	-0.369
-399.194	96.449	-0.079	0.091
-398.179	-200.000	0.023	0.318
-397.165	42.948	-0.195	-0.178
-396.150	39.139	0.248	0.222
-395.136	-12.575	0.086	0.056
-394.121	800.000	-0.044	0.166
-393.106	-200.000	-0.043	-0.337
-392.092	-29.773	-0.152	0.087
-391.077	14.422	-0.215	-0.168
-390.063	174.027	-0.133	0.193
-389.048	624.987	-0.076	0.193
-388.033	-200.000	-0.014	0.155
-387.019	-43.227	0.253	0.129
-386.004	-143.123	-0.164	0.016
-384.990	-200.000	0.012	-0.122
-383.975	102.112	0.076	-0.089
-382.960	-43.025	-0.188	-0.096
-381.946	800.000	0.088	0.309
-380.931	-3.909	0.310	-0.216
-379.917	20.652	0.135	-0.110
-378.902	263.513	-0.161	-0.281
-377.888	-77.820	-0.264	-0.092
-376.873	800.000	-0.034	0.107
-375.858	-61.132	0.345	0.146
-374.844	-48.369	0.208	0.101
-373.829	800.000	0.055	-0.233
-372.815	-108.111	0.273	-0.059
-371.800	-114.733	-0.087	-0.017
-370.785	131.053	-0.060	0.077
-369.771	-200.000	0.006	-0.232
-368.756	231.130	0.182	0.299
-367.742	-200.000	-0.009	-0.091
-366.727	-105.460	-0.205	-0.047
-365.712	465.869	0.049	-0.110
-364.698	23.656	0.294	-0.243
-363.683	-37.247	0.229	-0.123
-362.669	130.687	0.128	-0.165
-361.654	800.000	-0.107	0.341
-360.639	156.777	-0.080	0.110
-359.625	-200.000	0.003	0.082
-358.610	47.080	-0.168	0.157
-357.596	223.473	0.131	-0.212
-356.581	-102.955	0.131	-0.031
-355.566	-200.000	0.011	-0.148
-354.552	-133.213	-0.249	0.032
-353.537	97.180	0.263	-0.302
-352.523	33.843	0.190	-0.165
-351.508	585.297	-0.072	-0.178
-350.493	79.891	-0.080	-0.086
-349.479	291.012	0.100	0.182
-348.464	-118.094	0.204	0.036
-347.450	-144.876	0.131	-0.012
-346.435	717.606	0.117	0.311
-345.420	-200.000	-0.017	-0.163
-344.406	800.000	-0.095	0.412
-343.391	334.936	0.087	-0.168
-342.377	-92.612	-0.251	0.070
-341.362	-113.152	-0.277	0.055
-340.348	-41.695	-0.214	0.110
-339.333	58.904	0.098	0.097
-338.318	248.907	0.179	-0.303
-337.304	-200.000	0.040	-0.182
-336.289	-170.581	-0.310	-0.011
-335.275	-106.391	-0.080	-0.018
-334.260	77.166	0.065	0.069
-333.245	176.305	-0.061	0.089
-332.231	470.154	-0.149	-0.334
-331.216	459.397	0.068	-0.151
-330.202	-59.155	0.076	-0.033
-329.187	-61.445	-0.284	0.119
-328.172	215.590	-0.344	0.546
-327.158	800.000	0.026	-0.077
-326.143	-200.000	0.012	-0.080
-325.129	800.000	0.022	-0.063
-324.114	800.000	-0.010	-0.036
-323.099	-138.184	-0.231	0.026
-322.085	-116.102	-0.226	-0.042
-321.070	423.461	0.054	0.117
-320.056	-69.951	0.228	-0.087
-319.041	226.006	-0.183	0.296
-318.026	329.322	0.021	0.040
-317.012	-40.675	0.262	-0.136
-315.997	-31.417	-0.080	-0.045
-314.983	318.658	-0.110	-0.208
-313.968	494.016	0.143	-0.328
-312.953	30.136	0.145	0.124
-311.939	709.763	0.055	0.146
-310.924	-200.000	0.017	-0.264
-309.910	-200.000	-0.024	-0.129
-308.895	99.692	0.073	-0.084
-307.880	24.267	-0.112	0.092
-306.866	109.568	0.144	0.173
-305.851	-200.000	-0.032	0.232
-304.837	-148.382	-0.312	-0.026
-303.822	596.669	-0.073	-0.180
-302.807	-200.000	0.013	0.069
-301.793	-18.720	0.129	-0.081
-300.778	800.000	-0.045	0.187
-299.764	-144.185	-0.207	0.019
-298.749	800.000	-0.084	-0.310
-297.735	-134.962	0.493	0.060
-296.720	-40.185	-0.235	-0.122
-295.705	-71.405	-0.112	0.042
-294.691	-15.562	-0.158	-0.101
-293.676	284.004	-0.183	-0.330
-292.662	-200.000	-0.035	-0.306
-291.647	-102.309	0.099	-0.024
-290.632	153.970	0.227	-0.312
-289.618	-200.000	-0.046	-0.329
-288.603	-34.774	0.196	-0.107
-287.589	-110.999	0.076	-0.016
-286.574	384.363	0.097	-0.199
-285.559	-186.588	0.268	-0.004
-284.545	-147.181	-0.343	-0.029
-283.530	-200.000	-0.097	0.433
-282.516	-76.584	0.078	-0.027
-281.501	-150.344	0.261	-0.020
-280.486	133.449	0.082	-0.106
-279.472	-200.000	-0.016	-0.257
-278.457	378.092	0.070	0.143
-277.443	206.754	0.178	0.277
-276.428	-70.342	-0.293	-0.111
-275.413	309.330	0.077	-0.144
-274.399	-51.197	0.338	-0.158
-273.384	800.000	-0.039	-0.114
-272.370	250.277	-0.127	0.215
-271.355	227.505	0.191	-0.310
-270.340	121.733	-0.100	-0.124
-269.326	160.132	0.234	-0.326
-268.311	800.000	-0.081	0.260
-267.297	-24.092	0.223	0.133
-266.282	6.191	0.126	0.094
-265.267	-200.000	-0.005	-0.111
-264.253	105.946	0.079	0.093
-263.238	-166.859	-0.280	0.011
-262.224	-10.768	0.021	0.014
-261.209	-200.000	0.041	0.351
-260.195	24.138	-0.058	0.048
-259.180	-15.220	0.218	0.139
-258.165	165.974	-0.372	-0.525
-257.151	-200.000	0.006	-0.382
-256.136	347.263	-0.118	-0.231
-255.122	175.464	-0.104	0.150
-254.107	265.091	0.068	-0.118
-253.092	-48.877	-0.224	0.107
-252.078	-105.791	-0.209	0.047
-251.063	-48.757	0.215	-0.103
-250.049	-56.360	0.137	-0.061
-249.034	-200.000	-0.062	0.476
-248.019	183.449	-0.087	-0.129
-247.005	308.356	-0.158	0.294
-245.990	-12.360	0.353	0.230
-244.976	-29.105	0.228	-0.130
-243.961	50.270	-0.196	0.184
-242.946	745.980	0.105	0.281
-241.932	-200.000	0.007	0.310
-240.917	-175.001	0.311	0.009
-239.903	-35.366	-0.059	-0.032
-238.888	800.000	-0.061	-0.253
-237.873	800.000	0.046	0.183
-236.859	361.561	-0.028	-0.056
-235.844	-200.000	0.022	0.188
-234.830	137.817	-0.051	0.067
-233.815	80.870	0.180	0.194
-232.800	-7.236	0.278	-0.188
-231.786	800.000	0.081	-0.244
-230.771	137.326	0.130	-0.170
-229.757	525.424	0.036	0.083
-228.742	96.881	-0.087	0.099
-227.727	-200.000	-0.036	-0.190
-226.713	12.929	-0.247	0.190
-225.698	-200.000	-0.031	0.225
-224.684	-65.652	0.191	0.076
-223.669	-197.782	0.268	-0.002
-222.655	31.002	-0.195	0.167
-221.640	-16.666	-0.046	-0.029
-220.625	-128.887	0.312	0.044
-219.611	-54.790	0.319	0.143
-218.596	-121.072	-0.186	0.031
-217.582	-39.898	-0.224	0.117
-216.567	-15.556	-0.341	0.217
-215.552	139.471	0.336	0.441
-214.538	7.908	0.151	0.113
-213.523	42.033	0.160	0.145
-212.509	-121.478	-0.274	0.045
-211.494	18.381	-0.257	-0.204
-210.479	-17.506	0.245	0.153
-209.465	86.908	0.290	-0.319
-208.450	-17.030	-0.134	-0.084
-207.436	166.249	0.052	0.073
-206.421	23.883	0.367	0.301
-205.406	55.369	-0.189	-0.182
-204.392	52.947	0.135	0.129
-203.377	-117.294	0.076	0.014
-202.363	-200.000	0.363	-0.001
-201.348	22.411	0.249	-0.203
-200.333	800.000	-0.090	-0.362
-199.319	10.155	-0.099	-0.075
-198.304	6.641	0.233	-0.173
-197.290	42.319	-0.209	0.189
-196.275	118.151	-0.056	-0.069
-195.260	-20.685	0.202	-0.123
-194.246	800.000	0.082	0.262
-193.231	-71.670	0.174	-0.065
-192.217	-200.000	0.042	0.324
-191.202	1.619	0.129	0.092
-190.187	152.692	-0.023	-0.031
-189.173	800.000	-0.028	0.088
-188.158	-200.000	-0.077	-0.351
-187.144	49.320	-0.121	-0.114
-186.129	-178.311	-0.112	-0.003
-185.114	106.895	-0.086	-0.102
-184.100	348.145	0.080	0.157
-183.085	-155.930	-0.037	-0.002
-182.071	63.882	0.206	-0.206
-181.056	-63.113	0.451	0.185
-180.042	-200.000	-0.003	-0.110
-179.027	800.000	0.069	-0.285
-178.012	-179.792	0.149	-0.003
-176.998	12.940	-0.203	-0.156
-175.983	1.226	0.148	0.105
-174.969	65.643	0.232	0.233
-173.954	188.672	0.311	0.463
-172.939	33.308	-0.273	0.236
-171.925	196.939	-0.059	-0.089
-170.910	-135.202	0.240	-0.029
-169.896	-10.373	0.181	0.119
-168.881	-200.000	0.018	0.149
-167.866	638.783	0.060	-0.152
-166.852	800.000	-0.084	0.284
-165.837	-52.090	0.152	-0.070
-164.823	800.000	-0.063	0.227
-163.808	778.182	-0.065	0.176
-162.793	-154.003	0.248	0.017
-161.779	-21.748	0.112	0.068
-160.764	-200.000	0.077	0.571
-159.750	-200.000	-0.007	-0.206
-158.735	-0.923	-0.291	-0.205
-157.720	-82.793	-0.196	-0.063
-156.706	-8.075	0.406	0.272
-155.691	800.000	-0.057	-0.161
-154.677	-77.661	-0.400	-0.138
-153.662	800.000	0.050	-0.154
-152.647	800.000	-0.044	0.126
-151.633	444.263	0.017	0.038
-150.618	116.924	-0.292	-0.356
-149.604	0.294	-0.355	-0.252
-148.589	44.893	0.496	0.454
-147.574	89.736	0.121	-0.134
-146.560	800.000	-0.065	-0.253
-145.545	-70.607	0.191	-0.072
-144.531	-200.000	-0.030	-0.470
-143.516	-119.665	-0.179	0.031
-142.502	-144.622	-0.235	-0.021
-141.487	-103.315	0.314	0.074
-140.472	424.773	0.156	0.334
-139.458	244.273	0.161	0.269
-138.443	-51.722	0.197	-0.091
-137.429	-200.000	-0.058	0.649
-136.414	80.384	0.063	0.068
-135.399	-113.481	0.094	0.018
-134.385	-200.000	-0.004	-0.147
-133.370	17.040	0.174	-0.137
-132.356	81.214	0.159	0.170
-131.341	159.526	0.131	0.181
-130.326	800.000	-0.032	-0.136
-129.312	112.864	0.227	-0.273
-128.297	15.726	-0.192	0.150
-127.283	-21.024	-0.302	0.184
-126.268	-58.887	-0.170	-0.073
-125.253	231.479	0.070	-0.114
-124.239	718.590	0.130	-0.344
-123.224	-109.667	-0.258	-0.054
-122.210	-105.620	0.195	-0.044
