DTS Sentinel unit serial number:	SN413079Multiplexer serial number:	ORYXHardware model number:	OX4-SRSoftware version number:	ORYX F/W v4.00 Oryx Data Collector v3.7.2.0data status	okinstallation	princeton_trtdifferential loss correction	single-endedforward channel	channel 4reverse channel	N/Adate	2019/09/14time	19:57:34forward acquisition time	60.00reverse acquisition time	0.00gamma	496.2192k internal	0.2305k external	0.2305temperature offset calibration	1.0099default loss term (dB/km)	0.3790temperature slope calibration	1.0000multiplexer offset coefficient	1.0000multiplexer slope coefficient	1.0000fibre end	0.00T internal ref (°C)	34.16T ext. ref 1 (°C)	4.89T ext. ref 2 (°C)	28.42length (m)	temperature (°C)	Stokes	anti-Stokes-747.200	-68.708	0.368	-0.145
-746.185	-200.000	0.035	0.317
-745.171	800.000	-0.015	-0.043
-744.156	111.598	0.042	0.052
-743.142	-28.876	0.330	-0.193
-742.127	461.764	-0.118	0.269
-741.112	-168.620	-0.224	-0.009
-740.098	-98.751	0.097	-0.025
-739.083	206.358	0.077	0.123
-738.069	133.317	-0.265	0.348
-737.054	-110.268	-0.367	0.078
-736.039	-200.000	0.023	-0.125
-735.025	800.000	0.017	0.066
-734.010	-12.125	-0.277	-0.185
-732.996	-35.362	0.136	0.075
-731.981	70.271	-0.087	-0.091
-730.966	800.000	0.037	0.140
-729.952	63.759	-0.146	0.149
-728.937	-56.745	0.079	-0.035
-727.923	-97.528	-0.155	-0.041
-726.908	800.000	-0.103	0.448
-725.894	800.000	-0.044	0.156
-724.879	800.000	-0.105	-0.436
-723.864	155.945	-0.203	-0.285
-722.850	70.423	-0.041	-0.043
-721.835	-200.000	-0.020	-0.166
-720.821	-105.659	-0.267	-0.061
-719.806	50.600	0.247	0.238
-718.791	131.998	0.056	0.073
-717.777	-200.000	-0.001	-0.298
-716.762	800.000	-0.069	-0.256
-715.748	9.793	-0.072	0.056
-714.733	20.215	-0.193	0.158
-713.718	106.461	0.077	0.092
-712.704	41.267	-0.089	0.082
-711.689	71.040	0.023	-0.024
-710.675	-62.332	0.100	-0.042
-709.660	2.673	-0.087	0.064
-708.645	569.859	0.039	0.096
-707.631	800.000	-0.041	-0.115
-706.616	211.560	0.127	0.204
-705.602	77.009	-0.255	-0.275
-704.587	17.214	-0.242	-0.195
-703.572	800.000	0.049	0.154
-702.558	184.954	0.120	0.180
-701.543	-64.684	0.142	0.058
-700.529	-33.955	-0.160	0.089
-699.514	272.884	-0.198	-0.355
-698.499	-69.815	0.097	0.038
-697.485	-76.405	0.347	-0.124
-696.470	-200.000	-0.060	-0.422
-695.456	18.708	0.094	0.077
-694.441	-74.825	-0.145	-0.053
-693.426	56.942	-0.255	-0.253
-692.412	-110.095	-0.200	0.042
-691.397	-200.000	0.029	-0.192
-690.383	717.569	-0.047	0.127
-689.368	-200.000	-0.017	0.094
-688.354	-200.000	0.005	-0.294
-687.339	-114.935	0.104	-0.020
-686.324	-27.915	0.242	0.142
-685.310	-200.000	-0.037	0.190
-684.295	-0.780	0.093	0.067
-683.281	-79.916	-0.091	0.031
-682.266	-141.887	-0.300	-0.030
-681.251	-200.000	0.083	0.429
-680.237	-111.992	-0.163	0.033
-679.222	259.159	0.283	-0.497
-678.208	-200.000	0.012	-0.189
-677.193	136.794	0.030	-0.040
-676.178	-200.000	0.006	-0.219
-675.164	438.563	-0.053	-0.118
-674.149	-91.044	-0.235	-0.068
-673.135	55.138	-0.056	-0.055
-672.120	-132.510	0.359	0.047
-671.105	-160.587	0.146	0.008
-670.091	-39.887	-0.314	0.166
-669.076	169.171	0.010	-0.014
-668.062	-33.085	-0.515	-0.290
-667.047	-200.000	-0.026	0.279
-666.032	-49.931	-0.277	0.133
-665.018	167.559	-0.056	0.080
-664.003	50.025	-0.070	-0.067
-662.989	-73.029	-0.088	0.033
-661.974	83.011	-0.164	-0.181
-660.959	800.000	0.153	-0.533
-659.945	-156.675	0.306	-0.019
-658.930	132.260	-0.167	-0.218
-657.916	-200.000	0.015	-0.152
-656.901	275.892	0.130	-0.234
-655.886	-42.992	0.310	0.160
-654.872	-65.112	-0.258	-0.106
-653.857	168.337	0.159	-0.230
-652.843	65.346	-0.045	-0.046
-651.828	-123.271	-0.207	0.034
-650.814	800.000	0.138	0.508
-649.799	-175.108	-0.172	0.005
-648.784	-145.922	-0.182	0.016
-647.770	-200.000	0.013	0.115
-646.755	800.000	0.072	-0.304
-645.741	73.597	-0.177	-0.188
-644.726	280.822	0.009	-0.016
-643.711	-87.087	0.072	0.022
-642.697	154.426	-0.118	0.165
-641.682	800.000	0.051	0.178
-640.668	-189.696	-0.120	0.001
-639.653	-200.000	-0.013	-0.207
-638.638	107.862	-0.317	0.382
-637.624	18.247	0.293	-0.237
-636.609	-121.907	-0.219	0.037
-635.595	800.000	0.073	-0.234
-634.580	-126.821	-0.251	-0.038
-633.565	-99.105	-0.159	-0.041
-632.551	612.784	-0.027	0.069
-631.536	-18.833	-0.407	-0.257
-630.522	-82.440	0.280	-0.092
-629.507	-163.855	-0.393	0.019
-628.492	-30.700	0.158	0.090
-627.478	-89.630	0.060	0.018
-626.463	-200.000	-0.075	-0.351
-625.449	-65.627	-0.179	-0.073
-624.434	-34.838	-0.045	0.025
-623.419	-68.949	0.195	0.076
-622.405	99.928	0.196	-0.230
-621.390	-200.000	0.014	-0.095
-620.376	-76.335	0.229	-0.082
-619.361	-58.664	-0.283	0.124
-618.346	402.576	-0.162	0.346
-617.332	-24.503	0.152	0.092
-616.317	800.000	0.044	-0.183
-615.303	147.969	0.074	0.101
-614.288	-200.000	-0.003	-0.246
-613.273	800.000	-0.041	0.174
-612.259	110.016	-0.125	0.152
-611.244	-161.925	-0.279	0.014
-610.230	66.342	0.053	-0.054
-609.215	-83.960	-0.388	-0.125
-608.201	183.829	-0.152	0.228
-607.186	231.013	0.048	-0.079
-606.171	800.000	-0.048	-0.176
-605.157	-200.000	-0.046	-0.463
-604.142	101.404	0.085	-0.100
-603.128	-88.077	-0.345	0.105
-602.113	-200.000	-0.028	0.319
-601.098	224.539	-0.118	0.193
-600.084	368.895	0.096	-0.197
-599.069	179.916	0.068	-0.101
-598.055	61.502	0.046	0.046
-597.040	-173.491	0.318	-0.010
-596.025	169.833	0.104	-0.150
-595.011	-56.133	-0.296	0.133
-593.996	800.000	-0.048	0.187
-592.982	-100.096	-0.145	0.037
-591.967	-129.604	-0.123	0.017
-590.952	274.777	-0.023	0.041
-589.938	123.495	0.056	-0.072
-588.923	-152.524	-0.439	-0.032
-587.909	-167.869	0.396	0.016
-586.894	303.217	0.175	0.329
-585.879	361.234	0.231	-0.467
-584.865	-92.749	0.078	0.022
-583.850	-200.000	-0.065	0.298
-582.836	19.624	-0.110	0.090
-581.821	-55.726	-0.097	-0.044
-580.806	182.938	-0.077	-0.114
-579.792	557.590	-0.066	0.161
-578.777	-133.962	-0.068	0.009
-577.763	-134.746	-0.096	-0.012
-576.748	300.468	-0.131	0.245
-575.733	49.747	0.038	0.036
-574.719	-68.869	-0.213	-0.083
-573.704	38.491	-0.143	-0.129
-572.690	-200.000	-0.015	-0.097
-571.675	-200.000	-0.016	-0.169
-570.661	223.501	-0.074	0.120
-569.646	221.369	0.164	-0.266
-568.631	-200.000	0.070	-0.401
-567.617	133.073	0.166	-0.217
-566.602	177.876	-0.252	0.372
-565.588	-31.111	-0.260	0.148
-564.573	777.801	0.048	-0.132
-563.558	-90.253	-0.117	-0.034
-562.544	-200.000	0.002	-0.089
-561.529	20.612	-0.115	0.094
-560.515	549.561	0.058	0.140
-559.500	-200.000	-0.024	0.291
-558.485	-52.544	-0.053	-0.025
-557.471	95.185	-0.075	-0.087
-556.456	40.802	0.357	0.325
-555.442	-115.777	0.342	0.065
-554.427	-145.827	-0.164	0.015
-553.412	-54.897	0.077	-0.035
-552.398	-62.184	-0.055	0.023
-551.383	800.000	0.164	0.468
-550.369	-18.170	0.143	0.091
-549.354	746.878	0.039	0.105
-548.339	231.993	-0.141	-0.233
-547.325	172.050	0.045	0.065
-546.310	-200.000	0.091	-0.505
-545.296	161.099	0.134	-0.189
-544.281	486.218	-0.133	-0.306
-543.266	-61.036	0.602	0.257
-542.252	-130.969	-0.237	0.032
-541.237	-48.304	-0.215	0.105
-540.223	-114.490	0.370	0.072
-539.208	281.551	-0.211	0.381
-538.193	-88.860	0.036	-0.011
-537.179	800.000	0.038	-0.107
-536.164	101.694	0.118	-0.139
-535.150	-200.000	-0.016	0.276
-534.135	800.000	0.041	-0.161
-533.121	84.318	0.177	0.195
-532.106	61.132	-0.123	-0.123
-531.091	304.673	-0.037	-0.070
-530.077	-101.408	0.214	-0.053
-529.062	-64.727	0.080	-0.033
-528.048	-75.172	0.178	-0.064
-527.033	48.367	-0.245	-0.232
-526.018	-70.526	0.304	0.116
-525.004	-200.000	-0.012	0.212
-523.989	-96.675	-0.034	-0.009
-522.975	152.948	0.159	-0.219
-521.960	-28.819	0.178	-0.104
-520.945	800.000	0.089	0.328
-519.931	-200.000	0.020	0.088
-518.916	136.942	-0.249	-0.328
-517.902	-68.394	-0.103	-0.040
-516.887	139.939	-0.183	0.243
-515.872	-127.061	0.177	-0.026
-514.858	-98.259	-0.132	0.034
-513.843	11.049	-0.104	-0.080
-512.829	244.738	0.177	0.300
-511.814	-48.854	-0.133	0.064
-510.799	94.877	-0.135	0.155
-509.785	47.410	0.282	0.265
-508.770	-81.048	-0.146	0.049
-507.756	-130.148	0.081	0.011
-506.741	8.530	-0.124	-0.094
-505.726	41.281	0.103	0.094
-504.712	142.765	0.133	-0.179
-503.697	-200.000	0.041	0.209
-502.683	23.019	-0.089	0.074
-501.668	41.868	0.087	0.079
-500.653	-200.000	-0.006	-0.282
-499.639	40.929	0.157	0.143
-498.624	325.933	-0.103	0.199
-497.610	-118.053	0.451	0.081
-496.595	155.813	0.180	0.250
-495.581	154.824	-0.166	0.230
-494.566	-24.139	0.387	-0.233
-493.551	616.830	-0.073	0.184
-492.537	-72.249	0.381	0.143
-491.522	5.345	0.078	0.058
-490.508	800.000	0.037	-0.136
-489.493	65.863	-0.103	-0.105
-488.478	-200.000	0.001	-0.092
-487.464	38.689	0.126	-0.113
-486.449	-103.562	-0.299	0.071
-485.435	-62.897	-0.312	-0.130
-484.420	-200.000	-0.080	-0.511
-483.405	-47.945	0.140	0.068
-482.391	800.000	-0.006	-0.023
-481.376	127.189	0.258	0.330
-480.362	554.348	-0.072	-0.175
-479.347	-183.159	-0.197	0.003
-478.332	-71.647	0.298	-0.112
-477.318	77.694	0.099	0.107
-476.303	-195.059	-0.317	0.002
-475.289	-200.000	-0.071	-0.385
-474.274	-25.793	0.089	-0.053
-473.259	591.810	-0.021	-0.051
-472.245	800.000	0.070	-0.263
-471.230	-100.877	0.126	-0.031
-470.216	800.000	-0.090	-0.375
-469.201	5.206	-0.149	0.111
-468.186	199.621	0.111	0.171
-467.172	-79.237	-0.176	-0.060
-466.157	68.291	-0.145	-0.150
-465.143	154.361	-0.183	0.253
-464.128	547.076	-0.041	0.098
-463.113	-29.525	-0.068	0.039
-462.099	-75.169	0.144	0.052
-461.084	-108.929	0.185	0.040
-460.070	4.429	-0.341	0.252
-459.055	-200.000	0.025	-0.189
-458.040	357.532	0.104	0.209
-457.026	178.713	-0.188	0.276
-456.011	-125.346	-0.400	0.061
-454.997	-133.180	0.194	0.025
-453.982	66.925	-0.194	-0.199
-452.968	-1.764	0.134	-0.095
-451.953	49.811	-0.113	-0.107
-450.938	-148.722	0.200	-0.016
-449.924	-83.213	-0.272	0.088
-448.909	685.461	-0.106	-0.280
-447.895	101.713	-0.167	-0.195
-446.880	37.228	-0.327	0.291
-445.865	800.000	-0.031	0.124
-444.851	-45.335	0.153	0.076
-443.836	407.222	0.097	-0.205
-442.822	-79.646	-0.099	-0.034
-441.807	537.103	0.066	-0.157
-440.792	232.812	0.179	-0.297
-439.778	-200.000	0.003	-0.251
-438.763	-86.047	0.089	0.028
-437.749	18.365	-0.195	-0.156
-436.734	-200.000	-0.033	0.383
-435.719	-20.340	-0.188	-0.117
-434.705	-99.175	0.230	-0.058
-433.690	400.285	-0.087	0.183
-432.676	93.349	0.167	0.190
-431.661	800.000	-0.081	0.269
-430.646	220.936	0.209	-0.338
-429.632	417.772	-0.059	-0.127
-428.617	-118.926	-0.141	-0.025
-427.603	89.087	0.176	-0.197
-426.588	-126.017	0.267	-0.040
-425.573	19.730	0.151	-0.122
-424.559	521.567	-0.073	-0.171
-423.544	-48.968	-0.313	0.151
-422.530	-119.782	-0.367	0.064
-421.515	-38.791	0.541	0.287
-420.500	-200.000	0.012	0.061
-419.486	214.210	-0.088	-0.140
-418.471	-200.000	0.040	0.428
-417.457	-135.800	-0.096	-0.011
-416.442	447.802	0.062	-0.137
-415.428	161.909	0.079	0.111
-414.413	237.521	0.131	0.219
-413.398	46.510	-0.134	-0.125
-412.384	-60.221	0.476	-0.204
-411.369	277.228	-0.260	0.464
-410.355	800.000	-0.143	-0.401
-409.340	20.868	0.156	0.127
-408.325	112.664	0.113	0.137
-407.311	186.542	-0.092	0.137
-406.296	191.015	-0.058	-0.088
-405.282	393.186	-0.077	0.161
-404.267	198.556	0.211	0.324
-403.252	-56.685	-0.147	0.065
-402.238	117.976	-0.231	0.286
-401.223	-75.913	0.080	0.028
-400.209	-200.000	-0.030	-0.333
-399.194	-104.401	0.271	0.063
-398.179	103.507	-0.300	0.353
-397.165	-137.156	0.215	0.025
-396.150	800.000	-0.035	0.113
-395.136	15.104	0.231	0.181
-394.121	-106.778	0.361	0.081
-393.106	136.985	-0.025	0.032
-392.092	-39.133	0.129	0.068
-391.077	69.596	-0.125	-0.129
-390.063	507.238	0.135	0.314
-389.048	800.000	0.119	-0.356
-388.033	71.419	0.162	0.168
-387.019	189.156	0.125	-0.188
-386.004	52.790	-0.183	0.175
-384.990	-28.403	-0.321	-0.186
-383.975	369.182	0.171	-0.347
-382.960	800.000	0.045	0.175
-381.946	800.000	0.135	-0.378
-380.931	58.205	-0.148	0.145
-379.917	-97.840	0.264	0.068
-378.902	800.000	0.039	-0.111
-377.888	77.925	-0.035	0.037
-376.873	-200.000	-0.042	-0.263
-375.858	-200.000	-0.031	-0.220
-374.844	104.875	0.140	-0.166
-373.829	-48.336	-0.096	0.046
-372.815	340.517	0.168	0.329
-371.800	-200.000	0.025	0.125
-370.785	646.032	0.040	0.102
-369.771	-152.044	0.204	-0.015
-368.756	416.565	0.162	0.347
-367.742	-115.551	-0.339	-0.064
-366.727	17.451	-0.064	0.051
-365.712	-200.000	0.002	-0.491
-364.698	-2.227	-0.235	0.165
-363.683	-200.000	0.036	0.274
-362.669	-20.994	0.145	0.089
-361.654	316.428	-0.077	-0.146
-360.639	-116.901	-0.122	0.022
-359.625	-35.956	-0.141	-0.076
-358.610	35.706	-0.264	0.232
-357.596	-6.318	0.249	0.171
-356.581	210.224	-0.214	-0.337
-355.566	81.660	-0.248	-0.269
-354.552	-58.905	0.430	0.186
-353.537	-200.000	0.051	-0.240
-352.523	19.139	0.238	-0.192
-351.508	800.000	-0.057	-0.227
-350.493	76.201	0.163	-0.173
-349.479	11.308	-0.338	0.259
-348.464	-87.012	-0.071	-0.022
-347.450	-59.372	0.144	0.062
-346.435	-38.248	-0.115	-0.061
-345.420	-4.312	0.051	-0.036
-344.406	-200.000	-0.006	0.062
-343.391	192.040	-0.075	0.113
-342.377	117.415	0.079	-0.097
-341.362	-132.270	-0.198	-0.026
-340.348	24.770	0.085	-0.071
-339.333	-200.000	0.025	-0.141
-338.318	-200.000	0.050	0.260
-337.304	112.003	-0.097	-0.118
-336.289	78.751	-0.188	-0.202
-335.275	-200.000	-0.008	-0.223
-334.260	-148.206	-0.153	-0.013
-333.245	800.000	0.024	0.074
-332.231	137.930	-0.135	0.177
-331.216	-67.565	0.149	0.058
-330.202	26.327	-0.054	-0.045
-329.187	180.685	0.093	0.137
-328.172	291.517	-0.164	-0.300
-327.158	409.643	-0.085	0.181
-326.143	344.538	0.017	-0.034
-325.129	24.046	0.063	-0.052
-324.114	-106.240	-0.222	-0.050
-323.099	-62.313	0.414	0.172
-322.085	-19.086	0.189	-0.118
-321.070	-200.000	0.030	0.188
-320.056	-3.700	0.146	0.102
-319.041	84.488	-0.250	-0.274
-318.026	70.222	-0.121	0.125
-317.012	-112.127	0.100	0.020
-315.997	800.000	0.009	0.035
-314.983	268.588	-0.097	0.171
-313.968	-120.698	0.396	0.067
-312.953	86.407	-0.120	0.132
-311.939	-36.153	-0.221	-0.119
-310.924	584.563	0.065	-0.159
-309.910	40.202	-0.281	0.253
-308.895	-7.058	0.231	0.157
-307.880	-21.215	0.195	0.119
-306.866	84.130	0.169	-0.185
-305.851	-39.399	0.274	0.144
-304.837	-200.000	0.048	0.214
-303.822	-200.000	0.011	0.055
-302.807	-120.044	0.157	0.027
-301.793	-72.414	0.074	0.027
-300.778	-104.424	0.349	-0.081
-299.764	144.059	0.273	0.364
-298.749	-26.992	0.048	0.028
-297.735	-46.407	0.115	0.057
-296.720	800.000	0.020	-0.086
-295.705	-153.896	-0.174	0.012
-294.691	-200.000	-0.001	0.144
-293.676	-123.732	-0.095	0.015
-292.662	-200.000	0.070	-0.355
-291.647	-13.610	-0.244	-0.158
-290.632	-128.980	-0.335	-0.047
-289.618	800.000	0.010	0.031
-288.603	-84.697	-0.190	-0.060
-287.589	115.555	0.135	0.165
-286.574	-200.000	0.055	0.339
-285.559	800.000	0.047	0.165
-284.545	9.081	-0.193	0.146
-283.530	-108.899	-0.237	0.051
-282.516	800.000	-0.035	-0.102
-281.501	231.732	0.094	-0.154
-280.486	-23.599	0.209	0.125
-279.472	301.325	0.094	0.173
-278.457	-200.000	-0.034	0.163
-277.443	-101.913	0.265	0.064
-276.428	149.451	-0.107	-0.145
-275.413	58.398	0.104	-0.102
-274.399	-29.131	0.328	0.188
-273.384	-68.386	-0.384	0.149
-272.370	-107.611	0.106	-0.023
-271.355	-129.131	-0.220	-0.031
-270.340	15.986	0.226	-0.178
-269.326	-58.137	-0.286	-0.124
-268.311	-38.079	-0.243	-0.129
-267.297	-137.119	0.248	-0.028
-266.282	-147.465	-0.117	-0.010
-265.267	167.435	0.058	-0.082
-264.253	103.634	-0.120	0.141
-263.238	-130.472	0.269	-0.036
-262.224	-102.396	0.298	0.071
-261.209	61.226	-0.138	-0.137
-260.195	-200.000	0.001	0.278
-259.180	-200.000	-0.034	-0.308
-258.165	17.923	0.123	0.098
-257.151	54.551	0.425	0.409
-256.136	17.440	0.245	0.195
-255.122	125.500	0.029	0.037
-254.107	-200.000	0.002	-0.050
-253.092	-200.000	0.056	0.302
-252.078	-64.789	-0.147	-0.059
-251.063	-139.684	-0.122	0.013
-250.049	-200.000	0.016	-0.124
-249.034	-187.486	0.362	-0.005
-248.019	330.136	0.110	-0.212
-247.005	-167.786	-0.100	-0.004
-245.990	2.650	-0.059	-0.043
-244.976	-51.540	0.049	0.023
-243.961	-200.000	0.009	-0.237
-242.946	-87.510	0.240	0.072
-241.932	-200.000	0.057	-0.534
-240.917	634.869	-0.101	-0.255
-239.903	211.881	-0.164	0.257
-238.888	-200.000	0.005	0.215
-237.873	-30.371	0.074	0.042
-236.859	-102.295	-0.053	0.013
-235.844	6.246	0.262	-0.194
-234.830	-200.000	0.092	0.460
-233.815	24.190	-0.016	0.013
-232.800	-200.000	-0.042	-0.436
-231.786	-81.800	-0.204	0.067
-230.771	-200.000	0.008	-0.173
-229.757	201.072	0.178	-0.273
-228.742	271.447	0.051	0.090
-227.727	632.061	0.032	-0.080
-226.713	-200.000	-0.033	-0.356
-225.698	-27.628	-0.272	0.158
-224.684	24.568	0.066	0.055
-223.669	-32.135	-0.125	-0.070
-222.655	284.849	0.088	-0.158
-221.640	317.029	-0.088	0.166
-220.625	-140.898	0.300	0.031
-219.611	-197.605	-0.131	-0.001
-218.596	718.543	-0.131	-0.347
-217.582	145.820	0.171	0.228
-216.567	-29.570	-0.112	0.064
-215.552	-200.000	0.007	-0.041
-214.538	-200.000	0.035	0.294
-213.523	-104.159	-0.208	0.048
-212.509	-133.665	0.107	-0.013
-211.494	145.893	0.101	0.135
-210.479	-27.818	-0.176	-0.102
-209.465	332.946	0.072	-0.140
-208.450	-200.000	-0.017	-0.082
-207.436	-200.000	0.008	0.333
-206.421	-62.104	0.391	-0.163
-205.406	21.601	-0.245	-0.199
-204.392	-200.000	0.000	0.113
-203.377	-200.000	-0.016	-0.596
-202.363	16.425	-0.164	-0.129
-201.348	-66.059	-0.250	-0.099
-200.333	9.407	0.157	-0.118
-199.319	377.650	0.141	0.287
-198.304	800.000	-0.045	-0.145
-197.290	-56.632	0.091	-0.040
-196.275	-55.222	0.124	-0.056
-195.260	120.045	0.037	0.046
-194.246	536.868	0.088	0.209
-193.231	187.564	0.258	0.384
-192.217	-58.016	0.330	0.144
-191.202	-200.000	-0.008	0.053
-190.187	114.871	0.046	-0.056
-189.173	36.740	-0.288	-0.253
-188.158	27.601	-0.116	-0.097
-187.144	-44.144	0.333	0.166
-186.129	-200.000	-0.052	-0.249
-185.114	800.000	0.069	-0.208
-184.100	800.000	0.063	0.201
-183.085	87.992	-0.067	-0.074
-182.071	89.168	0.075	0.083
-181.056	-112.737	-0.269	0.053
-180.042	-4.387	-0.376	0.259
-179.027	-185.856	0.066	0.001
-178.012	194.122	-0.208	-0.314
-176.998	-30.775	0.092	-0.052
-175.983	-4.182	0.053	0.037
-174.969	-4.487	-0.316	0.217
-173.954	-47.012	-0.248	-0.120
-172.939	-200.000	-0.006	-0.284
-171.925	-130.987	-0.260	-0.035
-170.910	296.169	0.138	-0.252
-169.896	-71.013	0.286	-0.107
-168.881	27.845	-0.328	-0.275
-167.866	-22.946	-0.154	-0.092
-166.852	-34.359	-0.252	0.137
-165.837	147.497	-0.115	0.154
-164.823	-117.073	0.335	-0.061
-163.808	800.000	-0.055	-0.228
-162.793	238.021	-0.045	0.074
-161.779	136.314	-0.208	-0.270
-160.764	69.552	-0.168	-0.172
-159.750	-200.000	-0.148	0.000
-158.735	-161.558	-0.121	0.006
-157.720	-83.144	0.220	0.070
-156.706	-200.000	-0.055	0.328
-155.691	137.744	0.051	-0.066
-154.677	23.906	-0.176	0.144
-153.662	-101.960	-0.061	-0.015
-152.647	-200.000	0.022	0.131
-151.633	-182.635	0.209	-0.004
-150.618	-200.000	0.018	0.342
-149.604	-200.000	-0.014	0.064
-148.589	800.000	0.039	-0.113
-147.574	-200.000	0.042	-0.380
-146.560	-16.459	0.141	-0.089
-145.545	-8.766	0.110	0.073
-144.531	103.691	-0.254	-0.296
-143.516	-161.401	-0.158	-0.008
-142.502	-188.511	0.184	-0.002
-141.487	-20.117	-0.187	0.115
-140.472	-200.000	-0.007	-0.061
-139.458	-49.257	-0.076	0.036
-138.443	-70.549	0.206	-0.077
-137.429	117.595	0.122	0.149
-136.414	-130.328	0.281	-0.038
-135.399	-71.506	-0.077	-0.029
-134.385	-200.000	0.002	0.377
-133.370	800.000	0.086	-0.289
-132.356	-200.000	0.009	-0.039
-131.341	-148.758	0.194	0.016
-130.326	800.000	-0.075	0.216
-129.312	308.955	-0.045	0.084
-128.297	-123.398	-0.144	-0.023
-127.283	-200.000	0.021	-0.119
-126.268	639.107	-0.081	0.204
-125.253	-155.680	-0.315	-0.020
-124.239	14.254	0.268	0.208
-123.224	-181.958	0.373	0.007
-122.210	47.166	-0.311	-0.288
-121.195	-200.000	0.004	-0.153
