DTS Sentinel unit serial number:	SN413079Multiplexer serial number:	ORYXHardware model number:	OX4-SRSoftware version number:	ORYX F/W v4.00 Oryx Data Collector v3.7.2.0data status	okinstallation	princeton_trtdifferential loss correction	single-endedforward channel	channel 4reverse channel	N/Adate	2019/09/17time	09:01:34forward acquisition time	60.00reverse acquisition time	0.00gamma	496.2192k internal	0.2315k external	0.2315temperature offset calibration	0.9980default loss term (dB/km)	0.3790temperature slope calibration	1.0000multiplexer offset coefficient	1.0000multiplexer slope coefficient	1.0000fibre end	0.00T internal ref (°C)	28.06T ext. ref 1 (°C)	0.14T ext. ref 2 (°C)	24.41length (m)	temperature (°C)	Stokes	anti-Stokes-747.200	105.301	-0.308	0.368
-746.185	-200.000	0.047	0.341
-745.171	-200.000	0.056	0.281
-744.156	-148.427	0.137	0.011
-743.142	-200.000	-0.022	0.228
-742.127	-129.451	-0.320	0.045
-741.112	0.095	-0.433	0.312
-740.098	-152.971	-0.315	0.022
-739.083	50.890	0.264	-0.253
-738.069	738.684	-0.059	0.159
-737.054	173.033	0.099	-0.145
-736.039	0.066	-0.276	-0.199
-735.025	-200.000	0.015	0.178
-734.010	-51.712	0.196	-0.092
-732.996	-200.000	0.001	0.038
-731.981	-200.000	0.015	-0.122
-730.966	71.189	0.090	0.094
-729.952	800.000	-0.104	-0.348
-728.937	414.017	-0.122	-0.263
-727.923	96.104	-0.215	-0.249
-726.908	223.518	0.023	-0.038
-725.894	152.851	0.148	0.204
-724.879	-200.000	0.011	-0.344
-723.864	-34.731	0.215	0.119
-722.850	-34.943	-0.501	0.277
-721.835	44.137	-0.244	-0.226
-720.821	157.278	-0.125	-0.175
-719.806	-200.000	-0.372	-0.001
-718.791	101.798	-0.186	-0.219
-717.777	-12.731	-0.112	-0.074
-716.762	-25.703	0.264	0.157
-715.748	-45.179	-0.115	0.058
-714.733	212.194	0.061	-0.097
-713.718	-104.871	-0.060	-0.014
-712.704	-108.072	-0.250	0.055
-711.689	-44.104	-0.089	0.045
-710.675	538.210	-0.058	0.140
-709.660	800.000	-0.024	-0.103
-708.645	-200.000	0.027	0.425
-707.631	-200.000	-0.034	0.334
-706.616	-97.184	-0.218	-0.058
-705.602	136.378	-0.028	0.037
-704.587	125.297	-0.088	-0.112
-703.572	-1.463	-0.297	-0.212
-702.558	-68.807	-0.150	0.059
-701.543	-50.230	0.075	-0.036
-700.529	125.393	-0.169	0.215
-699.514	190.873	0.034	-0.051
-698.499	317.038	-0.167	-0.319
-697.485	635.685	-0.134	-0.345
-696.470	-83.331	-0.135	-0.044
-695.456	-44.478	-0.231	0.117
-694.441	107.789	-0.088	0.106
-693.426	-31.926	0.247	-0.140
-692.412	800.000	-0.174	-0.495
-691.397	-137.522	-0.111	0.013
-690.383	629.201	0.051	-0.132
-689.368	-77.816	0.179	0.063
-688.354	-79.384	-0.184	0.063
-687.339	800.000	-0.073	-0.211
-686.324	-5.452	-0.210	-0.146
-685.310	25.559	-0.210	0.177
-684.295	-102.098	0.092	0.022
-683.281	-43.670	-0.230	-0.117
-682.266	800.000	-0.078	-0.273
-681.251	4.695	-0.165	0.122
-680.237	-43.985	-0.108	-0.055
-679.222	-200.000	0.010	0.063
-678.208	-177.577	-0.264	0.006
-677.193	-5.310	0.177	0.123
-676.178	-123.800	-0.215	-0.034
-675.164	49.070	0.089	0.085
-674.149	-166.602	0.198	-0.008
-673.135	-200.000	0.014	-0.327
-672.120	98.726	-0.073	0.085
-671.105	-200.000	0.019	0.275
-670.091	-105.222	-0.452	-0.104
-669.076	379.692	-0.078	-0.161
-668.062	61.358	-0.089	-0.089
-667.047	91.106	-0.194	-0.220
-666.032	800.000	0.005	0.023
-665.018	-79.227	-0.488	0.167
-664.003	-79.703	-0.271	0.092
-662.989	94.568	0.256	0.294
-661.974	-28.932	0.105	-0.061
-660.959	106.661	-0.302	0.362
-659.945	-200.000	-0.008	-0.392
-658.930	-78.357	-0.144	-0.050
-657.916	30.934	0.159	0.138
-656.901	800.000	0.095	0.292
-655.886	760.556	-0.125	-0.343
-654.872	39.533	-0.087	-0.078
-653.857	-81.242	0.168	0.056
-652.843	-93.202	-0.065	0.018
-651.828	-200.000	-0.040	0.185
-650.814	-200.000	-0.002	-0.245
-649.799	800.000	-0.074	0.211
-648.784	9.409	-0.100	0.076
-647.770	247.978	0.154	0.262
-646.755	-121.582	0.562	0.094
-645.741	-115.323	0.335	-0.064
-644.726	-76.471	0.011	0.004
-643.711	100.822	-0.059	-0.069
-642.697	800.000	-0.109	0.362
-641.682	-132.546	-0.086	-0.011
-640.668	800.000	-0.040	0.173
-639.653	-200.000	0.007	-0.098
-638.638	-200.000	-0.055	0.245
-637.624	-63.433	-0.252	0.104
-636.609	0.905	-0.099	-0.072
-635.595	-174.386	0.264	0.008
-634.580	152.161	0.181	0.249
-633.565	760.224	-0.028	0.076
-632.551	17.140	0.192	0.153
-631.536	99.278	0.150	-0.175
-630.522	-110.738	-0.380	-0.079
-629.507	71.466	-0.051	0.053
-628.492	-113.598	-0.312	-0.062
-627.478	800.000	-0.091	-0.275
-626.463	800.000	0.022	0.085
-625.449	-41.286	0.276	0.144
-624.434	-200.000	-0.021	-0.097
-623.419	-121.534	0.385	-0.065
-622.405	-136.510	0.329	-0.038
-621.390	127.130	0.181	0.231
-620.376	50.888	-0.123	0.118
-619.361	-20.747	-0.365	-0.226
-618.346	254.595	-0.154	-0.266
-617.332	28.927	-0.135	-0.115
-616.317	-144.351	-0.222	0.021
-615.303	-92.449	-0.422	0.120
-614.288	23.871	0.215	-0.179
-613.273	-42.923	0.169	-0.086
-612.259	193.221	0.099	0.151
-611.244	147.638	0.043	-0.059
-610.230	-200.000	0.008	-0.324
-609.215	-148.558	-0.186	-0.015
-608.201	-166.774	0.241	0.010
-607.186	556.793	-0.137	-0.333
-606.171	800.000	0.058	-0.167
-605.157	-21.451	0.325	0.200
-604.142	-78.292	-0.204	-0.070
-603.128	-101.514	-0.273	-0.067
-602.113	247.638	-0.138	-0.235
-601.098	235.102	-0.137	0.228
-600.084	-29.611	-0.213	0.122
-599.069	252.828	-0.053	-0.091
-598.055	7.000	-0.318	-0.239
-597.040	588.653	-0.152	-0.378
-596.025	-71.471	-0.238	0.090
-595.011	36.219	-0.114	-0.101
-593.996	-88.932	0.489	-0.146
-592.982	-200.000	-0.023	0.210
-591.967	800.000	-0.037	-0.138
-590.952	13.106	0.156	-0.122
-589.938	-36.861	-0.291	0.157
-588.923	-168.488	-0.185	-0.007
-587.909	-100.676	-0.213	0.053
-586.894	4.957	-0.178	-0.132
-585.879	-167.895	0.276	0.011
-584.865	41.630	0.026	-0.023
-583.850	-176.522	-0.187	0.005
-582.836	8.165	-0.052	0.039
-581.821	3.524	0.387	-0.284
-580.806	-8.544	-0.027	0.018
-579.792	-200.000	-0.067	-0.450
-578.777	-7.442	0.121	0.083
-577.763	-200.000	0.055	0.320
-576.748	-200.000	-0.016	0.194
-575.733	561.859	-0.051	-0.124
-574.719	407.564	0.135	-0.287
-573.704	-24.669	-0.245	-0.146
-572.690	-200.000	0.008	0.237
-571.675	-79.244	-0.176	-0.060
-570.661	708.579	-0.025	-0.067
-569.646	591.079	0.044	-0.110
-568.631	329.064	0.075	0.144
-567.617	326.714	0.093	-0.180
-566.602	-39.101	-0.015	-0.008
-565.588	-150.438	-0.289	0.022
-564.573	800.000	0.079	-0.244
-563.558	800.000	-0.074	-0.236
-562.544	195.819	0.138	0.211
-561.529	770.814	-0.099	-0.271
-560.515	-74.348	0.107	-0.039
-559.500	-66.022	-0.055	-0.022
-558.485	299.613	-0.124	-0.231
-557.471	800.000	-0.060	0.189
-556.456	-64.726	0.052	0.021
-555.442	10.256	-0.340	0.260
-554.427	-114.561	-0.235	0.045
-553.412	-200.000	-0.045	-0.237
-552.398	23.232	-0.218	-0.180
-551.383	223.170	-0.120	0.194
-550.369	-200.000	-0.016	0.233
-549.354	-178.788	0.276	0.006
-548.339	-10.952	0.208	0.138
-547.325	-177.824	0.124	-0.003
-546.310	277.288	-0.126	0.225
-545.296	298.342	-0.130	0.241
-544.281	-30.749	0.055	0.031
-543.266	-9.294	0.179	0.120
-542.252	-104.218	-0.065	-0.015
-541.237	800.000	0.088	0.303
-540.223	130.538	-0.105	-0.135
-539.208	77.166	-0.168	-0.180
-538.193	-83.323	-0.184	0.059
-537.179	-200.000	-0.010	0.116
-536.164	-164.716	-0.137	0.006
-535.150	346.048	-0.097	0.193
-534.135	516.449	-0.061	0.142
-533.121	-31.272	0.185	0.105
-532.106	-135.309	0.098	0.012
-531.091	255.977	0.159	0.274
-530.077	-79.963	0.061	0.020
-529.062	-200.000	-0.014	0.351
-528.048	-200.000	0.013	0.220
-527.033	-81.937	0.297	-0.097
-526.018	173.108	0.061	-0.089
-525.004	222.206	-0.046	0.074
-523.989	212.716	0.160	-0.254
-522.975	163.947	0.065	0.091
-521.960	-200.000	-0.007	-0.308
-520.945	-124.960	0.095	0.015
-519.931	121.511	-0.117	-0.147
-518.916	-200.000	-0.034	-0.190
-517.902	126.251	0.146	-0.185
-516.887	-85.029	0.062	0.019
-515.872	-95.839	-0.337	0.090
-514.858	455.246	-0.126	-0.279
-513.843	-200.000	-0.009	0.373
-512.829	390.185	-0.110	0.229
-511.814	-40.817	-0.253	-0.132
-510.799	783.703	0.053	0.146
-509.785	-200.000	0.003	-0.051
-508.770	97.040	0.130	0.149
-507.756	-65.848	-0.269	-0.108
-506.741	-200.000	0.045	-0.290
-505.726	123.338	-0.037	0.046
-504.712	-3.098	-0.047	0.033
-503.697	-36.899	0.189	-0.102
-502.683	346.170	-0.131	-0.259
-501.668	-200.000	0.069	0.476
-500.653	31.266	-0.163	0.140
-499.639	333.492	0.043	0.083
-498.624	-200.000	0.002	0.103
-497.610	-200.000	0.018	-0.142
-496.595	-58.212	0.165	0.072
-495.581	-65.340	-0.447	0.180
-494.566	394.131	-0.026	-0.054
-493.551	172.366	-0.093	0.135
-492.537	397.111	0.134	-0.281
-491.522	-162.086	-0.271	-0.014
-490.508	62.367	0.035	0.035
-489.493	800.000	-0.065	-0.230
-488.478	800.000	0.125	-0.375
-487.464	800.000	-0.043	-0.160
-486.449	241.887	-0.160	-0.269
-485.435	-200.000	-0.003	0.105
-484.420	-63.552	0.067	0.028
-483.405	77.354	-0.132	-0.141
-482.391	5.051	-0.193	0.143
-481.376	576.883	-0.165	0.405
-480.362	800.000	-0.106	0.307
-479.347	185.613	-0.096	0.143
-478.332	-152.586	-0.262	0.019
-477.318	474.339	-0.114	0.258
-476.303	800.000	0.093	0.346
-475.289	84.981	-0.108	-0.119
-474.274	800.000	-0.112	0.444
-473.259	-150.418	0.375	-0.029
-472.245	63.651	0.154	-0.155
-471.230	17.435	-0.250	0.199
-470.216	160.723	0.167	-0.233
-469.201	800.000	-0.123	-0.393
-468.186	92.480	-0.089	-0.101
-467.172	106.304	0.250	-0.297
-466.157	-69.231	0.028	0.011
-465.143	25.355	-0.108	-0.090
-464.128	-200.000	-0.018	-0.180
-463.113	-88.288	0.245	0.073
-462.099	47.661	0.126	-0.117
-461.084	-119.270	-0.150	-0.026
-460.070	-7.807	0.233	-0.158
-459.055	170.676	-0.079	0.114
-458.040	238.860	-0.165	-0.274
-457.026	-200.000	0.038	-0.544
-456.011	76.972	-0.020	-0.021
-454.997	26.536	0.411	-0.344
-453.982	186.614	-0.089	0.133
-452.968	800.000	-0.032	-0.137
-451.953	-132.708	0.437	-0.056
-450.938	157.338	0.126	-0.175
-449.924	213.296	0.191	0.302
-448.909	-94.719	-0.052	0.014
-447.895	-200.000	0.001	0.201
-446.880	14.666	0.060	-0.047
-445.865	-174.600	0.033	-0.001
-444.851	-200.000	0.022	-0.254
-443.836	496.026	0.146	-0.335
-442.822	430.824	0.064	0.139
-441.807	-200.000	-0.011	0.118
-440.792	-200.000	0.027	0.311
-439.778	800.000	0.097	0.270
-438.763	-52.030	0.185	-0.086
-437.749	-200.000	-0.004	0.026
-436.734	370.563	0.087	-0.177
-435.719	800.000	-0.048	-0.170
-434.705	-5.852	0.007	-0.005
-433.690	-190.936	-0.287	-0.003
-432.676	-178.019	-0.329	0.008
-431.661	18.260	0.262	0.210
-430.646	-66.502	-0.343	-0.136
-429.632	-200.000	-0.051	-0.260
-428.617	521.316	0.022	-0.051
-427.603	-116.032	0.474	-0.088
-426.588	130.991	0.128	0.164
-425.573	-65.560	0.284	-0.114
-424.559	800.000	-0.042	-0.136
-423.544	-159.402	0.144	-0.008
-422.530	-74.822	0.329	0.118
-421.515	-182.295	0.201	-0.004
-420.500	-155.624	-0.235	0.015
-419.486	117.300	-0.131	-0.161
-418.471	43.723	-0.153	0.140
-417.457	224.403	-0.137	-0.222
-416.442	-15.028	-0.108	0.069
-415.428	-67.273	-0.203	-0.080
-414.413	46.189	-0.087	0.080
-413.398	-45.610	-0.167	-0.083
-412.384	-75.018	0.223	-0.080
-411.369	-167.446	0.204	-0.008
-410.355	-40.112	0.238	-0.124
-409.340	6.332	-0.312	0.232
-408.325	-65.180	0.038	-0.015
-407.311	-42.674	0.251	0.128
-406.296	-124.346	-0.198	-0.031
-405.282	52.576	0.183	0.175
-404.267	800.000	0.110	0.320
-403.252	174.592	0.201	-0.291
-402.238	346.788	0.060	0.117
-401.223	152.041	0.131	-0.179
-400.209	-196.695	0.219	0.001
-399.194	58.270	0.052	-0.051
-398.179	-9.310	-0.133	-0.089
-397.165	-38.453	0.119	-0.063
-396.150	-154.805	0.166	-0.011
-395.136	800.000	-0.115	-0.345
-394.121	-50.634	0.094	-0.044
-393.106	800.000	0.088	-0.257
-392.092	400.886	0.127	-0.266
-391.077	118.400	-0.142	-0.175
-390.063	106.852	0.060	0.071
-389.048	15.835	0.363	0.285
-388.033	-61.438	-0.081	0.034
-387.019	220.662	0.255	0.408
-386.004	261.353	-0.066	0.114
-384.990	-71.672	-0.123	0.046
-383.975	110.630	-0.087	0.104
-382.960	800.000	0.086	0.270
-381.946	-200.000	0.068	-0.332
-380.931	91.975	-0.131	0.147
-379.917	-103.144	-0.087	-0.020
-378.902	201.475	0.097	0.149
-377.888	220.344	-0.031	0.049
-376.873	-18.187	0.100	0.063
-375.858	75.665	-0.128	-0.135
-374.844	-62.175	-0.379	0.158
-373.829	-200.000	0.012	-0.121
-372.815	117.644	0.147	-0.180
-371.800	317.239	-0.088	0.166
-370.785	-155.641	-0.106	0.007
-369.771	-141.942	0.075	-0.007
-368.756	-80.491	0.206	-0.069
-367.742	-200.000	0.015	0.216
-366.727	-60.285	0.112	0.048
-365.712	41.291	-0.109	0.099
-364.698	-51.833	-0.137	-0.064
-363.683	69.715	-0.293	0.302
-362.669	49.426	-0.181	0.170
-361.654	-200.000	0.008	0.072
-360.639	-70.341	-0.264	0.100
-359.625	331.999	0.066	-0.127
-358.610	800.000	-0.123	-0.388
-357.596	-200.000	0.001	-0.294
-356.581	474.799	0.023	-0.051
-355.566	-45.292	0.213	-0.106
-354.552	-57.420	-0.279	-0.122
-353.537	86.052	0.087	-0.095
-352.523	278.762	-0.193	0.343
-351.508	-57.214	0.055	0.024
-350.493	25.645	0.372	0.309
-349.479	-56.538	-0.159	-0.070
-348.464	-79.475	-0.169	0.057
-347.450	-106.521	0.154	0.034
-346.435	2.459	0.165	-0.120
-345.420	-20.812	-0.129	0.079
-344.406	397.544	0.055	0.116
-343.391	111.547	0.039	-0.047
-342.377	-200.000	0.003	-0.105
-341.362	517.831	-0.098	0.230
-340.348	10.387	-0.114	-0.087
-339.333	1.988	-0.297	-0.213
-338.318	-180.451	-0.145	-0.003
-337.304	-111.490	0.265	-0.054
-336.289	800.000	-0.024	0.070
-335.275	-111.760	-0.020	-0.004
-334.260	-200.000	-0.009	-0.050
-333.245	-10.680	-0.211	-0.139
-332.231	237.025	0.105	0.173
-331.216	-130.002	-0.336	0.046
-330.202	23.717	-0.051	0.042
-329.187	-200.000	-0.026	0.293
-328.172	66.966	0.219	-0.223
-327.158	202.469	0.084	-0.129
-326.143	-200.000	0.027	0.166
-325.129	24.730	0.381	-0.315
-324.114	-2.508	-0.109	-0.076
-323.099	-86.735	-0.099	-0.030
-322.085	-61.606	0.150	-0.063
-321.070	220.695	0.195	0.312
-320.056	389.474	-0.107	-0.220
-319.041	-0.670	-0.278	-0.196
-318.026	-125.963	0.136	0.020
-317.012	800.000	-0.100	0.315
-315.997	800.000	0.019	-0.060
-314.983	-74.865	-0.356	-0.127
-313.968	339.891	-0.146	0.283
-312.953	-19.401	0.098	-0.061
-311.939	219.610	0.118	0.189
-310.924	118.755	0.099	0.122
-309.910	-102.883	-0.248	-0.059
-308.895	30.134	-0.142	0.121
-307.880	-161.804	-0.507	-0.026
-306.866	560.498	-0.112	0.269
-305.851	-65.456	0.113	0.045
-304.837	-2.268	0.164	-0.115
-303.822	-161.195	0.339	0.018
-302.807	-139.600	0.185	0.020
-301.793	-98.429	0.179	-0.046
-300.778	-200.000	0.046	0.278
-299.764	-200.000	-0.069	-0.335
-298.749	-200.000	0.001	0.044
-297.735	22.082	0.232	0.189
-296.720	-36.744	0.249	-0.133
-295.705	-200.000	0.006	-0.199
-294.691	19.958	0.284	-0.228
-293.676	630.656	-0.019	-0.048
-292.662	139.918	0.143	0.188
-291.647	-23.683	-0.399	-0.238
-290.632	-200.000	-0.026	-0.307
-289.618	115.355	0.287	-0.349
-288.603	106.267	0.130	0.153
-287.589	-21.922	-0.264	0.159
-286.574	348.760	0.162	-0.319
-285.559	800.000	0.040	0.138
-284.545	166.568	0.027	-0.039
-283.530	41.568	0.092	-0.082
-282.516	-40.261	-0.349	0.181
-281.501	-200.000	-0.006	-0.248
-280.486	397.324	-0.131	-0.273
-279.472	42.333	0.302	0.273
-278.457	41.454	0.245	-0.220
-277.443	98.488	0.099	0.114
-276.428	-137.729	-0.106	0.012
-275.413	-30.875	0.189	0.107
-274.399	575.588	0.146	0.356
-273.384	25.414	-0.204	-0.168
-272.370	147.055	-0.224	0.300
-271.355	-107.400	0.099	0.022
-270.340	-2.645	0.268	0.187
-269.326	-131.177	-0.147	-0.019
-268.311	-119.468	-0.393	0.068
-267.297	-89.209	-0.147	0.043
-266.282	-143.661	0.137	-0.013
-265.267	-184.531	-0.324	-0.005
-264.253	400.319	0.140	0.292
-263.238	14.230	-0.027	-0.021
-262.224	-43.051	-0.206	-0.104
-261.209	-114.997	0.462	-0.087
-260.195	46.159	0.207	-0.191
-259.180	-200.000	0.007	-0.108
-258.165	-55.295	0.129	-0.058
-257.151	-15.475	0.319	0.203
-256.136	252.610	-0.174	0.295
-255.122	-200.000	-0.036	0.170
-254.107	22.035	-0.124	0.100
-253.092	245.518	-0.145	-0.243
-252.078	106.858	0.145	0.171
-251.063	800.000	0.063	0.273
-250.049	800.000	0.043	-0.171
-249.034	-126.516	-0.146	0.022
-248.019	190.549	-0.097	-0.144
-247.005	75.473	-0.216	-0.227
-245.990	224.079	0.097	0.155
-244.976	136.998	-0.088	0.114
-243.961	19.438	0.060	-0.048
-242.946	-22.188	-0.152	-0.092
-241.932	-89.426	0.240	0.070
-240.917	-76.059	-0.449	-0.157
-239.903	-200.000	0.022	0.247
-238.888	-9.204	0.117	-0.078
-237.873	-10.919	-0.242	0.159
-236.859	390.327	0.026	-0.054
-235.844	-15.333	0.319	0.202
-234.830	-143.437	0.077	-0.007
-233.815	-92.470	-0.028	0.008
-232.800	800.000	-0.064	-0.231
-231.786	-74.369	-0.147	0.053
-230.771	800.000	-0.027	-0.077
-229.757	273.258	-0.054	0.095
-228.742	800.000	0.087	0.347
-227.727	144.926	0.100	-0.133
-226.713	193.322	0.064	0.096
-225.698	-162.120	-0.243	0.012
-224.684	37.843	-0.088	0.078
-223.669	-97.899	0.340	-0.087
-222.655	-200.000	0.028	0.172
-221.640	184.008	0.337	0.495
-220.625	778.755	0.051	-0.137
-219.611	-200.000	0.054	-0.511
-218.596	178.079	-0.192	-0.278
-217.582	-200.000	0.002	-0.030
-216.567	137.304	0.088	-0.114
-215.552	486.967	-0.123	0.279
-214.538	-174.119	0.160	-0.005
-213.523	-134.682	0.211	-0.026
-212.509	-200.000	-0.080	-0.361
-211.494	398.651	-0.116	0.241
-210.479	800.000	0.100	0.379
-209.465	800.000	-0.031	-0.134
-208.450	800.000	-0.069	0.271
-207.436	38.792	0.209	0.185
-206.421	-46.732	-0.137	0.067
-205.406	1.493	-0.261	0.187
-204.392	56.279	-0.183	-0.176
-203.377	104.352	0.052	-0.061
-202.363	-200.000	0.056	0.525
-201.348	800.000	0.053	0.207
-200.333	18.749	-0.172	0.137
-199.319	-200.000	0.040	-0.176
-198.304	-18.313	-0.298	0.185
-197.290	-200.000	0.038	0.294
-196.275	-72.222	-0.085	0.031
-195.260	-61.398	-0.322	0.134
-194.246	-200.000	-0.020	-0.350
-193.231	800.000	0.044	-0.134
-192.217	-55.471	0.108	0.048
-191.202	19.874	0.194	0.155
-190.187	712.114	0.139	0.365
-189.173	157.189	0.168	-0.231
-188.158	-200.000	0.047	-0.258
-187.144	181.523	-0.103	-0.150
-186.129	197.075	0.047	-0.071
-185.114	127.374	-0.113	-0.142
-184.100	-200.000	-0.022	0.331
-183.085	-200.000	-0.039	0.191
-182.071	289.164	0.096	0.172
-181.056	-200.000	-0.027	0.201
-180.042	-138.536	0.381	0.041
-179.027	-110.784	0.240	0.049
-178.012	800.000	-0.033	-0.109
-176.998	-141.174	0.097	-0.010
-175.983	107.462	0.038	0.045
-174.969	-126.944	0.193	-0.028
-173.954	3.935	0.233	0.168
-172.939	-173.321	0.285	0.009
-171.925	-67.128	-0.097	-0.038
-170.910	75.885	-0.184	0.193
-169.896	-67.211	-0.258	-0.101
-168.881	-44.275	-0.109	0.054
-167.866	146.110	0.147	-0.195
-166.852	-19.003	0.339	0.209
-165.837	388.434	0.159	0.327
-164.823	146.986	0.152	-0.203
-163.808	153.834	-0.251	-0.341
-162.793	336.853	-0.125	-0.241
-161.779	-23.577	0.252	-0.150
-160.764	-78.513	0.113	-0.038
-159.750	-130.333	-0.326	0.044
-158.735	800.000	-0.059	-0.185
-157.720	679.671	0.109	0.280
-156.706	278.507	0.159	-0.281
-155.691	800.000	-0.112	-0.307
-154.677	-200.000	-0.089	-0.416
-153.662	11.668	-0.248	0.188
-152.647	-200.000	0.022	-0.216
-151.633	60.483	0.098	-0.096
-150.618	800.000	-0.070	0.296
-149.604	24.211	-0.108	-0.089
-148.589	-157.664	0.334	-0.020
-147.574	191.932	-0.193	0.288
-146.560	2.237	0.090	0.065
-145.545	-68.312	0.144	-0.055
-144.531	75.557	-0.225	-0.235
-143.516	-200.000	0.025	0.160
-142.502	-149.781	-0.406	0.032
-141.487	-200.000	-0.041	-0.199
-140.472	-102.418	0.197	-0.047
-139.458	-154.737	0.401	0.026
-138.443	90.800	-0.176	-0.195
-137.429	571.544	0.007	0.016
-136.414	-95.210	0.307	0.082
-135.399	800.000	0.019	-0.082
-134.385	106.740	-0.186	0.218
-133.370	747.925	0.137	0.367
-132.356	800.000	-0.085	-0.259
-131.341	-160.921	0.213	0.011
-130.326	148.493	0.121	-0.161
-129.312	-73.949	-0.087	0.031
-128.297	274.577	-0.116	-0.203
-127.283	-200.000	0.022	0.541
-126.268	-200.000	0.028	0.300
-125.253	800.000	-0.021	0.059
-124.239	75.741	0.098	-0.102
-123.224	-72.869	-0.290	0.105
-122.210	-93.861	0.219	0.060
-121.195	-140.666	-0.264	-0.027
