DTS Sentinel unit serial number:	SN413079Multiplexer serial number:	ORYXHardware model number:	OX4-SRSoftware version number:	ORYX F/W v4.00 Oryx Data Collector v3.7.2.0data status	okinstallation	princeton_trtdifferential loss correction	single-endedforward channel	channel 4reverse channel	N/Adate	2019/09/16time	13:25:35forward acquisition time	60.00reverse acquisition time	0.00gamma	496.2192k internal	0.2287k external	0.2287temperature offset calibration	0.9938default loss term (dB/km)	0.3790temperature slope calibration	1.0000multiplexer offset coefficient	1.0000multiplexer slope coefficient	1.0000fibre end	0.00T internal ref (°C)	41.56T ext. ref 1 (°C)	13.78T ext. ref 2 (°C)	39.34length (m)	temperature (°C)	Stokes	anti-Stokes-747.200	-29.702	-0.301	-0.177
-746.185	219.612	0.057	0.094
-745.171	-185.224	0.234	-0.004
-744.156	283.204	-0.084	0.154
-743.142	-55.882	0.197	0.090
-742.127	37.458	-0.211	0.191
-741.112	-200.000	-0.110	0.000
-740.098	-153.977	-0.131	-0.009
-739.083	234.502	0.111	-0.188
-738.069	-53.582	-0.161	-0.076
-737.054	418.349	0.137	-0.300
-736.039	522.991	-0.080	-0.194
-735.025	104.912	0.041	-0.050
-734.010	-200.000	-0.027	0.357
-732.996	44.335	-0.091	-0.086
-731.981	653.105	-0.077	-0.201
-730.966	800.000	-0.073	0.318
-729.952	215.744	-0.242	0.394
-728.937	-70.835	-0.172	0.067
-727.923	-200.000	0.013	-0.088
-726.908	500.435	0.075	-0.177
-725.894	44.426	0.118	0.111
-724.879	69.585	0.067	-0.071
-723.864	-44.513	0.203	0.104
-722.850	-87.712	0.047	0.015
-721.835	380.633	-0.061	-0.128
-720.821	-51.912	0.133	0.063
-719.806	731.861	0.032	-0.087
-718.791	-142.213	0.110	-0.011
-717.777	517.834	0.073	-0.175
-716.762	317.280	-0.056	0.108
-715.748	-200.000	0.011	0.112
-714.733	771.784	0.077	-0.215
-713.718	131.890	0.151	0.199
-712.704	-54.819	-0.184	-0.085
-711.689	-74.314	0.178	-0.066
-710.675	-200.000	-0.002	-0.049
-709.660	-200.000	0.104	0.479
-708.645	739.806	0.043	-0.118
-707.631	264.748	0.116	-0.207
-706.616	102.456	0.149	-0.178
-705.602	-200.000	-0.012	-0.212
-704.587	-10.243	0.245	-0.167
-703.572	800.000	-0.056	0.203
-702.558	-173.134	0.227	-0.007
-701.543	-40.534	0.116	-0.062
-700.529	800.000	0.039	0.122
-699.514	-170.152	0.331	0.012
-698.499	255.438	-0.092	0.162
-697.485	-107.111	0.090	-0.020
-696.470	-91.000	0.183	-0.054
-695.456	-170.631	-0.142	0.005
-694.441	124.489	0.275	-0.354
-693.426	47.827	0.200	-0.192
-692.412	-75.201	-0.092	0.034
-691.397	-77.870	-0.307	-0.108
-690.383	247.849	-0.150	-0.260
-689.368	280.263	0.034	-0.062
-688.354	-145.812	-0.218	-0.020
-687.339	-200.000	-0.030	-0.429
-686.324	800.000	-0.062	0.190
-685.310	-54.821	-0.260	-0.120
-684.295	-200.000	0.030	0.154
-683.281	-24.556	-0.162	-0.099
-682.266	316.835	-0.079	0.154
-681.251	-200.000	-0.005	0.185
-680.237	-153.014	0.251	-0.018
-679.222	800.000	-0.017	-0.049
-678.208	-72.310	-0.131	-0.050
-677.193	736.462	0.067	-0.184
-676.178	16.411	0.139	-0.112
-675.164	119.398	0.105	-0.133
-674.149	-110.026	-0.208	-0.044
-673.135	-200.000	-0.026	0.144
-672.120	-92.110	0.316	-0.091
-671.105	362.834	-0.181	-0.372
-670.091	-112.805	0.109	0.022
-669.076	-124.470	0.312	0.050
-668.062	62.503	0.104	-0.107
-667.047	111.254	-0.199	0.245
-666.032	340.970	0.079	-0.158
-665.018	-0.180	0.114	0.083
-664.003	-200.000	-0.135	-0.000
-662.989	199.152	-0.059	0.093
-661.974	-165.512	0.266	0.012
-660.959	-200.000	-0.029	0.232
-659.945	-200.000	0.036	-0.295
-658.930	59.331	0.196	-0.198
-657.916	-200.000	-0.000	-0.100
-656.901	676.595	0.160	0.426
-655.886	-74.232	0.184	0.068
-654.872	-24.388	-0.283	-0.172
-653.857	-200.000	0.077	-0.356
-652.843	147.943	0.201	0.277
-651.828	-200.000	0.054	0.247
-650.814	-156.899	-0.248	-0.016
-649.799	-29.374	0.103	0.060
-648.784	-68.173	-0.100	-0.040
-647.770	-124.979	-0.249	0.039
-646.755	-200.000	-0.020	0.278
-645.741	68.377	-0.131	-0.138
-644.726	-54.989	-0.353	-0.163
-643.711	-55.564	0.285	-0.130
-642.697	-200.000	-0.015	0.357
-641.682	800.000	0.049	0.192
-640.668	800.000	-0.031	-0.108
-639.653	29.865	0.168	-0.146
-638.638	-83.796	0.134	-0.044
-637.624	800.000	-0.055	-0.174
-636.609	674.263	0.061	-0.162
-635.595	29.183	-0.096	-0.083
-634.580	-200.000	-0.018	-0.262
-633.565	-103.174	0.092	0.022
-632.551	191.517	0.061	-0.093
-631.536	-124.861	-0.279	0.044
-630.522	-99.681	-0.274	-0.070
-629.507	-61.865	0.133	-0.057
-628.492	130.418	-0.135	-0.176
-627.478	80.453	-0.093	-0.103
-626.463	275.248	-0.080	-0.144
-625.449	-200.000	0.030	-0.149
-624.434	-200.000	-0.054	0.257
-623.419	-200.000	0.024	0.120
-622.405	683.036	0.045	0.120
-621.390	800.000	-0.113	-0.320
-620.376	275.017	0.090	0.163
-619.361	-90.703	0.186	-0.055
-618.346	-117.267	0.129	-0.024
-617.332	-152.332	-0.302	-0.022
-616.317	212.658	-0.065	-0.105
-615.303	-200.000	0.009	-0.259
-614.288	-82.949	-0.195	0.064
-613.273	90.925	0.195	-0.224
-612.259	-71.517	-0.198	0.076
-611.244	-48.336	0.352	-0.173
-610.230	698.565	-0.099	-0.265
-609.215	51.330	0.189	0.183
-608.201	12.793	-0.156	-0.123
-607.186	-200.000	0.023	0.282
-606.171	75.845	0.040	-0.044
-605.157	-200.000	0.026	-0.216
-604.142	-200.000	0.045	-0.282
-603.128	-13.705	-0.242	0.160
-602.113	800.000	0.007	0.028
-601.098	-200.000	0.046	-0.305
-600.084	444.387	0.215	-0.480
-599.069	-40.520	0.205	-0.108
-598.055	190.960	0.068	0.105
-597.040	-3.187	0.220	-0.156
-596.025	126.805	-0.188	-0.243
-595.011	165.813	0.104	-0.150
-593.996	-200.000	-0.034	-0.298
-592.982	19.753	0.260	0.213
-591.967	92.312	0.168	0.193
-590.952	800.000	-0.138	0.475
-589.938	800.000	0.029	-0.122
-588.923	649.859	0.018	0.048
-587.909	-7.942	0.137	-0.095
-586.894	-72.566	-0.463	-0.174
-585.879	-104.041	-0.254	-0.060
-584.865	-130.911	-0.091	-0.012
-583.850	38.455	-0.291	-0.265
-582.836	86.995	-0.191	-0.215
-581.821	178.525	-0.115	-0.172
-580.806	478.367	-0.105	-0.242
-579.792	40.676	0.080	-0.073
-578.777	-34.328	0.197	-0.110
-577.763	-35.683	0.327	0.181
-576.748	-56.690	0.244	0.110
-575.733	94.664	0.116	-0.135
-574.719	-193.715	-0.359	0.003
-573.704	309.401	-0.153	-0.291
-572.690	33.930	0.214	0.190
-571.675	728.144	-0.063	0.170
-570.661	163.406	0.097	-0.139
-569.646	368.251	0.070	0.144
-568.631	-55.726	-0.154	-0.070
-567.617	-2.360	0.196	0.140
-566.602	64.443	-0.239	0.246
-565.588	-137.864	-0.151	-0.017
-564.573	-38.462	-0.166	-0.090
-563.558	-110.502	0.156	0.033
-562.544	-129.584	-0.069	-0.010
-561.529	304.593	-0.235	0.445
-560.515	208.268	0.060	0.096
-559.500	-44.387	-0.391	-0.199
-558.485	170.401	0.102	0.149
-557.471	-44.199	-0.258	0.132
-556.456	-200.000	0.062	-0.318
-555.442	91.541	-0.011	-0.012
-554.427	-117.578	0.344	-0.063
-553.412	-64.065	-0.182	0.076
-552.398	54.234	0.152	-0.149
-551.383	-200.000	-0.040	-0.298
-550.369	111.863	0.102	0.126
-549.354	360.587	0.031	0.063
-548.339	800.000	-0.045	-0.149
-547.325	-200.000	-0.013	0.114
-546.310	316.781	-0.271	0.522
-545.296	388.841	-0.086	0.180
-544.281	-200.000	-0.001	0.035
-543.266	521.577	0.046	0.110
-542.252	-200.000	0.040	0.178
-541.237	371.684	-0.054	0.112
-540.223	-200.000	0.047	0.444
-539.208	43.501	0.080	-0.074
-538.193	-33.070	0.151	-0.085
-537.179	214.739	0.171	-0.276
-536.164	11.032	-0.159	0.124
-535.150	-144.559	-0.243	0.023
-534.135	-66.408	0.247	0.100
-533.121	-62.585	0.146	0.062
-532.106	469.813	-0.135	0.309
-531.091	-62.481	0.066	-0.028
-530.077	-81.327	0.284	0.095
-529.062	169.560	-0.051	0.074
-528.048	-60.571	0.167	-0.072
-527.033	-48.664	-0.159	0.078
-526.018	544.774	-0.120	-0.291
-525.004	-116.979	-0.128	0.024
-523.989	-200.000	-0.055	0.315
-522.975	-142.413	0.127	0.013
-521.960	-72.862	-0.343	0.128
-520.945	6.005	-0.137	0.103
-519.931	11.930	-0.156	0.122
-518.916	-200.000	0.015	-0.168
-517.902	-200.000	0.034	-0.154
-516.887	-200.000	-0.025	-0.133
-515.872	418.812	0.108	-0.235
-514.858	153.695	0.027	0.037
-513.843	-200.000	0.049	-0.466
-512.829	-45.393	-0.221	-0.112
-511.814	-200.000	-0.015	-0.146
-510.799	-52.293	0.294	0.139
-509.785	2.457	0.243	-0.179
-508.770	-158.077	0.054	-0.003
-507.756	-69.161	-0.090	-0.035
-506.741	-134.657	0.405	0.050
-505.726	800.000	0.017	-0.055
-504.712	-9.450	-0.257	0.174
-503.697	-131.329	0.455	0.061
-502.683	265.459	0.216	0.382
-501.668	-145.361	0.134	0.012
-500.653	186.628	-0.105	-0.159
-499.639	145.663	0.212	-0.288
-498.624	-75.328	0.289	0.105
-497.610	-95.146	-0.320	0.088
-496.595	-13.310	-0.230	-0.152
-495.581	-100.652	0.104	0.026
-494.566	-128.856	-0.176	-0.025
-493.551	800.000	-0.036	0.115
-492.537	-67.785	0.351	0.139
-491.522	-24.222	0.255	-0.155
-490.508	145.808	-0.030	-0.040
-489.493	123.765	0.180	0.229
-488.478	-200.000	0.011	0.285
-487.464	-200.000	0.006	0.292
-486.449	77.710	0.142	0.154
-485.435	-66.320	-0.209	0.085
-484.420	-153.896	-0.276	0.019
-483.405	-200.000	-0.087	-0.403
-482.391	400.806	-0.145	-0.310
-481.376	-200.000	0.018	0.119
-480.362	-200.000	0.018	-0.117
-479.347	263.601	-0.126	-0.223
-478.332	-200.000	-0.018	0.082
-477.318	186.697	-0.057	0.086
-476.303	-200.000	0.035	-0.254
-475.289	-79.373	-0.147	0.051
-474.274	297.257	-0.157	-0.293
-473.259	186.417	-0.065	-0.099
-472.245	-200.000	-0.043	-0.276
-471.230	115.146	-0.081	-0.100
-470.216	406.381	-0.034	0.074
-469.201	-200.000	-0.019	-0.189
-468.186	121.308	-0.103	-0.130
-467.172	1.673	0.052	-0.038
-466.157	45.543	-0.246	0.230
-465.143	800.000	0.009	0.038
-464.128	800.000	-0.090	0.273
-463.113	800.000	0.080	0.262
-462.099	199.461	-0.118	-0.183
-461.084	-90.973	-0.163	-0.047
-460.070	373.162	-0.116	0.239
-459.055	13.199	0.173	0.136
-458.040	159.363	-0.134	-0.189
-457.026	-169.197	-0.197	0.007
-456.011	400.663	0.041	0.086
-454.997	-115.565	-0.263	-0.050
-453.982	-200.000	-0.020	0.217
-452.968	98.853	-0.170	-0.199
-451.953	-200.000	0.030	0.138
-450.938	89.755	-0.225	-0.255
-449.924	-148.363	-0.124	-0.010
-448.909	-200.000	-0.003	0.099
-447.895	148.390	0.214	-0.293
-446.880	404.342	0.086	0.183
-445.865	-12.294	0.256	-0.170
-444.851	-0.834	0.216	-0.155
-443.836	-85.438	0.217	-0.069
-442.822	-134.464	0.282	-0.035
-441.807	-19.783	0.137	-0.086
-440.792	-117.512	-0.190	-0.035
-439.778	123.044	0.088	-0.112
-438.763	64.449	-0.159	-0.162
-437.749	5.709	0.272	-0.204
-436.734	141.589	0.164	0.220
-435.719	-200.000	-0.026	0.364
-434.705	-200.000	-0.041	0.314
-433.690	41.013	-0.043	0.039
-432.676	-146.686	-0.225	-0.020
-431.661	-82.381	0.080	0.026
-430.646	-200.000	-0.019	-0.102
-429.632	-134.401	-0.210	-0.026
-428.617	-130.993	0.237	-0.032
-427.603	404.009	-0.125	0.266
-426.588	-121.376	-0.165	0.028
-425.573	-200.000	0.005	-0.050
-424.559	-69.574	-0.327	0.127
-423.544	122.004	-0.143	-0.180
-422.530	236.282	-0.123	0.206
-421.515	-102.930	-0.152	-0.036
-420.500	365.138	0.076	0.156
-419.486	800.000	0.044	-0.126
-418.471	-83.468	-0.314	-0.102
-417.457	-104.948	0.205	0.048
-416.442	168.201	0.052	-0.075
-415.428	-200.000	0.050	0.277
-414.413	81.224	-0.172	-0.188
-413.398	-109.784	0.250	0.053
-412.384	254.594	0.163	0.283
-411.369	166.675	0.206	-0.296
-410.355	-184.309	-0.214	-0.004
-409.340	510.903	0.135	0.318
-408.325	271.530	0.068	-0.122
-407.311	119.320	-0.132	0.165
-406.296	6.785	-0.114	0.086
-405.282	-123.013	0.241	0.039
-404.267	83.443	0.215	-0.237
-403.252	-90.981	0.161	0.047
-402.238	52.054	-0.059	-0.057
-401.223	-55.305	0.272	-0.124
-400.209	79.437	0.108	-0.117
-399.194	-200.000	0.013	-0.235
-398.179	332.754	0.022	0.042
-397.165	232.383	0.181	-0.301
-396.150	413.476	0.109	-0.236
-395.136	800.000	0.108	0.433
-394.121	31.853	0.075	0.065
-393.106	-200.000	-0.036	-0.392
-392.092	78.060	0.172	0.186
-391.077	93.697	0.200	0.230
-390.063	38.123	-0.136	0.122
-389.048	-200.000	-0.005	-0.104
-388.033	90.755	-0.163	-0.185
-387.019	185.763	0.013	0.019
-386.004	31.841	0.188	-0.164
-384.990	-63.736	-0.306	-0.127
-383.975	-103.409	-0.495	0.118
-382.960	-42.684	0.181	0.093
-381.946	-200.000	-0.015	0.422
-380.931	-200.000	0.003	-0.064
-379.917	79.477	0.217	0.235
-378.902	-50.930	-0.099	0.047
-377.888	-5.379	0.301	0.209
-376.873	-157.852	-0.119	-0.007
-375.858	269.593	0.116	0.206
-374.844	144.842	0.208	0.282
-373.829	-109.389	-0.332	-0.071
-372.815	5.645	0.153	-0.114
-371.800	800.000	-0.098	-0.373
-370.785	-90.125	-0.023	0.007
-369.771	-200.000	-0.049	-0.264
-368.756	212.505	-0.206	0.329
-367.742	214.578	-0.163	0.260
-366.727	800.000	-0.106	-0.379
-365.712	800.000	0.005	-0.020
-364.698	-3.267	-0.241	0.170
-363.683	221.343	0.127	-0.207
-362.669	-104.805	-0.298	0.069
-361.654	171.023	0.158	-0.229
-360.639	176.772	0.018	0.027
-359.625	155.523	0.123	-0.171
-358.610	-200.000	0.029	-0.132
-357.596	-42.031	0.151	0.078
-356.581	396.231	0.141	0.297
-355.566	112.899	-0.045	0.056
-354.552	-200.000	-0.027	-0.280
-353.537	-200.000	-0.016	-0.147
-352.523	-135.116	-0.091	-0.011
-351.508	-119.413	-0.289	-0.051
-350.493	-117.256	-0.140	-0.026
-349.479	-157.288	0.240	-0.015
-348.464	-12.800	0.244	0.161
-347.450	216.759	0.155	0.250
-346.435	58.022	0.128	0.126
-345.420	-106.723	-0.077	-0.017
-344.406	-27.197	0.298	0.175
-343.391	-86.711	0.207	0.064
-342.377	-200.000	-0.023	-0.196
-341.362	12.208	0.340	0.264
-340.348	125.781	0.156	0.199
-339.333	125.496	-0.133	-0.170
-338.318	63.966	-0.221	0.224
-337.304	49.193	-0.131	0.125
-336.289	-200.000	0.011	0.211
-335.275	30.562	0.079	-0.068
-334.260	92.013	0.122	-0.139
-333.245	-114.806	-0.241	-0.046
-332.231	361.685	0.098	0.199
-331.216	134.610	0.252	-0.330
-330.202	-10.432	-0.137	0.091
-329.187	-85.185	-0.196	0.062
-328.172	800.000	0.060	0.173
-327.158	34.540	0.255	0.225
-326.143	69.745	-0.209	0.217
-325.129	243.499	0.051	-0.087
-324.114	-76.600	-0.084	-0.030
-323.099	-47.003	0.080	0.040
-322.085	-200.000	-0.000	0.013
-321.070	-102.421	-0.288	0.069
-320.056	-200.000	0.017	-0.243
-319.041	-29.654	-0.122	0.071
-318.026	-37.621	0.228	0.122
-317.012	52.163	-0.109	0.105
-315.997	196.039	-0.185	-0.284
-314.983	-115.477	-0.256	-0.049
-313.968	542.215	0.105	0.252
-312.953	-200.000	0.018	0.261
-311.939	-200.000	-0.007	0.088
-310.924	-200.000	0.018	0.171
-309.910	50.131	-0.283	-0.270
-308.895	167.106	-0.193	0.276
-307.880	-200.000	0.007	0.089
-306.866	17.615	-0.276	-0.221
-305.851	-160.894	-0.237	0.013
-304.837	-54.692	0.220	-0.100
-303.822	-126.322	-0.036	-0.005
-302.807	209.100	-0.157	-0.249
-301.793	103.795	-0.093	-0.110
-300.778	4.569	0.105	0.077
-299.764	-79.804	-0.173	0.059
-298.749	-100.093	-0.407	-0.102
-297.735	-200.000	-0.023	-0.204
-296.720	20.137	0.271	0.221
-295.705	-4.507	-0.315	-0.219
-294.691	-9.420	0.354	0.238
-293.676	800.000	0.050	0.145
-292.662	-200.000	0.028	0.394
-291.647	595.794	-0.103	-0.256
-290.632	-79.214	-0.283	0.097
-289.618	-117.975	0.166	-0.030
-288.603	-86.363	-0.316	-0.098
-287.589	399.773	0.185	0.391
-286.574	-13.778	-0.184	0.120
-285.559	137.663	0.099	-0.131
-284.545	-21.325	0.248	-0.152
-283.530	361.808	-0.108	-0.218
-282.516	-31.405	-0.243	0.138
-281.501	48.019	0.217	0.204
-280.486	-43.423	0.124	0.063
-279.472	-200.000	-0.027	-0.243
-278.457	-90.977	-0.413	0.120
-277.443	-123.034	0.150	0.024
-276.428	-200.000	-0.001	0.151
-275.413	443.784	0.158	0.350
-274.399	-99.823	-0.094	-0.024
-273.384	-200.000	0.010	0.064
-272.370	100.295	0.212	-0.248
-271.355	-48.411	0.130	0.063
-270.340	-105.535	0.224	0.051
-269.326	-200.000	0.001	0.195
-268.311	-200.000	-0.011	0.425
-267.297	401.037	-0.035	0.075
-266.282	800.000	0.051	-0.153
-265.267	80.302	0.240	0.261
-264.253	-144.227	-0.106	0.010
-263.238	211.578	0.110	0.174
-262.224	-200.000	-0.014	-0.071
-261.209	-120.435	0.171	0.029
-260.195	-200.000	-0.056	-0.357
-259.180	-82.371	-0.175	-0.057
-258.165	-114.377	0.190	-0.037
-257.151	-130.531	-0.212	0.029
-256.136	-97.880	0.148	-0.038
-255.122	-200.000	-0.184	0.001
-254.107	800.000	0.024	0.097
-253.092	8.019	0.217	0.164
-252.078	365.713	0.072	0.146
-251.063	-70.060	-0.211	-0.081
-250.049	222.439	-0.066	-0.108
-249.034	-43.980	0.316	-0.160
-248.019	75.109	0.128	-0.136
-247.005	-54.324	-0.099	0.045
-245.990	42.405	-0.388	-0.355
-244.976	-200.000	-0.006	0.181
-243.961	-134.692	-0.189	-0.023
-242.946	47.871	-0.124	-0.116
-241.932	633.161	0.042	0.108
-240.917	237.536	-0.103	-0.172
-239.903	-200.000	0.002	-0.034
-238.888	-64.002	0.360	0.148
-237.873	-45.660	-0.150	-0.075
-236.859	-84.279	0.095	-0.030
-235.844	-104.529	-0.145	0.034
-234.830	-200.000	-0.016	0.175
-233.815	27.768	0.376	-0.319
-232.800	-3.931	0.305	0.213
-231.786	40.045	-0.088	-0.079
-230.771	39.433	-0.123	-0.111
-229.757	5.575	-0.116	0.086
-228.742	54.839	0.241	0.234
-227.727	-71.575	0.142	0.053
-226.713	-73.209	0.220	-0.081
-225.698	-200.000	0.018	0.141
-224.684	218.574	-0.102	-0.164
-223.669	90.632	-0.027	0.030
-222.655	20.715	0.098	-0.080
-221.640	800.000	-0.055	0.156
-220.625	-27.577	-0.310	-0.181
-219.611	130.558	0.094	-0.121
-218.596	-105.256	-0.299	0.069
-217.582	-126.270	0.208	-0.031
-216.567	-200.000	-0.066	-0.392
-215.552	-39.698	-0.304	0.160
-214.538	214.921	-0.006	0.010
-213.523	-151.530	0.163	-0.012
-212.509	-61.091	-0.196	-0.083
-211.494	82.703	-0.171	0.187
-210.479	653.144	0.103	0.264
-209.465	-15.298	0.121	-0.078
-208.450	-28.680	0.124	-0.071
-207.436	355.248	-0.117	-0.233
-206.421	583.865	-0.074	-0.183
-205.406	-200.000	-0.048	-0.232
-204.392	142.285	-0.109	-0.145
-203.377	-200.000	-0.021	-0.113
-202.363	-113.824	0.281	-0.055
-201.348	214.176	0.139	0.221
-200.333	59.155	0.236	0.233
-199.319	-200.000	0.022	-0.229
-198.304	139.873	-0.038	0.050
-197.290	46.065	0.294	-0.273
-196.275	800.000	0.108	0.440
-195.260	-200.000	0.018	-0.128
-194.246	-165.618	0.058	0.003
-193.231	-95.392	0.243	-0.066
-192.217	-107.214	0.345	0.076
-191.202	28.727	0.163	-0.138
-190.187	-82.457	-0.380	-0.124
-189.173	-200.000	-0.013	0.163
-188.158	4.508	-0.058	0.042
-187.144	800.000	0.108	0.318
-186.129	15.057	0.117	0.092
-185.114	-9.155	0.284	0.191
-184.100	785.297	-0.061	-0.168
-183.085	800.000	0.031	0.115
-182.071	-105.536	-0.044	0.010
-181.056	298.957	-0.138	0.255
-180.042	160.374	0.153	-0.214
-179.027	-88.071	0.150	0.045
-178.012	145.551	-0.042	-0.056
-176.998	-87.416	-0.160	0.049
-175.983	-81.993	0.273	0.090
-174.969	364.705	0.174	0.351
-173.954	-200.000	0.014	-0.150
-172.939	72.965	0.165	-0.173
-171.925	-121.210	-0.189	-0.032
-170.910	-200.000	0.025	-0.119
-169.896	18.306	-0.125	0.100
-168.881	119.680	0.090	0.112
-167.866	-12.275	0.233	0.153
-166.852	13.930	-0.153	0.120
-165.837	800.000	0.039	0.149
-164.823	475.722	0.191	-0.433
-163.808	-5.667	0.192	0.132
-162.793	326.604	-0.069	0.132
-161.779	174.291	-0.150	-0.217
-160.764	71.504	-0.082	0.085
-159.750	-57.502	-0.164	-0.072
-158.735	800.000	0.037	-0.128
-157.720	-200.000	-0.001	-0.148
-156.706	-66.833	-0.049	0.019
-155.691	-50.611	-0.218	0.103
-154.677	-11.103	-0.238	0.158
-153.662	329.283	0.096	-0.185
-152.647	800.000	-0.075	0.251
-151.633	9.302	0.173	-0.131
-150.618	-28.913	0.475	0.274
-149.604	-134.827	0.165	0.020
-148.589	-200.000	-0.080	-0.400
-147.574	800.000	-0.058	-0.218
-146.560	-200.000	-0.013	-0.125
-145.545	-200.000	0.019	-0.131
-144.531	-78.489	0.215	-0.074
-143.516	-101.222	0.086	-0.021
-142.502	-82.501	-0.109	-0.035
-141.487	95.632	-0.140	0.161
-140.472	-59.712	0.214	-0.092
-139.458	131.026	-0.026	-0.034
-138.443	17.460	0.153	0.122
-137.429	-200.000	0.070	-0.364
-136.414	800.000	-0.083	0.309
-135.399	-96.221	-0.223	-0.059
-134.385	800.000	-0.071	0.236
-133.370	57.786	-0.150	-0.147
-132.356	224.148	0.029	-0.047
-131.341	-116.504	0.256	-0.047
-130.326	-98.284	-0.205	0.053
-129.312	239.044	-0.191	0.318
-128.297	-30.458	0.211	-0.120
-127.283	-200.000	0.019	-0.112
-126.268	-22.235	-0.078	0.047
-125.253	800.000	0.061	0.221
-124.239	-80.253	0.156	0.052
-123.224	-200.000	-0.009	0.112
-122.210	84.314	0.171	-0.187
-121.195	53.232	-0.096	-0.092
