DTS Sentinel unit serial number:	SN413079Multiplexer serial number:	ORYXHardware model number:	OX4-SRSoftware version number:	ORYX F/W v4.00 Oryx Data Collector v3.7.2.0data status	okinstallation	princeton_trtdifferential loss correction	single-endedforward channel	channel 4reverse channel	N/Adate	2019/09/12time	09:27:11forward acquisition time	60.00reverse acquisition time	0.00gamma	496.2192k internal	0.2296k external	0.2296temperature offset calibration	1.0064default loss term (dB/km)	0.3790temperature slope calibration	1.0000multiplexer offset coefficient	1.0000multiplexer slope coefficient	1.0000fibre end	0.00T internal ref (°C)	35.37T ext. ref 1 (°C)	1.80T ext. ref 2 (°C)	33.30length (m)	temperature (°C)	Stokes	anti-Stokes-747.200	431.562	0.134	-0.297
-746.185	216.648	-0.134	-0.218
-745.171	29.063	-0.172	0.149
-744.156	800.000	-0.076	0.229
-743.142	113.123	-0.210	-0.261
-742.127	-51.097	0.329	0.158
-741.112	110.353	-0.254	-0.311
-740.098	316.533	-0.089	0.171
-739.083	321.894	0.104	-0.203
-738.069	-5.382	0.228	0.160
-737.054	70.966	0.104	-0.111
-736.039	-21.461	0.103	0.064
-735.025	800.000	-0.056	0.244
-734.010	-128.792	0.086	0.012
-732.996	-62.228	-0.369	0.157
-731.981	-135.225	-0.150	-0.018
-730.966	-200.000	-0.049	-0.311
-729.952	-124.102	-0.209	0.034
-728.937	-5.297	0.344	-0.241
-727.923	-3.644	-0.222	0.157
-726.908	-73.395	0.061	0.023
-725.894	523.624	0.044	-0.105
-724.879	-144.450	0.134	0.013
-723.864	-92.696	-0.296	-0.085
-722.850	-145.780	-0.411	0.037
-721.835	106.262	0.196	-0.237
-720.821	-200.000	0.003	-0.242
-719.806	-200.000	0.034	0.227
-718.791	78.873	-0.135	-0.147
-717.777	465.279	0.077	0.176
-716.762	136.727	-0.207	-0.276
-715.748	192.688	0.044	0.068
-714.733	66.995	-0.139	0.144
-713.718	800.000	-0.024	-0.079
-712.704	255.030	0.035	0.061
-711.689	-138.848	0.232	0.026
-710.675	-200.000	-0.049	-0.269
-709.660	17.218	-0.308	-0.249
-708.645	421.322	0.231	-0.505
-707.631	5.666	0.216	-0.163
-706.616	406.398	-0.173	-0.373
-705.602	590.837	0.056	-0.140
-704.587	800.000	0.074	-0.328
-703.572	-200.000	-0.019	-0.105
-702.558	800.000	-0.107	-0.330
-701.543	23.768	0.121	-0.101
-700.529	54.716	0.126	0.124
-699.514	-92.125	0.426	0.123
-698.499	-46.567	-0.155	-0.077
-697.485	-50.135	-0.199	-0.096
-696.470	39.528	-0.102	-0.093
-695.456	25.373	0.236	-0.200
-694.441	25.701	-0.373	-0.317
-693.426	92.548	-0.101	0.116
-692.412	17.413	-0.120	0.097
-691.397	-200.000	0.019	-0.285
-690.383	800.000	0.061	-0.203
-689.368	509.246	-0.133	-0.316
-688.354	20.006	0.173	0.142
-687.339	800.000	-0.064	-0.231
-686.324	-102.142	-0.200	0.049
-685.310	-95.026	-0.426	-0.117
-684.295	73.448	-0.423	-0.451
-683.281	800.000	0.085	0.289
-682.266	174.906	-0.014	0.020
-681.251	558.717	-0.101	0.249
-680.237	96.300	-0.107	-0.125
-679.222	9.696	-0.166	-0.128
-678.208	-51.163	-0.085	-0.041
-677.193	127.019	0.058	-0.075
-676.178	-79.512	-0.193	-0.067
-675.164	194.097	0.227	-0.350
-674.149	101.335	0.030	0.035
-673.135	57.175	-0.244	-0.243
-672.120	-5.820	-0.431	-0.300
-671.105	-121.386	0.407	0.069
-670.091	-13.133	-0.174	0.115
-669.076	34.694	-0.169	-0.151
-668.062	-106.479	-0.185	0.042
-667.047	-200.000	-0.020	0.119
-666.032	-11.420	-0.236	-0.158
-665.018	-78.442	0.218	0.076
-664.003	62.276	-0.323	-0.328
-662.989	93.458	-0.239	-0.275
-661.974	-200.000	-0.050	0.262
-660.959	-64.585	0.271	-0.112
-659.945	-70.121	0.224	0.087
-658.930	-68.211	0.069	0.027
-657.916	172.978	-0.209	-0.306
-656.901	-200.000	0.071	-0.351
-655.886	-200.000	-0.026	0.339
-654.872	-68.427	0.303	-0.120
-653.857	102.021	-0.156	-0.185
-652.843	-54.716	0.148	0.068
-651.828	-101.355	0.190	-0.047
-650.814	-200.000	-0.009	-0.196
-649.799	-145.206	-0.269	-0.025
-648.784	85.564	-0.020	0.022
-647.770	-73.321	0.089	-0.033
-646.755	-71.120	-0.332	0.127
-645.741	-200.000	0.035	-0.202
-644.726	44.945	-0.205	0.192
-643.711	-32.542	0.068	0.039
-642.697	231.236	0.083	-0.138
-641.682	-101.358	-0.303	-0.075
-640.668	-0.689	0.155	-0.112
-639.653	-112.783	-0.334	0.067
-638.638	142.750	0.107	0.145
-637.624	147.619	0.090	0.124
-636.609	-77.505	-0.103	0.036
-635.595	-54.759	-0.036	-0.017
-634.580	2.120	0.185	0.136
-633.565	88.111	-0.149	0.168
-632.551	171.217	-0.234	-0.342
-631.536	15.575	-0.286	0.228
-630.522	9.131	-0.163	0.125
-629.507	800.000	0.015	0.061
-628.492	-55.728	-0.218	-0.099
-627.478	-200.000	-0.038	0.346
-626.463	-5.949	-0.322	-0.224
-625.449	-88.838	-0.371	0.112
-624.434	-200.000	0.009	0.209
-623.419	-200.000	0.029	-0.202
-622.405	-39.506	0.313	0.167
-621.390	56.948	-0.178	0.176
-620.376	553.307	0.069	0.169
-619.361	-200.000	-0.040	-0.276
-618.346	100.668	0.104	-0.123
-617.332	223.603	-0.052	-0.086
-616.317	90.656	0.147	-0.167
-615.303	-63.568	0.216	-0.090
-614.288	-71.603	-0.418	0.159
-613.273	214.544	0.171	0.276
-612.259	65.391	0.116	-0.119
-611.244	800.000	0.096	-0.388
-610.230	178.242	0.132	-0.195
-609.215	34.945	0.130	0.116
-608.201	800.000	-0.043	-0.139
-607.186	384.499	-0.020	0.041
-606.171	-200.000	-0.011	0.052
-605.157	17.987	0.098	-0.080
-604.142	336.784	0.161	0.318
-603.128	140.861	-0.175	0.235
-602.113	-160.167	0.350	-0.019
-601.098	-200.000	-0.037	-0.218
-600.084	196.689	-0.161	-0.250
-599.069	-150.312	0.314	0.025
-598.055	-0.209	-0.221	-0.160
-597.040	-22.657	0.134	-0.082
-596.025	-200.000	0.026	-0.209
-595.011	6.892	-0.212	0.160
-593.996	-100.311	-0.088	-0.022
-592.982	172.847	0.079	-0.115
-591.967	420.931	-0.068	0.147
-590.952	185.004	0.103	0.155
-589.938	800.000	-0.051	-0.161
-588.923	-78.558	0.170	0.059
-587.909	800.000	-0.050	0.155
-586.894	-107.905	-0.346	0.076
-585.879	40.914	0.236	0.216
-584.865	95.670	-0.111	0.129
-583.850	137.227	-0.116	-0.154
-582.836	-29.365	-0.083	-0.048
-581.821	53.258	0.162	-0.157
-580.806	-200.000	0.036	0.195
-579.792	-200.000	-0.002	-0.213
-578.777	100.200	0.198	0.234
-577.763	777.138	0.074	0.204
-576.748	261.889	-0.180	-0.316
-575.733	149.535	0.118	-0.162
-574.719	279.328	0.135	-0.244
-573.704	287.056	0.119	0.219
-572.690	567.312	0.050	-0.123
-571.675	-159.572	0.103	-0.006
-570.661	-122.008	0.049	0.008
-569.646	20.746	0.198	-0.163
-568.631	-89.878	0.275	0.082
-567.617	800.000	-0.009	-0.027
-566.602	-200.000	0.017	-0.103
-565.588	102.456	-0.109	0.129
-564.573	-12.156	-0.279	-0.185
-563.558	500.230	0.199	0.466
-562.544	578.242	0.044	0.108
-561.529	486.457	-0.067	-0.154
-560.515	77.979	-0.138	0.149
-559.500	800.000	-0.065	0.252
-558.485	-200.000	-0.097	-0.000
-557.471	-49.472	-0.255	0.123
-556.456	142.331	0.133	0.179
-555.442	31.533	-0.081	0.071
-554.427	115.017	0.141	0.174
-553.412	800.000	0.117	0.332
-552.398	72.339	0.034	-0.036
-551.383	-33.629	-0.251	-0.140
-550.369	234.775	0.194	0.324
-549.354	-88.543	0.243	-0.073
-548.339	800.000	0.127	0.407
-547.325	28.559	-0.048	0.041
-546.310	352.272	0.045	0.091
-545.296	-147.411	0.207	0.018
-544.281	499.582	-0.069	-0.161
-543.266	-200.000	-0.022	0.103
-542.252	67.439	-0.215	0.222
-541.237	-200.000	-0.033	-0.286
-540.223	800.000	-0.056	0.210
-539.208	-61.996	-0.248	0.105
-538.193	-93.091	0.239	0.068
-537.179	-61.673	-0.145	0.061
-536.164	-99.732	0.359	0.091
-535.150	17.499	-0.258	-0.208
-534.135	435.340	-0.057	-0.125
-533.121	272.008	-0.091	-0.163
-532.106	-21.982	-0.065	-0.040
-531.091	37.718	0.134	0.121
-530.077	-6.101	0.118	0.081
-529.062	-122.193	-0.090	-0.015
-528.048	-31.302	-0.054	-0.031
-527.033	-39.141	0.228	0.122
-526.018	-133.003	-0.179	-0.023
-525.004	-66.758	0.328	0.131
-523.989	-200.000	0.004	-0.376
-522.975	112.181	-0.076	-0.093
-521.960	12.914	0.089	-0.070
-520.945	-102.473	-0.142	0.034
-519.931	-124.461	-0.116	-0.018
-518.916	422.269	-0.074	0.161
-517.902	800.000	0.033	-0.108
-516.887	-200.000	-0.028	-0.273
-515.872	62.435	0.160	0.162
-514.858	-23.985	0.093	0.056
-513.843	53.311	-0.086	-0.083
-512.829	-61.876	0.093	0.039
-511.814	9.883	-0.227	0.175
-510.799	-181.739	0.259	-0.005
-509.785	-90.211	0.297	-0.088
-508.770	800.000	0.048	-0.161
-507.756	323.844	-0.036	0.070
-506.741	529.290	-0.036	0.086
-505.726	137.986	-0.214	0.284
-504.712	7.889	0.122	-0.092
-503.697	472.127	-0.113	0.256
-502.683	-141.616	0.252	-0.026
-501.668	-62.969	-0.298	0.125
-500.653	-33.619	0.143	0.080
-499.639	-200.000	-0.053	-0.275
-498.624	-200.000	0.007	-0.250
-497.610	-134.671	0.168	0.021
-496.595	-142.768	-0.211	-0.021
-495.581	-18.040	-0.257	-0.163
-494.566	-114.088	0.218	-0.043
-493.551	-88.173	0.250	0.076
-492.537	-200.000	-0.060	-0.000
-491.522	81.239	-0.147	0.161
-490.508	800.000	-0.094	0.378
-489.493	91.374	0.039	-0.045
-488.478	-67.137	-0.317	-0.126
-487.464	111.153	-0.039	0.048
-486.449	-200.000	-0.024	0.112
-485.435	-179.048	-0.127	-0.003
-484.420	-107.952	0.315	-0.069
-483.405	-134.779	-0.379	0.047
-482.391	51.122	-0.019	-0.018
-481.376	-68.609	0.045	0.018
-480.362	-27.660	0.240	-0.141
-479.347	69.190	0.206	0.214
-478.332	49.729	0.056	-0.053
-477.318	-63.756	-0.066	-0.028
-476.303	107.447	-0.211	0.254
-475.289	-72.666	0.278	0.103
-474.274	391.828	-0.075	0.158
-473.259	-103.175	0.372	0.089
-472.245	-95.864	0.171	-0.046
-471.230	-155.616	-0.330	0.021
-470.216	398.475	-0.041	-0.086
-469.201	-200.000	-0.043	-0.375
-468.186	2.924	-0.344	-0.252
-467.172	800.000	0.041	0.127
-466.157	-136.737	0.260	-0.030
-465.143	-83.621	-0.235	-0.076
-464.128	202.782	0.061	-0.096
-463.113	342.496	0.094	0.185
-462.099	78.908	0.368	0.398
-461.084	-50.868	0.234	0.111
-460.070	194.628	-0.074	0.114
-459.055	-200.000	-0.014	0.125
-458.040	-99.302	0.271	-0.069
-457.026	-92.114	0.300	0.086
-456.011	335.809	-0.092	-0.181
-454.997	537.816	-0.141	-0.338
-453.982	-137.085	-0.246	0.028
-452.968	-48.075	-0.358	0.175
-451.953	-32.422	-0.156	0.088
-450.938	-69.393	0.168	0.065
-449.924	-79.114	0.032	-0.011
-448.909	-4.706	0.046	0.032
-447.895	800.000	-0.116	0.394
-446.880	-139.712	0.307	-0.033
-445.865	116.523	0.223	-0.276
-444.851	91.341	-0.045	-0.051
-443.836	278.877	-0.076	0.137
-442.822	-127.409	-0.266	-0.039
-441.807	169.195	0.166	0.240
-440.792	-126.172	0.197	-0.030
-439.778	396.699	0.049	0.104
-438.763	-101.916	0.176	0.043
-437.749	28.730	-0.247	-0.211
-436.734	-159.729	0.103	0.006
-435.719	106.749	0.216	-0.259
-434.705	292.830	-0.074	0.136
-433.690	119.996	0.144	-0.181
-432.676	-200.000	0.069	0.306
-431.661	-177.930	0.191	-0.005
-430.646	58.840	0.202	-0.201
-429.632	-200.000	-0.057	-0.465
-428.617	-136.255	0.338	-0.040
-427.603	-200.000	0.016	0.104
-426.588	-29.883	-0.118	0.068
-425.573	-90.685	-0.130	0.038
-424.559	33.974	0.062	-0.055
-423.544	800.000	-0.017	-0.061
-422.530	-200.000	0.041	0.242
-421.515	-12.900	-0.126	0.083
-420.500	46.267	-0.274	-0.256
-419.486	-200.000	-0.016	0.255
-418.471	-136.955	0.070	-0.008
-417.457	507.273	0.057	-0.134
-416.442	-3.610	-0.097	-0.068
-415.428	-97.366	0.217	-0.057
-414.413	180.040	0.072	0.107
-413.398	-112.609	0.405	0.081
-412.384	-4.360	-0.142	0.099
-411.369	189.862	-0.221	-0.334
-410.355	-25.145	-0.079	-0.047
-409.340	-45.000	-0.110	-0.055
-408.325	-163.697	0.179	-0.009
-407.311	-200.000	0.009	0.270
-406.296	-179.855	0.374	0.008
-405.282	-107.315	-0.031	-0.007
-404.267	368.840	-0.164	0.334
-403.252	5.637	-0.017	-0.013
-402.238	-200.000	0.000	-0.222
-401.223	-13.288	0.148	0.097
-400.209	-200.000	-0.064	-0.315
-399.194	269.260	0.130	-0.229
-398.179	2.865	-0.071	0.052
-397.165	32.016	-0.219	0.190
-396.150	-200.000	0.075	0.526
-395.136	-200.000	-0.036	0.356
-394.121	800.000	-0.107	-0.298
-393.106	-37.080	-0.148	0.080
-392.092	-200.000	-0.007	-0.234
-391.077	365.587	-0.141	-0.287
-390.063	-200.000	0.019	0.165
-389.048	183.745	0.102	-0.152
-388.033	-94.664	0.075	-0.021
-387.019	-130.391	0.026	-0.004
-386.004	84.751	0.082	0.091
-384.990	-131.327	-0.223	0.030
-383.975	-200.000	0.017	0.176
-382.960	-152.270	0.298	0.022
-381.946	-200.000	-0.021	-0.372
-380.931	76.386	-0.243	-0.259
-379.917	400.520	-0.124	-0.262
-378.902	422.710	-0.245	-0.529
-377.888	-6.662	-0.076	-0.052
-376.873	39.402	-0.186	0.168
-375.858	-60.866	0.137	0.058
-374.844	-200.000	0.038	0.196
-373.829	-110.050	-0.088	0.019
-372.815	-118.888	-0.226	-0.040
-371.800	96.359	-0.338	-0.389
-370.785	-30.432	-0.214	-0.122
-369.771	164.009	0.154	-0.218
-368.756	-50.906	0.225	0.107
-367.742	27.535	-0.150	-0.127
-366.727	-35.857	0.243	0.132
-365.712	-34.568	-0.105	0.058
-364.698	327.387	0.144	0.279
-363.683	187.562	0.174	0.262
-362.669	-59.434	0.160	-0.069
-361.654	23.035	0.135	-0.112
-360.639	-4.779	0.174	0.120
-359.625	-62.290	0.262	-0.110
-358.610	129.332	-0.177	-0.227
-357.596	-105.454	0.310	-0.071
-356.581	121.543	-0.093	0.116
-355.566	-71.413	-0.192	-0.072
-354.552	-33.734	0.084	0.047
-353.537	-128.423	0.432	-0.062
-352.523	134.962	0.124	0.162
-351.508	24.747	-0.232	-0.193
-350.493	-34.949	-0.271	0.149
-349.479	800.000	0.030	-0.085
-348.464	-200.000	0.020	0.261
-347.450	446.041	0.070	-0.155
-346.435	-200.000	0.048	-0.283
-345.420	-119.288	-0.336	-0.059
-344.406	-200.000	-0.008	0.089
-343.391	-200.000	0.016	0.259
-342.377	-51.537	0.345	-0.162
-341.362	9.519	0.123	-0.094
-340.348	227.871	-0.116	-0.190
-339.333	-100.988	-0.335	0.083
-338.318	580.330	0.049	-0.122
-337.304	241.500	0.111	0.187
-336.289	4.590	-0.346	0.255
-335.275	-122.267	0.138	-0.023
-334.260	-147.572	-0.179	0.015
-333.245	-70.885	-0.141	-0.053
-332.231	-27.664	-0.208	-0.121
-331.216	-90.152	0.320	-0.094
-330.202	800.000	0.090	-0.271
-329.187	-200.000	0.012	-0.075
-328.172	-28.482	0.065	-0.037
-327.158	5.662	0.196	-0.145
-326.143	-200.000	0.040	-0.269
-325.129	-200.000	0.011	-0.070
-324.114	386.083	-0.141	-0.293
-323.099	-16.911	-0.149	0.094
-322.085	-62.230	-0.116	0.049
-321.070	800.000	-0.064	-0.189
-320.056	359.694	0.018	0.037
-319.041	-81.770	-0.154	-0.051
-318.026	18.205	0.181	-0.145
-317.012	-41.226	-0.248	0.128
-315.997	613.848	-0.025	0.063
-314.983	-200.000	0.061	0.278
-313.968	205.162	-0.128	0.200
-312.953	800.000	-0.054	0.212
-311.939	-84.047	-0.216	-0.069
-310.924	-2.293	-0.284	-0.200
-309.910	500.859	0.143	0.332
-308.895	-131.326	0.130	0.017
-307.880	800.000	-0.083	-0.240
-306.866	-10.164	0.083	-0.056
-305.851	800.000	-0.114	-0.337
-304.837	-200.000	0.021	0.151
-303.822	-49.843	-0.096	-0.046
-302.807	27.245	-0.146	-0.123
-301.793	-200.000	-0.054	0.303
-300.778	-139.085	-0.372	0.040
-299.764	-114.340	-0.058	-0.011
-298.749	-50.451	-0.087	-0.041
-297.735	54.090	-0.134	-0.130
-296.720	-56.991	-0.231	0.102
-295.705	-18.002	-0.148	0.093
-294.691	-200.000	-0.049	0.394
-293.676	164.154	-0.255	0.361
-292.662	-125.484	-0.401	-0.061
-291.647	-17.116	-0.102	0.065
-290.632	-92.166	0.216	-0.061
-289.618	-200.000	-0.056	-0.299
-288.603	522.197	0.026	-0.062
-287.589	311.670	0.122	0.229
-286.574	-96.803	0.179	-0.047
-285.559	-163.317	0.015	0.001
-284.545	89.163	0.187	-0.208
-283.530	95.158	-0.114	0.130
-282.516	-131.196	0.251	-0.033
-281.501	-153.308	0.185	-0.013
-280.486	12.490	-0.264	0.204
-279.472	-30.770	-0.151	-0.085
-278.457	546.028	0.040	-0.095
-277.443	-200.000	-0.017	0.341
-276.428	215.380	0.165	0.263
-275.413	-151.381	0.207	-0.015
-274.399	221.499	-0.173	-0.279
-273.384	260.725	0.069	0.120
-272.370	800.000	0.069	0.233
-271.355	91.867	0.038	-0.043
-270.340	-34.975	-0.163	-0.089
-269.326	-6.970	-0.177	-0.120
-268.311	-87.674	0.049	-0.015
-267.297	-69.760	0.334	0.128
-266.282	264.761	0.121	-0.212
-265.267	-173.672	0.248	-0.007
-264.253	-78.261	0.069	0.024
-263.238	-33.906	0.067	-0.037
-262.224	800.000	0.061	-0.213
-261.209	83.268	-0.150	0.164
-260.195	-18.984	0.132	-0.083
-259.180	-16.116	0.067	-0.042
-258.165	-73.659	-0.065	-0.024
-257.151	-79.464	0.145	-0.049
-256.136	-200.000	0.027	-0.195
-255.122	-121.397	-0.379	-0.063
-254.107	64.169	-0.151	-0.153
-253.092	-200.000	0.013	0.192
-252.078	10.459	-0.147	0.112
-251.063	-44.044	-0.258	0.130
-250.049	-116.220	-0.205	-0.038
-249.034	-10.778	-0.120	0.080
-248.019	133.853	0.146	-0.189
-247.005	-200.000	-0.003	-0.165
-245.990	357.045	0.074	0.149
-244.976	22.080	-0.079	-0.065
-243.961	-200.000	0.006	-0.345
-242.946	71.743	0.173	-0.180
-241.932	232.692	0.062	0.102
-240.917	-66.466	0.231	0.092
-239.903	232.443	0.070	-0.115
-238.888	213.265	-0.151	-0.239
-237.873	150.761	0.055	0.075
-236.859	800.000	0.043	0.161
-235.844	-64.288	0.103	-0.042
-234.830	-55.314	-0.176	-0.079
-233.815	76.299	-0.078	-0.083
-232.800	-176.844	0.228	0.006
-231.786	-103.961	-0.299	0.070
-230.771	-200.000	0.015	-0.371
-229.757	26.287	-0.090	0.075
-228.742	-200.000	0.020	0.214
-227.727	-174.636	0.399	0.011
-226.713	176.043	-0.176	0.255
-225.698	800.000	0.051	0.172
-224.684	18.276	0.049	-0.039
-223.669	-167.793	0.125	-0.005
-222.655	40.997	0.200	-0.181
-221.640	455.083	-0.138	-0.306
-220.625	64.637	0.319	0.322
-219.611	54.833	0.047	0.045
-218.596	-134.493	-0.235	-0.029
-217.582	-123.055	-0.190	-0.030
-216.567	29.531	0.218	-0.186
-215.552	-192.426	0.168	0.002
-214.538	800.000	0.052	0.173
-213.523	571.538	0.088	0.213
-212.509	-11.229	-0.049	0.032
-211.494	-200.000	0.019	-0.429
-210.479	-36.963	-0.057	-0.031
-209.465	-157.849	-0.372	0.022
-208.450	-139.434	0.206	0.022
-207.436	-59.286	0.284	0.122
-206.421	-200.000	-0.008	-0.361
-205.406	55.843	-0.064	0.062
-204.392	-102.188	-0.170	0.041
-203.377	-49.080	-0.166	-0.079
-202.363	42.294	-0.111	-0.101
-201.348	99.741	-0.040	-0.046
-200.333	177.576	-0.086	0.125
-199.319	-37.443	-0.197	0.105
-198.304	86.675	-0.076	0.084
-197.290	-95.319	-0.133	-0.036
-196.275	209.276	-0.091	0.143
-195.260	-200.000	0.083	-0.486
-194.246	227.395	-0.115	-0.188
-193.231	-200.000	0.071	0.450
-192.217	-4.777	0.195	-0.135
-191.202	-200.000	0.130	-0.584
-190.187	800.000	-0.083	-0.277
-189.173	723.057	-0.138	-0.367
-188.158	-138.759	-0.118	0.013
-187.144	-68.555	0.131	0.051
-186.129	-59.322	0.074	-0.032
-185.114	-200.000	0.019	0.365
-184.100	-152.116	-0.384	-0.028
-183.085	-191.115	0.181	0.002
-182.071	258.472	-0.054	0.093
-181.056	111.698	0.216	0.261
-180.042	-109.739	0.210	0.044
-179.027	-29.905	0.405	-0.230
-178.012	682.023	-0.098	0.256
-176.998	264.875	-0.164	0.285
-175.983	48.464	-0.197	0.184
-174.969	36.555	0.075	0.066
-173.954	-38.876	0.261	-0.138
-172.939	93.987	0.066	-0.075
-171.925	800.000	0.063	0.177
-170.910	-98.031	0.056	-0.014
-169.896	65.556	0.289	-0.292
-168.881	-130.958	0.263	-0.035
-167.866	-42.404	-0.232	0.118
-166.852	800.000	-0.038	0.133
-165.837	223.835	-0.057	0.092
-164.823	83.099	-0.085	-0.092
-163.808	5.905	0.113	-0.083
-162.793	-15.589	-0.255	0.162
-161.779	-92.477	0.257	0.072
-160.764	-4.533	0.035	-0.024
-159.750	800.000	0.063	-0.220
-158.735	345.571	0.013	0.025
-157.720	-57.934	0.217	-0.095
-156.706	259.864	0.176	-0.303
-155.691	-30.987	0.103	0.058
-154.677	800.000	0.067	0.233
-153.662	93.149	-0.130	0.147
-152.647	-42.113	-0.308	-0.157
-151.633	-18.147	0.260	0.162
-150.618	-57.567	0.032	0.014
-149.604	-105.770	0.123	0.028
-148.589	-19.408	0.091	-0.057
-147.574	584.730	0.097	-0.238
-146.560	-200.000	-0.012	-0.220
-145.545	-185.092	0.342	0.005
-144.531	367.504	-0.023	0.047
-143.516	-185.017	-0.302	0.005
-142.502	534.827	0.030	0.072
-141.487	-72.244	-0.357	-0.132
-140.472	-7.659	-0.201	0.136
-139.458	-13.494	0.279	0.181
-138.443	218.639	-0.142	-0.227
-137.429	16.116	-0.181	-0.143
-136.414	715.102	0.046	0.121
-135.399	-200.000	-0.006	0.455
-134.385	-130.004	0.177	0.024
-133.370	800.000	-0.034	-0.118
-132.356	192.061	0.124	0.187
-131.341	-200.000	-0.016	-0.182
-130.326	-22.317	0.119	-0.072
-129.312	405.856	-0.167	0.352
-128.297	19.866	0.070	-0.056
-127.283	-85.542	0.178	0.055
-126.268	309.798	0.098	0.183
-125.253	-69.247	0.147	-0.056
-124.239	-25.403	-0.133	0.078
-123.224	-200.000	0.009	0.096
-122.210	-70.445	0.046	-0.018
-121.195	39.904	0.100	0.090
-120.180	-151.133	-0.316	0.024
