DTS Sentinel unit serial number:	SN413079Multiplexer serial number:	ORYXHardware model number:	OX4-SRSoftware version number:	ORYX F/W v4.00 Oryx Data Collector v3.7.2.0data status	okinstallation	princeton_trtdifferential loss correction	single-endedforward channel	channel 4reverse channel	N/Adate	2019/09/13time	15:21:34forward acquisition time	60.00reverse acquisition time	0.00gamma	496.2192k internal	0.2297k external	0.2297temperature offset calibration	1.0214default loss term (dB/km)	0.3790temperature slope calibration	1.0000multiplexer offset coefficient	1.0000multiplexer slope coefficient	1.0000fibre end	0.00T internal ref (°C)	35.37T ext. ref 1 (°C)	4.72T ext. ref 2 (°C)	29.28length (m)	temperature (°C)	Stokes	anti-Stokes-747.200	-22.967	0.098	-0.060
-746.185	772.470	-0.102	0.283
-745.171	147.877	0.060	0.082
-744.156	72.002	0.175	0.186
-743.142	-94.763	-0.605	0.168
-742.127	-50.230	-0.210	-0.102
-741.112	407.695	0.029	-0.063
-740.098	120.666	0.291	0.370
-739.083	79.876	-0.070	-0.077
-738.069	193.626	0.158	0.244
-737.054	-200.000	-0.026	-0.214
-736.039	-96.375	-0.155	0.042
-735.025	-81.010	0.251	-0.085
-734.010	220.727	-0.097	-0.159
-732.996	-200.000	-0.022	-0.114
-731.981	-86.978	0.164	-0.051
-730.966	-45.096	-0.312	0.159
-729.952	-33.970	0.152	-0.085
-728.937	529.259	0.209	-0.504
-727.923	-31.359	-0.193	0.111
-726.908	-82.157	-0.239	-0.080
-725.894	-200.000	0.082	-0.386
-724.879	260.901	-0.219	-0.387
-723.864	226.464	-0.064	-0.107
-722.850	-131.558	-0.086	0.012
-721.835	-137.870	-0.162	0.019
-720.821	-13.120	0.276	-0.183
-719.806	133.792	0.069	0.091
-718.791	363.429	-0.270	0.553
-717.777	389.859	-0.149	-0.315
-716.762	-200.000	0.007	-0.267
-715.748	-17.325	-0.568	-0.365
-714.733	-200.000	0.027	0.162
-713.718	-27.830	-0.294	0.174
-712.704	-48.582	0.224	0.110
-711.689	-34.837	-0.188	0.104
-710.675	95.518	-0.133	0.155
-709.660	-200.000	-0.023	-0.150
-708.645	-0.593	-0.136	0.098
-707.631	219.738	-0.225	-0.367
-706.616	-103.605	0.095	-0.023
-705.602	591.648	-0.106	0.266
-704.587	-200.000	-0.006	0.040
-703.572	-200.000	0.011	-0.314
-702.558	-200.000	0.005	-0.196
-701.543	427.532	-0.013	0.028
-700.529	113.884	0.146	0.181
-699.514	329.371	0.123	0.241
-698.499	172.358	0.162	0.237
-697.485	-200.000	-0.035	0.380
-696.470	-160.626	-0.209	-0.011
-695.456	-52.445	0.149	0.070
-694.441	800.000	-0.036	-0.140
-693.426	426.253	0.081	0.177
-692.412	-70.545	0.152	0.058
-691.397	13.571	0.069	-0.055
-690.383	-87.735	-0.194	0.060
-689.368	-39.674	0.133	-0.071
-688.354	-100.772	-0.147	-0.037
-687.339	256.272	-0.103	-0.180
-686.324	78.251	0.012	-0.013
-685.310	-103.682	0.161	0.038
-684.295	-200.000	0.001	0.101
-683.281	-135.399	0.207	-0.025
-682.266	168.083	0.104	-0.151
-681.251	-121.696	-0.277	-0.047
-680.237	198.338	0.106	0.165
-679.222	10.069	-0.081	-0.063
-678.208	-200.000	-0.011	-0.056
-677.193	800.000	-0.032	-0.105
-676.178	-185.017	0.107	-0.002
-675.164	800.000	-0.058	-0.207
-674.149	-18.371	0.205	-0.131
-673.135	-175.262	-0.242	0.007
-672.120	435.512	0.100	-0.222
-671.105	99.249	-0.148	-0.174
-670.091	-200.000	0.025	-0.202
-669.076	-108.401	0.082	-0.018
-668.062	-136.152	0.130	0.015
-667.047	-108.458	-0.125	0.027
-666.032	-121.889	0.086	0.014
-665.018	-200.000	-0.027	0.124
-664.003	27.274	-0.218	-0.186
-662.989	-114.296	-0.346	0.068
-661.974	-1.536	-0.250	-0.180
-660.959	-200.000	-0.003	0.327
-659.945	-31.163	-0.074	-0.042
-658.930	244.575	0.183	0.312
-657.916	800.000	0.081	0.357
-656.901	-200.000	0.015	-0.102
-655.886	-200.000	0.063	-0.314
-654.872	391.292	-0.049	-0.104
-653.857	-147.053	-0.303	0.026
-652.843	37.333	0.102	-0.092
-651.828	-200.000	0.006	0.163
-650.814	-111.897	-0.093	0.019
-649.799	-200.000	0.020	0.136
-648.784	-55.390	0.109	0.050
-647.770	-200.000	-0.009	0.465
-646.755	441.052	-0.100	-0.222
-645.741	96.601	-0.131	-0.152
-644.726	-2.152	-0.169	0.121
-643.711	-173.143	0.130	0.004
-642.697	-76.210	-0.191	0.069
-641.682	800.000	-0.086	-0.250
-640.668	-200.000	-0.013	0.260
-639.653	-117.705	-0.379	-0.069
-638.638	237.007	-0.069	0.117
-637.624	800.000	0.045	-0.179
-636.609	800.000	-0.039	-0.155
-635.595	-87.803	0.256	-0.079
-634.580	93.509	-0.091	-0.105
-633.565	-41.477	-0.165	-0.086
-632.551	-25.877	-0.228	0.137
-631.536	-74.015	-0.247	0.091
-630.522	260.712	-0.111	0.195
-629.507	396.712	-0.077	0.164
-628.492	-200.000	-0.026	0.222
-627.478	-95.123	0.040	0.011
-626.463	-109.339	0.373	0.080
-625.449	-34.920	-0.133	-0.074
-624.434	-36.448	0.027	0.015
-623.419	100.574	0.126	-0.149
-622.405	28.807	0.308	-0.265
-621.390	-200.000	-0.009	-0.260
-620.376	227.057	0.047	0.077
-619.361	-95.337	0.036	-0.010
-618.346	-200.000	0.024	-0.192
-617.332	11.724	0.096	0.075
-616.317	33.629	0.277	0.245
-615.303	-200.000	0.080	0.393
-614.288	-200.000	0.026	0.209
-613.273	-137.224	-0.190	0.022
-612.259	-200.000	0.013	-0.161
-611.244	-70.039	0.178	-0.069
-610.230	-44.020	0.127	0.065
-609.215	-61.476	0.025	0.011
-608.201	212.438	-0.167	0.268
-607.186	800.000	0.039	-0.161
-606.171	-198.745	-0.364	0.002
-605.157	53.494	-0.160	-0.156
-604.142	42.718	-0.076	0.070
-603.128	-17.498	0.261	-0.167
-602.113	-99.136	-0.239	-0.062
-601.098	186.543	0.261	-0.394
-600.084	-76.517	0.229	-0.082
-599.069	-41.105	-0.383	-0.201
-598.055	136.370	0.236	-0.313
-597.040	5.529	0.137	-0.103
-596.025	-2.756	0.303	0.215
-595.011	-107.797	0.388	-0.086
-593.996	-28.756	-0.242	0.141
-592.982	69.363	-0.076	0.080
-591.967	14.001	-0.317	-0.251
-590.952	440.055	0.093	-0.205
-589.938	-55.403	-0.224	0.102
-588.923	470.825	0.088	-0.200
-587.909	-118.751	0.417	-0.075
-586.894	-125.706	-0.237	-0.036
-585.879	-101.310	0.334	-0.083
-584.865	-39.078	0.298	0.159
-583.850	-200.000	0.005	0.221
-582.836	537.066	-0.178	-0.430
-581.821	800.000	-0.065	0.262
-580.806	26.010	0.113	-0.096
-579.792	-99.493	0.208	0.053
-578.777	174.807	0.273	-0.401
-577.763	-67.574	-0.349	-0.139
-576.748	556.627	0.053	-0.131
-575.733	800.000	0.046	-0.129
-574.719	208.297	-0.108	0.172
-573.704	34.321	0.163	-0.145
-572.690	-64.075	0.243	0.101
-571.675	-65.581	-0.438	0.178
-570.661	-131.323	-0.281	-0.038
-569.646	8.786	0.203	0.155
-568.631	290.604	0.093	0.172
-567.617	-34.025	0.104	0.058
-566.602	188.112	0.102	-0.154
-565.588	17.794	-0.313	0.253
-564.573	-23.931	-0.165	-0.100
-563.558	11.152	-0.188	-0.146
-562.544	7.963	0.263	-0.200
-561.529	198.222	-0.096	-0.149
-560.515	800.000	-0.036	0.117
-559.500	-151.202	0.318	0.024
-558.485	28.128	-0.279	0.239
-557.471	-38.181	-0.091	-0.049
-556.456	527.812	0.092	-0.219
-555.442	132.282	0.151	0.197
-554.427	800.000	-0.063	-0.216
-553.412	-37.187	-0.230	0.125
-552.398	-111.073	0.417	-0.087
-551.383	128.299	-0.338	-0.437
-550.369	-72.520	0.292	-0.109
-549.354	-7.260	-0.228	-0.157
-548.339	135.055	0.342	0.451
-547.325	-124.993	-0.194	-0.030
-546.310	65.639	0.151	-0.155
-545.296	397.675	-0.119	-0.252
-544.281	-14.954	-0.254	-0.165
-543.266	558.041	0.067	-0.164
-542.252	24.278	-0.113	0.094
-541.237	45.184	-0.137	-0.128
-540.223	293.014	-0.132	-0.244
-539.208	-109.263	0.156	0.033
-538.193	800.000	0.038	0.107
-537.179	102.615	0.052	-0.062
-536.164	800.000	0.065	0.228
-535.150	368.067	0.134	-0.273
-534.135	-200.000	-0.005	-0.050
-533.121	-143.944	0.196	-0.019
-532.106	800.000	0.058	-0.185
-531.091	58.277	0.226	-0.224
-530.077	46.271	-0.254	0.238
-529.062	-43.450	0.217	0.111
-528.048	800.000	-0.078	-0.288
-527.033	800.000	0.044	0.162
-526.018	-71.006	-0.383	-0.146
-525.004	83.164	0.151	-0.167
-523.989	-165.962	-0.146	-0.006
-522.975	-73.630	0.366	0.135
-521.960	-200.000	-0.030	-0.245
-520.945	638.554	-0.041	-0.106
-519.931	27.577	-0.138	-0.117
-518.916	-200.000	0.016	0.136
-517.902	-65.651	0.146	0.059
-516.887	800.000	-0.034	-0.148
-515.872	653.763	-0.093	-0.241
-514.858	356.181	0.089	-0.179
-513.843	800.000	-0.052	0.164
-512.829	-17.535	0.237	0.151
-511.814	-200.000	-0.015	-0.149
-510.799	-200.000	0.040	-0.491
-509.785	-42.932	0.122	-0.063
-508.770	-23.910	-0.123	-0.074
-507.756	800.000	0.030	-0.121
-506.741	-9.146	0.325	-0.220
-505.726	800.000	-0.079	0.285
-504.712	-119.694	0.203	0.036
-503.697	800.000	0.021	-0.069
-502.683	800.000	-0.037	-0.110
-501.668	551.042	-0.050	0.123
-500.653	-200.000	0.001	-0.105
-499.639	800.000	-0.066	-0.189
-498.624	319.905	-0.135	-0.260
-497.610	-144.666	0.297	0.028
-496.595	164.759	0.092	-0.131
-495.581	-200.000	-0.031	0.218
-494.566	800.000	0.056	-0.165
-493.551	-200.000	0.024	-0.272
-492.537	473.555	0.043	0.097
-491.522	-200.000	0.010	0.124
-490.508	6.513	0.105	0.079
-489.493	-101.284	0.099	-0.025
-488.478	-200.000	0.039	-0.238
-487.464	-147.336	-0.357	-0.031
-486.449	-82.425	-0.189	0.062
-485.435	340.048	-0.098	0.194
-484.420	119.960	0.046	0.057
-483.405	-127.693	0.253	0.037
-482.391	-143.218	-0.293	-0.028
-481.376	-200.000	-0.077	0.485
-480.362	405.322	0.115	0.246
-479.347	800.000	0.044	-0.150
-478.332	280.405	-0.029	-0.052
-477.318	800.000	0.143	0.435
-476.303	-44.808	0.191	-0.097
-475.289	399.886	0.064	-0.136
-474.274	113.697	-0.315	-0.387
-473.259	-93.292	0.427	0.120
-472.245	499.494	-0.074	0.172
-471.230	-73.142	0.191	0.071
-470.216	-72.711	0.447	-0.167
-469.201	39.730	0.110	0.099
-468.186	-67.949	-0.237	0.093
-467.172	599.333	0.091	-0.229
-466.157	39.538	0.073	-0.066
-465.143	-134.499	0.276	-0.034
-464.128	129.055	0.072	0.093
-463.113	800.000	0.067	0.273
-462.099	131.391	-0.261	-0.339
-461.084	761.045	0.044	0.120
-460.070	-103.132	0.295	0.070
-459.055	-200.000	-0.043	0.197
-458.040	27.412	0.302	0.257
-457.026	-200.000	0.039	-0.235
-456.011	506.182	0.012	-0.027
-454.997	30.605	0.100	-0.087
-453.982	-119.401	-0.171	0.030
-452.968	-200.000	-0.039	-0.188
-451.953	732.022	0.051	-0.138
-450.938	-200.000	0.041	0.378
-449.924	-200.000	-0.044	0.200
-448.909	171.071	-0.161	-0.234
-447.895	562.387	0.082	-0.201
-446.880	-200.000	0.007	0.218
-445.865	-85.245	-0.192	-0.061
-444.851	10.032	-0.159	-0.122
-443.836	-80.039	0.071	-0.024
-442.822	158.415	-0.195	-0.274
-441.807	800.000	0.034	0.108
-440.792	-33.477	-0.170	-0.095
-439.778	265.684	-0.115	0.202
-438.763	-3.847	-0.143	0.100
-437.749	228.956	-0.220	-0.362
-436.734	-200.000	-0.031	-0.214
-435.719	8.705	0.134	-0.102
-434.705	335.683	-0.114	-0.224
-433.690	165.833	0.171	0.244
-432.676	800.000	-0.082	0.253
-431.661	256.201	-0.085	-0.147
-430.646	3.494	0.200	-0.147
-429.632	236.647	-0.053	0.089
-428.617	-65.905	-0.221	0.089
-427.603	-43.844	0.240	0.122
-426.588	-200.000	-0.023	-0.197
-425.573	-185.758	-0.197	-0.003
-424.559	143.210	0.132	-0.177
-423.544	57.472	0.059	0.059
-422.530	-132.839	0.168	-0.022
-421.515	-43.358	-0.322	-0.164
-420.500	-136.499	0.182	0.021
-419.486	-110.022	-0.141	0.030
-418.471	244.792	0.150	0.254
-417.457	128.089	-0.134	0.172
-416.442	800.000	0.020	0.081
-415.428	-75.917	0.156	-0.056
-414.413	244.786	0.058	-0.098
-413.398	-41.428	-0.057	0.029
-412.384	-90.415	0.173	0.050
-411.369	104.240	-0.318	0.378
-410.355	800.000	0.090	0.271
-409.340	242.959	0.111	0.188
-408.325	626.905	0.091	-0.232
-407.311	633.775	-0.132	-0.336
-406.296	105.597	-0.085	-0.101
-405.282	5.182	0.100	-0.074
-404.267	800.000	0.158	0.454
-403.252	-146.014	-0.291	-0.026
-402.238	-144.649	-0.130	-0.012
-401.223	-200.000	0.017	0.143
-400.209	-79.116	0.090	-0.031
-399.194	-62.189	-0.471	0.198
-398.179	32.161	-0.116	-0.101
-397.165	547.436	0.168	0.404
-396.150	87.269	-0.170	0.190
-395.136	800.000	-0.020	-0.067
-394.121	-30.114	-0.320	0.184
-393.106	-84.853	0.291	-0.092
-392.092	416.892	0.034	0.073
-391.077	-131.918	-0.308	0.040
-390.063	-45.673	0.266	-0.132
-389.048	800.000	0.056	-0.164
-388.033	8.998	-0.229	-0.174
-387.019	-6.117	0.211	0.146
-386.004	147.416	0.119	0.161
-384.990	-200.000	-0.013	-0.126
-383.975	-96.003	0.121	-0.032
-382.960	-170.034	0.360	-0.013
-381.946	-122.192	-0.418	0.069
-380.931	130.428	0.162	0.209
-379.917	-152.321	-0.211	-0.015
-378.902	-200.000	0.067	0.341
-377.888	-200.000	0.050	0.259
-376.873	-55.872	0.127	-0.057
-375.858	-200.000	-0.041	0.285
-374.844	495.814	-0.042	-0.098
-373.829	-200.000	-0.000	-0.012
-372.815	-7.984	0.178	-0.121
-371.800	153.572	0.067	-0.092
-370.785	-52.607	-0.202	-0.094
-369.771	141.890	-0.134	-0.178
-368.756	-130.549	-0.168	-0.023
-367.742	-200.000	0.017	0.151
-366.727	-13.974	-0.348	0.226
-365.712	677.062	0.109	0.285
-364.698	281.862	-0.196	0.353
-363.683	-147.403	-0.331	0.028
-362.669	-100.833	-0.254	-0.063
-361.654	-131.031	-0.208	0.028
-360.639	800.000	0.072	0.267
-359.625	-200.000	-0.029	-0.247
-358.610	39.964	-0.082	0.074
-357.596	653.691	0.056	0.144
-356.581	61.222	0.148	-0.148
-355.566	-200.000	0.034	-0.328
-354.552	-82.228	0.062	0.020
-353.537	233.435	-0.049	0.081
-352.523	800.000	0.075	-0.299
-351.508	-200.000	0.017	0.343
-350.493	-48.259	0.204	0.099
-349.479	2.616	0.103	0.075
-348.464	-70.383	-0.060	0.023
-347.450	-200.000	-0.020	0.242
-346.435	170.403	-0.149	0.214
-345.420	800.000	-0.062	0.245
-344.406	-28.617	0.041	-0.024
-343.391	-4.821	0.327	-0.227
-342.377	-200.000	0.065	0.335
-341.362	-200.000	0.049	0.311
-340.348	-37.163	-0.039	-0.021
-339.333	800.000	0.028	0.109
-338.318	800.000	0.046	0.134
-337.304	-130.232	-0.311	-0.042
-336.289	104.998	0.181	-0.214
-335.275	-200.000	-0.043	-0.233
-334.260	-96.239	-0.201	0.053
-333.245	107.916	0.164	-0.196
-332.231	19.481	-0.191	-0.154
-331.216	-144.612	0.156	0.014
-330.202	-25.251	0.319	0.190
-329.187	615.740	0.043	-0.107
-328.172	48.612	0.086	-0.081
-327.158	-83.403	-0.323	-0.104
-326.143	-118.263	0.086	-0.015
-325.129	-71.054	-0.163	0.062
-324.114	-95.107	-0.254	-0.069
-323.099	-99.118	0.119	-0.030
-322.085	406.522	-0.030	0.064
-321.070	-139.319	-0.130	0.014
-320.056	13.264	0.103	-0.081
-319.041	-5.986	-0.152	0.104
-318.026	800.000	0.065	0.198
-317.012	800.000	0.038	-0.150
-315.997	-200.000	-0.063	-0.309
-314.983	276.442	0.128	0.229
-313.968	-200.000	0.057	-0.317
-312.953	-53.356	0.098	0.045
-311.939	-53.483	0.471	-0.216
-310.924	133.272	0.070	0.090
-309.910	-43.586	-0.124	-0.063
-308.895	800.000	-0.092	0.270
-307.880	-200.000	0.053	0.415
-306.866	-163.545	0.198	0.009
-305.851	-200.000	-0.005	0.190
-304.837	-99.538	-0.171	-0.043
-303.822	232.970	0.115	-0.190
-302.807	795.997	-0.117	-0.322
-301.793	251.442	-0.085	-0.146
-300.778	227.267	0.142	0.232
-299.764	-200.000	-0.015	0.152
-298.749	-75.707	-0.144	0.051
-297.735	-24.833	-0.148	0.088
-296.720	28.594	0.026	0.022
-295.705	11.876	-0.128	-0.099
-294.691	-200.000	0.000	0.080
-293.676	325.193	-0.183	-0.350
-292.662	-110.171	0.087	-0.018
-291.647	66.643	-0.164	-0.168
-290.632	-200.000	-0.003	0.121
-289.618	-152.656	-0.141	-0.010
-288.603	-106.332	0.146	-0.033
-287.589	-137.750	0.015	-0.002
-286.574	40.458	-0.127	0.115
-285.559	-50.045	0.241	0.115
-284.545	112.764	-0.031	0.038
-283.530	657.086	0.110	0.283
-282.516	-106.247	-0.135	0.030
-281.501	800.000	-0.097	-0.334
-280.486	-9.588	0.097	0.065
-279.472	421.970	-0.075	-0.161
-278.457	195.459	0.201	-0.307
-277.443	-37.240	-0.395	-0.212
-276.428	-200.000	-0.016	-0.234
-275.413	-200.000	0.008	0.064
-274.399	246.749	-0.136	-0.230
-273.384	-109.361	-0.191	-0.040
-272.370	492.855	-0.090	0.207
-271.355	800.000	0.164	-0.468
-270.340	66.798	0.267	-0.273
-269.326	-200.000	-0.037	-0.296
-268.311	-37.647	-0.153	0.082
-267.297	-166.160	0.216	0.009
-266.282	-130.749	-0.032	0.004
-265.267	-200.000	0.037	0.207
-264.253	-200.000	0.022	-0.302
-263.238	-40.951	-0.153	0.079
-262.224	135.124	0.087	0.113
-261.209	-15.921	-0.134	-0.086
-260.195	-94.691	-0.195	-0.053
-259.180	-200.000	0.045	-0.219
-258.165	-139.317	-0.362	0.039
-257.151	-104.988	-0.090	0.021
-256.136	605.655	-0.140	0.350
-255.122	-97.229	0.035	0.009
-254.107	-68.855	-0.113	-0.044
-253.092	398.163	-0.232	0.486
-252.078	-68.633	-0.159	-0.062
-251.063	-115.104	0.275	0.052
-250.049	-152.164	0.107	0.008
-249.034	17.413	-0.097	0.078
-248.019	118.699	-0.154	-0.190
-247.005	-139.586	-0.385	0.041
-245.990	800.000	0.144	0.435
-244.976	135.005	-0.114	-0.149
-243.961	82.125	-0.338	-0.367
-242.946	183.184	0.102	0.151
-241.932	-31.572	-0.181	-0.102
-240.917	534.673	-0.068	-0.162
-239.903	50.918	-0.130	-0.123
-238.888	616.913	0.097	-0.244
-237.873	-38.574	0.129	-0.068
-236.859	100.975	-0.175	0.204
-235.844	800.000	0.085	0.310
-234.830	-200.000	0.047	-0.210
-233.815	-2.133	0.276	-0.194
-232.800	124.579	0.116	0.147
-231.786	-200.000	0.024	-0.163
-230.771	109.619	0.104	-0.125
-229.757	576.488	-0.080	-0.197
-228.742	-59.482	-0.462	0.199
-227.727	-118.668	-0.311	0.055
-226.713	-108.409	0.069	-0.015
-225.698	800.000	-0.037	-0.133
-224.684	-55.516	0.146	-0.066
-223.669	112.318	-0.158	0.191
-222.655	800.000	0.075	-0.248
-221.640	-41.212	0.200	-0.103
-220.625	107.616	0.246	0.293
-219.611	-200.000	0.012	0.296
-218.596	-167.109	0.349	0.014
-217.582	-8.448	-0.076	-0.051
-216.567	-51.978	-0.265	-0.123
-215.552	-68.264	-0.156	-0.061
-214.538	800.000	-0.087	0.255
-213.523	-115.848	0.142	0.027
-212.509	-33.057	-0.212	0.117
-211.494	51.153	0.052	-0.050
-210.479	21.760	-0.062	0.050
-209.465	-124.444	0.297	-0.046
-208.450	394.211	0.091	0.190
-207.436	-200.000	-0.042	0.000
-206.421	-200.000	-0.015	0.076
-205.406	-26.231	-0.094	0.055
-204.392	800.000	0.087	-0.376
-203.377	-119.760	0.149	-0.026
-202.363	-53.843	0.070	-0.032
-201.348	58.958	0.044	-0.044
-200.333	-26.200	-0.244	0.143
-199.319	-200.000	-0.040	0.423
-198.304	96.489	0.074	0.085
-197.290	133.076	0.172	-0.222
-196.275	-77.296	0.086	0.030
-195.260	-200.000	0.010	0.066
-194.246	800.000	-0.023	-0.091
-193.231	-72.771	-0.115	0.042
-192.217	-125.151	-0.180	0.028
-191.202	11.731	0.163	0.125
-190.187	-2.430	0.196	0.138
-189.173	281.122	0.165	0.295
-188.158	290.613	-0.107	0.195
-187.144	800.000	0.104	0.427
-186.129	466.122	0.041	0.092
-185.114	23.022	0.159	-0.130
-184.100	-159.124	-0.365	0.021
-183.085	253.141	-0.103	0.175
-182.071	21.305	-0.136	0.111
-181.056	20.605	0.070	0.056
-180.042	499.495	-0.152	-0.349
-179.027	-126.210	-0.220	-0.033
-178.012	-190.496	0.098	-0.001
-176.998	-76.268	0.242	0.085
-175.983	-22.143	0.198	0.120
-174.969	-200.000	-0.010	0.126
-173.954	58.198	0.203	0.198
-172.939	344.195	0.136	-0.266
-171.925	-54.995	0.254	-0.114
-170.910	388.296	0.159	-0.329
-169.896	182.241	-0.082	-0.121
-168.881	800.000	-0.117	0.375
-167.866	800.000	-0.080	0.273
-166.852	-25.523	-0.105	-0.062
-165.837	800.000	0.030	0.125
-164.823	800.000	0.028	0.118
-163.808	81.787	0.304	0.329
-162.793	551.430	-0.140	0.335
-161.779	5.433	0.182	-0.134
-160.764	58.224	-0.268	0.263
-159.750	608.365	0.094	0.234
-158.735	-113.935	0.222	-0.043
-157.720	81.124	0.098	-0.105
-156.706	-111.529	-0.097	0.020
-155.691	231.020	0.161	0.264
-154.677	3.531	0.033	0.024
-153.662	-200.000	0.022	-0.119
-152.647	260.892	-0.072	-0.125
-151.633	-41.930	0.157	0.080
-150.618	-148.659	-0.311	0.025
-149.604	91.920	0.141	0.158
-148.589	-34.285	-0.387	-0.212
-147.574	-113.822	-0.038	-0.007
-146.560	136.418	0.089	0.116
-145.545	143.150	0.355	0.471
-144.531	-62.672	-0.160	0.066
-143.516	45.672	-0.118	0.109
-142.502	-91.419	0.243	-0.069
-141.487	-200.000	0.105	0.529
-140.472	16.654	-0.364	-0.287
-139.458	525.544	-0.085	0.200
-138.443	800.000	-0.125	0.407
-137.429	611.302	-0.026	0.065
-136.414	9.046	-0.203	0.153
-135.399	-200.000	-0.021	0.159
-134.385	15.519	-0.118	0.092
-133.370	-134.102	-0.258	-0.032
-132.356	-106.653	0.215	-0.048
-131.341	-4.731	-0.261	-0.179
-130.326	-200.000	0.088	-0.384
-129.312	800.000	0.029	0.092
-128.297	-5.722	-0.158	0.108
-127.283	800.000	-0.018	0.072
-126.268	-66.985	0.277	-0.109
-125.253	-62.862	-0.208	-0.086
-124.239	114.390	0.142	0.172
-123.224	89.600	0.143	0.159
-122.210	68.605	-0.193	-0.197
-121.195	-90.043	0.254	0.074
