DTS Sentinel unit serial number:	SN413079Multiplexer serial number:	ORYXHardware model number:	OX4-SRSoftware version number:	ORYX F/W v4.00 Oryx Data Collector v3.7.2.0data status	okinstallation	princeton_trtdifferential loss correction	single-endedforward channel	channel 4reverse channel	N/Adate	2019/09/16time	20:29:35forward acquisition time	60.00reverse acquisition time	0.00gamma	496.2192k internal	0.2312k external	0.2312temperature offset calibration	0.9967default loss term (dB/km)	0.3790temperature slope calibration	1.0000multiplexer offset coefficient	1.0000multiplexer slope coefficient	1.0000fibre end	0.00T internal ref (°C)	32.66T ext. ref 1 (°C)	0.08T ext. ref 2 (°C)	26.61length (m)	temperature (°C)	Stokes	anti-Stokes-747.200	-200.000	-0.021	-0.311
-746.185	458.227	-0.063	0.141
-745.171	-102.296	-0.147	-0.036
-744.156	-6.445	0.177	0.122
-743.142	7.397	0.248	-0.188
-742.127	-79.451	-0.058	-0.020
-741.112	-48.970	0.052	-0.025
-740.098	-31.555	-0.252	0.144
-739.083	-200.000	0.064	0.320
-738.069	-65.182	-0.286	0.117
-737.054	-105.575	-0.228	-0.052
-736.039	133.004	-0.079	-0.103
-735.025	134.037	0.046	0.060
-734.010	800.000	-0.102	-0.293
-732.996	-30.645	-0.223	-0.128
-731.981	95.904	-0.126	-0.146
-730.966	398.846	0.206	-0.438
-729.952	-200.000	-0.030	-0.257
-728.937	40.903	-0.188	-0.172
-727.923	0.210	0.145	0.105
-726.908	-200.000	0.009	-0.127
-725.894	-200.000	0.050	-0.243
-724.879	-156.710	0.344	-0.022
-723.864	-200.000	-0.016	-0.199
-722.850	39.244	0.093	-0.085
-721.835	-200.000	-0.004	-0.103
-720.821	800.000	-0.119	-0.341
-719.806	132.534	0.189	-0.247
-718.791	15.587	0.133	-0.106
-717.777	156.842	0.072	0.101
-716.762	-67.882	-0.310	0.123
-715.748	241.353	-0.248	-0.421
-714.733	-90.543	-0.322	-0.094
-713.718	138.005	0.125	-0.167
-712.704	-200.000	0.022	-0.233
-711.689	800.000	0.035	0.103
-710.675	217.779	-0.219	0.354
-709.660	34.672	0.331	0.294
-708.645	389.407	0.084	0.177
-707.631	-165.078	0.423	0.019
-706.616	622.827	-0.138	-0.352
-705.602	295.117	-0.080	0.148
-704.587	800.000	-0.079	0.266
-703.572	-122.688	0.179	-0.029
-702.558	-19.426	-0.214	-0.134
-701.543	-113.194	0.347	-0.069
-700.529	-200.000	-0.010	0.077
-699.514	-35.515	0.140	-0.077
-698.499	-80.141	0.354	-0.120
-697.485	353.257	-0.152	0.305
-696.470	-69.981	0.214	-0.082
-695.456	76.823	-0.123	-0.132
-694.441	-114.365	0.117	-0.023
-693.426	-200.000	-0.077	-0.350
-692.412	-200.000	-0.022	0.258
-691.397	-66.285	-0.133	0.054
-690.383	800.000	0.046	0.140
-689.368	800.000	0.118	-0.353
-688.354	-4.215	-0.142	-0.100
-687.339	514.473	-0.134	-0.316
-686.324	-36.704	0.118	0.064
-685.310	-200.000	0.006	0.177
-684.295	100.360	-0.101	-0.118
-683.281	57.474	-0.160	-0.158
-682.266	64.365	-0.216	-0.220
-681.251	-200.000	-0.047	0.292
-680.237	61.550	-0.107	0.108
-679.222	-30.826	-0.402	-0.230
-678.208	200.900	-0.244	-0.380
-677.193	-101.876	0.092	0.022
-676.178	-200.000	-0.022	0.126
-675.164	-200.000	-0.025	-0.156
-674.149	-146.951	-0.550	-0.048
-673.135	-200.000	0.066	0.342
-672.120	-51.693	-0.440	-0.208
-671.105	-185.650	0.411	0.006
-670.091	-109.873	-0.106	-0.023
-669.076	223.103	0.091	-0.149
-668.062	11.065	-0.413	-0.319
-667.047	44.409	-0.176	0.164
-666.032	-34.497	-0.097	0.054
-665.018	-200.000	0.017	0.135
-664.003	-200.000	-0.023	-0.413
-662.989	8.660	0.111	-0.085
-661.974	-32.736	-0.118	-0.067
-660.959	72.876	0.153	-0.161
-659.945	-200.000	0.033	-0.223
-658.930	-200.000	-0.040	0.196
-657.916	-62.016	0.147	0.062
-656.901	717.066	-0.122	0.327
-655.886	-200.000	-0.008	0.039
-654.872	-183.741	-0.296	0.005
-653.857	-200.000	-0.013	-0.318
-652.843	-165.430	-0.467	0.021
-651.828	119.059	0.238	-0.298
-650.814	319.159	-0.064	0.122
-649.799	-77.387	-0.178	-0.062
-648.784	-10.038	0.259	-0.174
-647.770	-200.000	0.063	0.342
-646.755	-200.000	0.000	-0.069
-645.741	28.705	0.123	0.105
-644.726	297.197	-0.208	-0.386
-643.711	-21.141	-0.133	-0.082
-642.697	37.225	0.159	0.142
-641.682	56.202	0.039	0.038
-640.668	88.927	0.089	0.100
-639.653	172.107	-0.081	0.117
-638.638	-29.945	-0.088	-0.051
-637.624	537.549	-0.110	-0.265
-636.609	-200.000	-0.067	0.315
-635.595	-200.000	-0.039	0.242
-634.580	-38.460	-0.264	-0.141
-633.565	462.711	0.083	-0.187
-632.551	800.000	0.023	-0.103
-631.536	-70.657	0.260	0.099
-630.522	-7.710	0.108	0.074
-629.507	620.592	0.133	0.337
-628.492	-104.493	-0.319	-0.075
-627.478	196.693	-0.022	0.034
-626.463	-97.310	0.114	0.030
-625.449	-93.571	0.391	-0.109
-624.434	-9.694	0.132	-0.089
-623.419	225.555	-0.065	0.106
-622.405	-141.537	0.185	-0.019
-621.390	119.575	-0.191	-0.239
-620.376	494.068	0.036	0.084
-619.361	50.871	0.131	-0.125
-618.346	-14.769	-0.106	-0.069
-617.332	-67.585	0.303	-0.120
-616.317	117.377	-0.131	0.163
-615.303	301.904	0.112	-0.209
-614.288	-122.637	-0.172	-0.028
-613.273	130.484	0.036	-0.047
-612.259	-129.880	-0.079	-0.011
-611.244	22.695	-0.222	0.184
-610.230	800.000	-0.072	0.278
-609.215	800.000	0.067	0.223
-608.201	-200.000	0.005	0.312
-607.186	-1.125	0.276	-0.197
-606.171	156.461	0.169	0.236
-605.157	9.847	0.039	-0.030
-604.142	-200.000	0.019	0.112
-603.128	-141.662	-0.108	0.011
-602.113	189.402	0.087	-0.131
-601.098	-6.892	-0.322	0.221
-600.084	530.189	-0.156	0.372
-599.069	800.000	0.060	-0.242
-598.055	-139.232	-0.557	-0.061
-597.040	211.391	0.132	0.209
-596.025	-154.722	-0.399	0.027
-595.011	699.060	-0.089	0.235
-593.996	-20.106	-0.212	-0.132
-592.982	800.000	0.064	0.250
-591.967	-17.261	0.227	-0.144
-590.952	-200.000	-0.002	-0.034
-589.938	539.620	-0.061	0.146
-588.923	800.000	0.058	0.227
-587.909	-200.000	-0.029	-0.302
-586.894	355.459	-0.132	-0.265
-585.879	-43.003	0.396	0.202
-584.865	-53.824	0.191	-0.088
-583.850	-200.000	-0.032	-0.228
-582.836	379.120	0.025	0.051
-581.821	36.426	0.020	-0.018
-580.806	86.306	-0.118	0.131
-579.792	-200.000	-0.054	-0.278
-578.777	800.000	0.045	-0.138
-577.763	491.074	-0.067	0.155
-576.748	165.652	0.216	-0.308
-575.733	-156.697	-0.191	0.012
-574.719	-200.000	-0.155	0.699
-573.704	-128.379	-0.232	-0.033
-572.690	8.590	0.103	-0.078
-571.675	-107.929	0.177	0.039
-570.661	-82.925	-0.186	0.061
-569.646	147.962	0.237	-0.322
-568.631	-62.351	-0.092	-0.039
-567.617	-103.943	0.275	-0.065
-566.602	492.051	-0.107	-0.246
-565.588	-100.022	0.165	0.042
-564.573	-61.846	-0.037	0.016
-563.558	16.056	-0.132	-0.105
-562.544	-83.513	0.053	-0.017
-561.529	-200.000	-0.005	0.092
-560.515	792.933	0.053	-0.146
-559.500	-78.170	-0.329	-0.114
-558.485	-169.164	0.172	-0.006
-557.471	-200.000	-0.009	0.113
-556.456	800.000	-0.046	-0.147
-555.442	32.731	0.391	-0.341
-554.427	-78.536	-0.106	-0.037
-553.412	-65.435	-0.389	0.158
-552.398	-4.280	-0.114	-0.079
-551.383	359.518	-0.086	0.173
-550.369	-47.820	0.074	0.036
-549.354	-71.617	0.196	-0.074
-548.339	-200.000	-0.014	-0.271
-547.325	90.890	0.184	0.207
-546.310	125.441	0.180	0.229
-545.296	-83.506	0.132	0.043
-544.281	-44.871	0.231	0.116
-543.266	-115.167	-0.128	0.024
-542.252	65.354	0.282	0.287
-541.237	-104.503	0.047	-0.011
-540.223	-16.648	0.056	-0.035
-539.208	800.000	0.086	-0.270
-538.193	-130.967	0.220	-0.030
-537.179	-66.018	0.191	-0.077
-536.164	-99.770	-0.430	0.108
-535.150	234.266	0.072	0.119
-534.135	-140.603	0.236	-0.025
-533.121	800.000	-0.080	0.313
-532.106	28.296	-0.198	0.168
-531.091	99.290	-0.141	-0.165
-530.077	-132.497	0.285	0.037
-529.062	800.000	-0.029	0.081
-528.048	-82.462	-0.244	0.080
-527.033	168.609	0.144	0.207
-526.018	-103.295	-0.324	0.077
-525.004	12.864	-0.303	0.236
-523.989	-105.005	-0.072	0.017
-522.975	-200.000	0.030	0.229
-521.960	173.117	0.106	-0.154
-520.945	-65.052	-0.112	-0.046
-519.931	634.558	-0.162	0.412
-518.916	-4.845	0.122	0.085
-517.902	14.742	-0.196	0.154
-516.887	248.541	0.145	-0.247
-515.872	-55.325	0.130	0.059
-514.858	-0.456	0.251	0.179
-513.843	800.000	0.011	0.044
-512.829	138.362	-0.033	-0.043
-511.814	-54.159	-0.389	-0.178
-510.799	-117.862	0.397	-0.072
-509.785	414.912	-0.091	-0.195
-508.770	800.000	0.044	-0.145
-507.756	25.067	0.240	-0.200
-506.741	-186.944	-0.100	0.001
-505.726	-200.000	0.025	-0.426
-504.712	-200.000	0.003	-0.228
-503.697	-25.583	0.271	-0.161
-502.683	-200.000	-0.018	-0.124
-501.668	-200.000	0.059	-0.445
-500.653	557.900	-0.160	0.389
-499.639	-18.371	0.037	-0.023
-498.624	-111.349	0.130	0.027
-497.610	-118.766	0.018	-0.003
-496.595	-52.265	0.275	0.128
-495.581	477.221	-0.100	-0.227
-494.566	-102.666	0.043	-0.010
-493.551	-37.482	-0.166	-0.089
-492.537	-96.116	-0.118	-0.032
-491.522	-86.905	-0.384	-0.118
-490.508	85.009	0.063	-0.069
-489.493	266.797	0.079	0.139
-488.478	800.000	-0.076	-0.227
-487.464	-136.207	-0.030	0.004
-486.449	512.920	-0.056	-0.132
-485.435	-91.055	0.300	0.087
-484.420	-29.953	0.283	0.162
-483.405	513.292	0.112	-0.262
-482.391	-130.584	-0.130	-0.018
-481.376	-72.660	0.081	0.030
-480.362	-48.872	-0.089	-0.043
-479.347	250.913	0.140	0.240
-478.332	158.543	0.050	0.069
-477.318	126.479	-0.095	-0.121
-476.303	-94.578	-0.194	-0.053
-475.289	386.536	-0.037	0.077
-474.274	-58.173	-0.277	-0.121
-473.259	74.158	0.158	-0.167
-472.245	295.670	0.078	0.143
-471.230	-13.386	-0.048	0.032
-470.216	-200.000	0.070	0.314
-469.201	-92.270	-0.485	-0.137
-468.186	-50.344	0.154	-0.073
-467.172	40.624	-0.198	-0.179
-466.157	800.000	-0.048	-0.149
-465.143	-57.929	-0.092	0.040
-464.128	800.000	-0.043	-0.133
-463.113	122.677	0.150	0.188
-462.099	800.000	0.073	-0.234
-461.084	800.000	-0.031	0.100
-460.070	-200.000	0.037	-0.223
-459.055	-200.000	-0.054	0.237
-458.040	-200.000	-0.056	0.283
-457.026	88.083	-0.122	0.136
-456.011	178.519	0.164	-0.241
-454.997	244.967	0.133	0.225
-453.982	-36.208	0.109	-0.059
-452.968	434.872	-0.067	-0.147
-451.953	-23.484	-0.228	-0.137
-450.938	9.717	0.218	-0.166
-449.924	-200.000	-0.004	0.145
-448.909	800.000	-0.046	-0.184
-447.895	-41.882	-0.173	0.089
-446.880	64.112	0.125	-0.127
-445.865	295.537	0.181	-0.332
-444.851	-200.000	-0.010	0.211
-443.836	-32.030	0.180	0.101
-442.822	-142.364	0.263	0.026
-441.807	800.000	0.172	0.556
-440.792	-200.000	-0.060	0.337
-439.778	-51.743	-0.125	-0.058
-438.763	-56.873	-0.198	0.088
-437.749	659.865	0.100	0.259
-436.734	324.390	-0.048	-0.093
-435.719	-157.600	0.090	0.005
-434.705	-92.807	0.067	-0.019
-433.690	-140.789	0.160	-0.017
-432.676	-117.790	0.285	-0.051
-431.661	-200.000	-0.040	-0.189
-430.646	-200.000	0.020	-0.230
-429.632	-200.000	-0.003	0.069
-428.617	-200.000	-0.048	-0.256
-427.603	85.990	0.163	-0.179
-426.588	632.859	-0.155	-0.393
-425.573	-200.000	-0.001	-0.082
-424.559	-200.000	-0.002	0.028
-423.544	-49.215	-0.178	0.085
-422.530	-4.303	-0.220	-0.152
-421.515	229.027	-0.173	0.284
-420.500	-200.000	-0.021	-0.109
-419.486	13.540	-0.105	0.082
-418.471	45.822	0.099	-0.092
-417.457	652.648	0.059	-0.152
-416.442	-49.458	-0.212	0.101
-415.428	21.156	0.129	0.105
-414.413	-181.017	0.123	0.002
-413.398	-116.552	-0.135	-0.025
-412.384	322.013	0.104	0.198
-411.369	-162.837	-0.190	-0.009
-410.355	-30.953	0.089	0.050
-409.340	246.502	-0.052	-0.087
-408.325	-101.724	-0.181	-0.044
-407.311	207.359	-0.276	0.432
-406.296	-34.308	0.229	0.126
-405.282	-27.092	0.200	0.117
-404.267	-40.337	-0.122	-0.063
-403.252	239.710	-0.090	-0.150
-402.238	-60.719	0.122	-0.052
-401.223	423.362	0.042	0.091
-400.209	-200.000	0.037	0.162
-399.194	-87.199	0.215	-0.065
-398.179	-200.000	0.001	0.255
-397.165	146.120	0.045	0.061
-396.150	-56.185	0.231	-0.103
-395.136	46.959	0.062	-0.058
-394.121	800.000	0.076	-0.278
-393.106	-200.000	0.026	0.253
-392.092	133.763	0.178	0.230
-391.077	22.797	0.144	0.118
-390.063	0.898	-0.260	0.186
-389.048	294.306	-0.027	-0.050
-388.033	-82.800	0.263	-0.085
-387.019	800.000	0.079	-0.301
-386.004	4.189	-0.147	0.108
-384.990	-200.000	0.030	0.202
-383.975	-200.000	-0.000	-0.120
-382.960	773.186	0.059	-0.161
-381.946	-50.454	-0.256	-0.121
-380.931	-8.736	-0.130	-0.087
-379.917	62.320	0.214	0.213
-378.902	696.344	0.062	-0.163
-377.888	0.892	0.078	0.056
-376.873	23.956	-0.070	-0.058
-375.858	-75.296	-0.106	0.038
-374.844	-200.000	-0.078	0.384
-373.829	800.000	0.076	0.243
-372.815	-171.667	0.470	-0.016
-371.800	92.311	0.180	-0.203
-370.785	-200.000	0.005	0.111
-369.771	800.000	0.024	-0.100
-368.756	101.716	-0.133	0.155
-367.742	546.946	-0.020	0.048
-366.727	286.484	0.197	0.355
-365.712	-5.169	0.180	-0.124
-364.698	-77.617	-0.292	0.101
-363.683	800.000	-0.049	-0.208
-362.669	141.726	-0.075	-0.099
-361.654	64.651	-0.086	-0.086
-360.639	-200.000	-0.027	0.125
-359.625	-200.000	-0.007	0.244
-358.610	-198.190	0.187	0.001
-357.596	219.508	0.143	0.228
-356.581	174.597	0.266	-0.385
-355.566	-75.492	0.197	-0.070
-354.552	-200.000	-0.015	-0.278
-353.537	-200.000	-0.024	-0.173
-352.523	-200.000	-0.047	0.285
-351.508	-156.262	0.201	-0.013
-350.493	185.984	-0.159	-0.236
-349.479	-27.245	-0.173	-0.101
-348.464	436.021	-0.008	0.017
-347.450	220.120	-0.030	0.048
-346.435	37.598	-0.203	0.180
-345.420	32.857	0.089	0.077
-344.406	416.313	-0.047	0.099
-343.391	-105.631	0.163	-0.037
-342.377	40.704	0.083	-0.075
-341.362	-127.859	0.154	0.022
-340.348	-6.694	-0.371	-0.252
-339.333	-83.269	-0.065	0.021
-338.318	-83.350	-0.469	-0.150
-337.304	45.948	-0.216	-0.199
-336.289	678.426	-0.065	-0.168
-335.275	-1.477	0.310	-0.218
-334.260	-143.016	-0.079	-0.008
-333.245	-104.596	-0.175	-0.040
-332.231	-110.490	-0.145	-0.030
-331.216	243.784	0.060	-0.100
-330.202	800.000	-0.078	-0.272
-329.187	-200.000	0.004	-0.105
-328.172	38.907	0.074	0.066
-327.158	-200.000	-0.001	-0.043
-326.143	-17.621	0.118	-0.074
-325.129	-113.820	-0.238	0.046
-324.114	9.490	-0.121	-0.091
-323.099	-1.352	0.140	0.099
-322.085	-141.799	0.369	0.037
-321.070	320.903	-0.112	-0.212
-320.056	47.311	-0.078	-0.072
-319.041	264.954	0.050	0.086
-318.026	-200.000	0.017	0.103
-317.012	-200.000	0.017	0.263
-315.997	474.420	-0.115	-0.258
-314.983	-12.788	-0.132	-0.086
-313.968	-84.690	0.247	-0.078
-312.953	223.129	0.088	-0.142
-311.939	-151.361	0.035	0.003
-310.924	-94.375	0.081	-0.022
-309.910	800.000	-0.085	-0.274
-308.895	-76.189	0.235	-0.083
-307.880	-200.000	-0.003	0.071
-306.866	-67.069	-0.198	0.078
-305.851	41.616	0.139	0.125
-304.837	-200.000	0.046	-0.296
-303.822	36.949	-0.075	-0.066
-302.807	645.048	0.044	0.111
-301.793	45.068	-0.049	-0.045
-300.778	264.395	0.105	-0.182
-299.764	191.979	0.084	0.126
-298.749	-200.000	0.045	0.203
-297.735	-103.352	-0.244	-0.057
-296.720	-50.270	-0.227	0.107
-295.705	157.326	0.018	-0.025
-294.691	7.082	-0.210	0.156
-293.676	-97.922	0.040	0.010
-292.662	414.909	0.108	0.230
-291.647	800.000	-0.132	-0.424
-290.632	-100.175	-0.265	-0.066
-289.618	-140.476	0.518	0.054
-288.603	-123.847	-0.230	0.036
-287.589	-200.000	0.030	0.362
-286.574	421.638	-0.109	-0.234
-285.559	312.453	0.048	-0.089
-284.545	800.000	-0.055	0.181
-283.530	-200.000	0.037	0.418
-282.516	-37.806	0.115	0.061
-281.501	-183.534	-0.098	0.002
-280.486	386.732	0.102	-0.210
-279.472	232.381	0.168	0.275
-278.457	-127.066	0.088	-0.013
-277.443	-73.574	-0.179	0.065
-276.428	-140.352	0.298	-0.031
-275.413	-62.197	-0.363	0.151
-274.399	128.393	0.054	0.069
-273.384	-27.524	-0.108	-0.062
-272.370	-32.106	-0.269	-0.150
-271.355	100.439	-0.172	-0.199
-270.340	800.000	0.038	-0.122
-269.326	186.635	-0.046	-0.068
-268.311	57.951	-0.139	-0.135
-267.297	-200.000	-0.039	0.212
-266.282	-39.947	-0.292	0.152
-265.267	-200.000	-0.071	0.366
-264.253	-49.790	-0.250	0.118
-263.238	-200.000	0.038	-0.381
-262.224	189.296	0.163	0.244
-261.209	114.235	0.104	-0.125
-260.195	800.000	0.063	-0.199
-259.180	249.873	0.040	-0.067
-258.165	-200.000	0.027	0.145
-257.151	-200.000	0.052	0.281
-256.136	-43.838	0.251	0.126
-255.122	-110.709	-0.078	-0.016
-254.107	27.281	0.111	-0.093
-253.092	121.713	0.156	0.194
-252.078	94.395	-0.135	0.153
-251.063	91.036	-0.112	-0.125
-250.049	-74.916	0.156	0.056
-249.034	-70.862	-0.112	0.042
-248.019	-128.118	-0.177	-0.025
-247.005	-37.191	-0.165	0.088
-245.990	-200.000	0.017	0.174
-244.976	-36.736	-0.234	0.125
-243.961	-200.000	0.060	0.298
-242.946	800.000	0.061	-0.211
-241.932	139.529	0.080	0.105
-240.917	448.450	0.025	0.055
-239.903	58.222	0.085	-0.083
-238.888	-16.396	0.158	0.100
-237.873	-136.380	-0.412	0.048
-236.859	315.420	0.072	-0.136
-235.844	-185.600	-0.161	-0.002
-234.830	-200.000	-0.052	0.293
-233.815	298.672	-0.126	-0.231
-232.800	-76.634	-0.119	0.042
-231.786	14.888	0.331	0.258
-230.771	-200.000	0.021	0.294
-229.757	-111.399	-0.428	0.087
-228.742	282.878	-0.213	0.380
-227.727	-138.916	-0.129	-0.014
-226.713	123.625	-0.015	-0.019
-225.698	800.000	-0.035	0.108
-224.684	-114.310	-0.100	-0.019
-223.669	-200.000	-0.015	0.092
-222.655	-76.048	0.114	0.040
-221.640	-200.000	-0.048	0.434
-220.625	-84.580	0.289	-0.091
-219.611	-61.544	-0.132	0.055
-218.596	-81.862	0.236	-0.077
-217.582	-73.967	-0.178	-0.064
-216.567	-2.253	0.144	-0.100
-215.552	241.450	-0.055	-0.092
-214.538	564.197	0.054	0.130
-213.523	88.595	-0.024	0.027
-212.509	309.032	-0.099	-0.184
-211.494	162.529	-0.125	-0.175
-210.479	32.015	-0.141	-0.121
-209.465	-52.926	0.087	0.040
-208.450	-200.000	-0.040	0.216
-207.436	9.872	-0.271	-0.204
-206.421	-110.399	-0.269	0.055
-205.406	-200.000	-0.282	-0.000
-204.392	-152.815	0.050	-0.004
-203.377	800.000	-0.072	0.205
-202.363	-200.000	0.042	-0.200
-201.348	-128.107	-0.130	0.018
-200.333	121.079	0.155	0.192
-199.319	-200.000	0.005	0.111
-198.304	-112.390	-0.329	-0.065
-197.290	-33.514	0.209	0.115
-196.275	552.387	0.106	-0.253
-195.260	-89.584	0.204	-0.059
-194.246	97.176	-0.129	-0.147
-193.231	800.000	0.045	-0.168
-192.217	235.557	0.226	-0.370
-191.202	-4.357	0.298	-0.205
-190.187	-127.575	0.229	0.033
-189.173	-200.000	0.038	-0.337
-188.158	-22.460	0.234	-0.140
-187.144	-120.166	0.132	0.022
-186.129	-176.846	0.308	0.008
-185.114	89.218	-0.105	0.116
-184.100	352.023	0.060	-0.118
-183.085	-17.004	0.122	-0.076
-182.071	800.000	0.046	-0.133
-181.056	-200.000	-0.141	-0.000
-180.042	-108.099	-0.235	0.051
-179.027	-171.116	-0.144	0.005
-178.012	-112.750	-0.155	0.031
-176.998	373.413	0.137	-0.276
-175.983	408.753	-0.090	0.190
-174.969	124.277	0.125	0.155
-173.954	-76.919	0.166	-0.058
-172.939	391.345	-0.148	0.305
-171.925	-200.000	0.015	0.308
-170.910	-150.054	0.264	0.020
-169.896	16.362	0.085	-0.066
-168.881	-200.000	0.006	0.219
-167.866	256.408	0.071	-0.120
-166.852	-58.350	0.185	0.080
-165.837	-30.616	0.190	-0.107
-164.823	-102.814	-0.425	0.100
-163.808	-98.022	-0.290	-0.074
-162.793	-200.000	0.025	-0.247
-161.779	-38.518	-0.095	0.050
-160.764	135.840	-0.101	-0.131
-159.750	95.374	0.293	-0.331
-158.735	149.586	-0.094	0.127
-157.720	308.622	0.046	0.085
-156.706	-74.052	0.402	-0.144
-155.691	800.000	-0.028	-0.095
-154.677	800.000	-0.080	-0.340
-153.662	-200.000	-0.014	-0.270
-152.647	8.443	-0.208	0.155
-151.633	-34.166	-0.062	0.034
-150.618	-71.404	-0.162	-0.060
-149.604	-100.914	0.134	0.033
-148.589	68.529	-0.179	0.182
-147.574	-80.929	0.272	-0.089
-146.560	132.223	-0.251	-0.321
-145.545	50.936	-0.169	0.159
-144.531	106.105	-0.220	-0.258
-143.516	172.389	0.038	-0.055
-142.502	-200.000	-0.030	0.307
-141.487	-75.245	0.275	0.097
-140.472	-134.769	-0.124	0.015
-139.458	-76.600	0.357	-0.124
-138.443	-200.000	-0.065	0.345
-137.429	800.000	-0.107	0.347
-136.414	-200.000	0.016	0.115
-135.399	-200.000	-0.001	0.248
-134.385	-69.366	-0.201	-0.077
-133.370	800.000	0.058	-0.181
-132.356	-119.364	-0.050	0.009
-131.341	-128.830	-0.273	-0.038
-130.326	-60.903	-0.390	-0.163
-129.312	-200.000	-0.013	0.066
-128.297	588.387	0.076	0.185
-127.283	-27.333	0.260	-0.150
-126.268	79.094	-0.116	-0.123
-125.253	800.000	0.065	-0.215
-124.239	-84.175	-0.336	-0.106
-123.224	-38.692	-0.209	0.109
-122.210	634.826	-0.068	0.172
