DTS Sentinel unit serial number:	SN413079Multiplexer serial number:	ORYXHardware model number:	OX4-SRSoftware version number:	ORYX F/W v4.00 Oryx Data Collector v3.7.2.0data status	okinstallation	princeton_trtdifferential loss correction	single-endedforward channel	channel 4reverse channel	N/Adate	2019/09/18time	10:21:35forward acquisition time	60.00reverse acquisition time	0.00gamma	496.2192k internal	0.2317k external	0.2317temperature offset calibration	0.9988default loss term (dB/km)	0.3790temperature slope calibration	1.0000multiplexer offset coefficient	1.0000multiplexer slope coefficient	1.0000fibre end	0.00T internal ref (°C)	28.09T ext. ref 1 (°C)	0.34T ext. ref 2 (°C)	24.56length (m)	temperature (°C)	Stokes	anti-Stokes-747.200	270.450	0.245	0.436
-746.185	-24.865	0.058	-0.035
-745.171	183.361	0.096	0.143
-744.156	-16.961	-0.249	0.160
-743.142	-4.938	0.136	-0.095
-742.127	-200.000	-0.059	0.286
-741.112	-77.121	-0.309	-0.109
-740.098	172.762	-0.274	0.399
-739.083	40.562	0.410	-0.374
-738.069	257.962	-0.059	0.103
-737.054	-97.658	-0.226	-0.059
-736.039	394.409	0.112	0.237
-735.025	94.690	0.037	-0.043
-734.010	5.750	0.071	0.053
-732.996	-200.000	-0.003	-0.096
-731.981	553.679	0.121	-0.295
-730.966	-200.000	0.061	-0.279
-729.952	-92.345	0.120	0.034
-728.937	-147.098	0.166	-0.014
-727.923	800.000	-0.062	-0.230
-726.908	-34.701	0.359	-0.198
-725.894	800.000	-0.070	-0.233
-724.879	114.006	-0.177	0.218
-723.864	-200.000	0.034	-0.164
-722.850	-80.952	-0.485	-0.162
-721.835	-200.000	-0.071	-0.492
-720.821	-200.000	-0.003	0.032
-719.806	800.000	0.074	0.210
-718.791	-200.000	-0.052	-0.296
-717.777	124.057	-0.086	-0.110
-716.762	-23.906	-0.138	0.084
-715.748	-200.000	0.004	-0.127
-714.733	-89.292	-0.185	-0.055
-713.718	101.660	0.138	-0.163
-712.704	208.906	0.166	-0.262
-711.689	800.000	-0.072	-0.265
-710.675	2.222	-0.176	-0.129
-709.660	-152.772	0.070	-0.005
-708.645	-10.361	-0.149	-0.100
-707.631	-105.105	0.271	0.063
-706.616	-91.022	-0.224	-0.065
-705.602	-79.099	-0.271	-0.093
-704.587	91.292	0.262	-0.298
-703.572	-55.937	0.203	-0.092
-702.558	-131.884	0.133	0.018
-701.543	-26.204	0.290	-0.172
-700.529	-49.880	-0.135	-0.065
-699.514	-72.558	-0.113	0.042
-698.499	115.125	-0.165	-0.203
-697.485	195.498	0.132	0.203
-696.470	701.863	-0.120	0.321
-695.456	422.438	0.125	0.272
-694.441	-33.735	0.185	0.103
-693.426	148.833	-0.152	-0.208
-692.412	-82.155	-0.112	-0.037
-691.397	220.631	-0.145	-0.236
-690.383	-56.149	-0.270	-0.122
-689.368	-119.954	0.446	-0.077
-688.354	-149.529	-0.399	0.032
-687.339	-172.277	0.124	0.004
-686.324	99.778	0.306	0.358
-685.310	-200.000	-0.011	0.165
-684.295	-40.965	0.253	-0.132
-683.281	143.244	-0.235	-0.317
-682.266	254.970	0.060	-0.103
-681.251	-78.015	-0.303	0.105
-680.237	-200.000	0.009	0.049
-679.222	-7.750	-0.349	0.238
-678.208	106.256	0.196	0.235
-677.193	800.000	0.026	-0.084
-676.178	-181.930	-0.440	0.008
-675.164	19.114	-0.219	0.178
-674.149	-28.284	0.275	0.160
-673.135	539.582	-0.057	0.138
-672.120	-90.056	0.274	0.081
-671.105	-106.027	-0.384	-0.087
-670.091	555.403	-0.117	0.285
-669.076	-68.328	0.165	0.065
-668.062	-200.000	0.006	-0.312
-667.047	62.904	-0.147	-0.149
-666.032	28.961	0.277	0.237
-665.018	-0.024	-0.199	0.143
-664.003	800.000	0.125	0.358
-662.989	-1.996	-0.168	0.119
-661.974	-57.803	-0.214	0.095
-660.959	-103.167	-0.402	-0.096
-659.945	580.134	0.078	0.193
-658.930	37.550	-0.285	0.255
-657.916	-157.968	0.411	0.024
-656.901	-39.605	-0.261	-0.138
-655.886	-124.402	-0.174	-0.027
-654.872	16.969	-0.247	0.197
-653.857	-200.000	-0.048	-0.346
-652.843	79.099	0.130	0.141
-651.828	287.009	-0.074	-0.135
-650.814	-112.232	-0.073	0.015
-649.799	292.655	-0.112	0.206
-648.784	800.000	0.016	-0.050
-647.770	-49.198	-0.156	-0.075
-646.755	800.000	-0.036	0.153
-645.741	800.000	0.014	-0.040
-644.726	-4.660	-0.081	-0.057
-643.711	800.000	0.015	0.066
-642.697	-99.735	-0.123	0.031
-641.682	221.261	-0.072	-0.117
-640.668	-60.895	0.234	0.100
-639.653	-68.119	0.284	0.112
-638.638	43.587	0.125	0.115
-637.624	-31.200	-0.464	0.264
-636.609	-200.000	-0.027	0.180
-635.595	-137.180	-0.146	-0.017
-634.580	-200.000	-0.022	0.201
-633.565	-200.000	0.029	-0.161
-632.551	459.939	0.045	0.100
-631.536	-49.581	-0.140	-0.067
-630.522	313.026	0.047	0.089
-629.507	-115.229	0.212	-0.041
-628.492	-16.136	0.133	-0.085
-627.478	-126.669	-0.103	0.015
-626.463	189.380	-0.088	0.133
-625.449	165.158	-0.117	0.166
-624.434	2.644	0.148	0.108
-623.419	-29.790	-0.122	-0.070
-622.405	-145.289	-0.267	-0.024
-621.390	559.805	-0.076	0.184
-620.376	163.283	0.258	0.365
-619.361	369.399	-0.095	0.195
-618.346	-60.276	-0.048	0.021
-617.332	-105.978	-0.139	0.032
-616.317	-40.244	-0.074	-0.039
-615.303	-76.810	0.102	-0.036
-614.288	-200.000	-0.022	-0.111
-613.273	386.627	0.181	0.377
-612.259	-81.666	-0.178	-0.059
-611.244	-200.000	-0.002	0.097
-610.230	116.386	0.105	0.129
-609.215	343.162	0.063	0.124
-608.201	519.789	0.090	0.213
-607.186	-200.000	0.033	-0.223
-606.171	284.162	-0.200	0.363
-605.157	800.000	0.089	0.314
-604.142	-200.000	0.005	-0.142
-603.128	266.988	0.070	0.123
-602.113	714.204	0.048	-0.129
-601.098	-69.220	0.128	0.050
-600.084	-139.044	0.102	0.011
-599.069	-27.275	0.338	0.198
-598.055	-29.460	-0.173	0.100
-597.040	-200.000	0.003	-0.248
-596.025	116.869	0.129	-0.159
-595.011	-116.090	-0.567	0.106
-593.996	-200.000	-0.000	0.036
-592.982	-94.027	0.368	-0.102
-591.967	126.615	0.231	0.295
-590.952	44.505	-0.303	-0.280
-589.938	-200.000	0.000	0.063
-588.923	-115.124	0.348	0.066
-587.909	-88.281	-0.192	0.058
-586.894	-115.746	0.194	-0.037
-585.879	-200.000	-0.034	-0.201
-584.865	-82.116	0.297	0.098
-583.850	-183.136	0.341	0.006
-582.836	-5.894	0.109	0.075
-581.821	-200.000	0.011	0.183
-580.806	-73.421	0.039	-0.014
-579.792	800.000	0.019	-0.076
-578.777	-200.000	-0.009	-0.113
-577.763	-84.970	-0.172	0.054
-576.748	23.470	-0.032	0.027
-575.733	-75.046	0.081	0.029
-574.719	505.953	-0.120	-0.280
-573.704	186.544	0.111	0.166
-572.690	-200.000	0.015	-0.243
-571.675	-114.948	-0.276	0.053
-570.661	-18.244	0.045	-0.028
-569.646	-90.124	-0.068	0.020
-568.631	-25.173	0.082	0.049
-567.617	18.635	-0.121	-0.097
-566.602	142.595	-0.085	0.113
-565.588	77.526	0.063	0.067
-564.573	167.522	0.310	-0.443
-563.558	250.530	-0.084	-0.144
-562.544	-93.509	-0.159	0.044
-561.529	-130.508	0.026	0.004
-560.515	-27.369	-0.046	-0.027
-559.500	-46.891	0.165	-0.081
-558.485	800.000	-0.043	-0.146
-557.471	49.622	-0.306	-0.289
-556.456	-200.000	-0.027	0.170
-555.442	-200.000	-0.037	0.582
-554.427	211.521	-0.255	-0.403
-553.412	133.973	0.370	0.481
-552.398	-200.000	0.056	0.265
-551.383	-134.321	-0.076	-0.009
-550.369	-129.376	0.100	0.014
-549.354	99.805	0.262	-0.305
-548.339	-21.617	0.205	0.126
-547.325	-63.295	-0.288	0.119
-546.310	-160.779	-0.067	0.004
-545.296	-127.421	-0.376	0.055
-544.281	-200.000	0.031	-0.372
-543.266	-200.000	-0.029	-0.220
-542.252	-200.000	-0.018	-0.350
-541.237	-200.000	-0.045	-0.226
-540.223	-159.272	0.061	-0.003
-539.208	729.286	0.199	0.533
-538.193	-200.000	0.027	-0.194
-537.179	-60.030	0.191	0.082
-536.164	800.000	-0.113	-0.327
-535.150	782.006	0.051	0.141
-534.135	-47.977	-0.041	0.020
-533.121	24.145	-0.219	-0.181
-532.106	99.671	0.095	-0.110
-531.091	-140.226	-0.223	0.023
-530.077	-172.303	0.176	0.006
-529.062	302.083	0.087	-0.162
-528.048	-102.622	0.188	-0.045
-527.033	-7.507	0.262	0.178
-526.018	-19.612	0.299	-0.186
-525.004	-29.395	0.182	0.105
-523.989	-106.007	-0.167	-0.038
-522.975	-200.000	0.025	-0.130
-521.960	-6.800	-0.094	0.064
-520.945	-200.000	0.029	0.377
-519.931	217.885	0.091	0.145
-518.916	-121.276	0.375	-0.063
-517.902	800.000	-0.035	-0.114
-516.887	800.000	0.131	-0.452
-515.872	-200.000	-0.058	-0.276
-514.858	93.252	0.133	0.151
-513.843	-104.886	0.165	0.038
-512.829	181.723	-0.220	-0.325
-511.814	280.912	-0.148	0.265
-510.799	-96.618	0.098	-0.026
-509.785	-132.121	-0.143	0.019
-508.770	-120.482	0.129	0.022
-507.756	74.092	-0.202	0.213
-506.741	-93.691	0.076	-0.021
-505.726	-119.532	-0.307	0.053
-504.712	281.424	0.194	-0.349
-503.697	-22.856	0.426	0.258
-502.683	52.477	0.200	-0.191
-501.668	-120.347	0.035	-0.006
-500.653	253.746	0.069	-0.118
-499.639	-100.442	-0.247	0.061
-498.624	84.924	-0.241	-0.265
-497.610	-109.171	-0.295	-0.063
-496.595	-117.200	0.246	-0.045
-495.581	7.693	0.317	-0.238
-494.566	703.810	0.129	-0.341
-493.551	-200.000	0.029	-0.150
-492.537	-185.275	-0.154	-0.002
-491.522	-200.000	0.021	0.101
-490.508	-37.534	-0.294	-0.157
-489.493	-92.041	-0.274	-0.078
-488.478	-200.000	0.037	0.268
-487.464	695.465	-0.142	-0.374
-486.449	-3.304	-0.135	0.094
-485.435	238.080	0.059	0.099
-484.420	143.512	-0.098	-0.130
-483.405	-18.719	-0.250	0.156
-482.391	800.000	0.066	-0.189
-481.376	-177.006	0.112	-0.003
-480.362	-200.000	-0.042	0.312
-479.347	-200.000	-0.065	0.344
-478.332	28.908	0.171	0.145
-477.318	800.000	-0.058	0.223
-476.303	-66.835	-0.153	-0.061
-475.289	98.766	0.209	0.241
-474.274	63.996	-0.179	0.181
-473.259	-200.000	-0.028	0.200
-472.245	-94.571	-0.338	0.092
-471.230	-93.913	0.110	-0.030
-470.216	-65.521	0.363	0.146
-469.201	406.623	-0.038	0.080
-468.186	367.381	0.083	-0.167
-467.172	143.257	0.133	-0.177
-466.157	-147.666	-0.226	0.019
-465.143	-200.000	-0.004	-0.103
-464.128	217.077	0.074	0.118
-463.113	800.000	0.014	-0.049
-462.099	-107.636	-0.179	0.039
-461.084	-86.931	0.061	-0.019
-460.070	652.240	0.094	-0.240
-459.055	-97.522	-0.265	0.069
-458.040	-200.000	-0.005	0.061
-457.026	287.131	0.112	0.202
-456.011	-135.200	-0.141	0.017
-454.997	564.545	0.067	-0.164
-453.982	-164.553	0.326	0.015
-452.968	41.495	-0.256	0.232
-451.953	-130.418	-0.054	-0.007
-450.938	-200.000	0.045	-0.264
-449.924	-56.202	-0.221	-0.098
-448.909	800.000	0.038	-0.113
-447.895	800.000	-0.092	-0.335
-446.880	800.000	-0.144	0.465
-445.865	-13.502	0.103	0.067
-444.851	-17.490	0.410	-0.258
-443.836	37.465	-0.092	-0.082
-442.822	29.659	-0.126	0.107
-441.807	-157.976	-0.422	0.025
-440.792	705.711	-0.127	-0.334
-439.778	800.000	-0.082	-0.235
-438.763	76.800	0.112	-0.119
-437.749	-200.000	0.030	-0.392
-436.734	800.000	0.020	0.058
-435.719	-200.000	-0.205	0.001
-434.705	-200.000	-0.021	-0.101
-433.690	61.567	0.071	0.071
-432.676	74.862	0.111	0.117
-431.661	-200.000	-0.003	-0.055
-430.646	-33.109	-0.192	-0.107
-429.632	800.000	0.022	-0.094
-428.617	-95.914	-0.059	-0.016
-427.603	577.386	0.133	0.325
-426.588	255.913	-0.061	0.105
-425.573	-128.458	0.044	-0.006
-424.559	-143.785	-0.234	-0.022
-423.544	-200.000	0.005	-0.224
-422.530	800.000	0.134	0.444
-421.515	-79.031	-0.240	0.081
-420.500	-86.107	0.135	0.042
-419.486	800.000	-0.059	-0.168
-418.471	-194.074	-0.144	0.001
-417.457	88.444	-0.124	-0.138
-416.442	49.256	-0.189	0.178
-415.428	-42.554	0.222	0.113
-414.413	-5.664	0.149	-0.102
-413.398	24.182	0.195	-0.161
-412.384	-52.589	-0.094	0.044
-411.369	-200.000	-0.004	0.175
-410.355	-200.000	-0.002	0.572
-409.340	-200.000	-0.040	-0.212
-408.325	204.864	-0.026	0.040
-407.311	380.393	-0.101	-0.207
-406.296	-200.000	0.066	0.445
-405.282	232.153	-0.138	-0.227
-404.267	-77.729	-0.078	-0.027
-403.252	571.298	-0.111	0.271
-402.238	-93.466	0.164	-0.045
-401.223	-108.566	-0.424	0.091
-400.209	-76.049	-0.136	-0.048
-399.194	95.915	-0.054	0.061
-398.179	-132.256	0.127	0.016
-397.165	459.194	-0.104	-0.230
-396.150	-30.263	-0.384	0.218
-395.136	124.347	-0.169	-0.213
-394.121	294.136	0.111	0.202
-393.106	-200.000	-0.001	-0.156
-392.092	800.000	0.052	0.215
-391.077	59.098	0.286	0.281
-390.063	14.177	-0.034	0.026
-389.048	6.396	-0.352	0.261
-388.033	155.668	-0.061	0.084
-387.019	800.000	0.137	0.418
-386.004	-200.000	0.087	0.504
-384.990	-163.153	0.154	0.007
-383.975	-107.002	0.230	0.051
-382.960	-11.744	0.181	-0.119
-381.946	236.576	-0.277	0.458
-380.931	358.277	0.008	-0.016
-379.917	145.361	-0.274	-0.366
-378.902	-4.046	0.111	-0.077
-377.888	800.000	-0.092	-0.348
-376.873	78.585	-0.278	-0.296
-375.858	273.002	-0.242	-0.426
-374.844	726.502	-0.122	0.325
-373.829	121.990	0.130	0.162
-372.815	43.913	0.177	-0.162
-371.800	-66.512	-0.203	0.081
-370.785	284.268	-0.171	-0.308
-369.771	-86.833	0.365	-0.111
-368.756	-200.000	-0.003	0.259
-367.742	34.052	-0.169	-0.147
-366.727	256.504	-0.102	0.175
-365.712	-107.193	0.197	0.043
-364.698	100.044	-0.283	0.327
-363.683	-200.000	-0.010	-0.187
-362.669	68.322	0.100	-0.102
-361.654	372.378	0.076	-0.154
-360.639	-41.248	0.097	0.050
-359.625	-200.000	-0.021	-0.107
-358.610	306.758	-0.112	-0.208
-357.596	-200.000	0.034	0.189
-356.581	-66.202	-0.290	-0.115
-355.566	91.507	0.169	0.190
-354.552	141.112	0.382	0.504
-353.537	-111.422	0.322	0.065
-352.523	-200.000	-0.016	0.293
-351.508	-62.517	-0.342	0.142
-350.493	190.952	-0.089	-0.133
-349.479	-200.000	-0.033	0.215
-348.464	-200.000	0.006	-0.202
-347.450	-148.076	-0.147	0.012
-346.435	21.655	-0.201	-0.163
-345.420	-200.000	0.005	0.021
-344.406	-112.816	0.273	0.054
-343.391	-72.759	-0.400	0.147
-342.377	207.914	0.032	0.049
-341.362	312.638	0.126	-0.236
-340.348	66.716	0.353	0.358
-339.333	643.390	-0.036	0.092
-338.318	442.679	-0.140	0.306
-337.304	136.691	-0.014	0.018
-336.289	-95.681	0.265	0.071
-335.275	2.271	-0.251	0.181
-334.260	396.648	0.054	-0.112
-333.245	485.809	0.225	-0.511
-332.231	441.383	-0.073	0.159
-331.216	-200.000	-0.020	-0.294
-330.202	-2.307	0.270	0.189
-329.187	-58.442	0.102	-0.044
-328.172	-137.165	0.110	0.012
-327.158	-200.000	-0.018	0.334
-326.143	584.751	-0.091	0.223
-325.129	535.047	0.116	-0.273
-324.114	-64.840	0.269	-0.108
-323.099	325.774	0.094	0.179
-322.085	-91.888	0.346	0.098
-321.070	327.645	0.114	-0.217
-320.056	70.307	0.148	-0.152
-319.041	-200.000	-0.040	-0.271
-318.026	-200.000	-0.034	0.288
-317.012	800.000	-0.060	0.171
-315.997	699.302	-0.052	-0.137
-314.983	-200.000	-0.063	-0.428
-313.968	16.139	0.091	0.071
-312.953	509.482	0.125	0.290
-311.939	513.069	-0.065	0.152
-310.924	-162.954	-0.221	-0.011
-309.910	-200.000	0.006	0.122
-308.895	-200.000	0.609	-0.001
-307.880	484.486	0.107	-0.242
-306.866	-80.126	-0.043	0.014
-305.851	-55.215	0.140	-0.063
-304.837	800.000	0.040	-0.115
-303.822	800.000	-0.024	0.073
-302.807	375.049	-0.076	0.155
-301.793	33.751	0.087	-0.076
-300.778	741.305	-0.071	0.190
-299.764	-167.183	-0.199	-0.008
-298.749	-42.920	-0.103	0.052
-297.735	446.244	-0.089	0.195
-296.720	644.765	-0.095	-0.242
-295.705	273.287	0.171	-0.301
-294.691	635.765	-0.062	-0.157
-293.676	-62.155	-0.351	0.146
-292.662	151.253	-0.072	0.097
-291.647	-55.729	0.292	-0.130
-290.632	-174.912	-0.149	0.004
-289.618	-20.952	-0.208	0.127
-288.603	45.606	-0.193	-0.178
-287.589	-200.000	0.013	0.127
-286.574	-200.000	0.011	-0.067
-285.559	271.059	0.108	-0.189
-284.545	-110.040	0.367	0.076
-283.530	800.000	0.079	0.338
-282.516	438.357	0.044	-0.096
-281.501	20.780	-0.280	-0.226
-280.486	-124.071	-0.126	-0.020
-279.472	800.000	0.075	-0.226
-278.457	-118.806	0.173	-0.030
-277.443	-151.118	0.056	0.004
-276.428	-1.776	0.083	0.058
-275.413	-200.000	-0.016	-0.294
-274.399	-25.103	0.170	0.100
-273.384	266.740	-0.179	0.311
-272.370	-23.150	0.299	-0.179
-271.355	800.000	0.065	-0.255
-270.340	287.071	-0.188	-0.338
-269.326	-200.000	-0.004	-0.188
-268.311	-8.583	-0.280	0.187
-267.297	84.859	-0.090	0.098
-266.282	435.642	0.086	0.185
-265.267	28.595	0.103	-0.086
-264.253	42.424	-0.180	-0.162
-263.238	-87.785	0.287	-0.086
-262.224	-200.000	0.005	0.024
-261.209	111.968	-0.060	-0.072
-260.195	-107.096	0.329	-0.072
-259.180	37.659	-0.319	-0.281
-258.165	52.806	0.167	0.158
-257.151	-49.860	-0.212	0.100
-256.136	800.000	0.066	-0.216
-255.122	-121.087	0.330	0.055
-254.107	50.568	0.023	-0.021
-253.092	-109.052	0.271	0.057
-252.078	-200.000	0.003	0.091
-251.063	-93.496	-0.201	0.055
-250.049	283.401	0.112	0.199
-249.034	-73.232	-0.197	0.072
-248.019	-200.000	-0.090	-0.414
-247.005	331.863	0.096	0.185
-245.990	171.680	0.106	0.151
-244.976	-200.000	-0.016	-0.187
-243.961	-74.499	-0.140	-0.050
-242.946	-144.402	0.130	-0.012
-241.932	585.807	0.107	0.261
-240.917	-87.120	0.137	0.041
-239.903	124.030	0.118	-0.147
-238.888	-28.653	0.307	0.175
-237.873	-200.000	0.080	-0.365
-236.859	-20.497	0.166	0.101
-235.844	-161.823	-0.274	-0.014
-234.830	-171.354	-0.236	0.008
-233.815	107.406	-0.243	0.286
-232.800	432.295	0.060	0.129
-231.786	226.971	0.084	0.135
-230.771	701.314	0.160	-0.418
-229.757	89.507	0.452	-0.501
-228.742	800.000	0.061	0.188
-227.727	14.016	-0.144	-0.111
-226.713	-86.226	-0.111	0.034
-225.698	-200.000	-0.001	0.117
-224.684	12.226	0.198	-0.151
-223.669	-200.000	0.043	-0.422
-222.655	-92.987	-0.210	0.058
-221.640	-200.000	-0.011	-0.065
-220.625	738.554	-0.041	-0.110
-219.611	-86.842	-0.270	0.082
-218.596	-200.000	-0.005	0.052
-217.582	-86.459	-0.074	-0.022
-216.567	-46.854	0.035	-0.017
-215.552	-65.076	-0.275	-0.110
-214.538	321.985	-0.134	-0.253
-213.523	57.403	0.180	-0.174
-212.509	-200.000	-0.019	-0.106
-211.494	72.563	0.232	0.240
-210.479	-200.000	-0.050	-0.525
-209.465	436.181	0.062	0.134
-208.450	129.480	-0.130	0.164
-207.436	73.816	0.367	0.381
-206.421	-57.397	-0.187	-0.082
-205.406	-200.000	-0.055	0.329
-204.392	18.668	0.116	-0.092
-203.377	-90.887	0.245	-0.070
-202.363	306.750	-0.099	-0.182
-201.348	800.000	0.149	-0.549
-200.333	-200.000	-0.032	-0.300
-199.319	-101.947	0.220	-0.053
-198.304	-200.000	0.056	0.257
-197.290	-27.497	0.091	-0.053
-196.275	148.200	0.099	-0.133
-195.260	80.096	-0.152	-0.162
-194.246	-129.662	-0.180	0.025
-193.231	282.327	-0.052	-0.092
-192.217	-200.000	0.035	-0.166
-191.202	93.952	0.046	0.052
-190.187	-200.000	-0.005	0.108
-189.173	-9.226	-0.051	-0.034
-188.158	-37.862	-0.086	0.045
-187.144	-67.435	-0.570	-0.222
-186.129	-88.291	-0.231	0.069
-185.114	-8.511	0.121	0.081
-184.100	-200.000	-0.051	-0.315
-183.085	268.932	-0.098	0.170
-182.071	84.919	-0.124	-0.134
-181.056	238.385	-0.153	-0.252
-180.042	800.000	0.093	0.399
-179.027	590.196	0.102	0.250
-178.012	-31.517	-0.388	-0.216
-176.998	23.860	0.082	0.067
-175.983	-200.000	-0.030	-0.250
-174.969	-115.246	-0.299	0.056
-173.954	79.131	-0.145	-0.153
-172.939	-68.617	0.231	0.088
-171.925	-152.027	0.084	-0.006
-170.910	64.011	-0.130	-0.129
-169.896	166.191	-0.016	0.023
-168.881	-200.000	-0.022	-0.138
-167.866	-200.000	-0.049	-0.267
-166.852	800.000	-0.079	-0.253
-165.837	137.276	0.212	-0.274
-164.823	-98.284	0.313	0.080
-163.808	-200.000	0.007	0.337
-162.793	194.565	-0.046	0.069
-161.779	475.840	0.019	0.042
-160.764	355.082	-0.120	0.236
-159.750	-84.198	0.213	0.067
-158.735	-200.000	0.022	0.376
-157.720	34.657	0.244	0.211
-156.706	-40.136	-0.260	0.134
-155.691	-72.918	-0.201	-0.073
-154.677	-98.589	0.179	0.045
-153.662	55.495	0.089	0.085
-152.647	-200.000	0.024	-0.439
-151.633	-200.000	0.045	0.225
-150.618	800.000	0.060	-0.168
-149.604	-200.000	-0.055	0.240
-148.589	-173.376	0.356	-0.011
-147.574	-200.000	-0.006	-0.239
-146.560	-137.693	-0.023	0.003
-145.545	244.458	-0.038	-0.062
-144.531	202.458	-0.072	-0.109
-143.516	-12.051	-0.168	0.109
-142.502	242.485	0.080	0.133
-141.487	220.665	-0.031	-0.049
-140.472	74.805	-0.269	0.280
-139.458	48.097	0.233	0.215
-138.443	-200.000	0.044	-0.373
-137.429	151.218	-0.113	-0.152
-136.414	-73.762	0.174	0.063
-135.399	-145.790	-0.175	0.015
-134.385	-38.943	0.254	-0.132
-133.370	-131.346	-0.254	0.033
-132.356	420.958	-0.068	0.144
-131.341	17.896	0.175	0.138
-130.326	800.000	0.154	-0.555
-129.312	-64.703	0.245	0.098
-128.297	3.103	0.146	-0.105
-127.283	248.621	0.152	-0.254
-126.268	43.009	-0.088	-0.080
-125.253	-43.570	-0.110	0.055
-124.239	800.000	0.063	-0.177
-123.224	-87.414	0.272	0.081
-122.210	-106.607	-0.055	-0.012
-121.195	-77.398	0.183	0.063
