DTS Sentinel unit serial number:	SN413079Multiplexer serial number:	ORYXHardware model number:	OX4-SRSoftware version number:	ORYX F/W v4.00 Oryx Data Collector v3.7.2.0data status	okinstallation	princeton_trtdifferential loss correction	single-endedforward channel	channel 4reverse channel	N/Adate	2019/09/13time	16:17:35forward acquisition time	60.00reverse acquisition time	0.00gamma	496.2192k internal	0.2295k external	0.2295temperature offset calibration	1.0216default loss term (dB/km)	0.3790temperature slope calibration	1.0000multiplexer offset coefficient	1.0000multiplexer slope coefficient	1.0000fibre end	0.00T internal ref (°C)	34.91T ext. ref 1 (°C)	4.86T ext. ref 2 (°C)	31.51length (m)	temperature (°C)	Stokes	anti-Stokes-747.200	281.457	-0.087	0.160
-746.185	213.291	0.114	-0.184
-745.171	16.689	0.200	0.162
-744.156	550.598	-0.113	0.276
-743.142	-200.000	0.007	-0.055
-742.127	-31.246	0.101	-0.058
-741.112	800.000	0.081	-0.245
-740.098	356.079	0.100	-0.203
-739.083	-15.197	0.035	0.023
-738.069	482.427	0.106	0.247
-737.054	-48.809	0.164	-0.080
-736.039	178.974	-0.176	0.263
-735.025	-93.446	0.357	-0.101
-734.010	-200.000	0.019	-0.149
-732.996	-86.805	-0.368	0.115
-731.981	55.481	-0.026	-0.025
-730.966	-17.866	0.135	-0.087
-729.952	-200.000	-0.007	-0.083
-728.937	165.725	-0.166	0.240
-727.923	202.084	-0.072	0.114
-726.908	76.214	-0.068	0.073
-725.894	-78.843	0.191	0.066
-724.879	800.000	-0.064	-0.190
-723.864	-68.410	-0.194	-0.077
-722.850	-200.000	-0.032	-0.304
-721.835	-164.666	0.382	-0.018
-720.821	800.000	0.039	-0.144
-719.806	579.644	-0.117	-0.292
-718.791	-73.603	0.277	0.103
-717.777	81.102	0.240	-0.264
-716.762	193.040	-0.119	-0.184
-715.748	-200.000	-0.026	0.236
-714.733	-82.352	0.114	0.038
-713.718	561.484	0.087	-0.215
-712.704	421.770	-0.269	-0.588
-711.689	-200.000	-0.021	-0.579
-710.675	552.699	-0.099	-0.244
-709.660	-109.358	-0.108	-0.023
-708.645	-72.362	-0.070	-0.026
-707.631	-52.195	0.067	0.032
-706.616	228.508	-0.082	-0.137
-705.602	-18.947	-0.295	0.187
-704.587	71.701	-0.082	-0.087
-703.572	216.470	0.152	-0.246
-702.558	227.432	-0.207	-0.344
-701.543	53.674	0.386	-0.378
-700.529	236.236	-0.107	-0.181
-699.514	-200.000	0.025	-0.483
-698.499	-42.375	-0.512	-0.266
-697.485	-68.294	-0.334	0.132
-696.470	-200.000	0.001	-0.198
-695.456	-92.634	-0.235	0.067
-694.441	800.000	0.029	0.091
-693.426	21.975	0.176	-0.146
-692.412	676.530	0.039	-0.104
-691.397	-200.000	-0.010	0.074
-690.383	-105.498	-0.145	0.034
-689.368	-45.113	-0.217	-0.110
-688.354	123.166	-0.061	-0.078
-687.339	770.189	0.050	0.138
-686.324	109.683	-0.228	-0.278
-685.310	800.000	-0.022	-0.094
-684.295	800.000	0.089	-0.318
-683.281	52.105	-0.098	0.095
-682.266	-16.352	0.095	-0.061
-681.251	-23.084	-0.142	0.087
-680.237	192.182	0.035	0.053
-679.222	-200.000	-0.004	0.035
-678.208	-69.492	-0.129	-0.051
-677.193	-16.504	0.177	-0.114
-676.178	114.385	-0.147	-0.182
-675.164	800.000	0.090	-0.314
-674.149	-96.431	-0.183	0.049
-673.135	-200.000	0.014	0.288
-672.120	-57.890	0.073	-0.032
-671.105	41.095	0.028	0.026
-670.091	86.960	0.120	-0.135
-669.076	-47.250	-0.084	-0.041
-668.062	617.233	-0.034	-0.087
-667.047	181.047	0.068	0.102
-666.032	-200.000	-0.018	-0.198
-665.018	-88.568	-0.106	-0.032
-664.003	480.130	-0.151	-0.348
-662.989	300.724	0.205	-0.385
-661.974	174.355	0.062	-0.091
-660.959	353.541	-0.141	-0.286
-659.945	322.452	-0.224	-0.436
-658.930	-200.000	0.142	-0.000
-657.916	334.730	0.090	-0.177
-656.901	486.835	-0.095	0.221
-655.886	1.857	-0.178	-0.131
-654.872	-200.000	0.042	0.246
-653.857	800.000	-0.030	-0.105
-652.843	95.883	0.156	0.182
-651.828	-22.415	-0.086	-0.053
-650.814	98.590	0.004	0.005
-649.799	55.383	-0.169	0.166
-648.784	-109.382	-0.249	-0.054
-647.770	131.323	-0.097	-0.126
-646.755	-39.041	0.280	0.150
-645.741	89.095	0.037	0.042
-644.726	-107.321	0.299	-0.067
-643.711	-98.252	-0.283	-0.074
-642.697	-43.494	0.167	-0.086
-641.682	-130.595	0.186	0.026
-640.668	-200.000	0.027	0.230
-639.653	-200.000	0.006	0.242
-638.638	37.429	0.172	0.155
-637.624	-25.464	0.148	0.089
-636.609	22.483	-0.181	-0.151
-635.595	545.229	-0.041	-0.100
-634.580	-200.000	-0.040	0.184
-633.565	191.213	0.060	0.092
-632.551	800.000	0.050	0.208
-631.536	-200.000	-0.009	-0.164
-630.522	-50.433	0.228	-0.110
-629.507	-200.000	0.003	0.017
-628.492	-4.914	-0.324	0.227
-627.478	-100.404	0.161	0.041
-626.463	148.779	0.282	-0.388
-625.449	57.748	-0.201	0.200
-624.434	800.000	-0.065	0.193
-623.419	-154.740	0.129	-0.009
-622.405	-200.000	-0.008	0.248
-621.390	15.356	0.199	-0.158
-620.376	479.215	-0.084	-0.194
-619.361	-33.607	-0.087	0.049
-618.346	800.000	0.061	-0.220
-617.332	-200.000	-0.107	-0.497
-616.317	250.747	0.063	0.109
-615.303	-200.000	0.002	0.243
-614.288	800.000	0.050	-0.197
-613.273	-129.048	-0.179	-0.025
-612.259	-114.839	-0.153	0.030
-611.244	800.000	0.061	-0.201
-610.230	-200.000	-0.077	-0.385
-609.215	800.000	-0.101	-0.285
-608.201	139.146	-0.121	0.162
-607.186	213.532	0.020	0.032
-606.171	-117.564	-0.249	0.046
-605.157	-160.462	0.260	-0.014
-604.142	501.388	0.052	-0.123
-603.128	-94.941	-0.227	-0.063
-602.113	103.528	0.277	-0.331
-601.098	-200.000	0.028	-0.196
-600.084	-79.286	0.145	-0.050
-599.069	281.637	0.130	0.237
-598.055	157.852	-0.046	0.065
-597.040	110.385	-0.200	-0.245
-596.025	-23.675	-0.209	-0.127
-595.011	257.446	-0.129	-0.225
-593.996	271.463	-0.045	0.080
-592.982	267.550	-0.083	0.147
-591.967	15.196	-0.292	0.232
-590.952	195.611	0.123	0.189
-589.938	93.254	-0.123	0.141
-588.923	800.000	-0.051	-0.224
-587.909	800.000	0.118	0.377
-586.894	-42.963	0.175	0.090
-585.879	-20.370	0.212	-0.133
-584.865	11.429	-0.222	-0.173
-583.850	6.380	0.234	-0.176
-582.836	-143.400	-0.157	-0.015
-581.821	-200.000	0.019	-0.153
-580.806	23.743	0.261	0.218
-579.792	800.000	-0.066	-0.233
-578.777	-197.251	0.200	-0.001
-577.763	800.000	-0.053	0.150
-576.748	-22.480	0.306	-0.188
-575.733	436.884	0.099	-0.219
-574.719	-151.681	-0.251	-0.019
-573.704	-23.450	-0.109	0.066
-572.690	74.272	-0.258	-0.275
-571.675	-164.361	-0.389	0.018
-570.661	-42.782	-0.058	0.030
-569.646	-42.192	-0.174	0.090
-568.631	356.001	0.159	-0.321
-567.617	46.232	0.210	0.197
-566.602	348.403	0.152	-0.304
-565.588	360.050	0.075	0.152
-564.573	-1.054	-0.175	-0.125
-563.558	-0.728	0.257	-0.185
-562.544	-17.189	-0.085	0.054
-561.529	36.477	0.146	-0.131
-560.515	-75.449	-0.183	0.066
-559.500	-116.150	-0.200	0.038
-558.485	388.866	0.178	0.374
-557.471	-9.802	-0.154	0.104
-556.456	-102.652	-0.280	0.068
-555.442	202.667	0.044	-0.068
-554.427	-127.277	0.020	-0.003
-553.412	-75.797	-0.086	-0.031
-552.398	-38.043	0.297	0.160
-551.383	37.268	0.325	-0.292
-550.369	-200.000	-0.074	0.334
-549.354	73.651	-0.150	0.159
-548.339	-79.819	0.124	0.042
-547.325	-132.958	0.258	0.033
-546.310	219.916	0.140	0.228
-545.296	800.000	0.073	-0.303
-544.281	-107.112	-0.289	-0.065
-543.266	-38.236	-0.165	0.089
-542.252	-200.000	-0.006	0.134
-541.237	-124.355	0.169	-0.027
-540.223	95.911	-0.118	-0.136
-539.208	97.503	-0.132	0.153
-538.193	-48.168	0.202	-0.099
-537.179	-151.749	-0.273	0.020
-536.164	800.000	-0.115	0.444
-535.150	800.000	0.115	0.422
-534.135	-126.302	0.207	0.031
-533.121	-54.773	0.058	0.027
-532.106	-111.418	-0.350	-0.072
-531.091	-41.243	0.226	0.118
-530.077	-57.994	0.047	-0.021
-529.062	-73.209	-0.303	0.113
-528.048	800.000	-0.134	-0.400
-527.033	274.752	-0.142	-0.254
-526.018	-200.000	0.013	0.206
-525.004	-200.000	0.015	0.301
-523.989	-164.564	0.289	-0.013
-522.975	-99.975	-0.280	-0.071
-521.960	-200.000	-0.011	-0.451
-520.945	143.994	-0.148	-0.200
-519.931	-4.561	-0.079	-0.055
-518.916	-78.436	0.226	0.078
-517.902	-28.172	-0.096	0.056
-516.887	-63.028	-0.282	0.118
-515.872	155.031	-0.181	-0.252
-514.858	-200.000	-0.006	-0.469
-513.843	-81.922	0.369	-0.122
-512.829	387.259	-0.026	-0.054
-511.814	-61.926	0.261	0.111
-510.799	194.467	0.094	-0.144
-509.785	800.000	-0.124	-0.354
-508.770	-116.332	-0.214	0.040
-507.756	-200.000	-0.032	0.202
-506.741	-200.000	-0.016	-0.165
-505.726	-200.000	0.017	0.119
-504.712	-80.849	0.293	0.099
-503.697	290.980	-0.038	0.070
-502.683	-98.205	0.192	-0.050
-501.668	-200.000	0.004	-0.029
-500.653	13.851	-0.081	-0.064
-499.639	692.661	-0.091	-0.242
-498.624	153.756	-0.087	-0.120
-497.610	-23.525	-0.204	0.124
-496.595	9.953	-0.116	-0.089
-495.581	-31.543	-0.266	-0.151
-494.566	-176.210	0.129	0.003
-493.551	-43.682	0.068	-0.035
-492.537	-106.732	-0.373	-0.084
-491.522	-87.372	0.223	-0.068
-490.508	-31.231	0.187	0.107
-489.493	-159.886	-0.268	0.015
-488.478	138.328	-0.176	-0.234
-487.464	-60.579	0.276	0.118
-486.449	-88.344	-0.185	0.056
-485.435	250.553	-0.102	0.176
-484.420	-7.807	-0.307	0.210
-483.405	-82.629	-0.212	-0.070
-482.391	216.513	0.248	0.400
-481.376	343.141	0.165	0.328
-480.362	-6.258	-0.376	0.260
-479.347	-200.000	0.031	-0.249
-478.332	-75.312	-0.228	-0.082
-477.318	-200.000	0.032	0.299
-476.303	-132.076	0.325	-0.043
-475.289	-200.000	0.052	0.293
-474.274	-119.958	0.107	0.019
-473.259	-200.000	-0.000	0.095
-472.245	423.816	-0.074	0.162
-471.230	48.234	0.127	-0.120
-470.216	521.364	-0.138	-0.328
-469.201	-116.103	-0.299	-0.056
-468.186	253.529	0.048	0.083
-467.172	-200.000	0.013	-0.152
-466.157	50.150	-0.251	0.239
-465.143	193.361	0.052	-0.080
-464.128	87.277	0.158	-0.177
-463.113	800.000	-0.076	-0.230
-462.099	-200.000	0.019	-0.087
-461.084	164.545	0.032	0.046
-460.070	-140.192	0.302	-0.032
-459.055	187.548	0.165	0.249
-458.040	-30.066	-0.315	0.181
-457.026	-46.243	0.225	-0.112
-456.011	-34.620	-0.236	-0.131
-454.997	390.793	-0.217	0.455
-453.982	-38.120	0.061	-0.033
-452.968	-3.241	0.156	0.110
-451.953	128.259	-0.198	0.255
-450.938	-35.568	-0.232	0.127
-449.924	-200.000	0.008	-0.213
-448.909	295.193	-0.018	0.034
-447.895	-167.637	-0.178	0.007
-446.880	-20.649	-0.097	0.060
-445.865	-10.648	-0.179	0.120
-444.851	97.875	0.067	-0.078
-443.836	-3.272	-0.207	-0.146
-442.822	-125.582	-0.044	-0.007
-441.807	10.334	0.267	-0.205
-440.792	-91.090	0.147	0.043
-439.778	-78.944	0.154	-0.053
-438.763	-25.800	0.214	-0.128
-437.749	-112.885	0.414	-0.083
-436.734	-127.069	-0.148	-0.022
-435.719	800.000	0.071	-0.219
-434.705	134.272	0.156	-0.204
-433.690	438.377	0.112	-0.246
-432.676	-180.702	-0.103	0.002
-431.661	315.989	-0.036	-0.068
-430.646	-200.000	-0.043	-0.223
-429.632	85.028	0.310	0.344
-428.617	323.599	-0.231	-0.445
-427.603	-2.493	0.118	-0.083
-426.588	-37.059	-0.061	0.033
-425.573	-200.000	0.057	0.339
-424.559	-100.262	0.142	-0.036
-423.544	-200.000	-0.001	0.083
-422.530	-5.366	0.158	-0.110
-421.515	185.775	0.271	0.407
-420.500	-200.000	-0.007	0.478
-419.486	172.369	0.266	0.387
-418.471	-54.611	0.246	0.112
-417.457	76.917	0.089	-0.095
-416.442	800.000	0.033	0.123
-415.428	-200.000	0.048	0.217
-414.413	272.411	-0.060	0.107
-413.398	-14.327	-0.252	0.164
-412.384	-13.118	-0.105	0.069
-411.369	-53.678	0.097	0.044
-410.355	164.779	0.179	0.254
-409.340	-100.155	0.115	0.029
-408.325	-93.073	0.081	-0.023
-407.311	-200.000	0.003	-0.281
-406.296	-83.473	0.416	-0.134
-405.282	-124.426	-0.146	0.023
-404.267	61.892	-0.219	0.220
-403.252	641.823	-0.149	0.382
-402.238	-200.000	0.013	-0.207
-401.223	466.468	0.162	0.367
-400.209	-44.773	0.063	0.032
-399.194	-154.329	0.354	-0.024
-398.179	-200.000	0.010	0.078
-397.165	-200.000	0.003	0.086
-396.150	-200.000	0.032	0.275
-395.136	800.000	0.074	-0.317
-394.121	-171.166	-0.119	0.004
-393.106	22.968	0.043	0.035
-392.092	297.992	-0.041	-0.075
-391.077	-27.781	0.027	-0.016
-390.063	-107.300	0.081	-0.018
-389.048	-200.000	-0.004	-0.056
-388.033	1.338	0.075	-0.055
-387.019	530.385	0.081	-0.194
-386.004	-200.000	-0.025	-0.123
-384.990	-77.965	0.098	0.034
-383.975	138.277	0.156	-0.206
-382.960	10.888	-0.312	-0.240
-381.946	-50.741	-0.116	0.055
-380.931	-52.403	0.335	0.156
-379.917	344.767	0.102	-0.202
-378.902	137.406	0.163	0.214
-377.888	-101.796	-0.297	0.073
-376.873	-127.380	-0.381	-0.056
-375.858	26.360	0.215	0.181
-374.844	-85.493	0.149	-0.047
-373.829	-91.191	-0.097	-0.028
-372.815	-54.982	-0.191	0.087
-371.800	14.012	0.276	0.216
-370.785	4.379	-0.271	0.200
-369.771	-200.000	-0.011	0.376
-368.756	-200.000	0.008	-0.046
-367.742	62.199	-0.082	-0.082
-366.727	800.000	0.060	0.203
-365.712	-163.382	0.169	-0.008
-364.698	-186.198	-0.464	-0.007
-363.683	5.990	0.122	0.091
-362.669	-69.725	-0.309	-0.119
-361.654	800.000	-0.104	0.357
-360.639	-88.966	0.020	-0.006
-359.625	-52.573	-0.199	0.092
-358.610	-105.735	-0.180	-0.041
-357.596	-99.527	0.092	-0.023
-356.581	-200.000	0.035	-0.440
-355.566	45.233	0.047	0.043
-354.552	103.430	0.197	0.233
-353.537	-200.000	-0.006	-0.225
-352.523	74.826	0.305	0.324
-351.508	-200.000	0.047	0.230
-350.493	-13.056	-0.101	-0.066
-349.479	64.053	-0.128	-0.130
-348.464	94.561	-0.041	-0.047
-347.450	-92.429	-0.039	0.011
-346.435	-78.939	-0.042	-0.015
-345.420	425.681	-0.097	0.210
-344.406	800.000	-0.062	-0.188
-343.391	434.913	-0.066	-0.145
-342.377	-67.185	-0.223	-0.088
-341.362	2.022	-0.035	-0.025
-340.348	20.166	-0.057	-0.047
-339.333	-148.026	0.157	0.013
-338.318	-125.720	0.177	0.027
-337.304	-27.613	0.267	0.156
-336.289	-119.793	-0.213	0.037
-335.275	320.752	-0.126	-0.241
-334.260	656.289	0.078	-0.200
-333.245	13.005	0.213	-0.166
-332.231	-116.631	-0.332	0.061
-331.216	424.601	-0.177	-0.383
-330.202	476.063	-0.047	0.106
-329.187	-159.598	-0.236	-0.013
-328.172	301.750	-0.105	-0.194
-327.158	-182.416	-0.269	-0.005
-326.143	-200.000	0.057	0.256
-325.129	-32.812	-0.166	0.093
-324.114	-200.000	0.036	0.339
-323.099	-200.000	-0.005	0.073
-322.085	-31.748	-0.405	-0.228
-321.070	-109.214	0.247	0.053
-320.056	-71.430	-0.251	0.094
-319.041	43.918	-0.129	0.119
-318.026	-154.727	-0.178	0.012
-317.012	-200.000	0.008	-0.103
-315.997	-93.691	0.359	-0.099
-314.983	385.685	-0.023	0.047
-313.968	800.000	0.044	0.129
-312.953	495.897	-0.093	0.215
-311.939	31.684	-0.118	0.102
-310.924	-73.572	0.115	-0.042
-309.910	78.268	-0.133	0.143
-308.895	452.514	0.048	-0.106
-307.880	-90.345	0.243	-0.071
-306.866	49.677	0.101	-0.095
-305.851	-149.450	-0.132	0.011
-304.837	-193.212	0.196	-0.002
-303.822	-200.000	-0.005	-0.184
-302.807	-26.495	0.017	-0.010
-301.793	-200.000	0.039	0.346
-300.778	-81.921	0.115	0.038
-299.764	-166.462	0.229	-0.010
-298.749	-200.000	-0.398	0.002
-297.735	39.409	0.333	-0.299
-296.720	223.075	0.192	0.310
-295.705	-70.187	0.235	-0.090
-294.691	-135.460	-0.140	0.017
-293.676	33.667	-0.381	0.332
-292.662	-200.000	0.216	0.000
-291.647	-108.457	0.271	0.059
-290.632	106.957	-0.117	0.140
-289.618	423.562	0.107	-0.232
-288.603	-142.916	0.213	-0.021
-287.589	530.368	0.021	-0.050
-286.574	-35.882	0.240	0.131
-285.559	-164.006	-0.131	0.006
-284.545	-88.885	-0.406	0.121
-283.530	-17.632	0.282	-0.178
-282.516	800.000	0.037	0.109
-281.501	-34.603	-0.248	0.136
-280.486	800.000	0.011	-0.046
-279.472	-163.123	0.282	-0.014
-278.457	778.027	-0.036	0.099
-277.443	-28.322	0.255	-0.147
-276.428	-150.820	0.313	-0.024
-275.413	-67.528	-0.313	-0.123
-274.399	800.000	0.045	0.180
-273.384	-200.000	0.044	0.201
-272.370	800.000	0.044	-0.131
-271.355	212.673	-0.195	0.309
-270.340	706.530	-0.119	0.315
-269.326	-5.753	-0.262	-0.180
-268.311	-28.479	-0.075	-0.043
-267.297	567.069	0.116	0.283
-266.282	-200.000	0.001	0.107
-265.267	-200.000	-0.032	0.159
-264.253	411.855	-0.135	-0.288
-263.238	-69.805	0.269	-0.103
-262.224	-131.930	-0.225	0.029
-261.209	117.651	-0.061	0.076
-260.195	-200.000	0.028	-0.352
-259.180	-121.974	-0.265	-0.044
-258.165	-85.431	-0.194	-0.061
-257.151	-200.000	0.010	-0.267
-256.136	289.144	0.110	-0.200
-255.122	11.080	0.102	-0.079
-254.107	-200.000	0.002	0.038
-253.092	-68.171	0.355	-0.139
-252.078	163.351	0.186	-0.263
-251.063	-126.179	-0.142	0.021
-250.049	-23.753	-0.198	-0.119
-249.034	601.281	-0.056	-0.140
-248.019	-77.255	-0.058	-0.020
-247.005	-200.000	-0.045	-0.241
-245.990	95.978	-0.167	-0.191
-244.976	394.054	-0.082	0.171
-243.961	-36.578	0.088	0.048
-242.946	83.475	0.149	0.163
-241.932	-47.687	0.115	-0.056
-240.917	-27.978	-0.177	0.103
-239.903	-75.720	0.339	-0.121
-238.888	-66.880	0.097	-0.038
-237.873	-39.217	0.043	-0.023
-236.859	800.000	-0.099	-0.414
-235.844	-67.257	0.096	0.038
-234.830	253.167	0.053	0.090
-233.815	-36.397	-0.366	-0.198
-232.800	-107.102	0.252	-0.056
-231.786	-77.804	0.347	0.120
-230.771	62.390	0.329	-0.329
-229.757	-47.376	0.261	0.127
-228.742	-9.371	0.227	-0.152
-227.727	-71.616	0.309	-0.116
-226.713	142.633	0.088	-0.117
-225.698	-62.654	0.523	0.217
-224.684	63.719	-0.306	0.308
-223.669	-100.340	0.042	0.010
-222.655	232.850	-0.099	0.163
-221.640	800.000	-0.039	0.135
-220.625	471.703	-0.081	-0.182
-219.611	-200.000	-0.017	0.191
-218.596	-77.447	-0.132	-0.046
-217.582	-18.001	-0.096	-0.060
-216.567	-83.552	0.395	-0.127
-215.552	2.792	-0.103	0.075
-214.538	-155.705	-0.279	-0.018
-213.523	-56.842	0.115	0.051
-212.509	-94.324	0.196	-0.054
-211.494	-83.344	-0.029	0.009
-210.479	-152.446	-0.344	-0.025
-209.465	-31.549	0.188	-0.106
-208.450	-103.837	0.317	0.074
-207.436	158.777	-0.026	0.036
-206.421	-150.732	0.506	0.039
-205.406	56.908	-0.224	0.219
-204.392	-136.335	-0.027	0.003
-203.377	1.272	0.325	-0.234
-202.363	800.000	0.095	-0.299
-201.348	523.788	0.047	-0.112
-200.333	-8.171	-0.182	0.122
-199.319	501.022	0.023	0.052
-198.304	62.730	0.244	0.244
-197.290	93.827	0.171	-0.194
-196.275	68.036	-0.100	-0.103
-195.260	-9.535	-0.315	0.210
-194.246	-88.009	-0.217	-0.065
-193.231	-64.880	0.042	0.017
-192.217	800.000	0.044	-0.132
-191.202	-42.558	-0.285	0.145
-190.187	-163.508	-0.190	-0.009
-189.173	98.459	0.089	-0.103
-188.158	800.000	-0.023	0.082
-187.144	-84.764	0.310	-0.098
-186.129	-52.986	0.130	0.060
-185.114	-3.342	0.050	-0.035
-184.100	-200.000	0.013	0.104
-183.085	800.000	-0.060	0.243
-182.071	22.283	-0.053	-0.044
-181.056	64.911	-0.036	0.036
-180.042	105.548	0.153	0.180
-179.027	52.518	-0.151	-0.144
-178.012	-53.291	0.145	0.066
-176.998	-140.601	-0.324	0.034
-175.983	50.899	-0.199	-0.189
-174.969	387.513	0.022	-0.045
-173.954	-117.701	-0.119	-0.021
-172.939	97.786	-0.160	0.184
-171.925	45.572	0.263	-0.243
-170.910	-191.027	-0.551	-0.006
-169.896	-110.229	0.181	-0.038
-168.881	385.388	-0.166	-0.343
-167.866	596.705	-0.039	0.095
-166.852	800.000	-0.148	0.440
-165.837	-118.461	0.072	-0.013
-164.823	462.409	0.097	-0.215
-163.808	207.305	-0.047	-0.074
-162.793	164.319	0.185	-0.261
-161.779	-135.568	-0.118	-0.014
-160.764	53.138	0.021	-0.021
-159.750	800.000	-0.058	0.198
-158.735	206.851	-0.174	0.272
-157.720	-136.974	0.262	-0.030
-156.706	-150.202	-0.254	-0.020
-155.691	800.000	-0.083	-0.251
-154.677	487.147	0.175	-0.399
-153.662	331.479	-0.066	-0.126
-152.647	-195.950	-0.216	0.002
-151.633	227.262	-0.133	0.216
-150.618	-200.000	-0.033	0.213
-149.604	-200.000	-0.005	0.198
-148.589	-166.910	0.209	-0.009
-147.574	365.987	0.032	0.064
-146.560	138.480	-0.145	0.190
-145.545	-80.648	-0.071	0.024
-144.531	28.662	0.148	-0.125
-143.516	27.346	-0.098	-0.082
-142.502	-75.012	-0.207	-0.074
-141.487	124.915	-0.042	-0.053
-140.472	-46.449	0.415	-0.203
-139.458	800.000	0.081	0.324
-138.443	-131.161	0.235	-0.031
-137.429	-56.374	0.021	-0.009
-136.414	-200.000	-0.025	0.277
-135.399	176.021	-0.244	0.353
-134.385	573.124	0.091	0.221
-133.370	214.089	-0.175	0.276
-132.356	-32.536	-0.238	0.132
-131.341	-0.436	0.211	0.150
-130.326	-200.000	-0.041	0.274
-129.312	-72.116	0.376	0.139
-128.297	800.000	0.090	0.252
-127.283	-46.598	-0.161	0.079
-126.268	-198.493	-0.191	0.001
-125.253	72.504	0.341	-0.355
-124.239	-10.486	-0.102	-0.068
-123.224	-86.747	0.057	-0.017
-122.210	59.711	0.082	0.081
-121.195	-95.225	0.242	0.065
