DTS Sentinel unit serial number:	SN413079Multiplexer serial number:	ORYXHardware model number:	OX4-SRSoftware version number:	ORYX F/W v4.00 Oryx Data Collector v3.7.2.0data status	okinstallation	princeton_trtdifferential loss correction	single-endedforward channel	channel 4reverse channel	N/Adate	2019/09/15time	12:33:35forward acquisition time	60.00reverse acquisition time	0.00gamma	496.2192k internal	0.2293k external	0.2293temperature offset calibration	1.0017default loss term (dB/km)	0.3790temperature slope calibration	1.0000multiplexer offset coefficient	1.0000multiplexer slope coefficient	1.0000fibre end	0.00T internal ref (°C)	35.27T ext. ref 1 (°C)	5.05T ext. ref 2 (°C)	32.94length (m)	temperature (°C)	Stokes	anti-Stokes-747.200	-60.943	0.091	0.039
-746.185	409.715	-0.096	0.209
-745.171	102.341	0.184	0.221
-744.156	-200.000	-0.006	0.193
-743.142	44.277	-0.013	-0.012
-742.127	141.490	-0.161	-0.218
-741.112	-135.431	0.084	-0.010
-740.098	-95.041	0.024	0.007
-739.083	800.000	0.017	0.072
-738.069	-65.687	-0.247	-0.101
-737.054	-88.301	0.213	0.065
-736.039	17.091	0.237	-0.193
-735.025	-200.000	0.011	-0.240
-734.010	498.478	-0.093	-0.218
-732.996	352.962	-0.047	0.095
-731.981	-98.212	-0.289	0.076
-730.966	45.204	-0.273	-0.258
-729.952	-32.546	0.201	0.114
-728.937	-200.000	-0.027	-0.166
-727.923	694.109	0.106	-0.284
-726.908	37.845	-0.140	-0.127
-725.894	-57.012	-0.256	0.115
-724.879	77.828	-0.168	0.183
-723.864	2.499	0.235	0.174
-722.850	800.000	-0.062	-0.183
-721.835	-1.036	-0.128	-0.093
-720.821	-136.789	-0.068	0.008
-719.806	-42.276	0.271	0.141
-718.791	-21.328	0.415	-0.259
-717.777	183.674	-0.083	0.125
-716.762	-55.277	-0.150	0.069
-715.748	-200.000	-0.007	0.260
-714.733	-134.789	0.192	-0.024
-713.718	-200.000	-0.067	-0.349
-712.704	800.000	0.048	0.147
-711.689	-122.625	-0.056	-0.009
-710.675	-166.465	-0.155	-0.007
-709.660	420.975	0.097	0.211
-708.645	-200.000	0.012	-0.132
-707.631	43.843	0.126	-0.118
-706.616	-87.438	0.456	-0.141
-705.602	-65.941	0.211	0.086
-704.587	-86.028	-0.168	-0.053
-703.572	-54.575	-0.226	0.105
-702.558	-200.000	-0.012	-0.384
-701.543	9.269	-0.214	0.165
-700.529	-107.587	-0.326	-0.073
-699.514	-84.808	0.266	0.086
-698.499	92.485	-0.247	0.285
-697.485	-200.000	0.024	0.184
-696.470	-92.868	-0.125	-0.036
-695.456	380.188	0.122	-0.255
-694.441	-176.210	0.545	0.015
-693.426	152.306	-0.138	-0.192
-692.412	-200.000	-0.035	0.305
-691.397	165.208	-0.173	0.249
-690.383	800.000	-0.086	-0.251
-689.368	-119.972	-0.370	-0.065
-688.354	134.869	-0.177	-0.235
-687.339	-88.344	0.052	-0.016
-686.324	441.763	-0.059	0.132
-685.310	-85.152	0.273	0.087
-684.295	445.653	-0.034	0.077
-683.281	-200.000	0.061	-0.286
-682.266	800.000	-0.099	0.375
-681.251	-200.000	-0.027	0.186
-680.237	3.242	-0.243	0.181
-679.222	-200.000	0.025	0.366
-678.208	800.000	0.038	-0.108
-677.193	-182.452	-0.224	0.004
-676.178	-38.542	-0.263	-0.142
-675.164	323.492	-0.185	-0.359
-674.149	152.669	0.209	-0.291
-673.135	-49.891	0.120	0.058
-672.120	421.678	-0.096	-0.211
-671.105	-200.000	-0.045	0.386
-670.091	18.002	0.064	-0.052
-669.076	66.601	-0.133	0.138
-668.062	-105.115	0.148	0.034
-667.047	230.398	-0.197	0.328
-666.032	153.413	-0.029	0.040
-665.018	-200.000	-0.004	-0.208
-664.003	185.963	-0.059	-0.090
-662.989	800.000	-0.047	0.202
-661.974	-88.048	0.163	-0.050
-660.959	147.235	0.110	-0.152
-659.945	-72.836	0.195	0.073
-658.930	-90.949	0.093	0.027
-657.916	-86.280	0.122	-0.038
-656.901	-99.730	-0.051	-0.013
-655.886	-153.100	-0.304	-0.022
-654.872	-0.392	-0.140	-0.101
-653.857	97.615	-0.157	-0.184
-652.843	80.497	0.088	0.097
-651.828	672.481	-0.042	0.111
-650.814	124.860	0.162	0.208
-649.799	-200.000	-0.004	-0.160
-648.784	0.755	0.290	-0.212
-647.770	-172.993	0.185	0.006
-646.755	-170.246	0.250	-0.009
-645.741	-163.894	-0.508	-0.024
-644.726	-84.755	-0.260	-0.083
-643.711	-72.632	-0.088	-0.033
-642.697	-10.729	0.045	0.030
-641.682	-75.704	-0.179	0.065
-640.668	46.124	0.118	0.112
-639.653	-200.000	-0.030	-0.255
-638.638	-135.582	-0.270	0.033
-637.624	-24.221	-0.324	-0.197
-636.609	-113.349	0.384	0.077
-635.595	317.410	0.042	0.080
-634.580	96.701	0.147	0.171
-633.565	47.856	-0.115	0.110
-632.551	-40.590	-0.132	-0.070
-631.536	33.830	0.158	-0.140
-630.522	788.686	-0.067	-0.187
-629.507	734.410	0.034	0.093
-628.492	-14.803	0.151	0.099
-627.478	-124.954	0.156	0.025
-626.463	-200.000	0.009	-0.082
-625.449	-28.589	-0.133	0.078
-624.434	-73.800	0.106	-0.039
-623.419	800.000	0.031	0.093
-622.405	800.000	-0.147	0.454
-621.390	255.457	-0.014	-0.024
-620.376	-24.084	0.247	0.150
-619.361	47.472	-0.201	0.190
-618.346	-88.291	0.303	-0.092
-617.332	-200.000	0.048	0.260
-616.317	4.738	0.066	-0.049
-615.303	-109.243	0.295	-0.064
-614.288	-45.031	0.411	0.208
-613.273	-200.000	0.004	0.307
-612.259	800.000	-0.105	0.369
-611.244	78.270	-0.158	0.172
-610.230	63.030	0.064	-0.065
-609.215	-84.402	-0.240	0.077
-608.201	172.497	0.157	0.230
-607.186	-59.646	0.283	0.123
-606.171	-32.737	0.381	-0.216
-605.157	-13.338	-0.011	0.007
-604.142	-200.000	-0.013	-0.241
-603.128	800.000	-0.085	-0.277
-602.113	-96.739	0.046	-0.012
-601.098	112.281	0.119	0.147
-600.084	-162.961	-0.155	0.008
-599.069	93.332	-0.128	-0.148
-598.055	52.296	-0.151	0.147
-597.040	-138.549	-0.155	-0.017
-596.025	63.457	0.160	0.163
-595.011	-126.191	0.212	0.032
-593.996	-120.071	0.079	0.014
-592.982	36.655	0.196	0.176
-591.967	-200.000	0.050	0.331
-590.952	-200.000	0.011	-0.075
-589.938	69.849	0.171	-0.180
-588.923	800.000	0.037	-0.120
-587.909	-144.071	-0.230	-0.022
-586.894	-60.443	0.076	0.033
-585.879	456.650	-0.114	0.256
-584.865	277.508	-0.040	0.072
-583.850	-82.081	-0.150	0.050
-582.836	405.257	-0.085	-0.183
-581.821	-134.927	-0.334	-0.041
-580.806	295.431	0.066	-0.123
-579.792	-67.731	0.034	0.014
-578.777	47.224	-0.145	-0.137
-577.763	460.848	0.125	0.284
-576.748	-75.175	0.185	0.067
-575.733	-41.803	-0.219	0.114
-574.719	131.890	0.039	0.051
-573.704	-200.000	0.003	0.173
-572.690	153.242	0.101	-0.141
-571.675	-200.000	0.020	-0.103
-570.661	-20.647	-0.083	-0.052
-569.646	19.741	-0.179	0.146
-568.631	-73.044	-0.262	0.098
-567.617	-178.229	-0.121	0.003
-566.602	147.677	-0.067	0.091
-565.588	800.000	-0.077	-0.261
-564.573	-27.538	-0.134	-0.079
-563.558	177.610	-0.103	-0.152
-562.544	-200.000	0.065	-0.300
-561.529	-200.000	0.010	0.150
-560.515	155.823	-0.072	0.100
-559.500	-77.432	0.232	-0.082
-558.485	-58.729	0.306	-0.134
-557.471	257.799	0.167	0.292
-556.456	154.777	-0.229	0.319
-555.442	-200.000	-0.001	-0.187
-554.427	325.686	-0.137	-0.266
-553.412	-200.000	0.064	-0.293
-552.398	-68.633	0.063	0.025
-551.383	800.000	0.092	-0.262
-550.369	-45.380	0.418	-0.211
-549.354	325.228	-0.081	0.157
-548.339	208.236	0.172	-0.273
-547.325	-200.000	-0.021	-0.102
-546.310	-200.000	-0.009	-0.160
-545.296	-100.832	-0.235	-0.059
-544.281	332.710	-0.045	0.089
-543.266	183.325	-0.145	0.218
-542.252	-171.677	-0.174	0.006
-541.237	-150.574	-0.240	0.019
-540.223	800.000	-0.076	0.259
-539.208	24.380	-0.061	-0.051
-538.193	800.000	0.043	0.183
-537.179	-21.512	-0.022	0.014
-536.164	34.062	0.326	0.289
-535.150	275.834	-0.169	-0.304
-534.135	46.084	0.054	-0.051
-533.121	344.639	-0.048	-0.096
-532.106	205.184	0.062	0.097
-531.091	85.508	-0.185	-0.206
-530.077	265.949	0.090	0.160
-529.062	-162.999	0.274	-0.013
-528.048	-200.000	-0.021	-0.120
-527.033	63.236	-0.087	-0.089
-526.018	-144.111	-0.187	-0.018
-525.004	-139.585	0.235	-0.025
-523.989	-200.000	0.000	0.073
-522.975	-200.000	0.015	-0.404
-521.960	160.078	-0.125	-0.177
-520.945	367.194	-0.182	-0.372
-519.931	543.395	0.008	0.020
-518.916	97.453	-0.203	-0.236
-517.902	-79.891	0.342	-0.117
-516.887	-200.000	0.021	-0.351
-515.872	27.498	0.016	-0.014
-514.858	-200.000	-0.022	0.216
-513.843	-200.000	-0.010	-0.057
-512.829	800.000	0.044	-0.184
-511.814	23.573	-0.168	-0.140
-510.799	-143.811	-0.264	0.025
-509.785	-198.340	-0.312	0.002
-508.770	-59.871	0.150	0.065
-507.756	-57.790	0.242	-0.107
-506.741	-138.819	0.311	-0.034
-505.726	-52.302	-0.126	-0.059
-504.712	-7.366	-0.296	0.203
-503.697	-148.929	-0.293	0.024
-502.683	-93.216	-0.192	-0.054
-501.668	-200.000	-0.036	0.219
-500.653	800.000	-0.025	0.082
-499.639	637.526	0.006	-0.015
-498.624	706.563	0.081	0.217
-497.610	-200.000	0.030	0.310
-496.595	97.579	-0.046	0.053
-495.581	-59.077	-0.061	-0.027
-494.566	75.637	-0.177	0.189
-493.551	-6.470	-0.227	0.157
-492.537	800.000	-0.078	-0.248
-491.522	204.290	-0.124	0.195
-490.508	-34.234	-0.276	0.154
-489.493	137.685	0.139	-0.185
-488.478	-133.904	-0.280	0.035
-487.464	-85.597	0.239	0.075
-486.449	-123.768	0.052	-0.008
-485.435	123.541	-0.054	-0.068
-484.420	-200.000	-0.010	-0.109
-483.405	209.019	-0.015	-0.024
-482.391	517.321	-0.069	-0.162
-481.376	800.000	0.081	-0.261
-480.362	800.000	-0.105	-0.431
-479.347	269.922	-0.064	-0.113
-478.332	-189.929	-0.447	0.005
-477.318	96.170	0.056	-0.065
-476.303	300.940	-0.122	-0.228
-475.289	93.738	-0.031	-0.035
-474.274	43.220	-0.012	-0.011
-473.259	85.704	0.195	0.217
-472.245	800.000	-0.005	-0.018
-471.230	800.000	-0.025	0.069
-470.216	43.119	0.128	0.118
-469.201	83.444	-0.319	0.352
-468.186	57.135	0.126	0.125
-467.172	24.466	-0.138	-0.115
-466.157	37.677	-0.084	-0.075
-465.143	188.438	-0.150	-0.227
-464.128	-6.010	-0.142	0.098
-463.113	216.652	0.129	0.207
-462.099	-92.231	-0.049	0.014
-461.084	787.546	-0.174	0.483
-460.070	-66.075	0.341	-0.138
-459.055	233.702	0.198	0.330
-458.040	-200.000	-0.056	-0.379
-457.026	800.000	0.071	-0.308
-456.011	800.000	-0.038	-0.129
-454.997	22.811	-0.094	0.078
-453.982	-200.000	0.079	-0.354
-452.968	-79.460	-0.210	0.072
-451.953	339.229	0.124	0.244
-450.938	800.000	-0.035	-0.102
-449.924	168.434	0.169	0.243
-448.909	-200.000	-0.023	0.181
-447.895	740.289	-0.139	0.377
-446.880	-200.000	-0.043	-0.245
-445.865	24.329	0.072	-0.060
-444.851	-55.735	0.081	0.037
-443.836	800.000	-0.050	-0.195
-442.822	-200.000	-0.001	-0.043
-441.807	-162.566	-0.145	-0.007
-440.792	-128.136	0.225	0.033
-439.778	-138.389	-0.155	-0.017
-438.763	-90.988	0.268	0.078
-437.749	8.184	0.144	0.109
-436.734	-200.000	-0.002	0.060
-435.719	41.264	-0.202	-0.185
-434.705	68.537	-0.155	0.160
-433.690	26.951	-0.142	-0.121
-432.676	66.655	0.202	0.208
-431.661	-200.000	-0.101	-0.538
-430.646	-126.110	0.197	0.030
-429.632	-200.000	0.001	-0.108
-428.617	662.061	-0.051	-0.133
-427.603	645.877	-0.085	0.220
-426.588	-183.532	0.300	0.005
-425.573	534.553	-0.133	-0.319
-424.559	140.830	-0.137	0.183
-423.544	-90.018	-0.349	-0.103
-422.530	27.926	0.227	0.193
-421.515	-200.000	-0.045	0.225
-420.500	50.917	-0.100	0.096
-419.486	19.796	0.056	0.046
-418.471	41.132	-0.164	-0.150
-417.457	50.205	0.080	0.077
-416.442	13.538	0.131	-0.103
-415.428	12.150	-0.126	0.098
-414.413	702.095	0.074	-0.198
-413.398	148.656	-0.089	0.121
-412.384	800.000	-0.052	0.217
-411.369	88.628	0.113	0.126
-410.355	77.259	0.150	0.161
-409.340	220.950	-0.219	0.355
-408.325	-159.241	-0.137	0.008
-407.311	-137.902	-0.407	-0.046
-406.296	800.000	0.068	-0.196
-405.282	-75.680	0.139	-0.050
-404.267	-94.299	0.243	-0.067
-403.252	-117.476	0.178	0.032
-402.238	259.197	0.063	-0.110
-401.223	-31.058	0.036	-0.021
-400.209	-73.536	-0.078	-0.029
-399.194	494.762	-0.182	-0.421
-398.179	353.185	-0.167	0.334
-397.165	-74.250	-0.325	0.119
-396.150	-134.362	0.211	-0.026
-395.136	-200.000	-0.034	0.156
-394.121	261.108	0.072	0.126
-393.106	-49.643	-0.137	-0.066
-392.092	710.132	0.089	-0.238
-391.077	-68.974	0.501	0.195
-390.063	112.044	-0.147	-0.179
-389.048	-96.623	0.084	-0.022
-388.033	800.000	-0.044	0.125
-387.019	235.839	0.136	0.227
-386.004	-130.549	-0.109	0.015
-384.990	143.845	-0.123	0.165
-383.975	16.134	0.168	-0.133
-382.960	199.726	0.171	-0.265
-381.946	-200.000	-0.005	-0.090
-380.931	-200.000	0.027	-0.149
-379.917	-200.000	-0.047	-0.315
-378.902	320.921	0.186	-0.356
-377.888	279.635	-0.022	-0.040
-376.873	149.667	-0.077	-0.106
-375.858	-60.704	-0.260	0.111
-374.844	466.799	-0.088	-0.199
-373.829	-24.327	-0.105	0.063
-372.815	55.059	-0.163	0.159
-371.800	-2.880	0.109	-0.077
-370.785	212.873	-0.142	0.227
-369.771	-119.201	-0.407	0.072
-368.756	98.061	0.091	-0.105
-367.742	-25.023	-0.143	0.085
-366.727	-200.000	0.007	-0.035
-365.712	800.000	-0.025	0.094
-364.698	-55.073	0.139	-0.063
-363.683	177.304	-0.078	-0.115
-362.669	271.606	-0.124	-0.220
-361.654	-200.000	0.065	-0.468
-360.639	-56.044	-0.146	0.066
-359.625	-200.000	0.011	0.068
-358.610	194.643	-0.054	-0.083
-357.596	-146.199	0.362	0.032
-356.581	800.000	-0.037	0.145
-355.566	-162.914	0.163	-0.008
-354.552	56.044	0.086	-0.084
-353.537	-116.478	-0.143	-0.027
-352.523	-200.000	-0.011	0.084
-351.508	420.159	0.096	-0.207
-350.493	121.796	-0.056	0.071
-349.479	71.818	-0.064	-0.067
-348.464	-200.000	-0.027	-0.126
-347.450	295.355	-0.058	-0.108
-346.435	-99.540	0.408	0.103
-345.420	372.381	-0.045	0.092
-344.406	800.000	0.040	-0.168
-343.391	-33.695	-0.250	-0.139
-342.377	-200.000	0.005	0.028
-341.362	-125.103	0.141	0.022
-340.348	-200.000	0.001	0.286
-339.333	776.201	-0.052	0.142
-338.318	-128.114	0.059	0.009
-337.304	-81.049	0.097	0.032
-336.289	-55.668	0.206	-0.093
-335.275	-200.000	0.086	-0.380
-334.260	784.861	0.123	0.339
-333.245	35.284	-0.072	0.064
-332.231	-200.000	-0.023	-0.160
-331.216	-156.172	0.177	-0.011
-330.202	800.000	-0.037	-0.118
-329.187	-54.321	0.329	-0.150
-328.172	9.548	0.076	-0.058
-327.158	800.000	0.048	0.183
-326.143	-153.743	0.291	-0.020
-325.129	34.162	-0.094	-0.082
-324.114	800.000	-0.017	-0.066
-323.099	279.463	-0.066	0.118
-322.085	-81.138	-0.073	-0.024
-321.070	800.000	-0.070	-0.215
-320.056	-105.886	-0.245	0.056
-319.041	13.408	-0.234	-0.183
-318.026	54.127	0.296	0.286
-317.012	-129.013	0.145	-0.020
-315.997	-200.000	-0.102	-0.475
-314.983	247.883	0.181	0.308
-313.968	-52.966	-0.076	0.035
-312.953	-42.071	-0.192	-0.099
-311.939	-16.751	-0.352	-0.224
-310.924	-42.608	-0.216	0.110
-309.910	800.000	0.045	0.164
-308.895	610.555	0.044	0.110
-307.880	226.374	-0.041	-0.067
-306.866	-200.000	0.003	-0.188
-305.851	800.000	-0.054	-0.162
-304.837	-11.526	-0.123	0.081
-303.822	-97.431	-0.227	0.059
-302.807	276.583	-0.016	-0.029
-301.793	-126.854	-0.116	-0.017
-300.778	758.971	-0.054	-0.146
-299.764	800.000	-0.051	-0.194
-298.749	-119.680	0.114	-0.020
-297.735	-112.659	0.292	0.058
-296.720	-117.485	-0.079	0.014
-295.705	-200.000	-0.032	0.277
-294.691	302.414	0.173	0.322
-293.676	274.223	-0.123	-0.219
-292.662	-92.470	0.196	0.055
-291.647	-59.843	-0.356	0.153
-290.632	442.037	0.077	0.168
-289.618	720.118	-0.037	-0.099
-288.603	95.677	-0.262	-0.301
-287.589	-78.536	-0.171	0.059
-286.574	52.511	-0.179	0.172
-285.559	-58.601	0.144	-0.063
-284.545	-140.397	-0.363	0.038
-283.530	174.510	0.109	-0.159
-282.516	-71.576	0.165	0.062
-281.501	-55.158	0.152	0.069
-280.486	800.000	0.008	-0.028
-279.472	-121.000	0.368	0.062
-278.457	-106.315	0.147	0.033
-277.443	-55.598	0.020	0.009
-276.428	-200.000	0.030	0.316
-275.413	-85.152	-0.026	-0.008
-274.399	-123.201	0.159	-0.026
-273.384	51.142	0.126	0.120
-272.370	175.933	-0.044	-0.064
-271.355	23.986	-0.056	0.046
-270.340	-200.000	0.000	-0.122
-269.326	132.433	0.133	0.172
-268.311	-200.000	-0.043	0.518
-267.297	-12.144	0.273	0.179
-266.282	-169.199	0.133	0.005
-265.267	44.314	0.163	0.150
-264.253	-31.434	0.081	-0.046
-263.238	-84.877	-0.224	0.071
-262.224	-94.382	0.432	0.118
-261.209	707.930	0.051	0.134
-260.195	-6.452	-0.309	0.211
-259.180	17.424	0.185	0.147
-258.165	-103.614	-0.114	-0.027
-257.151	-200.000	0.059	0.372
-256.136	73.712	0.131	-0.138
-255.122	224.753	-0.175	0.285
-254.107	-18.262	-0.121	0.076
-253.092	-200.000	-0.028	-0.262
-252.078	-200.000	0.034	0.336
-251.063	-200.000	0.055	0.350
-250.049	68.594	0.229	0.236
-249.034	359.940	0.108	0.217
-248.019	130.876	0.095	-0.123
-247.005	535.242	-0.116	0.277
-245.990	-40.868	-0.064	0.033
-244.976	-52.283	-0.116	0.054
-243.961	-26.870	0.065	0.038
-242.946	-64.657	0.050	0.020
-241.932	-200.000	-0.033	-0.146
-240.917	418.899	-0.066	-0.142
-239.903	800.000	-0.027	-0.116
-238.888	-36.095	0.126	-0.068
-237.873	105.317	-0.102	-0.121
-236.859	652.942	0.068	0.176
-235.844	-200.000	0.022	-0.126
-234.830	15.929	-0.174	-0.138
-233.815	388.466	0.143	-0.297
-232.800	-200.000	0.003	-0.227
-231.786	263.325	-0.083	-0.144
-230.771	-200.000	0.031	-0.205
-229.757	-92.687	0.110	-0.031
-228.742	6.287	0.091	-0.068
-227.727	-200.000	0.014	-0.108
-226.713	-200.000	-0.004	-0.299
-225.698	354.715	0.109	-0.217
-224.684	-200.000	0.031	-0.161
-223.669	39.859	-0.157	0.141
-222.655	77.318	0.173	0.185
-221.640	800.000	0.071	0.199
-220.625	-56.195	0.209	-0.093
-219.611	800.000	0.062	0.265
-218.596	800.000	0.110	0.384
-217.582	-200.000	0.008	0.317
-216.567	-200.000	0.011	0.377
-215.552	166.255	-0.169	-0.239
-214.538	800.000	0.072	0.282
-213.523	-200.000	-0.056	-0.285
-212.509	-82.729	-0.178	-0.058
-211.494	-158.048	0.140	-0.008
-210.479	-24.945	-0.239	-0.142
-209.465	65.070	-0.345	-0.349
-208.450	184.646	0.055	0.081
-207.436	800.000	-0.137	-0.429
-206.421	-3.298	-0.267	0.186
-205.406	-156.656	0.068	0.004
-204.392	-150.589	0.352	0.027
-203.377	-200.000	0.044	0.256
-202.363	-200.000	0.009	0.206
-201.348	125.763	-0.249	-0.316
-200.333	-200.000	0.063	-0.277
-199.319	-134.397	-0.179	-0.022
-198.304	720.736	-0.101	0.270
-197.290	-200.000	-0.028	0.164
-196.275	-129.412	0.067	-0.009
-195.260	123.327	-0.111	-0.139
-194.246	-65.286	-0.128	-0.051
-193.231	140.929	0.045	0.059
-192.217	193.708	-0.099	0.150
-191.202	-100.441	-0.364	0.090
-190.187	-145.295	0.222	-0.020
-189.173	251.961	0.103	-0.175
-188.158	258.388	-0.159	0.275
-187.144	-29.866	0.208	0.119
-186.129	-200.000	0.022	-0.232
-185.114	-69.416	-0.105	0.040
-184.100	271.621	0.169	-0.298
-183.085	179.297	-0.109	-0.159
-182.071	-102.004	-0.149	-0.036
-181.056	-200.000	0.004	-0.303
-180.042	-63.942	0.462	0.189
-179.027	98.437	0.151	0.174
-178.012	385.334	-0.012	0.024
-176.998	-97.102	0.181	-0.047
-175.983	-110.381	-0.192	-0.040
-174.969	-22.963	0.298	-0.180
-173.954	-23.243	0.216	-0.130
-172.939	-59.201	0.235	0.101
-171.925	-125.333	0.237	0.036
-170.910	468.848	-0.044	0.099
-169.896	-200.000	-0.061	-0.290
-168.881	119.597	-0.087	-0.107
-167.866	170.891	0.062	0.088
-166.852	-7.855	0.226	0.153
-165.837	-34.783	0.199	-0.109
-164.823	-125.221	0.330	0.050
-163.808	345.039	0.131	-0.258
-162.793	598.680	0.072	-0.178
-161.779	-55.691	0.269	0.120
-160.764	282.190	-0.110	0.197
-159.750	268.373	0.118	-0.206
-158.735	29.760	-0.179	0.152
-157.720	-71.301	-0.111	-0.041
-156.706	-87.723	0.233	-0.070
-155.691	-200.000	-0.025	0.406
-154.677	-31.658	-0.234	-0.131
-153.662	-131.727	0.330	0.043
-152.647	355.121	0.058	0.115
-151.633	-157.200	-0.273	0.017
-150.618	782.628	0.057	-0.155
-149.604	-180.781	-0.244	0.005
-148.589	-18.143	0.290	0.181
-147.574	16.637	0.056	-0.044
-146.560	48.546	0.035	-0.033
-145.545	107.140	0.239	-0.284
-144.531	283.377	0.158	0.283
-143.516	-9.126	0.437	0.292
-142.502	-200.000	-0.009	0.090
-141.487	-200.000	0.027	-0.304
-140.472	-200.000	0.004	-0.132
-139.458	-164.102	-0.252	0.012
-138.443	-200.000	0.029	0.216
-137.429	31.501	0.212	-0.182
-136.414	165.367	-0.055	-0.077
-135.399	800.000	0.018	-0.066
-134.385	-177.287	-0.098	0.002
-133.370	-200.000	-0.013	0.223
-132.356	-130.271	0.137	-0.019
-131.341	11.488	0.092	0.070
-130.326	-104.277	0.138	-0.032
-129.312	3.720	-0.007	-0.005
-128.297	-200.000	0.032	-0.163
-127.283	-3.400	-0.358	-0.249
-126.268	219.782	-0.118	0.188
-125.253	-200.000	-0.026	0.250
-124.239	263.475	-0.239	-0.414
-123.224	5.788	0.100	-0.074
-122.210	-9.468	-0.064	0.043
-121.195	-200.000	-0.029	0.263
